2022.09.19 19:37:16
Îáðàçåö: ß÷åéêà LCoV 16-09-2022
Lambda1 = 1.54060
Lambda2 = 1.54439
Lambdam = 1.54186
R = 0.497
2Theta	I

line¹ 0 ;repeat¹ 0
22.1120	603.33
22.1264	617.85
22.1409	507.72
22.1553	491.34
22.1697	606.54
22.1842	605.75
22.1986	610.00
22.2131	558.99
22.2275	566.28
22.2419	619.57
22.2564	613.81
22.2708	604.99
22.2853	596.96
22.2997	634.20
22.3141	686.24
22.3286	622.58
22.3430	580.51
22.3575	589.95
22.3719	499.59
22.3863	521.40
22.4008	503.40
22.4152	545.61
22.4297	633.75
22.4441	619.57
22.4585	626.08
22.4730	638.76
22.4874	566.34
22.5019	517.51
22.5163	591.53
22.5307	586.02
22.5452	487.31
22.5596	510.46
22.5741	600.27
22.5885	606.50
22.6029	526.67
22.6174	541.51
22.6318	502.78
22.6463	533.07
22.6607	658.53
22.6751	569.34
22.6896	599.30
22.7040	644.01
22.7185	530.58
22.7329	519.96
22.7473	493.66
22.7618	549.47
22.7762	572.14
22.7907	578.32
22.8051	621.10
22.8195	600.59
22.8340	536.20
22.8484	539.36
22.8629	569.17
22.8773	497.32
22.8917	461.60
22.9062	521.89
22.9206	488.81
22.9351	511.79
22.9495	524.82
22.9639	499.07
22.9784	479.85
22.9928	532.14
23.0073	535.52
23.0217	605.91
23.0361	541.98
23.0506	568.50
23.0650	614.91
23.0795	546.08
23.0939	556.76
23.1083	521.05
23.1228	569.62
23.1372	666.21
23.1517	539.70
23.1661	603.15
23.1806	522.53
23.1950	509.57
23.2094	563.51
23.2239	481.48
23.2383	600.06
23.2528	576.20
23.2672	466.36
23.2816	538.52
23.2961	497.43
23.3105	563.32
23.3250	553.88
23.3394	579.64
23.3538	566.96
23.3683	509.55
23.3827	578.22
23.3972	545.95
23.4116	477.69
23.4260	512.61
23.4405	577.16
23.4549	556.73
23.4694	526.27
23.4838	618.87
23.4982	553.75
23.5127	613.40
23.5271	555.74
23.5416	542.25
23.5560	563.35
23.5704	493.88
23.5849	612.54
23.5993	573.31
23.6138	546.89
23.6282	531.20
23.6426	607.18
23.6571	585.19
23.6715	542.84
23.6860	545.24
23.7004	544.09
23.7148	571.45
23.7293	566.52
23.7437	530.10
23.7582	569.81
23.7726	573.80
23.7870	595.34
23.8015	512.01
23.8159	572.05
23.8304	603.27
23.8448	546.73
23.8592	517.10
23.8737	590.11
23.8881	467.37
23.9026	559.37
23.9170	592.38
23.9314	496.63
23.9459	536.13
23.9603	588.26
23.9748	565.93
23.9892	535.20
24.0036	597.29
24.0181	552.16
24.0325	527.06
24.0470	577.20
24.0614	597.33
24.0758	527.34
24.0903	598.04
24.1047	497.49
24.1192	599.17
24.1336	594.13
24.1480	552.13
24.1625	605.96
24.1769	544.20
24.1914	550.71
24.2058	591.30
24.2202	541.87
24.2347	615.73
24.2491	552.78
24.2636	559.57
24.2780	589.89
24.2924	530.57
24.3069	551.39
24.3213	570.43
24.3358	588.92
24.3502	547.96
24.3646	532.69
24.3791	555.52
24.3935	527.36
24.4080	516.15
24.4224	588.73
24.4368	569.16
24.4513	575.47
24.4657	546.77
24.4802	544.58
24.4946	512.83
24.5090	578.95
24.5235	547.13
24.5379	553.24
24.5524	585.52
24.5668	549.30
24.5812	559.66
24.5957	550.98
24.6101	583.52
24.6246	600.87
24.6390	490.86
24.6534	563.21
24.6679	563.94
24.6823	534.02
24.6968	570.05
24.7112	554.29
24.7256	515.20
24.7401	529.84
24.7545	519.73
24.7690	540.40
24.7834	537.78
24.7978	575.00
24.8123	592.19
24.8267	538.48
24.8412	538.80
24.8556	509.32
24.8700	537.46
24.8845	511.58
24.8989	518.53
24.9134	568.27
24.9278	547.65
24.9422	542.82
24.9567	533.82
24.9711	489.77
24.9856	530.70
25.0000	553.94
25.0144	551.69
25.0289	597.79
25.0433	548.15
25.0578	506.66
25.0722	512.88
25.0866	561.36
25.1011	550.59
25.1155	550.49
25.1300	561.08
25.1444	501.73
25.1588	520.33
25.1733	523.08
25.1877	516.49
25.2022	479.21
25.2166	520.26
25.2310	546.34
25.2455	507.02
25.2599	517.76
25.2744	501.41
25.2888	536.56
25.3032	524.25
25.3177	512.74
25.3321	553.71
25.3466	516.64
25.3610	527.62
25.3754	505.41
25.3899	500.91
25.4043	514.15
25.4188	533.82
25.4332	535.39
25.4476	479.03
25.4621	531.08
25.4765	584.74
25.4910	574.14
25.5054	530.17
25.5198	527.89
25.5343	511.89
25.5487	552.66
25.5632	512.60
25.5776	529.57
25.5920	535.55
25.6065	543.44
25.6209	542.62
25.6354	517.04
25.6498	537.75
25.6642	565.11
25.6787	575.91
25.6931	574.47
25.7076	543.95
25.7220	485.40
25.7364	539.24
25.7509	511.80
25.7653	517.23
25.7798	536.49
25.7942	515.92
25.8086	503.84
25.8231	505.80
25.8375	534.37
25.8520	544.08
25.8664	546.80
25.8808	511.63
25.8953	566.58
25.9097	557.40
25.9242	564.98
25.9386	548.70
25.9530	519.84
25.9675	532.24
25.9819	510.61
25.9964	538.69
26.0108	501.81
26.0252	525.63
26.0397	563.69
26.0541	533.94
26.0686	481.10
26.0830	503.05
26.0974	531.12
26.1119	539.88
26.1263	534.75
26.1408	478.09
26.1552	527.98
26.1696	508.15
26.1841	539.18
26.1985	523.13
26.2130	525.33
26.2274	542.05
26.2418	537.76
26.2563	510.52
26.2707	520.77
26.2852	533.23
26.2996	541.61
26.3140	531.43
26.3285	516.86
26.3429	514.63
26.3574	516.86
26.3718	512.72
26.3862	537.56
26.4007	498.72
26.4151	493.77
26.4296	517.74
26.4440	520.23
26.4584	505.05
26.4729	516.49
26.4873	507.03
26.5018	535.13
26.5162	541.13
26.5306	525.57
26.5451	538.56
26.5595	565.40
26.5740	538.96
26.5884	536.90
26.6028	549.69
26.6173	561.82
26.6317	547.36
26.6462	517.11
26.6606	492.30
26.6750	511.51
26.6895	522.92
26.7039	559.25
26.7184	532.30
26.7328	506.52
26.7472	499.84
26.7617	507.18
26.7761	511.82
26.7906	542.83
26.8050	536.78
26.8194	515.80
26.8339	514.97
26.8483	518.07
26.8628	520.48
26.8772	522.98
26.8917	520.15
26.9061	530.86
26.9205	510.11
26.9350	517.66
26.9494	551.69
26.9639	536.94
26.9783	496.30
26.9927	529.29
27.0072	530.01
27.0216	563.13
27.0361	521.31
27.0505	498.91
27.0649	521.11
27.0794	522.50
27.0938	505.68
27.1083	485.09
27.1227	491.62
27.1371	565.17
27.1516	545.42
27.1660	540.50
27.1805	515.38
27.1949	533.25
27.2093	527.59
27.2238	466.20
27.2382	494.27
27.2527	512.80
27.2671	509.77
27.2815	510.81
27.2960	513.99
27.3104	520.53
27.3249	547.57
27.3393	519.37
27.3537	520.36
27.3682	539.28
27.3826	493.64
27.3971	497.36
27.4115	543.40
27.4259	554.96
27.4404	499.06
27.4548	515.60
27.4693	550.70
27.4837	542.64
27.4981	539.60
27.5126	546.91
27.5270	490.61
27.5415	494.29
27.5559	552.39
27.5703	516.63
27.5848	541.75
27.5992	532.25
27.6137	481.00
27.6281	495.11
27.6425	562.65
27.6570	554.30
27.6714	541.36
27.6859	538.13
27.7003	556.17
27.7147	546.71
27.7292	551.30
27.7436	511.57
27.7581	528.85
27.7725	509.55
27.7869	541.53
27.8014	489.11
27.8158	532.98
27.8303	495.12
27.8447	500.62
27.8591	536.29
27.8736	522.37
27.8880	508.18
27.9025	512.30
27.9169	508.06
27.9313	519.24
27.9458	537.70
27.9602	543.39
27.9747	533.00
27.9891	529.83
28.0035	510.86
28.0180	509.43
28.0324	496.14
28.0469	496.58
28.0613	512.94
28.0757	478.12
28.0902	502.91
28.1046	504.37
28.1191	540.53
28.1335	512.26
28.1479	472.80
28.1624	511.72
28.1768	542.49
28.1913	510.88
28.2057	493.74
28.2201	482.90
28.2346	518.41
28.2490	522.02
28.2635	522.23
28.2779	503.91
28.2923	504.09
28.3068	504.29
28.3212	519.03
28.3357	534.22
28.3501	492.15
28.3645	523.14
28.3790	511.40
28.3934	496.29
28.4079	504.81
28.4223	501.59
28.4367	503.31
28.4512	494.54
28.4656	502.41
28.4801	501.20
28.4945	516.20
28.5089	489.71
28.5234	500.84
28.5378	520.00
28.5523	529.51
28.5667	508.73
28.5811	490.45
28.5956	510.29
28.6100	506.64
28.6245	486.23
28.6389	547.52
28.6533	533.89
28.6678	486.33
28.6822	582.56
28.6967	560.45
28.7111	523.49
28.7255	546.42
28.7400	497.18
28.7544	546.92
28.7689	546.96
28.7833	551.30
28.7977	531.81
28.8122	515.38
28.8266	494.47
28.8411	513.69
28.8555	476.27
28.8699	527.60
28.8844	523.45
28.8988	496.48
28.9133	493.82
28.9277	531.86
28.9421	519.91
28.9566	523.17
28.9710	497.67
28.9855	542.06
28.9999	550.42
29.0143	500.85
29.0288	483.05
29.0432	466.33
29.0577	471.15
29.0721	496.59
29.0865	513.01
29.1010	518.99
29.1154	568.58
29.1299	515.83
29.1443	509.86
29.1587	535.67
29.1732	494.72
29.1876	503.78
29.2021	515.64
29.2165	497.46
29.2309	490.39
29.2454	549.33
29.2598	531.78
29.2743	500.42
29.2887	503.22
29.3031	472.01
29.3176	485.48
29.3320	506.68
29.3465	482.62
29.3609	494.00
29.3753	501.84
29.3898	513.49
29.4042	530.90
29.4187	507.57
29.4331	518.24
29.4475	537.35
29.4620	519.41
29.4764	505.23
29.4909	523.57
29.5053	518.95
29.5197	498.10
29.5342	527.63
29.5486	495.65
29.5631	514.80
29.5775	499.54
29.5919	508.88
29.6064	522.34
29.6208	493.94
29.6353	497.30
29.6497	519.24
29.6641	504.78
29.6786	517.23
29.6930	502.48
29.7075	523.28
29.7219	499.75
29.7363	506.13
29.7508	510.84
29.7652	507.35
29.7797	512.37
29.7941	509.57
29.8085	531.44
29.8230	537.50
29.8374	524.10
29.8519	534.99
29.8663	523.69
29.8807	517.36
29.8952	510.58
29.9096	521.13
29.9241	488.04
29.9385	490.01
29.9529	516.51
29.9674	563.26
29.9818	524.10
29.9963	535.13
30.0107	525.08
30.0251	497.87
30.0396	490.19
30.0540	498.14
30.0685	516.63
30.0829	496.89
30.0973	500.45
30.1118	482.77
30.1262	529.81
30.1407	502.41
30.1551	527.52
30.1695	533.97
30.1840	520.84
30.1984	528.46
30.2129	518.20
30.2273	539.12
30.2417	522.85
30.2562	515.11
30.2706	503.92
30.2851	503.37
30.2995	495.36
30.3139	477.70
30.3284	516.05
30.3428	520.00
30.3573	525.62
30.3717	514.20
30.3861	518.38
30.4006	536.63
30.4150	562.84
30.4295	526.94
30.4439	517.68
30.4583	512.16
30.4728	540.90
30.4872	609.38
30.5017	593.34
30.5161	625.67
30.5305	682.29
30.5450	732.22
30.5594	765.50
30.5739	780.07
30.5883	742.02
30.6028	703.10
30.6172	734.18
30.6316	749.79
30.6461	719.71
30.6605	686.46
30.6750	643.08
30.6894	619.40
30.7038	581.39
30.7183	565.73
30.7327	562.81
30.7472	557.77
30.7616	533.67
30.7760	540.91
30.7905	545.94
30.8049	538.43
30.8194	532.58
30.8338	528.94
30.8482	530.31
30.8627	531.87
30.8771	538.14
30.8916	539.23
30.9060	552.58
30.9204	523.64
30.9349	491.10
30.9493	533.22
30.9638	518.14
30.9782	498.12
30.9926	509.22
31.0071	521.79
31.0215	508.77
31.0360	491.80
31.0504	514.15
31.0648	529.66
31.0793	522.76
31.0937	485.28
31.1082	500.36
31.1226	510.85
31.1370	492.37
31.1515	478.91
31.1659	492.53
31.1804	509.80
31.1948	516.02
31.2092	520.47
31.2237	495.69
31.2381	541.98
31.2526	510.37
31.2670	529.23
31.2814	514.05
31.2959	527.24
31.3103	547.32
31.3248	511.25
31.3392	540.55
31.3536	544.84
31.3681	504.69
31.3825	520.59
31.3970	506.75
31.4114	481.11
31.4258	542.31
31.4403	471.58
31.4547	476.12
31.4692	489.19
31.4836	512.74
31.4980	526.07
31.5125	523.50
31.5269	509.28
31.5414	502.13
31.5558	519.53
31.5702	535.90
31.5847	524.31
31.5991	553.55
31.6136	505.54
31.6280	499.90
31.6424	519.80
31.6569	507.07
31.6713	491.48
31.6858	487.10
31.7002	516.79
31.7146	503.75
31.7291	493.60
31.7435	509.86
31.7580	513.26
31.7724	520.90
31.7868	521.09
31.8013	485.43
31.8157	480.43
31.8302	495.59
31.8446	525.51
31.8590	506.81
31.8735	544.81
31.8879	526.26
31.9024	534.20
31.9168	514.10
31.9312	537.36
31.9457	542.03
31.9601	513.93
31.9746	484.73
31.9890	457.41
32.0034	494.01
32.0179	511.41
32.0323	510.36
32.0468	483.02
32.0612	542.11
32.0756	547.35
32.0901	540.59
32.1045	561.39
32.1190	469.34
32.1334	451.28
32.1478	451.89
32.1623	479.04
32.1767	497.36
32.1912	465.64
32.2056	472.19
32.2200	510.98
32.2345	484.18
32.2489	505.36
32.2634	458.75
32.2778	492.45
32.2922	509.39
32.3067	491.72
32.3211	507.35
32.3356	562.06
32.3500	511.71
32.3644	485.22
32.3789	510.18
32.3933	512.95
32.4078	511.84
32.4222	525.51
32.4366	527.28
32.4511	514.71
32.4655	524.99
32.4800	489.96
32.4944	508.67
32.5088	485.04
32.5233	499.74
32.5377	508.82
32.5522	513.69
32.5666	515.47
32.5810	498.96
32.5955	504.70
32.6099	506.46
32.6244	499.94
32.6388	496.39
32.6532	490.43
32.6677	516.04
32.6821	495.14
32.6966	515.11
32.7110	539.64
32.7254	479.29
32.7399	482.43
32.7543	510.88
32.7688	510.18
32.7832	504.68
32.7976	507.33
32.8121	494.70
32.8265	497.81
32.8410	479.48
32.8554	520.75
32.8698	511.63
32.8843	545.76
32.8987	526.70
32.9132	539.33
32.9276	492.83
32.9420	511.66
32.9565	494.38
32.9709	514.72
32.9854	501.73
32.9998	498.73
33.0142	508.89
33.0287	526.56
33.0431	493.53
33.0576	495.21
33.0720	513.41
33.0864	515.97
33.1009	463.58
33.1153	483.81
33.1298	502.56
33.1442	469.17
33.1586	497.54
33.1731	491.65
33.1875	475.96
33.2020	494.88
33.2164	546.97
33.2308	506.75
33.2453	495.39
33.2597	495.68
33.2742	469.41
33.2886	489.96
33.3030	480.47
33.3175	505.36
33.3319	499.12
33.3464	528.80
33.3608	493.67
33.3752	480.04
33.3897	489.73
33.4041	494.48
33.4186	501.58
33.4330	486.01
33.4474	556.76
33.4619	531.90
33.4763	478.98
33.4908	504.46
33.5052	469.94
33.5196	500.06
33.5341	486.13
33.5485	493.22
33.5630	535.28
33.5774	525.22
33.5918	490.88
33.6063	518.52
33.6207	509.26
33.6352	520.66
33.6496	486.93
33.6640	508.41
33.6785	498.65
33.6929	482.73
33.7074	526.04
33.7218	516.06
33.7362	514.85
33.7507	499.56
33.7651	480.41
33.7796	521.00
33.7940	514.58
33.8084	511.93
33.8229	491.84
33.8373	524.55
33.8518	523.11
33.8662	517.68
33.8806	501.37
33.8951	485.16
33.9095	478.96
33.9240	444.67
33.9384	508.17
33.9528	509.51
33.9673	509.12
33.9817	480.34
33.9962	486.02
34.0106	496.56
34.0250	504.73
34.0395	492.11
34.0539	517.01
34.0684	496.52
34.0828	495.38
34.0972	509.14
34.1117	500.35
34.1261	548.48
34.1406	519.12
34.1550	505.30
34.1694	509.06
34.1839	504.45
34.1983	492.45
34.2128	489.84
34.2272	522.43
34.2417	493.75
34.2561	484.06
34.2705	517.05
34.2850	490.46
34.2994	533.93
34.3139	501.34
34.3283	497.62
34.3427	491.49
34.3572	472.73
34.3716	454.53
34.3861	489.77
34.4005	495.76
34.4149	486.24
34.4294	482.13
34.4438	503.89
34.4583	517.96
34.4727	501.43
34.4871	484.89
34.5016	501.45
34.5160	512.48
34.5305	502.34
34.5449	519.54
34.5593	535.69
34.5738	516.29
34.5882	516.80
34.6027	527.92
34.6171	516.27
34.6315	527.84
34.6460	501.34
34.6604	511.37
34.6749	518.05
34.6893	475.38
34.7037	474.34
34.7182	490.71
34.7326	509.30
34.7471	495.71
34.7615	507.16
34.7759	526.21
34.7904	517.15
34.8048	526.51
34.8193	522.31
34.8337	512.02
34.8481	499.42
34.8626	496.17
34.8770	521.59
34.8915	503.67
34.9059	518.99
34.9203	489.76
34.9348	519.15
34.9492	498.38
34.9637	485.27
34.9781	522.15
34.9925	533.66
35.0070	522.50
35.0214	508.15
35.0359	520.77
35.0503	510.79
35.0647	506.38
35.0792	514.45
35.0936	511.50
35.1081	495.04
35.1225	485.45
35.1369	493.28
35.1514	523.06
35.1658	516.53
35.1803	491.45
35.1947	479.23
35.2091	528.00
35.2236	520.06
35.2380	532.84
35.2525	503.85
35.2669	490.91
35.2813	520.43
35.2958	509.51
35.3102	510.00
35.3247	518.17
35.3391	518.14
35.3535	529.98
35.3680	524.92
35.3824	507.09
35.3969	507.30
35.4113	498.68
35.4257	528.94
35.4402	536.18
35.4546	541.22
35.4691	525.53
35.4835	546.80
35.4979	517.66
35.5124	519.11
35.5268	536.67
35.5413	533.61
35.5557	530.26
35.5701	530.05
35.5846	516.57
35.5990	535.70
35.6135	545.09
35.6279	523.78
35.6423	529.93
35.6568	557.46
35.6712	563.28
35.6857	621.45
35.7001	679.93
35.7145	722.72
35.7290	682.86
35.7434	621.93
35.7579	607.10
35.7723	604.27
35.7867	637.77
35.8012	670.24
35.8156	706.24
35.8301	648.16
35.8445	642.16
35.8589	703.75
35.8734	774.58
35.8878	939.79
35.9023	1120.25
35.9167	1194.19
35.9311	1356.28
35.9456	1873.43
35.9600	2464.96
35.9745	2429.20
35.9889	2469.18
36.0033	2846.19
36.0178	3095.74
36.0322	2724.62
36.0467	2426.97
36.0611	2158.05
36.0755	1868.00
36.0900	1916.33
36.1044	1706.28
36.1189	1619.13
36.1333	1474.58
36.1477	1181.46
36.1622	1101.98
36.1766	988.35
36.1911	799.60
36.2055	748.43
36.2199	704.42
36.2344	644.18
36.2488	616.42
36.2633	573.68
36.2777	518.94
36.2921	512.34
36.3066	529.59
36.3210	540.40
36.3355	576.83
36.3499	575.93
36.3643	551.38
36.3788	573.60
36.3932	538.65
36.4077	538.39
36.4221	527.28
36.4365	570.04
36.4510	511.79
36.4654	566.52
36.4799	578.32
36.4943	532.40
36.5087	529.19
36.5232	555.54
36.5376	501.76
36.5521	499.59
36.5665	524.60
36.5809	502.82
36.5954	550.14
36.6098	492.55
36.6243	542.41
36.6387	541.25
36.6531	501.10
36.6676	493.40
36.6820	510.85
36.6965	514.43
36.7109	528.41
36.7253	505.55
36.7398	529.86
36.7542	533.61
36.7687	532.90
36.7831	532.76
36.7975	551.52
36.8120	542.35
36.8264	559.28
36.8409	620.28
36.8553	635.63
36.8697	608.99
36.8842	585.18
36.8986	606.02
36.9131	597.20
36.9275	551.99
36.9419	593.32
36.9564	553.46
36.9708	564.20
36.9853	558.02
36.9997	520.48
37.0141	543.82
37.0286	512.11
37.0430	560.02
37.0575	540.33
37.0719	499.96
37.0863	534.98
37.1008	522.85
37.1152	536.28
37.1297	526.95
37.1441	488.83
37.1585	487.43
37.1730	521.54
37.1874	543.39
37.2019	524.08
37.2163	505.52
37.2307	499.84
37.2452	506.47
37.2596	520.01
37.2741	489.12
37.2885	537.19
37.3029	544.81
37.3174	514.65
37.3318	509.53
37.3463	512.96
37.3607	491.66
37.3751	472.00
37.3896	487.50
37.4040	490.38
37.4185	498.03
37.4329	532.83
37.4473	515.61
37.4618	548.75
37.4762	488.84
37.4907	513.19
37.5051	502.00
37.5195	500.07
37.5340	493.09
37.5484	487.72
37.5629	523.46
37.5773	505.99
37.5917	514.18
37.6062	518.57
37.6206	521.58
37.6351	516.19
37.6495	499.06
37.6639	467.63
37.6784	522.11
37.6928	520.10
37.7073	566.43
37.7217	516.31
37.7361	499.27
37.7506	524.21
37.7650	517.08
37.7795	496.73
37.7939	488.98
37.8083	516.75
37.8228	542.73
37.8372	521.55
37.8517	505.81
37.8661	483.14
37.8805	525.57
37.8950	551.15
37.9094	501.74
37.9239	503.46
37.9383	477.56
37.9528	479.29
37.9672	541.92
37.9816	499.28
37.9961	489.50
38.0105	511.98
38.0250	540.59
38.0394	495.35
38.0538	491.18
38.0683	493.50
38.0827	500.58
38.0972	500.21
38.1116	519.16
38.1260	515.49
38.1405	506.51
38.1549	489.80
38.1694	512.54
38.1838	500.28
38.1982	497.23
38.2127	492.13
38.2271	503.15
38.2416	523.41
38.2560	515.11
38.2704	526.93
38.2849	562.49
38.2993	511.21
38.3138	508.36
38.3282	542.06
38.3426	540.31
38.3571	543.20
38.3715	507.81
38.3860	494.30
38.4004	509.68
38.4148	560.09
38.4293	583.18
38.4437	574.23
38.4582	604.60
38.4726	615.99
38.4870	658.54
38.5015	738.66
38.5159	745.15
38.5304	758.53
38.5448	769.41
38.5592	825.11
38.5737	771.09
38.5881	727.60
38.6026	748.05
38.6170	687.85
38.6314	684.40
38.6459	664.92
38.6603	643.33
38.6748	615.76
38.6892	604.09
38.7036	578.71
38.7181	556.31
38.7325	529.11
38.7470	530.02
38.7614	515.79
38.7758	483.52
38.7903	538.27
38.8047	519.53
38.8192	519.22
38.8336	536.81
38.8480	475.42
38.8625	504.63
38.8769	500.28
38.8914	490.45
38.9058	510.48
38.9202	485.39
38.9347	517.74
38.9491	490.33
38.9636	499.10
38.9780	494.32
38.9924	480.82
39.0069	479.64
39.0213	511.19
39.0358	503.10
39.0502	486.01
39.0646	494.91
39.0791	506.88
39.0935	546.51
39.1080	524.39
39.1224	517.38
39.1368	527.74
39.1513	497.36
39.1657	539.89
39.1802	520.70
39.1946	501.45
39.2090	479.82
39.2235	512.20
39.2379	560.24
39.2524	515.97
39.2668	501.50
39.2812	517.15
39.2957	500.96
39.3101	515.07
39.3246	508.77
39.3390	536.26
39.3534	482.17
39.3679	477.03
39.3823	493.00
39.3968	477.17
39.4112	465.24
39.4256	490.35
39.4401	501.41
39.4545	501.57
39.4690	514.93
39.4834	499.41
39.4978	459.40
39.5123	495.01
39.5267	514.82
39.5412	521.98
39.5556	514.25
39.5700	508.15
39.5845	496.93
39.5989	512.44
39.6134	509.93
39.6278	500.36
39.6422	492.54
39.6567	507.17
39.6711	492.98
39.6856	480.89
39.7000	486.99
39.7144	517.54
39.7289	535.85
39.7433	478.32
39.7578	494.60
39.7722	518.78
39.7866	492.99
39.8011	524.22
39.8155	507.30
39.8300	497.21
39.8444	485.94
39.8588	492.15
39.8733	478.38
39.8877	487.05
39.9022	517.21
39.9166	527.86
39.9310	533.69
39.9455	555.71
39.9599	530.77
39.9744	499.40
39.9888	459.99
40.0032	469.81
40.0177	551.39
40.0321	498.80
40.0466	478.27
40.0610	449.49
40.0754	482.13
40.0899	524.00
40.1043	532.91
40.1188	519.90
40.1332	485.96
40.1476	470.54
40.1621	534.89
40.1765	516.63
40.1910	490.34
40.2054	526.90
40.2198	518.07
40.2343	478.23
40.2487	503.05
40.2632	496.28
40.2776	480.70
40.2920	488.03
40.3065	503.30
40.3209	485.92
40.3354	488.07
40.3498	490.01
40.3642	500.62
40.3787	480.54
40.3931	498.30
40.4076	483.01
40.4220	537.02
40.4364	517.55
40.4509	482.47
40.4653	495.94
40.4798	516.87
40.4942	518.40
40.5086	538.27
40.5231	485.22
40.5375	497.99
40.5520	508.44
40.5664	536.06
40.5808	481.01
40.5953	498.10
40.6097	514.20
40.6242	464.01
40.6386	480.69
40.6530	475.33
40.6675	493.52
40.6819	497.46
40.6964	461.57
40.7108	512.75
40.7252	485.38
40.7397	509.31
40.7541	529.76
40.7686	487.80
40.7830	495.90
40.7974	505.23
40.8119	475.52
40.8263	509.79
40.8408	511.99
40.8552	513.22
40.8696	484.33
40.8841	477.81
40.8985	502.60
40.9130	494.66
40.9274	488.92
40.9418	510.18
40.9563	511.42
40.9707	505.69
40.9852	495.01
40.9996	494.37
41.0140	460.96
41.0285	476.36
41.0429	471.69
41.0574	456.29
41.0718	529.56
41.0862	501.16
41.1007	474.85
41.1151	517.30
41.1296	511.50
41.1440	510.71
41.1584	527.11
41.1729	549.31
41.1873	515.54
41.2018	496.43
41.2162	505.42
41.2306	535.54
41.2451	484.41
41.2595	493.24
41.2740	514.58
41.2884	502.90
41.3028	533.62
41.3173	509.03
41.3317	479.65
41.3462	521.25
41.3606	486.69
41.3750	507.67
41.3895	490.32
41.4039	469.39
41.4184	487.36
41.4328	482.79
41.4472	502.09
41.4617	482.14
41.4761	515.35
41.4906	522.12
41.5050	487.84
41.5194	513.80
41.5339	513.86
41.5483	514.17
41.5628	467.88
41.5772	515.84
41.5916	496.08
41.6061	499.71
41.6205	497.87
41.6350	512.60
41.6494	512.20
41.6639	527.87
41.6783	518.87
41.6927	477.41
41.7072	506.41
41.7216	529.27
41.7361	495.87
41.7505	513.82
41.7649	517.85
41.7794	509.74
41.7938	524.49
41.8083	540.49
41.8227	526.28
41.8371	524.44
41.8516	530.63
41.8660	505.18
41.8805	514.08
41.8949	534.67
41.9093	560.68
41.9238	580.23
41.9382	558.17
41.9527	576.45
41.9671	577.30
41.9815	516.93
41.9960	534.05
42.0104	553.19
42.0249	581.17
42.0393	610.75
42.0537	618.97
42.0682	527.69
42.0826	565.36
42.0971	594.33
42.1115	577.93
42.1259	595.11
42.1404	598.77
42.1548	607.72
42.1693	668.22
42.1837	661.91
42.1981	748.56
42.2126	810.82
42.2270	885.11
42.2415	1022.63
42.2559	1178.71
42.2703	1295.37
42.2848	1436.31
42.2992	1470.34
42.3137	1610.79
42.3281	1633.70
42.3425	1590.36
42.3570	1507.43
42.3714	1452.98
42.3859	1347.42
42.4003	1305.20
42.4147	1325.89
42.4292	1263.08
42.4436	1158.05
42.4581	1042.29
42.4725	968.29
42.4869	875.70
42.5014	782.94
42.5158	723.57
42.5303	683.31
42.5447	613.05
42.5591	612.69
42.5736	593.04
42.5880	586.98
42.6025	576.46
42.6169	580.58
42.6313	568.19
42.6458	542.72
42.6602	563.11
42.6747	519.93
42.6891	532.86
42.7035	559.92
42.7180	511.78
42.7324	491.45
42.7469	488.92
42.7613	499.81
42.7757	503.96
42.7902	490.50
42.8046	513.03
42.8191	512.70
42.8335	501.40
42.8479	502.96
42.8624	518.02
42.8768	561.60
42.8913	530.24
42.9057	519.59
42.9201	506.42
42.9346	504.85
42.9490	516.47
42.9635	500.04
42.9779	498.57
42.9923	497.30
43.0068	503.14
43.0212	506.44
43.0357	499.73
43.0501	493.99
43.0645	528.74
43.0790	525.01
43.0934	521.91
43.1079	523.85
43.1223	524.54
43.1367	484.36
43.1512	470.60
43.1656	526.52
43.1801	517.57
43.1945	474.00
43.2089	496.34
43.2234	512.70
43.2378	504.23
43.2523	518.58
43.2667	505.99
43.2811	514.74
43.2956	531.87
43.3100	521.59
43.3245	530.20
43.3389	538.18
43.3533	543.54
43.3678	541.68
43.3822	481.69
43.3967	478.66
43.4111	473.55
43.4255	506.92
43.4400	520.88
43.4544	493.55
43.4689	522.74
43.4833	535.72
43.4977	521.46
43.5122	500.83
43.5266	534.33
43.5411	526.03
43.5555	538.99
43.5699	529.80
43.5844	497.22
43.5988	544.72
43.6133	547.16
43.6277	521.82
43.6421	527.38
43.6566	526.47
43.6710	542.98
43.6855	543.80
43.6999	598.61
43.7143	643.65
43.7288	659.26
43.7432	691.47
43.7577	686.78
43.7721	687.72
43.7865	667.08
43.8010	619.86
43.8154	634.04
43.8299	606.36
43.8443	616.55
43.8587	609.90
43.8732	629.50
43.8876	611.58
43.9021	612.44
43.9165	608.28
43.9309	548.87
43.9454	552.97
43.9598	552.30
43.9743	551.54
43.9887	503.39
44.0031	501.00
44.0176	520.19
44.0320	512.75
44.0465	504.28
44.0609	521.17
44.0753	505.78
44.0898	500.47
44.1042	494.05
44.1187	507.07
44.1331	519.62
44.1475	461.14
44.1620	510.44
44.1764	508.42
44.1909	485.55
44.2053	495.38
44.2197	532.72
44.2342	533.58
44.2486	545.57
44.2631	552.71
44.2775	522.92
44.2919	526.84
44.3064	535.00
44.3208	541.59
44.3353	525.30
44.3497	517.24
44.3641	538.53
44.3786	525.94
44.3930	572.24
44.4075	574.17
44.4219	566.12
44.4363	579.86
44.4508	557.83
44.4652	594.26
44.4797	608.22
44.4941	576.15
44.5085	564.71
44.5230	572.82
44.5374	572.26
44.5519	591.82
44.5663	608.64
44.5807	578.00
44.5952	590.79
44.6096	592.86
44.6241	596.30
44.6385	594.72
44.6529	584.20
44.6674	545.93
44.6818	603.71
44.6963	589.08
44.7107	676.27
44.7251	709.08
44.7396	761.79
44.7540	798.76
44.7685	825.01
44.7829	866.16
44.7973	882.38
44.8118	822.11
44.8262	825.59
44.8407	795.33
44.8551	740.95
44.8695	737.62
44.8840	681.15
44.8984	740.64
44.9129	745.29
44.9273	693.86
44.9417	648.13
44.9562	596.69
44.9706	607.10
44.9851	550.30
44.9995	574.68
45.0139	513.44
45.0284	543.43
45.0428	520.12
45.0573	526.26
45.0717	526.32
45.0861	542.93
45.1006	512.02
45.1150	530.86
45.1295	537.19
45.1439	498.81
45.1583	504.47
45.1728	542.45
45.1872	476.02
45.2017	481.82
45.2161	542.78
45.2305	526.48
45.2450	514.95
45.2594	503.62
45.2739	498.48
45.2883	508.08
45.3028	484.85
45.3172	499.62
45.3316	511.45
45.3461	540.67
45.3605	518.80
45.3750	506.27
45.3894	484.33
45.4038	474.22
45.4183	519.30
45.4327	534.74
45.4472	489.22
45.4616	499.93
45.4760	504.94
45.4905	472.81
45.5049	482.57
45.5194	488.69
45.5338	504.83
45.5482	486.49
45.5627	490.71
45.5771	498.90
45.5916	497.62
45.6060	517.22
45.6204	536.70
45.6349	539.60
45.6493	535.88
45.6638	514.79
45.6782	485.55
45.6926	485.07
45.7071	469.75
45.7215	512.35
45.7360	512.76
45.7504	519.79
45.7648	512.07
45.7793	498.60
45.7937	510.96
45.8082	561.62
45.8226	527.10
45.8370	509.04
45.8515	552.22
45.8659	536.40
45.8804	516.10
45.8948	517.21
45.9092	533.42
45.9237	536.26
45.9381	512.14
45.9526	498.06
45.9670	500.94
45.9814	500.88
45.9959	496.69
46.0103	534.02
46.0248	514.61
46.0392	482.76
46.0536	531.91
46.0681	514.53
46.0825	471.67
46.0970	505.18
46.1114	506.05
46.1258	540.12
46.1403	536.14
46.1547	488.26
46.1692	496.63
46.1836	508.13
46.1980	497.85
46.2125	547.96
46.2269	518.91
46.2414	490.12
46.2558	473.39
46.2702	492.89
46.2847	511.33
46.2991	497.79
46.3136	505.48
46.3280	504.25
46.3424	502.49
46.3569	521.33
46.3713	514.15
46.3858	503.65
46.4002	469.37
46.4146	492.63
46.4291	518.20
46.4435	529.06
46.4580	509.76
46.4724	509.19
46.4868	509.24
46.5013	490.88
46.5157	508.53
46.5302	488.65
46.5446	501.76
46.5590	531.78
46.5735	495.52
46.5879	479.65
46.6024	473.16
46.6168	512.25
46.6312	511.15
46.6457	536.56
46.6601	540.05
46.6746	520.96
46.6890	514.52
46.7034	540.44
46.7179	535.74
46.7323	497.79
46.7468	482.90
46.7612	509.47
46.7756	528.74
46.7901	534.39
46.8045	528.55
46.8190	512.82
46.8334	498.59
46.8478	469.73
46.8623	515.04
46.8767	490.81
46.8912	534.03
46.9056	526.33
46.9200	515.66
46.9345	515.64
46.9489	499.38
46.9634	521.70
46.9778	525.31
46.9922	484.11
47.0067	513.38
47.0211	526.44
47.0356	540.16
47.0500	502.15
47.0644	526.05
47.0789	555.55
47.0933	528.28
47.1078	509.70
47.1222	499.08
47.1366	532.99
47.1511	506.45
47.1655	524.03
47.1800	518.14
47.1944	503.53
47.2088	502.76
47.2233	525.87
47.2377	519.60
47.2522	524.09
47.2666	487.46
47.2810	504.80
47.2955	491.96
47.3099	509.69
47.3244	521.48
47.3388	484.16
47.3532	498.94
47.3677	519.07
47.3821	507.46
47.3966	460.14
47.4110	477.91
47.4254	524.85
47.4399	492.73
47.4543	465.44
47.4688	501.76
47.4832	515.32
47.4976	491.13
47.5121	495.74
47.5265	484.32
47.5410	482.59
47.5554	489.28
47.5698	489.20
47.5843	503.55
47.5987	494.86
47.6132	498.29
47.6276	499.57
47.6420	494.04
47.6565	501.21
47.6709	493.67
47.6854	501.28
47.6998	503.33
47.7142	502.50
47.7287	493.55
47.7431	482.45
47.7576	496.51
47.7720	507.53
47.7864	525.07
47.8009	540.09
47.8153	501.72
47.8298	473.14
47.8442	468.19
47.8586	521.56
47.8731	501.12
47.8875	488.88
47.9020	519.28
47.9164	511.67
47.9308	507.82
47.9453	501.85
47.9597	493.78
47.9742	481.19
47.9886	498.20
48.0030	504.48
48.0175	496.15
48.0319	507.49
48.0464	472.39
48.0608	511.62
48.0752	520.27
48.0897	517.79
48.1041	524.92
48.1186	515.68
48.1330	528.13
48.1474	507.45
48.1619	504.46
48.1763	515.67
48.1908	495.55
48.2052	484.90
48.2196	506.58
48.2341	513.80
48.2485	496.04
48.2630	461.32
48.2774	499.71
48.2918	489.82
48.3063	505.35
48.3207	487.06
48.3352	570.54
48.3496	550.23
48.3640	513.04
48.3785	494.70
48.3929	455.92
48.4074	499.10
48.4218	557.88
48.4362	543.55
48.4507	522.06
48.4651	521.57
48.4796	534.49
48.4940	518.57
48.5084	495.17
48.5229	500.83
48.5373	506.09
48.5518	530.77
48.5662	534.97
48.5806	535.39
48.5951	535.11
48.6095	514.39
48.6240	534.38
48.6384	530.42
48.6528	519.72
48.6673	527.92
48.6817	513.03
48.6962	507.94
48.7106	552.54
48.7250	515.27
48.7395	512.51
48.7539	516.36
48.7684	535.94
48.7828	552.76
48.7972	544.59
48.8117	486.47
48.8261	544.46
48.8406	543.65
48.8550	487.71
48.8694	526.41
48.8839	535.44
48.8983	541.58
48.9128	556.31
48.9272	570.18
48.9416	579.47
48.9561	543.61
48.9705	574.72
48.9850	535.19
48.9994	585.26
49.0139	550.94
49.0283	582.27
49.0427	600.26
49.0572	619.22
49.0716	615.03
49.0861	653.18
49.1005	672.28
49.1149	689.98
49.1294	693.56
49.1438	722.24
49.1583	754.18
49.1727	738.70
49.1871	833.80
49.2016	845.74
49.2160	957.11
49.2305	992.80
49.2449	1154.38
49.2593	1184.62
49.2738	1315.95
49.2882	1355.17
49.3027	1403.59
49.3171	1504.96
49.3315	1601.12
49.3460	1636.71
49.3604	1686.74
49.3749	1678.36
49.3893	1670.94
49.4037	1739.14
49.4182	1685.14
49.4326	1684.43
49.4471	1666.48
49.4615	1645.11
49.4759	1589.20
49.4904	1511.71
49.5048	1425.31
49.5193	1370.84
49.5337	1328.05
49.5481	1212.14
49.5626	1164.24
49.5770	1035.79
49.5915	1014.51
49.6059	937.19
49.6203	847.12
49.6348	839.99
49.6492	798.58
49.6637	756.27
49.6781	709.67
49.6925	727.19
49.7070	709.81
49.7214	645.09
49.7359	647.03
49.7503	638.54
49.7647	603.23
49.7792	587.02
49.7936	568.27
49.8081	568.53
49.8225	604.83
49.8369	550.09
49.8514	558.29
49.8658	566.86
49.8803	550.77
49.8947	547.57
49.9091	573.35
49.9236	535.89
49.9380	591.64
49.9525	573.90
49.9669	539.50
49.9813	548.38
49.9958	544.41
50.0102	537.93
50.0247	542.88
50.0391	539.29
50.0535	513.46
50.0680	506.30
50.0824	523.61
50.0969	516.39
50.1113	510.65
50.1257	525.41
50.1402	532.75
50.1546	506.97
50.1691	503.69
50.1835	528.65
50.1979	505.60
50.2124	509.66
50.2268	507.39
50.2413	513.69
50.2557	531.64
50.2701	533.12
50.2846	528.95
50.2990	518.21
50.3135	511.06
50.3279	518.24
50.3423	499.26
50.3568	482.28
50.3712	513.95
50.3857	507.91
50.4001	516.32
50.4145	540.17
50.4290	515.83
50.4434	506.30
50.4579	488.68
50.4723	498.70
50.4867	504.72
50.5012	539.95
50.5156	527.68
50.5301	510.44
50.5445	529.65
50.5589	523.45
50.5734	515.50
50.5878	508.85
50.6023	505.09
50.6167	512.77
50.6311	537.27
50.6456	487.25
50.6600	485.72
50.6745	510.05
50.6889	495.34
50.7033	508.24
50.7178	517.86
50.7322	463.40
50.7467	511.48
50.7611	514.56
50.7755	530.97
50.7900	525.26
50.8044	531.86
50.8189	522.01
50.8333	512.61
50.8477	515.41
50.8622	516.14
50.8766	523.52
50.8911	528.51
50.9055	518.95
50.9199	503.53
50.9344	490.70
50.9488	516.69
50.9633	542.27
50.9777	511.86
50.9921	516.01
51.0066	487.08
51.0210	510.15
51.0355	485.79
51.0499	491.61
51.0643	526.57
51.0788	512.70
51.0932	534.33
51.1077	492.06
51.1221	465.48
51.1365	494.06
51.1510	474.40
51.1654	475.49
51.1799	493.73
51.1943	499.72
51.2087	512.22
51.2232	505.85
51.2376	502.73
51.2521	493.03
51.2665	460.74
51.2809	487.61
51.2954	496.73
51.3098	531.44
51.3243	543.83
51.3387	500.99
51.3531	517.17
51.3676	514.66
51.3820	493.26
51.3965	504.04
51.4109	489.26
51.4253	501.42
51.4398	494.02
51.4542	495.30
51.4687	522.22
51.4831	529.38
51.4975	506.89
51.5120	468.73
51.5264	503.18
51.5409	527.02
51.5553	514.44
51.5697	478.52
51.5842	479.46
51.5986	477.25
51.6131	477.42
51.6275	480.85
51.6419	503.33
51.6564	482.58
51.6708	464.67
51.6853	475.70
51.6997	532.27
51.7141	502.34
51.7286	461.27
51.7430	510.17
51.7575	490.66
51.7719	505.16
51.7863	516.09
51.8008	498.87
51.8152	512.65
51.8297	493.71
51.8441	508.25
51.8585	505.07
51.8730	525.56
51.8874	512.37
51.9019	494.68
51.9163	504.11
51.9307	482.75
51.9452	497.48
51.9596	499.50
51.9741	503.37
51.9885	494.33
52.0029	466.87
52.0174	525.76
52.0318	480.22
52.0463	508.14
52.0607	525.43
52.0751	545.08
52.0896	499.62
52.1040	480.09
52.1185	539.76
52.1329	544.14
52.1473	500.27
52.1618	489.58
52.1762	510.46
52.1907	501.49
52.2051	521.64
52.2195	488.01
52.2340	531.65
52.2484	491.92
52.2629	539.85
52.2773	537.41
52.2917	503.22
52.3062	522.11
52.3206	524.57
52.3351	518.90
52.3495	517.89
52.3639	495.93
52.3784	522.36
52.3928	488.85
52.4073	480.45
52.4217	517.79
52.4361	531.39
52.4506	525.29
52.4650	517.67
52.4795	525.19
52.4939	515.13
52.5083	519.73
52.5228	530.93
52.5372	516.00
52.5517	516.10
52.5661	492.39
52.5805	520.21
52.5950	499.29
52.6094	511.88
52.6239	501.82
52.6383	535.81
52.6527	533.46
52.6672	509.61
52.6816	502.38
52.6961	521.70
52.7105	492.47
52.7250	526.94
52.7394	505.06
52.7538	537.46
52.7683	504.38
52.7827	516.42
52.7972	490.37
52.8116	508.78
52.8260	498.37
52.8405	505.96
52.8549	513.69
52.8694	502.62
52.8838	531.53
52.8982	543.81
52.9127	528.98
52.9271	529.36
52.9416	500.40
52.9560	500.81
52.9704	490.70
52.9849	493.53
52.9993	488.15
53.0138	522.82
53.0282	529.19
53.0426	534.32
53.0571	519.36
53.0715	518.87
53.0860	554.71
53.1004	498.45
53.1148	502.63
53.1293	484.09
53.1437	529.13
53.1582	529.35
53.1726	525.41
53.1870	498.71
53.2015	490.72
53.2159	479.36
53.2304	495.13
53.2448	478.21
53.2592	486.85
53.2737	500.57
53.2881	550.59
53.3026	536.65
53.3170	545.91
53.3314	529.22
53.3459	509.41
53.3603	487.57
53.3748	538.93
53.3892	515.89
53.4036	531.75
53.4181	518.33
53.4325	544.84
53.4470	507.27
53.4614	521.17
53.4758	535.67
53.4903	483.63
53.5047	486.91
53.5192	510.35
53.5336	529.09
53.5480	521.28
53.5625	502.36
53.5769	512.01
53.5914	506.74
53.6058	522.35
53.6202	510.42
53.6347	534.35
53.6491	554.36
53.6636	519.24
53.6780	535.91
53.6924	513.34
53.7069	549.90
53.7213	524.43
53.7358	524.06
53.7502	516.96
53.7646	522.07
53.7791	499.59
53.7935	539.50
53.8080	527.94
53.8224	538.77
53.8368	553.09
53.8513	508.30
53.8657	519.13
53.8802	500.84
53.8946	506.82
53.9090	533.47
53.9235	514.46
53.9379	575.03
53.9524	549.42
53.9668	518.12
53.9812	518.96
53.9957	505.37
54.0101	493.04
54.0246	537.55
54.0390	517.20
54.0534	527.84
54.0679	540.35
54.0823	547.33
54.0968	555.04
54.1112	500.51
54.1256	530.14
54.1401	532.61
54.1545	523.82
54.1690	538.74
54.1834	553.57
54.1978	535.59
54.2123	558.41
54.2267	579.33
54.2412	573.28
54.2556	592.46
54.2700	610.36
54.2845	599.86
54.2989	619.15
54.3134	659.51
54.3278	649.83
54.3422	615.44
54.3567	580.11
54.3711	570.55
54.3856	558.21
54.4000	558.84
54.4144	620.78
54.4289	607.86
54.4433	575.40
54.4578	589.63
54.4722	608.52
54.4866	599.98
54.5011	563.79
54.5155	540.43
54.5300	527.88
54.5444	538.92
54.5588	555.24
54.5733	591.49
54.5877	533.00
54.6022	532.75
54.6166	548.86
54.6310	562.20
54.6455	529.82
54.6599	497.02
54.6744	499.53
54.6888	522.72
54.7032	540.17
54.7177	514.27
54.7321	517.26
54.7466	518.83
54.7610	530.51
54.7754	545.64
54.7899	515.27
54.8043	475.60
54.8188	530.36
54.8332	515.71
54.8476	495.72
54.8621	515.32
54.8765	557.73
54.8910	543.17
54.9054	562.18
54.9198	505.90
54.9343	512.31
54.9487	509.90
54.9632	493.16
54.9776	494.99
54.9920	518.14
55.0065	491.86
55.0209	534.00
55.0354	520.80
55.0498	494.42
55.0642	517.64
55.0787	540.87
55.0931	525.14
55.1076	525.66
55.1220	547.71
55.1364	513.67
55.1509	520.50
55.1653	527.11
55.1798	508.02
55.1942	487.40
55.2086	526.56
55.2231	562.41
55.2375	544.77
55.2520	524.72
55.2664	513.82
55.2808	520.22
55.2953	529.38
55.3097	497.98
55.3242	509.49
55.3386	508.10
55.3530	531.95
55.3675	536.12
55.3819	497.99
55.3964	497.88
55.4108	516.66
55.4252	529.16
55.4397	505.61
55.4541	497.86
55.4686	535.54
55.4830	489.44
55.4974	511.22
55.5119	513.75
55.5263	512.88
55.5408	519.13
55.5552	507.90
55.5696	528.82
55.5841	528.48
55.5985	520.38
55.6130	521.82
55.6274	538.22
55.6418	539.58
55.6563	512.44
55.6707	512.68
55.6852	532.31
55.6996	530.31
55.7140	537.39
55.7285	513.69
55.7429	515.07
55.7574	505.32
55.7718	533.00
55.7862	523.78
55.8007	548.58
55.8151	534.53
55.8296	521.18
55.8440	504.62
55.8584	509.57
55.8729	541.03
55.8873	549.39
55.9018	553.69
55.9162	533.56
55.9306	541.69
55.9451	545.90
55.9595	505.64
55.9740	512.18
55.9884	563.42
56.0028	519.50
56.0173	523.03
56.0317	525.62
56.0462	530.69
56.0606	590.62
56.0750	519.47
56.0895	542.18
56.1039	519.78
56.1184	541.54
56.1328	526.66
56.1472	493.39
56.1617	509.21
56.1761	537.01
56.1906	511.54
56.2050	505.19
56.2194	508.92
56.2339	522.12
56.2483	507.87
56.2628	508.21
56.2772	525.32
56.2916	533.38
56.3061	521.11
56.3205	534.27
56.3350	547.74
56.3494	530.91
56.3639	555.58
56.3783	514.01
56.3927	521.35
56.4072	496.18
56.4216	531.29
56.4361	533.26
56.4505	523.81
56.4649	536.40
56.4794	533.02
56.4938	534.69
56.5083	532.37
56.5227	556.78
56.5371	516.76
56.5516	520.42
56.5660	541.90
56.5805	552.75
56.5949	541.74
56.6093	521.79
56.6238	543.22
56.6382	534.12
56.6527	518.52
56.6671	479.54
56.6815	470.51
56.6960	523.51
56.7104	525.14
56.7249	493.86
56.7393	545.62
56.7537	535.60
56.7682	536.38
56.7826	565.60
56.7971	467.16
56.8115	520.68
56.8259	507.55
56.8404	520.73
56.8548	510.51
56.8693	515.83
56.8837	509.85
56.8981	533.91
56.9126	531.25
56.9270	540.85
56.9415	519.61
56.9559	534.45
56.9703	537.61
56.9848	511.90
56.9992	572.23
57.0137	515.24
57.0281	509.38
57.0425	520.89
57.0570	513.95
57.0714	525.64
57.0859	540.21
57.1003	509.81
57.1147	563.90
57.1292	562.12
57.1436	488.48
57.1581	507.43
57.1725	509.19
57.1869	531.34
57.2014	546.94
57.2158	522.30
57.2303	540.13
57.2447	527.98
57.2591	507.18
57.2736	518.78
57.2880	535.90
57.3025	502.32
57.3169	503.79
57.3313	535.85
57.3458	544.16
57.3602	505.90
57.3747	523.60
57.3891	571.98
57.4035	515.75
57.4180	499.25
57.4324	531.21
57.4469	525.21
57.4613	506.33
57.4757	533.91
57.4902	552.09
57.5046	510.98
57.5191	543.10
57.5335	544.50
57.5479	532.01
57.5624	519.43
57.5768	548.92
57.5913	533.69
57.6057	538.34
57.6201	549.36
57.6346	524.99
57.6490	538.62
57.6635	548.20
57.6779	527.56
57.6923	494.24
57.7068	570.07
57.7212	568.13
57.7357	513.96
57.7501	540.36
57.7645	523.17
57.7790	606.89
57.7934	611.47
57.8079	665.43
57.8223	639.85
57.8367	649.25
57.8512	681.95
57.8656	713.66
57.8801	758.36
57.8945	724.36
57.9089	746.34
57.9234	754.99
57.9378	686.94
57.9523	659.52
57.9667	688.69
57.9811	686.64
57.9956	667.04
58.0100	683.47
58.0245	673.08
58.0389	682.96
58.0533	682.54
58.0678	659.04
58.0822	640.56
58.0967	627.50
58.1111	606.28
58.1255	626.15
58.1400	580.13
58.1544	558.55
58.1689	555.23
58.1833	555.44
58.1977	574.01
58.2122	546.12
58.2266	533.84
58.2411	565.05
58.2555	578.03
58.2699	551.83
58.2844	534.93
58.2988	510.89
58.3133	536.14
58.3277	562.75
58.3421	539.52
58.3566	538.23
58.3710	528.62
58.3855	506.58
58.3999	494.69
58.4143	504.99
58.4288	576.29
58.4432	516.48
58.4577	494.86
58.4721	543.20
58.4865	551.08
58.5010	517.82
58.5154	525.99
58.5299	506.60
58.5443	510.58
58.5587	523.91
58.5732	517.68
58.5876	534.21
58.6021	557.07
58.6165	582.04
58.6309	540.56
58.6454	537.50
58.6598	534.01
58.6743	528.90
58.6887	512.75
58.7031	540.36
58.7176	542.60
58.7320	507.63
58.7465	515.02
58.7609	533.58
58.7753	558.34
58.7898	532.22
58.8042	540.28
58.8187	553.17
58.8331	521.50
58.8475	502.73
58.8620	521.34
58.8764	518.98
58.8909	501.33
58.9053	516.08
58.9197	517.65
58.9342	528.32
58.9486	522.65
58.9631	512.18
58.9775	487.71
58.9919	539.83
59.0064	522.52
59.0208	551.29
59.0353	541.98
59.0497	544.44
59.0641	543.21
59.0786	513.12
59.0930	563.28
59.1075	523.24
59.1219	541.69
59.1363	560.51
59.1508	544.87
59.1652	530.43
59.1797	499.35
59.1941	518.08
59.2085	509.63
59.2230	536.47
59.2374	522.80
59.2519	529.21
59.2663	526.37
59.2807	529.45
59.2952	539.53
59.3096	564.31
59.3241	602.67
59.3385	591.09
59.3529	617.74
59.3674	553.20
59.3818	556.33
59.3963	537.39
59.4107	565.52
59.4251	610.98
59.4396	556.92
59.4540	536.93
59.4685	584.03
59.4829	597.46
59.4973	549.52
59.5118	548.36
59.5262	566.00
59.5407	535.07
59.5551	546.42
59.5695	546.01
59.5840	510.38
59.5984	557.15
59.6129	565.56
59.6273	510.48
59.6417	554.38
59.6562	534.13
59.6706	526.91
59.6851	518.30
59.6995	531.65
59.7139	510.35
59.7284	520.34
59.7428	515.69
59.7573	512.49
59.7717	520.53
59.7861	548.39
59.8006	501.50
59.8150	539.98
59.8295	529.52
59.8439	531.78
59.8583	561.07
59.8728	564.71
59.8872	556.96
59.9017	564.30
59.9161	555.32
59.9305	520.53
59.9450	573.06
59.9594	570.54
59.9739	540.81
59.9883	512.70
60.0027	518.65
60.0172	546.88
60.0316	521.64
60.0461	518.21
60.0605	552.98
60.0750	531.84
60.0894	523.95
60.1038	503.18
60.1183	558.57
60.1327	579.88
60.1472	526.19
60.1616	533.15
60.1760	546.49
60.1905	526.10
60.2049	523.85
60.2194	535.17
60.2338	561.37
60.2482	561.41
60.2627	535.99
60.2771	567.90
60.2916	553.72
60.3060	554.51
60.3204	521.09
60.3349	565.43
60.3493	564.42
60.3638	583.10
60.3782	521.03
60.3926	519.52
60.4071	525.49
60.4215	511.25
60.4360	559.74
60.4504	550.94
60.4648	545.99
60.4793	553.51
60.4937	562.85
60.5082	518.28
60.5226	523.96
60.5370	549.57
60.5515	552.43
60.5659	531.15
60.5804	530.19
60.5948	535.31
60.6092	585.38
60.6237	543.42
60.6381	542.77
60.6526	552.66
60.6670	542.27
60.6814	529.16
60.6959	520.41
60.7103	560.35
60.7248	549.63
60.7392	539.97
60.7536	536.22
60.7681	575.55
60.7825	577.89
60.7970	563.30
60.8114	547.27
60.8258	551.75
60.8403	540.97
60.8547	520.40
60.8692	523.49
60.8836	557.58
60.8980	533.68
60.9125	512.40
60.9269	537.00
60.9414	553.04
60.9558	543.48
60.9702	634.19
60.9847	542.75
60.9991	542.45
61.0136	586.24
61.0280	542.32
61.0424	553.47
61.0569	539.30
61.0713	571.09
61.0858	556.38
61.1002	569.06
61.1146	553.90
61.1291	534.06
61.1435	529.60
61.1580	531.86
61.1724	555.34
61.1868	545.10
61.2013	547.75
61.2157	530.68
61.2302	518.34
61.2446	524.93
61.2590	529.71
61.2735	528.16
61.2879	529.90
61.3024	538.32
61.3168	552.49
61.3312	544.77
61.3457	550.05
61.3601	497.30
61.3746	535.59
61.3890	520.04
61.4034	553.92
61.4179	527.54
61.4323	578.85
61.4468	534.61
61.4612	533.35
61.4756	586.41
61.4901	570.37
61.5045	552.50
61.5190	494.50
61.5334	562.22
61.5478	567.04
61.5623	570.45
61.5767	532.18
61.5912	526.74
61.6056	562.49
61.6200	507.76
61.6345	544.84
61.6489	545.42
61.6634	532.92
61.6778	522.50
61.6922	546.43
61.7067	598.66
61.7211	580.31
61.7356	548.80
61.7500	569.11
61.7644	556.51
61.7789	533.66
61.7933	552.38
61.8078	551.98
61.8222	557.72
61.8366	551.64
61.8511	549.79
61.8655	573.97
61.8800	566.46
61.8944	567.10
61.9088	592.28
61.9233	531.78
61.9377	560.21
61.9522	584.74
61.9666	560.76
61.9810	590.48
61.9955	559.92
62.0099	542.18
62.0244	587.82
62.0388	587.12
62.0532	546.06
62.0677	547.89
62.0821	577.97
62.0966	567.60
62.1110	548.20
62.1254	530.75
62.1399	539.55
62.1543	547.90
62.1688	587.26
62.1832	570.31
62.1976	550.48
62.2121	532.52
62.2265	512.57
62.2410	547.89
62.2554	583.83
62.2698	545.44
62.2843	510.32
62.2987	525.15
62.3132	532.22
62.3276	527.22
62.3420	531.09
62.3565	540.81
62.3709	543.83
62.3854	526.62
62.3998	550.49
62.4142	528.53
62.4287	551.34
62.4431	507.45
62.4576	514.15
62.4720	566.82
62.4864	570.18
62.5009	535.89
62.5153	523.90
62.5298	544.77
62.5442	528.03
62.5586	557.67
62.5731	567.49
62.5875	612.03
62.6020	572.48
62.6164	567.97
62.6308	583.90
62.6453	572.83
62.6597	543.07
62.6742	543.02
62.6886	547.61
62.7030	599.28
62.7175	559.78
62.7319	530.78
62.7464	531.32
62.7608	523.63
62.7752	567.71
62.7897	566.04
62.8041	556.57
62.8186	555.57
62.8330	567.59
62.8474	568.64
62.8619	561.68
62.8763	541.32
62.8908	550.47
62.9052	583.69
62.9196	558.12
62.9341	550.42
62.9485	552.33
62.9630	550.93
62.9774	547.31
62.9918	553.02
63.0063	553.26
63.0207	577.55
63.0352	590.25
63.0496	569.97
63.0640	600.45
63.0785	575.10
63.0929	560.13
63.1074	552.48
63.1218	574.36
63.1362	588.29
63.1507	561.44
63.1651	547.32
63.1796	556.08
63.1940	552.07
63.2084	560.10
63.2229	545.82
63.2373	545.53
63.2518	592.15
63.2662	564.12
63.2806	596.01
63.2951	566.71
63.3095	587.98
63.3240	585.71
63.3384	609.11
63.3528	596.39
63.3673	584.17
63.3817	601.58
63.3962	602.30
63.4106	622.40
63.4250	665.61
63.4395	658.97
63.4539	650.60
63.4684	662.17
63.4828	720.58
63.4972	755.46
63.5117	723.99
63.5261	797.70
63.5406	891.91
63.5550	945.58
63.5694	1064.09
63.5839	1052.00
63.5983	1067.69
63.6128	1030.50
63.6272	947.28
63.6416	925.14
63.6561	837.96
63.6705	807.23
63.6850	792.91
63.6994	746.54
63.7138	837.37
63.7283	824.99
63.7427	816.36
63.7572	825.30
63.7716	867.80
63.7861	825.25
63.8005	764.88
63.8149	763.03
63.8294	735.53
63.8438	682.46
63.8583	689.97
63.8727	652.39
63.8871	623.07
63.9016	657.56
63.9160	630.90
63.9305	632.32
63.9449	648.97
63.9593	587.54
63.9738	560.06
63.9882	602.07
64.0027	608.62
64.0171	622.04
64.0315	591.50
64.0460	606.60
64.0604	604.69
64.0749	589.99
64.0893	614.18
64.1037	585.40
64.1182	622.08
64.1326	592.85
64.1471	580.35
64.1615	586.94
64.1759	596.65
64.1904	564.02
64.2048	588.29
64.2193	581.52
64.2337	618.27
64.2481	592.79
64.2626	626.41
64.2770	603.24
64.2915	584.91
64.3059	597.63
64.3203	638.24
64.3348	606.07
64.3492	593.17
64.3637	629.19
64.3781	624.08
64.3925	575.27
64.4070	584.84
64.4214	641.58
64.4359	683.23
64.4503	624.21
64.4647	616.21
64.4792	605.56
64.4936	603.51
64.5081	603.54
64.5225	623.81
64.5369	634.34
64.5514	617.91
64.5658	636.54
64.5803	620.97
64.5947	624.29
64.6091	633.95
64.6236	616.39
64.6380	611.29
64.6525	640.96
64.6669	608.27
64.6813	660.28
64.6958	652.54
64.7102	687.78
64.7247	685.18
64.7391	682.32
64.7535	747.23
64.7680	692.86
64.7824	724.59
64.7969	754.18
64.8113	785.26
64.8257	807.96
64.8402	792.21
64.8546	830.76
64.8691	784.27
64.8835	830.51
64.8979	879.46
64.9124	882.22
64.9268	811.20
64.9413	940.73
64.9557	911.97
64.9701	987.16
64.9846	1006.87
64.9990	1109.88
65.0135	1296.81
65.0279	1444.58
65.0423	1622.57
65.0568	2016.85
65.0712	2466.15
65.0857	3236.22
65.1001	4210.31
65.1145	5759.22
65.1290	7478.49
65.1434	9173.57
65.1579	10824.74
65.1723	11741.75
65.1867	11464.39
65.2012	10251.43
65.2156	8875.14
65.2301	7049.19
65.2445	5631.79
65.2589	4567.79
65.2734	4239.73
65.2878	4355.21
65.3023	4817.62
65.3167	5558.83
65.3311	6419.28
65.3456	6976.61
65.3600	7074.72
65.3745	6696.89
65.3889	5739.09
65.4033	4730.27
65.4178	3646.53
65.4322	2920.58
65.4467	2198.59
65.4611	1773.68
65.4755	1492.35
65.4900	1331.25
65.5044	1182.44
65.5189	1073.38
65.5333	1000.63
65.5477	904.44
65.5622	899.20
65.5766	874.09
65.5911	828.77
65.6055	850.32
65.6199	786.74
65.6344	784.77
65.6488	756.30
65.6633	740.68
65.6777	742.88
65.6921	736.91
65.7066	733.98
65.7210	694.23
65.7355	696.64
65.7499	677.50
65.7643	679.08
65.7788	677.63
65.7932	663.86
65.8077	656.17
65.8221	636.94
65.8365	688.86
65.8510	706.79
65.8654	683.10
65.8799	660.38
65.8943	676.84
65.9087	655.22
65.9232	621.61
65.9376	638.67
65.9521	646.03
65.9665	642.54
65.9809	613.41
65.9954	629.56
66.0098	597.45
66.0243	624.85
66.0387	658.52
66.0531	638.52
66.0676	618.13
66.0820	643.39
66.0965	655.95
66.1109	622.64
66.1253	623.53
66.1398	635.38
66.1542	653.61
66.1687	649.93
66.1831	615.55
66.1975	604.60
66.2120	602.84
66.2264	566.28
66.2409	604.23
66.2553	604.54
66.2697	607.34
66.2842	604.55
66.2986	623.74
66.3131	600.18
66.3275	634.85
66.3419	643.68
66.3564	591.30
66.3708	591.82
66.3853	596.87
66.3997	570.13
66.4141	580.38
66.4286	627.92
66.4430	624.11
66.4575	623.30
66.4719	657.06
66.4863	626.67
66.5008	613.87
66.5152	592.79
66.5297	595.47
66.5441	581.60
66.5585	570.44
66.5730	611.72
66.5874	604.15
66.6019	617.81
66.6163	613.63
66.6307	583.19
66.6452	589.01
66.6596	567.34
66.6741	601.35
66.6885	570.48
66.7029	603.66
66.7174	595.55
66.7318	601.00
66.7463	589.98
66.7607	586.34
66.7751	587.57
66.7896	591.45
66.8040	583.18
66.8185	621.32
66.8329	585.00
66.8473	586.37
66.8618	598.69
66.8762	587.88
66.8907	565.57
66.9051	583.60
66.9195	586.29
66.9340	606.99
66.9484	582.87
66.9629	556.62
66.9773	609.63
66.9917	580.65
67.0062	573.92
67.0206	582.96
67.0351	579.80
67.0495	613.89
67.0639	602.39
67.0784	590.52
67.0928	583.05
67.1073	564.16
67.1217	589.40
67.1361	578.89
67.1506	547.13
67.1650	575.65
67.1795	595.26
67.1939	574.99
67.2083	564.54
67.2228	570.96
67.2372	575.35
67.2517	585.94
67.2661	608.30
67.2805	594.75
67.2950	549.51
67.3094	577.76
67.3239	573.33
67.3383	556.91
67.3527	580.12
67.3672	559.63
67.3816	575.36
67.3961	578.82
67.4105	563.48
67.4250	603.07
67.4394	532.06
67.4538	541.35
67.4683	588.69
67.4827	579.45
67.4972	552.10
67.5116	568.97
67.5260	579.29
67.5405	565.47
67.5549	547.89
67.5694	581.83
67.5838	561.14
67.5982	581.78
67.6127	551.75
67.6271	575.09
67.6416	551.42
67.6560	594.08
67.6704	563.22
67.6849	566.13
67.6993	597.56
67.7138	585.59
67.7282	570.24
67.7426	585.78
67.7571	559.20
67.7715	593.45
67.7860	584.53
67.8004	565.31
67.8148	568.33
67.8293	566.28
67.8437	574.95
67.8582	562.51
67.8726	572.18
67.8870	553.56
67.9015	587.97
67.9159	589.24
67.9304	588.40
67.9448	567.41
67.9592	548.34
67.9737	594.98
67.9881	586.87
68.0026	548.10
68.0170	589.54
68.0314	554.57
68.0459	602.05
68.0603	563.42
68.0748	569.04
68.0892	582.07
68.1036	566.32
68.1181	602.46
68.1325	567.61
68.1470	548.60
68.1614	594.37
68.1758	551.31
68.1903	552.56
68.2047	587.58
68.2192	565.56
68.2336	541.60
68.2480	555.44
68.2625	562.79
68.2769	561.03
68.2914	556.05
68.3058	598.46
68.3202	565.88
68.3347	599.37
68.3491	592.94
68.3636	592.25
68.3780	561.79
68.3924	584.35
68.4069	547.25
68.4213	612.06
68.4358	588.65
68.4502	547.25
68.4646	605.12
68.4791	612.06
68.4935	535.50
68.5080	543.39
68.5224	589.18
68.5368	571.90
68.5513	591.95
68.5657	611.37
68.5802	555.40
68.5946	596.23
68.6090	585.84
68.6235	562.31
68.6379	596.77
68.6524	588.29
68.6668	579.87
68.6812	573.06
68.6957	530.10
68.7101	596.70
68.7246	565.35
68.7390	541.36
68.7534	614.65
68.7679	599.26
68.7823	527.63
68.7968	562.13
68.8112	572.85
68.8256	551.94
68.8401	553.91
68.8545	564.53
68.8690	585.40
68.8834	599.58
68.8978	596.63
68.9123	543.59
68.9267	602.47
68.9412	550.84
68.9556	564.37
68.9700	535.46
68.9845	597.11
68.9989	612.06
69.0134	573.94
69.0278	593.72
69.0422	571.11
69.0567	591.64
69.0711	557.23
69.0856	603.83
69.1000	560.78
69.1144	604.35
69.1289	575.59
69.1433	536.67
69.1578	599.90
69.1722	584.87
69.1866	587.00
69.2011	623.53
69.2155	579.47
69.2300	579.51
69.2444	604.53
69.2588	519.67
69.2733	576.83
69.2877	544.61
69.3022	535.60
69.3166	563.60
69.3310	580.08
69.3455	549.25
69.3599	582.73
69.3744	550.05
69.3888	600.35
69.4032	615.77
69.4177	563.46
69.4321	615.36
69.4466	566.98
69.4610	552.29
69.4754	561.24
69.4899	582.07
69.5043	580.26
69.5188	544.36
69.5332	568.41
69.5476	576.43
69.5621	591.92
69.5765	576.81
69.5910	577.71
69.6054	574.83
69.6198	520.47
69.6343	567.11
69.6487	605.30
69.6632	634.83
69.6776	566.25
69.6920	579.45
69.7065	613.16
69.7209	594.54
69.7354	575.66
69.7498	631.02
69.7642	571.38
69.7787	609.64
69.7931	561.68
69.8076	614.47
69.8220	590.88
69.8364	602.77
69.8509	596.86
69.8653	600.28
69.8798	563.63
69.8942	589.87
69.9086	632.66
69.9231	560.62
69.9375	542.02
69.9520	560.31
69.9664	585.41
69.9808	568.37
69.9953	569.88
70.0097	595.12
70.0242	549.44
70.0386	580.03
70.0530	626.27
70.0675	622.22
70.0819	557.94
70.0964	547.83
70.1108	547.56
70.1252	580.01
70.1397	539.00
70.1541	542.69
70.1686	585.24
70.1830	582.82
70.1974	553.09
70.2119	551.85
70.2263	525.94
70.2408	560.37
70.2552	560.50
70.2696	604.04
70.2841	560.75
70.2985	567.45
70.3130	590.82
70.3274	577.25
70.3418	560.15
70.3563	598.34
70.3707	564.62
70.3852	563.28
70.3996	598.41
70.4140	592.98
70.4285	607.06
70.4429	577.96
70.4574	579.26
70.4718	603.64
70.4862	614.66
70.5007	626.24
70.5151	517.31
70.5296	529.37
70.5440	553.71
70.5584	581.90
70.5729	569.79
70.5873	568.11
70.6018	559.79
70.6162	572.76
70.6306	586.14
70.6451	582.04
70.6595	602.88
70.6740	578.72
70.6884	574.02
70.7028	585.74
70.7173	633.81
70.7317	559.24
70.7462	607.37
70.7606	642.91
70.7750	589.95
70.7895	565.06
70.8039	518.13
70.8184	544.45
70.8328	566.84
70.8472	570.51
70.8617	552.10
70.8761	639.80
70.8906	591.59
70.9050	527.45
70.9194	546.80
70.9339	564.46
70.9483	573.89
70.9628	550.90
70.9772	562.89
70.9916	596.35
71.0061	562.97
71.0205	562.34
71.0350	558.37
71.0494	577.77
71.0638	633.41
71.0783	621.26
71.0927	623.93
71.1072	611.69
71.1216	662.45
71.1361	679.87
71.1505	633.47
71.1649	608.11
71.1794	587.99
71.1938	574.69
71.2083	583.50
71.2227	580.76
71.2371	597.19
71.2516	604.39
71.2660	608.55
71.2805	588.20
71.2949	540.68
71.3093	498.15
71.3238	518.68
71.3382	544.14
71.3527	556.30
71.3671	551.57
71.3815	569.07
71.3960	594.08
71.4104	565.14
71.4249	622.08
71.4393	578.65
71.4537	521.74
71.4682	519.06
71.4826	573.18
71.4971	605.44
71.5115	586.91
71.5259	552.69
71.5404	577.87
71.5548	595.86
71.5693	601.83
71.5837	626.20
71.5981	570.63
71.6126	581.15
71.6270	607.31
71.6415	609.60
71.6559	577.25
71.6703	583.58
71.6848	613.04
71.6992	583.88
71.7137	601.74
71.7281	603.82
71.7425	577.46
71.7570	598.41
71.7714	581.43
71.7859	518.11
71.8003	551.66
71.8147	589.19
71.8292	567.08
71.8436	571.32
71.8581	554.87
71.8725	572.99
71.8869	528.94
71.9014	617.72
71.9158	632.83
71.9303	573.36
71.9447	568.57
71.9591	572.61
71.9736	544.56
71.9880	543.98
72.0025	603.86
72.0169	575.16
72.0313	510.99
72.0458	527.39
72.0602	560.16
72.0747	593.92
72.0891	596.54
72.1035	593.89
72.1180	555.31
72.1324	561.49
72.1469	603.33
72.1613	566.77
72.1757	665.40
72.1902	690.01
72.2046	621.04
72.2191	564.06
72.2335	569.31
72.2479	588.09
72.2624	541.14
72.2768	531.88
72.2913	561.61
72.3057	551.33
72.3201	562.67
72.3346	622.11
72.3490	603.51
72.3635	598.42
72.3779	629.52
72.3923	593.24
72.4068	544.83
72.4212	568.80
72.4357	523.08
72.4501	553.09
72.4645	571.79
72.4790	558.99
72.4934	634.72
72.5079	628.13
72.5223	640.69
72.5367	623.04
72.5512	594.69
72.5656	605.11
72.5801	577.95
72.5945	511.65
72.6089	496.92
72.6234	554.05
72.6378	592.90
72.6523	541.84
72.6667	561.43
72.6811	547.07
72.6956	531.77
72.7100	569.34
72.7245	574.01
72.7389	566.82
72.7533	555.69
72.7678	613.77
72.7822	659.90
72.7967	630.26
72.8111	624.51
72.8255	632.82
72.8400	598.27
72.8544	607.80
72.8689	676.36
72.8833	572.24

Result vector
22.1120	603.33
22.1264	617.85
22.1409	507.72
22.1553	491.34
22.1697	606.54
22.1842	605.75
22.1986	610.00
22.2131	558.99
22.2275	566.28
22.2419	619.57
22.2564	613.81
22.2708	604.99
22.2853	596.96
22.2997	634.20
22.3141	686.24
22.3286	622.58
22.3430	580.51
22.3575	589.95
22.3719	499.59
22.3863	521.40
22.4008	503.40
22.4152	545.61
22.4297	633.75
22.4441	619.57
22.4585	626.08
22.4730	638.76
22.4874	566.34
22.5019	517.51
22.5163	591.53
22.5307	586.02
22.5452	487.31
22.5596	510.46
22.5741	600.27
22.5885	606.50
22.6029	526.67
22.6174	541.51
22.6318	502.78
22.6463	533.07
22.6607	658.53
22.6751	569.34
22.6896	599.30
22.7040	644.01
22.7185	530.58
22.7329	519.96
22.7473	493.66
22.7618	549.47
22.7762	572.14
22.7907	578.32
22.8051	621.10
22.8195	600.59
22.8340	536.20
22.8484	539.36
22.8629	569.17
22.8773	497.32
22.8917	461.60
22.9062	521.89
22.9206	488.81
22.9351	511.79
22.9495	524.82
22.9639	499.07
22.9784	479.85
22.9928	532.14
23.0073	535.52
23.0217	605.91
23.0361	541.98
23.0506	568.50
23.0650	614.91
23.0795	546.08
23.0939	556.76
23.1083	521.05
23.1228	569.62
23.1372	666.21
23.1517	539.70
23.1661	603.15
23.1806	522.53
23.1950	509.57
23.2094	563.51
23.2239	481.48
23.2383	600.06
23.2528	576.20
23.2672	466.36
23.2816	538.52
23.2961	497.43
23.3105	563.32
23.3250	553.88
23.3394	579.64
23.3538	566.96
23.3683	509.55
23.3827	578.22
23.3972	545.95
23.4116	477.69
23.4260	512.61
23.4405	577.16
23.4549	556.73
23.4694	526.27
23.4838	618.87
23.4982	553.75
23.5127	613.40
23.5271	555.74
23.5416	542.25
23.5560	563.35
23.5704	493.88
23.5849	612.54
23.5993	573.31
23.6138	546.89
23.6282	531.20
23.6426	607.18
23.6571	585.19
23.6715	542.84
23.6860	545.24
23.7004	544.09
23.7148	571.45
23.7293	566.52
23.7437	530.10
23.7582	569.81
23.7726	573.80
23.7870	595.34
23.8015	512.01
23.8159	572.05
23.8304	603.27
23.8448	546.73
23.8592	517.10
23.8737	590.11
23.8881	467.37
23.9026	559.37
23.9170	592.38
23.9314	496.63
23.9459	536.13
23.9603	588.26
23.9748	565.93
23.9892	535.20
24.0036	597.29
24.0181	552.16
24.0325	527.06
24.0470	577.20
24.0614	597.33
24.0758	527.34
24.0903	598.04
24.1047	497.49
24.1192	599.17
24.1336	594.13
24.1480	552.13
24.1625	605.96
24.1769	544.20
24.1914	550.71
24.2058	591.30
24.2202	541.87
24.2347	615.73
24.2491	552.78
24.2636	559.57
24.2780	589.89
24.2924	530.57
24.3069	551.39
24.3213	570.43
24.3358	588.92
24.3502	547.96
24.3646	532.69
24.3791	555.52
24.3935	527.36
24.4080	516.15
24.4224	588.73
24.4368	569.16
24.4513	575.47
24.4657	546.77
24.4802	544.58
24.4946	512.83
24.5090	578.95
24.5235	547.13
24.5379	553.24
24.5524	585.52
24.5668	549.30
24.5812	559.66
24.5957	550.98
24.6101	583.52
24.6246	600.87
24.6390	490.86
24.6534	563.21
24.6679	563.94
24.6823	534.02
24.6968	570.05
24.7112	554.29
24.7256	515.20
24.7401	529.84
24.7545	519.73
24.7690	540.40
24.7834	537.78
24.7978	575.00
24.8123	592.19
24.8267	538.48
24.8412	538.80
24.8556	509.32
24.8700	537.46
24.8845	511.58
24.8989	518.53
24.9134	568.27
24.9278	547.65
24.9422	542.82
24.9567	533.82
24.9711	489.77
24.9856	530.70
25.0000	553.94
25.0144	551.69
25.0289	597.79
25.0433	548.15
25.0578	506.66
25.0722	512.88
25.0866	561.36
25.1011	550.59
25.1155	550.49
25.1300	561.08
25.1444	501.73
25.1588	520.33
25.1733	523.08
25.1877	516.49
25.2022	479.21
25.2166	520.26
25.2310	546.34
25.2455	507.02
25.2599	517.76
25.2744	501.41
25.2888	536.56
25.3032	524.25
25.3177	512.74
25.3321	553.71
25.3466	516.64
25.3610	527.62
25.3754	505.41
25.3899	500.91
25.4043	514.15
25.4188	533.82
25.4332	535.39
25.4476	479.03
25.4621	531.08
25.4765	584.74
25.4910	574.14
25.5054	530.17
25.5198	527.89
25.5343	511.89
25.5487	552.66
25.5632	512.60
25.5776	529.57
25.5920	535.55
25.6065	543.44
25.6209	542.62
25.6354	517.04
25.6498	537.75
25.6642	565.11
25.6787	575.91
25.6931	574.47
25.7076	543.95
25.7220	485.40
25.7364	539.24
25.7509	511.80
25.7653	517.23
25.7798	536.49
25.7942	515.92
25.8086	503.84
25.8231	505.80
25.8375	534.37
25.8520	544.08
25.8664	546.80
25.8808	511.63
25.8953	566.58
25.9097	557.40
25.9242	564.98
25.9386	548.70
25.9530	519.84
25.9675	532.24
25.9819	510.61
25.9964	538.69
26.0108	501.81
26.0252	525.63
26.0397	563.69
26.0541	533.94
26.0686	481.10
26.0830	503.05
26.0974	531.12
26.1119	539.88
26.1263	534.75
26.1408	478.09
26.1552	527.98
26.1696	508.15
26.1841	539.18
26.1985	523.13
26.2130	525.33
26.2274	542.05
26.2418	537.76
26.2563	510.52
26.2707	520.77
26.2852	533.23
26.2996	541.61
26.3140	531.43
26.3285	516.86
26.3429	514.63
26.3574	516.86
26.3718	512.72
26.3862	537.56
26.4007	498.72
26.4151	493.77
26.4296	517.74
26.4440	520.23
26.4584	505.05
26.4729	516.49
26.4873	507.03
26.5018	535.13
26.5162	541.13
26.5306	525.57
26.5451	538.56
26.5595	565.40
26.5740	538.96
26.5884	536.90
26.6028	549.69
26.6173	561.82
26.6317	547.36
26.6462	517.11
26.6606	492.30
26.6750	511.51
26.6895	522.92
26.7039	559.25
26.7184	532.30
26.7328	506.52
26.7472	499.84
26.7617	507.18
26.7761	511.82
26.7906	542.83
26.8050	536.78
26.8194	515.80
26.8339	514.97
26.8483	518.07
26.8628	520.48
26.8772	522.98
26.8917	520.15
26.9061	530.86
26.9205	510.11
26.9350	517.66
26.9494	551.69
26.9639	536.94
26.9783	496.30
26.9927	529.29
27.0072	530.01
27.0216	563.13
27.0361	521.31
27.0505	498.91
27.0649	521.11
27.0794	522.50
27.0938	505.68
27.1083	485.09
27.1227	491.62
27.1371	565.17
27.1516	545.42
27.1660	540.50
27.1805	515.38
27.1949	533.25
27.2093	527.59
27.2238	466.20
27.2382	494.27
27.2527	512.80
27.2671	509.77
27.2815	510.81
27.2960	513.99
27.3104	520.53
27.3249	547.57
27.3393	519.37
27.3537	520.36
27.3682	539.28
27.3826	493.64
27.3971	497.36
27.4115	543.40
27.4259	554.96
27.4404	499.06
27.4548	515.60
27.4693	550.70
27.4837	542.64
27.4981	539.60
27.5126	546.91
27.5270	490.61
27.5415	494.29
27.5559	552.39
27.5703	516.63
27.5848	541.75
27.5992	532.25
27.6137	481.00
27.6281	495.11
27.6425	562.65
27.6570	554.30
27.6714	541.36
27.6859	538.13
27.7003	556.17
27.7147	546.71
27.7292	551.30
27.7436	511.57
27.7581	528.85
27.7725	509.55
27.7869	541.53
27.8014	489.11
27.8158	532.98
27.8303	495.12
27.8447	500.62
27.8591	536.29
27.8736	522.37
27.8880	508.18
27.9025	512.30
27.9169	508.06
27.9313	519.24
27.9458	537.70
27.9602	543.39
27.9747	533.00
27.9891	529.83
28.0035	510.86
28.0180	509.43
28.0324	496.14
28.0469	496.58
28.0613	512.94
28.0757	478.12
28.0902	502.91
28.1046	504.37
28.1191	540.53
28.1335	512.26
28.1479	472.80
28.1624	511.72
28.1768	542.49
28.1913	510.88
28.2057	493.74
28.2201	482.90
28.2346	518.41
28.2490	522.02
28.2635	522.23
28.2779	503.91
28.2923	504.09
28.3068	504.29
28.3212	519.03
28.3357	534.22
28.3501	492.15
28.3645	523.14
28.3790	511.40
28.3934	496.29
28.4079	504.81
28.4223	501.59
28.4367	503.31
28.4512	494.54
28.4656	502.41
28.4801	501.20
28.4945	516.20
28.5089	489.71
28.5234	500.84
28.5378	520.00
28.5523	529.51
28.5667	508.73
28.5811	490.45
28.5956	510.29
28.6100	506.64
28.6245	486.23
28.6389	547.52
28.6533	533.89
28.6678	486.33
28.6822	582.56
28.6967	560.45
28.7111	523.49
28.7255	546.42
28.7400	497.18
28.7544	546.92
28.7689	546.96
28.7833	551.30
28.7977	531.81
28.8122	515.38
28.8266	494.47
28.8411	513.69
28.8555	476.27
28.8699	527.60
28.8844	523.45
28.8988	496.48
28.9133	493.82
28.9277	531.86
28.9421	519.91
28.9566	523.17
28.9710	497.67
28.9855	542.06
28.9999	550.42
29.0143	500.85
29.0288	483.05
29.0432	466.33
29.0577	471.15
29.0721	496.59
29.0865	513.01
29.1010	518.99
29.1154	568.58
29.1299	515.83
29.1443	509.86
29.1587	535.67
29.1732	494.72
29.1876	503.78
29.2021	515.64
29.2165	497.46
29.2309	490.39
29.2454	549.33
29.2598	531.78
29.2743	500.42
29.2887	503.22
29.3031	472.01
29.3176	485.48
29.3320	506.68
29.3465	482.62
29.3609	494.00
29.3753	501.84
29.3898	513.49
29.4042	530.90
29.4187	507.57
29.4331	518.24
29.4475	537.35
29.4620	519.41
29.4764	505.23
29.4909	523.57
29.5053	518.95
29.5197	498.10
29.5342	527.63
29.5486	495.65
29.5631	514.80
29.5775	499.54
29.5919	508.88
29.6064	522.34
29.6208	493.94
29.6353	497.30
29.6497	519.24
29.6641	504.78
29.6786	517.23
29.6930	502.48
29.7075	523.28
29.7219	499.75
29.7363	506.13
29.7508	510.84
29.7652	507.35
29.7797	512.37
29.7941	509.57
29.8085	531.44
29.8230	537.50
29.8374	524.10
29.8519	534.99
29.8663	523.69
29.8807	517.36
29.8952	510.58
29.9096	521.13
29.9241	488.04
29.9385	490.01
29.9529	516.51
29.9674	563.26
29.9818	524.10
29.9963	535.13
30.0107	525.08
30.0251	497.87
30.0396	490.19
30.0540	498.14
30.0685	516.63
30.0829	496.89
30.0973	500.45
30.1118	482.77
30.1262	529.81
30.1407	502.41
30.1551	527.52
30.1695	533.97
30.1840	520.84
30.1984	528.46
30.2129	518.20
30.2273	539.12
30.2417	522.85
30.2562	515.11
30.2706	503.92
30.2851	503.37
30.2995	495.36
30.3139	477.70
30.3284	516.05
30.3428	520.00
30.3573	525.62
30.3717	514.20
30.3861	518.38
30.4006	536.63
30.4150	562.84
30.4295	526.94
30.4439	517.68
30.4583	512.16
30.4728	540.90
30.4872	609.38
30.5017	593.34
30.5161	625.67
30.5305	682.29
30.5450	732.22
30.5594	765.50
30.5739	780.07
30.5883	742.02
30.6028	703.10
30.6172	734.18
30.6316	749.79
30.6461	719.71
30.6605	686.46
30.6750	643.08
30.6894	619.40
30.7038	581.39
30.7183	565.73
30.7327	562.81
30.7472	557.77
30.7616	533.67
30.7760	540.91
30.7905	545.94
30.8049	538.43
30.8194	532.58
30.8338	528.94
30.8482	530.31
30.8627	531.87
30.8771	538.14
30.8916	539.23
30.9060	552.58
30.9204	523.64
30.9349	491.10
30.9493	533.22
30.9638	518.14
30.9782	498.12
30.9926	509.22
31.0071	521.79
31.0215	508.77
31.0360	491.80
31.0504	514.15
31.0648	529.66
31.0793	522.76
31.0937	485.28
31.1082	500.36
31.1226	510.85
31.1370	492.37
31.1515	478.91
31.1659	492.53
31.1804	509.80
31.1948	516.02
31.2092	520.47
31.2237	495.69
31.2381	541.98
31.2526	510.37
31.2670	529.23
31.2814	514.05
31.2959	527.24
31.3103	547.32
31.3248	511.25
31.3392	540.55
31.3536	544.84
31.3681	504.69
31.3825	520.59
31.3970	506.75
31.4114	481.11
31.4258	542.31
31.4403	471.58
31.4547	476.12
31.4692	489.19
31.4836	512.74
31.4980	526.07
31.5125	523.50
31.5269	509.28
31.5414	502.13
31.5558	519.53
31.5702	535.90
31.5847	524.31
31.5991	553.55
31.6136	505.54
31.6280	499.90
31.6424	519.80
31.6569	507.07
31.6713	491.48
31.6858	487.10
31.7002	516.79
31.7146	503.75
31.7291	493.60
31.7435	509.86
31.7580	513.26
31.7724	520.90
31.7868	521.09
31.8013	485.43
31.8157	480.43
31.8302	495.59
31.8446	525.51
31.8590	506.81
31.8735	544.81
31.8879	526.26
31.9024	534.20
31.9168	514.10
31.9312	537.36
31.9457	542.03
31.9601	513.93
31.9746	484.73
31.9890	457.41
32.0034	494.01
32.0179	511.41
32.0323	510.36
32.0468	483.02
32.0612	542.11
32.0756	547.35
32.0901	540.59
32.1045	561.39
32.1190	469.34
32.1334	451.28
32.1478	451.89
32.1623	479.04
32.1767	497.36
32.1912	465.64
32.2056	472.19
32.2200	510.98
32.2345	484.18
32.2489	505.36
32.2634	458.75
32.2778	492.45
32.2922	509.39
32.3067	491.72
32.3211	507.35
32.3356	562.06
32.3500	511.71
32.3644	485.22
32.3789	510.18
32.3933	512.95
32.4078	511.84
32.4222	525.51
32.4366	527.28
32.4511	514.71
32.4655	524.99
32.4800	489.96
32.4944	508.67
32.5088	485.04
32.5233	499.74
32.5377	508.82
32.5522	513.69
32.5666	515.47
32.5810	498.96
32.5955	504.70
32.6099	506.46
32.6244	499.94
32.6388	496.39
32.6532	490.43
32.6677	516.04
32.6821	495.14
32.6966	515.11
32.7110	539.64
32.7254	479.29
32.7399	482.43
32.7543	510.88
32.7688	510.18
32.7832	504.68
32.7976	507.33
32.8121	494.70
32.8265	497.81
32.8410	479.48
32.8554	520.75
32.8698	511.63
32.8843	545.76
32.8987	526.70
32.9132	539.33
32.9276	492.83
32.9420	511.66
32.9565	494.38
32.9709	514.72
32.9854	501.73
32.9998	498.73
33.0142	508.89
33.0287	526.56
33.0431	493.53
33.0576	495.21
33.0720	513.41
33.0864	515.97
33.1009	463.58
33.1153	483.81
33.1298	502.56
33.1442	469.17
33.1586	497.54
33.1731	491.65
33.1875	475.96
33.2020	494.88
33.2164	546.97
33.2308	506.75
33.2453	495.39
33.2597	495.68
33.2742	469.41
33.2886	489.96
33.3030	480.47
33.3175	505.36
33.3319	499.12
33.3464	528.80
33.3608	493.67
33.3752	480.04
33.3897	489.73
33.4041	494.48
33.4186	501.58
33.4330	486.01
33.4474	556.76
33.4619	531.90
33.4763	478.98
33.4908	504.46
33.5052	469.94
33.5196	500.06
33.5341	486.13
33.5485	493.22
33.5630	535.28
33.5774	525.22
33.5918	490.88
33.6063	518.52
33.6207	509.26
33.6352	520.66
33.6496	486.93
33.6640	508.41
33.6785	498.65
33.6929	482.73
33.7074	526.04
33.7218	516.06
33.7362	514.85
33.7507	499.56
33.7651	480.41
33.7796	521.00
33.7940	514.58
33.8084	511.93
33.8229	491.84
33.8373	524.55
33.8518	523.11
33.8662	517.68
33.8806	501.37
33.8951	485.16
33.9095	478.96
33.9240	444.67
33.9384	508.17
33.9528	509.51
33.9673	509.12
33.9817	480.34
33.9962	486.02
34.0106	496.56
34.0250	504.73
34.0395	492.11
34.0539	517.01
34.0684	496.52
34.0828	495.38
34.0972	509.14
34.1117	500.35
34.1261	548.48
34.1406	519.12
34.1550	505.30
34.1694	509.06
34.1839	504.45
34.1983	492.45
34.2128	489.84
34.2272	522.43
34.2417	493.75
34.2561	484.06
34.2705	517.05
34.2850	490.46
34.2994	533.93
34.3139	501.34
34.3283	497.62
34.3427	491.49
34.3572	472.73
34.3716	454.53
34.3861	489.77
34.4005	495.76
34.4149	486.24
34.4294	482.13
34.4438	503.89
34.4583	517.96
34.4727	501.43
34.4871	484.89
34.5016	501.45
34.5160	512.48
34.5305	502.34
34.5449	519.54
34.5593	535.69
34.5738	516.29
34.5882	516.80
34.6027	527.92
34.6171	516.27
34.6315	527.84
34.6460	501.34
34.6604	511.37
34.6749	518.05
34.6893	475.38
34.7037	474.34
34.7182	490.71
34.7326	509.30
34.7471	495.71
34.7615	507.16
34.7759	526.21
34.7904	517.15
34.8048	526.51
34.8193	522.31
34.8337	512.02
34.8481	499.42
34.8626	496.17
34.8770	521.59
34.8915	503.67
34.9059	518.99
34.9203	489.76
34.9348	519.15
34.9492	498.38
34.9637	485.27
34.9781	522.15
34.9925	533.66
35.0070	522.50
35.0214	508.15
35.0359	520.77
35.0503	510.79
35.0647	506.38
35.0792	514.45
35.0936	511.50
35.1081	495.04
35.1225	485.45
35.1369	493.28
35.1514	523.06
35.1658	516.53
35.1803	491.45
35.1947	479.23
35.2091	528.00
35.2236	520.06
35.2380	532.84
35.2525	503.85
35.2669	490.91
35.2813	520.43
35.2958	509.51
35.3102	510.00
35.3247	518.17
35.3391	518.14
35.3535	529.98
35.3680	524.92
35.3824	507.09
35.3969	507.30
35.4113	498.68
35.4257	528.94
35.4402	536.18
35.4546	541.22
35.4691	525.53
35.4835	546.80
35.4979	517.66
35.5124	519.11
35.5268	536.67
35.5413	533.61
35.5557	530.26
35.5701	530.05
35.5846	516.57
35.5990	535.70
35.6135	545.09
35.6279	523.78
35.6423	529.93
35.6568	557.46
35.6712	563.28
35.6857	621.45
35.7001	679.93
35.7145	722.72
35.7290	682.86
35.7434	621.93
35.7579	607.10
35.7723	604.27
35.7867	637.77
35.8012	670.24
35.8156	706.24
35.8301	648.16
35.8445	642.16
35.8589	703.75
35.8734	774.58
35.8878	939.79
35.9023	1120.25
35.9167	1194.19
35.9311	1356.28
35.9456	1873.43
35.9600	2464.96
35.9745	2429.20
35.9889	2469.18
36.0033	2846.19
36.0178	3095.74
36.0322	2724.62
36.0467	2426.97
36.0611	2158.05
36.0755	1868.00
36.0900	1916.33
36.1044	1706.28
36.1189	1619.13
36.1333	1474.58
36.1477	1181.46
36.1622	1101.98
36.1766	988.35
36.1911	799.60
36.2055	748.43
36.2199	704.42
36.2344	644.18
36.2488	616.42
36.2633	573.68
36.2777	518.94
36.2921	512.34
36.3066	529.59
36.3210	540.40
36.3355	576.83
36.3499	575.93
36.3643	551.38
36.3788	573.60
36.3932	538.65
36.4077	538.39
36.4221	527.28
36.4365	570.04
36.4510	511.79
36.4654	566.52
36.4799	578.32
36.4943	532.40
36.5087	529.19
36.5232	555.54
36.5376	501.76
36.5521	499.59
36.5665	524.60
36.5809	502.82
36.5954	550.14
36.6098	492.55
36.6243	542.41
36.6387	541.25
36.6531	501.10
36.6676	493.40
36.6820	510.85
36.6965	514.43
36.7109	528.41
36.7253	505.55
36.7398	529.86
36.7542	533.61
36.7687	532.90
36.7831	532.76
36.7975	551.52
36.8120	542.35
36.8264	559.28
36.8409	620.28
36.8553	635.63
36.8697	608.99
36.8842	585.18
36.8986	606.02
36.9131	597.20
36.9275	551.99
36.9419	593.32
36.9564	553.46
36.9708	564.20
36.9853	558.02
36.9997	520.48
37.0141	543.82
37.0286	512.11
37.0430	560.02
37.0575	540.33
37.0719	499.96
37.0863	534.98
37.1008	522.85
37.1152	536.28
37.1297	526.95
37.1441	488.83
37.1585	487.43
37.1730	521.54
37.1874	543.39
37.2019	524.08
37.2163	505.52
37.2307	499.84
37.2452	506.47
37.2596	520.01
37.2741	489.12
37.2885	537.19
37.3029	544.81
37.3174	514.65
37.3318	509.53
37.3463	512.96
37.3607	491.66
37.3751	472.00
37.3896	487.50
37.4040	490.38
37.4185	498.03
37.4329	532.83
37.4473	515.61
37.4618	548.75
37.4762	488.84
37.4907	513.19
37.5051	502.00
37.5195	500.07
37.5340	493.09
37.5484	487.72
37.5629	523.46
37.5773	505.99
37.5917	514.18
37.6062	518.57
37.6206	521.58
37.6351	516.19
37.6495	499.06
37.6639	467.63
37.6784	522.11
37.6928	520.10
37.7073	566.43
37.7217	516.31
37.7361	499.27
37.7506	524.21
37.7650	517.08
37.7795	496.73
37.7939	488.98
37.8083	516.75
37.8228	542.73
37.8372	521.55
37.8517	505.81
37.8661	483.14
37.8805	525.57
37.8950	551.15
37.9094	501.74
37.9239	503.46
37.9383	477.56
37.9528	479.29
37.9672	541.92
37.9816	499.28
37.9961	489.50
38.0105	511.98
38.0250	540.59
38.0394	495.35
38.0538	491.18
38.0683	493.50
38.0827	500.58
38.0972	500.21
38.1116	519.16
38.1260	515.49
38.1405	506.51
38.1549	489.80
38.1694	512.54
38.1838	500.28
38.1982	497.23
38.2127	492.13
38.2271	503.15
38.2416	523.41
38.2560	515.11
38.2704	526.93
38.2849	562.49
38.2993	511.21
38.3138	508.36
38.3282	542.06
38.3426	540.31
38.3571	543.20
38.3715	507.81
38.3860	494.30
38.4004	509.68
38.4148	560.09
38.4293	583.18
38.4437	574.23
38.4582	604.60
38.4726	615.99
38.4870	658.54
38.5015	738.66
38.5159	745.15
38.5304	758.53
38.5448	769.41
38.5592	825.11
38.5737	771.09
38.5881	727.60
38.6026	748.05
38.6170	687.85
38.6314	684.40
38.6459	664.92
38.6603	643.33
38.6748	615.76
38.6892	604.09
38.7036	578.71
38.7181	556.31
38.7325	529.11
38.7470	530.02
38.7614	515.79
38.7758	483.52
38.7903	538.27
38.8047	519.53
38.8192	519.22
38.8336	536.81
38.8480	475.42
38.8625	504.63
38.8769	500.28
38.8914	490.45
38.9058	510.48
38.9202	485.39
38.9347	517.74
38.9491	490.33
38.9636	499.10
38.9780	494.32
38.9924	480.82
39.0069	479.64
39.0213	511.19
39.0358	503.10
39.0502	486.01
39.0646	494.91
39.0791	506.88
39.0935	546.51
39.1080	524.39
39.1224	517.38
39.1368	527.74
39.1513	497.36
39.1657	539.89
39.1802	520.70
39.1946	501.45
39.2090	479.82
39.2235	512.20
39.2379	560.24
39.2524	515.97
39.2668	501.50
39.2812	517.15
39.2957	500.96
39.3101	515.07
39.3246	508.77
39.3390	536.26
39.3534	482.17
39.3679	477.03
39.3823	493.00
39.3968	477.17
39.4112	465.24
39.4256	490.35
39.4401	501.41
39.4545	501.57
39.4690	514.93
39.4834	499.41
39.4978	459.40
39.5123	495.01
39.5267	514.82
39.5412	521.98
39.5556	514.25
39.5700	508.15
39.5845	496.93
39.5989	512.44
39.6134	509.93
39.6278	500.36
39.6422	492.54
39.6567	507.17
39.6711	492.98
39.6856	480.89
39.7000	486.99
39.7144	517.54
39.7289	535.85
39.7433	478.32
39.7578	494.60
39.7722	518.78
39.7866	492.99
39.8011	524.22
39.8155	507.30
39.8300	497.21
39.8444	485.94
39.8588	492.15
39.8733	478.38
39.8877	487.05
39.9022	517.21
39.9166	527.86
39.9310	533.69
39.9455	555.71
39.9599	530.77
39.9744	499.40
39.9888	459.99
40.0032	469.81
40.0177	551.39
40.0321	498.80
40.0466	478.27
40.0610	449.49
40.0754	482.13
40.0899	524.00
40.1043	532.91
40.1188	519.90
40.1332	485.96
40.1476	470.54
40.1621	534.89
40.1765	516.63
40.1910	490.34
40.2054	526.90
40.2198	518.07
40.2343	478.23
40.2487	503.05
40.2632	496.28
40.2776	480.70
40.2920	488.03
40.3065	503.30
40.3209	485.92
40.3354	488.07
40.3498	490.01
40.3642	500.62
40.3787	480.54
40.3931	498.30
40.4076	483.01
40.4220	537.02
40.4364	517.55
40.4509	482.47
40.4653	495.94
40.4798	516.87
40.4942	518.40
40.5086	538.27
40.5231	485.22
40.5375	497.99
40.5520	508.44
40.5664	536.06
40.5808	481.01
40.5953	498.10
40.6097	514.20
40.6242	464.01
40.6386	480.69
40.6530	475.33
40.6675	493.52
40.6819	497.46
40.6964	461.57
40.7108	512.75
40.7252	485.38
40.7397	509.31
40.7541	529.76
40.7686	487.80
40.7830	495.90
40.7974	505.23
40.8119	475.52
40.8263	509.79
40.8408	511.99
40.8552	513.22
40.8696	484.33
40.8841	477.81
40.8985	502.60
40.9130	494.66
40.9274	488.92
40.9418	510.18
40.9563	511.42
40.9707	505.69
40.9852	495.01
40.9996	494.37
41.0140	460.96
41.0285	476.36
41.0429	471.69
41.0574	456.29
41.0718	529.56
41.0862	501.16
41.1007	474.85
41.1151	517.30
41.1296	511.50
41.1440	510.71
41.1584	527.11
41.1729	549.31
41.1873	515.54
41.2018	496.43
41.2162	505.42
41.2306	535.54
41.2451	484.41
41.2595	493.24
41.2740	514.58
41.2884	502.90
41.3028	533.62
41.3173	509.03
41.3317	479.65
41.3462	521.25
41.3606	486.69
41.3750	507.67
41.3895	490.32
41.4039	469.39
41.4184	487.36
41.4328	482.79
41.4472	502.09
41.4617	482.14
41.4761	515.35
41.4906	522.12
41.5050	487.84
41.5194	513.80
41.5339	513.86
41.5483	514.17
41.5628	467.88
41.5772	515.84
41.5916	496.08
41.6061	499.71
41.6205	497.87
41.6350	512.60
41.6494	512.20
41.6639	527.87
41.6783	518.87
41.6927	477.41
41.7072	506.41
41.7216	529.27
41.7361	495.87
41.7505	513.82
41.7649	517.85
41.7794	509.74
41.7938	524.49
41.8083	540.49
41.8227	526.28
41.8371	524.44
41.8516	530.63
41.8660	505.18
41.8805	514.08
41.8949	534.67
41.9093	560.68
41.9238	580.23
41.9382	558.17
41.9527	576.45
41.9671	577.30
41.9815	516.93
41.9960	534.05
42.0104	553.19
42.0249	581.17
42.0393	610.75
42.0537	618.97
42.0682	527.69
42.0826	565.36
42.0971	594.33
42.1115	577.93
42.1259	595.11
42.1404	598.77
42.1548	607.72
42.1693	668.22
42.1837	661.91
42.1981	748.56
42.2126	810.82
42.2270	885.11
42.2415	1022.63
42.2559	1178.71
42.2703	1295.37
42.2848	1436.31
42.2992	1470.34
42.3137	1610.79
42.3281	1633.70
42.3425	1590.36
42.3570	1507.43
42.3714	1452.98
42.3859	1347.42
42.4003	1305.20
42.4147	1325.89
42.4292	1263.08
42.4436	1158.05
42.4581	1042.29
42.4725	968.29
42.4869	875.70
42.5014	782.94
42.5158	723.57
42.5303	683.31
42.5447	613.05
42.5591	612.69
42.5736	593.04
42.5880	586.98
42.6025	576.46
42.6169	580.58
42.6313	568.19
42.6458	542.72
42.6602	563.11
42.6747	519.93
42.6891	532.86
42.7035	559.92
42.7180	511.78
42.7324	491.45
42.7469	488.92
42.7613	499.81
42.7757	503.96
42.7902	490.50
42.8046	513.03
42.8191	512.70
42.8335	501.40
42.8479	502.96
42.8624	518.02
42.8768	561.60
42.8913	530.24
42.9057	519.59
42.9201	506.42
42.9346	504.85
42.9490	516.47
42.9635	500.04
42.9779	498.57
42.9923	497.30
43.0068	503.14
43.0212	506.44
43.0357	499.73
43.0501	493.99
43.0645	528.74
43.0790	525.01
43.0934	521.91
43.1079	523.85
43.1223	524.54
43.1367	484.36
43.1512	470.60
43.1656	526.52
43.1801	517.57
43.1945	474.00
43.2089	496.34
43.2234	512.70
43.2378	504.23
43.2523	518.58
43.2667	505.99
43.2811	514.74
43.2956	531.87
43.3100	521.59
43.3245	530.20
43.3389	538.18
43.3533	543.54
43.3678	541.68
43.3822	481.69
43.3967	478.66
43.4111	473.55
43.4255	506.92
43.4400	520.88
43.4544	493.55
43.4689	522.74
43.4833	535.72
43.4977	521.46
43.5122	500.83
43.5266	534.33
43.5411	526.03
43.5555	538.99
43.5699	529.80
43.5844	497.22
43.5988	544.72
43.6133	547.16
43.6277	521.82
43.6421	527.38
43.6566	526.47
43.6710	542.98
43.6855	543.80
43.6999	598.61
43.7143	643.65
43.7288	659.26
43.7432	691.47
43.7577	686.78
43.7721	687.72
43.7865	667.08
43.8010	619.86
43.8154	634.04
43.8299	606.36
43.8443	616.55
43.8587	609.90
43.8732	629.50
43.8876	611.58
43.9021	612.44
43.9165	608.28
43.9309	548.87
43.9454	552.97
43.9598	552.30
43.9743	551.54
43.9887	503.39
44.0031	501.00
44.0176	520.19
44.0320	512.75
44.0465	504.28
44.0609	521.17
44.0753	505.78
44.0898	500.47
44.1042	494.05
44.1187	507.07
44.1331	519.62
44.1475	461.14
44.1620	510.44
44.1764	508.42
44.1909	485.55
44.2053	495.38
44.2197	532.72
44.2342	533.58
44.2486	545.57
44.2631	552.71
44.2775	522.92
44.2919	526.84
44.3064	535.00
44.3208	541.59
44.3353	525.30
44.3497	517.24
44.3641	538.53
44.3786	525.94
44.3930	572.24
44.4075	574.17
44.4219	566.12
44.4363	579.86
44.4508	557.83
44.4652	594.26
44.4797	608.22
44.4941	576.15
44.5085	564.71
44.5230	572.82
44.5374	572.26
44.5519	591.82
44.5663	608.64
44.5807	578.00
44.5952	590.79
44.6096	592.86
44.6241	596.30
44.6385	594.72
44.6529	584.20
44.6674	545.93
44.6818	603.71
44.6963	589.08
44.7107	676.27
44.7251	709.08
44.7396	761.79
44.7540	798.76
44.7685	825.01
44.7829	866.16
44.7973	882.38
44.8118	822.11
44.8262	825.59
44.8407	795.33
44.8551	740.95
44.8695	737.62
44.8840	681.15
44.8984	740.64
44.9129	745.29
44.9273	693.86
44.9417	648.13
44.9562	596.69
44.9706	607.10
44.9851	550.30
44.9995	574.68
45.0139	513.44
45.0284	543.43
45.0428	520.12
45.0573	526.26
45.0717	526.32
45.0861	542.93
45.1006	512.02
45.1150	530.86
45.1295	537.19
45.1439	498.81
45.1583	504.47
45.1728	542.45
45.1872	476.02
45.2017	481.82
45.2161	542.78
45.2305	526.48
45.2450	514.95
45.2594	503.62
45.2739	498.48
45.2883	508.08
45.3028	484.85
45.3172	499.62
45.3316	511.45
45.3461	540.67
45.3605	518.80
45.3750	506.27
45.3894	484.33
45.4038	474.22
45.4183	519.30
45.4327	534.74
45.4472	489.22
45.4616	499.93
45.4760	504.94
45.4905	472.81
45.5049	482.57
45.5194	488.69
45.5338	504.83
45.5482	486.49
45.5627	490.71
45.5771	498.90
45.5916	497.62
45.6060	517.22
45.6204	536.70
45.6349	539.60
45.6493	535.88
45.6638	514.79
45.6782	485.55
45.6926	485.07
45.7071	469.75
45.7215	512.35
45.7360	512.76
45.7504	519.79
45.7648	512.07
45.7793	498.60
45.7937	510.96
45.8082	561.62
45.8226	527.10
45.8370	509.04
45.8515	552.22
45.8659	536.40
45.8804	516.10
45.8948	517.21
45.9092	533.42
45.9237	536.26
45.9381	512.14
45.9526	498.06
45.9670	500.94
45.9814	500.88
45.9959	496.69
46.0103	534.02
46.0248	514.61
46.0392	482.76
46.0536	531.91
46.0681	514.53
46.0825	471.67
46.0970	505.18
46.1114	506.05
46.1258	540.12
46.1403	536.14
46.1547	488.26
46.1692	496.63
46.1836	508.13
46.1980	497.85
46.2125	547.96
46.2269	518.91
46.2414	490.12
46.2558	473.39
46.2702	492.89
46.2847	511.33
46.2991	497.79
46.3136	505.48
46.3280	504.25
46.3424	502.49
46.3569	521.33
46.3713	514.15
46.3858	503.65
46.4002	469.37
46.4146	492.63
46.4291	518.20
46.4435	529.06
46.4580	509.76
46.4724	509.19
46.4868	509.24
46.5013	490.88
46.5157	508.53
46.5302	488.65
46.5446	501.76
46.5590	531.78
46.5735	495.52
46.5879	479.65
46.6024	473.16
46.6168	512.25
46.6312	511.15
46.6457	536.56
46.6601	540.05
46.6746	520.96
46.6890	514.52
46.7034	540.44
46.7179	535.74
46.7323	497.79
46.7468	482.90
46.7612	509.47
46.7756	528.74
46.7901	534.39
46.8045	528.55
46.8190	512.82
46.8334	498.59
46.8478	469.73
46.8623	515.04
46.8767	490.81
46.8912	534.03
46.9056	526.33
46.9200	515.66
46.9345	515.64
46.9489	499.38
46.9634	521.70
46.9778	525.31
46.9922	484.11
47.0067	513.38
47.0211	526.44
47.0356	540.16
47.0500	502.15
47.0644	526.05
47.0789	555.55
47.0933	528.28
47.1078	509.70
47.1222	499.08
47.1366	532.99
47.1511	506.45
47.1655	524.03
47.1800	518.14
47.1944	503.53
47.2088	502.76
47.2233	525.87
47.2377	519.60
47.2522	524.09
47.2666	487.46
47.2810	504.80
47.2955	491.96
47.3099	509.69
47.3244	521.48
47.3388	484.16
47.3532	498.94
47.3677	519.07
47.3821	507.46
47.3966	460.14
47.4110	477.91
47.4254	524.85
47.4399	492.73
47.4543	465.44
47.4688	501.76
47.4832	515.32
47.4976	491.13
47.5121	495.74
47.5265	484.32
47.5410	482.59
47.5554	489.28
47.5698	489.20
47.5843	503.55
47.5987	494.86
47.6132	498.29
47.6276	499.57
47.6420	494.04
47.6565	501.21
47.6709	493.67
47.6854	501.28
47.6998	503.33
47.7142	502.50
47.7287	493.55
47.7431	482.45
47.7576	496.51
47.7720	507.53
47.7864	525.07
47.8009	540.09
47.8153	501.72
47.8298	473.14
47.8442	468.19
47.8586	521.56
47.8731	501.12
47.8875	488.88
47.9020	519.28
47.9164	511.67
47.9308	507.82
47.9453	501.85
47.9597	493.78
47.9742	481.19
47.9886	498.20
48.0030	504.48
48.0175	496.15
48.0319	507.49
48.0464	472.39
48.0608	511.62
48.0752	520.27
48.0897	517.79
48.1041	524.92
48.1186	515.68
48.1330	528.13
48.1474	507.45
48.1619	504.46
48.1763	515.67
48.1908	495.55
48.2052	484.90
48.2196	506.58
48.2341	513.80
48.2485	496.04
48.2630	461.32
48.2774	499.71
48.2918	489.82
48.3063	505.35
48.3207	487.06
48.3352	570.54
48.3496	550.23
48.3640	513.04
48.3785	494.70
48.3929	455.92
48.4074	499.10
48.4218	557.88
48.4362	543.55
48.4507	522.06
48.4651	521.57
48.4796	534.49
48.4940	518.57
48.5084	495.17
48.5229	500.83
48.5373	506.09
48.5518	530.77
48.5662	534.97
48.5806	535.39
48.5951	535.11
48.6095	514.39
48.6240	534.38
48.6384	530.42
48.6528	519.72
48.6673	527.92
48.6817	513.03
48.6962	507.94
48.7106	552.54
48.7250	515.27
48.7395	512.51
48.7539	516.36
48.7684	535.94
48.7828	552.76
48.7972	544.59
48.8117	486.47
48.8261	544.46
48.8406	543.65
48.8550	487.71
48.8694	526.41
48.8839	535.44
48.8983	541.58
48.9128	556.31
48.9272	570.18
48.9416	579.47
48.9561	543.61
48.9705	574.72
48.9850	535.19
48.9994	585.26
49.0139	550.94
49.0283	582.27
49.0427	600.26
49.0572	619.22
49.0716	615.03
49.0861	653.18
49.1005	672.28
49.1149	689.98
49.1294	693.56
49.1438	722.24
49.1583	754.18
49.1727	738.70
49.1871	833.80
49.2016	845.74
49.2160	957.11
49.2305	992.80
49.2449	1154.38
49.2593	1184.62
49.2738	1315.95
49.2882	1355.17
49.3027	1403.59
49.3171	1504.96
49.3315	1601.12
49.3460	1636.71
49.3604	1686.74
49.3749	1678.36
49.3893	1670.94
49.4037	1739.14
49.4182	1685.14
49.4326	1684.43
49.4471	1666.48
49.4615	1645.11
49.4759	1589.20
49.4904	1511.71
49.5048	1425.31
49.5193	1370.84
49.5337	1328.05
49.5481	1212.14
49.5626	1164.24
49.5770	1035.79
49.5915	1014.51
49.6059	937.19
49.6203	847.12
49.6348	839.99
49.6492	798.58
49.6637	756.27
49.6781	709.67
49.6925	727.19
49.7070	709.81
49.7214	645.09
49.7359	647.03
49.7503	638.54
49.7647	603.23
49.7792	587.02
49.7936	568.27
49.8081	568.53
49.8225	604.83
49.8369	550.09
49.8514	558.29
49.8658	566.86
49.8803	550.77
49.8947	547.57
49.9091	573.35
49.9236	535.89
49.9380	591.64
49.9525	573.90
49.9669	539.50
49.9813	548.38
49.9958	544.41
50.0102	537.93
50.0247	542.88
50.0391	539.29
50.0535	513.46
50.0680	506.30
50.0824	523.61
50.0969	516.39
50.1113	510.65
50.1257	525.41
50.1402	532.75
50.1546	506.97
50.1691	503.69
50.1835	528.65
50.1979	505.60
50.2124	509.66
50.2268	507.39
50.2413	513.69
50.2557	531.64
50.2701	533.12
50.2846	528.95
50.2990	518.21
50.3135	511.06
50.3279	518.24
50.3423	499.26
50.3568	482.28
50.3712	513.95
50.3857	507.91
50.4001	516.32
50.4145	540.17
50.4290	515.83
50.4434	506.30
50.4579	488.68
50.4723	498.70
50.4867	504.72
50.5012	539.95
50.5156	527.68
50.5301	510.44
50.5445	529.65
50.5589	523.45
50.5734	515.50
50.5878	508.85
50.6023	505.09
50.6167	512.77
50.6311	537.27
50.6456	487.25
50.6600	485.72
50.6745	510.05
50.6889	495.34
50.7033	508.24
50.7178	517.86
50.7322	463.40
50.7467	511.48
50.7611	514.56
50.7755	530.97
50.7900	525.26
50.8044	531.86
50.8189	522.01
50.8333	512.61
50.8477	515.41
50.8622	516.14
50.8766	523.52
50.8911	528.51
50.9055	518.95
50.9199	503.53
50.9344	490.70
50.9488	516.69
50.9633	542.27
50.9777	511.86
50.9921	516.01
51.0066	487.08
51.0210	510.15
51.0355	485.79
51.0499	491.61
51.0643	526.57
51.0788	512.70
51.0932	534.33
51.1077	492.06
51.1221	465.48
51.1365	494.06
51.1510	474.40
51.1654	475.49
51.1799	493.73
51.1943	499.72
51.2087	512.22
51.2232	505.85
51.2376	502.73
51.2521	493.03
51.2665	460.74
51.2809	487.61
51.2954	496.73
51.3098	531.44
51.3243	543.83
51.3387	500.99
51.3531	517.17
51.3676	514.66
51.3820	493.26
51.3965	504.04
51.4109	489.26
51.4253	501.42
51.4398	494.02
51.4542	495.30
51.4687	522.22
51.4831	529.38
51.4975	506.89
51.5120	468.73
51.5264	503.18
51.5409	527.02
51.5553	514.44
51.5697	478.52
51.5842	479.46
51.5986	477.25
51.6131	477.42
51.6275	480.85
51.6419	503.33
51.6564	482.58
51.6708	464.67
51.6853	475.70
51.6997	532.27
51.7141	502.34
51.7286	461.27
51.7430	510.17
51.7575	490.66
51.7719	505.16
51.7863	516.09
51.8008	498.87
51.8152	512.65
51.8297	493.71
51.8441	508.25
51.8585	505.07
51.8730	525.56
51.8874	512.37
51.9019	494.68
51.9163	504.11
51.9307	482.75
51.9452	497.48
51.9596	499.50
51.9741	503.37
51.9885	494.33
52.0029	466.87
52.0174	525.76
52.0318	480.22
52.0463	508.14
52.0607	525.43
52.0751	545.08
52.0896	499.62
52.1040	480.09
52.1185	539.76
52.1329	544.14
52.1473	500.27
52.1618	489.58
52.1762	510.46
52.1907	501.49
52.2051	521.64
52.2195	488.01
52.2340	531.65
52.2484	491.92
52.2629	539.85
52.2773	537.41
52.2917	503.22
52.3062	522.11
52.3206	524.57
52.3351	518.90
52.3495	517.89
52.3639	495.93
52.3784	522.36
52.3928	488.85
52.4073	480.45
52.4217	517.79
52.4361	531.39
52.4506	525.29
52.4650	517.67
52.4795	525.19
52.4939	515.13
52.5083	519.73
52.5228	530.93
52.5372	516.00
52.5517	516.10
52.5661	492.39
52.5805	520.21
52.5950	499.29
52.6094	511.88
52.6239	501.82
52.6383	535.81
52.6527	533.46
52.6672	509.61
52.6816	502.38
52.6961	521.70
52.7105	492.47
52.7250	526.94
52.7394	505.06
52.7538	537.46
52.7683	504.38
52.7827	516.42
52.7972	490.37
52.8116	508.78
52.8260	498.37
52.8405	505.96
52.8549	513.69
52.8694	502.62
52.8838	531.53
52.8982	543.81
52.9127	528.98
52.9271	529.36
52.9416	500.40
52.9560	500.81
52.9704	490.70
52.9849	493.53
52.9993	488.15
53.0138	522.82
53.0282	529.19
53.0426	534.32
53.0571	519.36
53.0715	518.87
53.0860	554.71
53.1004	498.45
53.1148	502.63
53.1293	484.09
53.1437	529.13
53.1582	529.35
53.1726	525.41
53.1870	498.71
53.2015	490.72
53.2159	479.36
53.2304	495.13
53.2448	478.21
53.2592	486.85
53.2737	500.57
53.2881	550.59
53.3026	536.65
53.3170	545.91
53.3314	529.22
53.3459	509.41
53.3603	487.57
53.3748	538.93
53.3892	515.89
53.4036	531.75
53.4181	518.33
53.4325	544.84
53.4470	507.27
53.4614	521.17
53.4758	535.67
53.4903	483.63
53.5047	486.91
53.5192	510.35
53.5336	529.09
53.5480	521.28
53.5625	502.36
53.5769	512.01
53.5914	506.74
53.6058	522.35
53.6202	510.42
53.6347	534.35
53.6491	554.36
53.6636	519.24
53.6780	535.91
53.6924	513.34
53.7069	549.90
53.7213	524.43
53.7358	524.06
53.7502	516.96
53.7646	522.07
53.7791	499.59
53.7935	539.50
53.8080	527.94
53.8224	538.77
53.8368	553.09
53.8513	508.30
53.8657	519.13
53.8802	500.84
53.8946	506.82
53.9090	533.47
53.9235	514.46
53.9379	575.03
53.9524	549.42
53.9668	518.12
53.9812	518.96
53.9957	505.37
54.0101	493.04
54.0246	537.55
54.0390	517.20
54.0534	527.84
54.0679	540.35
54.0823	547.33
54.0968	555.04
54.1112	500.51
54.1256	530.14
54.1401	532.61
54.1545	523.82
54.1690	538.74
54.1834	553.57
54.1978	535.59
54.2123	558.41
54.2267	579.33
54.2412	573.28
54.2556	592.46
54.2700	610.36
54.2845	599.86
54.2989	619.15
54.3134	659.51
54.3278	649.83
54.3422	615.44
54.3567	580.11
54.3711	570.55
54.3856	558.21
54.4000	558.84
54.4144	620.78
54.4289	607.86
54.4433	575.40
54.4578	589.63
54.4722	608.52
54.4866	599.98
54.5011	563.79
54.5155	540.43
54.5300	527.88
54.5444	538.92
54.5588	555.24
54.5733	591.49
54.5877	533.00
54.6022	532.75
54.6166	548.86
54.6310	562.20
54.6455	529.82
54.6599	497.02
54.6744	499.53
54.6888	522.72
54.7032	540.17
54.7177	514.27
54.7321	517.26
54.7466	518.83
54.7610	530.51
54.7754	545.64
54.7899	515.27
54.8043	475.60
54.8188	530.36
54.8332	515.71
54.8476	495.72
54.8621	515.32
54.8765	557.73
54.8910	543.17
54.9054	562.18
54.9198	505.90
54.9343	512.31
54.9487	509.90
54.9632	493.16
54.9776	494.99
54.9920	518.14
55.0065	491.86
55.0209	534.00
55.0354	520.80
55.0498	494.42
55.0642	517.64
55.0787	540.87
55.0931	525.14
55.1076	525.66
55.1220	547.71
55.1364	513.67
55.1509	520.50
55.1653	527.11
55.1798	508.02
55.1942	487.40
55.2086	526.56
55.2231	562.41
55.2375	544.77
55.2520	524.72
55.2664	513.82
55.2808	520.22
55.2953	529.38
55.3097	497.98
55.3242	509.49
55.3386	508.10
55.3530	531.95
55.3675	536.12
55.3819	497.99
55.3964	497.88
55.4108	516.66
55.4252	529.16
55.4397	505.61
55.4541	497.86
55.4686	535.54
55.4830	489.44
55.4974	511.22
55.5119	513.75
55.5263	512.88
55.5408	519.13
55.5552	507.90
55.5696	528.82
55.5841	528.48
55.5985	520.38
55.6130	521.82
55.6274	538.22
55.6418	539.58
55.6563	512.44
55.6707	512.68
55.6852	532.31
55.6996	530.31
55.7140	537.39
55.7285	513.69
55.7429	515.07
55.7574	505.32
55.7718	533.00
55.7862	523.78
55.8007	548.58
55.8151	534.53
55.8296	521.18
55.8440	504.62
55.8584	509.57
55.8729	541.03
55.8873	549.39
55.9018	553.69
55.9162	533.56
55.9306	541.69
55.9451	545.90
55.9595	505.64
55.9740	512.18
55.9884	563.42
56.0028	519.50
56.0173	523.03
56.0317	525.62
56.0462	530.69
56.0606	590.62
56.0750	519.47
56.0895	542.18
56.1039	519.78
56.1184	541.54
56.1328	526.66
56.1472	493.39
56.1617	509.21
56.1761	537.01
56.1906	511.54
56.2050	505.19
56.2194	508.92
56.2339	522.12
56.2483	507.87
56.2628	508.21
56.2772	525.32
56.2916	533.38
56.3061	521.11
56.3205	534.27
56.3350	547.74
56.3494	530.91
56.3639	555.58
56.3783	514.01
56.3927	521.35
56.4072	496.18
56.4216	531.29
56.4361	533.26
56.4505	523.81
56.4649	536.40
56.4794	533.02
56.4938	534.69
56.5083	532.37
56.5227	556.78
56.5371	516.76
56.5516	520.42
56.5660	541.90
56.5805	552.75
56.5949	541.74
56.6093	521.79
56.6238	543.22
56.6382	534.12
56.6527	518.52
56.6671	479.54
56.6815	470.51
56.6960	523.51
56.7104	525.14
56.7249	493.86
56.7393	545.62
56.7537	535.60
56.7682	536.38
56.7826	565.60
56.7971	467.16
56.8115	520.68
56.8259	507.55
56.8404	520.73
56.8548	510.51
56.8693	515.83
56.8837	509.85
56.8981	533.91
56.9126	531.25
56.9270	540.85
56.9415	519.61
56.9559	534.45
56.9703	537.61
56.9848	511.90
56.9992	572.23
57.0137	515.24
57.0281	509.38
57.0425	520.89
57.0570	513.95
57.0714	525.64
57.0859	540.21
57.1003	509.81
57.1147	563.90
57.1292	562.12
57.1436	488.48
57.1581	507.43
57.1725	509.19
57.1869	531.34
57.2014	546.94
57.2158	522.30
57.2303	540.13
57.2447	527.98
57.2591	507.18
57.2736	518.78
57.2880	535.90
57.3025	502.32
57.3169	503.79
57.3313	535.85
57.3458	544.16
57.3602	505.90
57.3747	523.60
57.3891	571.98
57.4035	515.75
57.4180	499.25
57.4324	531.21
57.4469	525.21
57.4613	506.33
57.4757	533.91
57.4902	552.09
57.5046	510.98
57.5191	543.10
57.5335	544.50
57.5479	532.01
57.5624	519.43
57.5768	548.92
57.5913	533.69
57.6057	538.34
57.6201	549.36
57.6346	524.99
57.6490	538.62
57.6635	548.20
57.6779	527.56
57.6923	494.24
57.7068	570.07
57.7212	568.13
57.7357	513.96
57.7501	540.36
57.7645	523.17
57.7790	606.89
57.7934	611.47
57.8079	665.43
57.8223	639.85
57.8367	649.25
57.8512	681.95
57.8656	713.66
57.8801	758.36
57.8945	724.36
57.9089	746.34
57.9234	754.99
57.9378	686.94
57.9523	659.52
57.9667	688.69
57.9811	686.64
57.9956	667.04
58.0100	683.47
58.0245	673.08
58.0389	682.96
58.0533	682.54
58.0678	659.04
58.0822	640.56
58.0967	627.50
58.1111	606.28
58.1255	626.15
58.1400	580.13
58.1544	558.55
58.1689	555.23
58.1833	555.44
58.1977	574.01
58.2122	546.12
58.2266	533.84
58.2411	565.05
58.2555	578.03
58.2699	551.83
58.2844	534.93
58.2988	510.89
58.3133	536.14
58.3277	562.75
58.3421	539.52
58.3566	538.23
58.3710	528.62
58.3855	506.58
58.3999	494.69
58.4143	504.99
58.4288	576.29
58.4432	516.48
58.4577	494.86
58.4721	543.20
58.4865	551.08
58.5010	517.82
58.5154	525.99
58.5299	506.60
58.5443	510.58
58.5587	523.91
58.5732	517.68
58.5876	534.21
58.6021	557.07
58.6165	582.04
58.6309	540.56
58.6454	537.50
58.6598	534.01
58.6743	528.90
58.6887	512.75
58.7031	540.36
58.7176	542.60
58.7320	507.63
58.7465	515.02
58.7609	533.58
58.7753	558.34
58.7898	532.22
58.8042	540.28
58.8187	553.17
58.8331	521.50
58.8475	502.73
58.8620	521.34
58.8764	518.98
58.8909	501.33
58.9053	516.08
58.9197	517.65
58.9342	528.32
58.9486	522.65
58.9631	512.18
58.9775	487.71
58.9919	539.83
59.0064	522.52
59.0208	551.29
59.0353	541.98
59.0497	544.44
59.0641	543.21
59.0786	513.12
59.0930	563.28
59.1075	523.24
59.1219	541.69
59.1363	560.51
59.1508	544.87
59.1652	530.43
59.1797	499.35
59.1941	518.08
59.2085	509.63
59.2230	536.47
59.2374	522.80
59.2519	529.21
59.2663	526.37
59.2807	529.45
59.2952	539.53
59.3096	564.31
59.3241	602.67
59.3385	591.09
59.3529	617.74
59.3674	553.20
59.3818	556.33
59.3963	537.39
59.4107	565.52
59.4251	610.98
59.4396	556.92
59.4540	536.93
59.4685	584.03
59.4829	597.46
59.4973	549.52
59.5118	548.36
59.5262	566.00
59.5407	535.07
59.5551	546.42
59.5695	546.01
59.5840	510.38
59.5984	557.15
59.6129	565.56
59.6273	510.48
59.6417	554.38
59.6562	534.13
59.6706	526.91
59.6851	518.30
59.6995	531.65
59.7139	510.35
59.7284	520.34
59.7428	515.69
59.7573	512.49
59.7717	520.53
59.7861	548.39
59.8006	501.50
59.8150	539.98
59.8295	529.52
59.8439	531.78
59.8583	561.07
59.8728	564.71
59.8872	556.96
59.9017	564.30
59.9161	555.32
59.9305	520.53
59.9450	573.06
59.9594	570.54
59.9739	540.81
59.9883	512.70
60.0027	518.65
60.0172	546.88
60.0316	521.64
60.0461	518.21
60.0605	552.98
60.0750	531.84
60.0894	523.95
60.1038	503.18
60.1183	558.57
60.1327	579.88
60.1472	526.19
60.1616	533.15
60.1760	546.49
60.1905	526.10
60.2049	523.85
60.2194	535.17
60.2338	561.37
60.2482	561.41
60.2627	535.99
60.2771	567.90
60.2916	553.72
60.3060	554.51
60.3204	521.09
60.3349	565.43
60.3493	564.42
60.3638	583.10
60.3782	521.03
60.3926	519.52
60.4071	525.49
60.4215	511.25
60.4360	559.74
60.4504	550.94
60.4648	545.99
60.4793	553.51
60.4937	562.85
60.5082	518.28
60.5226	523.96
60.5370	549.57
60.5515	552.43
60.5659	531.15
60.5804	530.19
60.5948	535.31
60.6092	585.38
60.6237	543.42
60.6381	542.77
60.6526	552.66
60.6670	542.27
60.6814	529.16
60.6959	520.41
60.7103	560.35
60.7248	549.63
60.7392	539.97
60.7536	536.22
60.7681	575.55
60.7825	577.89
60.7970	563.30
60.8114	547.27
60.8258	551.75
60.8403	540.97
60.8547	520.40
60.8692	523.49
60.8836	557.58
60.8980	533.68
60.9125	512.40
60.9269	537.00
60.9414	553.04
60.9558	543.48
60.9702	634.19
60.9847	542.75
60.9991	542.45
61.0136	586.24
61.0280	542.32
61.0424	553.47
61.0569	539.30
61.0713	571.09
61.0858	556.38
61.1002	569.06
61.1146	553.90
61.1291	534.06
61.1435	529.60
61.1580	531.86
61.1724	555.34
61.1868	545.10
61.2013	547.75
61.2157	530.68
61.2302	518.34
61.2446	524.93
61.2590	529.71
61.2735	528.16
61.2879	529.90
61.3024	538.32
61.3168	552.49
61.3312	544.77
61.3457	550.05
61.3601	497.30
61.3746	535.59
61.3890	520.04
61.4034	553.92
61.4179	527.54
61.4323	578.85
61.4468	534.61
61.4612	533.35
61.4756	586.41
61.4901	570.37
61.5045	552.50
61.5190	494.50
61.5334	562.22
61.5478	567.04
61.5623	570.45
61.5767	532.18
61.5912	526.74
61.6056	562.49
61.6200	507.76
61.6345	544.84
61.6489	545.42
61.6634	532.92
61.6778	522.50
61.6922	546.43
61.7067	598.66
61.7211	580.31
61.7356	548.80
61.7500	569.11
61.7644	556.51
61.7789	533.66
61.7933	552.38
61.8078	551.98
61.8222	557.72
61.8366	551.64
61.8511	549.79
61.8655	573.97
61.8800	566.46
61.8944	567.10
61.9088	592.28
61.9233	531.78
61.9377	560.21
61.9522	584.74
61.9666	560.76
61.9810	590.48
61.9955	559.92
62.0099	542.18
62.0244	587.82
62.0388	587.12
62.0532	546.06
62.0677	547.89
62.0821	577.97
62.0966	567.60
62.1110	548.20
62.1254	530.75
62.1399	539.55
62.1543	547.90
62.1688	587.26
62.1832	570.31
62.1976	550.48
62.2121	532.52
62.2265	512.57
62.2410	547.89
62.2554	583.83
62.2698	545.44
62.2843	510.32
62.2987	525.15
62.3132	532.22
62.3276	527.22
62.3420	531.09
62.3565	540.81
62.3709	543.83
62.3854	526.62
62.3998	550.49
62.4142	528.53
62.4287	551.34
62.4431	507.45
62.4576	514.15
62.4720	566.82
62.4864	570.18
62.5009	535.89
62.5153	523.90
62.5298	544.77
62.5442	528.03
62.5586	557.67
62.5731	567.49
62.5875	612.03
62.6020	572.48
62.6164	567.97
62.6308	583.90
62.6453	572.83
62.6597	543.07
62.6742	543.02
62.6886	547.61
62.7030	599.28
62.7175	559.78
62.7319	530.78
62.7464	531.32
62.7608	523.63
62.7752	567.71
62.7897	566.04
62.8041	556.57
62.8186	555.57
62.8330	567.59
62.8474	568.64
62.8619	561.68
62.8763	541.32
62.8908	550.47
62.9052	583.69
62.9196	558.12
62.9341	550.42
62.9485	552.33
62.9630	550.93
62.9774	547.31
62.9918	553.02
63.0063	553.26
63.0207	577.55
63.0352	590.25
63.0496	569.97
63.0640	600.45
63.0785	575.10
63.0929	560.13
63.1074	552.48
63.1218	574.36
63.1362	588.29
63.1507	561.44
63.1651	547.32
63.1796	556.08
63.1940	552.07
63.2084	560.10
63.2229	545.82
63.2373	545.53
63.2518	592.15
63.2662	564.12
63.2806	596.01
63.2951	566.71
63.3095	587.98
63.3240	585.71
63.3384	609.11
63.3528	596.39
63.3673	584.17
63.3817	601.58
63.3962	602.30
63.4106	622.40
63.4250	665.61
63.4395	658.97
63.4539	650.60
63.4684	662.17
63.4828	720.58
63.4972	755.46
63.5117	723.99
63.5261	797.70
63.5406	891.91
63.5550	945.58
63.5694	1064.09
63.5839	1052.00
63.5983	1067.69
63.6128	1030.50
63.6272	947.28
63.6416	925.14
63.6561	837.96
63.6705	807.23
63.6850	792.91
63.6994	746.54
63.7138	837.37
63.7283	824.99
63.7427	816.36
63.7572	825.30
63.7716	867.80
63.7861	825.25
63.8005	764.88
63.8149	763.03
63.8294	735.53
63.8438	682.46
63.8583	689.97
63.8727	652.39
63.8871	623.07
63.9016	657.56
63.9160	630.90
63.9305	632.32
63.9449	648.97
63.9593	587.54
63.9738	560.06
63.9882	602.07
64.0027	608.62
64.0171	622.04
64.0315	591.50
64.0460	606.60
64.0604	604.69
64.0749	589.99
64.0893	614.18
64.1037	585.40
64.1182	622.08
64.1326	592.85
64.1471	580.35
64.1615	586.94
64.1759	596.65
64.1904	564.02
64.2048	588.29
64.2193	581.52
64.2337	618.27
64.2481	592.79
64.2626	626.41
64.2770	603.24
64.2915	584.91
64.3059	597.63
64.3203	638.24
64.3348	606.07
64.3492	593.17
64.3637	629.19
64.3781	624.08
64.3925	575.27
64.4070	584.84
64.4214	641.58
64.4359	683.23
64.4503	624.21
64.4647	616.21
64.4792	605.56
64.4936	603.51
64.5081	603.54
64.5225	623.81
64.5369	634.34
64.5514	617.91
64.5658	636.54
64.5803	620.97
64.5947	624.29
64.6091	633.95
64.6236	616.39
64.6380	611.29
64.6525	640.96
64.6669	608.27
64.6813	660.28
64.6958	652.54
64.7102	687.78
64.7247	685.18
64.7391	682.32
64.7535	747.23
64.7680	692.86
64.7824	724.59
64.7969	754.18
64.8113	785.26
64.8257	807.96
64.8402	792.21
64.8546	830.76
64.8691	784.27
64.8835	830.51
64.8979	879.46
64.9124	882.22
64.9268	811.20
64.9413	940.73
64.9557	911.97
64.9701	987.16
64.9846	1006.87
64.9990	1109.88
65.0135	1296.81
65.0279	1444.58
65.0423	1622.57
65.0568	2016.85
65.0712	2466.15
65.0857	3236.22
65.1001	4210.31
65.1145	5759.22
65.1290	7478.49
65.1434	9173.57
65.1579	10824.74
65.1723	11741.75
65.1867	11464.39
65.2012	10251.43
65.2156	8875.14
65.2301	7049.19
65.2445	5631.79
65.2589	4567.79
65.2734	4239.73
65.2878	4355.21
65.3023	4817.62
65.3167	5558.83
65.3311	6419.28
65.3456	6976.61
65.3600	7074.72
65.3745	6696.89
65.3889	5739.09
65.4033	4730.27
65.4178	3646.53
65.4322	2920.58
65.4467	2198.59
65.4611	1773.68
65.4755	1492.35
65.4900	1331.25
65.5044	1182.44
65.5189	1073.38
65.5333	1000.63
65.5477	904.44
65.5622	899.20
65.5766	874.09
65.5911	828.77
65.6055	850.32
65.6199	786.74
65.6344	784.77
65.6488	756.30
65.6633	740.68
65.6777	742.88
65.6921	736.91
65.7066	733.98
65.7210	694.23
65.7355	696.64
65.7499	677.50
65.7643	679.08
65.7788	677.63
65.7932	663.86
65.8077	656.17
65.8221	636.94
65.8365	688.86
65.8510	706.79
65.8654	683.10
65.8799	660.38
65.8943	676.84
65.9087	655.22
65.9232	621.61
65.9376	638.67
65.9521	646.03
65.9665	642.54
65.9809	613.41
65.9954	629.56
66.0098	597.45
66.0243	624.85
66.0387	658.52
66.0531	638.52
66.0676	618.13
66.0820	643.39
66.0965	655.95
66.1109	622.64
66.1253	623.53
66.1398	635.38
66.1542	653.61
66.1687	649.93
66.1831	615.55
66.1975	604.60
66.2120	602.84
66.2264	566.28
66.2409	604.23
66.2553	604.54
66.2697	607.34
66.2842	604.55
66.2986	623.74
66.3131	600.18
66.3275	634.85
66.3419	643.68
66.3564	591.30
66.3708	591.82
66.3853	596.87
66.3997	570.13
66.4141	580.38
66.4286	627.92
66.4430	624.11
66.4575	623.30
66.4719	657.06
66.4863	626.67
66.5008	613.87
66.5152	592.79
66.5297	595.47
66.5441	581.60
66.5585	570.44
66.5730	611.72
66.5874	604.15
66.6019	617.81
66.6163	613.63
66.6307	583.19
66.6452	589.01
66.6596	567.34
66.6741	601.35
66.6885	570.48
66.7029	603.66
66.7174	595.55
66.7318	601.00
66.7463	589.98
66.7607	586.34
66.7751	587.57
66.7896	591.45
66.8040	583.18
66.8185	621.32
66.8329	585.00
66.8473	586.37
66.8618	598.69
66.8762	587.88
66.8907	565.57
66.9051	583.60
66.9195	586.29
66.9340	606.99
66.9484	582.87
66.9629	556.62
66.9773	609.63
66.9917	580.65
67.0062	573.92
67.0206	582.96
67.0351	579.80
67.0495	613.89
67.0639	602.39
67.0784	590.52
67.0928	583.05
67.1073	564.16
67.1217	589.40
67.1361	578.89
67.1506	547.13
67.1650	575.65
67.1795	595.26
67.1939	574.99
67.2083	564.54
67.2228	570.96
67.2372	575.35
67.2517	585.94
67.2661	608.30
67.2805	594.75
67.2950	549.51
67.3094	577.76
67.3239	573.33
67.3383	556.91
67.3527	580.12
67.3672	559.63
67.3816	575.36
67.3961	578.82
67.4105	563.48
67.4250	603.07
67.4394	532.06
67.4538	541.35
67.4683	588.69
67.4827	579.45
67.4972	552.10
67.5116	568.97
67.5260	579.29
67.5405	565.47
67.5549	547.89
67.5694	581.83
67.5838	561.14
67.5982	581.78
67.6127	551.75
67.6271	575.09
67.6416	551.42
67.6560	594.08
67.6704	563.22
67.6849	566.13
67.6993	597.56
67.7138	585.59
67.7282	570.24
67.7426	585.78
67.7571	559.20
67.7715	593.45
67.7860	584.53
67.8004	565.31
67.8148	568.33
67.8293	566.28
67.8437	574.95
67.8582	562.51
67.8726	572.18
67.8870	553.56
67.9015	587.97
67.9159	589.24
67.9304	588.40
67.9448	567.41
67.9592	548.34
67.9737	594.98
67.9881	586.87
68.0026	548.10
68.0170	589.54
68.0314	554.57
68.0459	602.05
68.0603	563.42
68.0748	569.04
68.0892	582.07
68.1036	566.32
68.1181	602.46
68.1325	567.61
68.1470	548.60
68.1614	594.37
68.1758	551.31
68.1903	552.56
68.2047	587.58
68.2192	565.56
68.2336	541.60
68.2480	555.44
68.2625	562.79
68.2769	561.03
68.2914	556.05
68.3058	598.46
68.3202	565.88
68.3347	599.37
68.3491	592.94
68.3636	592.25
68.3780	561.79
68.3924	584.35
68.4069	547.25
68.4213	612.06
68.4358	588.65
68.4502	547.25
68.4646	605.12
68.4791	612.06
68.4935	535.50
68.5080	543.39
68.5224	589.18
68.5368	571.90
68.5513	591.95
68.5657	611.37
68.5802	555.40
68.5946	596.23
68.6090	585.84
68.6235	562.31
68.6379	596.77
68.6524	588.29
68.6668	579.87
68.6812	573.06
68.6957	530.10
68.7101	596.70
68.7246	565.35
68.7390	541.36
68.7534	614.65
68.7679	599.26
68.7823	527.63
68.7968	562.13
68.8112	572.85
68.8256	551.94
68.8401	553.91
68.8545	564.53
68.8690	585.40
68.8834	599.58
68.8978	596.63
68.9123	543.59
68.9267	602.47
68.9412	550.84
68.9556	564.37
68.9700	535.46
68.9845	597.11
68.9989	612.06
69.0134	573.94
69.0278	593.72
69.0422	571.11
69.0567	591.64
69.0711	557.23
69.0856	603.83
69.1000	560.78
69.1144	604.35
69.1289	575.59
69.1433	536.67
69.1578	599.90
69.1722	584.87
69.1866	587.00
69.2011	623.53
69.2155	579.47
69.2300	579.51
69.2444	604.53
69.2588	519.67
69.2733	576.83
69.2877	544.61
69.3022	535.60
69.3166	563.60
69.3310	580.08
69.3455	549.25
69.3599	582.73
69.3744	550.05
69.3888	600.35
69.4032	615.77
69.4177	563.46
69.4321	615.36
69.4466	566.98
69.4610	552.29
69.4754	561.24
69.4899	582.07
69.5043	580.26
69.5188	544.36
69.5332	568.41
69.5476	576.43
69.5621	591.92
69.5765	576.81
69.5910	577.71
69.6054	574.83
69.6198	520.47
69.6343	567.11
69.6487	605.30
69.6632	634.83
69.6776	566.25
69.6920	579.45
69.7065	613.16
69.7209	594.54
69.7354	575.66
69.7498	631.02
69.7642	571.38
69.7787	609.64
69.7931	561.68
69.8076	614.47
69.8220	590.88
69.8364	602.77
69.8509	596.86
69.8653	600.28
69.8798	563.63
69.8942	589.87
69.9086	632.66
69.9231	560.62
69.9375	542.02
69.9520	560.31
69.9664	585.41
69.9808	568.37
69.9953	569.88
70.0097	595.12
70.0242	549.44
70.0386	580.03
70.0530	626.27
70.0675	622.22
70.0819	557.94
70.0964	547.83
70.1108	547.56
70.1252	580.01
70.1397	539.00
70.1541	542.69
70.1686	585.24
70.1830	582.82
70.1974	553.09
70.2119	551.85
70.2263	525.94
70.2408	560.37
70.2552	560.50
70.2696	604.04
70.2841	560.75
70.2985	567.45
70.3130	590.82
70.3274	577.25
70.3418	560.15
70.3563	598.34
70.3707	564.62
70.3852	563.28
70.3996	598.41
70.4140	592.98
70.4285	607.06
70.4429	577.96
70.4574	579.26
70.4718	603.64
70.4862	614.66
70.5007	626.24
70.5151	517.31
70.5296	529.37
70.5440	553.71
70.5584	581.90
70.5729	569.79
70.5873	568.11
70.6018	559.79
70.6162	572.76
70.6306	586.14
70.6451	582.04
70.6595	602.88
70.6740	578.72
70.6884	574.02
70.7028	585.74
70.7173	633.81
70.7317	559.24
70.7462	607.37
70.7606	642.91
70.7750	589.95
70.7895	565.06
70.8039	518.13
70.8184	544.45
70.8328	566.84
70.8472	570.51
70.8617	552.10
70.8761	639.80
70.8906	591.59
70.9050	527.45
70.9194	546.80
70.9339	564.46
70.9483	573.89
70.9628	550.90
70.9772	562.89
70.9916	596.35
71.0061	562.97
71.0205	562.34
71.0350	558.37
71.0494	577.77
71.0638	633.41
71.0783	621.26
71.0927	623.93
71.1072	611.69
71.1216	662.45
71.1361	679.87
71.1505	633.47
71.1649	608.11
71.1794	587.99
71.1938	574.69
71.2083	583.50
71.2227	580.76
71.2371	597.19
71.2516	604.39
71.2660	608.55
71.2805	588.20
71.2949	540.68
71.3093	498.15
71.3238	518.68
71.3382	544.14
71.3527	556.30
71.3671	551.57
71.3815	569.07
71.3960	594.08
71.4104	565.14
71.4249	622.08
71.4393	578.65
71.4537	521.74
71.4682	519.06
71.4826	573.18
71.4971	605.44
71.5115	586.91
71.5259	552.69
71.5404	577.87
71.5548	595.86
71.5693	601.83
71.5837	626.20
71.5981	570.63
71.6126	581.15
71.6270	607.31
71.6415	609.60
71.6559	577.25
71.6703	583.58
71.6848	613.04
71.6992	583.88
71.7137	601.74
71.7281	603.82
71.7425	577.46
71.7570	598.41
71.7714	581.43
71.7859	518.11
71.8003	551.66
71.8147	589.19
71.8292	567.08
71.8436	571.32
71.8581	554.87
71.8725	572.99
71.8869	528.94
71.9014	617.72
71.9158	632.83
71.9303	573.36
71.9447	568.57
71.9591	572.61
71.9736	544.56
71.9880	543.98
72.0025	603.86
72.0169	575.16
72.0313	510.99
72.0458	527.39
72.0602	560.16
72.0747	593.92
72.0891	596.54
72.1035	593.89
72.1180	555.31
72.1324	561.49
72.1469	603.33
72.1613	566.77
72.1757	665.40
72.1902	690.01
72.2046	621.04
72.2191	564.06
72.2335	569.31
72.2479	588.09
72.2624	541.14
72.2768	531.88
72.2913	561.61
72.3057	551.33
72.3201	562.67
72.3346	622.11
72.3490	603.51
72.3635	598.42
72.3779	629.52
72.3923	593.24
72.4068	544.83
72.4212	568.80
72.4357	523.08
72.4501	553.09
72.4645	571.79
72.4790	558.99
72.4934	634.72
72.5079	628.13
72.5223	640.69
72.5367	623.04
72.5512	594.69
72.5656	605.11
72.5801	577.95
72.5945	511.65
72.6089	496.92
72.6234	554.05
72.6378	592.90
72.6523	541.84
72.6667	561.43
72.6811	547.07
72.6956	531.77
72.7100	569.34
72.7245	574.01
72.7389	566.82
72.7533	555.69
72.7678	613.77
72.7822	659.90
72.7967	630.26
72.8111	624.51
72.8255	632.82
72.8400	598.27
72.8544	607.80
72.8689	676.36
72.8833	572.24