2022.09.19 19:37:16
Îáðàçåö: ß÷åéêà LCoV 16-09-2022
Lambda1 = 1.54060
Lambda2 = 1.54439
Lambdam = 1.54186
R = 0.497
2Theta	I

line¹ 0 ;repeat¹ 0
22.1120	566.81
22.1264	551.45
22.1409	624.74
22.1553	529.44
22.1697	540.22
22.1842	532.52
22.1986	525.67
22.2131	470.80
22.2275	555.92
22.2419	547.12
22.2564	580.84
22.2708	596.21
22.2853	603.00
22.2997	527.61
22.3141	605.05
22.3286	615.63
22.3430	530.68
22.3575	584.26
22.3719	558.64
22.3863	576.98
22.4008	574.78
22.4152	690.50
22.4297	656.72
22.4441	503.78
22.4585	510.27
22.4730	614.23
22.4874	574.30
22.5019	587.04
22.5163	542.11
22.5307	560.06
22.5452	566.11
22.5596	497.10
22.5741	579.43
22.5885	625.27
22.6029	548.16
22.6174	590.51
22.6318	625.70
22.6463	586.47
22.6607	667.11
22.6751	635.59
22.6896	565.81
22.7040	612.13
22.7185	595.54
22.7329	615.15
22.7473	584.74
22.7618	534.49
22.7762	513.62
22.7907	584.50
22.8051	672.73
22.8195	640.96
22.8340	589.33
22.8484	538.83
22.8629	494.87
22.8773	586.63
22.8917	600.96
22.9062	575.09
22.9206	527.63
22.9351	569.15
22.9495	665.57
22.9639	684.52
22.9784	637.14
22.9928	582.62
23.0073	548.86
23.0217	579.78
23.0361	533.63
23.0506	522.91
23.0650	542.67
23.0795	505.56
23.0939	566.56
23.1083	623.84
23.1228	566.89
23.1372	577.63
23.1517	552.03
23.1661	526.52
23.1806	607.59
23.1950	511.94
23.2094	540.69
23.2239	569.56
23.2383	589.92
23.2528	530.64
23.2672	614.67
23.2816	534.71
23.2961	450.96
23.3105	618.83
23.3250	605.47
23.3394	574.69
23.3538	586.94
23.3683	558.33
23.3827	614.45
23.3972	529.03
23.4116	495.63
23.4260	564.91
23.4405	501.19
23.4549	568.85
23.4694	582.98
23.4838	543.92
23.4982	576.71
23.5127	577.85
23.5271	578.31
23.5416	503.06
23.5560	506.66
23.5704	563.13
23.5849	595.43
23.5993	582.33
23.6138	552.02
23.6282	544.78
23.6426	539.95
23.6571	512.90
23.6715	624.91
23.6860	517.54
23.7004	469.07
23.7148	538.50
23.7293	582.82
23.7437	502.70
23.7582	551.20
23.7726	558.83
23.7870	562.95
23.8015	536.28
23.8159	567.06
23.8304	538.69
23.8448	565.29
23.8592	573.43
23.8737	528.63
23.8881	555.83
23.9026	564.29
23.9170	528.24
23.9314	555.15
23.9459	582.72
23.9603	524.49
23.9748	553.98
23.9892	561.41
24.0036	558.82
24.0181	535.60
24.0325	538.84
24.0470	572.17
24.0614	488.51
24.0758	451.16
24.0903	564.27
24.1047	583.07
24.1192	579.63
24.1336	585.59
24.1480	533.51
24.1625	543.42
24.1769	555.59
24.1914	558.96
24.2058	555.52
24.2202	618.59
24.2347	605.62
24.2491	579.03
24.2636	594.85
24.2780	567.36
24.2924	631.66
24.3069	558.36
24.3213	580.48
24.3358	602.88
24.3502	565.16
24.3646	562.86
24.3791	570.70
24.3935	478.45
24.4080	539.37
24.4224	516.59
24.4368	526.31
24.4513	452.57
24.4657	567.67
24.4802	531.48
24.4946	507.07
24.5090	552.40
24.5235	586.42
24.5379	557.68
24.5524	645.16
24.5668	543.61
24.5812	538.71
24.5957	558.64
24.6101	570.25
24.6246	564.38
24.6390	546.42
24.6534	527.68
24.6679	526.20
24.6823	503.52
24.6968	497.03
24.7112	526.88
24.7256	572.65
24.7401	549.94
24.7545	568.32
24.7690	493.32
24.7834	613.93
24.7978	502.16
24.8123	547.95
24.8267	566.48
24.8412	603.13
24.8556	562.91
24.8700	559.07
24.8845	504.26
24.8989	578.86
24.9134	555.59
24.9278	550.07
24.9422	544.44
24.9567	489.43
24.9711	574.97
24.9856	559.78
25.0000	494.94
25.0144	492.56
25.0289	583.20
25.0433	563.08
25.0578	488.33
25.0722	542.18
25.0866	550.54
25.1011	552.55
25.1155	588.18
25.1300	570.39
25.1444	512.80
25.1588	530.84
25.1733	543.04
25.1877	517.22
25.2022	508.98
25.2166	549.19
25.2310	560.56
25.2455	551.77
25.2599	538.80
25.2744	497.77
25.2888	582.95
25.3032	557.32
25.3177	572.55
25.3321	532.75
25.3466	468.03
25.3610	524.75
25.3754	537.96
25.3899	537.70
25.4043	545.83
25.4188	553.69
25.4332	522.23
25.4476	527.64
25.4621	521.16
25.4765	572.75
25.4910	552.37
25.5054	509.41
25.5198	549.86
25.5343	562.74
25.5487	601.15
25.5632	534.53
25.5776	535.87
25.5920	544.80
25.6065	539.99
25.6209	572.73
25.6354	559.91
25.6498	594.54
25.6642	569.05
25.6787	537.66
25.6931	539.65
25.7076	530.03
25.7220	549.26
25.7364	531.12
25.7509	529.66
25.7653	489.17
25.7798	555.35
25.7942	528.45
25.8086	548.88
25.8231	516.06
25.8375	531.67
25.8520	536.06
25.8664	541.22
25.8808	537.86
25.8953	546.60
25.9097	536.43
25.9242	519.53
25.9386	557.95
25.9530	565.30
25.9675	537.49
25.9819	541.79
25.9964	532.84
26.0108	532.83
26.0252	547.16
26.0397	532.50
26.0541	558.38
26.0686	539.96
26.0830	529.04
26.0974	540.24
26.1119	557.97
26.1263	539.96
26.1408	520.33
26.1552	544.84
26.1696	537.31
26.1841	542.99
26.1985	517.95
26.2130	534.00
26.2274	541.52
26.2418	548.15
26.2563	532.10
26.2707	522.60
26.2852	517.36
26.2996	516.13
26.3140	531.43
26.3285	546.87
26.3429	494.01
26.3574	530.62
26.3718	529.10
26.3862	517.64
26.4007	514.50
26.4151	538.79
26.4296	527.70
26.4440	525.52
26.4584	545.08
26.4729	550.59
26.4873	547.38
26.5018	516.56
26.5162	513.82
26.5306	526.20
26.5451	532.76
26.5595	528.08
26.5740	513.91
26.5884	560.41
26.6028	558.04
26.6173	564.27
26.6317	570.73
26.6462	540.05
26.6606	536.45
26.6750	543.44
26.6895	536.04
26.7039	555.24
26.7184	525.58
26.7328	519.00
26.7472	550.87
26.7617	537.68
26.7761	506.01
26.7906	556.13
26.8050	552.83
26.8194	544.30
26.8339	511.96
26.8483	525.59
26.8628	547.04
26.8772	536.26
26.8917	550.68
26.9061	543.88
26.9205	514.04
26.9350	512.72
26.9494	500.28
26.9639	500.18
26.9783	555.24
26.9927	566.88
27.0072	520.87
27.0216	525.80
27.0361	532.93
27.0505	557.64
27.0649	521.42
27.0794	504.87
27.0938	516.75
27.1083	522.08
27.1227	570.60
27.1371	507.53
27.1516	506.23
27.1660	539.05
27.1805	551.75
27.1949	535.40
27.2093	546.92
27.2238	525.81
27.2382	504.03
27.2527	495.03
27.2671	527.81
27.2815	514.11
27.2960	520.05
27.3104	527.14
27.3249	482.18
27.3393	540.60
27.3537	517.66
27.3682	519.56
27.3826	534.64
27.3971	501.76
27.4115	496.25
27.4259	513.12
27.4404	501.90
27.4548	493.67
27.4693	541.78
27.4837	553.58
27.4981	495.69
27.5126	488.35
27.5270	530.48
27.5415	522.23
27.5559	549.09
27.5703	502.29
27.5848	510.73
27.5992	493.82
27.6137	496.57
27.6281	495.44
27.6425	535.56
27.6570	542.14
27.6714	505.45
27.6859	545.49
27.7003	543.54
27.7147	530.83
27.7292	507.94
27.7436	512.82
27.7581	520.25
27.7725	520.67
27.7869	545.58
27.8014	547.40
27.8158	520.21
27.8303	497.95
27.8447	524.11
27.8591	537.97
27.8736	531.00
27.8880	510.16
27.9025	538.61
27.9169	514.60
27.9313	532.18
27.9458	517.59
27.9602	491.74
27.9747	486.66
27.9891	522.98
28.0035	513.90
28.0180	480.77
28.0324	484.12
28.0469	534.89
28.0613	515.66
28.0757	484.61
28.0902	500.64
28.1046	500.55
28.1191	529.46
28.1335	506.21
28.1479	535.60
28.1624	492.37
28.1768	490.94
28.1913	554.84
28.2057	516.16
28.2201	526.06
28.2346	521.79
28.2490	510.91
28.2635	550.15
28.2779	536.85
28.2923	524.15
28.3068	512.54
28.3212	520.89
28.3357	552.51
28.3501	514.94
28.3645	533.22
28.3790	540.30
28.3934	541.59
28.4079	513.20
28.4223	544.20
28.4367	507.10
28.4512	522.19
28.4656	517.35
28.4801	521.29
28.4945	561.06
28.5089	518.54
28.5234	511.80
28.5378	494.36
28.5523	525.98
28.5667	509.02
28.5811	512.34
28.5956	508.48
28.6100	561.11
28.6245	495.67
28.6389	472.72
28.6533	487.22
28.6678	477.60
28.6822	510.74
28.6967	525.85
28.7111	537.61
28.7255	508.21
28.7400	505.08
28.7544	522.88
28.7689	505.12
28.7833	505.98
28.7977	529.06
28.8122	529.98
28.8266	507.87
28.8411	507.38
28.8555	497.13
28.8699	510.90
28.8844	514.93
28.8988	521.01
28.9133	508.55
28.9277	514.45
28.9421	528.56
28.9566	527.87
28.9710	514.93
28.9855	530.52
28.9999	523.98
29.0143	503.93
29.0288	546.95
29.0432	538.87
29.0577	513.80
29.0721	480.95
29.0865	514.00
29.1010	514.25
29.1154	532.53
29.1299	523.51
29.1443	478.81
29.1587	465.74
29.1732	492.53
29.1876	507.67
29.2021	502.06
29.2165	486.28
29.2309	485.06
29.2454	493.91
29.2598	496.70
29.2743	493.08
29.2887	493.57
29.3031	481.35
29.3176	477.89
29.3320	510.54
29.3465	513.47
29.3609	497.35
29.3753	490.01
29.3898	504.43
29.4042	516.84
29.4187	479.60
29.4331	506.93
29.4475	493.32
29.4620	454.56
29.4764	471.73
29.4909	527.79
29.5053	474.41
29.5197	482.82
29.5342	530.69
29.5486	501.84
29.5631	538.34
29.5775	498.27
29.5919	484.60
29.6064	489.25
29.6208	494.28
29.6353	515.27
29.6497	467.57
29.6641	490.63
29.6786	448.33
29.6930	482.35
29.7075	534.94
29.7219	521.59
29.7363	504.68
29.7508	500.18
29.7652	481.41
29.7797	473.33
29.7941	505.92
29.8085	510.23
29.8230	516.69
29.8374	542.51
29.8519	534.74
29.8663	534.20
29.8807	501.72
29.8952	535.04
29.9096	494.58
29.9241	512.41
29.9385	522.20
29.9529	510.50
29.9674	511.85
29.9818	543.63
29.9963	512.48
30.0107	514.21
30.0251	528.78
30.0396	516.22
30.0540	484.39
30.0685	536.60
30.0829	535.62
30.0973	525.62
30.1118	534.10
30.1262	521.95
30.1407	521.44
30.1551	510.19
30.1695	527.21
30.1840	527.36
30.1984	524.79
30.2129	508.07
30.2273	482.92
30.2417	485.16
30.2562	503.21
30.2706	515.16
30.2851	543.23
30.2995	518.11
30.3139	539.31
30.3284	496.63
30.3428	551.54
30.3573	542.48
30.3717	522.54
30.3861	502.66
30.4006	502.75
30.4150	493.19
30.4295	527.82
30.4439	509.73
30.4583	486.72
30.4728	519.09
30.4872	543.83
30.5017	541.75
30.5161	512.90
30.5305	549.49
30.5450	567.33
30.5594	599.27
30.5739	633.58
30.5883	631.05
30.6028	649.96
30.6172	700.77
30.6316	747.24
30.6461	778.71
30.6605	741.10
30.6750	734.55
30.6894	686.51
30.7038	701.28
30.7183	685.49
30.7327	630.37
30.7472	638.22
30.7616	610.50
30.7760	593.58
30.7905	605.39
30.8049	566.09
30.8194	564.02
30.8338	562.14
30.8482	543.32
30.8627	566.58
30.8771	550.07
30.8916	519.67
30.9060	549.04
30.9204	515.88
30.9349	498.98
30.9493	519.93
30.9638	549.44
30.9782	554.54
30.9926	514.88
31.0071	484.97
31.0215	507.63
31.0360	527.55
31.0504	477.45
31.0648	521.75
31.0793	523.67
31.0937	509.06
31.1082	504.38
31.1226	530.31
31.1370	529.85
31.1515	494.31
31.1659	532.77
31.1804	526.68
31.1948	503.06
31.2092	504.90
31.2237	488.38
31.2381	520.69
31.2526	506.42
31.2670	509.91
31.2814	532.89
31.2959	524.96
31.3103	552.08
31.3248	529.09
31.3392	541.32
31.3536	546.23
31.3681	498.89
31.3825	497.65
31.3970	533.42
31.4114	522.69
31.4258	520.15
31.4403	506.97
31.4547	519.48
31.4692	519.09
31.4836	508.81
31.4980	514.73
31.5125	515.82
31.5269	525.47
31.5414	511.90
31.5558	496.83
31.5702	506.17
31.5847	525.45
31.5991	529.82
31.6136	525.57
31.6280	505.70
31.6424	527.11
31.6569	496.74
31.6713	484.35
31.6858	477.95
31.7002	511.40
31.7146	512.54
31.7291	502.26
31.7435	526.88
31.7580	515.19
31.7724	491.65
31.7868	519.98
31.8013	507.37
31.8157	481.80
31.8302	492.44
31.8446	478.08
31.8590	482.58
31.8735	525.93
31.8879	567.30
31.9024	552.69
31.9168	517.01
31.9312	489.30
31.9457	549.22
31.9601	520.30
31.9746	469.37
31.9890	459.30
32.0034	485.56
32.0179	501.69
32.0323	564.78
32.0468	536.01
32.0612	515.14
32.0756	499.98
32.0901	510.99
32.1045	504.95
32.1190	526.79
32.1334	502.71
32.1478	471.23
32.1623	494.27
32.1767	475.29
32.1912	490.87
32.2056	507.29
32.2200	488.22
32.2345	516.15
32.2489	496.14
32.2634	478.26
32.2778	509.72
32.2922	500.46
32.3067	506.96
32.3211	544.78
32.3356	529.99
32.3500	513.62
32.3644	507.98
32.3789	504.95
32.3933	509.11
32.4078	479.93
32.4222	519.25
32.4366	477.62
32.4511	493.61
32.4655	523.77
32.4800	519.68
32.4944	532.56
32.5088	511.54
32.5233	489.18
32.5377	530.04
32.5522	493.98
32.5666	516.70
32.5810	503.97
32.5955	470.69
32.6099	490.29
32.6244	475.20
32.6388	489.22
32.6532	490.58
32.6677	499.16
32.6821	490.62
32.6966	520.91
32.7110	502.84
32.7254	505.11
32.7399	501.57
32.7543	525.09
32.7688	484.07
32.7832	537.48
32.7976	493.79
32.8121	518.39
32.8265	540.80
32.8410	522.88
32.8554	519.42
32.8698	509.41
32.8843	483.09
32.8987	468.98
32.9132	513.97
32.9276	516.99
32.9420	515.58
32.9565	493.01
32.9709	485.15
32.9854	491.81
32.9998	477.85
33.0142	495.16
33.0287	503.01
33.0431	509.24
33.0576	492.67
33.0720	480.42
33.0864	512.12
33.1009	511.75
33.1153	513.38
33.1298	493.57
33.1442	493.11
33.1586	510.86
33.1731	492.03
33.1875	457.66
33.2020	486.67
33.2164	494.84
33.2308	478.60
33.2453	483.74
33.2597	520.95
33.2742	502.29
33.2886	464.62
33.3030	502.70
33.3175	513.68
33.3319	509.86
33.3464	495.04
33.3608	472.26
33.3752	477.97
33.3897	485.79
33.4041	489.95
33.4186	500.03
33.4330	528.90
33.4474	497.29
33.4619	526.24
33.4763	520.84
33.4908	507.61
33.5052	521.95
33.5196	519.71
33.5341	492.11
33.5485	486.41
33.5630	520.06
33.5774	504.84
33.5918	509.95
33.6063	503.24
33.6207	502.82
33.6352	514.80
33.6496	492.08
33.6640	469.89
33.6785	491.15
33.6929	493.12
33.7074	518.97
33.7218	494.03
33.7362	495.19
33.7507	488.57
33.7651	488.07
33.7796	519.54
33.7940	491.36
33.8084	485.35
33.8229	481.38
33.8373	504.28
33.8518	498.46
33.8662	509.83
33.8806	480.24
33.8951	482.96
33.9095	515.57
33.9240	486.70
33.9384	501.42
33.9528	469.04
33.9673	505.08
33.9817	547.80
33.9962	526.79
34.0106	491.53
34.0250	506.60
34.0395	485.54
34.0539	459.89
34.0684	497.14
34.0828	524.80
34.0972	498.97
34.1117	499.86
34.1261	500.92
34.1406	471.27
34.1550	491.76
34.1694	521.27
34.1839	500.67
34.1983	490.51
34.2128	504.97
34.2272	516.12
34.2417	513.27
34.2561	496.64
34.2705	498.67
34.2850	506.57
34.2994	520.68
34.3139	520.02
34.3283	527.22
34.3427	531.00
34.3572	506.04
34.3716	497.68
34.3861	508.97
34.4005	508.82
34.4149	489.55
34.4294	515.03
34.4438	501.96
34.4583	511.77
34.4727	510.63
34.4871	514.88
34.5016	481.88
34.5160	518.53
34.5305	536.41
34.5449	512.05
34.5593	498.01
34.5738	484.48
34.5882	517.11
34.6027	520.15
34.6171	513.20
34.6315	527.93
34.6460	508.34
34.6604	490.26
34.6749	505.37
34.6893	468.77
34.7037	526.04
34.7182	545.79
34.7326	480.95
34.7471	477.25
34.7615	475.56
34.7759	488.60
34.7904	516.18
34.8048	506.37
34.8193	535.76
34.8337	520.75
34.8481	478.42
34.8626	489.16
34.8770	520.72
34.8915	493.01
34.9059	529.49
34.9203	507.52
34.9348	514.57
34.9492	489.50
34.9637	505.55
34.9781	485.66
34.9925	506.44
35.0070	509.92
35.0214	524.18
35.0359	515.14
35.0503	499.52
35.0647	514.37
35.0792	532.95
35.0936	528.21
35.1081	495.93
35.1225	521.17
35.1369	509.04
35.1514	487.73
35.1658	484.62
35.1803	493.89
35.1947	498.67
35.2091	515.12
35.2236	546.56
35.2380	557.94
35.2525	518.20
35.2669	503.83
35.2813	511.07
35.2958	519.73
35.3102	528.14
35.3247	508.39
35.3391	490.03
35.3535	509.25
35.3680	508.45
35.3824	497.43
35.3969	522.12
35.4113	505.42
35.4257	553.37
35.4402	548.61
35.4546	535.49
35.4691	522.95
35.4835	532.05
35.4979	548.17
35.5124	552.97
35.5268	519.95
35.5413	494.59
35.5557	506.55
35.5701	516.05
35.5846	517.74
35.5990	533.74
35.6135	545.62
35.6279	523.15
35.6423	501.09
35.6568	500.05
35.6712	510.79
35.6857	577.28
35.7001	659.23
35.7145	689.21
35.7290	673.18
35.7434	609.84
35.7579	570.42
35.7723	552.14
35.7867	628.08
35.8012	664.20
35.8156	656.49
35.8301	624.43
35.8445	608.68
35.8589	655.84
35.8734	743.74
35.8878	876.91
35.9023	1035.92
35.9167	1045.82
35.9311	1387.28
35.9456	2065.91
35.9600	2325.94
35.9745	1897.06
35.9889	1917.65
36.0033	2285.69
36.0178	2493.74
36.0322	2239.11
36.0467	2218.77
36.0611	2081.38
36.0755	2114.21
36.0900	2026.71
36.1044	1902.25
36.1189	1842.38
36.1333	1711.25
36.1477	1433.89
36.1622	1414.15
36.1766	1351.14
36.1911	1111.92
36.2055	1011.99
36.2199	926.75
36.2344	816.54
36.2488	718.75
36.2633	653.60
36.2777	636.37
36.2921	635.06
36.3066	595.58
36.3210	554.70
36.3355	555.91
36.3499	544.90
36.3643	541.66
36.3788	524.40
36.3932	566.81
36.4077	597.37
36.4221	607.11
36.4365	546.80
36.4510	542.17
36.4654	548.08
36.4799	585.97
36.4943	538.06
36.5087	536.48
36.5232	553.65
36.5376	559.62
36.5521	522.70
36.5665	534.82
36.5809	501.48
36.5954	499.85
36.6098	523.44
36.6243	538.04
36.6387	563.93
36.6531	522.36
36.6676	515.43
36.6820	525.29
36.6965	506.55
36.7109	510.31
36.7253	521.99
36.7398	525.70
36.7542	524.46
36.7687	511.73
36.7831	538.03
36.7975	554.32
36.8120	576.32
36.8264	565.17
36.8409	612.39
36.8553	562.21
36.8697	614.74
36.8842	616.82
36.8986	566.78
36.9131	601.94
36.9275	601.65
36.9419	578.80
36.9564	535.68
36.9708	533.57
36.9853	543.50
36.9997	576.24
37.0141	542.93
37.0286	560.46
37.0430	529.91
37.0575	550.33
37.0719	521.66
37.0863	530.11
37.1008	512.89
37.1152	494.24
37.1297	494.84
37.1441	468.15
37.1585	528.64
37.1730	514.89
37.1874	515.75
37.2019	502.29
37.2163	514.99
37.2307	507.82
37.2452	530.64
37.2596	520.33
37.2741	481.66
37.2885	517.49
37.3029	485.00
37.3174	482.77
37.3318	522.59
37.3463	532.10
37.3607	481.50
37.3751	504.64
37.3896	479.22
37.4040	485.17
37.4185	480.42
37.4329	517.84
37.4473	480.93
37.4618	494.74
37.4762	499.47
37.4907	496.72
37.5051	502.63
37.5195	504.47
37.5340	538.76
37.5484	537.97
37.5629	488.49
37.5773	473.06
37.5917	498.74
37.6062	490.28
37.6206	478.91
37.6351	500.36
37.6495	526.62
37.6639	466.50
37.6784	464.37
37.6928	503.47
37.7073	537.54
37.7217	498.34
37.7361	495.17
37.7506	472.76
37.7650	519.49
37.7795	525.23
37.7939	525.31
37.8083	523.25
37.8228	517.88
37.8372	496.20
37.8517	484.17
37.8661	524.29
37.8805	508.57
37.8950	495.85
37.9094	522.51
37.9239	514.47
37.9383	526.86
37.9528	488.12
37.9672	515.99
37.9816	511.72
37.9961	480.44
38.0105	492.65
38.0250	502.92
38.0394	540.05
38.0538	502.96
38.0683	517.41
38.0827	495.45
38.0972	511.90
38.1116	538.23
38.1260	497.81
38.1405	505.44
38.1549	480.22
38.1694	535.36
38.1838	512.98
38.1982	468.21
38.2127	527.79
38.2271	514.81
38.2416	502.76
38.2560	508.13
38.2704	502.33
38.2849	528.63
38.2993	521.75
38.3138	528.71
38.3282	541.53
38.3426	531.17
38.3571	502.22
38.3715	500.05
38.3860	507.24
38.4004	488.70
38.4148	544.86
38.4293	548.33
38.4437	583.41
38.4582	636.87
38.4726	706.43
38.4870	716.86
38.5015	744.92
38.5159	748.18
38.5304	805.12
38.5448	829.75
38.5592	778.15
38.5737	762.35
38.5881	717.34
38.6026	702.62
38.6170	746.78
38.6314	726.45
38.6459	723.34
38.6603	661.29
38.6748	613.28
38.6892	589.92
38.7036	574.12
38.7181	550.24
38.7325	518.75
38.7470	497.08
38.7614	504.08
38.7758	552.23
38.7903	514.55
38.8047	519.83
38.8192	518.72
38.8336	500.59
38.8480	508.83
38.8625	532.11
38.8769	501.74
38.8914	489.54
38.9058	503.62
38.9202	494.50
38.9347	499.97
38.9491	515.61
38.9636	516.26
38.9780	483.86
38.9924	499.57
39.0069	493.36
39.0213	502.28
39.0358	460.99
39.0502	488.83
39.0646	517.65
39.0791	529.36
39.0935	494.66
39.1080	480.09
39.1224	502.90
39.1368	487.78
39.1513	494.04
39.1657	507.35
39.1802	516.20
39.1946	495.91
39.2090	511.38
39.2235	487.91
39.2379	471.19
39.2524	508.38
39.2668	520.10
39.2812	513.57
39.2957	536.26
39.3101	502.28
39.3246	509.67
39.3390	520.98
39.3534	520.08
39.3679	508.45
39.3823	508.64
39.3968	493.78
39.4112	514.13
39.4256	525.52
39.4401	536.84
39.4545	521.39
39.4690	518.49
39.4834	507.15
39.4978	481.43
39.5123	494.67
39.5267	471.09
39.5412	504.85
39.5556	481.88
39.5700	487.54
39.5845	503.72
39.5989	477.66
39.6134	488.36
39.6278	475.89
39.6422	498.73
39.6567	439.74
39.6711	486.02
39.6856	505.52
39.7000	518.89
39.7144	491.28
39.7289	488.93
39.7433	506.58
39.7578	494.60
39.7722	511.05
39.7866	547.57
39.8011	494.09
39.8155	504.77
39.8300	484.01
39.8444	492.96
39.8588	496.70
39.8733	523.46
39.8877	520.83
39.9022	500.10
39.9166	479.04
39.9310	500.27
39.9455	496.23
39.9599	494.99
39.9744	496.02
39.9888	478.11
40.0032	491.23
40.0177	509.96
40.0321	494.46
40.0466	496.36
40.0610	507.83
40.0754	488.20
40.0899	501.63
40.1043	472.52
40.1188	490.89
40.1332	516.83
40.1476	473.42
40.1621	508.17
40.1765	481.26
40.1910	499.21
40.2054	517.85
40.2198	499.57
40.2343	477.16
40.2487	491.35
40.2632	470.55
40.2776	479.68
40.2920	463.66
40.3065	490.86
40.3209	483.89
40.3354	510.23
40.3498	479.90
40.3642	489.53
40.3787	503.50
40.3931	485.43
40.4076	503.16
40.4220	527.09
40.4364	501.74
40.4509	500.78
40.4653	531.81
40.4798	520.61
40.4942	537.15
40.5086	479.70
40.5231	516.74
40.5375	515.69
40.5520	474.18
40.5664	468.97
40.5808	497.12
40.5953	484.28
40.6097	497.36
40.6242	499.20
40.6386	504.51
40.6530	544.54
40.6675	485.99
40.6819	488.44
40.6964	521.59
40.7108	507.91
40.7252	512.92
40.7397	515.31
40.7541	531.48
40.7686	504.40
40.7830	520.35
40.7974	513.63
40.8119	502.76
40.8263	481.25
40.8408	480.94
40.8552	498.44
40.8696	489.57
40.8841	512.62
40.8985	535.85
40.9130	533.72
40.9274	486.10
40.9418	524.93
40.9563	515.37
40.9707	501.43
40.9852	506.06
40.9996	482.43
41.0140	471.95
41.0285	468.88
41.0429	472.11
41.0574	497.53
41.0718	482.91
41.0862	538.48
41.1007	476.30
41.1151	489.26
41.1296	507.89
41.1440	494.05
41.1584	484.34
41.1729	492.06
41.1873	492.15
41.2018	495.57
41.2162	509.47
41.2306	502.88
41.2451	499.04
41.2595	487.80
41.2740	513.78
41.2884	540.33
41.3028	484.58
41.3173	496.92
41.3317	532.06
41.3462	501.66
41.3606	498.01
41.3750	479.56
41.3895	475.46
41.4039	469.74
41.4184	492.34
41.4328	502.10
41.4472	501.98
41.4617	489.86
41.4761	484.57
41.4906	508.84
41.5050	490.38
41.5194	486.38
41.5339	469.08
41.5483	486.10
41.5628	485.36
41.5772	510.83
41.5916	528.04
41.6061	509.10
41.6205	497.16
41.6350	494.73
41.6494	498.88
41.6639	496.86
41.6783	496.96
41.6927	474.83
41.7072	495.61
41.7216	539.44
41.7361	482.98
41.7505	488.19
41.7649	505.79
41.7794	519.33
41.7938	497.35
41.8083	498.17
41.8227	515.97
41.8371	502.95
41.8516	515.71
41.8660	536.79
41.8805	554.03
41.8949	524.22
41.9093	557.10
41.9238	517.91
41.9382	554.65
41.9527	543.63
41.9671	553.65
41.9815	533.73
41.9960	553.14
42.0104	572.72
42.0249	552.59
42.0393	569.72
42.0537	589.35
42.0682	625.01
42.0826	601.27
42.0971	568.25
42.1115	533.00
42.1259	580.08
42.1404	610.06
42.1548	598.41
42.1693	635.48
42.1837	647.46
42.1981	714.55
42.2126	805.95
42.2270	864.22
42.2415	1024.41
42.2559	1154.60
42.2703	1303.23
42.2848	1474.04
42.2992	1563.78
42.3137	1628.24
42.3281	1636.74
42.3425	1596.93
42.3570	1499.33
42.3714	1400.44
42.3859	1348.56
42.4003	1331.71
42.4147	1307.60
42.4292	1274.92
42.4436	1122.33
42.4581	1013.90
42.4725	954.75
42.4869	865.53
42.5014	757.28
42.5158	675.02
42.5303	642.20
42.5447	637.12
42.5591	619.88
42.5736	581.22
42.5880	577.16
42.6025	552.09
42.6169	578.01
42.6313	570.45
42.6458	562.74
42.6602	556.25
42.6747	513.87
42.6891	488.64
42.7035	515.82
42.7180	565.53
42.7324	532.20
42.7469	548.86
42.7613	531.80
42.7757	545.71
42.7902	526.70
42.8046	507.80
42.8191	515.13
42.8335	523.92
42.8479	507.76
42.8624	508.13
42.8768	516.10
42.8913	505.92
42.9057	549.41
42.9201	557.23
42.9346	542.17
42.9490	540.81
42.9635	537.98
42.9779	512.02
42.9923	510.51
43.0068	500.33
43.0212	483.61
43.0357	499.72
43.0501	538.14
43.0645	525.85
43.0790	511.60
43.0934	526.52
43.1079	519.07
43.1223	515.15
43.1367	479.52
43.1512	492.00
43.1656	506.31
43.1801	524.37
43.1945	539.83
43.2089	518.90
43.2234	528.92
43.2378	536.96
43.2523	519.91
43.2667	508.38
43.2811	538.12
43.2956	514.54
43.3100	537.33
43.3245	527.98
43.3389	559.99
43.3533	548.13
43.3678	554.74
43.3822	535.71
43.3967	532.90
43.4111	537.48
43.4255	540.42
43.4400	499.11
43.4544	495.98
43.4689	534.08
43.4833	525.09
43.4977	515.05
43.5122	518.29
43.5266	524.28
43.5411	550.52
43.5555	520.76
43.5699	529.61
43.5844	521.35
43.5988	539.70
43.6133	531.96
43.6277	530.45
43.6421	529.83
43.6566	532.28
43.6710	547.62
43.6855	529.74
43.6999	549.60
43.7143	552.61
43.7288	568.03
43.7432	557.73
43.7577	544.40
43.7721	557.74
43.7865	599.66
43.8010	640.84
43.8154	623.81
43.8299	638.00
43.8443	640.87
43.8587	724.57
43.8732	683.89
43.8876	659.15
43.9021	651.52
43.9165	614.15
43.9309	591.03
43.9454	615.57
43.9598	585.87
43.9743	601.95
43.9887	634.99
44.0031	583.48
44.0176	613.02
44.0320	623.86
44.0465	582.68
44.0609	573.07
44.0753	521.42
44.0898	552.11
44.1042	535.40
44.1187	548.77
44.1331	508.33
44.1475	512.10
44.1620	513.08
44.1764	538.96
44.1909	473.00
44.2053	485.97
44.2197	506.63
44.2342	534.09
44.2486	540.58
44.2631	509.82
44.2775	518.23
44.2919	494.12
44.3064	490.53
44.3208	541.42
44.3353	549.09
44.3497	528.99
44.3641	522.20
44.3786	506.95
44.3930	528.18
44.4075	562.94
44.4219	575.06
44.4363	581.45
44.4508	601.86
44.4652	652.51
44.4797	599.71
44.4941	573.60
44.5085	575.78
44.5230	590.12
44.5374	560.32
44.5519	565.93
44.5663	561.60
44.5807	581.42
44.5952	583.61
44.6096	609.68
44.6241	576.38
44.6385	572.44
44.6529	570.42
44.6674	524.88
44.6818	599.59
44.6963	647.08
44.7107	654.04
44.7251	664.18
44.7396	746.80
44.7540	814.64
44.7685	805.23
44.7829	870.55
44.7973	887.21
44.8118	901.84
44.8262	833.75
44.8407	767.81
44.8551	744.60
44.8695	744.51
44.8840	712.82
44.8984	777.72
44.9129	758.86
44.9273	706.45
44.9417	643.00
44.9562	548.03
44.9706	576.31
44.9851	539.11
44.9995	518.09
45.0139	537.31
45.0284	524.68
45.0428	525.55
45.0573	511.47
45.0717	477.57
45.0861	522.78
45.1006	503.28
45.1150	504.26
45.1295	499.35
45.1439	505.42
45.1583	489.24
45.1728	496.32
45.1872	495.53
45.2017	515.29
45.2161	491.04
45.2305	510.05
45.2450	487.00
45.2594	529.53
45.2739	492.07
45.2883	500.09
45.3028	506.44
45.3172	501.52
45.3316	495.52
45.3461	465.07
45.3605	493.00
45.3750	497.54
45.3894	532.77
45.4038	513.28
45.4183	507.98
45.4327	531.12
45.4472	465.50
45.4616	488.00
45.4760	496.34
45.4905	505.92
45.5049	524.50
45.5194	509.95
45.5338	526.40
45.5482	521.64
45.5627	490.70
45.5771	487.69
45.5916	492.17
45.6060	534.04
45.6204	488.25
45.6349	522.01
45.6493	525.80
45.6638	518.19
45.6782	513.86
45.6926	504.75
45.7071	490.46
45.7215	526.12
45.7360	493.70
45.7504	522.51
45.7648	508.11
45.7793	506.78
45.7937	500.74
45.8082	526.72
45.8226	482.18
45.8370	495.75
45.8515	486.00
45.8659	520.25
45.8804	517.41
45.8948	553.46
45.9092	497.93
45.9237	515.31
45.9381	512.67
45.9526	499.50
45.9670	506.43
45.9814	515.50
45.9959	505.27
46.0103	483.49
46.0248	495.89
46.0392	503.51
46.0536	499.45
46.0681	505.05
46.0825	548.17
46.0970	529.67
46.1114	512.99
46.1258	509.15
46.1403	480.63
46.1547	474.19
46.1692	474.67
46.1836	489.06
46.1980	534.46
46.2125	494.14
46.2269	473.55
46.2414	483.71
46.2558	488.68
46.2702	460.66
46.2847	521.01
46.2991	490.76
46.3136	475.27
46.3280	482.98
46.3424	502.31
46.3569	524.93
46.3713	515.57
46.3858	497.50
46.4002	478.20
46.4146	526.21
46.4291	543.28
46.4435	495.90
46.4580	509.05
46.4724	517.32
46.4868	535.58
46.5013	516.45
46.5157	505.09
46.5302	497.41
46.5446	518.57
46.5590	534.35
46.5735	501.50
46.5879	477.26
46.6024	499.89
46.6168	488.89
46.6312	500.89
46.6457	492.43
46.6601	483.98
46.6746	459.80
46.6890	468.21
46.7034	517.38
46.7179	512.23
46.7323	491.99
46.7468	513.81
46.7612	506.81
46.7756	509.59
46.7901	481.09
46.8045	520.84
46.8190	494.18
46.8334	497.47
46.8478	531.91
46.8623	567.07
46.8767	549.48
46.8912	519.96
46.9056	525.38
46.9200	546.71
46.9345	497.95
46.9489	520.52
46.9634	493.94
46.9778	501.00
46.9922	505.40
47.0067	475.52
47.0211	482.83
47.0356	481.88
47.0500	478.86
47.0644	503.45
47.0789	486.06
47.0933	479.13
47.1078	502.21
47.1222	527.58
47.1366	527.59
47.1511	495.36
47.1655	503.06
47.1800	531.45
47.1944	512.37
47.2088	531.60
47.2233	529.44
47.2377	510.74
47.2522	497.59
47.2666	494.43
47.2810	513.11
47.2955	479.61
47.3099	523.58
47.3244	530.24
47.3388	528.88
47.3532	480.00
47.3677	482.64
47.3821	487.45
47.3966	501.95
47.4110	519.42
47.4254	511.78
47.4399	499.94
47.4543	502.06
47.4688	538.86
47.4832	509.98
47.4976	479.11
47.5121	491.16
47.5265	505.94
47.5410	508.60
47.5554	521.73
47.5698	472.44
47.5843	498.20
47.5987	524.35
47.6132	508.83
47.6276	511.48
47.6420	523.21
47.6565	499.43
47.6709	475.98
47.6854	503.87
47.6998	519.74
47.7142	493.07
47.7287	507.08
47.7431	521.69
47.7576	492.15
47.7720	485.94
47.7864	529.25
47.8009	517.86
47.8153	498.24
47.8298	489.61
47.8442	467.96
47.8586	498.72
47.8731	518.61
47.8875	507.48
47.9020	526.79
47.9164	522.57
47.9308	475.74
47.9453	499.79
47.9597	493.91
47.9742	486.92
47.9886	508.80
48.0030	517.09
48.0175	527.83
48.0319	568.13
48.0464	515.92
48.0608	505.75
48.0752	501.26
48.0897	497.14
48.1041	510.56
48.1186	508.01
48.1330	492.96
48.1474	493.29
48.1619	524.53
48.1763	525.49
48.1908	493.58
48.2052	497.33
48.2196	489.88
48.2341	513.69
48.2485	519.24
48.2630	528.64
48.2774	535.27
48.2918	512.96
48.3063	507.99
48.3207	519.97
48.3352	516.16
48.3496	539.15
48.3640	527.41
48.3785	487.88
48.3929	511.27
48.4074	524.52
48.4218	534.47
48.4362	518.03
48.4507	491.50
48.4651	481.42
48.4796	537.82
48.4940	525.90
48.5084	506.19
48.5229	525.92
48.5373	518.10
48.5518	504.91
48.5662	537.86
48.5806	491.74
48.5951	511.35
48.6095	526.16
48.6240	505.91
48.6384	509.43
48.6528	526.15
48.6673	519.00
48.6817	511.44
48.6962	523.13
48.7106	528.06
48.7250	544.75
48.7395	480.58
48.7539	519.89
48.7684	539.47
48.7828	565.16
48.7972	526.56
48.8117	535.84
48.8261	534.95
48.8406	563.19
48.8550	543.35
48.8694	556.47
48.8839	534.05
48.8983	528.30
48.9128	521.58
48.9272	572.53
48.9416	572.76
48.9561	560.44
48.9705	608.75
48.9850	561.17
48.9994	626.78
49.0139	578.10
49.0283	588.14
49.0427	571.13
49.0572	622.30
49.0716	639.54
49.0861	687.89
49.1005	662.96
49.1149	714.30
49.1294	756.02
49.1438	725.47
49.1583	765.30
49.1727	821.52
49.1871	873.16
49.2016	870.55
49.2160	988.30
49.2305	1053.20
49.2449	1140.24
49.2593	1234.69
49.2738	1244.64
49.2882	1345.09
49.3027	1514.51
49.3171	1568.77
49.3315	1663.94
49.3460	1691.46
49.3604	1700.25
49.3749	1750.56
49.3893	1699.71
49.4037	1675.85
49.4182	1694.92
49.4326	1755.97
49.4471	1606.42
49.4615	1583.36
49.4759	1608.29
49.4904	1497.27
49.5048	1390.40
49.5193	1334.34
49.5337	1292.48
49.5481	1227.50
49.5626	1178.37
49.5770	1068.04
49.5915	962.64
49.6059	986.05
49.6203	924.72
49.6348	838.91
49.6492	785.54
49.6637	771.62
49.6781	730.96
49.6925	686.88
49.7070	687.36
49.7214	653.96
49.7359	640.57
49.7503	604.76
49.7647	601.81
49.7792	610.04
49.7936	598.95
49.8081	580.51
49.8225	544.10
49.8369	548.02
49.8514	512.08
49.8658	555.37
49.8803	561.42
49.8947	546.75
49.9091	553.42
49.9236	528.36
49.9380	540.43
49.9525	543.07
49.9669	562.17
49.9813	532.24
49.9958	516.80
50.0102	497.26
50.0247	518.93
50.0391	539.25
50.0535	530.69
50.0680	536.82
50.0824	534.57
50.0969	537.37
50.1113	540.60
50.1257	560.66
50.1402	512.96
50.1546	514.45
50.1691	518.76
50.1835	509.97
50.1979	458.52
50.2124	516.10
50.2268	508.08
50.2413	510.93
50.2557	504.96
50.2701	488.06
50.2846	512.20
50.2990	516.13
50.3135	532.67
50.3279	536.67
50.3423	504.73
50.3568	527.52
50.3712	515.73
50.3857	498.95
50.4001	474.62
50.4145	499.23
50.4290	507.58
50.4434	530.45
50.4579	537.88
50.4723	507.75
50.4867	503.32
50.5012	528.76
50.5156	521.78
50.5301	534.00
50.5445	510.15
50.5589	527.99
50.5734	497.04
50.5878	520.80
50.6023	529.95
50.6167	535.17
50.6311	507.40
50.6456	471.54
50.6600	508.77
50.6745	513.14
50.6889	506.43
50.7033	524.26
50.7178	497.77
50.7322	485.25
50.7467	533.22
50.7611	530.39
50.7755	525.91
50.7900	500.82
50.8044	482.89
50.8189	496.73
50.8333	505.52
50.8477	481.83
50.8622	539.34
50.8766	557.07
50.8911	511.13
50.9055	518.17
50.9199	512.08
50.9344	509.84
50.9488	498.40
50.9633	494.89
50.9777	489.32
50.9921	492.07
51.0066	461.27
51.0210	482.81
51.0355	498.10
51.0499	506.53
51.0643	524.21
51.0788	544.76
51.0932	519.51
51.1077	489.88
51.1221	525.39
51.1365	503.54
51.1510	475.26
51.1654	478.73
51.1799	492.44
51.1943	524.70
51.2087	534.61
51.2232	539.22
51.2376	521.59
51.2521	482.59
51.2665	528.72
51.2809	526.78
51.2954	516.35
51.3098	486.03
51.3243	510.19
51.3387	509.34
51.3531	517.73
51.3676	495.77
51.3820	510.23
51.3965	532.43
51.4109	515.95
51.4253	508.59
51.4398	495.71
51.4542	475.56
51.4687	494.24
51.4831	501.18
51.4975	519.69
51.5120	520.41
51.5264	534.76
51.5409	543.63
51.5553	543.42
51.5697	544.53
51.5842	563.32
51.5986	529.69
51.6131	477.74
51.6275	514.74
51.6419	534.32
51.6564	500.42
51.6708	479.20
51.6853	487.92
51.6997	482.84
51.7141	479.16
51.7286	472.05
51.7430	489.57
51.7575	483.09
51.7719	490.87
51.7863	504.81
51.8008	506.57
51.8152	521.49
51.8297	525.97
51.8441	520.84
51.8585	544.13
51.8730	534.80
51.8874	523.86
51.9019	538.86
51.9163	517.43
51.9307	506.94
51.9452	518.40
51.9596	526.18
51.9741	511.46
51.9885	479.36
52.0029	492.74
52.0174	506.88
52.0318	531.94
52.0463	521.62
52.0607	541.98
52.0751	526.07
52.0896	545.37
52.1040	530.98
52.1185	501.45
52.1329	515.09
52.1473	485.90
52.1618	508.40
52.1762	496.57
52.1907	488.01
52.2051	483.60
52.2195	506.31
52.2340	478.91
52.2484	542.67
52.2629	538.60
52.2773	571.95
52.2917	514.95
52.3062	533.54
52.3206	523.82
52.3351	522.48
52.3495	508.57
52.3639	477.35
52.3784	528.91
52.3928	538.69
52.4073	499.90
52.4217	546.85
52.4361	541.83
52.4506	505.46
52.4650	536.81
52.4795	520.50
52.4939	502.29
52.5083	528.03
52.5228	521.76
52.5372	518.33
52.5517	488.73
52.5661	521.45
52.5805	518.38
52.5950	495.19
52.6094	524.60
52.6239	505.88
52.6383	521.70
52.6527	541.59
52.6672	475.20
52.6816	509.57
52.6961	507.62
52.7105	549.89
52.7250	485.21
52.7394	513.91
52.7538	529.70
52.7683	482.80
52.7827	521.26
52.7972	500.59
52.8116	532.37
52.8260	496.95
52.8405	511.89
52.8549	514.75
52.8694	517.68
52.8838	524.31
52.8982	514.12
52.9127	526.10
52.9271	547.29
52.9416	543.79
52.9560	482.53
52.9704	503.39
52.9849	491.52
52.9993	488.50
53.0138	519.33
53.0282	537.37
53.0426	534.99
53.0571	504.96
53.0715	518.11
53.0860	536.82
53.1004	500.35
53.1148	522.37
53.1293	556.50
53.1437	510.64
53.1582	502.57
53.1726	526.12
53.1870	525.30
53.2015	504.05
53.2159	522.92
53.2304	514.27
53.2448	530.20
53.2592	549.75
53.2737	540.10
53.2881	527.02
53.3026	530.53
53.3170	533.63
53.3314	529.16
53.3459	538.37
53.3603	535.66
53.3748	502.07
53.3892	519.93
53.4036	504.16
53.4181	517.39
53.4325	561.60
53.4470	493.21
53.4614	489.17
53.4758	503.26
53.4903	489.78
53.5047	501.30
53.5192	516.34
53.5336	524.50
53.5480	496.97
53.5625	528.06
53.5769	490.38
53.5914	481.83
53.6058	527.12
53.6202	534.90
53.6347	531.87
53.6491	498.97
53.6636	514.83
53.6780	499.30
53.6924	530.21
53.7069	522.16
53.7213	510.34
53.7358	515.12
53.7502	480.27
53.7646	493.40
53.7791	514.35
53.7935	504.06
53.8080	499.25
53.8224	514.32
53.8368	536.95
53.8513	507.81
53.8657	515.79
53.8802	482.17
53.8946	509.57
53.9090	535.74
53.9235	487.28
53.9379	523.70
53.9524	527.90
53.9668	473.61
53.9812	470.47
53.9957	482.31
54.0101	543.99
54.0246	534.16
54.0390	527.41
54.0534	533.35
54.0679	548.81
54.0823	544.37
54.0968	545.80
54.1112	523.47
54.1256	509.34
54.1401	500.77
54.1545	504.99
54.1690	505.31
54.1834	530.60
54.1978	513.76
54.2123	493.74
54.2267	548.50
54.2412	527.64
54.2556	513.36
54.2700	519.14
54.2845	539.85
54.2989	548.12
54.3134	570.29
54.3278	553.30
54.3422	549.37
54.3567	560.67
54.3711	593.24
54.3856	608.58
54.4000	592.65
54.4144	579.87
54.4289	626.72
54.4433	622.90
54.4578	613.84
54.4722	612.05
54.4866	619.43
54.5011	602.70
54.5155	614.29
54.5300	610.43
54.5444	594.55
54.5588	595.15
54.5733	539.29
54.5877	562.89
54.6022	559.76
54.6166	574.33
54.6310	573.97
54.6455	569.20
54.6599	554.87
54.6744	541.29
54.6888	544.30
54.7032	540.17
54.7177	544.50
54.7321	535.79
54.7466	546.35
54.7610	518.94
54.7754	528.74
54.7899	516.10
54.8043	524.56
54.8188	548.37
54.8332	527.23
54.8476	539.12
54.8621	548.44
54.8765	524.63
54.8910	523.40
54.9054	505.28
54.9198	508.88
54.9343	521.84
54.9487	515.02
54.9632	507.93
54.9776	504.85
54.9920	474.15
55.0065	487.03
55.0209	527.42
55.0354	513.21
55.0498	526.29
55.0642	539.63
55.0787	540.05
55.0931	544.09
55.1076	521.18
55.1220	525.42
55.1364	509.60
55.1509	541.94
55.1653	542.83
55.1798	533.22
55.1942	491.86
55.2086	508.52
55.2231	519.66
55.2375	510.63
55.2520	513.02
55.2664	507.53
55.2808	536.62
55.2953	518.19
55.3097	539.60
55.3242	540.77
55.3386	516.39
55.3530	528.21
55.3675	514.02
55.3819	506.29
55.3964	519.69
55.4108	510.37
55.4252	514.86
55.4397	478.79
55.4541	508.28
55.4686	561.78
55.4830	492.75
55.4974	493.92
55.5119	501.03
55.5263	502.31
55.5408	501.17
55.5552	490.67
55.5696	506.75
55.5841	533.55
55.5985	544.87
55.6130	549.31
55.6274	517.10
55.6418	507.74
55.6563	515.46
55.6707	518.31
55.6852	534.92
55.6996	490.12
55.7140	563.30
55.7285	525.31
55.7429	477.19
55.7574	536.26
55.7718	536.70
55.7862	567.49
55.8007	502.70
55.8151	525.00
55.8296	531.97
55.8440	508.84
55.8584	542.21
55.8729	551.59
55.8873	512.25
55.9018	528.20
55.9162	557.98
55.9306	517.51
55.9451	497.04
55.9595	503.23
55.9740	537.71
55.9884	521.88
56.0028	477.29
56.0173	530.37
56.0317	520.84
56.0462	519.93
56.0606	499.47
56.0750	529.65
56.0895	529.56
56.1039	521.22
56.1184	523.01
56.1328	523.10
56.1472	518.55
56.1617	520.81
56.1761	525.84
56.1906	518.13
56.2050	531.46
56.2194	531.09
56.2339	544.94
56.2483	506.93
56.2628	514.56
56.2772	505.22
56.2916	540.37
56.3061	538.83
56.3205	533.02
56.3350	540.60
56.3494	513.32
56.3639	522.67
56.3783	538.13
56.3927	522.05
56.4072	513.64
56.4216	544.54
56.4361	548.02
56.4505	538.66
56.4649	509.45
56.4794	494.48
56.4938	517.20
56.5083	520.64
56.5227	479.26
56.5371	492.36
56.5516	517.74
56.5660	529.49
56.5805	526.53
56.5949	576.03
56.6093	539.64
56.6238	507.98
56.6382	510.40
56.6527	502.45
56.6671	511.91
56.6815	536.30
56.6960	472.56
56.7104	518.94
56.7249	493.72
56.7393	503.53
56.7537	518.02
56.7682	513.15
56.7826	576.87
56.7971	529.50
56.8115	506.59
56.8259	539.50
56.8404	563.79
56.8548	486.58
56.8693	509.50
56.8837	533.89
56.8981	542.26
56.9126	539.40
56.9270	537.30
56.9415	511.70
56.9559	525.49
56.9703	511.99
56.9848	508.94
56.9992	531.09
57.0137	507.92
57.0281	503.77
57.0425	512.49
57.0570	516.30
57.0714	540.60
57.0859	547.18
57.1003	534.77
57.1147	540.24
57.1292	552.50
57.1436	510.18
57.1581	538.03
57.1725	530.57
57.1869	514.64
57.2014	479.93
57.2158	508.67
57.2303	519.32
57.2447	523.99
57.2591	514.02
57.2736	553.08
57.2880	541.54
57.3025	520.52
57.3169	535.54
57.3313	552.98
57.3458	522.18
57.3602	539.00
57.3747	525.43
57.3891	504.90
57.4035	514.06
57.4180	516.87
57.4324	551.44
57.4469	517.26
57.4613	524.59
57.4757	546.96
57.4902	547.92
57.5046	538.23
57.5191	498.30
57.5335	518.74
57.5479	550.20
57.5624	532.71
57.5768	519.11
57.5913	496.03
57.6057	528.34
57.6201	505.97
57.6346	520.54
57.6490	546.87
57.6635	523.93
57.6779	532.89
57.6923	512.78
57.7068	547.98
57.7212	539.31
57.7357	503.31
57.7501	547.28
57.7645	528.64
57.7790	573.50
57.7934	554.17
57.8079	530.40
57.8223	513.04
57.8367	568.92
57.8512	554.90
57.8656	583.86
57.8801	555.59
57.8945	593.31
57.9089	604.83
57.9234	531.31
57.9378	608.78
57.9523	593.02
57.9667	604.29
57.9811	670.76
57.9956	645.94
58.0100	639.48
58.0245	703.10
58.0389	707.24
58.0533	665.70
58.0678	704.87
58.0822	652.79
58.0967	629.53
58.1111	684.67
58.1255	690.46
58.1400	644.10
58.1544	659.63
58.1689	651.71
58.1833	650.54
58.1977	671.45
58.2122	634.14
58.2266	645.41
58.2411	645.20
58.2555	576.09
58.2699	620.33
58.2844	580.32
58.2988	574.44
58.3133	588.76
58.3277	559.80
58.3421	539.86
58.3566	553.20
58.3710	522.23
58.3855	523.04
58.3999	540.22
58.4143	534.15
58.4288	570.06
58.4432	553.62
58.4577	563.75
58.4721	520.34
58.4865	514.25
58.5010	509.18
58.5154	534.98
58.5299	564.86
58.5443	563.78
58.5587	506.75
58.5732	535.82
58.5876	546.18
58.6021	534.75
58.6165	571.52
58.6309	536.62
58.6454	547.16
58.6598	541.46
58.6743	547.38
58.6887	531.40
58.7031	531.47
58.7176	519.21
58.7320	526.24
58.7465	499.47
58.7609	521.11
58.7753	534.40
58.7898	542.00
58.8042	555.59
58.8187	533.07
58.8331	510.18
58.8475	510.93
58.8620	534.18
58.8764	528.61
58.8909	526.47
58.9053	549.08
58.9197	535.57
58.9342	543.11
58.9486	541.14
58.9631	549.95
58.9775	545.22
58.9919	518.37
59.0064	501.25
59.0208	522.08
59.0353	505.96
59.0497	549.06
59.0641	551.01
59.0786	535.80
59.0930	545.76
59.1075	535.29
59.1219	551.17
59.1363	534.10
59.1508	531.43
59.1652	545.85
59.1797	536.15
59.1941	519.37
59.2085	538.99
59.2230	512.37
59.2374	513.84
59.2519	536.75
59.2663	516.50
59.2807	556.07
59.2952	564.56
59.3096	589.14
59.3241	584.60
59.3385	560.32
59.3529	557.43
59.3674	546.70
59.3818	563.69
59.3963	555.76
59.4107	559.07
59.4251	559.34
59.4396	576.45
59.4540	578.01
59.4685	538.73
59.4829	567.66
59.4973	578.60
59.5118	571.58
59.5262	542.10
59.5407	520.59
59.5551	562.83
59.5695	559.39
59.5840	514.59
59.5984	552.81
59.6129	576.50
59.6273	529.59
59.6417	552.40
59.6562	522.81
59.6706	541.92
59.6851	539.02
59.6995	521.19
59.7139	586.88
59.7284	537.27
59.7428	513.63
59.7573	543.05
59.7717	554.88
59.7861	589.44
59.8006	556.52
59.8150	551.85
59.8295	513.14
59.8439	517.14
59.8583	578.54
59.8728	548.57
59.8872	552.90
59.9017	546.46
59.9161	555.30
59.9305	544.83
59.9450	562.86
59.9594	506.85
59.9739	528.97
59.9883	532.95
60.0027	526.98
60.0172	537.97
60.0316	509.42
60.0461	523.26
60.0605	549.78
60.0750	521.41
60.0894	558.71
60.1038	572.77
60.1183	560.60
60.1327	553.18
60.1472	557.11
60.1616	573.07
60.1760	577.40
60.1905	535.52
60.2049	525.51
60.2194	535.16
60.2338	543.91
60.2482	532.29
60.2627	571.15
60.2771	531.29
60.2916	519.08
60.3060	525.25
60.3204	548.45
60.3349	541.02
60.3493	586.11
60.3638	548.24
60.3782	547.72
60.3926	490.83
60.4071	502.29
60.4215	553.86
60.4360	560.53
60.4504	537.38
60.4648	548.65
60.4793	545.06
60.4937	487.17
60.5082	557.37
60.5226	580.03
60.5370	553.21
60.5515	525.44
60.5659	518.96
60.5804	561.23
60.5948	529.51
60.6092	519.62
60.6237	527.43
60.6381	550.15
60.6526	552.81
60.6670	521.93
60.6814	536.32
60.6959	535.81
60.7103	582.24
60.7248	525.37
60.7392	540.18
60.7536	549.76
60.7681	561.92
60.7825	525.82
60.7970	523.76
60.8114	511.12
60.8258	526.77
60.8403	546.33
60.8547	571.93
60.8692	550.28
60.8836	524.16
60.8980	501.70
60.9125	536.51
60.9269	548.41
60.9414	565.43
60.9558	567.38
60.9702	556.78
60.9847	508.39
60.9991	507.51
61.0136	528.45
61.0280	556.78
61.0424	532.60
61.0569	555.94
61.0713	557.87
61.0858	586.10
61.1002	554.42
61.1146	563.60
61.1291	571.68
61.1435	543.38
61.1580	552.22
61.1724	547.89
61.1868	493.55
61.2013	512.66
61.2157	527.55
61.2302	570.64
61.2446	558.73
61.2590	565.09
61.2735	541.01
61.2879	570.57
61.3024	591.93
61.3168	546.60
61.3312	541.56
61.3457	552.72
61.3601	538.98
61.3746	546.17
61.3890	547.40
61.4034	556.24
61.4179	568.09
61.4323	565.05
61.4468	527.31
61.4612	538.96
61.4756	554.44
61.4901	568.54
61.5045	544.65
61.5190	541.90
61.5334	537.14
61.5478	555.70
61.5623	558.57
61.5767	527.19
61.5912	535.23
61.6056	529.35
61.6200	536.89
61.6345	538.79
61.6489	547.40
61.6634	536.07
61.6778	558.68
61.6922	566.62
61.7067	599.92
61.7211	539.99
61.7356	535.72
61.7500	531.68
61.7644	520.75
61.7789	549.18
61.7933	571.57
61.8078	553.70
61.8222	572.79
61.8366	520.18
61.8511	540.19
61.8655	577.55
61.8800	567.18
61.8944	621.79
61.9088	537.08
61.9233	516.07
61.9377	541.30
61.9522	553.42
61.9666	518.07
61.9810	539.64
61.9955	562.60
62.0099	532.87
62.0244	536.54
62.0388	542.21
62.0532	567.32
62.0677	597.21
62.0821	572.88
62.0966	574.63
62.1110	579.67
62.1254	563.67
62.1399	547.04
62.1543	538.18
62.1688	596.15
62.1832	583.22
62.1976	552.04
62.2121	562.09
62.2265	558.96
62.2410	541.08
62.2554	542.69
62.2698	532.10
62.2843	522.45
62.2987	540.23
62.3132	514.71
62.3276	536.28
62.3420	560.41
62.3565	586.85
62.3709	549.43
62.3854	577.22
62.3998	549.36
62.4142	542.70
62.4287	551.09
62.4431	536.78
62.4576	551.93
62.4720	547.15
62.4864	551.99
62.5009	541.02
62.5153	534.26
62.5298	586.01
62.5442	525.04
62.5586	557.16
62.5731	536.43
62.5875	540.82
62.6020	556.61
62.6164	567.79
62.6308	554.40
62.6453	586.07
62.6597	538.34
62.6742	554.98
62.6886	562.55
62.7030	545.06
62.7175	555.94
62.7319	543.20
62.7464	549.84
62.7608	585.27
62.7752	590.44
62.7897	561.88
62.8041	570.73
62.8186	584.92
62.8330	593.94
62.8474	557.65
62.8619	562.10
62.8763	557.83
62.8908	530.45
62.9052	597.55
62.9196	596.51
62.9341	584.00
62.9485	602.12
62.9630	564.21
62.9774	541.85
62.9918	574.23
63.0063	574.93
63.0207	597.66
63.0352	588.44
63.0496	567.58
63.0640	550.00
63.0785	563.45
63.0929	612.18
63.1074	597.75
63.1218	591.21
63.1362	573.62
63.1507	582.42
63.1651	587.81
63.1796	583.00
63.1940	580.49
63.2084	598.57
63.2229	610.85
63.2373	570.97
63.2518	574.03
63.2662	553.54
63.2806	593.71
63.2951	578.54
63.3095	600.10
63.3240	538.50
63.3384	547.41
63.3528	533.21
63.3673	566.30
63.3817	600.19
63.3962	589.07
63.4106	570.42
63.4250	615.51
63.4395	547.94
63.4539	581.79
63.4684	615.70
63.4828	592.91
63.4972	612.71
63.5117	619.99
63.5261	639.38
63.5406	611.45
63.5550	657.98
63.5694	630.17
63.5839	654.48
63.5983	653.45
63.6128	648.53
63.6272	656.99
63.6416	713.55
63.6561	713.05
63.6705	755.62
63.6850	760.01
63.6994	817.26
63.7138	906.41
63.7283	897.21
63.7427	903.51
63.7572	931.29
63.7716	833.56
63.7861	838.77
63.8005	862.22
63.8149	848.92
63.8294	827.19
63.8438	760.16
63.8583	803.44
63.8727	808.83
63.8871	801.65
63.9016	816.09
63.9160	813.37
63.9305	820.20
63.9449	803.83
63.9593	762.64
63.9738	732.84
63.9882	778.08
64.0027	726.63
64.0171	704.58
64.0315	744.50
64.0460	683.63
64.0604	659.38
64.0749	624.32
64.0893	677.10
64.1037	662.55
64.1182	644.09
64.1326	645.17
64.1471	595.29
64.1615	614.22
64.1759	592.58
64.1904	567.47
64.2048	616.90
64.2193	637.61
64.2337	640.29
64.2481	613.14
64.2626	610.40
64.2770	572.45
64.2915	573.76
64.3059	607.55
64.3203	642.56
64.3348	618.98
64.3492	585.49
64.3637	596.82
64.3781	602.68
64.3925	636.72
64.4070	625.37
64.4214	630.75
64.4359	640.95
64.4503	629.12
64.4647	649.89
64.4792	634.41
64.4936	632.31
64.5081	599.33
64.5225	645.43
64.5369	660.95
64.5514	652.85
64.5658	630.60
64.5803	624.99
64.5947	657.35
64.6091	624.02
64.6236	620.61
64.6380	655.04
64.6525	651.01
64.6669	645.80
64.6813	629.36
64.6958	656.33
64.7102	720.50
64.7247	683.19
64.7391	685.13
64.7535	675.17
64.7680	746.61
64.7824	738.03
64.7969	732.75
64.8113	777.88
64.8257	813.86
64.8402	795.86
64.8546	807.23
64.8691	829.78
64.8835	842.29
64.8979	862.97
64.9124	858.98
64.9268	908.74
64.9413	983.23
64.9557	975.05
64.9701	985.94
64.9846	1106.20
64.9990	1170.15
65.0135	1268.52
65.0279	1568.74
65.0423	1707.56
65.0568	2064.00
65.0712	2666.36
65.0857	3382.74
65.1001	4441.51
65.1145	6096.72
65.1290	8025.88
65.1434	9722.33
65.1579	11059.14
65.1723	11882.55
65.1867	11580.75
65.2012	10125.48
65.2156	8410.64
65.2301	6656.17
65.2445	5330.32
65.2589	4517.57
65.2734	4248.88
65.2878	4429.50
65.3023	5130.89
65.3167	5805.91
65.3311	6657.46
65.3456	6990.95
65.3600	6938.24
65.3745	6472.04
65.3889	5481.64
65.4033	4474.53
65.4178	3468.33
65.4322	2861.24
65.4467	2057.84
65.4611	1711.23
65.4755	1517.19
65.4900	1285.94
65.5044	1161.19
65.5189	1057.22
65.5333	986.42
65.5477	955.11
65.5622	901.20
65.5766	852.48
65.5911	823.72
65.6055	825.30
65.6199	821.97
65.6344	803.44
65.6488	768.36
65.6633	706.61
65.6777	733.81
65.6921	701.37
65.7066	726.75
65.7210	747.56
65.7355	716.89
65.7499	709.79
65.7643	678.86
65.7788	673.18
65.7932	676.21
65.8077	690.68
65.8221	669.62
65.8365	675.46
65.8510	662.50
65.8654	654.30
65.8799	656.84
65.8943	646.61
65.9087	647.36
65.9232	645.62
65.9376	645.02
65.9521	624.53
65.9665	653.09
65.9809	639.56
65.9954	622.14
66.0098	606.19
66.0243	634.71
66.0387	604.61
66.0531	637.06
66.0676	664.98
66.0820	640.49
66.0965	658.58
66.1109	616.55
66.1253	611.12
66.1398	612.07
66.1542	577.04
66.1687	599.67
66.1831	610.85
66.1975	627.33
66.2120	600.43
66.2264	608.87
66.2409	626.32
66.2553	615.73
66.2697	623.27
66.2842	654.11
66.2986	614.65
66.3131	587.75
66.3275	600.99
66.3419	635.87
66.3564	621.31
66.3708	585.55
66.3853	609.85
66.3997	597.44
66.4141	632.82
66.4286	618.83
66.4430	622.27
66.4575	633.13
66.4719	603.52
66.4863	617.40
66.5008	608.34
66.5152	592.78
66.5297	577.83
66.5441	611.01
66.5585	612.62
66.5730	567.10
66.5874	579.37
66.6019	618.77
66.6163	595.01
66.6307	587.05
66.6452	591.01
66.6596	592.55
66.6741	571.86
66.6885	572.78
66.7029	622.66
66.7174	627.97
66.7318	627.15
66.7463	601.14
66.7607	637.25
66.7751	605.95
66.7896	588.98
66.8040	592.47
66.8185	586.04
66.8329	614.20
66.8473	601.02
66.8618	620.99
66.8762	608.74
66.8907	624.28
66.9051	628.13
66.9195	577.64
66.9340	602.00
66.9484	591.03
66.9629	591.83
66.9773	591.03
66.9917	620.18
67.0062	571.12
67.0206	608.74
67.0351	626.76
67.0495	613.05
67.0639	572.35
67.0784	596.98
67.0928	590.81
67.1073	586.60
67.1217	612.33
67.1361	554.64
67.1506	550.44
67.1650	583.99
67.1795	559.81
67.1939	542.76
67.2083	575.87
67.2228	561.81
67.2372	568.34
67.2517	602.84
67.2661	593.36
67.2805	607.52
67.2950	561.33
67.3094	562.29
67.3239	607.78
67.3383	554.98
67.3527	556.97
67.3672	590.03
67.3816	600.33
67.3961	587.24
67.4105	599.05
67.4250	624.61
67.4394	611.23
67.4538	568.68
67.4683	589.86
67.4827	564.97
67.4972	563.73
67.5116	579.40
67.5260	583.33
67.5405	603.39
67.5549	569.75
67.5694	582.49
67.5838	572.27
67.5982	581.71
67.6127	551.37
67.6271	559.91
67.6416	598.51
67.6560	571.83
67.6704	543.86
67.6849	552.04
67.6993	568.62
67.7138	549.06
67.7282	593.97
67.7426	563.59
67.7571	535.13
67.7715	583.27
67.7860	570.33
67.8004	569.91
67.8148	586.61
67.8293	575.54
67.8437	557.70
67.8582	594.59
67.8726	586.18
67.8870	573.22
67.9015	562.34
67.9159	557.87
67.9304	603.87
67.9448	593.78
67.9592	547.24
67.9737	593.65
67.9881	586.38
68.0026	563.74
68.0170	599.22
68.0314	588.38
68.0459	579.47
68.0603	616.54
68.0748	588.43
68.0892	616.84
68.1036	583.72
68.1181	561.79
68.1325	597.60
68.1470	557.63
68.1614	568.66
68.1758	569.65
68.1903	525.24
68.2047	555.84
68.2192	563.21
68.2336	566.75
68.2480	533.88
68.2625	583.35
68.2769	577.80
68.2914	575.98
68.3058	579.27
68.3202	562.51
68.3347	582.75
68.3491	578.51
68.3636	583.62
68.3780	587.28
68.3924	565.15
68.4069	562.73
68.4213	565.93
68.4358	557.24
68.4502	578.55
68.4646	574.31
68.4791	607.14
68.4935	578.74
68.5080	564.32
68.5224	545.02
68.5368	622.55
68.5513	558.63
68.5657	558.46
68.5802	577.03
68.5946	550.68
68.6090	549.05
68.6235	579.19
68.6379	608.94
68.6524	556.83
68.6668	590.80
68.6812	535.73
68.6957	586.82
68.7101	588.65
68.7246	616.53
68.7390	548.28
68.7534	555.42
68.7679	557.41
68.7823	573.63
68.7968	571.30
68.8112	540.13
68.8256	588.76
68.8401	541.23
68.8545	588.62
68.8690	581.47
68.8834	567.30
68.8978	567.41
68.9123	528.57
68.9267	560.36
68.9412	613.91
68.9556	565.41
68.9700	589.02
68.9845	565.52
68.9989	566.84
69.0134	541.78
69.0278	574.07
69.0422	620.44
69.0567	594.12
69.0711	544.10
69.0856	582.92
69.1000	588.01
69.1144	540.62
69.1289	636.51
69.1433	590.58
69.1578	594.27
69.1722	615.40
69.1866	590.81
69.2011	562.32
69.2155	580.73
69.2300	568.67
69.2444	639.59
69.2588	629.73
69.2733	581.91
69.2877	543.07
69.3022	527.84
69.3166	514.97
69.3310	586.87
69.3455	619.38
69.3599	597.36
69.3744	582.26
69.3888	563.85
69.4032	581.24
69.4177	536.10
69.4321	580.28
69.4466	527.97
69.4610	538.12
69.4754	596.38
69.4899	605.87
69.5043	607.19
69.5188	563.75
69.5332	610.63
69.5476	583.56
69.5621	569.58
69.5765	576.93
69.5910	581.73
69.6054	568.54
69.6198	624.00
69.6343	592.92
69.6487	605.88
69.6632	579.35
69.6776	618.17
69.6920	592.60
69.7065	627.43
69.7209	580.50
69.7354	584.83
69.7498	600.71
69.7642	601.29
69.7787	584.37
69.7931	574.34
69.8076	622.82
69.8220	556.57
69.8364	581.61
69.8509	555.99
69.8653	586.94
69.8798	597.74
69.8942	592.35
69.9086	600.14
69.9231	600.70
69.9375	639.22
69.9520	587.40
69.9664	584.33
69.9808	560.63
69.9953	575.18
70.0097	547.15
70.0242	567.32
70.0386	512.84
70.0530	559.76
70.0675	562.30
70.0819	628.97
70.0964	596.30
70.1108	594.70
70.1252	624.79
70.1397	597.31
70.1541	531.90
70.1686	538.86
70.1830	572.52
70.1974	567.65
70.2119	631.96
70.2263	548.44
70.2408	575.25
70.2552	604.55
70.2696	608.26
70.2841	600.03
70.2985	583.30
70.3130	592.68
70.3274	601.25
70.3418	599.37
70.3563	571.05
70.3707	572.76
70.3852	578.69
70.3996	550.94
70.4140	553.66
70.4285	609.22
70.4429	586.92
70.4574	575.51
70.4718	644.51
70.4862	542.06
70.5007	521.60
70.5151	576.77
70.5296	645.53
70.5440	585.05
70.5584	577.37
70.5729	577.16
70.5873	555.87
70.6018	603.08
70.6162	633.06
70.6306	583.98
70.6451	595.72
70.6595	580.32
70.6740	576.86
70.6884	560.79
70.7028	611.84
70.7173	610.28
70.7317	574.28
70.7462	595.09
70.7606	574.03
70.7750	608.79
70.7895	589.79
70.8039	591.65
70.8184	567.87
70.8328	578.42
70.8472	565.03
70.8617	597.79
70.8761	584.63
70.8906	547.64
70.9050	592.56
70.9194	542.78
70.9339	576.88
70.9483	586.01
70.9628	584.55
70.9772	564.00
70.9916	571.37
71.0061	599.44
71.0205	627.52
71.0350	585.18
71.0494	519.75
71.0638	547.07
71.0783	566.85
71.0927	608.60
71.1072	630.38
71.1216	600.12
71.1361	605.96
71.1505	574.98
71.1649	552.66
71.1794	586.59
71.1938	610.49
71.2083	578.58
71.2227	518.49
71.2371	579.52
71.2516	578.97
71.2660	521.95
71.2805	562.32
71.2949	561.03
71.3093	588.87
71.3238	602.40
71.3382	622.74
71.3527	637.80
71.3671	567.64
71.3815	533.97
71.3960	560.65
71.4104	584.83
71.4249	648.63
71.4393	619.00
71.4537	566.49
71.4682	580.72
71.4826	571.66
71.4971	565.47
71.5115	537.12
71.5259	535.04
71.5404	577.07
71.5548	561.18
71.5693	594.98
71.5837	562.50
71.5981	549.42
71.6126	582.88
71.6270	543.73
71.6415	547.50
71.6559	604.22
71.6703	599.37
71.6848	589.17
71.6992	637.25
71.7137	606.84
71.7281	602.67
71.7425	576.97
71.7570	603.86
71.7714	593.53
71.7859	594.45
71.8003	611.12
71.8147	588.78
71.8292	603.75
71.8436	575.86
71.8581	533.44
71.8725	591.86
71.8869	586.46
71.9014	518.62
71.9158	517.32
71.9303	504.56
71.9447	552.44
71.9591	598.10
71.9736	568.36
71.9880	529.09
72.0025	516.75
72.0169	532.33
72.0313	589.83
72.0458	614.50
72.0602	613.76
72.0747	572.11
72.0891	531.52
72.1035	573.74
72.1180	561.33
72.1324	520.02
72.1469	574.51
72.1613	550.60
72.1757	574.31
72.1902	580.22
72.2046	568.95
72.2191	606.23
72.2335	571.74
72.2479	572.70
72.2624	586.04
72.2768	595.30
72.2913	579.85
72.3057	581.84
72.3201	560.86
72.3346	569.03
72.3490	621.43
72.3635	654.90
72.3779	636.10
72.3923	565.66
72.4068	575.66
72.4212	640.21
72.4357	670.25
72.4501	645.15
72.4645	668.88
72.4790	677.92
72.4934	598.71
72.5079	597.68
72.5223	583.01
72.5367	554.57
72.5512	646.05
72.5656	573.26
72.5801	537.55
72.5945	533.03
72.6089	539.33
72.6234	610.32
72.6378	613.71
72.6523	634.24
72.6667	569.34
72.6811	562.34
72.6956	559.09
72.7100	571.68
72.7245	563.41
72.7389	551.01
72.7533	550.83
72.7678	533.57
72.7822	577.14
72.7967	590.08
72.8111	555.46
72.8255	615.99
72.8400	518.82
72.8544	488.69
72.8689	563.59
72.8833	537.74

Result vector
22.1120	566.81
22.1264	551.45
22.1409	624.74
22.1553	529.44
22.1697	540.22
22.1842	532.52
22.1986	525.67
22.2131	470.80
22.2275	555.92
22.2419	547.12
22.2564	580.84
22.2708	596.21
22.2853	603.00
22.2997	527.61
22.3141	605.05
22.3286	615.63
22.3430	530.68
22.3575	584.26
22.3719	558.64
22.3863	576.98
22.4008	574.78
22.4152	690.50
22.4297	656.72
22.4441	503.78
22.4585	510.27
22.4730	614.23
22.4874	574.30
22.5019	587.04
22.5163	542.11
22.5307	560.06
22.5452	566.11
22.5596	497.10
22.5741	579.43
22.5885	625.27
22.6029	548.16
22.6174	590.51
22.6318	625.70
22.6463	586.47
22.6607	667.11
22.6751	635.59
22.6896	565.81
22.7040	612.13
22.7185	595.54
22.7329	615.15
22.7473	584.74
22.7618	534.49
22.7762	513.62
22.7907	584.50
22.8051	672.73
22.8195	640.96
22.8340	589.33
22.8484	538.83
22.8629	494.87
22.8773	586.63
22.8917	600.96
22.9062	575.09
22.9206	527.63
22.9351	569.15
22.9495	665.57
22.9639	684.52
22.9784	637.14
22.9928	582.62
23.0073	548.86
23.0217	579.78
23.0361	533.63
23.0506	522.91
23.0650	542.67
23.0795	505.56
23.0939	566.56
23.1083	623.84
23.1228	566.89
23.1372	577.63
23.1517	552.03
23.1661	526.52
23.1806	607.59
23.1950	511.94
23.2094	540.69
23.2239	569.56
23.2383	589.92
23.2528	530.64
23.2672	614.67
23.2816	534.71
23.2961	450.96
23.3105	618.83
23.3250	605.47
23.3394	574.69
23.3538	586.94
23.3683	558.33
23.3827	614.45
23.3972	529.03
23.4116	495.63
23.4260	564.91
23.4405	501.19
23.4549	568.85
23.4694	582.98
23.4838	543.92
23.4982	576.71
23.5127	577.85
23.5271	578.31
23.5416	503.06
23.5560	506.66
23.5704	563.13
23.5849	595.43
23.5993	582.33
23.6138	552.02
23.6282	544.78
23.6426	539.95
23.6571	512.90
23.6715	624.91
23.6860	517.54
23.7004	469.07
23.7148	538.50
23.7293	582.82
23.7437	502.70
23.7582	551.20
23.7726	558.83
23.7870	562.95
23.8015	536.28
23.8159	567.06
23.8304	538.69
23.8448	565.29
23.8592	573.43
23.8737	528.63
23.8881	555.83
23.9026	564.29
23.9170	528.24
23.9314	555.15
23.9459	582.72
23.9603	524.49
23.9748	553.98
23.9892	561.41
24.0036	558.82
24.0181	535.60
24.0325	538.84
24.0470	572.17
24.0614	488.51
24.0758	451.16
24.0903	564.27
24.1047	583.07
24.1192	579.63
24.1336	585.59
24.1480	533.51
24.1625	543.42
24.1769	555.59
24.1914	558.96
24.2058	555.52
24.2202	618.59
24.2347	605.62
24.2491	579.03
24.2636	594.85
24.2780	567.36
24.2924	631.66
24.3069	558.36
24.3213	580.48
24.3358	602.88
24.3502	565.16
24.3646	562.86
24.3791	570.70
24.3935	478.45
24.4080	539.37
24.4224	516.59
24.4368	526.31
24.4513	452.57
24.4657	567.67
24.4802	531.48
24.4946	507.07
24.5090	552.40
24.5235	586.42
24.5379	557.68
24.5524	645.16
24.5668	543.61
24.5812	538.71
24.5957	558.64
24.6101	570.25
24.6246	564.38
24.6390	546.42
24.6534	527.68
24.6679	526.20
24.6823	503.52
24.6968	497.03
24.7112	526.88
24.7256	572.65
24.7401	549.94
24.7545	568.32
24.7690	493.32
24.7834	613.93
24.7978	502.16
24.8123	547.95
24.8267	566.48
24.8412	603.13
24.8556	562.91
24.8700	559.07
24.8845	504.26
24.8989	578.86
24.9134	555.59
24.9278	550.07
24.9422	544.44
24.9567	489.43
24.9711	574.97
24.9856	559.78
25.0000	494.94
25.0144	492.56
25.0289	583.20
25.0433	563.08
25.0578	488.33
25.0722	542.18
25.0866	550.54
25.1011	552.55
25.1155	588.18
25.1300	570.39
25.1444	512.80
25.1588	530.84
25.1733	543.04
25.1877	517.22
25.2022	508.98
25.2166	549.19
25.2310	560.56
25.2455	551.77
25.2599	538.80
25.2744	497.77
25.2888	582.95
25.3032	557.32
25.3177	572.55
25.3321	532.75
25.3466	468.03
25.3610	524.75
25.3754	537.96
25.3899	537.70
25.4043	545.83
25.4188	553.69
25.4332	522.23
25.4476	527.64
25.4621	521.16
25.4765	572.75
25.4910	552.37
25.5054	509.41
25.5198	549.86
25.5343	562.74
25.5487	601.15
25.5632	534.53
25.5776	535.87
25.5920	544.80
25.6065	539.99
25.6209	572.73
25.6354	559.91
25.6498	594.54
25.6642	569.05
25.6787	537.66
25.6931	539.65
25.7076	530.03
25.7220	549.26
25.7364	531.12
25.7509	529.66
25.7653	489.17
25.7798	555.35
25.7942	528.45
25.8086	548.88
25.8231	516.06
25.8375	531.67
25.8520	536.06
25.8664	541.22
25.8808	537.86
25.8953	546.60
25.9097	536.43
25.9242	519.53
25.9386	557.95
25.9530	565.30
25.9675	537.49
25.9819	541.79
25.9964	532.84
26.0108	532.83
26.0252	547.16
26.0397	532.50
26.0541	558.38
26.0686	539.96
26.0830	529.04
26.0974	540.24
26.1119	557.97
26.1263	539.96
26.1408	520.33
26.1552	544.84
26.1696	537.31
26.1841	542.99
26.1985	517.95
26.2130	534.00
26.2274	541.52
26.2418	548.15
26.2563	532.10
26.2707	522.60
26.2852	517.36
26.2996	516.13
26.3140	531.43
26.3285	546.87
26.3429	494.01
26.3574	530.62
26.3718	529.10
26.3862	517.64
26.4007	514.50
26.4151	538.79
26.4296	527.70
26.4440	525.52
26.4584	545.08
26.4729	550.59
26.4873	547.38
26.5018	516.56
26.5162	513.82
26.5306	526.20
26.5451	532.76
26.5595	528.08
26.5740	513.91
26.5884	560.41
26.6028	558.04
26.6173	564.27
26.6317	570.73
26.6462	540.05
26.6606	536.45
26.6750	543.44
26.6895	536.04
26.7039	555.24
26.7184	525.58
26.7328	519.00
26.7472	550.87
26.7617	537.68
26.7761	506.01
26.7906	556.13
26.8050	552.83
26.8194	544.30
26.8339	511.96
26.8483	525.59
26.8628	547.04
26.8772	536.26
26.8917	550.68
26.9061	543.88
26.9205	514.04
26.9350	512.72
26.9494	500.28
26.9639	500.18
26.9783	555.24
26.9927	566.88
27.0072	520.87
27.0216	525.80
27.0361	532.93
27.0505	557.64
27.0649	521.42
27.0794	504.87
27.0938	516.75
27.1083	522.08
27.1227	570.60
27.1371	507.53
27.1516	506.23
27.1660	539.05
27.1805	551.75
27.1949	535.40
27.2093	546.92
27.2238	525.81
27.2382	504.03
27.2527	495.03
27.2671	527.81
27.2815	514.11
27.2960	520.05
27.3104	527.14
27.3249	482.18
27.3393	540.60
27.3537	517.66
27.3682	519.56
27.3826	534.64
27.3971	501.76
27.4115	496.25
27.4259	513.12
27.4404	501.90
27.4548	493.67
27.4693	541.78
27.4837	553.58
27.4981	495.69
27.5126	488.35
27.5270	530.48
27.5415	522.23
27.5559	549.09
27.5703	502.29
27.5848	510.73
27.5992	493.82
27.6137	496.57
27.6281	495.44
27.6425	535.56
27.6570	542.14
27.6714	505.45
27.6859	545.49
27.7003	543.54
27.7147	530.83
27.7292	507.94
27.7436	512.82
27.7581	520.25
27.7725	520.67
27.7869	545.58
27.8014	547.40
27.8158	520.21
27.8303	497.95
27.8447	524.11
27.8591	537.97
27.8736	531.00
27.8880	510.16
27.9025	538.61
27.9169	514.60
27.9313	532.18
27.9458	517.59
27.9602	491.74
27.9747	486.66
27.9891	522.98
28.0035	513.90
28.0180	480.77
28.0324	484.12
28.0469	534.89
28.0613	515.66
28.0757	484.61
28.0902	500.64
28.1046	500.55
28.1191	529.46
28.1335	506.21
28.1479	535.60
28.1624	492.37
28.1768	490.94
28.1913	554.84
28.2057	516.16
28.2201	526.06
28.2346	521.79
28.2490	510.91
28.2635	550.15
28.2779	536.85
28.2923	524.15
28.3068	512.54
28.3212	520.89
28.3357	552.51
28.3501	514.94
28.3645	533.22
28.3790	540.30
28.3934	541.59
28.4079	513.20
28.4223	544.20
28.4367	507.10
28.4512	522.19
28.4656	517.35
28.4801	521.29
28.4945	561.06
28.5089	518.54
28.5234	511.80
28.5378	494.36
28.5523	525.98
28.5667	509.02
28.5811	512.34
28.5956	508.48
28.6100	561.11
28.6245	495.67
28.6389	472.72
28.6533	487.22
28.6678	477.60
28.6822	510.74
28.6967	525.85
28.7111	537.61
28.7255	508.21
28.7400	505.08
28.7544	522.88
28.7689	505.12
28.7833	505.98
28.7977	529.06
28.8122	529.98
28.8266	507.87
28.8411	507.38
28.8555	497.13
28.8699	510.90
28.8844	514.93
28.8988	521.01
28.9133	508.55
28.9277	514.45
28.9421	528.56
28.9566	527.87
28.9710	514.93
28.9855	530.52
28.9999	523.98
29.0143	503.93
29.0288	546.95
29.0432	538.87
29.0577	513.80
29.0721	480.95
29.0865	514.00
29.1010	514.25
29.1154	532.53
29.1299	523.51
29.1443	478.81
29.1587	465.74
29.1732	492.53
29.1876	507.67
29.2021	502.06
29.2165	486.28
29.2309	485.06
29.2454	493.91
29.2598	496.70
29.2743	493.08
29.2887	493.57
29.3031	481.35
29.3176	477.89
29.3320	510.54
29.3465	513.47
29.3609	497.35
29.3753	490.01
29.3898	504.43
29.4042	516.84
29.4187	479.60
29.4331	506.93
29.4475	493.32
29.4620	454.56
29.4764	471.73
29.4909	527.79
29.5053	474.41
29.5197	482.82
29.5342	530.69
29.5486	501.84
29.5631	538.34
29.5775	498.27
29.5919	484.60
29.6064	489.25
29.6208	494.28
29.6353	515.27
29.6497	467.57
29.6641	490.63
29.6786	448.33
29.6930	482.35
29.7075	534.94
29.7219	521.59
29.7363	504.68
29.7508	500.18
29.7652	481.41
29.7797	473.33
29.7941	505.92
29.8085	510.23
29.8230	516.69
29.8374	542.51
29.8519	534.74
29.8663	534.20
29.8807	501.72
29.8952	535.04
29.9096	494.58
29.9241	512.41
29.9385	522.20
29.9529	510.50
29.9674	511.85
29.9818	543.63
29.9963	512.48
30.0107	514.21
30.0251	528.78
30.0396	516.22
30.0540	484.39
30.0685	536.60
30.0829	535.62
30.0973	525.62
30.1118	534.10
30.1262	521.95
30.1407	521.44
30.1551	510.19
30.1695	527.21
30.1840	527.36
30.1984	524.79
30.2129	508.07
30.2273	482.92
30.2417	485.16
30.2562	503.21
30.2706	515.16
30.2851	543.23
30.2995	518.11
30.3139	539.31
30.3284	496.63
30.3428	551.54
30.3573	542.48
30.3717	522.54
30.3861	502.66
30.4006	502.75
30.4150	493.19
30.4295	527.82
30.4439	509.73
30.4583	486.72
30.4728	519.09
30.4872	543.83
30.5017	541.75
30.5161	512.90
30.5305	549.49
30.5450	567.33
30.5594	599.27
30.5739	633.58
30.5883	631.05
30.6028	649.96
30.6172	700.77
30.6316	747.24
30.6461	778.71
30.6605	741.10
30.6750	734.55
30.6894	686.51
30.7038	701.28
30.7183	685.49
30.7327	630.37
30.7472	638.22
30.7616	610.50
30.7760	593.58
30.7905	605.39
30.8049	566.09
30.8194	564.02
30.8338	562.14
30.8482	543.32
30.8627	566.58
30.8771	550.07
30.8916	519.67
30.9060	549.04
30.9204	515.88
30.9349	498.98
30.9493	519.93
30.9638	549.44
30.9782	554.54
30.9926	514.88
31.0071	484.97
31.0215	507.63
31.0360	527.55
31.0504	477.45
31.0648	521.75
31.0793	523.67
31.0937	509.06
31.1082	504.38
31.1226	530.31
31.1370	529.85
31.1515	494.31
31.1659	532.77
31.1804	526.68
31.1948	503.06
31.2092	504.90
31.2237	488.38
31.2381	520.69
31.2526	506.42
31.2670	509.91
31.2814	532.89
31.2959	524.96
31.3103	552.08
31.3248	529.09
31.3392	541.32
31.3536	546.23
31.3681	498.89
31.3825	497.65
31.3970	533.42
31.4114	522.69
31.4258	520.15
31.4403	506.97
31.4547	519.48
31.4692	519.09
31.4836	508.81
31.4980	514.73
31.5125	515.82
31.5269	525.47
31.5414	511.90
31.5558	496.83
31.5702	506.17
31.5847	525.45
31.5991	529.82
31.6136	525.57
31.6280	505.70
31.6424	527.11
31.6569	496.74
31.6713	484.35
31.6858	477.95
31.7002	511.40
31.7146	512.54
31.7291	502.26
31.7435	526.88
31.7580	515.19
31.7724	491.65
31.7868	519.98
31.8013	507.37
31.8157	481.80
31.8302	492.44
31.8446	478.08
31.8590	482.58
31.8735	525.93
31.8879	567.30
31.9024	552.69
31.9168	517.01
31.9312	489.30
31.9457	549.22
31.9601	520.30
31.9746	469.37
31.9890	459.30
32.0034	485.56
32.0179	501.69
32.0323	564.78
32.0468	536.01
32.0612	515.14
32.0756	499.98
32.0901	510.99
32.1045	504.95
32.1190	526.79
32.1334	502.71
32.1478	471.23
32.1623	494.27
32.1767	475.29
32.1912	490.87
32.2056	507.29
32.2200	488.22
32.2345	516.15
32.2489	496.14
32.2634	478.26
32.2778	509.72
32.2922	500.46
32.3067	506.96
32.3211	544.78
32.3356	529.99
32.3500	513.62
32.3644	507.98
32.3789	504.95
32.3933	509.11
32.4078	479.93
32.4222	519.25
32.4366	477.62
32.4511	493.61
32.4655	523.77
32.4800	519.68
32.4944	532.56
32.5088	511.54
32.5233	489.18
32.5377	530.04
32.5522	493.98
32.5666	516.70
32.5810	503.97
32.5955	470.69
32.6099	490.29
32.6244	475.20
32.6388	489.22
32.6532	490.58
32.6677	499.16
32.6821	490.62
32.6966	520.91
32.7110	502.84
32.7254	505.11
32.7399	501.57
32.7543	525.09
32.7688	484.07
32.7832	537.48
32.7976	493.79
32.8121	518.39
32.8265	540.80
32.8410	522.88
32.8554	519.42
32.8698	509.41
32.8843	483.09
32.8987	468.98
32.9132	513.97
32.9276	516.99
32.9420	515.58
32.9565	493.01
32.9709	485.15
32.9854	491.81
32.9998	477.85
33.0142	495.16
33.0287	503.01
33.0431	509.24
33.0576	492.67
33.0720	480.42
33.0864	512.12
33.1009	511.75
33.1153	513.38
33.1298	493.57
33.1442	493.11
33.1586	510.86
33.1731	492.03
33.1875	457.66
33.2020	486.67
33.2164	494.84
33.2308	478.60
33.2453	483.74
33.2597	520.95
33.2742	502.29
33.2886	464.62
33.3030	502.70
33.3175	513.68
33.3319	509.86
33.3464	495.04
33.3608	472.26
33.3752	477.97
33.3897	485.79
33.4041	489.95
33.4186	500.03
33.4330	528.90
33.4474	497.29
33.4619	526.24
33.4763	520.84
33.4908	507.61
33.5052	521.95
33.5196	519.71
33.5341	492.11
33.5485	486.41
33.5630	520.06
33.5774	504.84
33.5918	509.95
33.6063	503.24
33.6207	502.82
33.6352	514.80
33.6496	492.08
33.6640	469.89
33.6785	491.15
33.6929	493.12
33.7074	518.97
33.7218	494.03
33.7362	495.19
33.7507	488.57
33.7651	488.07
33.7796	519.54
33.7940	491.36
33.8084	485.35
33.8229	481.38
33.8373	504.28
33.8518	498.46
33.8662	509.83
33.8806	480.24
33.8951	482.96
33.9095	515.57
33.9240	486.70
33.9384	501.42
33.9528	469.04
33.9673	505.08
33.9817	547.80
33.9962	526.79
34.0106	491.53
34.0250	506.60
34.0395	485.54
34.0539	459.89
34.0684	497.14
34.0828	524.80
34.0972	498.97
34.1117	499.86
34.1261	500.92
34.1406	471.27
34.1550	491.76
34.1694	521.27
34.1839	500.67
34.1983	490.51
34.2128	504.97
34.2272	516.12
34.2417	513.27
34.2561	496.64
34.2705	498.67
34.2850	506.57
34.2994	520.68
34.3139	520.02
34.3283	527.22
34.3427	531.00
34.3572	506.04
34.3716	497.68
34.3861	508.97
34.4005	508.82
34.4149	489.55
34.4294	515.03
34.4438	501.96
34.4583	511.77
34.4727	510.63
34.4871	514.88
34.5016	481.88
34.5160	518.53
34.5305	536.41
34.5449	512.05
34.5593	498.01
34.5738	484.48
34.5882	517.11
34.6027	520.15
34.6171	513.20
34.6315	527.93
34.6460	508.34
34.6604	490.26
34.6749	505.37
34.6893	468.77
34.7037	526.04
34.7182	545.79
34.7326	480.95
34.7471	477.25
34.7615	475.56
34.7759	488.60
34.7904	516.18
34.8048	506.37
34.8193	535.76
34.8337	520.75
34.8481	478.42
34.8626	489.16
34.8770	520.72
34.8915	493.01
34.9059	529.49
34.9203	507.52
34.9348	514.57
34.9492	489.50
34.9637	505.55
34.9781	485.66
34.9925	506.44
35.0070	509.92
35.0214	524.18
35.0359	515.14
35.0503	499.52
35.0647	514.37
35.0792	532.95
35.0936	528.21
35.1081	495.93
35.1225	521.17
35.1369	509.04
35.1514	487.73
35.1658	484.62
35.1803	493.89
35.1947	498.67
35.2091	515.12
35.2236	546.56
35.2380	557.94
35.2525	518.20
35.2669	503.83
35.2813	511.07
35.2958	519.73
35.3102	528.14
35.3247	508.39
35.3391	490.03
35.3535	509.25
35.3680	508.45
35.3824	497.43
35.3969	522.12
35.4113	505.42
35.4257	553.37
35.4402	548.61
35.4546	535.49
35.4691	522.95
35.4835	532.05
35.4979	548.17
35.5124	552.97
35.5268	519.95
35.5413	494.59
35.5557	506.55
35.5701	516.05
35.5846	517.74
35.5990	533.74
35.6135	545.62
35.6279	523.15
35.6423	501.09
35.6568	500.05
35.6712	510.79
35.6857	577.28
35.7001	659.23
35.7145	689.21
35.7290	673.18
35.7434	609.84
35.7579	570.42
35.7723	552.14
35.7867	628.08
35.8012	664.20
35.8156	656.49
35.8301	624.43
35.8445	608.68
35.8589	655.84
35.8734	743.74
35.8878	876.91
35.9023	1035.92
35.9167	1045.82
35.9311	1387.28
35.9456	2065.91
35.9600	2325.94
35.9745	1897.06
35.9889	1917.65
36.0033	2285.69
36.0178	2493.74
36.0322	2239.11
36.0467	2218.77
36.0611	2081.38
36.0755	2114.21
36.0900	2026.71
36.1044	1902.25
36.1189	1842.38
36.1333	1711.25
36.1477	1433.89
36.1622	1414.15
36.1766	1351.14
36.1911	1111.92
36.2055	1011.99
36.2199	926.75
36.2344	816.54
36.2488	718.75
36.2633	653.60
36.2777	636.37
36.2921	635.06
36.3066	595.58
36.3210	554.70
36.3355	555.91
36.3499	544.90
36.3643	541.66
36.3788	524.40
36.3932	566.81
36.4077	597.37
36.4221	607.11
36.4365	546.80
36.4510	542.17
36.4654	548.08
36.4799	585.97
36.4943	538.06
36.5087	536.48
36.5232	553.65
36.5376	559.62
36.5521	522.70
36.5665	534.82
36.5809	501.48
36.5954	499.85
36.6098	523.44
36.6243	538.04
36.6387	563.93
36.6531	522.36
36.6676	515.43
36.6820	525.29
36.6965	506.55
36.7109	510.31
36.7253	521.99
36.7398	525.70
36.7542	524.46
36.7687	511.73
36.7831	538.03
36.7975	554.32
36.8120	576.32
36.8264	565.17
36.8409	612.39
36.8553	562.21
36.8697	614.74
36.8842	616.82
36.8986	566.78
36.9131	601.94
36.9275	601.65
36.9419	578.80
36.9564	535.68
36.9708	533.57
36.9853	543.50
36.9997	576.24
37.0141	542.93
37.0286	560.46
37.0430	529.91
37.0575	550.33
37.0719	521.66
37.0863	530.11
37.1008	512.89
37.1152	494.24
37.1297	494.84
37.1441	468.15
37.1585	528.64
37.1730	514.89
37.1874	515.75
37.2019	502.29
37.2163	514.99
37.2307	507.82
37.2452	530.64
37.2596	520.33
37.2741	481.66
37.2885	517.49
37.3029	485.00
37.3174	482.77
37.3318	522.59
37.3463	532.10
37.3607	481.50
37.3751	504.64
37.3896	479.22
37.4040	485.17
37.4185	480.42
37.4329	517.84
37.4473	480.93
37.4618	494.74
37.4762	499.47
37.4907	496.72
37.5051	502.63
37.5195	504.47
37.5340	538.76
37.5484	537.97
37.5629	488.49
37.5773	473.06
37.5917	498.74
37.6062	490.28
37.6206	478.91
37.6351	500.36
37.6495	526.62
37.6639	466.50
37.6784	464.37
37.6928	503.47
37.7073	537.54
37.7217	498.34
37.7361	495.17
37.7506	472.76
37.7650	519.49
37.7795	525.23
37.7939	525.31
37.8083	523.25
37.8228	517.88
37.8372	496.20
37.8517	484.17
37.8661	524.29
37.8805	508.57
37.8950	495.85
37.9094	522.51
37.9239	514.47
37.9383	526.86
37.9528	488.12
37.9672	515.99
37.9816	511.72
37.9961	480.44
38.0105	492.65
38.0250	502.92
38.0394	540.05
38.0538	502.96
38.0683	517.41
38.0827	495.45
38.0972	511.90
38.1116	538.23
38.1260	497.81
38.1405	505.44
38.1549	480.22
38.1694	535.36
38.1838	512.98
38.1982	468.21
38.2127	527.79
38.2271	514.81
38.2416	502.76
38.2560	508.13
38.2704	502.33
38.2849	528.63
38.2993	521.75
38.3138	528.71
38.3282	541.53
38.3426	531.17
38.3571	502.22
38.3715	500.05
38.3860	507.24
38.4004	488.70
38.4148	544.86
38.4293	548.33
38.4437	583.41
38.4582	636.87
38.4726	706.43
38.4870	716.86
38.5015	744.92
38.5159	748.18
38.5304	805.12
38.5448	829.75
38.5592	778.15
38.5737	762.35
38.5881	717.34
38.6026	702.62
38.6170	746.78
38.6314	726.45
38.6459	723.34
38.6603	661.29
38.6748	613.28
38.6892	589.92
38.7036	574.12
38.7181	550.24
38.7325	518.75
38.7470	497.08
38.7614	504.08
38.7758	552.23
38.7903	514.55
38.8047	519.83
38.8192	518.72
38.8336	500.59
38.8480	508.83
38.8625	532.11
38.8769	501.74
38.8914	489.54
38.9058	503.62
38.9202	494.50
38.9347	499.97
38.9491	515.61
38.9636	516.26
38.9780	483.86
38.9924	499.57
39.0069	493.36
39.0213	502.28
39.0358	460.99
39.0502	488.83
39.0646	517.65
39.0791	529.36
39.0935	494.66
39.1080	480.09
39.1224	502.90
39.1368	487.78
39.1513	494.04
39.1657	507.35
39.1802	516.20
39.1946	495.91
39.2090	511.38
39.2235	487.91
39.2379	471.19
39.2524	508.38
39.2668	520.10
39.2812	513.57
39.2957	536.26
39.3101	502.28
39.3246	509.67
39.3390	520.98
39.3534	520.08
39.3679	508.45
39.3823	508.64
39.3968	493.78
39.4112	514.13
39.4256	525.52
39.4401	536.84
39.4545	521.39
39.4690	518.49
39.4834	507.15
39.4978	481.43
39.5123	494.67
39.5267	471.09
39.5412	504.85
39.5556	481.88
39.5700	487.54
39.5845	503.72
39.5989	477.66
39.6134	488.36
39.6278	475.89
39.6422	498.73
39.6567	439.74
39.6711	486.02
39.6856	505.52
39.7000	518.89
39.7144	491.28
39.7289	488.93
39.7433	506.58
39.7578	494.60
39.7722	511.05
39.7866	547.57
39.8011	494.09
39.8155	504.77
39.8300	484.01
39.8444	492.96
39.8588	496.70
39.8733	523.46
39.8877	520.83
39.9022	500.10
39.9166	479.04
39.9310	500.27
39.9455	496.23
39.9599	494.99
39.9744	496.02
39.9888	478.11
40.0032	491.23
40.0177	509.96
40.0321	494.46
40.0466	496.36
40.0610	507.83
40.0754	488.20
40.0899	501.63
40.1043	472.52
40.1188	490.89
40.1332	516.83
40.1476	473.42
40.1621	508.17
40.1765	481.26
40.1910	499.21
40.2054	517.85
40.2198	499.57
40.2343	477.16
40.2487	491.35
40.2632	470.55
40.2776	479.68
40.2920	463.66
40.3065	490.86
40.3209	483.89
40.3354	510.23
40.3498	479.90
40.3642	489.53
40.3787	503.50
40.3931	485.43
40.4076	503.16
40.4220	527.09
40.4364	501.74
40.4509	500.78
40.4653	531.81
40.4798	520.61
40.4942	537.15
40.5086	479.70
40.5231	516.74
40.5375	515.69
40.5520	474.18
40.5664	468.97
40.5808	497.12
40.5953	484.28
40.6097	497.36
40.6242	499.20
40.6386	504.51
40.6530	544.54
40.6675	485.99
40.6819	488.44
40.6964	521.59
40.7108	507.91
40.7252	512.92
40.7397	515.31
40.7541	531.48
40.7686	504.40
40.7830	520.35
40.7974	513.63
40.8119	502.76
40.8263	481.25
40.8408	480.94
40.8552	498.44
40.8696	489.57
40.8841	512.62
40.8985	535.85
40.9130	533.72
40.9274	486.10
40.9418	524.93
40.9563	515.37
40.9707	501.43
40.9852	506.06
40.9996	482.43
41.0140	471.95
41.0285	468.88
41.0429	472.11
41.0574	497.53
41.0718	482.91
41.0862	538.48
41.1007	476.30
41.1151	489.26
41.1296	507.89
41.1440	494.05
41.1584	484.34
41.1729	492.06
41.1873	492.15
41.2018	495.57
41.2162	509.47
41.2306	502.88
41.2451	499.04
41.2595	487.80
41.2740	513.78
41.2884	540.33
41.3028	484.58
41.3173	496.92
41.3317	532.06
41.3462	501.66
41.3606	498.01
41.3750	479.56
41.3895	475.46
41.4039	469.74
41.4184	492.34
41.4328	502.10
41.4472	501.98
41.4617	489.86
41.4761	484.57
41.4906	508.84
41.5050	490.38
41.5194	486.38
41.5339	469.08
41.5483	486.10
41.5628	485.36
41.5772	510.83
41.5916	528.04
41.6061	509.10
41.6205	497.16
41.6350	494.73
41.6494	498.88
41.6639	496.86
41.6783	496.96
41.6927	474.83
41.7072	495.61
41.7216	539.44
41.7361	482.98
41.7505	488.19
41.7649	505.79
41.7794	519.33
41.7938	497.35
41.8083	498.17
41.8227	515.97
41.8371	502.95
41.8516	515.71
41.8660	536.79
41.8805	554.03
41.8949	524.22
41.9093	557.10
41.9238	517.91
41.9382	554.65
41.9527	543.63
41.9671	553.65
41.9815	533.73
41.9960	553.14
42.0104	572.72
42.0249	552.59
42.0393	569.72
42.0537	589.35
42.0682	625.01
42.0826	601.27
42.0971	568.25
42.1115	533.00
42.1259	580.08
42.1404	610.06
42.1548	598.41
42.1693	635.48
42.1837	647.46
42.1981	714.55
42.2126	805.95
42.2270	864.22
42.2415	1024.41
42.2559	1154.60
42.2703	1303.23
42.2848	1474.04
42.2992	1563.78
42.3137	1628.24
42.3281	1636.74
42.3425	1596.93
42.3570	1499.33
42.3714	1400.44
42.3859	1348.56
42.4003	1331.71
42.4147	1307.60
42.4292	1274.92
42.4436	1122.33
42.4581	1013.90
42.4725	954.75
42.4869	865.53
42.5014	757.28
42.5158	675.02
42.5303	642.20
42.5447	637.12
42.5591	619.88
42.5736	581.22
42.5880	577.16
42.6025	552.09
42.6169	578.01
42.6313	570.45
42.6458	562.74
42.6602	556.25
42.6747	513.87
42.6891	488.64
42.7035	515.82
42.7180	565.53
42.7324	532.20
42.7469	548.86
42.7613	531.80
42.7757	545.71
42.7902	526.70
42.8046	507.80
42.8191	515.13
42.8335	523.92
42.8479	507.76
42.8624	508.13
42.8768	516.10
42.8913	505.92
42.9057	549.41
42.9201	557.23
42.9346	542.17
42.9490	540.81
42.9635	537.98
42.9779	512.02
42.9923	510.51
43.0068	500.33
43.0212	483.61
43.0357	499.72
43.0501	538.14
43.0645	525.85
43.0790	511.60
43.0934	526.52
43.1079	519.07
43.1223	515.15
43.1367	479.52
43.1512	492.00
43.1656	506.31
43.1801	524.37
43.1945	539.83
43.2089	518.90
43.2234	528.92
43.2378	536.96
43.2523	519.91
43.2667	508.38
43.2811	538.12
43.2956	514.54
43.3100	537.33
43.3245	527.98
43.3389	559.99
43.3533	548.13
43.3678	554.74
43.3822	535.71
43.3967	532.90
43.4111	537.48
43.4255	540.42
43.4400	499.11
43.4544	495.98
43.4689	534.08
43.4833	525.09
43.4977	515.05
43.5122	518.29
43.5266	524.28
43.5411	550.52
43.5555	520.76
43.5699	529.61
43.5844	521.35
43.5988	539.70
43.6133	531.96
43.6277	530.45
43.6421	529.83
43.6566	532.28
43.6710	547.62
43.6855	529.74
43.6999	549.60
43.7143	552.61
43.7288	568.03
43.7432	557.73
43.7577	544.40
43.7721	557.74
43.7865	599.66
43.8010	640.84
43.8154	623.81
43.8299	638.00
43.8443	640.87
43.8587	724.57
43.8732	683.89
43.8876	659.15
43.9021	651.52
43.9165	614.15
43.9309	591.03
43.9454	615.57
43.9598	585.87
43.9743	601.95
43.9887	634.99
44.0031	583.48
44.0176	613.02
44.0320	623.86
44.0465	582.68
44.0609	573.07
44.0753	521.42
44.0898	552.11
44.1042	535.40
44.1187	548.77
44.1331	508.33
44.1475	512.10
44.1620	513.08
44.1764	538.96
44.1909	473.00
44.2053	485.97
44.2197	506.63
44.2342	534.09
44.2486	540.58
44.2631	509.82
44.2775	518.23
44.2919	494.12
44.3064	490.53
44.3208	541.42
44.3353	549.09
44.3497	528.99
44.3641	522.20
44.3786	506.95
44.3930	528.18
44.4075	562.94
44.4219	575.06
44.4363	581.45
44.4508	601.86
44.4652	652.51
44.4797	599.71
44.4941	573.60
44.5085	575.78
44.5230	590.12
44.5374	560.32
44.5519	565.93
44.5663	561.60
44.5807	581.42
44.5952	583.61
44.6096	609.68
44.6241	576.38
44.6385	572.44
44.6529	570.42
44.6674	524.88
44.6818	599.59
44.6963	647.08
44.7107	654.04
44.7251	664.18
44.7396	746.80
44.7540	814.64
44.7685	805.23
44.7829	870.55
44.7973	887.21
44.8118	901.84
44.8262	833.75
44.8407	767.81
44.8551	744.60
44.8695	744.51
44.8840	712.82
44.8984	777.72
44.9129	758.86
44.9273	706.45
44.9417	643.00
44.9562	548.03
44.9706	576.31
44.9851	539.11
44.9995	518.09
45.0139	537.31
45.0284	524.68
45.0428	525.55
45.0573	511.47
45.0717	477.57
45.0861	522.78
45.1006	503.28
45.1150	504.26
45.1295	499.35
45.1439	505.42
45.1583	489.24
45.1728	496.32
45.1872	495.53
45.2017	515.29
45.2161	491.04
45.2305	510.05
45.2450	487.00
45.2594	529.53
45.2739	492.07
45.2883	500.09
45.3028	506.44
45.3172	501.52
45.3316	495.52
45.3461	465.07
45.3605	493.00
45.3750	497.54
45.3894	532.77
45.4038	513.28
45.4183	507.98
45.4327	531.12
45.4472	465.50
45.4616	488.00
45.4760	496.34
45.4905	505.92
45.5049	524.50
45.5194	509.95
45.5338	526.40
45.5482	521.64
45.5627	490.70
45.5771	487.69
45.5916	492.17
45.6060	534.04
45.6204	488.25
45.6349	522.01
45.6493	525.80
45.6638	518.19
45.6782	513.86
45.6926	504.75
45.7071	490.46
45.7215	526.12
45.7360	493.70
45.7504	522.51
45.7648	508.11
45.7793	506.78
45.7937	500.74
45.8082	526.72
45.8226	482.18
45.8370	495.75
45.8515	486.00
45.8659	520.25
45.8804	517.41
45.8948	553.46
45.9092	497.93
45.9237	515.31
45.9381	512.67
45.9526	499.50
45.9670	506.43
45.9814	515.50
45.9959	505.27
46.0103	483.49
46.0248	495.89
46.0392	503.51
46.0536	499.45
46.0681	505.05
46.0825	548.17
46.0970	529.67
46.1114	512.99
46.1258	509.15
46.1403	480.63
46.1547	474.19
46.1692	474.67
46.1836	489.06
46.1980	534.46
46.2125	494.14
46.2269	473.55
46.2414	483.71
46.2558	488.68
46.2702	460.66
46.2847	521.01
46.2991	490.76
46.3136	475.27
46.3280	482.98
46.3424	502.31
46.3569	524.93
46.3713	515.57
46.3858	497.50
46.4002	478.20
46.4146	526.21
46.4291	543.28
46.4435	495.90
46.4580	509.05
46.4724	517.32
46.4868	535.58
46.5013	516.45
46.5157	505.09
46.5302	497.41
46.5446	518.57
46.5590	534.35
46.5735	501.50
46.5879	477.26
46.6024	499.89
46.6168	488.89
46.6312	500.89
46.6457	492.43
46.6601	483.98
46.6746	459.80
46.6890	468.21
46.7034	517.38
46.7179	512.23
46.7323	491.99
46.7468	513.81
46.7612	506.81
46.7756	509.59
46.7901	481.09
46.8045	520.84
46.8190	494.18
46.8334	497.47
46.8478	531.91
46.8623	567.07
46.8767	549.48
46.8912	519.96
46.9056	525.38
46.9200	546.71
46.9345	497.95
46.9489	520.52
46.9634	493.94
46.9778	501.00
46.9922	505.40
47.0067	475.52
47.0211	482.83
47.0356	481.88
47.0500	478.86
47.0644	503.45
47.0789	486.06
47.0933	479.13
47.1078	502.21
47.1222	527.58
47.1366	527.59
47.1511	495.36
47.1655	503.06
47.1800	531.45
47.1944	512.37
47.2088	531.60
47.2233	529.44
47.2377	510.74
47.2522	497.59
47.2666	494.43
47.2810	513.11
47.2955	479.61
47.3099	523.58
47.3244	530.24
47.3388	528.88
47.3532	480.00
47.3677	482.64
47.3821	487.45
47.3966	501.95
47.4110	519.42
47.4254	511.78
47.4399	499.94
47.4543	502.06
47.4688	538.86
47.4832	509.98
47.4976	479.11
47.5121	491.16
47.5265	505.94
47.5410	508.60
47.5554	521.73
47.5698	472.44
47.5843	498.20
47.5987	524.35
47.6132	508.83
47.6276	511.48
47.6420	523.21
47.6565	499.43
47.6709	475.98
47.6854	503.87
47.6998	519.74
47.7142	493.07
47.7287	507.08
47.7431	521.69
47.7576	492.15
47.7720	485.94
47.7864	529.25
47.8009	517.86
47.8153	498.24
47.8298	489.61
47.8442	467.96
47.8586	498.72
47.8731	518.61
47.8875	507.48
47.9020	526.79
47.9164	522.57
47.9308	475.74
47.9453	499.79
47.9597	493.91
47.9742	486.92
47.9886	508.80
48.0030	517.09
48.0175	527.83
48.0319	568.13
48.0464	515.92
48.0608	505.75
48.0752	501.26
48.0897	497.14
48.1041	510.56
48.1186	508.01
48.1330	492.96
48.1474	493.29
48.1619	524.53
48.1763	525.49
48.1908	493.58
48.2052	497.33
48.2196	489.88
48.2341	513.69
48.2485	519.24
48.2630	528.64
48.2774	535.27
48.2918	512.96
48.3063	507.99
48.3207	519.97
48.3352	516.16
48.3496	539.15
48.3640	527.41
48.3785	487.88
48.3929	511.27
48.4074	524.52
48.4218	534.47
48.4362	518.03
48.4507	491.50
48.4651	481.42
48.4796	537.82
48.4940	525.90
48.5084	506.19
48.5229	525.92
48.5373	518.10
48.5518	504.91
48.5662	537.86
48.5806	491.74
48.5951	511.35
48.6095	526.16
48.6240	505.91
48.6384	509.43
48.6528	526.15
48.6673	519.00
48.6817	511.44
48.6962	523.13
48.7106	528.06
48.7250	544.75
48.7395	480.58
48.7539	519.89
48.7684	539.47
48.7828	565.16
48.7972	526.56
48.8117	535.84
48.8261	534.95
48.8406	563.19
48.8550	543.35
48.8694	556.47
48.8839	534.05
48.8983	528.30
48.9128	521.58
48.9272	572.53
48.9416	572.76
48.9561	560.44
48.9705	608.75
48.9850	561.17
48.9994	626.78
49.0139	578.10
49.0283	588.14
49.0427	571.13
49.0572	622.30
49.0716	639.54
49.0861	687.89
49.1005	662.96
49.1149	714.30
49.1294	756.02
49.1438	725.47
49.1583	765.30
49.1727	821.52
49.1871	873.16
49.2016	870.55
49.2160	988.30
49.2305	1053.20
49.2449	1140.24
49.2593	1234.69
49.2738	1244.64
49.2882	1345.09
49.3027	1514.51
49.3171	1568.77
49.3315	1663.94
49.3460	1691.46
49.3604	1700.25
49.3749	1750.56
49.3893	1699.71
49.4037	1675.85
49.4182	1694.92
49.4326	1755.97
49.4471	1606.42
49.4615	1583.36
49.4759	1608.29
49.4904	1497.27
49.5048	1390.40
49.5193	1334.34
49.5337	1292.48
49.5481	1227.50
49.5626	1178.37
49.5770	1068.04
49.5915	962.64
49.6059	986.05
49.6203	924.72
49.6348	838.91
49.6492	785.54
49.6637	771.62
49.6781	730.96
49.6925	686.88
49.7070	687.36
49.7214	653.96
49.7359	640.57
49.7503	604.76
49.7647	601.81
49.7792	610.04
49.7936	598.95
49.8081	580.51
49.8225	544.10
49.8369	548.02
49.8514	512.08
49.8658	555.37
49.8803	561.42
49.8947	546.75
49.9091	553.42
49.9236	528.36
49.9380	540.43
49.9525	543.07
49.9669	562.17
49.9813	532.24
49.9958	516.80
50.0102	497.26
50.0247	518.93
50.0391	539.25
50.0535	530.69
50.0680	536.82
50.0824	534.57
50.0969	537.37
50.1113	540.60
50.1257	560.66
50.1402	512.96
50.1546	514.45
50.1691	518.76
50.1835	509.97
50.1979	458.52
50.2124	516.10
50.2268	508.08
50.2413	510.93
50.2557	504.96
50.2701	488.06
50.2846	512.20
50.2990	516.13
50.3135	532.67
50.3279	536.67
50.3423	504.73
50.3568	527.52
50.3712	515.73
50.3857	498.95
50.4001	474.62
50.4145	499.23
50.4290	507.58
50.4434	530.45
50.4579	537.88
50.4723	507.75
50.4867	503.32
50.5012	528.76
50.5156	521.78
50.5301	534.00
50.5445	510.15
50.5589	527.99
50.5734	497.04
50.5878	520.80
50.6023	529.95
50.6167	535.17
50.6311	507.40
50.6456	471.54
50.6600	508.77
50.6745	513.14
50.6889	506.43
50.7033	524.26
50.7178	497.77
50.7322	485.25
50.7467	533.22
50.7611	530.39
50.7755	525.91
50.7900	500.82
50.8044	482.89
50.8189	496.73
50.8333	505.52
50.8477	481.83
50.8622	539.34
50.8766	557.07
50.8911	511.13
50.9055	518.17
50.9199	512.08
50.9344	509.84
50.9488	498.40
50.9633	494.89
50.9777	489.32
50.9921	492.07
51.0066	461.27
51.0210	482.81
51.0355	498.10
51.0499	506.53
51.0643	524.21
51.0788	544.76
51.0932	519.51
51.1077	489.88
51.1221	525.39
51.1365	503.54
51.1510	475.26
51.1654	478.73
51.1799	492.44
51.1943	524.70
51.2087	534.61
51.2232	539.22
51.2376	521.59
51.2521	482.59
51.2665	528.72
51.2809	526.78
51.2954	516.35
51.3098	486.03
51.3243	510.19
51.3387	509.34
51.3531	517.73
51.3676	495.77
51.3820	510.23
51.3965	532.43
51.4109	515.95
51.4253	508.59
51.4398	495.71
51.4542	475.56
51.4687	494.24
51.4831	501.18
51.4975	519.69
51.5120	520.41
51.5264	534.76
51.5409	543.63
51.5553	543.42
51.5697	544.53
51.5842	563.32
51.5986	529.69
51.6131	477.74
51.6275	514.74
51.6419	534.32
51.6564	500.42
51.6708	479.20
51.6853	487.92
51.6997	482.84
51.7141	479.16
51.7286	472.05
51.7430	489.57
51.7575	483.09
51.7719	490.87
51.7863	504.81
51.8008	506.57
51.8152	521.49
51.8297	525.97
51.8441	520.84
51.8585	544.13
51.8730	534.80
51.8874	523.86
51.9019	538.86
51.9163	517.43
51.9307	506.94
51.9452	518.40
51.9596	526.18
51.9741	511.46
51.9885	479.36
52.0029	492.74
52.0174	506.88
52.0318	531.94
52.0463	521.62
52.0607	541.98
52.0751	526.07
52.0896	545.37
52.1040	530.98
52.1185	501.45
52.1329	515.09
52.1473	485.90
52.1618	508.40
52.1762	496.57
52.1907	488.01
52.2051	483.60
52.2195	506.31
52.2340	478.91
52.2484	542.67
52.2629	538.60
52.2773	571.95
52.2917	514.95
52.3062	533.54
52.3206	523.82
52.3351	522.48
52.3495	508.57
52.3639	477.35
52.3784	528.91
52.3928	538.69
52.4073	499.90
52.4217	546.85
52.4361	541.83
52.4506	505.46
52.4650	536.81
52.4795	520.50
52.4939	502.29
52.5083	528.03
52.5228	521.76
52.5372	518.33
52.5517	488.73
52.5661	521.45
52.5805	518.38
52.5950	495.19
52.6094	524.60
52.6239	505.88
52.6383	521.70
52.6527	541.59
52.6672	475.20
52.6816	509.57
52.6961	507.62
52.7105	549.89
52.7250	485.21
52.7394	513.91
52.7538	529.70
52.7683	482.80
52.7827	521.26
52.7972	500.59
52.8116	532.37
52.8260	496.95
52.8405	511.89
52.8549	514.75
52.8694	517.68
52.8838	524.31
52.8982	514.12
52.9127	526.10
52.9271	547.29
52.9416	543.79
52.9560	482.53
52.9704	503.39
52.9849	491.52
52.9993	488.50
53.0138	519.33
53.0282	537.37
53.0426	534.99
53.0571	504.96
53.0715	518.11
53.0860	536.82
53.1004	500.35
53.1148	522.37
53.1293	556.50
53.1437	510.64
53.1582	502.57
53.1726	526.12
53.1870	525.30
53.2015	504.05
53.2159	522.92
53.2304	514.27
53.2448	530.20
53.2592	549.75
53.2737	540.10
53.2881	527.02
53.3026	530.53
53.3170	533.63
53.3314	529.16
53.3459	538.37
53.3603	535.66
53.3748	502.07
53.3892	519.93
53.4036	504.16
53.4181	517.39
53.4325	561.60
53.4470	493.21
53.4614	489.17
53.4758	503.26
53.4903	489.78
53.5047	501.30
53.5192	516.34
53.5336	524.50
53.5480	496.97
53.5625	528.06
53.5769	490.38
53.5914	481.83
53.6058	527.12
53.6202	534.90
53.6347	531.87
53.6491	498.97
53.6636	514.83
53.6780	499.30
53.6924	530.21
53.7069	522.16
53.7213	510.34
53.7358	515.12
53.7502	480.27
53.7646	493.40
53.7791	514.35
53.7935	504.06
53.8080	499.25
53.8224	514.32
53.8368	536.95
53.8513	507.81
53.8657	515.79
53.8802	482.17
53.8946	509.57
53.9090	535.74
53.9235	487.28
53.9379	523.70
53.9524	527.90
53.9668	473.61
53.9812	470.47
53.9957	482.31
54.0101	543.99
54.0246	534.16
54.0390	527.41
54.0534	533.35
54.0679	548.81
54.0823	544.37
54.0968	545.80
54.1112	523.47
54.1256	509.34
54.1401	500.77
54.1545	504.99
54.1690	505.31
54.1834	530.60
54.1978	513.76
54.2123	493.74
54.2267	548.50
54.2412	527.64
54.2556	513.36
54.2700	519.14
54.2845	539.85
54.2989	548.12
54.3134	570.29
54.3278	553.30
54.3422	549.37
54.3567	560.67
54.3711	593.24
54.3856	608.58
54.4000	592.65
54.4144	579.87
54.4289	626.72
54.4433	622.90
54.4578	613.84
54.4722	612.05
54.4866	619.43
54.5011	602.70
54.5155	614.29
54.5300	610.43
54.5444	594.55
54.5588	595.15
54.5733	539.29
54.5877	562.89
54.6022	559.76
54.6166	574.33
54.6310	573.97
54.6455	569.20
54.6599	554.87
54.6744	541.29
54.6888	544.30
54.7032	540.17
54.7177	544.50
54.7321	535.79
54.7466	546.35
54.7610	518.94
54.7754	528.74
54.7899	516.10
54.8043	524.56
54.8188	548.37
54.8332	527.23
54.8476	539.12
54.8621	548.44
54.8765	524.63
54.8910	523.40
54.9054	505.28
54.9198	508.88
54.9343	521.84
54.9487	515.02
54.9632	507.93
54.9776	504.85
54.9920	474.15
55.0065	487.03
55.0209	527.42
55.0354	513.21
55.0498	526.29
55.0642	539.63
55.0787	540.05
55.0931	544.09
55.1076	521.18
55.1220	525.42
55.1364	509.60
55.1509	541.94
55.1653	542.83
55.1798	533.22
55.1942	491.86
55.2086	508.52
55.2231	519.66
55.2375	510.63
55.2520	513.02
55.2664	507.53
55.2808	536.62
55.2953	518.19
55.3097	539.60
55.3242	540.77
55.3386	516.39
55.3530	528.21
55.3675	514.02
55.3819	506.29
55.3964	519.69
55.4108	510.37
55.4252	514.86
55.4397	478.79
55.4541	508.28
55.4686	561.78
55.4830	492.75
55.4974	493.92
55.5119	501.03
55.5263	502.31
55.5408	501.17
55.5552	490.67
55.5696	506.75
55.5841	533.55
55.5985	544.87
55.6130	549.31
55.6274	517.10
55.6418	507.74
55.6563	515.46
55.6707	518.31
55.6852	534.92
55.6996	490.12
55.7140	563.30
55.7285	525.31
55.7429	477.19
55.7574	536.26
55.7718	536.70
55.7862	567.49
55.8007	502.70
55.8151	525.00
55.8296	531.97
55.8440	508.84
55.8584	542.21
55.8729	551.59
55.8873	512.25
55.9018	528.20
55.9162	557.98
55.9306	517.51
55.9451	497.04
55.9595	503.23
55.9740	537.71
55.9884	521.88
56.0028	477.29
56.0173	530.37
56.0317	520.84
56.0462	519.93
56.0606	499.47
56.0750	529.65
56.0895	529.56
56.1039	521.22
56.1184	523.01
56.1328	523.10
56.1472	518.55
56.1617	520.81
56.1761	525.84
56.1906	518.13
56.2050	531.46
56.2194	531.09
56.2339	544.94
56.2483	506.93
56.2628	514.56
56.2772	505.22
56.2916	540.37
56.3061	538.83
56.3205	533.02
56.3350	540.60
56.3494	513.32
56.3639	522.67
56.3783	538.13
56.3927	522.05
56.4072	513.64
56.4216	544.54
56.4361	548.02
56.4505	538.66
56.4649	509.45
56.4794	494.48
56.4938	517.20
56.5083	520.64
56.5227	479.26
56.5371	492.36
56.5516	517.74
56.5660	529.49
56.5805	526.53
56.5949	576.03
56.6093	539.64
56.6238	507.98
56.6382	510.40
56.6527	502.45
56.6671	511.91
56.6815	536.30
56.6960	472.56
56.7104	518.94
56.7249	493.72
56.7393	503.53
56.7537	518.02
56.7682	513.15
56.7826	576.87
56.7971	529.50
56.8115	506.59
56.8259	539.50
56.8404	563.79
56.8548	486.58
56.8693	509.50
56.8837	533.89
56.8981	542.26
56.9126	539.40
56.9270	537.30
56.9415	511.70
56.9559	525.49
56.9703	511.99
56.9848	508.94
56.9992	531.09
57.0137	507.92
57.0281	503.77
57.0425	512.49
57.0570	516.30
57.0714	540.60
57.0859	547.18
57.1003	534.77
57.1147	540.24
57.1292	552.50
57.1436	510.18
57.1581	538.03
57.1725	530.57
57.1869	514.64
57.2014	479.93
57.2158	508.67
57.2303	519.32
57.2447	523.99
57.2591	514.02
57.2736	553.08
57.2880	541.54
57.3025	520.52
57.3169	535.54
57.3313	552.98
57.3458	522.18
57.3602	539.00
57.3747	525.43
57.3891	504.90
57.4035	514.06
57.4180	516.87
57.4324	551.44
57.4469	517.26
57.4613	524.59
57.4757	546.96
57.4902	547.92
57.5046	538.23
57.5191	498.30
57.5335	518.74
57.5479	550.20
57.5624	532.71
57.5768	519.11
57.5913	496.03
57.6057	528.34
57.6201	505.97
57.6346	520.54
57.6490	546.87
57.6635	523.93
57.6779	532.89
57.6923	512.78
57.7068	547.98
57.7212	539.31
57.7357	503.31
57.7501	547.28
57.7645	528.64
57.7790	573.50
57.7934	554.17
57.8079	530.40
57.8223	513.04
57.8367	568.92
57.8512	554.90
57.8656	583.86
57.8801	555.59
57.8945	593.31
57.9089	604.83
57.9234	531.31
57.9378	608.78
57.9523	593.02
57.9667	604.29
57.9811	670.76
57.9956	645.94
58.0100	639.48
58.0245	703.10
58.0389	707.24
58.0533	665.70
58.0678	704.87
58.0822	652.79
58.0967	629.53
58.1111	684.67
58.1255	690.46
58.1400	644.10
58.1544	659.63
58.1689	651.71
58.1833	650.54
58.1977	671.45
58.2122	634.14
58.2266	645.41
58.2411	645.20
58.2555	576.09
58.2699	620.33
58.2844	580.32
58.2988	574.44
58.3133	588.76
58.3277	559.80
58.3421	539.86
58.3566	553.20
58.3710	522.23
58.3855	523.04
58.3999	540.22
58.4143	534.15
58.4288	570.06
58.4432	553.62
58.4577	563.75
58.4721	520.34
58.4865	514.25
58.5010	509.18
58.5154	534.98
58.5299	564.86
58.5443	563.78
58.5587	506.75
58.5732	535.82
58.5876	546.18
58.6021	534.75
58.6165	571.52
58.6309	536.62
58.6454	547.16
58.6598	541.46
58.6743	547.38
58.6887	531.40
58.7031	531.47
58.7176	519.21
58.7320	526.24
58.7465	499.47
58.7609	521.11
58.7753	534.40
58.7898	542.00
58.8042	555.59
58.8187	533.07
58.8331	510.18
58.8475	510.93
58.8620	534.18
58.8764	528.61
58.8909	526.47
58.9053	549.08
58.9197	535.57
58.9342	543.11
58.9486	541.14
58.9631	549.95
58.9775	545.22
58.9919	518.37
59.0064	501.25
59.0208	522.08
59.0353	505.96
59.0497	549.06
59.0641	551.01
59.0786	535.80
59.0930	545.76
59.1075	535.29
59.1219	551.17
59.1363	534.10
59.1508	531.43
59.1652	545.85
59.1797	536.15
59.1941	519.37
59.2085	538.99
59.2230	512.37
59.2374	513.84
59.2519	536.75
59.2663	516.50
59.2807	556.07
59.2952	564.56
59.3096	589.14
59.3241	584.60
59.3385	560.32
59.3529	557.43
59.3674	546.70
59.3818	563.69
59.3963	555.76
59.4107	559.07
59.4251	559.34
59.4396	576.45
59.4540	578.01
59.4685	538.73
59.4829	567.66
59.4973	578.60
59.5118	571.58
59.5262	542.10
59.5407	520.59
59.5551	562.83
59.5695	559.39
59.5840	514.59
59.5984	552.81
59.6129	576.50
59.6273	529.59
59.6417	552.40
59.6562	522.81
59.6706	541.92
59.6851	539.02
59.6995	521.19
59.7139	586.88
59.7284	537.27
59.7428	513.63
59.7573	543.05
59.7717	554.88
59.7861	589.44
59.8006	556.52
59.8150	551.85
59.8295	513.14
59.8439	517.14
59.8583	578.54
59.8728	548.57
59.8872	552.90
59.9017	546.46
59.9161	555.30
59.9305	544.83
59.9450	562.86
59.9594	506.85
59.9739	528.97
59.9883	532.95
60.0027	526.98
60.0172	537.97
60.0316	509.42
60.0461	523.26
60.0605	549.78
60.0750	521.41
60.0894	558.71
60.1038	572.77
60.1183	560.60
60.1327	553.18
60.1472	557.11
60.1616	573.07
60.1760	577.40
60.1905	535.52
60.2049	525.51
60.2194	535.16
60.2338	543.91
60.2482	532.29
60.2627	571.15
60.2771	531.29
60.2916	519.08
60.3060	525.25
60.3204	548.45
60.3349	541.02
60.3493	586.11
60.3638	548.24
60.3782	547.72
60.3926	490.83
60.4071	502.29
60.4215	553.86
60.4360	560.53
60.4504	537.38
60.4648	548.65
60.4793	545.06
60.4937	487.17
60.5082	557.37
60.5226	580.03
60.5370	553.21
60.5515	525.44
60.5659	518.96
60.5804	561.23
60.5948	529.51
60.6092	519.62
60.6237	527.43
60.6381	550.15
60.6526	552.81
60.6670	521.93
60.6814	536.32
60.6959	535.81
60.7103	582.24
60.7248	525.37
60.7392	540.18
60.7536	549.76
60.7681	561.92
60.7825	525.82
60.7970	523.76
60.8114	511.12
60.8258	526.77
60.8403	546.33
60.8547	571.93
60.8692	550.28
60.8836	524.16
60.8980	501.70
60.9125	536.51
60.9269	548.41
60.9414	565.43
60.9558	567.38
60.9702	556.78
60.9847	508.39
60.9991	507.51
61.0136	528.45
61.0280	556.78
61.0424	532.60
61.0569	555.94
61.0713	557.87
61.0858	586.10
61.1002	554.42
61.1146	563.60
61.1291	571.68
61.1435	543.38
61.1580	552.22
61.1724	547.89
61.1868	493.55
61.2013	512.66
61.2157	527.55
61.2302	570.64
61.2446	558.73
61.2590	565.09
61.2735	541.01
61.2879	570.57
61.3024	591.93
61.3168	546.60
61.3312	541.56
61.3457	552.72
61.3601	538.98
61.3746	546.17
61.3890	547.40
61.4034	556.24
61.4179	568.09
61.4323	565.05
61.4468	527.31
61.4612	538.96
61.4756	554.44
61.4901	568.54
61.5045	544.65
61.5190	541.90
61.5334	537.14
61.5478	555.70
61.5623	558.57
61.5767	527.19
61.5912	535.23
61.6056	529.35
61.6200	536.89
61.6345	538.79
61.6489	547.40
61.6634	536.07
61.6778	558.68
61.6922	566.62
61.7067	599.92
61.7211	539.99
61.7356	535.72
61.7500	531.68
61.7644	520.75
61.7789	549.18
61.7933	571.57
61.8078	553.70
61.8222	572.79
61.8366	520.18
61.8511	540.19
61.8655	577.55
61.8800	567.18
61.8944	621.79
61.9088	537.08
61.9233	516.07
61.9377	541.30
61.9522	553.42
61.9666	518.07
61.9810	539.64
61.9955	562.60
62.0099	532.87
62.0244	536.54
62.0388	542.21
62.0532	567.32
62.0677	597.21
62.0821	572.88
62.0966	574.63
62.1110	579.67
62.1254	563.67
62.1399	547.04
62.1543	538.18
62.1688	596.15
62.1832	583.22
62.1976	552.04
62.2121	562.09
62.2265	558.96
62.2410	541.08
62.2554	542.69
62.2698	532.10
62.2843	522.45
62.2987	540.23
62.3132	514.71
62.3276	536.28
62.3420	560.41
62.3565	586.85
62.3709	549.43
62.3854	577.22
62.3998	549.36
62.4142	542.70
62.4287	551.09
62.4431	536.78
62.4576	551.93
62.4720	547.15
62.4864	551.99
62.5009	541.02
62.5153	534.26
62.5298	586.01
62.5442	525.04
62.5586	557.16
62.5731	536.43
62.5875	540.82
62.6020	556.61
62.6164	567.79
62.6308	554.40
62.6453	586.07
62.6597	538.34
62.6742	554.98
62.6886	562.55
62.7030	545.06
62.7175	555.94
62.7319	543.20
62.7464	549.84
62.7608	585.27
62.7752	590.44
62.7897	561.88
62.8041	570.73
62.8186	584.92
62.8330	593.94
62.8474	557.65
62.8619	562.10
62.8763	557.83
62.8908	530.45
62.9052	597.55
62.9196	596.51
62.9341	584.00
62.9485	602.12
62.9630	564.21
62.9774	541.85
62.9918	574.23
63.0063	574.93
63.0207	597.66
63.0352	588.44
63.0496	567.58
63.0640	550.00
63.0785	563.45
63.0929	612.18
63.1074	597.75
63.1218	591.21
63.1362	573.62
63.1507	582.42
63.1651	587.81
63.1796	583.00
63.1940	580.49
63.2084	598.57
63.2229	610.85
63.2373	570.97
63.2518	574.03
63.2662	553.54
63.2806	593.71
63.2951	578.54
63.3095	600.10
63.3240	538.50
63.3384	547.41
63.3528	533.21
63.3673	566.30
63.3817	600.19
63.3962	589.07
63.4106	570.42
63.4250	615.51
63.4395	547.94
63.4539	581.79
63.4684	615.70
63.4828	592.91
63.4972	612.71
63.5117	619.99
63.5261	639.38
63.5406	611.45
63.5550	657.98
63.5694	630.17
63.5839	654.48
63.5983	653.45
63.6128	648.53
63.6272	656.99
63.6416	713.55
63.6561	713.05
63.6705	755.62
63.6850	760.01
63.6994	817.26
63.7138	906.41
63.7283	897.21
63.7427	903.51
63.7572	931.29
63.7716	833.56
63.7861	838.77
63.8005	862.22
63.8149	848.92
63.8294	827.19
63.8438	760.16
63.8583	803.44
63.8727	808.83
63.8871	801.65
63.9016	816.09
63.9160	813.37
63.9305	820.20
63.9449	803.83
63.9593	762.64
63.9738	732.84
63.9882	778.08
64.0027	726.63
64.0171	704.58
64.0315	744.50
64.0460	683.63
64.0604	659.38
64.0749	624.32
64.0893	677.10
64.1037	662.55
64.1182	644.09
64.1326	645.17
64.1471	595.29
64.1615	614.22
64.1759	592.58
64.1904	567.47
64.2048	616.90
64.2193	637.61
64.2337	640.29
64.2481	613.14
64.2626	610.40
64.2770	572.45
64.2915	573.76
64.3059	607.55
64.3203	642.56
64.3348	618.98
64.3492	585.49
64.3637	596.82
64.3781	602.68
64.3925	636.72
64.4070	625.37
64.4214	630.75
64.4359	640.95
64.4503	629.12
64.4647	649.89
64.4792	634.41
64.4936	632.31
64.5081	599.33
64.5225	645.43
64.5369	660.95
64.5514	652.85
64.5658	630.60
64.5803	624.99
64.5947	657.35
64.6091	624.02
64.6236	620.61
64.6380	655.04
64.6525	651.01
64.6669	645.80
64.6813	629.36
64.6958	656.33
64.7102	720.50
64.7247	683.19
64.7391	685.13
64.7535	675.17
64.7680	746.61
64.7824	738.03
64.7969	732.75
64.8113	777.88
64.8257	813.86
64.8402	795.86
64.8546	807.23
64.8691	829.78
64.8835	842.29
64.8979	862.97
64.9124	858.98
64.9268	908.74
64.9413	983.23
64.9557	975.05
64.9701	985.94
64.9846	1106.20
64.9990	1170.15
65.0135	1268.52
65.0279	1568.74
65.0423	1707.56
65.0568	2064.00
65.0712	2666.36
65.0857	3382.74
65.1001	4441.51
65.1145	6096.72
65.1290	8025.88
65.1434	9722.33
65.1579	11059.14
65.1723	11882.55
65.1867	11580.75
65.2012	10125.48
65.2156	8410.64
65.2301	6656.17
65.2445	5330.32
65.2589	4517.57
65.2734	4248.88
65.2878	4429.50
65.3023	5130.89
65.3167	5805.91
65.3311	6657.46
65.3456	6990.95
65.3600	6938.24
65.3745	6472.04
65.3889	5481.64
65.4033	4474.53
65.4178	3468.33
65.4322	2861.24
65.4467	2057.84
65.4611	1711.23
65.4755	1517.19
65.4900	1285.94
65.5044	1161.19
65.5189	1057.22
65.5333	986.42
65.5477	955.11
65.5622	901.20
65.5766	852.48
65.5911	823.72
65.6055	825.30
65.6199	821.97
65.6344	803.44
65.6488	768.36
65.6633	706.61
65.6777	733.81
65.6921	701.37
65.7066	726.75
65.7210	747.56
65.7355	716.89
65.7499	709.79
65.7643	678.86
65.7788	673.18
65.7932	676.21
65.8077	690.68
65.8221	669.62
65.8365	675.46
65.8510	662.50
65.8654	654.30
65.8799	656.84
65.8943	646.61
65.9087	647.36
65.9232	645.62
65.9376	645.02
65.9521	624.53
65.9665	653.09
65.9809	639.56
65.9954	622.14
66.0098	606.19
66.0243	634.71
66.0387	604.61
66.0531	637.06
66.0676	664.98
66.0820	640.49
66.0965	658.58
66.1109	616.55
66.1253	611.12
66.1398	612.07
66.1542	577.04
66.1687	599.67
66.1831	610.85
66.1975	627.33
66.2120	600.43
66.2264	608.87
66.2409	626.32
66.2553	615.73
66.2697	623.27
66.2842	654.11
66.2986	614.65
66.3131	587.75
66.3275	600.99
66.3419	635.87
66.3564	621.31
66.3708	585.55
66.3853	609.85
66.3997	597.44
66.4141	632.82
66.4286	618.83
66.4430	622.27
66.4575	633.13
66.4719	603.52
66.4863	617.40
66.5008	608.34
66.5152	592.78
66.5297	577.83
66.5441	611.01
66.5585	612.62
66.5730	567.10
66.5874	579.37
66.6019	618.77
66.6163	595.01
66.6307	587.05
66.6452	591.01
66.6596	592.55
66.6741	571.86
66.6885	572.78
66.7029	622.66
66.7174	627.97
66.7318	627.15
66.7463	601.14
66.7607	637.25
66.7751	605.95
66.7896	588.98
66.8040	592.47
66.8185	586.04
66.8329	614.20
66.8473	601.02
66.8618	620.99
66.8762	608.74
66.8907	624.28
66.9051	628.13
66.9195	577.64
66.9340	602.00
66.9484	591.03
66.9629	591.83
66.9773	591.03
66.9917	620.18
67.0062	571.12
67.0206	608.74
67.0351	626.76
67.0495	613.05
67.0639	572.35
67.0784	596.98
67.0928	590.81
67.1073	586.60
67.1217	612.33
67.1361	554.64
67.1506	550.44
67.1650	583.99
67.1795	559.81
67.1939	542.76
67.2083	575.87
67.2228	561.81
67.2372	568.34
67.2517	602.84
67.2661	593.36
67.2805	607.52
67.2950	561.33
67.3094	562.29
67.3239	607.78
67.3383	554.98
67.3527	556.97
67.3672	590.03
67.3816	600.33
67.3961	587.24
67.4105	599.05
67.4250	624.61
67.4394	611.23
67.4538	568.68
67.4683	589.86
67.4827	564.97
67.4972	563.73
67.5116	579.40
67.5260	583.33
67.5405	603.39
67.5549	569.75
67.5694	582.49
67.5838	572.27
67.5982	581.71
67.6127	551.37
67.6271	559.91
67.6416	598.51
67.6560	571.83
67.6704	543.86
67.6849	552.04
67.6993	568.62
67.7138	549.06
67.7282	593.97
67.7426	563.59
67.7571	535.13
67.7715	583.27
67.7860	570.33
67.8004	569.91
67.8148	586.61
67.8293	575.54
67.8437	557.70
67.8582	594.59
67.8726	586.18
67.8870	573.22
67.9015	562.34
67.9159	557.87
67.9304	603.87
67.9448	593.78
67.9592	547.24
67.9737	593.65
67.9881	586.38
68.0026	563.74
68.0170	599.22
68.0314	588.38
68.0459	579.47
68.0603	616.54
68.0748	588.43
68.0892	616.84
68.1036	583.72
68.1181	561.79
68.1325	597.60
68.1470	557.63
68.1614	568.66
68.1758	569.65
68.1903	525.24
68.2047	555.84
68.2192	563.21
68.2336	566.75
68.2480	533.88
68.2625	583.35
68.2769	577.80
68.2914	575.98
68.3058	579.27
68.3202	562.51
68.3347	582.75
68.3491	578.51
68.3636	583.62
68.3780	587.28
68.3924	565.15
68.4069	562.73
68.4213	565.93
68.4358	557.24
68.4502	578.55
68.4646	574.31
68.4791	607.14
68.4935	578.74
68.5080	564.32
68.5224	545.02
68.5368	622.55
68.5513	558.63
68.5657	558.46
68.5802	577.03
68.5946	550.68
68.6090	549.05
68.6235	579.19
68.6379	608.94
68.6524	556.83
68.6668	590.80
68.6812	535.73
68.6957	586.82
68.7101	588.65
68.7246	616.53
68.7390	548.28
68.7534	555.42
68.7679	557.41
68.7823	573.63
68.7968	571.30
68.8112	540.13
68.8256	588.76
68.8401	541.23
68.8545	588.62
68.8690	581.47
68.8834	567.30
68.8978	567.41
68.9123	528.57
68.9267	560.36
68.9412	613.91
68.9556	565.41
68.9700	589.02
68.9845	565.52
68.9989	566.84
69.0134	541.78
69.0278	574.07
69.0422	620.44
69.0567	594.12
69.0711	544.10
69.0856	582.92
69.1000	588.01
69.1144	540.62
69.1289	636.51
69.1433	590.58
69.1578	594.27
69.1722	615.40
69.1866	590.81
69.2011	562.32
69.2155	580.73
69.2300	568.67
69.2444	639.59
69.2588	629.73
69.2733	581.91
69.2877	543.07
69.3022	527.84
69.3166	514.97
69.3310	586.87
69.3455	619.38
69.3599	597.36
69.3744	582.26
69.3888	563.85
69.4032	581.24
69.4177	536.10
69.4321	580.28
69.4466	527.97
69.4610	538.12
69.4754	596.38
69.4899	605.87
69.5043	607.19
69.5188	563.75
69.5332	610.63
69.5476	583.56
69.5621	569.58
69.5765	576.93
69.5910	581.73
69.6054	568.54
69.6198	624.00
69.6343	592.92
69.6487	605.88
69.6632	579.35
69.6776	618.17
69.6920	592.60
69.7065	627.43
69.7209	580.50
69.7354	584.83
69.7498	600.71
69.7642	601.29
69.7787	584.37
69.7931	574.34
69.8076	622.82
69.8220	556.57
69.8364	581.61
69.8509	555.99
69.8653	586.94
69.8798	597.74
69.8942	592.35
69.9086	600.14
69.9231	600.70
69.9375	639.22
69.9520	587.40
69.9664	584.33
69.9808	560.63
69.9953	575.18
70.0097	547.15
70.0242	567.32
70.0386	512.84
70.0530	559.76
70.0675	562.30
70.0819	628.97
70.0964	596.30
70.1108	594.70
70.1252	624.79
70.1397	597.31
70.1541	531.90
70.1686	538.86
70.1830	572.52
70.1974	567.65
70.2119	631.96
70.2263	548.44
70.2408	575.25
70.2552	604.55
70.2696	608.26
70.2841	600.03
70.2985	583.30
70.3130	592.68
70.3274	601.25
70.3418	599.37
70.3563	571.05
70.3707	572.76
70.3852	578.69
70.3996	550.94
70.4140	553.66
70.4285	609.22
70.4429	586.92
70.4574	575.51
70.4718	644.51
70.4862	542.06
70.5007	521.60
70.5151	576.77
70.5296	645.53
70.5440	585.05
70.5584	577.37
70.5729	577.16
70.5873	555.87
70.6018	603.08
70.6162	633.06
70.6306	583.98
70.6451	595.72
70.6595	580.32
70.6740	576.86
70.6884	560.79
70.7028	611.84
70.7173	610.28
70.7317	574.28
70.7462	595.09
70.7606	574.03
70.7750	608.79
70.7895	589.79
70.8039	591.65
70.8184	567.87
70.8328	578.42
70.8472	565.03
70.8617	597.79
70.8761	584.63
70.8906	547.64
70.9050	592.56
70.9194	542.78
70.9339	576.88
70.9483	586.01
70.9628	584.55
70.9772	564.00
70.9916	571.37
71.0061	599.44
71.0205	627.52
71.0350	585.18
71.0494	519.75
71.0638	547.07
71.0783	566.85
71.0927	608.60
71.1072	630.38
71.1216	600.12
71.1361	605.96
71.1505	574.98
71.1649	552.66
71.1794	586.59
71.1938	610.49
71.2083	578.58
71.2227	518.49
71.2371	579.52
71.2516	578.97
71.2660	521.95
71.2805	562.32
71.2949	561.03
71.3093	588.87
71.3238	602.40
71.3382	622.74
71.3527	637.80
71.3671	567.64
71.3815	533.97
71.3960	560.65
71.4104	584.83
71.4249	648.63
71.4393	619.00
71.4537	566.49
71.4682	580.72
71.4826	571.66
71.4971	565.47
71.5115	537.12
71.5259	535.04
71.5404	577.07
71.5548	561.18
71.5693	594.98
71.5837	562.50
71.5981	549.42
71.6126	582.88
71.6270	543.73
71.6415	547.50
71.6559	604.22
71.6703	599.37
71.6848	589.17
71.6992	637.25
71.7137	606.84
71.7281	602.67
71.7425	576.97
71.7570	603.86
71.7714	593.53
71.7859	594.45
71.8003	611.12
71.8147	588.78
71.8292	603.75
71.8436	575.86
71.8581	533.44
71.8725	591.86
71.8869	586.46
71.9014	518.62
71.9158	517.32
71.9303	504.56
71.9447	552.44
71.9591	598.10
71.9736	568.36
71.9880	529.09
72.0025	516.75
72.0169	532.33
72.0313	589.83
72.0458	614.50
72.0602	613.76
72.0747	572.11
72.0891	531.52
72.1035	573.74
72.1180	561.33
72.1324	520.02
72.1469	574.51
72.1613	550.60
72.1757	574.31
72.1902	580.22
72.2046	568.95
72.2191	606.23
72.2335	571.74
72.2479	572.70
72.2624	586.04
72.2768	595.30
72.2913	579.85
72.3057	581.84
72.3201	560.86
72.3346	569.03
72.3490	621.43
72.3635	654.90
72.3779	636.10
72.3923	565.66
72.4068	575.66
72.4212	640.21
72.4357	670.25
72.4501	645.15
72.4645	668.88
72.4790	677.92
72.4934	598.71
72.5079	597.68
72.5223	583.01
72.5367	554.57
72.5512	646.05
72.5656	573.26
72.5801	537.55
72.5945	533.03
72.6089	539.33
72.6234	610.32
72.6378	613.71
72.6523	634.24
72.6667	569.34
72.6811	562.34
72.6956	559.09
72.7100	571.68
72.7245	563.41
72.7389	551.01
72.7533	550.83
72.7678	533.57
72.7822	577.14
72.7967	590.08
72.8111	555.46
72.8255	615.99
72.8400	518.82
72.8544	488.69
72.8689	563.59
72.8833	537.74