2022.09.19 19:37:17
Îáðàçåö: ß÷åéêà LCoV 16-09-2022
Lambda1 = 1.54060
Lambda2 = 1.54439
Lambdam = 1.54186
R = 0.497
2Theta	I

line¹ 0 ;repeat¹ 0
22.1120	530.94
22.1264	547.52
22.1409	516.53
22.1553	499.43
22.1697	604.58
22.1842	627.64
22.1986	621.08
22.2131	678.23
22.2275	633.74
22.2419	585.47
22.2564	621.42
22.2708	557.93
22.2853	653.62
22.2997	584.72
22.3141	620.70
22.3286	574.63
22.3430	537.63
22.3575	643.31
22.3719	594.23
22.3863	558.24
22.4008	585.85
22.4152	604.60
22.4297	593.51
22.4441	633.37
22.4585	613.04
22.4730	639.88
22.4874	642.57
22.5019	636.82
22.5163	606.65
22.5307	515.01
22.5452	479.88
22.5596	560.70
22.5741	634.12
22.5885	648.97
22.6029	616.52
22.6174	467.01
22.6318	518.23
22.6463	495.68
22.6607	533.51
22.6751	480.09
22.6896	588.81
22.7040	624.67
22.7185	581.27
22.7329	624.28
22.7473	611.26
22.7618	515.14
22.7762	577.04
22.7907	642.91
22.8051	637.60
22.8195	520.19
22.8340	487.55
22.8484	540.89
22.8629	590.72
22.8773	514.57
22.8917	461.54
22.9062	529.10
22.9206	658.51
22.9351	619.75
22.9495	539.57
22.9639	448.10
22.9784	552.09
22.9928	528.16
23.0073	464.14
23.0217	536.47
23.0361	642.08
23.0506	567.75
23.0650	546.37
23.0795	483.75
23.0939	618.93
23.1083	570.65
23.1228	601.45
23.1372	552.17
23.1517	553.66
23.1661	585.29
23.1806	569.57
23.1950	542.29
23.2094	546.05
23.2239	544.24
23.2383	522.92
23.2528	592.16
23.2672	520.99
23.2816	510.82
23.2961	557.81
23.3105	566.95
23.3250	518.80
23.3394	585.46
23.3538	579.67
23.3683	509.35
23.3827	496.98
23.3972	513.09
23.4116	556.12
23.4260	594.32
23.4405	606.53
23.4549	510.40
23.4694	561.91
23.4838	527.09
23.4982	548.22
23.5127	538.88
23.5271	575.30
23.5416	544.17
23.5560	561.07
23.5704	599.50
23.5849	589.74
23.5993	602.44
23.6138	543.19
23.6282	518.67
23.6426	601.78
23.6571	565.49
23.6715	547.20
23.6860	563.31
23.7004	541.62
23.7148	558.09
23.7293	569.19
23.7437	646.87
23.7582	496.96
23.7726	509.50
23.7870	609.41
23.8015	571.54
23.8159	532.52
23.8304	575.17
23.8448	574.27
23.8592	587.35
23.8737	644.34
23.8881	516.42
23.9026	562.40
23.9170	549.85
23.9314	568.81
23.9459	553.17
23.9603	573.21
23.9748	582.68
23.9892	494.96
24.0036	593.59
24.0181	577.44
24.0325	650.53
24.0470	650.34
24.0614	555.87
24.0758	521.56
24.0903	492.50
24.1047	556.83
24.1192	546.76
24.1336	575.03
24.1480	579.64
24.1625	568.20
24.1769	583.38
24.1914	544.81
24.2058	554.88
24.2202	556.41
24.2347	599.17
24.2491	570.83
24.2636	570.77
24.2780	592.91
24.2924	602.05
24.3069	588.72
24.3213	605.64
24.3358	575.75
24.3502	584.19
24.3646	505.92
24.3791	561.55
24.3935	553.34
24.4080	600.20
24.4224	524.56
24.4368	529.95
24.4513	523.19
24.4657	552.34
24.4802	540.62
24.4946	582.10
24.5090	520.68
24.5235	537.61
24.5379	531.84
24.5524	625.00
24.5668	531.97
24.5812	609.85
24.5957	508.09
24.6101	515.80
24.6246	569.98
24.6390	527.71
24.6534	533.81
24.6679	559.77
24.6823	498.37
24.6968	507.00
24.7112	548.87
24.7256	566.39
24.7401	543.23
24.7545	525.17
24.7690	553.58
24.7834	536.41
24.7978	555.80
24.8123	533.07
24.8267	548.70
24.8412	599.55
24.8556	613.73
24.8700	535.26
24.8845	547.60
24.8989	602.75
24.9134	564.22
24.9278	498.70
24.9422	556.46
24.9567	542.02
24.9711	535.19
24.9856	578.70
25.0000	565.91
25.0144	555.95
25.0289	565.55
25.0433	579.20
25.0578	537.44
25.0722	565.06
25.0866	552.33
25.1011	485.29
25.1155	554.46
25.1300	578.88
25.1444	566.32
25.1588	514.27
25.1733	559.92
25.1877	493.36
25.2022	500.97
25.2166	507.00
25.2310	538.53
25.2455	528.69
25.2599	532.00
25.2744	548.78
25.2888	532.52
25.3032	559.57
25.3177	533.04
25.3321	528.61
25.3466	561.28
25.3610	566.96
25.3754	499.60
25.3899	525.57
25.4043	513.61
25.4188	561.60
25.4332	587.21
25.4476	518.88
25.4621	548.33
25.4765	511.06
25.4910	551.80
25.5054	555.27
25.5198	539.08
25.5343	585.37
25.5487	565.17
25.5632	543.85
25.5776	532.13
25.5920	564.68
25.6065	541.43
25.6209	554.92
25.6354	570.33
25.6498	573.99
25.6642	512.41
25.6787	523.81
25.6931	528.47
25.7076	587.87
25.7220	524.03
25.7364	519.46
25.7509	553.79
25.7653	550.25
25.7798	544.37
25.7942	520.67
25.8086	512.37
25.8231	533.74
25.8375	549.49
25.8520	543.61
25.8664	560.95
25.8808	550.86
25.8953	541.43
25.9097	508.64
25.9242	476.54
25.9386	520.53
25.9530	542.75
25.9675	530.32
25.9819	501.17
25.9964	525.35
26.0108	552.54
26.0252	542.07
26.0397	527.83
26.0541	562.34
26.0686	548.36
26.0830	557.67
26.0974	512.60
26.1119	522.59
26.1263	573.43
26.1408	539.21
26.1552	540.21
26.1696	521.11
26.1841	515.83
26.1985	500.64
26.2130	513.93
26.2274	535.03
26.2418	520.90
26.2563	533.11
26.2707	515.88
26.2852	542.07
26.2996	528.77
26.3140	517.60
26.3285	559.23
26.3429	523.67
26.3574	537.06
26.3718	529.93
26.3862	513.94
26.4007	526.69
26.4151	514.31
26.4296	538.84
26.4440	535.29
26.4584	521.20
26.4729	541.89
26.4873	552.47
26.5018	512.99
26.5162	520.90
26.5306	537.38
26.5451	523.37
26.5595	540.80
26.5740	544.87
26.5884	554.44
26.6028	555.31
26.6173	545.65
26.6317	516.93
26.6462	520.33
26.6606	544.33
26.6750	513.79
26.6895	508.85
26.7039	538.14
26.7184	522.25
26.7328	542.09
26.7472	548.67
26.7617	525.14
26.7761	517.27
26.7906	528.28
26.8050	520.28
26.8194	515.30
26.8339	528.77
26.8483	523.76
26.8628	532.28
26.8772	553.75
26.8917	556.62
26.9061	525.77
26.9205	515.31
26.9350	545.13
26.9494	557.09
26.9639	531.61
26.9783	552.26
26.9927	482.75
27.0072	489.23
27.0216	534.45
27.0361	537.04
27.0505	550.20
27.0649	565.47
27.0794	531.77
27.0938	544.96
27.1083	540.21
27.1227	516.65
27.1371	528.82
27.1516	548.17
27.1660	547.80
27.1805	517.02
27.1949	501.20
27.2093	495.90
27.2238	498.06
27.2382	511.42
27.2527	515.03
27.2671	500.28
27.2815	507.48
27.2960	524.13
27.3104	532.17
27.3249	554.55
27.3393	535.21
27.3537	509.52
27.3682	510.22
27.3826	511.15
27.3971	487.97
27.4115	492.92
27.4259	548.26
27.4404	500.78
27.4548	533.01
27.4693	548.07
27.4837	544.55
27.4981	528.08
27.5126	483.78
27.5270	509.84
27.5415	518.02
27.5559	560.70
27.5703	544.60
27.5848	500.84
27.5992	533.90
27.6137	487.69
27.6281	494.66
27.6425	535.76
27.6570	505.56
27.6714	545.06
27.6859	517.58
27.7003	535.36
27.7147	540.25
27.7292	495.76
27.7436	495.41
27.7581	531.57
27.7725	529.85
27.7869	514.45
27.8014	490.31
27.8158	506.66
27.8303	521.10
27.8447	530.27
27.8591	527.62
27.8736	506.55
27.8880	515.23
27.9025	545.82
27.9169	533.10
27.9313	514.42
27.9458	520.19
27.9602	502.88
27.9747	499.87
27.9891	497.03
28.0035	461.06
28.0180	464.04
28.0324	491.96
28.0469	479.90
28.0613	536.49
28.0757	543.37
28.0902	561.11
28.1046	550.05
28.1191	528.20
28.1335	536.50
28.1479	494.19
28.1624	521.93
28.1768	510.27
28.1913	523.06
28.2057	499.94
28.2201	516.19
28.2346	510.43
28.2490	519.69
28.2635	504.86
28.2779	544.58
28.2923	517.30
28.3068	491.69
28.3212	536.71
28.3357	504.86
28.3501	466.61
28.3645	526.05
28.3790	498.90
28.3934	459.38
28.4079	499.81
28.4223	525.67
28.4367	515.14
28.4512	515.68
28.4656	536.60
28.4801	483.87
28.4945	515.03
28.5089	517.28
28.5234	517.14
28.5378	518.76
28.5523	502.77
28.5667	529.18
28.5811	515.99
28.5956	490.55
28.6100	457.84
28.6245	505.87
28.6389	512.21
28.6533	494.73
28.6678	503.72
28.6822	515.26
28.6967	520.91
28.7111	542.09
28.7255	581.19
28.7400	562.69
28.7544	560.04
28.7689	542.31
28.7833	518.81
28.7977	499.35
28.8122	510.39
28.8266	494.26
28.8411	488.13
28.8555	528.08
28.8699	510.27
28.8844	496.98
28.8988	501.35
28.9133	503.98
28.9277	486.31
28.9421	533.20
28.9566	510.96
28.9710	500.44
28.9855	537.79
28.9999	509.58
29.0143	501.24
29.0288	533.56
29.0432	502.11
29.0577	492.53
29.0721	493.57
29.0865	513.31
29.1010	470.03
29.1154	520.50
29.1299	544.45
29.1443	504.44
29.1587	481.64
29.1732	488.81
29.1876	463.12
29.2021	482.98
29.2165	507.06
29.2309	513.18
29.2454	484.86
29.2598	488.74
29.2743	520.67
29.2887	529.41
29.3031	491.89
29.3176	496.20
29.3320	541.25
29.3465	489.35
29.3609	480.60
29.3753	473.98
29.3898	466.00
29.4042	508.29
29.4187	523.22
29.4331	532.67
29.4475	495.24
29.4620	490.60
29.4764	515.17
29.4909	517.19
29.5053	520.80
29.5197	486.04
29.5342	507.53
29.5486	495.60
29.5631	511.04
29.5775	535.44
29.5919	501.01
29.6064	476.62
29.6208	501.98
29.6353	530.41
29.6497	498.52
29.6641	518.12
29.6786	495.75
29.6930	488.65
29.7075	480.26
29.7219	504.21
29.7363	489.59
29.7508	481.38
29.7652	480.70
29.7797	461.74
29.7941	508.42
29.8085	501.16
29.8230	490.87
29.8374	498.03
29.8519	519.59
29.8663	519.08
29.8807	487.03
29.8952	514.83
29.9096	539.96
29.9241	520.27
29.9385	534.11
29.9529	494.11
29.9674	486.50
29.9818	498.32
29.9963	493.96
30.0107	511.38
30.0251	494.49
30.0396	512.20
30.0540	498.72
30.0685	478.28
30.0829	478.20
30.0973	497.65
30.1118	489.65
30.1262	479.07
30.1407	511.12
30.1551	513.25
30.1695	536.14
30.1840	513.51
30.1984	524.06
30.2129	521.05
30.2273	534.71
30.2417	539.90
30.2562	533.95
30.2706	507.89
30.2851	510.67
30.2995	547.51
30.3139	531.46
30.3284	533.98
30.3428	505.96
30.3573	511.43
30.3717	514.89
30.3861	508.25
30.4006	512.11
30.4150	498.34
30.4295	547.95
30.4439	556.50
30.4583	581.56
30.4728	590.48
30.4872	580.23
30.5017	625.12
30.5161	664.25
30.5305	701.94
30.5450	724.31
30.5594	744.27
30.5739	714.93
30.5883	752.51
30.6028	774.39
30.6172	733.40
30.6316	704.55
30.6461	678.61
30.6605	661.99
30.6750	658.86
30.6894	598.90
30.7038	617.89
30.7183	583.59
30.7327	531.96
30.7472	505.99
30.7616	546.52
30.7760	529.16
30.7905	519.03
30.8049	516.17
30.8194	548.35
30.8338	551.91
30.8482	493.39
30.8627	511.97
30.8771	538.89
30.8916	509.47
30.9060	535.70
30.9204	530.42
30.9349	525.63
30.9493	510.92
30.9638	509.92
30.9782	501.09
30.9926	501.76
31.0071	488.55
31.0215	501.01
31.0360	495.91
31.0504	487.49
31.0648	506.27
31.0793	505.68
31.0937	539.96
31.1082	509.69
31.1226	501.09
31.1370	528.30
31.1515	522.19
31.1659	501.25
31.1804	524.36
31.1948	527.08
31.2092	514.17
31.2237	490.12
31.2381	516.43
31.2526	513.44
31.2670	502.60
31.2814	533.50
31.2959	504.74
31.3103	537.95
31.3248	546.76
31.3392	538.12
31.3536	515.74
31.3681	552.49
31.3825	495.85
31.3970	525.48
31.4114	507.97
31.4258	513.85
31.4403	495.51
31.4547	528.35
31.4692	542.08
31.4836	476.92
31.4980	480.32
31.5125	503.68
31.5269	516.60
31.5414	522.86
31.5558	495.79
31.5702	470.79
31.5847	482.37
31.5991	474.85
31.6136	496.90
31.6280	529.85
31.6424	534.84
31.6569	512.38
31.6713	489.09
31.6858	467.45
31.7002	483.72
31.7146	518.63
31.7291	496.60
31.7435	511.84
31.7580	514.64
31.7724	486.53
31.7868	493.51
31.8013	497.78
31.8157	497.79
31.8302	482.83
31.8446	494.21
31.8590	534.25
31.8735	539.43
31.8879	487.55
31.9024	447.93
31.9168	467.40
31.9312	454.15
31.9457	483.27
31.9601	476.22
31.9746	511.72
31.9890	510.29
32.0034	490.00
32.0179	461.93
32.0323	463.94
32.0468	497.45
32.0612	489.36
32.0756	503.28
32.0901	517.49
32.1045	526.77
32.1190	503.30
32.1334	480.00
32.1478	493.61
32.1623	495.26
32.1767	492.62
32.1912	498.54
32.2056	510.94
32.2200	510.00
32.2345	490.29
32.2489	478.73
32.2634	480.16
32.2778	484.07
32.2922	493.06
32.3067	508.18
32.3211	478.68
32.3356	506.05
32.3500	472.13
32.3644	484.37
32.3789	483.47
32.3933	513.82
32.4078	469.05
32.4222	514.39
32.4366	522.79
32.4511	511.18
32.4655	504.47
32.4800	512.97
32.4944	488.95
32.5088	493.09
32.5233	500.50
32.5377	524.63
32.5522	524.36
32.5666	519.35
32.5810	498.51
32.5955	484.50
32.6099	485.75
32.6244	501.09
32.6388	477.65
32.6532	489.74
32.6677	479.34
32.6821	481.78
32.6966	475.34
32.7110	502.48
32.7254	510.87
32.7399	508.99
32.7543	494.90
32.7688	517.91
32.7832	532.69
32.7976	487.78
32.8121	520.07
32.8265	518.72
32.8410	487.91
32.8554	542.41
32.8698	517.81
32.8843	498.98
32.8987	520.66
32.9132	484.78
32.9276	500.07
32.9420	533.75
32.9565	505.42
32.9709	476.13
32.9854	487.71
32.9998	527.93
33.0142	491.94
33.0287	512.53
33.0431	515.64
33.0576	525.83
33.0720	523.94
33.0864	507.93
33.1009	490.53
33.1153	506.88
33.1298	496.71
33.1442	493.16
33.1586	526.35
33.1731	492.05
33.1875	514.56
33.2020	499.48
33.2164	504.02
33.2308	511.81
33.2453	490.64
33.2597	484.20
33.2742	520.18
33.2886	536.74
33.3030	514.07
33.3175	509.79
33.3319	513.81
33.3464	493.62
33.3608	517.58
33.3752	511.96
33.3897	489.85
33.4041	504.25
33.4186	511.68
33.4330	538.29
33.4474	478.12
33.4619	504.41
33.4763	484.91
33.4908	438.09
33.5052	507.03
33.5196	489.27
33.5341	520.52
33.5485	531.86
33.5630	508.41
33.5774	516.28
33.5918	516.91
33.6063	509.83
33.6207	508.41
33.6352	486.37
33.6496	487.32
33.6640	505.80
33.6785	519.39
33.6929	485.84
33.7074	492.30
33.7218	486.58
33.7362	496.44
33.7507	506.58
33.7651	506.23
33.7796	497.14
33.7940	496.28
33.8084	500.34
33.8229	509.62
33.8373	475.38
33.8518	499.40
33.8662	522.27
33.8806	493.91
33.8951	483.24
33.9095	486.19
33.9240	522.85
33.9384	535.29
33.9528	510.15
33.9673	466.44
33.9817	469.90
33.9962	501.25
34.0106	534.24
34.0250	498.36
34.0395	468.78
34.0539	507.32
34.0684	497.75
34.0828	516.70
34.0972	500.96
34.1117	512.74
34.1261	537.46
34.1406	487.44
34.1550	481.11
34.1694	529.70
34.1839	514.86
34.1983	473.33
34.2128	472.25
34.2272	508.12
34.2417	537.54
34.2561	513.16
34.2705	481.86
34.2850	540.44
34.2994	499.03
34.3139	510.35
34.3283	492.85
34.3427	506.57
34.3572	520.68
34.3716	532.06
34.3861	496.44
34.4005	509.51
34.4149	488.28
34.4294	508.99
34.4438	504.04
34.4583	487.38
34.4727	512.54
34.4871	498.90
34.5016	496.96
34.5160	507.39
34.5305	499.79
34.5449	507.51
34.5593	505.67
34.5738	532.76
34.5882	491.98
34.6027	468.41
34.6171	494.14
34.6315	492.64
34.6460	504.32
34.6604	501.13
34.6749	507.99
34.6893	480.35
34.7037	515.58
34.7182	511.95
34.7326	487.51
34.7471	500.74
34.7615	488.55
34.7759	474.99
34.7904	465.97
34.8048	508.36
34.8193	499.22
34.8337	514.12
34.8481	505.33
34.8626	507.56
34.8770	476.59
34.8915	439.11
34.9059	483.33
34.9203	514.60
34.9348	506.67
34.9492	503.79
34.9637	490.60
34.9781	509.66
34.9925	479.63
35.0070	457.99
35.0214	494.61
35.0359	500.77
35.0503	518.86
35.0647	525.92
35.0792	515.70
35.0936	500.25
35.1081	508.99
35.1225	492.09
35.1369	487.33
35.1514	480.00
35.1658	520.59
35.1803	501.64
35.1947	458.62
35.2091	453.39
35.2236	509.51
35.2380	500.40
35.2525	496.06
35.2669	515.50
35.2813	539.80
35.2958	534.33
35.3102	530.27
35.3247	519.46
35.3391	515.38
35.3535	510.02
35.3680	535.99
35.3824	516.96
35.3969	511.57
35.4113	528.04
35.4257	540.54
35.4402	542.43
35.4546	544.33
35.4691	553.53
35.4835	538.92
35.4979	526.08
35.5124	553.35
35.5268	536.65
35.5413	540.27
35.5557	526.35
35.5701	549.24
35.5846	558.81
35.5990	517.64
35.6135	523.44
35.6279	539.41
35.6423	538.15
35.6568	528.30
35.6712	572.56
35.6857	586.77
35.7001	693.30
35.7145	760.54
35.7290	779.08
35.7434	657.61
35.7579	619.47
35.7723	645.06
35.7867	681.13
35.8012	765.36
35.8156	753.68
35.8301	703.68
35.8445	696.53
35.8589	784.33
35.8734	910.38
35.8878	960.05
35.9023	1036.06
35.9167	1094.08
35.9311	1241.56
35.9456	1500.54
35.9600	1801.31
35.9745	1963.84
35.9889	2198.18
36.0033	2564.73
36.0178	2922.29
36.0322	2976.18
36.0467	2758.69
36.0611	2258.56
36.0755	1995.27
36.0900	2305.64
36.1044	2660.65
36.1189	2052.42
36.1333	1355.38
36.1477	1008.59
36.1622	964.86
36.1766	934.47
36.1911	865.46
36.2055	792.60
36.2199	746.79
36.2344	703.28
36.2488	688.13
36.2633	590.92
36.2777	581.15
36.2921	553.43
36.3066	511.18
36.3210	506.03
36.3355	530.17
36.3499	557.05
36.3643	517.63
36.3788	508.94
36.3932	511.54
36.4077	551.70
36.4221	539.06
36.4365	491.43
36.4510	532.80
36.4654	553.87
36.4799	546.86
36.4943	540.41
36.5087	523.94
36.5232	535.50
36.5376	530.64
36.5521	524.37
36.5665	532.48
36.5809	532.20
36.5954	513.50
36.6098	519.49
36.6243	509.97
36.6387	491.79
36.6531	533.90
36.6676	503.37
36.6820	499.27
36.6965	498.52
36.7109	559.24
36.7253	509.59
36.7398	530.98
36.7542	504.41
36.7687	499.32
36.7831	562.14
36.7975	533.75
36.8120	555.99
36.8264	583.55
36.8409	577.08
36.8553	581.97
36.8697	607.80
36.8842	594.20
36.8986	593.80
36.9131	605.70
36.9275	570.08
36.9419	610.07
36.9564	619.28
36.9708	590.91
36.9853	530.12
36.9997	552.03
37.0141	557.64
37.0286	523.10
37.0430	517.33
37.0575	540.85
37.0719	517.97
37.0863	540.03
37.1008	517.00
37.1152	536.75
37.1297	543.63
37.1441	524.67
37.1585	511.86
37.1730	517.71
37.1874	515.14
37.2019	490.17
37.2163	493.87
37.2307	539.91
37.2452	531.07
37.2596	502.44
37.2741	488.45
37.2885	503.18
37.3029	513.07
37.3174	512.07
37.3318	504.67
37.3463	516.69
37.3607	474.82
37.3751	493.94
37.3896	511.70
37.4040	549.89
37.4185	476.07
37.4329	511.30
37.4473	492.87
37.4618	495.95
37.4762	500.34
37.4907	522.33
37.5051	514.57
37.5195	477.87
37.5340	489.38
37.5484	519.11
37.5629	519.16
37.5773	488.81
37.5917	506.23
37.6062	510.29
37.6206	487.48
37.6351	518.79
37.6495	530.81
37.6639	525.34
37.6784	530.21
37.6928	489.54
37.7073	533.80
37.7217	520.32
37.7361	527.22
37.7506	472.93
37.7650	520.39
37.7795	529.24
37.7939	511.53
37.8083	506.11
37.8228	493.21
37.8372	501.46
37.8517	499.03
37.8661	529.27
37.8805	503.55
37.8950	505.01
37.9094	496.61
37.9239	519.27
37.9383	472.43
37.9528	465.25
37.9672	499.99
37.9816	485.46
37.9961	498.84
38.0105	531.64
38.0250	512.51
38.0394	492.83
38.0538	520.02
38.0683	501.74
38.0827	509.28
38.0972	529.92
38.1116	511.10
38.1260	503.66
38.1405	503.47
38.1549	484.57
38.1694	493.49
38.1838	476.45
38.1982	479.88
38.2127	485.64
38.2271	526.55
38.2416	532.61
38.2560	515.39
38.2704	514.91
38.2849	494.95
38.2993	523.05
38.3138	531.56
38.3282	536.75
38.3426	516.35
38.3571	526.18
38.3715	532.10
38.3860	495.67
38.4004	522.55
38.4148	525.60
38.4293	561.88
38.4437	578.01
38.4582	593.47
38.4726	620.05
38.4870	671.07
38.5015	753.95
38.5159	773.14
38.5304	791.04
38.5448	791.62
38.5592	845.88
38.5737	762.49
38.5881	766.52
38.6026	710.40
38.6170	712.64
38.6314	690.12
38.6459	677.57
38.6603	647.54
38.6748	616.28
38.6892	571.95
38.7036	572.92
38.7181	546.67
38.7325	503.28
38.7470	513.61
38.7614	502.49
38.7758	522.57
38.7903	525.92
38.8047	521.91
38.8192	536.43
38.8336	502.63
38.8480	498.81
38.8625	500.49
38.8769	478.80
38.8914	485.16
38.9058	522.43
38.9202	508.25
38.9347	491.90
38.9491	499.16
38.9636	502.65
38.9780	497.33
38.9924	483.95
39.0069	498.91
39.0213	471.87
39.0358	453.79
39.0502	457.77
39.0646	508.05
39.0791	519.10
39.0935	528.24
39.1080	515.36
39.1224	516.68
39.1368	501.68
39.1513	510.47
39.1657	491.48
39.1802	497.54
39.1946	481.84
39.2090	521.26
39.2235	531.29
39.2379	518.67
39.2524	545.94
39.2668	510.15
39.2812	496.20
39.2957	496.55
39.3101	510.38
39.3246	506.56
39.3390	467.65
39.3534	510.69
39.3679	526.86
39.3823	509.20
39.3968	508.14
39.4112	489.16
39.4256	525.18
39.4401	498.27
39.4545	490.30
39.4690	522.63
39.4834	506.24
39.4978	513.23
39.5123	500.75
39.5267	523.42
39.5412	491.92
39.5556	505.64
39.5700	494.45
39.5845	485.03
39.5989	486.24
39.6134	506.00
39.6278	511.69
39.6422	477.75
39.6567	480.17
39.6711	475.09
39.6856	509.37
39.7000	504.57
39.7144	513.14
39.7289	517.34
39.7433	486.55
39.7578	480.67
39.7722	512.82
39.7866	502.86
39.8011	519.81
39.8155	498.42
39.8300	512.48
39.8444	497.71
39.8588	503.14
39.8733	500.32
39.8877	491.86
39.9022	500.34
39.9166	503.16
39.9310	501.93
39.9455	524.81
39.9599	492.77
39.9744	478.72
39.9888	475.80
40.0032	486.14
40.0177	476.01
40.0321	465.02
40.0466	474.56
40.0610	516.02
40.0754	484.42
40.0899	505.91
40.1043	446.41
40.1188	496.04
40.1332	529.42
40.1476	497.31
40.1621	527.17
40.1765	495.94
40.1910	524.83
40.2054	494.19
40.2198	503.66
40.2343	520.48
40.2487	498.78
40.2632	484.73
40.2776	499.82
40.2920	492.07
40.3065	502.72
40.3209	523.71
40.3354	497.15
40.3498	501.56
40.3642	508.58
40.3787	476.84
40.3931	500.74
40.4076	477.42
40.4220	477.67
40.4364	517.36
40.4509	498.71
40.4653	508.61
40.4798	498.04
40.4942	497.56
40.5086	488.36
40.5231	508.53
40.5375	507.38
40.5520	525.68
40.5664	482.13
40.5808	472.15
40.5953	533.42
40.6097	506.51
40.6242	482.90
40.6386	468.95
40.6530	445.68
40.6675	496.21
40.6819	486.52
40.6964	527.52
40.7108	509.02
40.7252	547.52
40.7397	487.54
40.7541	502.21
40.7686	474.43
40.7830	472.62
40.7974	485.49
40.8119	510.96
40.8263	485.63
40.8408	516.70
40.8552	526.79
40.8696	521.71
40.8841	507.92
40.8985	522.82
40.9130	509.06
40.9274	479.68
40.9418	499.62
40.9563	502.02
40.9707	514.42
40.9852	495.46
40.9996	479.11
41.0140	479.68
41.0285	512.11
41.0429	512.29
41.0574	501.94
41.0718	511.54
41.0862	510.95
41.1007	504.95
41.1151	497.30
41.1296	516.95
41.1440	482.54
41.1584	509.43
41.1729	488.76
41.1873	491.92
41.2018	473.65
41.2162	443.24
41.2306	489.40
41.2451	513.39
41.2595	499.05
41.2740	509.32
41.2884	503.24
41.3028	486.31
41.3173	504.40
41.3317	510.92
41.3462	505.21
41.3606	478.19
41.3750	477.80
41.3895	505.93
41.4039	520.84
41.4184	522.29
41.4328	519.22
41.4472	481.76
41.4617	487.64
41.4761	522.01
41.4906	499.46
41.5050	483.82
41.5194	467.48
41.5339	516.76
41.5483	482.36
41.5628	507.22
41.5772	519.33
41.5916	504.85
41.6061	501.86
41.6205	471.85
41.6350	521.48
41.6494	532.35
41.6639	514.04
41.6783	524.41
41.6927	513.41
41.7072	528.42
41.7216	538.38
41.7361	476.63
41.7505	494.37
41.7649	512.48
41.7794	513.90
41.7938	484.30
41.8083	481.74
41.8227	499.28
41.8371	492.94
41.8516	488.01
41.8660	525.25
41.8805	533.75
41.8949	530.45
41.9093	515.12
41.9238	532.53
41.9382	583.22
41.9527	550.90
41.9671	547.96
41.9815	523.23
41.9960	534.89
42.0104	528.53
42.0249	590.04
42.0393	576.74
42.0537	570.85
42.0682	558.90
42.0826	578.40
42.0971	625.35
42.1115	585.83
42.1259	566.43
42.1404	582.73
42.1548	624.60
42.1693	653.54
42.1837	694.70
42.1981	712.54
42.2126	827.55
42.2270	934.54
42.2415	1044.21
42.2559	1146.17
42.2703	1315.84
42.2848	1503.54
42.2992	1581.11
42.3137	1656.13
42.3281	1610.00
42.3425	1495.21
42.3570	1405.09
42.3714	1379.90
42.3859	1323.60
42.4003	1333.17
42.4147	1282.45
42.4292	1232.52
42.4436	1079.05
42.4581	1002.25
42.4725	897.62
42.4869	820.57
42.5014	769.77
42.5158	742.03
42.5303	640.45
42.5447	609.69
42.5591	595.82
42.5736	579.78
42.5880	542.43
42.6025	539.99
42.6169	560.21
42.6313	574.17
42.6458	538.87
42.6602	574.88
42.6747	566.74
42.6891	530.79
42.7035	548.78
42.7180	524.28
42.7324	515.82
42.7469	535.58
42.7613	529.60
42.7757	527.05
42.7902	506.78
42.8046	512.70
42.8191	538.70
42.8335	488.91
42.8479	520.71
42.8624	541.59
42.8768	523.19
42.8913	488.65
42.9057	488.57
42.9201	536.52
42.9346	533.12
42.9490	518.50
42.9635	511.86
42.9779	518.58
42.9923	492.17
43.0068	507.64
43.0212	519.32
43.0357	490.77
43.0501	490.88
43.0645	524.53
43.0790	495.65
43.0934	536.03
43.1079	519.21
43.1223	512.95
43.1367	494.69
43.1512	492.33
43.1656	497.70
43.1801	534.95
43.1945	525.67
43.2089	542.91
43.2234	564.00
43.2378	528.54
43.2523	531.98
43.2667	505.89
43.2811	508.58
43.2956	534.25
43.3100	531.66
43.3245	495.63
43.3389	499.99
43.3533	504.18
43.3678	517.83
43.3822	520.30
43.3967	483.10
43.4111	512.00
43.4255	543.22
43.4400	507.66
43.4544	557.56
43.4689	530.93
43.4833	519.15
43.4977	498.95
43.5122	502.33
43.5266	492.86
43.5411	522.51
43.5555	514.47
43.5699	496.64
43.5844	506.15
43.5988	500.28
43.6133	514.89
43.6277	514.51
43.6421	541.29
43.6566	561.51
43.6710	547.40
43.6855	579.62
43.6999	591.32
43.7143	628.49
43.7288	658.59
43.7432	672.60
43.7577	691.46
43.7721	660.86
43.7865	657.28
43.8010	638.71
43.8154	616.13
43.8299	628.62
43.8443	592.79
43.8587	617.76
43.8732	610.17
43.8876	564.54
43.9021	584.80
43.9165	539.57
43.9309	534.78
43.9454	543.83
43.9598	536.24
43.9743	538.92
43.9887	535.45
44.0031	528.75
44.0176	538.96
44.0320	481.74
44.0465	489.03
44.0609	481.11
44.0753	480.46
44.0898	559.49
44.1042	531.58
44.1187	517.52
44.1331	505.31
44.1475	500.93
44.1620	497.93
44.1764	510.58
44.1909	525.54
44.2053	506.76
44.2197	508.79
44.2342	544.07
44.2486	523.15
44.2631	508.01
44.2775	496.11
44.2919	496.63
44.3064	521.71
44.3208	518.62
44.3353	548.39
44.3497	529.18
44.3641	547.43
44.3786	572.38
44.3930	534.89
44.4075	535.74
44.4219	560.75
44.4363	566.88
44.4508	582.06
44.4652	596.78
44.4797	591.73
44.4941	582.34
44.5085	559.50
44.5230	545.40
44.5374	557.88
44.5519	585.37
44.5663	582.98
44.5807	626.17
44.5952	582.57
44.6096	572.04
44.6241	592.14
44.6385	573.62
44.6529	554.37
44.6674	573.81
44.6818	591.83
44.6963	606.86
44.7107	646.40
44.7251	675.14
44.7396	743.41
44.7540	788.61
44.7685	801.18
44.7829	871.09
44.7973	883.30
44.8118	885.86
44.8262	878.61
44.8407	773.45
44.8551	742.90
44.8695	714.83
44.8840	707.36
44.8984	710.44
44.9129	716.92
44.9273	732.22
44.9417	651.89
44.9562	619.10
44.9706	612.52
44.9851	551.86
44.9995	566.55
45.0139	506.09
45.0284	497.88
45.0428	513.17
45.0573	502.32
45.0717	502.14
45.0861	489.28
45.1006	514.34
45.1150	501.39
45.1295	530.05
45.1439	470.28
45.1583	492.75
45.1728	547.73
45.1872	514.11
45.2017	528.22
45.2161	527.18
45.2305	470.38
45.2450	499.54
45.2594	506.58
45.2739	528.73
45.2883	519.92
45.3028	517.31
45.3172	501.32
45.3316	482.43
45.3461	510.73
45.3605	487.88
45.3750	481.32
45.3894	475.83
45.4038	474.01
45.4183	492.21
45.4327	508.00
45.4472	500.93
45.4616	528.45
45.4760	531.69
45.4905	509.37
45.5049	504.56
45.5194	472.43
45.5338	500.85
45.5482	481.00
45.5627	490.85
45.5771	512.27
45.5916	536.91
45.6060	491.19
45.6204	471.36
45.6349	495.29
45.6493	487.27
45.6638	506.65
45.6782	510.33
45.6926	518.26
45.7071	515.70
45.7215	497.07
45.7360	495.11
45.7504	496.83
45.7648	488.56
45.7793	491.20
45.7937	501.68
45.8082	502.65
45.8226	490.53
45.8370	492.68
45.8515	524.32
45.8659	505.71
45.8804	516.17
45.8948	491.00
45.9092	494.13
45.9237	495.00
45.9381	523.95
45.9526	504.95
45.9670	545.93
45.9814	522.82
45.9959	506.01
46.0103	508.59
46.0248	511.34
46.0392	531.71
46.0536	511.71
46.0681	506.53
46.0825	500.33
46.0970	465.03
46.1114	490.98
46.1258	510.58
46.1403	495.83
46.1547	527.02
46.1692	511.93
46.1836	496.02
46.1980	487.00
46.2125	495.63
46.2269	479.04
46.2414	484.47
46.2558	520.43
46.2702	502.36
46.2847	502.13
46.2991	477.46
46.3136	499.24
46.3280	520.84
46.3424	539.83
46.3569	525.62
46.3713	511.84
46.3858	461.06
46.4002	464.88
46.4146	506.97
46.4291	529.87
46.4435	496.33
46.4580	471.96
46.4724	514.03
46.4868	509.01
46.5013	492.09
46.5157	506.62
46.5302	486.26
46.5446	505.98
46.5590	529.85
46.5735	515.38
46.5879	497.83
46.6024	470.29
46.6168	483.06
46.6312	508.74
46.6457	495.97
46.6601	493.14
46.6746	457.46
46.6890	449.75
46.7034	500.38
46.7179	538.09
46.7323	524.43
46.7468	495.61
46.7612	490.86
46.7756	494.28
46.7901	505.92
46.8045	507.52
46.8190	514.59
46.8334	506.09
46.8478	509.33
46.8623	537.63
46.8767	523.72
46.8912	494.03
46.9056	530.85
46.9200	523.26
46.9345	503.53
46.9489	508.60
46.9634	494.79
46.9778	503.78
46.9922	519.42
47.0067	470.33
47.0211	520.85
47.0356	526.00
47.0500	535.08
47.0644	505.05
47.0789	475.67
47.0933	509.26
47.1078	508.30
47.1222	498.14
47.1366	490.32
47.1511	472.24
47.1655	482.89
47.1800	499.43
47.1944	479.61
47.2088	475.31
47.2233	522.74
47.2377	511.84
47.2522	481.90
47.2666	511.40
47.2810	520.27
47.2955	501.49
47.3099	479.14
47.3244	470.06
47.3388	493.49
47.3532	522.02
47.3677	509.10
47.3821	487.00
47.3966	502.96
47.4110	507.96
47.4254	500.05
47.4399	492.38
47.4543	515.40
47.4688	482.54
47.4832	474.76
47.4976	470.19
47.5121	490.43
47.5265	498.48
47.5410	527.70
47.5554	521.18
47.5698	486.83
47.5843	484.19
47.5987	517.29
47.6132	488.86
47.6276	480.14
47.6420	493.72
47.6565	491.66
47.6709	491.54
47.6854	489.29
47.6998	470.88
47.7142	471.79
47.7287	480.17
47.7431	500.14
47.7576	493.30
47.7720	493.03
47.7864	511.74
47.8009	503.66
47.8153	486.45
47.8298	487.77
47.8442	506.68
47.8586	506.00
47.8731	529.88
47.8875	536.72
47.9020	506.65
47.9164	498.25
47.9308	512.44
47.9453	472.74
47.9597	451.81
47.9742	498.97
47.9886	515.96
48.0030	489.95
48.0175	508.41
48.0319	531.09
48.0464	497.78
48.0608	509.29
48.0752	514.95
48.0897	525.79
48.1041	502.79
48.1186	502.13
48.1330	544.87
48.1474	521.71
48.1619	510.24
48.1763	530.76
48.1908	507.47
48.2052	515.84
48.2196	515.02
48.2341	522.85
48.2485	510.88
48.2630	508.58
48.2774	489.96
48.2918	496.30
48.3063	524.94
48.3207	542.55
48.3352	512.08
48.3496	494.66
48.3640	493.45
48.3785	457.18
48.3929	460.00
48.4074	509.26
48.4218	515.70
48.4362	494.48
48.4507	489.30
48.4651	508.86
48.4796	490.25
48.4940	512.81
48.5084	521.34
48.5229	522.30
48.5373	525.99
48.5518	536.82
48.5662	542.78
48.5806	494.80
48.5951	505.46
48.6095	537.06
48.6240	528.99
48.6384	504.24
48.6528	504.04
48.6673	522.91
48.6817	519.44
48.6962	498.48
48.7106	503.40
48.7250	497.31
48.7395	525.46
48.7539	535.19
48.7684	513.48
48.7828	555.14
48.7972	540.73
48.8117	495.41
48.8261	498.89
48.8406	516.78
48.8550	530.62
48.8694	513.71
48.8839	530.31
48.8983	585.12
48.9128	569.71
48.9272	573.09
48.9416	571.25
48.9561	522.03
48.9705	569.59
48.9850	630.13
48.9994	594.93
49.0139	559.64
49.0283	610.21
49.0427	620.98
49.0572	670.70
49.0716	664.29
49.0861	703.49
49.1005	684.91
49.1149	713.65
49.1294	745.70
49.1438	772.56
49.1583	823.94
49.1727	860.49
49.1871	866.78
49.2016	975.71
49.2160	1090.06
49.2305	1151.58
49.2449	1208.68
49.2593	1309.53
49.2738	1340.28
49.2882	1470.80
49.3027	1613.83
49.3171	1740.52
49.3315	1781.36
49.3460	1838.25
49.3604	1874.98
49.3749	1793.14
49.3893	1825.36
49.4037	1768.92
49.4182	1807.11
49.4326	1773.52
49.4471	1683.13
49.4615	1579.59
49.4759	1595.99
49.4904	1543.75
49.5048	1446.75
49.5193	1298.51
49.5337	1244.52
49.5481	1134.60
49.5626	1124.60
49.5770	1043.60
49.5915	982.88
49.6059	922.55
49.6203	870.18
49.6348	843.85
49.6492	761.94
49.6637	709.65
49.6781	697.34
49.6925	675.67
49.7070	657.49
49.7214	637.10
49.7359	608.44
49.7503	639.71
49.7647	578.34
49.7792	604.88
49.7936	577.11
49.8081	582.00
49.8225	579.88
49.8369	572.25
49.8514	541.92
49.8658	516.80
49.8803	573.87
49.8947	520.01
49.9091	550.71
49.9236	541.74
49.9380	542.95
49.9525	533.82
49.9669	531.88
49.9813	488.32
49.9958	544.37
50.0102	500.03
50.0247	511.45
50.0391	517.76
50.0535	524.98
50.0680	488.37
50.0824	516.82
50.0969	559.26
50.1113	527.31
50.1257	526.21
50.1402	497.62
50.1546	505.00
50.1691	527.74
50.1835	505.37
50.1979	500.96
50.2124	509.53
50.2268	509.98
50.2413	530.31
50.2557	517.80
50.2701	530.61
50.2846	529.36
50.2990	527.95
50.3135	522.33
50.3279	532.90
50.3423	510.39
50.3568	510.67
50.3712	504.45
50.3857	497.68
50.4001	507.96
50.4145	485.50
50.4290	532.92
50.4434	518.13
50.4579	489.03
50.4723	513.82
50.4867	518.05
50.5012	516.78
50.5156	531.26
50.5301	500.75
50.5445	466.34
50.5589	504.18
50.5734	522.94
50.5878	521.25
50.6023	492.94
50.6167	524.77
50.6311	535.01
50.6456	554.16
50.6600	527.05
50.6745	509.26
50.6889	502.70
50.7033	538.17
50.7178	518.42
50.7322	509.70
50.7467	537.91
50.7611	476.43
50.7755	526.48
50.7900	509.87
50.8044	523.37
50.8189	520.85
50.8333	487.58
50.8477	494.81
50.8622	522.21
50.8766	521.74
50.8911	503.01
50.9055	510.47
50.9199	501.74
50.9344	495.33
50.9488	510.58
50.9633	486.66
50.9777	471.88
50.9921	479.33
51.0066	514.17
51.0210	504.81
51.0355	508.11
51.0499	482.77
51.0643	520.96
51.0788	524.16
51.0932	511.28
51.1077	499.72
51.1221	493.83
51.1365	509.66
51.1510	470.82
51.1654	520.90
51.1799	495.21
51.1943	476.54
51.2087	493.99
51.2232	511.86
51.2376	519.74
51.2521	530.81
51.2665	494.15
51.2809	495.91
51.2954	487.64
51.3098	483.79
51.3243	522.61
51.3387	498.15
51.3531	524.39
51.3676	515.50
51.3820	514.01
51.3965	512.86
51.4109	533.53
51.4253	543.57
51.4398	517.73
51.4542	509.84
51.4687	522.39
51.4831	504.48
51.4975	479.49
51.5120	511.69
51.5264	514.79
51.5409	520.19
51.5553	507.43
51.5697	520.67
51.5842	501.61
51.5986	499.32
51.6131	507.08
51.6275	535.86
51.6419	515.73
51.6564	490.41
51.6708	526.04
51.6853	504.03
51.6997	557.10
51.7141	509.30
51.7286	509.79
51.7430	503.56
51.7575	511.10
51.7719	536.72
51.7863	547.35
51.8008	531.62
51.8152	522.26
51.8297	489.99
51.8441	506.61
51.8585	516.24
51.8730	525.62
51.8874	494.57
51.9019	519.10
51.9163	528.25
51.9307	505.92
51.9452	495.08
51.9596	476.21
51.9741	510.85
51.9885	530.40
52.0029	511.08
52.0174	552.16
52.0318	518.25
52.0463	535.55
52.0607	486.86
52.0751	491.10
52.0896	492.51
52.1040	464.03
52.1185	505.76
52.1329	508.53
52.1473	491.69
52.1618	522.62
52.1762	474.13
52.1907	478.60
52.2051	501.93
52.2195	514.56
52.2340	517.24
52.2484	488.14
52.2629	509.51
52.2773	485.46
52.2917	488.39
52.3062	544.02
52.3206	534.58
52.3351	521.34
52.3495	528.48
52.3639	482.81
52.3784	480.23
52.3928	489.89
52.4073	509.63
52.4217	542.14
52.4361	502.82
52.4506	484.46
52.4650	508.71
52.4795	485.09
52.4939	512.79
52.5083	532.39
52.5228	484.02
52.5372	504.97
52.5517	488.37
52.5661	485.07
52.5805	525.16
52.5950	492.51
52.6094	527.64
52.6239	527.91
52.6383	496.74
52.6527	501.57
52.6672	539.65
52.6816	508.50
52.6961	519.38
52.7105	506.02
52.7250	503.32
52.7394	473.63
52.7538	524.63
52.7683	504.19
52.7827	522.06
52.7972	503.87
52.8116	521.20
52.8260	515.17
52.8405	505.14
52.8549	501.46
52.8694	514.67
52.8838	480.88
52.8982	528.28
52.9127	529.61
52.9271	501.52
52.9416	537.48
52.9560	505.06
52.9704	517.63
52.9849	492.87
52.9993	500.49
53.0138	508.23
53.0282	539.92
53.0426	498.75
53.0571	478.89
53.0715	468.19
53.0860	494.48
53.1004	485.84
53.1148	513.88
53.1293	543.98
53.1437	491.82
53.1582	509.19
53.1726	532.60
53.1870	527.50
53.2015	506.45
53.2159	525.70
53.2304	540.63
53.2448	529.32
53.2592	501.97
53.2737	470.93
53.2881	509.06
53.3026	498.15
53.3170	511.60
53.3314	499.31
53.3459	507.43
53.3603	527.74
53.3748	518.13
53.3892	497.12
53.4036	506.52
53.4181	529.72
53.4325	519.62
53.4470	503.84
53.4614	521.23
53.4758	493.83
53.4903	525.58
53.5047	471.17
53.5192	501.09
53.5336	508.78
53.5480	539.22
53.5625	512.61
53.5769	486.28
53.5914	518.71
53.6058	521.84
53.6202	494.72
53.6347	530.49
53.6491	541.27
53.6636	498.69
53.6780	500.89
53.6924	523.05
53.7069	522.20
53.7213	483.63
53.7358	516.42
53.7502	502.02
53.7646	523.01
53.7791	497.12
53.7935	515.23
53.8080	526.42
53.8224	555.30
53.8368	542.21
53.8513	539.03
53.8657	547.73
53.8802	501.86
53.8946	489.65
53.9090	523.02
53.9235	531.32
53.9379	519.86
53.9524	456.97
53.9668	499.82
53.9812	535.30
53.9957	512.39
54.0101	513.70
54.0246	542.02
54.0390	513.15
54.0534	518.39
54.0679	518.83
54.0823	504.86
54.0968	515.36
54.1112	527.18
54.1256	547.03
54.1401	533.87
54.1545	536.08
54.1690	592.50
54.1834	591.96
54.1978	563.94
54.2123	563.55
54.2267	590.51
54.2412	626.13
54.2556	630.15
54.2700	642.50
54.2845	645.08
54.2989	612.33
54.3134	625.27
54.3278	607.04
54.3422	587.61
54.3567	591.36
54.3711	583.92
54.3856	558.28
54.4000	586.41
54.4144	585.23
54.4289	606.43
54.4433	594.75
54.4578	564.05
54.4722	567.71
54.4866	561.04
54.5011	536.89
54.5155	525.54
54.5300	562.99
54.5444	555.22
54.5588	526.99
54.5733	552.80
54.5877	504.93
54.6022	502.71
54.6166	524.17
54.6310	543.68
54.6455	528.00
54.6599	506.93
54.6744	519.12
54.6888	520.03
54.7032	511.41
54.7177	529.15
54.7321	512.17
54.7466	519.29
54.7610	517.81
54.7754	519.33
54.7899	553.38
54.8043	547.61
54.8188	525.43
54.8332	526.79
54.8476	536.95
54.8621	565.87
54.8765	520.44
54.8910	510.28
54.9054	527.88
54.9198	511.86
54.9343	522.37
54.9487	553.07
54.9632	581.16
54.9776	553.19
54.9920	544.57
55.0065	533.47
55.0209	518.49
55.0354	513.20
55.0498	478.35
55.0642	477.36
55.0787	509.12
55.0931	516.71
55.1076	494.23
55.1220	511.09
55.1364	529.91
55.1509	483.19
55.1653	512.46
55.1798	495.58
55.1942	493.95
55.2086	526.51
55.2231	514.54
55.2375	533.46
55.2520	530.25
55.2664	515.07
55.2808	504.42
55.2953	527.33
55.3097	506.94
55.3242	515.14
55.3386	525.87
55.3530	540.48
55.3675	502.78
55.3819	504.05
55.3964	459.18
55.4108	505.66
55.4252	555.28
55.4397	519.37
55.4541	497.91
55.4686	562.01
55.4830	522.42
55.4974	478.03
55.5119	460.28
55.5263	503.37
55.5408	496.28
55.5552	534.58
55.5696	517.67
55.5841	514.22
55.5985	517.52
55.6130	513.00
55.6274	531.52
55.6418	468.53
55.6563	506.17
55.6707	486.23
55.6852	500.64
55.6996	527.46
55.7140	524.91
55.7285	489.66
55.7429	540.55
55.7574	540.51
55.7718	518.07
55.7862	520.44
55.8007	499.49
55.8151	517.99
55.8296	532.60
55.8440	511.58
55.8584	543.10
55.8729	512.02
55.8873	515.49
55.9018	563.96
55.9162	520.38
55.9306	527.06
55.9451	509.98
55.9595	476.40
55.9740	497.64
55.9884	485.42
56.0028	536.75
56.0173	474.10
56.0317	513.32
56.0462	510.13
56.0606	515.69
56.0750	503.54
56.0895	552.33
56.1039	494.68
56.1184	543.48
56.1328	525.04
56.1472	486.45
56.1617	491.92
56.1761	511.73
56.1906	505.54
56.2050	517.51
56.2194	518.48
56.2339	529.65
56.2483	534.13
56.2628	511.88
56.2772	485.08
56.2916	503.51
56.3061	506.42
56.3205	529.41
56.3350	545.09
56.3494	533.96
56.3639	504.39
56.3783	499.11
56.3927	511.62
56.4072	499.48
56.4216	526.29
56.4361	547.39
56.4505	497.35
56.4649	548.16
56.4794	513.74
56.4938	490.76
56.5083	494.41
56.5227	471.40
56.5371	511.79
56.5516	524.95
56.5660	551.77
56.5805	521.71
56.5949	515.51
56.6093	480.03
56.6238	500.00
56.6382	510.43
56.6527	534.61
56.6671	529.93
56.6815	483.94
56.6960	498.98
56.7104	539.43
56.7249	515.42
56.7393	513.09
56.7537	517.58
56.7682	530.93
56.7826	547.33
56.7971	518.01
56.8115	544.05
56.8259	517.38
56.8404	533.31
56.8548	536.21
56.8693	524.56
56.8837	478.05
56.8981	539.34
56.9126	540.48
56.9270	511.39
56.9415	519.27
56.9559	548.75
56.9703	535.84
56.9848	534.08
56.9992	524.99
57.0137	560.72
57.0281	524.87
57.0425	499.72
57.0570	522.49
57.0714	512.65
57.0859	509.71
57.1003	523.23
57.1147	523.24
57.1292	538.63
57.1436	524.95
57.1581	530.05
57.1725	502.35
57.1869	494.24
57.2014	518.71
57.2158	507.34
57.2303	536.48
57.2447	539.94
57.2591	505.59
57.2736	541.58
57.2880	535.60
57.3025	531.27
57.3169	543.96
57.3313	524.84
57.3458	530.44
57.3602	549.71
57.3747	515.57
57.3891	526.73
57.4035	544.07
57.4180	580.44
57.4324	563.50
57.4469	513.13
57.4613	522.32
57.4757	526.36
57.4902	487.86
57.5046	552.24
57.5191	520.87
57.5335	525.44
57.5479	516.94
57.5624	539.89
57.5768	562.27
57.5913	524.70
57.6057	544.86
57.6201	571.62
57.6346	530.86
57.6490	541.88
57.6635	529.05
57.6779	519.11
57.6923	538.28
57.7068	570.88
57.7212	556.68
57.7357	553.43
57.7501	528.20
57.7645	539.78
57.7790	571.18
57.7934	617.85
57.8079	650.52
57.8223	679.61
57.8367	684.47
57.8512	745.37
57.8656	778.26
57.8801	782.21
57.8945	768.99
57.9089	758.93
57.9234	720.22
57.9378	684.69
57.9523	664.67
57.9667	629.71
57.9811	622.47
57.9956	661.50
58.0100	667.74
58.0245	612.43
58.0389	682.48
58.0533	710.76
58.0678	665.15
58.0822	642.92
58.0967	616.69
58.1111	603.07
58.1255	586.48
58.1400	582.99
58.1544	549.80
58.1689	559.83
58.1833	577.34
58.1977	546.39
58.2122	568.77
58.2266	553.32
58.2411	558.08
58.2555	534.71
58.2699	537.64
58.2844	537.17
58.2988	556.29
58.3133	530.16
58.3277	521.20
58.3421	553.16
58.3566	547.75
58.3710	544.11
58.3855	510.62
58.3999	532.46
58.4143	527.02
58.4288	574.52
58.4432	513.53
58.4577	524.39
58.4721	542.70
58.4865	561.86
58.5010	529.35
58.5154	523.24
58.5299	532.78
58.5443	500.54
58.5587	509.06
58.5732	524.54
58.5876	524.94
58.6021	547.73
58.6165	534.71
58.6309	520.48
58.6454	514.16
58.6598	546.72
58.6743	513.43
58.6887	507.01
58.7031	535.81
58.7176	521.14
58.7320	521.46
58.7465	533.43
58.7609	528.56
58.7753	537.71
58.7898	529.66
58.8042	544.25
58.8187	538.63
58.8331	521.42
58.8475	531.49
58.8620	539.95
58.8764	522.27
58.8909	494.75
58.9053	531.09
58.9197	540.40
58.9342	527.68
58.9486	512.67
58.9631	515.25
58.9775	509.05
58.9919	555.01
59.0064	524.66
59.0208	544.65
59.0353	512.81
59.0497	522.06
59.0641	571.91
59.0786	553.78
59.0930	539.96
59.1075	560.18
59.1219	545.98
59.1363	542.92
59.1508	541.80
59.1652	573.21
59.1797	563.50
59.1941	535.85
59.2085	542.73
59.2230	567.56
59.2374	583.12
59.2519	550.15
59.2663	537.11
59.2807	577.57
59.2952	559.29
59.3096	536.47
59.3241	549.24
59.3385	545.20
59.3529	537.89
59.3674	540.52
59.3818	589.40
59.3963	561.95
59.4107	540.86
59.4251	586.37
59.4396	564.14
59.4540	560.92
59.4685	607.14
59.4829	578.00
59.4973	544.40
59.5118	530.39
59.5262	566.38
59.5407	542.77
59.5551	537.72
59.5695	523.83
59.5840	537.03
59.5984	539.96
59.6129	555.42
59.6273	551.84
59.6417	525.48
59.6562	536.74
59.6706	532.53
59.6851	545.41
59.6995	541.38
59.7139	540.11
59.7284	540.03
59.7428	518.41
59.7573	522.08
59.7717	520.13
59.7861	530.93
59.8006	548.53
59.8150	550.44
59.8295	555.40
59.8439	546.19
59.8583	556.12
59.8728	524.83
59.8872	537.12
59.9017	578.20
59.9161	570.29
59.9305	509.98
59.9450	573.14
59.9594	499.07
59.9739	504.62
59.9883	512.21
60.0027	508.33
60.0172	527.90
60.0316	533.80
60.0461	559.73
60.0605	539.84
60.0750	526.90
60.0894	541.31
60.1038	506.04
60.1183	541.39
60.1327	565.57
60.1472	519.12
60.1616	554.37
60.1760	527.15
60.1905	506.24
60.2049	503.50
60.2194	549.31
60.2338	546.92
60.2482	527.57
60.2627	486.75
60.2771	514.97
60.2916	555.67
60.3060	508.18
60.3204	516.38
60.3349	551.86
60.3493	554.11
60.3638	525.59
60.3782	535.14
60.3926	511.51
60.4071	536.93
60.4215	487.17
60.4360	548.63
60.4504	506.36
60.4648	540.69
60.4793	524.20
60.4937	544.50
60.5082	548.03
60.5226	552.28
60.5370	527.31
60.5515	504.37
60.5659	531.49
60.5804	538.84
60.5948	525.27
60.6092	575.92
60.6237	542.66
60.6381	550.06
60.6526	517.45
60.6670	545.11
60.6814	522.63
60.6959	565.17
60.7103	556.80
60.7248	557.76
60.7392	548.86
60.7536	519.41
60.7681	529.91
60.7825	504.46
60.7970	537.23
60.8114	554.68
60.8258	568.01
60.8403	544.42
60.8547	541.09
60.8692	532.48
60.8836	529.91
60.8980	550.03
60.9125	530.31
60.9269	499.06
60.9414	570.66
60.9558	556.59
60.9702	555.76
60.9847	527.73
60.9991	527.83
61.0136	510.97
61.0280	542.02
61.0424	522.99
61.0569	575.73
61.0713	526.28
61.0858	529.16
61.1002	540.76
61.1146	526.06
61.1291	534.45
61.1435	457.85
61.1580	511.56
61.1724	522.67
61.1868	540.45
61.2013	538.06
61.2157	568.02
61.2302	567.52
61.2446	508.03
61.2590	525.07
61.2735	529.06
61.2879	527.89
61.3024	549.14
61.3168	587.86
61.3312	545.37
61.3457	544.24
61.3601	538.18
61.3746	539.94
61.3890	556.88
61.4034	520.49
61.4179	522.80
61.4323	540.05
61.4468	530.18
61.4612	543.90
61.4756	551.08
61.4901	554.57
61.5045	516.57
61.5190	533.57
61.5334	524.42
61.5478	540.84
61.5623	530.38
61.5767	505.70
61.5912	531.26
61.6056	521.39
61.6200	515.15
61.6345	546.96
61.6489	536.82
61.6634	543.17
61.6778	542.43
61.6922	524.75
61.7067	556.93
61.7211	554.38
61.7356	536.97
61.7500	556.67
61.7644	518.53
61.7789	546.46
61.7933	519.16
61.8078	535.25
61.8222	556.74
61.8366	552.59
61.8511	554.56
61.8655	561.32
61.8800	558.04
61.8944	544.92
61.9088	594.73
61.9233	544.63
61.9377	546.59
61.9522	522.20
61.9666	542.04
61.9810	535.05
61.9955	517.95
62.0099	524.17
62.0244	549.82
62.0388	591.31
62.0532	567.61
62.0677	588.68
62.0821	605.74
62.0966	558.59
62.1110	573.72
62.1254	578.79
62.1399	569.26
62.1543	535.20
62.1688	561.02
62.1832	555.02
62.1976	561.73
62.2121	539.92
62.2265	546.83
62.2410	538.45
62.2554	541.95
62.2698	543.23
62.2843	553.62
62.2987	551.15
62.3132	554.85
62.3276	575.04
62.3420	573.18
62.3565	555.53
62.3709	552.53
62.3854	555.16
62.3998	543.62
62.4142	556.32
62.4287	570.31
62.4431	568.66
62.4576	546.20
62.4720	535.83
62.4864	558.33
62.5009	549.92
62.5153	537.65
62.5298	547.47
62.5442	576.74
62.5586	544.64
62.5731	545.68
62.5875	540.08
62.6020	505.86
62.6164	530.26
62.6308	591.11
62.6453	545.33
62.6597	533.28
62.6742	543.12
62.6886	532.63
62.7030	574.59
62.7175	575.46
62.7319	562.41
62.7464	556.46
62.7608	536.34
62.7752	552.58
62.7897	535.97
62.8041	573.06
62.8186	564.90
62.8330	567.20
62.8474	578.84
62.8619	541.69
62.8763	539.33
62.8908	546.32
62.9052	541.31
62.9196	545.23
62.9341	550.54
62.9485	523.35
62.9630	541.04
62.9774	579.73
62.9918	576.56
63.0063	552.09
63.0207	551.38
63.0352	549.88
63.0496	553.46
63.0640	580.40
63.0785	556.73
63.0929	580.16
63.1074	571.74
63.1218	589.32
63.1362	589.00
63.1507	534.98
63.1651	554.17
63.1796	572.24
63.1940	544.43
63.2084	558.83
63.2229	589.93
63.2373	580.92
63.2518	568.22
63.2662	552.20
63.2806	622.57
63.2951	595.24
63.3095	587.73
63.3240	593.38
63.3384	598.72
63.3528	631.10
63.3673	621.94
63.3817	605.77
63.3962	604.95
63.4106	612.00
63.4250	651.70
63.4395	636.28
63.4539	620.27
63.4684	702.51
63.4828	763.89
63.4972	786.17
63.5117	812.25
63.5261	863.09
63.5406	904.85
63.5550	862.23
63.5694	912.04
63.5839	927.07
63.5983	909.16
63.6128	886.85
63.6272	837.39
63.6416	814.48
63.6561	773.58
63.6705	789.85
63.6850	773.84
63.6994	798.40
63.7138	810.09
63.7283	804.84
63.7427	825.17
63.7572	818.02
63.7716	784.46
63.7861	758.70
63.8005	751.35
63.8149	729.68
63.8294	693.25
63.8438	629.68
63.8583	642.84
63.8727	636.47
63.8871	640.54
63.9016	644.67
63.9160	619.95
63.9305	616.17
63.9449	656.19
63.9593	604.97
63.9738	618.06
63.9882	583.08
64.0027	575.91
64.0171	615.90
64.0315	616.47
64.0460	606.76
64.0604	608.85
64.0749	606.12
64.0893	588.92
64.1037	570.54
64.1182	579.72
64.1326	606.00
64.1471	573.99
64.1615	609.03
64.1759	599.95
64.1904	600.63
64.2048	579.66
64.2193	597.61
64.2337	590.39
64.2481	598.29
64.2626	623.37
64.2770	594.39
64.2915	578.76
64.3059	588.72
64.3203	588.25
64.3348	588.02
64.3492	605.54
64.3637	595.29
64.3781	612.10
64.3925	585.60
64.4070	572.31
64.4214	599.95
64.4359	647.42
64.4503	575.17
64.4647	617.75
64.4792	619.81
64.4936	612.85
64.5081	599.51
64.5225	587.38
64.5369	608.64
64.5514	626.71
64.5658	604.54
64.5803	619.56
64.5947	653.80
64.6091	638.78
64.6236	622.15
64.6380	623.31
64.6525	629.25
64.6669	639.84
64.6813	650.02
64.6958	667.95
64.7102	708.31
64.7247	685.79
64.7391	675.50
64.7535	668.10
64.7680	685.15
64.7824	702.69
64.7969	749.84
64.8113	764.26
64.8257	743.19
64.8402	806.19
64.8546	824.32
64.8691	828.41
64.8835	819.22
64.8979	827.66
64.9124	831.69
64.9268	874.97
64.9413	877.83
64.9557	914.22
64.9701	962.72
64.9846	1054.64
64.9990	1090.21
65.0135	1200.33
65.0279	1419.62
65.0423	1714.51
65.0568	2043.37
65.0712	2448.05
65.0857	3244.92
65.1001	4255.05
65.1145	5912.89
65.1290	7639.97
65.1434	9125.71
65.1579	10688.34
65.1723	11352.80
65.1867	11062.43
65.2012	10142.81
65.2156	8168.98
65.2301	6462.11
65.2445	5321.47
65.2589	4417.36
65.2734	4008.19
65.2878	4159.73
65.3023	4728.23
65.3167	5539.97
65.3311	6386.48
65.3456	6797.24
65.3600	6767.48
65.3745	6338.19
65.3889	5481.61
65.4033	4331.73
65.4178	3459.15
65.4322	2737.16
65.4467	2034.21
65.4611	1688.10
65.4755	1426.86
65.4900	1269.18
65.5044	1162.71
65.5189	1011.37
65.5333	957.53
65.5477	893.33
65.5622	864.39
65.5766	860.46
65.5911	820.28
65.6055	773.15
65.6199	789.93
65.6344	795.98
65.6488	705.92
65.6633	734.30
65.6777	706.71
65.6921	694.42
65.7066	747.98
65.7210	693.04
65.7355	684.58
65.7499	665.82
65.7643	648.54
65.7788	684.37
65.7932	700.37
65.8077	735.32
65.8221	679.80
65.8365	632.66
65.8510	616.31
65.8654	628.44
65.8799	617.59
65.8943	622.41
65.9087	636.42
65.9232	635.80
65.9376	663.78
65.9521	648.31
65.9665	611.64
65.9809	648.80
65.9954	639.97
66.0098	662.01
66.0243	659.96
66.0387	644.58
66.0531	636.98
66.0676	622.13
66.0820	613.55
66.0965	612.31
66.1109	627.49
66.1253	638.79
66.1398	639.81
66.1542	584.29
66.1687	599.53
66.1831	618.53
66.1975	614.05
66.2120	583.90
66.2264	595.43
66.2409	626.71
66.2553	627.59
66.2697	545.23
66.2842	596.54
66.2986	603.68
66.3131	582.13
66.3275	582.54
66.3419	622.36
66.3564	597.30
66.3708	569.78
66.3853	569.19
66.3997	597.07
66.4141	583.94
66.4286	628.22
66.4430	591.21
66.4575	575.66
66.4719	613.19
66.4863	602.52
66.5008	586.30
66.5152	572.58
66.5297	576.50
66.5441	617.37
66.5585	610.29
66.5730	607.72
66.5874	598.63
66.6019	603.55
66.6163	575.55
66.6307	604.94
66.6452	610.83
66.6596	587.98
66.6741	597.95
66.6885	589.21
66.7029	605.94
66.7174	594.60
66.7318	585.05
66.7463	544.05
66.7607	526.13
66.7751	542.17
66.7896	566.86
66.8040	623.08
66.8185	614.07
66.8329	587.58
66.8473	579.19
66.8618	555.48
66.8762	576.95
66.8907	550.46
66.9051	598.38
66.9195	582.49
66.9340	590.60
66.9484	617.43
66.9629	576.26
66.9773	572.06
66.9917	575.88
67.0062	586.28
67.0206	598.75
67.0351	559.21
67.0495	564.42
67.0639	586.17
67.0784	606.29
67.0928	597.97
67.1073	564.31
67.1217	610.63
67.1361	592.17
67.1506	551.32
67.1650	564.46
67.1795	595.34
67.1939	568.62
67.2083	563.44
67.2228	566.74
67.2372	580.31
67.2517	593.08
67.2661	591.77
67.2805	592.65
67.2950	560.92
67.3094	577.24
67.3239	571.68
67.3383	571.28
67.3527	563.24
67.3672	570.00
67.3816	583.68
67.3961	589.56
67.4105	578.35
67.4250	593.69
67.4394	583.78
67.4538	554.06
67.4683	585.68
67.4827	579.64
67.4972	587.68
67.5116	572.85
67.5260	569.25
67.5405	551.85
67.5549	578.21
67.5694	577.74
67.5838	549.80
67.5982	573.19
67.6127	574.29
67.6271	554.71
67.6416	555.49
67.6560	571.22
67.6704	559.09
67.6849	577.89
67.6993	571.23
67.7138	582.30
67.7282	564.09
67.7426	594.34
67.7571	613.86
67.7715	569.47
67.7860	586.91
67.8004	585.42
67.8148	568.54
67.8293	557.69
67.8437	544.42
67.8582	576.34
67.8726	570.61
67.8870	557.87
67.9015	572.53
67.9159	555.14
67.9304	574.22
67.9448	561.72
67.9592	571.24
67.9737	558.68
67.9881	575.57
68.0026	593.88
68.0170	609.98
68.0314	567.37
68.0459	566.92
68.0603	564.38
68.0748	589.71
68.0892	564.43
68.1036	567.52
68.1181	604.25
68.1325	550.86
68.1470	534.28
68.1614	562.31
68.1758	573.74
68.1903	571.36
68.2047	596.91
68.2192	526.68
68.2336	559.03
68.2480	553.17
68.2625	551.78
68.2769	563.14
68.2914	579.42
68.3058	542.40
68.3202	538.72
68.3347	574.63
68.3491	556.24
68.3636	550.42
68.3780	579.10
68.3924	591.92
68.4069	572.67
68.4213	537.94
68.4358	593.02
68.4502	581.66
68.4646	583.23
68.4791	556.14
68.4935	565.09
68.5080	559.31
68.5224	562.39
68.5368	584.85
68.5513	557.22
68.5657	569.56
68.5802	548.62
68.5946	558.61
68.6090	571.53
68.6235	560.88
68.6379	564.38
68.6524	558.29
68.6668	583.70
68.6812	577.31
68.6957	592.84
68.7101	602.51
68.7246	538.53
68.7390	548.24
68.7534	543.41
68.7679	551.88
68.7823	569.55
68.7968	557.01
68.8112	544.97
68.8256	552.35
68.8401	620.95
68.8545	544.03
68.8690	587.16
68.8834	607.69
68.8978	562.35
68.9123	601.06
68.9267	584.18
68.9412	571.12
68.9556	536.90
68.9700	586.06
68.9845	551.12
68.9989	581.78
69.0134	545.25
69.0278	582.10
69.0422	579.19
69.0567	571.68
69.0711	528.50
69.0856	549.14
69.1000	596.62
69.1144	553.69
69.1289	622.19
69.1433	548.47
69.1578	582.53
69.1722	566.29
69.1866	595.26
69.2011	556.90
69.2155	594.36
69.2300	537.91
69.2444	565.31
69.2588	524.82
69.2733	503.45
69.2877	577.84
69.3022	600.87
69.3166	565.14
69.3310	554.45
69.3455	571.85
69.3599	560.43
69.3744	563.47
69.3888	545.21
69.4032	566.80
69.4177	570.18
69.4321	588.78
69.4466	567.17
69.4610	570.63
69.4754	532.29
69.4899	583.51
69.5043	595.02
69.5188	554.08
69.5332	530.37
69.5476	542.00
69.5621	581.76
69.5765	624.66
69.5910	587.54
69.6054	558.51
69.6198	589.70
69.6343	621.27
69.6487	568.75
69.6632	603.54
69.6776	557.25
69.6920	557.32
69.7065	585.21
69.7209	573.32
69.7354	565.55
69.7498	597.00
69.7642	556.64
69.7787	580.23
69.7931	565.24
69.8076	561.45
69.8220	533.14
69.8364	594.49
69.8509	593.03
69.8653	582.32
69.8798	536.48
69.8942	587.43
69.9086	585.38
69.9231	614.25
69.9375	587.72
69.9520	511.76
69.9664	576.35
69.9808	553.24
69.9953	542.03
70.0097	575.09
70.0242	576.34
70.0386	584.94
70.0530	564.39
70.0675	559.53
70.0819	627.46
70.0964	592.73
70.1108	679.48
70.1252	621.02
70.1397	548.18
70.1541	540.43
70.1686	558.05
70.1830	606.38
70.1974	616.93
70.2119	590.10
70.2263	559.77
70.2408	586.48
70.2552	575.91
70.2696	568.06
70.2841	571.05
70.2985	535.40
70.3130	514.26
70.3274	556.99
70.3418	608.16
70.3563	610.91
70.3707	553.71
70.3852	542.32
70.3996	544.49
70.4140	580.32
70.4285	597.15
70.4429	585.64
70.4574	555.22
70.4718	553.58
70.4862	575.10
70.5007	571.45
70.5151	524.01
70.5296	579.56
70.5440	594.56
70.5584	565.23
70.5729	546.76
70.5873	583.70
70.6018	572.17
70.6162	598.61
70.6306	552.37
70.6451	526.55
70.6595	565.23
70.6740	524.87
70.6884	538.59
70.7028	620.91
70.7173	622.39
70.7317	588.44
70.7462	580.86
70.7606	577.42
70.7750	582.94
70.7895	559.86
70.8039	585.79
70.8184	572.14
70.8328	586.31
70.8472	554.59
70.8617	567.10
70.8761	543.57
70.8906	572.38
70.9050	550.61
70.9194	553.77
70.9339	598.42
70.9483	641.50
70.9628	616.65
70.9772	586.99
70.9916	589.97
71.0061	561.83
71.0205	594.76
71.0350	627.13
71.0494	571.69
71.0638	578.01
71.0783	645.01
71.0927	627.67
71.1072	623.05
71.1216	605.78
71.1361	614.80
71.1505	580.80
71.1649	572.09
71.1794	581.20
71.1938	600.81
71.2083	604.60
71.2227	517.90
71.2371	515.23
71.2516	574.59
71.2660	608.72
71.2805	566.47
71.2949	573.02
71.3093	559.66
71.3238	521.83
71.3382	580.83
71.3527	615.14
71.3671	597.58
71.3815	597.21
71.3960	592.64
71.4104	547.66
71.4249	588.12
71.4393	608.85
71.4537	594.51
71.4682	600.79
71.4826	579.26
71.4971	546.32
71.5115	562.78
71.5259	589.64
71.5404	580.19
71.5548	594.31
71.5693	569.75
71.5837	571.59
71.5981	534.83
71.6126	552.96
71.6270	560.91
71.6415	538.50
71.6559	551.22
71.6703	569.19
71.6848	568.59
71.6992	599.73
71.7137	587.96
71.7281	622.01
71.7425	602.20
71.7570	537.24
71.7714	586.18
71.7859	620.24
71.8003	634.57
71.8147	617.69
71.8292	635.97
71.8436	603.60
71.8581	550.34
71.8725	605.11
71.8869	638.28
71.9014	690.38
71.9158	589.10
71.9303	574.88
71.9447	574.50
71.9591	631.17
71.9736	624.98
71.9880	561.92
72.0025	549.62
72.0169	548.80
72.0313	559.46
72.0458	559.54
72.0602	546.34
72.0747	556.10
72.0891	557.16
72.1035	569.76
72.1180	599.89
72.1324	569.64
72.1469	519.74
72.1613	553.07
72.1757	637.81
72.1902	618.70
72.2046	615.35
72.2191	591.38
72.2335	545.87
72.2479	560.15
72.2624	560.90
72.2768	536.07
72.2913	603.25
72.3057	591.21
72.3201	571.43
72.3346	615.35
72.3490	610.62
72.3635	613.30
72.3779	605.60
72.3923	584.53
72.4068	572.17
72.4212	586.63
72.4357	642.54
72.4501	629.45
72.4645	633.42
72.4790	600.21
72.4934	563.15
72.5079	536.12
72.5223	541.65
72.5367	499.73
72.5512	525.78
72.5656	575.21
72.5801	527.49
72.5945	550.28
72.6089	470.14
72.6234	473.19
72.6378	510.58
72.6523	533.02
72.6667	587.85
72.6811	579.42
72.6956	540.41
72.7100	502.31
72.7245	487.93
72.7389	542.21
72.7533	556.21
72.7678	574.96
72.7822	646.05
72.7967	601.31
72.8111	622.99
72.8255	618.75
72.8400	495.20
72.8544	480.13
72.8689	519.93
72.8833	502.18

Result vector
22.1120	530.94
22.1264	547.52
22.1409	516.53
22.1553	499.43
22.1697	604.58
22.1842	627.64
22.1986	621.08
22.2131	678.23
22.2275	633.74
22.2419	585.47
22.2564	621.42
22.2708	557.93
22.2853	653.62
22.2997	584.72
22.3141	620.70
22.3286	574.63
22.3430	537.63
22.3575	643.31
22.3719	594.23
22.3863	558.24
22.4008	585.85
22.4152	604.60
22.4297	593.51
22.4441	633.37
22.4585	613.04
22.4730	639.88
22.4874	642.57
22.5019	636.82
22.5163	606.65
22.5307	515.01
22.5452	479.88
22.5596	560.70
22.5741	634.12
22.5885	648.97
22.6029	616.52
22.6174	467.01
22.6318	518.23
22.6463	495.68
22.6607	533.51
22.6751	480.09
22.6896	588.81
22.7040	624.67
22.7185	581.27
22.7329	624.28
22.7473	611.26
22.7618	515.14
22.7762	577.04
22.7907	642.91
22.8051	637.60
22.8195	520.19
22.8340	487.55
22.8484	540.89
22.8629	590.72
22.8773	514.57
22.8917	461.54
22.9062	529.10
22.9206	658.51
22.9351	619.75
22.9495	539.57
22.9639	448.10
22.9784	552.09
22.9928	528.16
23.0073	464.14
23.0217	536.47
23.0361	642.08
23.0506	567.75
23.0650	546.37
23.0795	483.75
23.0939	618.93
23.1083	570.65
23.1228	601.45
23.1372	552.17
23.1517	553.66
23.1661	585.29
23.1806	569.57
23.1950	542.29
23.2094	546.05
23.2239	544.24
23.2383	522.92
23.2528	592.16
23.2672	520.99
23.2816	510.82
23.2961	557.81
23.3105	566.95
23.3250	518.80
23.3394	585.46
23.3538	579.67
23.3683	509.35
23.3827	496.98
23.3972	513.09
23.4116	556.12
23.4260	594.32
23.4405	606.53
23.4549	510.40
23.4694	561.91
23.4838	527.09
23.4982	548.22
23.5127	538.88
23.5271	575.30
23.5416	544.17
23.5560	561.07
23.5704	599.50
23.5849	589.74
23.5993	602.44
23.6138	543.19
23.6282	518.67
23.6426	601.78
23.6571	565.49
23.6715	547.20
23.6860	563.31
23.7004	541.62
23.7148	558.09
23.7293	569.19
23.7437	646.87
23.7582	496.96
23.7726	509.50
23.7870	609.41
23.8015	571.54
23.8159	532.52
23.8304	575.17
23.8448	574.27
23.8592	587.35
23.8737	644.34
23.8881	516.42
23.9026	562.40
23.9170	549.85
23.9314	568.81
23.9459	553.17
23.9603	573.21
23.9748	582.68
23.9892	494.96
24.0036	593.59
24.0181	577.44
24.0325	650.53
24.0470	650.34
24.0614	555.87
24.0758	521.56
24.0903	492.50
24.1047	556.83
24.1192	546.76
24.1336	575.03
24.1480	579.64
24.1625	568.20
24.1769	583.38
24.1914	544.81
24.2058	554.88
24.2202	556.41
24.2347	599.17
24.2491	570.83
24.2636	570.77
24.2780	592.91
24.2924	602.05
24.3069	588.72
24.3213	605.64
24.3358	575.75
24.3502	584.19
24.3646	505.92
24.3791	561.55
24.3935	553.34
24.4080	600.20
24.4224	524.56
24.4368	529.95
24.4513	523.19
24.4657	552.34
24.4802	540.62
24.4946	582.10
24.5090	520.68
24.5235	537.61
24.5379	531.84
24.5524	625.00
24.5668	531.97
24.5812	609.85
24.5957	508.09
24.6101	515.80
24.6246	569.98
24.6390	527.71
24.6534	533.81
24.6679	559.77
24.6823	498.37
24.6968	507.00
24.7112	548.87
24.7256	566.39
24.7401	543.23
24.7545	525.17
24.7690	553.58
24.7834	536.41
24.7978	555.80
24.8123	533.07
24.8267	548.70
24.8412	599.55
24.8556	613.73
24.8700	535.26
24.8845	547.60
24.8989	602.75
24.9134	564.22
24.9278	498.70
24.9422	556.46
24.9567	542.02
24.9711	535.19
24.9856	578.70
25.0000	565.91
25.0144	555.95
25.0289	565.55
25.0433	579.20
25.0578	537.44
25.0722	565.06
25.0866	552.33
25.1011	485.29
25.1155	554.46
25.1300	578.88
25.1444	566.32
25.1588	514.27
25.1733	559.92
25.1877	493.36
25.2022	500.97
25.2166	507.00
25.2310	538.53
25.2455	528.69
25.2599	532.00
25.2744	548.78
25.2888	532.52
25.3032	559.57
25.3177	533.04
25.3321	528.61
25.3466	561.28
25.3610	566.96
25.3754	499.60
25.3899	525.57
25.4043	513.61
25.4188	561.60
25.4332	587.21
25.4476	518.88
25.4621	548.33
25.4765	511.06
25.4910	551.80
25.5054	555.27
25.5198	539.08
25.5343	585.37
25.5487	565.17
25.5632	543.85
25.5776	532.13
25.5920	564.68
25.6065	541.43
25.6209	554.92
25.6354	570.33
25.6498	573.99
25.6642	512.41
25.6787	523.81
25.6931	528.47
25.7076	587.87
25.7220	524.03
25.7364	519.46
25.7509	553.79
25.7653	550.25
25.7798	544.37
25.7942	520.67
25.8086	512.37
25.8231	533.74
25.8375	549.49
25.8520	543.61
25.8664	560.95
25.8808	550.86
25.8953	541.43
25.9097	508.64
25.9242	476.54
25.9386	520.53
25.9530	542.75
25.9675	530.32
25.9819	501.17
25.9964	525.35
26.0108	552.54
26.0252	542.07
26.0397	527.83
26.0541	562.34
26.0686	548.36
26.0830	557.67
26.0974	512.60
26.1119	522.59
26.1263	573.43
26.1408	539.21
26.1552	540.21
26.1696	521.11
26.1841	515.83
26.1985	500.64
26.2130	513.93
26.2274	535.03
26.2418	520.90
26.2563	533.11
26.2707	515.88
26.2852	542.07
26.2996	528.77
26.3140	517.60
26.3285	559.23
26.3429	523.67
26.3574	537.06
26.3718	529.93
26.3862	513.94
26.4007	526.69
26.4151	514.31
26.4296	538.84
26.4440	535.29
26.4584	521.20
26.4729	541.89
26.4873	552.47
26.5018	512.99
26.5162	520.90
26.5306	537.38
26.5451	523.37
26.5595	540.80
26.5740	544.87
26.5884	554.44
26.6028	555.31
26.6173	545.65
26.6317	516.93
26.6462	520.33
26.6606	544.33
26.6750	513.79
26.6895	508.85
26.7039	538.14
26.7184	522.25
26.7328	542.09
26.7472	548.67
26.7617	525.14
26.7761	517.27
26.7906	528.28
26.8050	520.28
26.8194	515.30
26.8339	528.77
26.8483	523.76
26.8628	532.28
26.8772	553.75
26.8917	556.62
26.9061	525.77
26.9205	515.31
26.9350	545.13
26.9494	557.09
26.9639	531.61
26.9783	552.26
26.9927	482.75
27.0072	489.23
27.0216	534.45
27.0361	537.04
27.0505	550.20
27.0649	565.47
27.0794	531.77
27.0938	544.96
27.1083	540.21
27.1227	516.65
27.1371	528.82
27.1516	548.17
27.1660	547.80
27.1805	517.02
27.1949	501.20
27.2093	495.90
27.2238	498.06
27.2382	511.42
27.2527	515.03
27.2671	500.28
27.2815	507.48
27.2960	524.13
27.3104	532.17
27.3249	554.55
27.3393	535.21
27.3537	509.52
27.3682	510.22
27.3826	511.15
27.3971	487.97
27.4115	492.92
27.4259	548.26
27.4404	500.78
27.4548	533.01
27.4693	548.07
27.4837	544.55
27.4981	528.08
27.5126	483.78
27.5270	509.84
27.5415	518.02
27.5559	560.70
27.5703	544.60
27.5848	500.84
27.5992	533.90
27.6137	487.69
27.6281	494.66
27.6425	535.76
27.6570	505.56
27.6714	545.06
27.6859	517.58
27.7003	535.36
27.7147	540.25
27.7292	495.76
27.7436	495.41
27.7581	531.57
27.7725	529.85
27.7869	514.45
27.8014	490.31
27.8158	506.66
27.8303	521.10
27.8447	530.27
27.8591	527.62
27.8736	506.55
27.8880	515.23
27.9025	545.82
27.9169	533.10
27.9313	514.42
27.9458	520.19
27.9602	502.88
27.9747	499.87
27.9891	497.03
28.0035	461.06
28.0180	464.04
28.0324	491.96
28.0469	479.90
28.0613	536.49
28.0757	543.37
28.0902	561.11
28.1046	550.05
28.1191	528.20
28.1335	536.50
28.1479	494.19
28.1624	521.93
28.1768	510.27
28.1913	523.06
28.2057	499.94
28.2201	516.19
28.2346	510.43
28.2490	519.69
28.2635	504.86
28.2779	544.58
28.2923	517.30
28.3068	491.69
28.3212	536.71
28.3357	504.86
28.3501	466.61
28.3645	526.05
28.3790	498.90
28.3934	459.38
28.4079	499.81
28.4223	525.67
28.4367	515.14
28.4512	515.68
28.4656	536.60
28.4801	483.87
28.4945	515.03
28.5089	517.28
28.5234	517.14
28.5378	518.76
28.5523	502.77
28.5667	529.18
28.5811	515.99
28.5956	490.55
28.6100	457.84
28.6245	505.87
28.6389	512.21
28.6533	494.73
28.6678	503.72
28.6822	515.26
28.6967	520.91
28.7111	542.09
28.7255	581.19
28.7400	562.69
28.7544	560.04
28.7689	542.31
28.7833	518.81
28.7977	499.35
28.8122	510.39
28.8266	494.26
28.8411	488.13
28.8555	528.08
28.8699	510.27
28.8844	496.98
28.8988	501.35
28.9133	503.98
28.9277	486.31
28.9421	533.20
28.9566	510.96
28.9710	500.44
28.9855	537.79
28.9999	509.58
29.0143	501.24
29.0288	533.56
29.0432	502.11
29.0577	492.53
29.0721	493.57
29.0865	513.31
29.1010	470.03
29.1154	520.50
29.1299	544.45
29.1443	504.44
29.1587	481.64
29.1732	488.81
29.1876	463.12
29.2021	482.98
29.2165	507.06
29.2309	513.18
29.2454	484.86
29.2598	488.74
29.2743	520.67
29.2887	529.41
29.3031	491.89
29.3176	496.20
29.3320	541.25
29.3465	489.35
29.3609	480.60
29.3753	473.98
29.3898	466.00
29.4042	508.29
29.4187	523.22
29.4331	532.67
29.4475	495.24
29.4620	490.60
29.4764	515.17
29.4909	517.19
29.5053	520.80
29.5197	486.04
29.5342	507.53
29.5486	495.60
29.5631	511.04
29.5775	535.44
29.5919	501.01
29.6064	476.62
29.6208	501.98
29.6353	530.41
29.6497	498.52
29.6641	518.12
29.6786	495.75
29.6930	488.65
29.7075	480.26
29.7219	504.21
29.7363	489.59
29.7508	481.38
29.7652	480.70
29.7797	461.74
29.7941	508.42
29.8085	501.16
29.8230	490.87
29.8374	498.03
29.8519	519.59
29.8663	519.08
29.8807	487.03
29.8952	514.83
29.9096	539.96
29.9241	520.27
29.9385	534.11
29.9529	494.11
29.9674	486.50
29.9818	498.32
29.9963	493.96
30.0107	511.38
30.0251	494.49
30.0396	512.20
30.0540	498.72
30.0685	478.28
30.0829	478.20
30.0973	497.65
30.1118	489.65
30.1262	479.07
30.1407	511.12
30.1551	513.25
30.1695	536.14
30.1840	513.51
30.1984	524.06
30.2129	521.05
30.2273	534.71
30.2417	539.90
30.2562	533.95
30.2706	507.89
30.2851	510.67
30.2995	547.51
30.3139	531.46
30.3284	533.98
30.3428	505.96
30.3573	511.43
30.3717	514.89
30.3861	508.25
30.4006	512.11
30.4150	498.34
30.4295	547.95
30.4439	556.50
30.4583	581.56
30.4728	590.48
30.4872	580.23
30.5017	625.12
30.5161	664.25
30.5305	701.94
30.5450	724.31
30.5594	744.27
30.5739	714.93
30.5883	752.51
30.6028	774.39
30.6172	733.40
30.6316	704.55
30.6461	678.61
30.6605	661.99
30.6750	658.86
30.6894	598.90
30.7038	617.89
30.7183	583.59
30.7327	531.96
30.7472	505.99
30.7616	546.52
30.7760	529.16
30.7905	519.03
30.8049	516.17
30.8194	548.35
30.8338	551.91
30.8482	493.39
30.8627	511.97
30.8771	538.89
30.8916	509.47
30.9060	535.70
30.9204	530.42
30.9349	525.63
30.9493	510.92
30.9638	509.92
30.9782	501.09
30.9926	501.76
31.0071	488.55
31.0215	501.01
31.0360	495.91
31.0504	487.49
31.0648	506.27
31.0793	505.68
31.0937	539.96
31.1082	509.69
31.1226	501.09
31.1370	528.30
31.1515	522.19
31.1659	501.25
31.1804	524.36
31.1948	527.08
31.2092	514.17
31.2237	490.12
31.2381	516.43
31.2526	513.44
31.2670	502.60
31.2814	533.50
31.2959	504.74
31.3103	537.95
31.3248	546.76
31.3392	538.12
31.3536	515.74
31.3681	552.49
31.3825	495.85
31.3970	525.48
31.4114	507.97
31.4258	513.85
31.4403	495.51
31.4547	528.35
31.4692	542.08
31.4836	476.92
31.4980	480.32
31.5125	503.68
31.5269	516.60
31.5414	522.86
31.5558	495.79
31.5702	470.79
31.5847	482.37
31.5991	474.85
31.6136	496.90
31.6280	529.85
31.6424	534.84
31.6569	512.38
31.6713	489.09
31.6858	467.45
31.7002	483.72
31.7146	518.63
31.7291	496.60
31.7435	511.84
31.7580	514.64
31.7724	486.53
31.7868	493.51
31.8013	497.78
31.8157	497.79
31.8302	482.83
31.8446	494.21
31.8590	534.25
31.8735	539.43
31.8879	487.55
31.9024	447.93
31.9168	467.40
31.9312	454.15
31.9457	483.27
31.9601	476.22
31.9746	511.72
31.9890	510.29
32.0034	490.00
32.0179	461.93
32.0323	463.94
32.0468	497.45
32.0612	489.36
32.0756	503.28
32.0901	517.49
32.1045	526.77
32.1190	503.30
32.1334	480.00
32.1478	493.61
32.1623	495.26
32.1767	492.62
32.1912	498.54
32.2056	510.94
32.2200	510.00
32.2345	490.29
32.2489	478.73
32.2634	480.16
32.2778	484.07
32.2922	493.06
32.3067	508.18
32.3211	478.68
32.3356	506.05
32.3500	472.13
32.3644	484.37
32.3789	483.47
32.3933	513.82
32.4078	469.05
32.4222	514.39
32.4366	522.79
32.4511	511.18
32.4655	504.47
32.4800	512.97
32.4944	488.95
32.5088	493.09
32.5233	500.50
32.5377	524.63
32.5522	524.36
32.5666	519.35
32.5810	498.51
32.5955	484.50
32.6099	485.75
32.6244	501.09
32.6388	477.65
32.6532	489.74
32.6677	479.34
32.6821	481.78
32.6966	475.34
32.7110	502.48
32.7254	510.87
32.7399	508.99
32.7543	494.90
32.7688	517.91
32.7832	532.69
32.7976	487.78
32.8121	520.07
32.8265	518.72
32.8410	487.91
32.8554	542.41
32.8698	517.81
32.8843	498.98
32.8987	520.66
32.9132	484.78
32.9276	500.07
32.9420	533.75
32.9565	505.42
32.9709	476.13
32.9854	487.71
32.9998	527.93
33.0142	491.94
33.0287	512.53
33.0431	515.64
33.0576	525.83
33.0720	523.94
33.0864	507.93
33.1009	490.53
33.1153	506.88
33.1298	496.71
33.1442	493.16
33.1586	526.35
33.1731	492.05
33.1875	514.56
33.2020	499.48
33.2164	504.02
33.2308	511.81
33.2453	490.64
33.2597	484.20
33.2742	520.18
33.2886	536.74
33.3030	514.07
33.3175	509.79
33.3319	513.81
33.3464	493.62
33.3608	517.58
33.3752	511.96
33.3897	489.85
33.4041	504.25
33.4186	511.68
33.4330	538.29
33.4474	478.12
33.4619	504.41
33.4763	484.91
33.4908	438.09
33.5052	507.03
33.5196	489.27
33.5341	520.52
33.5485	531.86
33.5630	508.41
33.5774	516.28
33.5918	516.91
33.6063	509.83
33.6207	508.41
33.6352	486.37
33.6496	487.32
33.6640	505.80
33.6785	519.39
33.6929	485.84
33.7074	492.30
33.7218	486.58
33.7362	496.44
33.7507	506.58
33.7651	506.23
33.7796	497.14
33.7940	496.28
33.8084	500.34
33.8229	509.62
33.8373	475.38
33.8518	499.40
33.8662	522.27
33.8806	493.91
33.8951	483.24
33.9095	486.19
33.9240	522.85
33.9384	535.29
33.9528	510.15
33.9673	466.44
33.9817	469.90
33.9962	501.25
34.0106	534.24
34.0250	498.36
34.0395	468.78
34.0539	507.32
34.0684	497.75
34.0828	516.70
34.0972	500.96
34.1117	512.74
34.1261	537.46
34.1406	487.44
34.1550	481.11
34.1694	529.70
34.1839	514.86
34.1983	473.33
34.2128	472.25
34.2272	508.12
34.2417	537.54
34.2561	513.16
34.2705	481.86
34.2850	540.44
34.2994	499.03
34.3139	510.35
34.3283	492.85
34.3427	506.57
34.3572	520.68
34.3716	532.06
34.3861	496.44
34.4005	509.51
34.4149	488.28
34.4294	508.99
34.4438	504.04
34.4583	487.38
34.4727	512.54
34.4871	498.90
34.5016	496.96
34.5160	507.39
34.5305	499.79
34.5449	507.51
34.5593	505.67
34.5738	532.76
34.5882	491.98
34.6027	468.41
34.6171	494.14
34.6315	492.64
34.6460	504.32
34.6604	501.13
34.6749	507.99
34.6893	480.35
34.7037	515.58
34.7182	511.95
34.7326	487.51
34.7471	500.74
34.7615	488.55
34.7759	474.99
34.7904	465.97
34.8048	508.36
34.8193	499.22
34.8337	514.12
34.8481	505.33
34.8626	507.56
34.8770	476.59
34.8915	439.11
34.9059	483.33
34.9203	514.60
34.9348	506.67
34.9492	503.79
34.9637	490.60
34.9781	509.66
34.9925	479.63
35.0070	457.99
35.0214	494.61
35.0359	500.77
35.0503	518.86
35.0647	525.92
35.0792	515.70
35.0936	500.25
35.1081	508.99
35.1225	492.09
35.1369	487.33
35.1514	480.00
35.1658	520.59
35.1803	501.64
35.1947	458.62
35.2091	453.39
35.2236	509.51
35.2380	500.40
35.2525	496.06
35.2669	515.50
35.2813	539.80
35.2958	534.33
35.3102	530.27
35.3247	519.46
35.3391	515.38
35.3535	510.02
35.3680	535.99
35.3824	516.96
35.3969	511.57
35.4113	528.04
35.4257	540.54
35.4402	542.43
35.4546	544.33
35.4691	553.53
35.4835	538.92
35.4979	526.08
35.5124	553.35
35.5268	536.65
35.5413	540.27
35.5557	526.35
35.5701	549.24
35.5846	558.81
35.5990	517.64
35.6135	523.44
35.6279	539.41
35.6423	538.15
35.6568	528.30
35.6712	572.56
35.6857	586.77
35.7001	693.30
35.7145	760.54
35.7290	779.08
35.7434	657.61
35.7579	619.47
35.7723	645.06
35.7867	681.13
35.8012	765.36
35.8156	753.68
35.8301	703.68
35.8445	696.53
35.8589	784.33
35.8734	910.38
35.8878	960.05
35.9023	1036.06
35.9167	1094.08
35.9311	1241.56
35.9456	1500.54
35.9600	1801.31
35.9745	1963.84
35.9889	2198.18
36.0033	2564.73
36.0178	2922.29
36.0322	2976.18
36.0467	2758.69
36.0611	2258.56
36.0755	1995.27
36.0900	2305.64
36.1044	2660.65
36.1189	2052.42
36.1333	1355.38
36.1477	1008.59
36.1622	964.86
36.1766	934.47
36.1911	865.46
36.2055	792.60
36.2199	746.79
36.2344	703.28
36.2488	688.13
36.2633	590.92
36.2777	581.15
36.2921	553.43
36.3066	511.18
36.3210	506.03
36.3355	530.17
36.3499	557.05
36.3643	517.63
36.3788	508.94
36.3932	511.54
36.4077	551.70
36.4221	539.06
36.4365	491.43
36.4510	532.80
36.4654	553.87
36.4799	546.86
36.4943	540.41
36.5087	523.94
36.5232	535.50
36.5376	530.64
36.5521	524.37
36.5665	532.48
36.5809	532.20
36.5954	513.50
36.6098	519.49
36.6243	509.97
36.6387	491.79
36.6531	533.90
36.6676	503.37
36.6820	499.27
36.6965	498.52
36.7109	559.24
36.7253	509.59
36.7398	530.98
36.7542	504.41
36.7687	499.32
36.7831	562.14
36.7975	533.75
36.8120	555.99
36.8264	583.55
36.8409	577.08
36.8553	581.97
36.8697	607.80
36.8842	594.20
36.8986	593.80
36.9131	605.70
36.9275	570.08
36.9419	610.07
36.9564	619.28
36.9708	590.91
36.9853	530.12
36.9997	552.03
37.0141	557.64
37.0286	523.10
37.0430	517.33
37.0575	540.85
37.0719	517.97
37.0863	540.03
37.1008	517.00
37.1152	536.75
37.1297	543.63
37.1441	524.67
37.1585	511.86
37.1730	517.71
37.1874	515.14
37.2019	490.17
37.2163	493.87
37.2307	539.91
37.2452	531.07
37.2596	502.44
37.2741	488.45
37.2885	503.18
37.3029	513.07
37.3174	512.07
37.3318	504.67
37.3463	516.69
37.3607	474.82
37.3751	493.94
37.3896	511.70
37.4040	549.89
37.4185	476.07
37.4329	511.30
37.4473	492.87
37.4618	495.95
37.4762	500.34
37.4907	522.33
37.5051	514.57
37.5195	477.87
37.5340	489.38
37.5484	519.11
37.5629	519.16
37.5773	488.81
37.5917	506.23
37.6062	510.29
37.6206	487.48
37.6351	518.79
37.6495	530.81
37.6639	525.34
37.6784	530.21
37.6928	489.54
37.7073	533.80
37.7217	520.32
37.7361	527.22
37.7506	472.93
37.7650	520.39
37.7795	529.24
37.7939	511.53
37.8083	506.11
37.8228	493.21
37.8372	501.46
37.8517	499.03
37.8661	529.27
37.8805	503.55
37.8950	505.01
37.9094	496.61
37.9239	519.27
37.9383	472.43
37.9528	465.25
37.9672	499.99
37.9816	485.46
37.9961	498.84
38.0105	531.64
38.0250	512.51
38.0394	492.83
38.0538	520.02
38.0683	501.74
38.0827	509.28
38.0972	529.92
38.1116	511.10
38.1260	503.66
38.1405	503.47
38.1549	484.57
38.1694	493.49
38.1838	476.45
38.1982	479.88
38.2127	485.64
38.2271	526.55
38.2416	532.61
38.2560	515.39
38.2704	514.91
38.2849	494.95
38.2993	523.05
38.3138	531.56
38.3282	536.75
38.3426	516.35
38.3571	526.18
38.3715	532.10
38.3860	495.67
38.4004	522.55
38.4148	525.60
38.4293	561.88
38.4437	578.01
38.4582	593.47
38.4726	620.05
38.4870	671.07
38.5015	753.95
38.5159	773.14
38.5304	791.04
38.5448	791.62
38.5592	845.88
38.5737	762.49
38.5881	766.52
38.6026	710.40
38.6170	712.64
38.6314	690.12
38.6459	677.57
38.6603	647.54
38.6748	616.28
38.6892	571.95
38.7036	572.92
38.7181	546.67
38.7325	503.28
38.7470	513.61
38.7614	502.49
38.7758	522.57
38.7903	525.92
38.8047	521.91
38.8192	536.43
38.8336	502.63
38.8480	498.81
38.8625	500.49
38.8769	478.80
38.8914	485.16
38.9058	522.43
38.9202	508.25
38.9347	491.90
38.9491	499.16
38.9636	502.65
38.9780	497.33
38.9924	483.95
39.0069	498.91
39.0213	471.87
39.0358	453.79
39.0502	457.77
39.0646	508.05
39.0791	519.10
39.0935	528.24
39.1080	515.36
39.1224	516.68
39.1368	501.68
39.1513	510.47
39.1657	491.48
39.1802	497.54
39.1946	481.84
39.2090	521.26
39.2235	531.29
39.2379	518.67
39.2524	545.94
39.2668	510.15
39.2812	496.20
39.2957	496.55
39.3101	510.38
39.3246	506.56
39.3390	467.65
39.3534	510.69
39.3679	526.86
39.3823	509.20
39.3968	508.14
39.4112	489.16
39.4256	525.18
39.4401	498.27
39.4545	490.30
39.4690	522.63
39.4834	506.24
39.4978	513.23
39.5123	500.75
39.5267	523.42
39.5412	491.92
39.5556	505.64
39.5700	494.45
39.5845	485.03
39.5989	486.24
39.6134	506.00
39.6278	511.69
39.6422	477.75
39.6567	480.17
39.6711	475.09
39.6856	509.37
39.7000	504.57
39.7144	513.14
39.7289	517.34
39.7433	486.55
39.7578	480.67
39.7722	512.82
39.7866	502.86
39.8011	519.81
39.8155	498.42
39.8300	512.48
39.8444	497.71
39.8588	503.14
39.8733	500.32
39.8877	491.86
39.9022	500.34
39.9166	503.16
39.9310	501.93
39.9455	524.81
39.9599	492.77
39.9744	478.72
39.9888	475.80
40.0032	486.14
40.0177	476.01
40.0321	465.02
40.0466	474.56
40.0610	516.02
40.0754	484.42
40.0899	505.91
40.1043	446.41
40.1188	496.04
40.1332	529.42
40.1476	497.31
40.1621	527.17
40.1765	495.94
40.1910	524.83
40.2054	494.19
40.2198	503.66
40.2343	520.48
40.2487	498.78
40.2632	484.73
40.2776	499.82
40.2920	492.07
40.3065	502.72
40.3209	523.71
40.3354	497.15
40.3498	501.56
40.3642	508.58
40.3787	476.84
40.3931	500.74
40.4076	477.42
40.4220	477.67
40.4364	517.36
40.4509	498.71
40.4653	508.61
40.4798	498.04
40.4942	497.56
40.5086	488.36
40.5231	508.53
40.5375	507.38
40.5520	525.68
40.5664	482.13
40.5808	472.15
40.5953	533.42
40.6097	506.51
40.6242	482.90
40.6386	468.95
40.6530	445.68
40.6675	496.21
40.6819	486.52
40.6964	527.52
40.7108	509.02
40.7252	547.52
40.7397	487.54
40.7541	502.21
40.7686	474.43
40.7830	472.62
40.7974	485.49
40.8119	510.96
40.8263	485.63
40.8408	516.70
40.8552	526.79
40.8696	521.71
40.8841	507.92
40.8985	522.82
40.9130	509.06
40.9274	479.68
40.9418	499.62
40.9563	502.02
40.9707	514.42
40.9852	495.46
40.9996	479.11
41.0140	479.68
41.0285	512.11
41.0429	512.29
41.0574	501.94
41.0718	511.54
41.0862	510.95
41.1007	504.95
41.1151	497.30
41.1296	516.95
41.1440	482.54
41.1584	509.43
41.1729	488.76
41.1873	491.92
41.2018	473.65
41.2162	443.24
41.2306	489.40
41.2451	513.39
41.2595	499.05
41.2740	509.32
41.2884	503.24
41.3028	486.31
41.3173	504.40
41.3317	510.92
41.3462	505.21
41.3606	478.19
41.3750	477.80
41.3895	505.93
41.4039	520.84
41.4184	522.29
41.4328	519.22
41.4472	481.76
41.4617	487.64
41.4761	522.01
41.4906	499.46
41.5050	483.82
41.5194	467.48
41.5339	516.76
41.5483	482.36
41.5628	507.22
41.5772	519.33
41.5916	504.85
41.6061	501.86
41.6205	471.85
41.6350	521.48
41.6494	532.35
41.6639	514.04
41.6783	524.41
41.6927	513.41
41.7072	528.42
41.7216	538.38
41.7361	476.63
41.7505	494.37
41.7649	512.48
41.7794	513.90
41.7938	484.30
41.8083	481.74
41.8227	499.28
41.8371	492.94
41.8516	488.01
41.8660	525.25
41.8805	533.75
41.8949	530.45
41.9093	515.12
41.9238	532.53
41.9382	583.22
41.9527	550.90
41.9671	547.96
41.9815	523.23
41.9960	534.89
42.0104	528.53
42.0249	590.04
42.0393	576.74
42.0537	570.85
42.0682	558.90
42.0826	578.40
42.0971	625.35
42.1115	585.83
42.1259	566.43
42.1404	582.73
42.1548	624.60
42.1693	653.54
42.1837	694.70
42.1981	712.54
42.2126	827.55
42.2270	934.54
42.2415	1044.21
42.2559	1146.17
42.2703	1315.84
42.2848	1503.54
42.2992	1581.11
42.3137	1656.13
42.3281	1610.00
42.3425	1495.21
42.3570	1405.09
42.3714	1379.90
42.3859	1323.60
42.4003	1333.17
42.4147	1282.45
42.4292	1232.52
42.4436	1079.05
42.4581	1002.25
42.4725	897.62
42.4869	820.57
42.5014	769.77
42.5158	742.03
42.5303	640.45
42.5447	609.69
42.5591	595.82
42.5736	579.78
42.5880	542.43
42.6025	539.99
42.6169	560.21
42.6313	574.17
42.6458	538.87
42.6602	574.88
42.6747	566.74
42.6891	530.79
42.7035	548.78
42.7180	524.28
42.7324	515.82
42.7469	535.58
42.7613	529.60
42.7757	527.05
42.7902	506.78
42.8046	512.70
42.8191	538.70
42.8335	488.91
42.8479	520.71
42.8624	541.59
42.8768	523.19
42.8913	488.65
42.9057	488.57
42.9201	536.52
42.9346	533.12
42.9490	518.50
42.9635	511.86
42.9779	518.58
42.9923	492.17
43.0068	507.64
43.0212	519.32
43.0357	490.77
43.0501	490.88
43.0645	524.53
43.0790	495.65
43.0934	536.03
43.1079	519.21
43.1223	512.95
43.1367	494.69
43.1512	492.33
43.1656	497.70
43.1801	534.95
43.1945	525.67
43.2089	542.91
43.2234	564.00
43.2378	528.54
43.2523	531.98
43.2667	505.89
43.2811	508.58
43.2956	534.25
43.3100	531.66
43.3245	495.63
43.3389	499.99
43.3533	504.18
43.3678	517.83
43.3822	520.30
43.3967	483.10
43.4111	512.00
43.4255	543.22
43.4400	507.66
43.4544	557.56
43.4689	530.93
43.4833	519.15
43.4977	498.95
43.5122	502.33
43.5266	492.86
43.5411	522.51
43.5555	514.47
43.5699	496.64
43.5844	506.15
43.5988	500.28
43.6133	514.89
43.6277	514.51
43.6421	541.29
43.6566	561.51
43.6710	547.40
43.6855	579.62
43.6999	591.32
43.7143	628.49
43.7288	658.59
43.7432	672.60
43.7577	691.46
43.7721	660.86
43.7865	657.28
43.8010	638.71
43.8154	616.13
43.8299	628.62
43.8443	592.79
43.8587	617.76
43.8732	610.17
43.8876	564.54
43.9021	584.80
43.9165	539.57
43.9309	534.78
43.9454	543.83
43.9598	536.24
43.9743	538.92
43.9887	535.45
44.0031	528.75
44.0176	538.96
44.0320	481.74
44.0465	489.03
44.0609	481.11
44.0753	480.46
44.0898	559.49
44.1042	531.58
44.1187	517.52
44.1331	505.31
44.1475	500.93
44.1620	497.93
44.1764	510.58
44.1909	525.54
44.2053	506.76
44.2197	508.79
44.2342	544.07
44.2486	523.15
44.2631	508.01
44.2775	496.11
44.2919	496.63
44.3064	521.71
44.3208	518.62
44.3353	548.39
44.3497	529.18
44.3641	547.43
44.3786	572.38
44.3930	534.89
44.4075	535.74
44.4219	560.75
44.4363	566.88
44.4508	582.06
44.4652	596.78
44.4797	591.73
44.4941	582.34
44.5085	559.50
44.5230	545.40
44.5374	557.88
44.5519	585.37
44.5663	582.98
44.5807	626.17
44.5952	582.57
44.6096	572.04
44.6241	592.14
44.6385	573.62
44.6529	554.37
44.6674	573.81
44.6818	591.83
44.6963	606.86
44.7107	646.40
44.7251	675.14
44.7396	743.41
44.7540	788.61
44.7685	801.18
44.7829	871.09
44.7973	883.30
44.8118	885.86
44.8262	878.61
44.8407	773.45
44.8551	742.90
44.8695	714.83
44.8840	707.36
44.8984	710.44
44.9129	716.92
44.9273	732.22
44.9417	651.89
44.9562	619.10
44.9706	612.52
44.9851	551.86
44.9995	566.55
45.0139	506.09
45.0284	497.88
45.0428	513.17
45.0573	502.32
45.0717	502.14
45.0861	489.28
45.1006	514.34
45.1150	501.39
45.1295	530.05
45.1439	470.28
45.1583	492.75
45.1728	547.73
45.1872	514.11
45.2017	528.22
45.2161	527.18
45.2305	470.38
45.2450	499.54
45.2594	506.58
45.2739	528.73
45.2883	519.92
45.3028	517.31
45.3172	501.32
45.3316	482.43
45.3461	510.73
45.3605	487.88
45.3750	481.32
45.3894	475.83
45.4038	474.01
45.4183	492.21
45.4327	508.00
45.4472	500.93
45.4616	528.45
45.4760	531.69
45.4905	509.37
45.5049	504.56
45.5194	472.43
45.5338	500.85
45.5482	481.00
45.5627	490.85
45.5771	512.27
45.5916	536.91
45.6060	491.19
45.6204	471.36
45.6349	495.29
45.6493	487.27
45.6638	506.65
45.6782	510.33
45.6926	518.26
45.7071	515.70
45.7215	497.07
45.7360	495.11
45.7504	496.83
45.7648	488.56
45.7793	491.20
45.7937	501.68
45.8082	502.65
45.8226	490.53
45.8370	492.68
45.8515	524.32
45.8659	505.71
45.8804	516.17
45.8948	491.00
45.9092	494.13
45.9237	495.00
45.9381	523.95
45.9526	504.95
45.9670	545.93
45.9814	522.82
45.9959	506.01
46.0103	508.59
46.0248	511.34
46.0392	531.71
46.0536	511.71
46.0681	506.53
46.0825	500.33
46.0970	465.03
46.1114	490.98
46.1258	510.58
46.1403	495.83
46.1547	527.02
46.1692	511.93
46.1836	496.02
46.1980	487.00
46.2125	495.63
46.2269	479.04
46.2414	484.47
46.2558	520.43
46.2702	502.36
46.2847	502.13
46.2991	477.46
46.3136	499.24
46.3280	520.84
46.3424	539.83
46.3569	525.62
46.3713	511.84
46.3858	461.06
46.4002	464.88
46.4146	506.97
46.4291	529.87
46.4435	496.33
46.4580	471.96
46.4724	514.03
46.4868	509.01
46.5013	492.09
46.5157	506.62
46.5302	486.26
46.5446	505.98
46.5590	529.85
46.5735	515.38
46.5879	497.83
46.6024	470.29
46.6168	483.06
46.6312	508.74
46.6457	495.97
46.6601	493.14
46.6746	457.46
46.6890	449.75
46.7034	500.38
46.7179	538.09
46.7323	524.43
46.7468	495.61
46.7612	490.86
46.7756	494.28
46.7901	505.92
46.8045	507.52
46.8190	514.59
46.8334	506.09
46.8478	509.33
46.8623	537.63
46.8767	523.72
46.8912	494.03
46.9056	530.85
46.9200	523.26
46.9345	503.53
46.9489	508.60
46.9634	494.79
46.9778	503.78
46.9922	519.42
47.0067	470.33
47.0211	520.85
47.0356	526.00
47.0500	535.08
47.0644	505.05
47.0789	475.67
47.0933	509.26
47.1078	508.30
47.1222	498.14
47.1366	490.32
47.1511	472.24
47.1655	482.89
47.1800	499.43
47.1944	479.61
47.2088	475.31
47.2233	522.74
47.2377	511.84
47.2522	481.90
47.2666	511.40
47.2810	520.27
47.2955	501.49
47.3099	479.14
47.3244	470.06
47.3388	493.49
47.3532	522.02
47.3677	509.10
47.3821	487.00
47.3966	502.96
47.4110	507.96
47.4254	500.05
47.4399	492.38
47.4543	515.40
47.4688	482.54
47.4832	474.76
47.4976	470.19
47.5121	490.43
47.5265	498.48
47.5410	527.70
47.5554	521.18
47.5698	486.83
47.5843	484.19
47.5987	517.29
47.6132	488.86
47.6276	480.14
47.6420	493.72
47.6565	491.66
47.6709	491.54
47.6854	489.29
47.6998	470.88
47.7142	471.79
47.7287	480.17
47.7431	500.14
47.7576	493.30
47.7720	493.03
47.7864	511.74
47.8009	503.66
47.8153	486.45
47.8298	487.77
47.8442	506.68
47.8586	506.00
47.8731	529.88
47.8875	536.72
47.9020	506.65
47.9164	498.25
47.9308	512.44
47.9453	472.74
47.9597	451.81
47.9742	498.97
47.9886	515.96
48.0030	489.95
48.0175	508.41
48.0319	531.09
48.0464	497.78
48.0608	509.29
48.0752	514.95
48.0897	525.79
48.1041	502.79
48.1186	502.13
48.1330	544.87
48.1474	521.71
48.1619	510.24
48.1763	530.76
48.1908	507.47
48.2052	515.84
48.2196	515.02
48.2341	522.85
48.2485	510.88
48.2630	508.58
48.2774	489.96
48.2918	496.30
48.3063	524.94
48.3207	542.55
48.3352	512.08
48.3496	494.66
48.3640	493.45
48.3785	457.18
48.3929	460.00
48.4074	509.26
48.4218	515.70
48.4362	494.48
48.4507	489.30
48.4651	508.86
48.4796	490.25
48.4940	512.81
48.5084	521.34
48.5229	522.30
48.5373	525.99
48.5518	536.82
48.5662	542.78
48.5806	494.80
48.5951	505.46
48.6095	537.06
48.6240	528.99
48.6384	504.24
48.6528	504.04
48.6673	522.91
48.6817	519.44
48.6962	498.48
48.7106	503.40
48.7250	497.31
48.7395	525.46
48.7539	535.19
48.7684	513.48
48.7828	555.14
48.7972	540.73
48.8117	495.41
48.8261	498.89
48.8406	516.78
48.8550	530.62
48.8694	513.71
48.8839	530.31
48.8983	585.12
48.9128	569.71
48.9272	573.09
48.9416	571.25
48.9561	522.03
48.9705	569.59
48.9850	630.13
48.9994	594.93
49.0139	559.64
49.0283	610.21
49.0427	620.98
49.0572	670.70
49.0716	664.29
49.0861	703.49
49.1005	684.91
49.1149	713.65
49.1294	745.70
49.1438	772.56
49.1583	823.94
49.1727	860.49
49.1871	866.78
49.2016	975.71
49.2160	1090.06
49.2305	1151.58
49.2449	1208.68
49.2593	1309.53
49.2738	1340.28
49.2882	1470.80
49.3027	1613.83
49.3171	1740.52
49.3315	1781.36
49.3460	1838.25
49.3604	1874.98
49.3749	1793.14
49.3893	1825.36
49.4037	1768.92
49.4182	1807.11
49.4326	1773.52
49.4471	1683.13
49.4615	1579.59
49.4759	1595.99
49.4904	1543.75
49.5048	1446.75
49.5193	1298.51
49.5337	1244.52
49.5481	1134.60
49.5626	1124.60
49.5770	1043.60
49.5915	982.88
49.6059	922.55
49.6203	870.18
49.6348	843.85
49.6492	761.94
49.6637	709.65
49.6781	697.34
49.6925	675.67
49.7070	657.49
49.7214	637.10
49.7359	608.44
49.7503	639.71
49.7647	578.34
49.7792	604.88
49.7936	577.11
49.8081	582.00
49.8225	579.88
49.8369	572.25
49.8514	541.92
49.8658	516.80
49.8803	573.87
49.8947	520.01
49.9091	550.71
49.9236	541.74
49.9380	542.95
49.9525	533.82
49.9669	531.88
49.9813	488.32
49.9958	544.37
50.0102	500.03
50.0247	511.45
50.0391	517.76
50.0535	524.98
50.0680	488.37
50.0824	516.82
50.0969	559.26
50.1113	527.31
50.1257	526.21
50.1402	497.62
50.1546	505.00
50.1691	527.74
50.1835	505.37
50.1979	500.96
50.2124	509.53
50.2268	509.98
50.2413	530.31
50.2557	517.80
50.2701	530.61
50.2846	529.36
50.2990	527.95
50.3135	522.33
50.3279	532.90
50.3423	510.39
50.3568	510.67
50.3712	504.45
50.3857	497.68
50.4001	507.96
50.4145	485.50
50.4290	532.92
50.4434	518.13
50.4579	489.03
50.4723	513.82
50.4867	518.05
50.5012	516.78
50.5156	531.26
50.5301	500.75
50.5445	466.34
50.5589	504.18
50.5734	522.94
50.5878	521.25
50.6023	492.94
50.6167	524.77
50.6311	535.01
50.6456	554.16
50.6600	527.05
50.6745	509.26
50.6889	502.70
50.7033	538.17
50.7178	518.42
50.7322	509.70
50.7467	537.91
50.7611	476.43
50.7755	526.48
50.7900	509.87
50.8044	523.37
50.8189	520.85
50.8333	487.58
50.8477	494.81
50.8622	522.21
50.8766	521.74
50.8911	503.01
50.9055	510.47
50.9199	501.74
50.9344	495.33
50.9488	510.58
50.9633	486.66
50.9777	471.88
50.9921	479.33
51.0066	514.17
51.0210	504.81
51.0355	508.11
51.0499	482.77
51.0643	520.96
51.0788	524.16
51.0932	511.28
51.1077	499.72
51.1221	493.83
51.1365	509.66
51.1510	470.82
51.1654	520.90
51.1799	495.21
51.1943	476.54
51.2087	493.99
51.2232	511.86
51.2376	519.74
51.2521	530.81
51.2665	494.15
51.2809	495.91
51.2954	487.64
51.3098	483.79
51.3243	522.61
51.3387	498.15
51.3531	524.39
51.3676	515.50
51.3820	514.01
51.3965	512.86
51.4109	533.53
51.4253	543.57
51.4398	517.73
51.4542	509.84
51.4687	522.39
51.4831	504.48
51.4975	479.49
51.5120	511.69
51.5264	514.79
51.5409	520.19
51.5553	507.43
51.5697	520.67
51.5842	501.61
51.5986	499.32
51.6131	507.08
51.6275	535.86
51.6419	515.73
51.6564	490.41
51.6708	526.04
51.6853	504.03
51.6997	557.10
51.7141	509.30
51.7286	509.79
51.7430	503.56
51.7575	511.10
51.7719	536.72
51.7863	547.35
51.8008	531.62
51.8152	522.26
51.8297	489.99
51.8441	506.61
51.8585	516.24
51.8730	525.62
51.8874	494.57
51.9019	519.10
51.9163	528.25
51.9307	505.92
51.9452	495.08
51.9596	476.21
51.9741	510.85
51.9885	530.40
52.0029	511.08
52.0174	552.16
52.0318	518.25
52.0463	535.55
52.0607	486.86
52.0751	491.10
52.0896	492.51
52.1040	464.03
52.1185	505.76
52.1329	508.53
52.1473	491.69
52.1618	522.62
52.1762	474.13
52.1907	478.60
52.2051	501.93
52.2195	514.56
52.2340	517.24
52.2484	488.14
52.2629	509.51
52.2773	485.46
52.2917	488.39
52.3062	544.02
52.3206	534.58
52.3351	521.34
52.3495	528.48
52.3639	482.81
52.3784	480.23
52.3928	489.89
52.4073	509.63
52.4217	542.14
52.4361	502.82
52.4506	484.46
52.4650	508.71
52.4795	485.09
52.4939	512.79
52.5083	532.39
52.5228	484.02
52.5372	504.97
52.5517	488.37
52.5661	485.07
52.5805	525.16
52.5950	492.51
52.6094	527.64
52.6239	527.91
52.6383	496.74
52.6527	501.57
52.6672	539.65
52.6816	508.50
52.6961	519.38
52.7105	506.02
52.7250	503.32
52.7394	473.63
52.7538	524.63
52.7683	504.19
52.7827	522.06
52.7972	503.87
52.8116	521.20
52.8260	515.17
52.8405	505.14
52.8549	501.46
52.8694	514.67
52.8838	480.88
52.8982	528.28
52.9127	529.61
52.9271	501.52
52.9416	537.48
52.9560	505.06
52.9704	517.63
52.9849	492.87
52.9993	500.49
53.0138	508.23
53.0282	539.92
53.0426	498.75
53.0571	478.89
53.0715	468.19
53.0860	494.48
53.1004	485.84
53.1148	513.88
53.1293	543.98
53.1437	491.82
53.1582	509.19
53.1726	532.60
53.1870	527.50
53.2015	506.45
53.2159	525.70
53.2304	540.63
53.2448	529.32
53.2592	501.97
53.2737	470.93
53.2881	509.06
53.3026	498.15
53.3170	511.60
53.3314	499.31
53.3459	507.43
53.3603	527.74
53.3748	518.13
53.3892	497.12
53.4036	506.52
53.4181	529.72
53.4325	519.62
53.4470	503.84
53.4614	521.23
53.4758	493.83
53.4903	525.58
53.5047	471.17
53.5192	501.09
53.5336	508.78
53.5480	539.22
53.5625	512.61
53.5769	486.28
53.5914	518.71
53.6058	521.84
53.6202	494.72
53.6347	530.49
53.6491	541.27
53.6636	498.69
53.6780	500.89
53.6924	523.05
53.7069	522.20
53.7213	483.63
53.7358	516.42
53.7502	502.02
53.7646	523.01
53.7791	497.12
53.7935	515.23
53.8080	526.42
53.8224	555.30
53.8368	542.21
53.8513	539.03
53.8657	547.73
53.8802	501.86
53.8946	489.65
53.9090	523.02
53.9235	531.32
53.9379	519.86
53.9524	456.97
53.9668	499.82
53.9812	535.30
53.9957	512.39
54.0101	513.70
54.0246	542.02
54.0390	513.15
54.0534	518.39
54.0679	518.83
54.0823	504.86
54.0968	515.36
54.1112	527.18
54.1256	547.03
54.1401	533.87
54.1545	536.08
54.1690	592.50
54.1834	591.96
54.1978	563.94
54.2123	563.55
54.2267	590.51
54.2412	626.13
54.2556	630.15
54.2700	642.50
54.2845	645.08
54.2989	612.33
54.3134	625.27
54.3278	607.04
54.3422	587.61
54.3567	591.36
54.3711	583.92
54.3856	558.28
54.4000	586.41
54.4144	585.23
54.4289	606.43
54.4433	594.75
54.4578	564.05
54.4722	567.71
54.4866	561.04
54.5011	536.89
54.5155	525.54
54.5300	562.99
54.5444	555.22
54.5588	526.99
54.5733	552.80
54.5877	504.93
54.6022	502.71
54.6166	524.17
54.6310	543.68
54.6455	528.00
54.6599	506.93
54.6744	519.12
54.6888	520.03
54.7032	511.41
54.7177	529.15
54.7321	512.17
54.7466	519.29
54.7610	517.81
54.7754	519.33
54.7899	553.38
54.8043	547.61
54.8188	525.43
54.8332	526.79
54.8476	536.95
54.8621	565.87
54.8765	520.44
54.8910	510.28
54.9054	527.88
54.9198	511.86
54.9343	522.37
54.9487	553.07
54.9632	581.16
54.9776	553.19
54.9920	544.57
55.0065	533.47
55.0209	518.49
55.0354	513.20
55.0498	478.35
55.0642	477.36
55.0787	509.12
55.0931	516.71
55.1076	494.23
55.1220	511.09
55.1364	529.91
55.1509	483.19
55.1653	512.46
55.1798	495.58
55.1942	493.95
55.2086	526.51
55.2231	514.54
55.2375	533.46
55.2520	530.25
55.2664	515.07
55.2808	504.42
55.2953	527.33
55.3097	506.94
55.3242	515.14
55.3386	525.87
55.3530	540.48
55.3675	502.78
55.3819	504.05
55.3964	459.18
55.4108	505.66
55.4252	555.28
55.4397	519.37
55.4541	497.91
55.4686	562.01
55.4830	522.42
55.4974	478.03
55.5119	460.28
55.5263	503.37
55.5408	496.28
55.5552	534.58
55.5696	517.67
55.5841	514.22
55.5985	517.52
55.6130	513.00
55.6274	531.52
55.6418	468.53
55.6563	506.17
55.6707	486.23
55.6852	500.64
55.6996	527.46
55.7140	524.91
55.7285	489.66
55.7429	540.55
55.7574	540.51
55.7718	518.07
55.7862	520.44
55.8007	499.49
55.8151	517.99
55.8296	532.60
55.8440	511.58
55.8584	543.10
55.8729	512.02
55.8873	515.49
55.9018	563.96
55.9162	520.38
55.9306	527.06
55.9451	509.98
55.9595	476.40
55.9740	497.64
55.9884	485.42
56.0028	536.75
56.0173	474.10
56.0317	513.32
56.0462	510.13
56.0606	515.69
56.0750	503.54
56.0895	552.33
56.1039	494.68
56.1184	543.48
56.1328	525.04
56.1472	486.45
56.1617	491.92
56.1761	511.73
56.1906	505.54
56.2050	517.51
56.2194	518.48
56.2339	529.65
56.2483	534.13
56.2628	511.88
56.2772	485.08
56.2916	503.51
56.3061	506.42
56.3205	529.41
56.3350	545.09
56.3494	533.96
56.3639	504.39
56.3783	499.11
56.3927	511.62
56.4072	499.48
56.4216	526.29
56.4361	547.39
56.4505	497.35
56.4649	548.16
56.4794	513.74
56.4938	490.76
56.5083	494.41
56.5227	471.40
56.5371	511.79
56.5516	524.95
56.5660	551.77
56.5805	521.71
56.5949	515.51
56.6093	480.03
56.6238	500.00
56.6382	510.43
56.6527	534.61
56.6671	529.93
56.6815	483.94
56.6960	498.98
56.7104	539.43
56.7249	515.42
56.7393	513.09
56.7537	517.58
56.7682	530.93
56.7826	547.33
56.7971	518.01
56.8115	544.05
56.8259	517.38
56.8404	533.31
56.8548	536.21
56.8693	524.56
56.8837	478.05
56.8981	539.34
56.9126	540.48
56.9270	511.39
56.9415	519.27
56.9559	548.75
56.9703	535.84
56.9848	534.08
56.9992	524.99
57.0137	560.72
57.0281	524.87
57.0425	499.72
57.0570	522.49
57.0714	512.65
57.0859	509.71
57.1003	523.23
57.1147	523.24
57.1292	538.63
57.1436	524.95
57.1581	530.05
57.1725	502.35
57.1869	494.24
57.2014	518.71
57.2158	507.34
57.2303	536.48
57.2447	539.94
57.2591	505.59
57.2736	541.58
57.2880	535.60
57.3025	531.27
57.3169	543.96
57.3313	524.84
57.3458	530.44
57.3602	549.71
57.3747	515.57
57.3891	526.73
57.4035	544.07
57.4180	580.44
57.4324	563.50
57.4469	513.13
57.4613	522.32
57.4757	526.36
57.4902	487.86
57.5046	552.24
57.5191	520.87
57.5335	525.44
57.5479	516.94
57.5624	539.89
57.5768	562.27
57.5913	524.70
57.6057	544.86
57.6201	571.62
57.6346	530.86
57.6490	541.88
57.6635	529.05
57.6779	519.11
57.6923	538.28
57.7068	570.88
57.7212	556.68
57.7357	553.43
57.7501	528.20
57.7645	539.78
57.7790	571.18
57.7934	617.85
57.8079	650.52
57.8223	679.61
57.8367	684.47
57.8512	745.37
57.8656	778.26
57.8801	782.21
57.8945	768.99
57.9089	758.93
57.9234	720.22
57.9378	684.69
57.9523	664.67
57.9667	629.71
57.9811	622.47
57.9956	661.50
58.0100	667.74
58.0245	612.43
58.0389	682.48
58.0533	710.76
58.0678	665.15
58.0822	642.92
58.0967	616.69
58.1111	603.07
58.1255	586.48
58.1400	582.99
58.1544	549.80
58.1689	559.83
58.1833	577.34
58.1977	546.39
58.2122	568.77
58.2266	553.32
58.2411	558.08
58.2555	534.71
58.2699	537.64
58.2844	537.17
58.2988	556.29
58.3133	530.16
58.3277	521.20
58.3421	553.16
58.3566	547.75
58.3710	544.11
58.3855	510.62
58.3999	532.46
58.4143	527.02
58.4288	574.52
58.4432	513.53
58.4577	524.39
58.4721	542.70
58.4865	561.86
58.5010	529.35
58.5154	523.24
58.5299	532.78
58.5443	500.54
58.5587	509.06
58.5732	524.54
58.5876	524.94
58.6021	547.73
58.6165	534.71
58.6309	520.48
58.6454	514.16
58.6598	546.72
58.6743	513.43
58.6887	507.01
58.7031	535.81
58.7176	521.14
58.7320	521.46
58.7465	533.43
58.7609	528.56
58.7753	537.71
58.7898	529.66
58.8042	544.25
58.8187	538.63
58.8331	521.42
58.8475	531.49
58.8620	539.95
58.8764	522.27
58.8909	494.75
58.9053	531.09
58.9197	540.40
58.9342	527.68
58.9486	512.67
58.9631	515.25
58.9775	509.05
58.9919	555.01
59.0064	524.66
59.0208	544.65
59.0353	512.81
59.0497	522.06
59.0641	571.91
59.0786	553.78
59.0930	539.96
59.1075	560.18
59.1219	545.98
59.1363	542.92
59.1508	541.80
59.1652	573.21
59.1797	563.50
59.1941	535.85
59.2085	542.73
59.2230	567.56
59.2374	583.12
59.2519	550.15
59.2663	537.11
59.2807	577.57
59.2952	559.29
59.3096	536.47
59.3241	549.24
59.3385	545.20
59.3529	537.89
59.3674	540.52
59.3818	589.40
59.3963	561.95
59.4107	540.86
59.4251	586.37
59.4396	564.14
59.4540	560.92
59.4685	607.14
59.4829	578.00
59.4973	544.40
59.5118	530.39
59.5262	566.38
59.5407	542.77
59.5551	537.72
59.5695	523.83
59.5840	537.03
59.5984	539.96
59.6129	555.42
59.6273	551.84
59.6417	525.48
59.6562	536.74
59.6706	532.53
59.6851	545.41
59.6995	541.38
59.7139	540.11
59.7284	540.03
59.7428	518.41
59.7573	522.08
59.7717	520.13
59.7861	530.93
59.8006	548.53
59.8150	550.44
59.8295	555.40
59.8439	546.19
59.8583	556.12
59.8728	524.83
59.8872	537.12
59.9017	578.20
59.9161	570.29
59.9305	509.98
59.9450	573.14
59.9594	499.07
59.9739	504.62
59.9883	512.21
60.0027	508.33
60.0172	527.90
60.0316	533.80
60.0461	559.73
60.0605	539.84
60.0750	526.90
60.0894	541.31
60.1038	506.04
60.1183	541.39
60.1327	565.57
60.1472	519.12
60.1616	554.37
60.1760	527.15
60.1905	506.24
60.2049	503.50
60.2194	549.31
60.2338	546.92
60.2482	527.57
60.2627	486.75
60.2771	514.97
60.2916	555.67
60.3060	508.18
60.3204	516.38
60.3349	551.86
60.3493	554.11
60.3638	525.59
60.3782	535.14
60.3926	511.51
60.4071	536.93
60.4215	487.17
60.4360	548.63
60.4504	506.36
60.4648	540.69
60.4793	524.20
60.4937	544.50
60.5082	548.03
60.5226	552.28
60.5370	527.31
60.5515	504.37
60.5659	531.49
60.5804	538.84
60.5948	525.27
60.6092	575.92
60.6237	542.66
60.6381	550.06
60.6526	517.45
60.6670	545.11
60.6814	522.63
60.6959	565.17
60.7103	556.80
60.7248	557.76
60.7392	548.86
60.7536	519.41
60.7681	529.91
60.7825	504.46
60.7970	537.23
60.8114	554.68
60.8258	568.01
60.8403	544.42
60.8547	541.09
60.8692	532.48
60.8836	529.91
60.8980	550.03
60.9125	530.31
60.9269	499.06
60.9414	570.66
60.9558	556.59
60.9702	555.76
60.9847	527.73
60.9991	527.83
61.0136	510.97
61.0280	542.02
61.0424	522.99
61.0569	575.73
61.0713	526.28
61.0858	529.16
61.1002	540.76
61.1146	526.06
61.1291	534.45
61.1435	457.85
61.1580	511.56
61.1724	522.67
61.1868	540.45
61.2013	538.06
61.2157	568.02
61.2302	567.52
61.2446	508.03
61.2590	525.07
61.2735	529.06
61.2879	527.89
61.3024	549.14
61.3168	587.86
61.3312	545.37
61.3457	544.24
61.3601	538.18
61.3746	539.94
61.3890	556.88
61.4034	520.49
61.4179	522.80
61.4323	540.05
61.4468	530.18
61.4612	543.90
61.4756	551.08
61.4901	554.57
61.5045	516.57
61.5190	533.57
61.5334	524.42
61.5478	540.84
61.5623	530.38
61.5767	505.70
61.5912	531.26
61.6056	521.39
61.6200	515.15
61.6345	546.96
61.6489	536.82
61.6634	543.17
61.6778	542.43
61.6922	524.75
61.7067	556.93
61.7211	554.38
61.7356	536.97
61.7500	556.67
61.7644	518.53
61.7789	546.46
61.7933	519.16
61.8078	535.25
61.8222	556.74
61.8366	552.59
61.8511	554.56
61.8655	561.32
61.8800	558.04
61.8944	544.92
61.9088	594.73
61.9233	544.63
61.9377	546.59
61.9522	522.20
61.9666	542.04
61.9810	535.05
61.9955	517.95
62.0099	524.17
62.0244	549.82
62.0388	591.31
62.0532	567.61
62.0677	588.68
62.0821	605.74
62.0966	558.59
62.1110	573.72
62.1254	578.79
62.1399	569.26
62.1543	535.20
62.1688	561.02
62.1832	555.02
62.1976	561.73
62.2121	539.92
62.2265	546.83
62.2410	538.45
62.2554	541.95
62.2698	543.23
62.2843	553.62
62.2987	551.15
62.3132	554.85
62.3276	575.04
62.3420	573.18
62.3565	555.53
62.3709	552.53
62.3854	555.16
62.3998	543.62
62.4142	556.32
62.4287	570.31
62.4431	568.66
62.4576	546.20
62.4720	535.83
62.4864	558.33
62.5009	549.92
62.5153	537.65
62.5298	547.47
62.5442	576.74
62.5586	544.64
62.5731	545.68
62.5875	540.08
62.6020	505.86
62.6164	530.26
62.6308	591.11
62.6453	545.33
62.6597	533.28
62.6742	543.12
62.6886	532.63
62.7030	574.59
62.7175	575.46
62.7319	562.41
62.7464	556.46
62.7608	536.34
62.7752	552.58
62.7897	535.97
62.8041	573.06
62.8186	564.90
62.8330	567.20
62.8474	578.84
62.8619	541.69
62.8763	539.33
62.8908	546.32
62.9052	541.31
62.9196	545.23
62.9341	550.54
62.9485	523.35
62.9630	541.04
62.9774	579.73
62.9918	576.56
63.0063	552.09
63.0207	551.38
63.0352	549.88
63.0496	553.46
63.0640	580.40
63.0785	556.73
63.0929	580.16
63.1074	571.74
63.1218	589.32
63.1362	589.00
63.1507	534.98
63.1651	554.17
63.1796	572.24
63.1940	544.43
63.2084	558.83
63.2229	589.93
63.2373	580.92
63.2518	568.22
63.2662	552.20
63.2806	622.57
63.2951	595.24
63.3095	587.73
63.3240	593.38
63.3384	598.72
63.3528	631.10
63.3673	621.94
63.3817	605.77
63.3962	604.95
63.4106	612.00
63.4250	651.70
63.4395	636.28
63.4539	620.27
63.4684	702.51
63.4828	763.89
63.4972	786.17
63.5117	812.25
63.5261	863.09
63.5406	904.85
63.5550	862.23
63.5694	912.04
63.5839	927.07
63.5983	909.16
63.6128	886.85
63.6272	837.39
63.6416	814.48
63.6561	773.58
63.6705	789.85
63.6850	773.84
63.6994	798.40
63.7138	810.09
63.7283	804.84
63.7427	825.17
63.7572	818.02
63.7716	784.46
63.7861	758.70
63.8005	751.35
63.8149	729.68
63.8294	693.25
63.8438	629.68
63.8583	642.84
63.8727	636.47
63.8871	640.54
63.9016	644.67
63.9160	619.95
63.9305	616.17
63.9449	656.19
63.9593	604.97
63.9738	618.06
63.9882	583.08
64.0027	575.91
64.0171	615.90
64.0315	616.47
64.0460	606.76
64.0604	608.85
64.0749	606.12
64.0893	588.92
64.1037	570.54
64.1182	579.72
64.1326	606.00
64.1471	573.99
64.1615	609.03
64.1759	599.95
64.1904	600.63
64.2048	579.66
64.2193	597.61
64.2337	590.39
64.2481	598.29
64.2626	623.37
64.2770	594.39
64.2915	578.76
64.3059	588.72
64.3203	588.25
64.3348	588.02
64.3492	605.54
64.3637	595.29
64.3781	612.10
64.3925	585.60
64.4070	572.31
64.4214	599.95
64.4359	647.42
64.4503	575.17
64.4647	617.75
64.4792	619.81
64.4936	612.85
64.5081	599.51
64.5225	587.38
64.5369	608.64
64.5514	626.71
64.5658	604.54
64.5803	619.56
64.5947	653.80
64.6091	638.78
64.6236	622.15
64.6380	623.31
64.6525	629.25
64.6669	639.84
64.6813	650.02
64.6958	667.95
64.7102	708.31
64.7247	685.79
64.7391	675.50
64.7535	668.10
64.7680	685.15
64.7824	702.69
64.7969	749.84
64.8113	764.26
64.8257	743.19
64.8402	806.19
64.8546	824.32
64.8691	828.41
64.8835	819.22
64.8979	827.66
64.9124	831.69
64.9268	874.97
64.9413	877.83
64.9557	914.22
64.9701	962.72
64.9846	1054.64
64.9990	1090.21
65.0135	1200.33
65.0279	1419.62
65.0423	1714.51
65.0568	2043.37
65.0712	2448.05
65.0857	3244.92
65.1001	4255.05
65.1145	5912.89
65.1290	7639.97
65.1434	9125.71
65.1579	10688.34
65.1723	11352.80
65.1867	11062.43
65.2012	10142.81
65.2156	8168.98
65.2301	6462.11
65.2445	5321.47
65.2589	4417.36
65.2734	4008.19
65.2878	4159.73
65.3023	4728.23
65.3167	5539.97
65.3311	6386.48
65.3456	6797.24
65.3600	6767.48
65.3745	6338.19
65.3889	5481.61
65.4033	4331.73
65.4178	3459.15
65.4322	2737.16
65.4467	2034.21
65.4611	1688.10
65.4755	1426.86
65.4900	1269.18
65.5044	1162.71
65.5189	1011.37
65.5333	957.53
65.5477	893.33
65.5622	864.39
65.5766	860.46
65.5911	820.28
65.6055	773.15
65.6199	789.93
65.6344	795.98
65.6488	705.92
65.6633	734.30
65.6777	706.71
65.6921	694.42
65.7066	747.98
65.7210	693.04
65.7355	684.58
65.7499	665.82
65.7643	648.54
65.7788	684.37
65.7932	700.37
65.8077	735.32
65.8221	679.80
65.8365	632.66
65.8510	616.31
65.8654	628.44
65.8799	617.59
65.8943	622.41
65.9087	636.42
65.9232	635.80
65.9376	663.78
65.9521	648.31
65.9665	611.64
65.9809	648.80
65.9954	639.97
66.0098	662.01
66.0243	659.96
66.0387	644.58
66.0531	636.98
66.0676	622.13
66.0820	613.55
66.0965	612.31
66.1109	627.49
66.1253	638.79
66.1398	639.81
66.1542	584.29
66.1687	599.53
66.1831	618.53
66.1975	614.05
66.2120	583.90
66.2264	595.43
66.2409	626.71
66.2553	627.59
66.2697	545.23
66.2842	596.54
66.2986	603.68
66.3131	582.13
66.3275	582.54
66.3419	622.36
66.3564	597.30
66.3708	569.78
66.3853	569.19
66.3997	597.07
66.4141	583.94
66.4286	628.22
66.4430	591.21
66.4575	575.66
66.4719	613.19
66.4863	602.52
66.5008	586.30
66.5152	572.58
66.5297	576.50
66.5441	617.37
66.5585	610.29
66.5730	607.72
66.5874	598.63
66.6019	603.55
66.6163	575.55
66.6307	604.94
66.6452	610.83
66.6596	587.98
66.6741	597.95
66.6885	589.21
66.7029	605.94
66.7174	594.60
66.7318	585.05
66.7463	544.05
66.7607	526.13
66.7751	542.17
66.7896	566.86
66.8040	623.08
66.8185	614.07
66.8329	587.58
66.8473	579.19
66.8618	555.48
66.8762	576.95
66.8907	550.46
66.9051	598.38
66.9195	582.49
66.9340	590.60
66.9484	617.43
66.9629	576.26
66.9773	572.06
66.9917	575.88
67.0062	586.28
67.0206	598.75
67.0351	559.21
67.0495	564.42
67.0639	586.17
67.0784	606.29
67.0928	597.97
67.1073	564.31
67.1217	610.63
67.1361	592.17
67.1506	551.32
67.1650	564.46
67.1795	595.34
67.1939	568.62
67.2083	563.44
67.2228	566.74
67.2372	580.31
67.2517	593.08
67.2661	591.77
67.2805	592.65
67.2950	560.92
67.3094	577.24
67.3239	571.68
67.3383	571.28
67.3527	563.24
67.3672	570.00
67.3816	583.68
67.3961	589.56
67.4105	578.35
67.4250	593.69
67.4394	583.78
67.4538	554.06
67.4683	585.68
67.4827	579.64
67.4972	587.68
67.5116	572.85
67.5260	569.25
67.5405	551.85
67.5549	578.21
67.5694	577.74
67.5838	549.80
67.5982	573.19
67.6127	574.29
67.6271	554.71
67.6416	555.49
67.6560	571.22
67.6704	559.09
67.6849	577.89
67.6993	571.23
67.7138	582.30
67.7282	564.09
67.7426	594.34
67.7571	613.86
67.7715	569.47
67.7860	586.91
67.8004	585.42
67.8148	568.54
67.8293	557.69
67.8437	544.42
67.8582	576.34
67.8726	570.61
67.8870	557.87
67.9015	572.53
67.9159	555.14
67.9304	574.22
67.9448	561.72
67.9592	571.24
67.9737	558.68
67.9881	575.57
68.0026	593.88
68.0170	609.98
68.0314	567.37
68.0459	566.92
68.0603	564.38
68.0748	589.71
68.0892	564.43
68.1036	567.52
68.1181	604.25
68.1325	550.86
68.1470	534.28
68.1614	562.31
68.1758	573.74
68.1903	571.36
68.2047	596.91
68.2192	526.68
68.2336	559.03
68.2480	553.17
68.2625	551.78
68.2769	563.14
68.2914	579.42
68.3058	542.40
68.3202	538.72
68.3347	574.63
68.3491	556.24
68.3636	550.42
68.3780	579.10
68.3924	591.92
68.4069	572.67
68.4213	537.94
68.4358	593.02
68.4502	581.66
68.4646	583.23
68.4791	556.14
68.4935	565.09
68.5080	559.31
68.5224	562.39
68.5368	584.85
68.5513	557.22
68.5657	569.56
68.5802	548.62
68.5946	558.61
68.6090	571.53
68.6235	560.88
68.6379	564.38
68.6524	558.29
68.6668	583.70
68.6812	577.31
68.6957	592.84
68.7101	602.51
68.7246	538.53
68.7390	548.24
68.7534	543.41
68.7679	551.88
68.7823	569.55
68.7968	557.01
68.8112	544.97
68.8256	552.35
68.8401	620.95
68.8545	544.03
68.8690	587.16
68.8834	607.69
68.8978	562.35
68.9123	601.06
68.9267	584.18
68.9412	571.12
68.9556	536.90
68.9700	586.06
68.9845	551.12
68.9989	581.78
69.0134	545.25
69.0278	582.10
69.0422	579.19
69.0567	571.68
69.0711	528.50
69.0856	549.14
69.1000	596.62
69.1144	553.69
69.1289	622.19
69.1433	548.47
69.1578	582.53
69.1722	566.29
69.1866	595.26
69.2011	556.90
69.2155	594.36
69.2300	537.91
69.2444	565.31
69.2588	524.82
69.2733	503.45
69.2877	577.84
69.3022	600.87
69.3166	565.14
69.3310	554.45
69.3455	571.85
69.3599	560.43
69.3744	563.47
69.3888	545.21
69.4032	566.80
69.4177	570.18
69.4321	588.78
69.4466	567.17
69.4610	570.63
69.4754	532.29
69.4899	583.51
69.5043	595.02
69.5188	554.08
69.5332	530.37
69.5476	542.00
69.5621	581.76
69.5765	624.66
69.5910	587.54
69.6054	558.51
69.6198	589.70
69.6343	621.27
69.6487	568.75
69.6632	603.54
69.6776	557.25
69.6920	557.32
69.7065	585.21
69.7209	573.32
69.7354	565.55
69.7498	597.00
69.7642	556.64
69.7787	580.23
69.7931	565.24
69.8076	561.45
69.8220	533.14
69.8364	594.49
69.8509	593.03
69.8653	582.32
69.8798	536.48
69.8942	587.43
69.9086	585.38
69.9231	614.25
69.9375	587.72
69.9520	511.76
69.9664	576.35
69.9808	553.24
69.9953	542.03
70.0097	575.09
70.0242	576.34
70.0386	584.94
70.0530	564.39
70.0675	559.53
70.0819	627.46
70.0964	592.73
70.1108	679.48
70.1252	621.02
70.1397	548.18
70.1541	540.43
70.1686	558.05
70.1830	606.38
70.1974	616.93
70.2119	590.10
70.2263	559.77
70.2408	586.48
70.2552	575.91
70.2696	568.06
70.2841	571.05
70.2985	535.40
70.3130	514.26
70.3274	556.99
70.3418	608.16
70.3563	610.91
70.3707	553.71
70.3852	542.32
70.3996	544.49
70.4140	580.32
70.4285	597.15
70.4429	585.64
70.4574	555.22
70.4718	553.58
70.4862	575.10
70.5007	571.45
70.5151	524.01
70.5296	579.56
70.5440	594.56
70.5584	565.23
70.5729	546.76
70.5873	583.70
70.6018	572.17
70.6162	598.61
70.6306	552.37
70.6451	526.55
70.6595	565.23
70.6740	524.87
70.6884	538.59
70.7028	620.91
70.7173	622.39
70.7317	588.44
70.7462	580.86
70.7606	577.42
70.7750	582.94
70.7895	559.86
70.8039	585.79
70.8184	572.14
70.8328	586.31
70.8472	554.59
70.8617	567.10
70.8761	543.57
70.8906	572.38
70.9050	550.61
70.9194	553.77
70.9339	598.42
70.9483	641.50
70.9628	616.65
70.9772	586.99
70.9916	589.97
71.0061	561.83
71.0205	594.76
71.0350	627.13
71.0494	571.69
71.0638	578.01
71.0783	645.01
71.0927	627.67
71.1072	623.05
71.1216	605.78
71.1361	614.80
71.1505	580.80
71.1649	572.09
71.1794	581.20
71.1938	600.81
71.2083	604.60
71.2227	517.90
71.2371	515.23
71.2516	574.59
71.2660	608.72
71.2805	566.47
71.2949	573.02
71.3093	559.66
71.3238	521.83
71.3382	580.83
71.3527	615.14
71.3671	597.58
71.3815	597.21
71.3960	592.64
71.4104	547.66
71.4249	588.12
71.4393	608.85
71.4537	594.51
71.4682	600.79
71.4826	579.26
71.4971	546.32
71.5115	562.78
71.5259	589.64
71.5404	580.19
71.5548	594.31
71.5693	569.75
71.5837	571.59
71.5981	534.83
71.6126	552.96
71.6270	560.91
71.6415	538.50
71.6559	551.22
71.6703	569.19
71.6848	568.59
71.6992	599.73
71.7137	587.96
71.7281	622.01
71.7425	602.20
71.7570	537.24
71.7714	586.18
71.7859	620.24
71.8003	634.57
71.8147	617.69
71.8292	635.97
71.8436	603.60
71.8581	550.34
71.8725	605.11
71.8869	638.28
71.9014	690.38
71.9158	589.10
71.9303	574.88
71.9447	574.50
71.9591	631.17
71.9736	624.98
71.9880	561.92
72.0025	549.62
72.0169	548.80
72.0313	559.46
72.0458	559.54
72.0602	546.34
72.0747	556.10
72.0891	557.16
72.1035	569.76
72.1180	599.89
72.1324	569.64
72.1469	519.74
72.1613	553.07
72.1757	637.81
72.1902	618.70
72.2046	615.35
72.2191	591.38
72.2335	545.87
72.2479	560.15
72.2624	560.90
72.2768	536.07
72.2913	603.25
72.3057	591.21
72.3201	571.43
72.3346	615.35
72.3490	610.62
72.3635	613.30
72.3779	605.60
72.3923	584.53
72.4068	572.17
72.4212	586.63
72.4357	642.54
72.4501	629.45
72.4645	633.42
72.4790	600.21
72.4934	563.15
72.5079	536.12
72.5223	541.65
72.5367	499.73
72.5512	525.78
72.5656	575.21
72.5801	527.49
72.5945	550.28
72.6089	470.14
72.6234	473.19
72.6378	510.58
72.6523	533.02
72.6667	587.85
72.6811	579.42
72.6956	540.41
72.7100	502.31
72.7245	487.93
72.7389	542.21
72.7533	556.21
72.7678	574.96
72.7822	646.05
72.7967	601.31
72.8111	622.99
72.8255	618.75
72.8400	495.20
72.8544	480.13
72.8689	519.93
72.8833	502.18