2022.09.19 19:37:16
Îáðàçåö: ß÷åéêà LCoV 16-09-2022
Lambda1 = 1.54060
Lambda2 = 1.54439
Lambdam = 1.54186
R = 0.497
2Theta	I

line¹ 0 ;repeat¹ 0
22.1120	552.09
22.1264	547.52
22.1409	554.67
22.1553	600.43
22.1697	573.56
22.1842	549.44
22.1986	512.96
22.2131	580.46
22.2275	597.70
22.2419	512.98
22.2564	517.23
22.2708	569.74
22.2853	569.69
22.2997	554.08
22.3141	616.83
22.3286	567.07
22.3430	601.57
22.3575	608.40
22.3719	567.06
22.3863	612.32
22.4008	644.07
22.4152	625.37
22.4297	721.53
22.4441	662.12
22.4585	680.54
22.4730	613.85
22.4874	549.40
22.5019	562.43
22.5163	555.24
22.5307	504.91
22.5452	543.48
22.5596	594.05
22.5741	542.43
22.5885	598.48
22.6029	674.66
22.6174	588.13
22.6318	523.91
22.6463	574.41
22.6607	615.08
22.6751	601.10
22.6896	588.63
22.7040	530.58
22.7185	551.24
22.7329	584.71
22.7473	581.96
22.7618	657.71
22.7762	595.61
22.7907	616.26
22.8051	578.53
22.8195	627.77
22.8340	555.10
22.8484	577.93
22.8629	579.51
22.8773	593.68
22.8917	556.44
22.9062	575.09
22.9206	517.66
22.9351	468.57
22.9495	531.93
22.9639	571.78
22.9784	633.20
22.9928	534.71
23.0073	543.68
23.0217	507.81
23.0361	489.84
23.0506	536.01
23.0650	550.94
23.0795	540.07
23.0939	581.93
23.1083	595.04
23.1228	559.78
23.1372	481.04
23.1517	497.24
23.1661	573.47
23.1806	564.62
23.1950	568.34
23.2094	596.97
23.2239	575.57
23.2383	581.20
23.2528	540.34
23.2672	557.41
23.2816	575.67
23.2961	540.38
23.3105	540.63
23.3250	466.76
23.3394	561.33
23.3538	547.20
23.3683	595.74
23.3827	525.81
23.3972	578.74
23.4116	595.81
23.4260	628.44
23.4405	620.95
23.4549	570.97
23.4694	540.60
23.4838	546.60
23.4982	583.96
23.5127	540.45
23.5271	551.95
23.5416	492.12
23.5560	551.47
23.5704	565.00
23.5849	602.21
23.5993	546.04
23.6138	526.49
23.6282	553.44
23.6426	554.93
23.6571	546.81
23.6715	534.08
23.6860	564.71
23.7004	586.13
23.7148	498.06
23.7293	518.66
23.7437	584.44
23.7582	609.80
23.7726	560.39
23.7870	503.16
23.8015	588.53
23.8159	571.08
23.8304	559.24
23.8448	524.84
23.8592	492.45
23.8737	537.85
23.8881	580.04
23.9026	540.23
23.9170	606.77
23.9314	549.58
23.9459	538.84
23.9603	512.17
23.9748	562.55
23.9892	530.70
24.0036	572.44
24.0181	525.30
24.0325	604.83
24.0470	540.69
24.0614	582.23
24.0758	527.58
24.0903	558.31
24.1047	614.73
24.1192	596.36
24.1336	584.14
24.1480	522.68
24.1625	583.61
24.1769	588.06
24.1914	552.43
24.2058	553.49
24.2202	550.14
24.2347	540.62
24.2491	518.57
24.2636	562.98
24.2780	606.80
24.2924	575.10
24.3069	550.27
24.3213	570.76
24.3358	597.81
24.3502	574.32
24.3646	586.41
24.3791	562.89
24.3935	513.47
24.4080	503.17
24.4224	559.69
24.4368	545.71
24.4513	582.90
24.4657	579.61
24.4802	529.23
24.4946	563.58
24.5090	525.23
24.5235	532.23
24.5379	568.80
24.5524	553.78
24.5668	604.41
24.5812	529.03
24.5957	584.49
24.6101	619.97
24.6246	576.17
24.6390	593.59
24.6534	535.46
24.6679	554.78
24.6823	552.52
24.6968	534.10
24.7112	590.36
24.7256	560.89
24.7401	541.67
24.7545	547.97
24.7690	479.65
24.7834	576.28
24.7978	563.39
24.8123	602.31
24.8267	586.36
24.8412	568.09
24.8556	515.87
24.8700	578.41
24.8845	563.16
24.8989	506.98
24.9134	555.75
24.9278	532.36
24.9422	522.98
24.9567	537.33
24.9711	501.30
24.9856	571.55
25.0000	574.46
25.0144	529.62
25.0289	517.81
25.0433	507.93
25.0578	517.51
25.0722	513.91
25.0866	534.75
25.1011	584.58
25.1155	575.50
25.1300	486.79
25.1444	548.84
25.1588	588.79
25.1733	551.22
25.1877	551.87
25.2022	547.56
25.2166	525.66
25.2310	528.66
25.2455	482.73
25.2599	457.67
25.2744	550.08
25.2888	549.25
25.3032	529.06
25.3177	538.61
25.3321	538.27
25.3466	550.49
25.3610	560.36
25.3754	539.77
25.3899	519.13
25.4043	523.13
25.4188	562.16
25.4332	506.04
25.4476	484.74
25.4621	532.03
25.4765	540.62
25.4910	541.15
25.5054	526.13
25.5198	540.93
25.5343	502.63
25.5487	525.88
25.5632	551.74
25.5776	515.73
25.5920	519.90
25.6065	557.71
25.6209	563.28
25.6354	536.78
25.6498	513.68
25.6642	546.73
25.6787	565.46
25.6931	490.87
25.7076	531.26
25.7220	542.22
25.7364	535.67
25.7509	541.95
25.7653	519.33
25.7798	563.60
25.7942	524.71
25.8086	499.79
25.8231	517.11
25.8375	524.84
25.8520	527.11
25.8664	520.92
25.8808	520.73
25.8953	539.32
25.9097	574.09
25.9242	517.99
25.9386	509.74
25.9530	528.03
25.9675	480.01
25.9819	495.55
25.9964	516.15
26.0108	565.90
26.0252	574.96
26.0397	568.34
26.0541	567.48
26.0686	537.46
26.0830	539.39
26.0974	513.69
26.1119	510.38
26.1263	537.57
26.1408	543.50
26.1552	547.98
26.1696	574.24
26.1841	580.44
26.1985	542.91
26.2130	533.29
26.2274	541.98
26.2418	538.91
26.2563	552.65
26.2707	591.49
26.2852	541.02
26.2996	517.01
26.3140	562.59
26.3285	563.60
26.3429	565.33
26.3574	520.39
26.3718	507.54
26.3862	526.69
26.4007	516.39
26.4151	534.73
26.4296	559.52
26.4440	560.78
26.4584	536.02
26.4729	540.57
26.4873	583.90
26.5018	516.92
26.5162	492.72
26.5306	521.56
26.5451	530.11
26.5595	539.76
26.5740	534.61
26.5884	557.92
26.6028	541.61
26.6173	527.80
26.6317	554.64
26.6462	555.03
26.6606	534.75
26.6750	519.32
26.6895	513.41
26.7039	532.99
26.7184	557.16
26.7328	502.34
26.7472	514.26
26.7617	538.31
26.7761	550.57
26.7906	557.93
26.8050	553.37
26.8194	534.22
26.8339	505.95
26.8483	524.69
26.8628	547.64
26.8772	535.50
26.8917	521.91
26.9061	542.32
26.9205	534.55
26.9350	565.84
26.9494	554.68
26.9639	509.99
26.9783	517.64
26.9927	536.66
27.0072	528.68
27.0216	531.63
27.0361	541.68
27.0505	511.89
27.0649	495.55
27.0794	524.76
27.0938	538.75
27.1083	507.86
27.1227	524.44
27.1371	486.79
27.1516	484.40
27.1660	541.69
27.1805	534.80
27.1949	490.48
27.2093	511.00
27.2238	528.82
27.2382	527.06
27.2527	526.51
27.2671	536.89
27.2815	560.85
27.2960	526.02
27.3104	530.27
27.3249	508.02
27.3393	552.66
27.3537	533.42
27.3682	508.27
27.3826	511.65
27.3971	518.17
27.4115	514.78
27.4259	546.90
27.4404	535.07
27.4548	533.01
27.4693	523.97
27.4837	527.52
27.4981	509.44
27.5126	533.80
27.5270	509.19
27.5415	535.91
27.5559	534.17
27.5703	538.06
27.5848	535.98
27.5992	526.50
27.6137	549.38
27.6281	524.85
27.6425	538.13
27.6570	512.40
27.6714	531.94
27.6859	529.84
27.7003	520.69
27.7147	529.62
27.7292	549.22
27.7436	550.30
27.7581	486.86
27.7725	529.48
27.7869	518.28
27.8014	525.42
27.8158	522.67
27.8303	524.32
27.8447	534.78
27.8591	526.45
27.8736	519.18
27.8880	494.89
27.9025	522.55
27.9169	542.30
27.9313	501.75
27.9458	557.96
27.9602	490.14
27.9747	541.83
27.9891	551.42
28.0035	519.17
28.0180	515.71
28.0324	514.90
28.0469	509.67
28.0613	513.77
28.0757	513.58
28.0902	514.50
28.1046	506.50
28.1191	492.01
28.1335	509.55
28.1479	508.67
28.1624	532.02
28.1768	502.97
28.1913	497.81
28.2057	530.03
28.2201	523.36
28.2346	532.06
28.2490	538.66
28.2635	533.44
28.2779	507.64
28.2923	523.80
28.3068	500.18
28.3212	505.03
28.3357	518.11
28.3501	514.90
28.3645	528.64
28.3790	505.08
28.3934	509.10
28.4079	522.20
28.4223	559.29
28.4367	569.62
28.4512	531.61
28.4656	498.97
28.4801	542.98
28.4945	522.50
28.5089	488.85
28.5234	482.93
28.5378	518.92
28.5523	532.03
28.5667	492.15
28.5811	511.14
28.5956	554.61
28.6100	509.47
28.6245	521.34
28.6389	513.07
28.6533	511.69
28.6678	514.28
28.6822	520.58
28.6967	492.73
28.7111	508.33
28.7255	529.94
28.7400	541.95
28.7544	458.55
28.7689	487.19
28.7833	518.19
28.7977	515.78
28.8122	534.91
28.8266	488.46
28.8411	546.24
28.8555	541.72
28.8699	531.63
28.8844	502.00
28.8988	529.66
28.9133	538.69
28.9277	514.11
28.9421	502.45
28.9566	513.14
28.9710	505.80
28.9855	559.86
28.9999	531.32
29.0143	518.65
29.0288	521.70
29.0432	517.95
29.0577	498.01
29.0721	495.75
29.0865	482.23
29.1010	524.45
29.1154	552.26
29.1299	534.98
29.1443	468.09
29.1587	470.04
29.1732	506.84
29.1876	513.08
29.2021	523.13
29.2165	508.78
29.2309	518.99
29.2454	509.88
29.2598	499.46
29.2743	482.87
29.2887	514.06
29.3031	487.05
29.3176	493.19
29.3320	561.73
29.3465	527.73
29.3609	531.16
29.3753	507.44
29.3898	502.43
29.4042	492.77
29.4187	496.77
29.4331	538.17
29.4475	514.23
29.4620	540.44
29.4764	520.13
29.4909	524.16
29.5053	485.87
29.5197	533.24
29.5342	508.12
29.5486	545.41
29.5631	528.52
29.5775	513.21
29.5919	507.99
29.6064	518.87
29.6208	546.20
29.6353	544.08
29.6497	549.25
29.6641	521.94
29.6786	509.37
29.6930	510.08
29.7075	527.64
29.7219	483.79
29.7363	501.65
29.7508	541.66
29.7652	510.58
29.7797	521.16
29.7941	503.76
29.8085	503.77
29.8230	510.63
29.8374	527.58
29.8519	571.66
29.8663	513.67
29.8807	515.80
29.8952	505.40
29.9096	564.05
29.9241	530.52
29.9385	525.81
29.9529	481.60
29.9674	506.64
29.9818	517.85
29.9963	516.50
30.0107	541.01
30.0251	539.37
30.0396	504.30
30.0540	519.92
30.0685	539.55
30.0829	503.79
30.0973	494.57
30.1118	505.36
30.1262	531.22
30.1407	514.73
30.1551	463.66
30.1695	530.45
30.1840	550.78
30.1984	511.29
30.2129	528.33
30.2273	524.52
30.2417	524.00
30.2562	495.87
30.2706	510.29
30.2851	535.88
30.2995	509.18
30.3139	469.54
30.3284	513.53
30.3428	555.77
30.3573	524.18
30.3717	504.59
30.3861	515.40
30.4006	527.26
30.4150	506.02
30.4295	496.47
30.4439	480.27
30.4583	514.10
30.4728	510.36
30.4872	544.36
30.5017	549.62
30.5161	545.37
30.5305	551.52
30.5450	569.41
30.5594	580.18
30.5739	632.26
30.5883	620.74
30.6028	648.96
30.6172	658.30
30.6316	686.98
30.6461	726.83
30.6605	742.35
30.6750	716.58
30.6894	724.23
30.7038	736.47
30.7183	703.77
30.7327	665.67
30.7472	648.94
30.7616	647.31
30.7760	614.39
30.7905	622.51
30.8049	597.66
30.8194	608.19
30.8338	584.38
30.8482	532.47
30.8627	569.24
30.8771	567.50
30.8916	511.49
30.9060	521.43
30.9204	532.72
30.9349	531.10
30.9493	487.75
30.9638	496.11
30.9782	490.90
30.9926	490.35
31.0071	547.09
31.0215	558.54
31.0360	515.42
31.0504	508.29
31.0648	503.33
31.0793	484.85
31.0937	513.48
31.1082	524.19
31.1226	552.99
31.1370	516.36
31.1515	521.81
31.1659	491.34
31.1804	524.34
31.1948	507.21
31.2092	519.22
31.2237	509.62
31.2381	510.74
31.2526	519.51
31.2670	510.33
31.2814	523.94
31.2959	531.55
31.3103	545.71
31.3248	532.85
31.3392	540.58
31.3536	525.83
31.3681	523.55
31.3825	514.01
31.3970	516.36
31.4114	535.37
31.4258	528.85
31.4403	494.36
31.4547	468.19
31.4692	487.00
31.4836	511.30
31.4980	498.14
31.5125	512.76
31.5269	516.60
31.5414	507.56
31.5558	513.03
31.5702	497.92
31.5847	485.76
31.5991	512.24
31.6136	518.59
31.6280	506.50
31.6424	510.33
31.6569	500.38
31.6713	495.27
31.6858	500.34
31.7002	508.19
31.7146	500.99
31.7291	513.11
31.7435	505.48
31.7580	488.03
31.7724	512.00
31.7868	557.77
31.8013	533.14
31.8157	563.25
31.8302	522.58
31.8446	513.10
31.8590	552.73
31.8735	544.97
31.8879	508.54
31.9024	491.15
31.9168	473.13
31.9312	516.36
31.9457	506.76
31.9601	509.24
31.9746	511.90
31.9890	523.03
32.0034	503.55
32.0179	530.43
32.0323	511.29
32.0468	479.10
32.0612	510.09
32.0756	500.70
32.0901	533.06
32.1045	510.73
32.1190	496.77
32.1334	518.92
32.1478	468.21
32.1623	497.43
32.1767	510.52
32.1912	513.52
32.2056	484.09
32.2200	519.08
32.2345	503.26
32.2489	530.51
32.2634	504.85
32.2778	518.90
32.2922	517.46
32.3067	495.24
32.3211	532.44
32.3356	500.74
32.3500	503.07
32.3644	530.64
32.3789	488.62
32.3933	506.66
32.4078	524.85
32.4222	491.92
32.4366	469.23
32.4511	503.92
32.4655	483.86
32.4800	499.50
32.4944	525.46
32.5088	514.24
32.5233	512.88
32.5377	527.85
32.5522	504.00
32.5666	486.25
32.5810	466.79
32.5955	470.51
32.6099	531.99
32.6244	495.41
32.6388	493.70
32.6532	490.65
32.6677	525.22
32.6821	493.57
32.6966	508.82
32.7110	534.46
32.7254	512.98
32.7399	493.38
32.7543	502.05
32.7688	526.62
32.7832	519.22
32.7976	475.64
32.8121	502.08
32.8265	490.86
32.8410	515.65
32.8554	511.01
32.8698	519.75
32.8843	517.82
32.8987	520.97
32.9132	517.01
32.9276	552.06
32.9420	555.35
32.9565	470.43
32.9709	507.62
32.9854	469.29
32.9998	481.64
33.0142	509.10
33.0287	527.55
33.0431	486.16
33.0576	484.88
33.0720	529.84
33.0864	510.51
33.1009	507.52
33.1153	521.54
33.1298	494.10
33.1442	483.67
33.1586	496.67
33.1731	529.72
33.1875	523.71
33.2020	540.95
33.2164	530.46
33.2308	525.22
33.2453	478.13
33.2597	510.32
33.2742	520.65
33.2886	496.67
33.3030	514.07
33.3175	516.61
33.3319	459.76
33.3464	492.28
33.3608	495.49
33.3752	479.15
33.3897	496.73
33.4041	477.52
33.4186	513.76
33.4330	507.64
33.4474	480.25
33.4619	514.43
33.4763	562.50
33.4908	522.46
33.5052	489.59
33.5196	509.46
33.5341	525.75
33.5485	519.58
33.5630	543.11
33.5774	534.85
33.5918	492.65
33.6063	504.11
33.6207	498.64
33.6352	521.53
33.6496	521.56
33.6640	508.40
33.6785	508.28
33.6929	497.27
33.7074	503.69
33.7218	505.46
33.7362	469.50
33.7507	489.52
33.7651	467.96
33.7796	461.06
33.7940	474.63
33.8084	526.09
33.8229	499.39
33.8373	494.05
33.8518	498.66
33.8662	526.91
33.8806	505.07
33.8951	528.03
33.9095	518.16
33.9240	480.94
33.9384	503.71
33.9528	512.95
33.9673	484.20
33.9817	491.74
33.9962	536.34
34.0106	537.29
34.0250	518.41
34.0395	506.28
34.0539	489.71
34.0684	514.94
34.0828	518.36
34.0972	487.10
34.1117	498.19
34.1261	525.76
34.1406	505.28
34.1550	488.92
34.1694	488.14
34.1839	495.18
34.1983	513.93
34.2128	534.68
34.2272	523.20
34.2417	525.50
34.2561	506.40
34.2705	498.21
34.2850	510.47
34.2994	507.79
34.3139	505.04
34.3283	530.22
34.3427	531.42
34.3572	502.69
34.3716	526.37
34.3861	515.42
34.4005	527.07
34.4149	508.79
34.4294	553.57
34.4438	504.76
34.4583	519.23
34.4727	512.67
34.4871	488.95
34.5016	474.51
34.5160	494.27
34.5305	507.91
34.5449	540.86
34.5593	519.24
34.5738	531.81
34.5882	522.43
34.6027	490.73
34.6171	530.60
34.6315	517.26
34.6460	491.81
34.6604	482.83
34.6749	493.06
34.6893	502.98
34.7037	495.16
34.7182	505.53
34.7326	503.95
34.7471	509.21
34.7615	509.05
34.7759	509.64
34.7904	531.20
34.8048	520.39
34.8193	545.96
34.8337	507.32
34.8481	498.81
34.8626	532.81
34.8770	509.81
34.8915	514.02
34.9059	486.71
34.9203	481.33
34.9348	497.22
34.9492	517.67
34.9637	492.93
34.9781	478.04
34.9925	504.70
35.0070	508.96
35.0214	566.73
35.0359	555.79
35.0503	530.59
35.0647	529.47
35.0792	506.72
35.0936	500.78
35.1081	520.31
35.1225	526.15
35.1369	515.65
35.1514	522.32
35.1658	513.22
35.1803	507.42
35.1947	508.62
35.2091	501.40
35.2236	480.65
35.2380	507.87
35.2525	526.05
35.2669	513.43
35.2813	554.05
35.2958	509.91
35.3102	496.70
35.3247	521.80
35.3391	510.58
35.3535	498.94
35.3680	538.42
35.3824	530.19
35.3969	477.93
35.4113	515.04
35.4257	535.59
35.4402	530.80
35.4546	528.18
35.4691	537.66
35.4835	543.17
35.4979	516.50
35.5124	502.26
35.5268	507.45
35.5413	501.11
35.5557	524.02
35.5701	532.99
35.5846	541.58
35.5990	537.57
35.6135	531.93
35.6279	539.11
35.6423	528.25
35.6568	524.06
35.6712	546.89
35.6857	584.03
35.7001	680.63
35.7145	716.34
35.7290	666.37
35.7434	619.22
35.7579	590.68
35.7723	616.45
35.7867	621.91
35.8012	663.66
35.8156	638.90
35.8301	641.19
35.8445	615.84
35.8589	619.22
35.8734	738.75
35.8878	878.38
35.9023	991.12
35.9167	1082.96
35.9311	1417.10
35.9456	2078.84
35.9600	2466.40
35.9745	2079.22
35.9889	1985.29
36.0033	2263.97
36.0178	2356.32
36.0322	2207.24
36.0467	2206.50
36.0611	2063.12
36.0755	2080.57
36.0900	1986.94
36.1044	1847.78
36.1189	1858.81
36.1333	1673.29
36.1477	1475.90
36.1622	1399.44
36.1766	1337.52
36.1911	1129.91
36.2055	1039.36
36.2199	942.98
36.2344	841.11
36.2488	751.41
36.2633	704.10
36.2777	673.44
36.2921	631.18
36.3066	624.36
36.3210	567.87
36.3355	562.06
36.3499	576.48
36.3643	582.26
36.3788	576.99
36.3932	510.68
36.4077	557.64
36.4221	525.93
36.4365	518.72
36.4510	517.63
36.4654	523.52
36.4799	546.79
36.4943	529.09
36.5087	490.68
36.5232	538.50
36.5376	538.04
36.5521	501.23
36.5665	553.22
36.5809	502.74
36.5954	505.83
36.6098	570.17
36.6243	553.31
36.6387	532.67
36.6531	516.85
36.6676	539.28
36.6820	530.18
36.6965	502.44
36.7109	525.73
36.7253	529.53
36.7398	535.13
36.7542	560.52
36.7687	532.04
36.7831	589.54
36.7975	586.44
36.8120	561.92
36.8264	567.96
36.8409	635.24
36.8553	619.47
36.8697	627.32
36.8842	582.89
36.8986	578.75
36.9131	596.07
36.9275	586.40
36.9419	587.39
36.9564	563.74
36.9708	574.72
36.9853	540.83
36.9997	573.88
37.0141	551.93
37.0286	558.72
37.0430	539.55
37.0575	533.02
37.0719	508.55
37.0863	518.74
37.1008	510.95
37.1152	528.13
37.1297	551.05
37.1441	486.47
37.1585	509.93
37.1730	517.06
37.1874	489.03
37.2019	496.30
37.2163	479.30
37.2307	505.11
37.2452	498.49
37.2596	499.40
37.2741	504.81
37.2885	524.34
37.3029	509.47
37.3174	520.70
37.3318	536.42
37.3463	536.08
37.3607	497.00
37.3751	507.25
37.3896	510.70
37.4040	509.18
37.4185	521.25
37.4329	543.92
37.4473	527.71
37.4618	538.88
37.4762	491.29
37.4907	493.65
37.5051	504.21
37.5195	469.00
37.5340	485.95
37.5484	496.17
37.5629	503.46
37.5773	501.76
37.5917	531.77
37.6062	517.88
37.6206	517.64
37.6351	499.38
37.6495	479.98
37.6639	510.56
37.6784	494.89
37.6928	498.14
37.7073	513.70
37.7217	521.31
37.7361	505.41
37.7506	500.53
37.7650	506.91
37.7795	530.09
37.7939	504.59
37.8083	516.88
37.8228	524.94
37.8372	496.99
37.8517	541.04
37.8661	525.18
37.8805	504.61
37.8950	531.87
37.9094	501.51
37.9239	534.38
37.9383	505.83
37.9528	532.64
37.9672	498.05
37.9816	509.23
37.9961	503.80
38.0105	483.25
38.0250	508.53
38.0394	488.78
38.0538	527.85
38.0683	522.57
38.0827	510.87
38.0972	528.98
38.1116	522.02
38.1260	544.76
38.1405	523.37
38.1549	514.53
38.1694	527.17
38.1838	518.49
38.1982	488.45
38.2127	494.81
38.2271	476.19
38.2416	511.55
38.2560	513.08
38.2704	519.17
38.2849	537.27
38.2993	533.06
38.3138	519.02
38.3282	525.52
38.3426	523.18
38.3571	502.93
38.3715	523.37
38.3860	508.35
38.4004	556.36
38.4148	546.62
38.4293	540.53
38.4437	556.59
38.4582	604.79
38.4726	656.43
38.4870	687.89
38.5015	773.90
38.5159	787.33
38.5304	766.95
38.5448	792.39
38.5592	793.18
38.5737	766.14
38.5881	770.30
38.6026	727.30
38.6170	694.17
38.6314	644.62
38.6459	642.19
38.6603	648.85
38.6748	615.23
38.6892	573.25
38.7036	593.39
38.7181	557.52
38.7325	551.24
38.7470	533.14
38.7614	520.58
38.7758	518.97
38.7903	525.36
38.8047	529.42
38.8192	532.51
38.8336	501.32
38.8480	506.92
38.8625	557.54
38.8769	517.85
38.8914	516.51
38.9058	499.64
38.9202	498.16
38.9347	499.80
38.9491	498.84
38.9636	498.27
38.9780	512.76
38.9924	505.12
39.0069	508.65
39.0213	539.29
39.0358	528.15
39.0502	479.27
39.0646	518.05
39.0791	489.50
39.0935	514.74
39.1080	528.04
39.1224	525.66
39.1368	507.22
39.1513	481.83
39.1657	477.92
39.1802	474.29
39.1946	475.66
39.2090	528.85
39.2235	507.62
39.2379	532.09
39.2524	497.70
39.2668	515.57
39.2812	510.71
39.2957	531.72
39.3101	508.59
39.3246	485.82
39.3390	499.34
39.3534	501.04
39.3679	471.21
39.3823	480.73
39.3968	497.43
39.4112	500.40
39.4256	498.87
39.4401	457.84
39.4545	493.79
39.4690	539.71
39.4834	547.70
39.4978	516.49
39.5123	517.45
39.5267	510.73
39.5412	497.37
39.5556	504.12
39.5700	504.18
39.5845	489.27
39.5989	485.46
39.6134	527.50
39.6278	480.76
39.6422	488.64
39.6567	478.14
39.6711	505.62
39.6856	523.96
39.7000	529.68
39.7144	484.63
39.7289	458.96
39.7433	483.35
39.7578	489.97
39.7722	490.58
39.7866	485.59
39.8011	483.02
39.8155	481.33
39.8300	550.67
39.8444	500.74
39.8588	504.62
39.8733	499.56
39.8877	498.83
39.9022	518.72
39.9166	505.64
39.9310	501.47
39.9455	525.57
39.9599	533.28
39.9744	521.68
39.9888	459.66
40.0032	443.05
40.0177	483.53
40.0321	495.81
40.0466	474.25
40.0610	484.78
40.0754	504.29
40.0899	502.43
40.1043	484.52
40.1188	535.23
40.1332	498.42
40.1476	482.30
40.1621	510.30
40.1765	505.53
40.1910	462.83
40.2054	477.64
40.2198	502.53
40.2343	473.81
40.2487	511.38
40.2632	484.61
40.2776	514.04
40.2920	505.29
40.3065	524.22
40.3209	507.41
40.3354	490.21
40.3498	498.37
40.3642	504.89
40.3787	489.86
40.3931	513.01
40.4076	491.31
40.4220	497.32
40.4364	531.76
40.4509	464.96
40.4653	527.12
40.4798	510.83
40.4942	542.78
40.5086	519.57
40.5231	506.28
40.5375	508.18
40.5520	505.43
40.5664	473.09
40.5808	538.40
40.5953	460.88
40.6097	498.80
40.6242	509.52
40.6386	486.74
40.6530	515.66
40.6675	502.25
40.6819	489.86
40.6964	507.22
40.7108	503.48
40.7252	500.98
40.7397	501.73
40.7541	515.59
40.7686	507.08
40.7830	556.97
40.7974	482.70
40.8119	527.35
40.8263	479.91
40.8408	470.14
40.8552	516.28
40.8696	481.73
40.8841	494.80
40.8985	492.77
40.9130	496.71
40.9274	500.33
40.9418	490.78
40.9563	481.93
40.9707	519.56
40.9852	503.12
40.9996	473.28
41.0140	533.83
41.0285	526.31
41.0429	498.68
41.0574	510.39
41.0718	489.78
41.0862	502.03
41.1007	487.23
41.1151	513.36
41.1296	523.39
41.1440	456.71
41.1584	507.60
41.1729	487.09
41.1873	507.41
41.2018	491.42
41.2162	501.90
41.2306	490.89
41.2451	497.24
41.2595	512.85
41.2740	522.50
41.2884	507.01
41.3028	516.58
41.3173	494.45
41.3317	493.39
41.3462	526.84
41.3606	513.42
41.3750	510.72
41.3895	515.65
41.4039	492.31
41.4184	474.05
41.4328	517.77
41.4472	486.02
41.4617	495.24
41.4761	523.48
41.4906	481.87
41.5050	516.36
41.5194	520.20
41.5339	503.64
41.5483	502.80
41.5628	515.12
41.5772	503.57
41.5916	505.39
41.6061	505.53
41.6205	498.17
41.6350	508.08
41.6494	476.23
41.6639	470.03
41.6783	517.25
41.6927	499.15
41.7072	503.48
41.7216	479.43
41.7361	467.13
41.7505	483.25
41.7649	517.94
41.7794	540.70
41.7938	501.48
41.8083	498.10
41.8227	509.13
41.8371	542.96
41.8516	513.60
41.8660	479.18
41.8805	524.77
41.8949	528.52
41.9093	528.57
41.9238	548.94
41.9382	558.55
41.9527	583.90
41.9671	544.49
41.9815	572.51
41.9960	571.66
42.0104	584.78
42.0249	544.76
42.0393	570.95
42.0537	565.81
42.0682	596.16
42.0826	592.95
42.0971	593.25
42.1115	598.51
42.1259	564.72
42.1404	584.61
42.1548	614.03
42.1693	658.65
42.1837	655.96
42.1981	734.91
42.2126	830.35
42.2270	895.59
42.2415	1025.49
42.2559	1170.72
42.2703	1279.87
42.2848	1496.68
42.2992	1638.51
42.3137	1686.04
42.3281	1685.10
42.3425	1591.13
42.3570	1450.16
42.3714	1392.30
42.3859	1370.33
42.4003	1326.80
42.4147	1354.46
42.4292	1255.67
42.4436	1101.86
42.4581	1006.62
42.4725	910.88
42.4869	840.00
42.5014	794.27
42.5158	693.15
42.5303	667.03
42.5447	634.04
42.5591	631.36
42.5736	620.32
42.5880	593.73
42.6025	562.59
42.6169	507.30
42.6313	546.73
42.6458	569.44
42.6602	571.42
42.6747	524.88
42.6891	520.60
42.7035	552.43
42.7180	517.72
42.7324	513.96
42.7469	499.04
42.7613	492.05
42.7757	521.03
42.7902	513.72
42.8046	503.08
42.8191	528.50
42.8335	537.77
42.8479	534.55
42.8624	515.83
42.8768	542.99
42.8913	510.62
42.9057	508.72
42.9201	533.46
42.9346	532.83
42.9490	487.56
42.9635	512.62
42.9779	535.48
42.9923	504.92
43.0068	485.30
43.0212	501.45
43.0357	485.24
43.0501	511.58
43.0645	517.65
43.0790	524.55
43.0934	511.46
43.1079	501.23
43.1223	509.19
43.1367	504.27
43.1512	504.92
43.1656	529.74
43.1801	550.19
43.1945	510.90
43.2089	492.20
43.2234	516.38
43.2378	549.94
43.2523	533.47
43.2667	542.82
43.2811	545.54
43.2956	545.13
43.3100	561.57
43.3245	521.28
43.3389	536.04
43.3533	513.04
43.3678	524.35
43.3822	503.43
43.3967	519.35
43.4111	499.26
43.4255	512.20
43.4400	515.30
43.4544	476.74
43.4689	539.99
43.4833	541.74
43.4977	542.83
43.5122	531.39
43.5266	532.67
43.5411	501.60
43.5555	516.26
43.5699	533.47
43.5844	527.54
43.5988	501.28
43.6133	525.44
43.6277	512.59
43.6421	512.35
43.6566	491.25
43.6710	518.09
43.6855	503.99
43.6999	521.07
43.7143	537.97
43.7288	556.44
43.7432	532.86
43.7577	533.12
43.7721	546.80
43.7865	578.46
43.8010	551.88
43.8154	578.31
43.8299	605.96
43.8443	628.34
43.8587	663.52
43.8732	675.96
43.8876	643.94
43.9021	663.81
43.9165	613.83
43.9309	597.19
43.9454	629.16
43.9598	569.45
43.9743	603.41
43.9887	622.82
44.0031	602.91
44.0176	576.78
44.0320	550.79
44.0465	529.30
44.0609	528.22
44.0753	536.33
44.0898	518.18
44.1042	519.15
44.1187	524.01
44.1331	546.83
44.1475	495.04
44.1620	516.72
44.1764	529.15
44.1909	522.07
44.2053	538.35
44.2197	533.20
44.2342	533.04
44.2486	562.62
44.2631	531.92
44.2775	501.88
44.2919	515.07
44.3064	554.07
44.3208	553.78
44.3353	569.77
44.3497	536.80
44.3641	541.11
44.3786	541.70
44.3930	516.75
44.4075	546.67
44.4219	572.03
44.4363	595.02
44.4508	573.64
44.4652	611.46
44.4797	585.83
44.4941	584.71
44.5085	547.30
44.5230	587.35
44.5374	596.44
44.5519	593.45
44.5663	602.81
44.5807	597.37
44.5952	553.68
44.6096	588.76
44.6241	550.57
44.6385	594.29
44.6529	571.39
44.6674	563.08
44.6818	593.42
44.6963	598.76
44.7107	664.59
44.7251	750.93
44.7396	729.73
44.7540	786.94
44.7685	830.39
44.7829	939.30
44.7973	880.46
44.8118	838.27
44.8262	815.04
44.8407	763.09
44.8551	720.37
44.8695	763.69
44.8840	749.40
44.8984	758.08
44.9129	726.62
44.9273	676.43
44.9417	622.28
44.9562	655.53
44.9706	621.68
44.9851	566.51
44.9995	532.25
45.0139	500.89
45.0284	516.15
45.0428	560.92
45.0573	526.60
45.0717	568.16
45.0861	496.59
45.1006	536.03
45.1150	530.98
45.1295	508.90
45.1439	509.15
45.1583	512.27
45.1728	521.08
45.1872	497.73
45.2017	490.66
45.2161	494.26
45.2305	505.81
45.2450	515.86
45.2594	522.04
45.2739	499.03
45.2883	495.76
45.3028	498.01
45.3172	518.76
45.3316	513.17
45.3461	491.55
45.3605	530.18
45.3750	491.48
45.3894	486.92
45.4038	507.09
45.4183	532.59
45.4327	551.26
45.4472	505.77
45.4616	470.12
45.4760	515.92
45.4905	497.97
45.5049	521.34
45.5194	514.33
45.5338	512.42
45.5482	489.52
45.5627	480.88
45.5771	509.63
45.5916	486.29
45.6060	509.47
45.6204	476.96
45.6349	515.05
45.6493	537.60
45.6638	529.10
45.6782	487.29
45.6926	511.60
45.7071	508.79
45.7215	502.20
45.7360	515.91
45.7504	540.67
45.7648	512.34
45.7793	506.48
45.7937	506.74
45.8082	507.62
45.8226	489.22
45.8370	488.61
45.8515	495.99
45.8659	507.69
45.8804	508.65
45.8948	480.41
45.9092	483.04
45.9237	512.96
45.9381	510.73
45.9526	509.71
45.9670	506.15
45.9814	505.76
45.9959	490.20
46.0103	481.23
46.0248	501.15
46.0392	477.55
46.0536	537.74
46.0681	503.61
46.0825	505.19
46.0970	526.43
46.1114	539.53
46.1258	519.96
46.1403	500.40
46.1547	518.17
46.1692	524.48
46.1836	495.89
46.1980	480.87
46.2125	516.04
46.2269	489.48
46.2414	471.93
46.2558	499.15
46.2702	498.38
46.2847	518.17
46.2991	510.33
46.3136	522.86
46.3280	515.68
46.3424	516.40
46.3569	492.63
46.3713	489.05
46.3858	489.05
46.4002	475.42
46.4146	474.46
46.4291	504.30
46.4435	489.54
46.4580	502.19
46.4724	541.71
46.4868	533.44
46.5013	497.82
46.5157	489.05
46.5302	499.48
46.5446	521.96
46.5590	492.57
46.5735	470.81
46.5879	508.75
46.6024	541.71
46.6168	518.73
46.6312	508.08
46.6457	503.77
46.6601	468.22
46.6746	466.22
46.6890	444.32
46.7034	501.62
46.7179	498.99
46.7323	466.58
46.7468	495.08
46.7612	491.98
46.7756	488.76
46.7901	487.03
46.8045	492.82
46.8190	503.01
46.8334	503.70
46.8478	514.82
46.8623	487.11
46.8767	511.80
46.8912	485.59
46.9056	493.60
46.9200	482.24
46.9345	514.37
46.9489	515.65
46.9634	526.75
46.9778	516.60
46.9922	510.66
47.0067	489.89
47.0211	518.63
47.0356	526.56
47.0500	535.71
47.0644	513.70
47.0789	485.47
47.0933	535.76
47.1078	542.64
47.1222	506.81
47.1366	515.56
47.1511	477.56
47.1655	508.90
47.1800	550.89
47.1944	481.19
47.2088	474.63
47.2233	468.39
47.2377	506.68
47.2522	513.21
47.2666	522.65
47.2810	513.38
47.2955	485.85
47.3099	527.65
47.3244	513.44
47.3388	497.27
47.3532	502.54
47.3677	523.40
47.3821	512.65
47.3966	501.58
47.4110	476.11
47.4254	525.08
47.4399	518.42
47.4543	514.67
47.4688	529.39
47.4832	531.97
47.4976	521.53
47.5121	478.45
47.5265	486.95
47.5410	525.18
47.5554	525.88
47.5698	507.86
47.5843	499.49
47.5987	498.81
47.6132	514.88
47.6276	512.92
47.6420	506.40
47.6565	481.39
47.6709	494.91
47.6854	520.61
47.6998	541.75
47.7142	533.44
47.7287	501.21
47.7431	487.27
47.7576	506.06
47.7720	479.43
47.7864	495.77
47.8009	484.23
47.8153	492.80
47.8298	517.26
47.8442	499.39
47.8586	526.92
47.8731	527.24
47.8875	505.44
47.9020	519.46
47.9164	513.19
47.9308	546.98
47.9453	522.80
47.9597	474.36
47.9742	491.01
47.9886	510.83
48.0030	548.67
48.0175	523.63
48.0319	520.28
48.0464	500.42
48.0608	511.88
48.0752	522.05
48.0897	548.46
48.1041	512.87
48.1186	510.74
48.1330	529.78
48.1474	487.65
48.1619	494.15
48.1763	473.78
48.1908	514.92
48.2052	489.05
48.2196	512.14
48.2341	511.90
48.2485	519.20
48.2630	478.72
48.2774	508.18
48.2918	507.13
48.3063	510.66
48.3207	536.69
48.3352	518.30
48.3496	472.88
48.3640	503.76
48.3785	513.87
48.3929	529.64
48.4074	538.75
48.4218	533.67
48.4362	536.91
48.4507	529.66
48.4651	499.55
48.4796	522.18
48.4940	500.19
48.5084	514.51
48.5229	503.57
48.5373	497.52
48.5518	512.52
48.5662	493.40
48.5806	518.06
48.5951	506.54
48.6095	543.49
48.6240	527.04
48.6384	540.45
48.6528	517.64
48.6673	495.13
48.6817	522.81
48.6962	524.42
48.7106	535.84
48.7250	513.72
48.7395	503.22
48.7539	530.61
48.7684	536.79
48.7828	554.11
48.7972	520.70
48.8117	537.98
48.8261	569.56
48.8406	508.40
48.8550	554.89
48.8694	560.71
48.8839	559.42
48.8983	560.55
48.9128	553.45
48.9272	556.53
48.9416	566.34
48.9561	572.92
48.9705	545.54
48.9850	544.76
48.9994	530.93
49.0139	562.61
49.0283	611.47
49.0427	607.58
49.0572	618.60
49.0716	636.42
49.0861	690.08
49.1005	721.57
49.1149	706.06
49.1294	742.60
49.1438	733.99
49.1583	731.63
49.1727	812.62
49.1871	900.02
49.2016	909.74
49.2160	931.53
49.2305	1031.77
49.2449	1156.61
49.2593	1208.97
49.2738	1289.48
49.2882	1429.77
49.3027	1523.09
49.3171	1584.31
49.3315	1677.98
49.3460	1740.36
49.3604	1767.11
49.3749	1818.47
49.3893	1712.21
49.4037	1801.29
49.4182	1772.93
49.4326	1674.20
49.4471	1614.46
49.4615	1605.47
49.4759	1562.29
49.4904	1497.48
49.5048	1379.03
49.5193	1282.43
49.5337	1296.07
49.5481	1190.45
49.5626	1132.34
49.5770	1086.02
49.5915	966.25
49.6059	928.24
49.6203	884.50
49.6348	843.02
49.6492	789.13
49.6637	738.86
49.6781	735.08
49.6925	676.36
49.7070	666.78
49.7214	653.52
49.7359	616.04
49.7503	630.46
49.7647	610.67
49.7792	618.97
49.7936	596.64
49.8081	596.34
49.8225	543.07
49.8369	584.48
49.8514	589.25
49.8658	572.11
49.8803	555.12
49.8947	556.63
49.9091	550.65
49.9236	532.37
49.9380	526.08
49.9525	529.13
49.9669	522.22
49.9813	541.24
49.9958	547.99
50.0102	506.26
50.0247	525.27
50.0391	511.22
50.0535	511.90
50.0680	516.51
50.0824	524.21
50.0969	517.05
50.1113	532.25
50.1257	534.03
50.1402	536.19
50.1546	509.43
50.1691	524.28
50.1835	492.05
50.1979	495.69
50.2124	530.03
50.2268	523.31
50.2413	502.91
50.2557	503.32
50.2701	499.83
50.2846	533.16
50.2990	483.16
50.3135	500.10
50.3279	525.68
50.3423	496.41
50.3568	504.00
50.3712	499.47
50.3857	493.53
50.4001	502.68
50.4145	505.15
50.4290	515.71
50.4434	505.65
50.4579	501.15
50.4723	505.42
50.4867	478.32
50.5012	512.00
50.5156	527.51
50.5301	496.61
50.5445	520.56
50.5589	533.14
50.5734	503.94
50.5878	510.91
50.6023	503.13
50.6167	543.87
50.6311	526.33
50.6456	514.32
50.6600	503.10
50.6745	514.96
50.6889	457.99
50.7033	514.38
50.7178	510.93
50.7322	499.61
50.7467	507.68
50.7611	528.15
50.7755	529.29
50.7900	515.63
50.8044	517.19
50.8189	507.14
50.8333	489.14
50.8477	506.61
50.8622	517.36
50.8766	520.07
50.8911	498.51
50.9055	539.10
50.9199	531.84
50.9344	530.37
50.9488	524.89
50.9633	507.63
50.9777	491.66
50.9921	489.22
51.0066	549.16
51.0210	555.13
51.0355	533.46
51.0499	510.47
51.0643	502.53
51.0788	500.04
51.0932	546.42
51.1077	514.94
51.1221	505.44
51.1365	514.46
51.1510	511.78
51.1654	509.81
51.1799	534.03
51.1943	508.53
51.2087	488.92
51.2232	508.36
51.2376	517.92
51.2521	525.62
51.2665	518.04
51.2809	507.15
51.2954	489.68
51.3098	517.78
51.3243	513.56
51.3387	506.04
51.3531	536.65
51.3676	536.54
51.3820	502.80
51.3965	485.89
51.4109	502.92
51.4253	496.57
51.4398	499.82
51.4542	504.64
51.4687	525.76
51.4831	498.10
51.4975	511.95
51.5120	505.77
51.5264	507.29
51.5409	516.66
51.5553	518.82
51.5697	513.99
51.5842	513.67
51.5986	537.11
51.6131	546.10
51.6275	519.57
51.6419	493.87
51.6564	468.71
51.6708	513.03
51.6853	509.97
51.6997	510.92
51.7141	514.27
51.7286	510.99
51.7430	509.97
51.7575	539.55
51.7719	531.79
51.7863	490.68
51.8008	533.41
51.8152	531.49
51.8297	513.88
51.8441	513.39
51.8585	516.45
51.8730	530.75
51.8874	501.42
51.9019	543.84
51.9163	508.02
51.9307	530.07
51.9452	485.56
51.9596	490.51
51.9741	497.18
51.9885	508.93
52.0029	476.50
52.0174	496.41
52.0318	529.10
52.0463	505.18
52.0607	502.75
52.0751	481.28
52.0896	478.40
52.1040	532.34
52.1185	498.74
52.1329	475.21
52.1473	485.85
52.1618	474.07
52.1762	515.69
52.1907	495.15
52.2051	496.87
52.2195	524.55
52.2340	500.85
52.2484	542.48
52.2629	523.31
52.2773	526.18
52.2917	514.05
52.3062	543.99
52.3206	515.89
52.3351	522.47
52.3495	521.75
52.3639	497.26
52.3784	483.14
52.3928	508.71
52.4073	495.04
52.4217	534.75
52.4361	540.01
52.4506	533.31
52.4650	538.13
52.4795	563.28
52.4939	507.52
52.5083	515.43
52.5228	503.76
52.5372	527.02
52.5517	525.23
52.5661	508.47
52.5805	487.97
52.5950	498.50
52.6094	500.76
52.6239	496.23
52.6383	505.07
52.6527	512.00
52.6672	515.61
52.6816	496.71
52.6961	496.04
52.7105	508.92
52.7250	529.93
52.7394	513.80
52.7538	520.13
52.7683	510.24
52.7827	539.32
52.7972	537.65
52.8116	531.26
52.8260	514.03
52.8405	501.92
52.8549	509.59
52.8694	547.74
52.8838	516.24
52.8982	506.23
52.9127	534.33
52.9271	530.57
52.9416	514.21
52.9560	458.14
52.9704	514.26
52.9849	507.56
52.9993	512.26
53.0138	518.32
53.0282	484.10
53.0426	516.40
53.0571	525.43
53.0715	499.03
53.0860	516.33
53.1004	500.99
53.1148	514.58
53.1293	515.39
53.1437	501.61
53.1582	509.71
53.1726	539.70
53.1870	529.03
53.2015	492.65
53.2159	490.32
53.2304	516.29
53.2448	533.35
53.2592	530.60
53.2737	507.09
53.2881	504.58
53.3026	507.54
53.3170	506.53
53.3314	512.95
53.3459	489.46
53.3603	516.88
53.3748	498.58
53.3892	500.88
53.4036	527.18
53.4181	525.51
53.4325	558.61
53.4470	538.68
53.4614	541.25
53.4758	523.86
53.4903	529.70
53.5047	493.65
53.5192	500.29
53.5336	513.81
53.5480	511.32
53.5625	548.63
53.5769	526.26
53.5914	519.37
53.6058	509.96
53.6202	554.47
53.6347	490.74
53.6491	514.73
53.6636	506.62
53.6780	477.37
53.6924	536.50
53.7069	527.38
53.7213	526.97
53.7358	495.49
53.7502	502.29
53.7646	499.88
53.7791	519.76
53.7935	513.02
53.8080	516.53
53.8224	519.93
53.8368	517.37
53.8513	506.44
53.8657	530.07
53.8802	499.30
53.8946	501.28
53.9090	514.76
53.9235	550.67
53.9379	508.68
53.9524	517.84
53.9668	487.32
53.9812	492.54
53.9957	490.26
54.0101	514.90
54.0246	498.69
54.0390	554.41
54.0534	533.18
54.0679	539.42
54.0823	526.94
54.0968	524.91
54.1112	536.05
54.1256	543.94
54.1401	518.42
54.1545	516.54
54.1690	524.54
54.1834	535.25
54.1978	524.57
54.2123	523.41
54.2267	544.64
54.2412	526.24
54.2556	505.15
54.2700	518.29
54.2845	555.28
54.2989	557.25
54.3134	577.59
54.3278	564.16
54.3422	582.88
54.3567	617.64
54.3711	584.98
54.3856	588.84
54.4000	607.93
54.4144	596.80
54.4289	630.08
54.4433	617.95
54.4578	612.71
54.4722	653.73
54.4866	666.24
54.5011	649.79
54.5155	611.97
54.5300	608.71
54.5444	574.82
54.5588	558.32
54.5733	567.33
54.5877	590.93
54.6022	562.57
54.6166	572.44
54.6310	582.78
54.6455	581.95
54.6599	528.65
54.6744	540.71
54.6888	540.98
54.7032	548.67
54.7177	523.85
54.7321	523.30
54.7466	543.35
54.7610	542.45
54.7754	530.32
54.7899	500.11
54.8043	504.70
54.8188	517.93
54.8332	505.79
54.8476	565.64
54.8621	556.30
54.8765	543.88
54.8910	498.52
54.9054	540.23
54.9198	549.78
54.9343	531.28
54.9487	526.11
54.9632	523.06
54.9776	477.33
54.9920	509.88
55.0065	520.08
55.0209	528.53
55.0354	527.08
55.0498	539.07
55.0642	520.91
55.0787	527.88
55.0931	525.94
55.1076	540.65
55.1220	546.09
55.1364	515.38
55.1509	471.90
55.1653	527.18
55.1798	506.00
55.1942	509.43
55.2086	500.72
55.2231	536.01
55.2375	516.94
55.2520	518.74
55.2664	511.63
55.2808	521.69
55.2953	519.51
55.3097	517.38
55.3242	514.60
55.3386	528.80
55.3530	520.58
55.3675	502.08
55.3819	523.59
55.3964	523.01
55.4108	498.89
55.4252	503.29
55.4397	530.78
55.4541	558.71
55.4686	494.28
55.4830	538.43
55.4974	528.00
55.5119	537.98
55.5263	563.49
55.5408	544.64
55.5552	519.74
55.5696	531.82
55.5841	504.70
55.5985	535.01
55.6130	554.04
55.6274	546.69
55.6418	583.24
55.6563	548.02
55.6707	540.42
55.6852	542.67
55.6996	564.02
55.7140	513.81
55.7285	494.50
55.7429	529.38
55.7574	505.32
55.7718	508.67
55.7862	539.21
55.8007	525.36
55.8151	506.44
55.8296	540.11
55.8440	549.56
55.8584	527.84
55.8729	554.67
55.8873	512.73
55.9018	536.47
55.9162	492.65
55.9306	526.62
55.9451	552.14
55.9595	524.71
55.9740	494.61
55.9884	466.50
56.0028	468.24
56.0173	528.30
56.0317	506.79
56.0462	482.83
56.0606	538.75
56.0750	586.33
56.0895	527.96
56.1039	495.34
56.1184	543.24
56.1328	537.81
56.1472	523.56
56.1617	528.91
56.1761	520.67
56.1906	532.84
56.2050	530.38
56.2194	479.68
56.2339	517.53
56.2483	554.07
56.2628	503.34
56.2772	518.66
56.2916	497.25
56.3061	502.44
56.3205	531.08
56.3350	505.40
56.3494	519.39
56.3639	542.16
56.3783	551.58
56.3927	490.90
56.4072	532.17
56.4216	580.72
56.4361	524.51
56.4505	528.74
56.4649	540.78
56.4794	526.62
56.4938	523.34
56.5083	489.63
56.5227	498.49
56.5371	522.56
56.5516	494.78
56.5660	497.68
56.5805	500.04
56.5949	519.75
56.6093	536.47
56.6238	535.67
56.6382	527.81
56.6527	507.94
56.6671	499.46
56.6815	469.90
56.6960	535.36
56.7104	536.09
56.7249	523.08
56.7393	531.33
56.7537	539.94
56.7682	531.24
56.7826	522.34
56.7971	527.01
56.8115	531.19
56.8259	513.50
56.8404	497.23
56.8548	546.45
56.8693	526.83
56.8837	517.08
56.8981	541.02
56.9126	513.14
56.9270	474.17
56.9415	537.46
56.9559	514.50
56.9703	514.83
56.9848	495.97
56.9992	494.83
57.0137	538.74
57.0281	502.53
57.0425	516.40
57.0570	515.72
57.0714	558.29
57.0859	530.74
57.1003	506.14
57.1147	535.72
57.1292	542.62
57.1436	519.51
57.1581	493.46
57.1725	547.01
57.1869	533.01
57.2014	533.33
57.2158	523.95
57.2303	538.13
57.2447	495.79
57.2591	515.08
57.2736	532.00
57.2880	526.46
57.3025	544.06
57.3169	524.62
57.3313	499.28
57.3458	506.56
57.3602	518.61
57.3747	528.03
57.3891	539.40
57.4035	478.67
57.4180	503.93
57.4324	528.30
57.4469	532.09
57.4613	496.37
57.4757	539.68
57.4902	568.62
57.5046	547.23
57.5191	544.95
57.5335	538.89
57.5479	517.61
57.5624	497.28
57.5768	577.20
57.5913	510.22
57.6057	492.10
57.6201	518.11
57.6346	540.74
57.6490	544.65
57.6635	530.72
57.6779	550.07
57.6923	534.85
57.7068	544.79
57.7212	510.51
57.7357	531.69
57.7501	546.81
57.7645	489.60
57.7790	510.37
57.7934	539.33
57.8079	538.67
57.8223	557.40
57.8367	570.93
57.8512	554.94
57.8656	549.51
57.8801	562.60
57.8945	610.70
57.9089	573.34
57.9234	587.14
57.9378	616.03
57.9523	602.67
57.9667	595.78
57.9811	618.23
57.9956	648.26
58.0100	670.09
58.0245	712.74
58.0389	720.24
58.0533	730.53
58.0678	707.00
58.0822	709.12
58.0967	663.28
58.1111	639.21
58.1255	670.21
58.1400	688.16
58.1544	612.59
58.1689	650.18
58.1833	654.96
58.1977	633.14
58.2122	666.43
58.2266	635.30
58.2411	651.49
58.2555	679.10
58.2699	631.87
58.2844	653.71
58.2988	606.83
58.3133	587.86
58.3277	583.81
58.3421	594.66
58.3566	578.10
58.3710	537.12
58.3855	550.06
58.3999	535.41
58.4143	523.56
58.4288	558.85
58.4432	554.88
58.4577	529.29
58.4721	548.04
58.4865	525.04
58.5010	510.68
58.5154	512.93
58.5299	558.53
58.5443	561.53
58.5587	534.39
58.5732	548.24
58.5876	533.77
58.6021	537.54
58.6165	567.51
58.6309	559.81
58.6454	527.43
58.6598	501.32
58.6743	527.86
58.6887	532.30
58.7031	560.51
58.7176	541.57
58.7320	518.79
58.7465	528.09
58.7609	532.49
58.7753	531.29
58.7898	532.43
58.8042	546.57
58.8187	535.18
58.8331	564.82
58.8475	590.93
58.8620	541.04
58.8764	524.40
58.8909	568.53
58.9053	552.62
58.9197	536.19
58.9342	541.52
58.9486	546.13
58.9631	534.35
58.9775	506.01
58.9919	523.11
59.0064	544.53
59.0208	533.99
59.0353	549.31
59.0497	535.21
59.0641	527.22
59.0786	537.80
59.0930	530.64
59.1075	497.25
59.1219	557.08
59.1363	557.91
59.1508	527.02
59.1652	534.81
59.1797	529.01
59.1941	506.71
59.2085	547.65
59.2230	567.27
59.2374	587.39
59.2519	563.60
59.2663	547.86
59.2807	527.99
59.2952	543.46
59.3096	538.31
59.3241	529.89
59.3385	552.07
59.3529	548.55
59.3674	540.45
59.3818	539.62
59.3963	579.56
59.4107	569.45
59.4251	569.98
59.4396	558.48
59.4540	564.38
59.4685	571.85
59.4829	566.71
59.4973	542.86
59.5118	543.45
59.5262	536.99
59.5407	534.24
59.5551	554.32
59.5695	528.65
59.5840	515.56
59.5984	514.09
59.6129	499.71
59.6273	511.97
59.6417	535.92
59.6562	534.86
59.6706	525.78
59.6851	511.79
59.6995	521.02
59.7139	524.54
59.7284	507.56
59.7428	487.12
59.7573	565.70
59.7717	563.83
59.7861	542.51
59.8006	564.42
59.8150	519.44
59.8295	544.78
59.8439	517.27
59.8583	595.34
59.8728	536.73
59.8872	545.42
59.9017	527.56
59.9161	554.69
59.9305	576.91
59.9450	594.47
59.9594	584.38
59.9739	559.04
59.9883	517.06
60.0027	482.19
60.0172	525.09
60.0316	573.54
60.0461	585.66
60.0605	536.62
60.0750	541.88
60.0894	531.71
60.1038	556.64
60.1183	526.45
60.1327	552.19
60.1472	511.85
60.1616	509.43
60.1760	505.73
60.1905	530.62
60.2049	519.59
60.2194	522.82
60.2338	541.90
60.2482	547.44
60.2627	546.14
60.2771	533.31
60.2916	525.80
60.3060	589.55
60.3204	580.69
60.3349	524.76
60.3493	520.26
60.3638	503.12
60.3782	540.87
60.3926	545.08
60.4071	500.80
60.4215	567.14
60.4360	532.21
60.4504	572.60
60.4648	560.97
60.4793	520.87
60.4937	530.87
60.5082	527.27
60.5226	537.21
60.5370	527.11
60.5515	558.58
60.5659	562.69
60.5804	516.57
60.5948	540.71
60.6092	546.36
60.6237	553.54
60.6381	559.46
60.6526	506.03
60.6670	514.36
60.6814	548.86
60.6959	560.97
60.7103	549.99
60.7248	575.99
60.7392	523.81
60.7536	541.60
60.7681	542.32
60.7825	533.36
60.7970	547.52
60.8114	557.75
60.8258	515.87
60.8403	541.62
60.8547	540.40
60.8692	557.02
60.8836	540.21
60.8980	553.98
60.9125	599.49
60.9269	600.10
60.9414	604.35
60.9558	558.34
60.9702	526.12
60.9847	559.08
60.9991	516.12
61.0136	535.66
61.0280	535.69
61.0424	541.73
61.0569	590.10
61.0713	567.47
61.0858	551.25
61.1002	541.14
61.1146	572.24
61.1291	560.87
61.1435	551.55
61.1580	534.53
61.1724	548.37
61.1868	500.41
61.2013	540.50
61.2157	545.67
61.2302	581.73
61.2446	563.67
61.2590	590.22
61.2735	544.28
61.2879	560.64
61.3024	525.53
61.3168	524.94
61.3312	532.36
61.3457	576.52
61.3601	539.89
61.3746	511.07
61.3890	550.15
61.4034	528.76
61.4179	571.44
61.4323	538.40
61.4468	537.89
61.4612	534.44
61.4756	559.93
61.4901	589.20
61.5045	518.57
61.5190	516.29
61.5334	530.13
61.5478	542.39
61.5623	526.43
61.5767	503.83
61.5912	539.53
61.6056	560.97
61.6200	531.29
61.6345	546.52
61.6489	541.57
61.6634	508.51
61.6778	515.36
61.6922	529.22
61.7067	572.24
61.7211	576.92
61.7356	551.13
61.7500	556.85
61.7644	532.95
61.7789	544.90
61.7933	534.09
61.8078	554.25
61.8222	525.60
61.8366	561.49
61.8511	526.28
61.8655	579.99
61.8800	567.76
61.8944	533.92
61.9088	567.74
61.9233	565.27
61.9377	545.79
61.9522	539.00
61.9666	547.52
61.9810	536.46
61.9955	550.20
62.0099	545.25
62.0244	566.20
62.0388	545.67
62.0532	546.38
62.0677	567.05
62.0821	555.02
62.0966	536.13
62.1110	553.79
62.1254	581.09
62.1399	555.74
62.1543	525.43
62.1688	567.44
62.1832	545.00
62.1976	508.43
62.2121	507.00
62.2265	530.29
62.2410	543.64
62.2554	551.65
62.2698	539.01
62.2843	578.16
62.2987	575.16
62.3132	556.16
62.3276	536.81
62.3420	554.70
62.3565	556.59
62.3709	528.39
62.3854	569.50
62.3998	555.01
62.4142	526.03
62.4287	568.01
62.4431	569.99
62.4576	538.13
62.4720	551.40
62.4864	591.11
62.5009	582.01
62.5153	562.30
62.5298	559.19
62.5442	524.31
62.5586	544.04
62.5731	552.70
62.5875	515.14
62.6020	537.59
62.6164	534.03
62.6308	540.42
62.6453	542.25
62.6597	552.98
62.6742	544.07
62.6886	536.05
62.7030	589.20
62.7175	577.59
62.7319	535.79
62.7464	525.81
62.7608	560.70
62.7752	562.91
62.7897	580.50
62.8041	562.89
62.8186	566.93
62.8330	555.82
62.8474	589.78
62.8619	604.16
62.8763	545.66
62.8908	541.20
62.9052	571.34
62.9196	558.69
62.9341	591.17
62.9485	596.89
62.9630	523.59
62.9774	530.13
62.9918	552.14
63.0063	528.73
63.0207	551.48
63.0352	564.01
63.0496	575.22
63.0640	561.66
63.0785	581.08
63.0929	605.27
63.1074	587.27
63.1218	576.28
63.1362	581.24
63.1507	562.27
63.1651	563.79
63.1796	588.44
63.1940	586.19
63.2084	574.20
63.2229	557.44
63.2373	563.27
63.2518	598.76
63.2662	600.43
63.2806	610.89
63.2951	570.65
63.3095	615.24
63.3240	583.91
63.3384	574.74
63.3528	613.48
63.3673	563.45
63.3817	555.50
63.3962	553.78
63.4106	565.06
63.4250	623.10
63.4395	606.01
63.4539	586.84
63.4684	604.84
63.4828	600.98
63.4972	621.49
63.5117	623.40
63.5261	611.13
63.5406	594.88
63.5550	618.76
63.5694	609.21
63.5839	667.74
63.5983	698.00
63.6128	642.05
63.6272	643.42
63.6416	689.06
63.6561	690.70
63.6705	681.33
63.6850	740.52
63.6994	783.94
63.7138	845.14
63.7283	835.65
63.7427	877.02
63.7572	899.99
63.7716	909.98
63.7861	843.49
63.8005	853.40
63.8149	862.15
63.8294	871.14
63.8438	796.92
63.8583	791.63
63.8727	782.78
63.8871	756.10
63.9016	766.25
63.9160	825.72
63.9305	783.93
63.9449	826.93
63.9593	771.60
63.9738	757.05
63.9882	792.22
64.0027	737.78
64.0171	722.79
64.0315	694.55
64.0460	693.68
64.0604	642.68
64.0749	664.23
64.0893	655.00
64.1037	642.07
64.1182	626.16
64.1326	631.81
64.1471	617.15
64.1615	616.70
64.1759	625.89
64.1904	630.48
64.2048	601.20
64.2193	624.62
64.2337	606.37
64.2481	637.80
64.2626	608.37
64.2770	614.46
64.2915	612.95
64.3059	617.14
64.3203	616.44
64.3348	624.64
64.3492	619.97
64.3637	628.34
64.3781	603.40
64.3925	643.98
64.4070	615.14
64.4214	646.71
64.4359	650.28
64.4503	606.68
64.4647	604.50
64.4792	667.14
64.4936	594.34
64.5081	608.87
64.5225	649.04
64.5369	656.19
64.5514	602.85
64.5658	614.14
64.5803	660.06
64.5947	640.90
64.6091	661.37
64.6236	647.05
64.6380	643.11
64.6525	633.45
64.6669	678.48
64.6813	681.99
64.6958	670.06
64.7102	700.10
64.7247	709.31
64.7391	654.87
64.7535	670.20
64.7680	702.46
64.7824	744.73
64.7969	735.26
64.8113	754.60
64.8257	785.61
64.8402	844.76
64.8546	841.51
64.8691	844.22
64.8835	822.35
64.8979	827.31
64.9124	917.98
64.9268	854.73
64.9413	914.08
64.9557	923.75
64.9701	991.20
64.9846	1020.90
64.9990	1157.12
65.0135	1256.17
65.0279	1489.05
65.0423	1722.75
65.0568	2082.67
65.0712	2623.16
65.0857	3526.99
65.1001	4593.10
65.1145	6091.07
65.1290	8166.38
65.1434	9758.84
65.1579	11162.15
65.1723	12025.76
65.1867	11403.30
65.2012	10099.73
65.2156	8389.32
65.2301	6507.65
65.2445	5479.44
65.2589	4527.69
65.2734	4255.67
65.2878	4471.77
65.3023	4940.67
65.3167	5817.44
65.3311	6583.09
65.3456	7046.06
65.3600	7053.15
65.3745	6454.30
65.3889	5538.07
65.4033	4506.65
65.4178	3479.44
65.4322	2685.83
65.4467	2130.72
65.4611	1714.59
65.4755	1475.74
65.4900	1356.21
65.5044	1177.81
65.5189	1044.15
65.5333	957.99
65.5477	951.68
65.5622	917.02
65.5766	902.11
65.5911	862.43
65.6055	818.88
65.6199	787.27
65.6344	801.25
65.6488	736.45
65.6633	694.64
65.6777	703.66
65.6921	695.00
65.7066	722.35
65.7210	683.73
65.7355	687.69
65.7499	698.49
65.7643	669.23
65.7788	682.84
65.7932	664.21
65.8077	676.39
65.8221	666.70
65.8365	667.79
65.8510	634.16
65.8654	644.94
65.8799	664.53
65.8943	670.24
65.9087	663.75
65.9232	636.35
65.9376	660.03
65.9521	613.22
65.9665	630.99
65.9809	606.20
65.9954	614.44
66.0098	634.22
66.0243	630.79
66.0387	628.72
66.0531	629.64
66.0676	651.62
66.0820	638.01
66.0965	646.49
66.1109	649.90
66.1253	630.26
66.1398	598.20
66.1542	605.23
66.1687	637.85
66.1831	592.19
66.1975	591.04
66.2120	623.57
66.2264	602.81
66.2409	626.22
66.2553	605.83
66.2697	606.96
66.2842	612.91
66.2986	597.77
66.3131	583.17
66.3275	606.35
66.3419	633.60
66.3564	577.56
66.3708	566.47
66.3853	612.86
66.3997	605.78
66.4141	566.79
66.4286	629.17
66.4430	612.68
66.4575	596.56
66.4719	610.75
66.4863	596.78
66.5008	605.28
66.5152	593.62
66.5297	594.35
66.5441	633.71
66.5585	604.76
66.5730	552.89
66.5874	589.21
66.6019	594.33
66.6163	571.32
66.6307	599.92
66.6452	621.82
66.6596	595.62
66.6741	556.03
66.6885	573.47
66.7029	581.85
66.7174	568.22
66.7318	564.14
66.7463	587.93
66.7607	597.11
66.7751	598.74
66.7896	621.15
66.8040	581.34
66.8185	588.69
66.8329	607.56
66.8473	579.18
66.8618	574.65
66.8762	601.30
66.8907	581.82
66.9051	602.28
66.9195	613.37
66.9340	601.78
66.9484	600.61
66.9629	580.99
66.9773	565.55
66.9917	563.98
67.0062	590.03
67.0206	595.84
67.0351	586.70
67.0495	578.72
67.0639	591.68
67.0784	591.97
67.0928	623.35
67.1073	588.82
67.1217	629.55
67.1361	595.26
67.1506	590.39
67.1650	606.27
67.1795	570.93
67.1939	567.62
67.2083	621.14
67.2228	607.54
67.2372	577.87
67.2517	560.33
67.2661	564.57
67.2805	590.47
67.2950	604.34
67.3094	579.50
67.3239	585.46
67.3383	590.38
67.3527	560.07
67.3672	598.81
67.3816	581.94
67.3961	555.91
67.4105	575.94
67.4250	591.15
67.4394	546.34
67.4538	543.34
67.4683	580.69
67.4827	570.17
67.4972	567.35
67.5116	575.67
67.5260	579.67
67.5405	612.82
67.5549	614.10
67.5694	562.20
67.5838	577.78
67.5982	550.58
67.6127	624.58
67.6271	606.65
67.6416	626.05
67.6560	573.52
67.6704	585.51
67.6849	565.47
67.6993	576.09
67.7138	596.42
67.7282	590.88
67.7426	564.57
67.7571	578.68
67.7715	576.61
67.7860	567.34
67.8004	574.44
67.8148	535.63
67.8293	571.31
67.8437	556.92
67.8582	583.92
67.8726	626.91
67.8870	600.77
67.9015	621.37
67.9159	578.93
67.9304	558.14
67.9448	649.11
67.9592	553.32
67.9737	571.60
67.9881	571.07
68.0026	583.28
68.0170	583.00
68.0314	590.67
68.0459	558.38
68.0603	557.01
68.0748	576.79
68.0892	598.41
68.1036	618.82
68.1181	600.74
68.1325	598.53
68.1470	558.12
68.1614	580.61
68.1758	603.10
68.1903	579.25
68.2047	570.82
68.2192	572.89
68.2336	538.17
68.2480	581.13
68.2625	542.57
68.2769	580.29
68.2914	594.12
68.3058	561.21
68.3202	581.10
68.3347	595.64
68.3491	601.27
68.3636	567.56
68.3780	559.20
68.3924	556.65
68.4069	554.07
68.4213	582.08
68.4358	618.24
68.4502	552.84
68.4646	567.42
68.4791	561.43
68.4935	575.09
68.5080	586.21
68.5224	589.60
68.5368	621.27
68.5513	598.45
68.5657	594.75
68.5802	556.94
68.5946	583.53
68.6090	544.11
68.6235	559.76
68.6379	574.02
68.6524	623.11
68.6668	548.83
68.6812	583.48
68.6957	563.19
68.7101	573.47
68.7246	532.91
68.7390	547.79
68.7534	624.46
68.7679	567.65
68.7823	559.89
68.7968	569.61
68.8112	562.68
68.8256	539.20
68.8401	588.91
68.8545	536.26
68.8690	544.96
68.8834	598.44
68.8978	566.46
68.9123	551.90
68.9267	590.94
68.9412	586.26
68.9556	561.15
68.9700	554.97
68.9845	594.70
68.9989	555.41
69.0134	547.91
69.0278	577.60
69.0422	580.28
69.0567	585.52
69.0711	610.06
69.0856	560.20
69.1000	628.56
69.1144	613.78
69.1289	590.90
69.1433	501.26
69.1578	525.35
69.1722	580.39
69.1866	572.83
69.2011	627.28
69.2155	626.70
69.2300	562.59
69.2444	606.24
69.2588	606.67
69.2733	573.79
69.2877	581.11
69.3022	544.53
69.3166	569.70
69.3310	623.26
69.3455	602.00
69.3599	592.84
69.3744	562.53
69.3888	607.56
69.4032	579.18
69.4177	596.79
69.4321	602.82
69.4466	612.24
69.4610	594.77
69.4754	593.66
69.4899	583.68
69.5043	622.34
69.5188	599.18
69.5332	627.45
69.5476	610.40
69.5621	566.27
69.5765	554.77
69.5910	562.17
69.6054	611.86
69.6198	586.86
69.6343	570.62
69.6487	576.75
69.6632	563.15
69.6776	575.95
69.6920	575.87
69.7065	625.96
69.7209	610.52
69.7354	549.72
69.7498	558.40
69.7642	579.14
69.7787	579.40
69.7931	613.25
69.8076	608.95
69.8220	595.36
69.8364	565.56
69.8509	537.97
69.8653	567.58
69.8798	558.77
69.8942	588.64
69.9086	585.41
69.9231	540.64
69.9375	549.52
69.9520	553.52
69.9664	547.45
69.9808	558.64
69.9953	587.42
70.0097	561.92
70.0242	583.45
70.0386	604.44
70.0530	589.90
70.0675	569.44
70.0819	559.32
70.0964	557.60
70.1108	577.65
70.1252	588.19
70.1397	566.28
70.1541	526.46
70.1686	580.16
70.1830	554.11
70.1974	557.32
70.2119	585.34
70.2263	582.63
70.2408	592.53
70.2552	575.86
70.2696	609.70
70.2841	598.21
70.2985	556.29
70.3130	545.36
70.3274	559.88
70.3418	599.40
70.3563	613.20
70.3707	580.10
70.3852	595.84
70.3996	602.72
70.4140	571.45
70.4285	604.61
70.4429	579.57
70.4574	599.60
70.4718	652.38
70.4862	571.97
70.5007	542.93
70.5151	547.26
70.5296	569.22
70.5440	544.37
70.5584	559.63
70.5729	552.94
70.5873	569.60
70.6018	578.70
70.6162	588.82
70.6306	603.22
70.6451	581.59
70.6595	570.58
70.6740	546.75
70.6884	535.95
70.7028	623.27
70.7173	608.82
70.7317	561.21
70.7462	581.59
70.7606	540.68
70.7750	583.22
70.7895	624.82
70.8039	589.79
70.8184	562.71
70.8328	614.24
70.8472	584.13
70.8617	527.63
70.8761	561.53
70.8906	594.69
70.9050	577.35
70.9194	631.96
70.9339	692.22
70.9483	617.00
70.9628	553.41
70.9772	530.17
70.9916	552.14
71.0061	578.98
71.0205	557.80
71.0350	561.11
71.0494	586.26
71.0638	581.72
71.0783	561.67
71.0927	563.98
71.1072	567.99
71.1216	563.31
71.1361	571.21
71.1505	567.38
71.1649	529.43
71.1794	497.38
71.1938	526.87
71.2083	581.44
71.2227	578.86
71.2371	637.03
71.2516	609.56
71.2660	530.21
71.2805	576.74
71.2949	588.57
71.3093	552.21
71.3238	556.20
71.3382	546.83
71.3527	563.49
71.3671	585.38
71.3815	521.01
71.3960	562.73
71.4104	536.44
71.4249	558.61
71.4393	567.27
71.4537	554.71
71.4682	529.39
71.4826	540.24
71.4971	566.38
71.5115	587.42
71.5259	622.44
71.5404	609.15
71.5548	564.03
71.5693	597.03
71.5837	587.95
71.5981	547.68
71.6126	534.50
71.6270	586.16
71.6415	546.37
71.6559	569.96
71.6703	596.64
71.6848	602.20
71.6992	643.60
71.7137	590.85
71.7281	593.73
71.7425	566.48
71.7570	556.49
71.7714	593.62
71.7859	551.91
71.8003	614.16
71.8147	632.29
71.8292	564.43
71.8436	600.10
71.8581	567.64
71.8725	526.27
71.8869	533.91
71.9014	554.90
71.9158	593.35
71.9303	627.07
71.9447	562.71
71.9591	537.99
71.9736	596.13
71.9880	576.93
72.0025	638.34
72.0169	598.12
72.0313	567.72
72.0458	548.04
72.0602	603.33
72.0747	627.51
72.0891	583.56
72.1035	613.38
72.1180	587.86
72.1324	618.68
72.1469	605.68
72.1613	553.73
72.1757	507.56
72.1902	529.61
72.2046	546.34
72.2191	512.78
72.2335	535.23
72.2479	594.37
72.2624	573.99
72.2768	633.01
72.2913	580.86
72.3057	502.09
72.3201	562.30
72.3346	557.46
72.3490	530.42
72.3635	598.10
72.3779	607.54
72.3923	597.51
72.4068	558.88
72.4212	603.89
72.4357	617.45
72.4501	538.49
72.4645	577.92
72.4790	589.54
72.4934	561.47
72.5079	593.84
72.5223	616.42
72.5367	609.60
72.5512	583.86
72.5656	595.45
72.5801	641.39
72.5945	596.84
72.6089	579.59
72.6234	567.01
72.6378	570.60
72.6523	599.52
72.6667	594.16
72.6811	586.03
72.6956	653.44
72.7100	606.38
72.7245	550.29
72.7389	609.78
72.7533	601.14
72.7678	561.25
72.7822	616.32
72.7967	689.91
72.8111	696.28
72.8255	690.54
72.8400	639.64
72.8544	626.39
72.8689	568.86
72.8833	532.49

Result vector
22.1120	552.09
22.1264	547.52
22.1409	554.67
22.1553	600.43
22.1697	573.56
22.1842	549.44
22.1986	512.96
22.2131	580.46
22.2275	597.70
22.2419	512.98
22.2564	517.23
22.2708	569.74
22.2853	569.69
22.2997	554.08
22.3141	616.83
22.3286	567.07
22.3430	601.57
22.3575	608.40
22.3719	567.06
22.3863	612.32
22.4008	644.07
22.4152	625.37
22.4297	721.53
22.4441	662.12
22.4585	680.54
22.4730	613.85
22.4874	549.40
22.5019	562.43
22.5163	555.24
22.5307	504.91
22.5452	543.48
22.5596	594.05
22.5741	542.43
22.5885	598.48
22.6029	674.66
22.6174	588.13
22.6318	523.91
22.6463	574.41
22.6607	615.08
22.6751	601.10
22.6896	588.63
22.7040	530.58
22.7185	551.24
22.7329	584.71
22.7473	581.96
22.7618	657.71
22.7762	595.61
22.7907	616.26
22.8051	578.53
22.8195	627.77
22.8340	555.10
22.8484	577.93
22.8629	579.51
22.8773	593.68
22.8917	556.44
22.9062	575.09
22.9206	517.66
22.9351	468.57
22.9495	531.93
22.9639	571.78
22.9784	633.20
22.9928	534.71
23.0073	543.68
23.0217	507.81
23.0361	489.84
23.0506	536.01
23.0650	550.94
23.0795	540.07
23.0939	581.93
23.1083	595.04
23.1228	559.78
23.1372	481.04
23.1517	497.24
23.1661	573.47
23.1806	564.62
23.1950	568.34
23.2094	596.97
23.2239	575.57
23.2383	581.20
23.2528	540.34
23.2672	557.41
23.2816	575.67
23.2961	540.38
23.3105	540.63
23.3250	466.76
23.3394	561.33
23.3538	547.20
23.3683	595.74
23.3827	525.81
23.3972	578.74
23.4116	595.81
23.4260	628.44
23.4405	620.95
23.4549	570.97
23.4694	540.60
23.4838	546.60
23.4982	583.96
23.5127	540.45
23.5271	551.95
23.5416	492.12
23.5560	551.47
23.5704	565.00
23.5849	602.21
23.5993	546.04
23.6138	526.49
23.6282	553.44
23.6426	554.93
23.6571	546.81
23.6715	534.08
23.6860	564.71
23.7004	586.13
23.7148	498.06
23.7293	518.66
23.7437	584.44
23.7582	609.80
23.7726	560.39
23.7870	503.16
23.8015	588.53
23.8159	571.08
23.8304	559.24
23.8448	524.84
23.8592	492.45
23.8737	537.85
23.8881	580.04
23.9026	540.23
23.9170	606.77
23.9314	549.58
23.9459	538.84
23.9603	512.17
23.9748	562.55
23.9892	530.70
24.0036	572.44
24.0181	525.30
24.0325	604.83
24.0470	540.69
24.0614	582.23
24.0758	527.58
24.0903	558.31
24.1047	614.73
24.1192	596.36
24.1336	584.14
24.1480	522.68
24.1625	583.61
24.1769	588.06
24.1914	552.43
24.2058	553.49
24.2202	550.14
24.2347	540.62
24.2491	518.57
24.2636	562.98
24.2780	606.80
24.2924	575.10
24.3069	550.27
24.3213	570.76
24.3358	597.81
24.3502	574.32
24.3646	586.41
24.3791	562.89
24.3935	513.47
24.4080	503.17
24.4224	559.69
24.4368	545.71
24.4513	582.90
24.4657	579.61
24.4802	529.23
24.4946	563.58
24.5090	525.23
24.5235	532.23
24.5379	568.80
24.5524	553.78
24.5668	604.41
24.5812	529.03
24.5957	584.49
24.6101	619.97
24.6246	576.17
24.6390	593.59
24.6534	535.46
24.6679	554.78
24.6823	552.52
24.6968	534.10
24.7112	590.36
24.7256	560.89
24.7401	541.67
24.7545	547.97
24.7690	479.65
24.7834	576.28
24.7978	563.39
24.8123	602.31
24.8267	586.36
24.8412	568.09
24.8556	515.87
24.8700	578.41
24.8845	563.16
24.8989	506.98
24.9134	555.75
24.9278	532.36
24.9422	522.98
24.9567	537.33
24.9711	501.30
24.9856	571.55
25.0000	574.46
25.0144	529.62
25.0289	517.81
25.0433	507.93
25.0578	517.51
25.0722	513.91
25.0866	534.75
25.1011	584.58
25.1155	575.50
25.1300	486.79
25.1444	548.84
25.1588	588.79
25.1733	551.22
25.1877	551.87
25.2022	547.56
25.2166	525.66
25.2310	528.66
25.2455	482.73
25.2599	457.67
25.2744	550.08
25.2888	549.25
25.3032	529.06
25.3177	538.61
25.3321	538.27
25.3466	550.49
25.3610	560.36
25.3754	539.77
25.3899	519.13
25.4043	523.13
25.4188	562.16
25.4332	506.04
25.4476	484.74
25.4621	532.03
25.4765	540.62
25.4910	541.15
25.5054	526.13
25.5198	540.93
25.5343	502.63
25.5487	525.88
25.5632	551.74
25.5776	515.73
25.5920	519.90
25.6065	557.71
25.6209	563.28
25.6354	536.78
25.6498	513.68
25.6642	546.73
25.6787	565.46
25.6931	490.87
25.7076	531.26
25.7220	542.22
25.7364	535.67
25.7509	541.95
25.7653	519.33
25.7798	563.60
25.7942	524.71
25.8086	499.79
25.8231	517.11
25.8375	524.84
25.8520	527.11
25.8664	520.92
25.8808	520.73
25.8953	539.32
25.9097	574.09
25.9242	517.99
25.9386	509.74
25.9530	528.03
25.9675	480.01
25.9819	495.55
25.9964	516.15
26.0108	565.90
26.0252	574.96
26.0397	568.34
26.0541	567.48
26.0686	537.46
26.0830	539.39
26.0974	513.69
26.1119	510.38
26.1263	537.57
26.1408	543.50
26.1552	547.98
26.1696	574.24
26.1841	580.44
26.1985	542.91
26.2130	533.29
26.2274	541.98
26.2418	538.91
26.2563	552.65
26.2707	591.49
26.2852	541.02
26.2996	517.01
26.3140	562.59
26.3285	563.60
26.3429	565.33
26.3574	520.39
26.3718	507.54
26.3862	526.69
26.4007	516.39
26.4151	534.73
26.4296	559.52
26.4440	560.78
26.4584	536.02
26.4729	540.57
26.4873	583.90
26.5018	516.92
26.5162	492.72
26.5306	521.56
26.5451	530.11
26.5595	539.76
26.5740	534.61
26.5884	557.92
26.6028	541.61
26.6173	527.80
26.6317	554.64
26.6462	555.03
26.6606	534.75
26.6750	519.32
26.6895	513.41
26.7039	532.99
26.7184	557.16
26.7328	502.34
26.7472	514.26
26.7617	538.31
26.7761	550.57
26.7906	557.93
26.8050	553.37
26.8194	534.22
26.8339	505.95
26.8483	524.69
26.8628	547.64
26.8772	535.50
26.8917	521.91
26.9061	542.32
26.9205	534.55
26.9350	565.84
26.9494	554.68
26.9639	509.99
26.9783	517.64
26.9927	536.66
27.0072	528.68
27.0216	531.63
27.0361	541.68
27.0505	511.89
27.0649	495.55
27.0794	524.76
27.0938	538.75
27.1083	507.86
27.1227	524.44
27.1371	486.79
27.1516	484.40
27.1660	541.69
27.1805	534.80
27.1949	490.48
27.2093	511.00
27.2238	528.82
27.2382	527.06
27.2527	526.51
27.2671	536.89
27.2815	560.85
27.2960	526.02
27.3104	530.27
27.3249	508.02
27.3393	552.66
27.3537	533.42
27.3682	508.27
27.3826	511.65
27.3971	518.17
27.4115	514.78
27.4259	546.90
27.4404	535.07
27.4548	533.01
27.4693	523.97
27.4837	527.52
27.4981	509.44
27.5126	533.80
27.5270	509.19
27.5415	535.91
27.5559	534.17
27.5703	538.06
27.5848	535.98
27.5992	526.50
27.6137	549.38
27.6281	524.85
27.6425	538.13
27.6570	512.40
27.6714	531.94
27.6859	529.84
27.7003	520.69
27.7147	529.62
27.7292	549.22
27.7436	550.30
27.7581	486.86
27.7725	529.48
27.7869	518.28
27.8014	525.42
27.8158	522.67
27.8303	524.32
27.8447	534.78
27.8591	526.45
27.8736	519.18
27.8880	494.89
27.9025	522.55
27.9169	542.30
27.9313	501.75
27.9458	557.96
27.9602	490.14
27.9747	541.83
27.9891	551.42
28.0035	519.17
28.0180	515.71
28.0324	514.90
28.0469	509.67
28.0613	513.77
28.0757	513.58
28.0902	514.50
28.1046	506.50
28.1191	492.01
28.1335	509.55
28.1479	508.67
28.1624	532.02
28.1768	502.97
28.1913	497.81
28.2057	530.03
28.2201	523.36
28.2346	532.06
28.2490	538.66
28.2635	533.44
28.2779	507.64
28.2923	523.80
28.3068	500.18
28.3212	505.03
28.3357	518.11
28.3501	514.90
28.3645	528.64
28.3790	505.08
28.3934	509.10
28.4079	522.20
28.4223	559.29
28.4367	569.62
28.4512	531.61
28.4656	498.97
28.4801	542.98
28.4945	522.50
28.5089	488.85
28.5234	482.93
28.5378	518.92
28.5523	532.03
28.5667	492.15
28.5811	511.14
28.5956	554.61
28.6100	509.47
28.6245	521.34
28.6389	513.07
28.6533	511.69
28.6678	514.28
28.6822	520.58
28.6967	492.73
28.7111	508.33
28.7255	529.94
28.7400	541.95
28.7544	458.55
28.7689	487.19
28.7833	518.19
28.7977	515.78
28.8122	534.91
28.8266	488.46
28.8411	546.24
28.8555	541.72
28.8699	531.63
28.8844	502.00
28.8988	529.66
28.9133	538.69
28.9277	514.11
28.9421	502.45
28.9566	513.14
28.9710	505.80
28.9855	559.86
28.9999	531.32
29.0143	518.65
29.0288	521.70
29.0432	517.95
29.0577	498.01
29.0721	495.75
29.0865	482.23
29.1010	524.45
29.1154	552.26
29.1299	534.98
29.1443	468.09
29.1587	470.04
29.1732	506.84
29.1876	513.08
29.2021	523.13
29.2165	508.78
29.2309	518.99
29.2454	509.88
29.2598	499.46
29.2743	482.87
29.2887	514.06
29.3031	487.05
29.3176	493.19
29.3320	561.73
29.3465	527.73
29.3609	531.16
29.3753	507.44
29.3898	502.43
29.4042	492.77
29.4187	496.77
29.4331	538.17
29.4475	514.23
29.4620	540.44
29.4764	520.13
29.4909	524.16
29.5053	485.87
29.5197	533.24
29.5342	508.12
29.5486	545.41
29.5631	528.52
29.5775	513.21
29.5919	507.99
29.6064	518.87
29.6208	546.20
29.6353	544.08
29.6497	549.25
29.6641	521.94
29.6786	509.37
29.6930	510.08
29.7075	527.64
29.7219	483.79
29.7363	501.65
29.7508	541.66
29.7652	510.58
29.7797	521.16
29.7941	503.76
29.8085	503.77
29.8230	510.63
29.8374	527.58
29.8519	571.66
29.8663	513.67
29.8807	515.80
29.8952	505.40
29.9096	564.05
29.9241	530.52
29.9385	525.81
29.9529	481.60
29.9674	506.64
29.9818	517.85
29.9963	516.50
30.0107	541.01
30.0251	539.37
30.0396	504.30
30.0540	519.92
30.0685	539.55
30.0829	503.79
30.0973	494.57
30.1118	505.36
30.1262	531.22
30.1407	514.73
30.1551	463.66
30.1695	530.45
30.1840	550.78
30.1984	511.29
30.2129	528.33
30.2273	524.52
30.2417	524.00
30.2562	495.87
30.2706	510.29
30.2851	535.88
30.2995	509.18
30.3139	469.54
30.3284	513.53
30.3428	555.77
30.3573	524.18
30.3717	504.59
30.3861	515.40
30.4006	527.26
30.4150	506.02
30.4295	496.47
30.4439	480.27
30.4583	514.10
30.4728	510.36
30.4872	544.36
30.5017	549.62
30.5161	545.37
30.5305	551.52
30.5450	569.41
30.5594	580.18
30.5739	632.26
30.5883	620.74
30.6028	648.96
30.6172	658.30
30.6316	686.98
30.6461	726.83
30.6605	742.35
30.6750	716.58
30.6894	724.23
30.7038	736.47
30.7183	703.77
30.7327	665.67
30.7472	648.94
30.7616	647.31
30.7760	614.39
30.7905	622.51
30.8049	597.66
30.8194	608.19
30.8338	584.38
30.8482	532.47
30.8627	569.24
30.8771	567.50
30.8916	511.49
30.9060	521.43
30.9204	532.72
30.9349	531.10
30.9493	487.75
30.9638	496.11
30.9782	490.90
30.9926	490.35
31.0071	547.09
31.0215	558.54
31.0360	515.42
31.0504	508.29
31.0648	503.33
31.0793	484.85
31.0937	513.48
31.1082	524.19
31.1226	552.99
31.1370	516.36
31.1515	521.81
31.1659	491.34
31.1804	524.34
31.1948	507.21
31.2092	519.22
31.2237	509.62
31.2381	510.74
31.2526	519.51
31.2670	510.33
31.2814	523.94
31.2959	531.55
31.3103	545.71
31.3248	532.85
31.3392	540.58
31.3536	525.83
31.3681	523.55
31.3825	514.01
31.3970	516.36
31.4114	535.37
31.4258	528.85
31.4403	494.36
31.4547	468.19
31.4692	487.00
31.4836	511.30
31.4980	498.14
31.5125	512.76
31.5269	516.60
31.5414	507.56
31.5558	513.03
31.5702	497.92
31.5847	485.76
31.5991	512.24
31.6136	518.59
31.6280	506.50
31.6424	510.33
31.6569	500.38
31.6713	495.27
31.6858	500.34
31.7002	508.19
31.7146	500.99
31.7291	513.11
31.7435	505.48
31.7580	488.03
31.7724	512.00
31.7868	557.77
31.8013	533.14
31.8157	563.25
31.8302	522.58
31.8446	513.10
31.8590	552.73
31.8735	544.97
31.8879	508.54
31.9024	491.15
31.9168	473.13
31.9312	516.36
31.9457	506.76
31.9601	509.24
31.9746	511.90
31.9890	523.03
32.0034	503.55
32.0179	530.43
32.0323	511.29
32.0468	479.10
32.0612	510.09
32.0756	500.70
32.0901	533.06
32.1045	510.73
32.1190	496.77
32.1334	518.92
32.1478	468.21
32.1623	497.43
32.1767	510.52
32.1912	513.52
32.2056	484.09
32.2200	519.08
32.2345	503.26
32.2489	530.51
32.2634	504.85
32.2778	518.90
32.2922	517.46
32.3067	495.24
32.3211	532.44
32.3356	500.74
32.3500	503.07
32.3644	530.64
32.3789	488.62
32.3933	506.66
32.4078	524.85
32.4222	491.92
32.4366	469.23
32.4511	503.92
32.4655	483.86
32.4800	499.50
32.4944	525.46
32.5088	514.24
32.5233	512.88
32.5377	527.85
32.5522	504.00
32.5666	486.25
32.5810	466.79
32.5955	470.51
32.6099	531.99
32.6244	495.41
32.6388	493.70
32.6532	490.65
32.6677	525.22
32.6821	493.57
32.6966	508.82
32.7110	534.46
32.7254	512.98
32.7399	493.38
32.7543	502.05
32.7688	526.62
32.7832	519.22
32.7976	475.64
32.8121	502.08
32.8265	490.86
32.8410	515.65
32.8554	511.01
32.8698	519.75
32.8843	517.82
32.8987	520.97
32.9132	517.01
32.9276	552.06
32.9420	555.35
32.9565	470.43
32.9709	507.62
32.9854	469.29
32.9998	481.64
33.0142	509.10
33.0287	527.55
33.0431	486.16
33.0576	484.88
33.0720	529.84
33.0864	510.51
33.1009	507.52
33.1153	521.54
33.1298	494.10
33.1442	483.67
33.1586	496.67
33.1731	529.72
33.1875	523.71
33.2020	540.95
33.2164	530.46
33.2308	525.22
33.2453	478.13
33.2597	510.32
33.2742	520.65
33.2886	496.67
33.3030	514.07
33.3175	516.61
33.3319	459.76
33.3464	492.28
33.3608	495.49
33.3752	479.15
33.3897	496.73
33.4041	477.52
33.4186	513.76
33.4330	507.64
33.4474	480.25
33.4619	514.43
33.4763	562.50
33.4908	522.46
33.5052	489.59
33.5196	509.46
33.5341	525.75
33.5485	519.58
33.5630	543.11
33.5774	534.85
33.5918	492.65
33.6063	504.11
33.6207	498.64
33.6352	521.53
33.6496	521.56
33.6640	508.40
33.6785	508.28
33.6929	497.27
33.7074	503.69
33.7218	505.46
33.7362	469.50
33.7507	489.52
33.7651	467.96
33.7796	461.06
33.7940	474.63
33.8084	526.09
33.8229	499.39
33.8373	494.05
33.8518	498.66
33.8662	526.91
33.8806	505.07
33.8951	528.03
33.9095	518.16
33.9240	480.94
33.9384	503.71
33.9528	512.95
33.9673	484.20
33.9817	491.74
33.9962	536.34
34.0106	537.29
34.0250	518.41
34.0395	506.28
34.0539	489.71
34.0684	514.94
34.0828	518.36
34.0972	487.10
34.1117	498.19
34.1261	525.76
34.1406	505.28
34.1550	488.92
34.1694	488.14
34.1839	495.18
34.1983	513.93
34.2128	534.68
34.2272	523.20
34.2417	525.50
34.2561	506.40
34.2705	498.21
34.2850	510.47
34.2994	507.79
34.3139	505.04
34.3283	530.22
34.3427	531.42
34.3572	502.69
34.3716	526.37
34.3861	515.42
34.4005	527.07
34.4149	508.79
34.4294	553.57
34.4438	504.76
34.4583	519.23
34.4727	512.67
34.4871	488.95
34.5016	474.51
34.5160	494.27
34.5305	507.91
34.5449	540.86
34.5593	519.24
34.5738	531.81
34.5882	522.43
34.6027	490.73
34.6171	530.60
34.6315	517.26
34.6460	491.81
34.6604	482.83
34.6749	493.06
34.6893	502.98
34.7037	495.16
34.7182	505.53
34.7326	503.95
34.7471	509.21
34.7615	509.05
34.7759	509.64
34.7904	531.20
34.8048	520.39
34.8193	545.96
34.8337	507.32
34.8481	498.81
34.8626	532.81
34.8770	509.81
34.8915	514.02
34.9059	486.71
34.9203	481.33
34.9348	497.22
34.9492	517.67
34.9637	492.93
34.9781	478.04
34.9925	504.70
35.0070	508.96
35.0214	566.73
35.0359	555.79
35.0503	530.59
35.0647	529.47
35.0792	506.72
35.0936	500.78
35.1081	520.31
35.1225	526.15
35.1369	515.65
35.1514	522.32
35.1658	513.22
35.1803	507.42
35.1947	508.62
35.2091	501.40
35.2236	480.65
35.2380	507.87
35.2525	526.05
35.2669	513.43
35.2813	554.05
35.2958	509.91
35.3102	496.70
35.3247	521.80
35.3391	510.58
35.3535	498.94
35.3680	538.42
35.3824	530.19
35.3969	477.93
35.4113	515.04
35.4257	535.59
35.4402	530.80
35.4546	528.18
35.4691	537.66
35.4835	543.17
35.4979	516.50
35.5124	502.26
35.5268	507.45
35.5413	501.11
35.5557	524.02
35.5701	532.99
35.5846	541.58
35.5990	537.57
35.6135	531.93
35.6279	539.11
35.6423	528.25
35.6568	524.06
35.6712	546.89
35.6857	584.03
35.7001	680.63
35.7145	716.34
35.7290	666.37
35.7434	619.22
35.7579	590.68
35.7723	616.45
35.7867	621.91
35.8012	663.66
35.8156	638.90
35.8301	641.19
35.8445	615.84
35.8589	619.22
35.8734	738.75
35.8878	878.38
35.9023	991.12
35.9167	1082.96
35.9311	1417.10
35.9456	2078.84
35.9600	2466.40
35.9745	2079.22
35.9889	1985.29
36.0033	2263.97
36.0178	2356.32
36.0322	2207.24
36.0467	2206.50
36.0611	2063.12
36.0755	2080.57
36.0900	1986.94
36.1044	1847.78
36.1189	1858.81
36.1333	1673.29
36.1477	1475.90
36.1622	1399.44
36.1766	1337.52
36.1911	1129.91
36.2055	1039.36
36.2199	942.98
36.2344	841.11
36.2488	751.41
36.2633	704.10
36.2777	673.44
36.2921	631.18
36.3066	624.36
36.3210	567.87
36.3355	562.06
36.3499	576.48
36.3643	582.26
36.3788	576.99
36.3932	510.68
36.4077	557.64
36.4221	525.93
36.4365	518.72
36.4510	517.63
36.4654	523.52
36.4799	546.79
36.4943	529.09
36.5087	490.68
36.5232	538.50
36.5376	538.04
36.5521	501.23
36.5665	553.22
36.5809	502.74
36.5954	505.83
36.6098	570.17
36.6243	553.31
36.6387	532.67
36.6531	516.85
36.6676	539.28
36.6820	530.18
36.6965	502.44
36.7109	525.73
36.7253	529.53
36.7398	535.13
36.7542	560.52
36.7687	532.04
36.7831	589.54
36.7975	586.44
36.8120	561.92
36.8264	567.96
36.8409	635.24
36.8553	619.47
36.8697	627.32
36.8842	582.89
36.8986	578.75
36.9131	596.07
36.9275	586.40
36.9419	587.39
36.9564	563.74
36.9708	574.72
36.9853	540.83
36.9997	573.88
37.0141	551.93
37.0286	558.72
37.0430	539.55
37.0575	533.02
37.0719	508.55
37.0863	518.74
37.1008	510.95
37.1152	528.13
37.1297	551.05
37.1441	486.47
37.1585	509.93
37.1730	517.06
37.1874	489.03
37.2019	496.30
37.2163	479.30
37.2307	505.11
37.2452	498.49
37.2596	499.40
37.2741	504.81
37.2885	524.34
37.3029	509.47
37.3174	520.70
37.3318	536.42
37.3463	536.08
37.3607	497.00
37.3751	507.25
37.3896	510.70
37.4040	509.18
37.4185	521.25
37.4329	543.92
37.4473	527.71
37.4618	538.88
37.4762	491.29
37.4907	493.65
37.5051	504.21
37.5195	469.00
37.5340	485.95
37.5484	496.17
37.5629	503.46
37.5773	501.76
37.5917	531.77
37.6062	517.88
37.6206	517.64
37.6351	499.38
37.6495	479.98
37.6639	510.56
37.6784	494.89
37.6928	498.14
37.7073	513.70
37.7217	521.31
37.7361	505.41
37.7506	500.53
37.7650	506.91
37.7795	530.09
37.7939	504.59
37.8083	516.88
37.8228	524.94
37.8372	496.99
37.8517	541.04
37.8661	525.18
37.8805	504.61
37.8950	531.87
37.9094	501.51
37.9239	534.38
37.9383	505.83
37.9528	532.64
37.9672	498.05
37.9816	509.23
37.9961	503.80
38.0105	483.25
38.0250	508.53
38.0394	488.78
38.0538	527.85
38.0683	522.57
38.0827	510.87
38.0972	528.98
38.1116	522.02
38.1260	544.76
38.1405	523.37
38.1549	514.53
38.1694	527.17
38.1838	518.49
38.1982	488.45
38.2127	494.81
38.2271	476.19
38.2416	511.55
38.2560	513.08
38.2704	519.17
38.2849	537.27
38.2993	533.06
38.3138	519.02
38.3282	525.52
38.3426	523.18
38.3571	502.93
38.3715	523.37
38.3860	508.35
38.4004	556.36
38.4148	546.62
38.4293	540.53
38.4437	556.59
38.4582	604.79
38.4726	656.43
38.4870	687.89
38.5015	773.90
38.5159	787.33
38.5304	766.95
38.5448	792.39
38.5592	793.18
38.5737	766.14
38.5881	770.30
38.6026	727.30
38.6170	694.17
38.6314	644.62
38.6459	642.19
38.6603	648.85
38.6748	615.23
38.6892	573.25
38.7036	593.39
38.7181	557.52
38.7325	551.24
38.7470	533.14
38.7614	520.58
38.7758	518.97
38.7903	525.36
38.8047	529.42
38.8192	532.51
38.8336	501.32
38.8480	506.92
38.8625	557.54
38.8769	517.85
38.8914	516.51
38.9058	499.64
38.9202	498.16
38.9347	499.80
38.9491	498.84
38.9636	498.27
38.9780	512.76
38.9924	505.12
39.0069	508.65
39.0213	539.29
39.0358	528.15
39.0502	479.27
39.0646	518.05
39.0791	489.50
39.0935	514.74
39.1080	528.04
39.1224	525.66
39.1368	507.22
39.1513	481.83
39.1657	477.92
39.1802	474.29
39.1946	475.66
39.2090	528.85
39.2235	507.62
39.2379	532.09
39.2524	497.70
39.2668	515.57
39.2812	510.71
39.2957	531.72
39.3101	508.59
39.3246	485.82
39.3390	499.34
39.3534	501.04
39.3679	471.21
39.3823	480.73
39.3968	497.43
39.4112	500.40
39.4256	498.87
39.4401	457.84
39.4545	493.79
39.4690	539.71
39.4834	547.70
39.4978	516.49
39.5123	517.45
39.5267	510.73
39.5412	497.37
39.5556	504.12
39.5700	504.18
39.5845	489.27
39.5989	485.46
39.6134	527.50
39.6278	480.76
39.6422	488.64
39.6567	478.14
39.6711	505.62
39.6856	523.96
39.7000	529.68
39.7144	484.63
39.7289	458.96
39.7433	483.35
39.7578	489.97
39.7722	490.58
39.7866	485.59
39.8011	483.02
39.8155	481.33
39.8300	550.67
39.8444	500.74
39.8588	504.62
39.8733	499.56
39.8877	498.83
39.9022	518.72
39.9166	505.64
39.9310	501.47
39.9455	525.57
39.9599	533.28
39.9744	521.68
39.9888	459.66
40.0032	443.05
40.0177	483.53
40.0321	495.81
40.0466	474.25
40.0610	484.78
40.0754	504.29
40.0899	502.43
40.1043	484.52
40.1188	535.23
40.1332	498.42
40.1476	482.30
40.1621	510.30
40.1765	505.53
40.1910	462.83
40.2054	477.64
40.2198	502.53
40.2343	473.81
40.2487	511.38
40.2632	484.61
40.2776	514.04
40.2920	505.29
40.3065	524.22
40.3209	507.41
40.3354	490.21
40.3498	498.37
40.3642	504.89
40.3787	489.86
40.3931	513.01
40.4076	491.31
40.4220	497.32
40.4364	531.76
40.4509	464.96
40.4653	527.12
40.4798	510.83
40.4942	542.78
40.5086	519.57
40.5231	506.28
40.5375	508.18
40.5520	505.43
40.5664	473.09
40.5808	538.40
40.5953	460.88
40.6097	498.80
40.6242	509.52
40.6386	486.74
40.6530	515.66
40.6675	502.25
40.6819	489.86
40.6964	507.22
40.7108	503.48
40.7252	500.98
40.7397	501.73
40.7541	515.59
40.7686	507.08
40.7830	556.97
40.7974	482.70
40.8119	527.35
40.8263	479.91
40.8408	470.14
40.8552	516.28
40.8696	481.73
40.8841	494.80
40.8985	492.77
40.9130	496.71
40.9274	500.33
40.9418	490.78
40.9563	481.93
40.9707	519.56
40.9852	503.12
40.9996	473.28
41.0140	533.83
41.0285	526.31
41.0429	498.68
41.0574	510.39
41.0718	489.78
41.0862	502.03
41.1007	487.23
41.1151	513.36
41.1296	523.39
41.1440	456.71
41.1584	507.60
41.1729	487.09
41.1873	507.41
41.2018	491.42
41.2162	501.90
41.2306	490.89
41.2451	497.24
41.2595	512.85
41.2740	522.50
41.2884	507.01
41.3028	516.58
41.3173	494.45
41.3317	493.39
41.3462	526.84
41.3606	513.42
41.3750	510.72
41.3895	515.65
41.4039	492.31
41.4184	474.05
41.4328	517.77
41.4472	486.02
41.4617	495.24
41.4761	523.48
41.4906	481.87
41.5050	516.36
41.5194	520.20
41.5339	503.64
41.5483	502.80
41.5628	515.12
41.5772	503.57
41.5916	505.39
41.6061	505.53
41.6205	498.17
41.6350	508.08
41.6494	476.23
41.6639	470.03
41.6783	517.25
41.6927	499.15
41.7072	503.48
41.7216	479.43
41.7361	467.13
41.7505	483.25
41.7649	517.94
41.7794	540.70
41.7938	501.48
41.8083	498.10
41.8227	509.13
41.8371	542.96
41.8516	513.60
41.8660	479.18
41.8805	524.77
41.8949	528.52
41.9093	528.57
41.9238	548.94
41.9382	558.55
41.9527	583.90
41.9671	544.49
41.9815	572.51
41.9960	571.66
42.0104	584.78
42.0249	544.76
42.0393	570.95
42.0537	565.81
42.0682	596.16
42.0826	592.95
42.0971	593.25
42.1115	598.51
42.1259	564.72
42.1404	584.61
42.1548	614.03
42.1693	658.65
42.1837	655.96
42.1981	734.91
42.2126	830.35
42.2270	895.59
42.2415	1025.49
42.2559	1170.72
42.2703	1279.87
42.2848	1496.68
42.2992	1638.51
42.3137	1686.04
42.3281	1685.10
42.3425	1591.13
42.3570	1450.16
42.3714	1392.30
42.3859	1370.33
42.4003	1326.80
42.4147	1354.46
42.4292	1255.67
42.4436	1101.86
42.4581	1006.62
42.4725	910.88
42.4869	840.00
42.5014	794.27
42.5158	693.15
42.5303	667.03
42.5447	634.04
42.5591	631.36
42.5736	620.32
42.5880	593.73
42.6025	562.59
42.6169	507.30
42.6313	546.73
42.6458	569.44
42.6602	571.42
42.6747	524.88
42.6891	520.60
42.7035	552.43
42.7180	517.72
42.7324	513.96
42.7469	499.04
42.7613	492.05
42.7757	521.03
42.7902	513.72
42.8046	503.08
42.8191	528.50
42.8335	537.77
42.8479	534.55
42.8624	515.83
42.8768	542.99
42.8913	510.62
42.9057	508.72
42.9201	533.46
42.9346	532.83
42.9490	487.56
42.9635	512.62
42.9779	535.48
42.9923	504.92
43.0068	485.30
43.0212	501.45
43.0357	485.24
43.0501	511.58
43.0645	517.65
43.0790	524.55
43.0934	511.46
43.1079	501.23
43.1223	509.19
43.1367	504.27
43.1512	504.92
43.1656	529.74
43.1801	550.19
43.1945	510.90
43.2089	492.20
43.2234	516.38
43.2378	549.94
43.2523	533.47
43.2667	542.82
43.2811	545.54
43.2956	545.13
43.3100	561.57
43.3245	521.28
43.3389	536.04
43.3533	513.04
43.3678	524.35
43.3822	503.43
43.3967	519.35
43.4111	499.26
43.4255	512.20
43.4400	515.30
43.4544	476.74
43.4689	539.99
43.4833	541.74
43.4977	542.83
43.5122	531.39
43.5266	532.67
43.5411	501.60
43.5555	516.26
43.5699	533.47
43.5844	527.54
43.5988	501.28
43.6133	525.44
43.6277	512.59
43.6421	512.35
43.6566	491.25
43.6710	518.09
43.6855	503.99
43.6999	521.07
43.7143	537.97
43.7288	556.44
43.7432	532.86
43.7577	533.12
43.7721	546.80
43.7865	578.46
43.8010	551.88
43.8154	578.31
43.8299	605.96
43.8443	628.34
43.8587	663.52
43.8732	675.96
43.8876	643.94
43.9021	663.81
43.9165	613.83
43.9309	597.19
43.9454	629.16
43.9598	569.45
43.9743	603.41
43.9887	622.82
44.0031	602.91
44.0176	576.78
44.0320	550.79
44.0465	529.30
44.0609	528.22
44.0753	536.33
44.0898	518.18
44.1042	519.15
44.1187	524.01
44.1331	546.83
44.1475	495.04
44.1620	516.72
44.1764	529.15
44.1909	522.07
44.2053	538.35
44.2197	533.20
44.2342	533.04
44.2486	562.62
44.2631	531.92
44.2775	501.88
44.2919	515.07
44.3064	554.07
44.3208	553.78
44.3353	569.77
44.3497	536.80
44.3641	541.11
44.3786	541.70
44.3930	516.75
44.4075	546.67
44.4219	572.03
44.4363	595.02
44.4508	573.64
44.4652	611.46
44.4797	585.83
44.4941	584.71
44.5085	547.30
44.5230	587.35
44.5374	596.44
44.5519	593.45
44.5663	602.81
44.5807	597.37
44.5952	553.68
44.6096	588.76
44.6241	550.57
44.6385	594.29
44.6529	571.39
44.6674	563.08
44.6818	593.42
44.6963	598.76
44.7107	664.59
44.7251	750.93
44.7396	729.73
44.7540	786.94
44.7685	830.39
44.7829	939.30
44.7973	880.46
44.8118	838.27
44.8262	815.04
44.8407	763.09
44.8551	720.37
44.8695	763.69
44.8840	749.40
44.8984	758.08
44.9129	726.62
44.9273	676.43
44.9417	622.28
44.9562	655.53
44.9706	621.68
44.9851	566.51
44.9995	532.25
45.0139	500.89
45.0284	516.15
45.0428	560.92
45.0573	526.60
45.0717	568.16
45.0861	496.59
45.1006	536.03
45.1150	530.98
45.1295	508.90
45.1439	509.15
45.1583	512.27
45.1728	521.08
45.1872	497.73
45.2017	490.66
45.2161	494.26
45.2305	505.81
45.2450	515.86
45.2594	522.04
45.2739	499.03
45.2883	495.76
45.3028	498.01
45.3172	518.76
45.3316	513.17
45.3461	491.55
45.3605	530.18
45.3750	491.48
45.3894	486.92
45.4038	507.09
45.4183	532.59
45.4327	551.26
45.4472	505.77
45.4616	470.12
45.4760	515.92
45.4905	497.97
45.5049	521.34
45.5194	514.33
45.5338	512.42
45.5482	489.52
45.5627	480.88
45.5771	509.63
45.5916	486.29
45.6060	509.47
45.6204	476.96
45.6349	515.05
45.6493	537.60
45.6638	529.10
45.6782	487.29
45.6926	511.60
45.7071	508.79
45.7215	502.20
45.7360	515.91
45.7504	540.67
45.7648	512.34
45.7793	506.48
45.7937	506.74
45.8082	507.62
45.8226	489.22
45.8370	488.61
45.8515	495.99
45.8659	507.69
45.8804	508.65
45.8948	480.41
45.9092	483.04
45.9237	512.96
45.9381	510.73
45.9526	509.71
45.9670	506.15
45.9814	505.76
45.9959	490.20
46.0103	481.23
46.0248	501.15
46.0392	477.55
46.0536	537.74
46.0681	503.61
46.0825	505.19
46.0970	526.43
46.1114	539.53
46.1258	519.96
46.1403	500.40
46.1547	518.17
46.1692	524.48
46.1836	495.89
46.1980	480.87
46.2125	516.04
46.2269	489.48
46.2414	471.93
46.2558	499.15
46.2702	498.38
46.2847	518.17
46.2991	510.33
46.3136	522.86
46.3280	515.68
46.3424	516.40
46.3569	492.63
46.3713	489.05
46.3858	489.05
46.4002	475.42
46.4146	474.46
46.4291	504.30
46.4435	489.54
46.4580	502.19
46.4724	541.71
46.4868	533.44
46.5013	497.82
46.5157	489.05
46.5302	499.48
46.5446	521.96
46.5590	492.57
46.5735	470.81
46.5879	508.75
46.6024	541.71
46.6168	518.73
46.6312	508.08
46.6457	503.77
46.6601	468.22
46.6746	466.22
46.6890	444.32
46.7034	501.62
46.7179	498.99
46.7323	466.58
46.7468	495.08
46.7612	491.98
46.7756	488.76
46.7901	487.03
46.8045	492.82
46.8190	503.01
46.8334	503.70
46.8478	514.82
46.8623	487.11
46.8767	511.80
46.8912	485.59
46.9056	493.60
46.9200	482.24
46.9345	514.37
46.9489	515.65
46.9634	526.75
46.9778	516.60
46.9922	510.66
47.0067	489.89
47.0211	518.63
47.0356	526.56
47.0500	535.71
47.0644	513.70
47.0789	485.47
47.0933	535.76
47.1078	542.64
47.1222	506.81
47.1366	515.56
47.1511	477.56
47.1655	508.90
47.1800	550.89
47.1944	481.19
47.2088	474.63
47.2233	468.39
47.2377	506.68
47.2522	513.21
47.2666	522.65
47.2810	513.38
47.2955	485.85
47.3099	527.65
47.3244	513.44
47.3388	497.27
47.3532	502.54
47.3677	523.40
47.3821	512.65
47.3966	501.58
47.4110	476.11
47.4254	525.08
47.4399	518.42
47.4543	514.67
47.4688	529.39
47.4832	531.97
47.4976	521.53
47.5121	478.45
47.5265	486.95
47.5410	525.18
47.5554	525.88
47.5698	507.86
47.5843	499.49
47.5987	498.81
47.6132	514.88
47.6276	512.92
47.6420	506.40
47.6565	481.39
47.6709	494.91
47.6854	520.61
47.6998	541.75
47.7142	533.44
47.7287	501.21
47.7431	487.27
47.7576	506.06
47.7720	479.43
47.7864	495.77
47.8009	484.23
47.8153	492.80
47.8298	517.26
47.8442	499.39
47.8586	526.92
47.8731	527.24
47.8875	505.44
47.9020	519.46
47.9164	513.19
47.9308	546.98
47.9453	522.80
47.9597	474.36
47.9742	491.01
47.9886	510.83
48.0030	548.67
48.0175	523.63
48.0319	520.28
48.0464	500.42
48.0608	511.88
48.0752	522.05
48.0897	548.46
48.1041	512.87
48.1186	510.74
48.1330	529.78
48.1474	487.65
48.1619	494.15
48.1763	473.78
48.1908	514.92
48.2052	489.05
48.2196	512.14
48.2341	511.90
48.2485	519.20
48.2630	478.72
48.2774	508.18
48.2918	507.13
48.3063	510.66
48.3207	536.69
48.3352	518.30
48.3496	472.88
48.3640	503.76
48.3785	513.87
48.3929	529.64
48.4074	538.75
48.4218	533.67
48.4362	536.91
48.4507	529.66
48.4651	499.55
48.4796	522.18
48.4940	500.19
48.5084	514.51
48.5229	503.57
48.5373	497.52
48.5518	512.52
48.5662	493.40
48.5806	518.06
48.5951	506.54
48.6095	543.49
48.6240	527.04
48.6384	540.45
48.6528	517.64
48.6673	495.13
48.6817	522.81
48.6962	524.42
48.7106	535.84
48.7250	513.72
48.7395	503.22
48.7539	530.61
48.7684	536.79
48.7828	554.11
48.7972	520.70
48.8117	537.98
48.8261	569.56
48.8406	508.40
48.8550	554.89
48.8694	560.71
48.8839	559.42
48.8983	560.55
48.9128	553.45
48.9272	556.53
48.9416	566.34
48.9561	572.92
48.9705	545.54
48.9850	544.76
48.9994	530.93
49.0139	562.61
49.0283	611.47
49.0427	607.58
49.0572	618.60
49.0716	636.42
49.0861	690.08
49.1005	721.57
49.1149	706.06
49.1294	742.60
49.1438	733.99
49.1583	731.63
49.1727	812.62
49.1871	900.02
49.2016	909.74
49.2160	931.53
49.2305	1031.77
49.2449	1156.61
49.2593	1208.97
49.2738	1289.48
49.2882	1429.77
49.3027	1523.09
49.3171	1584.31
49.3315	1677.98
49.3460	1740.36
49.3604	1767.11
49.3749	1818.47
49.3893	1712.21
49.4037	1801.29
49.4182	1772.93
49.4326	1674.20
49.4471	1614.46
49.4615	1605.47
49.4759	1562.29
49.4904	1497.48
49.5048	1379.03
49.5193	1282.43
49.5337	1296.07
49.5481	1190.45
49.5626	1132.34
49.5770	1086.02
49.5915	966.25
49.6059	928.24
49.6203	884.50
49.6348	843.02
49.6492	789.13
49.6637	738.86
49.6781	735.08
49.6925	676.36
49.7070	666.78
49.7214	653.52
49.7359	616.04
49.7503	630.46
49.7647	610.67
49.7792	618.97
49.7936	596.64
49.8081	596.34
49.8225	543.07
49.8369	584.48
49.8514	589.25
49.8658	572.11
49.8803	555.12
49.8947	556.63
49.9091	550.65
49.9236	532.37
49.9380	526.08
49.9525	529.13
49.9669	522.22
49.9813	541.24
49.9958	547.99
50.0102	506.26
50.0247	525.27
50.0391	511.22
50.0535	511.90
50.0680	516.51
50.0824	524.21
50.0969	517.05
50.1113	532.25
50.1257	534.03
50.1402	536.19
50.1546	509.43
50.1691	524.28
50.1835	492.05
50.1979	495.69
50.2124	530.03
50.2268	523.31
50.2413	502.91
50.2557	503.32
50.2701	499.83
50.2846	533.16
50.2990	483.16
50.3135	500.10
50.3279	525.68
50.3423	496.41
50.3568	504.00
50.3712	499.47
50.3857	493.53
50.4001	502.68
50.4145	505.15
50.4290	515.71
50.4434	505.65
50.4579	501.15
50.4723	505.42
50.4867	478.32
50.5012	512.00
50.5156	527.51
50.5301	496.61
50.5445	520.56
50.5589	533.14
50.5734	503.94
50.5878	510.91
50.6023	503.13
50.6167	543.87
50.6311	526.33
50.6456	514.32
50.6600	503.10
50.6745	514.96
50.6889	457.99
50.7033	514.38
50.7178	510.93
50.7322	499.61
50.7467	507.68
50.7611	528.15
50.7755	529.29
50.7900	515.63
50.8044	517.19
50.8189	507.14
50.8333	489.14
50.8477	506.61
50.8622	517.36
50.8766	520.07
50.8911	498.51
50.9055	539.10
50.9199	531.84
50.9344	530.37
50.9488	524.89
50.9633	507.63
50.9777	491.66
50.9921	489.22
51.0066	549.16
51.0210	555.13
51.0355	533.46
51.0499	510.47
51.0643	502.53
51.0788	500.04
51.0932	546.42
51.1077	514.94
51.1221	505.44
51.1365	514.46
51.1510	511.78
51.1654	509.81
51.1799	534.03
51.1943	508.53
51.2087	488.92
51.2232	508.36
51.2376	517.92
51.2521	525.62
51.2665	518.04
51.2809	507.15
51.2954	489.68
51.3098	517.78
51.3243	513.56
51.3387	506.04
51.3531	536.65
51.3676	536.54
51.3820	502.80
51.3965	485.89
51.4109	502.92
51.4253	496.57
51.4398	499.82
51.4542	504.64
51.4687	525.76
51.4831	498.10
51.4975	511.95
51.5120	505.77
51.5264	507.29
51.5409	516.66
51.5553	518.82
51.5697	513.99
51.5842	513.67
51.5986	537.11
51.6131	546.10
51.6275	519.57
51.6419	493.87
51.6564	468.71
51.6708	513.03
51.6853	509.97
51.6997	510.92
51.7141	514.27
51.7286	510.99
51.7430	509.97
51.7575	539.55
51.7719	531.79
51.7863	490.68
51.8008	533.41
51.8152	531.49
51.8297	513.88
51.8441	513.39
51.8585	516.45
51.8730	530.75
51.8874	501.42
51.9019	543.84
51.9163	508.02
51.9307	530.07
51.9452	485.56
51.9596	490.51
51.9741	497.18
51.9885	508.93
52.0029	476.50
52.0174	496.41
52.0318	529.10
52.0463	505.18
52.0607	502.75
52.0751	481.28
52.0896	478.40
52.1040	532.34
52.1185	498.74
52.1329	475.21
52.1473	485.85
52.1618	474.07
52.1762	515.69
52.1907	495.15
52.2051	496.87
52.2195	524.55
52.2340	500.85
52.2484	542.48
52.2629	523.31
52.2773	526.18
52.2917	514.05
52.3062	543.99
52.3206	515.89
52.3351	522.47
52.3495	521.75
52.3639	497.26
52.3784	483.14
52.3928	508.71
52.4073	495.04
52.4217	534.75
52.4361	540.01
52.4506	533.31
52.4650	538.13
52.4795	563.28
52.4939	507.52
52.5083	515.43
52.5228	503.76
52.5372	527.02
52.5517	525.23
52.5661	508.47
52.5805	487.97
52.5950	498.50
52.6094	500.76
52.6239	496.23
52.6383	505.07
52.6527	512.00
52.6672	515.61
52.6816	496.71
52.6961	496.04
52.7105	508.92
52.7250	529.93
52.7394	513.80
52.7538	520.13
52.7683	510.24
52.7827	539.32
52.7972	537.65
52.8116	531.26
52.8260	514.03
52.8405	501.92
52.8549	509.59
52.8694	547.74
52.8838	516.24
52.8982	506.23
52.9127	534.33
52.9271	530.57
52.9416	514.21
52.9560	458.14
52.9704	514.26
52.9849	507.56
52.9993	512.26
53.0138	518.32
53.0282	484.10
53.0426	516.40
53.0571	525.43
53.0715	499.03
53.0860	516.33
53.1004	500.99
53.1148	514.58
53.1293	515.39
53.1437	501.61
53.1582	509.71
53.1726	539.70
53.1870	529.03
53.2015	492.65
53.2159	490.32
53.2304	516.29
53.2448	533.35
53.2592	530.60
53.2737	507.09
53.2881	504.58
53.3026	507.54
53.3170	506.53
53.3314	512.95
53.3459	489.46
53.3603	516.88
53.3748	498.58
53.3892	500.88
53.4036	527.18
53.4181	525.51
53.4325	558.61
53.4470	538.68
53.4614	541.25
53.4758	523.86
53.4903	529.70
53.5047	493.65
53.5192	500.29
53.5336	513.81
53.5480	511.32
53.5625	548.63
53.5769	526.26
53.5914	519.37
53.6058	509.96
53.6202	554.47
53.6347	490.74
53.6491	514.73
53.6636	506.62
53.6780	477.37
53.6924	536.50
53.7069	527.38
53.7213	526.97
53.7358	495.49
53.7502	502.29
53.7646	499.88
53.7791	519.76
53.7935	513.02
53.8080	516.53
53.8224	519.93
53.8368	517.37
53.8513	506.44
53.8657	530.07
53.8802	499.30
53.8946	501.28
53.9090	514.76
53.9235	550.67
53.9379	508.68
53.9524	517.84
53.9668	487.32
53.9812	492.54
53.9957	490.26
54.0101	514.90
54.0246	498.69
54.0390	554.41
54.0534	533.18
54.0679	539.42
54.0823	526.94
54.0968	524.91
54.1112	536.05
54.1256	543.94
54.1401	518.42
54.1545	516.54
54.1690	524.54
54.1834	535.25
54.1978	524.57
54.2123	523.41
54.2267	544.64
54.2412	526.24
54.2556	505.15
54.2700	518.29
54.2845	555.28
54.2989	557.25
54.3134	577.59
54.3278	564.16
54.3422	582.88
54.3567	617.64
54.3711	584.98
54.3856	588.84
54.4000	607.93
54.4144	596.80
54.4289	630.08
54.4433	617.95
54.4578	612.71
54.4722	653.73
54.4866	666.24
54.5011	649.79
54.5155	611.97
54.5300	608.71
54.5444	574.82
54.5588	558.32
54.5733	567.33
54.5877	590.93
54.6022	562.57
54.6166	572.44
54.6310	582.78
54.6455	581.95
54.6599	528.65
54.6744	540.71
54.6888	540.98
54.7032	548.67
54.7177	523.85
54.7321	523.30
54.7466	543.35
54.7610	542.45
54.7754	530.32
54.7899	500.11
54.8043	504.70
54.8188	517.93
54.8332	505.79
54.8476	565.64
54.8621	556.30
54.8765	543.88
54.8910	498.52
54.9054	540.23
54.9198	549.78
54.9343	531.28
54.9487	526.11
54.9632	523.06
54.9776	477.33
54.9920	509.88
55.0065	520.08
55.0209	528.53
55.0354	527.08
55.0498	539.07
55.0642	520.91
55.0787	527.88
55.0931	525.94
55.1076	540.65
55.1220	546.09
55.1364	515.38
55.1509	471.90
55.1653	527.18
55.1798	506.00
55.1942	509.43
55.2086	500.72
55.2231	536.01
55.2375	516.94
55.2520	518.74
55.2664	511.63
55.2808	521.69
55.2953	519.51
55.3097	517.38
55.3242	514.60
55.3386	528.80
55.3530	520.58
55.3675	502.08
55.3819	523.59
55.3964	523.01
55.4108	498.89
55.4252	503.29
55.4397	530.78
55.4541	558.71
55.4686	494.28
55.4830	538.43
55.4974	528.00
55.5119	537.98
55.5263	563.49
55.5408	544.64
55.5552	519.74
55.5696	531.82
55.5841	504.70
55.5985	535.01
55.6130	554.04
55.6274	546.69
55.6418	583.24
55.6563	548.02
55.6707	540.42
55.6852	542.67
55.6996	564.02
55.7140	513.81
55.7285	494.50
55.7429	529.38
55.7574	505.32
55.7718	508.67
55.7862	539.21
55.8007	525.36
55.8151	506.44
55.8296	540.11
55.8440	549.56
55.8584	527.84
55.8729	554.67
55.8873	512.73
55.9018	536.47
55.9162	492.65
55.9306	526.62
55.9451	552.14
55.9595	524.71
55.9740	494.61
55.9884	466.50
56.0028	468.24
56.0173	528.30
56.0317	506.79
56.0462	482.83
56.0606	538.75
56.0750	586.33
56.0895	527.96
56.1039	495.34
56.1184	543.24
56.1328	537.81
56.1472	523.56
56.1617	528.91
56.1761	520.67
56.1906	532.84
56.2050	530.38
56.2194	479.68
56.2339	517.53
56.2483	554.07
56.2628	503.34
56.2772	518.66
56.2916	497.25
56.3061	502.44
56.3205	531.08
56.3350	505.40
56.3494	519.39
56.3639	542.16
56.3783	551.58
56.3927	490.90
56.4072	532.17
56.4216	580.72
56.4361	524.51
56.4505	528.74
56.4649	540.78
56.4794	526.62
56.4938	523.34
56.5083	489.63
56.5227	498.49
56.5371	522.56
56.5516	494.78
56.5660	497.68
56.5805	500.04
56.5949	519.75
56.6093	536.47
56.6238	535.67
56.6382	527.81
56.6527	507.94
56.6671	499.46
56.6815	469.90
56.6960	535.36
56.7104	536.09
56.7249	523.08
56.7393	531.33
56.7537	539.94
56.7682	531.24
56.7826	522.34
56.7971	527.01
56.8115	531.19
56.8259	513.50
56.8404	497.23
56.8548	546.45
56.8693	526.83
56.8837	517.08
56.8981	541.02
56.9126	513.14
56.9270	474.17
56.9415	537.46
56.9559	514.50
56.9703	514.83
56.9848	495.97
56.9992	494.83
57.0137	538.74
57.0281	502.53
57.0425	516.40
57.0570	515.72
57.0714	558.29
57.0859	530.74
57.1003	506.14
57.1147	535.72
57.1292	542.62
57.1436	519.51
57.1581	493.46
57.1725	547.01
57.1869	533.01
57.2014	533.33
57.2158	523.95
57.2303	538.13
57.2447	495.79
57.2591	515.08
57.2736	532.00
57.2880	526.46
57.3025	544.06
57.3169	524.62
57.3313	499.28
57.3458	506.56
57.3602	518.61
57.3747	528.03
57.3891	539.40
57.4035	478.67
57.4180	503.93
57.4324	528.30
57.4469	532.09
57.4613	496.37
57.4757	539.68
57.4902	568.62
57.5046	547.23
57.5191	544.95
57.5335	538.89
57.5479	517.61
57.5624	497.28
57.5768	577.20
57.5913	510.22
57.6057	492.10
57.6201	518.11
57.6346	540.74
57.6490	544.65
57.6635	530.72
57.6779	550.07
57.6923	534.85
57.7068	544.79
57.7212	510.51
57.7357	531.69
57.7501	546.81
57.7645	489.60
57.7790	510.37
57.7934	539.33
57.8079	538.67
57.8223	557.40
57.8367	570.93
57.8512	554.94
57.8656	549.51
57.8801	562.60
57.8945	610.70
57.9089	573.34
57.9234	587.14
57.9378	616.03
57.9523	602.67
57.9667	595.78
57.9811	618.23
57.9956	648.26
58.0100	670.09
58.0245	712.74
58.0389	720.24
58.0533	730.53
58.0678	707.00
58.0822	709.12
58.0967	663.28
58.1111	639.21
58.1255	670.21
58.1400	688.16
58.1544	612.59
58.1689	650.18
58.1833	654.96
58.1977	633.14
58.2122	666.43
58.2266	635.30
58.2411	651.49
58.2555	679.10
58.2699	631.87
58.2844	653.71
58.2988	606.83
58.3133	587.86
58.3277	583.81
58.3421	594.66
58.3566	578.10
58.3710	537.12
58.3855	550.06
58.3999	535.41
58.4143	523.56
58.4288	558.85
58.4432	554.88
58.4577	529.29
58.4721	548.04
58.4865	525.04
58.5010	510.68
58.5154	512.93
58.5299	558.53
58.5443	561.53
58.5587	534.39
58.5732	548.24
58.5876	533.77
58.6021	537.54
58.6165	567.51
58.6309	559.81
58.6454	527.43
58.6598	501.32
58.6743	527.86
58.6887	532.30
58.7031	560.51
58.7176	541.57
58.7320	518.79
58.7465	528.09
58.7609	532.49
58.7753	531.29
58.7898	532.43
58.8042	546.57
58.8187	535.18
58.8331	564.82
58.8475	590.93
58.8620	541.04
58.8764	524.40
58.8909	568.53
58.9053	552.62
58.9197	536.19
58.9342	541.52
58.9486	546.13
58.9631	534.35
58.9775	506.01
58.9919	523.11
59.0064	544.53
59.0208	533.99
59.0353	549.31
59.0497	535.21
59.0641	527.22
59.0786	537.80
59.0930	530.64
59.1075	497.25
59.1219	557.08
59.1363	557.91
59.1508	527.02
59.1652	534.81
59.1797	529.01
59.1941	506.71
59.2085	547.65
59.2230	567.27
59.2374	587.39
59.2519	563.60
59.2663	547.86
59.2807	527.99
59.2952	543.46
59.3096	538.31
59.3241	529.89
59.3385	552.07
59.3529	548.55
59.3674	540.45
59.3818	539.62
59.3963	579.56
59.4107	569.45
59.4251	569.98
59.4396	558.48
59.4540	564.38
59.4685	571.85
59.4829	566.71
59.4973	542.86
59.5118	543.45
59.5262	536.99
59.5407	534.24
59.5551	554.32
59.5695	528.65
59.5840	515.56
59.5984	514.09
59.6129	499.71
59.6273	511.97
59.6417	535.92
59.6562	534.86
59.6706	525.78
59.6851	511.79
59.6995	521.02
59.7139	524.54
59.7284	507.56
59.7428	487.12
59.7573	565.70
59.7717	563.83
59.7861	542.51
59.8006	564.42
59.8150	519.44
59.8295	544.78
59.8439	517.27
59.8583	595.34
59.8728	536.73
59.8872	545.42
59.9017	527.56
59.9161	554.69
59.9305	576.91
59.9450	594.47
59.9594	584.38
59.9739	559.04
59.9883	517.06
60.0027	482.19
60.0172	525.09
60.0316	573.54
60.0461	585.66
60.0605	536.62
60.0750	541.88
60.0894	531.71
60.1038	556.64
60.1183	526.45
60.1327	552.19
60.1472	511.85
60.1616	509.43
60.1760	505.73
60.1905	530.62
60.2049	519.59
60.2194	522.82
60.2338	541.90
60.2482	547.44
60.2627	546.14
60.2771	533.31
60.2916	525.80
60.3060	589.55
60.3204	580.69
60.3349	524.76
60.3493	520.26
60.3638	503.12
60.3782	540.87
60.3926	545.08
60.4071	500.80
60.4215	567.14
60.4360	532.21
60.4504	572.60
60.4648	560.97
60.4793	520.87
60.4937	530.87
60.5082	527.27
60.5226	537.21
60.5370	527.11
60.5515	558.58
60.5659	562.69
60.5804	516.57
60.5948	540.71
60.6092	546.36
60.6237	553.54
60.6381	559.46
60.6526	506.03
60.6670	514.36
60.6814	548.86
60.6959	560.97
60.7103	549.99
60.7248	575.99
60.7392	523.81
60.7536	541.60
60.7681	542.32
60.7825	533.36
60.7970	547.52
60.8114	557.75
60.8258	515.87
60.8403	541.62
60.8547	540.40
60.8692	557.02
60.8836	540.21
60.8980	553.98
60.9125	599.49
60.9269	600.10
60.9414	604.35
60.9558	558.34
60.9702	526.12
60.9847	559.08
60.9991	516.12
61.0136	535.66
61.0280	535.69
61.0424	541.73
61.0569	590.10
61.0713	567.47
61.0858	551.25
61.1002	541.14
61.1146	572.24
61.1291	560.87
61.1435	551.55
61.1580	534.53
61.1724	548.37
61.1868	500.41
61.2013	540.50
61.2157	545.67
61.2302	581.73
61.2446	563.67
61.2590	590.22
61.2735	544.28
61.2879	560.64
61.3024	525.53
61.3168	524.94
61.3312	532.36
61.3457	576.52
61.3601	539.89
61.3746	511.07
61.3890	550.15
61.4034	528.76
61.4179	571.44
61.4323	538.40
61.4468	537.89
61.4612	534.44
61.4756	559.93
61.4901	589.20
61.5045	518.57
61.5190	516.29
61.5334	530.13
61.5478	542.39
61.5623	526.43
61.5767	503.83
61.5912	539.53
61.6056	560.97
61.6200	531.29
61.6345	546.52
61.6489	541.57
61.6634	508.51
61.6778	515.36
61.6922	529.22
61.7067	572.24
61.7211	576.92
61.7356	551.13
61.7500	556.85
61.7644	532.95
61.7789	544.90
61.7933	534.09
61.8078	554.25
61.8222	525.60
61.8366	561.49
61.8511	526.28
61.8655	579.99
61.8800	567.76
61.8944	533.92
61.9088	567.74
61.9233	565.27
61.9377	545.79
61.9522	539.00
61.9666	547.52
61.9810	536.46
61.9955	550.20
62.0099	545.25
62.0244	566.20
62.0388	545.67
62.0532	546.38
62.0677	567.05
62.0821	555.02
62.0966	536.13
62.1110	553.79
62.1254	581.09
62.1399	555.74
62.1543	525.43
62.1688	567.44
62.1832	545.00
62.1976	508.43
62.2121	507.00
62.2265	530.29
62.2410	543.64
62.2554	551.65
62.2698	539.01
62.2843	578.16
62.2987	575.16
62.3132	556.16
62.3276	536.81
62.3420	554.70
62.3565	556.59
62.3709	528.39
62.3854	569.50
62.3998	555.01
62.4142	526.03
62.4287	568.01
62.4431	569.99
62.4576	538.13
62.4720	551.40
62.4864	591.11
62.5009	582.01
62.5153	562.30
62.5298	559.19
62.5442	524.31
62.5586	544.04
62.5731	552.70
62.5875	515.14
62.6020	537.59
62.6164	534.03
62.6308	540.42
62.6453	542.25
62.6597	552.98
62.6742	544.07
62.6886	536.05
62.7030	589.20
62.7175	577.59
62.7319	535.79
62.7464	525.81
62.7608	560.70
62.7752	562.91
62.7897	580.50
62.8041	562.89
62.8186	566.93
62.8330	555.82
62.8474	589.78
62.8619	604.16
62.8763	545.66
62.8908	541.20
62.9052	571.34
62.9196	558.69
62.9341	591.17
62.9485	596.89
62.9630	523.59
62.9774	530.13
62.9918	552.14
63.0063	528.73
63.0207	551.48
63.0352	564.01
63.0496	575.22
63.0640	561.66
63.0785	581.08
63.0929	605.27
63.1074	587.27
63.1218	576.28
63.1362	581.24
63.1507	562.27
63.1651	563.79
63.1796	588.44
63.1940	586.19
63.2084	574.20
63.2229	557.44
63.2373	563.27
63.2518	598.76
63.2662	600.43
63.2806	610.89
63.2951	570.65
63.3095	615.24
63.3240	583.91
63.3384	574.74
63.3528	613.48
63.3673	563.45
63.3817	555.50
63.3962	553.78
63.4106	565.06
63.4250	623.10
63.4395	606.01
63.4539	586.84
63.4684	604.84
63.4828	600.98
63.4972	621.49
63.5117	623.40
63.5261	611.13
63.5406	594.88
63.5550	618.76
63.5694	609.21
63.5839	667.74
63.5983	698.00
63.6128	642.05
63.6272	643.42
63.6416	689.06
63.6561	690.70
63.6705	681.33
63.6850	740.52
63.6994	783.94
63.7138	845.14
63.7283	835.65
63.7427	877.02
63.7572	899.99
63.7716	909.98
63.7861	843.49
63.8005	853.40
63.8149	862.15
63.8294	871.14
63.8438	796.92
63.8583	791.63
63.8727	782.78
63.8871	756.10
63.9016	766.25
63.9160	825.72
63.9305	783.93
63.9449	826.93
63.9593	771.60
63.9738	757.05
63.9882	792.22
64.0027	737.78
64.0171	722.79
64.0315	694.55
64.0460	693.68
64.0604	642.68
64.0749	664.23
64.0893	655.00
64.1037	642.07
64.1182	626.16
64.1326	631.81
64.1471	617.15
64.1615	616.70
64.1759	625.89
64.1904	630.48
64.2048	601.20
64.2193	624.62
64.2337	606.37
64.2481	637.80
64.2626	608.37
64.2770	614.46
64.2915	612.95
64.3059	617.14
64.3203	616.44
64.3348	624.64
64.3492	619.97
64.3637	628.34
64.3781	603.40
64.3925	643.98
64.4070	615.14
64.4214	646.71
64.4359	650.28
64.4503	606.68
64.4647	604.50
64.4792	667.14
64.4936	594.34
64.5081	608.87
64.5225	649.04
64.5369	656.19
64.5514	602.85
64.5658	614.14
64.5803	660.06
64.5947	640.90
64.6091	661.37
64.6236	647.05
64.6380	643.11
64.6525	633.45
64.6669	678.48
64.6813	681.99
64.6958	670.06
64.7102	700.10
64.7247	709.31
64.7391	654.87
64.7535	670.20
64.7680	702.46
64.7824	744.73
64.7969	735.26
64.8113	754.60
64.8257	785.61
64.8402	844.76
64.8546	841.51
64.8691	844.22
64.8835	822.35
64.8979	827.31
64.9124	917.98
64.9268	854.73
64.9413	914.08
64.9557	923.75
64.9701	991.20
64.9846	1020.90
64.9990	1157.12
65.0135	1256.17
65.0279	1489.05
65.0423	1722.75
65.0568	2082.67
65.0712	2623.16
65.0857	3526.99
65.1001	4593.10
65.1145	6091.07
65.1290	8166.38
65.1434	9758.84
65.1579	11162.15
65.1723	12025.76
65.1867	11403.30
65.2012	10099.73
65.2156	8389.32
65.2301	6507.65
65.2445	5479.44
65.2589	4527.69
65.2734	4255.67
65.2878	4471.77
65.3023	4940.67
65.3167	5817.44
65.3311	6583.09
65.3456	7046.06
65.3600	7053.15
65.3745	6454.30
65.3889	5538.07
65.4033	4506.65
65.4178	3479.44
65.4322	2685.83
65.4467	2130.72
65.4611	1714.59
65.4755	1475.74
65.4900	1356.21
65.5044	1177.81
65.5189	1044.15
65.5333	957.99
65.5477	951.68
65.5622	917.02
65.5766	902.11
65.5911	862.43
65.6055	818.88
65.6199	787.27
65.6344	801.25
65.6488	736.45
65.6633	694.64
65.6777	703.66
65.6921	695.00
65.7066	722.35
65.7210	683.73
65.7355	687.69
65.7499	698.49
65.7643	669.23
65.7788	682.84
65.7932	664.21
65.8077	676.39
65.8221	666.70
65.8365	667.79
65.8510	634.16
65.8654	644.94
65.8799	664.53
65.8943	670.24
65.9087	663.75
65.9232	636.35
65.9376	660.03
65.9521	613.22
65.9665	630.99
65.9809	606.20
65.9954	614.44
66.0098	634.22
66.0243	630.79
66.0387	628.72
66.0531	629.64
66.0676	651.62
66.0820	638.01
66.0965	646.49
66.1109	649.90
66.1253	630.26
66.1398	598.20
66.1542	605.23
66.1687	637.85
66.1831	592.19
66.1975	591.04
66.2120	623.57
66.2264	602.81
66.2409	626.22
66.2553	605.83
66.2697	606.96
66.2842	612.91
66.2986	597.77
66.3131	583.17
66.3275	606.35
66.3419	633.60
66.3564	577.56
66.3708	566.47
66.3853	612.86
66.3997	605.78
66.4141	566.79
66.4286	629.17
66.4430	612.68
66.4575	596.56
66.4719	610.75
66.4863	596.78
66.5008	605.28
66.5152	593.62
66.5297	594.35
66.5441	633.71
66.5585	604.76
66.5730	552.89
66.5874	589.21
66.6019	594.33
66.6163	571.32
66.6307	599.92
66.6452	621.82
66.6596	595.62
66.6741	556.03
66.6885	573.47
66.7029	581.85
66.7174	568.22
66.7318	564.14
66.7463	587.93
66.7607	597.11
66.7751	598.74
66.7896	621.15
66.8040	581.34
66.8185	588.69
66.8329	607.56
66.8473	579.18
66.8618	574.65
66.8762	601.30
66.8907	581.82
66.9051	602.28
66.9195	613.37
66.9340	601.78
66.9484	600.61
66.9629	580.99
66.9773	565.55
66.9917	563.98
67.0062	590.03
67.0206	595.84
67.0351	586.70
67.0495	578.72
67.0639	591.68
67.0784	591.97
67.0928	623.35
67.1073	588.82
67.1217	629.55
67.1361	595.26
67.1506	590.39
67.1650	606.27
67.1795	570.93
67.1939	567.62
67.2083	621.14
67.2228	607.54
67.2372	577.87
67.2517	560.33
67.2661	564.57
67.2805	590.47
67.2950	604.34
67.3094	579.50
67.3239	585.46
67.3383	590.38
67.3527	560.07
67.3672	598.81
67.3816	581.94
67.3961	555.91
67.4105	575.94
67.4250	591.15
67.4394	546.34
67.4538	543.34
67.4683	580.69
67.4827	570.17
67.4972	567.35
67.5116	575.67
67.5260	579.67
67.5405	612.82
67.5549	614.10
67.5694	562.20
67.5838	577.78
67.5982	550.58
67.6127	624.58
67.6271	606.65
67.6416	626.05
67.6560	573.52
67.6704	585.51
67.6849	565.47
67.6993	576.09
67.7138	596.42
67.7282	590.88
67.7426	564.57
67.7571	578.68
67.7715	576.61
67.7860	567.34
67.8004	574.44
67.8148	535.63
67.8293	571.31
67.8437	556.92
67.8582	583.92
67.8726	626.91
67.8870	600.77
67.9015	621.37
67.9159	578.93
67.9304	558.14
67.9448	649.11
67.9592	553.32
67.9737	571.60
67.9881	571.07
68.0026	583.28
68.0170	583.00
68.0314	590.67
68.0459	558.38
68.0603	557.01
68.0748	576.79
68.0892	598.41
68.1036	618.82
68.1181	600.74
68.1325	598.53
68.1470	558.12
68.1614	580.61
68.1758	603.10
68.1903	579.25
68.2047	570.82
68.2192	572.89
68.2336	538.17
68.2480	581.13
68.2625	542.57
68.2769	580.29
68.2914	594.12
68.3058	561.21
68.3202	581.10
68.3347	595.64
68.3491	601.27
68.3636	567.56
68.3780	559.20
68.3924	556.65
68.4069	554.07
68.4213	582.08
68.4358	618.24
68.4502	552.84
68.4646	567.42
68.4791	561.43
68.4935	575.09
68.5080	586.21
68.5224	589.60
68.5368	621.27
68.5513	598.45
68.5657	594.75
68.5802	556.94
68.5946	583.53
68.6090	544.11
68.6235	559.76
68.6379	574.02
68.6524	623.11
68.6668	548.83
68.6812	583.48
68.6957	563.19
68.7101	573.47
68.7246	532.91
68.7390	547.79
68.7534	624.46
68.7679	567.65
68.7823	559.89
68.7968	569.61
68.8112	562.68
68.8256	539.20
68.8401	588.91
68.8545	536.26
68.8690	544.96
68.8834	598.44
68.8978	566.46
68.9123	551.90
68.9267	590.94
68.9412	586.26
68.9556	561.15
68.9700	554.97
68.9845	594.70
68.9989	555.41
69.0134	547.91
69.0278	577.60
69.0422	580.28
69.0567	585.52
69.0711	610.06
69.0856	560.20
69.1000	628.56
69.1144	613.78
69.1289	590.90
69.1433	501.26
69.1578	525.35
69.1722	580.39
69.1866	572.83
69.2011	627.28
69.2155	626.70
69.2300	562.59
69.2444	606.24
69.2588	606.67
69.2733	573.79
69.2877	581.11
69.3022	544.53
69.3166	569.70
69.3310	623.26
69.3455	602.00
69.3599	592.84
69.3744	562.53
69.3888	607.56
69.4032	579.18
69.4177	596.79
69.4321	602.82
69.4466	612.24
69.4610	594.77
69.4754	593.66
69.4899	583.68
69.5043	622.34
69.5188	599.18
69.5332	627.45
69.5476	610.40
69.5621	566.27
69.5765	554.77
69.5910	562.17
69.6054	611.86
69.6198	586.86
69.6343	570.62
69.6487	576.75
69.6632	563.15
69.6776	575.95
69.6920	575.87
69.7065	625.96
69.7209	610.52
69.7354	549.72
69.7498	558.40
69.7642	579.14
69.7787	579.40
69.7931	613.25
69.8076	608.95
69.8220	595.36
69.8364	565.56
69.8509	537.97
69.8653	567.58
69.8798	558.77
69.8942	588.64
69.9086	585.41
69.9231	540.64
69.9375	549.52
69.9520	553.52
69.9664	547.45
69.9808	558.64
69.9953	587.42
70.0097	561.92
70.0242	583.45
70.0386	604.44
70.0530	589.90
70.0675	569.44
70.0819	559.32
70.0964	557.60
70.1108	577.65
70.1252	588.19
70.1397	566.28
70.1541	526.46
70.1686	580.16
70.1830	554.11
70.1974	557.32
70.2119	585.34
70.2263	582.63
70.2408	592.53
70.2552	575.86
70.2696	609.70
70.2841	598.21
70.2985	556.29
70.3130	545.36
70.3274	559.88
70.3418	599.40
70.3563	613.20
70.3707	580.10
70.3852	595.84
70.3996	602.72
70.4140	571.45
70.4285	604.61
70.4429	579.57
70.4574	599.60
70.4718	652.38
70.4862	571.97
70.5007	542.93
70.5151	547.26
70.5296	569.22
70.5440	544.37
70.5584	559.63
70.5729	552.94
70.5873	569.60
70.6018	578.70
70.6162	588.82
70.6306	603.22
70.6451	581.59
70.6595	570.58
70.6740	546.75
70.6884	535.95
70.7028	623.27
70.7173	608.82
70.7317	561.21
70.7462	581.59
70.7606	540.68
70.7750	583.22
70.7895	624.82
70.8039	589.79
70.8184	562.71
70.8328	614.24
70.8472	584.13
70.8617	527.63
70.8761	561.53
70.8906	594.69
70.9050	577.35
70.9194	631.96
70.9339	692.22
70.9483	617.00
70.9628	553.41
70.9772	530.17
70.9916	552.14
71.0061	578.98
71.0205	557.80
71.0350	561.11
71.0494	586.26
71.0638	581.72
71.0783	561.67
71.0927	563.98
71.1072	567.99
71.1216	563.31
71.1361	571.21
71.1505	567.38
71.1649	529.43
71.1794	497.38
71.1938	526.87
71.2083	581.44
71.2227	578.86
71.2371	637.03
71.2516	609.56
71.2660	530.21
71.2805	576.74
71.2949	588.57
71.3093	552.21
71.3238	556.20
71.3382	546.83
71.3527	563.49
71.3671	585.38
71.3815	521.01
71.3960	562.73
71.4104	536.44
71.4249	558.61
71.4393	567.27
71.4537	554.71
71.4682	529.39
71.4826	540.24
71.4971	566.38
71.5115	587.42
71.5259	622.44
71.5404	609.15
71.5548	564.03
71.5693	597.03
71.5837	587.95
71.5981	547.68
71.6126	534.50
71.6270	586.16
71.6415	546.37
71.6559	569.96
71.6703	596.64
71.6848	602.20
71.6992	643.60
71.7137	590.85
71.7281	593.73
71.7425	566.48
71.7570	556.49
71.7714	593.62
71.7859	551.91
71.8003	614.16
71.8147	632.29
71.8292	564.43
71.8436	600.10
71.8581	567.64
71.8725	526.27
71.8869	533.91
71.9014	554.90
71.9158	593.35
71.9303	627.07
71.9447	562.71
71.9591	537.99
71.9736	596.13
71.9880	576.93
72.0025	638.34
72.0169	598.12
72.0313	567.72
72.0458	548.04
72.0602	603.33
72.0747	627.51
72.0891	583.56
72.1035	613.38
72.1180	587.86
72.1324	618.68
72.1469	605.68
72.1613	553.73
72.1757	507.56
72.1902	529.61
72.2046	546.34
72.2191	512.78
72.2335	535.23
72.2479	594.37
72.2624	573.99
72.2768	633.01
72.2913	580.86
72.3057	502.09
72.3201	562.30
72.3346	557.46
72.3490	530.42
72.3635	598.10
72.3779	607.54
72.3923	597.51
72.4068	558.88
72.4212	603.89
72.4357	617.45
72.4501	538.49
72.4645	577.92
72.4790	589.54
72.4934	561.47
72.5079	593.84
72.5223	616.42
72.5367	609.60
72.5512	583.86
72.5656	595.45
72.5801	641.39
72.5945	596.84
72.6089	579.59
72.6234	567.01
72.6378	570.60
72.6523	599.52
72.6667	594.16
72.6811	586.03
72.6956	653.44
72.7100	606.38
72.7245	550.29
72.7389	609.78
72.7533	601.14
72.7678	561.25
72.7822	616.32
72.7967	689.91
72.8111	696.28
72.8255	690.54
72.8400	639.64
72.8544	626.39
72.8689	568.86
72.8833	532.49