2022.09.19 19:37:16
Îáðàçåö: ß÷åéêà LCoV 16-09-2022
Lambda1 = 1.54060
Lambda2 = 1.54439
Lambdam = 1.54186
R = 0.497
2Theta	I

line¹ 0 ;repeat¹ 0
22.1120	548.37
22.1264	493.89
22.1409	473.81
22.1553	514.89
22.1697	556.98
22.1842	622.30
22.1986	535.61
22.2131	536.74
22.2275	607.29
22.2419	553.99
22.2564	524.12
22.2708	571.67
22.2853	594.23
22.2997	582.84
22.3141	642.51
22.3286	578.17
22.3430	566.61
22.3575	527.21
22.3719	607.77
22.3863	643.96
22.4008	481.97
22.4152	590.08
22.4297	695.49
22.4441	686.66
22.4585	545.56
22.4730	616.44
22.4874	690.59
22.5019	568.62
22.5163	557.74
22.5307	599.75
22.5452	536.02
22.5596	543.11
22.5741	581.39
22.5885	531.80
22.6029	520.31
22.6174	525.44
22.6318	572.65
22.6463	607.14
22.6607	643.13
22.6751	645.84
22.6896	587.32
22.7040	611.45
22.7185	564.66
22.7329	646.88
22.7473	627.96
22.7618	578.85
22.7762	527.77
22.7907	536.17
22.8051	535.09
22.8195	581.06
22.8340	599.28
22.8484	552.09
22.8629	589.84
22.8773	645.16
22.8917	497.53
22.9062	536.27
22.9206	488.77
22.9351	553.44
22.9495	585.23
22.9639	555.08
22.9784	530.50
22.9928	547.50
23.0073	593.60
23.0217	616.75
23.0361	609.97
23.0506	582.02
23.0650	577.65
23.0795	508.31
23.0939	560.29
23.1083	561.21
23.1228	569.84
23.1372	581.87
23.1517	498.40
23.1661	534.54
23.1806	499.42
23.1950	534.47
23.2094	484.95
23.2239	572.44
23.2383	521.37
23.2528	509.18
23.2672	574.52
23.2816	563.13
23.2961	467.53
23.3105	622.98
23.3250	546.88
23.3394	574.96
23.3538	570.89
23.3683	538.44
23.3827	490.59
23.3972	493.20
23.4116	565.45
23.4260	620.84
23.4405	578.32
23.4549	458.28
23.4694	551.38
23.4838	512.86
23.4982	525.02
23.5127	519.56
23.5271	577.36
23.5416	577.77
23.5560	538.95
23.5704	513.85
23.5849	512.32
23.5993	549.00
23.6138	572.17
23.6282	534.57
23.6426	487.10
23.6571	577.77
23.6715	566.37
23.6860	503.62
23.7004	633.30
23.7148	594.49
23.7293	573.12
23.7437	508.87
23.7582	634.07
23.7726	618.56
23.7870	511.50
23.8015	539.62
23.8159	522.38
23.8304	600.43
23.8448	564.22
23.8592	550.61
23.8737	567.50
23.8881	503.40
23.9026	487.75
23.9170	519.52
23.9314	538.02
23.9459	602.86
23.9603	527.29
23.9748	569.87
23.9892	566.05
24.0036	537.80
24.0181	516.24
24.0325	606.40
24.0470	517.98
24.0614	581.15
24.0758	559.84
24.0903	631.21
24.1047	599.64
24.1192	567.02
24.1336	540.05
24.1480	575.90
24.1625	641.00
24.1769	580.71
24.1914	607.68
24.2058	589.27
24.2202	566.65
24.2347	634.28
24.2491	608.84
24.2636	580.91
24.2780	570.66
24.2924	574.99
24.3069	634.57
24.3213	554.36
24.3358	577.90
24.3502	550.73
24.3646	559.05
24.3791	562.83
24.3935	483.93
24.4080	516.24
24.4224	524.19
24.4368	608.83
24.4513	536.10
24.4657	554.30
24.4802	573.66
24.4946	568.07
24.5090	546.72
24.5235	575.58
24.5379	564.60
24.5524	536.36
24.5668	571.91
24.5812	573.38
24.5957	592.01
24.6101	570.40
24.6246	543.81
24.6390	487.28
24.6534	538.12
24.6679	567.19
24.6823	615.16
24.6968	569.56
24.7112	535.28
24.7256	541.08
24.7401	478.64
24.7545	534.72
24.7690	573.16
24.7834	526.71
24.7978	486.84
24.8123	469.06
24.8267	480.96
24.8412	536.13
24.8556	568.74
24.8700	582.94
24.8845	565.81
24.8989	529.65
24.9134	605.70
24.9278	521.50
24.9422	490.41
24.9567	485.42
24.9711	571.17
24.9856	531.23
25.0000	565.13
25.0144	555.94
25.0289	508.95
25.0433	507.54
25.0578	530.62
25.0722	554.14
25.0866	557.89
25.1011	569.37
25.1155	524.03
25.1300	512.97
25.1444	540.50
25.1588	556.69
25.1733	533.31
25.1877	573.99
25.2022	518.01
25.2166	550.43
25.2310	576.40
25.2455	566.52
25.2599	555.69
25.2744	534.50
25.2888	506.90
25.3032	527.50
25.3177	549.95
25.3321	521.93
25.3466	557.04
25.3610	574.02
25.3754	570.72
25.3899	541.50
25.4043	545.82
25.4188	541.52
25.4332	568.75
25.4476	539.84
25.4621	534.24
25.4765	547.09
25.4910	586.40
25.5054	520.65
25.5198	521.20
25.5343	537.00
25.5487	553.86
25.5632	525.18
25.5776	544.21
25.5920	562.52
25.6065	587.14
25.6209	537.94
25.6354	551.81
25.6498	526.95
25.6642	560.91
25.6787	538.75
25.6931	548.94
25.7076	552.80
25.7220	519.02
25.7364	554.86
25.7509	580.11
25.7653	549.24
25.7798	534.20
25.7942	523.45
25.8086	537.18
25.8231	545.32
25.8375	520.14
25.8520	522.52
25.8664	537.30
25.8808	517.80
25.8953	507.12
25.9097	535.09
25.9242	547.83
25.9386	526.40
25.9530	556.88
25.9675	491.85
25.9819	491.53
25.9964	541.74
26.0108	546.91
26.0252	537.01
26.0397	530.02
26.0541	523.90
26.0686	519.80
26.0830	511.61
26.0974	536.18
26.1119	539.77
26.1263	571.39
26.1408	526.07
26.1552	511.13
26.1696	499.74
26.1841	491.51
26.1985	513.01
26.2130	528.68
26.2274	551.50
26.2418	552.30
26.2563	530.68
26.2707	545.40
26.2852	570.75
26.2996	511.43
26.3140	517.45
26.3285	548.06
26.3429	518.73
26.3574	535.55
26.3718	550.06
26.3862	548.69
26.4007	504.59
26.4151	526.27
26.4296	527.22
26.4440	555.52
26.4584	541.24
26.4729	546.20
26.4873	567.21
26.5018	555.54
26.5162	539.23
26.5306	534.40
26.5451	546.02
26.5595	514.41
26.5740	551.99
26.5884	574.27
26.6028	592.65
26.6173	599.86
26.6317	558.98
26.6462	552.00
26.6606	531.23
26.6750	538.43
26.6895	563.59
26.7039	537.15
26.7184	534.46
26.7328	550.80
26.7472	539.73
26.7617	523.42
26.7761	502.17
26.7906	513.49
26.8050	522.01
26.8194	508.21
26.8339	548.20
26.8483	548.00
26.8628	556.47
26.8772	522.57
26.8917	497.64
26.9061	545.71
26.9205	560.36
26.9350	561.38
26.9494	538.50
26.9639	501.01
26.9783	501.22
26.9927	521.23
27.0072	513.67
27.0216	520.85
27.0361	518.79
27.0505	534.21
27.0649	565.86
27.0794	518.97
27.0938	536.16
27.1083	535.30
27.1227	530.64
27.1371	486.49
27.1516	456.37
27.1660	522.71
27.1805	541.96
27.1949	509.31
27.2093	508.06
27.2238	497.29
27.2382	495.25
27.2527	517.46
27.2671	493.32
27.2815	506.52
27.2960	507.48
27.3104	520.56
27.3249	497.00
27.3393	528.21
27.3537	536.81
27.3682	519.84
27.3826	504.45
27.3971	505.06
27.4115	525.82
27.4259	520.66
27.4404	499.24
27.4548	516.57
27.4693	535.57
27.4837	518.33
27.4981	534.11
27.5126	502.48
27.5270	513.81
27.5415	519.95
27.5559	522.76
27.5703	499.40
27.5848	492.36
27.5992	538.29
27.6137	522.38
27.6281	519.95
27.6425	537.23
27.6570	526.45
27.6714	557.24
27.6859	518.78
27.7003	537.86
27.7147	529.58
27.7292	518.34
27.7436	525.78
27.7581	506.53
27.7725	501.67
27.7869	531.19
27.8014	540.76
27.8158	525.05
27.8303	503.84
27.8447	517.24
27.8591	542.80
27.8736	551.29
27.8880	510.23
27.9025	519.97
27.9169	518.41
27.9313	509.83
27.9458	508.88
27.9602	507.48
27.9747	520.69
27.9891	506.58
28.0035	508.40
28.0180	547.47
28.0324	521.66
28.0469	501.03
28.0613	508.22
28.0757	477.70
28.0902	504.34
28.1046	518.42
28.1191	529.35
28.1335	511.15
28.1479	504.54
28.1624	530.72
28.1768	544.32
28.1913	480.72
28.2057	546.06
28.2201	520.64
28.2346	489.09
28.2490	553.76
28.2635	522.67
28.2779	529.04
28.2923	543.94
28.3068	537.51
28.3212	516.49
28.3357	499.92
28.3501	512.71
28.3645	526.08
28.3790	554.49
28.3934	528.25
28.4079	515.26
28.4223	551.35
28.4367	517.29
28.4512	525.97
28.4656	531.97
28.4801	566.43
28.4945	507.50
28.5089	503.01
28.5234	498.47
28.5378	510.41
28.5523	544.57
28.5667	505.53
28.5811	509.63
28.5956	511.61
28.6100	489.25
28.6245	504.40
28.6389	503.78
28.6533	500.54
28.6678	489.66
28.6822	487.25
28.6967	483.56
28.7111	523.97
28.7255	519.55
28.7400	496.27
28.7544	527.84
28.7689	528.41
28.7833	543.45
28.7977	518.05
28.8122	517.05
28.8266	564.11
28.8411	487.42
28.8555	493.79
28.8699	497.21
28.8844	497.21
28.8988	518.87
28.9133	551.56
28.9277	532.34
28.9421	482.12
28.9566	489.66
28.9710	534.89
28.9855	501.30
28.9999	507.37
29.0143	517.35
29.0288	509.25
29.0432	522.34
29.0577	517.30
29.0721	511.04
29.0865	507.32
29.1010	522.82
29.1154	503.22
29.1299	528.19
29.1443	497.68
29.1587	513.55
29.1732	507.73
29.1876	478.29
29.2021	492.16
29.2165	515.98
29.2309	490.06
29.2454	497.77
29.2598	503.75
29.2743	456.27
29.2887	493.91
29.3031	452.91
29.3176	505.43
29.3320	495.06
29.3465	507.47
29.3609	496.20
29.3753	516.30
29.3898	513.74
29.4042	498.54
29.4187	540.68
29.4331	534.51
29.4475	501.35
29.4620	516.87
29.4764	499.26
29.4909	501.85
29.5053	512.40
29.5197	511.00
29.5342	520.58
29.5486	508.94
29.5631	495.52
29.5775	505.96
29.5919	507.75
29.6064	541.89
29.6208	474.25
29.6353	505.88
29.6497	487.63
29.6641	508.80
29.6786	484.86
29.6930	509.51
29.7075	524.38
29.7219	509.77
29.7363	475.58
29.7508	543.20
29.7652	527.77
29.7797	520.06
29.7941	494.40
29.8085	502.00
29.8230	507.16
29.8374	521.91
29.8519	522.38
29.8663	513.80
29.8807	501.51
29.8952	495.96
29.9096	489.32
29.9241	512.16
29.9385	533.50
29.9529	534.88
29.9674	542.22
29.9818	502.44
29.9963	498.22
30.0107	499.56
30.0251	527.10
30.0396	529.16
30.0540	521.20
30.0685	530.51
30.0829	548.65
30.0973	537.47
30.1118	552.61
30.1262	532.08
30.1407	515.25
30.1551	534.17
30.1695	523.96
30.1840	495.55
30.1984	495.63
30.2129	498.52
30.2273	510.57
30.2417	530.25
30.2562	528.54
30.2706	504.47
30.2851	505.87
30.2995	506.65
30.3139	507.72
30.3284	511.11
30.3428	485.52
30.3573	519.06
30.3717	491.70
30.3861	493.81
30.4006	507.12
30.4150	519.60
30.4295	548.51
30.4439	527.56
30.4583	561.15
30.4728	565.25
30.4872	545.93
30.5017	537.44
30.5161	506.05
30.5305	532.09
30.5450	550.14
30.5594	582.84
30.5739	593.42
30.5883	616.89
30.6028	643.35
30.6172	652.70
30.6316	693.96
30.6461	733.47
30.6605	731.47
30.6750	709.73
30.6894	722.74
30.7038	713.51
30.7183	763.73
30.7327	685.75
30.7472	655.69
30.7616	654.82
30.7760	656.10
30.7905	656.76
30.8049	606.24
30.8194	554.60
30.8338	572.33
30.8482	559.81
30.8627	522.79
30.8771	538.07
30.8916	538.05
30.9060	517.68
30.9204	528.87
30.9349	534.89
30.9493	527.44
30.9638	521.69
30.9782	505.10
30.9926	513.39
31.0071	506.23
31.0215	522.16
31.0360	525.11
31.0504	502.88
31.0648	494.84
31.0793	490.80
31.0937	513.58
31.1082	492.65
31.1226	504.47
31.1370	514.99
31.1515	496.24
31.1659	499.31
31.1804	511.33
31.1948	497.33
31.2092	471.51
31.2237	521.72
31.2381	532.22
31.2526	523.09
31.2670	515.87
31.2814	550.22
31.2959	543.49
31.3103	553.16
31.3248	567.23
31.3392	570.33
31.3536	529.76
31.3681	503.03
31.3825	514.68
31.3970	503.63
31.4114	532.77
31.4258	528.89
31.4403	516.31
31.4547	505.59
31.4692	487.39
31.4836	531.10
31.4980	517.23
31.5125	493.65
31.5269	513.16
31.5414	523.92
31.5558	511.36
31.5702	502.75
31.5847	470.28
31.5991	508.44
31.6136	474.61
31.6280	502.17
31.6424	510.05
31.6569	502.74
31.6713	487.64
31.6858	502.64
31.7002	493.63
31.7146	508.08
31.7291	482.27
31.7435	472.45
31.7580	507.88
31.7724	516.66
31.7868	504.51
31.8013	494.38
31.8157	521.75
31.8302	514.02
31.8446	475.10
31.8590	526.22
31.8735	507.84
31.8879	488.64
31.9024	507.44
31.9168	534.10
31.9312	515.49
31.9457	494.99
31.9601	462.66
31.9746	499.16
31.9890	471.40
32.0034	486.51
32.0179	534.47
32.0323	493.62
32.0468	475.12
32.0612	529.60
32.0756	492.80
32.0901	517.47
32.1045	509.57
32.1190	503.55
32.1334	481.17
32.1478	482.80
32.1623	487.84
32.1767	505.87
32.1912	501.78
32.2056	486.32
32.2200	463.83
32.2345	500.39
32.2489	498.24
32.2634	486.63
32.2778	514.43
32.2922	503.43
32.3067	486.58
32.3211	483.11
32.3356	508.37
32.3500	507.41
32.3644	480.29
32.3789	535.01
32.3933	506.14
32.4078	489.71
32.4222	485.27
32.4366	469.29
32.4511	473.37
32.4655	540.97
32.4800	554.83
32.4944	533.96
32.5088	537.19
32.5233	507.99
32.5377	497.09
32.5522	493.88
32.5666	491.20
32.5810	497.78
32.5955	545.98
32.6099	542.43
32.6244	527.59
32.6388	495.37
32.6532	500.19
32.6677	497.97
32.6821	482.92
32.6966	486.63
32.7110	523.97
32.7254	522.22
32.7399	520.81
32.7543	513.93
32.7688	544.29
32.7832	509.78
32.7976	491.16
32.8121	535.34
32.8265	522.78
32.8410	511.54
32.8554	530.92
32.8698	514.97
32.8843	507.25
32.8987	509.49
32.9132	499.73
32.9276	522.45
32.9420	505.11
32.9565	514.27
32.9709	475.67
32.9854	484.16
32.9998	494.60
33.0142	486.76
33.0287	529.55
33.0431	522.90
33.0576	493.28
33.0720	511.81
33.0864	488.03
33.1009	498.61
33.1153	525.09
33.1298	503.01
33.1442	486.78
33.1586	499.22
33.1731	533.23
33.1875	480.71
33.2020	500.71
33.2164	524.70
33.2308	509.52
33.2453	517.02
33.2597	504.13
33.2742	496.10
33.2886	519.69
33.3030	514.17
33.3175	479.81
33.3319	497.26
33.3464	503.23
33.3608	513.32
33.3752	481.47
33.3897	524.46
33.4041	502.97
33.4186	481.96
33.4330	493.89
33.4474	488.44
33.4619	472.72
33.4763	521.92
33.4908	482.56
33.5052	529.92
33.5196	519.88
33.5341	515.70
33.5485	524.04
33.5630	494.52
33.5774	481.13
33.5918	499.43
33.6063	532.50
33.6207	483.70
33.6352	507.98
33.6496	510.35
33.6640	487.37
33.6785	492.54
33.6929	510.23
33.7074	537.98
33.7218	511.10
33.7362	529.46
33.7507	500.24
33.7651	474.34
33.7796	485.11
33.7940	502.55
33.8084	547.09
33.8229	502.79
33.8373	490.93
33.8518	501.66
33.8662	517.04
33.8806	519.71
33.8951	509.69
33.9095	522.73
33.9240	500.07
33.9384	520.52
33.9528	496.71
33.9673	516.84
33.9817	520.28
33.9962	489.93
34.0106	479.42
34.0250	522.62
34.0395	483.71
34.0539	513.73
34.0684	523.23
34.0828	500.59
34.0972	529.47
34.1117	501.54
34.1261	533.46
34.1406	526.93
34.1550	498.87
34.1694	542.17
34.1839	536.15
34.1983	500.92
34.2128	509.58
34.2272	517.39
34.2417	525.47
34.2561	527.03
34.2705	486.93
34.2850	502.33
34.2994	493.16
34.3139	533.80
34.3283	486.69
34.3427	493.42
34.3572	488.74
34.3716	488.40
34.3861	498.13
34.4005	512.15
34.4149	504.21
34.4294	510.08
34.4438	502.36
34.4583	507.41
34.4727	493.62
34.4871	538.01
34.5016	505.74
34.5160	510.28
34.5305	521.44
34.5449	538.91
34.5593	538.88
34.5738	524.24
34.5882	503.52
34.6027	491.94
34.6171	532.72
34.6315	512.65
34.6460	530.77
34.6604	522.95
34.6749	485.19
34.6893	470.92
34.7037	511.80
34.7182	499.40
34.7326	496.15
34.7471	501.80
34.7615	523.92
34.7759	503.38
34.7904	512.24
34.8048	534.89
34.8193	497.08
34.8337	523.75
34.8481	509.53
34.8626	526.35
34.8770	511.49
34.8915	491.19
34.9059	524.92
34.9203	524.86
34.9348	491.94
34.9492	480.15
34.9637	516.01
34.9781	513.78
34.9925	513.38
35.0070	487.21
35.0214	520.51
35.0359	513.48
35.0503	513.28
35.0647	480.56
35.0792	490.22
35.0936	535.74
35.1081	491.47
35.1225	505.77
35.1369	496.52
35.1514	522.98
35.1658	500.75
35.1803	489.56
35.1947	492.35
35.2091	501.66
35.2236	518.26
35.2380	489.14
35.2525	487.38
35.2669	522.65
35.2813	536.14
35.2958	546.17
35.3102	532.08
35.3247	522.51
35.3391	501.65
35.3535	524.21
35.3680	527.20
35.3824	501.40
35.3969	514.93
35.4113	498.58
35.4257	502.47
35.4402	520.45
35.4546	538.15
35.4691	504.43
35.4835	474.04
35.4979	505.69
35.5124	508.74
35.5268	518.87
35.5413	521.70
35.5557	529.91
35.5701	500.68
35.5846	529.52
35.5990	537.97
35.6135	533.27
35.6279	518.89
35.6423	517.53
35.6568	541.40
35.6712	538.29
35.6857	550.97
35.7001	648.86
35.7145	682.23
35.7290	692.18
35.7434	616.57
35.7579	595.10
35.7723	585.41
35.7867	588.15
35.8012	657.24
35.8156	626.18
35.8301	577.59
35.8445	610.74
35.8589	627.64
35.8734	733.39
35.8878	854.65
35.9023	1013.33
35.9167	1110.03
35.9311	1352.60
35.9456	2035.23
35.9600	2492.21
35.9745	2056.86
35.9889	1963.04
36.0033	2133.34
36.0178	2290.41
36.0322	2259.29
36.0467	2160.04
36.0611	1946.42
36.0755	1992.55
36.0900	1988.10
36.1044	1897.39
36.1189	1818.52
36.1333	1679.18
36.1477	1467.16
36.1622	1411.17
36.1766	1309.00
36.1911	1147.58
36.2055	1014.55
36.2199	989.95
36.2344	848.91
36.2488	754.92
36.2633	694.06
36.2777	643.04
36.2921	665.09
36.3066	662.23
36.3210	649.65
36.3355	625.80
36.3499	573.74
36.3643	537.84
36.3788	542.72
36.3932	555.78
36.4077	575.59
36.4221	572.67
36.4365	560.80
36.4510	520.97
36.4654	577.98
36.4799	522.89
36.4943	506.94
36.5087	516.03
36.5232	537.46
36.5376	528.03
36.5521	556.20
36.5665	516.37
36.5809	510.26
36.5954	560.60
36.6098	521.68
36.6243	519.70
36.6387	521.04
36.6531	528.51
36.6676	524.91
36.6820	534.00
36.6965	516.03
36.7109	556.88
36.7253	553.77
36.7398	574.41
36.7542	560.99
36.7687	534.21
36.7831	515.54
36.7975	575.56
36.8120	558.19
36.8264	555.64
36.8409	554.62
36.8553	605.23
36.8697	577.51
36.8842	596.31
36.8986	593.49
36.9131	592.86
36.9275	612.18
36.9419	564.63
36.9564	549.13
36.9708	570.12
36.9853	516.08
36.9997	543.49
37.0141	590.14
37.0286	572.70
37.0430	506.15
37.0575	500.28
37.0719	514.05
37.0863	542.63
37.1008	503.77
37.1152	526.76
37.1297	502.76
37.1441	519.32
37.1585	483.82
37.1730	507.45
37.1874	491.03
37.2019	473.73
37.2163	503.02
37.2307	525.37
37.2452	481.54
37.2596	500.89
37.2741	522.24
37.2885	513.41
37.3029	516.69
37.3174	521.92
37.3318	479.12
37.3463	509.60
37.3607	464.72
37.3751	496.46
37.3896	501.94
37.4040	512.05
37.4185	464.78
37.4329	496.76
37.4473	511.60
37.4618	483.52
37.4762	501.05
37.4907	509.72
37.5051	521.66
37.5195	513.65
37.5340	524.74
37.5484	525.56
37.5629	500.05
37.5773	518.40
37.5917	478.31
37.6062	496.44
37.6206	508.09
37.6351	515.00
37.6495	507.85
37.6639	497.47
37.6784	539.32
37.6928	515.68
37.7073	540.66
37.7217	527.08
37.7361	511.46
37.7506	527.16
37.7650	490.94
37.7795	505.40
37.7939	508.42
37.8083	490.50
37.8228	512.94
37.8372	506.36
37.8517	515.90
37.8661	505.73
37.8805	527.33
37.8950	508.83
37.9094	512.85
37.9239	507.52
37.9383	501.30
37.9528	473.50
37.9672	486.73
37.9816	482.83
37.9961	497.72
38.0105	531.54
38.0250	502.45
38.0394	491.46
38.0538	509.60
38.0683	522.98
38.0827	512.71
38.0972	486.44
38.1116	538.82
38.1260	543.47
38.1405	503.10
38.1549	509.91
38.1694	542.14
38.1838	513.17
38.1982	521.01
38.2127	519.99
38.2271	485.89
38.2416	523.88
38.2560	533.50
38.2704	478.38
38.2849	516.08
38.2993	523.80
38.3138	535.28
38.3282	495.04
38.3426	535.98
38.3571	501.10
38.3715	537.48
38.3860	523.36
38.4004	502.12
38.4148	539.84
38.4293	575.24
38.4437	585.49
38.4582	604.52
38.4726	658.35
38.4870	696.53
38.5015	719.92
38.5159	747.47
38.5304	807.36
38.5448	810.59
38.5592	836.75
38.5737	806.15
38.5881	717.44
38.6026	698.00
38.6170	688.68
38.6314	735.79
38.6459	689.38
38.6603	659.58
38.6748	620.57
38.6892	556.43
38.7036	569.00
38.7181	563.77
38.7325	537.02
38.7470	544.69
38.7614	542.05
38.7758	514.70
38.7903	521.12
38.8047	502.43
38.8192	510.75
38.8336	518.66
38.8480	510.51
38.8625	514.34
38.8769	508.72
38.8914	516.48
38.9058	491.38
38.9202	478.42
38.9347	510.72
38.9491	534.65
38.9636	500.43
38.9780	508.07
38.9924	498.07
39.0069	483.31
39.0213	503.99
39.0358	531.07
39.0502	517.14
39.0646	504.32
39.0791	496.93
39.0935	533.05
39.1080	500.34
39.1224	535.29
39.1368	511.93
39.1513	468.27
39.1657	500.62
39.1802	485.82
39.1946	473.18
39.2090	491.95
39.2235	482.66
39.2379	466.13
39.2524	497.66
39.2668	512.54
39.2812	506.49
39.2957	515.01
39.3101	518.25
39.3246	493.12
39.3390	505.12
39.3534	502.47
39.3679	525.89
39.3823	475.28
39.3968	488.62
39.4112	507.67
39.4256	536.19
39.4401	510.91
39.4545	490.81
39.4690	494.45
39.4834	526.39
39.4978	510.79
39.5123	498.52
39.5267	501.10
39.5412	508.26
39.5556	468.83
39.5700	512.28
39.5845	506.16
39.5989	486.69
39.6134	508.51
39.6278	508.97
39.6422	489.30
39.6567	480.92
39.6711	503.99
39.6856	498.23
39.7000	515.29
39.7144	531.92
39.7289	491.74
39.7433	498.44
39.7578	506.08
39.7722	479.34
39.7866	509.49
39.8011	479.17
39.8155	511.11
39.8300	464.37
39.8444	472.26
39.8588	501.49
39.8733	486.48
39.8877	527.96
39.9022	516.75
39.9166	492.87
39.9310	475.45
39.9455	475.96
39.9599	479.10
39.9744	499.06
39.9888	505.30
40.0032	462.82
40.0177	492.80
40.0321	487.49
40.0466	491.81
40.0610	520.02
40.0754	470.77
40.0899	469.63
40.1043	490.09
40.1188	511.57
40.1332	518.68
40.1476	498.60
40.1621	502.50
40.1765	523.43
40.1910	485.16
40.2054	482.46
40.2198	481.35
40.2343	480.41
40.2487	513.55
40.2632	470.30
40.2776	483.39
40.2920	494.16
40.3065	520.46
40.3209	468.32
40.3354	482.01
40.3498	466.01
40.3642	496.57
40.3787	497.72
40.3931	492.76
40.4076	468.51
40.4220	508.01
40.4364	528.45
40.4509	512.29
40.4653	470.43
40.4798	463.38
40.4942	477.41
40.5086	484.85
40.5231	521.87
40.5375	535.64
40.5520	476.56
40.5664	468.55
40.5808	533.13
40.5953	521.10
40.6097	512.14
40.6242	511.72
40.6386	496.92
40.6530	521.74
40.6675	511.73
40.6819	510.07
40.6964	487.63
40.7108	522.61
40.7252	501.84
40.7397	490.56
40.7541	508.28
40.7686	485.82
40.7830	479.64
40.7974	496.63
40.8119	493.63
40.8263	480.70
40.8408	480.88
40.8552	534.79
40.8696	524.30
40.8841	490.88
40.8985	516.76
40.9130	502.87
40.9274	502.02
40.9418	531.68
40.9563	481.41
40.9707	493.53
40.9852	482.96
40.9996	476.04
41.0140	524.72
41.0285	495.78
41.0429	473.44
41.0574	525.43
41.0718	467.73
41.0862	481.49
41.1007	468.99
41.1151	501.71
41.1296	508.97
41.1440	494.11
41.1584	517.28
41.1729	513.99
41.1873	487.88
41.2018	473.29
41.2162	520.32
41.2306	521.34
41.2451	513.58
41.2595	469.52
41.2740	495.92
41.2884	473.91
41.3028	504.98
41.3173	508.54
41.3317	510.94
41.3462	518.80
41.3606	499.91
41.3750	529.32
41.3895	494.44
41.4039	495.15
41.4184	482.62
41.4328	526.10
41.4472	464.68
41.4617	504.86
41.4761	503.21
41.4906	478.80
41.5050	462.13
41.5194	488.23
41.5339	522.13
41.5483	512.69
41.5628	538.36
41.5772	506.52
41.5916	511.64
41.6061	507.02
41.6205	472.13
41.6350	522.18
41.6494	496.72
41.6639	503.64
41.6783	487.91
41.6927	500.89
41.7072	501.26
41.7216	508.02
41.7361	507.36
41.7505	514.76
41.7649	516.08
41.7794	507.51
41.7938	511.60
41.8083	508.89
41.8227	525.15
41.8371	530.56
41.8516	512.67
41.8660	541.11
41.8805	526.53
41.8949	545.89
41.9093	605.61
41.9238	561.06
41.9382	539.62
41.9527	547.90
41.9671	558.40
41.9815	544.60
41.9960	569.11
42.0104	547.61
42.0249	535.34
42.0393	541.02
42.0537	596.59
42.0682	573.74
42.0826	592.94
42.0971	562.95
42.1115	567.07
42.1259	588.69
42.1404	584.88
42.1548	578.78
42.1693	632.07
42.1837	669.27
42.1981	735.32
42.2126	840.77
42.2270	949.55
42.2415	1025.17
42.2559	1154.63
42.2703	1288.62
42.2848	1429.00
42.2992	1536.72
42.3137	1640.95
42.3281	1640.65
42.3425	1499.36
42.3570	1479.84
42.3714	1379.26
42.3859	1340.66
42.4003	1313.01
42.4147	1309.24
42.4292	1337.13
42.4436	1167.69
42.4581	1052.94
42.4725	949.87
42.4869	857.87
42.5014	736.44
42.5158	657.26
42.5303	639.65
42.5447	582.76
42.5591	603.82
42.5736	602.05
42.5880	605.20
42.6025	591.32
42.6169	575.23
42.6313	575.54
42.6458	554.21
42.6602	561.50
42.6747	536.34
42.6891	517.47
42.7035	534.06
42.7180	520.79
42.7324	515.74
42.7469	532.16
42.7613	513.45
42.7757	528.78
42.7902	558.00
42.8046	561.37
42.8191	533.88
42.8335	500.44
42.8479	530.46
42.8624	496.86
42.8768	491.53
42.8913	492.21
42.9057	521.48
42.9201	512.67
42.9346	505.96
42.9490	522.42
42.9635	494.41
42.9779	487.74
42.9923	505.64
43.0068	510.13
43.0212	492.68
43.0357	492.74
43.0501	513.99
43.0645	526.61
43.0790	523.76
43.0934	498.95
43.1079	506.14
43.1223	519.99
43.1367	559.03
43.1512	537.21
43.1656	499.18
43.1801	515.78
43.1945	521.08
43.2089	528.88
43.2234	484.36
43.2378	505.50
43.2523	513.70
43.2667	507.27
43.2811	520.59
43.2956	511.29
43.3100	512.69
43.3245	498.36
43.3389	515.99
43.3533	525.66
43.3678	505.81
43.3822	508.89
43.3967	528.67
43.4111	527.17
43.4255	517.19
43.4400	521.39
43.4544	524.94
43.4689	531.95
43.4833	561.78
43.4977	522.01
43.5122	506.60
43.5266	504.88
43.5411	536.14
43.5555	509.97
43.5699	497.82
43.5844	522.91
43.5988	521.84
43.6133	524.45
43.6277	530.61
43.6421	530.77
43.6566	539.51
43.6710	552.85
43.6855	520.57
43.6999	554.50
43.7143	525.56
43.7288	522.60
43.7432	526.82
43.7577	535.30
43.7721	577.58
43.7865	559.48
43.8010	578.24
43.8154	593.00
43.8299	586.78
43.8443	600.60
43.8587	648.60
43.8732	644.88
43.8876	671.40
43.9021	687.83
43.9165	616.13
43.9309	620.52
43.9454	606.68
43.9598	618.99
43.9743	564.52
43.9887	630.55
44.0031	620.52
44.0176	609.67
44.0320	579.57
44.0465	563.43
44.0609	550.86
44.0753	559.51
44.0898	557.77
44.1042	539.42
44.1187	518.23
44.1331	506.19
44.1475	546.72
44.1620	518.18
44.1764	522.14
44.1909	486.15
44.2053	500.14
44.2197	497.15
44.2342	498.21
44.2486	523.92
44.2631	521.16
44.2775	531.64
44.2919	539.45
44.3064	545.25
44.3208	555.46
44.3353	564.91
44.3497	546.61
44.3641	527.10
44.3786	555.90
44.3930	564.93
44.4075	557.46
44.4219	544.90
44.4363	601.56
44.4508	564.20
44.4652	574.66
44.4797	619.76
44.4941	572.29
44.5085	574.06
44.5230	591.15
44.5374	570.09
44.5519	560.03
44.5663	562.38
44.5807	596.69
44.5952	576.40
44.6096	569.02
44.6241	551.71
44.6385	616.38
44.6529	595.75
44.6674	593.32
44.6818	549.88
44.6963	628.29
44.7107	646.97
44.7251	668.06
44.7396	744.55
44.7540	848.69
44.7685	822.80
44.7829	857.37
44.7973	857.92
44.8118	869.80
44.8262	803.20
44.8407	753.79
44.8551	745.44
44.8695	744.93
44.8840	730.12
44.8984	760.20
44.9129	712.65
44.9273	702.82
44.9417	662.43
44.9562	591.12
44.9706	581.28
44.9851	583.46
44.9995	523.67
45.0139	509.92
45.0284	503.85
45.0428	504.02
45.0573	489.03
45.0717	514.77
45.0861	516.45
45.1006	522.74
45.1150	541.72
45.1295	516.95
45.1439	492.65
45.1583	485.84
45.1728	543.65
45.1872	532.33
45.2017	534.53
45.2161	523.04
45.2305	528.68
45.2450	520.38
45.2594	500.08
45.2739	499.04
45.2883	521.18
45.3028	517.79
45.3172	517.59
45.3316	516.55
45.3461	525.33
45.3605	519.78
45.3750	509.27
45.3894	530.61
45.4038	529.18
45.4183	483.98
45.4327	519.38
45.4472	490.21
45.4616	487.32
45.4760	498.02
45.4905	506.48
45.5049	479.80
45.5194	488.79
45.5338	493.54
45.5482	525.57
45.5627	512.75
45.5771	482.10
45.5916	500.51
45.6060	508.43
45.6204	520.13
45.6349	513.72
45.6493	510.95
45.6638	508.57
45.6782	527.77
45.6926	532.30
45.7071	520.23
45.7215	524.01
45.7360	542.67
45.7504	513.52
45.7648	503.14
45.7793	493.62
45.7937	476.73
45.8082	517.38
45.8226	536.56
45.8370	507.71
45.8515	524.61
45.8659	496.30
45.8804	517.01
45.8948	515.80
45.9092	510.96
45.9237	502.62
45.9381	504.67
45.9526	471.44
45.9670	503.94
45.9814	490.82
45.9959	506.58
46.0103	488.46
46.0248	536.48
46.0392	511.08
46.0536	526.78
46.0681	522.16
46.0825	517.96
46.0970	512.58
46.1114	478.95
46.1258	494.11
46.1403	486.90
46.1547	511.82
46.1692	499.32
46.1836	495.18
46.1980	470.81
46.2125	521.51
46.2269	502.72
46.2414	491.59
46.2558	497.48
46.2702	455.49
46.2847	499.78
46.2991	519.14
46.3136	482.52
46.3280	491.14
46.3424	507.27
46.3569	515.13
46.3713	493.53
46.3858	479.01
46.4002	482.66
46.4146	514.37
46.4291	527.99
46.4435	499.56
46.4580	472.43
46.4724	502.37
46.4868	514.01
46.5013	504.22
46.5157	470.17
46.5302	482.33
46.5446	460.55
46.5590	494.27
46.5735	493.94
46.5879	489.93
46.6024	484.69
46.6168	504.15
46.6312	517.14
46.6457	485.87
46.6601	475.50
46.6746	468.72
46.6890	476.70
46.7034	472.51
46.7179	495.53
46.7323	518.06
46.7468	507.30
46.7612	513.70
46.7756	545.33
46.7901	523.40
46.8045	471.30
46.8190	493.56
46.8334	514.50
46.8478	469.30
46.8623	490.40
46.8767	521.35
46.8912	547.89
46.9056	563.03
46.9200	506.58
46.9345	487.85
46.9489	524.68
46.9634	505.83
46.9778	517.37
46.9922	509.59
47.0067	505.29
47.0211	497.77
47.0356	493.96
47.0500	493.97
47.0644	492.36
47.0789	499.66
47.0933	491.24
47.1078	497.33
47.1222	499.91
47.1366	489.18
47.1511	494.13
47.1655	491.32
47.1800	489.44
47.1944	476.03
47.2088	511.14
47.2233	508.67
47.2377	504.27
47.2522	502.42
47.2666	515.89
47.2810	526.19
47.2955	492.78
47.3099	523.22
47.3244	498.98
47.3388	515.75
47.3532	492.74
47.3677	471.21
47.3821	487.95
47.3966	519.31
47.4110	482.32
47.4254	521.38
47.4399	483.49
47.4543	501.52
47.4688	514.76
47.4832	539.44
47.4976	528.56
47.5121	502.89
47.5265	516.85
47.5410	511.71
47.5554	486.01
47.5698	509.34
47.5843	499.54
47.5987	529.07
47.6132	497.35
47.6276	502.95
47.6420	529.13
47.6565	508.06
47.6709	496.91
47.6854	499.45
47.6998	512.46
47.7142	542.46
47.7287	492.56
47.7431	499.74
47.7576	546.35
47.7720	514.03
47.7864	505.82
47.8009	524.87
47.8153	520.29
47.8298	533.52
47.8442	528.72
47.8586	502.37
47.8731	515.71
47.8875	509.10
47.9020	561.65
47.9164	552.52
47.9308	531.70
47.9453	539.53
47.9597	502.68
47.9742	524.50
47.9886	499.18
48.0030	491.79
48.0175	517.31
48.0319	550.52
48.0464	536.46
48.0608	514.97
48.0752	533.29
48.0897	540.57
48.1041	504.29
48.1186	514.47
48.1330	531.21
48.1474	527.25
48.1619	501.02
48.1763	532.50
48.1908	490.73
48.2052	495.16
48.2196	477.20
48.2341	508.93
48.2485	487.57
48.2630	521.54
48.2774	508.03
48.2918	538.73
48.3063	533.26
48.3207	539.13
48.3352	537.47
48.3496	509.78
48.3640	515.16
48.3785	508.32
48.3929	490.53
48.4074	483.63
48.4218	508.04
48.4362	502.67
48.4507	488.99
48.4651	501.23
48.4796	499.59
48.4940	492.84
48.5084	503.51
48.5229	507.55
48.5373	496.42
48.5518	514.34
48.5662	517.91
48.5806	491.45
48.5951	517.45
48.6095	492.45
48.6240	519.06
48.6384	531.28
48.6528	497.11
48.6673	512.32
48.6817	522.73
48.6962	516.15
48.7106	511.00
48.7250	533.36
48.7395	523.43
48.7539	534.25
48.7684	527.04
48.7828	539.41
48.7972	519.49
48.8117	540.27
48.8261	541.29
48.8406	534.45
48.8550	526.92
48.8694	560.94
48.8839	530.01
48.8983	547.03
48.9128	533.84
48.9272	555.57
48.9416	550.14
48.9561	566.29
48.9705	567.87
48.9850	592.76
48.9994	580.06
49.0139	549.80
49.0283	583.49
49.0427	591.85
49.0572	614.03
49.0716	618.11
49.0861	704.37
49.1005	675.97
49.1149	642.82
49.1294	682.54
49.1438	726.00
49.1583	761.80
49.1727	804.53
49.1871	820.90
49.2016	900.04
49.2160	973.99
49.2305	1094.15
49.2449	1182.90
49.2593	1201.49
49.2738	1339.42
49.2882	1383.45
49.3027	1497.19
49.3171	1620.98
49.3315	1633.62
49.3460	1679.01
49.3604	1706.46
49.3749	1728.40
49.3893	1686.22
49.4037	1778.17
49.4182	1748.52
49.4326	1723.65
49.4471	1625.76
49.4615	1617.23
49.4759	1588.08
49.4904	1514.94
49.5048	1392.36
49.5193	1314.23
49.5337	1242.60
49.5481	1174.73
49.5626	1147.58
49.5770	1058.97
49.5915	1025.82
49.6059	937.85
49.6203	859.36
49.6348	834.11
49.6492	805.49
49.6637	769.69
49.6781	699.98
49.6925	682.02
49.7070	695.31
49.7214	665.72
49.7359	631.80
49.7503	652.93
49.7647	636.68
49.7792	596.58
49.7936	578.57
49.8081	558.36
49.8225	566.16
49.8369	591.37
49.8514	584.30
49.8658	549.90
49.8803	552.30
49.8947	594.45
49.9091	610.07
49.9236	585.37
49.9380	558.80
49.9525	531.13
49.9669	536.83
49.9813	534.36
49.9958	517.75
50.0102	486.55
50.0247	516.11
50.0391	538.23
50.0535	558.80
50.0680	553.71
50.0824	525.44
50.0969	501.20
50.1113	505.57
50.1257	528.29
50.1402	490.84
50.1546	493.19
50.1691	547.73
50.1835	513.20
50.1979	517.88
50.2124	529.50
50.2268	493.30
50.2413	511.86
50.2557	524.47
50.2701	484.01
50.2846	495.65
50.2990	523.06
50.3135	528.39
50.3279	544.46
50.3423	506.47
50.3568	496.55
50.3712	486.42
50.3857	494.32
50.4001	503.26
50.4145	500.06
50.4290	535.77
50.4434	500.48
50.4579	459.65
50.4723	525.01
50.4867	573.55
50.5012	506.30
50.5156	516.55
50.5301	533.89
50.5445	502.58
50.5589	529.73
50.5734	514.06
50.5878	503.42
50.6023	505.24
50.6167	490.18
50.6311	507.10
50.6456	537.17
50.6600	504.64
50.6745	505.51
50.6889	483.16
50.7033	513.44
50.7178	530.32
50.7322	532.06
50.7467	546.74
50.7611	520.69
50.7755	526.18
50.7900	497.15
50.8044	492.82
50.8189	526.07
50.8333	524.76
50.8477	505.19
50.8622	523.87
50.8766	507.84
50.8911	492.51
50.9055	506.25
50.9199	493.61
50.9344	491.40
50.9488	492.29
50.9633	493.64
50.9777	508.44
50.9921	524.18
51.0066	520.87
51.0210	527.37
51.0355	510.17
51.0499	512.69
51.0643	554.58
51.0788	536.65
51.0932	491.60
51.1077	466.09
51.1221	530.59
51.1365	533.92
51.1510	510.27
51.1654	497.51
51.1799	490.93
51.1943	479.64
51.2087	527.16
51.2232	505.10
51.2376	518.46
51.2521	483.31
51.2665	499.06
51.2809	522.35
51.2954	518.23
51.3098	505.45
51.3243	496.03
51.3387	503.94
51.3531	505.68
51.3676	515.28
51.3820	524.71
51.3965	515.32
51.4109	511.57
51.4253	541.45
51.4398	538.29
51.4542	491.05
51.4687	517.15
51.4831	485.37
51.4975	503.71
51.5120	532.11
51.5264	489.57
51.5409	518.77
51.5553	503.47
51.5697	527.16
51.5842	552.86
51.5986	540.74
51.6131	553.94
51.6275	540.44
51.6419	527.89
51.6564	512.60
51.6708	484.93
51.6853	478.94
51.6997	502.09
51.7141	510.80
51.7286	490.00
51.7430	467.72
51.7575	493.05
51.7719	501.62
51.7863	517.93
51.8008	531.97
51.8152	519.82
51.8297	545.30
51.8441	519.81
51.8585	514.39
51.8730	502.11
51.8874	491.28
51.9019	510.22
51.9163	522.66
51.9307	509.62
51.9452	490.52
51.9596	481.90
51.9741	523.24
51.9885	536.10
52.0029	537.62
52.0174	529.91
52.0318	519.26
52.0463	516.79
52.0607	521.96
52.0751	527.47
52.0896	516.59
52.1040	501.89
52.1185	547.06
52.1329	526.43
52.1473	515.94
52.1618	542.56
52.1762	511.64
52.1907	513.67
52.2051	493.43
52.2195	500.24
52.2340	502.19
52.2484	520.29
52.2629	541.75
52.2773	517.12
52.2917	528.23
52.3062	512.97
52.3206	517.62
52.3351	505.24
52.3495	510.91
52.3639	481.97
52.3784	509.21
52.3928	489.50
52.4073	468.91
52.4217	518.03
52.4361	508.53
52.4506	519.66
52.4650	514.21
52.4795	534.34
52.4939	482.75
52.5083	475.99
52.5228	482.78
52.5372	517.81
52.5517	512.41
52.5661	497.95
52.5805	489.94
52.5950	480.32
52.6094	508.32
52.6239	494.04
52.6383	515.32
52.6527	544.41
52.6672	532.58
52.6816	495.98
52.6961	498.25
52.7105	558.22
52.7250	517.48
52.7394	473.69
52.7538	538.72
52.7683	528.80
52.7827	517.39
52.7972	505.30
52.8116	514.61
52.8260	523.80
52.8405	532.65
52.8549	506.51
52.8694	503.77
52.8838	488.66
52.8982	516.53
52.9127	515.56
52.9271	518.28
52.9416	559.63
52.9560	523.13
52.9704	523.73
52.9849	515.53
52.9993	492.47
53.0138	551.60
53.0282	539.06
53.0426	543.69
53.0571	561.23
53.0715	566.40
53.0860	549.35
53.1004	535.83
53.1148	494.27
53.1293	504.28
53.1437	481.22
53.1582	504.41
53.1726	507.67
53.1870	509.66
53.2015	502.58
53.2159	525.76
53.2304	519.95
53.2448	505.55
53.2592	511.13
53.2737	506.39
53.2881	536.70
53.3026	514.08
53.3170	540.02
53.3314	563.08
53.3459	522.89
53.3603	485.37
53.3748	508.30
53.3892	510.20
53.4036	539.82
53.4181	513.72
53.4325	549.98
53.4470	505.19
53.4614	513.67
53.4758	534.84
53.4903	523.49
53.5047	492.29
53.5192	491.79
53.5336	508.50
53.5480	519.70
53.5625	536.20
53.5769	536.04
53.5914	546.45
53.6058	504.71
53.6202	518.00
53.6347	537.06
53.6491	501.16
53.6636	498.79
53.6780	486.20
53.6924	500.06
53.7069	552.93
53.7213	523.68
53.7358	476.86
53.7502	508.19
53.7646	499.13
53.7791	555.38
53.7935	518.11
53.8080	494.01
53.8224	506.52
53.8368	510.15
53.8513	503.41
53.8657	504.95
53.8802	494.86
53.8946	491.23
53.9090	497.19
53.9235	509.71
53.9379	528.38
53.9524	502.41
53.9668	552.54
53.9812	538.61
53.9957	550.37
54.0101	552.84
54.0246	523.45
54.0390	530.77
54.0534	496.92
54.0679	550.54
54.0823	540.29
54.0968	559.84
54.1112	566.37
54.1256	556.55
54.1401	523.90
54.1545	515.78
54.1690	542.07
54.1834	524.32
54.1978	524.62
54.2123	545.17
54.2267	556.80
54.2412	542.37
54.2556	530.57
54.2700	533.00
54.2845	558.75
54.2989	550.09
54.3134	530.19
54.3278	537.60
54.3422	568.00
54.3567	554.84
54.3711	545.95
54.3856	563.36
54.4000	584.30
54.4144	602.42
54.4289	625.65
54.4433	624.78
54.4578	608.36
54.4722	585.76
54.4866	608.32
54.5011	606.22
54.5155	572.99
54.5300	591.25
54.5444	609.25
54.5588	619.44
54.5733	609.05
54.5877	598.78
54.6022	590.91
54.6166	588.07
54.6310	587.16
54.6455	561.01
54.6599	522.41
54.6744	530.88
54.6888	564.56
54.7032	560.04
54.7177	538.14
54.7321	545.32
54.7466	549.51
54.7610	530.14
54.7754	502.29
54.7899	524.94
54.8043	534.63
54.8188	528.79
54.8332	527.97
54.8476	517.07
54.8621	526.69
54.8765	536.34
54.8910	535.97
54.9054	546.04
54.9198	547.63
54.9343	535.36
54.9487	527.43
54.9632	489.27
54.9776	525.99
54.9920	529.67
55.0065	506.15
55.0209	550.13
55.0354	555.34
55.0498	530.70
55.0642	512.26
55.0787	495.76
55.0931	509.24
55.1076	515.10
55.1220	538.84
55.1364	497.40
55.1509	521.48
55.1653	550.25
55.1798	561.38
55.1942	533.86
55.2086	547.64
55.2231	513.20
55.2375	527.31
55.2520	509.24
55.2664	509.26
55.2808	501.60
55.2953	488.46
55.3097	495.95
55.3242	500.74
55.3386	535.23
55.3530	507.24
55.3675	523.09
55.3819	529.83
55.3964	526.38
55.4108	530.46
55.4252	536.02
55.4397	535.58
55.4541	535.02
55.4686	518.46
55.4830	500.41
55.4974	509.78
55.5119	534.95
55.5263	543.41
55.5408	538.78
55.5552	536.88
55.5696	513.64
55.5841	517.50
55.5985	523.34
55.6130	505.73
55.6274	498.56
55.6418	512.40
55.6563	516.62
55.6707	548.19
55.6852	528.66
55.6996	535.73
55.7140	531.71
55.7285	530.37
55.7429	521.55
55.7574	543.93
55.7718	527.07
55.7862	501.39
55.8007	534.72
55.8151	550.84
55.8296	548.68
55.8440	549.16
55.8584	546.40
55.8729	527.70
55.8873	498.54
55.9018	522.64
55.9162	501.10
55.9306	495.62
55.9451	525.73
55.9595	487.40
55.9740	509.46
55.9884	509.85
56.0028	525.09
56.0173	492.00
56.0317	561.01
56.0462	565.15
56.0606	548.32
56.0750	516.35
56.0895	524.70
56.1039	517.82
56.1184	537.75
56.1328	519.20
56.1472	499.43
56.1617	532.11
56.1761	524.73
56.1906	500.74
56.2050	556.23
56.2194	505.28
56.2339	490.29
56.2483	530.80
56.2628	520.19
56.2772	512.24
56.2916	515.46
56.3061	502.50
56.3205	513.41
56.3350	514.63
56.3494	506.65
56.3639	496.39
56.3783	514.58
56.3927	549.73
56.4072	498.85
56.4216	531.75
56.4361	520.48
56.4505	506.41
56.4649	509.98
56.4794	506.80
56.4938	545.06
56.5083	536.49
56.5227	525.27
56.5371	539.53
56.5516	543.74
56.5660	504.39
56.5805	522.32
56.5949	530.87
56.6093	537.99
56.6238	539.77
56.6382	530.70
56.6527	504.97
56.6671	478.84
56.6815	491.30
56.6960	495.37
56.7104	517.15
56.7249	533.56
56.7393	532.83
56.7537	520.50
56.7682	499.99
56.7826	507.40
56.7971	535.52
56.8115	533.54
56.8259	527.26
56.8404	497.61
56.8548	539.51
56.8693	531.43
56.8837	512.25
56.8981	520.70
56.9126	526.55
56.9270	526.04
56.9415	524.68
56.9559	557.58
56.9703	478.33
56.9848	498.71
56.9992	512.29
57.0137	499.41
57.0281	523.08
57.0425	533.99
57.0570	577.62
57.0714	520.77
57.0859	536.02
57.1003	535.77
57.1147	509.20
57.1292	507.47
57.1436	476.68
57.1581	491.50
57.1725	539.47
57.1869	484.85
57.2014	493.97
57.2158	521.89
57.2303	497.60
57.2447	501.57
57.2591	528.64
57.2736	531.36
57.2880	565.18
57.3025	535.60
57.3169	508.88
57.3313	549.91
57.3458	565.45
57.3602	528.11
57.3747	513.62
57.3891	502.83
57.4035	521.84
57.4180	539.28
57.4324	568.91
57.4469	505.96
57.4613	533.36
57.4757	546.93
57.4902	527.90
57.5046	532.69
57.5191	552.48
57.5335	528.29
57.5479	556.11
57.5624	555.66
57.5768	518.97
57.5913	564.40
57.6057	493.95
57.6201	516.38
57.6346	547.73
57.6490	528.30
57.6635	545.81
57.6779	526.95
57.6923	541.69
57.7068	523.71
57.7212	532.16
57.7357	527.89
57.7501	522.64
57.7645	531.16
57.7790	565.90
57.7934	554.22
57.8079	554.43
57.8223	552.96
57.8367	548.34
57.8512	529.40
57.8656	532.93
57.8801	572.72
57.8945	537.31
57.9089	582.80
57.9234	532.06
57.9378	607.52
57.9523	590.69
57.9667	602.37
57.9811	624.51
57.9956	640.83
58.0100	617.73
58.0245	649.86
58.0389	701.88
58.0533	688.49
58.0678	691.16
58.0822	667.45
58.0967	703.13
58.1111	712.50
58.1255	662.42
58.1400	652.36
58.1544	689.72
58.1689	692.27
58.1833	644.41
58.1977	646.50
58.2122	674.35
58.2266	695.26
58.2411	672.93
58.2555	625.72
58.2699	601.07
58.2844	611.64
58.2988	618.78
58.3133	600.68
58.3277	575.56
58.3421	560.38
58.3566	556.94
58.3710	551.41
58.3855	539.07
58.3999	533.11
58.4143	530.38
58.4288	552.13
58.4432	541.40
58.4577	524.92
58.4721	565.85
58.4865	573.97
58.5010	555.53
58.5154	570.94
58.5299	546.29
58.5443	557.00
58.5587	562.86
58.5732	554.36
58.5876	557.20
58.6021	565.69
58.6165	529.64
58.6309	542.74
58.6454	535.17
58.6598	543.20
58.6743	526.57
58.6887	513.65
58.7031	512.24
58.7176	559.07
58.7320	541.26
58.7465	555.55
58.7609	538.76
58.7753	540.56
58.7898	504.74
58.8042	540.14
58.8187	517.77
58.8331	517.51
58.8475	538.48
58.8620	521.49
58.8764	532.98
58.8909	509.44
58.9053	514.10
58.9197	542.62
58.9342	542.46
58.9486	579.86
58.9631	548.59
58.9775	578.12
58.9919	576.33
59.0064	530.00
59.0208	530.60
59.0353	529.82
59.0497	538.74
59.0641	548.99
59.0786	509.23
59.0930	543.83
59.1075	539.25
59.1219	529.51
59.1363	540.52
59.1508	543.61
59.1652	569.68
59.1797	523.22
59.1941	514.25
59.2085	520.76
59.2230	541.01
59.2374	581.95
59.2519	547.65
59.2663	544.39
59.2807	568.30
59.2952	569.30
59.3096	552.37
59.3241	542.28
59.3385	561.07
59.3529	537.49
59.3674	570.40
59.3818	578.63
59.3963	569.76
59.4107	563.10
59.4251	592.34
59.4396	568.66
59.4540	550.44
59.4685	547.66
59.4829	553.86
59.4973	562.37
59.5118	540.37
59.5262	564.35
59.5407	548.60
59.5551	580.50
59.5695	572.59
59.5840	545.71
59.5984	533.30
59.6129	544.29
59.6273	538.11
59.6417	549.12
59.6562	521.31
59.6706	550.51
59.6851	519.26
59.6995	589.42
59.7139	571.54
59.7284	521.16
59.7428	548.35
59.7573	529.97
59.7717	533.53
59.7861	527.43
59.8006	559.06
59.8150	579.72
59.8295	563.10
59.8439	502.21
59.8583	525.61
59.8728	541.56
59.8872	526.93
59.9017	555.62
59.9161	554.14
59.9305	562.24
59.9450	570.75
59.9594	541.52
59.9739	532.12
59.9883	504.50
60.0027	516.38
60.0172	522.70
60.0316	539.46
60.0461	526.46
60.0605	549.31
60.0750	580.11
60.0894	558.87
60.1038	537.38
60.1183	518.04
60.1327	538.54
60.1472	508.37
60.1616	531.62
60.1760	517.29
60.1905	516.12
60.2049	533.53
60.2194	526.13
60.2338	543.77
60.2482	548.10
60.2627	558.92
60.2771	583.10
60.2916	543.07
60.3060	536.95
60.3204	554.44
60.3349	562.58
60.3493	578.30
60.3638	551.47
60.3782	518.24
60.3926	515.56
60.4071	533.28
60.4215	535.32
60.4360	532.68
60.4504	513.88
60.4648	538.49
60.4793	531.06
60.4937	539.66
60.5082	556.22
60.5226	521.83
60.5370	548.55
60.5515	541.00
60.5659	524.95
60.5804	546.98
60.5948	518.43
60.6092	543.77
60.6237	547.60
60.6381	523.45
60.6526	522.22
60.6670	529.13
60.6814	518.41
60.6959	557.17
60.7103	523.44
60.7248	516.38
60.7392	530.17
60.7536	553.39
60.7681	534.96
60.7825	564.70
60.7970	526.63
60.8114	546.60
60.8258	545.31
60.8403	519.97
60.8547	532.86
60.8692	521.97
60.8836	512.19
60.8980	556.75
60.9125	546.14
60.9269	550.17
60.9414	570.84
60.9558	551.58
60.9702	540.55
60.9847	526.24
60.9991	564.26
61.0136	502.82
61.0280	515.04
61.0424	526.86
61.0569	524.79
61.0713	563.84
61.0858	567.77
61.1002	526.90
61.1146	497.38
61.1291	505.22
61.1435	541.72
61.1580	539.04
61.1724	545.46
61.1868	559.70
61.2013	530.30
61.2157	541.02
61.2302	503.49
61.2446	536.65
61.2590	517.61
61.2735	519.27
61.2879	543.10
61.3024	495.89
61.3168	529.88
61.3312	556.58
61.3457	533.09
61.3601	550.81
61.3746	551.29
61.3890	552.77
61.4034	546.21
61.4179	559.59
61.4323	582.80
61.4468	523.08
61.4612	543.64
61.4756	523.54
61.4901	511.91
61.5045	532.66
61.5190	510.49
61.5334	508.62
61.5478	508.67
61.5623	521.94
61.5767	549.31
61.5912	540.67
61.6056	538.28
61.6200	538.61
61.6345	581.80
61.6489	525.51
61.6634	519.25
61.6778	527.75
61.6922	540.75
61.7067	545.07
61.7211	542.32
61.7356	522.99
61.7500	553.27
61.7644	542.80
61.7789	536.57
61.7933	579.44
61.8078	547.26
61.8222	530.92
61.8366	570.14
61.8511	542.58
61.8655	571.91
61.8800	561.98
61.8944	558.55
61.9088	558.96
61.9233	531.57
61.9377	565.21
61.9522	571.38
61.9666	553.71
61.9810	556.26
61.9955	590.49
62.0099	568.71
62.0244	545.86
62.0388	518.56
62.0532	521.33
62.0677	551.89
62.0821	529.40
62.0966	536.64
62.1110	562.78
62.1254	537.79
62.1399	579.18
62.1543	554.84
62.1688	526.26
62.1832	528.97
62.1976	530.72
62.2121	564.95
62.2265	552.10
62.2410	544.29
62.2554	582.57
62.2698	573.21
62.2843	564.03
62.2987	524.94
62.3132	578.98
62.3276	566.05
62.3420	577.35
62.3565	529.16
62.3709	565.26
62.3854	549.62
62.3998	536.40
62.4142	557.61
62.4287	604.41
62.4431	555.96
62.4576	561.71
62.4720	558.20
62.4864	577.17
62.5009	580.47
62.5153	554.07
62.5298	562.78
62.5442	532.08
62.5586	529.07
62.5731	535.81
62.5875	568.07
62.6020	566.77
62.6164	566.63
62.6308	561.89
62.6453	555.47
62.6597	561.33
62.6742	579.31
62.6886	564.31
62.7030	563.29
62.7175	559.66
62.7319	568.55
62.7464	561.37
62.7608	604.46
62.7752	581.24
62.7897	556.49
62.8041	556.19
62.8186	532.65
62.8330	567.58
62.8474	571.62
62.8619	568.54
62.8763	559.52
62.8908	584.11
62.9052	605.61
62.9196	595.98
62.9341	588.75
62.9485	607.52
62.9630	568.54
62.9774	530.30
62.9918	590.12
63.0063	559.67
63.0207	548.78
63.0352	555.32
63.0496	559.17
63.0640	582.62
63.0785	585.66
63.0929	589.31
63.1074	567.61
63.1218	605.18
63.1362	570.34
63.1507	558.68
63.1651	594.39
63.1796	591.94
63.1940	573.08
63.2084	584.25
63.2229	594.63
63.2373	593.65
63.2518	588.71
63.2662	562.03
63.2806	553.77
63.2951	558.64
63.3095	547.90
63.3240	544.93
63.3384	591.40
63.3528	546.31
63.3673	598.76
63.3817	585.75
63.3962	587.25
63.4106	566.57
63.4250	619.27
63.4395	608.29
63.4539	592.70
63.4684	614.84
63.4828	625.68
63.4972	622.42
63.5117	588.24
63.5261	627.80
63.5406	590.38
63.5550	614.17
63.5694	613.62
63.5839	622.52
63.5983	638.05
63.6128	674.04
63.6272	617.67
63.6416	659.14
63.6561	656.53
63.6705	696.49
63.6850	721.73
63.6994	783.26
63.7138	818.04
63.7283	862.69
63.7427	910.18
63.7572	905.03
63.7716	885.64
63.7861	901.45
63.8005	878.76
63.8149	840.48
63.8294	818.89
63.8438	823.67
63.8583	788.34
63.8727	781.38
63.8871	738.92
63.9016	769.85
63.9160	787.15
63.9305	748.45
63.9449	798.47
63.9593	761.33
63.9738	781.53
63.9882	781.86
64.0027	723.54
64.0171	766.97
64.0315	739.46
64.0460	734.58
64.0604	714.92
64.0749	661.07
64.0893	681.14
64.1037	617.00
64.1182	655.23
64.1326	647.01
64.1471	630.00
64.1615	641.59
64.1759	636.48
64.1904	595.78
64.2048	626.53
64.2193	631.18
64.2337	649.86
64.2481	632.50
64.2626	593.50
64.2770	650.03
64.2915	631.90
64.3059	604.48
64.3203	641.54
64.3348	633.98
64.3492	620.50
64.3637	619.36
64.3781	613.87
64.3925	640.83
64.4070	636.84
64.4214	596.09
64.4359	649.78
64.4503	638.49
64.4647	648.01
64.4792	680.62
64.4936	667.69
64.5081	629.19
64.5225	604.68
64.5369	646.83
64.5514	679.50
64.5658	660.85
64.5803	608.53
64.5947	622.64
64.6091	618.02
64.6236	615.71
64.6380	681.50
64.6525	688.48
64.6669	636.37
64.6813	682.28
64.6958	693.23
64.7102	732.17
64.7247	678.25
64.7391	674.77
64.7535	693.85
64.7680	690.28
64.7824	741.37
64.7969	699.38
64.8113	773.16
64.8257	782.06
64.8402	831.93
64.8546	786.00
64.8691	824.15
64.8835	858.76
64.8979	858.68
64.9124	871.47
64.9268	899.95
64.9413	913.56
64.9557	966.82
64.9701	1017.41
64.9846	1105.11
64.9990	1127.07
65.0135	1278.02
65.0279	1450.36
65.0423	1726.78
65.0568	2116.63
65.0712	2767.83
65.0857	3421.30
65.1001	4574.89
65.1145	6205.02
65.1290	8023.85
65.1434	9632.25
65.1579	11150.34
65.1723	11794.29
65.1867	11186.17
65.2012	10027.89
65.2156	8452.46
65.2301	6618.30
65.2445	5364.18
65.2589	4435.76
65.2734	4169.65
65.2878	4449.77
65.3023	5022.42
65.3167	5682.27
65.3311	6551.61
65.3456	6984.02
65.3600	6892.22
65.3745	6538.59
65.3889	5539.66
65.4033	4358.51
65.4178	3379.55
65.4322	2706.52
65.4467	2120.04
65.4611	1736.83
65.4755	1493.83
65.4900	1273.91
65.5044	1144.10
65.5189	997.80
65.5333	945.44
65.5477	884.61
65.5622	841.64
65.5766	865.04
65.5911	899.50
65.6055	793.18
65.6199	768.40
65.6344	762.81
65.6488	754.25
65.6633	735.06
65.6777	698.54
65.6921	705.97
65.7066	735.35
65.7210	696.64
65.7355	679.40
65.7499	666.93
65.7643	680.49
65.7788	690.57
65.7932	706.15
65.8077	669.90
65.8221	679.73
65.8365	697.23
65.8510	646.94
65.8654	679.10
65.8799	651.97
65.8943	690.84
65.9087	695.96
65.9232	636.96
65.9376	644.00
65.9521	645.21
65.9665	614.46
65.9809	630.30
65.9954	658.23
66.0098	637.52
66.0243	625.93
66.0387	597.33
66.0531	571.14
66.0676	608.11
66.0820	619.72
66.0965	575.30
66.1109	603.82
66.1253	619.56
66.1398	624.44
66.1542	626.02
66.1687	629.88
66.1831	621.50
66.1975	605.15
66.2120	621.67
66.2264	602.93
66.2409	653.85
66.2553	605.25
66.2697	594.08
66.2842	602.02
66.2986	629.01
66.3131	604.88
66.3275	612.70
66.3419	608.12
66.3564	611.22
66.3708	600.51
66.3853	584.71
66.3997	556.55
66.4141	592.53
66.4286	599.80
66.4430	594.39
66.4575	607.69
66.4719	599.09
66.4863	657.19
66.5008	641.18
66.5152	615.38
66.5297	595.48
66.5441	588.83
66.5585	608.89
66.5730	571.54
66.5874	581.97
66.6019	633.63
66.6163	622.42
66.6307	609.18
66.6452	623.39
66.6596	598.94
66.6741	572.38
66.6885	556.93
66.7029	627.89
66.7174	598.69
66.7318	558.28
66.7463	592.63
66.7607	611.59
66.7751	626.18
66.7896	581.07
66.8040	587.46
66.8185	583.03
66.8329	575.01
66.8473	579.09
66.8618	595.54
66.8762	593.18
66.8907	591.15
66.9051	621.13
66.9195	566.20
66.9340	584.49
66.9484	600.64
66.9629	585.95
66.9773	572.26
66.9917	592.81
67.0062	558.69
67.0206	570.98
67.0351	580.59
67.0495	564.41
67.0639	604.42
67.0784	553.70
67.0928	576.66
67.1073	554.17
67.1217	591.06
67.1361	588.97
67.1506	576.55
67.1650	609.55
67.1795	601.58
67.1939	573.63
67.2083	539.88
67.2228	557.31
67.2372	554.62
67.2517	578.27
67.2661	573.64
67.2805	577.80
67.2950	579.75
67.3094	571.88
67.3239	570.98
67.3383	588.32
67.3527	594.16
67.3672	593.68
67.3816	572.86
67.3961	567.82
67.4105	601.70
67.4250	576.03
67.4394	577.43
67.4538	596.74
67.4683	612.13
67.4827	610.20
67.4972	574.68
67.5116	542.18
67.5260	580.06
67.5405	592.94
67.5549	578.82
67.5694	571.22
67.5838	586.76
67.5982	574.50
67.6127	556.80
67.6271	568.22
67.6416	539.61
67.6560	512.95
67.6704	532.53
67.6849	536.79
67.6993	559.48
67.7138	573.04
67.7282	581.41
67.7426	547.90
67.7571	596.67
67.7715	570.37
67.7860	556.53
67.8004	537.26
67.8148	534.30
67.8293	539.71
67.8437	568.26
67.8582	570.11
67.8726	550.11
67.8870	570.67
67.9015	569.60
67.9159	579.44
67.9304	603.47
67.9448	585.94
67.9592	560.36
67.9737	586.29
67.9881	570.65
68.0026	571.18
68.0170	564.71
68.0314	583.75
68.0459	548.72
68.0603	608.13
68.0748	575.40
68.0892	567.65
68.1036	563.23
68.1181	592.15
68.1325	568.38
68.1470	568.96
68.1614	569.52
68.1758	542.72
68.1903	547.64
68.2047	579.45
68.2192	577.94
68.2336	601.69
68.2480	560.77
68.2625	576.88
68.2769	566.93
68.2914	589.99
68.3058	589.98
68.3202	560.45
68.3347	582.57
68.3491	579.41
68.3636	562.61
68.3780	562.15
68.3924	575.71
68.4069	606.71
68.4213	585.09
68.4358	548.38
68.4502	532.15
68.4646	559.73
68.4791	607.76
68.4935	585.13
68.5080	566.00
68.5224	573.64
68.5368	567.49
68.5513	587.03
68.5657	579.70
68.5802	580.48
68.5946	558.45
68.6090	571.38
68.6235	592.79
68.6379	600.77
68.6524	597.86
68.6668	547.95
68.6812	561.30
68.6957	572.18
68.7101	572.88
68.7246	547.46
68.7390	598.69
68.7534	595.33
68.7679	583.16
68.7823	594.43
68.7968	557.83
68.8112	567.77
68.8256	568.60
68.8401	597.53
68.8545	604.93
68.8690	585.65
68.8834	593.08
68.8978	591.56
68.9123	584.74
68.9267	580.09
68.9412	607.93
68.9556	553.78
68.9700	552.15
68.9845	572.41
68.9989	611.79
69.0134	567.31
69.0278	533.51
69.0422	562.67
69.0567	573.92
69.0711	557.81
69.0856	590.49
69.1000	595.28
69.1144	543.47
69.1289	609.53
69.1433	531.40
69.1578	564.45
69.1722	591.71
69.1866	572.56
69.2011	575.34
69.2155	635.99
69.2300	540.06
69.2444	585.42
69.2588	586.43
69.2733	616.31
69.2877	584.33
69.3022	599.39
69.3166	632.55
69.3310	567.86
69.3455	582.66
69.3599	546.59
69.3744	546.86
69.3888	599.13
69.4032	563.86
69.4177	615.36
69.4321	611.43
69.4466	551.69
69.4610	547.75
69.4754	578.66
69.4899	666.77
69.5043	615.13
69.5188	545.56
69.5332	588.91
69.5476	587.40
69.5621	593.70
69.5765	605.04
69.5910	546.13
69.6054	550.74
69.6198	571.07
69.6343	610.05
69.6487	562.31
69.6632	505.20
69.6776	575.89
69.6920	579.24
69.7065	573.13
69.7209	593.04
69.7354	556.04
69.7498	544.53
69.7642	589.07
69.7787	578.99
69.7931	605.77
69.8076	572.57
69.8220	544.07
69.8364	585.87
69.8509	550.11
69.8653	609.58
69.8798	577.96
69.8942	562.68
69.9086	605.17
69.9231	524.51
69.9375	575.32
69.9520	595.16
69.9664	579.22
69.9808	552.53
69.9953	591.66
70.0097	563.25
70.0242	603.74
70.0386	547.53
70.0530	524.24
70.0675	549.62
70.0819	562.56
70.0964	604.71
70.1108	609.60
70.1252	598.03
70.1397	552.99
70.1541	611.95
70.1686	576.65
70.1830	543.66
70.1974	536.62
70.2119	572.30
70.2263	590.90
70.2408	548.36
70.2552	565.12
70.2696	582.32
70.2841	587.32
70.2985	558.16
70.3130	521.58
70.3274	566.38
70.3418	600.66
70.3563	632.58
70.3707	600.64
70.3852	587.91
70.3996	578.98
70.4140	573.77
70.4285	604.69
70.4429	541.97
70.4574	552.57
70.4718	559.42
70.4862	584.87
70.5007	623.61
70.5151	563.55
70.5296	580.89
70.5440	586.31
70.5584	635.24
70.5729	559.56
70.5873	554.24
70.6018	509.75
70.6162	578.51
70.6306	595.10
70.6451	618.16
70.6595	623.64
70.6740	593.68
70.6884	590.49
70.7028	626.60
70.7173	613.61
70.7317	564.74
70.7462	517.60
70.7606	564.89
70.7750	586.71
70.7895	564.21
70.8039	623.71
70.8184	613.38
70.8328	599.90
70.8472	543.89
70.8617	578.09
70.8761	602.70
70.8906	604.69
70.9050	575.47
70.9194	598.25
70.9339	619.55
70.9483	657.58
70.9628	580.31
70.9772	543.69
70.9916	561.58
71.0061	543.11
71.0205	591.25
71.0350	570.95
71.0494	541.55
71.0638	556.58
71.0783	552.63
71.0927	581.21
71.1072	582.59
71.1216	550.37
71.1361	526.20
71.1505	572.23
71.1649	664.06
71.1794	625.67
71.1938	614.69
71.2083	593.58
71.2227	562.12
71.2371	578.01
71.2516	622.53
71.2660	624.51
71.2805	618.91
71.2949	571.80
71.3093	592.77
71.3238	581.57
71.3382	584.12
71.3527	624.06
71.3671	576.34
71.3815	571.59
71.3960	607.21
71.4104	572.88
71.4249	578.82
71.4393	571.27
71.4537	555.85
71.4682	612.39
71.4826	577.08
71.4971	573.93
71.5115	540.64
71.5259	508.99
71.5404	587.51
71.5548	600.23
71.5693	578.37
71.5837	532.88
71.5981	570.75
71.6126	596.28
71.6270	566.76
71.6415	603.42
71.6559	614.52
71.6703	576.24
71.6848	557.45
71.6992	587.93
71.7137	582.94
71.7281	603.63
71.7425	596.74
71.7570	559.28
71.7714	575.02
71.7859	598.90
71.8003	533.04
71.8147	489.46
71.8292	569.89
71.8436	575.59
71.8581	574.91
71.8725	611.38
71.8869	566.89
71.9014	654.87
71.9158	636.34
71.9303	626.31
71.9447	640.67
71.9591	603.71
71.9736	603.15
71.9880	593.04
72.0025	580.06
72.0169	595.68
72.0313	558.62
72.0458	584.90
72.0602	590.76
72.0747	546.67
72.0891	573.42
72.1035	619.37
72.1180	558.47
72.1324	587.20
72.1469	567.58
72.1613	585.16
72.1757	647.29
72.1902	589.42
72.2046	576.54
72.2191	572.21
72.2335	554.48
72.2479	555.45
72.2624	568.79
72.2768	580.43
72.2913	585.00
72.3057	603.47
72.3201	584.22
72.3346	576.10
72.3490	559.87
72.3635	548.70
72.3779	585.15
72.3923	651.47
72.4068	589.06
72.4212	547.19
72.4357	677.56
72.4501	630.31
72.4645	566.18
72.4790	598.33
72.4934	598.94
72.5079	577.44
72.5223	569.13
72.5367	566.13
72.5512	586.59
72.5656	572.56
72.5801	517.03
72.5945	538.27
72.6089	597.38
72.6234	594.49
72.6378	636.40
72.6523	548.50
72.6667	523.16
72.6811	541.11
72.6956	583.00
72.7100	524.97
72.7245	537.16
72.7389	617.14
72.7533	590.38
72.7678	607.07
72.7822	551.51
72.7967	528.42
72.8111	545.93
72.8255	523.55
72.8400	561.69
72.8544	615.81
72.8689	605.24
72.8833	526.49

Result vector
22.1120	548.37
22.1264	493.89
22.1409	473.81
22.1553	514.89
22.1697	556.98
22.1842	622.30
22.1986	535.61
22.2131	536.74
22.2275	607.29
22.2419	553.99
22.2564	524.12
22.2708	571.67
22.2853	594.23
22.2997	582.84
22.3141	642.51
22.3286	578.17
22.3430	566.61
22.3575	527.21
22.3719	607.77
22.3863	643.96
22.4008	481.97
22.4152	590.08
22.4297	695.49
22.4441	686.66
22.4585	545.56
22.4730	616.44
22.4874	690.59
22.5019	568.62
22.5163	557.74
22.5307	599.75
22.5452	536.02
22.5596	543.11
22.5741	581.39
22.5885	531.80
22.6029	520.31
22.6174	525.44
22.6318	572.65
22.6463	607.14
22.6607	643.13
22.6751	645.84
22.6896	587.32
22.7040	611.45
22.7185	564.66
22.7329	646.88
22.7473	627.96
22.7618	578.85
22.7762	527.77
22.7907	536.17
22.8051	535.09
22.8195	581.06
22.8340	599.28
22.8484	552.09
22.8629	589.84
22.8773	645.16
22.8917	497.53
22.9062	536.27
22.9206	488.77
22.9351	553.44
22.9495	585.23
22.9639	555.08
22.9784	530.50
22.9928	547.50
23.0073	593.60
23.0217	616.75
23.0361	609.97
23.0506	582.02
23.0650	577.65
23.0795	508.31
23.0939	560.29
23.1083	561.21
23.1228	569.84
23.1372	581.87
23.1517	498.40
23.1661	534.54
23.1806	499.42
23.1950	534.47
23.2094	484.95
23.2239	572.44
23.2383	521.37
23.2528	509.18
23.2672	574.52
23.2816	563.13
23.2961	467.53
23.3105	622.98
23.3250	546.88
23.3394	574.96
23.3538	570.89
23.3683	538.44
23.3827	490.59
23.3972	493.20
23.4116	565.45
23.4260	620.84
23.4405	578.32
23.4549	458.28
23.4694	551.38
23.4838	512.86
23.4982	525.02
23.5127	519.56
23.5271	577.36
23.5416	577.77
23.5560	538.95
23.5704	513.85
23.5849	512.32
23.5993	549.00
23.6138	572.17
23.6282	534.57
23.6426	487.10
23.6571	577.77
23.6715	566.37
23.6860	503.62
23.7004	633.30
23.7148	594.49
23.7293	573.12
23.7437	508.87
23.7582	634.07
23.7726	618.56
23.7870	511.50
23.8015	539.62
23.8159	522.38
23.8304	600.43
23.8448	564.22
23.8592	550.61
23.8737	567.50
23.8881	503.40
23.9026	487.75
23.9170	519.52
23.9314	538.02
23.9459	602.86
23.9603	527.29
23.9748	569.87
23.9892	566.05
24.0036	537.80
24.0181	516.24
24.0325	606.40
24.0470	517.98
24.0614	581.15
24.0758	559.84
24.0903	631.21
24.1047	599.64
24.1192	567.02
24.1336	540.05
24.1480	575.90
24.1625	641.00
24.1769	580.71
24.1914	607.68
24.2058	589.27
24.2202	566.65
24.2347	634.28
24.2491	608.84
24.2636	580.91
24.2780	570.66
24.2924	574.99
24.3069	634.57
24.3213	554.36
24.3358	577.90
24.3502	550.73
24.3646	559.05
24.3791	562.83
24.3935	483.93
24.4080	516.24
24.4224	524.19
24.4368	608.83
24.4513	536.10
24.4657	554.30
24.4802	573.66
24.4946	568.07
24.5090	546.72
24.5235	575.58
24.5379	564.60
24.5524	536.36
24.5668	571.91
24.5812	573.38
24.5957	592.01
24.6101	570.40
24.6246	543.81
24.6390	487.28
24.6534	538.12
24.6679	567.19
24.6823	615.16
24.6968	569.56
24.7112	535.28
24.7256	541.08
24.7401	478.64
24.7545	534.72
24.7690	573.16
24.7834	526.71
24.7978	486.84
24.8123	469.06
24.8267	480.96
24.8412	536.13
24.8556	568.74
24.8700	582.94
24.8845	565.81
24.8989	529.65
24.9134	605.70
24.9278	521.50
24.9422	490.41
24.9567	485.42
24.9711	571.17
24.9856	531.23
25.0000	565.13
25.0144	555.94
25.0289	508.95
25.0433	507.54
25.0578	530.62
25.0722	554.14
25.0866	557.89
25.1011	569.37
25.1155	524.03
25.1300	512.97
25.1444	540.50
25.1588	556.69
25.1733	533.31
25.1877	573.99
25.2022	518.01
25.2166	550.43
25.2310	576.40
25.2455	566.52
25.2599	555.69
25.2744	534.50
25.2888	506.90
25.3032	527.50
25.3177	549.95
25.3321	521.93
25.3466	557.04
25.3610	574.02
25.3754	570.72
25.3899	541.50
25.4043	545.82
25.4188	541.52
25.4332	568.75
25.4476	539.84
25.4621	534.24
25.4765	547.09
25.4910	586.40
25.5054	520.65
25.5198	521.20
25.5343	537.00
25.5487	553.86
25.5632	525.18
25.5776	544.21
25.5920	562.52
25.6065	587.14
25.6209	537.94
25.6354	551.81
25.6498	526.95
25.6642	560.91
25.6787	538.75
25.6931	548.94
25.7076	552.80
25.7220	519.02
25.7364	554.86
25.7509	580.11
25.7653	549.24
25.7798	534.20
25.7942	523.45
25.8086	537.18
25.8231	545.32
25.8375	520.14
25.8520	522.52
25.8664	537.30
25.8808	517.80
25.8953	507.12
25.9097	535.09
25.9242	547.83
25.9386	526.40
25.9530	556.88
25.9675	491.85
25.9819	491.53
25.9964	541.74
26.0108	546.91
26.0252	537.01
26.0397	530.02
26.0541	523.90
26.0686	519.80
26.0830	511.61
26.0974	536.18
26.1119	539.77
26.1263	571.39
26.1408	526.07
26.1552	511.13
26.1696	499.74
26.1841	491.51
26.1985	513.01
26.2130	528.68
26.2274	551.50
26.2418	552.30
26.2563	530.68
26.2707	545.40
26.2852	570.75
26.2996	511.43
26.3140	517.45
26.3285	548.06
26.3429	518.73
26.3574	535.55
26.3718	550.06
26.3862	548.69
26.4007	504.59
26.4151	526.27
26.4296	527.22
26.4440	555.52
26.4584	541.24
26.4729	546.20
26.4873	567.21
26.5018	555.54
26.5162	539.23
26.5306	534.40
26.5451	546.02
26.5595	514.41
26.5740	551.99
26.5884	574.27
26.6028	592.65
26.6173	599.86
26.6317	558.98
26.6462	552.00
26.6606	531.23
26.6750	538.43
26.6895	563.59
26.7039	537.15
26.7184	534.46
26.7328	550.80
26.7472	539.73
26.7617	523.42
26.7761	502.17
26.7906	513.49
26.8050	522.01
26.8194	508.21
26.8339	548.20
26.8483	548.00
26.8628	556.47
26.8772	522.57
26.8917	497.64
26.9061	545.71
26.9205	560.36
26.9350	561.38
26.9494	538.50
26.9639	501.01
26.9783	501.22
26.9927	521.23
27.0072	513.67
27.0216	520.85
27.0361	518.79
27.0505	534.21
27.0649	565.86
27.0794	518.97
27.0938	536.16
27.1083	535.30
27.1227	530.64
27.1371	486.49
27.1516	456.37
27.1660	522.71
27.1805	541.96
27.1949	509.31
27.2093	508.06
27.2238	497.29
27.2382	495.25
27.2527	517.46
27.2671	493.32
27.2815	506.52
27.2960	507.48
27.3104	520.56
27.3249	497.00
27.3393	528.21
27.3537	536.81
27.3682	519.84
27.3826	504.45
27.3971	505.06
27.4115	525.82
27.4259	520.66
27.4404	499.24
27.4548	516.57
27.4693	535.57
27.4837	518.33
27.4981	534.11
27.5126	502.48
27.5270	513.81
27.5415	519.95
27.5559	522.76
27.5703	499.40
27.5848	492.36
27.5992	538.29
27.6137	522.38
27.6281	519.95
27.6425	537.23
27.6570	526.45
27.6714	557.24
27.6859	518.78
27.7003	537.86
27.7147	529.58
27.7292	518.34
27.7436	525.78
27.7581	506.53
27.7725	501.67
27.7869	531.19
27.8014	540.76
27.8158	525.05
27.8303	503.84
27.8447	517.24
27.8591	542.80
27.8736	551.29
27.8880	510.23
27.9025	519.97
27.9169	518.41
27.9313	509.83
27.9458	508.88
27.9602	507.48
27.9747	520.69
27.9891	506.58
28.0035	508.40
28.0180	547.47
28.0324	521.66
28.0469	501.03
28.0613	508.22
28.0757	477.70
28.0902	504.34
28.1046	518.42
28.1191	529.35
28.1335	511.15
28.1479	504.54
28.1624	530.72
28.1768	544.32
28.1913	480.72
28.2057	546.06
28.2201	520.64
28.2346	489.09
28.2490	553.76
28.2635	522.67
28.2779	529.04
28.2923	543.94
28.3068	537.51
28.3212	516.49
28.3357	499.92
28.3501	512.71
28.3645	526.08
28.3790	554.49
28.3934	528.25
28.4079	515.26
28.4223	551.35
28.4367	517.29
28.4512	525.97
28.4656	531.97
28.4801	566.43
28.4945	507.50
28.5089	503.01
28.5234	498.47
28.5378	510.41
28.5523	544.57
28.5667	505.53
28.5811	509.63
28.5956	511.61
28.6100	489.25
28.6245	504.40
28.6389	503.78
28.6533	500.54
28.6678	489.66
28.6822	487.25
28.6967	483.56
28.7111	523.97
28.7255	519.55
28.7400	496.27
28.7544	527.84
28.7689	528.41
28.7833	543.45
28.7977	518.05
28.8122	517.05
28.8266	564.11
28.8411	487.42
28.8555	493.79
28.8699	497.21
28.8844	497.21
28.8988	518.87
28.9133	551.56
28.9277	532.34
28.9421	482.12
28.9566	489.66
28.9710	534.89
28.9855	501.30
28.9999	507.37
29.0143	517.35
29.0288	509.25
29.0432	522.34
29.0577	517.30
29.0721	511.04
29.0865	507.32
29.1010	522.82
29.1154	503.22
29.1299	528.19
29.1443	497.68
29.1587	513.55
29.1732	507.73
29.1876	478.29
29.2021	492.16
29.2165	515.98
29.2309	490.06
29.2454	497.77
29.2598	503.75
29.2743	456.27
29.2887	493.91
29.3031	452.91
29.3176	505.43
29.3320	495.06
29.3465	507.47
29.3609	496.20
29.3753	516.30
29.3898	513.74
29.4042	498.54
29.4187	540.68
29.4331	534.51
29.4475	501.35
29.4620	516.87
29.4764	499.26
29.4909	501.85
29.5053	512.40
29.5197	511.00
29.5342	520.58
29.5486	508.94
29.5631	495.52
29.5775	505.96
29.5919	507.75
29.6064	541.89
29.6208	474.25
29.6353	505.88
29.6497	487.63
29.6641	508.80
29.6786	484.86
29.6930	509.51
29.7075	524.38
29.7219	509.77
29.7363	475.58
29.7508	543.20
29.7652	527.77
29.7797	520.06
29.7941	494.40
29.8085	502.00
29.8230	507.16
29.8374	521.91
29.8519	522.38
29.8663	513.80
29.8807	501.51
29.8952	495.96
29.9096	489.32
29.9241	512.16
29.9385	533.50
29.9529	534.88
29.9674	542.22
29.9818	502.44
29.9963	498.22
30.0107	499.56
30.0251	527.10
30.0396	529.16
30.0540	521.20
30.0685	530.51
30.0829	548.65
30.0973	537.47
30.1118	552.61
30.1262	532.08
30.1407	515.25
30.1551	534.17
30.1695	523.96
30.1840	495.55
30.1984	495.63
30.2129	498.52
30.2273	510.57
30.2417	530.25
30.2562	528.54
30.2706	504.47
30.2851	505.87
30.2995	506.65
30.3139	507.72
30.3284	511.11
30.3428	485.52
30.3573	519.06
30.3717	491.70
30.3861	493.81
30.4006	507.12
30.4150	519.60
30.4295	548.51
30.4439	527.56
30.4583	561.15
30.4728	565.25
30.4872	545.93
30.5017	537.44
30.5161	506.05
30.5305	532.09
30.5450	550.14
30.5594	582.84
30.5739	593.42
30.5883	616.89
30.6028	643.35
30.6172	652.70
30.6316	693.96
30.6461	733.47
30.6605	731.47
30.6750	709.73
30.6894	722.74
30.7038	713.51
30.7183	763.73
30.7327	685.75
30.7472	655.69
30.7616	654.82
30.7760	656.10
30.7905	656.76
30.8049	606.24
30.8194	554.60
30.8338	572.33
30.8482	559.81
30.8627	522.79
30.8771	538.07
30.8916	538.05
30.9060	517.68
30.9204	528.87
30.9349	534.89
30.9493	527.44
30.9638	521.69
30.9782	505.10
30.9926	513.39
31.0071	506.23
31.0215	522.16
31.0360	525.11
31.0504	502.88
31.0648	494.84
31.0793	490.80
31.0937	513.58
31.1082	492.65
31.1226	504.47
31.1370	514.99
31.1515	496.24
31.1659	499.31
31.1804	511.33
31.1948	497.33
31.2092	471.51
31.2237	521.72
31.2381	532.22
31.2526	523.09
31.2670	515.87
31.2814	550.22
31.2959	543.49
31.3103	553.16
31.3248	567.23
31.3392	570.33
31.3536	529.76
31.3681	503.03
31.3825	514.68
31.3970	503.63
31.4114	532.77
31.4258	528.89
31.4403	516.31
31.4547	505.59
31.4692	487.39
31.4836	531.10
31.4980	517.23
31.5125	493.65
31.5269	513.16
31.5414	523.92
31.5558	511.36
31.5702	502.75
31.5847	470.28
31.5991	508.44
31.6136	474.61
31.6280	502.17
31.6424	510.05
31.6569	502.74
31.6713	487.64
31.6858	502.64
31.7002	493.63
31.7146	508.08
31.7291	482.27
31.7435	472.45
31.7580	507.88
31.7724	516.66
31.7868	504.51
31.8013	494.38
31.8157	521.75
31.8302	514.02
31.8446	475.10
31.8590	526.22
31.8735	507.84
31.8879	488.64
31.9024	507.44
31.9168	534.10
31.9312	515.49
31.9457	494.99
31.9601	462.66
31.9746	499.16
31.9890	471.40
32.0034	486.51
32.0179	534.47
32.0323	493.62
32.0468	475.12
32.0612	529.60
32.0756	492.80
32.0901	517.47
32.1045	509.57
32.1190	503.55
32.1334	481.17
32.1478	482.80
32.1623	487.84
32.1767	505.87
32.1912	501.78
32.2056	486.32
32.2200	463.83
32.2345	500.39
32.2489	498.24
32.2634	486.63
32.2778	514.43
32.2922	503.43
32.3067	486.58
32.3211	483.11
32.3356	508.37
32.3500	507.41
32.3644	480.29
32.3789	535.01
32.3933	506.14
32.4078	489.71
32.4222	485.27
32.4366	469.29
32.4511	473.37
32.4655	540.97
32.4800	554.83
32.4944	533.96
32.5088	537.19
32.5233	507.99
32.5377	497.09
32.5522	493.88
32.5666	491.20
32.5810	497.78
32.5955	545.98
32.6099	542.43
32.6244	527.59
32.6388	495.37
32.6532	500.19
32.6677	497.97
32.6821	482.92
32.6966	486.63
32.7110	523.97
32.7254	522.22
32.7399	520.81
32.7543	513.93
32.7688	544.29
32.7832	509.78
32.7976	491.16
32.8121	535.34
32.8265	522.78
32.8410	511.54
32.8554	530.92
32.8698	514.97
32.8843	507.25
32.8987	509.49
32.9132	499.73
32.9276	522.45
32.9420	505.11
32.9565	514.27
32.9709	475.67
32.9854	484.16
32.9998	494.60
33.0142	486.76
33.0287	529.55
33.0431	522.90
33.0576	493.28
33.0720	511.81
33.0864	488.03
33.1009	498.61
33.1153	525.09
33.1298	503.01
33.1442	486.78
33.1586	499.22
33.1731	533.23
33.1875	480.71
33.2020	500.71
33.2164	524.70
33.2308	509.52
33.2453	517.02
33.2597	504.13
33.2742	496.10
33.2886	519.69
33.3030	514.17
33.3175	479.81
33.3319	497.26
33.3464	503.23
33.3608	513.32
33.3752	481.47
33.3897	524.46
33.4041	502.97
33.4186	481.96
33.4330	493.89
33.4474	488.44
33.4619	472.72
33.4763	521.92
33.4908	482.56
33.5052	529.92
33.5196	519.88
33.5341	515.70
33.5485	524.04
33.5630	494.52
33.5774	481.13
33.5918	499.43
33.6063	532.50
33.6207	483.70
33.6352	507.98
33.6496	510.35
33.6640	487.37
33.6785	492.54
33.6929	510.23
33.7074	537.98
33.7218	511.10
33.7362	529.46
33.7507	500.24
33.7651	474.34
33.7796	485.11
33.7940	502.55
33.8084	547.09
33.8229	502.79
33.8373	490.93
33.8518	501.66
33.8662	517.04
33.8806	519.71
33.8951	509.69
33.9095	522.73
33.9240	500.07
33.9384	520.52
33.9528	496.71
33.9673	516.84
33.9817	520.28
33.9962	489.93
34.0106	479.42
34.0250	522.62
34.0395	483.71
34.0539	513.73
34.0684	523.23
34.0828	500.59
34.0972	529.47
34.1117	501.54
34.1261	533.46
34.1406	526.93
34.1550	498.87
34.1694	542.17
34.1839	536.15
34.1983	500.92
34.2128	509.58
34.2272	517.39
34.2417	525.47
34.2561	527.03
34.2705	486.93
34.2850	502.33
34.2994	493.16
34.3139	533.80
34.3283	486.69
34.3427	493.42
34.3572	488.74
34.3716	488.40
34.3861	498.13
34.4005	512.15
34.4149	504.21
34.4294	510.08
34.4438	502.36
34.4583	507.41
34.4727	493.62
34.4871	538.01
34.5016	505.74
34.5160	510.28
34.5305	521.44
34.5449	538.91
34.5593	538.88
34.5738	524.24
34.5882	503.52
34.6027	491.94
34.6171	532.72
34.6315	512.65
34.6460	530.77
34.6604	522.95
34.6749	485.19
34.6893	470.92
34.7037	511.80
34.7182	499.40
34.7326	496.15
34.7471	501.80
34.7615	523.92
34.7759	503.38
34.7904	512.24
34.8048	534.89
34.8193	497.08
34.8337	523.75
34.8481	509.53
34.8626	526.35
34.8770	511.49
34.8915	491.19
34.9059	524.92
34.9203	524.86
34.9348	491.94
34.9492	480.15
34.9637	516.01
34.9781	513.78
34.9925	513.38
35.0070	487.21
35.0214	520.51
35.0359	513.48
35.0503	513.28
35.0647	480.56
35.0792	490.22
35.0936	535.74
35.1081	491.47
35.1225	505.77
35.1369	496.52
35.1514	522.98
35.1658	500.75
35.1803	489.56
35.1947	492.35
35.2091	501.66
35.2236	518.26
35.2380	489.14
35.2525	487.38
35.2669	522.65
35.2813	536.14
35.2958	546.17
35.3102	532.08
35.3247	522.51
35.3391	501.65
35.3535	524.21
35.3680	527.20
35.3824	501.40
35.3969	514.93
35.4113	498.58
35.4257	502.47
35.4402	520.45
35.4546	538.15
35.4691	504.43
35.4835	474.04
35.4979	505.69
35.5124	508.74
35.5268	518.87
35.5413	521.70
35.5557	529.91
35.5701	500.68
35.5846	529.52
35.5990	537.97
35.6135	533.27
35.6279	518.89
35.6423	517.53
35.6568	541.40
35.6712	538.29
35.6857	550.97
35.7001	648.86
35.7145	682.23
35.7290	692.18
35.7434	616.57
35.7579	595.10
35.7723	585.41
35.7867	588.15
35.8012	657.24
35.8156	626.18
35.8301	577.59
35.8445	610.74
35.8589	627.64
35.8734	733.39
35.8878	854.65
35.9023	1013.33
35.9167	1110.03
35.9311	1352.60
35.9456	2035.23
35.9600	2492.21
35.9745	2056.86
35.9889	1963.04
36.0033	2133.34
36.0178	2290.41
36.0322	2259.29
36.0467	2160.04
36.0611	1946.42
36.0755	1992.55
36.0900	1988.10
36.1044	1897.39
36.1189	1818.52
36.1333	1679.18
36.1477	1467.16
36.1622	1411.17
36.1766	1309.00
36.1911	1147.58
36.2055	1014.55
36.2199	989.95
36.2344	848.91
36.2488	754.92
36.2633	694.06
36.2777	643.04
36.2921	665.09
36.3066	662.23
36.3210	649.65
36.3355	625.80
36.3499	573.74
36.3643	537.84
36.3788	542.72
36.3932	555.78
36.4077	575.59
36.4221	572.67
36.4365	560.80
36.4510	520.97
36.4654	577.98
36.4799	522.89
36.4943	506.94
36.5087	516.03
36.5232	537.46
36.5376	528.03
36.5521	556.20
36.5665	516.37
36.5809	510.26
36.5954	560.60
36.6098	521.68
36.6243	519.70
36.6387	521.04
36.6531	528.51
36.6676	524.91
36.6820	534.00
36.6965	516.03
36.7109	556.88
36.7253	553.77
36.7398	574.41
36.7542	560.99
36.7687	534.21
36.7831	515.54
36.7975	575.56
36.8120	558.19
36.8264	555.64
36.8409	554.62
36.8553	605.23
36.8697	577.51
36.8842	596.31
36.8986	593.49
36.9131	592.86
36.9275	612.18
36.9419	564.63
36.9564	549.13
36.9708	570.12
36.9853	516.08
36.9997	543.49
37.0141	590.14
37.0286	572.70
37.0430	506.15
37.0575	500.28
37.0719	514.05
37.0863	542.63
37.1008	503.77
37.1152	526.76
37.1297	502.76
37.1441	519.32
37.1585	483.82
37.1730	507.45
37.1874	491.03
37.2019	473.73
37.2163	503.02
37.2307	525.37
37.2452	481.54
37.2596	500.89
37.2741	522.24
37.2885	513.41
37.3029	516.69
37.3174	521.92
37.3318	479.12
37.3463	509.60
37.3607	464.72
37.3751	496.46
37.3896	501.94
37.4040	512.05
37.4185	464.78
37.4329	496.76
37.4473	511.60
37.4618	483.52
37.4762	501.05
37.4907	509.72
37.5051	521.66
37.5195	513.65
37.5340	524.74
37.5484	525.56
37.5629	500.05
37.5773	518.40
37.5917	478.31
37.6062	496.44
37.6206	508.09
37.6351	515.00
37.6495	507.85
37.6639	497.47
37.6784	539.32
37.6928	515.68
37.7073	540.66
37.7217	527.08
37.7361	511.46
37.7506	527.16
37.7650	490.94
37.7795	505.40
37.7939	508.42
37.8083	490.50
37.8228	512.94
37.8372	506.36
37.8517	515.90
37.8661	505.73
37.8805	527.33
37.8950	508.83
37.9094	512.85
37.9239	507.52
37.9383	501.30
37.9528	473.50
37.9672	486.73
37.9816	482.83
37.9961	497.72
38.0105	531.54
38.0250	502.45
38.0394	491.46
38.0538	509.60
38.0683	522.98
38.0827	512.71
38.0972	486.44
38.1116	538.82
38.1260	543.47
38.1405	503.10
38.1549	509.91
38.1694	542.14
38.1838	513.17
38.1982	521.01
38.2127	519.99
38.2271	485.89
38.2416	523.88
38.2560	533.50
38.2704	478.38
38.2849	516.08
38.2993	523.80
38.3138	535.28
38.3282	495.04
38.3426	535.98
38.3571	501.10
38.3715	537.48
38.3860	523.36
38.4004	502.12
38.4148	539.84
38.4293	575.24
38.4437	585.49
38.4582	604.52
38.4726	658.35
38.4870	696.53
38.5015	719.92
38.5159	747.47
38.5304	807.36
38.5448	810.59
38.5592	836.75
38.5737	806.15
38.5881	717.44
38.6026	698.00
38.6170	688.68
38.6314	735.79
38.6459	689.38
38.6603	659.58
38.6748	620.57
38.6892	556.43
38.7036	569.00
38.7181	563.77
38.7325	537.02
38.7470	544.69
38.7614	542.05
38.7758	514.70
38.7903	521.12
38.8047	502.43
38.8192	510.75
38.8336	518.66
38.8480	510.51
38.8625	514.34
38.8769	508.72
38.8914	516.48
38.9058	491.38
38.9202	478.42
38.9347	510.72
38.9491	534.65
38.9636	500.43
38.9780	508.07
38.9924	498.07
39.0069	483.31
39.0213	503.99
39.0358	531.07
39.0502	517.14
39.0646	504.32
39.0791	496.93
39.0935	533.05
39.1080	500.34
39.1224	535.29
39.1368	511.93
39.1513	468.27
39.1657	500.62
39.1802	485.82
39.1946	473.18
39.2090	491.95
39.2235	482.66
39.2379	466.13
39.2524	497.66
39.2668	512.54
39.2812	506.49
39.2957	515.01
39.3101	518.25
39.3246	493.12
39.3390	505.12
39.3534	502.47
39.3679	525.89
39.3823	475.28
39.3968	488.62
39.4112	507.67
39.4256	536.19
39.4401	510.91
39.4545	490.81
39.4690	494.45
39.4834	526.39
39.4978	510.79
39.5123	498.52
39.5267	501.10
39.5412	508.26
39.5556	468.83
39.5700	512.28
39.5845	506.16
39.5989	486.69
39.6134	508.51
39.6278	508.97
39.6422	489.30
39.6567	480.92
39.6711	503.99
39.6856	498.23
39.7000	515.29
39.7144	531.92
39.7289	491.74
39.7433	498.44
39.7578	506.08
39.7722	479.34
39.7866	509.49
39.8011	479.17
39.8155	511.11
39.8300	464.37
39.8444	472.26
39.8588	501.49
39.8733	486.48
39.8877	527.96
39.9022	516.75
39.9166	492.87
39.9310	475.45
39.9455	475.96
39.9599	479.10
39.9744	499.06
39.9888	505.30
40.0032	462.82
40.0177	492.80
40.0321	487.49
40.0466	491.81
40.0610	520.02
40.0754	470.77
40.0899	469.63
40.1043	490.09
40.1188	511.57
40.1332	518.68
40.1476	498.60
40.1621	502.50
40.1765	523.43
40.1910	485.16
40.2054	482.46
40.2198	481.35
40.2343	480.41
40.2487	513.55
40.2632	470.30
40.2776	483.39
40.2920	494.16
40.3065	520.46
40.3209	468.32
40.3354	482.01
40.3498	466.01
40.3642	496.57
40.3787	497.72
40.3931	492.76
40.4076	468.51
40.4220	508.01
40.4364	528.45
40.4509	512.29
40.4653	470.43
40.4798	463.38
40.4942	477.41
40.5086	484.85
40.5231	521.87
40.5375	535.64
40.5520	476.56
40.5664	468.55
40.5808	533.13
40.5953	521.10
40.6097	512.14
40.6242	511.72
40.6386	496.92
40.6530	521.74
40.6675	511.73
40.6819	510.07
40.6964	487.63
40.7108	522.61
40.7252	501.84
40.7397	490.56
40.7541	508.28
40.7686	485.82
40.7830	479.64
40.7974	496.63
40.8119	493.63
40.8263	480.70
40.8408	480.88
40.8552	534.79
40.8696	524.30
40.8841	490.88
40.8985	516.76
40.9130	502.87
40.9274	502.02
40.9418	531.68
40.9563	481.41
40.9707	493.53
40.9852	482.96
40.9996	476.04
41.0140	524.72
41.0285	495.78
41.0429	473.44
41.0574	525.43
41.0718	467.73
41.0862	481.49
41.1007	468.99
41.1151	501.71
41.1296	508.97
41.1440	494.11
41.1584	517.28
41.1729	513.99
41.1873	487.88
41.2018	473.29
41.2162	520.32
41.2306	521.34
41.2451	513.58
41.2595	469.52
41.2740	495.92
41.2884	473.91
41.3028	504.98
41.3173	508.54
41.3317	510.94
41.3462	518.80
41.3606	499.91
41.3750	529.32
41.3895	494.44
41.4039	495.15
41.4184	482.62
41.4328	526.10
41.4472	464.68
41.4617	504.86
41.4761	503.21
41.4906	478.80
41.5050	462.13
41.5194	488.23
41.5339	522.13
41.5483	512.69
41.5628	538.36
41.5772	506.52
41.5916	511.64
41.6061	507.02
41.6205	472.13
41.6350	522.18
41.6494	496.72
41.6639	503.64
41.6783	487.91
41.6927	500.89
41.7072	501.26
41.7216	508.02
41.7361	507.36
41.7505	514.76
41.7649	516.08
41.7794	507.51
41.7938	511.60
41.8083	508.89
41.8227	525.15
41.8371	530.56
41.8516	512.67
41.8660	541.11
41.8805	526.53
41.8949	545.89
41.9093	605.61
41.9238	561.06
41.9382	539.62
41.9527	547.90
41.9671	558.40
41.9815	544.60
41.9960	569.11
42.0104	547.61
42.0249	535.34
42.0393	541.02
42.0537	596.59
42.0682	573.74
42.0826	592.94
42.0971	562.95
42.1115	567.07
42.1259	588.69
42.1404	584.88
42.1548	578.78
42.1693	632.07
42.1837	669.27
42.1981	735.32
42.2126	840.77
42.2270	949.55
42.2415	1025.17
42.2559	1154.63
42.2703	1288.62
42.2848	1429.00
42.2992	1536.72
42.3137	1640.95
42.3281	1640.65
42.3425	1499.36
42.3570	1479.84
42.3714	1379.26
42.3859	1340.66
42.4003	1313.01
42.4147	1309.24
42.4292	1337.13
42.4436	1167.69
42.4581	1052.94
42.4725	949.87
42.4869	857.87
42.5014	736.44
42.5158	657.26
42.5303	639.65
42.5447	582.76
42.5591	603.82
42.5736	602.05
42.5880	605.20
42.6025	591.32
42.6169	575.23
42.6313	575.54
42.6458	554.21
42.6602	561.50
42.6747	536.34
42.6891	517.47
42.7035	534.06
42.7180	520.79
42.7324	515.74
42.7469	532.16
42.7613	513.45
42.7757	528.78
42.7902	558.00
42.8046	561.37
42.8191	533.88
42.8335	500.44
42.8479	530.46
42.8624	496.86
42.8768	491.53
42.8913	492.21
42.9057	521.48
42.9201	512.67
42.9346	505.96
42.9490	522.42
42.9635	494.41
42.9779	487.74
42.9923	505.64
43.0068	510.13
43.0212	492.68
43.0357	492.74
43.0501	513.99
43.0645	526.61
43.0790	523.76
43.0934	498.95
43.1079	506.14
43.1223	519.99
43.1367	559.03
43.1512	537.21
43.1656	499.18
43.1801	515.78
43.1945	521.08
43.2089	528.88
43.2234	484.36
43.2378	505.50
43.2523	513.70
43.2667	507.27
43.2811	520.59
43.2956	511.29
43.3100	512.69
43.3245	498.36
43.3389	515.99
43.3533	525.66
43.3678	505.81
43.3822	508.89
43.3967	528.67
43.4111	527.17
43.4255	517.19
43.4400	521.39
43.4544	524.94
43.4689	531.95
43.4833	561.78
43.4977	522.01
43.5122	506.60
43.5266	504.88
43.5411	536.14
43.5555	509.97
43.5699	497.82
43.5844	522.91
43.5988	521.84
43.6133	524.45
43.6277	530.61
43.6421	530.77
43.6566	539.51
43.6710	552.85
43.6855	520.57
43.6999	554.50
43.7143	525.56
43.7288	522.60
43.7432	526.82
43.7577	535.30
43.7721	577.58
43.7865	559.48
43.8010	578.24
43.8154	593.00
43.8299	586.78
43.8443	600.60
43.8587	648.60
43.8732	644.88
43.8876	671.40
43.9021	687.83
43.9165	616.13
43.9309	620.52
43.9454	606.68
43.9598	618.99
43.9743	564.52
43.9887	630.55
44.0031	620.52
44.0176	609.67
44.0320	579.57
44.0465	563.43
44.0609	550.86
44.0753	559.51
44.0898	557.77
44.1042	539.42
44.1187	518.23
44.1331	506.19
44.1475	546.72
44.1620	518.18
44.1764	522.14
44.1909	486.15
44.2053	500.14
44.2197	497.15
44.2342	498.21
44.2486	523.92
44.2631	521.16
44.2775	531.64
44.2919	539.45
44.3064	545.25
44.3208	555.46
44.3353	564.91
44.3497	546.61
44.3641	527.10
44.3786	555.90
44.3930	564.93
44.4075	557.46
44.4219	544.90
44.4363	601.56
44.4508	564.20
44.4652	574.66
44.4797	619.76
44.4941	572.29
44.5085	574.06
44.5230	591.15
44.5374	570.09
44.5519	560.03
44.5663	562.38
44.5807	596.69
44.5952	576.40
44.6096	569.02
44.6241	551.71
44.6385	616.38
44.6529	595.75
44.6674	593.32
44.6818	549.88
44.6963	628.29
44.7107	646.97
44.7251	668.06
44.7396	744.55
44.7540	848.69
44.7685	822.80
44.7829	857.37
44.7973	857.92
44.8118	869.80
44.8262	803.20
44.8407	753.79
44.8551	745.44
44.8695	744.93
44.8840	730.12
44.8984	760.20
44.9129	712.65
44.9273	702.82
44.9417	662.43
44.9562	591.12
44.9706	581.28
44.9851	583.46
44.9995	523.67
45.0139	509.92
45.0284	503.85
45.0428	504.02
45.0573	489.03
45.0717	514.77
45.0861	516.45
45.1006	522.74
45.1150	541.72
45.1295	516.95
45.1439	492.65
45.1583	485.84
45.1728	543.65
45.1872	532.33
45.2017	534.53
45.2161	523.04
45.2305	528.68
45.2450	520.38
45.2594	500.08
45.2739	499.04
45.2883	521.18
45.3028	517.79
45.3172	517.59
45.3316	516.55
45.3461	525.33
45.3605	519.78
45.3750	509.27
45.3894	530.61
45.4038	529.18
45.4183	483.98
45.4327	519.38
45.4472	490.21
45.4616	487.32
45.4760	498.02
45.4905	506.48
45.5049	479.80
45.5194	488.79
45.5338	493.54
45.5482	525.57
45.5627	512.75
45.5771	482.10
45.5916	500.51
45.6060	508.43
45.6204	520.13
45.6349	513.72
45.6493	510.95
45.6638	508.57
45.6782	527.77
45.6926	532.30
45.7071	520.23
45.7215	524.01
45.7360	542.67
45.7504	513.52
45.7648	503.14
45.7793	493.62
45.7937	476.73
45.8082	517.38
45.8226	536.56
45.8370	507.71
45.8515	524.61
45.8659	496.30
45.8804	517.01
45.8948	515.80
45.9092	510.96
45.9237	502.62
45.9381	504.67
45.9526	471.44
45.9670	503.94
45.9814	490.82
45.9959	506.58
46.0103	488.46
46.0248	536.48
46.0392	511.08
46.0536	526.78
46.0681	522.16
46.0825	517.96
46.0970	512.58
46.1114	478.95
46.1258	494.11
46.1403	486.90
46.1547	511.82
46.1692	499.32
46.1836	495.18
46.1980	470.81
46.2125	521.51
46.2269	502.72
46.2414	491.59
46.2558	497.48
46.2702	455.49
46.2847	499.78
46.2991	519.14
46.3136	482.52
46.3280	491.14
46.3424	507.27
46.3569	515.13
46.3713	493.53
46.3858	479.01
46.4002	482.66
46.4146	514.37
46.4291	527.99
46.4435	499.56
46.4580	472.43
46.4724	502.37
46.4868	514.01
46.5013	504.22
46.5157	470.17
46.5302	482.33
46.5446	460.55
46.5590	494.27
46.5735	493.94
46.5879	489.93
46.6024	484.69
46.6168	504.15
46.6312	517.14
46.6457	485.87
46.6601	475.50
46.6746	468.72
46.6890	476.70
46.7034	472.51
46.7179	495.53
46.7323	518.06
46.7468	507.30
46.7612	513.70
46.7756	545.33
46.7901	523.40
46.8045	471.30
46.8190	493.56
46.8334	514.50
46.8478	469.30
46.8623	490.40
46.8767	521.35
46.8912	547.89
46.9056	563.03
46.9200	506.58
46.9345	487.85
46.9489	524.68
46.9634	505.83
46.9778	517.37
46.9922	509.59
47.0067	505.29
47.0211	497.77
47.0356	493.96
47.0500	493.97
47.0644	492.36
47.0789	499.66
47.0933	491.24
47.1078	497.33
47.1222	499.91
47.1366	489.18
47.1511	494.13
47.1655	491.32
47.1800	489.44
47.1944	476.03
47.2088	511.14
47.2233	508.67
47.2377	504.27
47.2522	502.42
47.2666	515.89
47.2810	526.19
47.2955	492.78
47.3099	523.22
47.3244	498.98
47.3388	515.75
47.3532	492.74
47.3677	471.21
47.3821	487.95
47.3966	519.31
47.4110	482.32
47.4254	521.38
47.4399	483.49
47.4543	501.52
47.4688	514.76
47.4832	539.44
47.4976	528.56
47.5121	502.89
47.5265	516.85
47.5410	511.71
47.5554	486.01
47.5698	509.34
47.5843	499.54
47.5987	529.07
47.6132	497.35
47.6276	502.95
47.6420	529.13
47.6565	508.06
47.6709	496.91
47.6854	499.45
47.6998	512.46
47.7142	542.46
47.7287	492.56
47.7431	499.74
47.7576	546.35
47.7720	514.03
47.7864	505.82
47.8009	524.87
47.8153	520.29
47.8298	533.52
47.8442	528.72
47.8586	502.37
47.8731	515.71
47.8875	509.10
47.9020	561.65
47.9164	552.52
47.9308	531.70
47.9453	539.53
47.9597	502.68
47.9742	524.50
47.9886	499.18
48.0030	491.79
48.0175	517.31
48.0319	550.52
48.0464	536.46
48.0608	514.97
48.0752	533.29
48.0897	540.57
48.1041	504.29
48.1186	514.47
48.1330	531.21
48.1474	527.25
48.1619	501.02
48.1763	532.50
48.1908	490.73
48.2052	495.16
48.2196	477.20
48.2341	508.93
48.2485	487.57
48.2630	521.54
48.2774	508.03
48.2918	538.73
48.3063	533.26
48.3207	539.13
48.3352	537.47
48.3496	509.78
48.3640	515.16
48.3785	508.32
48.3929	490.53
48.4074	483.63
48.4218	508.04
48.4362	502.67
48.4507	488.99
48.4651	501.23
48.4796	499.59
48.4940	492.84
48.5084	503.51
48.5229	507.55
48.5373	496.42
48.5518	514.34
48.5662	517.91
48.5806	491.45
48.5951	517.45
48.6095	492.45
48.6240	519.06
48.6384	531.28
48.6528	497.11
48.6673	512.32
48.6817	522.73
48.6962	516.15
48.7106	511.00
48.7250	533.36
48.7395	523.43
48.7539	534.25
48.7684	527.04
48.7828	539.41
48.7972	519.49
48.8117	540.27
48.8261	541.29
48.8406	534.45
48.8550	526.92
48.8694	560.94
48.8839	530.01
48.8983	547.03
48.9128	533.84
48.9272	555.57
48.9416	550.14
48.9561	566.29
48.9705	567.87
48.9850	592.76
48.9994	580.06
49.0139	549.80
49.0283	583.49
49.0427	591.85
49.0572	614.03
49.0716	618.11
49.0861	704.37
49.1005	675.97
49.1149	642.82
49.1294	682.54
49.1438	726.00
49.1583	761.80
49.1727	804.53
49.1871	820.90
49.2016	900.04
49.2160	973.99
49.2305	1094.15
49.2449	1182.90
49.2593	1201.49
49.2738	1339.42
49.2882	1383.45
49.3027	1497.19
49.3171	1620.98
49.3315	1633.62
49.3460	1679.01
49.3604	1706.46
49.3749	1728.40
49.3893	1686.22
49.4037	1778.17
49.4182	1748.52
49.4326	1723.65
49.4471	1625.76
49.4615	1617.23
49.4759	1588.08
49.4904	1514.94
49.5048	1392.36
49.5193	1314.23
49.5337	1242.60
49.5481	1174.73
49.5626	1147.58
49.5770	1058.97
49.5915	1025.82
49.6059	937.85
49.6203	859.36
49.6348	834.11
49.6492	805.49
49.6637	769.69
49.6781	699.98
49.6925	682.02
49.7070	695.31
49.7214	665.72
49.7359	631.80
49.7503	652.93
49.7647	636.68
49.7792	596.58
49.7936	578.57
49.8081	558.36
49.8225	566.16
49.8369	591.37
49.8514	584.30
49.8658	549.90
49.8803	552.30
49.8947	594.45
49.9091	610.07
49.9236	585.37
49.9380	558.80
49.9525	531.13
49.9669	536.83
49.9813	534.36
49.9958	517.75
50.0102	486.55
50.0247	516.11
50.0391	538.23
50.0535	558.80
50.0680	553.71
50.0824	525.44
50.0969	501.20
50.1113	505.57
50.1257	528.29
50.1402	490.84
50.1546	493.19
50.1691	547.73
50.1835	513.20
50.1979	517.88
50.2124	529.50
50.2268	493.30
50.2413	511.86
50.2557	524.47
50.2701	484.01
50.2846	495.65
50.2990	523.06
50.3135	528.39
50.3279	544.46
50.3423	506.47
50.3568	496.55
50.3712	486.42
50.3857	494.32
50.4001	503.26
50.4145	500.06
50.4290	535.77
50.4434	500.48
50.4579	459.65
50.4723	525.01
50.4867	573.55
50.5012	506.30
50.5156	516.55
50.5301	533.89
50.5445	502.58
50.5589	529.73
50.5734	514.06
50.5878	503.42
50.6023	505.24
50.6167	490.18
50.6311	507.10
50.6456	537.17
50.6600	504.64
50.6745	505.51
50.6889	483.16
50.7033	513.44
50.7178	530.32
50.7322	532.06
50.7467	546.74
50.7611	520.69
50.7755	526.18
50.7900	497.15
50.8044	492.82
50.8189	526.07
50.8333	524.76
50.8477	505.19
50.8622	523.87
50.8766	507.84
50.8911	492.51
50.9055	506.25
50.9199	493.61
50.9344	491.40
50.9488	492.29
50.9633	493.64
50.9777	508.44
50.9921	524.18
51.0066	520.87
51.0210	527.37
51.0355	510.17
51.0499	512.69
51.0643	554.58
51.0788	536.65
51.0932	491.60
51.1077	466.09
51.1221	530.59
51.1365	533.92
51.1510	510.27
51.1654	497.51
51.1799	490.93
51.1943	479.64
51.2087	527.16
51.2232	505.10
51.2376	518.46
51.2521	483.31
51.2665	499.06
51.2809	522.35
51.2954	518.23
51.3098	505.45
51.3243	496.03
51.3387	503.94
51.3531	505.68
51.3676	515.28
51.3820	524.71
51.3965	515.32
51.4109	511.57
51.4253	541.45
51.4398	538.29
51.4542	491.05
51.4687	517.15
51.4831	485.37
51.4975	503.71
51.5120	532.11
51.5264	489.57
51.5409	518.77
51.5553	503.47
51.5697	527.16
51.5842	552.86
51.5986	540.74
51.6131	553.94
51.6275	540.44
51.6419	527.89
51.6564	512.60
51.6708	484.93
51.6853	478.94
51.6997	502.09
51.7141	510.80
51.7286	490.00
51.7430	467.72
51.7575	493.05
51.7719	501.62
51.7863	517.93
51.8008	531.97
51.8152	519.82
51.8297	545.30
51.8441	519.81
51.8585	514.39
51.8730	502.11
51.8874	491.28
51.9019	510.22
51.9163	522.66
51.9307	509.62
51.9452	490.52
51.9596	481.90
51.9741	523.24
51.9885	536.10
52.0029	537.62
52.0174	529.91
52.0318	519.26
52.0463	516.79
52.0607	521.96
52.0751	527.47
52.0896	516.59
52.1040	501.89
52.1185	547.06
52.1329	526.43
52.1473	515.94
52.1618	542.56
52.1762	511.64
52.1907	513.67
52.2051	493.43
52.2195	500.24
52.2340	502.19
52.2484	520.29
52.2629	541.75
52.2773	517.12
52.2917	528.23
52.3062	512.97
52.3206	517.62
52.3351	505.24
52.3495	510.91
52.3639	481.97
52.3784	509.21
52.3928	489.50
52.4073	468.91
52.4217	518.03
52.4361	508.53
52.4506	519.66
52.4650	514.21
52.4795	534.34
52.4939	482.75
52.5083	475.99
52.5228	482.78
52.5372	517.81
52.5517	512.41
52.5661	497.95
52.5805	489.94
52.5950	480.32
52.6094	508.32
52.6239	494.04
52.6383	515.32
52.6527	544.41
52.6672	532.58
52.6816	495.98
52.6961	498.25
52.7105	558.22
52.7250	517.48
52.7394	473.69
52.7538	538.72
52.7683	528.80
52.7827	517.39
52.7972	505.30
52.8116	514.61
52.8260	523.80
52.8405	532.65
52.8549	506.51
52.8694	503.77
52.8838	488.66
52.8982	516.53
52.9127	515.56
52.9271	518.28
52.9416	559.63
52.9560	523.13
52.9704	523.73
52.9849	515.53
52.9993	492.47
53.0138	551.60
53.0282	539.06
53.0426	543.69
53.0571	561.23
53.0715	566.40
53.0860	549.35
53.1004	535.83
53.1148	494.27
53.1293	504.28
53.1437	481.22
53.1582	504.41
53.1726	507.67
53.1870	509.66
53.2015	502.58
53.2159	525.76
53.2304	519.95
53.2448	505.55
53.2592	511.13
53.2737	506.39
53.2881	536.70
53.3026	514.08
53.3170	540.02
53.3314	563.08
53.3459	522.89
53.3603	485.37
53.3748	508.30
53.3892	510.20
53.4036	539.82
53.4181	513.72
53.4325	549.98
53.4470	505.19
53.4614	513.67
53.4758	534.84
53.4903	523.49
53.5047	492.29
53.5192	491.79
53.5336	508.50
53.5480	519.70
53.5625	536.20
53.5769	536.04
53.5914	546.45
53.6058	504.71
53.6202	518.00
53.6347	537.06
53.6491	501.16
53.6636	498.79
53.6780	486.20
53.6924	500.06
53.7069	552.93
53.7213	523.68
53.7358	476.86
53.7502	508.19
53.7646	499.13
53.7791	555.38
53.7935	518.11
53.8080	494.01
53.8224	506.52
53.8368	510.15
53.8513	503.41
53.8657	504.95
53.8802	494.86
53.8946	491.23
53.9090	497.19
53.9235	509.71
53.9379	528.38
53.9524	502.41
53.9668	552.54
53.9812	538.61
53.9957	550.37
54.0101	552.84
54.0246	523.45
54.0390	530.77
54.0534	496.92
54.0679	550.54
54.0823	540.29
54.0968	559.84
54.1112	566.37
54.1256	556.55
54.1401	523.90
54.1545	515.78
54.1690	542.07
54.1834	524.32
54.1978	524.62
54.2123	545.17
54.2267	556.80
54.2412	542.37
54.2556	530.57
54.2700	533.00
54.2845	558.75
54.2989	550.09
54.3134	530.19
54.3278	537.60
54.3422	568.00
54.3567	554.84
54.3711	545.95
54.3856	563.36
54.4000	584.30
54.4144	602.42
54.4289	625.65
54.4433	624.78
54.4578	608.36
54.4722	585.76
54.4866	608.32
54.5011	606.22
54.5155	572.99
54.5300	591.25
54.5444	609.25
54.5588	619.44
54.5733	609.05
54.5877	598.78
54.6022	590.91
54.6166	588.07
54.6310	587.16
54.6455	561.01
54.6599	522.41
54.6744	530.88
54.6888	564.56
54.7032	560.04
54.7177	538.14
54.7321	545.32
54.7466	549.51
54.7610	530.14
54.7754	502.29
54.7899	524.94
54.8043	534.63
54.8188	528.79
54.8332	527.97
54.8476	517.07
54.8621	526.69
54.8765	536.34
54.8910	535.97
54.9054	546.04
54.9198	547.63
54.9343	535.36
54.9487	527.43
54.9632	489.27
54.9776	525.99
54.9920	529.67
55.0065	506.15
55.0209	550.13
55.0354	555.34
55.0498	530.70
55.0642	512.26
55.0787	495.76
55.0931	509.24
55.1076	515.10
55.1220	538.84
55.1364	497.40
55.1509	521.48
55.1653	550.25
55.1798	561.38
55.1942	533.86
55.2086	547.64
55.2231	513.20
55.2375	527.31
55.2520	509.24
55.2664	509.26
55.2808	501.60
55.2953	488.46
55.3097	495.95
55.3242	500.74
55.3386	535.23
55.3530	507.24
55.3675	523.09
55.3819	529.83
55.3964	526.38
55.4108	530.46
55.4252	536.02
55.4397	535.58
55.4541	535.02
55.4686	518.46
55.4830	500.41
55.4974	509.78
55.5119	534.95
55.5263	543.41
55.5408	538.78
55.5552	536.88
55.5696	513.64
55.5841	517.50
55.5985	523.34
55.6130	505.73
55.6274	498.56
55.6418	512.40
55.6563	516.62
55.6707	548.19
55.6852	528.66
55.6996	535.73
55.7140	531.71
55.7285	530.37
55.7429	521.55
55.7574	543.93
55.7718	527.07
55.7862	501.39
55.8007	534.72
55.8151	550.84
55.8296	548.68
55.8440	549.16
55.8584	546.40
55.8729	527.70
55.8873	498.54
55.9018	522.64
55.9162	501.10
55.9306	495.62
55.9451	525.73
55.9595	487.40
55.9740	509.46
55.9884	509.85
56.0028	525.09
56.0173	492.00
56.0317	561.01
56.0462	565.15
56.0606	548.32
56.0750	516.35
56.0895	524.70
56.1039	517.82
56.1184	537.75
56.1328	519.20
56.1472	499.43
56.1617	532.11
56.1761	524.73
56.1906	500.74
56.2050	556.23
56.2194	505.28
56.2339	490.29
56.2483	530.80
56.2628	520.19
56.2772	512.24
56.2916	515.46
56.3061	502.50
56.3205	513.41
56.3350	514.63
56.3494	506.65
56.3639	496.39
56.3783	514.58
56.3927	549.73
56.4072	498.85
56.4216	531.75
56.4361	520.48
56.4505	506.41
56.4649	509.98
56.4794	506.80
56.4938	545.06
56.5083	536.49
56.5227	525.27
56.5371	539.53
56.5516	543.74
56.5660	504.39
56.5805	522.32
56.5949	530.87
56.6093	537.99
56.6238	539.77
56.6382	530.70
56.6527	504.97
56.6671	478.84
56.6815	491.30
56.6960	495.37
56.7104	517.15
56.7249	533.56
56.7393	532.83
56.7537	520.50
56.7682	499.99
56.7826	507.40
56.7971	535.52
56.8115	533.54
56.8259	527.26
56.8404	497.61
56.8548	539.51
56.8693	531.43
56.8837	512.25
56.8981	520.70
56.9126	526.55
56.9270	526.04
56.9415	524.68
56.9559	557.58
56.9703	478.33
56.9848	498.71
56.9992	512.29
57.0137	499.41
57.0281	523.08
57.0425	533.99
57.0570	577.62
57.0714	520.77
57.0859	536.02
57.1003	535.77
57.1147	509.20
57.1292	507.47
57.1436	476.68
57.1581	491.50
57.1725	539.47
57.1869	484.85
57.2014	493.97
57.2158	521.89
57.2303	497.60
57.2447	501.57
57.2591	528.64
57.2736	531.36
57.2880	565.18
57.3025	535.60
57.3169	508.88
57.3313	549.91
57.3458	565.45
57.3602	528.11
57.3747	513.62
57.3891	502.83
57.4035	521.84
57.4180	539.28
57.4324	568.91
57.4469	505.96
57.4613	533.36
57.4757	546.93
57.4902	527.90
57.5046	532.69
57.5191	552.48
57.5335	528.29
57.5479	556.11
57.5624	555.66
57.5768	518.97
57.5913	564.40
57.6057	493.95
57.6201	516.38
57.6346	547.73
57.6490	528.30
57.6635	545.81
57.6779	526.95
57.6923	541.69
57.7068	523.71
57.7212	532.16
57.7357	527.89
57.7501	522.64
57.7645	531.16
57.7790	565.90
57.7934	554.22
57.8079	554.43
57.8223	552.96
57.8367	548.34
57.8512	529.40
57.8656	532.93
57.8801	572.72
57.8945	537.31
57.9089	582.80
57.9234	532.06
57.9378	607.52
57.9523	590.69
57.9667	602.37
57.9811	624.51
57.9956	640.83
58.0100	617.73
58.0245	649.86
58.0389	701.88
58.0533	688.49
58.0678	691.16
58.0822	667.45
58.0967	703.13
58.1111	712.50
58.1255	662.42
58.1400	652.36
58.1544	689.72
58.1689	692.27
58.1833	644.41
58.1977	646.50
58.2122	674.35
58.2266	695.26
58.2411	672.93
58.2555	625.72
58.2699	601.07
58.2844	611.64
58.2988	618.78
58.3133	600.68
58.3277	575.56
58.3421	560.38
58.3566	556.94
58.3710	551.41
58.3855	539.07
58.3999	533.11
58.4143	530.38
58.4288	552.13
58.4432	541.40
58.4577	524.92
58.4721	565.85
58.4865	573.97
58.5010	555.53
58.5154	570.94
58.5299	546.29
58.5443	557.00
58.5587	562.86
58.5732	554.36
58.5876	557.20
58.6021	565.69
58.6165	529.64
58.6309	542.74
58.6454	535.17
58.6598	543.20
58.6743	526.57
58.6887	513.65
58.7031	512.24
58.7176	559.07
58.7320	541.26
58.7465	555.55
58.7609	538.76
58.7753	540.56
58.7898	504.74
58.8042	540.14
58.8187	517.77
58.8331	517.51
58.8475	538.48
58.8620	521.49
58.8764	532.98
58.8909	509.44
58.9053	514.10
58.9197	542.62
58.9342	542.46
58.9486	579.86
58.9631	548.59
58.9775	578.12
58.9919	576.33
59.0064	530.00
59.0208	530.60
59.0353	529.82
59.0497	538.74
59.0641	548.99
59.0786	509.23
59.0930	543.83
59.1075	539.25
59.1219	529.51
59.1363	540.52
59.1508	543.61
59.1652	569.68
59.1797	523.22
59.1941	514.25
59.2085	520.76
59.2230	541.01
59.2374	581.95
59.2519	547.65
59.2663	544.39
59.2807	568.30
59.2952	569.30
59.3096	552.37
59.3241	542.28
59.3385	561.07
59.3529	537.49
59.3674	570.40
59.3818	578.63
59.3963	569.76
59.4107	563.10
59.4251	592.34
59.4396	568.66
59.4540	550.44
59.4685	547.66
59.4829	553.86
59.4973	562.37
59.5118	540.37
59.5262	564.35
59.5407	548.60
59.5551	580.50
59.5695	572.59
59.5840	545.71
59.5984	533.30
59.6129	544.29
59.6273	538.11
59.6417	549.12
59.6562	521.31
59.6706	550.51
59.6851	519.26
59.6995	589.42
59.7139	571.54
59.7284	521.16
59.7428	548.35
59.7573	529.97
59.7717	533.53
59.7861	527.43
59.8006	559.06
59.8150	579.72
59.8295	563.10
59.8439	502.21
59.8583	525.61
59.8728	541.56
59.8872	526.93
59.9017	555.62
59.9161	554.14
59.9305	562.24
59.9450	570.75
59.9594	541.52
59.9739	532.12
59.9883	504.50
60.0027	516.38
60.0172	522.70
60.0316	539.46
60.0461	526.46
60.0605	549.31
60.0750	580.11
60.0894	558.87
60.1038	537.38
60.1183	518.04
60.1327	538.54
60.1472	508.37
60.1616	531.62
60.1760	517.29
60.1905	516.12
60.2049	533.53
60.2194	526.13
60.2338	543.77
60.2482	548.10
60.2627	558.92
60.2771	583.10
60.2916	543.07
60.3060	536.95
60.3204	554.44
60.3349	562.58
60.3493	578.30
60.3638	551.47
60.3782	518.24
60.3926	515.56
60.4071	533.28
60.4215	535.32
60.4360	532.68
60.4504	513.88
60.4648	538.49
60.4793	531.06
60.4937	539.66
60.5082	556.22
60.5226	521.83
60.5370	548.55
60.5515	541.00
60.5659	524.95
60.5804	546.98
60.5948	518.43
60.6092	543.77
60.6237	547.60
60.6381	523.45
60.6526	522.22
60.6670	529.13
60.6814	518.41
60.6959	557.17
60.7103	523.44
60.7248	516.38
60.7392	530.17
60.7536	553.39
60.7681	534.96
60.7825	564.70
60.7970	526.63
60.8114	546.60
60.8258	545.31
60.8403	519.97
60.8547	532.86
60.8692	521.97
60.8836	512.19
60.8980	556.75
60.9125	546.14
60.9269	550.17
60.9414	570.84
60.9558	551.58
60.9702	540.55
60.9847	526.24
60.9991	564.26
61.0136	502.82
61.0280	515.04
61.0424	526.86
61.0569	524.79
61.0713	563.84
61.0858	567.77
61.1002	526.90
61.1146	497.38
61.1291	505.22
61.1435	541.72
61.1580	539.04
61.1724	545.46
61.1868	559.70
61.2013	530.30
61.2157	541.02
61.2302	503.49
61.2446	536.65
61.2590	517.61
61.2735	519.27
61.2879	543.10
61.3024	495.89
61.3168	529.88
61.3312	556.58
61.3457	533.09
61.3601	550.81
61.3746	551.29
61.3890	552.77
61.4034	546.21
61.4179	559.59
61.4323	582.80
61.4468	523.08
61.4612	543.64
61.4756	523.54
61.4901	511.91
61.5045	532.66
61.5190	510.49
61.5334	508.62
61.5478	508.67
61.5623	521.94
61.5767	549.31
61.5912	540.67
61.6056	538.28
61.6200	538.61
61.6345	581.80
61.6489	525.51
61.6634	519.25
61.6778	527.75
61.6922	540.75
61.7067	545.07
61.7211	542.32
61.7356	522.99
61.7500	553.27
61.7644	542.80
61.7789	536.57
61.7933	579.44
61.8078	547.26
61.8222	530.92
61.8366	570.14
61.8511	542.58
61.8655	571.91
61.8800	561.98
61.8944	558.55
61.9088	558.96
61.9233	531.57
61.9377	565.21
61.9522	571.38
61.9666	553.71
61.9810	556.26
61.9955	590.49
62.0099	568.71
62.0244	545.86
62.0388	518.56
62.0532	521.33
62.0677	551.89
62.0821	529.40
62.0966	536.64
62.1110	562.78
62.1254	537.79
62.1399	579.18
62.1543	554.84
62.1688	526.26
62.1832	528.97
62.1976	530.72
62.2121	564.95
62.2265	552.10
62.2410	544.29
62.2554	582.57
62.2698	573.21
62.2843	564.03
62.2987	524.94
62.3132	578.98
62.3276	566.05
62.3420	577.35
62.3565	529.16
62.3709	565.26
62.3854	549.62
62.3998	536.40
62.4142	557.61
62.4287	604.41
62.4431	555.96
62.4576	561.71
62.4720	558.20
62.4864	577.17
62.5009	580.47
62.5153	554.07
62.5298	562.78
62.5442	532.08
62.5586	529.07
62.5731	535.81
62.5875	568.07
62.6020	566.77
62.6164	566.63
62.6308	561.89
62.6453	555.47
62.6597	561.33
62.6742	579.31
62.6886	564.31
62.7030	563.29
62.7175	559.66
62.7319	568.55
62.7464	561.37
62.7608	604.46
62.7752	581.24
62.7897	556.49
62.8041	556.19
62.8186	532.65
62.8330	567.58
62.8474	571.62
62.8619	568.54
62.8763	559.52
62.8908	584.11
62.9052	605.61
62.9196	595.98
62.9341	588.75
62.9485	607.52
62.9630	568.54
62.9774	530.30
62.9918	590.12
63.0063	559.67
63.0207	548.78
63.0352	555.32
63.0496	559.17
63.0640	582.62
63.0785	585.66
63.0929	589.31
63.1074	567.61
63.1218	605.18
63.1362	570.34
63.1507	558.68
63.1651	594.39
63.1796	591.94
63.1940	573.08
63.2084	584.25
63.2229	594.63
63.2373	593.65
63.2518	588.71
63.2662	562.03
63.2806	553.77
63.2951	558.64
63.3095	547.90
63.3240	544.93
63.3384	591.40
63.3528	546.31
63.3673	598.76
63.3817	585.75
63.3962	587.25
63.4106	566.57
63.4250	619.27
63.4395	608.29
63.4539	592.70
63.4684	614.84
63.4828	625.68
63.4972	622.42
63.5117	588.24
63.5261	627.80
63.5406	590.38
63.5550	614.17
63.5694	613.62
63.5839	622.52
63.5983	638.05
63.6128	674.04
63.6272	617.67
63.6416	659.14
63.6561	656.53
63.6705	696.49
63.6850	721.73
63.6994	783.26
63.7138	818.04
63.7283	862.69
63.7427	910.18
63.7572	905.03
63.7716	885.64
63.7861	901.45
63.8005	878.76
63.8149	840.48
63.8294	818.89
63.8438	823.67
63.8583	788.34
63.8727	781.38
63.8871	738.92
63.9016	769.85
63.9160	787.15
63.9305	748.45
63.9449	798.47
63.9593	761.33
63.9738	781.53
63.9882	781.86
64.0027	723.54
64.0171	766.97
64.0315	739.46
64.0460	734.58
64.0604	714.92
64.0749	661.07
64.0893	681.14
64.1037	617.00
64.1182	655.23
64.1326	647.01
64.1471	630.00
64.1615	641.59
64.1759	636.48
64.1904	595.78
64.2048	626.53
64.2193	631.18
64.2337	649.86
64.2481	632.50
64.2626	593.50
64.2770	650.03
64.2915	631.90
64.3059	604.48
64.3203	641.54
64.3348	633.98
64.3492	620.50
64.3637	619.36
64.3781	613.87
64.3925	640.83
64.4070	636.84
64.4214	596.09
64.4359	649.78
64.4503	638.49
64.4647	648.01
64.4792	680.62
64.4936	667.69
64.5081	629.19
64.5225	604.68
64.5369	646.83
64.5514	679.50
64.5658	660.85
64.5803	608.53
64.5947	622.64
64.6091	618.02
64.6236	615.71
64.6380	681.50
64.6525	688.48
64.6669	636.37
64.6813	682.28
64.6958	693.23
64.7102	732.17
64.7247	678.25
64.7391	674.77
64.7535	693.85
64.7680	690.28
64.7824	741.37
64.7969	699.38
64.8113	773.16
64.8257	782.06
64.8402	831.93
64.8546	786.00
64.8691	824.15
64.8835	858.76
64.8979	858.68
64.9124	871.47
64.9268	899.95
64.9413	913.56
64.9557	966.82
64.9701	1017.41
64.9846	1105.11
64.9990	1127.07
65.0135	1278.02
65.0279	1450.36
65.0423	1726.78
65.0568	2116.63
65.0712	2767.83
65.0857	3421.30
65.1001	4574.89
65.1145	6205.02
65.1290	8023.85
65.1434	9632.25
65.1579	11150.34
65.1723	11794.29
65.1867	11186.17
65.2012	10027.89
65.2156	8452.46
65.2301	6618.30
65.2445	5364.18
65.2589	4435.76
65.2734	4169.65
65.2878	4449.77
65.3023	5022.42
65.3167	5682.27
65.3311	6551.61
65.3456	6984.02
65.3600	6892.22
65.3745	6538.59
65.3889	5539.66
65.4033	4358.51
65.4178	3379.55
65.4322	2706.52
65.4467	2120.04
65.4611	1736.83
65.4755	1493.83
65.4900	1273.91
65.5044	1144.10
65.5189	997.80
65.5333	945.44
65.5477	884.61
65.5622	841.64
65.5766	865.04
65.5911	899.50
65.6055	793.18
65.6199	768.40
65.6344	762.81
65.6488	754.25
65.6633	735.06
65.6777	698.54
65.6921	705.97
65.7066	735.35
65.7210	696.64
65.7355	679.40
65.7499	666.93
65.7643	680.49
65.7788	690.57
65.7932	706.15
65.8077	669.90
65.8221	679.73
65.8365	697.23
65.8510	646.94
65.8654	679.10
65.8799	651.97
65.8943	690.84
65.9087	695.96
65.9232	636.96
65.9376	644.00
65.9521	645.21
65.9665	614.46
65.9809	630.30
65.9954	658.23
66.0098	637.52
66.0243	625.93
66.0387	597.33
66.0531	571.14
66.0676	608.11
66.0820	619.72
66.0965	575.30
66.1109	603.82
66.1253	619.56
66.1398	624.44
66.1542	626.02
66.1687	629.88
66.1831	621.50
66.1975	605.15
66.2120	621.67
66.2264	602.93
66.2409	653.85
66.2553	605.25
66.2697	594.08
66.2842	602.02
66.2986	629.01
66.3131	604.88
66.3275	612.70
66.3419	608.12
66.3564	611.22
66.3708	600.51
66.3853	584.71
66.3997	556.55
66.4141	592.53
66.4286	599.80
66.4430	594.39
66.4575	607.69
66.4719	599.09
66.4863	657.19
66.5008	641.18
66.5152	615.38
66.5297	595.48
66.5441	588.83
66.5585	608.89
66.5730	571.54
66.5874	581.97
66.6019	633.63
66.6163	622.42
66.6307	609.18
66.6452	623.39
66.6596	598.94
66.6741	572.38
66.6885	556.93
66.7029	627.89
66.7174	598.69
66.7318	558.28
66.7463	592.63
66.7607	611.59
66.7751	626.18
66.7896	581.07
66.8040	587.46
66.8185	583.03
66.8329	575.01
66.8473	579.09
66.8618	595.54
66.8762	593.18
66.8907	591.15
66.9051	621.13
66.9195	566.20
66.9340	584.49
66.9484	600.64
66.9629	585.95
66.9773	572.26
66.9917	592.81
67.0062	558.69
67.0206	570.98
67.0351	580.59
67.0495	564.41
67.0639	604.42
67.0784	553.70
67.0928	576.66
67.1073	554.17
67.1217	591.06
67.1361	588.97
67.1506	576.55
67.1650	609.55
67.1795	601.58
67.1939	573.63
67.2083	539.88
67.2228	557.31
67.2372	554.62
67.2517	578.27
67.2661	573.64
67.2805	577.80
67.2950	579.75
67.3094	571.88
67.3239	570.98
67.3383	588.32
67.3527	594.16
67.3672	593.68
67.3816	572.86
67.3961	567.82
67.4105	601.70
67.4250	576.03
67.4394	577.43
67.4538	596.74
67.4683	612.13
67.4827	610.20
67.4972	574.68
67.5116	542.18
67.5260	580.06
67.5405	592.94
67.5549	578.82
67.5694	571.22
67.5838	586.76
67.5982	574.50
67.6127	556.80
67.6271	568.22
67.6416	539.61
67.6560	512.95
67.6704	532.53
67.6849	536.79
67.6993	559.48
67.7138	573.04
67.7282	581.41
67.7426	547.90
67.7571	596.67
67.7715	570.37
67.7860	556.53
67.8004	537.26
67.8148	534.30
67.8293	539.71
67.8437	568.26
67.8582	570.11
67.8726	550.11
67.8870	570.67
67.9015	569.60
67.9159	579.44
67.9304	603.47
67.9448	585.94
67.9592	560.36
67.9737	586.29
67.9881	570.65
68.0026	571.18
68.0170	564.71
68.0314	583.75
68.0459	548.72
68.0603	608.13
68.0748	575.40
68.0892	567.65
68.1036	563.23
68.1181	592.15
68.1325	568.38
68.1470	568.96
68.1614	569.52
68.1758	542.72
68.1903	547.64
68.2047	579.45
68.2192	577.94
68.2336	601.69
68.2480	560.77
68.2625	576.88
68.2769	566.93
68.2914	589.99
68.3058	589.98
68.3202	560.45
68.3347	582.57
68.3491	579.41
68.3636	562.61
68.3780	562.15
68.3924	575.71
68.4069	606.71
68.4213	585.09
68.4358	548.38
68.4502	532.15
68.4646	559.73
68.4791	607.76
68.4935	585.13
68.5080	566.00
68.5224	573.64
68.5368	567.49
68.5513	587.03
68.5657	579.70
68.5802	580.48
68.5946	558.45
68.6090	571.38
68.6235	592.79
68.6379	600.77
68.6524	597.86
68.6668	547.95
68.6812	561.30
68.6957	572.18
68.7101	572.88
68.7246	547.46
68.7390	598.69
68.7534	595.33
68.7679	583.16
68.7823	594.43
68.7968	557.83
68.8112	567.77
68.8256	568.60
68.8401	597.53
68.8545	604.93
68.8690	585.65
68.8834	593.08
68.8978	591.56
68.9123	584.74
68.9267	580.09
68.9412	607.93
68.9556	553.78
68.9700	552.15
68.9845	572.41
68.9989	611.79
69.0134	567.31
69.0278	533.51
69.0422	562.67
69.0567	573.92
69.0711	557.81
69.0856	590.49
69.1000	595.28
69.1144	543.47
69.1289	609.53
69.1433	531.40
69.1578	564.45
69.1722	591.71
69.1866	572.56
69.2011	575.34
69.2155	635.99
69.2300	540.06
69.2444	585.42
69.2588	586.43
69.2733	616.31
69.2877	584.33
69.3022	599.39
69.3166	632.55
69.3310	567.86
69.3455	582.66
69.3599	546.59
69.3744	546.86
69.3888	599.13
69.4032	563.86
69.4177	615.36
69.4321	611.43
69.4466	551.69
69.4610	547.75
69.4754	578.66
69.4899	666.77
69.5043	615.13
69.5188	545.56
69.5332	588.91
69.5476	587.40
69.5621	593.70
69.5765	605.04
69.5910	546.13
69.6054	550.74
69.6198	571.07
69.6343	610.05
69.6487	562.31
69.6632	505.20
69.6776	575.89
69.6920	579.24
69.7065	573.13
69.7209	593.04
69.7354	556.04
69.7498	544.53
69.7642	589.07
69.7787	578.99
69.7931	605.77
69.8076	572.57
69.8220	544.07
69.8364	585.87
69.8509	550.11
69.8653	609.58
69.8798	577.96
69.8942	562.68
69.9086	605.17
69.9231	524.51
69.9375	575.32
69.9520	595.16
69.9664	579.22
69.9808	552.53
69.9953	591.66
70.0097	563.25
70.0242	603.74
70.0386	547.53
70.0530	524.24
70.0675	549.62
70.0819	562.56
70.0964	604.71
70.1108	609.60
70.1252	598.03
70.1397	552.99
70.1541	611.95
70.1686	576.65
70.1830	543.66
70.1974	536.62
70.2119	572.30
70.2263	590.90
70.2408	548.36
70.2552	565.12
70.2696	582.32
70.2841	587.32
70.2985	558.16
70.3130	521.58
70.3274	566.38
70.3418	600.66
70.3563	632.58
70.3707	600.64
70.3852	587.91
70.3996	578.98
70.4140	573.77
70.4285	604.69
70.4429	541.97
70.4574	552.57
70.4718	559.42
70.4862	584.87
70.5007	623.61
70.5151	563.55
70.5296	580.89
70.5440	586.31
70.5584	635.24
70.5729	559.56
70.5873	554.24
70.6018	509.75
70.6162	578.51
70.6306	595.10
70.6451	618.16
70.6595	623.64
70.6740	593.68
70.6884	590.49
70.7028	626.60
70.7173	613.61
70.7317	564.74
70.7462	517.60
70.7606	564.89
70.7750	586.71
70.7895	564.21
70.8039	623.71
70.8184	613.38
70.8328	599.90
70.8472	543.89
70.8617	578.09
70.8761	602.70
70.8906	604.69
70.9050	575.47
70.9194	598.25
70.9339	619.55
70.9483	657.58
70.9628	580.31
70.9772	543.69
70.9916	561.58
71.0061	543.11
71.0205	591.25
71.0350	570.95
71.0494	541.55
71.0638	556.58
71.0783	552.63
71.0927	581.21
71.1072	582.59
71.1216	550.37
71.1361	526.20
71.1505	572.23
71.1649	664.06
71.1794	625.67
71.1938	614.69
71.2083	593.58
71.2227	562.12
71.2371	578.01
71.2516	622.53
71.2660	624.51
71.2805	618.91
71.2949	571.80
71.3093	592.77
71.3238	581.57
71.3382	584.12
71.3527	624.06
71.3671	576.34
71.3815	571.59
71.3960	607.21
71.4104	572.88
71.4249	578.82
71.4393	571.27
71.4537	555.85
71.4682	612.39
71.4826	577.08
71.4971	573.93
71.5115	540.64
71.5259	508.99
71.5404	587.51
71.5548	600.23
71.5693	578.37
71.5837	532.88
71.5981	570.75
71.6126	596.28
71.6270	566.76
71.6415	603.42
71.6559	614.52
71.6703	576.24
71.6848	557.45
71.6992	587.93
71.7137	582.94
71.7281	603.63
71.7425	596.74
71.7570	559.28
71.7714	575.02
71.7859	598.90
71.8003	533.04
71.8147	489.46
71.8292	569.89
71.8436	575.59
71.8581	574.91
71.8725	611.38
71.8869	566.89
71.9014	654.87
71.9158	636.34
71.9303	626.31
71.9447	640.67
71.9591	603.71
71.9736	603.15
71.9880	593.04
72.0025	580.06
72.0169	595.68
72.0313	558.62
72.0458	584.90
72.0602	590.76
72.0747	546.67
72.0891	573.42
72.1035	619.37
72.1180	558.47
72.1324	587.20
72.1469	567.58
72.1613	585.16
72.1757	647.29
72.1902	589.42
72.2046	576.54
72.2191	572.21
72.2335	554.48
72.2479	555.45
72.2624	568.79
72.2768	580.43
72.2913	585.00
72.3057	603.47
72.3201	584.22
72.3346	576.10
72.3490	559.87
72.3635	548.70
72.3779	585.15
72.3923	651.47
72.4068	589.06
72.4212	547.19
72.4357	677.56
72.4501	630.31
72.4645	566.18
72.4790	598.33
72.4934	598.94
72.5079	577.44
72.5223	569.13
72.5367	566.13
72.5512	586.59
72.5656	572.56
72.5801	517.03
72.5945	538.27
72.6089	597.38
72.6234	594.49
72.6378	636.40
72.6523	548.50
72.6667	523.16
72.6811	541.11
72.6956	583.00
72.7100	524.97
72.7245	537.16
72.7389	617.14
72.7533	590.38
72.7678	607.07
72.7822	551.51
72.7967	528.42
72.8111	545.93
72.8255	523.55
72.8400	561.69
72.8544	615.81
72.8689	605.24
72.8833	526.49