2022.09.19 19:37:16
Îáðàçåö: ß÷åéêà LCoV 16-09-2022
Lambda1 = 1.54060
Lambda2 = 1.54439
Lambdam = 1.54186
R = 0.497
2Theta	I

line¹ 0 ;repeat¹ 0
22.1120	614.16
22.1264	596.37
22.1409	519.46
22.1553	555.86
22.1697	582.81
22.1842	546.71
22.1986	555.93
22.2131	539.44
22.2275	573.57
22.2419	617.25
22.2564	567.41
22.2708	547.87
22.2853	538.26
22.2997	512.63
22.3141	555.56
22.3286	576.23
22.3430	535.91
22.3575	490.82
22.3719	567.41
22.3863	530.97
22.4008	511.87
22.4152	584.31
22.4297	626.48
22.4441	645.25
22.4585	603.06
22.4730	674.42
22.4874	644.42
22.5019	687.94
22.5163	577.43
22.5307	539.89
22.5452	531.98
22.5596	608.41
22.5741	596.80
22.5885	539.70
22.6029	586.00
22.6174	631.09
22.6318	620.81
22.6463	605.35
22.6607	603.58
22.6751	580.59
22.6896	584.56
22.7040	629.16
22.7185	600.02
22.7329	641.33
22.7473	629.07
22.7618	578.23
22.7762	617.14
22.7907	618.78
22.8051	520.65
22.8195	547.80
22.8340	550.63
22.8484	572.55
22.8629	620.81
22.8773	524.70
22.8917	513.34
22.9062	567.90
22.9206	582.22
22.9351	618.36
22.9495	577.76
22.9639	631.26
22.9784	608.19
22.9928	585.55
23.0073	550.11
23.0217	602.78
23.0361	555.25
23.0506	533.24
23.0650	543.58
23.0795	545.82
23.0939	558.97
23.1083	531.15
23.1228	591.67
23.1372	560.33
23.1517	496.44
23.1661	547.48
23.1806	553.46
23.1950	553.58
23.2094	573.56
23.2239	559.27
23.2383	566.79
23.2528	602.68
23.2672	552.81
23.2816	608.93
23.2961	565.65
23.3105	551.00
23.3250	565.20
23.3394	576.25
23.3538	575.23
23.3683	484.37
23.3827	534.51
23.3972	545.82
23.4116	565.64
23.4260	624.70
23.4405	585.89
23.4549	578.91
23.4694	598.74
23.4838	497.22
23.4982	542.72
23.5127	520.80
23.5271	528.33
23.5416	601.99
23.5560	675.79
23.5704	572.95
23.5849	575.20
23.5993	575.77
23.6138	597.63
23.6282	535.54
23.6426	607.04
23.6571	548.85
23.6715	541.91
23.6860	499.34
23.7004	512.98
23.7148	586.92
23.7293	478.31
23.7437	510.39
23.7582	545.87
23.7726	566.13
23.7870	581.24
23.8015	558.47
23.8159	608.53
23.8304	579.93
23.8448	529.07
23.8592	523.74
23.8737	579.59
23.8881	487.04
23.9026	523.15
23.9170	499.53
23.9314	590.29
23.9459	615.33
23.9603	481.14
23.9748	570.88
23.9892	643.98
24.0036	529.10
24.0181	499.69
24.0325	525.90
24.0470	582.74
24.0614	584.83
24.0758	559.60
24.0903	540.32
24.1047	505.80
24.1192	553.00
24.1336	560.28
24.1480	534.58
24.1625	556.65
24.1769	558.10
24.1914	566.91
24.2058	548.07
24.2202	581.43
24.2347	614.41
24.2491	653.12
24.2636	589.27
24.2780	646.12
24.2924	581.21
24.3069	562.90
24.3213	529.68
24.3358	631.66
24.3502	555.25
24.3646	499.24
24.3791	504.79
24.3935	596.85
24.4080	557.21
24.4224	547.99
24.4368	578.90
24.4513	558.61
24.4657	595.06
24.4802	566.23
24.4946	554.97
24.5090	536.00
24.5235	611.74
24.5379	597.61
24.5524	606.47
24.5668	577.70
24.5812	530.91
24.5957	560.12
24.6101	583.44
24.6246	504.75
24.6390	532.67
24.6534	632.75
24.6679	523.48
24.6823	534.10
24.6968	603.67
24.7112	534.81
24.7256	560.85
24.7401	541.52
24.7545	563.34
24.7690	492.11
24.7834	538.08
24.7978	552.12
24.8123	511.91
24.8267	556.33
24.8412	549.57
24.8556	568.30
24.8700	524.08
24.8845	535.92
24.8989	573.15
24.9134	568.86
24.9278	531.92
24.9422	512.84
24.9567	536.56
24.9711	542.76
24.9856	578.95
25.0000	516.93
25.0144	569.34
25.0289	571.56
25.0433	540.61
25.0578	554.27
25.0722	535.96
25.0866	586.18
25.1011	610.92
25.1155	557.06
25.1300	555.19
25.1444	533.49
25.1588	578.14
25.1733	557.67
25.1877	514.75
25.2022	537.68
25.2166	522.61
25.2310	562.15
25.2455	578.35
25.2599	533.43
25.2744	544.31
25.2888	535.80
25.3032	523.11
25.3177	593.04
25.3321	557.36
25.3466	532.32
25.3610	544.78
25.3754	520.37
25.3899	567.78
25.4043	547.87
25.4188	549.00
25.4332	577.19
25.4476	523.97
25.4621	543.57
25.4765	541.85
25.4910	507.01
25.5054	530.81
25.5198	576.53
25.5343	526.43
25.5487	578.42
25.5632	549.01
25.5776	489.35
25.5920	553.07
25.6065	539.71
25.6209	539.76
25.6354	559.43
25.6498	539.99
25.6642	552.06
25.6787	530.63
25.6931	551.99
25.7076	563.01
25.7220	547.27
25.7364	534.59
25.7509	590.59
25.7653	551.89
25.7798	520.52
25.7942	563.55
25.8086	554.81
25.8231	556.04
25.8375	547.82
25.8520	544.56
25.8664	588.02
25.8808	548.94
25.8953	540.78
25.9097	547.08
25.9242	518.72
25.9386	527.23
25.9530	568.63
25.9675	514.61
25.9819	458.88
25.9964	511.83
26.0108	540.65
26.0252	545.16
26.0397	523.10
26.0541	558.74
26.0686	558.17
26.0830	564.54
26.0974	535.50
26.1119	535.93
26.1263	542.00
26.1408	530.39
26.1552	525.58
26.1696	508.35
26.1841	532.20
26.1985	524.74
26.2130	506.44
26.2274	518.62
26.2418	538.56
26.2563	542.28
26.2707	525.77
26.2852	525.58
26.2996	521.92
26.3140	508.11
26.3285	537.30
26.3429	533.51
26.3574	524.62
26.3718	511.88
26.3862	518.98
26.4007	546.13
26.4151	537.24
26.4296	563.44
26.4440	524.10
26.4584	521.63
26.4729	527.87
26.4873	537.69
26.5018	544.48
26.5162	556.95
26.5306	547.09
26.5451	514.59
26.5595	555.69
26.5740	536.07
26.5884	527.75
26.6028	560.98
26.6173	519.34
26.6317	518.54
26.6462	547.05
26.6606	528.96
26.6750	521.14
26.6895	491.62
26.7039	493.76
26.7184	510.38
26.7328	494.56
26.7472	516.65
26.7617	532.28
26.7761	510.31
26.7906	521.22
26.8050	513.59
26.8194	503.53
26.8339	524.12
26.8483	526.59
26.8628	512.78
26.8772	520.30
26.8917	485.99
26.9061	546.69
26.9205	564.00
26.9350	552.87
26.9494	551.15
26.9639	518.58
26.9783	520.37
26.9927	474.29
27.0072	481.09
27.0216	516.51
27.0361	564.61
27.0505	564.58
27.0649	544.43
27.0794	542.95
27.0938	562.84
27.1083	534.26
27.1227	538.88
27.1371	526.99
27.1516	509.92
27.1660	517.37
27.1805	528.83
27.1949	521.73
27.2093	526.34
27.2238	512.37
27.2382	526.55
27.2527	493.18
27.2671	519.14
27.2815	543.45
27.2960	538.48
27.3104	511.63
27.3249	508.66
27.3393	531.22
27.3537	525.52
27.3682	536.77
27.3826	534.55
27.3971	489.70
27.4115	476.97
27.4259	534.49
27.4404	515.84
27.4548	501.32
27.4693	510.79
27.4837	528.35
27.4981	528.17
27.5126	547.83
27.5270	521.53
27.5415	537.32
27.5559	542.80
27.5703	525.53
27.5848	502.43
27.5992	501.32
27.6137	502.68
27.6281	512.44
27.6425	535.66
27.6570	565.61
27.6714	515.22
27.6859	496.12
27.7003	529.20
27.7147	566.07
27.7292	524.80
27.7436	523.44
27.7581	516.66
27.7725	519.99
27.7869	527.76
27.8014	521.63
27.8158	527.30
27.8303	514.38
27.8447	518.11
27.8591	486.48
27.8736	520.76
27.8880	517.91
27.9025	532.18
27.9169	543.31
27.9313	512.88
27.9458	541.55
27.9602	525.66
27.9747	495.99
27.9891	514.85
28.0035	496.98
28.0180	490.37
28.0324	493.45
28.0469	514.47
28.0613	505.46
28.0757	483.19
28.0902	544.42
28.1046	545.42
28.1191	531.71
28.1335	527.74
28.1479	490.76
28.1624	487.11
28.1768	523.07
28.1913	526.33
28.2057	508.23
28.2201	477.22
28.2346	491.08
28.2490	526.57
28.2635	509.21
28.2779	518.04
28.2923	531.12
28.3068	519.11
28.3212	499.16
28.3357	482.80
28.3501	533.92
28.3645	539.11
28.3790	528.56
28.3934	518.65
28.4079	539.46
28.4223	542.02
28.4367	521.08
28.4512	508.70
28.4656	565.15
28.4801	554.93
28.4945	519.06
28.5089	528.29
28.5234	526.00
28.5378	538.56
28.5523	540.31
28.5667	517.24
28.5811	490.30
28.5956	532.84
28.6100	487.19
28.6245	512.52
28.6389	549.39
28.6533	535.78
28.6678	484.59
28.6822	486.28
28.6967	513.28
28.7111	514.87
28.7255	494.30
28.7400	515.48
28.7544	482.14
28.7689	499.82
28.7833	525.23
28.7977	521.16
28.8122	487.67
28.8266	506.66
28.8411	525.45
28.8555	493.47
28.8699	507.13
28.8844	537.31
28.8988	545.62
28.9133	527.95
28.9277	514.84
28.9421	503.35
28.9566	514.08
28.9710	488.93
28.9855	524.18
28.9999	498.64
29.0143	486.97
29.0288	508.79
29.0432	502.35
29.0577	468.35
29.0721	512.33
29.0865	494.71
29.1010	515.99
29.1154	514.22
29.1299	552.70
29.1443	522.87
29.1587	513.74
29.1732	528.93
29.1876	506.45
29.2021	543.62
29.2165	530.03
29.2309	490.71
29.2454	475.54
29.2598	513.19
29.2743	544.31
29.2887	565.88
29.3031	508.55
29.3176	504.36
29.3320	504.01
29.3465	469.10
29.3609	482.78
29.3753	513.99
29.3898	502.89
29.4042	514.37
29.4187	518.84
29.4331	531.14
29.4475	503.47
29.4620	484.45
29.4764	499.30
29.4909	510.48
29.5053	516.20
29.5197	520.38
29.5342	498.11
29.5486	509.83
29.5631	531.11
29.5775	539.71
29.5919	525.53
29.6064	534.70
29.6208	535.81
29.6353	530.22
29.6497	488.05
29.6641	495.66
29.6786	479.59
29.6930	505.77
29.7075	505.57
29.7219	523.10
29.7363	504.07
29.7508	506.92
29.7652	493.46
29.7797	524.50
29.7941	511.72
29.8085	524.41
29.8230	535.57
29.8374	522.65
29.8519	526.39
29.8663	545.84
29.8807	524.82
29.8952	517.81
29.9096	500.60
29.9241	529.97
29.9385	503.10
29.9529	506.45
29.9674	476.04
29.9818	517.25
29.9963	509.66
30.0107	507.19
30.0251	528.65
30.0396	505.80
30.0540	501.34
30.0685	530.74
30.0829	522.80
30.0973	523.75
30.1118	498.46
30.1262	519.35
30.1407	496.17
30.1551	507.50
30.1695	495.79
30.1840	499.88
30.1984	542.72
30.2129	528.80
30.2273	507.92
30.2417	504.21
30.2562	520.39
30.2706	490.03
30.2851	498.44
30.2995	501.01
30.3139	520.66
30.3284	505.46
30.3428	483.60
30.3573	499.86
30.3717	480.34
30.3861	513.19
30.4006	502.76
30.4150	511.50
30.4295	526.53
30.4439	499.12
30.4583	519.41
30.4728	543.42
30.4872	519.53
30.5017	552.79
30.5161	529.78
30.5305	548.25
30.5450	547.59
30.5594	586.57
30.5739	577.47
30.5883	580.61
30.6028	614.86
30.6172	632.53
30.6316	664.45
30.6461	688.76
30.6605	706.12
30.6750	707.49
30.6894	748.90
30.7038	741.31
30.7183	720.13
30.7327	647.24
30.7472	676.80
30.7616	664.56
30.7760	669.92
30.7905	636.61
30.8049	604.38
30.8194	631.34
30.8338	584.43
30.8482	555.42
30.8627	517.89
30.8771	521.85
30.8916	538.50
30.9060	542.34
30.9204	537.84
30.9349	533.67
30.9493	507.46
30.9638	489.95
30.9782	495.17
30.9926	533.28
31.0071	528.75
31.0215	520.86
31.0360	521.91
31.0504	516.51
31.0648	526.74
31.0793	519.18
31.0937	522.34
31.1082	516.82
31.1226	482.83
31.1370	520.04
31.1515	494.56
31.1659	520.37
31.1804	510.83
31.1948	504.08
31.2092	496.27
31.2237	542.06
31.2381	552.54
31.2526	532.46
31.2670	507.53
31.2814	538.79
31.2959	518.07
31.3103	533.60
31.3248	555.61
31.3392	547.11
31.3536	524.61
31.3681	513.42
31.3825	551.34
31.3970	502.94
31.4114	517.94
31.4258	546.03
31.4403	521.39
31.4547	506.46
31.4692	517.60
31.4836	534.88
31.4980	501.62
31.5125	498.21
31.5269	506.49
31.5414	482.09
31.5558	489.78
31.5702	479.75
31.5847	514.45
31.5991	507.14
31.6136	517.91
31.6280	507.32
31.6424	537.54
31.6569	522.50
31.6713	486.02
31.6858	507.28
31.7002	524.88
31.7146	499.96
31.7291	500.11
31.7435	472.47
31.7580	490.22
31.7724	534.34
31.7868	506.41
31.8013	527.79
31.8157	536.55
31.8302	538.60
31.8446	528.97
31.8590	509.89
31.8735	511.43
31.8879	515.25
31.9024	551.99
31.9168	509.12
31.9312	521.36
31.9457	502.57
31.9601	507.51
31.9746	499.08
31.9890	492.81
32.0034	495.40
32.0179	488.91
32.0323	521.74
32.0468	476.62
32.0612	507.72
32.0756	507.27
32.0901	546.87
32.1045	545.70
32.1190	498.10
32.1334	487.53
32.1478	468.33
32.1623	491.20
32.1767	516.61
32.1912	513.65
32.2056	508.09
32.2200	498.15
32.2345	505.50
32.2489	482.35
32.2634	494.86
32.2778	483.47
32.2922	455.14
32.3067	502.11
32.3211	488.91
32.3356	470.07
32.3500	500.40
32.3644	532.30
32.3789	519.97
32.3933	509.50
32.4078	509.01
32.4222	526.74
32.4366	505.17
32.4511	489.70
32.4655	489.09
32.4800	529.43
32.4944	511.21
32.5088	510.29
32.5233	485.29
32.5377	498.58
32.5522	534.75
32.5666	513.72
32.5810	536.25
32.5955	520.53
32.6099	499.26
32.6244	507.41
32.6388	519.23
32.6532	498.83
32.6677	503.00
32.6821	488.46
32.6966	515.62
32.7110	517.79
32.7254	491.71
32.7399	469.56
32.7543	504.93
32.7688	489.01
32.7832	497.41
32.7976	517.91
32.8121	489.99
32.8265	523.76
32.8410	516.44
32.8554	488.42
32.8698	517.46
32.8843	528.17
32.8987	495.89
32.9132	480.53
32.9276	518.65
32.9420	466.94
32.9565	532.11
32.9709	521.26
32.9854	558.35
32.9998	504.33
33.0142	575.50
33.0287	491.93
33.0431	503.94
33.0576	532.24
33.0720	531.41
33.0864	521.62
33.1009	531.09
33.1153	533.26
33.1298	525.09
33.1442	497.60
33.1586	491.21
33.1731	482.35
33.1875	498.74
33.2020	480.15
33.2164	513.96
33.2308	487.65
33.2453	533.10
33.2597	505.72
33.2742	497.60
33.2886	487.11
33.3030	510.82
33.3175	455.65
33.3319	491.16
33.3464	490.29
33.3608	495.58
33.3752	511.86
33.3897	492.00
33.4041	463.51
33.4186	523.96
33.4330	550.84
33.4474	528.32
33.4619	530.26
33.4763	499.97
33.4908	502.70
33.5052	478.50
33.5196	488.68
33.5341	506.45
33.5485	505.27
33.5630	523.24
33.5774	527.80
33.5918	488.81
33.6063	505.47
33.6207	487.28
33.6352	522.30
33.6496	483.97
33.6640	493.25
33.6785	501.68
33.6929	503.00
33.7074	498.21
33.7218	498.83
33.7362	507.52
33.7507	502.61
33.7651	474.35
33.7796	529.77
33.7940	504.20
33.8084	492.60
33.8229	480.00
33.8373	519.45
33.8518	492.29
33.8662	550.06
33.8806	513.45
33.8951	547.83
33.9095	538.28
33.9240	535.28
33.9384	508.54
33.9528	486.15
33.9673	514.39
33.9817	502.29
33.9962	518.20
34.0106	477.88
34.0250	505.99
34.0395	504.79
34.0539	498.42
34.0684	531.42
34.0828	513.62
34.0972	509.35
34.1117	497.94
34.1261	506.57
34.1406	527.90
34.1550	524.94
34.1694	482.30
34.1839	499.79
34.1983	498.53
34.2128	482.35
34.2272	490.17
34.2417	497.07
34.2561	506.98
34.2705	499.84
34.2850	520.54
34.2994	510.30
34.3139	520.21
34.3283	534.96
34.3427	565.00
34.3572	523.74
34.3716	510.27
34.3861	507.85
34.4005	505.68
34.4149	523.98
34.4294	532.71
34.4438	489.83
34.4583	527.98
34.4727	507.13
34.4871	492.48
34.5016	503.38
34.5160	473.66
34.5305	482.27
34.5449	498.62
34.5593	503.23
34.5738	491.07
34.5882	494.65
34.6027	517.52
34.6171	508.78
34.6315	526.33
34.6460	503.12
34.6604	497.40
34.6749	468.47
34.6893	478.48
34.7037	495.45
34.7182	507.35
34.7326	487.14
34.7471	485.86
34.7615	483.08
34.7759	526.96
34.7904	518.81
34.8048	504.69
34.8193	501.25
34.8337	511.88
34.8481	499.21
34.8626	520.29
34.8770	526.07
34.8915	531.51
34.9059	523.52
34.9203	509.98
34.9348	535.66
34.9492	545.61
34.9637	533.05
34.9781	553.41
34.9925	508.73
35.0070	505.40
35.0214	521.62
35.0359	510.16
35.0503	509.76
35.0647	506.58
35.0792	502.23
35.0936	545.85
35.1081	517.49
35.1225	507.99
35.1369	497.15
35.1514	462.38
35.1658	483.46
35.1803	494.75
35.1947	484.28
35.2091	527.51
35.2236	491.17
35.2380	501.30
35.2525	503.65
35.2669	525.18
35.2813	535.03
35.2958	476.60
35.3102	516.34
35.3247	493.82
35.3391	497.03
35.3535	497.90
35.3680	513.37
35.3824	512.42
35.3969	512.58
35.4113	509.66
35.4257	526.45
35.4402	526.89
35.4546	512.96
35.4691	531.38
35.4835	498.12
35.4979	481.20
35.5124	481.68
35.5268	500.94
35.5413	512.51
35.5557	514.51
35.5701	505.64
35.5846	523.07
35.5990	538.61
35.6135	538.70
35.6279	514.31
35.6423	526.70
35.6568	533.79
35.6712	573.84
35.6857	610.60
35.7001	662.85
35.7145	679.76
35.7290	671.12
35.7434	644.10
35.7579	603.59
35.7723	563.85
35.7867	615.43
35.8012	638.32
35.8156	657.00
35.8301	616.16
35.8445	602.48
35.8589	681.61
35.8734	791.85
35.8878	865.94
35.9023	1016.14
35.9167	1107.46
35.9311	1342.92
35.9456	2028.28
35.9600	2405.56
35.9745	2057.81
35.9889	1985.99
36.0033	2340.74
36.0178	2380.44
36.0322	2171.74
36.0467	2164.28
36.0611	2008.17
36.0755	1992.75
36.0900	1946.67
36.1044	1830.20
36.1189	1886.32
36.1333	1776.12
36.1477	1545.62
36.1622	1484.88
36.1766	1426.84
36.1911	1149.65
36.2055	1060.97
36.2199	1009.41
36.2344	872.53
36.2488	819.28
36.2633	749.34
36.2777	705.28
36.2921	663.73
36.3066	629.69
36.3210	606.70
36.3355	609.44
36.3499	601.72
36.3643	545.80
36.3788	522.22
36.3932	558.34
36.4077	559.76
36.4221	570.50
36.4365	584.35
36.4510	564.18
36.4654	531.26
36.4799	550.06
36.4943	543.69
36.5087	532.78
36.5232	534.60
36.5376	545.41
36.5521	526.06
36.5665	537.89
36.5809	516.66
36.5954	533.34
36.6098	546.57
36.6243	535.61
36.6387	530.05
36.6531	533.18
36.6676	527.29
36.6820	521.53
36.6965	489.44
36.7109	538.64
36.7253	538.03
36.7398	488.22
36.7542	529.97
36.7687	523.80
36.7831	537.61
36.7975	576.40
36.8120	569.71
36.8264	588.36
36.8409	573.63
36.8553	614.51
36.8697	596.52
36.8842	584.12
36.8986	611.55
36.9131	571.91
36.9275	586.65
36.9419	559.58
36.9564	554.12
36.9708	572.45
36.9853	606.15
36.9997	594.88
37.0141	559.53
37.0286	527.59
37.0430	529.56
37.0575	548.36
37.0719	505.72
37.0863	535.12
37.1008	532.36
37.1152	504.11
37.1297	496.52
37.1441	530.11
37.1585	540.34
37.1730	542.11
37.1874	502.37
37.2019	480.33
37.2163	536.01
37.2307	546.07
37.2452	527.45
37.2596	530.58
37.2741	504.06
37.2885	513.59
37.3029	528.92
37.3174	526.57
37.3318	502.78
37.3463	504.92
37.3607	479.02
37.3751	476.86
37.3896	481.64
37.4040	506.29
37.4185	497.37
37.4329	519.95
37.4473	464.65
37.4618	529.87
37.4762	520.03
37.4907	485.24
37.5051	498.88
37.5195	515.27
37.5340	544.19
37.5484	553.74
37.5629	537.60
37.5773	494.11
37.5917	502.92
37.6062	511.23
37.6206	530.83
37.6351	497.17
37.6495	492.49
37.6639	526.55
37.6784	493.44
37.6928	519.91
37.7073	537.34
37.7217	534.18
37.7361	511.95
37.7506	504.95
37.7650	463.38
37.7795	499.49
37.7939	515.01
37.8083	519.29
37.8228	566.65
37.8372	524.79
37.8517	530.21
37.8661	524.33
37.8805	519.89
37.8950	510.89
37.9094	561.86
37.9239	535.83
37.9383	503.36
37.9528	536.72
37.9672	513.61
37.9816	477.02
37.9961	504.78
38.0105	502.20
38.0250	540.87
38.0394	515.03
38.0538	507.21
38.0683	519.51
38.0827	521.26
38.0972	524.99
38.1116	465.51
38.1260	519.11
38.1405	491.47
38.1549	471.77
38.1694	494.98
38.1838	512.60
38.1982	483.01
38.2127	500.95
38.2271	506.47
38.2416	495.45
38.2560	501.07
38.2704	505.55
38.2849	476.67
38.2993	501.17
38.3138	534.03
38.3282	569.59
38.3426	531.20
38.3571	512.41
38.3715	489.98
38.3860	526.49
38.4004	530.94
38.4148	523.66
38.4293	569.39
38.4437	593.15
38.4582	609.90
38.4726	682.86
38.4870	757.39
38.5015	759.92
38.5159	740.55
38.5304	764.89
38.5448	823.85
38.5592	798.03
38.5737	767.40
38.5881	790.70
38.6026	690.64
38.6170	702.53
38.6314	693.84
38.6459	667.75
38.6603	631.98
38.6748	603.45
38.6892	610.25
38.7036	587.33
38.7181	557.34
38.7325	506.67
38.7470	521.53
38.7614	498.86
38.7758	522.58
38.7903	540.12
38.8047	481.70
38.8192	483.75
38.8336	539.96
38.8480	491.05
38.8625	521.34
38.8769	516.39
38.8914	526.74
38.9058	539.03
38.9202	481.33
38.9347	490.95
38.9491	510.28
38.9636	519.01
38.9780	474.92
38.9924	480.88
39.0069	519.41
39.0213	502.71
39.0358	494.88
39.0502	509.16
39.0646	521.52
39.0791	523.41
39.0935	534.78
39.1080	500.44
39.1224	466.27
39.1368	502.78
39.1513	507.76
39.1657	472.89
39.1802	511.28
39.1946	502.71
39.2090	509.52
39.2235	494.57
39.2379	510.12
39.2524	519.34
39.2668	501.69
39.2812	501.63
39.2957	508.88
39.3101	508.91
39.3246	497.23
39.3390	517.55
39.3534	465.75
39.3679	489.98
39.3823	527.74
39.3968	498.20
39.4112	499.13
39.4256	507.41
39.4401	517.29
39.4545	502.97
39.4690	484.76
39.4834	472.00
39.4978	506.22
39.5123	501.67
39.5267	519.85
39.5412	512.50
39.5556	482.84
39.5700	491.12
39.5845	506.04
39.5989	515.16
39.6134	490.68
39.6278	480.83
39.6422	461.92
39.6567	478.95
39.6711	484.34
39.6856	491.24
39.7000	513.74
39.7144	514.31
39.7289	533.44
39.7433	528.07
39.7578	503.16
39.7722	486.62
39.7866	488.07
39.8011	469.04
39.8155	504.58
39.8300	521.85
39.8444	490.34
39.8588	500.04
39.8733	485.43
39.8877	489.48
39.9022	511.74
39.9166	470.05
39.9310	458.93
39.9455	488.60
39.9599	505.81
39.9744	492.93
39.9888	521.56
40.0032	488.74
40.0177	481.95
40.0321	491.57
40.0466	519.34
40.0610	491.66
40.0754	449.50
40.0899	523.39
40.1043	520.79
40.1188	509.89
40.1332	501.80
40.1476	454.22
40.1621	530.61
40.1765	519.06
40.1910	528.08
40.2054	496.05
40.2198	493.81
40.2343	519.46
40.2487	486.16
40.2632	471.57
40.2776	491.97
40.2920	520.90
40.3065	534.87
40.3209	509.25
40.3354	508.87
40.3498	506.10
40.3642	486.68
40.3787	484.19
40.3931	506.74
40.4076	479.35
40.4220	508.90
40.4364	522.29
40.4509	474.80
40.4653	491.99
40.4798	521.25
40.4942	521.63
40.5086	490.94
40.5231	491.37
40.5375	517.03
40.5520	502.55
40.5664	486.24
40.5808	485.47
40.5953	511.89
40.6097	520.77
40.6242	488.81
40.6386	498.10
40.6530	451.90
40.6675	483.89
40.6819	492.61
40.6964	498.47
40.7108	526.53
40.7252	519.86
40.7397	519.11
40.7541	505.83
40.7686	509.35
40.7830	520.02
40.7974	500.21
40.8119	498.73
40.8263	499.66
40.8408	496.84
40.8552	508.46
40.8696	531.13
40.8841	561.67
40.8985	523.84
40.9130	499.81
40.9274	510.17
40.9418	497.40
40.9563	490.96
40.9707	506.43
40.9852	475.82
40.9996	530.44
41.0140	553.67
41.0285	491.79
41.0429	508.03
41.0574	503.22
41.0718	467.57
41.0862	525.25
41.1007	500.42
41.1151	520.75
41.1296	511.58
41.1440	475.23
41.1584	513.35
41.1729	516.71
41.1873	528.28
41.2018	534.33
41.2162	497.74
41.2306	495.18
41.2451	492.58
41.2595	530.92
41.2740	523.04
41.2884	509.66
41.3028	493.94
41.3173	525.53
41.3317	515.36
41.3462	524.56
41.3606	517.28
41.3750	515.95
41.3895	508.03
41.4039	497.92
41.4184	515.14
41.4328	512.23
41.4472	486.05
41.4617	516.18
41.4761	564.06
41.4906	490.28
41.5050	497.30
41.5194	482.81
41.5339	497.65
41.5483	501.94
41.5628	525.35
41.5772	475.03
41.5916	480.38
41.6061	486.67
41.6205	497.80
41.6350	496.42
41.6494	458.05
41.6639	521.39
41.6783	488.34
41.6927	517.97
41.7072	531.88
41.7216	527.88
41.7361	513.43
41.7505	488.39
41.7649	530.27
41.7794	527.72
41.7938	541.44
41.8083	533.08
41.8227	534.74
41.8371	531.86
41.8516	520.59
41.8660	553.96
41.8805	530.12
41.8949	553.57
41.9093	565.46
41.9238	516.09
41.9382	567.23
41.9527	512.82
41.9671	549.25
41.9815	533.29
41.9960	542.00
42.0104	566.91
42.0249	574.64
42.0393	563.44
42.0537	533.45
42.0682	549.59
42.0826	554.75
42.0971	540.18
42.1115	563.53
42.1259	575.08
42.1404	575.85
42.1548	568.46
42.1693	645.23
42.1837	663.70
42.1981	750.67
42.2126	815.79
42.2270	930.34
42.2415	1063.39
42.2559	1180.27
42.2703	1306.64
42.2848	1454.13
42.2992	1590.60
42.3137	1673.55
42.3281	1630.40
42.3425	1550.05
42.3570	1482.63
42.3714	1443.70
42.3859	1414.75
42.4003	1403.74
42.4147	1309.80
42.4292	1270.69
42.4436	1177.22
42.4581	1044.13
42.4725	925.66
42.4869	817.97
42.5014	754.52
42.5158	675.58
42.5303	628.18
42.5447	621.92
42.5591	599.80
42.5736	609.56
42.5880	591.47
42.6025	593.93
42.6169	546.22
42.6313	545.25
42.6458	576.37
42.6602	547.24
42.6747	553.73
42.6891	556.23
42.7035	539.28
42.7180	528.06
42.7324	525.02
42.7469	502.41
42.7613	508.80
42.7757	535.04
42.7902	543.65
42.8046	508.42
42.8191	513.82
42.8335	532.89
42.8479	502.88
42.8624	511.43
42.8768	538.10
42.8913	523.13
42.9057	504.23
42.9201	495.00
42.9346	544.68
42.9490	560.01
42.9635	537.41
42.9779	511.77
42.9923	509.28
43.0068	509.85
43.0212	532.34
43.0357	520.72
43.0501	488.73
43.0645	515.52
43.0790	543.26
43.0934	533.10
43.1079	521.38
43.1223	517.19
43.1367	528.73
43.1512	520.96
43.1656	511.07
43.1801	524.08
43.1945	512.72
43.2089	508.07
43.2234	509.42
43.2378	545.80
43.2523	519.81
43.2667	501.86
43.2811	530.93
43.2956	506.41
43.3100	504.43
43.3245	518.42
43.3389	522.07
43.3533	489.04
43.3678	522.04
43.3822	539.82
43.3967	542.38
43.4111	522.62
43.4255	507.15
43.4400	515.36
43.4544	518.23
43.4689	534.35
43.4833	497.38
43.4977	504.09
43.5122	498.35
43.5266	509.16
43.5411	499.54
43.5555	502.45
43.5699	467.39
43.5844	510.33
43.5988	515.18
43.6133	528.28
43.6277	504.27
43.6421	522.14
43.6566	525.42
43.6710	505.70
43.6855	523.04
43.6999	555.76
43.7143	552.18
43.7288	550.57
43.7432	537.31
43.7577	515.82
43.7721	522.34
43.7865	544.76
43.8010	549.32
43.8154	596.68
43.8299	601.18
43.8443	549.38
43.8587	609.12
43.8732	645.61
43.8876	628.25
43.9021	706.35
43.9165	639.91
43.9309	650.84
43.9454	663.20
43.9598	601.04
43.9743	574.10
43.9887	574.84
44.0031	570.64
44.0176	568.28
44.0320	614.51
44.0465	605.19
44.0609	577.87
44.0753	540.63
44.0898	549.58
44.1042	562.78
44.1187	567.10
44.1331	515.78
44.1475	472.39
44.1620	546.19
44.1764	536.65
44.1909	487.84
44.2053	518.15
44.2197	541.21
44.2342	561.27
44.2486	518.95
44.2631	498.61
44.2775	519.45
44.2919	530.42
44.3064	516.63
44.3208	504.27
44.3353	550.19
44.3497	541.38
44.3641	504.75
44.3786	546.45
44.3930	521.36
44.4075	557.45
44.4219	582.98
44.4363	560.80
44.4508	572.99
44.4652	581.72
44.4797	588.73
44.4941	563.47
44.5085	563.89
44.5230	565.89
44.5374	586.72
44.5519	593.46
44.5663	575.64
44.5807	558.20
44.5952	603.50
44.6096	617.55
44.6241	590.96
44.6385	566.73
44.6529	537.59
44.6674	560.65
44.6818	560.45
44.6963	606.59
44.7107	640.50
44.7251	680.36
44.7396	768.44
44.7540	853.91
44.7685	866.93
44.7829	843.05
44.7973	897.46
44.8118	909.40
44.8262	818.62
44.8407	779.00
44.8551	730.25
44.8695	753.69
44.8840	770.82
44.8984	760.43
44.9129	767.45
44.9273	714.27
44.9417	639.23
44.9562	636.24
44.9706	617.50
44.9851	517.32
44.9995	512.73
45.0139	554.65
45.0284	556.55
45.0428	501.85
45.0573	551.92
45.0717	521.05
45.0861	532.68
45.1006	474.62
45.1150	530.23
45.1295	513.94
45.1439	499.45
45.1583	495.21
45.1728	508.89
45.1872	536.23
45.2017	515.54
45.2161	527.17
45.2305	510.89
45.2450	531.00
45.2594	495.84
45.2739	508.44
45.2883	510.66
45.3028	507.35
45.3172	489.86
45.3316	520.52
45.3461	493.26
45.3605	510.67
45.3750	530.58
45.3894	524.91
45.4038	480.63
45.4183	497.47
45.4327	557.17
45.4472	514.56
45.4616	499.28
45.4760	509.50
45.4905	529.45
45.5049	512.34
45.5194	468.05
45.5338	514.49
45.5482	485.13
45.5627	513.55
45.5771	506.34
45.5916	490.35
45.6060	489.82
45.6204	493.98
45.6349	486.11
45.6493	485.91
45.6638	481.04
45.6782	516.17
45.6926	504.16
45.7071	519.34
45.7215	506.54
45.7360	516.24
45.7504	543.34
45.7648	503.63
45.7793	501.74
45.7937	525.19
45.8082	514.59
45.8226	504.64
45.8370	508.06
45.8515	495.62
45.8659	518.25
45.8804	520.01
45.8948	541.24
45.9092	526.54
45.9237	476.12
45.9381	528.24
45.9526	532.46
45.9670	525.48
45.9814	487.37
45.9959	505.44
46.0103	483.32
46.0248	529.46
46.0392	472.96
46.0536	486.88
46.0681	486.14
46.0825	516.00
46.0970	527.49
46.1114	507.01
46.1258	528.02
46.1403	500.05
46.1547	508.66
46.1692	492.17
46.1836	515.68
46.1980	516.53
46.2125	495.45
46.2269	509.76
46.2414	518.52
46.2558	516.20
46.2702	521.35
46.2847	522.73
46.2991	487.04
46.3136	487.21
46.3280	507.59
46.3424	515.23
46.3569	531.54
46.3713	515.35
46.3858	508.27
46.4002	524.60
46.4146	511.18
46.4291	513.55
46.4435	505.55
46.4580	493.47
46.4724	517.03
46.4868	525.21
46.5013	514.72
46.5157	512.55
46.5302	498.30
46.5446	518.69
46.5590	512.24
46.5735	494.56
46.5879	505.45
46.6024	519.80
46.6168	489.94
46.6312	518.49
46.6457	506.20
46.6601	512.65
46.6746	494.92
46.6890	527.03
46.7034	539.55
46.7179	503.91
46.7323	476.13
46.7468	479.67
46.7612	479.76
46.7756	523.91
46.7901	501.14
46.8045	488.70
46.8190	495.13
46.8334	486.04
46.8478	510.49
46.8623	547.44
46.8767	514.39
46.8912	485.10
46.9056	481.73
46.9200	491.67
46.9345	508.16
46.9489	487.75
46.9634	506.01
46.9778	510.53
46.9922	530.29
47.0067	520.89
47.0211	492.56
47.0356	501.05
47.0500	525.18
47.0644	533.31
47.0789	535.90
47.0933	533.02
47.1078	506.74
47.1222	497.55
47.1366	492.39
47.1511	498.42
47.1655	505.11
47.1800	501.28
47.1944	515.22
47.2088	522.98
47.2233	513.54
47.2377	517.02
47.2522	504.00
47.2666	476.11
47.2810	466.13
47.2955	474.61
47.3099	511.08
47.3244	521.00
47.3388	519.99
47.3532	519.05
47.3677	477.50
47.3821	491.18
47.3966	498.51
47.4110	490.67
47.4254	513.54
47.4399	518.65
47.4543	498.24
47.4688	505.88
47.4832	525.33
47.4976	522.48
47.5121	519.07
47.5265	520.59
47.5410	508.83
47.5554	506.65
47.5698	483.81
47.5843	464.39
47.5987	483.41
47.6132	488.36
47.6276	498.92
47.6420	520.99
47.6565	506.23
47.6709	473.72
47.6854	477.18
47.6998	494.25
47.7142	524.13
47.7287	482.45
47.7431	497.36
47.7576	524.95
47.7720	498.17
47.7864	490.00
47.8009	503.84
47.8153	514.34
47.8298	534.89
47.8442	501.83
47.8586	499.15
47.8731	516.50
47.8875	526.93
47.9020	525.20
47.9164	538.92
47.9308	502.42
47.9453	513.47
47.9597	473.34
47.9742	450.78
47.9886	499.92
48.0030	490.52
48.0175	514.04
48.0319	540.32
48.0464	477.30
48.0608	499.83
48.0752	512.91
48.0897	506.59
48.1041	503.07
48.1186	536.70
48.1330	522.98
48.1474	495.24
48.1619	498.92
48.1763	502.44
48.1908	490.82
48.2052	502.63
48.2196	482.69
48.2341	502.34
48.2485	499.64
48.2630	476.74
48.2774	473.76
48.2918	537.15
48.3063	543.72
48.3207	508.28
48.3352	503.69
48.3496	510.55
48.3640	494.54
48.3785	527.11
48.3929	534.60
48.4074	524.35
48.4218	504.93
48.4362	508.41
48.4507	491.84
48.4651	461.84
48.4796	481.24
48.4940	529.11
48.5084	511.15
48.5229	502.99
48.5373	500.25
48.5518	516.62
48.5662	518.99
48.5806	516.56
48.5951	538.94
48.6095	548.57
48.6240	490.03
48.6384	542.32
48.6528	535.27
48.6673	525.21
48.6817	518.18
48.6962	509.80
48.7106	515.12
48.7250	534.00
48.7395	510.36
48.7539	539.09
48.7684	529.76
48.7828	525.91
48.7972	545.08
48.8117	553.08
48.8261	518.14
48.8406	534.36
48.8550	543.92
48.8694	518.83
48.8839	542.92
48.8983	562.51
48.9128	514.40
48.9272	542.91
48.9416	558.64
48.9561	561.86
48.9705	534.50
48.9850	568.53
48.9994	561.57
49.0139	580.65
49.0283	611.38
49.0427	611.92
49.0572	623.94
49.0716	619.62
49.0861	692.63
49.1005	684.18
49.1149	720.08
49.1294	728.46
49.1438	740.25
49.1583	806.71
49.1727	858.49
49.1871	863.78
49.2016	888.18
49.2160	958.22
49.2305	1099.68
49.2449	1130.88
49.2593	1192.70
49.2738	1397.20
49.2882	1458.61
49.3027	1520.30
49.3171	1602.29
49.3315	1685.53
49.3460	1760.41
49.3604	1748.35
49.3749	1788.93
49.3893	1699.22
49.4037	1707.24
49.4182	1766.08
49.4326	1754.24
49.4471	1627.96
49.4615	1652.82
49.4759	1488.44
49.4904	1450.80
49.5048	1416.48
49.5193	1316.33
49.5337	1332.60
49.5481	1208.02
49.5626	1164.33
49.5770	1046.00
49.5915	976.76
49.6059	942.05
49.6203	912.63
49.6348	838.05
49.6492	789.19
49.6637	757.97
49.6781	742.61
49.6925	717.69
49.7070	717.90
49.7214	642.41
49.7359	608.38
49.7503	623.59
49.7647	608.53
49.7792	605.59
49.7936	582.06
49.8081	586.42
49.8225	553.59
49.8369	585.50
49.8514	566.71
49.8658	590.03
49.8803	545.87
49.8947	540.27
49.9091	569.32
49.9236	543.11
49.9380	551.91
49.9525	564.20
49.9669	544.32
49.9813	574.66
49.9958	533.90
50.0102	501.14
50.0247	520.03
50.0391	498.00
50.0535	515.15
50.0680	512.83
50.0824	497.13
50.0969	531.85
50.1113	547.77
50.1257	540.65
50.1402	500.91
50.1546	514.51
50.1691	551.48
50.1835	562.79
50.1979	519.12
50.2124	519.51
50.2268	505.94
50.2413	521.27
50.2557	535.46
50.2701	512.66
50.2846	543.66
50.2990	486.25
50.3135	499.07
50.3279	502.39
50.3423	535.54
50.3568	498.89
50.3712	517.32
50.3857	501.65
50.4001	493.14
50.4145	482.83
50.4290	520.20
50.4434	526.00
50.4579	512.44
50.4723	552.19
50.4867	518.44
50.5012	485.29
50.5156	512.18
50.5301	492.97
50.5445	494.97
50.5589	501.41
50.5734	499.98
50.5878	520.87
50.6023	489.52
50.6167	478.07
50.6311	529.71
50.6456	511.73
50.6600	517.73
50.6745	512.90
50.6889	508.85
50.7033	515.50
50.7178	538.04
50.7322	522.37
50.7467	531.37
50.7611	513.16
50.7755	515.99
50.7900	513.81
50.8044	529.05
50.8189	495.36
50.8333	487.82
50.8477	498.89
50.8622	556.09
50.8766	501.28
50.8911	495.85
50.9055	493.66
50.9199	514.99
50.9344	470.35
50.9488	486.54
50.9633	505.71
50.9777	526.54
50.9921	542.20
51.0066	506.20
51.0210	536.50
51.0355	541.65
51.0499	513.70
51.0643	519.19
51.0788	529.26
51.0932	516.37
51.1077	501.03
51.1221	520.10
51.1365	528.45
51.1510	502.07
51.1654	500.62
51.1799	529.75
51.1943	506.54
51.2087	528.69
51.2232	485.07
51.2376	489.97
51.2521	509.18
51.2665	517.83
51.2809	504.92
51.2954	504.93
51.3098	535.08
51.3243	546.15
51.3387	542.03
51.3531	523.15
51.3676	531.77
51.3820	508.13
51.3965	502.86
51.4109	521.47
51.4253	527.47
51.4398	490.92
51.4542	515.06
51.4687	507.57
51.4831	525.76
51.4975	511.24
51.5120	510.17
51.5264	511.34
51.5409	513.96
51.5553	530.95
51.5697	516.04
51.5842	515.98
51.5986	504.81
51.6131	500.67
51.6275	510.63
51.6419	523.28
51.6564	500.67
51.6708	496.50
51.6853	505.17
51.6997	516.55
51.7141	545.48
51.7286	535.91
51.7430	509.96
51.7575	516.67
51.7719	496.29
51.7863	528.48
51.8008	519.53
51.8152	526.57
51.8297	511.33
51.8441	538.88
51.8585	501.34
51.8730	493.48
51.8874	496.39
51.9019	506.82
51.9163	515.35
51.9307	492.41
51.9452	495.03
51.9596	513.06
51.9741	495.55
51.9885	527.07
52.0029	498.07
52.0174	485.12
52.0318	493.45
52.0463	539.96
52.0607	518.58
52.0751	533.13
52.0896	515.88
52.1040	494.73
52.1185	510.07
52.1329	524.98
52.1473	511.31
52.1618	483.82
52.1762	499.04
52.1907	507.65
52.2051	498.86
52.2195	543.40
52.2340	515.44
52.2484	514.82
52.2629	500.78
52.2773	519.34
52.2917	498.48
52.3062	481.07
52.3206	489.59
52.3351	523.99
52.3495	529.00
52.3639	541.66
52.3784	512.57
52.3928	493.60
52.4073	517.21
52.4217	516.85
52.4361	497.19
52.4506	488.06
52.4650	550.48
52.4795	552.51
52.4939	546.56
52.5083	525.70
52.5228	549.78
52.5372	540.20
52.5517	501.38
52.5661	542.83
52.5805	525.41
52.5950	552.06
52.6094	530.92
52.6239	519.09
52.6383	537.63
52.6527	526.18
52.6672	520.09
52.6816	514.65
52.6961	488.71
52.7105	541.94
52.7250	516.02
52.7394	504.97
52.7538	532.53
52.7683	502.11
52.7827	496.30
52.7972	509.42
52.8116	493.15
52.8260	496.70
52.8405	474.37
52.8549	484.38
52.8694	491.05
52.8838	500.99
52.8982	556.08
52.9127	534.69
52.9271	538.88
52.9416	533.79
52.9560	496.67
52.9704	489.95
52.9849	454.62
52.9993	499.60
53.0138	505.70
53.0282	516.07
53.0426	483.84
53.0571	565.00
53.0715	515.63
53.0860	533.53
53.1004	506.58
53.1148	517.28
53.1293	559.01
53.1437	550.74
53.1582	504.91
53.1726	529.55
53.1870	519.04
53.2015	522.72
53.2159	510.21
53.2304	491.79
53.2448	493.46
53.2592	550.03
53.2737	531.52
53.2881	512.37
53.3026	481.39
53.3170	493.86
53.3314	529.84
53.3459	484.94
53.3603	505.23
53.3748	487.56
53.3892	488.13
53.4036	495.47
53.4181	513.50
53.4325	533.17
53.4470	534.31
53.4614	530.75
53.4758	523.38
53.4903	523.73
53.5047	542.75
53.5192	546.20
53.5336	516.90
53.5480	498.69
53.5625	503.34
53.5769	556.67
53.5914	506.94
53.6058	491.39
53.6202	529.10
53.6347	527.42
53.6491	532.58
53.6636	519.57
53.6780	528.93
53.6924	508.71
53.7069	530.42
53.7213	516.97
53.7358	522.23
53.7502	533.01
53.7646	522.07
53.7791	507.35
53.7935	489.49
53.8080	521.56
53.8224	522.20
53.8368	524.88
53.8513	510.15
53.8657	557.49
53.8802	502.15
53.8946	460.84
53.9090	494.56
53.9235	526.66
53.9379	536.44
53.9524	544.23
53.9668	497.91
53.9812	514.07
53.9957	516.48
54.0101	474.89
54.0246	505.81
54.0390	506.28
54.0534	539.95
54.0679	525.71
54.0823	484.50
54.0968	522.01
54.1112	559.22
54.1256	580.14
54.1401	506.91
54.1545	517.68
54.1690	534.51
54.1834	539.43
54.1978	539.72
54.2123	544.77
54.2267	521.33
54.2412	528.35
54.2556	543.01
54.2700	557.65
54.2845	560.24
54.2989	531.02
54.3134	517.07
54.3278	564.02
54.3422	573.26
54.3567	548.52
54.3711	548.84
54.3856	574.39
54.4000	588.60
54.4144	618.02
54.4289	582.07
54.4433	602.98
54.4578	625.66
54.4722	616.21
54.4866	617.27
54.5011	613.64
54.5155	642.38
54.5300	619.98
54.5444	567.93
54.5588	590.75
54.5733	581.29
54.5877	606.56
54.6022	589.54
54.6166	563.74
54.6310	590.08
54.6455	559.11
54.6599	568.41
54.6744	566.35
54.6888	523.73
54.7032	539.29
54.7177	547.89
54.7321	534.59
54.7466	575.53
54.7610	538.03
54.7754	542.85
54.7899	559.54
54.8043	544.64
54.8188	558.46
54.8332	545.58
54.8476	561.43
54.8621	569.25
54.8765	520.21
54.8910	526.93
54.9054	543.10
54.9198	539.92
54.9343	510.30
54.9487	501.41
54.9632	499.51
54.9776	537.64
54.9920	538.97
55.0065	534.63
55.0209	554.34
55.0354	553.54
55.0498	507.64
55.0642	553.94
55.0787	561.15
55.0931	510.92
55.1076	526.89
55.1220	528.87
55.1364	496.85
55.1509	502.99
55.1653	520.69
55.1798	496.34
55.1942	516.16
55.2086	541.93
55.2231	520.67
55.2375	506.74
55.2520	529.16
55.2664	497.64
55.2808	509.78
55.2953	525.05
55.3097	554.12
55.3242	535.90
55.3386	552.24
55.3530	541.87
55.3675	514.38
55.3819	528.68
55.3964	510.82
55.4108	548.71
55.4252	535.26
55.4397	538.26
55.4541	535.40
55.4686	540.84
55.4830	524.99
55.4974	494.24
55.5119	498.76
55.5263	523.74
55.5408	534.85
55.5552	527.14
55.5696	509.19
55.5841	515.00
55.5985	530.99
55.6130	522.23
55.6274	487.38
55.6418	554.88
55.6563	534.79
55.6707	521.21
55.6852	509.40
55.6996	541.08
55.7140	558.48
55.7285	556.96
55.7429	522.41
55.7574	536.44
55.7718	500.57
55.7862	519.21
55.8007	527.53
55.8151	499.47
55.8296	535.47
55.8440	529.03
55.8584	545.67
55.8729	516.88
55.8873	507.21
55.9018	558.42
55.9162	564.12
55.9306	539.52
55.9451	545.87
55.9595	546.42
55.9740	517.74
55.9884	484.07
56.0028	483.95
56.0173	475.95
56.0317	515.09
56.0462	522.18
56.0606	486.08
56.0750	522.68
56.0895	552.24
56.1039	550.64
56.1184	535.29
56.1328	553.15
56.1472	514.50
56.1617	535.61
56.1761	572.84
56.1906	529.92
56.2050	534.42
56.2194	513.68
56.2339	490.88
56.2483	517.51
56.2628	508.16
56.2772	547.75
56.2916	504.93
56.3061	499.39
56.3205	501.78
56.3350	504.53
56.3494	528.00
56.3639	488.99
56.3783	534.40
56.3927	528.22
56.4072	530.77
56.4216	537.07
56.4361	517.84
56.4505	512.01
56.4649	515.92
56.4794	479.83
56.4938	491.53
56.5083	514.02
56.5227	540.47
56.5371	524.22
56.5516	510.41
56.5660	512.19
56.5805	517.87
56.5949	520.24
56.6093	536.04
56.6238	488.29
56.6382	508.55
56.6527	506.21
56.6671	507.54
56.6815	534.67
56.6960	514.44
56.7104	553.14
56.7249	533.45
56.7393	531.13
56.7537	528.05
56.7682	520.48
56.7826	513.52
56.7971	514.29
56.8115	524.33
56.8259	550.83
56.8404	532.16
56.8548	531.19
56.8693	564.21
56.8837	540.47
56.8981	523.18
56.9126	509.91
56.9270	509.30
56.9415	540.54
56.9559	485.32
56.9703	537.70
56.9848	534.63
56.9992	505.16
57.0137	550.51
57.0281	547.25
57.0425	521.64
57.0570	542.64
57.0714	482.91
57.0859	520.01
57.1003	512.49
57.1147	534.07
57.1292	545.69
57.1436	529.47
57.1581	520.04
57.1725	529.25
57.1869	504.70
57.2014	484.63
57.2158	530.26
57.2303	541.09
57.2447	544.78
57.2591	564.43
57.2736	564.17
57.2880	505.91
57.3025	562.97
57.3169	552.54
57.3313	532.56
57.3458	533.30
57.3602	535.76
57.3747	545.72
57.3891	534.30
57.4035	553.08
57.4180	544.19
57.4324	537.97
57.4469	495.11
57.4613	535.20
57.4757	518.10
57.4902	515.36
57.5046	532.35
57.5191	519.66
57.5335	516.09
57.5479	535.40
57.5624	501.68
57.5768	526.13
57.5913	525.42
57.6057	525.40
57.6201	511.03
57.6346	529.90
57.6490	524.67
57.6635	534.05
57.6779	527.75
57.6923	532.25
57.7068	550.93
57.7212	541.97
57.7357	541.77
57.7501	564.23
57.7645	544.59
57.7790	535.64
57.7934	547.50
57.8079	543.71
57.8223	550.59
57.8367	571.42
57.8512	552.42
57.8656	539.20
57.8801	562.87
57.8945	561.83
57.9089	549.71
57.9234	530.37
57.9378	543.23
57.9523	600.60
57.9667	621.99
57.9811	635.84
57.9956	651.38
58.0100	617.39
58.0245	633.20
58.0389	667.66
58.0533	669.82
58.0678	729.44
58.0822	682.23
58.0967	685.91
58.1111	695.26
58.1255	673.67
58.1400	656.96
58.1544	659.79
58.1689	676.94
58.1833	667.25
58.1977	674.90
58.2122	662.06
58.2266	665.99
58.2411	675.19
58.2555	668.84
58.2699	663.28
58.2844	664.81
58.2988	655.22
58.3133	634.99
58.3277	577.24
58.3421	587.11
58.3566	581.61
58.3710	568.22
58.3855	563.61
58.3999	560.16
58.4143	568.09
58.4288	589.75
58.4432	530.70
58.4577	545.27
58.4721	566.07
58.4865	594.72
58.5010	561.59
58.5154	554.02
58.5299	512.77
58.5443	517.54
58.5587	529.32
58.5732	540.84
58.5876	528.19
58.6021	537.03
58.6165	528.17
58.6309	512.78
58.6454	535.51
58.6598	550.25
58.6743	531.57
58.6887	507.48
58.7031	540.29
58.7176	538.19
58.7320	530.36
58.7465	523.49
58.7609	536.56
58.7753	542.32
58.7898	563.42
58.8042	545.71
58.8187	536.19
58.8331	560.15
58.8475	532.77
58.8620	543.55
58.8764	534.96
58.8909	509.20
58.9053	580.38
58.9197	559.32
58.9342	524.28
58.9486	517.40
58.9631	511.30
58.9775	526.75
58.9919	535.85
59.0064	498.49
59.0208	522.76
59.0353	531.24
59.0497	545.24
59.0641	553.99
59.0786	525.00
59.0930	547.90
59.1075	531.56
59.1219	525.45
59.1363	525.43
59.1508	513.97
59.1652	532.20
59.1797	529.43
59.1941	532.77
59.2085	546.13
59.2230	543.64
59.2374	584.95
59.2519	604.02
59.2663	528.04
59.2807	535.52
59.2952	530.24
59.3096	550.51
59.3241	583.22
59.3385	586.90
59.3529	588.29
59.3674	549.85
59.3818	563.86
59.3963	548.86
59.4107	564.48
59.4251	575.35
59.4396	559.18
59.4540	560.80
59.4685	597.35
59.4829	592.88
59.4973	581.46
59.5118	570.33
59.5262	555.64
59.5407	553.36
59.5551	537.06
59.5695	555.10
59.5840	534.40
59.5984	570.52
59.6129	572.42
59.6273	527.19
59.6417	530.90
59.6562	516.75
59.6706	523.94
59.6851	510.57
59.6995	526.07
59.7139	530.48
59.7284	513.40
59.7428	521.35
59.7573	524.78
59.7717	557.13
59.7861	588.85
59.8006	526.49
59.8150	528.84
59.8295	540.39
59.8439	561.98
59.8583	532.66
59.8728	530.38
59.8872	507.42
59.9017	556.66
59.9161	564.45
59.9305	529.62
59.9450	542.60
59.9594	526.43
59.9739	592.21
59.9883	544.75
60.0027	513.02
60.0172	546.18
60.0316	558.53
60.0461	528.41
60.0605	579.40
60.0750	530.94
60.0894	571.70
60.1038	549.15
60.1183	543.95
60.1327	533.57
60.1472	541.92
60.1616	513.58
60.1760	553.32
60.1905	554.86
60.2049	534.60
60.2194	514.71
60.2338	538.07
60.2482	550.84
60.2627	565.48
60.2771	564.52
60.2916	539.09
60.3060	509.43
60.3204	525.55
60.3349	540.30
60.3493	479.45
60.3638	519.10
60.3782	563.53
60.3926	539.94
60.4071	525.21
60.4215	514.73
60.4360	529.44
60.4504	507.42
60.4648	569.64
60.4793	545.60
60.4937	556.92
60.5082	530.93
60.5226	517.65
60.5370	552.74
60.5515	535.53
60.5659	580.35
60.5804	542.94
60.5948	523.24
60.6092	536.13
60.6237	512.80
60.6381	525.71
60.6526	505.40
60.6670	581.44
60.6814	545.97
60.6959	542.43
60.7103	528.92
60.7248	557.22
60.7392	566.77
60.7536	509.22
60.7681	514.13
60.7825	530.63
60.7970	540.24
60.8114	556.62
60.8258	557.83
60.8403	553.06
60.8547	527.29
60.8692	519.22
60.8836	552.94
60.8980	527.29
60.9125	547.20
60.9269	575.36
60.9414	557.70
60.9558	553.64
60.9702	535.94
60.9847	512.99
60.9991	582.12
61.0136	557.06
61.0280	523.57
61.0424	526.47
61.0569	523.21
61.0713	571.77
61.0858	568.39
61.1002	546.81
61.1146	552.91
61.1291	561.82
61.1435	558.01
61.1580	573.92
61.1724	546.95
61.1868	521.57
61.2013	536.75
61.2157	586.41
61.2302	537.38
61.2446	517.85
61.2590	521.08
61.2735	551.80
61.2879	569.36
61.3024	575.40
61.3168	530.78
61.3312	519.23
61.3457	552.49
61.3601	512.87
61.3746	561.27
61.3890	539.38
61.4034	551.54
61.4179	594.91
61.4323	567.62
61.4468	579.49
61.4612	575.97
61.4756	553.81
61.4901	527.15
61.5045	538.01
61.5190	537.47
61.5334	527.60
61.5478	535.53
61.5623	559.57
61.5767	552.87
61.5912	546.55
61.6056	527.87
61.6200	553.17
61.6345	607.90
61.6489	541.23
61.6634	529.95
61.6778	541.82
61.6922	555.20
61.7067	577.73
61.7211	573.40
61.7356	535.67
61.7500	574.68
61.7644	516.85
61.7789	580.01
61.7933	581.75
61.8078	565.31
61.8222	550.41
61.8366	552.58
61.8511	521.32
61.8655	540.69
61.8800	539.06
61.8944	589.92
61.9088	585.80
61.9233	534.91
61.9377	549.17
61.9522	547.58
61.9666	557.64
61.9810	505.14
61.9955	525.78
62.0099	542.71
62.0244	564.36
62.0388	558.15
62.0532	555.76
62.0677	541.84
62.0821	533.84
62.0966	566.47
62.1110	561.44
62.1254	552.38
62.1399	528.97
62.1543	534.81
62.1688	562.74
62.1832	570.03
62.1976	569.55
62.2121	553.70
62.2265	566.37
62.2410	560.65
62.2554	566.65
62.2698	544.48
62.2843	565.63
62.2987	570.13
62.3132	570.52
62.3276	574.67
62.3420	548.94
62.3565	524.45
62.3709	555.73
62.3854	572.91
62.3998	556.91
62.4142	532.38
62.4287	549.45
62.4431	538.45
62.4576	549.16
62.4720	560.80
62.4864	552.62
62.5009	571.24
62.5153	559.96
62.5298	545.30
62.5442	567.54
62.5586	535.68
62.5731	555.84
62.5875	552.44
62.6020	548.99
62.6164	536.54
62.6308	550.55
62.6453	553.63
62.6597	547.82
62.6742	581.13
62.6886	556.04
62.7030	591.71
62.7175	558.23
62.7319	531.61
62.7464	533.40
62.7608	545.81
62.7752	568.66
62.7897	574.55
62.8041	582.24
62.8186	625.97
62.8330	597.25
62.8474	569.17
62.8619	563.77
62.8763	580.01
62.8908	564.15
62.9052	583.72
62.9196	561.17
62.9341	589.07
62.9485	558.66
62.9630	534.77
62.9774	557.25
62.9918	590.30
63.0063	578.51
63.0207	582.33
63.0352	589.89
63.0496	598.71
63.0640	597.60
63.0785	577.63
63.0929	545.17
63.1074	538.03
63.1218	593.44
63.1362	583.71
63.1507	595.10
63.1651	604.95
63.1796	586.80
63.1940	573.99
63.2084	569.97
63.2229	562.20
63.2373	587.47
63.2518	580.22
63.2662	557.30
63.2806	606.28
63.2951	595.68
63.3095	574.90
63.3240	598.34
63.3384	590.26
63.3528	573.41
63.3673	576.56
63.3817	599.47
63.3962	583.39
63.4106	563.81
63.4250	593.09
63.4395	590.50
63.4539	566.82
63.4684	588.27
63.4828	582.58
63.4972	581.24
63.5117	588.01
63.5261	597.92
63.5406	633.97
63.5550	631.91
63.5694	628.83
63.5839	614.16
63.5983	621.31
63.6128	654.14
63.6272	633.12
63.6416	661.66
63.6561	715.30
63.6705	702.32
63.6850	672.29
63.6994	739.71
63.7138	754.76
63.7283	763.64
63.7427	825.39
63.7572	845.57
63.7716	895.18
63.7861	907.06
63.8005	896.40
63.8149	858.98
63.8294	863.92
63.8438	807.81
63.8583	807.75
63.8727	809.61
63.8871	775.21
63.9016	784.64
63.9160	786.80
63.9305	747.78
63.9449	774.76
63.9593	783.85
63.9738	716.30
63.9882	729.73
64.0027	762.66
64.0171	743.41
64.0315	750.67
64.0460	753.70
64.0604	686.17
64.0749	676.30
64.0893	711.15
64.1037	695.14
64.1182	693.98
64.1326	703.98
64.1471	632.44
64.1615	649.47
64.1759	636.82
64.1904	632.81
64.2048	622.07
64.2193	631.75
64.2337	649.78
64.2481	615.30
64.2626	599.34
64.2770	613.98
64.2915	601.73
64.3059	638.86
64.3203	624.87
64.3348	645.70
64.3492	629.78
64.3637	641.89
64.3781	640.00
64.3925	608.12
64.4070	615.23
64.4214	629.06
64.4359	604.75
64.4503	616.80
64.4647	607.81
64.4792	617.27
64.4936	628.13
64.5081	644.52
64.5225	647.83
64.5369	626.13
64.5514	654.07
64.5658	672.61
64.5803	635.75
64.5947	645.13
64.6091	631.28
64.6236	657.89
64.6380	683.87
64.6525	688.11
64.6669	638.31
64.6813	652.27
64.6958	655.42
64.7102	726.05
64.7247	716.46
64.7391	706.62
64.7535	721.00
64.7680	714.17
64.7824	725.13
64.7969	713.29
64.8113	764.98
64.8257	795.54
64.8402	769.89
64.8546	772.40
64.8691	824.57
64.8835	864.49
64.8979	878.28
64.9124	897.10
64.9268	886.32
64.9413	975.24
64.9557	950.65
64.9701	944.18
64.9846	1055.64
64.9990	1135.13
65.0135	1316.88
65.0279	1492.74
65.0423	1718.20
65.0568	2070.21
65.0712	2710.91
65.0857	3416.21
65.1001	4477.97
65.1145	6224.66
65.1290	8131.92
65.1434	9472.91
65.1579	11149.24
65.1723	11876.95
65.1867	11314.92
65.2012	10081.90
65.2156	8469.99
65.2301	6531.45
65.2445	5307.95
65.2589	4416.94
65.2734	4196.63
65.2878	4399.53
65.3023	5030.39
65.3167	5840.29
65.3311	6639.98
65.3456	7052.12
65.3600	6951.88
65.3745	6466.62
65.3889	5511.12
65.4033	4457.21
65.4178	3545.64
65.4322	2751.62
65.4467	2076.18
65.4611	1726.26
65.4755	1487.41
65.4900	1343.98
65.5044	1168.61
65.5189	997.51
65.5333	1002.35
65.5477	932.47
65.5622	934.44
65.5766	877.72
65.5911	848.47
65.6055	817.49
65.6199	824.02
65.6344	787.71
65.6488	754.01
65.6633	755.72
65.6777	735.94
65.6921	683.04
65.7066	726.00
65.7210	699.47
65.7355	693.66
65.7499	701.20
65.7643	702.40
65.7788	734.66
65.7932	681.82
65.8077	711.64
65.8221	679.48
65.8365	690.00
65.8510	687.83
65.8654	667.73
65.8799	585.56
65.8943	661.45
65.9087	664.03
65.9232	698.56
65.9376	668.28
65.9521	652.04
65.9665	658.56
65.9809	659.26
65.9954	677.48
66.0098	637.37
66.0243	673.71
66.0387	615.46
66.0531	628.48
66.0676	653.23
66.0820	680.85
66.0965	654.35
66.1109	615.63
66.1253	643.91
66.1398	614.07
66.1542	602.83
66.1687	620.34
66.1831	625.43
66.1975	627.58
66.2120	600.74
66.2264	597.58
66.2409	638.04
66.2553	605.40
66.2697	643.63
66.2842	629.38
66.2986	591.31
66.3131	598.50
66.3275	610.44
66.3419	612.95
66.3564	592.57
66.3708	591.44
66.3853	612.90
66.3997	620.26
66.4141	644.21
66.4286	574.88
66.4430	589.62
66.4575	565.53
66.4719	609.61
66.4863	596.07
66.5008	589.59
66.5152	600.63
66.5297	591.11
66.5441	589.28
66.5585	598.79
66.5730	592.84
66.5874	623.41
66.6019	634.29
66.6163	618.36
66.6307	606.88
66.6452	589.07
66.6596	585.64
66.6741	580.38
66.6885	595.17
66.7029	619.13
66.7174	626.64
66.7318	588.99
66.7463	574.34
66.7607	593.82
66.7751	556.39
66.7896	573.76
66.8040	594.35
66.8185	606.47
66.8329	576.87
66.8473	589.90
66.8618	607.60
66.8762	596.11
66.8907	559.12
66.9051	587.75
66.9195	595.24
66.9340	614.14
66.9484	596.06
66.9629	585.31
66.9773	576.55
66.9917	585.30
67.0062	615.26
67.0206	608.75
67.0351	588.88
67.0495	580.80
67.0639	570.30
67.0784	575.84
67.0928	591.34
67.1073	583.95
67.1217	610.98
67.1361	569.91
67.1506	545.08
67.1650	598.21
67.1795	571.24
67.1939	554.77
67.2083	563.21
67.2228	570.65
67.2372	583.43
67.2517	555.16
67.2661	548.66
67.2805	597.01
67.2950	573.34
67.3094	589.42
67.3239	566.38
67.3383	593.25
67.3527	572.29
67.3672	568.96
67.3816	572.72
67.3961	546.37
67.4105	549.91
67.4250	610.53
67.4394	633.11
67.4538	599.44
67.4683	566.04
67.4827	572.81
67.4972	565.30
67.5116	585.49
67.5260	602.20
67.5405	569.00
67.5549	550.63
67.5694	560.83
67.5838	597.05
67.5982	615.00
67.6127	570.98
67.6271	552.44
67.6416	573.73
67.6560	566.29
67.6704	564.79
67.6849	562.35
67.6993	586.90
67.7138	577.44
67.7282	563.20
67.7426	577.21
67.7571	591.77
67.7715	583.32
67.7860	571.65
67.8004	581.92
67.8148	577.80
67.8293	577.09
67.8437	579.53
67.8582	603.98
67.8726	598.18
67.8870	579.83
67.9015	598.35
67.9159	576.03
67.9304	580.53
67.9448	584.08
67.9592	546.82
67.9737	581.61
67.9881	574.47
68.0026	572.89
68.0170	594.93
68.0314	611.07
68.0459	568.20
68.0603	581.52
68.0748	574.44
68.0892	575.36
68.1036	596.32
68.1181	560.50
68.1325	565.34
68.1470	556.50
68.1614	613.71
68.1758	634.02
68.1903	546.69
68.2047	582.24
68.2192	579.72
68.2336	596.76
68.2480	610.93
68.2625	578.16
68.2769	579.16
68.2914	584.10
68.3058	579.00
68.3202	608.24
68.3347	593.43
68.3491	564.36
68.3636	536.48
68.3780	561.58
68.3924	540.72
68.4069	557.25
68.4213	561.08
68.4358	610.03
68.4502	567.18
68.4646	567.57
68.4791	649.77
68.4935	560.47
68.5080	557.48
68.5224	554.36
68.5368	543.45
68.5513	544.00
68.5657	549.90
68.5802	550.99
68.5946	558.92
68.6090	562.99
68.6235	553.91
68.6379	565.16
68.6524	555.14
68.6668	549.58
68.6812	564.79
68.6957	556.85
68.7101	587.99
68.7246	572.00
68.7390	590.14
68.7534	588.60
68.7679	571.37
68.7823	579.52
68.7968	567.17
68.8112	591.91
68.8256	614.60
68.8401	561.97
68.8545	564.15
68.8690	603.17
68.8834	533.06
68.8978	564.44
68.9123	580.55
68.9267	567.38
68.9412	545.78
68.9556	576.53
68.9700	611.07
68.9845	578.77
68.9989	593.48
69.0134	555.70
69.0278	544.92
69.0422	575.09
69.0567	575.91
69.0711	627.65
69.0856	566.16
69.1000	553.79
69.1144	563.68
69.1289	549.84
69.1433	542.04
69.1578	567.78
69.1722	583.27
69.1866	547.39
69.2011	576.39
69.2155	567.46
69.2300	599.10
69.2444	618.84
69.2588	568.97
69.2733	566.92
69.2877	602.73
69.3022	591.83
69.3166	567.03
69.3310	545.73
69.3455	561.01
69.3599	609.49
69.3744	584.70
69.3888	536.60
69.4032	557.63
69.4177	567.34
69.4321	555.96
69.4466	578.02
69.4610	561.17
69.4754	565.95
69.4899	580.37
69.5043	562.64
69.5188	593.10
69.5332	578.37
69.5476	624.02
69.5621	553.65
69.5765	551.16
69.5910	545.74
69.6054	532.30
69.6198	550.08
69.6343	590.68
69.6487	565.17
69.6632	601.59
69.6776	548.03
69.6920	576.65
69.7065	603.25
69.7209	540.31
69.7354	567.93
69.7498	537.26
69.7642	566.03
69.7787	548.81
69.7931	568.85
69.8076	623.48
69.8220	593.72
69.8364	623.62
69.8509	560.48
69.8653	563.18
69.8798	520.72
69.8942	562.93
69.9086	520.28
69.9231	608.91
69.9375	589.84
69.9520	620.11
69.9664	558.93
69.9808	529.26
69.9953	534.17
70.0097	619.64
70.0242	532.34
70.0386	562.57
70.0530	554.97
70.0675	589.86
70.0819	594.28
70.0964	566.96
70.1108	580.82
70.1252	559.62
70.1397	528.20
70.1541	560.86
70.1686	599.56
70.1830	601.06
70.1974	567.78
70.2119	608.80
70.2263	582.96
70.2408	548.68
70.2552	563.53
70.2696	561.55
70.2841	588.98
70.2985	568.54
70.3130	552.15
70.3274	551.88
70.3418	623.13
70.3563	576.49
70.3707	549.17
70.3852	525.59
70.3996	582.19
70.4140	587.39
70.4285	628.02
70.4429	571.20
70.4574	544.43
70.4718	564.63
70.4862	583.43
70.5007	554.98
70.5151	601.18
70.5296	611.06
70.5440	598.92
70.5584	592.15
70.5729	558.31
70.5873	579.53
70.6018	565.88
70.6162	563.81
70.6306	579.48
70.6451	641.10
70.6595	622.81
70.6740	636.52
70.6884	562.00
70.7028	574.60
70.7173	567.18
70.7317	606.16
70.7462	639.32
70.7606	564.04
70.7750	545.05
70.7895	573.11
70.8039	572.18
70.8184	570.57
70.8328	603.65
70.8472	615.81
70.8617	608.51
70.8761	640.00
70.8906	578.66
70.9050	561.25
70.9194	559.63
70.9339	571.34
70.9483	558.17
70.9628	558.94
70.9772	608.08
70.9916	553.97
71.0061	522.51
71.0205	547.74
71.0350	559.36
71.0494	554.08
71.0638	567.80
71.0783	590.39
71.0927	532.35
71.1072	544.07
71.1216	614.76
71.1361	587.82
71.1505	591.49
71.1649	580.06
71.1794	566.40
71.1938	563.93
71.2083	548.71
71.2227	562.20
71.2371	578.46
71.2516	531.50
71.2660	566.74
71.2805	590.17
71.2949	570.17
71.3093	560.94
71.3238	557.87
71.3382	568.49
71.3527	615.75
71.3671	571.87
71.3815	553.75
71.3960	553.01
71.4104	532.74
71.4249	588.74
71.4393	598.30
71.4537	596.34
71.4682	602.74
71.4826	577.17
71.4971	581.58
71.5115	585.28
71.5259	554.13
71.5404	536.21
71.5548	536.59
71.5693	516.96
71.5837	487.23
71.5981	552.57
71.6126	587.24
71.6270	586.15
71.6415	574.49
71.6559	548.13
71.6703	576.02
71.6848	563.31
71.6992	569.84
71.7137	576.86
71.7281	562.43
71.7425	552.35
71.7570	567.15
71.7714	545.15
71.7859	542.46
71.8003	609.71
71.8147	640.92
71.8292	592.81
71.8436	554.00
71.8581	563.94
71.8725	639.75
71.8869	609.86
71.9014	597.83
71.9158	689.10
71.9303	607.97
71.9447	558.19
71.9591	559.14
71.9736	517.68
71.9880	585.09
72.0025	570.09
72.0169	508.50
72.0313	592.23
72.0458	599.13
72.0602	541.45
72.0747	520.19
72.0891	563.67
72.1035	652.29
72.1180	638.62
72.1324	608.08
72.1469	593.26
72.1613	586.59
72.1757	586.59
72.1902	598.62
72.2046	576.93
72.2191	520.94
72.2335	508.01
72.2479	516.09
72.2624	527.25
72.2768	524.16
72.2913	522.15
72.3057	521.47
72.3201	568.62
72.3346	553.79
72.3490	597.41
72.3635	583.27
72.3779	550.34
72.3923	585.56
72.4068	606.49
72.4212	702.19
72.4357	745.02
72.4501	642.80
72.4645	599.73
72.4790	563.82
72.4934	623.05
72.5079	656.24
72.5223	573.19
72.5367	556.30
72.5512	684.27
72.5656	706.22
72.5801	582.81
72.5945	542.74
72.6089	568.80
72.6234	622.18
72.6378	596.67
72.6523	553.00
72.6667	491.72
72.6811	465.09
72.6956	541.11
72.7100	613.37
72.7245	613.74
72.7389	562.33
72.7533	594.16
72.7678	622.87
72.7822	577.43
72.7967	569.14
72.8111	563.80
72.8255	545.70
72.8400	503.96
72.8544	491.77
72.8689	508.33
72.8833	607.75

Result vector
22.1120	614.16
22.1264	596.37
22.1409	519.46
22.1553	555.86
22.1697	582.81
22.1842	546.71
22.1986	555.93
22.2131	539.44
22.2275	573.57
22.2419	617.25
22.2564	567.41
22.2708	547.87
22.2853	538.26
22.2997	512.63
22.3141	555.56
22.3286	576.23
22.3430	535.91
22.3575	490.82
22.3719	567.41
22.3863	530.97
22.4008	511.87
22.4152	584.31
22.4297	626.48
22.4441	645.25
22.4585	603.06
22.4730	674.42
22.4874	644.42
22.5019	687.94
22.5163	577.43
22.5307	539.89
22.5452	531.98
22.5596	608.41
22.5741	596.80
22.5885	539.70
22.6029	586.00
22.6174	631.09
22.6318	620.81
22.6463	605.35
22.6607	603.58
22.6751	580.59
22.6896	584.56
22.7040	629.16
22.7185	600.02
22.7329	641.33
22.7473	629.07
22.7618	578.23
22.7762	617.14
22.7907	618.78
22.8051	520.65
22.8195	547.80
22.8340	550.63
22.8484	572.55
22.8629	620.81
22.8773	524.70
22.8917	513.34
22.9062	567.90
22.9206	582.22
22.9351	618.36
22.9495	577.76
22.9639	631.26
22.9784	608.19
22.9928	585.55
23.0073	550.11
23.0217	602.78
23.0361	555.25
23.0506	533.24
23.0650	543.58
23.0795	545.82
23.0939	558.97
23.1083	531.15
23.1228	591.67
23.1372	560.33
23.1517	496.44
23.1661	547.48
23.1806	553.46
23.1950	553.58
23.2094	573.56
23.2239	559.27
23.2383	566.79
23.2528	602.68
23.2672	552.81
23.2816	608.93
23.2961	565.65
23.3105	551.00
23.3250	565.20
23.3394	576.25
23.3538	575.23
23.3683	484.37
23.3827	534.51
23.3972	545.82
23.4116	565.64
23.4260	624.70
23.4405	585.89
23.4549	578.91
23.4694	598.74
23.4838	497.22
23.4982	542.72
23.5127	520.80
23.5271	528.33
23.5416	601.99
23.5560	675.79
23.5704	572.95
23.5849	575.20
23.5993	575.77
23.6138	597.63
23.6282	535.54
23.6426	607.04
23.6571	548.85
23.6715	541.91
23.6860	499.34
23.7004	512.98
23.7148	586.92
23.7293	478.31
23.7437	510.39
23.7582	545.87
23.7726	566.13
23.7870	581.24
23.8015	558.47
23.8159	608.53
23.8304	579.93
23.8448	529.07
23.8592	523.74
23.8737	579.59
23.8881	487.04
23.9026	523.15
23.9170	499.53
23.9314	590.29
23.9459	615.33
23.9603	481.14
23.9748	570.88
23.9892	643.98
24.0036	529.10
24.0181	499.69
24.0325	525.90
24.0470	582.74
24.0614	584.83
24.0758	559.60
24.0903	540.32
24.1047	505.80
24.1192	553.00
24.1336	560.28
24.1480	534.58
24.1625	556.65
24.1769	558.10
24.1914	566.91
24.2058	548.07
24.2202	581.43
24.2347	614.41
24.2491	653.12
24.2636	589.27
24.2780	646.12
24.2924	581.21
24.3069	562.90
24.3213	529.68
24.3358	631.66
24.3502	555.25
24.3646	499.24
24.3791	504.79
24.3935	596.85
24.4080	557.21
24.4224	547.99
24.4368	578.90
24.4513	558.61
24.4657	595.06
24.4802	566.23
24.4946	554.97
24.5090	536.00
24.5235	611.74
24.5379	597.61
24.5524	606.47
24.5668	577.70
24.5812	530.91
24.5957	560.12
24.6101	583.44
24.6246	504.75
24.6390	532.67
24.6534	632.75
24.6679	523.48
24.6823	534.10
24.6968	603.67
24.7112	534.81
24.7256	560.85
24.7401	541.52
24.7545	563.34
24.7690	492.11
24.7834	538.08
24.7978	552.12
24.8123	511.91
24.8267	556.33
24.8412	549.57
24.8556	568.30
24.8700	524.08
24.8845	535.92
24.8989	573.15
24.9134	568.86
24.9278	531.92
24.9422	512.84
24.9567	536.56
24.9711	542.76
24.9856	578.95
25.0000	516.93
25.0144	569.34
25.0289	571.56
25.0433	540.61
25.0578	554.27
25.0722	535.96
25.0866	586.18
25.1011	610.92
25.1155	557.06
25.1300	555.19
25.1444	533.49
25.1588	578.14
25.1733	557.67
25.1877	514.75
25.2022	537.68
25.2166	522.61
25.2310	562.15
25.2455	578.35
25.2599	533.43
25.2744	544.31
25.2888	535.80
25.3032	523.11
25.3177	593.04
25.3321	557.36
25.3466	532.32
25.3610	544.78
25.3754	520.37
25.3899	567.78
25.4043	547.87
25.4188	549.00
25.4332	577.19
25.4476	523.97
25.4621	543.57
25.4765	541.85
25.4910	507.01
25.5054	530.81
25.5198	576.53
25.5343	526.43
25.5487	578.42
25.5632	549.01
25.5776	489.35
25.5920	553.07
25.6065	539.71
25.6209	539.76
25.6354	559.43
25.6498	539.99
25.6642	552.06
25.6787	530.63
25.6931	551.99
25.7076	563.01
25.7220	547.27
25.7364	534.59
25.7509	590.59
25.7653	551.89
25.7798	520.52
25.7942	563.55
25.8086	554.81
25.8231	556.04
25.8375	547.82
25.8520	544.56
25.8664	588.02
25.8808	548.94
25.8953	540.78
25.9097	547.08
25.9242	518.72
25.9386	527.23
25.9530	568.63
25.9675	514.61
25.9819	458.88
25.9964	511.83
26.0108	540.65
26.0252	545.16
26.0397	523.10
26.0541	558.74
26.0686	558.17
26.0830	564.54
26.0974	535.50
26.1119	535.93
26.1263	542.00
26.1408	530.39
26.1552	525.58
26.1696	508.35
26.1841	532.20
26.1985	524.74
26.2130	506.44
26.2274	518.62
26.2418	538.56
26.2563	542.28
26.2707	525.77
26.2852	525.58
26.2996	521.92
26.3140	508.11
26.3285	537.30
26.3429	533.51
26.3574	524.62
26.3718	511.88
26.3862	518.98
26.4007	546.13
26.4151	537.24
26.4296	563.44
26.4440	524.10
26.4584	521.63
26.4729	527.87
26.4873	537.69
26.5018	544.48
26.5162	556.95
26.5306	547.09
26.5451	514.59
26.5595	555.69
26.5740	536.07
26.5884	527.75
26.6028	560.98
26.6173	519.34
26.6317	518.54
26.6462	547.05
26.6606	528.96
26.6750	521.14
26.6895	491.62
26.7039	493.76
26.7184	510.38
26.7328	494.56
26.7472	516.65
26.7617	532.28
26.7761	510.31
26.7906	521.22
26.8050	513.59
26.8194	503.53
26.8339	524.12
26.8483	526.59
26.8628	512.78
26.8772	520.30
26.8917	485.99
26.9061	546.69
26.9205	564.00
26.9350	552.87
26.9494	551.15
26.9639	518.58
26.9783	520.37
26.9927	474.29
27.0072	481.09
27.0216	516.51
27.0361	564.61
27.0505	564.58
27.0649	544.43
27.0794	542.95
27.0938	562.84
27.1083	534.26
27.1227	538.88
27.1371	526.99
27.1516	509.92
27.1660	517.37
27.1805	528.83
27.1949	521.73
27.2093	526.34
27.2238	512.37
27.2382	526.55
27.2527	493.18
27.2671	519.14
27.2815	543.45
27.2960	538.48
27.3104	511.63
27.3249	508.66
27.3393	531.22
27.3537	525.52
27.3682	536.77
27.3826	534.55
27.3971	489.70
27.4115	476.97
27.4259	534.49
27.4404	515.84
27.4548	501.32
27.4693	510.79
27.4837	528.35
27.4981	528.17
27.5126	547.83
27.5270	521.53
27.5415	537.32
27.5559	542.80
27.5703	525.53
27.5848	502.43
27.5992	501.32
27.6137	502.68
27.6281	512.44
27.6425	535.66
27.6570	565.61
27.6714	515.22
27.6859	496.12
27.7003	529.20
27.7147	566.07
27.7292	524.80
27.7436	523.44
27.7581	516.66
27.7725	519.99
27.7869	527.76
27.8014	521.63
27.8158	527.30
27.8303	514.38
27.8447	518.11
27.8591	486.48
27.8736	520.76
27.8880	517.91
27.9025	532.18
27.9169	543.31
27.9313	512.88
27.9458	541.55
27.9602	525.66
27.9747	495.99
27.9891	514.85
28.0035	496.98
28.0180	490.37
28.0324	493.45
28.0469	514.47
28.0613	505.46
28.0757	483.19
28.0902	544.42
28.1046	545.42
28.1191	531.71
28.1335	527.74
28.1479	490.76
28.1624	487.11
28.1768	523.07
28.1913	526.33
28.2057	508.23
28.2201	477.22
28.2346	491.08
28.2490	526.57
28.2635	509.21
28.2779	518.04
28.2923	531.12
28.3068	519.11
28.3212	499.16
28.3357	482.80
28.3501	533.92
28.3645	539.11
28.3790	528.56
28.3934	518.65
28.4079	539.46
28.4223	542.02
28.4367	521.08
28.4512	508.70
28.4656	565.15
28.4801	554.93
28.4945	519.06
28.5089	528.29
28.5234	526.00
28.5378	538.56
28.5523	540.31
28.5667	517.24
28.5811	490.30
28.5956	532.84
28.6100	487.19
28.6245	512.52
28.6389	549.39
28.6533	535.78
28.6678	484.59
28.6822	486.28
28.6967	513.28
28.7111	514.87
28.7255	494.30
28.7400	515.48
28.7544	482.14
28.7689	499.82
28.7833	525.23
28.7977	521.16
28.8122	487.67
28.8266	506.66
28.8411	525.45
28.8555	493.47
28.8699	507.13
28.8844	537.31
28.8988	545.62
28.9133	527.95
28.9277	514.84
28.9421	503.35
28.9566	514.08
28.9710	488.93
28.9855	524.18
28.9999	498.64
29.0143	486.97
29.0288	508.79
29.0432	502.35
29.0577	468.35
29.0721	512.33
29.0865	494.71
29.1010	515.99
29.1154	514.22
29.1299	552.70
29.1443	522.87
29.1587	513.74
29.1732	528.93
29.1876	506.45
29.2021	543.62
29.2165	530.03
29.2309	490.71
29.2454	475.54
29.2598	513.19
29.2743	544.31
29.2887	565.88
29.3031	508.55
29.3176	504.36
29.3320	504.01
29.3465	469.10
29.3609	482.78
29.3753	513.99
29.3898	502.89
29.4042	514.37
29.4187	518.84
29.4331	531.14
29.4475	503.47
29.4620	484.45
29.4764	499.30
29.4909	510.48
29.5053	516.20
29.5197	520.38
29.5342	498.11
29.5486	509.83
29.5631	531.11
29.5775	539.71
29.5919	525.53
29.6064	534.70
29.6208	535.81
29.6353	530.22
29.6497	488.05
29.6641	495.66
29.6786	479.59
29.6930	505.77
29.7075	505.57
29.7219	523.10
29.7363	504.07
29.7508	506.92
29.7652	493.46
29.7797	524.50
29.7941	511.72
29.8085	524.41
29.8230	535.57
29.8374	522.65
29.8519	526.39
29.8663	545.84
29.8807	524.82
29.8952	517.81
29.9096	500.60
29.9241	529.97
29.9385	503.10
29.9529	506.45
29.9674	476.04
29.9818	517.25
29.9963	509.66
30.0107	507.19
30.0251	528.65
30.0396	505.80
30.0540	501.34
30.0685	530.74
30.0829	522.80
30.0973	523.75
30.1118	498.46
30.1262	519.35
30.1407	496.17
30.1551	507.50
30.1695	495.79
30.1840	499.88
30.1984	542.72
30.2129	528.80
30.2273	507.92
30.2417	504.21
30.2562	520.39
30.2706	490.03
30.2851	498.44
30.2995	501.01
30.3139	520.66
30.3284	505.46
30.3428	483.60
30.3573	499.86
30.3717	480.34
30.3861	513.19
30.4006	502.76
30.4150	511.50
30.4295	526.53
30.4439	499.12
30.4583	519.41
30.4728	543.42
30.4872	519.53
30.5017	552.79
30.5161	529.78
30.5305	548.25
30.5450	547.59
30.5594	586.57
30.5739	577.47
30.5883	580.61
30.6028	614.86
30.6172	632.53
30.6316	664.45
30.6461	688.76
30.6605	706.12
30.6750	707.49
30.6894	748.90
30.7038	741.31
30.7183	720.13
30.7327	647.24
30.7472	676.80
30.7616	664.56
30.7760	669.92
30.7905	636.61
30.8049	604.38
30.8194	631.34
30.8338	584.43
30.8482	555.42
30.8627	517.89
30.8771	521.85
30.8916	538.50
30.9060	542.34
30.9204	537.84
30.9349	533.67
30.9493	507.46
30.9638	489.95
30.9782	495.17
30.9926	533.28
31.0071	528.75
31.0215	520.86
31.0360	521.91
31.0504	516.51
31.0648	526.74
31.0793	519.18
31.0937	522.34
31.1082	516.82
31.1226	482.83
31.1370	520.04
31.1515	494.56
31.1659	520.37
31.1804	510.83
31.1948	504.08
31.2092	496.27
31.2237	542.06
31.2381	552.54
31.2526	532.46
31.2670	507.53
31.2814	538.79
31.2959	518.07
31.3103	533.60
31.3248	555.61
31.3392	547.11
31.3536	524.61
31.3681	513.42
31.3825	551.34
31.3970	502.94
31.4114	517.94
31.4258	546.03
31.4403	521.39
31.4547	506.46
31.4692	517.60
31.4836	534.88
31.4980	501.62
31.5125	498.21
31.5269	506.49
31.5414	482.09
31.5558	489.78
31.5702	479.75
31.5847	514.45
31.5991	507.14
31.6136	517.91
31.6280	507.32
31.6424	537.54
31.6569	522.50
31.6713	486.02
31.6858	507.28
31.7002	524.88
31.7146	499.96
31.7291	500.11
31.7435	472.47
31.7580	490.22
31.7724	534.34
31.7868	506.41
31.8013	527.79
31.8157	536.55
31.8302	538.60
31.8446	528.97
31.8590	509.89
31.8735	511.43
31.8879	515.25
31.9024	551.99
31.9168	509.12
31.9312	521.36
31.9457	502.57
31.9601	507.51
31.9746	499.08
31.9890	492.81
32.0034	495.40
32.0179	488.91
32.0323	521.74
32.0468	476.62
32.0612	507.72
32.0756	507.27
32.0901	546.87
32.1045	545.70
32.1190	498.10
32.1334	487.53
32.1478	468.33
32.1623	491.20
32.1767	516.61
32.1912	513.65
32.2056	508.09
32.2200	498.15
32.2345	505.50
32.2489	482.35
32.2634	494.86
32.2778	483.47
32.2922	455.14
32.3067	502.11
32.3211	488.91
32.3356	470.07
32.3500	500.40
32.3644	532.30
32.3789	519.97
32.3933	509.50
32.4078	509.01
32.4222	526.74
32.4366	505.17
32.4511	489.70
32.4655	489.09
32.4800	529.43
32.4944	511.21
32.5088	510.29
32.5233	485.29
32.5377	498.58
32.5522	534.75
32.5666	513.72
32.5810	536.25
32.5955	520.53
32.6099	499.26
32.6244	507.41
32.6388	519.23
32.6532	498.83
32.6677	503.00
32.6821	488.46
32.6966	515.62
32.7110	517.79
32.7254	491.71
32.7399	469.56
32.7543	504.93
32.7688	489.01
32.7832	497.41
32.7976	517.91
32.8121	489.99
32.8265	523.76
32.8410	516.44
32.8554	488.42
32.8698	517.46
32.8843	528.17
32.8987	495.89
32.9132	480.53
32.9276	518.65
32.9420	466.94
32.9565	532.11
32.9709	521.26
32.9854	558.35
32.9998	504.33
33.0142	575.50
33.0287	491.93
33.0431	503.94
33.0576	532.24
33.0720	531.41
33.0864	521.62
33.1009	531.09
33.1153	533.26
33.1298	525.09
33.1442	497.60
33.1586	491.21
33.1731	482.35
33.1875	498.74
33.2020	480.15
33.2164	513.96
33.2308	487.65
33.2453	533.10
33.2597	505.72
33.2742	497.60
33.2886	487.11
33.3030	510.82
33.3175	455.65
33.3319	491.16
33.3464	490.29
33.3608	495.58
33.3752	511.86
33.3897	492.00
33.4041	463.51
33.4186	523.96
33.4330	550.84
33.4474	528.32
33.4619	530.26
33.4763	499.97
33.4908	502.70
33.5052	478.50
33.5196	488.68
33.5341	506.45
33.5485	505.27
33.5630	523.24
33.5774	527.80
33.5918	488.81
33.6063	505.47
33.6207	487.28
33.6352	522.30
33.6496	483.97
33.6640	493.25
33.6785	501.68
33.6929	503.00
33.7074	498.21
33.7218	498.83
33.7362	507.52
33.7507	502.61
33.7651	474.35
33.7796	529.77
33.7940	504.20
33.8084	492.60
33.8229	480.00
33.8373	519.45
33.8518	492.29
33.8662	550.06
33.8806	513.45
33.8951	547.83
33.9095	538.28
33.9240	535.28
33.9384	508.54
33.9528	486.15
33.9673	514.39
33.9817	502.29
33.9962	518.20
34.0106	477.88
34.0250	505.99
34.0395	504.79
34.0539	498.42
34.0684	531.42
34.0828	513.62
34.0972	509.35
34.1117	497.94
34.1261	506.57
34.1406	527.90
34.1550	524.94
34.1694	482.30
34.1839	499.79
34.1983	498.53
34.2128	482.35
34.2272	490.17
34.2417	497.07
34.2561	506.98
34.2705	499.84
34.2850	520.54
34.2994	510.30
34.3139	520.21
34.3283	534.96
34.3427	565.00
34.3572	523.74
34.3716	510.27
34.3861	507.85
34.4005	505.68
34.4149	523.98
34.4294	532.71
34.4438	489.83
34.4583	527.98
34.4727	507.13
34.4871	492.48
34.5016	503.38
34.5160	473.66
34.5305	482.27
34.5449	498.62
34.5593	503.23
34.5738	491.07
34.5882	494.65
34.6027	517.52
34.6171	508.78
34.6315	526.33
34.6460	503.12
34.6604	497.40
34.6749	468.47
34.6893	478.48
34.7037	495.45
34.7182	507.35
34.7326	487.14
34.7471	485.86
34.7615	483.08
34.7759	526.96
34.7904	518.81
34.8048	504.69
34.8193	501.25
34.8337	511.88
34.8481	499.21
34.8626	520.29
34.8770	526.07
34.8915	531.51
34.9059	523.52
34.9203	509.98
34.9348	535.66
34.9492	545.61
34.9637	533.05
34.9781	553.41
34.9925	508.73
35.0070	505.40
35.0214	521.62
35.0359	510.16
35.0503	509.76
35.0647	506.58
35.0792	502.23
35.0936	545.85
35.1081	517.49
35.1225	507.99
35.1369	497.15
35.1514	462.38
35.1658	483.46
35.1803	494.75
35.1947	484.28
35.2091	527.51
35.2236	491.17
35.2380	501.30
35.2525	503.65
35.2669	525.18
35.2813	535.03
35.2958	476.60
35.3102	516.34
35.3247	493.82
35.3391	497.03
35.3535	497.90
35.3680	513.37
35.3824	512.42
35.3969	512.58
35.4113	509.66
35.4257	526.45
35.4402	526.89
35.4546	512.96
35.4691	531.38
35.4835	498.12
35.4979	481.20
35.5124	481.68
35.5268	500.94
35.5413	512.51
35.5557	514.51
35.5701	505.64
35.5846	523.07
35.5990	538.61
35.6135	538.70
35.6279	514.31
35.6423	526.70
35.6568	533.79
35.6712	573.84
35.6857	610.60
35.7001	662.85
35.7145	679.76
35.7290	671.12
35.7434	644.10
35.7579	603.59
35.7723	563.85
35.7867	615.43
35.8012	638.32
35.8156	657.00
35.8301	616.16
35.8445	602.48
35.8589	681.61
35.8734	791.85
35.8878	865.94
35.9023	1016.14
35.9167	1107.46
35.9311	1342.92
35.9456	2028.28
35.9600	2405.56
35.9745	2057.81
35.9889	1985.99
36.0033	2340.74
36.0178	2380.44
36.0322	2171.74
36.0467	2164.28
36.0611	2008.17
36.0755	1992.75
36.0900	1946.67
36.1044	1830.20
36.1189	1886.32
36.1333	1776.12
36.1477	1545.62
36.1622	1484.88
36.1766	1426.84
36.1911	1149.65
36.2055	1060.97
36.2199	1009.41
36.2344	872.53
36.2488	819.28
36.2633	749.34
36.2777	705.28
36.2921	663.73
36.3066	629.69
36.3210	606.70
36.3355	609.44
36.3499	601.72
36.3643	545.80
36.3788	522.22
36.3932	558.34
36.4077	559.76
36.4221	570.50
36.4365	584.35
36.4510	564.18
36.4654	531.26
36.4799	550.06
36.4943	543.69
36.5087	532.78
36.5232	534.60
36.5376	545.41
36.5521	526.06
36.5665	537.89
36.5809	516.66
36.5954	533.34
36.6098	546.57
36.6243	535.61
36.6387	530.05
36.6531	533.18
36.6676	527.29
36.6820	521.53
36.6965	489.44
36.7109	538.64
36.7253	538.03
36.7398	488.22
36.7542	529.97
36.7687	523.80
36.7831	537.61
36.7975	576.40
36.8120	569.71
36.8264	588.36
36.8409	573.63
36.8553	614.51
36.8697	596.52
36.8842	584.12
36.8986	611.55
36.9131	571.91
36.9275	586.65
36.9419	559.58
36.9564	554.12
36.9708	572.45
36.9853	606.15
36.9997	594.88
37.0141	559.53
37.0286	527.59
37.0430	529.56
37.0575	548.36
37.0719	505.72
37.0863	535.12
37.1008	532.36
37.1152	504.11
37.1297	496.52
37.1441	530.11
37.1585	540.34
37.1730	542.11
37.1874	502.37
37.2019	480.33
37.2163	536.01
37.2307	546.07
37.2452	527.45
37.2596	530.58
37.2741	504.06
37.2885	513.59
37.3029	528.92
37.3174	526.57
37.3318	502.78
37.3463	504.92
37.3607	479.02
37.3751	476.86
37.3896	481.64
37.4040	506.29
37.4185	497.37
37.4329	519.95
37.4473	464.65
37.4618	529.87
37.4762	520.03
37.4907	485.24
37.5051	498.88
37.5195	515.27
37.5340	544.19
37.5484	553.74
37.5629	537.60
37.5773	494.11
37.5917	502.92
37.6062	511.23
37.6206	530.83
37.6351	497.17
37.6495	492.49
37.6639	526.55
37.6784	493.44
37.6928	519.91
37.7073	537.34
37.7217	534.18
37.7361	511.95
37.7506	504.95
37.7650	463.38
37.7795	499.49
37.7939	515.01
37.8083	519.29
37.8228	566.65
37.8372	524.79
37.8517	530.21
37.8661	524.33
37.8805	519.89
37.8950	510.89
37.9094	561.86
37.9239	535.83
37.9383	503.36
37.9528	536.72
37.9672	513.61
37.9816	477.02
37.9961	504.78
38.0105	502.20
38.0250	540.87
38.0394	515.03
38.0538	507.21
38.0683	519.51
38.0827	521.26
38.0972	524.99
38.1116	465.51
38.1260	519.11
38.1405	491.47
38.1549	471.77
38.1694	494.98
38.1838	512.60
38.1982	483.01
38.2127	500.95
38.2271	506.47
38.2416	495.45
38.2560	501.07
38.2704	505.55
38.2849	476.67
38.2993	501.17
38.3138	534.03
38.3282	569.59
38.3426	531.20
38.3571	512.41
38.3715	489.98
38.3860	526.49
38.4004	530.94
38.4148	523.66
38.4293	569.39
38.4437	593.15
38.4582	609.90
38.4726	682.86
38.4870	757.39
38.5015	759.92
38.5159	740.55
38.5304	764.89
38.5448	823.85
38.5592	798.03
38.5737	767.40
38.5881	790.70
38.6026	690.64
38.6170	702.53
38.6314	693.84
38.6459	667.75
38.6603	631.98
38.6748	603.45
38.6892	610.25
38.7036	587.33
38.7181	557.34
38.7325	506.67
38.7470	521.53
38.7614	498.86
38.7758	522.58
38.7903	540.12
38.8047	481.70
38.8192	483.75
38.8336	539.96
38.8480	491.05
38.8625	521.34
38.8769	516.39
38.8914	526.74
38.9058	539.03
38.9202	481.33
38.9347	490.95
38.9491	510.28
38.9636	519.01
38.9780	474.92
38.9924	480.88
39.0069	519.41
39.0213	502.71
39.0358	494.88
39.0502	509.16
39.0646	521.52
39.0791	523.41
39.0935	534.78
39.1080	500.44
39.1224	466.27
39.1368	502.78
39.1513	507.76
39.1657	472.89
39.1802	511.28
39.1946	502.71
39.2090	509.52
39.2235	494.57
39.2379	510.12
39.2524	519.34
39.2668	501.69
39.2812	501.63
39.2957	508.88
39.3101	508.91
39.3246	497.23
39.3390	517.55
39.3534	465.75
39.3679	489.98
39.3823	527.74
39.3968	498.20
39.4112	499.13
39.4256	507.41
39.4401	517.29
39.4545	502.97
39.4690	484.76
39.4834	472.00
39.4978	506.22
39.5123	501.67
39.5267	519.85
39.5412	512.50
39.5556	482.84
39.5700	491.12
39.5845	506.04
39.5989	515.16
39.6134	490.68
39.6278	480.83
39.6422	461.92
39.6567	478.95
39.6711	484.34
39.6856	491.24
39.7000	513.74
39.7144	514.31
39.7289	533.44
39.7433	528.07
39.7578	503.16
39.7722	486.62
39.7866	488.07
39.8011	469.04
39.8155	504.58
39.8300	521.85
39.8444	490.34
39.8588	500.04
39.8733	485.43
39.8877	489.48
39.9022	511.74
39.9166	470.05
39.9310	458.93
39.9455	488.60
39.9599	505.81
39.9744	492.93
39.9888	521.56
40.0032	488.74
40.0177	481.95
40.0321	491.57
40.0466	519.34
40.0610	491.66
40.0754	449.50
40.0899	523.39
40.1043	520.79
40.1188	509.89
40.1332	501.80
40.1476	454.22
40.1621	530.61
40.1765	519.06
40.1910	528.08
40.2054	496.05
40.2198	493.81
40.2343	519.46
40.2487	486.16
40.2632	471.57
40.2776	491.97
40.2920	520.90
40.3065	534.87
40.3209	509.25
40.3354	508.87
40.3498	506.10
40.3642	486.68
40.3787	484.19
40.3931	506.74
40.4076	479.35
40.4220	508.90
40.4364	522.29
40.4509	474.80
40.4653	491.99
40.4798	521.25
40.4942	521.63
40.5086	490.94
40.5231	491.37
40.5375	517.03
40.5520	502.55
40.5664	486.24
40.5808	485.47
40.5953	511.89
40.6097	520.77
40.6242	488.81
40.6386	498.10
40.6530	451.90
40.6675	483.89
40.6819	492.61
40.6964	498.47
40.7108	526.53
40.7252	519.86
40.7397	519.11
40.7541	505.83
40.7686	509.35
40.7830	520.02
40.7974	500.21
40.8119	498.73
40.8263	499.66
40.8408	496.84
40.8552	508.46
40.8696	531.13
40.8841	561.67
40.8985	523.84
40.9130	499.81
40.9274	510.17
40.9418	497.40
40.9563	490.96
40.9707	506.43
40.9852	475.82
40.9996	530.44
41.0140	553.67
41.0285	491.79
41.0429	508.03
41.0574	503.22
41.0718	467.57
41.0862	525.25
41.1007	500.42
41.1151	520.75
41.1296	511.58
41.1440	475.23
41.1584	513.35
41.1729	516.71
41.1873	528.28
41.2018	534.33
41.2162	497.74
41.2306	495.18
41.2451	492.58
41.2595	530.92
41.2740	523.04
41.2884	509.66
41.3028	493.94
41.3173	525.53
41.3317	515.36
41.3462	524.56
41.3606	517.28
41.3750	515.95
41.3895	508.03
41.4039	497.92
41.4184	515.14
41.4328	512.23
41.4472	486.05
41.4617	516.18
41.4761	564.06
41.4906	490.28
41.5050	497.30
41.5194	482.81
41.5339	497.65
41.5483	501.94
41.5628	525.35
41.5772	475.03
41.5916	480.38
41.6061	486.67
41.6205	497.80
41.6350	496.42
41.6494	458.05
41.6639	521.39
41.6783	488.34
41.6927	517.97
41.7072	531.88
41.7216	527.88
41.7361	513.43
41.7505	488.39
41.7649	530.27
41.7794	527.72
41.7938	541.44
41.8083	533.08
41.8227	534.74
41.8371	531.86
41.8516	520.59
41.8660	553.96
41.8805	530.12
41.8949	553.57
41.9093	565.46
41.9238	516.09
41.9382	567.23
41.9527	512.82
41.9671	549.25
41.9815	533.29
41.9960	542.00
42.0104	566.91
42.0249	574.64
42.0393	563.44
42.0537	533.45
42.0682	549.59
42.0826	554.75
42.0971	540.18
42.1115	563.53
42.1259	575.08
42.1404	575.85
42.1548	568.46
42.1693	645.23
42.1837	663.70
42.1981	750.67
42.2126	815.79
42.2270	930.34
42.2415	1063.39
42.2559	1180.27
42.2703	1306.64
42.2848	1454.13
42.2992	1590.60
42.3137	1673.55
42.3281	1630.40
42.3425	1550.05
42.3570	1482.63
42.3714	1443.70
42.3859	1414.75
42.4003	1403.74
42.4147	1309.80
42.4292	1270.69
42.4436	1177.22
42.4581	1044.13
42.4725	925.66
42.4869	817.97
42.5014	754.52
42.5158	675.58
42.5303	628.18
42.5447	621.92
42.5591	599.80
42.5736	609.56
42.5880	591.47
42.6025	593.93
42.6169	546.22
42.6313	545.25
42.6458	576.37
42.6602	547.24
42.6747	553.73
42.6891	556.23
42.7035	539.28
42.7180	528.06
42.7324	525.02
42.7469	502.41
42.7613	508.80
42.7757	535.04
42.7902	543.65
42.8046	508.42
42.8191	513.82
42.8335	532.89
42.8479	502.88
42.8624	511.43
42.8768	538.10
42.8913	523.13
42.9057	504.23
42.9201	495.00
42.9346	544.68
42.9490	560.01
42.9635	537.41
42.9779	511.77
42.9923	509.28
43.0068	509.85
43.0212	532.34
43.0357	520.72
43.0501	488.73
43.0645	515.52
43.0790	543.26
43.0934	533.10
43.1079	521.38
43.1223	517.19
43.1367	528.73
43.1512	520.96
43.1656	511.07
43.1801	524.08
43.1945	512.72
43.2089	508.07
43.2234	509.42
43.2378	545.80
43.2523	519.81
43.2667	501.86
43.2811	530.93
43.2956	506.41
43.3100	504.43
43.3245	518.42
43.3389	522.07
43.3533	489.04
43.3678	522.04
43.3822	539.82
43.3967	542.38
43.4111	522.62
43.4255	507.15
43.4400	515.36
43.4544	518.23
43.4689	534.35
43.4833	497.38
43.4977	504.09
43.5122	498.35
43.5266	509.16
43.5411	499.54
43.5555	502.45
43.5699	467.39
43.5844	510.33
43.5988	515.18
43.6133	528.28
43.6277	504.27
43.6421	522.14
43.6566	525.42
43.6710	505.70
43.6855	523.04
43.6999	555.76
43.7143	552.18
43.7288	550.57
43.7432	537.31
43.7577	515.82
43.7721	522.34
43.7865	544.76
43.8010	549.32
43.8154	596.68
43.8299	601.18
43.8443	549.38
43.8587	609.12
43.8732	645.61
43.8876	628.25
43.9021	706.35
43.9165	639.91
43.9309	650.84
43.9454	663.20
43.9598	601.04
43.9743	574.10
43.9887	574.84
44.0031	570.64
44.0176	568.28
44.0320	614.51
44.0465	605.19
44.0609	577.87
44.0753	540.63
44.0898	549.58
44.1042	562.78
44.1187	567.10
44.1331	515.78
44.1475	472.39
44.1620	546.19
44.1764	536.65
44.1909	487.84
44.2053	518.15
44.2197	541.21
44.2342	561.27
44.2486	518.95
44.2631	498.61
44.2775	519.45
44.2919	530.42
44.3064	516.63
44.3208	504.27
44.3353	550.19
44.3497	541.38
44.3641	504.75
44.3786	546.45
44.3930	521.36
44.4075	557.45
44.4219	582.98
44.4363	560.80
44.4508	572.99
44.4652	581.72
44.4797	588.73
44.4941	563.47
44.5085	563.89
44.5230	565.89
44.5374	586.72
44.5519	593.46
44.5663	575.64
44.5807	558.20
44.5952	603.50
44.6096	617.55
44.6241	590.96
44.6385	566.73
44.6529	537.59
44.6674	560.65
44.6818	560.45
44.6963	606.59
44.7107	640.50
44.7251	680.36
44.7396	768.44
44.7540	853.91
44.7685	866.93
44.7829	843.05
44.7973	897.46
44.8118	909.40
44.8262	818.62
44.8407	779.00
44.8551	730.25
44.8695	753.69
44.8840	770.82
44.8984	760.43
44.9129	767.45
44.9273	714.27
44.9417	639.23
44.9562	636.24
44.9706	617.50
44.9851	517.32
44.9995	512.73
45.0139	554.65
45.0284	556.55
45.0428	501.85
45.0573	551.92
45.0717	521.05
45.0861	532.68
45.1006	474.62
45.1150	530.23
45.1295	513.94
45.1439	499.45
45.1583	495.21
45.1728	508.89
45.1872	536.23
45.2017	515.54
45.2161	527.17
45.2305	510.89
45.2450	531.00
45.2594	495.84
45.2739	508.44
45.2883	510.66
45.3028	507.35
45.3172	489.86
45.3316	520.52
45.3461	493.26
45.3605	510.67
45.3750	530.58
45.3894	524.91
45.4038	480.63
45.4183	497.47
45.4327	557.17
45.4472	514.56
45.4616	499.28
45.4760	509.50
45.4905	529.45
45.5049	512.34
45.5194	468.05
45.5338	514.49
45.5482	485.13
45.5627	513.55
45.5771	506.34
45.5916	490.35
45.6060	489.82
45.6204	493.98
45.6349	486.11
45.6493	485.91
45.6638	481.04
45.6782	516.17
45.6926	504.16
45.7071	519.34
45.7215	506.54
45.7360	516.24
45.7504	543.34
45.7648	503.63
45.7793	501.74
45.7937	525.19
45.8082	514.59
45.8226	504.64
45.8370	508.06
45.8515	495.62
45.8659	518.25
45.8804	520.01
45.8948	541.24
45.9092	526.54
45.9237	476.12
45.9381	528.24
45.9526	532.46
45.9670	525.48
45.9814	487.37
45.9959	505.44
46.0103	483.32
46.0248	529.46
46.0392	472.96
46.0536	486.88
46.0681	486.14
46.0825	516.00
46.0970	527.49
46.1114	507.01
46.1258	528.02
46.1403	500.05
46.1547	508.66
46.1692	492.17
46.1836	515.68
46.1980	516.53
46.2125	495.45
46.2269	509.76
46.2414	518.52
46.2558	516.20
46.2702	521.35
46.2847	522.73
46.2991	487.04
46.3136	487.21
46.3280	507.59
46.3424	515.23
46.3569	531.54
46.3713	515.35
46.3858	508.27
46.4002	524.60
46.4146	511.18
46.4291	513.55
46.4435	505.55
46.4580	493.47
46.4724	517.03
46.4868	525.21
46.5013	514.72
46.5157	512.55
46.5302	498.30
46.5446	518.69
46.5590	512.24
46.5735	494.56
46.5879	505.45
46.6024	519.80
46.6168	489.94
46.6312	518.49
46.6457	506.20
46.6601	512.65
46.6746	494.92
46.6890	527.03
46.7034	539.55
46.7179	503.91
46.7323	476.13
46.7468	479.67
46.7612	479.76
46.7756	523.91
46.7901	501.14
46.8045	488.70
46.8190	495.13
46.8334	486.04
46.8478	510.49
46.8623	547.44
46.8767	514.39
46.8912	485.10
46.9056	481.73
46.9200	491.67
46.9345	508.16
46.9489	487.75
46.9634	506.01
46.9778	510.53
46.9922	530.29
47.0067	520.89
47.0211	492.56
47.0356	501.05
47.0500	525.18
47.0644	533.31
47.0789	535.90
47.0933	533.02
47.1078	506.74
47.1222	497.55
47.1366	492.39
47.1511	498.42
47.1655	505.11
47.1800	501.28
47.1944	515.22
47.2088	522.98
47.2233	513.54
47.2377	517.02
47.2522	504.00
47.2666	476.11
47.2810	466.13
47.2955	474.61
47.3099	511.08
47.3244	521.00
47.3388	519.99
47.3532	519.05
47.3677	477.50
47.3821	491.18
47.3966	498.51
47.4110	490.67
47.4254	513.54
47.4399	518.65
47.4543	498.24
47.4688	505.88
47.4832	525.33
47.4976	522.48
47.5121	519.07
47.5265	520.59
47.5410	508.83
47.5554	506.65
47.5698	483.81
47.5843	464.39
47.5987	483.41
47.6132	488.36
47.6276	498.92
47.6420	520.99
47.6565	506.23
47.6709	473.72
47.6854	477.18
47.6998	494.25
47.7142	524.13
47.7287	482.45
47.7431	497.36
47.7576	524.95
47.7720	498.17
47.7864	490.00
47.8009	503.84
47.8153	514.34
47.8298	534.89
47.8442	501.83
47.8586	499.15
47.8731	516.50
47.8875	526.93
47.9020	525.20
47.9164	538.92
47.9308	502.42
47.9453	513.47
47.9597	473.34
47.9742	450.78
47.9886	499.92
48.0030	490.52
48.0175	514.04
48.0319	540.32
48.0464	477.30
48.0608	499.83
48.0752	512.91
48.0897	506.59
48.1041	503.07
48.1186	536.70
48.1330	522.98
48.1474	495.24
48.1619	498.92
48.1763	502.44
48.1908	490.82
48.2052	502.63
48.2196	482.69
48.2341	502.34
48.2485	499.64
48.2630	476.74
48.2774	473.76
48.2918	537.15
48.3063	543.72
48.3207	508.28
48.3352	503.69
48.3496	510.55
48.3640	494.54
48.3785	527.11
48.3929	534.60
48.4074	524.35
48.4218	504.93
48.4362	508.41
48.4507	491.84
48.4651	461.84
48.4796	481.24
48.4940	529.11
48.5084	511.15
48.5229	502.99
48.5373	500.25
48.5518	516.62
48.5662	518.99
48.5806	516.56
48.5951	538.94
48.6095	548.57
48.6240	490.03
48.6384	542.32
48.6528	535.27
48.6673	525.21
48.6817	518.18
48.6962	509.80
48.7106	515.12
48.7250	534.00
48.7395	510.36
48.7539	539.09
48.7684	529.76
48.7828	525.91
48.7972	545.08
48.8117	553.08
48.8261	518.14
48.8406	534.36
48.8550	543.92
48.8694	518.83
48.8839	542.92
48.8983	562.51
48.9128	514.40
48.9272	542.91
48.9416	558.64
48.9561	561.86
48.9705	534.50
48.9850	568.53
48.9994	561.57
49.0139	580.65
49.0283	611.38
49.0427	611.92
49.0572	623.94
49.0716	619.62
49.0861	692.63
49.1005	684.18
49.1149	720.08
49.1294	728.46
49.1438	740.25
49.1583	806.71
49.1727	858.49
49.1871	863.78
49.2016	888.18
49.2160	958.22
49.2305	1099.68
49.2449	1130.88
49.2593	1192.70
49.2738	1397.20
49.2882	1458.61
49.3027	1520.30
49.3171	1602.29
49.3315	1685.53
49.3460	1760.41
49.3604	1748.35
49.3749	1788.93
49.3893	1699.22
49.4037	1707.24
49.4182	1766.08
49.4326	1754.24
49.4471	1627.96
49.4615	1652.82
49.4759	1488.44
49.4904	1450.80
49.5048	1416.48
49.5193	1316.33
49.5337	1332.60
49.5481	1208.02
49.5626	1164.33
49.5770	1046.00
49.5915	976.76
49.6059	942.05
49.6203	912.63
49.6348	838.05
49.6492	789.19
49.6637	757.97
49.6781	742.61
49.6925	717.69
49.7070	717.90
49.7214	642.41
49.7359	608.38
49.7503	623.59
49.7647	608.53
49.7792	605.59
49.7936	582.06
49.8081	586.42
49.8225	553.59
49.8369	585.50
49.8514	566.71
49.8658	590.03
49.8803	545.87
49.8947	540.27
49.9091	569.32
49.9236	543.11
49.9380	551.91
49.9525	564.20
49.9669	544.32
49.9813	574.66
49.9958	533.90
50.0102	501.14
50.0247	520.03
50.0391	498.00
50.0535	515.15
50.0680	512.83
50.0824	497.13
50.0969	531.85
50.1113	547.77
50.1257	540.65
50.1402	500.91
50.1546	514.51
50.1691	551.48
50.1835	562.79
50.1979	519.12
50.2124	519.51
50.2268	505.94
50.2413	521.27
50.2557	535.46
50.2701	512.66
50.2846	543.66
50.2990	486.25
50.3135	499.07
50.3279	502.39
50.3423	535.54
50.3568	498.89
50.3712	517.32
50.3857	501.65
50.4001	493.14
50.4145	482.83
50.4290	520.20
50.4434	526.00
50.4579	512.44
50.4723	552.19
50.4867	518.44
50.5012	485.29
50.5156	512.18
50.5301	492.97
50.5445	494.97
50.5589	501.41
50.5734	499.98
50.5878	520.87
50.6023	489.52
50.6167	478.07
50.6311	529.71
50.6456	511.73
50.6600	517.73
50.6745	512.90
50.6889	508.85
50.7033	515.50
50.7178	538.04
50.7322	522.37
50.7467	531.37
50.7611	513.16
50.7755	515.99
50.7900	513.81
50.8044	529.05
50.8189	495.36
50.8333	487.82
50.8477	498.89
50.8622	556.09
50.8766	501.28
50.8911	495.85
50.9055	493.66
50.9199	514.99
50.9344	470.35
50.9488	486.54
50.9633	505.71
50.9777	526.54
50.9921	542.20
51.0066	506.20
51.0210	536.50
51.0355	541.65
51.0499	513.70
51.0643	519.19
51.0788	529.26
51.0932	516.37
51.1077	501.03
51.1221	520.10
51.1365	528.45
51.1510	502.07
51.1654	500.62
51.1799	529.75
51.1943	506.54
51.2087	528.69
51.2232	485.07
51.2376	489.97
51.2521	509.18
51.2665	517.83
51.2809	504.92
51.2954	504.93
51.3098	535.08
51.3243	546.15
51.3387	542.03
51.3531	523.15
51.3676	531.77
51.3820	508.13
51.3965	502.86
51.4109	521.47
51.4253	527.47
51.4398	490.92
51.4542	515.06
51.4687	507.57
51.4831	525.76
51.4975	511.24
51.5120	510.17
51.5264	511.34
51.5409	513.96
51.5553	530.95
51.5697	516.04
51.5842	515.98
51.5986	504.81
51.6131	500.67
51.6275	510.63
51.6419	523.28
51.6564	500.67
51.6708	496.50
51.6853	505.17
51.6997	516.55
51.7141	545.48
51.7286	535.91
51.7430	509.96
51.7575	516.67
51.7719	496.29
51.7863	528.48
51.8008	519.53
51.8152	526.57
51.8297	511.33
51.8441	538.88
51.8585	501.34
51.8730	493.48
51.8874	496.39
51.9019	506.82
51.9163	515.35
51.9307	492.41
51.9452	495.03
51.9596	513.06
51.9741	495.55
51.9885	527.07
52.0029	498.07
52.0174	485.12
52.0318	493.45
52.0463	539.96
52.0607	518.58
52.0751	533.13
52.0896	515.88
52.1040	494.73
52.1185	510.07
52.1329	524.98
52.1473	511.31
52.1618	483.82
52.1762	499.04
52.1907	507.65
52.2051	498.86
52.2195	543.40
52.2340	515.44
52.2484	514.82
52.2629	500.78
52.2773	519.34
52.2917	498.48
52.3062	481.07
52.3206	489.59
52.3351	523.99
52.3495	529.00
52.3639	541.66
52.3784	512.57
52.3928	493.60
52.4073	517.21
52.4217	516.85
52.4361	497.19
52.4506	488.06
52.4650	550.48
52.4795	552.51
52.4939	546.56
52.5083	525.70
52.5228	549.78
52.5372	540.20
52.5517	501.38
52.5661	542.83
52.5805	525.41
52.5950	552.06
52.6094	530.92
52.6239	519.09
52.6383	537.63
52.6527	526.18
52.6672	520.09
52.6816	514.65
52.6961	488.71
52.7105	541.94
52.7250	516.02
52.7394	504.97
52.7538	532.53
52.7683	502.11
52.7827	496.30
52.7972	509.42
52.8116	493.15
52.8260	496.70
52.8405	474.37
52.8549	484.38
52.8694	491.05
52.8838	500.99
52.8982	556.08
52.9127	534.69
52.9271	538.88
52.9416	533.79
52.9560	496.67
52.9704	489.95
52.9849	454.62
52.9993	499.60
53.0138	505.70
53.0282	516.07
53.0426	483.84
53.0571	565.00
53.0715	515.63
53.0860	533.53
53.1004	506.58
53.1148	517.28
53.1293	559.01
53.1437	550.74
53.1582	504.91
53.1726	529.55
53.1870	519.04
53.2015	522.72
53.2159	510.21
53.2304	491.79
53.2448	493.46
53.2592	550.03
53.2737	531.52
53.2881	512.37
53.3026	481.39
53.3170	493.86
53.3314	529.84
53.3459	484.94
53.3603	505.23
53.3748	487.56
53.3892	488.13
53.4036	495.47
53.4181	513.50
53.4325	533.17
53.4470	534.31
53.4614	530.75
53.4758	523.38
53.4903	523.73
53.5047	542.75
53.5192	546.20
53.5336	516.90
53.5480	498.69
53.5625	503.34
53.5769	556.67
53.5914	506.94
53.6058	491.39
53.6202	529.10
53.6347	527.42
53.6491	532.58
53.6636	519.57
53.6780	528.93
53.6924	508.71
53.7069	530.42
53.7213	516.97
53.7358	522.23
53.7502	533.01
53.7646	522.07
53.7791	507.35
53.7935	489.49
53.8080	521.56
53.8224	522.20
53.8368	524.88
53.8513	510.15
53.8657	557.49
53.8802	502.15
53.8946	460.84
53.9090	494.56
53.9235	526.66
53.9379	536.44
53.9524	544.23
53.9668	497.91
53.9812	514.07
53.9957	516.48
54.0101	474.89
54.0246	505.81
54.0390	506.28
54.0534	539.95
54.0679	525.71
54.0823	484.50
54.0968	522.01
54.1112	559.22
54.1256	580.14
54.1401	506.91
54.1545	517.68
54.1690	534.51
54.1834	539.43
54.1978	539.72
54.2123	544.77
54.2267	521.33
54.2412	528.35
54.2556	543.01
54.2700	557.65
54.2845	560.24
54.2989	531.02
54.3134	517.07
54.3278	564.02
54.3422	573.26
54.3567	548.52
54.3711	548.84
54.3856	574.39
54.4000	588.60
54.4144	618.02
54.4289	582.07
54.4433	602.98
54.4578	625.66
54.4722	616.21
54.4866	617.27
54.5011	613.64
54.5155	642.38
54.5300	619.98
54.5444	567.93
54.5588	590.75
54.5733	581.29
54.5877	606.56
54.6022	589.54
54.6166	563.74
54.6310	590.08
54.6455	559.11
54.6599	568.41
54.6744	566.35
54.6888	523.73
54.7032	539.29
54.7177	547.89
54.7321	534.59
54.7466	575.53
54.7610	538.03
54.7754	542.85
54.7899	559.54
54.8043	544.64
54.8188	558.46
54.8332	545.58
54.8476	561.43
54.8621	569.25
54.8765	520.21
54.8910	526.93
54.9054	543.10
54.9198	539.92
54.9343	510.30
54.9487	501.41
54.9632	499.51
54.9776	537.64
54.9920	538.97
55.0065	534.63
55.0209	554.34
55.0354	553.54
55.0498	507.64
55.0642	553.94
55.0787	561.15
55.0931	510.92
55.1076	526.89
55.1220	528.87
55.1364	496.85
55.1509	502.99
55.1653	520.69
55.1798	496.34
55.1942	516.16
55.2086	541.93
55.2231	520.67
55.2375	506.74
55.2520	529.16
55.2664	497.64
55.2808	509.78
55.2953	525.05
55.3097	554.12
55.3242	535.90
55.3386	552.24
55.3530	541.87
55.3675	514.38
55.3819	528.68
55.3964	510.82
55.4108	548.71
55.4252	535.26
55.4397	538.26
55.4541	535.40
55.4686	540.84
55.4830	524.99
55.4974	494.24
55.5119	498.76
55.5263	523.74
55.5408	534.85
55.5552	527.14
55.5696	509.19
55.5841	515.00
55.5985	530.99
55.6130	522.23
55.6274	487.38
55.6418	554.88
55.6563	534.79
55.6707	521.21
55.6852	509.40
55.6996	541.08
55.7140	558.48
55.7285	556.96
55.7429	522.41
55.7574	536.44
55.7718	500.57
55.7862	519.21
55.8007	527.53
55.8151	499.47
55.8296	535.47
55.8440	529.03
55.8584	545.67
55.8729	516.88
55.8873	507.21
55.9018	558.42
55.9162	564.12
55.9306	539.52
55.9451	545.87
55.9595	546.42
55.9740	517.74
55.9884	484.07
56.0028	483.95
56.0173	475.95
56.0317	515.09
56.0462	522.18
56.0606	486.08
56.0750	522.68
56.0895	552.24
56.1039	550.64
56.1184	535.29
56.1328	553.15
56.1472	514.50
56.1617	535.61
56.1761	572.84
56.1906	529.92
56.2050	534.42
56.2194	513.68
56.2339	490.88
56.2483	517.51
56.2628	508.16
56.2772	547.75
56.2916	504.93
56.3061	499.39
56.3205	501.78
56.3350	504.53
56.3494	528.00
56.3639	488.99
56.3783	534.40
56.3927	528.22
56.4072	530.77
56.4216	537.07
56.4361	517.84
56.4505	512.01
56.4649	515.92
56.4794	479.83
56.4938	491.53
56.5083	514.02
56.5227	540.47
56.5371	524.22
56.5516	510.41
56.5660	512.19
56.5805	517.87
56.5949	520.24
56.6093	536.04
56.6238	488.29
56.6382	508.55
56.6527	506.21
56.6671	507.54
56.6815	534.67
56.6960	514.44
56.7104	553.14
56.7249	533.45
56.7393	531.13
56.7537	528.05
56.7682	520.48
56.7826	513.52
56.7971	514.29
56.8115	524.33
56.8259	550.83
56.8404	532.16
56.8548	531.19
56.8693	564.21
56.8837	540.47
56.8981	523.18
56.9126	509.91
56.9270	509.30
56.9415	540.54
56.9559	485.32
56.9703	537.70
56.9848	534.63
56.9992	505.16
57.0137	550.51
57.0281	547.25
57.0425	521.64
57.0570	542.64
57.0714	482.91
57.0859	520.01
57.1003	512.49
57.1147	534.07
57.1292	545.69
57.1436	529.47
57.1581	520.04
57.1725	529.25
57.1869	504.70
57.2014	484.63
57.2158	530.26
57.2303	541.09
57.2447	544.78
57.2591	564.43
57.2736	564.17
57.2880	505.91
57.3025	562.97
57.3169	552.54
57.3313	532.56
57.3458	533.30
57.3602	535.76
57.3747	545.72
57.3891	534.30
57.4035	553.08
57.4180	544.19
57.4324	537.97
57.4469	495.11
57.4613	535.20
57.4757	518.10
57.4902	515.36
57.5046	532.35
57.5191	519.66
57.5335	516.09
57.5479	535.40
57.5624	501.68
57.5768	526.13
57.5913	525.42
57.6057	525.40
57.6201	511.03
57.6346	529.90
57.6490	524.67
57.6635	534.05
57.6779	527.75
57.6923	532.25
57.7068	550.93
57.7212	541.97
57.7357	541.77
57.7501	564.23
57.7645	544.59
57.7790	535.64
57.7934	547.50
57.8079	543.71
57.8223	550.59
57.8367	571.42
57.8512	552.42
57.8656	539.20
57.8801	562.87
57.8945	561.83
57.9089	549.71
57.9234	530.37
57.9378	543.23
57.9523	600.60
57.9667	621.99
57.9811	635.84
57.9956	651.38
58.0100	617.39
58.0245	633.20
58.0389	667.66
58.0533	669.82
58.0678	729.44
58.0822	682.23
58.0967	685.91
58.1111	695.26
58.1255	673.67
58.1400	656.96
58.1544	659.79
58.1689	676.94
58.1833	667.25
58.1977	674.90
58.2122	662.06
58.2266	665.99
58.2411	675.19
58.2555	668.84
58.2699	663.28
58.2844	664.81
58.2988	655.22
58.3133	634.99
58.3277	577.24
58.3421	587.11
58.3566	581.61
58.3710	568.22
58.3855	563.61
58.3999	560.16
58.4143	568.09
58.4288	589.75
58.4432	530.70
58.4577	545.27
58.4721	566.07
58.4865	594.72
58.5010	561.59
58.5154	554.02
58.5299	512.77
58.5443	517.54
58.5587	529.32
58.5732	540.84
58.5876	528.19
58.6021	537.03
58.6165	528.17
58.6309	512.78
58.6454	535.51
58.6598	550.25
58.6743	531.57
58.6887	507.48
58.7031	540.29
58.7176	538.19
58.7320	530.36
58.7465	523.49
58.7609	536.56
58.7753	542.32
58.7898	563.42
58.8042	545.71
58.8187	536.19
58.8331	560.15
58.8475	532.77
58.8620	543.55
58.8764	534.96
58.8909	509.20
58.9053	580.38
58.9197	559.32
58.9342	524.28
58.9486	517.40
58.9631	511.30
58.9775	526.75
58.9919	535.85
59.0064	498.49
59.0208	522.76
59.0353	531.24
59.0497	545.24
59.0641	553.99
59.0786	525.00
59.0930	547.90
59.1075	531.56
59.1219	525.45
59.1363	525.43
59.1508	513.97
59.1652	532.20
59.1797	529.43
59.1941	532.77
59.2085	546.13
59.2230	543.64
59.2374	584.95
59.2519	604.02
59.2663	528.04
59.2807	535.52
59.2952	530.24
59.3096	550.51
59.3241	583.22
59.3385	586.90
59.3529	588.29
59.3674	549.85
59.3818	563.86
59.3963	548.86
59.4107	564.48
59.4251	575.35
59.4396	559.18
59.4540	560.80
59.4685	597.35
59.4829	592.88
59.4973	581.46
59.5118	570.33
59.5262	555.64
59.5407	553.36
59.5551	537.06
59.5695	555.10
59.5840	534.40
59.5984	570.52
59.6129	572.42
59.6273	527.19
59.6417	530.90
59.6562	516.75
59.6706	523.94
59.6851	510.57
59.6995	526.07
59.7139	530.48
59.7284	513.40
59.7428	521.35
59.7573	524.78
59.7717	557.13
59.7861	588.85
59.8006	526.49
59.8150	528.84
59.8295	540.39
59.8439	561.98
59.8583	532.66
59.8728	530.38
59.8872	507.42
59.9017	556.66
59.9161	564.45
59.9305	529.62
59.9450	542.60
59.9594	526.43
59.9739	592.21
59.9883	544.75
60.0027	513.02
60.0172	546.18
60.0316	558.53
60.0461	528.41
60.0605	579.40
60.0750	530.94
60.0894	571.70
60.1038	549.15
60.1183	543.95
60.1327	533.57
60.1472	541.92
60.1616	513.58
60.1760	553.32
60.1905	554.86
60.2049	534.60
60.2194	514.71
60.2338	538.07
60.2482	550.84
60.2627	565.48
60.2771	564.52
60.2916	539.09
60.3060	509.43
60.3204	525.55
60.3349	540.30
60.3493	479.45
60.3638	519.10
60.3782	563.53
60.3926	539.94
60.4071	525.21
60.4215	514.73
60.4360	529.44
60.4504	507.42
60.4648	569.64
60.4793	545.60
60.4937	556.92
60.5082	530.93
60.5226	517.65
60.5370	552.74
60.5515	535.53
60.5659	580.35
60.5804	542.94
60.5948	523.24
60.6092	536.13
60.6237	512.80
60.6381	525.71
60.6526	505.40
60.6670	581.44
60.6814	545.97
60.6959	542.43
60.7103	528.92
60.7248	557.22
60.7392	566.77
60.7536	509.22
60.7681	514.13
60.7825	530.63
60.7970	540.24
60.8114	556.62
60.8258	557.83
60.8403	553.06
60.8547	527.29
60.8692	519.22
60.8836	552.94
60.8980	527.29
60.9125	547.20
60.9269	575.36
60.9414	557.70
60.9558	553.64
60.9702	535.94
60.9847	512.99
60.9991	582.12
61.0136	557.06
61.0280	523.57
61.0424	526.47
61.0569	523.21
61.0713	571.77
61.0858	568.39
61.1002	546.81
61.1146	552.91
61.1291	561.82
61.1435	558.01
61.1580	573.92
61.1724	546.95
61.1868	521.57
61.2013	536.75
61.2157	586.41
61.2302	537.38
61.2446	517.85
61.2590	521.08
61.2735	551.80
61.2879	569.36
61.3024	575.40
61.3168	530.78
61.3312	519.23
61.3457	552.49
61.3601	512.87
61.3746	561.27
61.3890	539.38
61.4034	551.54
61.4179	594.91
61.4323	567.62
61.4468	579.49
61.4612	575.97
61.4756	553.81
61.4901	527.15
61.5045	538.01
61.5190	537.47
61.5334	527.60
61.5478	535.53
61.5623	559.57
61.5767	552.87
61.5912	546.55
61.6056	527.87
61.6200	553.17
61.6345	607.90
61.6489	541.23
61.6634	529.95
61.6778	541.82
61.6922	555.20
61.7067	577.73
61.7211	573.40
61.7356	535.67
61.7500	574.68
61.7644	516.85
61.7789	580.01
61.7933	581.75
61.8078	565.31
61.8222	550.41
61.8366	552.58
61.8511	521.32
61.8655	540.69
61.8800	539.06
61.8944	589.92
61.9088	585.80
61.9233	534.91
61.9377	549.17
61.9522	547.58
61.9666	557.64
61.9810	505.14
61.9955	525.78
62.0099	542.71
62.0244	564.36
62.0388	558.15
62.0532	555.76
62.0677	541.84
62.0821	533.84
62.0966	566.47
62.1110	561.44
62.1254	552.38
62.1399	528.97
62.1543	534.81
62.1688	562.74
62.1832	570.03
62.1976	569.55
62.2121	553.70
62.2265	566.37
62.2410	560.65
62.2554	566.65
62.2698	544.48
62.2843	565.63
62.2987	570.13
62.3132	570.52
62.3276	574.67
62.3420	548.94
62.3565	524.45
62.3709	555.73
62.3854	572.91
62.3998	556.91
62.4142	532.38
62.4287	549.45
62.4431	538.45
62.4576	549.16
62.4720	560.80
62.4864	552.62
62.5009	571.24
62.5153	559.96
62.5298	545.30
62.5442	567.54
62.5586	535.68
62.5731	555.84
62.5875	552.44
62.6020	548.99
62.6164	536.54
62.6308	550.55
62.6453	553.63
62.6597	547.82
62.6742	581.13
62.6886	556.04
62.7030	591.71
62.7175	558.23
62.7319	531.61
62.7464	533.40
62.7608	545.81
62.7752	568.66
62.7897	574.55
62.8041	582.24
62.8186	625.97
62.8330	597.25
62.8474	569.17
62.8619	563.77
62.8763	580.01
62.8908	564.15
62.9052	583.72
62.9196	561.17
62.9341	589.07
62.9485	558.66
62.9630	534.77
62.9774	557.25
62.9918	590.30
63.0063	578.51
63.0207	582.33
63.0352	589.89
63.0496	598.71
63.0640	597.60
63.0785	577.63
63.0929	545.17
63.1074	538.03
63.1218	593.44
63.1362	583.71
63.1507	595.10
63.1651	604.95
63.1796	586.80
63.1940	573.99
63.2084	569.97
63.2229	562.20
63.2373	587.47
63.2518	580.22
63.2662	557.30
63.2806	606.28
63.2951	595.68
63.3095	574.90
63.3240	598.34
63.3384	590.26
63.3528	573.41
63.3673	576.56
63.3817	599.47
63.3962	583.39
63.4106	563.81
63.4250	593.09
63.4395	590.50
63.4539	566.82
63.4684	588.27
63.4828	582.58
63.4972	581.24
63.5117	588.01
63.5261	597.92
63.5406	633.97
63.5550	631.91
63.5694	628.83
63.5839	614.16
63.5983	621.31
63.6128	654.14
63.6272	633.12
63.6416	661.66
63.6561	715.30
63.6705	702.32
63.6850	672.29
63.6994	739.71
63.7138	754.76
63.7283	763.64
63.7427	825.39
63.7572	845.57
63.7716	895.18
63.7861	907.06
63.8005	896.40
63.8149	858.98
63.8294	863.92
63.8438	807.81
63.8583	807.75
63.8727	809.61
63.8871	775.21
63.9016	784.64
63.9160	786.80
63.9305	747.78
63.9449	774.76
63.9593	783.85
63.9738	716.30
63.9882	729.73
64.0027	762.66
64.0171	743.41
64.0315	750.67
64.0460	753.70
64.0604	686.17
64.0749	676.30
64.0893	711.15
64.1037	695.14
64.1182	693.98
64.1326	703.98
64.1471	632.44
64.1615	649.47
64.1759	636.82
64.1904	632.81
64.2048	622.07
64.2193	631.75
64.2337	649.78
64.2481	615.30
64.2626	599.34
64.2770	613.98
64.2915	601.73
64.3059	638.86
64.3203	624.87
64.3348	645.70
64.3492	629.78
64.3637	641.89
64.3781	640.00
64.3925	608.12
64.4070	615.23
64.4214	629.06
64.4359	604.75
64.4503	616.80
64.4647	607.81
64.4792	617.27
64.4936	628.13
64.5081	644.52
64.5225	647.83
64.5369	626.13
64.5514	654.07
64.5658	672.61
64.5803	635.75
64.5947	645.13
64.6091	631.28
64.6236	657.89
64.6380	683.87
64.6525	688.11
64.6669	638.31
64.6813	652.27
64.6958	655.42
64.7102	726.05
64.7247	716.46
64.7391	706.62
64.7535	721.00
64.7680	714.17
64.7824	725.13
64.7969	713.29
64.8113	764.98
64.8257	795.54
64.8402	769.89
64.8546	772.40
64.8691	824.57
64.8835	864.49
64.8979	878.28
64.9124	897.10
64.9268	886.32
64.9413	975.24
64.9557	950.65
64.9701	944.18
64.9846	1055.64
64.9990	1135.13
65.0135	1316.88
65.0279	1492.74
65.0423	1718.20
65.0568	2070.21
65.0712	2710.91
65.0857	3416.21
65.1001	4477.97
65.1145	6224.66
65.1290	8131.92
65.1434	9472.91
65.1579	11149.24
65.1723	11876.95
65.1867	11314.92
65.2012	10081.90
65.2156	8469.99
65.2301	6531.45
65.2445	5307.95
65.2589	4416.94
65.2734	4196.63
65.2878	4399.53
65.3023	5030.39
65.3167	5840.29
65.3311	6639.98
65.3456	7052.12
65.3600	6951.88
65.3745	6466.62
65.3889	5511.12
65.4033	4457.21
65.4178	3545.64
65.4322	2751.62
65.4467	2076.18
65.4611	1726.26
65.4755	1487.41
65.4900	1343.98
65.5044	1168.61
65.5189	997.51
65.5333	1002.35
65.5477	932.47
65.5622	934.44
65.5766	877.72
65.5911	848.47
65.6055	817.49
65.6199	824.02
65.6344	787.71
65.6488	754.01
65.6633	755.72
65.6777	735.94
65.6921	683.04
65.7066	726.00
65.7210	699.47
65.7355	693.66
65.7499	701.20
65.7643	702.40
65.7788	734.66
65.7932	681.82
65.8077	711.64
65.8221	679.48
65.8365	690.00
65.8510	687.83
65.8654	667.73
65.8799	585.56
65.8943	661.45
65.9087	664.03
65.9232	698.56
65.9376	668.28
65.9521	652.04
65.9665	658.56
65.9809	659.26
65.9954	677.48
66.0098	637.37
66.0243	673.71
66.0387	615.46
66.0531	628.48
66.0676	653.23
66.0820	680.85
66.0965	654.35
66.1109	615.63
66.1253	643.91
66.1398	614.07
66.1542	602.83
66.1687	620.34
66.1831	625.43
66.1975	627.58
66.2120	600.74
66.2264	597.58
66.2409	638.04
66.2553	605.40
66.2697	643.63
66.2842	629.38
66.2986	591.31
66.3131	598.50
66.3275	610.44
66.3419	612.95
66.3564	592.57
66.3708	591.44
66.3853	612.90
66.3997	620.26
66.4141	644.21
66.4286	574.88
66.4430	589.62
66.4575	565.53
66.4719	609.61
66.4863	596.07
66.5008	589.59
66.5152	600.63
66.5297	591.11
66.5441	589.28
66.5585	598.79
66.5730	592.84
66.5874	623.41
66.6019	634.29
66.6163	618.36
66.6307	606.88
66.6452	589.07
66.6596	585.64
66.6741	580.38
66.6885	595.17
66.7029	619.13
66.7174	626.64
66.7318	588.99
66.7463	574.34
66.7607	593.82
66.7751	556.39
66.7896	573.76
66.8040	594.35
66.8185	606.47
66.8329	576.87
66.8473	589.90
66.8618	607.60
66.8762	596.11
66.8907	559.12
66.9051	587.75
66.9195	595.24
66.9340	614.14
66.9484	596.06
66.9629	585.31
66.9773	576.55
66.9917	585.30
67.0062	615.26
67.0206	608.75
67.0351	588.88
67.0495	580.80
67.0639	570.30
67.0784	575.84
67.0928	591.34
67.1073	583.95
67.1217	610.98
67.1361	569.91
67.1506	545.08
67.1650	598.21
67.1795	571.24
67.1939	554.77
67.2083	563.21
67.2228	570.65
67.2372	583.43
67.2517	555.16
67.2661	548.66
67.2805	597.01
67.2950	573.34
67.3094	589.42
67.3239	566.38
67.3383	593.25
67.3527	572.29
67.3672	568.96
67.3816	572.72
67.3961	546.37
67.4105	549.91
67.4250	610.53
67.4394	633.11
67.4538	599.44
67.4683	566.04
67.4827	572.81
67.4972	565.30
67.5116	585.49
67.5260	602.20
67.5405	569.00
67.5549	550.63
67.5694	560.83
67.5838	597.05
67.5982	615.00
67.6127	570.98
67.6271	552.44
67.6416	573.73
67.6560	566.29
67.6704	564.79
67.6849	562.35
67.6993	586.90
67.7138	577.44
67.7282	563.20
67.7426	577.21
67.7571	591.77
67.7715	583.32
67.7860	571.65
67.8004	581.92
67.8148	577.80
67.8293	577.09
67.8437	579.53
67.8582	603.98
67.8726	598.18
67.8870	579.83
67.9015	598.35
67.9159	576.03
67.9304	580.53
67.9448	584.08
67.9592	546.82
67.9737	581.61
67.9881	574.47
68.0026	572.89
68.0170	594.93
68.0314	611.07
68.0459	568.20
68.0603	581.52
68.0748	574.44
68.0892	575.36
68.1036	596.32
68.1181	560.50
68.1325	565.34
68.1470	556.50
68.1614	613.71
68.1758	634.02
68.1903	546.69
68.2047	582.24
68.2192	579.72
68.2336	596.76
68.2480	610.93
68.2625	578.16
68.2769	579.16
68.2914	584.10
68.3058	579.00
68.3202	608.24
68.3347	593.43
68.3491	564.36
68.3636	536.48
68.3780	561.58
68.3924	540.72
68.4069	557.25
68.4213	561.08
68.4358	610.03
68.4502	567.18
68.4646	567.57
68.4791	649.77
68.4935	560.47
68.5080	557.48
68.5224	554.36
68.5368	543.45
68.5513	544.00
68.5657	549.90
68.5802	550.99
68.5946	558.92
68.6090	562.99
68.6235	553.91
68.6379	565.16
68.6524	555.14
68.6668	549.58
68.6812	564.79
68.6957	556.85
68.7101	587.99
68.7246	572.00
68.7390	590.14
68.7534	588.60
68.7679	571.37
68.7823	579.52
68.7968	567.17
68.8112	591.91
68.8256	614.60
68.8401	561.97
68.8545	564.15
68.8690	603.17
68.8834	533.06
68.8978	564.44
68.9123	580.55
68.9267	567.38
68.9412	545.78
68.9556	576.53
68.9700	611.07
68.9845	578.77
68.9989	593.48
69.0134	555.70
69.0278	544.92
69.0422	575.09
69.0567	575.91
69.0711	627.65
69.0856	566.16
69.1000	553.79
69.1144	563.68
69.1289	549.84
69.1433	542.04
69.1578	567.78
69.1722	583.27
69.1866	547.39
69.2011	576.39
69.2155	567.46
69.2300	599.10
69.2444	618.84
69.2588	568.97
69.2733	566.92
69.2877	602.73
69.3022	591.83
69.3166	567.03
69.3310	545.73
69.3455	561.01
69.3599	609.49
69.3744	584.70
69.3888	536.60
69.4032	557.63
69.4177	567.34
69.4321	555.96
69.4466	578.02
69.4610	561.17
69.4754	565.95
69.4899	580.37
69.5043	562.64
69.5188	593.10
69.5332	578.37
69.5476	624.02
69.5621	553.65
69.5765	551.16
69.5910	545.74
69.6054	532.30
69.6198	550.08
69.6343	590.68
69.6487	565.17
69.6632	601.59
69.6776	548.03
69.6920	576.65
69.7065	603.25
69.7209	540.31
69.7354	567.93
69.7498	537.26
69.7642	566.03
69.7787	548.81
69.7931	568.85
69.8076	623.48
69.8220	593.72
69.8364	623.62
69.8509	560.48
69.8653	563.18
69.8798	520.72
69.8942	562.93
69.9086	520.28
69.9231	608.91
69.9375	589.84
69.9520	620.11
69.9664	558.93
69.9808	529.26
69.9953	534.17
70.0097	619.64
70.0242	532.34
70.0386	562.57
70.0530	554.97
70.0675	589.86
70.0819	594.28
70.0964	566.96
70.1108	580.82
70.1252	559.62
70.1397	528.20
70.1541	560.86
70.1686	599.56
70.1830	601.06
70.1974	567.78
70.2119	608.80
70.2263	582.96
70.2408	548.68
70.2552	563.53
70.2696	561.55
70.2841	588.98
70.2985	568.54
70.3130	552.15
70.3274	551.88
70.3418	623.13
70.3563	576.49
70.3707	549.17
70.3852	525.59
70.3996	582.19
70.4140	587.39
70.4285	628.02
70.4429	571.20
70.4574	544.43
70.4718	564.63
70.4862	583.43
70.5007	554.98
70.5151	601.18
70.5296	611.06
70.5440	598.92
70.5584	592.15
70.5729	558.31
70.5873	579.53
70.6018	565.88
70.6162	563.81
70.6306	579.48
70.6451	641.10
70.6595	622.81
70.6740	636.52
70.6884	562.00
70.7028	574.60
70.7173	567.18
70.7317	606.16
70.7462	639.32
70.7606	564.04
70.7750	545.05
70.7895	573.11
70.8039	572.18
70.8184	570.57
70.8328	603.65
70.8472	615.81
70.8617	608.51
70.8761	640.00
70.8906	578.66
70.9050	561.25
70.9194	559.63
70.9339	571.34
70.9483	558.17
70.9628	558.94
70.9772	608.08
70.9916	553.97
71.0061	522.51
71.0205	547.74
71.0350	559.36
71.0494	554.08
71.0638	567.80
71.0783	590.39
71.0927	532.35
71.1072	544.07
71.1216	614.76
71.1361	587.82
71.1505	591.49
71.1649	580.06
71.1794	566.40
71.1938	563.93
71.2083	548.71
71.2227	562.20
71.2371	578.46
71.2516	531.50
71.2660	566.74
71.2805	590.17
71.2949	570.17
71.3093	560.94
71.3238	557.87
71.3382	568.49
71.3527	615.75
71.3671	571.87
71.3815	553.75
71.3960	553.01
71.4104	532.74
71.4249	588.74
71.4393	598.30
71.4537	596.34
71.4682	602.74
71.4826	577.17
71.4971	581.58
71.5115	585.28
71.5259	554.13
71.5404	536.21
71.5548	536.59
71.5693	516.96
71.5837	487.23
71.5981	552.57
71.6126	587.24
71.6270	586.15
71.6415	574.49
71.6559	548.13
71.6703	576.02
71.6848	563.31
71.6992	569.84
71.7137	576.86
71.7281	562.43
71.7425	552.35
71.7570	567.15
71.7714	545.15
71.7859	542.46
71.8003	609.71
71.8147	640.92
71.8292	592.81
71.8436	554.00
71.8581	563.94
71.8725	639.75
71.8869	609.86
71.9014	597.83
71.9158	689.10
71.9303	607.97
71.9447	558.19
71.9591	559.14
71.9736	517.68
71.9880	585.09
72.0025	570.09
72.0169	508.50
72.0313	592.23
72.0458	599.13
72.0602	541.45
72.0747	520.19
72.0891	563.67
72.1035	652.29
72.1180	638.62
72.1324	608.08
72.1469	593.26
72.1613	586.59
72.1757	586.59
72.1902	598.62
72.2046	576.93
72.2191	520.94
72.2335	508.01
72.2479	516.09
72.2624	527.25
72.2768	524.16
72.2913	522.15
72.3057	521.47
72.3201	568.62
72.3346	553.79
72.3490	597.41
72.3635	583.27
72.3779	550.34
72.3923	585.56
72.4068	606.49
72.4212	702.19
72.4357	745.02
72.4501	642.80
72.4645	599.73
72.4790	563.82
72.4934	623.05
72.5079	656.24
72.5223	573.19
72.5367	556.30
72.5512	684.27
72.5656	706.22
72.5801	582.81
72.5945	542.74
72.6089	568.80
72.6234	622.18
72.6378	596.67
72.6523	553.00
72.6667	491.72
72.6811	465.09
72.6956	541.11
72.7100	613.37
72.7245	613.74
72.7389	562.33
72.7533	594.16
72.7678	622.87
72.7822	577.43
72.7967	569.14
72.8111	563.80
72.8255	545.70
72.8400	503.96
72.8544	491.77
72.8689	508.33
72.8833	607.75