2022.09.19 19:37:16
Îáðàçåö: ß÷åéêà LCoV 16-09-2022
Lambda1 = 1.54060
Lambda2 = 1.54439
Lambdam = 1.54186
R = 0.497
2Theta	I

line¹ 0 ;repeat¹ 0
22.1120	609.10
22.1264	527.07
22.1409	543.40
22.1553	482.27
22.1697	517.95
22.1842	551.67
22.1986	590.44
22.2131	572.41
22.2275	590.05
22.2419	595.39
22.2564	565.16
22.2708	635.68
22.2853	608.75
22.2997	525.67
22.3141	586.66
22.3286	626.79
22.3430	608.18
22.3575	695.01
22.3719	582.73
22.3863	559.03
22.4008	586.56
22.4152	555.58
22.4297	641.03
22.4441	617.27
22.4585	578.16
22.4730	583.53
22.4874	590.39
22.5019	624.96
22.5163	597.74
22.5307	567.12
22.5452	565.64
22.5596	633.64
22.5741	563.37
22.5885	626.85
22.6029	635.94
22.6174	617.51
22.6318	535.33
22.6463	639.31
22.6607	585.54
22.6751	516.08
22.6896	547.78
22.7040	630.42
22.7185	564.65
22.7329	564.59
22.7473	636.50
22.7618	592.17
22.7762	586.91
22.7907	613.73
22.8051	570.31
22.8195	504.62
22.8340	535.39
22.8484	594.66
22.8629	489.06
22.8773	565.08
22.8917	585.15
22.9062	580.84
22.9206	555.05
22.9351	498.75
22.9495	566.44
22.9639	604.87
22.9784	667.61
22.9928	551.29
23.0073	503.53
23.0217	600.65
23.0361	488.64
23.0506	524.09
23.0650	567.05
23.0795	542.56
23.0939	581.98
23.1083	498.98
23.1228	564.84
23.1372	503.59
23.1517	568.27
23.1661	564.08
23.1806	614.13
23.1950	574.88
23.2094	599.54
23.2239	522.03
23.2383	622.83
23.2528	601.73
23.2672	475.98
23.2816	537.50
23.2961	529.70
23.3105	591.29
23.3250	554.74
23.3394	612.94
23.3538	599.51
23.3683	584.98
23.3827	579.53
23.3972	538.89
23.4116	582.56
23.4260	606.45
23.4405	505.79
23.4549	545.43
23.4694	613.46
23.4838	584.69
23.4982	582.78
23.5127	530.98
23.5271	562.59
23.5416	583.34
23.5560	598.84
23.5704	505.07
23.5849	551.46
23.5993	628.39
23.6138	557.32
23.6282	505.65
23.6426	556.64
23.6571	548.45
23.6715	492.30
23.6860	495.91
23.7004	591.55
23.7148	534.97
23.7293	544.78
23.7437	485.07
23.7582	496.25
23.7726	531.88
23.7870	516.45
23.8015	584.62
23.8159	570.70
23.8304	532.10
23.8448	537.03
23.8592	576.48
23.8737	578.82
23.8881	563.69
23.9026	673.19
23.9170	568.62
23.9314	538.57
23.9459	514.08
23.9603	465.70
23.9748	629.47
23.9892	549.31
24.0036	492.16
24.0181	498.34
24.0325	551.72
24.0470	581.47
24.0614	585.42
24.0758	552.68
24.0903	532.52
24.1047	502.02
24.1192	568.55
24.1336	571.98
24.1480	568.69
24.1625	547.27
24.1769	605.80
24.1914	564.65
24.2058	530.95
24.2202	623.53
24.2347	582.02
24.2491	601.03
24.2636	542.75
24.2780	626.90
24.2924	595.98
24.3069	604.28
24.3213	532.70
24.3358	588.00
24.3502	555.47
24.3646	537.26
24.3791	500.16
24.3935	569.04
24.4080	522.59
24.4224	568.66
24.4368	539.37
24.4513	555.49
24.4657	569.04
24.4802	579.18
24.4946	484.29
24.5090	510.73
24.5235	549.35
24.5379	581.78
24.5524	598.45
24.5668	559.48
24.5812	559.32
24.5957	574.17
24.6101	562.63
24.6246	579.63
24.6390	528.62
24.6534	546.78
24.6679	555.09
24.6823	499.02
24.6968	563.23
24.7112	591.60
24.7256	562.56
24.7401	515.67
24.7545	570.29
24.7690	557.16
24.7834	565.85
24.7978	533.36
24.8123	560.04
24.8267	548.84
24.8412	496.75
24.8556	580.49
24.8700	662.22
24.8845	548.84
24.8989	531.80
24.9134	561.02
24.9278	498.63
24.9422	517.19
24.9567	538.04
24.9711	561.25
24.9856	578.10
25.0000	596.58
25.0144	505.30
25.0289	596.55
25.0433	547.25
25.0578	560.89
25.0722	573.37
25.0866	545.98
25.1011	507.02
25.1155	602.96
25.1300	580.60
25.1444	560.53
25.1588	552.16
25.1733	532.37
25.1877	554.25
25.2022	537.63
25.2166	532.61
25.2310	554.93
25.2455	568.38
25.2599	517.27
25.2744	551.92
25.2888	570.18
25.3032	553.01
25.3177	526.72
25.3321	542.47
25.3466	488.50
25.3610	542.50
25.3754	554.00
25.3899	530.39
25.4043	521.20
25.4188	545.04
25.4332	535.77
25.4476	489.95
25.4621	521.53
25.4765	528.17
25.4910	518.87
25.5054	558.80
25.5198	504.38
25.5343	534.51
25.5487	519.14
25.5632	528.31
25.5776	535.80
25.5920	589.76
25.6065	590.59
25.6209	549.98
25.6354	557.01
25.6498	513.58
25.6642	501.00
25.6787	516.03
25.6931	538.01
25.7076	562.60
25.7220	581.24
25.7364	526.64
25.7509	574.53
25.7653	558.15
25.7798	547.36
25.7942	556.67
25.8086	535.71
25.8231	537.13
25.8375	569.58
25.8520	556.50
25.8664	539.40
25.8808	547.64
25.8953	521.68
25.9097	518.87
25.9242	540.12
25.9386	589.37
25.9530	542.93
25.9675	571.93
25.9819	527.09
25.9964	513.14
26.0108	549.99
26.0252	524.94
26.0397	519.88
26.0541	533.81
26.0686	526.22
26.0830	488.56
26.0974	544.78
26.1119	575.21
26.1263	566.86
26.1408	554.71
26.1552	527.98
26.1696	517.54
26.1841	527.64
26.1985	541.41
26.2130	549.23
26.2274	535.19
26.2418	545.23
26.2563	543.25
26.2707	553.46
26.2852	530.82
26.2996	523.19
26.3140	525.17
26.3285	515.71
26.3429	532.28
26.3574	574.14
26.3718	509.68
26.3862	479.63
26.4007	526.77
26.4151	551.72
26.4296	549.14
26.4440	507.76
26.4584	509.88
26.4729	541.02
26.4873	551.52
26.5018	548.00
26.5162	534.75
26.5306	560.23
26.5451	569.09
26.5595	554.22
26.5740	525.97
26.5884	553.55
26.6028	548.73
26.6173	533.72
26.6317	553.14
26.6462	545.57
26.6606	543.05
26.6750	510.62
26.6895	521.76
26.7039	544.82
26.7184	579.97
26.7328	545.65
26.7472	508.22
26.7617	513.59
26.7761	540.84
26.7906	539.30
26.8050	524.88
26.8194	515.17
26.8339	517.56
26.8483	508.59
26.8628	536.86
26.8772	536.56
26.8917	533.61
26.9061	544.75
26.9205	526.62
26.9350	532.92
26.9494	518.41
26.9639	550.43
26.9783	534.75
26.9927	489.13
27.0072	506.38
27.0216	507.63
27.0361	530.23
27.0505	520.78
27.0649	521.46
27.0794	546.16
27.0938	557.82
27.1083	560.03
27.1227	532.19
27.1371	563.63
27.1516	519.84
27.1660	528.34
27.1805	518.30
27.1949	521.33
27.2093	518.15
27.2238	528.87
27.2382	548.42
27.2527	522.21
27.2671	503.60
27.2815	520.47
27.2960	505.77
27.3104	527.96
27.3249	498.39
27.3393	505.40
27.3537	528.44
27.3682	516.26
27.3826	549.24
27.3971	511.56
27.4115	503.90
27.4259	503.37
27.4404	511.03
27.4548	527.40
27.4693	527.75
27.4837	544.74
27.4981	515.35
27.5126	516.42
27.5270	525.92
27.5415	533.30
27.5559	568.64
27.5703	537.62
27.5848	491.81
27.5992	489.22
27.6137	506.54
27.6281	508.04
27.6425	538.22
27.6570	534.68
27.6714	523.48
27.6859	528.99
27.7003	535.89
27.7147	527.78
27.7292	492.36
27.7436	533.86
27.7581	542.33
27.7725	529.08
27.7869	491.73
27.8014	525.41
27.8158	512.96
27.8303	531.90
27.8447	510.07
27.8591	483.57
27.8736	517.37
27.8880	524.69
27.9025	587.59
27.9169	546.79
27.9313	517.13
27.9458	530.69
27.9602	506.32
27.9747	520.58
27.9891	527.87
28.0035	518.55
28.0180	535.08
28.0324	536.92
28.0469	517.33
28.0613	551.88
28.0757	528.42
28.0902	514.54
28.1046	535.54
28.1191	536.65
28.1335	552.19
28.1479	492.13
28.1624	501.89
28.1768	544.72
28.1913	509.50
28.2057	526.52
28.2201	511.63
28.2346	526.95
28.2490	531.99
28.2635	521.16
28.2779	499.74
28.2923	514.06
28.3068	511.76
28.3212	509.78
28.3357	551.78
28.3501	532.91
28.3645	512.62
28.3790	499.60
28.3934	517.95
28.4079	483.87
28.4223	544.53
28.4367	530.97
28.4512	536.61
28.4656	522.34
28.4801	551.27
28.4945	541.62
28.5089	513.83
28.5234	521.75
28.5378	523.02
28.5523	538.78
28.5667	523.22
28.5811	490.82
28.5956	472.77
28.6100	521.51
28.6245	506.67
28.6389	509.87
28.6533	534.77
28.6678	515.19
28.6822	519.35
28.6967	532.88
28.7111	536.00
28.7255	508.05
28.7400	513.58
28.7544	524.85
28.7689	497.84
28.7833	528.01
28.7977	517.64
28.8122	499.75
28.8266	517.89
28.8411	496.98
28.8555	530.93
28.8699	520.69
28.8844	484.63
28.8988	542.51
28.9133	566.23
28.9277	488.94
28.9421	543.43
28.9566	500.91
28.9710	473.42
28.9855	514.68
28.9999	505.22
29.0143	484.46
29.0288	498.29
29.0432	445.90
29.0577	548.00
29.0721	536.37
29.0865	525.48
29.1010	504.71
29.1154	532.92
29.1299	517.30
29.1443	490.79
29.1587	489.71
29.1732	517.07
29.1876	509.03
29.2021	502.17
29.2165	484.48
29.2309	512.32
29.2454	518.31
29.2598	507.39
29.2743	497.65
29.2887	485.62
29.3031	505.78
29.3176	498.96
29.3320	483.31
29.3465	528.98
29.3609	499.28
29.3753	515.93
29.3898	528.61
29.4042	503.44
29.4187	548.41
29.4331	545.77
29.4475	530.44
29.4620	514.85
29.4764	523.56
29.4909	521.34
29.5053	496.64
29.5197	522.13
29.5342	533.02
29.5486	538.10
29.5631	558.23
29.5775	489.31
29.5919	495.89
29.6064	521.73
29.6208	530.25
29.6353	509.11
29.6497	490.76
29.6641	479.70
29.6786	487.67
29.6930	473.56
29.7075	506.87
29.7219	522.61
29.7363	510.48
29.7508	498.16
29.7652	504.25
29.7797	522.65
29.7941	495.13
29.8085	523.67
29.8230	525.46
29.8374	521.96
29.8519	508.10
29.8663	490.02
29.8807	497.40
29.8952	548.30
29.9096	554.86
29.9241	559.10
29.9385	510.26
29.9529	497.84
29.9674	507.54
29.9818	475.23
29.9963	494.74
30.0107	493.21
30.0251	541.13
30.0396	516.94
30.0540	483.51
30.0685	526.52
30.0829	516.67
30.0973	526.95
30.1118	504.81
30.1262	478.15
30.1407	461.59
30.1551	505.71
30.1695	539.21
30.1840	507.50
30.1984	487.76
30.2129	510.32
30.2273	506.33
30.2417	512.19
30.2562	499.69
30.2706	492.95
30.2851	506.79
30.2995	503.78
30.3139	505.70
30.3284	490.68
30.3428	512.91
30.3573	505.67
30.3717	513.91
30.3861	483.99
30.4006	485.70
30.4150	501.25
30.4295	556.55
30.4439	510.28
30.4583	490.88
30.4728	497.48
30.4872	534.34
30.5017	527.79
30.5161	524.95
30.5305	535.19
30.5450	569.09
30.5594	567.01
30.5739	557.10
30.5883	556.25
30.6028	586.46
30.6172	631.83
30.6316	677.94
30.6461	700.25
30.6605	685.00
30.6750	686.27
30.6894	715.82
30.7038	743.27
30.7183	728.19
30.7327	685.32
30.7472	703.56
30.7616	646.62
30.7760	599.57
30.7905	613.66
30.8049	618.97
30.8194	571.65
30.8338	566.71
30.8482	551.48
30.8627	548.51
30.8771	565.66
30.8916	547.49
30.9060	533.97
30.9204	523.63
30.9349	533.59
30.9493	532.47
30.9638	508.70
30.9782	497.02
30.9926	505.37
31.0071	507.69
31.0215	542.08
31.0360	507.38
31.0504	464.46
31.0648	521.30
31.0793	567.20
31.0937	519.52
31.1082	492.09
31.1226	514.51
31.1370	513.71
31.1515	500.29
31.1659	490.09
31.1804	507.07
31.1948	508.50
31.2092	513.85
31.2237	519.89
31.2381	523.92
31.2526	536.70
31.2670	512.59
31.2814	552.96
31.2959	526.88
31.3103	532.24
31.3248	528.21
31.3392	550.33
31.3536	540.97
31.3681	540.69
31.3825	520.10
31.3970	517.40
31.4114	514.75
31.4258	545.50
31.4403	529.31
31.4547	515.81
31.4692	541.00
31.4836	524.35
31.4980	522.24
31.5125	484.56
31.5269	515.57
31.5414	522.78
31.5558	480.97
31.5702	469.57
31.5847	468.87
31.5991	490.64
31.6136	497.89
31.6280	487.99
31.6424	491.21
31.6569	511.25
31.6713	486.39
31.6858	488.45
31.7002	522.06
31.7146	518.76
31.7291	493.20
31.7435	493.14
31.7580	506.19
31.7724	518.13
31.7868	500.35
31.8013	526.21
31.8157	522.36
31.8302	510.65
31.8446	511.83
31.8590	531.94
31.8735	552.41
31.8879	530.67
31.9024	531.17
31.9168	537.91
31.9312	528.79
31.9457	518.02
31.9601	493.04
31.9746	524.77
31.9890	496.21
32.0034	489.62
32.0179	521.17
32.0323	517.68
32.0468	556.51
32.0612	531.96
32.0756	495.67
32.0901	498.19
32.1045	506.65
32.1190	489.89
32.1334	514.53
32.1478	518.21
32.1623	527.67
32.1767	528.24
32.1912	531.91
32.2056	500.27
32.2200	512.11
32.2345	531.42
32.2489	506.44
32.2634	515.35
32.2778	493.64
32.2922	461.34
32.3067	497.95
32.3211	491.06
32.3356	514.80
32.3500	511.17
32.3644	512.17
32.3789	492.40
32.3933	515.87
32.4078	502.15
32.4222	497.56
32.4366	493.74
32.4511	496.97
32.4655	515.15
32.4800	540.20
32.4944	508.70
32.5088	533.17
32.5233	549.35
32.5377	513.29
32.5522	490.22
32.5666	510.94
32.5810	552.11
32.5955	546.55
32.6099	508.04
32.6244	523.64
32.6388	532.51
32.6532	492.19
32.6677	532.36
32.6821	495.90
32.6966	483.88
32.7110	518.49
32.7254	516.96
32.7399	469.08
32.7543	486.73
32.7688	504.12
32.7832	511.82
32.7976	507.41
32.8121	528.72
32.8265	513.98
32.8410	487.58
32.8554	514.26
32.8698	536.46
32.8843	502.18
32.8987	508.26
32.9132	508.03
32.9276	494.49
32.9420	509.80
32.9565	497.05
32.9709	517.12
32.9854	503.02
32.9998	530.77
33.0142	513.24
33.0287	498.99
33.0431	508.74
33.0576	497.95
33.0720	529.34
33.0864	518.51
33.1009	533.06
33.1153	505.15
33.1298	517.20
33.1442	490.14
33.1586	464.45
33.1731	497.09
33.1875	505.48
33.2020	482.41
33.2164	499.40
33.2308	481.78
33.2453	496.37
33.2597	490.52
33.2742	505.65
33.2886	517.49
33.3030	502.91
33.3175	525.67
33.3319	503.85
33.3464	519.37
33.3608	520.81
33.3752	526.98
33.3897	512.02
33.4041	489.29
33.4186	501.17
33.4330	502.52
33.4474	485.42
33.4619	519.07
33.4763	492.62
33.4908	512.43
33.5052	503.04
33.5196	513.78
33.5341	496.35
33.5485	505.56
33.5630	496.09
33.5774	515.54
33.5918	506.22
33.6063	493.50
33.6207	472.38
33.6352	502.03
33.6496	519.82
33.6640	500.42
33.6785	510.18
33.6929	473.31
33.7074	518.16
33.7218	509.44
33.7362	466.36
33.7507	501.47
33.7651	498.38
33.7796	513.34
33.7940	501.32
33.8084	534.59
33.8229	521.64
33.8373	501.27
33.8518	509.41
33.8662	483.62
33.8806	502.33
33.8951	456.99
33.9095	521.43
33.9240	510.31
33.9384	494.45
33.9528	513.56
33.9673	486.89
33.9817	535.63
33.9962	550.84
34.0106	497.18
34.0250	501.97
34.0395	502.86
34.0539	505.17
34.0684	536.26
34.0828	520.61
34.0972	510.41
34.1117	494.13
34.1261	522.46
34.1406	488.26
34.1550	491.94
34.1694	462.61
34.1839	490.64
34.1983	485.21
34.2128	488.94
34.2272	517.89
34.2417	502.70
34.2561	475.11
34.2705	517.04
34.2850	523.79
34.2994	482.39
34.3139	501.92
34.3283	520.82
34.3427	509.82
34.3572	504.24
34.3716	485.82
34.3861	510.75
34.4005	488.72
34.4149	510.68
34.4294	532.15
34.4438	513.44
34.4583	514.39
34.4727	489.53
34.4871	491.21
34.5016	509.70
34.5160	488.17
34.5305	494.04
34.5449	494.25
34.5593	529.36
34.5738	539.94
34.5882	529.63
34.6027	489.70
34.6171	508.67
34.6315	526.39
34.6460	496.44
34.6604	519.45
34.6749	485.09
34.6893	475.53
34.7037	513.90
34.7182	504.13
34.7326	505.37
34.7471	520.23
34.7615	505.80
34.7759	522.73
34.7904	519.98
34.8048	508.45
34.8193	496.80
34.8337	524.59
34.8481	510.15
34.8626	530.56
34.8770	527.18
34.8915	501.50
34.9059	496.02
34.9203	485.48
34.9348	544.36
34.9492	516.34
34.9637	493.97
34.9781	492.37
34.9925	513.69
35.0070	481.99
35.0214	496.19
35.0359	517.14
35.0503	508.65
35.0647	521.86
35.0792	500.02
35.0936	516.07
35.1081	518.60
35.1225	491.34
35.1369	493.40
35.1514	488.83
35.1658	513.21
35.1803	517.00
35.1947	484.88
35.2091	492.42
35.2236	526.75
35.2380	506.08
35.2525	522.19
35.2669	513.29
35.2813	474.98
35.2958	501.58
35.3102	538.20
35.3247	517.68
35.3391	530.09
35.3535	561.45
35.3680	502.51
35.3824	503.68
35.3969	516.24
35.4113	496.15
35.4257	528.22
35.4402	528.88
35.4546	559.24
35.4691	532.77
35.4835	524.99
35.4979	552.56
35.5124	523.77
35.5268	500.73
35.5413	534.15
35.5557	525.23
35.5701	515.06
35.5846	531.77
35.5990	556.71
35.6135	546.89
35.6279	523.99
35.6423	545.71
35.6568	555.83
35.6712	564.33
35.6857	603.79
35.7001	682.29
35.7145	683.56
35.7290	647.44
35.7434	608.45
35.7579	567.07
35.7723	561.52
35.7867	587.04
35.8012	666.96
35.8156	687.38
35.8301	615.89
35.8445	615.69
35.8589	646.94
35.8734	730.49
35.8878	819.34
35.9023	994.44
35.9167	1116.50
35.9311	1387.53
35.9456	2032.24
35.9600	2407.86
35.9745	1998.40
35.9889	1930.99
36.0033	2230.07
36.0178	2322.04
36.0322	2093.35
36.0467	2106.71
36.0611	1909.19
36.0755	1897.01
36.0900	1838.13
36.1044	1865.02
36.1189	1847.64
36.1333	1761.49
36.1477	1619.24
36.1622	1479.22
36.1766	1387.84
36.1911	1193.98
36.2055	1085.09
36.2199	1012.33
36.2344	897.78
36.2488	846.38
36.2633	801.29
36.2777	753.09
36.2921	665.57
36.3066	633.94
36.3210	604.97
36.3355	637.17
36.3499	589.03
36.3643	569.78
36.3788	549.65
36.3932	531.82
36.4077	535.68
36.4221	572.35
36.4365	544.97
36.4510	534.73
36.4654	539.77
36.4799	534.51
36.4943	552.17
36.5087	528.34
36.5232	522.27
36.5376	551.63
36.5521	581.00
36.5665	519.61
36.5809	518.56
36.5954	526.95
36.6098	525.59
36.6243	537.33
36.6387	515.41
36.6531	531.68
36.6676	534.20
36.6820	518.69
36.6965	536.55
36.7109	535.03
36.7253	554.68
36.7398	514.32
36.7542	554.08
36.7687	566.97
36.7831	557.06
36.7975	534.23
36.8120	548.31
36.8264	589.46
36.8409	562.81
36.8553	570.32
36.8697	541.56
36.8842	569.08
36.8986	589.93
36.9131	595.62
36.9275	595.52
36.9419	594.53
36.9564	572.13
36.9708	580.44
36.9853	543.43
36.9997	506.27
37.0141	534.57
37.0286	544.04
37.0430	504.15
37.0575	543.11
37.0719	514.04
37.0863	528.79
37.1008	520.33
37.1152	518.26
37.1297	505.04
37.1441	522.90
37.1585	521.91
37.1730	517.01
37.1874	519.06
37.2019	503.20
37.2163	513.41
37.2307	510.12
37.2452	527.33
37.2596	500.71
37.2741	517.18
37.2885	527.83
37.3029	507.09
37.3174	510.06
37.3318	535.78
37.3463	498.47
37.3607	482.54
37.3751	504.16
37.3896	485.64
37.4040	514.04
37.4185	528.81
37.4329	530.69
37.4473	450.16
37.4618	503.03
37.4762	538.12
37.4907	517.20
37.5051	502.76
37.5195	517.49
37.5340	489.37
37.5484	513.05
37.5629	516.92
37.5773	500.00
37.5917	515.08
37.6062	488.09
37.6206	488.23
37.6351	515.50
37.6495	502.91
37.6639	505.16
37.6784	506.21
37.6928	513.57
37.7073	543.18
37.7217	516.94
37.7361	489.97
37.7506	524.79
37.7650	492.14
37.7795	520.13
37.7939	511.69
37.8083	521.13
37.8228	524.58
37.8372	511.69
37.8517	499.11
37.8661	521.96
37.8805	518.48
37.8950	533.33
37.9094	543.32
37.9239	496.28
37.9383	512.80
37.9528	513.12
37.9672	536.24
37.9816	548.26
37.9961	479.53
38.0105	498.16
38.0250	494.80
38.0394	518.81
38.0538	506.55
38.0683	554.65
38.0827	510.76
38.0972	486.88
38.1116	494.89
38.1260	496.65
38.1405	491.99
38.1549	497.98
38.1694	509.85
38.1838	526.01
38.1982	521.71
38.2127	502.22
38.2271	497.29
38.2416	492.25
38.2560	525.13
38.2704	521.20
38.2849	514.77
38.2993	528.82
38.3138	508.43
38.3282	534.83
38.3426	517.40
38.3571	508.26
38.3715	520.64
38.3860	500.24
38.4004	509.39
38.4148	563.78
38.4293	572.79
38.4437	597.59
38.4582	634.85
38.4726	673.56
38.4870	679.84
38.5015	750.08
38.5159	774.05
38.5304	819.25
38.5448	777.78
38.5592	774.23
38.5737	759.03
38.5881	739.65
38.6026	717.38
38.6170	716.30
38.6314	669.00
38.6459	656.75
38.6603	608.26
38.6748	591.52
38.6892	600.73
38.7036	573.72
38.7181	526.63
38.7325	525.42
38.7470	528.54
38.7614	512.21
38.7758	508.76
38.7903	498.35
38.8047	545.80
38.8192	540.02
38.8336	542.51
38.8480	483.05
38.8625	498.61
38.8769	502.18
38.8914	499.81
38.9058	525.15
38.9202	504.41
38.9347	519.94
38.9491	499.31
38.9636	509.34
38.9780	511.43
38.9924	501.03
39.0069	498.70
39.0213	544.48
39.0358	509.23
39.0502	465.79
39.0646	491.87
39.0791	505.66
39.0935	528.95
39.1080	517.54
39.1224	500.83
39.1368	480.81
39.1513	445.93
39.1657	490.51
39.1802	475.77
39.1946	489.93
39.2090	497.42
39.2235	528.65
39.2379	514.58
39.2524	516.78
39.2668	504.93
39.2812	521.50
39.2957	499.15
39.3101	509.66
39.3246	497.00
39.3390	540.38
39.3534	518.35
39.3679	502.61
39.3823	490.70
39.3968	516.77
39.4112	535.59
39.4256	531.57
39.4401	513.28
39.4545	527.90
39.4690	501.97
39.4834	513.38
39.4978	524.56
39.5123	488.56
39.5267	511.32
39.5412	508.44
39.5556	506.92
39.5700	503.26
39.5845	503.31
39.5989	493.18
39.6134	491.06
39.6278	451.11
39.6422	496.64
39.6567	543.29
39.6711	546.52
39.6856	516.33
39.7000	514.91
39.7144	519.61
39.7289	508.73
39.7433	507.54
39.7578	484.44
39.7722	484.65
39.7866	475.13
39.8011	493.43
39.8155	502.55
39.8300	490.15
39.8444	507.97
39.8588	510.75
39.8733	491.03
39.8877	495.93
39.9022	522.18
39.9166	517.74
39.9310	531.38
39.9455	522.13
39.9599	471.23
39.9744	494.23
39.9888	521.27
40.0032	487.54
40.0177	519.37
40.0321	528.37
40.0466	482.48
40.0610	506.86
40.0754	528.19
40.0899	514.83
40.1043	500.51
40.1188	510.49
40.1332	504.20
40.1476	518.17
40.1621	512.37
40.1765	512.30
40.1910	508.63
40.2054	531.85
40.2198	500.59
40.2343	484.04
40.2487	478.65
40.2632	499.09
40.2776	507.65
40.2920	497.75
40.3065	475.33
40.3209	488.68
40.3354	476.17
40.3498	510.88
40.3642	539.44
40.3787	502.19
40.3931	481.83
40.4076	518.24
40.4220	508.53
40.4364	507.37
40.4509	475.23
40.4653	460.56
40.4798	513.36
40.4942	504.47
40.5086	495.99
40.5231	497.42
40.5375	513.76
40.5520	487.18
40.5664	500.38
40.5808	499.73
40.5953	533.49
40.6097	488.05
40.6242	522.82
40.6386	525.55
40.6530	494.17
40.6675	498.48
40.6819	500.30
40.6964	494.82
40.7108	490.10
40.7252	489.15
40.7397	489.53
40.7541	495.10
40.7686	483.57
40.7830	503.88
40.7974	508.44
40.8119	508.57
40.8263	517.96
40.8408	511.64
40.8552	505.52
40.8696	493.33
40.8841	499.57
40.8985	520.13
40.9130	517.74
40.9274	518.72
40.9418	515.71
40.9563	514.87
40.9707	495.30
40.9852	494.55
40.9996	520.93
41.0140	492.22
41.0285	513.85
41.0429	493.17
41.0574	537.05
41.0718	523.65
41.0862	515.37
41.1007	549.41
41.1151	494.02
41.1296	488.32
41.1440	468.12
41.1584	458.93
41.1729	463.07
41.1873	510.62
41.2018	506.23
41.2162	511.77
41.2306	505.96
41.2451	534.61
41.2595	487.83
41.2740	483.25
41.2884	485.42
41.3028	490.76
41.3173	490.63
41.3317	508.64
41.3462	502.35
41.3606	485.98
41.3750	510.93
41.3895	506.30
41.4039	498.81
41.4184	497.32
41.4328	506.96
41.4472	503.42
41.4617	505.34
41.4761	547.42
41.4906	510.97
41.5050	494.09
41.5194	506.12
41.5339	508.60
41.5483	524.05
41.5628	523.25
41.5772	517.18
41.5916	478.13
41.6061	529.33
41.6205	506.41
41.6350	513.15
41.6494	487.97
41.6639	504.97
41.6783	506.34
41.6927	501.64
41.7072	500.24
41.7216	514.96
41.7361	521.38
41.7505	525.32
41.7649	519.43
41.7794	502.67
41.7938	510.95
41.8083	511.87
41.8227	523.95
41.8371	489.34
41.8516	503.03
41.8660	529.25
41.8805	510.15
41.8949	531.78
41.9093	551.60
41.9238	569.52
41.9382	588.54
41.9527	592.50
41.9671	571.07
41.9815	555.32
41.9960	531.95
42.0104	529.34
42.0249	513.81
42.0393	556.77
42.0537	607.34
42.0682	563.68
42.0826	580.90
42.0971	630.10
42.1115	585.62
42.1259	613.75
42.1404	570.43
42.1548	576.24
42.1693	654.95
42.1837	692.70
42.1981	749.83
42.2126	822.25
42.2270	872.25
42.2415	1031.40
42.2559	1227.26
42.2703	1317.97
42.2848	1450.74
42.2992	1598.72
42.3137	1658.19
42.3281	1609.70
42.3425	1546.05
42.3570	1483.20
42.3714	1424.63
42.3859	1339.23
42.4003	1329.02
42.4147	1283.88
42.4292	1260.39
42.4436	1153.47
42.4581	1034.23
42.4725	976.82
42.4869	876.61
42.5014	775.46
42.5158	720.41
42.5303	669.27
42.5447	618.11
42.5591	583.81
42.5736	576.76
42.5880	614.23
42.6025	573.73
42.6169	572.17
42.6313	551.42
42.6458	528.88
42.6602	524.84
42.6747	514.74
42.6891	481.49
42.7035	550.67
42.7180	538.94
42.7324	513.29
42.7469	531.74
42.7613	543.85
42.7757	533.47
42.7902	545.24
42.8046	528.43
42.8191	517.66
42.8335	511.60
42.8479	510.61
42.8624	502.21
42.8768	524.02
42.8913	531.58
42.9057	550.08
42.9201	548.93
42.9346	532.90
42.9490	518.93
42.9635	488.19
42.9779	491.71
42.9923	499.83
43.0068	518.43
43.0212	519.54
43.0357	509.07
43.0501	517.64
43.0645	518.54
43.0790	495.11
43.0934	517.70
43.1079	527.53
43.1223	528.52
43.1367	510.11
43.1512	504.72
43.1656	520.10
43.1801	557.26
43.1945	517.91
43.2089	529.50
43.2234	563.13
43.2378	540.43
43.2523	525.89
43.2667	501.61
43.2811	518.52
43.2956	543.52
43.3100	547.74
43.3245	535.13
43.3389	545.08
43.3533	523.79
43.3678	527.65
43.3822	540.67
43.3967	508.73
43.4111	533.88
43.4255	552.77
43.4400	528.76
43.4544	470.79
43.4689	504.53
43.4833	538.17
43.4977	516.15
43.5122	512.85
43.5266	512.99
43.5411	487.90
43.5555	506.11
43.5699	499.74
43.5844	504.19
43.5988	518.81
43.6133	508.82
43.6277	539.19
43.6421	553.77
43.6566	531.09
43.6710	502.85
43.6855	512.01
43.6999	519.47
43.7143	537.48
43.7288	531.27
43.7432	556.51
43.7577	542.47
43.7721	532.25
43.7865	553.12
43.8010	563.34
43.8154	548.43
43.8299	549.03
43.8443	562.02
43.8587	609.99
43.8732	663.57
43.8876	620.01
43.9021	705.67
43.9165	688.97
43.9309	675.35
43.9454	686.86
43.9598	642.52
43.9743	610.42
43.9887	619.69
44.0031	605.32
44.0176	610.43
44.0320	622.32
44.0465	592.29
44.0609	586.08
44.0753	533.95
44.0898	497.73
44.1042	522.39
44.1187	574.13
44.1331	530.72
44.1475	535.43
44.1620	531.47
44.1764	529.83
44.1909	520.62
44.2053	516.35
44.2197	495.65
44.2342	503.91
44.2486	509.67
44.2631	506.12
44.2775	522.09
44.2919	517.30
44.3064	540.20
44.3208	529.16
44.3353	521.23
44.3497	542.19
44.3641	533.00
44.3786	568.74
44.3930	523.88
44.4075	537.75
44.4219	572.47
44.4363	558.07
44.4508	554.73
44.4652	573.30
44.4797	559.03
44.4941	594.97
44.5085	561.51
44.5230	569.48
44.5374	589.23
44.5519	562.51
44.5663	562.64
44.5807	575.34
44.5952	583.82
44.6096	587.30
44.6241	569.70
44.6385	577.05
44.6529	568.99
44.6674	591.67
44.6818	565.49
44.6963	612.41
44.7107	650.90
44.7251	693.07
44.7396	750.57
44.7540	806.90
44.7685	845.20
44.7829	884.00
44.7973	877.58
44.8118	841.62
44.8262	794.78
44.8407	768.02
44.8551	758.65
44.8695	743.48
44.8840	757.47
44.8984	751.24
44.9129	729.77
44.9273	690.13
44.9417	675.09
44.9562	632.98
44.9706	579.21
44.9851	520.43
44.9995	554.75
45.0139	530.60
45.0284	505.72
45.0428	526.48
45.0573	534.85
45.0717	521.59
45.0861	514.72
45.1006	479.47
45.1150	495.44
45.1295	531.67
45.1439	485.28
45.1583	521.32
45.1728	507.73
45.1872	516.53
45.2017	516.74
45.2161	530.66
45.2305	498.51
45.2450	493.70
45.2594	530.82
45.2739	505.84
45.2883	524.20
45.3028	501.48
45.3172	478.03
45.3316	495.10
45.3461	505.77
45.3605	523.88
45.3750	500.50
45.3894	517.46
45.4038	510.82
45.4183	494.26
45.4327	509.57
45.4472	524.81
45.4616	481.56
45.4760	507.14
45.4905	500.63
45.5049	499.24
45.5194	505.20
45.5338	514.91
45.5482	517.86
45.5627	511.62
45.5771	492.06
45.5916	492.84
45.6060	513.60
45.6204	475.82
45.6349	508.51
45.6493	526.43
45.6638	517.90
45.6782	502.28
45.6926	478.57
45.7071	510.92
45.7215	531.40
45.7360	512.37
45.7504	497.15
45.7648	498.98
45.7793	509.29
45.7937	527.86
45.8082	506.88
45.8226	507.27
45.8370	508.57
45.8515	468.00
45.8659	484.12
45.8804	522.67
45.8948	548.35
45.9092	520.02
45.9237	516.49
45.9381	509.30
45.9526	472.38
45.9670	499.00
45.9814	502.25
45.9959	500.84
46.0103	484.02
46.0248	502.95
46.0392	516.89
46.0536	496.63
46.0681	485.55
46.0825	473.75
46.0970	500.69
46.1114	503.15
46.1258	497.46
46.1403	481.10
46.1547	484.30
46.1692	511.52
46.1836	508.69
46.1980	496.42
46.2125	519.32
46.2269	488.01
46.2414	510.32
46.2558	512.48
46.2702	521.31
46.2847	522.55
46.2991	478.78
46.3136	463.33
46.3280	485.14
46.3424	504.23
46.3569	517.02
46.3713	481.71
46.3858	494.56
46.4002	519.15
46.4146	508.76
46.4291	514.68
46.4435	472.96
46.4580	494.35
46.4724	511.32
46.4868	516.33
46.5013	502.50
46.5157	507.93
46.5302	520.18
46.5446	519.04
46.5590	559.65
46.5735	534.87
46.5879	492.51
46.6024	490.79
46.6168	503.75
46.6312	515.98
46.6457	488.63
46.6601	498.83
46.6746	528.72
46.6890	510.67
46.7034	508.55
46.7179	538.93
46.7323	507.01
46.7468	496.91
46.7612	501.24
46.7756	484.66
46.7901	507.00
46.8045	536.10
46.8190	516.25
46.8334	541.87
46.8478	498.25
46.8623	509.12
46.8767	502.39
46.8912	489.53
46.9056	528.35
46.9200	502.20
46.9345	523.00
46.9489	514.30
46.9634	498.92
46.9778	505.48
46.9922	539.02
47.0067	540.61
47.0211	537.08
47.0356	546.01
47.0500	506.83
47.0644	505.93
47.0789	498.18
47.0933	515.90
47.1078	505.88
47.1222	505.81
47.1366	479.69
47.1511	478.36
47.1655	506.06
47.1800	505.34
47.1944	483.02
47.2088	493.30
47.2233	500.89
47.2377	490.47
47.2522	487.80
47.2666	500.08
47.2810	512.00
47.2955	517.68
47.3099	522.92
47.3244	482.65
47.3388	505.39
47.3532	536.97
47.3677	499.96
47.3821	496.57
47.3966	526.44
47.4110	481.93
47.4254	506.39
47.4399	527.20
47.4543	493.40
47.4688	525.20
47.4832	531.95
47.4976	507.88
47.5121	487.35
47.5265	506.12
47.5410	522.50
47.5554	513.99
47.5698	505.45
47.5843	513.87
47.5987	528.67
47.6132	526.03
47.6276	499.59
47.6420	512.49
47.6565	500.24
47.6709	478.62
47.6854	467.86
47.6998	484.55
47.7142	489.62
47.7287	490.37
47.7431	502.16
47.7576	494.53
47.7720	485.45
47.7864	482.57
47.8009	506.38
47.8153	521.08
47.8298	538.28
47.8442	523.82
47.8586	507.97
47.8731	520.22
47.8875	528.97
47.9020	543.00
47.9164	524.26
47.9308	491.76
47.9453	527.31
47.9597	497.34
47.9742	486.25
47.9886	513.19
48.0030	515.01
48.0175	506.55
48.0319	519.18
48.0464	488.99
48.0608	512.50
48.0752	525.48
48.0897	512.21
48.1041	484.73
48.1186	503.83
48.1330	520.35
48.1474	497.50
48.1619	537.43
48.1763	492.26
48.1908	512.48
48.2052	509.73
48.2196	519.94
48.2341	513.89
48.2485	537.53
48.2630	530.67
48.2774	523.93
48.2918	532.85
48.3063	497.10
48.3207	537.07
48.3352	522.13
48.3496	516.90
48.3640	506.40
48.3785	521.43
48.3929	543.46
48.4074	506.13
48.4218	517.01
48.4362	493.34
48.4507	507.64
48.4651	528.95
48.4796	532.14
48.4940	540.50
48.5084	526.39
48.5229	509.66
48.5373	517.34
48.5518	541.20
48.5662	483.43
48.5806	506.06
48.5951	502.91
48.6095	514.32
48.6240	505.89
48.6384	513.27
48.6528	509.65
48.6673	537.90
48.6817	507.84
48.6962	544.92
48.7106	549.92
48.7250	512.55
48.7395	474.97
48.7539	528.40
48.7684	499.30
48.7828	569.04
48.7972	526.19
48.8117	556.13
48.8261	555.91
48.8406	562.74
48.8550	553.68
48.8694	556.98
48.8839	542.81
48.8983	520.26
48.9128	578.32
48.9272	580.89
48.9416	554.87
48.9561	545.83
48.9705	584.81
48.9850	553.41
48.9994	562.81
49.0139	583.11
49.0283	633.36
49.0427	625.83
49.0572	620.62
49.0716	667.72
49.0861	654.30
49.1005	630.92
49.1149	705.88
49.1294	723.95
49.1438	742.37
49.1583	778.12
49.1727	850.07
49.1871	839.35
49.2016	908.55
49.2160	984.14
49.2305	1006.06
49.2449	1179.00
49.2593	1240.13
49.2738	1301.86
49.2882	1376.48
49.3027	1536.23
49.3171	1547.44
49.3315	1561.42
49.3460	1715.53
49.3604	1745.62
49.3749	1791.91
49.3893	1739.66
49.4037	1685.10
49.4182	1695.19
49.4326	1700.39
49.4471	1621.06
49.4615	1644.84
49.4759	1625.88
49.4904	1519.05
49.5048	1401.90
49.5193	1311.63
49.5337	1276.01
49.5481	1183.82
49.5626	1127.35
49.5770	1080.45
49.5915	989.28
49.6059	927.57
49.6203	891.79
49.6348	804.98
49.6492	787.80
49.6637	798.66
49.6781	758.47
49.6925	664.68
49.7070	702.81
49.7214	652.65
49.7359	619.91
49.7503	604.50
49.7647	604.33
49.7792	605.51
49.7936	587.19
49.8081	562.02
49.8225	598.64
49.8369	516.49
49.8514	541.42
49.8658	588.23
49.8803	588.59
49.8947	546.74
49.9091	581.23
49.9236	555.39
49.9380	533.60
49.9525	515.44
49.9669	501.25
49.9813	532.97
49.9958	543.82
50.0102	551.67
50.0247	552.33
50.0391	510.98
50.0535	518.66
50.0680	515.59
50.0824	525.49
50.0969	535.96
50.1113	528.76
50.1257	540.25
50.1402	520.28
50.1546	525.05
50.1691	498.92
50.1835	505.96
50.1979	516.97
50.2124	501.96
50.2268	522.49
50.2413	523.88
50.2557	519.07
50.2701	487.37
50.2846	524.55
50.2990	504.97
50.3135	521.21
50.3279	494.37
50.3423	516.96
50.3568	509.54
50.3712	512.38
50.3857	507.78
50.4001	496.82
50.4145	522.49
50.4290	537.15
50.4434	478.46
50.4579	508.01
50.4723	535.81
50.4867	507.02
50.5012	500.95
50.5156	509.99
50.5301	519.33
50.5445	498.41
50.5589	522.44
50.5734	511.10
50.5878	505.18
50.6023	481.49
50.6167	464.12
50.6311	517.64
50.6456	501.55
50.6600	487.54
50.6745	481.03
50.6889	498.22
50.7033	555.10
50.7178	499.51
50.7322	513.78
50.7467	498.21
50.7611	514.16
50.7755	525.16
50.7900	501.75
50.8044	513.80
50.8189	546.25
50.8333	527.05
50.8477	498.30
50.8622	503.57
50.8766	518.93
50.8911	503.84
50.9055	512.84
50.9199	488.34
50.9344	514.62
50.9488	519.80
50.9633	506.82
50.9777	506.06
50.9921	492.81
51.0066	492.52
51.0210	533.86
51.0355	496.74
51.0499	495.08
51.0643	526.18
51.0788	511.71
51.0932	517.20
51.1077	496.16
51.1221	504.48
51.1365	526.00
51.1510	512.00
51.1654	522.25
51.1799	521.50
51.1943	497.31
51.2087	516.62
51.2232	529.34
51.2376	524.23
51.2521	495.20
51.2665	515.36
51.2809	511.89
51.2954	486.79
51.3098	511.56
51.3243	509.26
51.3387	516.78
51.3531	499.69
51.3676	508.15
51.3820	499.57
51.3965	503.19
51.4109	509.29
51.4253	506.96
51.4398	485.73
51.4542	522.98
51.4687	535.80
51.4831	518.43
51.4975	536.84
51.5120	511.20
51.5264	502.57
51.5409	511.90
51.5553	535.72
51.5697	512.95
51.5842	512.24
51.5986	494.50
51.6131	501.47
51.6275	494.40
51.6419	522.43
51.6564	527.59
51.6708	515.61
51.6853	493.36
51.6997	507.97
51.7141	499.80
51.7286	526.12
51.7430	526.72
51.7575	487.80
51.7719	493.78
51.7863	513.37
51.8008	517.13
51.8152	513.98
51.8297	478.69
51.8441	494.59
51.8585	523.37
51.8730	542.93
51.8874	518.48
51.9019	493.31
51.9163	507.42
51.9307	480.06
51.9452	503.61
51.9596	508.93
51.9741	496.42
51.9885	522.39
52.0029	451.10
52.0174	498.82
52.0318	504.18
52.0463	475.77
52.0607	476.03
52.0751	514.23
52.0896	489.01
52.1040	532.67
52.1185	535.97
52.1329	514.39
52.1473	483.45
52.1618	501.87
52.1762	519.59
52.1907	517.75
52.2051	538.07
52.2195	501.32
52.2340	468.77
52.2484	490.17
52.2629	507.90
52.2773	522.65
52.2917	542.94
52.3062	495.42
52.3206	495.23
52.3351	529.52
52.3495	505.53
52.3639	488.97
52.3784	484.39
52.3928	499.85
52.4073	468.03
52.4217	500.79
52.4361	508.39
52.4506	483.85
52.4650	515.53
52.4795	525.74
52.4939	523.84
52.5083	516.85
52.5228	519.54
52.5372	550.65
52.5517	517.59
52.5661	521.53
52.5805	549.43
52.5950	537.94
52.6094	504.70
52.6239	524.13
52.6383	534.59
52.6527	531.22
52.6672	510.96
52.6816	519.17
52.6961	510.27
52.7105	512.44
52.7250	490.55
52.7394	500.81
52.7538	495.19
52.7683	495.70
52.7827	517.05
52.7972	505.24
52.8116	488.27
52.8260	538.92
52.8405	518.01
52.8549	490.42
52.8694	493.99
52.8838	519.03
52.8982	533.15
52.9127	514.79
52.9271	481.42
52.9416	509.57
52.9560	539.98
52.9704	513.62
52.9849	510.08
52.9993	494.87
53.0138	499.83
53.0282	511.65
53.0426	528.60
53.0571	545.47
53.0715	553.62
53.0860	533.67
53.1004	506.71
53.1148	523.47
53.1293	497.52
53.1437	532.27
53.1582	535.46
53.1726	505.36
53.1870	510.29
53.2015	542.68
53.2159	509.47
53.2304	493.75
53.2448	524.74
53.2592	515.49
53.2737	490.31
53.2881	504.90
53.3026	505.68
53.3170	522.74
53.3314	530.31
53.3459	484.40
53.3603	513.86
53.3748	516.43
53.3892	521.93
53.4036	543.23
53.4181	522.25
53.4325	542.27
53.4470	505.80
53.4614	503.97
53.4758	553.13
53.4903	523.70
53.5047	510.48
53.5192	463.26
53.5336	538.70
53.5480	501.60
53.5625	519.29
53.5769	514.31
53.5914	477.63
53.6058	523.31
53.6202	481.10
53.6347	493.53
53.6491	507.55
53.6636	500.85
53.6780	476.75
53.6924	516.92
53.7069	538.26
53.7213	473.97
53.7358	473.39
53.7502	488.47
53.7646	489.82
53.7791	507.65
53.7935	538.86
53.8080	515.62
53.8224	524.92
53.8368	510.78
53.8513	509.55
53.8657	514.43
53.8802	510.35
53.8946	513.49
53.9090	526.25
53.9235	532.07
53.9379	503.30
53.9524	503.21
53.9668	527.58
53.9812	484.78
53.9957	463.89
54.0101	492.54
54.0246	542.25
54.0390	530.71
54.0534	530.48
54.0679	495.56
54.0823	515.44
54.0968	530.15
54.1112	510.64
54.1256	555.55
54.1401	510.77
54.1545	499.06
54.1690	498.33
54.1834	512.57
54.1978	524.95
54.2123	527.06
54.2267	573.22
54.2412	557.45
54.2556	538.85
54.2700	523.56
54.2845	537.82
54.2989	526.21
54.3134	541.94
54.3278	549.35
54.3422	553.93
54.3567	578.69
54.3711	592.03
54.3856	588.58
54.4000	563.24
54.4144	577.04
54.4289	595.74
54.4433	570.08
54.4578	569.56
54.4722	584.59
54.4866	584.36
54.5011	588.85
54.5155	600.65
54.5300	591.64
54.5444	580.18
54.5588	592.54
54.5733	550.78
54.5877	591.91
54.6022	615.14
54.6166	605.74
54.6310	580.64
54.6455	578.67
54.6599	568.38
54.6744	552.58
54.6888	528.11
54.7032	550.54
54.7177	531.13
54.7321	524.47
54.7466	534.92
54.7610	498.32
54.7754	534.51
54.7899	513.08
54.8043	508.28
54.8188	566.97
54.8332	565.96
54.8476	540.43
54.8621	517.17
54.8765	471.12
54.8910	497.78
54.9054	499.79
54.9198	495.68
54.9343	497.92
54.9487	513.53
54.9632	509.14
54.9776	530.93
54.9920	522.54
55.0065	513.58
55.0209	510.18
55.0354	537.42
55.0498	518.13
55.0642	510.41
55.0787	536.36
55.0931	552.56
55.1076	515.65
55.1220	490.92
55.1364	517.11
55.1509	526.54
55.1653	532.00
55.1798	540.11
55.1942	505.17
55.2086	528.80
55.2231	528.89
55.2375	525.70
55.2520	489.65
55.2664	501.64
55.2808	528.11
55.2953	516.46
55.3097	514.94
55.3242	562.26
55.3386	541.06
55.3530	536.45
55.3675	503.42
55.3819	485.29
55.3964	507.23
55.4108	484.37
55.4252	537.10
55.4397	551.71
55.4541	520.74
55.4686	543.03
55.4830	530.36
55.4974	525.79
55.5119	515.55
55.5263	532.62
55.5408	546.59
55.5552	517.47
55.5696	515.77
55.5841	499.69
55.5985	517.47
55.6130	543.06
55.6274	522.56
55.6418	545.65
55.6563	531.39
55.6707	546.57
55.6852	528.48
55.6996	504.34
55.7140	537.52
55.7285	533.05
55.7429	506.74
55.7574	505.37
55.7718	545.20
55.7862	566.74
55.8007	556.00
55.8151	522.56
55.8296	530.26
55.8440	555.72
55.8584	527.90
55.8729	507.04
55.8873	538.24
55.9018	549.04
55.9162	526.32
55.9306	503.02
55.9451	542.07
55.9595	527.93
55.9740	514.94
55.9884	510.00
56.0028	514.62
56.0173	527.61
56.0317	543.72
56.0462	504.62
56.0606	524.62
56.0750	521.80
56.0895	533.72
56.1039	526.54
56.1184	539.16
56.1328	510.65
56.1472	514.57
56.1617	493.43
56.1761	525.26
56.1906	543.66
56.2050	515.33
56.2194	518.80
56.2339	519.88
56.2483	507.87
56.2628	503.25
56.2772	527.69
56.2916	519.90
56.3061	540.38
56.3205	531.08
56.3350	561.29
56.3494	548.77
56.3639	471.39
56.3783	475.42
56.3927	499.26
56.4072	527.25
56.4216	542.71
56.4361	553.05
56.4505	499.35
56.4649	549.53
56.4794	550.44
56.4938	548.40
56.5083	526.36
56.5227	521.69
56.5371	527.00
56.5516	546.27
56.5660	558.44
56.5805	530.67
56.5949	530.70
56.6093	533.19
56.6238	510.34
56.6382	502.59
56.6527	534.72
56.6671	524.35
56.6815	493.56
56.6960	494.67
56.7104	516.66
56.7249	533.58
56.7393	508.86
56.7537	492.65
56.7682	505.29
56.7826	480.05
56.7971	538.05
56.8115	521.47
56.8259	500.88
56.8404	520.48
56.8548	548.64
56.8693	535.16
56.8837	541.79
56.8981	534.30
56.9126	504.28
56.9270	550.71
56.9415	550.91
56.9559	495.78
56.9703	482.70
56.9848	518.93
56.9992	507.31
57.0137	532.54
57.0281	512.41
57.0425	536.22
57.0570	512.32
57.0714	514.65
57.0859	543.07
57.1003	561.20
57.1147	549.21
57.1292	537.90
57.1436	506.71
57.1581	523.25
57.1725	526.53
57.1869	518.25
57.2014	494.12
57.2158	525.13
57.2303	534.61
57.2447	549.69
57.2591	531.83
57.2736	519.88
57.2880	527.83
57.3025	516.12
57.3169	512.66
57.3313	550.40
57.3458	561.74
57.3602	526.89
57.3747	538.07
57.3891	521.09
57.4035	516.11
57.4180	523.31
57.4324	531.89
57.4469	489.49
57.4613	534.26
57.4757	508.05
57.4902	504.53
57.5046	532.38
57.5191	522.47
57.5335	562.55
57.5479	518.33
57.5624	504.41
57.5768	519.78
57.5913	503.75
57.6057	540.56
57.6201	554.05
57.6346	515.95
57.6490	533.92
57.6635	529.78
57.6779	518.27
57.6923	554.92
57.7068	562.04
57.7212	559.66
57.7357	533.33
57.7501	542.89
57.7645	503.25
57.7790	553.93
57.7934	545.10
57.8079	521.15
57.8223	495.85
57.8367	540.32
57.8512	553.36
57.8656	597.24
57.8801	552.63
57.8945	560.32
57.9089	606.18
57.9234	565.07
57.9378	564.67
57.9523	608.44
57.9667	581.52
57.9811	576.63
57.9956	583.97
58.0100	583.76
58.0245	631.84
58.0389	642.29
58.0533	641.26
58.0678	682.44
58.0822	678.42
58.0967	720.95
58.1111	684.86
58.1255	669.27
58.1400	669.10
58.1544	684.00
58.1689	677.95
58.1833	650.73
58.1977	629.54
58.2122	639.57
58.2266	635.15
58.2411	637.80
58.2555	633.65
58.2699	678.98
58.2844	665.86
58.2988	611.59
58.3133	612.36
58.3277	619.91
58.3421	609.67
58.3566	620.47
58.3710	568.56
58.3855	561.17
58.3999	552.78
58.4143	556.64
58.4288	580.34
58.4432	555.05
58.4577	559.54
58.4721	585.34
58.4865	563.43
58.5010	543.05
58.5154	572.32
58.5299	563.59
58.5443	563.30
58.5587	560.68
58.5732	555.46
58.5876	528.25
58.6021	525.84
58.6165	542.59
58.6309	545.82
58.6454	558.27
58.6598	558.09
58.6743	533.58
58.6887	495.83
58.7031	535.49
58.7176	516.31
58.7320	508.23
58.7465	511.97
58.7609	500.65
58.7753	545.04
58.7898	528.84
58.8042	501.59
58.8187	537.79
58.8331	555.12
58.8475	505.37
58.8620	523.31
58.8764	522.02
58.8909	538.26
58.9053	551.57
58.9197	526.77
58.9342	536.61
58.9486	531.79
58.9631	522.90
58.9775	514.45
58.9919	510.62
59.0064	522.34
59.0208	524.51
59.0353	527.99
59.0497	530.89
59.0641	544.20
59.0786	557.12
59.0930	548.52
59.1075	529.59
59.1219	560.05
59.1363	547.25
59.1508	533.06
59.1652	511.84
59.1797	545.25
59.1941	549.51
59.2085	505.38
59.2230	495.50
59.2374	510.41
59.2519	540.29
59.2663	542.46
59.2807	596.38
59.2952	586.39
59.3096	553.32
59.3241	527.16
59.3385	553.50
59.3529	565.56
59.3674	549.75
59.3818	540.11
59.3963	560.96
59.4107	557.21
59.4251	573.97
59.4396	554.92
59.4540	538.99
59.4685	579.65
59.4829	573.44
59.4973	557.34
59.5118	530.20
59.5262	529.95
59.5407	546.97
59.5551	570.75
59.5695	553.48
59.5840	541.66
59.5984	540.95
59.6129	568.92
59.6273	521.43
59.6417	557.79
59.6562	548.17
59.6706	528.90
59.6851	507.26
59.6995	532.33
59.7139	532.34
59.7284	533.98
59.7428	536.74
59.7573	550.28
59.7717	537.54
59.7861	523.05
59.8006	535.89
59.8150	550.76
59.8295	534.55
59.8439	530.20
59.8583	553.96
59.8728	554.31
59.8872	547.40
59.9017	542.23
59.9161	547.94
59.9305	520.63
59.9450	564.43
59.9594	518.65
59.9739	516.91
59.9883	513.31
60.0027	542.75
60.0172	548.14
60.0316	531.10
60.0461	505.03
60.0605	564.86
60.0750	573.84
60.0894	592.31
60.1038	540.98
60.1183	529.53
60.1327	541.47
60.1472	514.67
60.1616	548.36
60.1760	506.18
60.1905	522.89
60.2049	528.78
60.2194	533.15
60.2338	548.63
60.2482	563.08
60.2627	529.56
60.2771	575.16
60.2916	577.45
60.3060	592.47
60.3204	556.85
60.3349	552.08
60.3493	571.67
60.3638	540.61
60.3782	522.85
60.3926	508.60
60.4071	527.18
60.4215	531.28
60.4360	554.11
60.4504	519.13
60.4648	563.24
60.4793	542.52
60.4937	523.71
60.5082	525.26
60.5226	530.72
60.5370	585.70
60.5515	544.20
60.5659	547.07
60.5804	521.76
60.5948	538.74
60.6092	516.77
60.6237	534.61
60.6381	545.29
60.6526	524.26
60.6670	520.27
60.6814	538.67
60.6959	551.20
60.7103	546.76
60.7248	539.72
60.7392	539.05
60.7536	586.04
60.7681	545.56
60.7825	579.36
60.7970	552.01
60.8114	530.32
60.8258	557.14
60.8403	584.60
60.8547	538.73
60.8692	557.77
60.8836	566.16
60.8980	565.19
60.9125	537.15
60.9269	552.79
60.9414	537.99
60.9558	551.70
60.9702	549.40
60.9847	563.43
60.9991	575.06
61.0136	577.39
61.0280	558.52
61.0424	512.46
61.0569	560.47
61.0713	577.76
61.0858	579.73
61.1002	562.89
61.1146	566.52
61.1291	548.84
61.1435	534.51
61.1580	554.15
61.1724	573.40
61.1868	559.36
61.2013	520.87
61.2157	531.66
61.2302	525.59
61.2446	532.53
61.2590	544.74
61.2735	544.51
61.2879	544.81
61.3024	539.08
61.3168	560.27
61.3312	548.68
61.3457	543.78
61.3601	561.63
61.3746	525.97
61.3890	536.72
61.4034	546.91
61.4179	548.94
61.4323	577.77
61.4468	534.78
61.4612	578.73
61.4756	544.64
61.4901	522.33
61.5045	545.20
61.5190	525.94
61.5334	572.31
61.5478	518.61
61.5623	542.97
61.5767	581.31
61.5912	537.83
61.6056	562.04
61.6200	563.89
61.6345	559.17
61.6489	579.14
61.6634	573.03
61.6778	568.20
61.6922	561.26
61.7067	523.37
61.7211	523.48
61.7356	526.27
61.7500	564.79
61.7644	542.91
61.7789	546.54
61.7933	523.67
61.8078	575.72
61.8222	528.89
61.8366	558.68
61.8511	548.60
61.8655	602.40
61.8800	569.67
61.8944	505.54
61.9088	539.05
61.9233	541.67
61.9377	551.92
61.9522	572.57
61.9666	546.30
61.9810	557.02
61.9955	549.32
62.0099	563.22
62.0244	558.38
62.0388	609.48
62.0532	551.63
62.0677	531.10
62.0821	585.21
62.0966	573.02
62.1110	532.83
62.1254	563.90
62.1399	546.15
62.1543	534.84
62.1688	561.73
62.1832	530.56
62.1976	546.67
62.2121	575.25
62.2265	544.13
62.2410	516.91
62.2554	540.58
62.2698	563.13
62.2843	574.04
62.2987	565.36
62.3132	535.82
62.3276	549.61
62.3420	573.62
62.3565	592.05
62.3709	574.50
62.3854	562.72
62.3998	563.42
62.4142	536.73
62.4287	549.08
62.4431	540.80
62.4576	555.92
62.4720	570.67
62.4864	590.80
62.5009	555.62
62.5153	552.72
62.5298	538.48
62.5442	526.67
62.5586	568.59
62.5731	585.38
62.5875	601.78
62.6020	551.83
62.6164	528.03
62.6308	518.74
62.6453	547.64
62.6597	568.58
62.6742	540.97
62.6886	586.95
62.7030	558.72
62.7175	551.29
62.7319	542.71
62.7464	572.77
62.7608	566.20
62.7752	549.47
62.7897	592.36
62.8041	584.40
62.8186	580.09
62.8330	588.18
62.8474	581.94
62.8619	573.63
62.8763	537.13
62.8908	563.96
62.9052	595.69
62.9196	594.43
62.9341	596.77
62.9485	542.40
62.9630	544.40
62.9774	589.37
62.9918	610.08
63.0063	586.11
63.0207	552.64
63.0352	568.62
63.0496	561.70
63.0640	552.78
63.0785	566.72
63.0929	570.74
63.1074	546.40
63.1218	579.24
63.1362	576.89
63.1507	558.61
63.1651	578.22
63.1796	602.42
63.1940	560.09
63.2084	595.12
63.2229	581.66
63.2373	552.28
63.2518	559.17
63.2662	554.80
63.2806	563.87
63.2951	551.01
63.3095	582.55
63.3240	632.53
63.3384	568.02
63.3528	578.72
63.3673	580.98
63.3817	588.15
63.3962	548.05
63.4106	588.56
63.4250	570.95
63.4395	575.91
63.4539	582.78
63.4684	611.00
63.4828	619.38
63.4972	567.14
63.5117	573.18
63.5261	611.47
63.5406	602.19
63.5550	604.54
63.5694	591.22
63.5839	585.51
63.5983	618.00
63.6128	655.42
63.6272	665.73
63.6416	674.04
63.6561	638.91
63.6705	653.83
63.6850	647.09
63.6994	704.11
63.7138	733.53
63.7283	714.26
63.7427	756.56
63.7572	806.24
63.7716	812.43
63.7861	838.85
63.8005	887.22
63.8149	869.79
63.8294	863.48
63.8438	851.38
63.8583	835.03
63.8727	808.13
63.8871	794.58
63.9016	816.61
63.9160	789.06
63.9305	767.52
63.9449	811.14
63.9593	776.28
63.9738	777.32
63.9882	775.79
64.0027	751.18
64.0171	723.51
64.0315	747.46
64.0460	747.22
64.0604	762.63
64.0749	726.36
64.0893	690.31
64.1037	693.19
64.1182	703.47
64.1326	691.86
64.1471	609.01
64.1615	607.73
64.1759	646.99
64.1904	616.34
64.2048	616.99
64.2193	625.47
64.2337	608.18
64.2481	657.04
64.2626	637.47
64.2770	597.69
64.2915	640.17
64.3059	593.27
64.3203	569.53
64.3348	614.59
64.3492	610.07
64.3637	583.68
64.3781	606.62
64.3925	623.28
64.4070	597.62
64.4214	617.35
64.4359	631.29
64.4503	628.02
64.4647	662.31
64.4792	681.83
64.4936	615.69
64.5081	632.00
64.5225	655.46
64.5369	621.88
64.5514	605.82
64.5658	611.90
64.5803	663.85
64.5947	651.68
64.6091	621.16
64.6236	641.36
64.6380	648.70
64.6525	656.30
64.6669	626.79
64.6813	623.80
64.6958	680.81
64.7102	670.94
64.7247	692.19
64.7391	686.88
64.7535	733.17
64.7680	704.02
64.7824	730.19
64.7969	759.90
64.8113	764.43
64.8257	782.70
64.8402	801.53
64.8546	791.05
64.8691	847.66
64.8835	827.83
64.8979	836.03
64.9124	862.51
64.9268	862.43
64.9413	933.77
64.9557	916.18
64.9701	952.07
64.9846	1079.01
64.9990	1127.65
65.0135	1270.00
65.0279	1474.37
65.0423	1699.88
65.0568	2102.94
65.0712	2715.07
65.0857	3503.45
65.1001	4552.95
65.1145	6249.89
65.1290	8096.19
65.1434	9654.42
65.1579	11417.28
65.1723	11994.01
65.1867	11404.19
65.2012	10058.93
65.2156	8344.92
65.2301	6584.20
65.2445	5339.20
65.2589	4509.78
65.2734	4228.73
65.2878	4573.30
65.3023	5019.66
65.3167	5810.39
65.3311	6592.76
65.3456	7034.49
65.3600	7059.93
65.3745	6507.37
65.3889	5581.60
65.4033	4338.31
65.4178	3480.29
65.4322	2743.50
65.4467	2040.34
65.4611	1721.57
65.4755	1462.63
65.4900	1278.90
65.5044	1160.20
65.5189	1040.16
65.5333	1000.56
65.5477	956.92
65.5622	880.87
65.5766	834.19
65.5911	808.65
65.6055	844.10
65.6199	781.91
65.6344	763.69
65.6488	792.09
65.6633	748.66
65.6777	714.33
65.6921	692.94
65.7066	727.96
65.7210	723.48
65.7355	693.46
65.7499	695.09
65.7643	681.29
65.7788	690.83
65.7932	687.20
65.8077	648.01
65.8221	653.43
65.8365	689.82
65.8510	669.68
65.8654	672.63
65.8799	658.93
65.8943	672.68
65.9087	641.42
65.9232	658.18
65.9376	683.21
65.9521	634.44
65.9665	609.16
65.9809	612.01
65.9954	628.47
66.0098	644.17
66.0243	624.60
66.0387	634.43
66.0531	653.16
66.0676	657.54
66.0820	634.48
66.0965	642.47
66.1109	643.61
66.1253	624.79
66.1398	646.50
66.1542	594.86
66.1687	613.55
66.1831	620.70
66.1975	624.86
66.2120	654.50
66.2264	600.69
66.2409	609.49
66.2553	629.22
66.2697	608.82
66.2842	611.31
66.2986	596.63
66.3131	666.75
66.3275	648.12
66.3419	618.01
66.3564	593.00
66.3708	580.08
66.3853	623.12
66.3997	584.18
66.4141	573.52
66.4286	591.46
66.4430	599.09
66.4575	615.29
66.4719	607.95
66.4863	577.29
66.5008	611.27
66.5152	598.38
66.5297	582.92
66.5441	590.29
66.5585	612.69
66.5730	569.98
66.5874	589.47
66.6019	616.24
66.6163	621.41
66.6307	620.78
66.6452	571.38
66.6596	557.57
66.6741	577.45
66.6885	559.70
66.7029	617.98
66.7174	600.23
66.7318	574.15
66.7463	571.58
66.7607	577.72
66.7751	574.80
66.7896	561.32
66.8040	601.99
66.8185	609.75
66.8329	607.64
66.8473	563.10
66.8618	608.14
66.8762	610.52
66.8907	555.39
66.9051	593.20
66.9195	602.31
66.9340	612.35
66.9484	563.04
66.9629	581.75
66.9773	596.44
66.9917	603.61
67.0062	564.35
67.0206	604.01
67.0351	603.78
67.0495	596.31
67.0639	610.95
67.0784	602.59
67.0928	584.85
67.1073	555.31
67.1217	613.40
67.1361	580.26
67.1506	603.78
67.1650	622.54
67.1795	603.74
67.1939	577.36
67.2083	612.88
67.2228	606.83
67.2372	606.98
67.2517	551.82
67.2661	561.48
67.2805	578.80
67.2950	585.99
67.3094	578.73
67.3239	567.75
67.3383	599.77
67.3527	606.88
67.3672	597.37
67.3816	553.93
67.3961	553.41
67.4105	565.05
67.4250	590.86
67.4394	581.88
67.4538	600.20
67.4683	578.19
67.4827	560.53
67.4972	569.05
67.5116	554.38
67.5260	587.04
67.5405	583.29
67.5549	585.52
67.5694	577.29
67.5838	562.97
67.5982	572.33
67.6127	599.96
67.6271	566.12
67.6416	586.65
67.6560	571.81
67.6704	566.89
67.6849	546.85
67.6993	573.36
67.7138	602.19
67.7282	550.04
67.7426	533.31
67.7571	520.22
67.7715	581.01
67.7860	570.28
67.8004	571.86
67.8148	579.97
67.8293	579.79
67.8437	541.26
67.8582	546.42
67.8726	560.93
67.8870	581.89
67.9015	579.56
67.9159	608.50
67.9304	543.24
67.9448	601.63
67.9592	568.27
67.9737	533.59
67.9881	569.13
68.0026	571.48
68.0170	601.22
68.0314	584.60
68.0459	599.80
68.0603	529.18
68.0748	518.47
68.0892	579.53
68.1036	593.33
68.1181	598.39
68.1325	583.27
68.1470	550.46
68.1614	593.20
68.1758	586.61
68.1903	580.35
68.2047	583.18
68.2192	534.62
68.2336	561.80
68.2480	527.15
68.2625	539.45
68.2769	562.24
68.2914	599.88
68.3058	610.39
68.3202	583.03
68.3347	594.58
68.3491	616.16
68.3636	552.87
68.3780	547.40
68.3924	600.57
68.4069	559.25
68.4213	565.71
68.4358	575.86
68.4502	569.55
68.4646	590.32
68.4791	585.46
68.4935	570.62
68.5080	552.44
68.5224	544.09
68.5368	566.80
68.5513	595.40
68.5657	564.69
68.5802	582.59
68.5946	590.31
68.6090	570.00
68.6235	577.81
68.6379	604.48
68.6524	548.43
68.6668	572.61
68.6812	605.73
68.6957	602.36
68.7101	578.93
68.7246	565.37
68.7390	576.20
68.7534	635.66
68.7679	582.66
68.7823	523.42
68.7968	594.08
68.8112	551.52
68.8256	542.62
68.8401	595.21
68.8545	568.30
68.8690	592.44
68.8834	579.42
68.8978	627.05
68.9123	611.04
68.9267	531.51
68.9412	580.86
68.9556	577.60
68.9700	558.77
68.9845	535.82
68.9989	607.42
69.0134	603.67
69.0278	606.88
69.0422	602.26
69.0567	628.06
69.0711	608.79
69.0856	567.36
69.1000	596.76
69.1144	587.76
69.1289	605.61
69.1433	561.51
69.1578	576.01
69.1722	613.50
69.1866	553.02
69.2011	580.32
69.2155	606.76
69.2300	607.43
69.2444	571.00
69.2588	607.45
69.2733	576.86
69.2877	577.41
69.3022	587.33
69.3166	562.29
69.3310	602.20
69.3455	548.23
69.3599	588.50
69.3744	574.02
69.3888	587.63
69.4032	580.89
69.4177	591.84
69.4321	585.73
69.4466	586.63
69.4610	587.22
69.4754	592.57
69.4899	583.19
69.5043	562.56
69.5188	562.67
69.5332	567.57
69.5476	524.78
69.5621	569.42
69.5765	585.93
69.5910	603.21
69.6054	596.15
69.6198	609.45
69.6343	591.41
69.6487	549.70
69.6632	571.94
69.6776	606.81
69.6920	579.22
69.7065	559.76
69.7209	569.75
69.7354	571.50
69.7498	589.76
69.7642	575.16
69.7787	566.34
69.7931	581.84
69.8076	564.52
69.8220	590.47
69.8364	559.36
69.8509	556.28
69.8653	623.47
69.8798	568.10
69.8942	581.65
69.9086	557.94
69.9231	584.38
69.9375	566.88
69.9520	537.32
69.9664	554.12
69.9808	585.27
69.9953	587.41
70.0097	544.69
70.0242	523.62
70.0386	618.25
70.0530	563.88
70.0675	620.21
70.0819	584.73
70.0964	597.39
70.1108	532.86
70.1252	577.62
70.1397	592.40
70.1541	562.25
70.1686	597.96
70.1830	631.28
70.1974	566.56
70.2119	550.89
70.2263	535.52
70.2408	609.62
70.2552	544.30
70.2696	588.18
70.2841	567.27
70.2985	583.70
70.3130	571.84
70.3274	528.01
70.3418	528.01
70.3563	556.60
70.3707	599.67
70.3852	587.31
70.3996	564.98
70.4140	557.68
70.4285	619.54
70.4429	600.83
70.4574	564.31
70.4718	594.39
70.4862	525.42
70.5007	557.76
70.5151	564.81
70.5296	630.30
70.5440	612.96
70.5584	560.30
70.5729	569.52
70.5873	593.87
70.6018	555.34
70.6162	522.61
70.6306	559.31
70.6451	604.72
70.6595	555.55
70.6740	588.43
70.6884	587.53
70.7028	593.33
70.7173	580.23
70.7317	530.26
70.7462	560.88
70.7606	566.17
70.7750	577.86
70.7895	588.83
70.8039	573.87
70.8184	578.94
70.8328	587.84
70.8472	551.68
70.8617	561.51
70.8761	563.66
70.8906	580.58
70.9050	599.26
70.9194	621.21
70.9339	645.11
70.9483	622.73
70.9628	581.91
70.9772	564.50
70.9916	576.05
71.0061	602.73
71.0205	628.33
71.0350	619.86
71.0494	593.01
71.0638	589.38
71.0783	592.88
71.0927	572.40
71.1072	580.19
71.1216	609.68
71.1361	608.97
71.1505	577.64
71.1649	591.52
71.1794	593.85
71.1938	581.61
71.2083	556.91
71.2227	521.23
71.2371	518.60
71.2516	573.14
71.2660	548.91
71.2805	560.53
71.2949	565.11
71.3093	553.04
71.3238	583.94
71.3382	616.70
71.3527	594.25
71.3671	562.41
71.3815	546.20
71.3960	572.49
71.4104	583.76
71.4249	578.14
71.4393	565.05
71.4537	610.15
71.4682	623.44
71.4826	605.54
71.4971	524.71
71.5115	531.41
71.5259	519.04
71.5404	531.32
71.5548	622.94
71.5693	625.96
71.5837	548.89
71.5981	579.01
71.6126	573.00
71.6270	574.57
71.6415	593.97
71.6559	584.72
71.6703	535.61
71.6848	508.16
71.6992	545.93
71.7137	542.56
71.7281	602.24
71.7425	586.39
71.7570	558.36
71.7714	583.58
71.7859	517.11
71.8003	574.71
71.8147	592.60
71.8292	598.85
71.8436	560.13
71.8581	571.10
71.8725	548.22
71.8869	528.43
71.9014	566.40
71.9158	612.36
71.9303	625.87
71.9447	584.70
71.9591	609.22
71.9736	657.10
71.9880	598.85
72.0025	586.61
72.0169	609.60
72.0313	599.77
72.0458	562.08
72.0602	553.55
72.0747	564.62
72.0891	539.71
72.1035	556.06
72.1180	579.05
72.1324	594.77
72.1469	576.34
72.1613	529.44
72.1757	525.35
72.1902	576.14
72.2046	674.42
72.2191	666.60
72.2335	519.51
72.2479	510.86
72.2624	496.11
72.2768	489.65
72.2913	570.92
72.3057	616.97
72.3201	553.38
72.3346	506.08
72.3490	560.52
72.3635	612.35
72.3779	582.18
72.3923	589.99
72.4068	534.75
72.4212	608.40
72.4357	756.52
72.4501	637.85
72.4645	599.15
72.4790	634.58
72.4934	639.59
72.5079	618.77
72.5223	721.42
72.5367	657.61
72.5512	579.29
72.5656	648.78
72.5801	634.57
72.5945	596.84
72.6089	642.66
72.6234	659.22
72.6378	570.60
72.6523	643.89
72.6667	638.05
72.6811	557.63
72.6956	617.16
72.7100	548.32
72.7245	538.61
72.7389	531.96
72.7533	510.05
72.7678	581.22
72.7822	634.06
72.7967	633.27
72.8111	604.05
72.8255	614.07
72.8400	573.37
72.8544	531.43
72.8689	565.36
72.8833	567.29

Result vector
22.1120	609.10
22.1264	527.07
22.1409	543.40
22.1553	482.27
22.1697	517.95
22.1842	551.67
22.1986	590.44
22.2131	572.41
22.2275	590.05
22.2419	595.39
22.2564	565.16
22.2708	635.68
22.2853	608.75
22.2997	525.67
22.3141	586.66
22.3286	626.79
22.3430	608.18
22.3575	695.01
22.3719	582.73
22.3863	559.03
22.4008	586.56
22.4152	555.58
22.4297	641.03
22.4441	617.27
22.4585	578.16
22.4730	583.53
22.4874	590.39
22.5019	624.96
22.5163	597.74
22.5307	567.12
22.5452	565.64
22.5596	633.64
22.5741	563.37
22.5885	626.85
22.6029	635.94
22.6174	617.51
22.6318	535.33
22.6463	639.31
22.6607	585.54
22.6751	516.08
22.6896	547.78
22.7040	630.42
22.7185	564.65
22.7329	564.59
22.7473	636.50
22.7618	592.17
22.7762	586.91
22.7907	613.73
22.8051	570.31
22.8195	504.62
22.8340	535.39
22.8484	594.66
22.8629	489.06
22.8773	565.08
22.8917	585.15
22.9062	580.84
22.9206	555.05
22.9351	498.75
22.9495	566.44
22.9639	604.87
22.9784	667.61
22.9928	551.29
23.0073	503.53
23.0217	600.65
23.0361	488.64
23.0506	524.09
23.0650	567.05
23.0795	542.56
23.0939	581.98
23.1083	498.98
23.1228	564.84
23.1372	503.59
23.1517	568.27
23.1661	564.08
23.1806	614.13
23.1950	574.88
23.2094	599.54
23.2239	522.03
23.2383	622.83
23.2528	601.73
23.2672	475.98
23.2816	537.50
23.2961	529.70
23.3105	591.29
23.3250	554.74
23.3394	612.94
23.3538	599.51
23.3683	584.98
23.3827	579.53
23.3972	538.89
23.4116	582.56
23.4260	606.45
23.4405	505.79
23.4549	545.43
23.4694	613.46
23.4838	584.69
23.4982	582.78
23.5127	530.98
23.5271	562.59
23.5416	583.34
23.5560	598.84
23.5704	505.07
23.5849	551.46
23.5993	628.39
23.6138	557.32
23.6282	505.65
23.6426	556.64
23.6571	548.45
23.6715	492.30
23.6860	495.91
23.7004	591.55
23.7148	534.97
23.7293	544.78
23.7437	485.07
23.7582	496.25
23.7726	531.88
23.7870	516.45
23.8015	584.62
23.8159	570.70
23.8304	532.10
23.8448	537.03
23.8592	576.48
23.8737	578.82
23.8881	563.69
23.9026	673.19
23.9170	568.62
23.9314	538.57
23.9459	514.08
23.9603	465.70
23.9748	629.47
23.9892	549.31
24.0036	492.16
24.0181	498.34
24.0325	551.72
24.0470	581.47
24.0614	585.42
24.0758	552.68
24.0903	532.52
24.1047	502.02
24.1192	568.55
24.1336	571.98
24.1480	568.69
24.1625	547.27
24.1769	605.80
24.1914	564.65
24.2058	530.95
24.2202	623.53
24.2347	582.02
24.2491	601.03
24.2636	542.75
24.2780	626.90
24.2924	595.98
24.3069	604.28
24.3213	532.70
24.3358	588.00
24.3502	555.47
24.3646	537.26
24.3791	500.16
24.3935	569.04
24.4080	522.59
24.4224	568.66
24.4368	539.37
24.4513	555.49
24.4657	569.04
24.4802	579.18
24.4946	484.29
24.5090	510.73
24.5235	549.35
24.5379	581.78
24.5524	598.45
24.5668	559.48
24.5812	559.32
24.5957	574.17
24.6101	562.63
24.6246	579.63
24.6390	528.62
24.6534	546.78
24.6679	555.09
24.6823	499.02
24.6968	563.23
24.7112	591.60
24.7256	562.56
24.7401	515.67
24.7545	570.29
24.7690	557.16
24.7834	565.85
24.7978	533.36
24.8123	560.04
24.8267	548.84
24.8412	496.75
24.8556	580.49
24.8700	662.22
24.8845	548.84
24.8989	531.80
24.9134	561.02
24.9278	498.63
24.9422	517.19
24.9567	538.04
24.9711	561.25
24.9856	578.10
25.0000	596.58
25.0144	505.30
25.0289	596.55
25.0433	547.25
25.0578	560.89
25.0722	573.37
25.0866	545.98
25.1011	507.02
25.1155	602.96
25.1300	580.60
25.1444	560.53
25.1588	552.16
25.1733	532.37
25.1877	554.25
25.2022	537.63
25.2166	532.61
25.2310	554.93
25.2455	568.38
25.2599	517.27
25.2744	551.92
25.2888	570.18
25.3032	553.01
25.3177	526.72
25.3321	542.47
25.3466	488.50
25.3610	542.50
25.3754	554.00
25.3899	530.39
25.4043	521.20
25.4188	545.04
25.4332	535.77
25.4476	489.95
25.4621	521.53
25.4765	528.17
25.4910	518.87
25.5054	558.80
25.5198	504.38
25.5343	534.51
25.5487	519.14
25.5632	528.31
25.5776	535.80
25.5920	589.76
25.6065	590.59
25.6209	549.98
25.6354	557.01
25.6498	513.58
25.6642	501.00
25.6787	516.03
25.6931	538.01
25.7076	562.60
25.7220	581.24
25.7364	526.64
25.7509	574.53
25.7653	558.15
25.7798	547.36
25.7942	556.67
25.8086	535.71
25.8231	537.13
25.8375	569.58
25.8520	556.50
25.8664	539.40
25.8808	547.64
25.8953	521.68
25.9097	518.87
25.9242	540.12
25.9386	589.37
25.9530	542.93
25.9675	571.93
25.9819	527.09
25.9964	513.14
26.0108	549.99
26.0252	524.94
26.0397	519.88
26.0541	533.81
26.0686	526.22
26.0830	488.56
26.0974	544.78
26.1119	575.21
26.1263	566.86
26.1408	554.71
26.1552	527.98
26.1696	517.54
26.1841	527.64
26.1985	541.41
26.2130	549.23
26.2274	535.19
26.2418	545.23
26.2563	543.25
26.2707	553.46
26.2852	530.82
26.2996	523.19
26.3140	525.17
26.3285	515.71
26.3429	532.28
26.3574	574.14
26.3718	509.68
26.3862	479.63
26.4007	526.77
26.4151	551.72
26.4296	549.14
26.4440	507.76
26.4584	509.88
26.4729	541.02
26.4873	551.52
26.5018	548.00
26.5162	534.75
26.5306	560.23
26.5451	569.09
26.5595	554.22
26.5740	525.97
26.5884	553.55
26.6028	548.73
26.6173	533.72
26.6317	553.14
26.6462	545.57
26.6606	543.05
26.6750	510.62
26.6895	521.76
26.7039	544.82
26.7184	579.97
26.7328	545.65
26.7472	508.22
26.7617	513.59
26.7761	540.84
26.7906	539.30
26.8050	524.88
26.8194	515.17
26.8339	517.56
26.8483	508.59
26.8628	536.86
26.8772	536.56
26.8917	533.61
26.9061	544.75
26.9205	526.62
26.9350	532.92
26.9494	518.41
26.9639	550.43
26.9783	534.75
26.9927	489.13
27.0072	506.38
27.0216	507.63
27.0361	530.23
27.0505	520.78
27.0649	521.46
27.0794	546.16
27.0938	557.82
27.1083	560.03
27.1227	532.19
27.1371	563.63
27.1516	519.84
27.1660	528.34
27.1805	518.30
27.1949	521.33
27.2093	518.15
27.2238	528.87
27.2382	548.42
27.2527	522.21
27.2671	503.60
27.2815	520.47
27.2960	505.77
27.3104	527.96
27.3249	498.39
27.3393	505.40
27.3537	528.44
27.3682	516.26
27.3826	549.24
27.3971	511.56
27.4115	503.90
27.4259	503.37
27.4404	511.03
27.4548	527.40
27.4693	527.75
27.4837	544.74
27.4981	515.35
27.5126	516.42
27.5270	525.92
27.5415	533.30
27.5559	568.64
27.5703	537.62
27.5848	491.81
27.5992	489.22
27.6137	506.54
27.6281	508.04
27.6425	538.22
27.6570	534.68
27.6714	523.48
27.6859	528.99
27.7003	535.89
27.7147	527.78
27.7292	492.36
27.7436	533.86
27.7581	542.33
27.7725	529.08
27.7869	491.73
27.8014	525.41
27.8158	512.96
27.8303	531.90
27.8447	510.07
27.8591	483.57
27.8736	517.37
27.8880	524.69
27.9025	587.59
27.9169	546.79
27.9313	517.13
27.9458	530.69
27.9602	506.32
27.9747	520.58
27.9891	527.87
28.0035	518.55
28.0180	535.08
28.0324	536.92
28.0469	517.33
28.0613	551.88
28.0757	528.42
28.0902	514.54
28.1046	535.54
28.1191	536.65
28.1335	552.19
28.1479	492.13
28.1624	501.89
28.1768	544.72
28.1913	509.50
28.2057	526.52
28.2201	511.63
28.2346	526.95
28.2490	531.99
28.2635	521.16
28.2779	499.74
28.2923	514.06
28.3068	511.76
28.3212	509.78
28.3357	551.78
28.3501	532.91
28.3645	512.62
28.3790	499.60
28.3934	517.95
28.4079	483.87
28.4223	544.53
28.4367	530.97
28.4512	536.61
28.4656	522.34
28.4801	551.27
28.4945	541.62
28.5089	513.83
28.5234	521.75
28.5378	523.02
28.5523	538.78
28.5667	523.22
28.5811	490.82
28.5956	472.77
28.6100	521.51
28.6245	506.67
28.6389	509.87
28.6533	534.77
28.6678	515.19
28.6822	519.35
28.6967	532.88
28.7111	536.00
28.7255	508.05
28.7400	513.58
28.7544	524.85
28.7689	497.84
28.7833	528.01
28.7977	517.64
28.8122	499.75
28.8266	517.89
28.8411	496.98
28.8555	530.93
28.8699	520.69
28.8844	484.63
28.8988	542.51
28.9133	566.23
28.9277	488.94
28.9421	543.43
28.9566	500.91
28.9710	473.42
28.9855	514.68
28.9999	505.22
29.0143	484.46
29.0288	498.29
29.0432	445.90
29.0577	548.00
29.0721	536.37
29.0865	525.48
29.1010	504.71
29.1154	532.92
29.1299	517.30
29.1443	490.79
29.1587	489.71
29.1732	517.07
29.1876	509.03
29.2021	502.17
29.2165	484.48
29.2309	512.32
29.2454	518.31
29.2598	507.39
29.2743	497.65
29.2887	485.62
29.3031	505.78
29.3176	498.96
29.3320	483.31
29.3465	528.98
29.3609	499.28
29.3753	515.93
29.3898	528.61
29.4042	503.44
29.4187	548.41
29.4331	545.77
29.4475	530.44
29.4620	514.85
29.4764	523.56
29.4909	521.34
29.5053	496.64
29.5197	522.13
29.5342	533.02
29.5486	538.10
29.5631	558.23
29.5775	489.31
29.5919	495.89
29.6064	521.73
29.6208	530.25
29.6353	509.11
29.6497	490.76
29.6641	479.70
29.6786	487.67
29.6930	473.56
29.7075	506.87
29.7219	522.61
29.7363	510.48
29.7508	498.16
29.7652	504.25
29.7797	522.65
29.7941	495.13
29.8085	523.67
29.8230	525.46
29.8374	521.96
29.8519	508.10
29.8663	490.02
29.8807	497.40
29.8952	548.30
29.9096	554.86
29.9241	559.10
29.9385	510.26
29.9529	497.84
29.9674	507.54
29.9818	475.23
29.9963	494.74
30.0107	493.21
30.0251	541.13
30.0396	516.94
30.0540	483.51
30.0685	526.52
30.0829	516.67
30.0973	526.95
30.1118	504.81
30.1262	478.15
30.1407	461.59
30.1551	505.71
30.1695	539.21
30.1840	507.50
30.1984	487.76
30.2129	510.32
30.2273	506.33
30.2417	512.19
30.2562	499.69
30.2706	492.95
30.2851	506.79
30.2995	503.78
30.3139	505.70
30.3284	490.68
30.3428	512.91
30.3573	505.67
30.3717	513.91
30.3861	483.99
30.4006	485.70
30.4150	501.25
30.4295	556.55
30.4439	510.28
30.4583	490.88
30.4728	497.48
30.4872	534.34
30.5017	527.79
30.5161	524.95
30.5305	535.19
30.5450	569.09
30.5594	567.01
30.5739	557.10
30.5883	556.25
30.6028	586.46
30.6172	631.83
30.6316	677.94
30.6461	700.25
30.6605	685.00
30.6750	686.27
30.6894	715.82
30.7038	743.27
30.7183	728.19
30.7327	685.32
30.7472	703.56
30.7616	646.62
30.7760	599.57
30.7905	613.66
30.8049	618.97
30.8194	571.65
30.8338	566.71
30.8482	551.48
30.8627	548.51
30.8771	565.66
30.8916	547.49
30.9060	533.97
30.9204	523.63
30.9349	533.59
30.9493	532.47
30.9638	508.70
30.9782	497.02
30.9926	505.37
31.0071	507.69
31.0215	542.08
31.0360	507.38
31.0504	464.46
31.0648	521.30
31.0793	567.20
31.0937	519.52
31.1082	492.09
31.1226	514.51
31.1370	513.71
31.1515	500.29
31.1659	490.09
31.1804	507.07
31.1948	508.50
31.2092	513.85
31.2237	519.89
31.2381	523.92
31.2526	536.70
31.2670	512.59
31.2814	552.96
31.2959	526.88
31.3103	532.24
31.3248	528.21
31.3392	550.33
31.3536	540.97
31.3681	540.69
31.3825	520.10
31.3970	517.40
31.4114	514.75
31.4258	545.50
31.4403	529.31
31.4547	515.81
31.4692	541.00
31.4836	524.35
31.4980	522.24
31.5125	484.56
31.5269	515.57
31.5414	522.78
31.5558	480.97
31.5702	469.57
31.5847	468.87
31.5991	490.64
31.6136	497.89
31.6280	487.99
31.6424	491.21
31.6569	511.25
31.6713	486.39
31.6858	488.45
31.7002	522.06
31.7146	518.76
31.7291	493.20
31.7435	493.14
31.7580	506.19
31.7724	518.13
31.7868	500.35
31.8013	526.21
31.8157	522.36
31.8302	510.65
31.8446	511.83
31.8590	531.94
31.8735	552.41
31.8879	530.67
31.9024	531.17
31.9168	537.91
31.9312	528.79
31.9457	518.02
31.9601	493.04
31.9746	524.77
31.9890	496.21
32.0034	489.62
32.0179	521.17
32.0323	517.68
32.0468	556.51
32.0612	531.96
32.0756	495.67
32.0901	498.19
32.1045	506.65
32.1190	489.89
32.1334	514.53
32.1478	518.21
32.1623	527.67
32.1767	528.24
32.1912	531.91
32.2056	500.27
32.2200	512.11
32.2345	531.42
32.2489	506.44
32.2634	515.35
32.2778	493.64
32.2922	461.34
32.3067	497.95
32.3211	491.06
32.3356	514.80
32.3500	511.17
32.3644	512.17
32.3789	492.40
32.3933	515.87
32.4078	502.15
32.4222	497.56
32.4366	493.74
32.4511	496.97
32.4655	515.15
32.4800	540.20
32.4944	508.70
32.5088	533.17
32.5233	549.35
32.5377	513.29
32.5522	490.22
32.5666	510.94
32.5810	552.11
32.5955	546.55
32.6099	508.04
32.6244	523.64
32.6388	532.51
32.6532	492.19
32.6677	532.36
32.6821	495.90
32.6966	483.88
32.7110	518.49
32.7254	516.96
32.7399	469.08
32.7543	486.73
32.7688	504.12
32.7832	511.82
32.7976	507.41
32.8121	528.72
32.8265	513.98
32.8410	487.58
32.8554	514.26
32.8698	536.46
32.8843	502.18
32.8987	508.26
32.9132	508.03
32.9276	494.49
32.9420	509.80
32.9565	497.05
32.9709	517.12
32.9854	503.02
32.9998	530.77
33.0142	513.24
33.0287	498.99
33.0431	508.74
33.0576	497.95
33.0720	529.34
33.0864	518.51
33.1009	533.06
33.1153	505.15
33.1298	517.20
33.1442	490.14
33.1586	464.45
33.1731	497.09
33.1875	505.48
33.2020	482.41
33.2164	499.40
33.2308	481.78
33.2453	496.37
33.2597	490.52
33.2742	505.65
33.2886	517.49
33.3030	502.91
33.3175	525.67
33.3319	503.85
33.3464	519.37
33.3608	520.81
33.3752	526.98
33.3897	512.02
33.4041	489.29
33.4186	501.17
33.4330	502.52
33.4474	485.42
33.4619	519.07
33.4763	492.62
33.4908	512.43
33.5052	503.04
33.5196	513.78
33.5341	496.35
33.5485	505.56
33.5630	496.09
33.5774	515.54
33.5918	506.22
33.6063	493.50
33.6207	472.38
33.6352	502.03
33.6496	519.82
33.6640	500.42
33.6785	510.18
33.6929	473.31
33.7074	518.16
33.7218	509.44
33.7362	466.36
33.7507	501.47
33.7651	498.38
33.7796	513.34
33.7940	501.32
33.8084	534.59
33.8229	521.64
33.8373	501.27
33.8518	509.41
33.8662	483.62
33.8806	502.33
33.8951	456.99
33.9095	521.43
33.9240	510.31
33.9384	494.45
33.9528	513.56
33.9673	486.89
33.9817	535.63
33.9962	550.84
34.0106	497.18
34.0250	501.97
34.0395	502.86
34.0539	505.17
34.0684	536.26
34.0828	520.61
34.0972	510.41
34.1117	494.13
34.1261	522.46
34.1406	488.26
34.1550	491.94
34.1694	462.61
34.1839	490.64
34.1983	485.21
34.2128	488.94
34.2272	517.89
34.2417	502.70
34.2561	475.11
34.2705	517.04
34.2850	523.79
34.2994	482.39
34.3139	501.92
34.3283	520.82
34.3427	509.82
34.3572	504.24
34.3716	485.82
34.3861	510.75
34.4005	488.72
34.4149	510.68
34.4294	532.15
34.4438	513.44
34.4583	514.39
34.4727	489.53
34.4871	491.21
34.5016	509.70
34.5160	488.17
34.5305	494.04
34.5449	494.25
34.5593	529.36
34.5738	539.94
34.5882	529.63
34.6027	489.70
34.6171	508.67
34.6315	526.39
34.6460	496.44
34.6604	519.45
34.6749	485.09
34.6893	475.53
34.7037	513.90
34.7182	504.13
34.7326	505.37
34.7471	520.23
34.7615	505.80
34.7759	522.73
34.7904	519.98
34.8048	508.45
34.8193	496.80
34.8337	524.59
34.8481	510.15
34.8626	530.56
34.8770	527.18
34.8915	501.50
34.9059	496.02
34.9203	485.48
34.9348	544.36
34.9492	516.34
34.9637	493.97
34.9781	492.37
34.9925	513.69
35.0070	481.99
35.0214	496.19
35.0359	517.14
35.0503	508.65
35.0647	521.86
35.0792	500.02
35.0936	516.07
35.1081	518.60
35.1225	491.34
35.1369	493.40
35.1514	488.83
35.1658	513.21
35.1803	517.00
35.1947	484.88
35.2091	492.42
35.2236	526.75
35.2380	506.08
35.2525	522.19
35.2669	513.29
35.2813	474.98
35.2958	501.58
35.3102	538.20
35.3247	517.68
35.3391	530.09
35.3535	561.45
35.3680	502.51
35.3824	503.68
35.3969	516.24
35.4113	496.15
35.4257	528.22
35.4402	528.88
35.4546	559.24
35.4691	532.77
35.4835	524.99
35.4979	552.56
35.5124	523.77
35.5268	500.73
35.5413	534.15
35.5557	525.23
35.5701	515.06
35.5846	531.77
35.5990	556.71
35.6135	546.89
35.6279	523.99
35.6423	545.71
35.6568	555.83
35.6712	564.33
35.6857	603.79
35.7001	682.29
35.7145	683.56
35.7290	647.44
35.7434	608.45
35.7579	567.07
35.7723	561.52
35.7867	587.04
35.8012	666.96
35.8156	687.38
35.8301	615.89
35.8445	615.69
35.8589	646.94
35.8734	730.49
35.8878	819.34
35.9023	994.44
35.9167	1116.50
35.9311	1387.53
35.9456	2032.24
35.9600	2407.86
35.9745	1998.40
35.9889	1930.99
36.0033	2230.07
36.0178	2322.04
36.0322	2093.35
36.0467	2106.71
36.0611	1909.19
36.0755	1897.01
36.0900	1838.13
36.1044	1865.02
36.1189	1847.64
36.1333	1761.49
36.1477	1619.24
36.1622	1479.22
36.1766	1387.84
36.1911	1193.98
36.2055	1085.09
36.2199	1012.33
36.2344	897.78
36.2488	846.38
36.2633	801.29
36.2777	753.09
36.2921	665.57
36.3066	633.94
36.3210	604.97
36.3355	637.17
36.3499	589.03
36.3643	569.78
36.3788	549.65
36.3932	531.82
36.4077	535.68
36.4221	572.35
36.4365	544.97
36.4510	534.73
36.4654	539.77
36.4799	534.51
36.4943	552.17
36.5087	528.34
36.5232	522.27
36.5376	551.63
36.5521	581.00
36.5665	519.61
36.5809	518.56
36.5954	526.95
36.6098	525.59
36.6243	537.33
36.6387	515.41
36.6531	531.68
36.6676	534.20
36.6820	518.69
36.6965	536.55
36.7109	535.03
36.7253	554.68
36.7398	514.32
36.7542	554.08
36.7687	566.97
36.7831	557.06
36.7975	534.23
36.8120	548.31
36.8264	589.46
36.8409	562.81
36.8553	570.32
36.8697	541.56
36.8842	569.08
36.8986	589.93
36.9131	595.62
36.9275	595.52
36.9419	594.53
36.9564	572.13
36.9708	580.44
36.9853	543.43
36.9997	506.27
37.0141	534.57
37.0286	544.04
37.0430	504.15
37.0575	543.11
37.0719	514.04
37.0863	528.79
37.1008	520.33
37.1152	518.26
37.1297	505.04
37.1441	522.90
37.1585	521.91
37.1730	517.01
37.1874	519.06
37.2019	503.20
37.2163	513.41
37.2307	510.12
37.2452	527.33
37.2596	500.71
37.2741	517.18
37.2885	527.83
37.3029	507.09
37.3174	510.06
37.3318	535.78
37.3463	498.47
37.3607	482.54
37.3751	504.16
37.3896	485.64
37.4040	514.04
37.4185	528.81
37.4329	530.69
37.4473	450.16
37.4618	503.03
37.4762	538.12
37.4907	517.20
37.5051	502.76
37.5195	517.49
37.5340	489.37
37.5484	513.05
37.5629	516.92
37.5773	500.00
37.5917	515.08
37.6062	488.09
37.6206	488.23
37.6351	515.50
37.6495	502.91
37.6639	505.16
37.6784	506.21
37.6928	513.57
37.7073	543.18
37.7217	516.94
37.7361	489.97
37.7506	524.79
37.7650	492.14
37.7795	520.13
37.7939	511.69
37.8083	521.13
37.8228	524.58
37.8372	511.69
37.8517	499.11
37.8661	521.96
37.8805	518.48
37.8950	533.33
37.9094	543.32
37.9239	496.28
37.9383	512.80
37.9528	513.12
37.9672	536.24
37.9816	548.26
37.9961	479.53
38.0105	498.16
38.0250	494.80
38.0394	518.81
38.0538	506.55
38.0683	554.65
38.0827	510.76
38.0972	486.88
38.1116	494.89
38.1260	496.65
38.1405	491.99
38.1549	497.98
38.1694	509.85
38.1838	526.01
38.1982	521.71
38.2127	502.22
38.2271	497.29
38.2416	492.25
38.2560	525.13
38.2704	521.20
38.2849	514.77
38.2993	528.82
38.3138	508.43
38.3282	534.83
38.3426	517.40
38.3571	508.26
38.3715	520.64
38.3860	500.24
38.4004	509.39
38.4148	563.78
38.4293	572.79
38.4437	597.59
38.4582	634.85
38.4726	673.56
38.4870	679.84
38.5015	750.08
38.5159	774.05
38.5304	819.25
38.5448	777.78
38.5592	774.23
38.5737	759.03
38.5881	739.65
38.6026	717.38
38.6170	716.30
38.6314	669.00
38.6459	656.75
38.6603	608.26
38.6748	591.52
38.6892	600.73
38.7036	573.72
38.7181	526.63
38.7325	525.42
38.7470	528.54
38.7614	512.21
38.7758	508.76
38.7903	498.35
38.8047	545.80
38.8192	540.02
38.8336	542.51
38.8480	483.05
38.8625	498.61
38.8769	502.18
38.8914	499.81
38.9058	525.15
38.9202	504.41
38.9347	519.94
38.9491	499.31
38.9636	509.34
38.9780	511.43
38.9924	501.03
39.0069	498.70
39.0213	544.48
39.0358	509.23
39.0502	465.79
39.0646	491.87
39.0791	505.66
39.0935	528.95
39.1080	517.54
39.1224	500.83
39.1368	480.81
39.1513	445.93
39.1657	490.51
39.1802	475.77
39.1946	489.93
39.2090	497.42
39.2235	528.65
39.2379	514.58
39.2524	516.78
39.2668	504.93
39.2812	521.50
39.2957	499.15
39.3101	509.66
39.3246	497.00
39.3390	540.38
39.3534	518.35
39.3679	502.61
39.3823	490.70
39.3968	516.77
39.4112	535.59
39.4256	531.57
39.4401	513.28
39.4545	527.90
39.4690	501.97
39.4834	513.38
39.4978	524.56
39.5123	488.56
39.5267	511.32
39.5412	508.44
39.5556	506.92
39.5700	503.26
39.5845	503.31
39.5989	493.18
39.6134	491.06
39.6278	451.11
39.6422	496.64
39.6567	543.29
39.6711	546.52
39.6856	516.33
39.7000	514.91
39.7144	519.61
39.7289	508.73
39.7433	507.54
39.7578	484.44
39.7722	484.65
39.7866	475.13
39.8011	493.43
39.8155	502.55
39.8300	490.15
39.8444	507.97
39.8588	510.75
39.8733	491.03
39.8877	495.93
39.9022	522.18
39.9166	517.74
39.9310	531.38
39.9455	522.13
39.9599	471.23
39.9744	494.23
39.9888	521.27
40.0032	487.54
40.0177	519.37
40.0321	528.37
40.0466	482.48
40.0610	506.86
40.0754	528.19
40.0899	514.83
40.1043	500.51
40.1188	510.49
40.1332	504.20
40.1476	518.17
40.1621	512.37
40.1765	512.30
40.1910	508.63
40.2054	531.85
40.2198	500.59
40.2343	484.04
40.2487	478.65
40.2632	499.09
40.2776	507.65
40.2920	497.75
40.3065	475.33
40.3209	488.68
40.3354	476.17
40.3498	510.88
40.3642	539.44
40.3787	502.19
40.3931	481.83
40.4076	518.24
40.4220	508.53
40.4364	507.37
40.4509	475.23
40.4653	460.56
40.4798	513.36
40.4942	504.47
40.5086	495.99
40.5231	497.42
40.5375	513.76
40.5520	487.18
40.5664	500.38
40.5808	499.73
40.5953	533.49
40.6097	488.05
40.6242	522.82
40.6386	525.55
40.6530	494.17
40.6675	498.48
40.6819	500.30
40.6964	494.82
40.7108	490.10
40.7252	489.15
40.7397	489.53
40.7541	495.10
40.7686	483.57
40.7830	503.88
40.7974	508.44
40.8119	508.57
40.8263	517.96
40.8408	511.64
40.8552	505.52
40.8696	493.33
40.8841	499.57
40.8985	520.13
40.9130	517.74
40.9274	518.72
40.9418	515.71
40.9563	514.87
40.9707	495.30
40.9852	494.55
40.9996	520.93
41.0140	492.22
41.0285	513.85
41.0429	493.17
41.0574	537.05
41.0718	523.65
41.0862	515.37
41.1007	549.41
41.1151	494.02
41.1296	488.32
41.1440	468.12
41.1584	458.93
41.1729	463.07
41.1873	510.62
41.2018	506.23
41.2162	511.77
41.2306	505.96
41.2451	534.61
41.2595	487.83
41.2740	483.25
41.2884	485.42
41.3028	490.76
41.3173	490.63
41.3317	508.64
41.3462	502.35
41.3606	485.98
41.3750	510.93
41.3895	506.30
41.4039	498.81
41.4184	497.32
41.4328	506.96
41.4472	503.42
41.4617	505.34
41.4761	547.42
41.4906	510.97
41.5050	494.09
41.5194	506.12
41.5339	508.60
41.5483	524.05
41.5628	523.25
41.5772	517.18
41.5916	478.13
41.6061	529.33
41.6205	506.41
41.6350	513.15
41.6494	487.97
41.6639	504.97
41.6783	506.34
41.6927	501.64
41.7072	500.24
41.7216	514.96
41.7361	521.38
41.7505	525.32
41.7649	519.43
41.7794	502.67
41.7938	510.95
41.8083	511.87
41.8227	523.95
41.8371	489.34
41.8516	503.03
41.8660	529.25
41.8805	510.15
41.8949	531.78
41.9093	551.60
41.9238	569.52
41.9382	588.54
41.9527	592.50
41.9671	571.07
41.9815	555.32
41.9960	531.95
42.0104	529.34
42.0249	513.81
42.0393	556.77
42.0537	607.34
42.0682	563.68
42.0826	580.90
42.0971	630.10
42.1115	585.62
42.1259	613.75
42.1404	570.43
42.1548	576.24
42.1693	654.95
42.1837	692.70
42.1981	749.83
42.2126	822.25
42.2270	872.25
42.2415	1031.40
42.2559	1227.26
42.2703	1317.97
42.2848	1450.74
42.2992	1598.72
42.3137	1658.19
42.3281	1609.70
42.3425	1546.05
42.3570	1483.20
42.3714	1424.63
42.3859	1339.23
42.4003	1329.02
42.4147	1283.88
42.4292	1260.39
42.4436	1153.47
42.4581	1034.23
42.4725	976.82
42.4869	876.61
42.5014	775.46
42.5158	720.41
42.5303	669.27
42.5447	618.11
42.5591	583.81
42.5736	576.76
42.5880	614.23
42.6025	573.73
42.6169	572.17
42.6313	551.42
42.6458	528.88
42.6602	524.84
42.6747	514.74
42.6891	481.49
42.7035	550.67
42.7180	538.94
42.7324	513.29
42.7469	531.74
42.7613	543.85
42.7757	533.47
42.7902	545.24
42.8046	528.43
42.8191	517.66
42.8335	511.60
42.8479	510.61
42.8624	502.21
42.8768	524.02
42.8913	531.58
42.9057	550.08
42.9201	548.93
42.9346	532.90
42.9490	518.93
42.9635	488.19
42.9779	491.71
42.9923	499.83
43.0068	518.43
43.0212	519.54
43.0357	509.07
43.0501	517.64
43.0645	518.54
43.0790	495.11
43.0934	517.70
43.1079	527.53
43.1223	528.52
43.1367	510.11
43.1512	504.72
43.1656	520.10
43.1801	557.26
43.1945	517.91
43.2089	529.50
43.2234	563.13
43.2378	540.43
43.2523	525.89
43.2667	501.61
43.2811	518.52
43.2956	543.52
43.3100	547.74
43.3245	535.13
43.3389	545.08
43.3533	523.79
43.3678	527.65
43.3822	540.67
43.3967	508.73
43.4111	533.88
43.4255	552.77
43.4400	528.76
43.4544	470.79
43.4689	504.53
43.4833	538.17
43.4977	516.15
43.5122	512.85
43.5266	512.99
43.5411	487.90
43.5555	506.11
43.5699	499.74
43.5844	504.19
43.5988	518.81
43.6133	508.82
43.6277	539.19
43.6421	553.77
43.6566	531.09
43.6710	502.85
43.6855	512.01
43.6999	519.47
43.7143	537.48
43.7288	531.27
43.7432	556.51
43.7577	542.47
43.7721	532.25
43.7865	553.12
43.8010	563.34
43.8154	548.43
43.8299	549.03
43.8443	562.02
43.8587	609.99
43.8732	663.57
43.8876	620.01
43.9021	705.67
43.9165	688.97
43.9309	675.35
43.9454	686.86
43.9598	642.52
43.9743	610.42
43.9887	619.69
44.0031	605.32
44.0176	610.43
44.0320	622.32
44.0465	592.29
44.0609	586.08
44.0753	533.95
44.0898	497.73
44.1042	522.39
44.1187	574.13
44.1331	530.72
44.1475	535.43
44.1620	531.47
44.1764	529.83
44.1909	520.62
44.2053	516.35
44.2197	495.65
44.2342	503.91
44.2486	509.67
44.2631	506.12
44.2775	522.09
44.2919	517.30
44.3064	540.20
44.3208	529.16
44.3353	521.23
44.3497	542.19
44.3641	533.00
44.3786	568.74
44.3930	523.88
44.4075	537.75
44.4219	572.47
44.4363	558.07
44.4508	554.73
44.4652	573.30
44.4797	559.03
44.4941	594.97
44.5085	561.51
44.5230	569.48
44.5374	589.23
44.5519	562.51
44.5663	562.64
44.5807	575.34
44.5952	583.82
44.6096	587.30
44.6241	569.70
44.6385	577.05
44.6529	568.99
44.6674	591.67
44.6818	565.49
44.6963	612.41
44.7107	650.90
44.7251	693.07
44.7396	750.57
44.7540	806.90
44.7685	845.20
44.7829	884.00
44.7973	877.58
44.8118	841.62
44.8262	794.78
44.8407	768.02
44.8551	758.65
44.8695	743.48
44.8840	757.47
44.8984	751.24
44.9129	729.77
44.9273	690.13
44.9417	675.09
44.9562	632.98
44.9706	579.21
44.9851	520.43
44.9995	554.75
45.0139	530.60
45.0284	505.72
45.0428	526.48
45.0573	534.85
45.0717	521.59
45.0861	514.72
45.1006	479.47
45.1150	495.44
45.1295	531.67
45.1439	485.28
45.1583	521.32
45.1728	507.73
45.1872	516.53
45.2017	516.74
45.2161	530.66
45.2305	498.51
45.2450	493.70
45.2594	530.82
45.2739	505.84
45.2883	524.20
45.3028	501.48
45.3172	478.03
45.3316	495.10
45.3461	505.77
45.3605	523.88
45.3750	500.50
45.3894	517.46
45.4038	510.82
45.4183	494.26
45.4327	509.57
45.4472	524.81
45.4616	481.56
45.4760	507.14
45.4905	500.63
45.5049	499.24
45.5194	505.20
45.5338	514.91
45.5482	517.86
45.5627	511.62
45.5771	492.06
45.5916	492.84
45.6060	513.60
45.6204	475.82
45.6349	508.51
45.6493	526.43
45.6638	517.90
45.6782	502.28
45.6926	478.57
45.7071	510.92
45.7215	531.40
45.7360	512.37
45.7504	497.15
45.7648	498.98
45.7793	509.29
45.7937	527.86
45.8082	506.88
45.8226	507.27
45.8370	508.57
45.8515	468.00
45.8659	484.12
45.8804	522.67
45.8948	548.35
45.9092	520.02
45.9237	516.49
45.9381	509.30
45.9526	472.38
45.9670	499.00
45.9814	502.25
45.9959	500.84
46.0103	484.02
46.0248	502.95
46.0392	516.89
46.0536	496.63
46.0681	485.55
46.0825	473.75
46.0970	500.69
46.1114	503.15
46.1258	497.46
46.1403	481.10
46.1547	484.30
46.1692	511.52
46.1836	508.69
46.1980	496.42
46.2125	519.32
46.2269	488.01
46.2414	510.32
46.2558	512.48
46.2702	521.31
46.2847	522.55
46.2991	478.78
46.3136	463.33
46.3280	485.14
46.3424	504.23
46.3569	517.02
46.3713	481.71
46.3858	494.56
46.4002	519.15
46.4146	508.76
46.4291	514.68
46.4435	472.96
46.4580	494.35
46.4724	511.32
46.4868	516.33
46.5013	502.50
46.5157	507.93
46.5302	520.18
46.5446	519.04
46.5590	559.65
46.5735	534.87
46.5879	492.51
46.6024	490.79
46.6168	503.75
46.6312	515.98
46.6457	488.63
46.6601	498.83
46.6746	528.72
46.6890	510.67
46.7034	508.55
46.7179	538.93
46.7323	507.01
46.7468	496.91
46.7612	501.24
46.7756	484.66
46.7901	507.00
46.8045	536.10
46.8190	516.25
46.8334	541.87
46.8478	498.25
46.8623	509.12
46.8767	502.39
46.8912	489.53
46.9056	528.35
46.9200	502.20
46.9345	523.00
46.9489	514.30
46.9634	498.92
46.9778	505.48
46.9922	539.02
47.0067	540.61
47.0211	537.08
47.0356	546.01
47.0500	506.83
47.0644	505.93
47.0789	498.18
47.0933	515.90
47.1078	505.88
47.1222	505.81
47.1366	479.69
47.1511	478.36
47.1655	506.06
47.1800	505.34
47.1944	483.02
47.2088	493.30
47.2233	500.89
47.2377	490.47
47.2522	487.80
47.2666	500.08
47.2810	512.00
47.2955	517.68
47.3099	522.92
47.3244	482.65
47.3388	505.39
47.3532	536.97
47.3677	499.96
47.3821	496.57
47.3966	526.44
47.4110	481.93
47.4254	506.39
47.4399	527.20
47.4543	493.40
47.4688	525.20
47.4832	531.95
47.4976	507.88
47.5121	487.35
47.5265	506.12
47.5410	522.50
47.5554	513.99
47.5698	505.45
47.5843	513.87
47.5987	528.67
47.6132	526.03
47.6276	499.59
47.6420	512.49
47.6565	500.24
47.6709	478.62
47.6854	467.86
47.6998	484.55
47.7142	489.62
47.7287	490.37
47.7431	502.16
47.7576	494.53
47.7720	485.45
47.7864	482.57
47.8009	506.38
47.8153	521.08
47.8298	538.28
47.8442	523.82
47.8586	507.97
47.8731	520.22
47.8875	528.97
47.9020	543.00
47.9164	524.26
47.9308	491.76
47.9453	527.31
47.9597	497.34
47.9742	486.25
47.9886	513.19
48.0030	515.01
48.0175	506.55
48.0319	519.18
48.0464	488.99
48.0608	512.50
48.0752	525.48
48.0897	512.21
48.1041	484.73
48.1186	503.83
48.1330	520.35
48.1474	497.50
48.1619	537.43
48.1763	492.26
48.1908	512.48
48.2052	509.73
48.2196	519.94
48.2341	513.89
48.2485	537.53
48.2630	530.67
48.2774	523.93
48.2918	532.85
48.3063	497.10
48.3207	537.07
48.3352	522.13
48.3496	516.90
48.3640	506.40
48.3785	521.43
48.3929	543.46
48.4074	506.13
48.4218	517.01
48.4362	493.34
48.4507	507.64
48.4651	528.95
48.4796	532.14
48.4940	540.50
48.5084	526.39
48.5229	509.66
48.5373	517.34
48.5518	541.20
48.5662	483.43
48.5806	506.06
48.5951	502.91
48.6095	514.32
48.6240	505.89
48.6384	513.27
48.6528	509.65
48.6673	537.90
48.6817	507.84
48.6962	544.92
48.7106	549.92
48.7250	512.55
48.7395	474.97
48.7539	528.40
48.7684	499.30
48.7828	569.04
48.7972	526.19
48.8117	556.13
48.8261	555.91
48.8406	562.74
48.8550	553.68
48.8694	556.98
48.8839	542.81
48.8983	520.26
48.9128	578.32
48.9272	580.89
48.9416	554.87
48.9561	545.83
48.9705	584.81
48.9850	553.41
48.9994	562.81
49.0139	583.11
49.0283	633.36
49.0427	625.83
49.0572	620.62
49.0716	667.72
49.0861	654.30
49.1005	630.92
49.1149	705.88
49.1294	723.95
49.1438	742.37
49.1583	778.12
49.1727	850.07
49.1871	839.35
49.2016	908.55
49.2160	984.14
49.2305	1006.06
49.2449	1179.00
49.2593	1240.13
49.2738	1301.86
49.2882	1376.48
49.3027	1536.23
49.3171	1547.44
49.3315	1561.42
49.3460	1715.53
49.3604	1745.62
49.3749	1791.91
49.3893	1739.66
49.4037	1685.10
49.4182	1695.19
49.4326	1700.39
49.4471	1621.06
49.4615	1644.84
49.4759	1625.88
49.4904	1519.05
49.5048	1401.90
49.5193	1311.63
49.5337	1276.01
49.5481	1183.82
49.5626	1127.35
49.5770	1080.45
49.5915	989.28
49.6059	927.57
49.6203	891.79
49.6348	804.98
49.6492	787.80
49.6637	798.66
49.6781	758.47
49.6925	664.68
49.7070	702.81
49.7214	652.65
49.7359	619.91
49.7503	604.50
49.7647	604.33
49.7792	605.51
49.7936	587.19
49.8081	562.02
49.8225	598.64
49.8369	516.49
49.8514	541.42
49.8658	588.23
49.8803	588.59
49.8947	546.74
49.9091	581.23
49.9236	555.39
49.9380	533.60
49.9525	515.44
49.9669	501.25
49.9813	532.97
49.9958	543.82
50.0102	551.67
50.0247	552.33
50.0391	510.98
50.0535	518.66
50.0680	515.59
50.0824	525.49
50.0969	535.96
50.1113	528.76
50.1257	540.25
50.1402	520.28
50.1546	525.05
50.1691	498.92
50.1835	505.96
50.1979	516.97
50.2124	501.96
50.2268	522.49
50.2413	523.88
50.2557	519.07
50.2701	487.37
50.2846	524.55
50.2990	504.97
50.3135	521.21
50.3279	494.37
50.3423	516.96
50.3568	509.54
50.3712	512.38
50.3857	507.78
50.4001	496.82
50.4145	522.49
50.4290	537.15
50.4434	478.46
50.4579	508.01
50.4723	535.81
50.4867	507.02
50.5012	500.95
50.5156	509.99
50.5301	519.33
50.5445	498.41
50.5589	522.44
50.5734	511.10
50.5878	505.18
50.6023	481.49
50.6167	464.12
50.6311	517.64
50.6456	501.55
50.6600	487.54
50.6745	481.03
50.6889	498.22
50.7033	555.10
50.7178	499.51
50.7322	513.78
50.7467	498.21
50.7611	514.16
50.7755	525.16
50.7900	501.75
50.8044	513.80
50.8189	546.25
50.8333	527.05
50.8477	498.30
50.8622	503.57
50.8766	518.93
50.8911	503.84
50.9055	512.84
50.9199	488.34
50.9344	514.62
50.9488	519.80
50.9633	506.82
50.9777	506.06
50.9921	492.81
51.0066	492.52
51.0210	533.86
51.0355	496.74
51.0499	495.08
51.0643	526.18
51.0788	511.71
51.0932	517.20
51.1077	496.16
51.1221	504.48
51.1365	526.00
51.1510	512.00
51.1654	522.25
51.1799	521.50
51.1943	497.31
51.2087	516.62
51.2232	529.34
51.2376	524.23
51.2521	495.20
51.2665	515.36
51.2809	511.89
51.2954	486.79
51.3098	511.56
51.3243	509.26
51.3387	516.78
51.3531	499.69
51.3676	508.15
51.3820	499.57
51.3965	503.19
51.4109	509.29
51.4253	506.96
51.4398	485.73
51.4542	522.98
51.4687	535.80
51.4831	518.43
51.4975	536.84
51.5120	511.20
51.5264	502.57
51.5409	511.90
51.5553	535.72
51.5697	512.95
51.5842	512.24
51.5986	494.50
51.6131	501.47
51.6275	494.40
51.6419	522.43
51.6564	527.59
51.6708	515.61
51.6853	493.36
51.6997	507.97
51.7141	499.80
51.7286	526.12
51.7430	526.72
51.7575	487.80
51.7719	493.78
51.7863	513.37
51.8008	517.13
51.8152	513.98
51.8297	478.69
51.8441	494.59
51.8585	523.37
51.8730	542.93
51.8874	518.48
51.9019	493.31
51.9163	507.42
51.9307	480.06
51.9452	503.61
51.9596	508.93
51.9741	496.42
51.9885	522.39
52.0029	451.10
52.0174	498.82
52.0318	504.18
52.0463	475.77
52.0607	476.03
52.0751	514.23
52.0896	489.01
52.1040	532.67
52.1185	535.97
52.1329	514.39
52.1473	483.45
52.1618	501.87
52.1762	519.59
52.1907	517.75
52.2051	538.07
52.2195	501.32
52.2340	468.77
52.2484	490.17
52.2629	507.90
52.2773	522.65
52.2917	542.94
52.3062	495.42
52.3206	495.23
52.3351	529.52
52.3495	505.53
52.3639	488.97
52.3784	484.39
52.3928	499.85
52.4073	468.03
52.4217	500.79
52.4361	508.39
52.4506	483.85
52.4650	515.53
52.4795	525.74
52.4939	523.84
52.5083	516.85
52.5228	519.54
52.5372	550.65
52.5517	517.59
52.5661	521.53
52.5805	549.43
52.5950	537.94
52.6094	504.70
52.6239	524.13
52.6383	534.59
52.6527	531.22
52.6672	510.96
52.6816	519.17
52.6961	510.27
52.7105	512.44
52.7250	490.55
52.7394	500.81
52.7538	495.19
52.7683	495.70
52.7827	517.05
52.7972	505.24
52.8116	488.27
52.8260	538.92
52.8405	518.01
52.8549	490.42
52.8694	493.99
52.8838	519.03
52.8982	533.15
52.9127	514.79
52.9271	481.42
52.9416	509.57
52.9560	539.98
52.9704	513.62
52.9849	510.08
52.9993	494.87
53.0138	499.83
53.0282	511.65
53.0426	528.60
53.0571	545.47
53.0715	553.62
53.0860	533.67
53.1004	506.71
53.1148	523.47
53.1293	497.52
53.1437	532.27
53.1582	535.46
53.1726	505.36
53.1870	510.29
53.2015	542.68
53.2159	509.47
53.2304	493.75
53.2448	524.74
53.2592	515.49
53.2737	490.31
53.2881	504.90
53.3026	505.68
53.3170	522.74
53.3314	530.31
53.3459	484.40
53.3603	513.86
53.3748	516.43
53.3892	521.93
53.4036	543.23
53.4181	522.25
53.4325	542.27
53.4470	505.80
53.4614	503.97
53.4758	553.13
53.4903	523.70
53.5047	510.48
53.5192	463.26
53.5336	538.70
53.5480	501.60
53.5625	519.29
53.5769	514.31
53.5914	477.63
53.6058	523.31
53.6202	481.10
53.6347	493.53
53.6491	507.55
53.6636	500.85
53.6780	476.75
53.6924	516.92
53.7069	538.26
53.7213	473.97
53.7358	473.39
53.7502	488.47
53.7646	489.82
53.7791	507.65
53.7935	538.86
53.8080	515.62
53.8224	524.92
53.8368	510.78
53.8513	509.55
53.8657	514.43
53.8802	510.35
53.8946	513.49
53.9090	526.25
53.9235	532.07
53.9379	503.30
53.9524	503.21
53.9668	527.58
53.9812	484.78
53.9957	463.89
54.0101	492.54
54.0246	542.25
54.0390	530.71
54.0534	530.48
54.0679	495.56
54.0823	515.44
54.0968	530.15
54.1112	510.64
54.1256	555.55
54.1401	510.77
54.1545	499.06
54.1690	498.33
54.1834	512.57
54.1978	524.95
54.2123	527.06
54.2267	573.22
54.2412	557.45
54.2556	538.85
54.2700	523.56
54.2845	537.82
54.2989	526.21
54.3134	541.94
54.3278	549.35
54.3422	553.93
54.3567	578.69
54.3711	592.03
54.3856	588.58
54.4000	563.24
54.4144	577.04
54.4289	595.74
54.4433	570.08
54.4578	569.56
54.4722	584.59
54.4866	584.36
54.5011	588.85
54.5155	600.65
54.5300	591.64
54.5444	580.18
54.5588	592.54
54.5733	550.78
54.5877	591.91
54.6022	615.14
54.6166	605.74
54.6310	580.64
54.6455	578.67
54.6599	568.38
54.6744	552.58
54.6888	528.11
54.7032	550.54
54.7177	531.13
54.7321	524.47
54.7466	534.92
54.7610	498.32
54.7754	534.51
54.7899	513.08
54.8043	508.28
54.8188	566.97
54.8332	565.96
54.8476	540.43
54.8621	517.17
54.8765	471.12
54.8910	497.78
54.9054	499.79
54.9198	495.68
54.9343	497.92
54.9487	513.53
54.9632	509.14
54.9776	530.93
54.9920	522.54
55.0065	513.58
55.0209	510.18
55.0354	537.42
55.0498	518.13
55.0642	510.41
55.0787	536.36
55.0931	552.56
55.1076	515.65
55.1220	490.92
55.1364	517.11
55.1509	526.54
55.1653	532.00
55.1798	540.11
55.1942	505.17
55.2086	528.80
55.2231	528.89
55.2375	525.70
55.2520	489.65
55.2664	501.64
55.2808	528.11
55.2953	516.46
55.3097	514.94
55.3242	562.26
55.3386	541.06
55.3530	536.45
55.3675	503.42
55.3819	485.29
55.3964	507.23
55.4108	484.37
55.4252	537.10
55.4397	551.71
55.4541	520.74
55.4686	543.03
55.4830	530.36
55.4974	525.79
55.5119	515.55
55.5263	532.62
55.5408	546.59
55.5552	517.47
55.5696	515.77
55.5841	499.69
55.5985	517.47
55.6130	543.06
55.6274	522.56
55.6418	545.65
55.6563	531.39
55.6707	546.57
55.6852	528.48
55.6996	504.34
55.7140	537.52
55.7285	533.05
55.7429	506.74
55.7574	505.37
55.7718	545.20
55.7862	566.74
55.8007	556.00
55.8151	522.56
55.8296	530.26
55.8440	555.72
55.8584	527.90
55.8729	507.04
55.8873	538.24
55.9018	549.04
55.9162	526.32
55.9306	503.02
55.9451	542.07
55.9595	527.93
55.9740	514.94
55.9884	510.00
56.0028	514.62
56.0173	527.61
56.0317	543.72
56.0462	504.62
56.0606	524.62
56.0750	521.80
56.0895	533.72
56.1039	526.54
56.1184	539.16
56.1328	510.65
56.1472	514.57
56.1617	493.43
56.1761	525.26
56.1906	543.66
56.2050	515.33
56.2194	518.80
56.2339	519.88
56.2483	507.87
56.2628	503.25
56.2772	527.69
56.2916	519.90
56.3061	540.38
56.3205	531.08
56.3350	561.29
56.3494	548.77
56.3639	471.39
56.3783	475.42
56.3927	499.26
56.4072	527.25
56.4216	542.71
56.4361	553.05
56.4505	499.35
56.4649	549.53
56.4794	550.44
56.4938	548.40
56.5083	526.36
56.5227	521.69
56.5371	527.00
56.5516	546.27
56.5660	558.44
56.5805	530.67
56.5949	530.70
56.6093	533.19
56.6238	510.34
56.6382	502.59
56.6527	534.72
56.6671	524.35
56.6815	493.56
56.6960	494.67
56.7104	516.66
56.7249	533.58
56.7393	508.86
56.7537	492.65
56.7682	505.29
56.7826	480.05
56.7971	538.05
56.8115	521.47
56.8259	500.88
56.8404	520.48
56.8548	548.64
56.8693	535.16
56.8837	541.79
56.8981	534.30
56.9126	504.28
56.9270	550.71
56.9415	550.91
56.9559	495.78
56.9703	482.70
56.9848	518.93
56.9992	507.31
57.0137	532.54
57.0281	512.41
57.0425	536.22
57.0570	512.32
57.0714	514.65
57.0859	543.07
57.1003	561.20
57.1147	549.21
57.1292	537.90
57.1436	506.71
57.1581	523.25
57.1725	526.53
57.1869	518.25
57.2014	494.12
57.2158	525.13
57.2303	534.61
57.2447	549.69
57.2591	531.83
57.2736	519.88
57.2880	527.83
57.3025	516.12
57.3169	512.66
57.3313	550.40
57.3458	561.74
57.3602	526.89
57.3747	538.07
57.3891	521.09
57.4035	516.11
57.4180	523.31
57.4324	531.89
57.4469	489.49
57.4613	534.26
57.4757	508.05
57.4902	504.53
57.5046	532.38
57.5191	522.47
57.5335	562.55
57.5479	518.33
57.5624	504.41
57.5768	519.78
57.5913	503.75
57.6057	540.56
57.6201	554.05
57.6346	515.95
57.6490	533.92
57.6635	529.78
57.6779	518.27
57.6923	554.92
57.7068	562.04
57.7212	559.66
57.7357	533.33
57.7501	542.89
57.7645	503.25
57.7790	553.93
57.7934	545.10
57.8079	521.15
57.8223	495.85
57.8367	540.32
57.8512	553.36
57.8656	597.24
57.8801	552.63
57.8945	560.32
57.9089	606.18
57.9234	565.07
57.9378	564.67
57.9523	608.44
57.9667	581.52
57.9811	576.63
57.9956	583.97
58.0100	583.76
58.0245	631.84
58.0389	642.29
58.0533	641.26
58.0678	682.44
58.0822	678.42
58.0967	720.95
58.1111	684.86
58.1255	669.27
58.1400	669.10
58.1544	684.00
58.1689	677.95
58.1833	650.73
58.1977	629.54
58.2122	639.57
58.2266	635.15
58.2411	637.80
58.2555	633.65
58.2699	678.98
58.2844	665.86
58.2988	611.59
58.3133	612.36
58.3277	619.91
58.3421	609.67
58.3566	620.47
58.3710	568.56
58.3855	561.17
58.3999	552.78
58.4143	556.64
58.4288	580.34
58.4432	555.05
58.4577	559.54
58.4721	585.34
58.4865	563.43
58.5010	543.05
58.5154	572.32
58.5299	563.59
58.5443	563.30
58.5587	560.68
58.5732	555.46
58.5876	528.25
58.6021	525.84
58.6165	542.59
58.6309	545.82
58.6454	558.27
58.6598	558.09
58.6743	533.58
58.6887	495.83
58.7031	535.49
58.7176	516.31
58.7320	508.23
58.7465	511.97
58.7609	500.65
58.7753	545.04
58.7898	528.84
58.8042	501.59
58.8187	537.79
58.8331	555.12
58.8475	505.37
58.8620	523.31
58.8764	522.02
58.8909	538.26
58.9053	551.57
58.9197	526.77
58.9342	536.61
58.9486	531.79
58.9631	522.90
58.9775	514.45
58.9919	510.62
59.0064	522.34
59.0208	524.51
59.0353	527.99
59.0497	530.89
59.0641	544.20
59.0786	557.12
59.0930	548.52
59.1075	529.59
59.1219	560.05
59.1363	547.25
59.1508	533.06
59.1652	511.84
59.1797	545.25
59.1941	549.51
59.2085	505.38
59.2230	495.50
59.2374	510.41
59.2519	540.29
59.2663	542.46
59.2807	596.38
59.2952	586.39
59.3096	553.32
59.3241	527.16
59.3385	553.50
59.3529	565.56
59.3674	549.75
59.3818	540.11
59.3963	560.96
59.4107	557.21
59.4251	573.97
59.4396	554.92
59.4540	538.99
59.4685	579.65
59.4829	573.44
59.4973	557.34
59.5118	530.20
59.5262	529.95
59.5407	546.97
59.5551	570.75
59.5695	553.48
59.5840	541.66
59.5984	540.95
59.6129	568.92
59.6273	521.43
59.6417	557.79
59.6562	548.17
59.6706	528.90
59.6851	507.26
59.6995	532.33
59.7139	532.34
59.7284	533.98
59.7428	536.74
59.7573	550.28
59.7717	537.54
59.7861	523.05
59.8006	535.89
59.8150	550.76
59.8295	534.55
59.8439	530.20
59.8583	553.96
59.8728	554.31
59.8872	547.40
59.9017	542.23
59.9161	547.94
59.9305	520.63
59.9450	564.43
59.9594	518.65
59.9739	516.91
59.9883	513.31
60.0027	542.75
60.0172	548.14
60.0316	531.10
60.0461	505.03
60.0605	564.86
60.0750	573.84
60.0894	592.31
60.1038	540.98
60.1183	529.53
60.1327	541.47
60.1472	514.67
60.1616	548.36
60.1760	506.18
60.1905	522.89
60.2049	528.78
60.2194	533.15
60.2338	548.63
60.2482	563.08
60.2627	529.56
60.2771	575.16
60.2916	577.45
60.3060	592.47
60.3204	556.85
60.3349	552.08
60.3493	571.67
60.3638	540.61
60.3782	522.85
60.3926	508.60
60.4071	527.18
60.4215	531.28
60.4360	554.11
60.4504	519.13
60.4648	563.24
60.4793	542.52
60.4937	523.71
60.5082	525.26
60.5226	530.72
60.5370	585.70
60.5515	544.20
60.5659	547.07
60.5804	521.76
60.5948	538.74
60.6092	516.77
60.6237	534.61
60.6381	545.29
60.6526	524.26
60.6670	520.27
60.6814	538.67
60.6959	551.20
60.7103	546.76
60.7248	539.72
60.7392	539.05
60.7536	586.04
60.7681	545.56
60.7825	579.36
60.7970	552.01
60.8114	530.32
60.8258	557.14
60.8403	584.60
60.8547	538.73
60.8692	557.77
60.8836	566.16
60.8980	565.19
60.9125	537.15
60.9269	552.79
60.9414	537.99
60.9558	551.70
60.9702	549.40
60.9847	563.43
60.9991	575.06
61.0136	577.39
61.0280	558.52
61.0424	512.46
61.0569	560.47
61.0713	577.76
61.0858	579.73
61.1002	562.89
61.1146	566.52
61.1291	548.84
61.1435	534.51
61.1580	554.15
61.1724	573.40
61.1868	559.36
61.2013	520.87
61.2157	531.66
61.2302	525.59
61.2446	532.53
61.2590	544.74
61.2735	544.51
61.2879	544.81
61.3024	539.08
61.3168	560.27
61.3312	548.68
61.3457	543.78
61.3601	561.63
61.3746	525.97
61.3890	536.72
61.4034	546.91
61.4179	548.94
61.4323	577.77
61.4468	534.78
61.4612	578.73
61.4756	544.64
61.4901	522.33
61.5045	545.20
61.5190	525.94
61.5334	572.31
61.5478	518.61
61.5623	542.97
61.5767	581.31
61.5912	537.83
61.6056	562.04
61.6200	563.89
61.6345	559.17
61.6489	579.14
61.6634	573.03
61.6778	568.20
61.6922	561.26
61.7067	523.37
61.7211	523.48
61.7356	526.27
61.7500	564.79
61.7644	542.91
61.7789	546.54
61.7933	523.67
61.8078	575.72
61.8222	528.89
61.8366	558.68
61.8511	548.60
61.8655	602.40
61.8800	569.67
61.8944	505.54
61.9088	539.05
61.9233	541.67
61.9377	551.92
61.9522	572.57
61.9666	546.30
61.9810	557.02
61.9955	549.32
62.0099	563.22
62.0244	558.38
62.0388	609.48
62.0532	551.63
62.0677	531.10
62.0821	585.21
62.0966	573.02
62.1110	532.83
62.1254	563.90
62.1399	546.15
62.1543	534.84
62.1688	561.73
62.1832	530.56
62.1976	546.67
62.2121	575.25
62.2265	544.13
62.2410	516.91
62.2554	540.58
62.2698	563.13
62.2843	574.04
62.2987	565.36
62.3132	535.82
62.3276	549.61
62.3420	573.62
62.3565	592.05
62.3709	574.50
62.3854	562.72
62.3998	563.42
62.4142	536.73
62.4287	549.08
62.4431	540.80
62.4576	555.92
62.4720	570.67
62.4864	590.80
62.5009	555.62
62.5153	552.72
62.5298	538.48
62.5442	526.67
62.5586	568.59
62.5731	585.38
62.5875	601.78
62.6020	551.83
62.6164	528.03
62.6308	518.74
62.6453	547.64
62.6597	568.58
62.6742	540.97
62.6886	586.95
62.7030	558.72
62.7175	551.29
62.7319	542.71
62.7464	572.77
62.7608	566.20
62.7752	549.47
62.7897	592.36
62.8041	584.40
62.8186	580.09
62.8330	588.18
62.8474	581.94
62.8619	573.63
62.8763	537.13
62.8908	563.96
62.9052	595.69
62.9196	594.43
62.9341	596.77
62.9485	542.40
62.9630	544.40
62.9774	589.37
62.9918	610.08
63.0063	586.11
63.0207	552.64
63.0352	568.62
63.0496	561.70
63.0640	552.78
63.0785	566.72
63.0929	570.74
63.1074	546.40
63.1218	579.24
63.1362	576.89
63.1507	558.61
63.1651	578.22
63.1796	602.42
63.1940	560.09
63.2084	595.12
63.2229	581.66
63.2373	552.28
63.2518	559.17
63.2662	554.80
63.2806	563.87
63.2951	551.01
63.3095	582.55
63.3240	632.53
63.3384	568.02
63.3528	578.72
63.3673	580.98
63.3817	588.15
63.3962	548.05
63.4106	588.56
63.4250	570.95
63.4395	575.91
63.4539	582.78
63.4684	611.00
63.4828	619.38
63.4972	567.14
63.5117	573.18
63.5261	611.47
63.5406	602.19
63.5550	604.54
63.5694	591.22
63.5839	585.51
63.5983	618.00
63.6128	655.42
63.6272	665.73
63.6416	674.04
63.6561	638.91
63.6705	653.83
63.6850	647.09
63.6994	704.11
63.7138	733.53
63.7283	714.26
63.7427	756.56
63.7572	806.24
63.7716	812.43
63.7861	838.85
63.8005	887.22
63.8149	869.79
63.8294	863.48
63.8438	851.38
63.8583	835.03
63.8727	808.13
63.8871	794.58
63.9016	816.61
63.9160	789.06
63.9305	767.52
63.9449	811.14
63.9593	776.28
63.9738	777.32
63.9882	775.79
64.0027	751.18
64.0171	723.51
64.0315	747.46
64.0460	747.22
64.0604	762.63
64.0749	726.36
64.0893	690.31
64.1037	693.19
64.1182	703.47
64.1326	691.86
64.1471	609.01
64.1615	607.73
64.1759	646.99
64.1904	616.34
64.2048	616.99
64.2193	625.47
64.2337	608.18
64.2481	657.04
64.2626	637.47
64.2770	597.69
64.2915	640.17
64.3059	593.27
64.3203	569.53
64.3348	614.59
64.3492	610.07
64.3637	583.68
64.3781	606.62
64.3925	623.28
64.4070	597.62
64.4214	617.35
64.4359	631.29
64.4503	628.02
64.4647	662.31
64.4792	681.83
64.4936	615.69
64.5081	632.00
64.5225	655.46
64.5369	621.88
64.5514	605.82
64.5658	611.90
64.5803	663.85
64.5947	651.68
64.6091	621.16
64.6236	641.36
64.6380	648.70
64.6525	656.30
64.6669	626.79
64.6813	623.80
64.6958	680.81
64.7102	670.94
64.7247	692.19
64.7391	686.88
64.7535	733.17
64.7680	704.02
64.7824	730.19
64.7969	759.90
64.8113	764.43
64.8257	782.70
64.8402	801.53
64.8546	791.05
64.8691	847.66
64.8835	827.83
64.8979	836.03
64.9124	862.51
64.9268	862.43
64.9413	933.77
64.9557	916.18
64.9701	952.07
64.9846	1079.01
64.9990	1127.65
65.0135	1270.00
65.0279	1474.37
65.0423	1699.88
65.0568	2102.94
65.0712	2715.07
65.0857	3503.45
65.1001	4552.95
65.1145	6249.89
65.1290	8096.19
65.1434	9654.42
65.1579	11417.28
65.1723	11994.01
65.1867	11404.19
65.2012	10058.93
65.2156	8344.92
65.2301	6584.20
65.2445	5339.20
65.2589	4509.78
65.2734	4228.73
65.2878	4573.30
65.3023	5019.66
65.3167	5810.39
65.3311	6592.76
65.3456	7034.49
65.3600	7059.93
65.3745	6507.37
65.3889	5581.60
65.4033	4338.31
65.4178	3480.29
65.4322	2743.50
65.4467	2040.34
65.4611	1721.57
65.4755	1462.63
65.4900	1278.90
65.5044	1160.20
65.5189	1040.16
65.5333	1000.56
65.5477	956.92
65.5622	880.87
65.5766	834.19
65.5911	808.65
65.6055	844.10
65.6199	781.91
65.6344	763.69
65.6488	792.09
65.6633	748.66
65.6777	714.33
65.6921	692.94
65.7066	727.96
65.7210	723.48
65.7355	693.46
65.7499	695.09
65.7643	681.29
65.7788	690.83
65.7932	687.20
65.8077	648.01
65.8221	653.43
65.8365	689.82
65.8510	669.68
65.8654	672.63
65.8799	658.93
65.8943	672.68
65.9087	641.42
65.9232	658.18
65.9376	683.21
65.9521	634.44
65.9665	609.16
65.9809	612.01
65.9954	628.47
66.0098	644.17
66.0243	624.60
66.0387	634.43
66.0531	653.16
66.0676	657.54
66.0820	634.48
66.0965	642.47
66.1109	643.61
66.1253	624.79
66.1398	646.50
66.1542	594.86
66.1687	613.55
66.1831	620.70
66.1975	624.86
66.2120	654.50
66.2264	600.69
66.2409	609.49
66.2553	629.22
66.2697	608.82
66.2842	611.31
66.2986	596.63
66.3131	666.75
66.3275	648.12
66.3419	618.01
66.3564	593.00
66.3708	580.08
66.3853	623.12
66.3997	584.18
66.4141	573.52
66.4286	591.46
66.4430	599.09
66.4575	615.29
66.4719	607.95
66.4863	577.29
66.5008	611.27
66.5152	598.38
66.5297	582.92
66.5441	590.29
66.5585	612.69
66.5730	569.98
66.5874	589.47
66.6019	616.24
66.6163	621.41
66.6307	620.78
66.6452	571.38
66.6596	557.57
66.6741	577.45
66.6885	559.70
66.7029	617.98
66.7174	600.23
66.7318	574.15
66.7463	571.58
66.7607	577.72
66.7751	574.80
66.7896	561.32
66.8040	601.99
66.8185	609.75
66.8329	607.64
66.8473	563.10
66.8618	608.14
66.8762	610.52
66.8907	555.39
66.9051	593.20
66.9195	602.31
66.9340	612.35
66.9484	563.04
66.9629	581.75
66.9773	596.44
66.9917	603.61
67.0062	564.35
67.0206	604.01
67.0351	603.78
67.0495	596.31
67.0639	610.95
67.0784	602.59
67.0928	584.85
67.1073	555.31
67.1217	613.40
67.1361	580.26
67.1506	603.78
67.1650	622.54
67.1795	603.74
67.1939	577.36
67.2083	612.88
67.2228	606.83
67.2372	606.98
67.2517	551.82
67.2661	561.48
67.2805	578.80
67.2950	585.99
67.3094	578.73
67.3239	567.75
67.3383	599.77
67.3527	606.88
67.3672	597.37
67.3816	553.93
67.3961	553.41
67.4105	565.05
67.4250	590.86
67.4394	581.88
67.4538	600.20
67.4683	578.19
67.4827	560.53
67.4972	569.05
67.5116	554.38
67.5260	587.04
67.5405	583.29
67.5549	585.52
67.5694	577.29
67.5838	562.97
67.5982	572.33
67.6127	599.96
67.6271	566.12
67.6416	586.65
67.6560	571.81
67.6704	566.89
67.6849	546.85
67.6993	573.36
67.7138	602.19
67.7282	550.04
67.7426	533.31
67.7571	520.22
67.7715	581.01
67.7860	570.28
67.8004	571.86
67.8148	579.97
67.8293	579.79
67.8437	541.26
67.8582	546.42
67.8726	560.93
67.8870	581.89
67.9015	579.56
67.9159	608.50
67.9304	543.24
67.9448	601.63
67.9592	568.27
67.9737	533.59
67.9881	569.13
68.0026	571.48
68.0170	601.22
68.0314	584.60
68.0459	599.80
68.0603	529.18
68.0748	518.47
68.0892	579.53
68.1036	593.33
68.1181	598.39
68.1325	583.27
68.1470	550.46
68.1614	593.20
68.1758	586.61
68.1903	580.35
68.2047	583.18
68.2192	534.62
68.2336	561.80
68.2480	527.15
68.2625	539.45
68.2769	562.24
68.2914	599.88
68.3058	610.39
68.3202	583.03
68.3347	594.58
68.3491	616.16
68.3636	552.87
68.3780	547.40
68.3924	600.57
68.4069	559.25
68.4213	565.71
68.4358	575.86
68.4502	569.55
68.4646	590.32
68.4791	585.46
68.4935	570.62
68.5080	552.44
68.5224	544.09
68.5368	566.80
68.5513	595.40
68.5657	564.69
68.5802	582.59
68.5946	590.31
68.6090	570.00
68.6235	577.81
68.6379	604.48
68.6524	548.43
68.6668	572.61
68.6812	605.73
68.6957	602.36
68.7101	578.93
68.7246	565.37
68.7390	576.20
68.7534	635.66
68.7679	582.66
68.7823	523.42
68.7968	594.08
68.8112	551.52
68.8256	542.62
68.8401	595.21
68.8545	568.30
68.8690	592.44
68.8834	579.42
68.8978	627.05
68.9123	611.04
68.9267	531.51
68.9412	580.86
68.9556	577.60
68.9700	558.77
68.9845	535.82
68.9989	607.42
69.0134	603.67
69.0278	606.88
69.0422	602.26
69.0567	628.06
69.0711	608.79
69.0856	567.36
69.1000	596.76
69.1144	587.76
69.1289	605.61
69.1433	561.51
69.1578	576.01
69.1722	613.50
69.1866	553.02
69.2011	580.32
69.2155	606.76
69.2300	607.43
69.2444	571.00
69.2588	607.45
69.2733	576.86
69.2877	577.41
69.3022	587.33
69.3166	562.29
69.3310	602.20
69.3455	548.23
69.3599	588.50
69.3744	574.02
69.3888	587.63
69.4032	580.89
69.4177	591.84
69.4321	585.73
69.4466	586.63
69.4610	587.22
69.4754	592.57
69.4899	583.19
69.5043	562.56
69.5188	562.67
69.5332	567.57
69.5476	524.78
69.5621	569.42
69.5765	585.93
69.5910	603.21
69.6054	596.15
69.6198	609.45
69.6343	591.41
69.6487	549.70
69.6632	571.94
69.6776	606.81
69.6920	579.22
69.7065	559.76
69.7209	569.75
69.7354	571.50
69.7498	589.76
69.7642	575.16
69.7787	566.34
69.7931	581.84
69.8076	564.52
69.8220	590.47
69.8364	559.36
69.8509	556.28
69.8653	623.47
69.8798	568.10
69.8942	581.65
69.9086	557.94
69.9231	584.38
69.9375	566.88
69.9520	537.32
69.9664	554.12
69.9808	585.27
69.9953	587.41
70.0097	544.69
70.0242	523.62
70.0386	618.25
70.0530	563.88
70.0675	620.21
70.0819	584.73
70.0964	597.39
70.1108	532.86
70.1252	577.62
70.1397	592.40
70.1541	562.25
70.1686	597.96
70.1830	631.28
70.1974	566.56
70.2119	550.89
70.2263	535.52
70.2408	609.62
70.2552	544.30
70.2696	588.18
70.2841	567.27
70.2985	583.70
70.3130	571.84
70.3274	528.01
70.3418	528.01
70.3563	556.60
70.3707	599.67
70.3852	587.31
70.3996	564.98
70.4140	557.68
70.4285	619.54
70.4429	600.83
70.4574	564.31
70.4718	594.39
70.4862	525.42
70.5007	557.76
70.5151	564.81
70.5296	630.30
70.5440	612.96
70.5584	560.30
70.5729	569.52
70.5873	593.87
70.6018	555.34
70.6162	522.61
70.6306	559.31
70.6451	604.72
70.6595	555.55
70.6740	588.43
70.6884	587.53
70.7028	593.33
70.7173	580.23
70.7317	530.26
70.7462	560.88
70.7606	566.17
70.7750	577.86
70.7895	588.83
70.8039	573.87
70.8184	578.94
70.8328	587.84
70.8472	551.68
70.8617	561.51
70.8761	563.66
70.8906	580.58
70.9050	599.26
70.9194	621.21
70.9339	645.11
70.9483	622.73
70.9628	581.91
70.9772	564.50
70.9916	576.05
71.0061	602.73
71.0205	628.33
71.0350	619.86
71.0494	593.01
71.0638	589.38
71.0783	592.88
71.0927	572.40
71.1072	580.19
71.1216	609.68
71.1361	608.97
71.1505	577.64
71.1649	591.52
71.1794	593.85
71.1938	581.61
71.2083	556.91
71.2227	521.23
71.2371	518.60
71.2516	573.14
71.2660	548.91
71.2805	560.53
71.2949	565.11
71.3093	553.04
71.3238	583.94
71.3382	616.70
71.3527	594.25
71.3671	562.41
71.3815	546.20
71.3960	572.49
71.4104	583.76
71.4249	578.14
71.4393	565.05
71.4537	610.15
71.4682	623.44
71.4826	605.54
71.4971	524.71
71.5115	531.41
71.5259	519.04
71.5404	531.32
71.5548	622.94
71.5693	625.96
71.5837	548.89
71.5981	579.01
71.6126	573.00
71.6270	574.57
71.6415	593.97
71.6559	584.72
71.6703	535.61
71.6848	508.16
71.6992	545.93
71.7137	542.56
71.7281	602.24
71.7425	586.39
71.7570	558.36
71.7714	583.58
71.7859	517.11
71.8003	574.71
71.8147	592.60
71.8292	598.85
71.8436	560.13
71.8581	571.10
71.8725	548.22
71.8869	528.43
71.9014	566.40
71.9158	612.36
71.9303	625.87
71.9447	584.70
71.9591	609.22
71.9736	657.10
71.9880	598.85
72.0025	586.61
72.0169	609.60
72.0313	599.77
72.0458	562.08
72.0602	553.55
72.0747	564.62
72.0891	539.71
72.1035	556.06
72.1180	579.05
72.1324	594.77
72.1469	576.34
72.1613	529.44
72.1757	525.35
72.1902	576.14
72.2046	674.42
72.2191	666.60
72.2335	519.51
72.2479	510.86
72.2624	496.11
72.2768	489.65
72.2913	570.92
72.3057	616.97
72.3201	553.38
72.3346	506.08
72.3490	560.52
72.3635	612.35
72.3779	582.18
72.3923	589.99
72.4068	534.75
72.4212	608.40
72.4357	756.52
72.4501	637.85
72.4645	599.15
72.4790	634.58
72.4934	639.59
72.5079	618.77
72.5223	721.42
72.5367	657.61
72.5512	579.29
72.5656	648.78
72.5801	634.57
72.5945	596.84
72.6089	642.66
72.6234	659.22
72.6378	570.60
72.6523	643.89
72.6667	638.05
72.6811	557.63
72.6956	617.16
72.7100	548.32
72.7245	538.61
72.7389	531.96
72.7533	510.05
72.7678	581.22
72.7822	634.06
72.7967	633.27
72.8111	604.05
72.8255	614.07
72.8400	573.37
72.8544	531.43
72.8689	565.36
72.8833	567.29