2022.09.19 19:37:16
Îáðàçåö: ß÷åéêà LCoV 16-09-2022
Lambda1 = 1.54060
Lambda2 = 1.54439
Lambdam = 1.54186
R = 0.497
2Theta	I

line¹ 0 ;repeat¹ 0
22.1120	597.58
22.1264	590.77
22.1409	471.81
22.1553	559.73
22.1697	593.08
22.1842	629.91
22.1986	638.35
22.2131	632.22
22.2275	630.69
22.2419	645.23
22.2564	586.24
22.2708	620.31
22.2853	578.91
22.2997	570.14
22.3141	620.76
22.3286	637.89
22.3430	556.30
22.3575	545.94
22.3719	565.98
22.3863	644.06
22.4008	562.41
22.4152	550.22
22.4297	651.00
22.4441	630.69
22.4585	591.21
22.4730	554.37
22.4874	584.70
22.5019	566.65
22.5163	604.10
22.5307	658.43
22.5452	580.50
22.5596	575.76
22.5741	594.41
22.5885	593.04
22.6029	683.13
22.6174	589.65
22.6318	531.17
22.6463	591.94
22.6607	655.61
22.6751	633.09
22.6896	582.82
22.7040	597.19
22.7185	536.54
22.7329	584.62
22.7473	621.28
22.7618	517.93
22.7762	560.95
22.7907	564.50
22.8051	523.84
22.8195	576.23
22.8340	532.01
22.8484	547.87
22.8629	591.12
22.8773	616.52
22.8917	532.07
22.9062	606.72
22.9206	534.87
22.9351	496.05
22.9495	518.66
22.9639	589.98
22.9784	504.17
22.9928	566.89
23.0073	529.91
23.0217	602.45
23.0361	586.97
23.0506	539.63
23.0650	516.88
23.0795	585.82
23.0939	620.58
23.1083	473.56
23.1228	526.18
23.1372	579.88
23.1517	560.34
23.1661	555.39
23.1806	522.23
23.1950	541.72
23.2094	549.06
23.2239	551.10
23.2383	549.56
23.2528	629.12
23.2672	571.24
23.2816	531.86
23.2961	513.58
23.3105	571.84
23.3250	548.35
23.3394	580.14
23.3538	538.55
23.3683	551.84
23.3827	505.70
23.3972	517.24
23.4116	541.86
23.4260	573.55
23.4405	542.47
23.4549	577.34
23.4694	573.00
23.4838	559.30
23.4982	543.19
23.5127	542.15
23.5271	595.65
23.5416	566.16
23.5560	627.47
23.5704	603.36
23.5849	495.62
23.5993	670.44
23.6138	585.08
23.6282	545.33
23.6426	561.00
23.6571	612.41
23.6715	563.43
23.6860	539.75
23.7004	572.68
23.7148	680.08
23.7293	552.19
23.7437	551.92
23.7582	617.41
23.7726	584.74
23.7870	588.56
23.8015	500.30
23.8159	644.84
23.8304	554.71
23.8448	559.94
23.8592	533.76
23.8737	509.02
23.8881	530.78
23.9026	529.65
23.9170	584.40
23.9314	567.55
23.9459	613.32
23.9603	533.94
23.9748	588.47
23.9892	580.28
24.0036	593.74
24.0181	500.00
24.0325	599.24
24.0470	630.64
24.0614	609.09
24.0758	564.16
24.0903	508.86
24.1047	564.08
24.1192	541.87
24.1336	548.02
24.1480	497.07
24.1625	642.23
24.1769	596.02
24.1914	552.26
24.2058	518.30
24.2202	526.31
24.2347	547.06
24.2491	606.64
24.2636	587.66
24.2780	582.77
24.2924	528.55
24.3069	616.07
24.3213	598.31
24.3358	630.82
24.3502	561.66
24.3646	559.79
24.3791	531.94
24.3935	549.29
24.4080	534.18
24.4224	537.72
24.4368	489.61
24.4513	563.08
24.4657	550.65
24.4802	524.21
24.4946	560.66
24.5090	559.33
24.5235	567.42
24.5379	585.45
24.5524	539.02
24.5668	533.60
24.5812	640.93
24.5957	630.76
24.6101	622.64
24.6246	590.78
24.6390	546.40
24.6534	486.35
24.6679	549.87
24.6823	537.38
24.6968	549.75
24.7112	539.40
24.7256	510.20
24.7401	522.21
24.7545	524.38
24.7690	561.83
24.7834	505.67
24.7978	532.44
24.8123	582.95
24.8267	567.13
24.8412	542.25
24.8556	595.84
24.8700	568.52
24.8845	583.44
24.8989	577.32
24.9134	600.12
24.9278	608.83
24.9422	542.96
24.9567	534.57
24.9711	584.24
24.9856	554.82
25.0000	551.49
25.0144	564.59
25.0289	558.17
25.0433	561.69
25.0578	650.79
25.0722	585.69
25.0866	583.13
25.1011	550.96
25.1155	558.48
25.1300	515.56
25.1444	495.63
25.1588	520.75
25.1733	521.76
25.1877	544.10
25.2022	526.39
25.2166	530.06
25.2310	562.10
25.2455	559.27
25.2599	530.29
25.2744	600.88
25.2888	591.92
25.3032	552.41
25.3177	552.61
25.3321	551.39
25.3466	530.38
25.3610	567.92
25.3754	553.36
25.3899	546.94
25.4043	534.63
25.4188	562.89
25.4332	565.38
25.4476	539.14
25.4621	547.97
25.4765	560.79
25.4910	551.64
25.5054	581.01
25.5198	580.35
25.5343	588.70
25.5487	579.01
25.5632	558.72
25.5776	526.97
25.5920	509.10
25.6065	497.11
25.6209	544.67
25.6354	576.82
25.6498	570.73
25.6642	572.86
25.6787	585.95
25.6931	532.57
25.7076	515.92
25.7220	560.69
25.7364	520.54
25.7509	545.23
25.7653	513.01
25.7798	552.13
25.7942	573.47
25.8086	568.85
25.8231	571.12
25.8375	528.00
25.8520	558.49
25.8664	583.94
25.8808	575.35
25.8953	532.02
25.9097	519.84
25.9242	517.01
25.9386	517.27
25.9530	528.89
25.9675	535.18
25.9819	536.24
25.9964	533.60
26.0108	491.81
26.0252	533.93
26.0397	572.13
26.0541	576.43
26.0686	551.06
26.0830	530.09
26.0974	517.32
26.1119	544.32
26.1263	549.84
26.1408	494.66
26.1552	531.14
26.1696	502.77
26.1841	521.99
26.1985	519.99
26.2130	551.06
26.2274	535.98
26.2418	547.24
26.2563	514.42
26.2707	501.45
26.2852	515.50
26.2996	529.91
26.3140	533.71
26.3285	528.06
26.3429	510.26
26.3574	535.26
26.3718	504.10
26.3862	511.95
26.4007	518.80
26.4151	573.00
26.4296	568.95
26.4440	514.08
26.4584	545.55
26.4729	569.51
26.4873	545.59
26.5018	526.55
26.5162	514.60
26.5306	537.32
26.5451	544.41
26.5595	560.59
26.5740	564.23
26.5884	556.43
26.6028	571.46
26.6173	552.23
26.6317	531.73
26.6462	554.51
26.6606	565.43
26.6750	497.31
26.6895	491.50
26.7039	527.92
26.7184	545.09
26.7328	506.39
26.7472	508.05
26.7617	512.54
26.7761	492.93
26.7906	508.21
26.8050	522.71
26.8194	542.65
26.8339	574.30
26.8483	540.34
26.8628	521.95
26.8772	526.32
26.8917	546.59
26.9061	547.84
26.9205	537.68
26.9350	533.33
26.9494	513.79
26.9639	536.11
26.9783	535.38
26.9927	556.66
27.0072	521.63
27.0216	519.53
27.0361	519.38
27.0505	529.98
27.0649	552.76
27.0794	543.56
27.0938	560.20
27.1083	521.81
27.1227	497.50
27.1371	506.66
27.1516	508.35
27.1660	534.00
27.1805	527.95
27.1949	502.52
27.2093	489.47
27.2238	507.51
27.2382	542.65
27.2527	510.54
27.2671	516.28
27.2815	528.87
27.2960	534.46
27.3104	535.78
27.3249	512.21
27.3393	501.18
27.3537	525.24
27.3682	533.90
27.3826	483.80
27.3971	481.72
27.4115	532.24
27.4259	546.61
27.4404	508.71
27.4548	521.31
27.4693	546.72
27.4837	533.79
27.4981	505.35
27.5126	519.87
27.5270	511.58
27.5415	528.44
27.5559	531.43
27.5703	514.73
27.5848	532.63
27.5992	538.20
27.6137	504.33
27.6281	512.96
27.6425	533.85
27.6570	511.42
27.6714	493.84
27.6859	490.42
27.7003	496.00
27.7147	525.90
27.7292	519.29
27.7436	529.63
27.7581	541.44
27.7725	516.14
27.7869	489.46
27.8014	509.82
27.8158	524.05
27.8303	565.51
27.8447	520.67
27.8591	520.23
27.8736	494.25
27.8880	546.45
27.9025	562.38
27.9169	477.62
27.9313	533.82
27.9458	522.57
27.9602	538.32
27.9747	539.63
27.9891	563.46
28.0035	546.59
28.0180	511.15
28.0324	537.44
28.0469	497.68
28.0613	533.88
28.0757	548.44
28.0902	488.54
28.1046	496.22
28.1191	516.73
28.1335	483.37
28.1479	499.39
28.1624	531.19
28.1768	547.77
28.1913	529.94
28.2057	513.96
28.2201	526.72
28.2346	505.51
28.2490	531.75
28.2635	520.49
28.2779	522.28
28.2923	516.39
28.3068	558.19
28.3212	507.16
28.3357	526.78
28.3501	502.86
28.3645	522.12
28.3790	502.65
28.3934	480.86
28.4079	493.97
28.4223	523.64
28.4367	514.06
28.4512	525.52
28.4656	503.89
28.4801	540.65
28.4945	534.52
28.5089	544.46
28.5234	526.84
28.5378	518.73
28.5523	516.63
28.5667	501.57
28.5811	502.42
28.5956	505.92
28.6100	541.64
28.6245	487.77
28.6389	547.54
28.6533	574.55
28.6678	504.71
28.6822	486.00
28.6967	498.83
28.7111	513.82
28.7255	511.17
28.7400	514.77
28.7544	493.56
28.7689	510.41
28.7833	516.49
28.7977	537.37
28.8122	547.09
28.8266	556.61
28.8411	541.97
28.8555	487.37
28.8699	498.31
28.8844	479.55
28.8988	522.99
28.9133	535.46
28.9277	521.20
28.9421	512.07
28.9566	499.55
28.9710	524.04
28.9855	503.79
28.9999	526.96
29.0143	551.05
29.0288	477.01
29.0432	515.64
29.0577	508.14
29.0721	495.10
29.0865	534.02
29.1010	535.53
29.1154	485.74
29.1299	528.13
29.1443	503.43
29.1587	487.85
29.1732	518.23
29.1876	487.33
29.2021	515.36
29.2165	493.19
29.2309	513.78
29.2454	498.81
29.2598	490.83
29.2743	472.54
29.2887	514.70
29.3031	511.63
29.3176	525.40
29.3320	538.96
29.3465	533.79
29.3609	512.23
29.3753	478.38
29.3898	484.12
29.4042	513.97
29.4187	538.04
29.4331	521.48
29.4475	507.72
29.4620	493.74
29.4764	532.16
29.4909	514.73
29.5053	485.62
29.5197	501.82
29.5342	513.37
29.5486	499.05
29.5631	485.11
29.5775	528.78
29.5919	518.91
29.6064	505.10
29.6208	502.94
29.6353	495.58
29.6497	517.52
29.6641	500.72
29.6786	482.77
29.6930	489.32
29.7075	497.14
29.7219	477.79
29.7363	497.62
29.7508	520.13
29.7652	486.97
29.7797	523.62
29.7941	540.60
29.8085	493.91
29.8230	510.00
29.8374	532.28
29.8519	480.29
29.8663	489.02
29.8807	539.18
29.8952	489.49
29.9096	511.28
29.9241	515.35
29.9385	568.87
29.9529	506.49
29.9674	514.67
29.9818	506.63
29.9963	481.65
30.0107	519.87
30.0251	519.13
30.0396	480.85
30.0540	495.29
30.0685	498.49
30.0829	489.91
30.0973	529.04
30.1118	485.86
30.1262	550.18
30.1407	529.73
30.1551	515.58
30.1695	493.14
30.1840	483.20
30.1984	490.65
30.2129	524.16
30.2273	511.86
30.2417	583.03
30.2562	546.78
30.2706	511.80
30.2851	500.43
30.2995	536.56
30.3139	506.44
30.3284	480.42
30.3428	505.96
30.3573	548.07
30.3717	486.60
30.3861	496.24
30.4006	493.54
30.4150	499.23
30.4295	560.04
30.4439	560.34
30.4583	527.18
30.4728	521.67
30.4872	524.72
30.5017	529.08
30.5161	506.50
30.5305	547.78
30.5450	572.57
30.5594	575.25
30.5739	578.49
30.5883	602.03
30.6028	629.34
30.6172	642.07
30.6316	656.92
30.6461	695.52
30.6605	716.80
30.6750	705.04
30.6894	689.77
30.7038	721.81
30.7183	731.91
30.7327	692.53
30.7472	687.16
30.7616	650.37
30.7760	665.30
30.7905	623.65
30.8049	584.38
30.8194	597.06
30.8338	574.85
30.8482	568.89
30.8627	547.78
30.8771	519.22
30.8916	513.11
30.9060	581.87
30.9204	544.18
30.9349	546.55
30.9493	546.86
30.9638	495.78
30.9782	525.80
30.9926	548.33
31.0071	513.64
31.0215	490.70
31.0360	519.13
31.0504	515.71
31.0648	506.96
31.0793	502.95
31.0937	504.21
31.1082	502.16
31.1226	522.07
31.1370	536.94
31.1515	503.08
31.1659	501.75
31.1804	543.55
31.1948	543.38
31.2092	547.47
31.2237	541.43
31.2381	536.80
31.2526	538.15
31.2670	508.73
31.2814	537.94
31.2959	541.44
31.3103	535.61
31.3248	526.87
31.3392	536.30
31.3536	525.35
31.3681	514.52
31.3825	548.26
31.3970	531.22
31.4114	536.53
31.4258	537.32
31.4403	553.29
31.4547	521.28
31.4692	498.47
31.4836	518.96
31.4980	527.92
31.5125	501.16
31.5269	529.68
31.5414	519.28
31.5558	530.61
31.5702	503.21
31.5847	510.85
31.5991	509.64
31.6136	474.38
31.6280	497.60
31.6424	519.08
31.6569	523.10
31.6713	502.60
31.6858	520.70
31.7002	515.57
31.7146	515.39
31.7291	479.14
31.7435	490.87
31.7580	494.82
31.7724	497.68
31.7868	513.04
31.8013	523.61
31.8157	515.15
31.8302	529.10
31.8446	523.89
31.8590	502.89
31.8735	529.32
31.8879	544.52
31.9024	515.77
31.9168	492.53
31.9312	516.53
31.9457	488.76
31.9601	504.45
31.9746	514.44
31.9890	542.38
32.0034	499.59
32.0179	516.07
32.0323	515.09
32.0468	469.09
32.0612	470.35
32.0756	487.96
32.0901	530.53
32.1045	517.31
32.1190	530.68
32.1334	534.66
32.1478	483.93
32.1623	528.03
32.1767	542.31
32.1912	478.94
32.2056	486.15
32.2200	481.05
32.2345	490.94
32.2489	500.31
32.2634	526.80
32.2778	526.55
32.2922	514.28
32.3067	489.60
32.3211	510.05
32.3356	543.02
32.3500	504.92
32.3644	517.16
32.3789	508.03
32.3933	495.46
32.4078	489.28
32.4222	516.20
32.4366	504.16
32.4511	492.32
32.4655	508.92
32.4800	497.01
32.4944	494.11
32.5088	541.72
32.5233	543.21
32.5377	543.37
32.5522	522.30
32.5666	494.30
32.5810	515.80
32.5955	525.10
32.6099	477.39
32.6244	499.47
32.6388	507.76
32.6532	481.69
32.6677	507.61
32.6821	482.23
32.6966	475.17
32.7110	512.40
32.7254	515.89
32.7399	523.13
32.7543	507.45
32.7688	501.06
32.7832	505.89
32.7976	499.81
32.8121	538.28
32.8265	504.16
32.8410	494.99
32.8554	493.64
32.8698	488.70
32.8843	497.39
32.8987	539.15
32.9132	523.12
32.9276	480.87
32.9420	505.60
32.9565	545.92
32.9709	484.99
32.9854	479.11
32.9998	503.63
33.0142	488.92
33.0287	498.76
33.0431	545.20
33.0576	516.70
33.0720	513.74
33.0864	469.26
33.1009	474.63
33.1153	524.18
33.1298	533.56
33.1442	465.26
33.1586	468.60
33.1731	519.42
33.1875	506.48
33.2020	515.77
33.2164	502.80
33.2308	524.49
33.2453	530.23
33.2597	500.26
33.2742	519.99
33.2886	521.80
33.3030	506.49
33.3175	475.56
33.3319	513.52
33.3464	509.21
33.3608	515.30
33.3752	503.65
33.3897	529.05
33.4041	524.30
33.4186	533.42
33.4330	519.78
33.4474	514.94
33.4619	500.63
33.4763	491.12
33.4908	489.99
33.5052	523.36
33.5196	511.85
33.5341	500.03
33.5485	505.41
33.5630	505.57
33.5774	515.77
33.5918	485.74
33.6063	506.71
33.6207	498.80
33.6352	519.71
33.6496	504.46
33.6640	498.73
33.6785	503.60
33.6929	513.69
33.7074	512.26
33.7218	535.38
33.7362	505.99
33.7507	495.84
33.7651	516.57
33.7796	536.81
33.7940	506.29
33.8084	495.39
33.8229	486.99
33.8373	499.35
33.8518	490.90
33.8662	533.37
33.8806	537.72
33.8951	507.47
33.9095	509.60
33.9240	494.05
33.9384	503.81
33.9528	506.62
33.9673	486.31
33.9817	523.46
33.9962	510.66
34.0106	494.41
34.0250	505.19
34.0395	513.92
34.0539	499.27
34.0684	512.94
34.0828	538.32
34.0972	502.48
34.1117	492.78
34.1261	509.35
34.1406	504.74
34.1550	502.54
34.1694	490.47
34.1839	491.07
34.1983	500.24
34.2128	522.54
34.2272	479.95
34.2417	515.32
34.2561	493.22
34.2705	523.11
34.2850	503.65
34.2994	503.32
34.3139	483.13
34.3283	491.57
34.3427	518.10
34.3572	510.06
34.3716	514.88
34.3861	527.93
34.4005	499.43
34.4149	549.06
34.4294	521.06
34.4438	478.36
34.4583	493.10
34.4727	530.03
34.4871	498.01
34.5016	507.00
34.5160	510.77
34.5305	475.03
34.5449	494.58
34.5593	487.57
34.5738	480.89
34.5882	506.63
34.6027	520.40
34.6171	485.84
34.6315	493.97
34.6460	522.95
34.6604	510.26
34.6749	513.18
34.6893	512.25
34.7037	536.76
34.7182	540.10
34.7326	491.68
34.7471	503.77
34.7615	521.69
34.7759	523.25
34.7904	504.49
34.8048	485.22
34.8193	493.47
34.8337	527.03
34.8481	506.98
34.8626	514.37
34.8770	522.95
34.8915	503.99
34.9059	514.10
34.9203	521.21
34.9348	521.39
34.9492	533.84
34.9637	532.19
34.9781	502.96
34.9925	493.46
35.0070	476.26
35.0214	504.97
35.0359	475.24
35.0503	486.45
35.0647	519.54
35.0792	510.49
35.0936	486.69
35.1081	474.48
35.1225	497.99
35.1369	493.20
35.1514	495.18
35.1658	531.60
35.1803	556.19
35.1947	513.18
35.2091	478.76
35.2236	487.99
35.2380	498.52
35.2525	529.38
35.2669	518.76
35.2813	508.53
35.2958	500.27
35.3102	522.81
35.3247	488.96
35.3391	502.14
35.3535	515.37
35.3680	502.72
35.3824	491.85
35.3969	507.65
35.4113	523.82
35.4257	569.81
35.4402	529.84
35.4546	533.18
35.4691	527.02
35.4835	518.32
35.4979	511.98
35.5124	509.94
35.5268	512.54
35.5413	539.43
35.5557	485.41
35.5701	531.14
35.5846	557.26
35.5990	560.37
35.6135	548.57
35.6279	534.00
35.6423	558.57
35.6568	566.49
35.6712	549.70
35.6857	567.33
35.7001	644.95
35.7145	700.72
35.7290	649.11
35.7434	611.49
35.7579	551.54
35.7723	547.56
35.7867	612.77
35.8012	654.76
35.8156	637.52
35.8301	619.22
35.8445	598.92
35.8589	667.73
35.8734	726.92
35.8878	857.11
35.9023	1022.36
35.9167	1093.47
35.9311	1402.48
35.9456	2009.92
35.9600	2404.22
35.9745	1961.11
35.9889	1872.54
36.0033	2197.96
36.0178	2395.96
36.0322	2172.70
36.0467	1969.68
36.0611	1846.71
36.0755	1807.11
36.0900	1899.76
36.1044	1842.89
36.1189	1873.06
36.1333	1711.97
36.1477	1578.38
36.1622	1505.33
36.1766	1457.43
36.1911	1249.54
36.2055	1093.20
36.2199	1029.41
36.2344	986.21
36.2488	888.63
36.2633	821.26
36.2777	781.56
36.2921	724.94
36.3066	684.23
36.3210	638.37
36.3355	664.04
36.3499	622.23
36.3643	598.28
36.3788	597.03
36.3932	573.99
36.4077	577.29
36.4221	526.15
36.4365	541.36
36.4510	515.39
36.4654	558.85
36.4799	517.77
36.4943	574.05
36.5087	571.79
36.5232	548.03
36.5376	569.68
36.5521	546.70
36.5665	546.90
36.5809	536.93
36.5954	528.19
36.6098	498.88
36.6243	507.14
36.6387	508.30
36.6531	492.67
36.6676	513.65
36.6820	505.24
36.6965	500.09
36.7109	524.97
36.7253	531.46
36.7398	559.71
36.7542	554.70
36.7687	557.95
36.7831	538.02
36.7975	557.94
36.8120	536.34
36.8264	571.01
36.8409	570.79
36.8553	590.76
36.8697	601.52
36.8842	615.60
36.8986	593.48
36.9131	595.31
36.9275	564.16
36.9419	574.83
36.9564	552.02
36.9708	576.02
36.9853	575.07
36.9997	549.89
37.0141	571.78
37.0286	565.31
37.0430	493.14
37.0575	549.43
37.0719	488.72
37.0863	519.58
37.1008	499.13
37.1152	529.55
37.1297	489.34
37.1441	477.32
37.1585	511.75
37.1730	506.92
37.1874	511.69
37.2019	478.66
37.2163	498.76
37.2307	522.73
37.2452	512.32
37.2596	530.49
37.2741	482.21
37.2885	521.09
37.3029	514.13
37.3174	499.25
37.3318	507.02
37.3463	525.29
37.3607	540.77
37.3751	509.60
37.3896	502.68
37.4040	493.69
37.4185	518.71
37.4329	502.47
37.4473	504.10
37.4618	475.89
37.4762	481.34
37.4907	482.69
37.5051	475.25
37.5195	530.21
37.5340	535.63
37.5484	500.73
37.5629	487.98
37.5773	511.82
37.5917	496.27
37.6062	520.61
37.6206	506.33
37.6351	516.20
37.6495	523.38
37.6639	491.08
37.6784	492.91
37.6928	504.67
37.7073	524.30
37.7217	514.53
37.7361	498.32
37.7506	490.46
37.7650	487.24
37.7795	537.37
37.7939	525.34
37.8083	469.05
37.8228	527.53
37.8372	492.03
37.8517	490.08
37.8661	536.61
37.8805	532.35
37.8950	510.46
37.9094	529.71
37.9239	488.73
37.9383	504.50
37.9528	536.30
37.9672	529.50
37.9816	488.13
37.9961	506.10
38.0105	488.62
38.0250	528.35
38.0394	547.80
38.0538	511.21
38.0683	526.94
38.0827	500.04
38.0972	522.96
38.1116	487.38
38.1260	518.99
38.1405	505.27
38.1549	510.41
38.1694	507.58
38.1838	495.36
38.1982	488.76
38.2127	474.68
38.2271	475.56
38.2416	492.02
38.2560	502.61
38.2704	453.58
38.2849	522.18
38.2993	543.26
38.3138	526.10
38.3282	515.50
38.3426	514.71
38.3571	513.41
38.3715	512.30
38.3860	517.21
38.4004	532.42
38.4148	542.62
38.4293	572.59
38.4437	568.51
38.4582	601.04
38.4726	693.22
38.4870	735.32
38.5015	779.58
38.5159	817.23
38.5304	819.84
38.5448	800.42
38.5592	730.87
38.5737	733.76
38.5881	723.27
38.6026	742.47
38.6170	692.48
38.6314	681.91
38.6459	678.16
38.6603	643.50
38.6748	615.83
38.6892	605.38
38.7036	550.86
38.7181	554.48
38.7325	540.86
38.7470	509.73
38.7614	494.37
38.7758	530.99
38.7903	522.25
38.8047	524.04
38.8192	521.54
38.8336	484.87
38.8480	472.64
38.8625	483.11
38.8769	519.41
38.8914	498.40
38.9058	516.98
38.9202	529.00
38.9347	517.93
38.9491	492.20
38.9636	495.59
38.9780	476.16
38.9924	487.01
39.0069	480.91
39.0213	511.33
39.0358	529.57
39.0502	497.65
39.0646	506.59
39.0791	507.42
39.0935	517.16
39.1080	518.78
39.1224	484.21
39.1368	512.87
39.1513	541.49
39.1657	538.03
39.1802	501.48
39.1946	516.12
39.2090	487.98
39.2235	535.53
39.2379	540.43
39.2524	497.29
39.2668	485.65
39.2812	478.92
39.2957	487.13
39.3101	531.26
39.3246	541.70
39.3390	509.19
39.3534	506.45
39.3679	526.78
39.3823	529.19
39.3968	541.10
39.4112	514.56
39.4256	510.04
39.4401	492.87
39.4545	515.41
39.4690	506.56
39.4834	516.15
39.4978	514.13
39.5123	497.92
39.5267	514.74
39.5412	512.05
39.5556	520.44
39.5700	507.64
39.5845	514.29
39.5989	494.49
39.6134	520.61
39.6278	489.92
39.6422	499.41
39.6567	483.46
39.6711	489.35
39.6856	508.31
39.7000	515.78
39.7144	511.95
39.7289	518.85
39.7433	475.60
39.7578	494.90
39.7722	500.89
39.7866	522.94
39.8011	528.77
39.8155	473.04
39.8300	495.27
39.8444	474.60
39.8588	501.98
39.8733	505.82
39.8877	469.77
39.9022	506.13
39.9166	488.75
39.9310	476.25
39.9455	492.25
39.9599	502.74
39.9744	502.57
39.9888	492.80
40.0032	489.68
40.0177	456.50
40.0321	508.17
40.0466	498.90
40.0610	494.53
40.0754	505.19
40.0899	554.89
40.1043	495.33
40.1188	504.66
40.1332	505.44
40.1476	517.11
40.1621	508.62
40.1765	496.43
40.1910	502.04
40.2054	471.14
40.2198	499.38
40.2343	488.23
40.2487	490.48
40.2632	506.59
40.2776	499.64
40.2920	470.48
40.3065	490.82
40.3209	486.03
40.3354	523.82
40.3498	545.92
40.3642	489.08
40.3787	493.74
40.3931	452.71
40.4076	484.70
40.4220	475.57
40.4364	493.59
40.4509	488.03
40.4653	512.56
40.4798	500.74
40.4942	511.34
40.5086	505.44
40.5231	496.23
40.5375	523.74
40.5520	505.59
40.5664	480.96
40.5808	481.20
40.5953	491.45
40.6097	503.05
40.6242	511.51
40.6386	523.01
40.6530	510.93
40.6675	487.62
40.6819	495.25
40.6964	491.54
40.7108	505.45
40.7252	519.02
40.7397	503.17
40.7541	499.87
40.7686	477.05
40.7830	508.13
40.7974	501.61
40.8119	502.43
40.8263	489.63
40.8408	494.11
40.8552	515.14
40.8696	488.76
40.8841	475.91
40.8985	516.87
40.9130	519.39
40.9274	493.33
40.9418	518.96
40.9563	527.38
40.9707	464.46
40.9852	459.94
40.9996	490.87
41.0140	449.22
41.0285	491.74
41.0429	491.97
41.0574	504.78
41.0718	520.36
41.0862	495.86
41.1007	498.95
41.1151	523.42
41.1296	501.56
41.1440	511.40
41.1584	469.30
41.1729	483.92
41.1873	477.10
41.2018	477.65
41.2162	491.96
41.2306	513.24
41.2451	525.54
41.2595	515.94
41.2740	518.91
41.2884	498.64
41.3028	485.79
41.3173	525.07
41.3317	511.01
41.3462	521.77
41.3606	479.24
41.3750	479.99
41.3895	468.27
41.4039	495.53
41.4184	512.68
41.4328	512.66
41.4472	492.42
41.4617	483.71
41.4761	508.88
41.4906	516.37
41.5050	479.35
41.5194	492.70
41.5339	491.73
41.5483	507.08
41.5628	472.74
41.5772	508.62
41.5916	496.81
41.6061	544.25
41.6205	523.16
41.6350	517.67
41.6494	509.51
41.6639	530.31
41.6783	497.89
41.6927	509.07
41.7072	512.59
41.7216	480.88
41.7361	502.54
41.7505	496.39
41.7649	519.42
41.7794	507.05
41.7938	501.62
41.8083	536.18
41.8227	500.04
41.8371	490.10
41.8516	491.12
41.8660	530.52
41.8805	537.69
41.8949	525.79
41.9093	544.47
41.9238	523.58
41.9382	548.98
41.9527	582.88
41.9671	567.72
41.9815	598.99
41.9960	576.79
42.0104	588.22
42.0249	603.82
42.0393	596.70
42.0537	570.18
42.0682	596.81
42.0826	596.15
42.0971	597.75
42.1115	586.30
42.1259	613.35
42.1404	571.30
42.1548	582.88
42.1693	625.64
42.1837	667.65
42.1981	721.74
42.2126	826.65
42.2270	903.24
42.2415	1065.48
42.2559	1196.55
42.2703	1364.45
42.2848	1480.23
42.2992	1565.15
42.3137	1625.15
42.3281	1613.12
42.3425	1587.28
42.3570	1458.84
42.3714	1367.23
42.3859	1353.14
42.4003	1343.17
42.4147	1313.60
42.4292	1271.13
42.4436	1166.30
42.4581	1061.97
42.4725	975.94
42.4869	861.08
42.5014	780.44
42.5158	711.09
42.5303	649.21
42.5447	636.35
42.5591	641.05
42.5736	602.37
42.5880	584.11
42.6025	571.68
42.6169	544.77
42.6313	557.85
42.6458	571.98
42.6602	565.56
42.6747	539.35
42.6891	538.78
42.7035	540.84
42.7180	508.79
42.7324	514.12
42.7469	550.13
42.7613	508.10
42.7757	496.15
42.7902	499.19
42.8046	526.91
42.8191	505.31
42.8335	512.99
42.8479	487.48
42.8624	500.03
42.8768	490.57
42.8913	493.67
42.9057	512.76
42.9201	524.31
42.9346	558.55
42.9490	539.13
42.9635	470.25
42.9779	484.96
42.9923	499.61
43.0068	485.90
43.0212	498.43
43.0357	513.31
43.0501	510.60
43.0645	501.12
43.0790	519.22
43.0934	517.03
43.1079	505.06
43.1223	504.90
43.1367	500.45
43.1512	525.39
43.1656	541.98
43.1801	520.93
43.1945	538.03
43.2089	539.78
43.2234	544.45
43.2378	515.09
43.2523	553.88
43.2667	548.22
43.2811	511.87
43.2956	538.99
43.3100	532.29
43.3245	510.68
43.3389	524.29
43.3533	533.55
43.3678	509.70
43.3822	489.02
43.3967	489.88
43.4111	483.61
43.4255	509.00
43.4400	518.42
43.4544	516.80
43.4689	541.18
43.4833	475.33
43.4977	489.69
43.5122	502.74
43.5266	504.86
43.5411	499.15
43.5555	534.58
43.5699	510.68
43.5844	498.23
43.5988	537.70
43.6133	517.46
43.6277	510.65
43.6421	542.40
43.6566	493.56
43.6710	520.01
43.6855	543.29
43.6999	527.57
43.7143	506.90
43.7288	527.39
43.7432	561.65
43.7577	559.73
43.7721	543.96
43.7865	557.20
43.8010	542.90
43.8154	508.89
43.8299	524.14
43.8443	575.50
43.8587	608.62
43.8732	615.58
43.8876	587.42
43.9021	663.22
43.9165	630.17
43.9309	621.46
43.9454	625.71
43.9598	627.34
43.9743	615.64
43.9887	624.70
44.0031	565.10
44.0176	583.79
44.0320	627.82
44.0465	607.16
44.0609	615.35
44.0753	569.05
44.0898	551.67
44.1042	518.93
44.1187	521.43
44.1331	511.78
44.1475	489.27
44.1620	535.39
44.1764	500.71
44.1909	499.45
44.2053	520.67
44.2197	557.28
44.2342	547.81
44.2486	532.35
44.2631	538.32
44.2775	530.13
44.2919	521.42
44.3064	523.24
44.3208	548.38
44.3353	552.16
44.3497	531.79
44.3641	532.72
44.3786	527.98
44.3930	563.43
44.4075	568.98
44.4219	582.64
44.4363	596.69
44.4508	604.83
44.4652	598.14
44.4797	566.27
44.4941	556.73
44.5085	533.98
44.5230	571.90
44.5374	576.92
44.5519	584.25
44.5663	600.22
44.5807	558.46
44.5952	565.09
44.6096	567.34
44.6241	578.57
44.6385	593.02
44.6529	583.25
44.6674	557.75
44.6818	579.47
44.6963	624.10
44.7107	698.73
44.7251	706.77
44.7396	747.47
44.7540	815.40
44.7685	856.42
44.7829	828.99
44.7973	845.41
44.8118	831.55
44.8262	763.92
44.8407	777.12
44.8551	743.60
44.8695	787.84
44.8840	780.27
44.8984	754.24
44.9129	778.51
44.9273	712.68
44.9417	650.62
44.9562	631.90
44.9706	587.48
44.9851	536.37
44.9995	541.91
45.0139	541.70
45.0284	556.52
45.0428	541.99
45.0573	548.92
45.0717	524.50
45.0861	508.13
45.1006	502.09
45.1150	526.92
45.1295	500.42
45.1439	497.20
45.1583	511.38
45.1728	535.17
45.1872	472.60
45.2017	509.29
45.2161	490.02
45.2305	475.24
45.2450	529.72
45.2594	517.25
45.2739	565.59
45.2883	528.55
45.3028	498.21
45.3172	485.83
45.3316	552.88
45.3461	528.22
45.3605	527.64
45.3750	497.01
45.3894	507.12
45.4038	458.43
45.4183	511.32
45.4327	506.07
45.4472	537.07
45.4616	516.92
45.4760	509.87
45.4905	517.22
45.5049	492.99
45.5194	506.01
45.5338	503.60
45.5482	497.46
45.5627	530.50
45.5771	470.84
45.5916	491.99
45.6060	469.42
45.6204	534.04
45.6349	523.12
45.6493	501.89
45.6638	511.30
45.6782	511.19
45.6926	491.37
45.7071	506.65
45.7215	495.84
45.7360	469.34
45.7504	512.44
45.7648	507.84
45.7793	495.69
45.7937	513.15
45.8082	508.41
45.8226	516.59
45.8370	513.39
45.8515	505.25
45.8659	513.72
45.8804	510.73
45.8948	471.40
45.9092	502.12
45.9237	490.40
45.9381	491.83
45.9526	474.38
45.9670	500.16
45.9814	467.95
45.9959	492.47
46.0103	471.66
46.0248	503.17
46.0392	496.68
46.0536	517.38
46.0681	531.74
46.0825	517.23
46.0970	490.46
46.1114	518.63
46.1258	503.73
46.1403	477.15
46.1547	477.98
46.1692	504.67
46.1836	531.30
46.1980	505.70
46.2125	476.89
46.2269	491.25
46.2414	504.29
46.2558	502.92
46.2702	487.90
46.2847	487.13
46.2991	494.47
46.3136	520.97
46.3280	525.52
46.3424	509.17
46.3569	477.00
46.3713	488.61
46.3858	493.69
46.4002	482.47
46.4146	516.70
46.4291	510.34
46.4435	492.18
46.4580	505.83
46.4724	496.92
46.4868	515.06
46.5013	523.15
46.5157	551.96
46.5302	511.81
46.5446	527.56
46.5590	489.77
46.5735	495.06
46.5879	476.14
46.6024	518.96
46.6168	496.68
46.6312	492.90
46.6457	514.07
46.6601	510.60
46.6746	498.94
46.6890	483.66
46.7034	522.54
46.7179	515.55
46.7323	480.37
46.7468	496.43
46.7612	485.70
46.7756	505.42
46.7901	506.10
46.8045	489.66
46.8190	501.79
46.8334	501.73
46.8478	524.35
46.8623	530.70
46.8767	484.52
46.8912	496.82
46.9056	516.38
46.9200	486.94
46.9345	492.44
46.9489	476.78
46.9634	506.39
46.9778	486.62
46.9922	499.04
47.0067	562.08
47.0211	531.48
47.0356	540.27
47.0500	546.31
47.0644	502.81
47.0789	488.74
47.0933	535.47
47.1078	504.49
47.1222	499.01
47.1366	461.53
47.1511	503.94
47.1655	504.35
47.1800	506.00
47.1944	495.76
47.2088	497.33
47.2233	498.39
47.2377	472.23
47.2522	523.62
47.2666	501.40
47.2810	515.47
47.2955	488.02
47.3099	487.50
47.3244	523.50
47.3388	518.36
47.3532	523.35
47.3677	508.21
47.3821	508.99
47.3966	519.84
47.4110	510.47
47.4254	518.34
47.4399	501.75
47.4543	504.62
47.4688	513.67
47.4832	496.74
47.4976	490.37
47.5121	494.33
47.5265	525.11
47.5410	506.75
47.5554	495.79
47.5698	518.58
47.5843	520.50
47.5987	516.85
47.6132	487.26
47.6276	468.91
47.6420	478.02
47.6565	474.87
47.6709	494.69
47.6854	534.70
47.6998	521.73
47.7142	554.42
47.7287	532.36
47.7431	532.84
47.7576	501.31
47.7720	513.75
47.7864	539.47
47.8009	509.08
47.8153	525.50
47.8298	508.62
47.8442	489.96
47.8586	539.57
47.8731	495.20
47.8875	512.13
47.9020	536.73
47.9164	562.48
47.9308	531.34
47.9453	506.73
47.9597	461.34
47.9742	458.36
47.9886	521.22
48.0030	510.93
48.0175	475.20
48.0319	478.33
48.0464	471.95
48.0608	538.15
48.0752	504.76
48.0897	494.24
48.1041	506.17
48.1186	516.28
48.1330	505.53
48.1474	504.18
48.1619	532.26
48.1763	501.08
48.1908	511.30
48.2052	510.30
48.2196	536.89
48.2341	502.48
48.2485	520.75
48.2630	495.02
48.2774	505.29
48.2918	512.38
48.3063	499.92
48.3207	502.54
48.3352	513.84
48.3496	533.83
48.3640	529.36
48.3785	508.26
48.3929	522.69
48.4074	492.71
48.4218	519.23
48.4362	493.12
48.4507	505.87
48.4651	480.08
48.4796	514.21
48.4940	503.43
48.5084	523.34
48.5229	511.71
48.5373	510.14
48.5518	537.91
48.5662	515.17
48.5806	502.71
48.5951	502.90
48.6095	527.17
48.6240	525.99
48.6384	515.92
48.6528	543.04
48.6673	528.08
48.6817	532.44
48.6962	518.24
48.7106	527.30
48.7250	553.76
48.7395	506.57
48.7539	505.57
48.7684	527.34
48.7828	554.02
48.7972	540.16
48.8117	532.74
48.8261	551.09
48.8406	511.52
48.8550	527.31
48.8694	558.09
48.8839	577.56
48.8983	529.15
48.9128	567.81
48.9272	551.85
48.9416	565.84
48.9561	554.22
48.9705	557.95
48.9850	593.64
48.9994	546.41
49.0139	611.43
49.0283	574.06
49.0427	615.59
49.0572	639.40
49.0716	614.03
49.0861	659.88
49.1005	644.70
49.1149	694.35
49.1294	718.27
49.1438	710.47
49.1583	747.47
49.1727	797.81
49.1871	846.18
49.2016	894.82
49.2160	972.41
49.2305	1036.80
49.2449	1093.33
49.2593	1164.85
49.2738	1301.10
49.2882	1409.74
49.3027	1458.48
49.3171	1587.78
49.3315	1647.96
49.3460	1666.06
49.3604	1719.60
49.3749	1773.79
49.3893	1750.75
49.4037	1755.54
49.4182	1741.70
49.4326	1742.26
49.4471	1625.79
49.4615	1591.57
49.4759	1519.20
49.4904	1469.39
49.5048	1390.16
49.5193	1283.36
49.5337	1246.55
49.5481	1215.93
49.5626	1181.65
49.5770	1107.09
49.5915	990.72
49.6059	881.87
49.6203	842.86
49.6348	832.93
49.6492	786.65
49.6637	723.93
49.6781	696.92
49.6925	711.08
49.7070	660.16
49.7214	637.94
49.7359	574.62
49.7503	603.93
49.7647	595.58
49.7792	646.65
49.7936	592.73
49.8081	588.84
49.8225	593.96
49.8369	599.69
49.8514	542.54
49.8658	563.97
49.8803	582.91
49.8947	572.84
49.9091	596.72
49.9236	541.02
49.9380	564.72
49.9525	517.96
49.9669	513.60
49.9813	538.41
49.9958	493.28
50.0102	538.05
50.0247	539.30
50.0391	536.27
50.0535	513.26
50.0680	504.42
50.0824	476.29
50.0969	475.83
50.1113	528.97
50.1257	491.76
50.1402	478.70
50.1546	502.84
50.1691	544.87
50.1835	497.84
50.1979	505.67
50.2124	532.70
50.2268	506.52
50.2413	520.09
50.2557	506.17
50.2701	495.62
50.2846	500.96
50.2990	500.01
50.3135	503.63
50.3279	507.67
50.3423	508.55
50.3568	519.06
50.3712	511.49
50.3857	493.48
50.4001	472.23
50.4145	508.15
50.4290	530.83
50.4434	518.51
50.4579	515.99
50.4723	531.22
50.4867	520.90
50.5012	515.30
50.5156	511.84
50.5301	529.99
50.5445	517.78
50.5589	502.95
50.5734	520.62
50.5878	527.54
50.6023	538.89
50.6167	521.08
50.6311	521.99
50.6456	533.50
50.6600	523.23
50.6745	491.24
50.6889	510.81
50.7033	517.93
50.7178	512.21
50.7322	510.96
50.7467	532.23
50.7611	526.39
50.7755	567.06
50.7900	520.26
50.8044	489.87
50.8189	525.48
50.8333	502.52
50.8477	493.56
50.8622	508.92
50.8766	517.73
50.8911	515.61
50.9055	528.79
50.9199	530.82
50.9344	538.14
50.9488	484.42
50.9633	479.77
50.9777	501.31
50.9921	496.49
51.0066	509.89
51.0210	536.95
51.0355	498.48
51.0499	467.80
51.0643	512.71
51.0788	463.19
51.0932	472.71
51.1077	483.38
51.1221	517.64
51.1365	515.72
51.1510	534.70
51.1654	518.44
51.1799	513.52
51.1943	487.56
51.2087	478.34
51.2232	483.18
51.2376	460.95
51.2521	516.55
51.2665	524.26
51.2809	503.39
51.2954	511.43
51.3098	538.88
51.3243	539.34
51.3387	541.06
51.3531	514.69
51.3676	487.21
51.3820	511.11
51.3965	517.42
51.4109	477.78
51.4253	512.11
51.4398	499.13
51.4542	473.49
51.4687	509.62
51.4831	506.98
51.4975	482.72
51.5120	481.64
51.5264	518.22
51.5409	488.83
51.5553	474.70
51.5697	493.99
51.5842	513.86
51.5986	511.21
51.6131	519.76
51.6275	479.25
51.6419	483.96
51.6564	505.99
51.6708	480.01
51.6853	495.34
51.6997	523.71
51.7141	538.38
51.7286	510.50
51.7430	496.66
51.7575	488.96
51.7719	506.93
51.7863	516.11
51.8008	464.18
51.8152	513.52
51.8297	497.53
51.8441	493.38
51.8585	534.22
51.8730	507.46
51.8874	511.91
51.9019	515.77
51.9163	497.89
51.9307	506.29
51.9452	502.11
51.9596	532.40
51.9741	505.47
51.9885	480.23
52.0029	524.02
52.0174	528.02
52.0318	516.75
52.0463	502.72
52.0607	555.00
52.0751	530.61
52.0896	521.04
52.1040	546.77
52.1185	544.37
52.1329	519.79
52.1473	486.06
52.1618	516.39
52.1762	499.08
52.1907	508.61
52.2051	525.67
52.2195	523.45
52.2340	494.06
52.2484	502.26
52.2629	514.00
52.2773	470.05
52.2917	514.35
52.3062	506.91
52.3206	481.67
52.3351	528.38
52.3495	498.06
52.3639	508.99
52.3784	470.20
52.3928	497.14
52.4073	492.20
52.4217	500.87
52.4361	495.21
52.4506	529.39
52.4650	556.16
52.4795	505.30
52.4939	489.22
52.5083	500.61
52.5228	527.43
52.5372	520.84
52.5517	515.31
52.5661	539.56
52.5805	502.98
52.5950	518.44
52.6094	518.34
52.6239	504.78
52.6383	529.82
52.6527	517.63
52.6672	492.46
52.6816	508.03
52.6961	476.95
52.7105	527.78
52.7250	518.92
52.7394	491.80
52.7538	550.35
52.7683	526.03
52.7827	524.61
52.7972	504.50
52.8116	521.97
52.8260	512.42
52.8405	524.04
52.8549	497.74
52.8694	521.60
52.8838	497.63
52.8982	532.47
52.9127	514.58
52.9271	495.00
52.9416	528.14
52.9560	523.04
52.9704	501.58
52.9849	520.38
52.9993	565.48
53.0138	524.15
53.0282	512.24
53.0426	515.19
53.0571	535.15
53.0715	490.25
53.0860	493.20
53.1004	529.45
53.1148	530.84
53.1293	530.69
53.1437	518.72
53.1582	485.60
53.1726	502.11
53.1870	533.95
53.2015	485.45
53.2159	507.98
53.2304	496.52
53.2448	521.82
53.2592	524.11
53.2737	513.74
53.2881	527.93
53.3026	518.78
53.3170	500.97
53.3314	486.64
53.3459	530.27
53.3603	506.55
53.3748	518.08
53.3892	520.61
53.4036	509.33
53.4181	508.49
53.4325	487.92
53.4470	507.02
53.4614	512.69
53.4758	508.02
53.4903	527.92
53.5047	528.52
53.5192	504.47
53.5336	524.81
53.5480	522.26
53.5625	487.28
53.5769	521.24
53.5914	528.54
53.6058	520.18
53.6202	507.29
53.6347	529.08
53.6491	518.12
53.6636	501.64
53.6780	497.75
53.6924	507.89
53.7069	521.83
53.7213	509.41
53.7358	487.19
53.7502	501.34
53.7646	499.99
53.7791	492.63
53.7935	511.96
53.8080	528.61
53.8224	491.11
53.8368	507.00
53.8513	506.12
53.8657	510.50
53.8802	534.27
53.8946	569.00
53.9090	570.00
53.9235	529.29
53.9379	491.87
53.9524	516.79
53.9668	581.44
53.9812	517.27
53.9957	526.82
54.0101	518.93
54.0246	496.16
54.0390	534.18
54.0534	560.03
54.0679	537.73
54.0823	543.17
54.0968	570.98
54.1112	508.22
54.1256	514.56
54.1401	517.30
54.1545	497.54
54.1690	506.76
54.1834	529.63
54.1978	506.59
54.2123	515.56
54.2267	539.30
54.2412	513.95
54.2556	541.07
54.2700	557.40
54.2845	575.56
54.2989	539.25
54.3134	517.75
54.3278	530.71
54.3422	534.53
54.3567	560.76
54.3711	548.76
54.3856	545.33
54.4000	591.95
54.4144	593.89
54.4289	624.55
54.4433	592.26
54.4578	579.78
54.4722	658.10
54.4866	617.23
54.5011	590.73
54.5155	616.87
54.5300	606.64
54.5444	582.37
54.5588	596.48
54.5733	538.50
54.5877	587.31
54.6022	595.64
54.6166	560.25
54.6310	566.62
54.6455	575.22
54.6599	585.03
54.6744	582.17
54.6888	577.85
54.7032	584.79
54.7177	533.52
54.7321	558.17
54.7466	547.66
54.7610	543.68
54.7754	536.61
54.7899	527.80
54.8043	515.75
54.8188	560.26
54.8332	596.41
54.8476	527.47
54.8621	504.50
54.8765	516.36
54.8910	515.56
54.9054	530.43
54.9198	556.75
54.9343	574.46
54.9487	551.95
54.9632	524.65
54.9776	516.33
54.9920	524.69
55.0065	555.80
55.0209	576.11
55.0354	539.58
55.0498	524.02
55.0642	505.42
55.0787	505.35
55.0931	509.33
55.1076	501.84
55.1220	524.94
55.1364	548.04
55.1509	498.44
55.1653	535.54
55.1798	519.90
55.1942	456.66
55.2086	516.93
55.2231	530.07
55.2375	488.32
55.2520	501.28
55.2664	539.48
55.2808	514.68
55.2953	496.32
55.3097	519.95
55.3242	519.02
55.3386	529.39
55.3530	532.74
55.3675	501.52
55.3819	489.27
55.3964	487.10
55.4108	497.11
55.4252	538.43
55.4397	539.05
55.4541	488.07
55.4686	519.60
55.4830	535.92
55.4974	521.40
55.5119	503.56
55.5263	501.15
55.5408	495.05
55.5552	490.90
55.5696	504.91
55.5841	532.76
55.5985	528.89
55.6130	512.87
55.6274	506.58
55.6418	571.15
55.6563	572.74
55.6707	551.04
55.6852	517.22
55.6996	550.08
55.7140	569.95
55.7285	541.04
55.7429	522.14
55.7574	542.65
55.7718	518.08
55.7862	539.43
55.8007	513.50
55.8151	528.99
55.8296	550.88
55.8440	545.81
55.8584	532.46
55.8729	533.71
55.8873	515.05
55.9018	555.35
55.9162	531.86
55.9306	510.99
55.9451	518.41
55.9595	508.06
55.9740	494.00
55.9884	529.42
56.0028	507.99
56.0173	558.82
56.0317	519.23
56.0462	499.93
56.0606	519.98
56.0750	519.22
56.0895	529.13
56.1039	509.27
56.1184	535.08
56.1328	553.49
56.1472	516.26
56.1617	506.08
56.1761	540.05
56.1906	514.31
56.2050	506.02
56.2194	479.87
56.2339	472.36
56.2483	566.69
56.2628	531.34
56.2772	509.78
56.2916	491.84
56.3061	532.08
56.3205	558.74
56.3350	536.97
56.3494	514.26
56.3639	509.70
56.3783	555.57
56.3927	555.10
56.4072	519.57
56.4216	570.71
56.4361	534.63
56.4505	501.36
56.4649	513.13
56.4794	560.80
56.4938	521.33
56.5083	505.53
56.5227	511.65
56.5371	531.01
56.5516	510.85
56.5660	535.20
56.5805	533.36
56.5949	493.93
56.6093	508.96
56.6238	532.47
56.6382	499.62
56.6527	525.04
56.6671	538.89
56.6815	505.76
56.6960	498.13
56.7104	520.16
56.7249	509.04
56.7393	508.48
56.7537	509.86
56.7682	508.51
56.7826	535.96
56.7971	536.99
56.8115	548.71
56.8259	542.30
56.8404	529.28
56.8548	553.35
56.8693	518.31
56.8837	528.82
56.8981	521.89
56.9126	575.86
56.9270	535.55
56.9415	549.21
56.9559	513.30
56.9703	523.64
56.9848	498.06
56.9992	520.48
57.0137	517.71
57.0281	538.54
57.0425	505.93
57.0570	538.34
57.0714	524.34
57.0859	539.20
57.1003	503.80
57.1147	500.51
57.1292	546.43
57.1436	530.05
57.1581	561.04
57.1725	537.36
57.1869	507.59
57.2014	500.50
57.2158	500.15
57.2303	538.46
57.2447	598.65
57.2591	518.30
57.2736	522.63
57.2880	508.10
57.3025	506.98
57.3169	546.66
57.3313	560.95
57.3458	537.89
57.3602	502.06
57.3747	484.25
57.3891	523.68
57.4035	526.32
57.4180	521.46
57.4324	529.94
57.4469	530.46
57.4613	545.63
57.4757	566.59
57.4902	536.33
57.5046	551.17
57.5191	558.63
57.5335	541.40
57.5479	533.46
57.5624	554.56
57.5768	543.16
57.5913	524.34
57.6057	545.22
57.6201	513.44
57.6346	528.26
57.6490	558.71
57.6635	519.51
57.6779	538.30
57.6923	490.33
57.7068	529.18
57.7212	531.92
57.7357	492.55
57.7501	523.31
57.7645	535.59
57.7790	546.56
57.7934	570.61
57.8079	562.02
57.8223	555.03
57.8367	545.64
57.8512	545.47
57.8656	546.54
57.8801	562.80
57.8945	593.66
57.9089	539.56
57.9234	529.39
57.9378	587.88
57.9523	568.94
57.9667	555.54
57.9811	544.38
57.9956	560.26
58.0100	584.67
58.0245	663.78
58.0389	577.88
58.0533	621.72
58.0678	637.95
58.0822	663.76
58.0967	692.56
58.1111	698.27
58.1255	705.64
58.1400	660.40
58.1544	675.05
58.1689	674.94
58.1833	673.76
58.1977	662.80
58.2122	687.22
58.2266	683.96
58.2411	671.81
58.2555	658.99
58.2699	644.24
58.2844	648.65
58.2988	628.97
58.3133	610.98
58.3277	616.27
58.3421	577.53
58.3566	582.69
58.3710	626.36
58.3855	574.03
58.3999	562.82
58.4143	556.68
58.4288	561.14
58.4432	548.59
58.4577	561.91
58.4721	541.68
58.4865	532.62
58.5010	578.79
58.5154	552.23
58.5299	536.45
58.5443	563.82
58.5587	543.08
58.5732	513.89
58.5876	517.49
58.6021	529.94
58.6165	579.52
58.6309	557.81
58.6454	528.07
58.6598	530.91
58.6743	536.58
58.6887	537.37
58.7031	549.36
58.7176	536.11
58.7320	538.91
58.7465	514.52
58.7609	533.08
58.7753	563.35
58.7898	553.01
58.8042	563.27
58.8187	571.43
58.8331	578.63
58.8475	554.72
58.8620	574.70
58.8764	533.35
58.8909	526.27
58.9053	590.75
58.9197	564.42
58.9342	545.79
58.9486	535.46
58.9631	484.81
58.9775	512.36
58.9919	562.84
59.0064	524.01
59.0208	530.20
59.0353	549.08
59.0497	561.14
59.0641	547.96
59.0786	524.80
59.0930	531.28
59.1075	549.12
59.1219	548.60
59.1363	542.57
59.1508	555.59
59.1652	570.30
59.1797	515.24
59.1941	506.17
59.2085	558.80
59.2230	573.59
59.2374	565.16
59.2519	527.89
59.2663	511.70
59.2807	568.24
59.2952	534.15
59.3096	556.62
59.3241	586.98
59.3385	591.85
59.3529	569.78
59.3674	550.93
59.3818	537.87
59.3963	539.93
59.4107	550.54
59.4251	572.78
59.4396	538.17
59.4540	553.08
59.4685	582.67
59.4829	585.01
59.4973	551.20
59.5118	544.73
59.5262	564.60
59.5407	553.64
59.5551	516.83
59.5695	521.88
59.5840	533.05
59.5984	565.30
59.6129	613.99
59.6273	572.75
59.6417	569.97
59.6562	540.45
59.6706	557.98
59.6851	573.61
59.6995	541.12
59.7139	570.20
59.7284	530.87
59.7428	538.78
59.7573	522.71
59.7717	519.66
59.7861	544.82
59.8006	509.55
59.8150	527.90
59.8295	516.75
59.8439	540.57
59.8583	558.14
59.8728	572.08
59.8872	568.69
59.9017	557.08
59.9161	561.30
59.9305	514.91
59.9450	530.94
59.9594	514.45
59.9739	531.93
59.9883	532.15
60.0027	548.93
60.0172	569.55
60.0316	553.88
60.0461	546.60
60.0605	530.46
60.0750	557.12
60.0894	562.28
60.1038	534.05
60.1183	558.02
60.1327	517.90
60.1472	537.14
60.1616	550.85
60.1760	561.39
60.1905	538.86
60.2049	560.06
60.2194	523.34
60.2338	538.36
60.2482	560.04
60.2627	537.32
60.2771	558.78
60.2916	537.00
60.3060	539.26
60.3204	534.75
60.3349	514.48
60.3493	557.00
60.3638	556.16
60.3782	557.44
60.3926	566.24
60.4071	501.58
60.4215	521.38
60.4360	532.49
60.4504	527.16
60.4648	556.16
60.4793	519.81
60.4937	464.71
60.5082	537.87
60.5226	540.54
60.5370	509.59
60.5515	552.50
60.5659	545.76
60.5804	558.02
60.5948	561.71
60.6092	553.23
60.6237	534.61
60.6381	544.92
60.6526	549.19
60.6670	553.03
60.6814	543.60
60.6959	520.87
60.7103	581.16
60.7248	530.09
60.7392	541.83
60.7536	518.54
60.7681	554.47
60.7825	559.11
60.7970	539.59
60.8114	557.42
60.8258	569.67
60.8403	534.00
60.8547	558.09
60.8692	503.95
60.8836	515.56
60.8980	519.40
60.9125	532.73
60.9269	573.47
60.9414	562.95
60.9558	561.97
60.9702	543.83
60.9847	588.17
60.9991	572.81
61.0136	542.62
61.0280	534.41
61.0424	549.26
61.0569	559.53
61.0713	543.43
61.0858	542.29
61.1002	542.32
61.1146	605.02
61.1291	554.87
61.1435	528.15
61.1580	552.72
61.1724	554.63
61.1868	527.26
61.2013	536.02
61.2157	538.20
61.2302	525.24
61.2446	563.01
61.2590	534.27
61.2735	561.77
61.2879	546.98
61.3024	527.45
61.3168	490.44
61.3312	550.29
61.3457	565.54
61.3601	559.64
61.3746	579.34
61.3890	543.33
61.4034	547.23
61.4179	530.94
61.4323	563.23
61.4468	559.28
61.4612	526.41
61.4756	554.49
61.4901	516.01
61.5045	509.06
61.5190	530.99
61.5334	541.28
61.5478	500.19
61.5623	512.58
61.5767	538.64
61.5912	547.34
61.6056	570.39
61.6200	561.22
61.6345	569.20
61.6489	560.06
61.6634	548.10
61.6778	545.23
61.6922	524.88
61.7067	536.50
61.7211	533.84
61.7356	537.81
61.7500	551.41
61.7644	557.04
61.7789	582.78
61.7933	546.44
61.8078	530.53
61.8222	574.18
61.8366	562.75
61.8511	529.04
61.8655	554.29
61.8800	546.94
61.8944	503.04
61.9088	562.16
61.9233	552.09
61.9377	552.83
61.9522	547.71
61.9666	565.90
61.9810	549.95
61.9955	548.54
62.0099	527.93
62.0244	541.14
62.0388	568.62
62.0532	580.25
62.0677	574.86
62.0821	548.56
62.0966	552.32
62.1110	562.62
62.1254	565.56
62.1399	538.61
62.1543	554.71
62.1688	569.02
62.1832	569.11
62.1976	556.52
62.2121	546.99
62.2265	536.11
62.2410	564.07
62.2554	552.81
62.2698	532.97
62.2843	586.31
62.2987	572.36
62.3132	573.69
62.3276	563.46
62.3420	565.03
62.3565	546.03
62.3709	567.70
62.3854	537.32
62.3998	527.91
62.4142	529.04
62.4287	573.79
62.4431	563.18
62.4576	568.14
62.4720	540.07
62.4864	550.74
62.5009	539.71
62.5153	543.17
62.5298	545.44
62.5442	564.98
62.5586	543.22
62.5731	546.35
62.5875	547.24
62.6020	583.89
62.6164	523.05
62.6308	544.73
62.6453	572.96
62.6597	568.99
62.6742	579.55
62.6886	557.02
62.7030	569.16
62.7175	538.85
62.7319	542.34
62.7464	535.55
62.7608	527.94
62.7752	544.29
62.7897	548.43
62.8041	583.36
62.8186	577.33
62.8330	566.32
62.8474	527.28
62.8619	538.42
62.8763	556.55
62.8908	579.50
62.9052	556.34
62.9196	526.08
62.9341	570.88
62.9485	556.18
62.9630	547.94
62.9774	548.32
62.9918	569.41
63.0063	559.04
63.0207	557.87
63.0352	554.55
63.0496	508.16
63.0640	561.01
63.0785	586.80
63.0929	607.69
63.1074	559.73
63.1218	573.78
63.1362	593.82
63.1507	555.41
63.1651	593.91
63.1796	551.73
63.1940	566.15
63.2084	539.01
63.2229	601.24
63.2373	613.85
63.2518	603.25
63.2662	570.82
63.2806	580.25
63.2951	579.87
63.3095	585.10
63.3240	629.83
63.3384	576.34
63.3528	582.46
63.3673	598.92
63.3817	554.76
63.3962	588.42
63.4106	607.69
63.4250	617.41
63.4395	589.35
63.4539	562.75
63.4684	625.22
63.4828	636.51
63.4972	614.95
63.5117	624.11
63.5261	607.95
63.5406	604.60
63.5550	657.88
63.5694	632.07
63.5839	655.15
63.5983	652.24
63.6128	582.76
63.6272	625.57
63.6416	626.06
63.6561	627.01
63.6705	645.83
63.6850	674.25
63.6994	707.98
63.7138	684.93
63.7283	664.78
63.7427	703.55
63.7572	745.89
63.7716	806.45
63.7861	830.98
63.8005	845.09
63.8149	940.61
63.8294	868.14
63.8438	841.25
63.8583	841.27
63.8727	829.91
63.8871	799.66
63.9016	812.35
63.9160	802.83
63.9305	775.35
63.9449	794.27
63.9593	766.14
63.9738	758.60
63.9882	808.62
64.0027	777.90
64.0171	769.97
64.0315	749.96
64.0460	735.66
64.0604	744.84
64.0749	739.66
64.0893	731.51
64.1037	664.43
64.1182	680.04
64.1326	666.10
64.1471	641.84
64.1615	683.46
64.1759	675.59
64.1904	666.31
64.2048	625.51
64.2193	626.22
64.2337	654.65
64.2481	640.57
64.2626	633.85
64.2770	616.84
64.2915	623.68
64.3059	594.97
64.3203	632.14
64.3348	631.76
64.3492	593.69
64.3637	627.55
64.3781	618.72
64.3925	609.70
64.4070	639.86
64.4214	639.48
64.4359	617.96
64.4503	602.65
64.4647	656.73
64.4792	637.68
64.4936	642.98
64.5081	627.61
64.5225	668.29
64.5369	643.67
64.5514	666.89
64.5658	603.78
64.5803	649.17
64.5947	674.30
64.6091	663.89
64.6236	635.64
64.6380	689.25
64.6525	682.85
64.6669	683.49
64.6813	659.86
64.6958	656.85
64.7102	713.82
64.7247	687.66
64.7391	661.44
64.7535	685.32
64.7680	736.64
64.7824	752.93
64.7969	691.92
64.8113	756.73
64.8257	801.65
64.8402	803.14
64.8546	816.44
64.8691	818.42
64.8835	829.63
64.8979	827.64
64.9124	857.48
64.9268	885.97
64.9413	946.24
64.9557	931.38
64.9701	1017.29
64.9846	1061.73
64.9990	1169.09
65.0135	1277.03
65.0279	1473.37
65.0423	1708.01
65.0568	2107.91
65.0712	2648.99
65.0857	3523.13
65.1001	4693.40
65.1145	6194.93
65.1290	8034.71
65.1434	9656.55
65.1579	11250.32
65.1723	11968.82
65.1867	11340.18
65.2012	9971.91
65.2156	8497.29
65.2301	6569.73
65.2445	5223.86
65.2589	4503.57
65.2734	4322.03
65.2878	4548.33
65.3023	5127.22
65.3167	5869.73
65.3311	6659.26
65.3456	7115.17
65.3600	7004.25
65.3745	6437.22
65.3889	5466.20
65.4033	4407.59
65.4178	3483.52
65.4322	2715.67
65.4467	2060.33
65.4611	1733.76
65.4755	1439.58
65.4900	1308.09
65.5044	1121.79
65.5189	1065.73
65.5333	945.57
65.5477	892.16
65.5622	880.74
65.5766	894.12
65.5911	854.12
65.6055	808.63
65.6199	775.99
65.6344	762.75
65.6488	747.19
65.6633	752.00
65.6777	760.50
65.6921	703.76
65.7066	705.74
65.7210	725.91
65.7355	698.61
65.7499	662.11
65.7643	643.40
65.7788	678.15
65.7932	649.88
65.8077	674.80
65.8221	676.06
65.8365	681.92
65.8510	636.65
65.8654	657.53
65.8799	666.47
65.8943	691.03
65.9087	661.05
65.9232	660.75
65.9376	635.63
65.9521	649.77
65.9665	603.50
65.9809	593.18
65.9954	653.63
66.0098	611.60
66.0243	651.76
66.0387	647.45
66.0531	593.20
66.0676	583.39
66.0820	624.16
66.0965	620.99
66.1109	599.42
66.1253	625.35
66.1398	621.10
66.1542	587.33
66.1687	602.72
66.1831	649.04
66.1975	666.09
66.2120	627.65
66.2264	608.33
66.2409	586.39
66.2553	610.58
66.2697	621.61
66.2842	611.69
66.2986	596.47
66.3131	593.02
66.3275	579.77
66.3419	590.73
66.3564	575.62
66.3708	584.62
66.3853	596.98
66.3997	617.16
66.4141	605.36
66.4286	653.37
66.4430	586.98
66.4575	602.27
66.4719	615.42
66.4863	592.06
66.5008	594.57
66.5152	575.89
66.5297	594.09
66.5441	593.47
66.5585	612.24
66.5730	606.56
66.5874	586.47
66.6019	564.92
66.6163	589.74
66.6307	586.05
66.6452	601.87
66.6596	595.45
66.6741	604.06
66.6885	580.76
66.7029	601.18
66.7174	612.22
66.7318	571.27
66.7463	602.81
66.7607	588.54
66.7751	577.82
66.7896	615.04
66.8040	615.05
66.8185	617.53
66.8329	619.14
66.8473	588.92
66.8618	604.86
66.8762	644.65
66.8907	586.52
66.9051	619.02
66.9195	621.22
66.9340	619.31
66.9484	621.19
66.9629	610.72
66.9773	601.43
66.9917	616.91
67.0062	598.67
67.0206	592.06
67.0351	563.86
67.0495	584.38
67.0639	584.89
67.0784	577.76
67.0928	587.42
67.1073	572.47
67.1217	619.64
67.1361	565.89
67.1506	593.76
67.1650	612.35
67.1795	601.70
67.1939	608.68
67.2083	602.23
67.2228	583.94
67.2372	609.66
67.2517	577.68
67.2661	577.46
67.2805	594.25
67.2950	569.81
67.3094	602.30
67.3239	594.38
67.3383	592.85
67.3527	552.60
67.3672	561.46
67.3816	588.71
67.3961	581.69
67.4105	566.83
67.4250	585.51
67.4394	542.98
67.4538	563.46
67.4683	560.74
67.4827	578.26
67.4972	583.84
67.5116	571.79
67.5260	574.06
67.5405	582.40
67.5549	589.56
67.5694	566.08
67.5838	573.39
67.5982	580.48
67.6127	568.15
67.6271	587.06
67.6416	606.21
67.6560	581.22
67.6704	588.41
67.6849	598.92
67.6993	568.65
67.7138	580.97
67.7282	566.70
67.7426	593.22
67.7571	571.92
67.7715	546.86
67.7860	566.86
67.8004	599.56
67.8148	580.98
67.8293	589.20
67.8437	571.80
67.8582	577.34
67.8726	572.11
67.8870	574.15
67.9015	598.06
67.9159	564.21
67.9304	532.23
67.9448	531.03
67.9592	570.19
67.9737	612.68
67.9881	568.48
68.0026	583.86
68.0170	576.14
68.0314	570.16
68.0459	559.79
68.0603	560.70
68.0748	581.48
68.0892	616.09
68.1036	605.89
68.1181	569.90
68.1325	593.39
68.1470	552.65
68.1614	579.55
68.1758	610.09
68.1903	582.52
68.2047	565.89
68.2192	581.68
68.2336	609.38
68.2480	579.69
68.2625	574.59
68.2769	550.16
68.2914	582.93
68.3058	586.46
68.3202	586.84
68.3347	586.99
68.3491	616.09
68.3636	621.45
68.3780	593.99
68.3924	545.08
68.4069	594.35
68.4213	596.74
68.4358	558.56
68.4502	548.39
68.4646	510.94
68.4791	567.25
68.4935	574.79
68.5080	559.50
68.5224	549.57
68.5368	595.90
68.5513	609.67
68.5657	568.48
68.5802	559.25
68.5946	580.01
68.6090	560.19
68.6235	550.39
68.6379	605.00
68.6524	539.05
68.6668	562.84
68.6812	583.67
68.6957	556.22
68.7101	577.17
68.7246	602.68
68.7390	560.46
68.7534	583.75
68.7679	580.79
68.7823	582.40
68.7968	567.17
68.8112	575.60
68.8256	563.98
68.8401	571.56
68.8545	562.14
68.8690	598.64
68.8834	600.54
68.8978	620.11
68.9123	592.20
68.9267	628.20
68.9412	577.52
68.9556	544.98
68.9700	587.94
68.9845	556.90
68.9989	567.87
69.0134	632.31
69.0278	605.80
69.0422	624.78
69.0567	599.45
69.0711	572.89
69.0856	575.14
69.1000	596.14
69.1144	593.08
69.1289	550.02
69.1433	573.39
69.1578	580.87
69.1722	593.77
69.1866	545.84
69.2011	555.78
69.2155	584.37
69.2300	578.25
69.2444	586.19
69.2588	540.39
69.2733	591.48
69.2877	579.04
69.3022	569.80
69.3166	602.02
69.3310	643.54
69.3455	581.69
69.3599	542.75
69.3744	567.26
69.3888	580.21
69.4032	552.31
69.4177	609.56
69.4321	619.55
69.4466	531.56
69.4610	582.28
69.4754	598.80
69.4899	600.59
69.5043	587.02
69.5188	603.34
69.5332	626.77
69.5476	620.41
69.5621	558.17
69.5765	560.81
69.5910	602.45
69.6054	574.66
69.6198	576.75
69.6343	599.36
69.6487	583.23
69.6632	516.12
69.6776	570.82
69.6920	618.46
69.7065	597.74
69.7209	608.68
69.7354	562.49
69.7498	602.39
69.7642	537.70
69.7787	610.68
69.7931	633.54
69.8076	636.24
69.8220	555.79
69.8364	608.92
69.8509	575.86
69.8653	550.20
69.8798	547.04
69.8942	564.46
69.9086	609.86
69.9231	578.47
69.9375	605.88
69.9520	588.25
69.9664	578.45
69.9808	573.62
69.9953	608.47
70.0097	592.42
70.0242	595.68
70.0386	556.56
70.0530	579.28
70.0675	570.81
70.0819	571.35
70.0964	573.74
70.1108	528.51
70.1252	585.12
70.1397	588.35
70.1541	565.49
70.1686	591.91
70.1830	575.85
70.1974	586.88
70.2119	564.81
70.2263	579.37
70.2408	573.00
70.2552	565.46
70.2696	565.46
70.2841	559.23
70.2985	548.92
70.3130	589.30
70.3274	594.57
70.3418	608.60
70.3563	583.27
70.3707	616.45
70.3852	570.32
70.3996	620.48
70.4140	618.71
70.4285	614.59
70.4429	606.20
70.4574	565.39
70.4718	615.87
70.4862	627.57
70.5007	652.00
70.5151	549.13
70.5296	560.63
70.5440	580.04
70.5584	569.85
70.5729	566.45
70.5873	606.38
70.6018	556.03
70.6162	570.87
70.6306	579.00
70.6451	573.68
70.6595	597.11
70.6740	640.80
70.6884	578.89
70.7028	620.73
70.7173	582.22
70.7317	554.44
70.7462	543.40
70.7606	562.69
70.7750	595.32
70.7895	578.36
70.8039	593.08
70.8184	583.68
70.8328	600.50
70.8472	565.71
70.8617	626.16
70.8761	617.91
70.8906	555.11
70.9050	589.75
70.9194	588.21
70.9339	541.67
70.9483	534.69
70.9628	539.51
70.9772	567.75
70.9916	580.50
71.0061	593.42
71.0205	605.42
71.0350	558.89
71.0494	580.02
71.0638	591.18
71.0783	585.72
71.0927	609.15
71.1072	604.22
71.1216	558.14
71.1361	550.76
71.1505	567.86
71.1649	558.16
71.1794	584.14
71.1938	613.84
71.2083	553.28
71.2227	574.30
71.2371	609.13
71.2516	559.31
71.2660	567.82
71.2805	568.55
71.2949	570.13
71.3093	575.73
71.3238	618.72
71.3382	614.18
71.3527	532.87
71.3671	589.85
71.3815	567.82
71.3960	573.71
71.4104	546.63
71.4249	549.90
71.4393	600.04
71.4537	576.48
71.4682	599.90
71.4826	611.80
71.4971	564.23
71.5115	571.36
71.5259	540.42
71.5404	518.46
71.5548	575.13
71.5693	564.89
71.5837	604.32
71.5981	589.72
71.6126	535.25
71.6270	561.15
71.6415	566.20
71.6559	559.11
71.6703	591.84
71.6848	561.03
71.6992	571.95
71.7137	567.21
71.7281	566.57
71.7425	559.27
71.7570	568.07
71.7714	608.54
71.7859	588.21
71.8003	577.80
71.8147	553.88
71.8292	550.91
71.8436	588.01
71.8581	553.80
71.8725	516.61
71.8869	532.75
71.9014	595.46
71.9158	616.59
71.9303	588.33
71.9447	573.20
71.9591	567.91
71.9736	574.11
71.9880	517.53
72.0025	541.45
72.0169	566.92
72.0313	522.50
72.0458	585.46
72.0602	600.20
72.0747	539.55
72.0891	554.72
72.1035	568.88
72.1180	569.24
72.1324	508.50
72.1469	477.98
72.1613	474.76
72.1757	592.65
72.1902	612.73
72.2046	569.90
72.2191	590.90
72.2335	511.87
72.2479	483.52
72.2624	586.23
72.2768	650.18
72.2913	547.93
72.3057	555.60
72.3201	645.19
72.3346	582.11
72.3490	462.42
72.3635	570.62
72.3779	593.48
72.3923	569.19
72.4068	638.63
72.4212	648.54
72.4357	619.54
72.4501	634.65
72.4645	644.20
72.4790	597.50
72.4934	619.59
72.5079	622.81
72.5223	594.51
72.5367	528.62
72.5512	607.65
72.5656	584.57
72.5801	515.43
72.5945	538.43
72.6089	510.04
72.6234	492.95
72.6378	581.19
72.6523	596.67
72.6667	611.37
72.6811	619.15
72.6956	601.30
72.7100	648.07
72.7245	563.23
72.7389	538.43
72.7533	547.41
72.7678	519.54
72.7822	498.19
72.7967	542.26
72.8111	624.06
72.8255	648.15
72.8400	606.19
72.8544	637.76
72.8689	638.69
72.8833	585.54

Result vector
22.1120	597.58
22.1264	590.77
22.1409	471.81
22.1553	559.73
22.1697	593.08
22.1842	629.91
22.1986	638.35
22.2131	632.22
22.2275	630.69
22.2419	645.23
22.2564	586.24
22.2708	620.31
22.2853	578.91
22.2997	570.14
22.3141	620.76
22.3286	637.89
22.3430	556.30
22.3575	545.94
22.3719	565.98
22.3863	644.06
22.4008	562.41
22.4152	550.22
22.4297	651.00
22.4441	630.69
22.4585	591.21
22.4730	554.37
22.4874	584.70
22.5019	566.65
22.5163	604.10
22.5307	658.43
22.5452	580.50
22.5596	575.76
22.5741	594.41
22.5885	593.04
22.6029	683.13
22.6174	589.65
22.6318	531.17
22.6463	591.94
22.6607	655.61
22.6751	633.09
22.6896	582.82
22.7040	597.19
22.7185	536.54
22.7329	584.62
22.7473	621.28
22.7618	517.93
22.7762	560.95
22.7907	564.50
22.8051	523.84
22.8195	576.23
22.8340	532.01
22.8484	547.87
22.8629	591.12
22.8773	616.52
22.8917	532.07
22.9062	606.72
22.9206	534.87
22.9351	496.05
22.9495	518.66
22.9639	589.98
22.9784	504.17
22.9928	566.89
23.0073	529.91
23.0217	602.45
23.0361	586.97
23.0506	539.63
23.0650	516.88
23.0795	585.82
23.0939	620.58
23.1083	473.56
23.1228	526.18
23.1372	579.88
23.1517	560.34
23.1661	555.39
23.1806	522.23
23.1950	541.72
23.2094	549.06
23.2239	551.10
23.2383	549.56
23.2528	629.12
23.2672	571.24
23.2816	531.86
23.2961	513.58
23.3105	571.84
23.3250	548.35
23.3394	580.14
23.3538	538.55
23.3683	551.84
23.3827	505.70
23.3972	517.24
23.4116	541.86
23.4260	573.55
23.4405	542.47
23.4549	577.34
23.4694	573.00
23.4838	559.30
23.4982	543.19
23.5127	542.15
23.5271	595.65
23.5416	566.16
23.5560	627.47
23.5704	603.36
23.5849	495.62
23.5993	670.44
23.6138	585.08
23.6282	545.33
23.6426	561.00
23.6571	612.41
23.6715	563.43
23.6860	539.75
23.7004	572.68
23.7148	680.08
23.7293	552.19
23.7437	551.92
23.7582	617.41
23.7726	584.74
23.7870	588.56
23.8015	500.30
23.8159	644.84
23.8304	554.71
23.8448	559.94
23.8592	533.76
23.8737	509.02
23.8881	530.78
23.9026	529.65
23.9170	584.40
23.9314	567.55
23.9459	613.32
23.9603	533.94
23.9748	588.47
23.9892	580.28
24.0036	593.74
24.0181	500.00
24.0325	599.24
24.0470	630.64
24.0614	609.09
24.0758	564.16
24.0903	508.86
24.1047	564.08
24.1192	541.87
24.1336	548.02
24.1480	497.07
24.1625	642.23
24.1769	596.02
24.1914	552.26
24.2058	518.30
24.2202	526.31
24.2347	547.06
24.2491	606.64
24.2636	587.66
24.2780	582.77
24.2924	528.55
24.3069	616.07
24.3213	598.31
24.3358	630.82
24.3502	561.66
24.3646	559.79
24.3791	531.94
24.3935	549.29
24.4080	534.18
24.4224	537.72
24.4368	489.61
24.4513	563.08
24.4657	550.65
24.4802	524.21
24.4946	560.66
24.5090	559.33
24.5235	567.42
24.5379	585.45
24.5524	539.02
24.5668	533.60
24.5812	640.93
24.5957	630.76
24.6101	622.64
24.6246	590.78
24.6390	546.40
24.6534	486.35
24.6679	549.87
24.6823	537.38
24.6968	549.75
24.7112	539.40
24.7256	510.20
24.7401	522.21
24.7545	524.38
24.7690	561.83
24.7834	505.67
24.7978	532.44
24.8123	582.95
24.8267	567.13
24.8412	542.25
24.8556	595.84
24.8700	568.52
24.8845	583.44
24.8989	577.32
24.9134	600.12
24.9278	608.83
24.9422	542.96
24.9567	534.57
24.9711	584.24
24.9856	554.82
25.0000	551.49
25.0144	564.59
25.0289	558.17
25.0433	561.69
25.0578	650.79
25.0722	585.69
25.0866	583.13
25.1011	550.96
25.1155	558.48
25.1300	515.56
25.1444	495.63
25.1588	520.75
25.1733	521.76
25.1877	544.10
25.2022	526.39
25.2166	530.06
25.2310	562.10
25.2455	559.27
25.2599	530.29
25.2744	600.88
25.2888	591.92
25.3032	552.41
25.3177	552.61
25.3321	551.39
25.3466	530.38
25.3610	567.92
25.3754	553.36
25.3899	546.94
25.4043	534.63
25.4188	562.89
25.4332	565.38
25.4476	539.14
25.4621	547.97
25.4765	560.79
25.4910	551.64
25.5054	581.01
25.5198	580.35
25.5343	588.70
25.5487	579.01
25.5632	558.72
25.5776	526.97
25.5920	509.10
25.6065	497.11
25.6209	544.67
25.6354	576.82
25.6498	570.73
25.6642	572.86
25.6787	585.95
25.6931	532.57
25.7076	515.92
25.7220	560.69
25.7364	520.54
25.7509	545.23
25.7653	513.01
25.7798	552.13
25.7942	573.47
25.8086	568.85
25.8231	571.12
25.8375	528.00
25.8520	558.49
25.8664	583.94
25.8808	575.35
25.8953	532.02
25.9097	519.84
25.9242	517.01
25.9386	517.27
25.9530	528.89
25.9675	535.18
25.9819	536.24
25.9964	533.60
26.0108	491.81
26.0252	533.93
26.0397	572.13
26.0541	576.43
26.0686	551.06
26.0830	530.09
26.0974	517.32
26.1119	544.32
26.1263	549.84
26.1408	494.66
26.1552	531.14
26.1696	502.77
26.1841	521.99
26.1985	519.99
26.2130	551.06
26.2274	535.98
26.2418	547.24
26.2563	514.42
26.2707	501.45
26.2852	515.50
26.2996	529.91
26.3140	533.71
26.3285	528.06
26.3429	510.26
26.3574	535.26
26.3718	504.10
26.3862	511.95
26.4007	518.80
26.4151	573.00
26.4296	568.95
26.4440	514.08
26.4584	545.55
26.4729	569.51
26.4873	545.59
26.5018	526.55
26.5162	514.60
26.5306	537.32
26.5451	544.41
26.5595	560.59
26.5740	564.23
26.5884	556.43
26.6028	571.46
26.6173	552.23
26.6317	531.73
26.6462	554.51
26.6606	565.43
26.6750	497.31
26.6895	491.50
26.7039	527.92
26.7184	545.09
26.7328	506.39
26.7472	508.05
26.7617	512.54
26.7761	492.93
26.7906	508.21
26.8050	522.71
26.8194	542.65
26.8339	574.30
26.8483	540.34
26.8628	521.95
26.8772	526.32
26.8917	546.59
26.9061	547.84
26.9205	537.68
26.9350	533.33
26.9494	513.79
26.9639	536.11
26.9783	535.38
26.9927	556.66
27.0072	521.63
27.0216	519.53
27.0361	519.38
27.0505	529.98
27.0649	552.76
27.0794	543.56
27.0938	560.20
27.1083	521.81
27.1227	497.50
27.1371	506.66
27.1516	508.35
27.1660	534.00
27.1805	527.95
27.1949	502.52
27.2093	489.47
27.2238	507.51
27.2382	542.65
27.2527	510.54
27.2671	516.28
27.2815	528.87
27.2960	534.46
27.3104	535.78
27.3249	512.21
27.3393	501.18
27.3537	525.24
27.3682	533.90
27.3826	483.80
27.3971	481.72
27.4115	532.24
27.4259	546.61
27.4404	508.71
27.4548	521.31
27.4693	546.72
27.4837	533.79
27.4981	505.35
27.5126	519.87
27.5270	511.58
27.5415	528.44
27.5559	531.43
27.5703	514.73
27.5848	532.63
27.5992	538.20
27.6137	504.33
27.6281	512.96
27.6425	533.85
27.6570	511.42
27.6714	493.84
27.6859	490.42
27.7003	496.00
27.7147	525.90
27.7292	519.29
27.7436	529.63
27.7581	541.44
27.7725	516.14
27.7869	489.46
27.8014	509.82
27.8158	524.05
27.8303	565.51
27.8447	520.67
27.8591	520.23
27.8736	494.25
27.8880	546.45
27.9025	562.38
27.9169	477.62
27.9313	533.82
27.9458	522.57
27.9602	538.32
27.9747	539.63
27.9891	563.46
28.0035	546.59
28.0180	511.15
28.0324	537.44
28.0469	497.68
28.0613	533.88
28.0757	548.44
28.0902	488.54
28.1046	496.22
28.1191	516.73
28.1335	483.37
28.1479	499.39
28.1624	531.19
28.1768	547.77
28.1913	529.94
28.2057	513.96
28.2201	526.72
28.2346	505.51
28.2490	531.75
28.2635	520.49
28.2779	522.28
28.2923	516.39
28.3068	558.19
28.3212	507.16
28.3357	526.78
28.3501	502.86
28.3645	522.12
28.3790	502.65
28.3934	480.86
28.4079	493.97
28.4223	523.64
28.4367	514.06
28.4512	525.52
28.4656	503.89
28.4801	540.65
28.4945	534.52
28.5089	544.46
28.5234	526.84
28.5378	518.73
28.5523	516.63
28.5667	501.57
28.5811	502.42
28.5956	505.92
28.6100	541.64
28.6245	487.77
28.6389	547.54
28.6533	574.55
28.6678	504.71
28.6822	486.00
28.6967	498.83
28.7111	513.82
28.7255	511.17
28.7400	514.77
28.7544	493.56
28.7689	510.41
28.7833	516.49
28.7977	537.37
28.8122	547.09
28.8266	556.61
28.8411	541.97
28.8555	487.37
28.8699	498.31
28.8844	479.55
28.8988	522.99
28.9133	535.46
28.9277	521.20
28.9421	512.07
28.9566	499.55
28.9710	524.04
28.9855	503.79
28.9999	526.96
29.0143	551.05
29.0288	477.01
29.0432	515.64
29.0577	508.14
29.0721	495.10
29.0865	534.02
29.1010	535.53
29.1154	485.74
29.1299	528.13
29.1443	503.43
29.1587	487.85
29.1732	518.23
29.1876	487.33
29.2021	515.36
29.2165	493.19
29.2309	513.78
29.2454	498.81
29.2598	490.83
29.2743	472.54
29.2887	514.70
29.3031	511.63
29.3176	525.40
29.3320	538.96
29.3465	533.79
29.3609	512.23
29.3753	478.38
29.3898	484.12
29.4042	513.97
29.4187	538.04
29.4331	521.48
29.4475	507.72
29.4620	493.74
29.4764	532.16
29.4909	514.73
29.5053	485.62
29.5197	501.82
29.5342	513.37
29.5486	499.05
29.5631	485.11
29.5775	528.78
29.5919	518.91
29.6064	505.10
29.6208	502.94
29.6353	495.58
29.6497	517.52
29.6641	500.72
29.6786	482.77
29.6930	489.32
29.7075	497.14
29.7219	477.79
29.7363	497.62
29.7508	520.13
29.7652	486.97
29.7797	523.62
29.7941	540.60
29.8085	493.91
29.8230	510.00
29.8374	532.28
29.8519	480.29
29.8663	489.02
29.8807	539.18
29.8952	489.49
29.9096	511.28
29.9241	515.35
29.9385	568.87
29.9529	506.49
29.9674	514.67
29.9818	506.63
29.9963	481.65
30.0107	519.87
30.0251	519.13
30.0396	480.85
30.0540	495.29
30.0685	498.49
30.0829	489.91
30.0973	529.04
30.1118	485.86
30.1262	550.18
30.1407	529.73
30.1551	515.58
30.1695	493.14
30.1840	483.20
30.1984	490.65
30.2129	524.16
30.2273	511.86
30.2417	583.03
30.2562	546.78
30.2706	511.80
30.2851	500.43
30.2995	536.56
30.3139	506.44
30.3284	480.42
30.3428	505.96
30.3573	548.07
30.3717	486.60
30.3861	496.24
30.4006	493.54
30.4150	499.23
30.4295	560.04
30.4439	560.34
30.4583	527.18
30.4728	521.67
30.4872	524.72
30.5017	529.08
30.5161	506.50
30.5305	547.78
30.5450	572.57
30.5594	575.25
30.5739	578.49
30.5883	602.03
30.6028	629.34
30.6172	642.07
30.6316	656.92
30.6461	695.52
30.6605	716.80
30.6750	705.04
30.6894	689.77
30.7038	721.81
30.7183	731.91
30.7327	692.53
30.7472	687.16
30.7616	650.37
30.7760	665.30
30.7905	623.65
30.8049	584.38
30.8194	597.06
30.8338	574.85
30.8482	568.89
30.8627	547.78
30.8771	519.22
30.8916	513.11
30.9060	581.87
30.9204	544.18
30.9349	546.55
30.9493	546.86
30.9638	495.78
30.9782	525.80
30.9926	548.33
31.0071	513.64
31.0215	490.70
31.0360	519.13
31.0504	515.71
31.0648	506.96
31.0793	502.95
31.0937	504.21
31.1082	502.16
31.1226	522.07
31.1370	536.94
31.1515	503.08
31.1659	501.75
31.1804	543.55
31.1948	543.38
31.2092	547.47
31.2237	541.43
31.2381	536.80
31.2526	538.15
31.2670	508.73
31.2814	537.94
31.2959	541.44
31.3103	535.61
31.3248	526.87
31.3392	536.30
31.3536	525.35
31.3681	514.52
31.3825	548.26
31.3970	531.22
31.4114	536.53
31.4258	537.32
31.4403	553.29
31.4547	521.28
31.4692	498.47
31.4836	518.96
31.4980	527.92
31.5125	501.16
31.5269	529.68
31.5414	519.28
31.5558	530.61
31.5702	503.21
31.5847	510.85
31.5991	509.64
31.6136	474.38
31.6280	497.60
31.6424	519.08
31.6569	523.10
31.6713	502.60
31.6858	520.70
31.7002	515.57
31.7146	515.39
31.7291	479.14
31.7435	490.87
31.7580	494.82
31.7724	497.68
31.7868	513.04
31.8013	523.61
31.8157	515.15
31.8302	529.10
31.8446	523.89
31.8590	502.89
31.8735	529.32
31.8879	544.52
31.9024	515.77
31.9168	492.53
31.9312	516.53
31.9457	488.76
31.9601	504.45
31.9746	514.44
31.9890	542.38
32.0034	499.59
32.0179	516.07
32.0323	515.09
32.0468	469.09
32.0612	470.35
32.0756	487.96
32.0901	530.53
32.1045	517.31
32.1190	530.68
32.1334	534.66
32.1478	483.93
32.1623	528.03
32.1767	542.31
32.1912	478.94
32.2056	486.15
32.2200	481.05
32.2345	490.94
32.2489	500.31
32.2634	526.80
32.2778	526.55
32.2922	514.28
32.3067	489.60
32.3211	510.05
32.3356	543.02
32.3500	504.92
32.3644	517.16
32.3789	508.03
32.3933	495.46
32.4078	489.28
32.4222	516.20
32.4366	504.16
32.4511	492.32
32.4655	508.92
32.4800	497.01
32.4944	494.11
32.5088	541.72
32.5233	543.21
32.5377	543.37
32.5522	522.30
32.5666	494.30
32.5810	515.80
32.5955	525.10
32.6099	477.39
32.6244	499.47
32.6388	507.76
32.6532	481.69
32.6677	507.61
32.6821	482.23
32.6966	475.17
32.7110	512.40
32.7254	515.89
32.7399	523.13
32.7543	507.45
32.7688	501.06
32.7832	505.89
32.7976	499.81
32.8121	538.28
32.8265	504.16
32.8410	494.99
32.8554	493.64
32.8698	488.70
32.8843	497.39
32.8987	539.15
32.9132	523.12
32.9276	480.87
32.9420	505.60
32.9565	545.92
32.9709	484.99
32.9854	479.11
32.9998	503.63
33.0142	488.92
33.0287	498.76
33.0431	545.20
33.0576	516.70
33.0720	513.74
33.0864	469.26
33.1009	474.63
33.1153	524.18
33.1298	533.56
33.1442	465.26
33.1586	468.60
33.1731	519.42
33.1875	506.48
33.2020	515.77
33.2164	502.80
33.2308	524.49
33.2453	530.23
33.2597	500.26
33.2742	519.99
33.2886	521.80
33.3030	506.49
33.3175	475.56
33.3319	513.52
33.3464	509.21
33.3608	515.30
33.3752	503.65
33.3897	529.05
33.4041	524.30
33.4186	533.42
33.4330	519.78
33.4474	514.94
33.4619	500.63
33.4763	491.12
33.4908	489.99
33.5052	523.36
33.5196	511.85
33.5341	500.03
33.5485	505.41
33.5630	505.57
33.5774	515.77
33.5918	485.74
33.6063	506.71
33.6207	498.80
33.6352	519.71
33.6496	504.46
33.6640	498.73
33.6785	503.60
33.6929	513.69
33.7074	512.26
33.7218	535.38
33.7362	505.99
33.7507	495.84
33.7651	516.57
33.7796	536.81
33.7940	506.29
33.8084	495.39
33.8229	486.99
33.8373	499.35
33.8518	490.90
33.8662	533.37
33.8806	537.72
33.8951	507.47
33.9095	509.60
33.9240	494.05
33.9384	503.81
33.9528	506.62
33.9673	486.31
33.9817	523.46
33.9962	510.66
34.0106	494.41
34.0250	505.19
34.0395	513.92
34.0539	499.27
34.0684	512.94
34.0828	538.32
34.0972	502.48
34.1117	492.78
34.1261	509.35
34.1406	504.74
34.1550	502.54
34.1694	490.47
34.1839	491.07
34.1983	500.24
34.2128	522.54
34.2272	479.95
34.2417	515.32
34.2561	493.22
34.2705	523.11
34.2850	503.65
34.2994	503.32
34.3139	483.13
34.3283	491.57
34.3427	518.10
34.3572	510.06
34.3716	514.88
34.3861	527.93
34.4005	499.43
34.4149	549.06
34.4294	521.06
34.4438	478.36
34.4583	493.10
34.4727	530.03
34.4871	498.01
34.5016	507.00
34.5160	510.77
34.5305	475.03
34.5449	494.58
34.5593	487.57
34.5738	480.89
34.5882	506.63
34.6027	520.40
34.6171	485.84
34.6315	493.97
34.6460	522.95
34.6604	510.26
34.6749	513.18
34.6893	512.25
34.7037	536.76
34.7182	540.10
34.7326	491.68
34.7471	503.77
34.7615	521.69
34.7759	523.25
34.7904	504.49
34.8048	485.22
34.8193	493.47
34.8337	527.03
34.8481	506.98
34.8626	514.37
34.8770	522.95
34.8915	503.99
34.9059	514.10
34.9203	521.21
34.9348	521.39
34.9492	533.84
34.9637	532.19
34.9781	502.96
34.9925	493.46
35.0070	476.26
35.0214	504.97
35.0359	475.24
35.0503	486.45
35.0647	519.54
35.0792	510.49
35.0936	486.69
35.1081	474.48
35.1225	497.99
35.1369	493.20
35.1514	495.18
35.1658	531.60
35.1803	556.19
35.1947	513.18
35.2091	478.76
35.2236	487.99
35.2380	498.52
35.2525	529.38
35.2669	518.76
35.2813	508.53
35.2958	500.27
35.3102	522.81
35.3247	488.96
35.3391	502.14
35.3535	515.37
35.3680	502.72
35.3824	491.85
35.3969	507.65
35.4113	523.82
35.4257	569.81
35.4402	529.84
35.4546	533.18
35.4691	527.02
35.4835	518.32
35.4979	511.98
35.5124	509.94
35.5268	512.54
35.5413	539.43
35.5557	485.41
35.5701	531.14
35.5846	557.26
35.5990	560.37
35.6135	548.57
35.6279	534.00
35.6423	558.57
35.6568	566.49
35.6712	549.70
35.6857	567.33
35.7001	644.95
35.7145	700.72
35.7290	649.11
35.7434	611.49
35.7579	551.54
35.7723	547.56
35.7867	612.77
35.8012	654.76
35.8156	637.52
35.8301	619.22
35.8445	598.92
35.8589	667.73
35.8734	726.92
35.8878	857.11
35.9023	1022.36
35.9167	1093.47
35.9311	1402.48
35.9456	2009.92
35.9600	2404.22
35.9745	1961.11
35.9889	1872.54
36.0033	2197.96
36.0178	2395.96
36.0322	2172.70
36.0467	1969.68
36.0611	1846.71
36.0755	1807.11
36.0900	1899.76
36.1044	1842.89
36.1189	1873.06
36.1333	1711.97
36.1477	1578.38
36.1622	1505.33
36.1766	1457.43
36.1911	1249.54
36.2055	1093.20
36.2199	1029.41
36.2344	986.21
36.2488	888.63
36.2633	821.26
36.2777	781.56
36.2921	724.94
36.3066	684.23
36.3210	638.37
36.3355	664.04
36.3499	622.23
36.3643	598.28
36.3788	597.03
36.3932	573.99
36.4077	577.29
36.4221	526.15
36.4365	541.36
36.4510	515.39
36.4654	558.85
36.4799	517.77
36.4943	574.05
36.5087	571.79
36.5232	548.03
36.5376	569.68
36.5521	546.70
36.5665	546.90
36.5809	536.93
36.5954	528.19
36.6098	498.88
36.6243	507.14
36.6387	508.30
36.6531	492.67
36.6676	513.65
36.6820	505.24
36.6965	500.09
36.7109	524.97
36.7253	531.46
36.7398	559.71
36.7542	554.70
36.7687	557.95
36.7831	538.02
36.7975	557.94
36.8120	536.34
36.8264	571.01
36.8409	570.79
36.8553	590.76
36.8697	601.52
36.8842	615.60
36.8986	593.48
36.9131	595.31
36.9275	564.16
36.9419	574.83
36.9564	552.02
36.9708	576.02
36.9853	575.07
36.9997	549.89
37.0141	571.78
37.0286	565.31
37.0430	493.14
37.0575	549.43
37.0719	488.72
37.0863	519.58
37.1008	499.13
37.1152	529.55
37.1297	489.34
37.1441	477.32
37.1585	511.75
37.1730	506.92
37.1874	511.69
37.2019	478.66
37.2163	498.76
37.2307	522.73
37.2452	512.32
37.2596	530.49
37.2741	482.21
37.2885	521.09
37.3029	514.13
37.3174	499.25
37.3318	507.02
37.3463	525.29
37.3607	540.77
37.3751	509.60
37.3896	502.68
37.4040	493.69
37.4185	518.71
37.4329	502.47
37.4473	504.10
37.4618	475.89
37.4762	481.34
37.4907	482.69
37.5051	475.25
37.5195	530.21
37.5340	535.63
37.5484	500.73
37.5629	487.98
37.5773	511.82
37.5917	496.27
37.6062	520.61
37.6206	506.33
37.6351	516.20
37.6495	523.38
37.6639	491.08
37.6784	492.91
37.6928	504.67
37.7073	524.30
37.7217	514.53
37.7361	498.32
37.7506	490.46
37.7650	487.24
37.7795	537.37
37.7939	525.34
37.8083	469.05
37.8228	527.53
37.8372	492.03
37.8517	490.08
37.8661	536.61
37.8805	532.35
37.8950	510.46
37.9094	529.71
37.9239	488.73
37.9383	504.50
37.9528	536.30
37.9672	529.50
37.9816	488.13
37.9961	506.10
38.0105	488.62
38.0250	528.35
38.0394	547.80
38.0538	511.21
38.0683	526.94
38.0827	500.04
38.0972	522.96
38.1116	487.38
38.1260	518.99
38.1405	505.27
38.1549	510.41
38.1694	507.58
38.1838	495.36
38.1982	488.76
38.2127	474.68
38.2271	475.56
38.2416	492.02
38.2560	502.61
38.2704	453.58
38.2849	522.18
38.2993	543.26
38.3138	526.10
38.3282	515.50
38.3426	514.71
38.3571	513.41
38.3715	512.30
38.3860	517.21
38.4004	532.42
38.4148	542.62
38.4293	572.59
38.4437	568.51
38.4582	601.04
38.4726	693.22
38.4870	735.32
38.5015	779.58
38.5159	817.23
38.5304	819.84
38.5448	800.42
38.5592	730.87
38.5737	733.76
38.5881	723.27
38.6026	742.47
38.6170	692.48
38.6314	681.91
38.6459	678.16
38.6603	643.50
38.6748	615.83
38.6892	605.38
38.7036	550.86
38.7181	554.48
38.7325	540.86
38.7470	509.73
38.7614	494.37
38.7758	530.99
38.7903	522.25
38.8047	524.04
38.8192	521.54
38.8336	484.87
38.8480	472.64
38.8625	483.11
38.8769	519.41
38.8914	498.40
38.9058	516.98
38.9202	529.00
38.9347	517.93
38.9491	492.20
38.9636	495.59
38.9780	476.16
38.9924	487.01
39.0069	480.91
39.0213	511.33
39.0358	529.57
39.0502	497.65
39.0646	506.59
39.0791	507.42
39.0935	517.16
39.1080	518.78
39.1224	484.21
39.1368	512.87
39.1513	541.49
39.1657	538.03
39.1802	501.48
39.1946	516.12
39.2090	487.98
39.2235	535.53
39.2379	540.43
39.2524	497.29
39.2668	485.65
39.2812	478.92
39.2957	487.13
39.3101	531.26
39.3246	541.70
39.3390	509.19
39.3534	506.45
39.3679	526.78
39.3823	529.19
39.3968	541.10
39.4112	514.56
39.4256	510.04
39.4401	492.87
39.4545	515.41
39.4690	506.56
39.4834	516.15
39.4978	514.13
39.5123	497.92
39.5267	514.74
39.5412	512.05
39.5556	520.44
39.5700	507.64
39.5845	514.29
39.5989	494.49
39.6134	520.61
39.6278	489.92
39.6422	499.41
39.6567	483.46
39.6711	489.35
39.6856	508.31
39.7000	515.78
39.7144	511.95
39.7289	518.85
39.7433	475.60
39.7578	494.90
39.7722	500.89
39.7866	522.94
39.8011	528.77
39.8155	473.04
39.8300	495.27
39.8444	474.60
39.8588	501.98
39.8733	505.82
39.8877	469.77
39.9022	506.13
39.9166	488.75
39.9310	476.25
39.9455	492.25
39.9599	502.74
39.9744	502.57
39.9888	492.80
40.0032	489.68
40.0177	456.50
40.0321	508.17
40.0466	498.90
40.0610	494.53
40.0754	505.19
40.0899	554.89
40.1043	495.33
40.1188	504.66
40.1332	505.44
40.1476	517.11
40.1621	508.62
40.1765	496.43
40.1910	502.04
40.2054	471.14
40.2198	499.38
40.2343	488.23
40.2487	490.48
40.2632	506.59
40.2776	499.64
40.2920	470.48
40.3065	490.82
40.3209	486.03
40.3354	523.82
40.3498	545.92
40.3642	489.08
40.3787	493.74
40.3931	452.71
40.4076	484.70
40.4220	475.57
40.4364	493.59
40.4509	488.03
40.4653	512.56
40.4798	500.74
40.4942	511.34
40.5086	505.44
40.5231	496.23
40.5375	523.74
40.5520	505.59
40.5664	480.96
40.5808	481.20
40.5953	491.45
40.6097	503.05
40.6242	511.51
40.6386	523.01
40.6530	510.93
40.6675	487.62
40.6819	495.25
40.6964	491.54
40.7108	505.45
40.7252	519.02
40.7397	503.17
40.7541	499.87
40.7686	477.05
40.7830	508.13
40.7974	501.61
40.8119	502.43
40.8263	489.63
40.8408	494.11
40.8552	515.14
40.8696	488.76
40.8841	475.91
40.8985	516.87
40.9130	519.39
40.9274	493.33
40.9418	518.96
40.9563	527.38
40.9707	464.46
40.9852	459.94
40.9996	490.87
41.0140	449.22
41.0285	491.74
41.0429	491.97
41.0574	504.78
41.0718	520.36
41.0862	495.86
41.1007	498.95
41.1151	523.42
41.1296	501.56
41.1440	511.40
41.1584	469.30
41.1729	483.92
41.1873	477.10
41.2018	477.65
41.2162	491.96
41.2306	513.24
41.2451	525.54
41.2595	515.94
41.2740	518.91
41.2884	498.64
41.3028	485.79
41.3173	525.07
41.3317	511.01
41.3462	521.77
41.3606	479.24
41.3750	479.99
41.3895	468.27
41.4039	495.53
41.4184	512.68
41.4328	512.66
41.4472	492.42
41.4617	483.71
41.4761	508.88
41.4906	516.37
41.5050	479.35
41.5194	492.70
41.5339	491.73
41.5483	507.08
41.5628	472.74
41.5772	508.62
41.5916	496.81
41.6061	544.25
41.6205	523.16
41.6350	517.67
41.6494	509.51
41.6639	530.31
41.6783	497.89
41.6927	509.07
41.7072	512.59
41.7216	480.88
41.7361	502.54
41.7505	496.39
41.7649	519.42
41.7794	507.05
41.7938	501.62
41.8083	536.18
41.8227	500.04
41.8371	490.10
41.8516	491.12
41.8660	530.52
41.8805	537.69
41.8949	525.79
41.9093	544.47
41.9238	523.58
41.9382	548.98
41.9527	582.88
41.9671	567.72
41.9815	598.99
41.9960	576.79
42.0104	588.22
42.0249	603.82
42.0393	596.70
42.0537	570.18
42.0682	596.81
42.0826	596.15
42.0971	597.75
42.1115	586.30
42.1259	613.35
42.1404	571.30
42.1548	582.88
42.1693	625.64
42.1837	667.65
42.1981	721.74
42.2126	826.65
42.2270	903.24
42.2415	1065.48
42.2559	1196.55
42.2703	1364.45
42.2848	1480.23
42.2992	1565.15
42.3137	1625.15
42.3281	1613.12
42.3425	1587.28
42.3570	1458.84
42.3714	1367.23
42.3859	1353.14
42.4003	1343.17
42.4147	1313.60
42.4292	1271.13
42.4436	1166.30
42.4581	1061.97
42.4725	975.94
42.4869	861.08
42.5014	780.44
42.5158	711.09
42.5303	649.21
42.5447	636.35
42.5591	641.05
42.5736	602.37
42.5880	584.11
42.6025	571.68
42.6169	544.77
42.6313	557.85
42.6458	571.98
42.6602	565.56
42.6747	539.35
42.6891	538.78
42.7035	540.84
42.7180	508.79
42.7324	514.12
42.7469	550.13
42.7613	508.10
42.7757	496.15
42.7902	499.19
42.8046	526.91
42.8191	505.31
42.8335	512.99
42.8479	487.48
42.8624	500.03
42.8768	490.57
42.8913	493.67
42.9057	512.76
42.9201	524.31
42.9346	558.55
42.9490	539.13
42.9635	470.25
42.9779	484.96
42.9923	499.61
43.0068	485.90
43.0212	498.43
43.0357	513.31
43.0501	510.60
43.0645	501.12
43.0790	519.22
43.0934	517.03
43.1079	505.06
43.1223	504.90
43.1367	500.45
43.1512	525.39
43.1656	541.98
43.1801	520.93
43.1945	538.03
43.2089	539.78
43.2234	544.45
43.2378	515.09
43.2523	553.88
43.2667	548.22
43.2811	511.87
43.2956	538.99
43.3100	532.29
43.3245	510.68
43.3389	524.29
43.3533	533.55
43.3678	509.70
43.3822	489.02
43.3967	489.88
43.4111	483.61
43.4255	509.00
43.4400	518.42
43.4544	516.80
43.4689	541.18
43.4833	475.33
43.4977	489.69
43.5122	502.74
43.5266	504.86
43.5411	499.15
43.5555	534.58
43.5699	510.68
43.5844	498.23
43.5988	537.70
43.6133	517.46
43.6277	510.65
43.6421	542.40
43.6566	493.56
43.6710	520.01
43.6855	543.29
43.6999	527.57
43.7143	506.90
43.7288	527.39
43.7432	561.65
43.7577	559.73
43.7721	543.96
43.7865	557.20
43.8010	542.90
43.8154	508.89
43.8299	524.14
43.8443	575.50
43.8587	608.62
43.8732	615.58
43.8876	587.42
43.9021	663.22
43.9165	630.17
43.9309	621.46
43.9454	625.71
43.9598	627.34
43.9743	615.64
43.9887	624.70
44.0031	565.10
44.0176	583.79
44.0320	627.82
44.0465	607.16
44.0609	615.35
44.0753	569.05
44.0898	551.67
44.1042	518.93
44.1187	521.43
44.1331	511.78
44.1475	489.27
44.1620	535.39
44.1764	500.71
44.1909	499.45
44.2053	520.67
44.2197	557.28
44.2342	547.81
44.2486	532.35
44.2631	538.32
44.2775	530.13
44.2919	521.42
44.3064	523.24
44.3208	548.38
44.3353	552.16
44.3497	531.79
44.3641	532.72
44.3786	527.98
44.3930	563.43
44.4075	568.98
44.4219	582.64
44.4363	596.69
44.4508	604.83
44.4652	598.14
44.4797	566.27
44.4941	556.73
44.5085	533.98
44.5230	571.90
44.5374	576.92
44.5519	584.25
44.5663	600.22
44.5807	558.46
44.5952	565.09
44.6096	567.34
44.6241	578.57
44.6385	593.02
44.6529	583.25
44.6674	557.75
44.6818	579.47
44.6963	624.10
44.7107	698.73
44.7251	706.77
44.7396	747.47
44.7540	815.40
44.7685	856.42
44.7829	828.99
44.7973	845.41
44.8118	831.55
44.8262	763.92
44.8407	777.12
44.8551	743.60
44.8695	787.84
44.8840	780.27
44.8984	754.24
44.9129	778.51
44.9273	712.68
44.9417	650.62
44.9562	631.90
44.9706	587.48
44.9851	536.37
44.9995	541.91
45.0139	541.70
45.0284	556.52
45.0428	541.99
45.0573	548.92
45.0717	524.50
45.0861	508.13
45.1006	502.09
45.1150	526.92
45.1295	500.42
45.1439	497.20
45.1583	511.38
45.1728	535.17
45.1872	472.60
45.2017	509.29
45.2161	490.02
45.2305	475.24
45.2450	529.72
45.2594	517.25
45.2739	565.59
45.2883	528.55
45.3028	498.21
45.3172	485.83
45.3316	552.88
45.3461	528.22
45.3605	527.64
45.3750	497.01
45.3894	507.12
45.4038	458.43
45.4183	511.32
45.4327	506.07
45.4472	537.07
45.4616	516.92
45.4760	509.87
45.4905	517.22
45.5049	492.99
45.5194	506.01
45.5338	503.60
45.5482	497.46
45.5627	530.50
45.5771	470.84
45.5916	491.99
45.6060	469.42
45.6204	534.04
45.6349	523.12
45.6493	501.89
45.6638	511.30
45.6782	511.19
45.6926	491.37
45.7071	506.65
45.7215	495.84
45.7360	469.34
45.7504	512.44
45.7648	507.84
45.7793	495.69
45.7937	513.15
45.8082	508.41
45.8226	516.59
45.8370	513.39
45.8515	505.25
45.8659	513.72
45.8804	510.73
45.8948	471.40
45.9092	502.12
45.9237	490.40
45.9381	491.83
45.9526	474.38
45.9670	500.16
45.9814	467.95
45.9959	492.47
46.0103	471.66
46.0248	503.17
46.0392	496.68
46.0536	517.38
46.0681	531.74
46.0825	517.23
46.0970	490.46
46.1114	518.63
46.1258	503.73
46.1403	477.15
46.1547	477.98
46.1692	504.67
46.1836	531.30
46.1980	505.70
46.2125	476.89
46.2269	491.25
46.2414	504.29
46.2558	502.92
46.2702	487.90
46.2847	487.13
46.2991	494.47
46.3136	520.97
46.3280	525.52
46.3424	509.17
46.3569	477.00
46.3713	488.61
46.3858	493.69
46.4002	482.47
46.4146	516.70
46.4291	510.34
46.4435	492.18
46.4580	505.83
46.4724	496.92
46.4868	515.06
46.5013	523.15
46.5157	551.96
46.5302	511.81
46.5446	527.56
46.5590	489.77
46.5735	495.06
46.5879	476.14
46.6024	518.96
46.6168	496.68
46.6312	492.90
46.6457	514.07
46.6601	510.60
46.6746	498.94
46.6890	483.66
46.7034	522.54
46.7179	515.55
46.7323	480.37
46.7468	496.43
46.7612	485.70
46.7756	505.42
46.7901	506.10
46.8045	489.66
46.8190	501.79
46.8334	501.73
46.8478	524.35
46.8623	530.70
46.8767	484.52
46.8912	496.82
46.9056	516.38
46.9200	486.94
46.9345	492.44
46.9489	476.78
46.9634	506.39
46.9778	486.62
46.9922	499.04
47.0067	562.08
47.0211	531.48
47.0356	540.27
47.0500	546.31
47.0644	502.81
47.0789	488.74
47.0933	535.47
47.1078	504.49
47.1222	499.01
47.1366	461.53
47.1511	503.94
47.1655	504.35
47.1800	506.00
47.1944	495.76
47.2088	497.33
47.2233	498.39
47.2377	472.23
47.2522	523.62
47.2666	501.40
47.2810	515.47
47.2955	488.02
47.3099	487.50
47.3244	523.50
47.3388	518.36
47.3532	523.35
47.3677	508.21
47.3821	508.99
47.3966	519.84
47.4110	510.47
47.4254	518.34
47.4399	501.75
47.4543	504.62
47.4688	513.67
47.4832	496.74
47.4976	490.37
47.5121	494.33
47.5265	525.11
47.5410	506.75
47.5554	495.79
47.5698	518.58
47.5843	520.50
47.5987	516.85
47.6132	487.26
47.6276	468.91
47.6420	478.02
47.6565	474.87
47.6709	494.69
47.6854	534.70
47.6998	521.73
47.7142	554.42
47.7287	532.36
47.7431	532.84
47.7576	501.31
47.7720	513.75
47.7864	539.47
47.8009	509.08
47.8153	525.50
47.8298	508.62
47.8442	489.96
47.8586	539.57
47.8731	495.20
47.8875	512.13
47.9020	536.73
47.9164	562.48
47.9308	531.34
47.9453	506.73
47.9597	461.34
47.9742	458.36
47.9886	521.22
48.0030	510.93
48.0175	475.20
48.0319	478.33
48.0464	471.95
48.0608	538.15
48.0752	504.76
48.0897	494.24
48.1041	506.17
48.1186	516.28
48.1330	505.53
48.1474	504.18
48.1619	532.26
48.1763	501.08
48.1908	511.30
48.2052	510.30
48.2196	536.89
48.2341	502.48
48.2485	520.75
48.2630	495.02
48.2774	505.29
48.2918	512.38
48.3063	499.92
48.3207	502.54
48.3352	513.84
48.3496	533.83
48.3640	529.36
48.3785	508.26
48.3929	522.69
48.4074	492.71
48.4218	519.23
48.4362	493.12
48.4507	505.87
48.4651	480.08
48.4796	514.21
48.4940	503.43
48.5084	523.34
48.5229	511.71
48.5373	510.14
48.5518	537.91
48.5662	515.17
48.5806	502.71
48.5951	502.90
48.6095	527.17
48.6240	525.99
48.6384	515.92
48.6528	543.04
48.6673	528.08
48.6817	532.44
48.6962	518.24
48.7106	527.30
48.7250	553.76
48.7395	506.57
48.7539	505.57
48.7684	527.34
48.7828	554.02
48.7972	540.16
48.8117	532.74
48.8261	551.09
48.8406	511.52
48.8550	527.31
48.8694	558.09
48.8839	577.56
48.8983	529.15
48.9128	567.81
48.9272	551.85
48.9416	565.84
48.9561	554.22
48.9705	557.95
48.9850	593.64
48.9994	546.41
49.0139	611.43
49.0283	574.06
49.0427	615.59
49.0572	639.40
49.0716	614.03
49.0861	659.88
49.1005	644.70
49.1149	694.35
49.1294	718.27
49.1438	710.47
49.1583	747.47
49.1727	797.81
49.1871	846.18
49.2016	894.82
49.2160	972.41
49.2305	1036.80
49.2449	1093.33
49.2593	1164.85
49.2738	1301.10
49.2882	1409.74
49.3027	1458.48
49.3171	1587.78
49.3315	1647.96
49.3460	1666.06
49.3604	1719.60
49.3749	1773.79
49.3893	1750.75
49.4037	1755.54
49.4182	1741.70
49.4326	1742.26
49.4471	1625.79
49.4615	1591.57
49.4759	1519.20
49.4904	1469.39
49.5048	1390.16
49.5193	1283.36
49.5337	1246.55
49.5481	1215.93
49.5626	1181.65
49.5770	1107.09
49.5915	990.72
49.6059	881.87
49.6203	842.86
49.6348	832.93
49.6492	786.65
49.6637	723.93
49.6781	696.92
49.6925	711.08
49.7070	660.16
49.7214	637.94
49.7359	574.62
49.7503	603.93
49.7647	595.58
49.7792	646.65
49.7936	592.73
49.8081	588.84
49.8225	593.96
49.8369	599.69
49.8514	542.54
49.8658	563.97
49.8803	582.91
49.8947	572.84
49.9091	596.72
49.9236	541.02
49.9380	564.72
49.9525	517.96
49.9669	513.60
49.9813	538.41
49.9958	493.28
50.0102	538.05
50.0247	539.30
50.0391	536.27
50.0535	513.26
50.0680	504.42
50.0824	476.29
50.0969	475.83
50.1113	528.97
50.1257	491.76
50.1402	478.70
50.1546	502.84
50.1691	544.87
50.1835	497.84
50.1979	505.67
50.2124	532.70
50.2268	506.52
50.2413	520.09
50.2557	506.17
50.2701	495.62
50.2846	500.96
50.2990	500.01
50.3135	503.63
50.3279	507.67
50.3423	508.55
50.3568	519.06
50.3712	511.49
50.3857	493.48
50.4001	472.23
50.4145	508.15
50.4290	530.83
50.4434	518.51
50.4579	515.99
50.4723	531.22
50.4867	520.90
50.5012	515.30
50.5156	511.84
50.5301	529.99
50.5445	517.78
50.5589	502.95
50.5734	520.62
50.5878	527.54
50.6023	538.89
50.6167	521.08
50.6311	521.99
50.6456	533.50
50.6600	523.23
50.6745	491.24
50.6889	510.81
50.7033	517.93
50.7178	512.21
50.7322	510.96
50.7467	532.23
50.7611	526.39
50.7755	567.06
50.7900	520.26
50.8044	489.87
50.8189	525.48
50.8333	502.52
50.8477	493.56
50.8622	508.92
50.8766	517.73
50.8911	515.61
50.9055	528.79
50.9199	530.82
50.9344	538.14
50.9488	484.42
50.9633	479.77
50.9777	501.31
50.9921	496.49
51.0066	509.89
51.0210	536.95
51.0355	498.48
51.0499	467.80
51.0643	512.71
51.0788	463.19
51.0932	472.71
51.1077	483.38
51.1221	517.64
51.1365	515.72
51.1510	534.70
51.1654	518.44
51.1799	513.52
51.1943	487.56
51.2087	478.34
51.2232	483.18
51.2376	460.95
51.2521	516.55
51.2665	524.26
51.2809	503.39
51.2954	511.43
51.3098	538.88
51.3243	539.34
51.3387	541.06
51.3531	514.69
51.3676	487.21
51.3820	511.11
51.3965	517.42
51.4109	477.78
51.4253	512.11
51.4398	499.13
51.4542	473.49
51.4687	509.62
51.4831	506.98
51.4975	482.72
51.5120	481.64
51.5264	518.22
51.5409	488.83
51.5553	474.70
51.5697	493.99
51.5842	513.86
51.5986	511.21
51.6131	519.76
51.6275	479.25
51.6419	483.96
51.6564	505.99
51.6708	480.01
51.6853	495.34
51.6997	523.71
51.7141	538.38
51.7286	510.50
51.7430	496.66
51.7575	488.96
51.7719	506.93
51.7863	516.11
51.8008	464.18
51.8152	513.52
51.8297	497.53
51.8441	493.38
51.8585	534.22
51.8730	507.46
51.8874	511.91
51.9019	515.77
51.9163	497.89
51.9307	506.29
51.9452	502.11
51.9596	532.40
51.9741	505.47
51.9885	480.23
52.0029	524.02
52.0174	528.02
52.0318	516.75
52.0463	502.72
52.0607	555.00
52.0751	530.61
52.0896	521.04
52.1040	546.77
52.1185	544.37
52.1329	519.79
52.1473	486.06
52.1618	516.39
52.1762	499.08
52.1907	508.61
52.2051	525.67
52.2195	523.45
52.2340	494.06
52.2484	502.26
52.2629	514.00
52.2773	470.05
52.2917	514.35
52.3062	506.91
52.3206	481.67
52.3351	528.38
52.3495	498.06
52.3639	508.99
52.3784	470.20
52.3928	497.14
52.4073	492.20
52.4217	500.87
52.4361	495.21
52.4506	529.39
52.4650	556.16
52.4795	505.30
52.4939	489.22
52.5083	500.61
52.5228	527.43
52.5372	520.84
52.5517	515.31
52.5661	539.56
52.5805	502.98
52.5950	518.44
52.6094	518.34
52.6239	504.78
52.6383	529.82
52.6527	517.63
52.6672	492.46
52.6816	508.03
52.6961	476.95
52.7105	527.78
52.7250	518.92
52.7394	491.80
52.7538	550.35
52.7683	526.03
52.7827	524.61
52.7972	504.50
52.8116	521.97
52.8260	512.42
52.8405	524.04
52.8549	497.74
52.8694	521.60
52.8838	497.63
52.8982	532.47
52.9127	514.58
52.9271	495.00
52.9416	528.14
52.9560	523.04
52.9704	501.58
52.9849	520.38
52.9993	565.48
53.0138	524.15
53.0282	512.24
53.0426	515.19
53.0571	535.15
53.0715	490.25
53.0860	493.20
53.1004	529.45
53.1148	530.84
53.1293	530.69
53.1437	518.72
53.1582	485.60
53.1726	502.11
53.1870	533.95
53.2015	485.45
53.2159	507.98
53.2304	496.52
53.2448	521.82
53.2592	524.11
53.2737	513.74
53.2881	527.93
53.3026	518.78
53.3170	500.97
53.3314	486.64
53.3459	530.27
53.3603	506.55
53.3748	518.08
53.3892	520.61
53.4036	509.33
53.4181	508.49
53.4325	487.92
53.4470	507.02
53.4614	512.69
53.4758	508.02
53.4903	527.92
53.5047	528.52
53.5192	504.47
53.5336	524.81
53.5480	522.26
53.5625	487.28
53.5769	521.24
53.5914	528.54
53.6058	520.18
53.6202	507.29
53.6347	529.08
53.6491	518.12
53.6636	501.64
53.6780	497.75
53.6924	507.89
53.7069	521.83
53.7213	509.41
53.7358	487.19
53.7502	501.34
53.7646	499.99
53.7791	492.63
53.7935	511.96
53.8080	528.61
53.8224	491.11
53.8368	507.00
53.8513	506.12
53.8657	510.50
53.8802	534.27
53.8946	569.00
53.9090	570.00
53.9235	529.29
53.9379	491.87
53.9524	516.79
53.9668	581.44
53.9812	517.27
53.9957	526.82
54.0101	518.93
54.0246	496.16
54.0390	534.18
54.0534	560.03
54.0679	537.73
54.0823	543.17
54.0968	570.98
54.1112	508.22
54.1256	514.56
54.1401	517.30
54.1545	497.54
54.1690	506.76
54.1834	529.63
54.1978	506.59
54.2123	515.56
54.2267	539.30
54.2412	513.95
54.2556	541.07
54.2700	557.40
54.2845	575.56
54.2989	539.25
54.3134	517.75
54.3278	530.71
54.3422	534.53
54.3567	560.76
54.3711	548.76
54.3856	545.33
54.4000	591.95
54.4144	593.89
54.4289	624.55
54.4433	592.26
54.4578	579.78
54.4722	658.10
54.4866	617.23
54.5011	590.73
54.5155	616.87
54.5300	606.64
54.5444	582.37
54.5588	596.48
54.5733	538.50
54.5877	587.31
54.6022	595.64
54.6166	560.25
54.6310	566.62
54.6455	575.22
54.6599	585.03
54.6744	582.17
54.6888	577.85
54.7032	584.79
54.7177	533.52
54.7321	558.17
54.7466	547.66
54.7610	543.68
54.7754	536.61
54.7899	527.80
54.8043	515.75
54.8188	560.26
54.8332	596.41
54.8476	527.47
54.8621	504.50
54.8765	516.36
54.8910	515.56
54.9054	530.43
54.9198	556.75
54.9343	574.46
54.9487	551.95
54.9632	524.65
54.9776	516.33
54.9920	524.69
55.0065	555.80
55.0209	576.11
55.0354	539.58
55.0498	524.02
55.0642	505.42
55.0787	505.35
55.0931	509.33
55.1076	501.84
55.1220	524.94
55.1364	548.04
55.1509	498.44
55.1653	535.54
55.1798	519.90
55.1942	456.66
55.2086	516.93
55.2231	530.07
55.2375	488.32
55.2520	501.28
55.2664	539.48
55.2808	514.68
55.2953	496.32
55.3097	519.95
55.3242	519.02
55.3386	529.39
55.3530	532.74
55.3675	501.52
55.3819	489.27
55.3964	487.10
55.4108	497.11
55.4252	538.43
55.4397	539.05
55.4541	488.07
55.4686	519.60
55.4830	535.92
55.4974	521.40
55.5119	503.56
55.5263	501.15
55.5408	495.05
55.5552	490.90
55.5696	504.91
55.5841	532.76
55.5985	528.89
55.6130	512.87
55.6274	506.58
55.6418	571.15
55.6563	572.74
55.6707	551.04
55.6852	517.22
55.6996	550.08
55.7140	569.95
55.7285	541.04
55.7429	522.14
55.7574	542.65
55.7718	518.08
55.7862	539.43
55.8007	513.50
55.8151	528.99
55.8296	550.88
55.8440	545.81
55.8584	532.46
55.8729	533.71
55.8873	515.05
55.9018	555.35
55.9162	531.86
55.9306	510.99
55.9451	518.41
55.9595	508.06
55.9740	494.00
55.9884	529.42
56.0028	507.99
56.0173	558.82
56.0317	519.23
56.0462	499.93
56.0606	519.98
56.0750	519.22
56.0895	529.13
56.1039	509.27
56.1184	535.08
56.1328	553.49
56.1472	516.26
56.1617	506.08
56.1761	540.05
56.1906	514.31
56.2050	506.02
56.2194	479.87
56.2339	472.36
56.2483	566.69
56.2628	531.34
56.2772	509.78
56.2916	491.84
56.3061	532.08
56.3205	558.74
56.3350	536.97
56.3494	514.26
56.3639	509.70
56.3783	555.57
56.3927	555.10
56.4072	519.57
56.4216	570.71
56.4361	534.63
56.4505	501.36
56.4649	513.13
56.4794	560.80
56.4938	521.33
56.5083	505.53
56.5227	511.65
56.5371	531.01
56.5516	510.85
56.5660	535.20
56.5805	533.36
56.5949	493.93
56.6093	508.96
56.6238	532.47
56.6382	499.62
56.6527	525.04
56.6671	538.89
56.6815	505.76
56.6960	498.13
56.7104	520.16
56.7249	509.04
56.7393	508.48
56.7537	509.86
56.7682	508.51
56.7826	535.96
56.7971	536.99
56.8115	548.71
56.8259	542.30
56.8404	529.28
56.8548	553.35
56.8693	518.31
56.8837	528.82
56.8981	521.89
56.9126	575.86
56.9270	535.55
56.9415	549.21
56.9559	513.30
56.9703	523.64
56.9848	498.06
56.9992	520.48
57.0137	517.71
57.0281	538.54
57.0425	505.93
57.0570	538.34
57.0714	524.34
57.0859	539.20
57.1003	503.80
57.1147	500.51
57.1292	546.43
57.1436	530.05
57.1581	561.04
57.1725	537.36
57.1869	507.59
57.2014	500.50
57.2158	500.15
57.2303	538.46
57.2447	598.65
57.2591	518.30
57.2736	522.63
57.2880	508.10
57.3025	506.98
57.3169	546.66
57.3313	560.95
57.3458	537.89
57.3602	502.06
57.3747	484.25
57.3891	523.68
57.4035	526.32
57.4180	521.46
57.4324	529.94
57.4469	530.46
57.4613	545.63
57.4757	566.59
57.4902	536.33
57.5046	551.17
57.5191	558.63
57.5335	541.40
57.5479	533.46
57.5624	554.56
57.5768	543.16
57.5913	524.34
57.6057	545.22
57.6201	513.44
57.6346	528.26
57.6490	558.71
57.6635	519.51
57.6779	538.30
57.6923	490.33
57.7068	529.18
57.7212	531.92
57.7357	492.55
57.7501	523.31
57.7645	535.59
57.7790	546.56
57.7934	570.61
57.8079	562.02
57.8223	555.03
57.8367	545.64
57.8512	545.47
57.8656	546.54
57.8801	562.80
57.8945	593.66
57.9089	539.56
57.9234	529.39
57.9378	587.88
57.9523	568.94
57.9667	555.54
57.9811	544.38
57.9956	560.26
58.0100	584.67
58.0245	663.78
58.0389	577.88
58.0533	621.72
58.0678	637.95
58.0822	663.76
58.0967	692.56
58.1111	698.27
58.1255	705.64
58.1400	660.40
58.1544	675.05
58.1689	674.94
58.1833	673.76
58.1977	662.80
58.2122	687.22
58.2266	683.96
58.2411	671.81
58.2555	658.99
58.2699	644.24
58.2844	648.65
58.2988	628.97
58.3133	610.98
58.3277	616.27
58.3421	577.53
58.3566	582.69
58.3710	626.36
58.3855	574.03
58.3999	562.82
58.4143	556.68
58.4288	561.14
58.4432	548.59
58.4577	561.91
58.4721	541.68
58.4865	532.62
58.5010	578.79
58.5154	552.23
58.5299	536.45
58.5443	563.82
58.5587	543.08
58.5732	513.89
58.5876	517.49
58.6021	529.94
58.6165	579.52
58.6309	557.81
58.6454	528.07
58.6598	530.91
58.6743	536.58
58.6887	537.37
58.7031	549.36
58.7176	536.11
58.7320	538.91
58.7465	514.52
58.7609	533.08
58.7753	563.35
58.7898	553.01
58.8042	563.27
58.8187	571.43
58.8331	578.63
58.8475	554.72
58.8620	574.70
58.8764	533.35
58.8909	526.27
58.9053	590.75
58.9197	564.42
58.9342	545.79
58.9486	535.46
58.9631	484.81
58.9775	512.36
58.9919	562.84
59.0064	524.01
59.0208	530.20
59.0353	549.08
59.0497	561.14
59.0641	547.96
59.0786	524.80
59.0930	531.28
59.1075	549.12
59.1219	548.60
59.1363	542.57
59.1508	555.59
59.1652	570.30
59.1797	515.24
59.1941	506.17
59.2085	558.80
59.2230	573.59
59.2374	565.16
59.2519	527.89
59.2663	511.70
59.2807	568.24
59.2952	534.15
59.3096	556.62
59.3241	586.98
59.3385	591.85
59.3529	569.78
59.3674	550.93
59.3818	537.87
59.3963	539.93
59.4107	550.54
59.4251	572.78
59.4396	538.17
59.4540	553.08
59.4685	582.67
59.4829	585.01
59.4973	551.20
59.5118	544.73
59.5262	564.60
59.5407	553.64
59.5551	516.83
59.5695	521.88
59.5840	533.05
59.5984	565.30
59.6129	613.99
59.6273	572.75
59.6417	569.97
59.6562	540.45
59.6706	557.98
59.6851	573.61
59.6995	541.12
59.7139	570.20
59.7284	530.87
59.7428	538.78
59.7573	522.71
59.7717	519.66
59.7861	544.82
59.8006	509.55
59.8150	527.90
59.8295	516.75
59.8439	540.57
59.8583	558.14
59.8728	572.08
59.8872	568.69
59.9017	557.08
59.9161	561.30
59.9305	514.91
59.9450	530.94
59.9594	514.45
59.9739	531.93
59.9883	532.15
60.0027	548.93
60.0172	569.55
60.0316	553.88
60.0461	546.60
60.0605	530.46
60.0750	557.12
60.0894	562.28
60.1038	534.05
60.1183	558.02
60.1327	517.90
60.1472	537.14
60.1616	550.85
60.1760	561.39
60.1905	538.86
60.2049	560.06
60.2194	523.34
60.2338	538.36
60.2482	560.04
60.2627	537.32
60.2771	558.78
60.2916	537.00
60.3060	539.26
60.3204	534.75
60.3349	514.48
60.3493	557.00
60.3638	556.16
60.3782	557.44
60.3926	566.24
60.4071	501.58
60.4215	521.38
60.4360	532.49
60.4504	527.16
60.4648	556.16
60.4793	519.81
60.4937	464.71
60.5082	537.87
60.5226	540.54
60.5370	509.59
60.5515	552.50
60.5659	545.76
60.5804	558.02
60.5948	561.71
60.6092	553.23
60.6237	534.61
60.6381	544.92
60.6526	549.19
60.6670	553.03
60.6814	543.60
60.6959	520.87
60.7103	581.16
60.7248	530.09
60.7392	541.83
60.7536	518.54
60.7681	554.47
60.7825	559.11
60.7970	539.59
60.8114	557.42
60.8258	569.67
60.8403	534.00
60.8547	558.09
60.8692	503.95
60.8836	515.56
60.8980	519.40
60.9125	532.73
60.9269	573.47
60.9414	562.95
60.9558	561.97
60.9702	543.83
60.9847	588.17
60.9991	572.81
61.0136	542.62
61.0280	534.41
61.0424	549.26
61.0569	559.53
61.0713	543.43
61.0858	542.29
61.1002	542.32
61.1146	605.02
61.1291	554.87
61.1435	528.15
61.1580	552.72
61.1724	554.63
61.1868	527.26
61.2013	536.02
61.2157	538.20
61.2302	525.24
61.2446	563.01
61.2590	534.27
61.2735	561.77
61.2879	546.98
61.3024	527.45
61.3168	490.44
61.3312	550.29
61.3457	565.54
61.3601	559.64
61.3746	579.34
61.3890	543.33
61.4034	547.23
61.4179	530.94
61.4323	563.23
61.4468	559.28
61.4612	526.41
61.4756	554.49
61.4901	516.01
61.5045	509.06
61.5190	530.99
61.5334	541.28
61.5478	500.19
61.5623	512.58
61.5767	538.64
61.5912	547.34
61.6056	570.39
61.6200	561.22
61.6345	569.20
61.6489	560.06
61.6634	548.10
61.6778	545.23
61.6922	524.88
61.7067	536.50
61.7211	533.84
61.7356	537.81
61.7500	551.41
61.7644	557.04
61.7789	582.78
61.7933	546.44
61.8078	530.53
61.8222	574.18
61.8366	562.75
61.8511	529.04
61.8655	554.29
61.8800	546.94
61.8944	503.04
61.9088	562.16
61.9233	552.09
61.9377	552.83
61.9522	547.71
61.9666	565.90
61.9810	549.95
61.9955	548.54
62.0099	527.93
62.0244	541.14
62.0388	568.62
62.0532	580.25
62.0677	574.86
62.0821	548.56
62.0966	552.32
62.1110	562.62
62.1254	565.56
62.1399	538.61
62.1543	554.71
62.1688	569.02
62.1832	569.11
62.1976	556.52
62.2121	546.99
62.2265	536.11
62.2410	564.07
62.2554	552.81
62.2698	532.97
62.2843	586.31
62.2987	572.36
62.3132	573.69
62.3276	563.46
62.3420	565.03
62.3565	546.03
62.3709	567.70
62.3854	537.32
62.3998	527.91
62.4142	529.04
62.4287	573.79
62.4431	563.18
62.4576	568.14
62.4720	540.07
62.4864	550.74
62.5009	539.71
62.5153	543.17
62.5298	545.44
62.5442	564.98
62.5586	543.22
62.5731	546.35
62.5875	547.24
62.6020	583.89
62.6164	523.05
62.6308	544.73
62.6453	572.96
62.6597	568.99
62.6742	579.55
62.6886	557.02
62.7030	569.16
62.7175	538.85
62.7319	542.34
62.7464	535.55
62.7608	527.94
62.7752	544.29
62.7897	548.43
62.8041	583.36
62.8186	577.33
62.8330	566.32
62.8474	527.28
62.8619	538.42
62.8763	556.55
62.8908	579.50
62.9052	556.34
62.9196	526.08
62.9341	570.88
62.9485	556.18
62.9630	547.94
62.9774	548.32
62.9918	569.41
63.0063	559.04
63.0207	557.87
63.0352	554.55
63.0496	508.16
63.0640	561.01
63.0785	586.80
63.0929	607.69
63.1074	559.73
63.1218	573.78
63.1362	593.82
63.1507	555.41
63.1651	593.91
63.1796	551.73
63.1940	566.15
63.2084	539.01
63.2229	601.24
63.2373	613.85
63.2518	603.25
63.2662	570.82
63.2806	580.25
63.2951	579.87
63.3095	585.10
63.3240	629.83
63.3384	576.34
63.3528	582.46
63.3673	598.92
63.3817	554.76
63.3962	588.42
63.4106	607.69
63.4250	617.41
63.4395	589.35
63.4539	562.75
63.4684	625.22
63.4828	636.51
63.4972	614.95
63.5117	624.11
63.5261	607.95
63.5406	604.60
63.5550	657.88
63.5694	632.07
63.5839	655.15
63.5983	652.24
63.6128	582.76
63.6272	625.57
63.6416	626.06
63.6561	627.01
63.6705	645.83
63.6850	674.25
63.6994	707.98
63.7138	684.93
63.7283	664.78
63.7427	703.55
63.7572	745.89
63.7716	806.45
63.7861	830.98
63.8005	845.09
63.8149	940.61
63.8294	868.14
63.8438	841.25
63.8583	841.27
63.8727	829.91
63.8871	799.66
63.9016	812.35
63.9160	802.83
63.9305	775.35
63.9449	794.27
63.9593	766.14
63.9738	758.60
63.9882	808.62
64.0027	777.90
64.0171	769.97
64.0315	749.96
64.0460	735.66
64.0604	744.84
64.0749	739.66
64.0893	731.51
64.1037	664.43
64.1182	680.04
64.1326	666.10
64.1471	641.84
64.1615	683.46
64.1759	675.59
64.1904	666.31
64.2048	625.51
64.2193	626.22
64.2337	654.65
64.2481	640.57
64.2626	633.85
64.2770	616.84
64.2915	623.68
64.3059	594.97
64.3203	632.14
64.3348	631.76
64.3492	593.69
64.3637	627.55
64.3781	618.72
64.3925	609.70
64.4070	639.86
64.4214	639.48
64.4359	617.96
64.4503	602.65
64.4647	656.73
64.4792	637.68
64.4936	642.98
64.5081	627.61
64.5225	668.29
64.5369	643.67
64.5514	666.89
64.5658	603.78
64.5803	649.17
64.5947	674.30
64.6091	663.89
64.6236	635.64
64.6380	689.25
64.6525	682.85
64.6669	683.49
64.6813	659.86
64.6958	656.85
64.7102	713.82
64.7247	687.66
64.7391	661.44
64.7535	685.32
64.7680	736.64
64.7824	752.93
64.7969	691.92
64.8113	756.73
64.8257	801.65
64.8402	803.14
64.8546	816.44
64.8691	818.42
64.8835	829.63
64.8979	827.64
64.9124	857.48
64.9268	885.97
64.9413	946.24
64.9557	931.38
64.9701	1017.29
64.9846	1061.73
64.9990	1169.09
65.0135	1277.03
65.0279	1473.37
65.0423	1708.01
65.0568	2107.91
65.0712	2648.99
65.0857	3523.13
65.1001	4693.40
65.1145	6194.93
65.1290	8034.71
65.1434	9656.55
65.1579	11250.32
65.1723	11968.82
65.1867	11340.18
65.2012	9971.91
65.2156	8497.29
65.2301	6569.73
65.2445	5223.86
65.2589	4503.57
65.2734	4322.03
65.2878	4548.33
65.3023	5127.22
65.3167	5869.73
65.3311	6659.26
65.3456	7115.17
65.3600	7004.25
65.3745	6437.22
65.3889	5466.20
65.4033	4407.59
65.4178	3483.52
65.4322	2715.67
65.4467	2060.33
65.4611	1733.76
65.4755	1439.58
65.4900	1308.09
65.5044	1121.79
65.5189	1065.73
65.5333	945.57
65.5477	892.16
65.5622	880.74
65.5766	894.12
65.5911	854.12
65.6055	808.63
65.6199	775.99
65.6344	762.75
65.6488	747.19
65.6633	752.00
65.6777	760.50
65.6921	703.76
65.7066	705.74
65.7210	725.91
65.7355	698.61
65.7499	662.11
65.7643	643.40
65.7788	678.15
65.7932	649.88
65.8077	674.80
65.8221	676.06
65.8365	681.92
65.8510	636.65
65.8654	657.53
65.8799	666.47
65.8943	691.03
65.9087	661.05
65.9232	660.75
65.9376	635.63
65.9521	649.77
65.9665	603.50
65.9809	593.18
65.9954	653.63
66.0098	611.60
66.0243	651.76
66.0387	647.45
66.0531	593.20
66.0676	583.39
66.0820	624.16
66.0965	620.99
66.1109	599.42
66.1253	625.35
66.1398	621.10
66.1542	587.33
66.1687	602.72
66.1831	649.04
66.1975	666.09
66.2120	627.65
66.2264	608.33
66.2409	586.39
66.2553	610.58
66.2697	621.61
66.2842	611.69
66.2986	596.47
66.3131	593.02
66.3275	579.77
66.3419	590.73
66.3564	575.62
66.3708	584.62
66.3853	596.98
66.3997	617.16
66.4141	605.36
66.4286	653.37
66.4430	586.98
66.4575	602.27
66.4719	615.42
66.4863	592.06
66.5008	594.57
66.5152	575.89
66.5297	594.09
66.5441	593.47
66.5585	612.24
66.5730	606.56
66.5874	586.47
66.6019	564.92
66.6163	589.74
66.6307	586.05
66.6452	601.87
66.6596	595.45
66.6741	604.06
66.6885	580.76
66.7029	601.18
66.7174	612.22
66.7318	571.27
66.7463	602.81
66.7607	588.54
66.7751	577.82
66.7896	615.04
66.8040	615.05
66.8185	617.53
66.8329	619.14
66.8473	588.92
66.8618	604.86
66.8762	644.65
66.8907	586.52
66.9051	619.02
66.9195	621.22
66.9340	619.31
66.9484	621.19
66.9629	610.72
66.9773	601.43
66.9917	616.91
67.0062	598.67
67.0206	592.06
67.0351	563.86
67.0495	584.38
67.0639	584.89
67.0784	577.76
67.0928	587.42
67.1073	572.47
67.1217	619.64
67.1361	565.89
67.1506	593.76
67.1650	612.35
67.1795	601.70
67.1939	608.68
67.2083	602.23
67.2228	583.94
67.2372	609.66
67.2517	577.68
67.2661	577.46
67.2805	594.25
67.2950	569.81
67.3094	602.30
67.3239	594.38
67.3383	592.85
67.3527	552.60
67.3672	561.46
67.3816	588.71
67.3961	581.69
67.4105	566.83
67.4250	585.51
67.4394	542.98
67.4538	563.46
67.4683	560.74
67.4827	578.26
67.4972	583.84
67.5116	571.79
67.5260	574.06
67.5405	582.40
67.5549	589.56
67.5694	566.08
67.5838	573.39
67.5982	580.48
67.6127	568.15
67.6271	587.06
67.6416	606.21
67.6560	581.22
67.6704	588.41
67.6849	598.92
67.6993	568.65
67.7138	580.97
67.7282	566.70
67.7426	593.22
67.7571	571.92
67.7715	546.86
67.7860	566.86
67.8004	599.56
67.8148	580.98
67.8293	589.20
67.8437	571.80
67.8582	577.34
67.8726	572.11
67.8870	574.15
67.9015	598.06
67.9159	564.21
67.9304	532.23
67.9448	531.03
67.9592	570.19
67.9737	612.68
67.9881	568.48
68.0026	583.86
68.0170	576.14
68.0314	570.16
68.0459	559.79
68.0603	560.70
68.0748	581.48
68.0892	616.09
68.1036	605.89
68.1181	569.90
68.1325	593.39
68.1470	552.65
68.1614	579.55
68.1758	610.09
68.1903	582.52
68.2047	565.89
68.2192	581.68
68.2336	609.38
68.2480	579.69
68.2625	574.59
68.2769	550.16
68.2914	582.93
68.3058	586.46
68.3202	586.84
68.3347	586.99
68.3491	616.09
68.3636	621.45
68.3780	593.99
68.3924	545.08
68.4069	594.35
68.4213	596.74
68.4358	558.56
68.4502	548.39
68.4646	510.94
68.4791	567.25
68.4935	574.79
68.5080	559.50
68.5224	549.57
68.5368	595.90
68.5513	609.67
68.5657	568.48
68.5802	559.25
68.5946	580.01
68.6090	560.19
68.6235	550.39
68.6379	605.00
68.6524	539.05
68.6668	562.84
68.6812	583.67
68.6957	556.22
68.7101	577.17
68.7246	602.68
68.7390	560.46
68.7534	583.75
68.7679	580.79
68.7823	582.40
68.7968	567.17
68.8112	575.60
68.8256	563.98
68.8401	571.56
68.8545	562.14
68.8690	598.64
68.8834	600.54
68.8978	620.11
68.9123	592.20
68.9267	628.20
68.9412	577.52
68.9556	544.98
68.9700	587.94
68.9845	556.90
68.9989	567.87
69.0134	632.31
69.0278	605.80
69.0422	624.78
69.0567	599.45
69.0711	572.89
69.0856	575.14
69.1000	596.14
69.1144	593.08
69.1289	550.02
69.1433	573.39
69.1578	580.87
69.1722	593.77
69.1866	545.84
69.2011	555.78
69.2155	584.37
69.2300	578.25
69.2444	586.19
69.2588	540.39
69.2733	591.48
69.2877	579.04
69.3022	569.80
69.3166	602.02
69.3310	643.54
69.3455	581.69
69.3599	542.75
69.3744	567.26
69.3888	580.21
69.4032	552.31
69.4177	609.56
69.4321	619.55
69.4466	531.56
69.4610	582.28
69.4754	598.80
69.4899	600.59
69.5043	587.02
69.5188	603.34
69.5332	626.77
69.5476	620.41
69.5621	558.17
69.5765	560.81
69.5910	602.45
69.6054	574.66
69.6198	576.75
69.6343	599.36
69.6487	583.23
69.6632	516.12
69.6776	570.82
69.6920	618.46
69.7065	597.74
69.7209	608.68
69.7354	562.49
69.7498	602.39
69.7642	537.70
69.7787	610.68
69.7931	633.54
69.8076	636.24
69.8220	555.79
69.8364	608.92
69.8509	575.86
69.8653	550.20
69.8798	547.04
69.8942	564.46
69.9086	609.86
69.9231	578.47
69.9375	605.88
69.9520	588.25
69.9664	578.45
69.9808	573.62
69.9953	608.47
70.0097	592.42
70.0242	595.68
70.0386	556.56
70.0530	579.28
70.0675	570.81
70.0819	571.35
70.0964	573.74
70.1108	528.51
70.1252	585.12
70.1397	588.35
70.1541	565.49
70.1686	591.91
70.1830	575.85
70.1974	586.88
70.2119	564.81
70.2263	579.37
70.2408	573.00
70.2552	565.46
70.2696	565.46
70.2841	559.23
70.2985	548.92
70.3130	589.30
70.3274	594.57
70.3418	608.60
70.3563	583.27
70.3707	616.45
70.3852	570.32
70.3996	620.48
70.4140	618.71
70.4285	614.59
70.4429	606.20
70.4574	565.39
70.4718	615.87
70.4862	627.57
70.5007	652.00
70.5151	549.13
70.5296	560.63
70.5440	580.04
70.5584	569.85
70.5729	566.45
70.5873	606.38
70.6018	556.03
70.6162	570.87
70.6306	579.00
70.6451	573.68
70.6595	597.11
70.6740	640.80
70.6884	578.89
70.7028	620.73
70.7173	582.22
70.7317	554.44
70.7462	543.40
70.7606	562.69
70.7750	595.32
70.7895	578.36
70.8039	593.08
70.8184	583.68
70.8328	600.50
70.8472	565.71
70.8617	626.16
70.8761	617.91
70.8906	555.11
70.9050	589.75
70.9194	588.21
70.9339	541.67
70.9483	534.69
70.9628	539.51
70.9772	567.75
70.9916	580.50
71.0061	593.42
71.0205	605.42
71.0350	558.89
71.0494	580.02
71.0638	591.18
71.0783	585.72
71.0927	609.15
71.1072	604.22
71.1216	558.14
71.1361	550.76
71.1505	567.86
71.1649	558.16
71.1794	584.14
71.1938	613.84
71.2083	553.28
71.2227	574.30
71.2371	609.13
71.2516	559.31
71.2660	567.82
71.2805	568.55
71.2949	570.13
71.3093	575.73
71.3238	618.72
71.3382	614.18
71.3527	532.87
71.3671	589.85
71.3815	567.82
71.3960	573.71
71.4104	546.63
71.4249	549.90
71.4393	600.04
71.4537	576.48
71.4682	599.90
71.4826	611.80
71.4971	564.23
71.5115	571.36
71.5259	540.42
71.5404	518.46
71.5548	575.13
71.5693	564.89
71.5837	604.32
71.5981	589.72
71.6126	535.25
71.6270	561.15
71.6415	566.20
71.6559	559.11
71.6703	591.84
71.6848	561.03
71.6992	571.95
71.7137	567.21
71.7281	566.57
71.7425	559.27
71.7570	568.07
71.7714	608.54
71.7859	588.21
71.8003	577.80
71.8147	553.88
71.8292	550.91
71.8436	588.01
71.8581	553.80
71.8725	516.61
71.8869	532.75
71.9014	595.46
71.9158	616.59
71.9303	588.33
71.9447	573.20
71.9591	567.91
71.9736	574.11
71.9880	517.53
72.0025	541.45
72.0169	566.92
72.0313	522.50
72.0458	585.46
72.0602	600.20
72.0747	539.55
72.0891	554.72
72.1035	568.88
72.1180	569.24
72.1324	508.50
72.1469	477.98
72.1613	474.76
72.1757	592.65
72.1902	612.73
72.2046	569.90
72.2191	590.90
72.2335	511.87
72.2479	483.52
72.2624	586.23
72.2768	650.18
72.2913	547.93
72.3057	555.60
72.3201	645.19
72.3346	582.11
72.3490	462.42
72.3635	570.62
72.3779	593.48
72.3923	569.19
72.4068	638.63
72.4212	648.54
72.4357	619.54
72.4501	634.65
72.4645	644.20
72.4790	597.50
72.4934	619.59
72.5079	622.81
72.5223	594.51
72.5367	528.62
72.5512	607.65
72.5656	584.57
72.5801	515.43
72.5945	538.43
72.6089	510.04
72.6234	492.95
72.6378	581.19
72.6523	596.67
72.6667	611.37
72.6811	619.15
72.6956	601.30
72.7100	648.07
72.7245	563.23
72.7389	538.43
72.7533	547.41
72.7678	519.54
72.7822	498.19
72.7967	542.26
72.8111	624.06
72.8255	648.15
72.8400	606.19
72.8544	637.76
72.8689	638.69
72.8833	585.54