2022.09.19 19:37:16
Îáðàçåö: ß÷åéêà LCoV 16-09-2022
Lambda1 = 1.54060
Lambda2 = 1.54439
Lambdam = 1.54186
R = 0.497
2Theta	I

line¹ 0 ;repeat¹ 0
22.1120	538.89
22.1264	628.57
22.1409	653.61
22.1553	494.94
22.1697	548.53
22.1842	608.53
22.1986	526.75
22.2131	604.62
22.2275	539.81
22.2419	456.64
22.2564	493.04
22.2708	501.12
22.2853	544.06
22.2997	575.49
22.3141	570.82
22.3286	522.60
22.3430	570.54
22.3575	613.41
22.3719	596.96
22.3863	604.99
22.4008	578.52
22.4152	565.15
22.4297	617.26
22.4441	598.10
22.4585	626.11
22.4730	564.30
22.4874	643.00
22.5019	551.08
22.5163	456.92
22.5307	522.51
22.5452	579.51
22.5596	626.70
22.5741	570.64
22.5885	624.70
22.6029	589.62
22.6174	596.58
22.6318	599.89
22.6463	621.10
22.6607	607.57
22.6751	560.34
22.6896	575.28
22.7040	666.20
22.7185	608.54
22.7329	595.20
22.7473	505.72
22.7618	575.71
22.7762	494.58
22.7907	493.11
22.8051	509.40
22.8195	592.78
22.8340	611.69
22.8484	474.56
22.8629	546.80
22.8773	639.49
22.8917	520.51
22.9062	592.35
22.9206	658.54
22.9351	595.24
22.9495	582.33
22.9639	529.64
22.9784	446.46
22.9928	541.07
23.0073	552.89
23.0217	753.47
23.0361	596.52
23.0506	619.29
23.0650	622.27
23.0795	522.48
23.0939	522.72
23.1083	608.17
23.1228	577.00
23.1372	572.89
23.1517	534.94
23.1661	493.41
23.1806	607.89
23.1950	550.44
23.2094	499.13
23.2239	528.56
23.2383	547.58
23.2528	632.80
23.2672	561.48
23.2816	551.50
23.2961	593.47
23.3105	567.96
23.3250	545.03
23.3394	579.61
23.3538	538.10
23.3683	540.86
23.3827	553.19
23.3972	568.33
23.4116	546.87
23.4260	543.12
23.4405	518.42
23.4549	555.96
23.4694	639.89
23.4838	561.83
23.4982	548.00
23.5127	554.58
23.5271	548.23
23.5416	553.38
23.5560	593.77
23.5704	525.37
23.5849	561.11
23.5993	634.22
23.6138	577.29
23.6282	600.53
23.6426	499.48
23.6571	549.97
23.6715	551.05
23.6860	527.52
23.7004	514.62
23.7148	578.53
23.7293	553.09
23.7437	535.41
23.7582	547.74
23.7726	479.17
23.7870	552.76
23.8015	590.92
23.8159	578.19
23.8304	485.71
23.8448	576.94
23.8592	577.84
23.8737	562.22
23.8881	554.51
23.9026	575.32
23.9170	561.67
23.9314	550.14
23.9459	539.47
23.9603	497.41
23.9748	567.26
23.9892	520.31
24.0036	499.98
24.0181	575.93
24.0325	582.72
24.0470	625.83
24.0614	573.08
24.0758	497.05
24.0903	552.64
24.1047	506.82
24.1192	543.86
24.1336	540.18
24.1480	580.50
24.1625	593.72
24.1769	564.99
24.1914	508.23
24.2058	578.89
24.2202	567.85
24.2347	599.63
24.2491	582.32
24.2636	607.30
24.2780	601.25
24.2924	558.68
24.3069	558.45
24.3213	552.85
24.3358	524.28
24.3502	579.16
24.3646	599.16
24.3791	535.08
24.3935	572.38
24.4080	550.63
24.4224	507.61
24.4368	510.27
24.4513	559.29
24.4657	535.77
24.4802	518.89
24.4946	604.80
24.5090	516.97
24.5235	553.27
24.5379	613.50
24.5524	548.65
24.5668	561.14
24.5812	553.08
24.5957	539.12
24.6101	556.23
24.6246	529.43
24.6390	553.67
24.6534	567.23
24.6679	547.06
24.6823	557.69
24.6968	552.40
24.7112	519.68
24.7256	553.79
24.7401	539.18
24.7545	503.52
24.7690	561.70
24.7834	567.53
24.7978	554.20
24.8123	485.26
24.8267	571.91
24.8412	559.54
24.8556	509.65
24.8700	550.41
24.8845	512.02
24.8989	543.37
24.9134	548.50
24.9278	506.87
24.9422	562.97
24.9567	551.16
24.9711	492.12
24.9856	514.69
25.0000	505.26
25.0144	543.25
25.0289	518.69
25.0433	518.67
25.0578	569.28
25.0722	616.50
25.0866	600.43
25.1011	511.88
25.1155	518.33
25.1300	524.92
25.1444	547.94
25.1588	544.20
25.1733	584.18
25.1877	518.22
25.2022	546.38
25.2166	587.95
25.2310	599.06
25.2455	536.37
25.2599	508.38
25.2744	559.58
25.2888	532.78
25.3032	511.90
25.3177	529.33
25.3321	555.16
25.3466	530.22
25.3610	527.90
25.3754	535.13
25.3899	562.10
25.4043	516.48
25.4188	500.89
25.4332	504.83
25.4476	516.38
25.4621	515.71
25.4765	519.12
25.4910	554.67
25.5054	573.86
25.5198	579.30
25.5343	556.46
25.5487	526.77
25.5632	512.99
25.5776	538.68
25.5920	542.01
25.6065	565.39
25.6209	516.91
25.6354	592.54
25.6498	511.54
25.6642	532.93
25.6787	499.52
25.6931	490.90
25.7076	521.63
25.7220	549.55
25.7364	531.32
25.7509	605.35
25.7653	572.98
25.7798	531.50
25.7942	510.18
25.8086	555.61
25.8231	512.96
25.8375	514.53
25.8520	526.20
25.8664	512.62
25.8808	503.25
25.8953	535.23
25.9097	589.70
25.9242	582.09
25.9386	508.81
25.9530	547.89
25.9675	539.48
25.9819	526.13
25.9964	527.01
26.0108	584.90
26.0252	559.55
26.0397	545.96
26.0541	553.61
26.0686	549.35
26.0830	527.11
26.0974	486.81
26.1119	550.94
26.1263	556.49
26.1408	522.88
26.1552	533.02
26.1696	528.84
26.1841	565.30
26.1985	505.37
26.2130	544.45
26.2274	558.54
26.2418	526.28
26.2563	512.20
26.2707	525.64
26.2852	520.34
26.2996	532.15
26.3140	539.53
26.3285	523.28
26.3429	523.08
26.3574	527.23
26.3718	542.32
26.3862	536.09
26.4007	546.93
26.4151	521.34
26.4296	575.15
26.4440	520.11
26.4584	515.78
26.4729	532.24
26.4873	540.74
26.5018	498.60
26.5162	510.69
26.5306	569.38
26.5451	568.65
26.5595	573.69
26.5740	544.74
26.5884	522.11
26.6028	518.47
26.6173	510.09
26.6317	539.21
26.6462	563.09
26.6606	556.45
26.6750	549.36
26.6895	539.87
26.7039	556.13
26.7184	515.19
26.7328	527.56
26.7472	582.36
26.7617	541.93
26.7761	536.31
26.7906	534.45
26.8050	518.71
26.8194	530.69
26.8339	534.58
26.8483	498.61
26.8628	505.33
26.8772	513.65
26.8917	525.01
26.9061	541.66
26.9205	528.58
26.9350	550.57
26.9494	549.24
26.9639	517.95
26.9783	522.53
26.9927	495.94
27.0072	488.87
27.0216	507.87
27.0361	511.53
27.0505	569.61
27.0649	557.21
27.0794	517.76
27.0938	538.61
27.1083	492.96
27.1227	523.04
27.1371	531.54
27.1516	513.28
27.1660	533.24
27.1805	503.67
27.1949	510.03
27.2093	509.56
27.2238	535.07
27.2382	552.89
27.2527	517.72
27.2671	467.35
27.2815	515.88
27.2960	537.07
27.3104	513.87
27.3249	506.78
27.3393	537.64
27.3537	525.87
27.3682	494.59
27.3826	470.09
27.3971	521.43
27.4115	506.36
27.4259	532.34
27.4404	540.74
27.4548	525.08
27.4693	500.66
27.4837	523.26
27.4981	526.94
27.5126	521.34
27.5270	523.70
27.5415	521.18
27.5559	517.16
27.5703	526.48
27.5848	496.09
27.5992	538.38
27.6137	516.19
27.6281	512.81
27.6425	544.91
27.6570	561.00
27.6714	526.45
27.6859	533.38
27.7003	594.12
27.7147	573.97
27.7292	554.31
27.7436	537.61
27.7581	534.95
27.7725	529.12
27.7869	530.73
27.8014	524.94
27.8158	530.29
27.8303	546.19
27.8447	523.38
27.8591	517.08
27.8736	547.60
27.8880	516.66
27.9025	533.17
27.9169	513.13
27.9313	507.41
27.9458	531.47
27.9602	489.52
27.9747	490.59
27.9891	515.33
28.0035	517.68
28.0180	541.26
28.0324	531.18
28.0469	534.08
28.0613	531.45
28.0757	518.22
28.0902	516.29
28.1046	488.74
28.1191	534.05
28.1335	514.79
28.1479	510.01
28.1624	505.44
28.1768	544.92
28.1913	516.70
28.2057	509.80
28.2201	519.80
28.2346	500.94
28.2490	484.75
28.2635	471.89
28.2779	524.84
28.2923	499.68
28.3068	487.89
28.3212	490.38
28.3357	504.16
28.3501	529.81
28.3645	500.30
28.3790	509.08
28.3934	511.99
28.4079	528.81
28.4223	531.41
28.4367	528.44
28.4512	523.43
28.4656	521.01
28.4801	499.88
28.4945	509.74
28.5089	524.72
28.5234	511.35
28.5378	523.46
28.5523	546.71
28.5667	498.76
28.5811	496.07
28.5956	510.85
28.6100	524.08
28.6245	492.68
28.6389	510.10
28.6533	519.29
28.6678	517.10
28.6822	524.66
28.6967	496.10
28.7111	508.23
28.7255	499.01
28.7400	499.37
28.7544	528.75
28.7689	539.08
28.7833	527.55
28.7977	542.54
28.8122	523.43
28.8266	501.53
28.8411	502.79
28.8555	541.21
28.8699	529.72
28.8844	520.71
28.8988	515.86
28.9133	518.53
28.9277	519.03
28.9421	515.99
28.9566	506.02
28.9710	518.08
28.9855	478.16
28.9999	501.97
29.0143	522.30
29.0288	502.72
29.0432	515.14
29.0577	519.38
29.0721	542.39
29.0865	533.65
29.1010	519.02
29.1154	529.35
29.1299	528.36
29.1443	481.46
29.1587	492.55
29.1732	528.70
29.1876	500.22
29.2021	476.85
29.2165	495.02
29.2309	490.25
29.2454	480.44
29.2598	495.01
29.2743	501.48
29.2887	501.46
29.3031	515.87
29.3176	530.96
29.3320	504.09
29.3465	518.90
29.3609	501.27
29.3753	488.85
29.3898	483.11
29.4042	488.75
29.4187	517.40
29.4331	546.66
29.4475	503.30
29.4620	542.90
29.4764	526.94
29.4909	492.44
29.5053	511.93
29.5197	526.13
29.5342	531.99
29.5486	540.69
29.5631	520.36
29.5775	498.67
29.5919	517.04
29.6064	501.13
29.6208	488.83
29.6353	495.94
29.6497	502.36
29.6641	523.38
29.6786	515.78
29.6930	479.38
29.7075	518.29
29.7219	531.05
29.7363	521.46
29.7508	522.24
29.7652	517.44
29.7797	528.85
29.7941	535.39
29.8085	517.36
29.8230	477.46
29.8374	539.99
29.8519	502.91
29.8663	496.69
29.8807	544.32
29.8952	511.11
29.9096	523.74
29.9241	484.59
29.9385	492.88
29.9529	483.91
29.9674	462.31
29.9818	486.78
29.9963	516.49
30.0107	509.86
30.0251	525.85
30.0396	473.46
30.0540	482.23
30.0685	519.55
30.0829	471.38
30.0973	498.51
30.1118	511.16
30.1262	499.84
30.1407	523.47
30.1551	466.10
30.1695	489.65
30.1840	503.35
30.1984	511.37
30.2129	523.38
30.2273	502.57
30.2417	528.71
30.2562	507.51
30.2706	501.24
30.2851	537.65
30.2995	512.76
30.3139	533.28
30.3284	543.08
30.3428	523.65
30.3573	523.12
30.3717	509.01
30.3861	486.08
30.4006	507.51
30.4150	509.65
30.4295	529.23
30.4439	525.42
30.4583	518.08
30.4728	526.89
30.4872	531.06
30.5017	536.57
30.5161	546.84
30.5305	579.16
30.5450	536.77
30.5594	541.10
30.5739	539.00
30.5883	597.02
30.6028	594.63
30.6172	618.61
30.6316	666.02
30.6461	711.29
30.6605	706.47
30.6750	707.07
30.6894	705.62
30.7038	760.45
30.7183	757.86
30.7327	719.61
30.7472	694.86
30.7616	680.79
30.7760	700.42
30.7905	653.77
30.8049	609.16
30.8194	637.65
30.8338	605.49
30.8482	563.24
30.8627	582.48
30.8771	559.13
30.8916	545.37
30.9060	542.75
30.9204	508.41
30.9349	511.20
30.9493	520.54
30.9638	513.87
30.9782	512.81
30.9926	530.34
31.0071	540.09
31.0215	565.47
31.0360	565.87
31.0504	526.60
31.0648	525.00
31.0793	528.42
31.0937	573.56
31.1082	522.31
31.1226	512.10
31.1370	551.66
31.1515	487.58
31.1659	535.96
31.1804	548.67
31.1948	514.89
31.2092	505.90
31.2237	499.38
31.2381	526.26
31.2526	547.97
31.2670	531.08
31.2814	531.80
31.2959	497.43
31.3103	560.17
31.3248	560.91
31.3392	499.29
31.3536	543.37
31.3681	556.63
31.3825	526.95
31.3970	544.16
31.4114	515.80
31.4258	523.12
31.4403	522.80
31.4547	480.50
31.4692	472.59
31.4836	515.64
31.4980	543.05
31.5125	522.50
31.5269	526.49
31.5414	504.37
31.5558	511.99
31.5702	503.86
31.5847	492.65
31.5991	520.02
31.6136	536.52
31.6280	534.94
31.6424	523.45
31.6569	551.48
31.6713	523.32
31.6858	507.45
31.7002	509.03
31.7146	485.55
31.7291	508.30
31.7435	493.63
31.7580	484.98
31.7724	510.47
31.7868	512.44
31.8013	517.49
31.8157	517.73
31.8302	520.89
31.8446	535.95
31.8590	486.32
31.8735	529.44
31.8879	546.19
31.9024	496.07
31.9168	498.96
31.9312	488.54
31.9457	529.36
31.9601	507.34
31.9746	475.21
31.9890	507.80
32.0034	541.06
32.0179	497.82
32.0323	516.15
32.0468	503.43
32.0612	496.77
32.0756	518.70
32.0901	526.32
32.1045	460.74
32.1190	508.13
32.1334	495.84
32.1478	519.66
32.1623	511.51
32.1767	492.14
32.1912	478.30
32.2056	492.94
32.2200	500.35
32.2345	505.54
32.2489	483.17
32.2634	537.84
32.2778	535.92
32.2922	498.05
32.3067	508.18
32.3211	500.20
32.3356	528.33
32.3500	501.10
32.3644	493.68
32.3789	481.47
32.3933	495.45
32.4078	516.72
32.4222	515.96
32.4366	506.70
32.4511	509.58
32.4655	504.49
32.4800	497.17
32.4944	484.07
32.5088	478.62
32.5233	503.85
32.5377	509.98
32.5522	496.42
32.5666	489.43
32.5810	483.50
32.5955	480.31
32.6099	476.77
32.6244	502.49
32.6388	474.41
32.6532	515.74
32.6677	517.09
32.6821	500.32
32.6966	476.94
32.7110	507.07
32.7254	537.84
32.7399	513.21
32.7543	493.17
32.7688	503.48
32.7832	528.04
32.7976	544.24
32.8121	532.71
32.8265	522.39
32.8410	498.30
32.8554	517.93
32.8698	534.76
32.8843	490.45
32.8987	514.40
32.9132	473.26
32.9276	494.72
32.9420	520.03
32.9565	485.56
32.9709	481.83
32.9854	460.39
32.9998	477.58
33.0142	499.02
33.0287	516.39
33.0431	502.27
33.0576	515.31
33.0720	504.31
33.0864	493.66
33.1009	529.80
33.1153	545.87
33.1298	530.97
33.1442	486.13
33.1586	484.68
33.1731	495.41
33.1875	470.04
33.2020	488.88
33.2164	502.98
33.2308	494.11
33.2453	516.69
33.2597	521.60
33.2742	490.85
33.2886	507.19
33.3030	511.85
33.3175	499.23
33.3319	496.14
33.3464	502.19
33.3608	505.73
33.3752	474.40
33.3897	492.00
33.4041	500.29
33.4186	473.07
33.4330	487.61
33.4474	475.85
33.4619	501.42
33.4763	542.64
33.4908	542.75
33.5052	475.15
33.5196	473.99
33.5341	486.25
33.5485	505.10
33.5630	539.85
33.5774	505.55
33.5918	495.47
33.6063	508.19
33.6207	553.67
33.6352	567.76
33.6496	531.35
33.6640	509.45
33.6785	505.01
33.6929	504.20
33.7074	561.93
33.7218	530.51
33.7362	510.31
33.7507	581.37
33.7651	506.91
33.7796	488.01
33.7940	490.20
33.8084	511.14
33.8229	491.29
33.8373	506.52
33.8518	493.63
33.8662	521.26
33.8806	496.27
33.8951	497.52
33.9095	501.29
33.9240	489.26
33.9384	514.15
33.9528	556.74
33.9673	521.09
33.9817	517.84
33.9962	513.95
34.0106	510.89
34.0250	512.33
34.0395	518.65
34.0539	503.67
34.0684	485.97
34.0828	490.17
34.0972	492.17
34.1117	498.72
34.1261	497.04
34.1406	524.80
34.1550	505.26
34.1694	503.83
34.1839	503.91
34.1983	516.10
34.2128	512.49
34.2272	480.08
34.2417	496.04
34.2561	483.69
34.2705	502.18
34.2850	464.31
34.2994	504.22
34.3139	505.46
34.3283	492.83
34.3427	499.12
34.3572	514.28
34.3716	521.56
34.3861	513.88
34.4005	478.39
34.4149	479.34
34.4294	477.63
34.4438	488.03
34.4583	498.51
34.4727	514.21
34.4871	510.93
34.5016	477.79
34.5160	489.06
34.5305	519.80
34.5449	527.91
34.5593	555.21
34.5738	549.75
34.5882	530.39
34.6027	492.55
34.6171	462.01
34.6315	487.58
34.6460	503.81
34.6604	486.29
34.6749	504.19
34.6893	483.89
34.7037	519.25
34.7182	512.65
34.7326	493.22
34.7471	534.24
34.7615	528.61
34.7759	512.88
34.7904	503.28
34.8048	533.10
34.8193	506.23
34.8337	488.14
34.8481	516.27
34.8626	527.50
34.8770	525.78
34.8915	556.19
34.9059	516.79
34.9203	515.52
34.9348	525.77
34.9492	506.44
34.9637	513.11
34.9781	468.01
34.9925	503.94
35.0070	502.52
35.0214	518.01
35.0359	534.54
35.0503	531.50
35.0647	537.92
35.0792	534.91
35.0936	521.74
35.1081	513.68
35.1225	520.16
35.1369	517.98
35.1514	520.74
35.1658	515.12
35.1803	504.98
35.1947	493.75
35.2091	479.12
35.2236	495.63
35.2380	509.40
35.2525	506.44
35.2669	520.74
35.2813	515.26
35.2958	542.53
35.3102	512.45
35.3247	507.49
35.3391	514.40
35.3535	533.44
35.3680	509.30
35.3824	522.88
35.3969	485.99
35.4113	499.70
35.4257	557.37
35.4402	510.94
35.4546	498.39
35.4691	515.85
35.4835	501.08
35.4979	517.62
35.5124	564.76
35.5268	535.50
35.5413	487.27
35.5557	520.96
35.5701	501.39
35.5846	514.20
35.5990	524.30
35.6135	498.53
35.6279	507.60
35.6423	504.83
35.6568	536.93
35.6712	527.96
35.6857	577.99
35.7001	656.38
35.7145	702.80
35.7290	684.19
35.7434	589.74
35.7579	575.31
35.7723	576.58
35.7867	593.81
35.8012	618.96
35.8156	648.53
35.8301	657.62
35.8445	630.14
35.8589	643.00
35.8734	715.20
35.8878	877.31
35.9023	1054.52
35.9167	1131.02
35.9311	1402.36
35.9456	2015.90
35.9600	2360.15
35.9745	1896.80
35.9889	1920.85
36.0033	2261.56
36.0178	2343.29
36.0322	2063.78
36.0467	1968.81
36.0611	1857.61
36.0755	1818.90
36.0900	1733.25
36.1044	1670.47
36.1189	1834.41
36.1333	1719.06
36.1477	1536.64
36.1622	1493.07
36.1766	1429.21
36.1911	1220.99
36.2055	1114.43
36.2199	1041.88
36.2344	956.41
36.2488	897.37
36.2633	801.74
36.2777	802.10
36.2921	733.77
36.3066	690.54
36.3210	676.76
36.3355	647.15
36.3499	628.84
36.3643	623.09
36.3788	580.72
36.3932	560.28
36.4077	548.11
36.4221	587.10
36.4365	563.16
36.4510	552.15
36.4654	507.23
36.4799	559.19
36.4943	520.58
36.5087	524.74
36.5232	523.93
36.5376	523.14
36.5521	535.63
36.5665	520.60
36.5809	524.22
36.5954	536.85
36.6098	521.26
36.6243	529.34
36.6387	532.93
36.6531	520.59
36.6676	517.81
36.6820	528.21
36.6965	538.95
36.7109	516.26
36.7253	515.32
36.7398	513.03
36.7542	582.82
36.7687	551.87
36.7831	547.64
36.7975	575.45
36.8120	584.59
36.8264	611.55
36.8409	576.22
36.8553	522.41
36.8697	586.93
36.8842	604.89
36.8986	584.45
36.9131	587.37
36.9275	537.76
36.9419	608.32
36.9564	583.56
36.9708	586.19
36.9853	557.74
36.9997	518.70
37.0141	553.49
37.0286	541.08
37.0430	548.19
37.0575	524.78
37.0719	511.58
37.0863	506.07
37.1008	512.87
37.1152	498.68
37.1297	511.93
37.1441	490.59
37.1585	501.12
37.1730	479.14
37.1874	529.29
37.2019	536.34
37.2163	522.25
37.2307	468.34
37.2452	496.51
37.2596	500.42
37.2741	506.95
37.2885	503.15
37.3029	520.57
37.3174	507.68
37.3318	497.28
37.3463	527.25
37.3607	499.85
37.3751	501.51
37.3896	531.08
37.4040	522.12
37.4185	508.82
37.4329	526.88
37.4473	507.99
37.4618	495.80
37.4762	493.51
37.4907	508.95
37.5051	519.05
37.5195	520.22
37.5340	500.70
37.5484	511.86
37.5629	528.61
37.5773	487.00
37.5917	520.30
37.6062	513.73
37.6206	466.67
37.6351	506.12
37.6495	510.75
37.6639	517.95
37.6784	501.15
37.6928	512.34
37.7073	511.36
37.7217	503.68
37.7361	518.32
37.7506	480.93
37.7650	476.45
37.7795	494.15
37.7939	525.36
37.8083	521.89
37.8228	522.70
37.8372	514.51
37.8517	505.98
37.8661	520.94
37.8805	508.67
37.8950	537.85
37.9094	500.75
37.9239	491.50
37.9383	512.74
37.9528	513.17
37.9672	499.20
37.9816	484.32
37.9961	491.09
38.0105	466.97
38.0250	491.08
38.0394	506.73
38.0538	513.64
38.0683	527.99
38.0827	510.10
38.0972	547.33
38.1116	509.95
38.1260	486.76
38.1405	497.67
38.1549	488.88
38.1694	512.86
38.1838	495.59
38.1982	461.35
38.2127	492.69
38.2271	496.01
38.2416	519.26
38.2560	516.93
38.2704	505.46
38.2849	514.67
38.2993	491.61
38.3138	484.76
38.3282	519.38
38.3426	523.01
38.3571	496.63
38.3715	528.98
38.3860	494.94
38.4004	506.35
38.4148	534.52
38.4293	594.16
38.4437	606.67
38.4582	651.45
38.4726	685.44
38.4870	680.54
38.5015	724.83
38.5159	777.11
38.5304	813.98
38.5448	811.45
38.5592	772.40
38.5737	754.58
38.5881	746.63
38.6026	745.46
38.6170	712.79
38.6314	687.75
38.6459	649.91
38.6603	638.35
38.6748	605.74
38.6892	591.06
38.7036	598.87
38.7181	558.90
38.7325	552.73
38.7470	510.13
38.7614	500.93
38.7758	503.76
38.7903	513.11
38.8047	518.99
38.8192	531.70
38.8336	482.82
38.8480	478.15
38.8625	524.93
38.8769	535.61
38.8914	512.22
38.9058	501.56
38.9202	506.37
38.9347	506.33
38.9491	501.85
38.9636	515.60
38.9780	509.47
38.9924	505.97
39.0069	523.01
39.0213	516.83
39.0358	483.56
39.0502	487.17
39.0646	509.20
39.0791	502.38
39.0935	507.71
39.1080	488.02
39.1224	532.86
39.1368	503.28
39.1513	467.47
39.1657	481.96
39.1802	481.41
39.1946	484.12
39.2090	487.05
39.2235	491.92
39.2379	484.15
39.2524	488.30
39.2668	523.99
39.2812	559.88
39.2957	532.96
39.3101	533.90
39.3246	526.81
39.3390	517.20
39.3534	549.25
39.3679	513.27
39.3823	507.11
39.3968	489.35
39.4112	482.20
39.4256	499.76
39.4401	503.32
39.4545	494.12
39.4690	505.41
39.4834	511.91
39.4978	500.54
39.5123	565.37
39.5267	523.51
39.5412	502.58
39.5556	509.49
39.5700	526.79
39.5845	534.28
39.5989	502.46
39.6134	487.36
39.6278	497.61
39.6422	482.55
39.6567	521.52
39.6711	516.95
39.6856	512.13
39.7000	538.23
39.7144	512.29
39.7289	496.64
39.7433	501.21
39.7578	501.24
39.7722	509.29
39.7866	502.00
39.8011	489.75
39.8155	469.02
39.8300	523.82
39.8444	466.58
39.8588	504.49
39.8733	518.30
39.8877	503.06
39.9022	488.05
39.9166	482.40
39.9310	504.32
39.9455	489.37
39.9599	474.96
39.9744	473.64
39.9888	489.03
40.0032	497.16
40.0177	538.61
40.0321	538.90
40.0466	488.26
40.0610	502.72
40.0754	482.58
40.0899	513.52
40.1043	459.57
40.1188	509.54
40.1332	466.96
40.1476	427.00
40.1621	505.17
40.1765	533.57
40.1910	466.38
40.2054	463.11
40.2198	495.23
40.2343	474.23
40.2487	497.27
40.2632	520.58
40.2776	495.68
40.2920	482.32
40.3065	504.38
40.3209	505.24
40.3354	528.19
40.3498	500.23
40.3642	535.13
40.3787	473.98
40.3931	497.22
40.4076	479.80
40.4220	482.54
40.4364	489.37
40.4509	471.20
40.4653	512.98
40.4798	513.87
40.4942	504.36
40.5086	507.14
40.5231	508.33
40.5375	530.57
40.5520	502.72
40.5664	512.94
40.5808	520.69
40.5953	495.57
40.6097	473.41
40.6242	541.50
40.6386	535.47
40.6530	521.61
40.6675	479.98
40.6819	472.28
40.6964	492.89
40.7108	500.79
40.7252	451.53
40.7397	494.62
40.7541	511.27
40.7686	466.61
40.7830	469.50
40.7974	497.33
40.8119	505.28
40.8263	493.12
40.8408	489.31
40.8552	516.61
40.8696	512.23
40.8841	479.16
40.8985	493.78
40.9130	500.73
40.9274	540.21
40.9418	492.18
40.9563	479.34
40.9707	481.30
40.9852	509.79
40.9996	521.47
41.0140	522.72
41.0285	519.31
41.0429	498.71
41.0574	536.59
41.0718	498.14
41.0862	473.84
41.1007	484.09
41.1151	516.61
41.1296	565.33
41.1440	521.72
41.1584	490.21
41.1729	482.96
41.1873	496.93
41.2018	489.04
41.2162	503.31
41.2306	486.21
41.2451	506.13
41.2595	503.62
41.2740	480.38
41.2884	495.67
41.3028	494.79
41.3173	509.14
41.3317	496.52
41.3462	481.75
41.3606	495.40
41.3750	509.46
41.3895	538.82
41.4039	511.38
41.4184	504.97
41.4328	549.15
41.4472	532.46
41.4617	522.93
41.4761	527.23
41.4906	508.82
41.5050	510.13
41.5194	512.29
41.5339	516.20
41.5483	491.92
41.5628	492.43
41.5772	497.50
41.5916	509.82
41.6061	502.81
41.6205	508.60
41.6350	521.65
41.6494	504.57
41.6639	499.59
41.6783	471.02
41.6927	490.46
41.7072	509.17
41.7216	491.42
41.7361	489.79
41.7505	475.31
41.7649	502.42
41.7794	472.63
41.7938	505.87
41.8083	512.29
41.8227	524.59
41.8371	525.86
41.8516	540.64
41.8660	524.37
41.8805	553.93
41.8949	553.73
41.9093	602.70
41.9238	598.09
41.9382	583.58
41.9527	574.86
41.9671	576.40
41.9815	523.10
41.9960	570.88
42.0104	588.44
42.0249	556.99
42.0393	551.65
42.0537	589.48
42.0682	577.56
42.0826	599.70
42.0971	581.83
42.1115	593.62
42.1259	618.52
42.1404	598.54
42.1548	614.13
42.1693	663.36
42.1837	705.01
42.1981	767.27
42.2126	819.17
42.2270	886.84
42.2415	994.82
42.2559	1169.27
42.2703	1311.50
42.2848	1501.91
42.2992	1625.09
42.3137	1630.38
42.3281	1633.92
42.3425	1575.88
42.3570	1453.49
42.3714	1380.08
42.3859	1349.56
42.4003	1313.03
42.4147	1332.34
42.4292	1314.86
42.4436	1126.20
42.4581	1006.07
42.4725	934.48
42.4869	848.47
42.5014	778.13
42.5158	740.36
42.5303	691.29
42.5447	647.27
42.5591	597.30
42.5736	613.68
42.5880	588.11
42.6025	525.29
42.6169	543.68
42.6313	552.04
42.6458	576.95
42.6602	539.50
42.6747	508.20
42.6891	531.57
42.7035	584.69
42.7180	548.76
42.7324	525.58
42.7469	522.99
42.7613	514.05
42.7757	506.25
42.7902	537.81
42.8046	549.67
42.8191	516.27
42.8335	511.22
42.8479	519.14
42.8624	535.62
42.8768	514.53
42.8913	533.43
42.9057	539.05
42.9201	534.04
42.9346	505.94
42.9490	514.69
42.9635	500.03
42.9779	515.77
42.9923	523.28
43.0068	483.13
43.0212	512.59
43.0357	522.72
43.0501	503.32
43.0645	546.25
43.0790	536.33
43.0934	513.39
43.1079	521.92
43.1223	537.31
43.1367	523.46
43.1512	522.24
43.1656	541.82
43.1801	498.77
43.1945	531.46
43.2089	529.87
43.2234	524.49
43.2378	541.90
43.2523	540.26
43.2667	534.44
43.2811	517.94
43.2956	499.58
43.3100	506.11
43.3245	509.31
43.3389	524.24
43.3533	507.06
43.3678	484.86
43.3822	523.73
43.3967	535.14
43.4111	533.24
43.4255	572.50
43.4400	540.67
43.4544	524.40
43.4689	537.35
43.4833	551.57
43.4977	528.19
43.5122	536.60
43.5266	507.72
43.5411	518.63
43.5555	510.91
43.5699	514.95
43.5844	515.10
43.5988	508.50
43.6133	540.89
43.6277	538.22
43.6421	506.97
43.6566	518.71
43.6710	518.06
43.6855	525.38
43.6999	541.37
43.7143	531.05
43.7288	515.12
43.7432	516.91
43.7577	508.45
43.7721	501.21
43.7865	532.20
43.8010	556.00
43.8154	530.64
43.8299	544.93
43.8443	557.95
43.8587	568.72
43.8732	622.82
43.8876	617.84
43.9021	607.45
43.9165	613.40
43.9309	649.85
43.9454	644.14
43.9598	612.96
43.9743	617.61
43.9887	602.12
44.0031	592.21
44.0176	602.32
44.0320	616.10
44.0465	609.11
44.0609	621.34
44.0753	611.62
44.0898	614.00
44.1042	561.43
44.1187	541.29
44.1331	527.94
44.1475	505.48
44.1620	523.26
44.1764	506.15
44.1909	527.67
44.2053	525.20
44.2197	526.75
44.2342	520.39
44.2486	545.46
44.2631	539.94
44.2775	537.65
44.2919	537.79
44.3064	528.81
44.3208	502.39
44.3353	550.82
44.3497	538.14
44.3641	552.77
44.3786	587.17
44.3930	558.95
44.4075	576.46
44.4219	591.04
44.4363	592.50
44.4508	602.45
44.4652	586.62
44.4797	588.41
44.4941	586.12
44.5085	542.54
44.5230	593.38
44.5374	608.24
44.5519	588.75
44.5663	611.90
44.5807	615.46
44.5952	627.27
44.6096	578.80
44.6241	543.46
44.6385	591.65
44.6529	588.80
44.6674	567.37
44.6818	580.43
44.6963	608.47
44.7107	692.35
44.7251	701.91
44.7396	774.71
44.7540	783.32
44.7685	823.50
44.7829	916.09
44.7973	909.68
44.8118	901.94
44.8262	868.92
44.8407	801.78
44.8551	757.69
44.8695	706.92
44.8840	721.80
44.8984	763.71
44.9129	745.58
44.9273	725.79
44.9417	660.87
44.9562	596.68
44.9706	569.92
44.9851	551.93
44.9995	542.25
45.0139	546.32
45.0284	577.40
45.0428	523.83
45.0573	502.57
45.0717	532.95
45.0861	542.60
45.1006	523.03
45.1150	526.16
45.1295	566.28
45.1439	518.01
45.1583	503.40
45.1728	530.41
45.1872	503.35
45.2017	487.64
45.2161	502.86
45.2305	520.07
45.2450	533.53
45.2594	525.53
45.2739	492.48
45.2883	512.50
45.3028	479.63
45.3172	523.98
45.3316	506.73
45.3461	511.03
45.3605	536.29
45.3750	510.26
45.3894	479.37
45.4038	496.74
45.4183	504.90
45.4327	529.99
45.4472	490.91
45.4616	516.42
45.4760	515.33
45.4905	507.76
45.5049	522.24
45.5194	503.74
45.5338	483.43
45.5482	485.68
45.5627	521.19
45.5771	474.51
45.5916	478.09
45.6060	517.90
45.6204	503.30
45.6349	499.03
45.6493	508.52
45.6638	508.42
45.6782	520.94
45.6926	504.16
45.7071	491.10
45.7215	495.53
45.7360	504.52
45.7504	540.93
45.7648	497.35
45.7793	528.82
45.7937	515.49
45.8082	533.30
45.8226	490.28
45.8370	508.02
45.8515	533.28
45.8659	486.46
45.8804	514.99
45.8948	490.74
45.9092	527.43
45.9237	493.74
45.9381	464.11
45.9526	475.98
45.9670	471.00
45.9814	468.32
45.9959	525.69
46.0103	487.99
46.0248	499.32
46.0392	486.02
46.0536	513.60
46.0681	513.18
46.0825	458.95
46.0970	493.74
46.1114	506.56
46.1258	491.07
46.1403	489.24
46.1547	452.39
46.1692	458.46
46.1836	503.74
46.1980	515.30
46.2125	506.81
46.2269	517.29
46.2414	492.30
46.2558	484.05
46.2702	504.34
46.2847	501.92
46.2991	493.72
46.3136	511.66
46.3280	473.75
46.3424	501.41
46.3569	535.78
46.3713	527.14
46.3858	509.08
46.4002	503.41
46.4146	487.33
46.4291	518.06
46.4435	487.15
46.4580	502.16
46.4724	499.37
46.4868	487.17
46.5013	492.36
46.5157	480.23
46.5302	487.21
46.5446	516.48
46.5590	530.66
46.5735	494.93
46.5879	488.66
46.6024	493.48
46.6168	501.64
46.6312	487.16
46.6457	503.27
46.6601	499.34
46.6746	475.61
46.6890	456.71
46.7034	488.60
46.7179	484.13
46.7323	502.17
46.7468	502.42
46.7612	488.98
46.7756	489.76
46.7901	484.58
46.8045	516.13
46.8190	533.44
46.8334	522.57
46.8478	511.36
46.8623	526.44
46.8767	500.06
46.8912	510.31
46.9056	508.47
46.9200	532.06
46.9345	517.06
46.9489	472.51
46.9634	476.98
46.9778	483.94
46.9922	504.87
47.0067	488.31
47.0211	502.64
47.0356	549.37
47.0500	511.45
47.0644	514.64
47.0789	512.87
47.0933	526.31
47.1078	515.19
47.1222	530.68
47.1366	551.48
47.1511	509.95
47.1655	510.75
47.1800	518.40
47.1944	492.36
47.2088	483.05
47.2233	487.18
47.2377	503.32
47.2522	519.82
47.2666	523.17
47.2810	529.97
47.2955	484.41
47.3099	476.80
47.3244	539.46
47.3388	522.48
47.3532	544.08
47.3677	475.11
47.3821	486.71
47.3966	486.86
47.4110	506.88
47.4254	554.08
47.4399	503.30
47.4543	507.15
47.4688	505.83
47.4832	523.19
47.4976	541.31
47.5121	503.33
47.5265	490.51
47.5410	499.33
47.5554	489.74
47.5698	513.99
47.5843	474.21
47.5987	488.53
47.6132	505.57
47.6276	521.07
47.6420	522.92
47.6565	478.27
47.6709	505.26
47.6854	530.23
47.6998	520.22
47.7142	494.25
47.7287	481.62
47.7431	491.65
47.7576	468.09
47.7720	492.24
47.7864	526.58
47.8009	496.48
47.8153	528.93
47.8298	497.84
47.8442	504.30
47.8586	510.22
47.8731	546.72
47.8875	489.38
47.9020	457.23
47.9164	489.96
47.9308	562.72
47.9453	526.82
47.9597	484.66
47.9742	497.52
47.9886	529.09
48.0030	493.17
48.0175	493.72
48.0319	464.28
48.0464	509.97
48.0608	504.15
48.0752	493.17
48.0897	514.68
48.1041	493.54
48.1186	538.81
48.1330	531.29
48.1474	506.33
48.1619	495.11
48.1763	513.50
48.1908	509.58
48.2052	499.77
48.2196	501.56
48.2341	514.64
48.2485	544.29
48.2630	518.55
48.2774	529.89
48.2918	499.49
48.3063	538.51
48.3207	513.81
48.3352	520.39
48.3496	541.11
48.3640	530.91
48.3785	476.91
48.3929	477.06
48.4074	536.72
48.4218	530.31
48.4362	511.06
48.4507	518.66
48.4651	524.90
48.4796	502.35
48.4940	537.81
48.5084	522.16
48.5229	507.51
48.5373	545.26
48.5518	510.43
48.5662	557.33
48.5806	517.14
48.5951	525.97
48.6095	508.17
48.6240	483.67
48.6384	528.67
48.6528	509.15
48.6673	489.37
48.6817	519.54
48.6962	524.28
48.7106	520.06
48.7250	529.93
48.7395	513.37
48.7539	515.16
48.7684	481.28
48.7828	552.49
48.7972	547.19
48.8117	537.53
48.8261	567.71
48.8406	545.85
48.8550	578.01
48.8694	576.61
48.8839	548.24
48.8983	566.82
48.9128	522.68
48.9272	544.04
48.9416	543.65
48.9561	509.55
48.9705	527.83
48.9850	551.92
48.9994	593.99
49.0139	617.01
49.0283	625.74
49.0427	609.54
49.0572	583.36
49.0716	666.69
49.0861	655.31
49.1005	704.13
49.1149	679.16
49.1294	738.28
49.1438	728.41
49.1583	765.80
49.1727	822.66
49.1871	874.65
49.2016	929.51
49.2160	959.25
49.2305	1088.84
49.2449	1182.91
49.2593	1226.81
49.2738	1257.25
49.2882	1366.79
49.3027	1457.39
49.3171	1612.26
49.3315	1647.27
49.3460	1670.16
49.3604	1716.30
49.3749	1760.99
49.3893	1740.96
49.4037	1688.42
49.4182	1751.42
49.4326	1728.47
49.4471	1594.52
49.4615	1558.79
49.4759	1529.62
49.4904	1503.78
49.5048	1385.27
49.5193	1319.77
49.5337	1276.17
49.5481	1232.93
49.5626	1134.11
49.5770	1056.70
49.5915	1001.38
49.6059	925.10
49.6203	873.52
49.6348	835.29
49.6492	796.38
49.6637	758.05
49.6781	709.48
49.6925	695.21
49.7070	726.73
49.7214	695.07
49.7359	616.76
49.7503	611.42
49.7647	606.71
49.7792	647.30
49.7936	605.52
49.8081	599.85
49.8225	584.06
49.8369	560.11
49.8514	598.44
49.8658	584.25
49.8803	570.08
49.8947	570.05
49.9091	550.05
49.9236	536.94
49.9380	557.76
49.9525	539.74
49.9669	547.61
49.9813	535.43
49.9958	534.05
50.0102	544.28
50.0247	540.49
50.0391	555.37
50.0535	530.59
50.0680	532.32
50.0824	548.22
50.0969	532.11
50.1113	490.88
50.1257	523.59
50.1402	501.35
50.1546	522.20
50.1691	510.36
50.1835	538.46
50.1979	533.12
50.2124	500.18
50.2268	505.51
50.2413	502.48
50.2557	513.74
50.2701	533.75
50.2846	516.59
50.2990	522.17
50.3135	512.91
50.3279	538.75
50.3423	525.32
50.3568	512.05
50.3712	519.39
50.3857	566.19
50.4001	524.16
50.4145	505.39
50.4290	491.12
50.4434	509.23
50.4579	551.89
50.4723	542.88
50.4867	509.47
50.5012	511.49
50.5156	494.99
50.5301	480.53
50.5445	527.66
50.5589	539.04
50.5734	510.13
50.5878	520.56
50.6023	536.51
50.6167	520.49
50.6311	480.23
50.6456	496.42
50.6600	490.76
50.6745	493.62
50.6889	489.35
50.7033	507.12
50.7178	508.98
50.7322	503.01
50.7467	497.82
50.7611	496.98
50.7755	513.42
50.7900	508.82
50.8044	498.70
50.8189	525.14
50.8333	547.77
50.8477	504.09
50.8622	474.81
50.8766	475.34
50.8911	493.93
50.9055	557.64
50.9199	502.25
50.9344	503.54
50.9488	496.16
50.9633	501.23
50.9777	517.53
50.9921	512.76
51.0066	492.03
51.0210	567.38
51.0355	527.10
51.0499	498.89
51.0643	509.58
51.0788	495.20
51.0932	493.34
51.1077	498.93
51.1221	483.42
51.1365	499.42
51.1510	489.16
51.1654	493.55
51.1799	483.34
51.1943	481.95
51.2087	509.96
51.2232	487.02
51.2376	506.55
51.2521	488.40
51.2665	489.88
51.2809	511.48
51.2954	494.94
51.3098	485.77
51.3243	492.15
51.3387	505.95
51.3531	503.45
51.3676	530.18
51.3820	502.23
51.3965	489.73
51.4109	497.64
51.4253	501.64
51.4398	514.48
51.4542	520.76
51.4687	526.73
51.4831	527.26
51.4975	506.59
51.5120	515.05
51.5264	525.73
51.5409	491.06
51.5553	496.70
51.5697	497.98
51.5842	548.50
51.5986	527.40
51.6131	487.39
51.6275	487.05
51.6419	483.76
51.6564	471.38
51.6708	505.64
51.6853	493.37
51.6997	515.19
51.7141	495.83
51.7286	504.27
51.7430	496.02
51.7575	499.96
51.7719	527.08
51.7863	505.69
51.8008	504.70
51.8152	535.26
51.8297	516.53
51.8441	526.07
51.8585	516.83
51.8730	516.03
51.8874	542.99
51.9019	526.28
51.9163	511.15
51.9307	489.91
51.9452	531.72
51.9596	476.91
51.9741	508.99
51.9885	518.32
52.0029	488.06
52.0174	467.72
52.0318	529.19
52.0463	539.84
52.0607	514.78
52.0751	526.29
52.0896	532.64
52.1040	490.74
52.1185	505.33
52.1329	500.04
52.1473	490.87
52.1618	536.11
52.1762	545.36
52.1907	522.15
52.2051	524.90
52.2195	541.68
52.2340	506.44
52.2484	491.55
52.2629	491.22
52.2773	499.39
52.2917	504.51
52.3062	534.55
52.3206	542.57
52.3351	533.53
52.3495	540.22
52.3639	506.36
52.3784	524.73
52.3928	480.73
52.4073	489.51
52.4217	506.92
52.4361	562.90
52.4506	497.81
52.4650	530.27
52.4795	523.31
52.4939	543.40
52.5083	508.09
52.5228	523.88
52.5372	526.65
52.5517	510.01
52.5661	510.81
52.5805	474.17
52.5950	505.24
52.6094	493.92
52.6239	521.48
52.6383	518.91
52.6527	510.27
52.6672	508.88
52.6816	528.06
52.6961	506.82
52.7105	565.58
52.7250	530.72
52.7394	463.68
52.7538	529.20
52.7683	536.90
52.7827	549.77
52.7972	514.14
52.8116	524.80
52.8260	530.17
52.8405	500.91
52.8549	512.75
52.8694	492.84
52.8838	509.41
52.8982	512.42
52.9127	518.70
52.9271	504.22
52.9416	551.85
52.9560	498.70
52.9704	523.29
52.9849	463.49
52.9993	502.42
53.0138	540.46
53.0282	506.17
53.0426	507.42
53.0571	544.14
53.0715	521.26
53.0860	537.62
53.1004	557.98
53.1148	532.89
53.1293	477.86
53.1437	482.25
53.1582	521.65
53.1726	530.83
53.1870	520.44
53.2015	507.44
53.2159	548.40
53.2304	513.73
53.2448	528.73
53.2592	521.33
53.2737	498.95
53.2881	485.95
53.3026	541.35
53.3170	498.11
53.3314	494.77
53.3459	498.03
53.3603	486.15
53.3748	503.56
53.3892	522.21
53.4036	517.21
53.4181	504.42
53.4325	524.61
53.4470	530.17
53.4614	504.17
53.4758	546.54
53.4903	511.22
53.5047	509.33
53.5192	496.79
53.5336	517.53
53.5480	508.64
53.5625	545.49
53.5769	513.08
53.5914	536.08
53.6058	537.70
53.6202	518.84
53.6347	524.76
53.6491	557.83
53.6636	562.61
53.6780	513.71
53.6924	482.24
53.7069	524.15
53.7213	540.77
53.7358	522.64
53.7502	505.77
53.7646	565.82
53.7791	537.71
53.7935	520.58
53.8080	534.78
53.8224	507.88
53.8368	537.43
53.8513	532.01
53.8657	515.63
53.8802	537.38
53.8946	547.29
53.9090	544.60
53.9235	517.31
53.9379	511.30
53.9524	520.57
53.9668	530.16
53.9812	527.22
53.9957	512.71
54.0101	503.36
54.0246	492.02
54.0390	487.18
54.0534	505.56
54.0679	538.92
54.0823	568.07
54.0968	544.99
54.1112	524.95
54.1256	520.56
54.1401	532.49
54.1545	526.68
54.1690	537.91
54.1834	518.41
54.1978	495.28
54.2123	539.23
54.2267	531.03
54.2412	526.63
54.2556	539.86
54.2700	552.08
54.2845	541.41
54.2989	543.49
54.3134	530.60
54.3278	553.69
54.3422	564.73
54.3567	547.89
54.3711	534.26
54.3856	534.94
54.4000	555.03
54.4144	604.04
54.4289	591.16
54.4433	575.90
54.4578	571.64
54.4722	631.56
54.4866	608.96
54.5011	547.46
54.5155	558.84
54.5300	593.58
54.5444	595.41
54.5588	590.58
54.5733	606.72
54.5877	612.22
54.6022	615.35
54.6166	569.25
54.6310	589.27
54.6455	564.47
54.6599	564.87
54.6744	575.64
54.6888	555.48
54.7032	573.76
54.7177	559.47
54.7321	520.47
54.7466	544.51
54.7610	528.97
54.7754	540.30
54.7899	576.15
54.8043	574.43
54.8188	549.72
54.8332	505.94
54.8476	483.90
54.8621	546.57
54.8765	554.58
54.8910	508.71
54.9054	493.36
54.9198	487.09
54.9343	525.30
54.9487	524.08
54.9632	495.83
54.9776	504.91
54.9920	557.16
55.0065	538.76
55.0209	516.76
55.0354	519.66
55.0498	539.66
55.0642	551.22
55.0787	558.96
55.0931	537.51
55.1076	522.18
55.1220	575.51
55.1364	516.62
55.1509	516.77
55.1653	515.15
55.1798	511.76
55.1942	524.08
55.2086	529.83
55.2231	509.78
55.2375	513.76
55.2520	539.21
55.2664	556.54
55.2808	534.32
55.2953	485.01
55.3097	540.47
55.3242	541.17
55.3386	545.89
55.3530	491.94
55.3675	513.08
55.3819	520.05
55.3964	513.30
55.4108	513.12
55.4252	524.48
55.4397	517.05
55.4541	496.92
55.4686	544.42
55.4830	547.86
55.4974	520.73
55.5119	495.29
55.5263	494.45
55.5408	547.91
55.5552	523.75
55.5696	507.49
55.5841	530.04
55.5985	526.03
55.6130	542.51
55.6274	553.43
55.6418	530.83
55.6563	538.64
55.6707	527.89
55.6852	538.48
55.6996	554.49
55.7140	495.67
55.7285	483.53
55.7429	510.56
55.7574	539.13
55.7718	516.86
55.7862	525.31
55.8007	537.42
55.8151	511.66
55.8296	531.80
55.8440	492.46
55.8584	536.98
55.8729	532.01
55.8873	494.67
55.9018	495.03
55.9162	544.89
55.9306	560.97
55.9451	536.86
55.9595	510.64
55.9740	492.41
55.9884	542.95
56.0028	516.98
56.0173	529.99
56.0317	517.45
56.0462	523.81
56.0606	524.08
56.0750	503.51
56.0895	513.81
56.1039	497.17
56.1184	507.31
56.1328	537.02
56.1472	501.53
56.1617	520.49
56.1761	512.17
56.1906	523.07
56.2050	500.66
56.2194	530.91
56.2339	515.91
56.2483	528.64
56.2628	520.34
56.2772	500.69
56.2916	519.42
56.3061	481.63
56.3205	504.78
56.3350	541.24
56.3494	524.99
56.3639	531.20
56.3783	508.45
56.3927	537.04
56.4072	542.29
56.4216	529.09
56.4361	525.76
56.4505	520.72
56.4649	540.18
56.4794	534.25
56.4938	542.94
56.5083	555.62
56.5227	550.76
56.5371	501.74
56.5516	535.61
56.5660	541.15
56.5805	531.01
56.5949	551.82
56.6093	504.18
56.6238	517.33
56.6382	498.41
56.6527	500.68
56.6671	523.09
56.6815	518.34
56.6960	549.28
56.7104	532.61
56.7249	477.34
56.7393	518.92
56.7537	552.08
56.7682	525.72
56.7826	545.87
56.7971	579.49
56.8115	553.16
56.8259	491.24
56.8404	516.29
56.8548	502.36
56.8693	545.72
56.8837	540.25
56.8981	546.54
56.9126	553.75
56.9270	521.56
56.9415	493.74
56.9559	518.47
56.9703	521.84
56.9848	520.08
56.9992	516.00
57.0137	537.04
57.0281	547.17
57.0425	533.06
57.0570	521.02
57.0714	526.29
57.0859	482.66
57.1003	517.60
57.1147	530.55
57.1292	503.56
57.1436	492.63
57.1581	508.22
57.1725	531.74
57.1869	495.46
57.2014	507.68
57.2158	506.58
57.2303	503.63
57.2447	513.26
57.2591	536.59
57.2736	506.12
57.2880	514.85
57.3025	513.99
57.3169	502.40
57.3313	542.78
57.3458	539.13
57.3602	527.64
57.3747	534.89
57.3891	542.16
57.4035	552.09
57.4180	512.90
57.4324	523.72
57.4469	534.51
57.4613	530.47
57.4757	509.52
57.4902	533.83
57.5046	527.31
57.5191	503.13
57.5335	550.97
57.5479	535.05
57.5624	545.47
57.5768	514.03
57.5913	520.67
57.6057	511.47
57.6201	527.71
57.6346	517.09
57.6490	539.92
57.6635	549.68
57.6779	523.47
57.6923	520.71
57.7068	565.57
57.7212	541.02
57.7357	521.28
57.7501	509.10
57.7645	527.47
57.7790	552.23
57.7934	547.68
57.8079	522.02
57.8223	548.57
57.8367	534.72
57.8512	535.86
57.8656	565.79
57.8801	545.14
57.8945	553.30
57.9089	538.54
57.9234	522.58
57.9378	585.14
57.9523	554.96
57.9667	564.79
57.9811	559.89
57.9956	570.68
58.0100	612.15
58.0245	605.83
58.0389	583.84
58.0533	603.16
58.0678	616.48
58.0822	687.07
58.0967	662.89
58.1111	676.72
58.1255	712.62
58.1400	679.84
58.1544	676.31
58.1689	668.20
58.1833	699.43
58.1977	666.58
58.2122	678.34
58.2266	664.09
58.2411	653.61
58.2555	683.42
58.2699	670.77
58.2844	681.50
58.2988	648.04
58.3133	650.28
58.3277	624.51
58.3421	601.40
58.3566	584.19
58.3710	573.64
58.3855	592.53
58.3999	577.70
58.4143	560.43
58.4288	547.84
58.4432	551.50
58.4577	562.03
58.4721	562.78
58.4865	575.70
58.5010	575.71
58.5154	570.98
58.5299	544.99
58.5443	537.21
58.5587	563.52
58.5732	543.33
58.5876	550.89
58.6021	544.34
58.6165	527.04
58.6309	555.10
58.6454	571.09
58.6598	519.54
58.6743	579.92
58.6887	545.98
58.7031	518.90
58.7176	556.96
58.7320	560.05
58.7465	536.52
58.7609	511.14
58.7753	523.94
58.7898	534.16
58.8042	539.72
58.8187	556.77
58.8331	528.37
58.8475	532.06
58.8620	559.25
58.8764	502.66
58.8909	523.68
58.9053	532.14
58.9197	527.83
58.9342	545.27
58.9486	570.26
58.9631	552.26
58.9775	547.99
58.9919	590.34
59.0064	554.46
59.0208	543.50
59.0353	541.98
59.0497	524.94
59.0641	581.13
59.0786	559.39
59.0930	534.15
59.1075	541.11
59.1219	553.94
59.1363	533.15
59.1508	536.45
59.1652	542.55
59.1797	528.52
59.1941	558.90
59.2085	527.23
59.2230	520.70
59.2374	559.56
59.2519	519.21
59.2663	547.29
59.2807	551.96
59.2952	524.54
59.3096	552.48
59.3241	558.94
59.3385	578.71
59.3529	564.52
59.3674	577.49
59.3818	547.53
59.3963	532.03
59.4107	514.33
59.4251	550.28
59.4396	566.68
59.4540	541.67
59.4685	558.14
59.4829	561.31
59.4973	551.86
59.5118	517.69
59.5262	545.44
59.5407	583.95
59.5551	571.02
59.5695	573.26
59.5840	526.70
59.5984	559.94
59.6129	566.24
59.6273	552.48
59.6417	545.53
59.6562	557.39
59.6706	540.26
59.6851	524.51
59.6995	536.62
59.7139	534.80
59.7284	518.26
59.7428	536.31
59.7573	539.76
59.7717	542.80
59.7861	542.21
59.8006	511.88
59.8150	543.44
59.8295	563.62
59.8439	552.68
59.8583	552.11
59.8728	552.53
59.8872	514.55
59.9017	547.27
59.9161	548.57
59.9305	513.82
59.9450	529.08
59.9594	542.65
59.9739	525.53
59.9883	543.73
60.0027	513.83
60.0172	521.37
60.0316	528.58
60.0461	570.08
60.0605	552.92
60.0750	544.16
60.0894	556.66
60.1038	560.92
60.1183	572.53
60.1327	575.40
60.1472	551.97
60.1616	560.66
60.1760	565.51
60.1905	525.87
60.2049	481.63
60.2194	557.62
60.2338	547.15
60.2482	519.37
60.2627	530.04
60.2771	523.74
60.2916	544.69
60.3060	513.73
60.3204	547.68
60.3349	537.24
60.3493	516.52
60.3638	524.91
60.3782	586.08
60.3926	559.05
60.4071	511.87
60.4215	550.70
60.4360	554.61
60.4504	517.42
60.4648	572.18
60.4793	564.10
60.4937	523.29
60.5082	535.27
60.5226	563.89
60.5370	529.55
60.5515	573.62
60.5659	556.65
60.5804	530.43
60.5948	538.92
60.6092	550.54
60.6237	551.50
60.6381	568.34
60.6526	562.51
60.6670	547.61
60.6814	571.03
60.6959	547.80
60.7103	566.22
60.7248	539.81
60.7392	527.10
60.7536	550.24
60.7681	546.18
60.7825	531.13
60.7970	522.33
60.8114	531.23
60.8258	537.88
60.8403	552.80
60.8547	501.03
60.8692	572.80
60.8836	541.04
60.8980	544.79
60.9125	575.51
60.9269	539.20
60.9414	567.92
60.9558	546.42
60.9702	563.12
60.9847	577.83
60.9991	583.06
61.0136	542.70
61.0280	550.37
61.0424	549.58
61.0569	537.19
61.0713	562.21
61.0858	536.36
61.1002	545.71
61.1146	547.20
61.1291	557.60
61.1435	540.49
61.1580	533.66
61.1724	542.20
61.1868	530.13
61.2013	562.32
61.2157	552.19
61.2302	502.29
61.2446	518.62
61.2590	514.38
61.2735	532.18
61.2879	530.25
61.3024	554.86
61.3168	538.70
61.3312	543.92
61.3457	541.16
61.3601	555.07
61.3746	520.23
61.3890	525.89
61.4034	523.14
61.4179	568.91
61.4323	559.53
61.4468	550.00
61.4612	572.96
61.4756	565.35
61.4901	560.35
61.5045	528.14
61.5190	564.95
61.5334	550.09
61.5478	546.08
61.5623	555.18
61.5767	532.47
61.5912	551.38
61.6056	550.07
61.6200	518.13
61.6345	514.93
61.6489	507.74
61.6634	549.53
61.6778	565.56
61.6922	566.69
61.7067	572.44
61.7211	551.63
61.7356	518.61
61.7500	542.11
61.7644	552.03
61.7789	563.35
61.7933	524.29
61.8078	561.29
61.8222	500.87
61.8366	518.68
61.8511	519.50
61.8655	566.57
61.8800	549.54
61.8944	550.48
61.9088	542.33
61.9233	522.85
61.9377	558.62
61.9522	571.13
61.9666	562.97
61.9810	550.56
61.9955	509.21
62.0099	553.54
62.0244	575.56
62.0388	522.18
62.0532	536.62
62.0677	562.08
62.0821	518.30
62.0966	529.38
62.1110	541.12
62.1254	544.73
62.1399	560.01
62.1543	522.56
62.1688	570.90
62.1832	548.22
62.1976	578.60
62.2121	537.87
62.2265	534.62
62.2410	570.13
62.2554	574.17
62.2698	524.43
62.2843	558.62
62.2987	559.41
62.3132	528.38
62.3276	537.95
62.3420	565.60
62.3565	566.74
62.3709	546.75
62.3854	565.47
62.3998	541.53
62.4142	540.30
62.4287	589.87
62.4431	577.34
62.4576	545.04
62.4720	573.75
62.4864	540.62
62.5009	590.81
62.5153	590.24
62.5298	563.39
62.5442	564.37
62.5586	573.21
62.5731	573.29
62.5875	551.40
62.6020	532.87
62.6164	521.07
62.6308	580.33
62.6453	591.85
62.6597	550.36
62.6742	540.42
62.6886	531.02
62.7030	578.90
62.7175	560.19
62.7319	535.84
62.7464	571.85
62.7608	556.34
62.7752	566.71
62.7897	564.03
62.8041	591.06
62.8186	552.68
62.8330	550.21
62.8474	551.55
62.8619	587.46
62.8763	590.68
62.8908	575.26
62.9052	587.28
62.9196	591.45
62.9341	591.03
62.9485	557.54
62.9630	543.70
62.9774	550.58
62.9918	591.79
63.0063	576.28
63.0207	563.61
63.0352	549.75
63.0496	608.81
63.0640	609.66
63.0785	566.44
63.0929	573.89
63.1074	568.93
63.1218	560.86
63.1362	538.16
63.1507	551.04
63.1651	596.15
63.1796	582.55
63.1940	578.76
63.2084	577.83
63.2229	549.96
63.2373	579.09
63.2518	590.00
63.2662	549.35
63.2806	603.30
63.2951	589.56
63.3095	582.65
63.3240	580.77
63.3384	571.31
63.3528	555.98
63.3673	542.37
63.3817	563.62
63.3962	584.04
63.4106	582.95
63.4250	589.73
63.4395	580.03
63.4539	582.54
63.4684	613.16
63.4828	640.18
63.4972	607.35
63.5117	565.57
63.5261	564.07
63.5406	584.29
63.5550	611.58
63.5694	651.40
63.5839	636.63
63.5983	635.54
63.6128	654.01
63.6272	626.31
63.6416	641.48
63.6561	614.15
63.6705	621.97
63.6850	615.38
63.6994	674.63
63.7138	715.77
63.7283	711.02
63.7427	694.10
63.7572	712.69
63.7716	729.86
63.7861	784.79
63.8005	763.51
63.8149	874.96
63.8294	864.82
63.8438	859.24
63.8583	882.74
63.8727	820.17
63.8871	803.75
63.9016	816.25
63.9160	822.91
63.9305	739.87
63.9449	817.77
63.9593	759.24
63.9738	806.41
63.9882	761.13
64.0027	776.24
64.0171	750.37
64.0315	728.63
64.0460	741.65
64.0604	785.75
64.0749	751.53
64.0893	776.30
64.1037	711.09
64.1182	696.14
64.1326	709.60
64.1471	686.28
64.1615	666.90
64.1759	655.41
64.1904	630.25
64.2048	648.50
64.2193	685.95
64.2337	665.57
64.2481	649.36
64.2626	646.42
64.2770	635.04
64.2915	592.38
64.3059	615.63
64.3203	669.73
64.3348	628.62
64.3492	582.42
64.3637	623.21
64.3781	641.91
64.3925	618.16
64.4070	617.50
64.4214	608.71
64.4359	652.73
64.4503	610.51
64.4647	639.60
64.4792	655.31
64.4936	666.40
64.5081	639.06
64.5225	630.26
64.5369	661.86
64.5514	660.48
64.5658	635.15
64.5803	614.37
64.5947	632.24
64.6091	640.36
64.6236	644.55
64.6380	677.08
64.6525	637.46
64.6669	656.20
64.6813	667.04
64.6958	655.03
64.7102	723.74
64.7247	686.65
64.7391	684.30
64.7535	706.44
64.7680	719.31
64.7824	732.53
64.7969	752.47
64.8113	739.66
64.8257	780.85
64.8402	820.07
64.8546	820.01
64.8691	850.79
64.8835	864.54
64.8979	877.07
64.9124	833.58
64.9268	867.88
64.9413	901.13
64.9557	947.68
64.9701	1032.27
64.9846	1091.14
64.9990	1084.72
65.0135	1308.90
65.0279	1517.74
65.0423	1728.59
65.0568	2041.43
65.0712	2656.51
65.0857	3596.67
65.1001	4733.50
65.1145	6349.69
65.1290	8349.05
65.1434	9773.03
65.1579	11018.75
65.1723	11826.86
65.1867	11357.41
65.2012	9966.71
65.2156	8215.84
65.2301	6573.47
65.2445	5387.48
65.2589	4488.81
65.2734	4193.35
65.2878	4478.15
65.3023	5060.53
65.3167	5858.93
65.3311	6644.10
65.3456	7080.30
65.3600	7052.85
65.3745	6540.80
65.3889	5430.46
65.4033	4465.76
65.4178	3507.59
65.4322	2692.08
65.4467	1966.18
65.4611	1712.45
65.4755	1489.34
65.4900	1280.51
65.5044	1156.73
65.5189	1071.94
65.5333	1001.55
65.5477	948.24
65.5622	874.43
65.5766	831.78
65.5911	768.03
65.6055	748.98
65.6199	769.50
65.6344	818.96
65.6488	755.57
65.6633	747.33
65.6777	722.21
65.6921	748.98
65.7066	707.05
65.7210	693.08
65.7355	671.39
65.7499	704.66
65.7643	686.46
65.7788	684.35
65.7932	647.40
65.8077	654.07
65.8221	709.28
65.8365	700.20
65.8510	689.44
65.8654	674.50
65.8799	673.23
65.8943	681.13
65.9087	647.14
65.9232	663.27
65.9376	648.90
65.9521	647.87
65.9665	611.43
65.9809	602.73
65.9954	638.73
66.0098	606.32
66.0243	600.03
66.0387	613.17
66.0531	609.91
66.0676	628.11
66.0820	603.75
66.0965	630.97
66.1109	593.53
66.1253	643.80
66.1398	605.09
66.1542	612.67
66.1687	644.84
66.1831	641.45
66.1975	616.04
66.2120	605.12
66.2264	618.45
66.2409	628.72
66.2553	609.59
66.2697	572.73
66.2842	598.06
66.2986	587.46
66.3131	615.35
66.3275	607.73
66.3419	606.45
66.3564	631.53
66.3708	629.30
66.3853	617.22
66.3997	590.83
66.4141	623.68
66.4286	594.87
66.4430	607.67
66.4575	614.05
66.4719	589.24
66.4863	596.88
66.5008	591.05
66.5152	601.58
66.5297	588.33
66.5441	601.34
66.5585	588.86
66.5730	572.76
66.5874	588.17
66.6019	579.44
66.6163	578.59
66.6307	598.02
66.6452	608.62
66.6596	615.09
66.6741	592.68
66.6885	597.31
66.7029	597.13
66.7174	618.05
66.7318	600.00
66.7463	576.47
66.7607	587.22
66.7751	601.45
66.7896	582.13
66.8040	596.08
66.8185	597.71
66.8329	587.86
66.8473	633.87
66.8618	632.08
66.8762	605.73
66.8907	588.15
66.9051	619.20
66.9195	587.02
66.9340	582.73
66.9484	589.54
66.9629	574.13
66.9773	569.95
66.9917	581.40
67.0062	571.02
67.0206	581.59
67.0351	556.42
67.0495	568.84
67.0639	559.58
67.0784	568.88
67.0928	579.38
67.1073	575.90
67.1217	600.79
67.1361	595.87
67.1506	562.75
67.1650	598.75
67.1795	572.35
67.1939	564.30
67.2083	573.47
67.2228	590.38
67.2372	605.89
67.2517	583.90
67.2661	567.36
67.2805	574.10
67.2950	588.94
67.3094	612.45
67.3239	579.91
67.3383	578.63
67.3527	574.85
67.3672	597.64
67.3816	569.85
67.3961	595.76
67.4105	581.77
67.4250	615.88
67.4394	569.10
67.4538	575.70
67.4683	585.01
67.4827	596.67
67.4972	599.80
67.5116	564.22
67.5260	584.51
67.5405	565.45
67.5549	572.91
67.5694	592.02
67.5838	561.52
67.5982	542.01
67.6127	558.22
67.6271	543.63
67.6416	552.74
67.6560	568.34
67.6704	581.78
67.6849	581.97
67.6993	577.36
67.7138	587.22
67.7282	583.77
67.7426	557.58
67.7571	567.58
67.7715	574.60
67.7860	583.97
67.8004	556.83
67.8148	579.12
67.8293	577.11
67.8437	555.69
67.8582	585.98
67.8726	580.21
67.8870	557.48
67.9015	603.36
67.9159	542.91
67.9304	594.52
67.9448	623.17
67.9592	608.81
67.9737	558.78
67.9881	559.53
68.0026	570.31
68.0170	582.12
68.0314	567.12
68.0459	529.30
68.0603	550.34
68.0748	624.97
68.0892	633.22
68.1036	547.18
68.1181	570.38
68.1325	613.30
68.1470	567.83
68.1614	580.92
68.1758	555.15
68.1903	531.15
68.2047	534.15
68.2192	577.68
68.2336	574.98
68.2480	574.45
68.2625	563.92
68.2769	582.41
68.2914	553.82
68.3058	558.38
68.3202	517.04
68.3347	562.12
68.3491	575.04
68.3636	592.23
68.3780	587.67
68.3924	558.49
68.4069	567.60
68.4213	577.62
68.4358	602.62
68.4502	569.46
68.4646	591.08
68.4791	628.21
68.4935	541.05
68.5080	537.29
68.5224	581.57
68.5368	566.69
68.5513	534.59
68.5657	569.42
68.5802	553.50
68.5946	594.18
68.6090	593.29
68.6235	570.22
68.6379	548.92
68.6524	566.84
68.6668	570.68
68.6812	584.49
68.6957	573.84
68.7101	578.86
68.7246	601.71
68.7390	572.00
68.7534	565.34
68.7679	561.87
68.7823	591.33
68.7968	540.21
68.8112	563.16
68.8256	586.56
68.8401	615.71
68.8545	590.76
68.8690	582.07
68.8834	603.11
68.8978	593.27
68.9123	548.92
68.9267	573.40
68.9412	577.71
68.9556	543.65
68.9700	579.20
68.9845	600.49
68.9989	595.61
69.0134	549.58
69.0278	549.11
69.0422	586.36
69.0567	577.88
69.0711	603.34
69.0856	562.95
69.1000	582.06
69.1144	594.89
69.1289	590.26
69.1433	616.34
69.1578	604.42
69.1722	583.90
69.1866	539.99
69.2011	601.15
69.2155	610.47
69.2300	572.87
69.2444	602.20
69.2588	555.39
69.2733	578.24
69.2877	536.87
69.3022	594.37
69.3166	522.27
69.3310	578.66
69.3455	579.68
69.3599	568.83
69.3744	609.50
69.3888	608.66
69.4032	572.80
69.4177	577.63
69.4321	588.66
69.4466	559.14
69.4610	593.24
69.4754	604.94
69.4899	591.21
69.5043	584.05
69.5188	564.64
69.5332	585.98
69.5476	577.86
69.5621	591.17
69.5765	567.70
69.5910	585.30
69.6054	554.57
69.6198	576.00
69.6343	595.43
69.6487	587.15
69.6632	594.74
69.6776	586.03
69.6920	605.39
69.7065	581.33
69.7209	578.16
69.7354	532.02
69.7498	557.46
69.7642	557.35
69.7787	571.25
69.7931	553.88
69.8076	557.80
69.8220	549.30
69.8364	579.86
69.8509	556.00
69.8653	608.82
69.8798	610.40
69.8942	573.23
69.9086	656.43
69.9231	595.32
69.9375	590.00
69.9520	583.12
69.9664	568.35
69.9808	562.88
69.9953	600.00
70.0097	598.06
70.0242	583.96
70.0386	510.30
70.0530	532.74
70.0675	614.24
70.0819	602.11
70.0964	563.47
70.1108	633.92
70.1252	576.46
70.1397	580.65
70.1541	580.71
70.1686	589.83
70.1830	624.60
70.1974	594.61
70.2119	576.42
70.2263	541.24
70.2408	536.04
70.2552	571.24
70.2696	579.52
70.2841	604.28
70.2985	608.70
70.3130	593.13
70.3274	589.72
70.3418	585.84
70.3563	577.55
70.3707	549.98
70.3852	601.82
70.3996	590.50
70.4140	586.39
70.4285	568.58
70.4429	602.92
70.4574	598.90
70.4718	585.85
70.4862	593.99
70.5007	594.51
70.5151	592.74
70.5296	553.28
70.5440	581.31
70.5584	591.02
70.5729	588.13
70.5873	526.12
70.6018	593.56
70.6162	573.82
70.6306	524.62
70.6451	574.94
70.6595	590.13
70.6740	632.77
70.6884	585.14
70.7028	566.83
70.7173	562.26
70.7317	577.59
70.7462	575.64
70.7606	602.02
70.7750	565.04
70.7895	578.93
70.8039	576.07
70.8184	563.10
70.8328	606.43
70.8472	555.65
70.8617	603.11
70.8761	549.64
70.8906	600.91
70.9050	610.69
70.9194	615.84
70.9339	642.70
70.9483	614.74
70.9628	586.99
70.9772	572.68
70.9916	591.17
71.0061	547.77
71.0205	574.30
71.0350	632.28
71.0494	618.83
71.0638	590.08
71.0783	600.27
71.0927	625.55
71.1072	620.64
71.1216	585.77
71.1361	570.76
71.1505	561.98
71.1649	582.33
71.1794	599.78
71.1938	576.29
71.2083	582.20
71.2227	601.60
71.2371	595.16
71.2516	595.20
71.2660	535.16
71.2805	517.25
71.2949	547.57
71.3093	526.24
71.3238	522.39
71.3382	612.49
71.3527	613.74
71.3671	608.23
71.3815	621.70
71.3960	598.99
71.4104	578.87
71.4249	563.12
71.4393	582.59
71.4537	576.19
71.4682	528.92
71.4826	543.91
71.4971	599.09
71.5115	568.15
71.5259	562.99
71.5404	593.54
71.5548	575.14
71.5693	565.17
71.5837	580.65
71.5981	616.05
71.6126	568.54
71.6270	604.28
71.6415	596.71
71.6559	576.08
71.6703	604.86
71.6848	555.18
71.6992	580.57
71.7137	582.56
71.7281	575.56
71.7425	536.35
71.7570	556.10
71.7714	550.08
71.7859	539.59
71.8003	597.23
71.8147	616.10
71.8292	552.05
71.8436	559.92
71.8581	532.13
71.8725	571.76
71.8869	584.75
71.9014	707.23
71.9158	671.56
71.9303	547.86
71.9447	562.22
71.9591	620.45
71.9736	622.59
71.9880	566.81
72.0025	525.78
72.0169	540.55
72.0313	593.96
72.0458	591.59
72.0602	587.32
72.0747	598.97
72.0891	567.98
72.1035	551.86
72.1180	592.08
72.1324	588.71
72.1469	547.25
72.1613	528.52
72.1757	535.92
72.1902	550.10
72.2046	564.15
72.2191	575.56
72.2335	614.74
72.2479	680.27
72.2624	543.10
72.2768	529.91
72.2913	592.14
72.3057	604.09
72.3201	561.22
72.3346	572.06
72.3490	580.51
72.3635	568.32
72.3779	605.79
72.3923	633.34
72.4068	609.60
72.4212	581.35
72.4357	580.57
72.4501	607.80
72.4645	594.12
72.4790	605.50
72.4934	560.18
72.5079	598.74
72.5223	647.51
72.5367	637.08
72.5512	687.68
72.5656	685.17
72.5801	542.74
72.5945	529.09
72.6089	550.11
72.6234	587.85
72.6378	581.75
72.6523	625.56
72.6667	682.59
72.6811	583.74
72.6956	547.77
72.7100	565.75
72.7245	582.46
72.7389	612.83
72.7533	583.00
72.7678	604.41
72.7822	676.66
72.7967	630.13
72.8111	543.34
72.8255	573.81
72.8400	544.83
72.8544	573.90
72.8689	669.70
72.8833	645.46

Result vector
22.1120	538.89
22.1264	628.57
22.1409	653.61
22.1553	494.94
22.1697	548.53
22.1842	608.53
22.1986	526.75
22.2131	604.62
22.2275	539.81
22.2419	456.64
22.2564	493.04
22.2708	501.12
22.2853	544.06
22.2997	575.49
22.3141	570.82
22.3286	522.60
22.3430	570.54
22.3575	613.41
22.3719	596.96
22.3863	604.99
22.4008	578.52
22.4152	565.15
22.4297	617.26
22.4441	598.10
22.4585	626.11
22.4730	564.30
22.4874	643.00
22.5019	551.08
22.5163	456.92
22.5307	522.51
22.5452	579.51
22.5596	626.70
22.5741	570.64
22.5885	624.70
22.6029	589.62
22.6174	596.58
22.6318	599.89
22.6463	621.10
22.6607	607.57
22.6751	560.34
22.6896	575.28
22.7040	666.20
22.7185	608.54
22.7329	595.20
22.7473	505.72
22.7618	575.71
22.7762	494.58
22.7907	493.11
22.8051	509.40
22.8195	592.78
22.8340	611.69
22.8484	474.56
22.8629	546.80
22.8773	639.49
22.8917	520.51
22.9062	592.35
22.9206	658.54
22.9351	595.24
22.9495	582.33
22.9639	529.64
22.9784	446.46
22.9928	541.07
23.0073	552.89
23.0217	753.47
23.0361	596.52
23.0506	619.29
23.0650	622.27
23.0795	522.48
23.0939	522.72
23.1083	608.17
23.1228	577.00
23.1372	572.89
23.1517	534.94
23.1661	493.41
23.1806	607.89
23.1950	550.44
23.2094	499.13
23.2239	528.56
23.2383	547.58
23.2528	632.80
23.2672	561.48
23.2816	551.50
23.2961	593.47
23.3105	567.96
23.3250	545.03
23.3394	579.61
23.3538	538.10
23.3683	540.86
23.3827	553.19
23.3972	568.33
23.4116	546.87
23.4260	543.12
23.4405	518.42
23.4549	555.96
23.4694	639.89
23.4838	561.83
23.4982	548.00
23.5127	554.58
23.5271	548.23
23.5416	553.38
23.5560	593.77
23.5704	525.37
23.5849	561.11
23.5993	634.22
23.6138	577.29
23.6282	600.53
23.6426	499.48
23.6571	549.97
23.6715	551.05
23.6860	527.52
23.7004	514.62
23.7148	578.53
23.7293	553.09
23.7437	535.41
23.7582	547.74
23.7726	479.17
23.7870	552.76
23.8015	590.92
23.8159	578.19
23.8304	485.71
23.8448	576.94
23.8592	577.84
23.8737	562.22
23.8881	554.51
23.9026	575.32
23.9170	561.67
23.9314	550.14
23.9459	539.47
23.9603	497.41
23.9748	567.26
23.9892	520.31
24.0036	499.98
24.0181	575.93
24.0325	582.72
24.0470	625.83
24.0614	573.08
24.0758	497.05
24.0903	552.64
24.1047	506.82
24.1192	543.86
24.1336	540.18
24.1480	580.50
24.1625	593.72
24.1769	564.99
24.1914	508.23
24.2058	578.89
24.2202	567.85
24.2347	599.63
24.2491	582.32
24.2636	607.30
24.2780	601.25
24.2924	558.68
24.3069	558.45
24.3213	552.85
24.3358	524.28
24.3502	579.16
24.3646	599.16
24.3791	535.08
24.3935	572.38
24.4080	550.63
24.4224	507.61
24.4368	510.27
24.4513	559.29
24.4657	535.77
24.4802	518.89
24.4946	604.80
24.5090	516.97
24.5235	553.27
24.5379	613.50
24.5524	548.65
24.5668	561.14
24.5812	553.08
24.5957	539.12
24.6101	556.23
24.6246	529.43
24.6390	553.67
24.6534	567.23
24.6679	547.06
24.6823	557.69
24.6968	552.40
24.7112	519.68
24.7256	553.79
24.7401	539.18
24.7545	503.52
24.7690	561.70
24.7834	567.53
24.7978	554.20
24.8123	485.26
24.8267	571.91
24.8412	559.54
24.8556	509.65
24.8700	550.41
24.8845	512.02
24.8989	543.37
24.9134	548.50
24.9278	506.87
24.9422	562.97
24.9567	551.16
24.9711	492.12
24.9856	514.69
25.0000	505.26
25.0144	543.25
25.0289	518.69
25.0433	518.67
25.0578	569.28
25.0722	616.50
25.0866	600.43
25.1011	511.88
25.1155	518.33
25.1300	524.92
25.1444	547.94
25.1588	544.20
25.1733	584.18
25.1877	518.22
25.2022	546.38
25.2166	587.95
25.2310	599.06
25.2455	536.37
25.2599	508.38
25.2744	559.58
25.2888	532.78
25.3032	511.90
25.3177	529.33
25.3321	555.16
25.3466	530.22
25.3610	527.90
25.3754	535.13
25.3899	562.10
25.4043	516.48
25.4188	500.89
25.4332	504.83
25.4476	516.38
25.4621	515.71
25.4765	519.12
25.4910	554.67
25.5054	573.86
25.5198	579.30
25.5343	556.46
25.5487	526.77
25.5632	512.99
25.5776	538.68
25.5920	542.01
25.6065	565.39
25.6209	516.91
25.6354	592.54
25.6498	511.54
25.6642	532.93
25.6787	499.52
25.6931	490.90
25.7076	521.63
25.7220	549.55
25.7364	531.32
25.7509	605.35
25.7653	572.98
25.7798	531.50
25.7942	510.18
25.8086	555.61
25.8231	512.96
25.8375	514.53
25.8520	526.20
25.8664	512.62
25.8808	503.25
25.8953	535.23
25.9097	589.70
25.9242	582.09
25.9386	508.81
25.9530	547.89
25.9675	539.48
25.9819	526.13
25.9964	527.01
26.0108	584.90
26.0252	559.55
26.0397	545.96
26.0541	553.61
26.0686	549.35
26.0830	527.11
26.0974	486.81
26.1119	550.94
26.1263	556.49
26.1408	522.88
26.1552	533.02
26.1696	528.84
26.1841	565.30
26.1985	505.37
26.2130	544.45
26.2274	558.54
26.2418	526.28
26.2563	512.20
26.2707	525.64
26.2852	520.34
26.2996	532.15
26.3140	539.53
26.3285	523.28
26.3429	523.08
26.3574	527.23
26.3718	542.32
26.3862	536.09
26.4007	546.93
26.4151	521.34
26.4296	575.15
26.4440	520.11
26.4584	515.78
26.4729	532.24
26.4873	540.74
26.5018	498.60
26.5162	510.69
26.5306	569.38
26.5451	568.65
26.5595	573.69
26.5740	544.74
26.5884	522.11
26.6028	518.47
26.6173	510.09
26.6317	539.21
26.6462	563.09
26.6606	556.45
26.6750	549.36
26.6895	539.87
26.7039	556.13
26.7184	515.19
26.7328	527.56
26.7472	582.36
26.7617	541.93
26.7761	536.31
26.7906	534.45
26.8050	518.71
26.8194	530.69
26.8339	534.58
26.8483	498.61
26.8628	505.33
26.8772	513.65
26.8917	525.01
26.9061	541.66
26.9205	528.58
26.9350	550.57
26.9494	549.24
26.9639	517.95
26.9783	522.53
26.9927	495.94
27.0072	488.87
27.0216	507.87
27.0361	511.53
27.0505	569.61
27.0649	557.21
27.0794	517.76
27.0938	538.61
27.1083	492.96
27.1227	523.04
27.1371	531.54
27.1516	513.28
27.1660	533.24
27.1805	503.67
27.1949	510.03
27.2093	509.56
27.2238	535.07
27.2382	552.89
27.2527	517.72
27.2671	467.35
27.2815	515.88
27.2960	537.07
27.3104	513.87
27.3249	506.78
27.3393	537.64
27.3537	525.87
27.3682	494.59
27.3826	470.09
27.3971	521.43
27.4115	506.36
27.4259	532.34
27.4404	540.74
27.4548	525.08
27.4693	500.66
27.4837	523.26
27.4981	526.94
27.5126	521.34
27.5270	523.70
27.5415	521.18
27.5559	517.16
27.5703	526.48
27.5848	496.09
27.5992	538.38
27.6137	516.19
27.6281	512.81
27.6425	544.91
27.6570	561.00
27.6714	526.45
27.6859	533.38
27.7003	594.12
27.7147	573.97
27.7292	554.31
27.7436	537.61
27.7581	534.95
27.7725	529.12
27.7869	530.73
27.8014	524.94
27.8158	530.29
27.8303	546.19
27.8447	523.38
27.8591	517.08
27.8736	547.60
27.8880	516.66
27.9025	533.17
27.9169	513.13
27.9313	507.41
27.9458	531.47
27.9602	489.52
27.9747	490.59
27.9891	515.33
28.0035	517.68
28.0180	541.26
28.0324	531.18
28.0469	534.08
28.0613	531.45
28.0757	518.22
28.0902	516.29
28.1046	488.74
28.1191	534.05
28.1335	514.79
28.1479	510.01
28.1624	505.44
28.1768	544.92
28.1913	516.70
28.2057	509.80
28.2201	519.80
28.2346	500.94
28.2490	484.75
28.2635	471.89
28.2779	524.84
28.2923	499.68
28.3068	487.89
28.3212	490.38
28.3357	504.16
28.3501	529.81
28.3645	500.30
28.3790	509.08
28.3934	511.99
28.4079	528.81
28.4223	531.41
28.4367	528.44
28.4512	523.43
28.4656	521.01
28.4801	499.88
28.4945	509.74
28.5089	524.72
28.5234	511.35
28.5378	523.46
28.5523	546.71
28.5667	498.76
28.5811	496.07
28.5956	510.85
28.6100	524.08
28.6245	492.68
28.6389	510.10
28.6533	519.29
28.6678	517.10
28.6822	524.66
28.6967	496.10
28.7111	508.23
28.7255	499.01
28.7400	499.37
28.7544	528.75
28.7689	539.08
28.7833	527.55
28.7977	542.54
28.8122	523.43
28.8266	501.53
28.8411	502.79
28.8555	541.21
28.8699	529.72
28.8844	520.71
28.8988	515.86
28.9133	518.53
28.9277	519.03
28.9421	515.99
28.9566	506.02
28.9710	518.08
28.9855	478.16
28.9999	501.97
29.0143	522.30
29.0288	502.72
29.0432	515.14
29.0577	519.38
29.0721	542.39
29.0865	533.65
29.1010	519.02
29.1154	529.35
29.1299	528.36
29.1443	481.46
29.1587	492.55
29.1732	528.70
29.1876	500.22
29.2021	476.85
29.2165	495.02
29.2309	490.25
29.2454	480.44
29.2598	495.01
29.2743	501.48
29.2887	501.46
29.3031	515.87
29.3176	530.96
29.3320	504.09
29.3465	518.90
29.3609	501.27
29.3753	488.85
29.3898	483.11
29.4042	488.75
29.4187	517.40
29.4331	546.66
29.4475	503.30
29.4620	542.90
29.4764	526.94
29.4909	492.44
29.5053	511.93
29.5197	526.13
29.5342	531.99
29.5486	540.69
29.5631	520.36
29.5775	498.67
29.5919	517.04
29.6064	501.13
29.6208	488.83
29.6353	495.94
29.6497	502.36
29.6641	523.38
29.6786	515.78
29.6930	479.38
29.7075	518.29
29.7219	531.05
29.7363	521.46
29.7508	522.24
29.7652	517.44
29.7797	528.85
29.7941	535.39
29.8085	517.36
29.8230	477.46
29.8374	539.99
29.8519	502.91
29.8663	496.69
29.8807	544.32
29.8952	511.11
29.9096	523.74
29.9241	484.59
29.9385	492.88
29.9529	483.91
29.9674	462.31
29.9818	486.78
29.9963	516.49
30.0107	509.86
30.0251	525.85
30.0396	473.46
30.0540	482.23
30.0685	519.55
30.0829	471.38
30.0973	498.51
30.1118	511.16
30.1262	499.84
30.1407	523.47
30.1551	466.10
30.1695	489.65
30.1840	503.35
30.1984	511.37
30.2129	523.38
30.2273	502.57
30.2417	528.71
30.2562	507.51
30.2706	501.24
30.2851	537.65
30.2995	512.76
30.3139	533.28
30.3284	543.08
30.3428	523.65
30.3573	523.12
30.3717	509.01
30.3861	486.08
30.4006	507.51
30.4150	509.65
30.4295	529.23
30.4439	525.42
30.4583	518.08
30.4728	526.89
30.4872	531.06
30.5017	536.57
30.5161	546.84
30.5305	579.16
30.5450	536.77
30.5594	541.10
30.5739	539.00
30.5883	597.02
30.6028	594.63
30.6172	618.61
30.6316	666.02
30.6461	711.29
30.6605	706.47
30.6750	707.07
30.6894	705.62
30.7038	760.45
30.7183	757.86
30.7327	719.61
30.7472	694.86
30.7616	680.79
30.7760	700.42
30.7905	653.77
30.8049	609.16
30.8194	637.65
30.8338	605.49
30.8482	563.24
30.8627	582.48
30.8771	559.13
30.8916	545.37
30.9060	542.75
30.9204	508.41
30.9349	511.20
30.9493	520.54
30.9638	513.87
30.9782	512.81
30.9926	530.34
31.0071	540.09
31.0215	565.47
31.0360	565.87
31.0504	526.60
31.0648	525.00
31.0793	528.42
31.0937	573.56
31.1082	522.31
31.1226	512.10
31.1370	551.66
31.1515	487.58
31.1659	535.96
31.1804	548.67
31.1948	514.89
31.2092	505.90
31.2237	499.38
31.2381	526.26
31.2526	547.97
31.2670	531.08
31.2814	531.80
31.2959	497.43
31.3103	560.17
31.3248	560.91
31.3392	499.29
31.3536	543.37
31.3681	556.63
31.3825	526.95
31.3970	544.16
31.4114	515.80
31.4258	523.12
31.4403	522.80
31.4547	480.50
31.4692	472.59
31.4836	515.64
31.4980	543.05
31.5125	522.50
31.5269	526.49
31.5414	504.37
31.5558	511.99
31.5702	503.86
31.5847	492.65
31.5991	520.02
31.6136	536.52
31.6280	534.94
31.6424	523.45
31.6569	551.48
31.6713	523.32
31.6858	507.45
31.7002	509.03
31.7146	485.55
31.7291	508.30
31.7435	493.63
31.7580	484.98
31.7724	510.47
31.7868	512.44
31.8013	517.49
31.8157	517.73
31.8302	520.89
31.8446	535.95
31.8590	486.32
31.8735	529.44
31.8879	546.19
31.9024	496.07
31.9168	498.96
31.9312	488.54
31.9457	529.36
31.9601	507.34
31.9746	475.21
31.9890	507.80
32.0034	541.06
32.0179	497.82
32.0323	516.15
32.0468	503.43
32.0612	496.77
32.0756	518.70
32.0901	526.32
32.1045	460.74
32.1190	508.13
32.1334	495.84
32.1478	519.66
32.1623	511.51
32.1767	492.14
32.1912	478.30
32.2056	492.94
32.2200	500.35
32.2345	505.54
32.2489	483.17
32.2634	537.84
32.2778	535.92
32.2922	498.05
32.3067	508.18
32.3211	500.20
32.3356	528.33
32.3500	501.10
32.3644	493.68
32.3789	481.47
32.3933	495.45
32.4078	516.72
32.4222	515.96
32.4366	506.70
32.4511	509.58
32.4655	504.49
32.4800	497.17
32.4944	484.07
32.5088	478.62
32.5233	503.85
32.5377	509.98
32.5522	496.42
32.5666	489.43
32.5810	483.50
32.5955	480.31
32.6099	476.77
32.6244	502.49
32.6388	474.41
32.6532	515.74
32.6677	517.09
32.6821	500.32
32.6966	476.94
32.7110	507.07
32.7254	537.84
32.7399	513.21
32.7543	493.17
32.7688	503.48
32.7832	528.04
32.7976	544.24
32.8121	532.71
32.8265	522.39
32.8410	498.30
32.8554	517.93
32.8698	534.76
32.8843	490.45
32.8987	514.40
32.9132	473.26
32.9276	494.72
32.9420	520.03
32.9565	485.56
32.9709	481.83
32.9854	460.39
32.9998	477.58
33.0142	499.02
33.0287	516.39
33.0431	502.27
33.0576	515.31
33.0720	504.31
33.0864	493.66
33.1009	529.80
33.1153	545.87
33.1298	530.97
33.1442	486.13
33.1586	484.68
33.1731	495.41
33.1875	470.04
33.2020	488.88
33.2164	502.98
33.2308	494.11
33.2453	516.69
33.2597	521.60
33.2742	490.85
33.2886	507.19
33.3030	511.85
33.3175	499.23
33.3319	496.14
33.3464	502.19
33.3608	505.73
33.3752	474.40
33.3897	492.00
33.4041	500.29
33.4186	473.07
33.4330	487.61
33.4474	475.85
33.4619	501.42
33.4763	542.64
33.4908	542.75
33.5052	475.15
33.5196	473.99
33.5341	486.25
33.5485	505.10
33.5630	539.85
33.5774	505.55
33.5918	495.47
33.6063	508.19
33.6207	553.67
33.6352	567.76
33.6496	531.35
33.6640	509.45
33.6785	505.01
33.6929	504.20
33.7074	561.93
33.7218	530.51
33.7362	510.31
33.7507	581.37
33.7651	506.91
33.7796	488.01
33.7940	490.20
33.8084	511.14
33.8229	491.29
33.8373	506.52
33.8518	493.63
33.8662	521.26
33.8806	496.27
33.8951	497.52
33.9095	501.29
33.9240	489.26
33.9384	514.15
33.9528	556.74
33.9673	521.09
33.9817	517.84
33.9962	513.95
34.0106	510.89
34.0250	512.33
34.0395	518.65
34.0539	503.67
34.0684	485.97
34.0828	490.17
34.0972	492.17
34.1117	498.72
34.1261	497.04
34.1406	524.80
34.1550	505.26
34.1694	503.83
34.1839	503.91
34.1983	516.10
34.2128	512.49
34.2272	480.08
34.2417	496.04
34.2561	483.69
34.2705	502.18
34.2850	464.31
34.2994	504.22
34.3139	505.46
34.3283	492.83
34.3427	499.12
34.3572	514.28
34.3716	521.56
34.3861	513.88
34.4005	478.39
34.4149	479.34
34.4294	477.63
34.4438	488.03
34.4583	498.51
34.4727	514.21
34.4871	510.93
34.5016	477.79
34.5160	489.06
34.5305	519.80
34.5449	527.91
34.5593	555.21
34.5738	549.75
34.5882	530.39
34.6027	492.55
34.6171	462.01
34.6315	487.58
34.6460	503.81
34.6604	486.29
34.6749	504.19
34.6893	483.89
34.7037	519.25
34.7182	512.65
34.7326	493.22
34.7471	534.24
34.7615	528.61
34.7759	512.88
34.7904	503.28
34.8048	533.10
34.8193	506.23
34.8337	488.14
34.8481	516.27
34.8626	527.50
34.8770	525.78
34.8915	556.19
34.9059	516.79
34.9203	515.52
34.9348	525.77
34.9492	506.44
34.9637	513.11
34.9781	468.01
34.9925	503.94
35.0070	502.52
35.0214	518.01
35.0359	534.54
35.0503	531.50
35.0647	537.92
35.0792	534.91
35.0936	521.74
35.1081	513.68
35.1225	520.16
35.1369	517.98
35.1514	520.74
35.1658	515.12
35.1803	504.98
35.1947	493.75
35.2091	479.12
35.2236	495.63
35.2380	509.40
35.2525	506.44
35.2669	520.74
35.2813	515.26
35.2958	542.53
35.3102	512.45
35.3247	507.49
35.3391	514.40
35.3535	533.44
35.3680	509.30
35.3824	522.88
35.3969	485.99
35.4113	499.70
35.4257	557.37
35.4402	510.94
35.4546	498.39
35.4691	515.85
35.4835	501.08
35.4979	517.62
35.5124	564.76
35.5268	535.50
35.5413	487.27
35.5557	520.96
35.5701	501.39
35.5846	514.20
35.5990	524.30
35.6135	498.53
35.6279	507.60
35.6423	504.83
35.6568	536.93
35.6712	527.96
35.6857	577.99
35.7001	656.38
35.7145	702.80
35.7290	684.19
35.7434	589.74
35.7579	575.31
35.7723	576.58
35.7867	593.81
35.8012	618.96
35.8156	648.53
35.8301	657.62
35.8445	630.14
35.8589	643.00
35.8734	715.20
35.8878	877.31
35.9023	1054.52
35.9167	1131.02
35.9311	1402.36
35.9456	2015.90
35.9600	2360.15
35.9745	1896.80
35.9889	1920.85
36.0033	2261.56
36.0178	2343.29
36.0322	2063.78
36.0467	1968.81
36.0611	1857.61
36.0755	1818.90
36.0900	1733.25
36.1044	1670.47
36.1189	1834.41
36.1333	1719.06
36.1477	1536.64
36.1622	1493.07
36.1766	1429.21
36.1911	1220.99
36.2055	1114.43
36.2199	1041.88
36.2344	956.41
36.2488	897.37
36.2633	801.74
36.2777	802.10
36.2921	733.77
36.3066	690.54
36.3210	676.76
36.3355	647.15
36.3499	628.84
36.3643	623.09
36.3788	580.72
36.3932	560.28
36.4077	548.11
36.4221	587.10
36.4365	563.16
36.4510	552.15
36.4654	507.23
36.4799	559.19
36.4943	520.58
36.5087	524.74
36.5232	523.93
36.5376	523.14
36.5521	535.63
36.5665	520.60
36.5809	524.22
36.5954	536.85
36.6098	521.26
36.6243	529.34
36.6387	532.93
36.6531	520.59
36.6676	517.81
36.6820	528.21
36.6965	538.95
36.7109	516.26
36.7253	515.32
36.7398	513.03
36.7542	582.82
36.7687	551.87
36.7831	547.64
36.7975	575.45
36.8120	584.59
36.8264	611.55
36.8409	576.22
36.8553	522.41
36.8697	586.93
36.8842	604.89
36.8986	584.45
36.9131	587.37
36.9275	537.76
36.9419	608.32
36.9564	583.56
36.9708	586.19
36.9853	557.74
36.9997	518.70
37.0141	553.49
37.0286	541.08
37.0430	548.19
37.0575	524.78
37.0719	511.58
37.0863	506.07
37.1008	512.87
37.1152	498.68
37.1297	511.93
37.1441	490.59
37.1585	501.12
37.1730	479.14
37.1874	529.29
37.2019	536.34
37.2163	522.25
37.2307	468.34
37.2452	496.51
37.2596	500.42
37.2741	506.95
37.2885	503.15
37.3029	520.57
37.3174	507.68
37.3318	497.28
37.3463	527.25
37.3607	499.85
37.3751	501.51
37.3896	531.08
37.4040	522.12
37.4185	508.82
37.4329	526.88
37.4473	507.99
37.4618	495.80
37.4762	493.51
37.4907	508.95
37.5051	519.05
37.5195	520.22
37.5340	500.70
37.5484	511.86
37.5629	528.61
37.5773	487.00
37.5917	520.30
37.6062	513.73
37.6206	466.67
37.6351	506.12
37.6495	510.75
37.6639	517.95
37.6784	501.15
37.6928	512.34
37.7073	511.36
37.7217	503.68
37.7361	518.32
37.7506	480.93
37.7650	476.45
37.7795	494.15
37.7939	525.36
37.8083	521.89
37.8228	522.70
37.8372	514.51
37.8517	505.98
37.8661	520.94
37.8805	508.67
37.8950	537.85
37.9094	500.75
37.9239	491.50
37.9383	512.74
37.9528	513.17
37.9672	499.20
37.9816	484.32
37.9961	491.09
38.0105	466.97
38.0250	491.08
38.0394	506.73
38.0538	513.64
38.0683	527.99
38.0827	510.10
38.0972	547.33
38.1116	509.95
38.1260	486.76
38.1405	497.67
38.1549	488.88
38.1694	512.86
38.1838	495.59
38.1982	461.35
38.2127	492.69
38.2271	496.01
38.2416	519.26
38.2560	516.93
38.2704	505.46
38.2849	514.67
38.2993	491.61
38.3138	484.76
38.3282	519.38
38.3426	523.01
38.3571	496.63
38.3715	528.98
38.3860	494.94
38.4004	506.35
38.4148	534.52
38.4293	594.16
38.4437	606.67
38.4582	651.45
38.4726	685.44
38.4870	680.54
38.5015	724.83
38.5159	777.11
38.5304	813.98
38.5448	811.45
38.5592	772.40
38.5737	754.58
38.5881	746.63
38.6026	745.46
38.6170	712.79
38.6314	687.75
38.6459	649.91
38.6603	638.35
38.6748	605.74
38.6892	591.06
38.7036	598.87
38.7181	558.90
38.7325	552.73
38.7470	510.13
38.7614	500.93
38.7758	503.76
38.7903	513.11
38.8047	518.99
38.8192	531.70
38.8336	482.82
38.8480	478.15
38.8625	524.93
38.8769	535.61
38.8914	512.22
38.9058	501.56
38.9202	506.37
38.9347	506.33
38.9491	501.85
38.9636	515.60
38.9780	509.47
38.9924	505.97
39.0069	523.01
39.0213	516.83
39.0358	483.56
39.0502	487.17
39.0646	509.20
39.0791	502.38
39.0935	507.71
39.1080	488.02
39.1224	532.86
39.1368	503.28
39.1513	467.47
39.1657	481.96
39.1802	481.41
39.1946	484.12
39.2090	487.05
39.2235	491.92
39.2379	484.15
39.2524	488.30
39.2668	523.99
39.2812	559.88
39.2957	532.96
39.3101	533.90
39.3246	526.81
39.3390	517.20
39.3534	549.25
39.3679	513.27
39.3823	507.11
39.3968	489.35
39.4112	482.20
39.4256	499.76
39.4401	503.32
39.4545	494.12
39.4690	505.41
39.4834	511.91
39.4978	500.54
39.5123	565.37
39.5267	523.51
39.5412	502.58
39.5556	509.49
39.5700	526.79
39.5845	534.28
39.5989	502.46
39.6134	487.36
39.6278	497.61
39.6422	482.55
39.6567	521.52
39.6711	516.95
39.6856	512.13
39.7000	538.23
39.7144	512.29
39.7289	496.64
39.7433	501.21
39.7578	501.24
39.7722	509.29
39.7866	502.00
39.8011	489.75
39.8155	469.02
39.8300	523.82
39.8444	466.58
39.8588	504.49
39.8733	518.30
39.8877	503.06
39.9022	488.05
39.9166	482.40
39.9310	504.32
39.9455	489.37
39.9599	474.96
39.9744	473.64
39.9888	489.03
40.0032	497.16
40.0177	538.61
40.0321	538.90
40.0466	488.26
40.0610	502.72
40.0754	482.58
40.0899	513.52
40.1043	459.57
40.1188	509.54
40.1332	466.96
40.1476	427.00
40.1621	505.17
40.1765	533.57
40.1910	466.38
40.2054	463.11
40.2198	495.23
40.2343	474.23
40.2487	497.27
40.2632	520.58
40.2776	495.68
40.2920	482.32
40.3065	504.38
40.3209	505.24
40.3354	528.19
40.3498	500.23
40.3642	535.13
40.3787	473.98
40.3931	497.22
40.4076	479.80
40.4220	482.54
40.4364	489.37
40.4509	471.20
40.4653	512.98
40.4798	513.87
40.4942	504.36
40.5086	507.14
40.5231	508.33
40.5375	530.57
40.5520	502.72
40.5664	512.94
40.5808	520.69
40.5953	495.57
40.6097	473.41
40.6242	541.50
40.6386	535.47
40.6530	521.61
40.6675	479.98
40.6819	472.28
40.6964	492.89
40.7108	500.79
40.7252	451.53
40.7397	494.62
40.7541	511.27
40.7686	466.61
40.7830	469.50
40.7974	497.33
40.8119	505.28
40.8263	493.12
40.8408	489.31
40.8552	516.61
40.8696	512.23
40.8841	479.16
40.8985	493.78
40.9130	500.73
40.9274	540.21
40.9418	492.18
40.9563	479.34
40.9707	481.30
40.9852	509.79
40.9996	521.47
41.0140	522.72
41.0285	519.31
41.0429	498.71
41.0574	536.59
41.0718	498.14
41.0862	473.84
41.1007	484.09
41.1151	516.61
41.1296	565.33
41.1440	521.72
41.1584	490.21
41.1729	482.96
41.1873	496.93
41.2018	489.04
41.2162	503.31
41.2306	486.21
41.2451	506.13
41.2595	503.62
41.2740	480.38
41.2884	495.67
41.3028	494.79
41.3173	509.14
41.3317	496.52
41.3462	481.75
41.3606	495.40
41.3750	509.46
41.3895	538.82
41.4039	511.38
41.4184	504.97
41.4328	549.15
41.4472	532.46
41.4617	522.93
41.4761	527.23
41.4906	508.82
41.5050	510.13
41.5194	512.29
41.5339	516.20
41.5483	491.92
41.5628	492.43
41.5772	497.50
41.5916	509.82
41.6061	502.81
41.6205	508.60
41.6350	521.65
41.6494	504.57
41.6639	499.59
41.6783	471.02
41.6927	490.46
41.7072	509.17
41.7216	491.42
41.7361	489.79
41.7505	475.31
41.7649	502.42
41.7794	472.63
41.7938	505.87
41.8083	512.29
41.8227	524.59
41.8371	525.86
41.8516	540.64
41.8660	524.37
41.8805	553.93
41.8949	553.73
41.9093	602.70
41.9238	598.09
41.9382	583.58
41.9527	574.86
41.9671	576.40
41.9815	523.10
41.9960	570.88
42.0104	588.44
42.0249	556.99
42.0393	551.65
42.0537	589.48
42.0682	577.56
42.0826	599.70
42.0971	581.83
42.1115	593.62
42.1259	618.52
42.1404	598.54
42.1548	614.13
42.1693	663.36
42.1837	705.01
42.1981	767.27
42.2126	819.17
42.2270	886.84
42.2415	994.82
42.2559	1169.27
42.2703	1311.50
42.2848	1501.91
42.2992	1625.09
42.3137	1630.38
42.3281	1633.92
42.3425	1575.88
42.3570	1453.49
42.3714	1380.08
42.3859	1349.56
42.4003	1313.03
42.4147	1332.34
42.4292	1314.86
42.4436	1126.20
42.4581	1006.07
42.4725	934.48
42.4869	848.47
42.5014	778.13
42.5158	740.36
42.5303	691.29
42.5447	647.27
42.5591	597.30
42.5736	613.68
42.5880	588.11
42.6025	525.29
42.6169	543.68
42.6313	552.04
42.6458	576.95
42.6602	539.50
42.6747	508.20
42.6891	531.57
42.7035	584.69
42.7180	548.76
42.7324	525.58
42.7469	522.99
42.7613	514.05
42.7757	506.25
42.7902	537.81
42.8046	549.67
42.8191	516.27
42.8335	511.22
42.8479	519.14
42.8624	535.62
42.8768	514.53
42.8913	533.43
42.9057	539.05
42.9201	534.04
42.9346	505.94
42.9490	514.69
42.9635	500.03
42.9779	515.77
42.9923	523.28
43.0068	483.13
43.0212	512.59
43.0357	522.72
43.0501	503.32
43.0645	546.25
43.0790	536.33
43.0934	513.39
43.1079	521.92
43.1223	537.31
43.1367	523.46
43.1512	522.24
43.1656	541.82
43.1801	498.77
43.1945	531.46
43.2089	529.87
43.2234	524.49
43.2378	541.90
43.2523	540.26
43.2667	534.44
43.2811	517.94
43.2956	499.58
43.3100	506.11
43.3245	509.31
43.3389	524.24
43.3533	507.06
43.3678	484.86
43.3822	523.73
43.3967	535.14
43.4111	533.24
43.4255	572.50
43.4400	540.67
43.4544	524.40
43.4689	537.35
43.4833	551.57
43.4977	528.19
43.5122	536.60
43.5266	507.72
43.5411	518.63
43.5555	510.91
43.5699	514.95
43.5844	515.10
43.5988	508.50
43.6133	540.89
43.6277	538.22
43.6421	506.97
43.6566	518.71
43.6710	518.06
43.6855	525.38
43.6999	541.37
43.7143	531.05
43.7288	515.12
43.7432	516.91
43.7577	508.45
43.7721	501.21
43.7865	532.20
43.8010	556.00
43.8154	530.64
43.8299	544.93
43.8443	557.95
43.8587	568.72
43.8732	622.82
43.8876	617.84
43.9021	607.45
43.9165	613.40
43.9309	649.85
43.9454	644.14
43.9598	612.96
43.9743	617.61
43.9887	602.12
44.0031	592.21
44.0176	602.32
44.0320	616.10
44.0465	609.11
44.0609	621.34
44.0753	611.62
44.0898	614.00
44.1042	561.43
44.1187	541.29
44.1331	527.94
44.1475	505.48
44.1620	523.26
44.1764	506.15
44.1909	527.67
44.2053	525.20
44.2197	526.75
44.2342	520.39
44.2486	545.46
44.2631	539.94
44.2775	537.65
44.2919	537.79
44.3064	528.81
44.3208	502.39
44.3353	550.82
44.3497	538.14
44.3641	552.77
44.3786	587.17
44.3930	558.95
44.4075	576.46
44.4219	591.04
44.4363	592.50
44.4508	602.45
44.4652	586.62
44.4797	588.41
44.4941	586.12
44.5085	542.54
44.5230	593.38
44.5374	608.24
44.5519	588.75
44.5663	611.90
44.5807	615.46
44.5952	627.27
44.6096	578.80
44.6241	543.46
44.6385	591.65
44.6529	588.80
44.6674	567.37
44.6818	580.43
44.6963	608.47
44.7107	692.35
44.7251	701.91
44.7396	774.71
44.7540	783.32
44.7685	823.50
44.7829	916.09
44.7973	909.68
44.8118	901.94
44.8262	868.92
44.8407	801.78
44.8551	757.69
44.8695	706.92
44.8840	721.80
44.8984	763.71
44.9129	745.58
44.9273	725.79
44.9417	660.87
44.9562	596.68
44.9706	569.92
44.9851	551.93
44.9995	542.25
45.0139	546.32
45.0284	577.40
45.0428	523.83
45.0573	502.57
45.0717	532.95
45.0861	542.60
45.1006	523.03
45.1150	526.16
45.1295	566.28
45.1439	518.01
45.1583	503.40
45.1728	530.41
45.1872	503.35
45.2017	487.64
45.2161	502.86
45.2305	520.07
45.2450	533.53
45.2594	525.53
45.2739	492.48
45.2883	512.50
45.3028	479.63
45.3172	523.98
45.3316	506.73
45.3461	511.03
45.3605	536.29
45.3750	510.26
45.3894	479.37
45.4038	496.74
45.4183	504.90
45.4327	529.99
45.4472	490.91
45.4616	516.42
45.4760	515.33
45.4905	507.76
45.5049	522.24
45.5194	503.74
45.5338	483.43
45.5482	485.68
45.5627	521.19
45.5771	474.51
45.5916	478.09
45.6060	517.90
45.6204	503.30
45.6349	499.03
45.6493	508.52
45.6638	508.42
45.6782	520.94
45.6926	504.16
45.7071	491.10
45.7215	495.53
45.7360	504.52
45.7504	540.93
45.7648	497.35
45.7793	528.82
45.7937	515.49
45.8082	533.30
45.8226	490.28
45.8370	508.02
45.8515	533.28
45.8659	486.46
45.8804	514.99
45.8948	490.74
45.9092	527.43
45.9237	493.74
45.9381	464.11
45.9526	475.98
45.9670	471.00
45.9814	468.32
45.9959	525.69
46.0103	487.99
46.0248	499.32
46.0392	486.02
46.0536	513.60
46.0681	513.18
46.0825	458.95
46.0970	493.74
46.1114	506.56
46.1258	491.07
46.1403	489.24
46.1547	452.39
46.1692	458.46
46.1836	503.74
46.1980	515.30
46.2125	506.81
46.2269	517.29
46.2414	492.30
46.2558	484.05
46.2702	504.34
46.2847	501.92
46.2991	493.72
46.3136	511.66
46.3280	473.75
46.3424	501.41
46.3569	535.78
46.3713	527.14
46.3858	509.08
46.4002	503.41
46.4146	487.33
46.4291	518.06
46.4435	487.15
46.4580	502.16
46.4724	499.37
46.4868	487.17
46.5013	492.36
46.5157	480.23
46.5302	487.21
46.5446	516.48
46.5590	530.66
46.5735	494.93
46.5879	488.66
46.6024	493.48
46.6168	501.64
46.6312	487.16
46.6457	503.27
46.6601	499.34
46.6746	475.61
46.6890	456.71
46.7034	488.60
46.7179	484.13
46.7323	502.17
46.7468	502.42
46.7612	488.98
46.7756	489.76
46.7901	484.58
46.8045	516.13
46.8190	533.44
46.8334	522.57
46.8478	511.36
46.8623	526.44
46.8767	500.06
46.8912	510.31
46.9056	508.47
46.9200	532.06
46.9345	517.06
46.9489	472.51
46.9634	476.98
46.9778	483.94
46.9922	504.87
47.0067	488.31
47.0211	502.64
47.0356	549.37
47.0500	511.45
47.0644	514.64
47.0789	512.87
47.0933	526.31
47.1078	515.19
47.1222	530.68
47.1366	551.48
47.1511	509.95
47.1655	510.75
47.1800	518.40
47.1944	492.36
47.2088	483.05
47.2233	487.18
47.2377	503.32
47.2522	519.82
47.2666	523.17
47.2810	529.97
47.2955	484.41
47.3099	476.80
47.3244	539.46
47.3388	522.48
47.3532	544.08
47.3677	475.11
47.3821	486.71
47.3966	486.86
47.4110	506.88
47.4254	554.08
47.4399	503.30
47.4543	507.15
47.4688	505.83
47.4832	523.19
47.4976	541.31
47.5121	503.33
47.5265	490.51
47.5410	499.33
47.5554	489.74
47.5698	513.99
47.5843	474.21
47.5987	488.53
47.6132	505.57
47.6276	521.07
47.6420	522.92
47.6565	478.27
47.6709	505.26
47.6854	530.23
47.6998	520.22
47.7142	494.25
47.7287	481.62
47.7431	491.65
47.7576	468.09
47.7720	492.24
47.7864	526.58
47.8009	496.48
47.8153	528.93
47.8298	497.84
47.8442	504.30
47.8586	510.22
47.8731	546.72
47.8875	489.38
47.9020	457.23
47.9164	489.96
47.9308	562.72
47.9453	526.82
47.9597	484.66
47.9742	497.52
47.9886	529.09
48.0030	493.17
48.0175	493.72
48.0319	464.28
48.0464	509.97
48.0608	504.15
48.0752	493.17
48.0897	514.68
48.1041	493.54
48.1186	538.81
48.1330	531.29
48.1474	506.33
48.1619	495.11
48.1763	513.50
48.1908	509.58
48.2052	499.77
48.2196	501.56
48.2341	514.64
48.2485	544.29
48.2630	518.55
48.2774	529.89
48.2918	499.49
48.3063	538.51
48.3207	513.81
48.3352	520.39
48.3496	541.11
48.3640	530.91
48.3785	476.91
48.3929	477.06
48.4074	536.72
48.4218	530.31
48.4362	511.06
48.4507	518.66
48.4651	524.90
48.4796	502.35
48.4940	537.81
48.5084	522.16
48.5229	507.51
48.5373	545.26
48.5518	510.43
48.5662	557.33
48.5806	517.14
48.5951	525.97
48.6095	508.17
48.6240	483.67
48.6384	528.67
48.6528	509.15
48.6673	489.37
48.6817	519.54
48.6962	524.28
48.7106	520.06
48.7250	529.93
48.7395	513.37
48.7539	515.16
48.7684	481.28
48.7828	552.49
48.7972	547.19
48.8117	537.53
48.8261	567.71
48.8406	545.85
48.8550	578.01
48.8694	576.61
48.8839	548.24
48.8983	566.82
48.9128	522.68
48.9272	544.04
48.9416	543.65
48.9561	509.55
48.9705	527.83
48.9850	551.92
48.9994	593.99
49.0139	617.01
49.0283	625.74
49.0427	609.54
49.0572	583.36
49.0716	666.69
49.0861	655.31
49.1005	704.13
49.1149	679.16
49.1294	738.28
49.1438	728.41
49.1583	765.80
49.1727	822.66
49.1871	874.65
49.2016	929.51
49.2160	959.25
49.2305	1088.84
49.2449	1182.91
49.2593	1226.81
49.2738	1257.25
49.2882	1366.79
49.3027	1457.39
49.3171	1612.26
49.3315	1647.27
49.3460	1670.16
49.3604	1716.30
49.3749	1760.99
49.3893	1740.96
49.4037	1688.42
49.4182	1751.42
49.4326	1728.47
49.4471	1594.52
49.4615	1558.79
49.4759	1529.62
49.4904	1503.78
49.5048	1385.27
49.5193	1319.77
49.5337	1276.17
49.5481	1232.93
49.5626	1134.11
49.5770	1056.70
49.5915	1001.38
49.6059	925.10
49.6203	873.52
49.6348	835.29
49.6492	796.38
49.6637	758.05
49.6781	709.48
49.6925	695.21
49.7070	726.73
49.7214	695.07
49.7359	616.76
49.7503	611.42
49.7647	606.71
49.7792	647.30
49.7936	605.52
49.8081	599.85
49.8225	584.06
49.8369	560.11
49.8514	598.44
49.8658	584.25
49.8803	570.08
49.8947	570.05
49.9091	550.05
49.9236	536.94
49.9380	557.76
49.9525	539.74
49.9669	547.61
49.9813	535.43
49.9958	534.05
50.0102	544.28
50.0247	540.49
50.0391	555.37
50.0535	530.59
50.0680	532.32
50.0824	548.22
50.0969	532.11
50.1113	490.88
50.1257	523.59
50.1402	501.35
50.1546	522.20
50.1691	510.36
50.1835	538.46
50.1979	533.12
50.2124	500.18
50.2268	505.51
50.2413	502.48
50.2557	513.74
50.2701	533.75
50.2846	516.59
50.2990	522.17
50.3135	512.91
50.3279	538.75
50.3423	525.32
50.3568	512.05
50.3712	519.39
50.3857	566.19
50.4001	524.16
50.4145	505.39
50.4290	491.12
50.4434	509.23
50.4579	551.89
50.4723	542.88
50.4867	509.47
50.5012	511.49
50.5156	494.99
50.5301	480.53
50.5445	527.66
50.5589	539.04
50.5734	510.13
50.5878	520.56
50.6023	536.51
50.6167	520.49
50.6311	480.23
50.6456	496.42
50.6600	490.76
50.6745	493.62
50.6889	489.35
50.7033	507.12
50.7178	508.98
50.7322	503.01
50.7467	497.82
50.7611	496.98
50.7755	513.42
50.7900	508.82
50.8044	498.70
50.8189	525.14
50.8333	547.77
50.8477	504.09
50.8622	474.81
50.8766	475.34
50.8911	493.93
50.9055	557.64
50.9199	502.25
50.9344	503.54
50.9488	496.16
50.9633	501.23
50.9777	517.53
50.9921	512.76
51.0066	492.03
51.0210	567.38
51.0355	527.10
51.0499	498.89
51.0643	509.58
51.0788	495.20
51.0932	493.34
51.1077	498.93
51.1221	483.42
51.1365	499.42
51.1510	489.16
51.1654	493.55
51.1799	483.34
51.1943	481.95
51.2087	509.96
51.2232	487.02
51.2376	506.55
51.2521	488.40
51.2665	489.88
51.2809	511.48
51.2954	494.94
51.3098	485.77
51.3243	492.15
51.3387	505.95
51.3531	503.45
51.3676	530.18
51.3820	502.23
51.3965	489.73
51.4109	497.64
51.4253	501.64
51.4398	514.48
51.4542	520.76
51.4687	526.73
51.4831	527.26
51.4975	506.59
51.5120	515.05
51.5264	525.73
51.5409	491.06
51.5553	496.70
51.5697	497.98
51.5842	548.50
51.5986	527.40
51.6131	487.39
51.6275	487.05
51.6419	483.76
51.6564	471.38
51.6708	505.64
51.6853	493.37
51.6997	515.19
51.7141	495.83
51.7286	504.27
51.7430	496.02
51.7575	499.96
51.7719	527.08
51.7863	505.69
51.8008	504.70
51.8152	535.26
51.8297	516.53
51.8441	526.07
51.8585	516.83
51.8730	516.03
51.8874	542.99
51.9019	526.28
51.9163	511.15
51.9307	489.91
51.9452	531.72
51.9596	476.91
51.9741	508.99
51.9885	518.32
52.0029	488.06
52.0174	467.72
52.0318	529.19
52.0463	539.84
52.0607	514.78
52.0751	526.29
52.0896	532.64
52.1040	490.74
52.1185	505.33
52.1329	500.04
52.1473	490.87
52.1618	536.11
52.1762	545.36
52.1907	522.15
52.2051	524.90
52.2195	541.68
52.2340	506.44
52.2484	491.55
52.2629	491.22
52.2773	499.39
52.2917	504.51
52.3062	534.55
52.3206	542.57
52.3351	533.53
52.3495	540.22
52.3639	506.36
52.3784	524.73
52.3928	480.73
52.4073	489.51
52.4217	506.92
52.4361	562.90
52.4506	497.81
52.4650	530.27
52.4795	523.31
52.4939	543.40
52.5083	508.09
52.5228	523.88
52.5372	526.65
52.5517	510.01
52.5661	510.81
52.5805	474.17
52.5950	505.24
52.6094	493.92
52.6239	521.48
52.6383	518.91
52.6527	510.27
52.6672	508.88
52.6816	528.06
52.6961	506.82
52.7105	565.58
52.7250	530.72
52.7394	463.68
52.7538	529.20
52.7683	536.90
52.7827	549.77
52.7972	514.14
52.8116	524.80
52.8260	530.17
52.8405	500.91
52.8549	512.75
52.8694	492.84
52.8838	509.41
52.8982	512.42
52.9127	518.70
52.9271	504.22
52.9416	551.85
52.9560	498.70
52.9704	523.29
52.9849	463.49
52.9993	502.42
53.0138	540.46
53.0282	506.17
53.0426	507.42
53.0571	544.14
53.0715	521.26
53.0860	537.62
53.1004	557.98
53.1148	532.89
53.1293	477.86
53.1437	482.25
53.1582	521.65
53.1726	530.83
53.1870	520.44
53.2015	507.44
53.2159	548.40
53.2304	513.73
53.2448	528.73
53.2592	521.33
53.2737	498.95
53.2881	485.95
53.3026	541.35
53.3170	498.11
53.3314	494.77
53.3459	498.03
53.3603	486.15
53.3748	503.56
53.3892	522.21
53.4036	517.21
53.4181	504.42
53.4325	524.61
53.4470	530.17
53.4614	504.17
53.4758	546.54
53.4903	511.22
53.5047	509.33
53.5192	496.79
53.5336	517.53
53.5480	508.64
53.5625	545.49
53.5769	513.08
53.5914	536.08
53.6058	537.70
53.6202	518.84
53.6347	524.76
53.6491	557.83
53.6636	562.61
53.6780	513.71
53.6924	482.24
53.7069	524.15
53.7213	540.77
53.7358	522.64
53.7502	505.77
53.7646	565.82
53.7791	537.71
53.7935	520.58
53.8080	534.78
53.8224	507.88
53.8368	537.43
53.8513	532.01
53.8657	515.63
53.8802	537.38
53.8946	547.29
53.9090	544.60
53.9235	517.31
53.9379	511.30
53.9524	520.57
53.9668	530.16
53.9812	527.22
53.9957	512.71
54.0101	503.36
54.0246	492.02
54.0390	487.18
54.0534	505.56
54.0679	538.92
54.0823	568.07
54.0968	544.99
54.1112	524.95
54.1256	520.56
54.1401	532.49
54.1545	526.68
54.1690	537.91
54.1834	518.41
54.1978	495.28
54.2123	539.23
54.2267	531.03
54.2412	526.63
54.2556	539.86
54.2700	552.08
54.2845	541.41
54.2989	543.49
54.3134	530.60
54.3278	553.69
54.3422	564.73
54.3567	547.89
54.3711	534.26
54.3856	534.94
54.4000	555.03
54.4144	604.04
54.4289	591.16
54.4433	575.90
54.4578	571.64
54.4722	631.56
54.4866	608.96
54.5011	547.46
54.5155	558.84
54.5300	593.58
54.5444	595.41
54.5588	590.58
54.5733	606.72
54.5877	612.22
54.6022	615.35
54.6166	569.25
54.6310	589.27
54.6455	564.47
54.6599	564.87
54.6744	575.64
54.6888	555.48
54.7032	573.76
54.7177	559.47
54.7321	520.47
54.7466	544.51
54.7610	528.97
54.7754	540.30
54.7899	576.15
54.8043	574.43
54.8188	549.72
54.8332	505.94
54.8476	483.90
54.8621	546.57
54.8765	554.58
54.8910	508.71
54.9054	493.36
54.9198	487.09
54.9343	525.30
54.9487	524.08
54.9632	495.83
54.9776	504.91
54.9920	557.16
55.0065	538.76
55.0209	516.76
55.0354	519.66
55.0498	539.66
55.0642	551.22
55.0787	558.96
55.0931	537.51
55.1076	522.18
55.1220	575.51
55.1364	516.62
55.1509	516.77
55.1653	515.15
55.1798	511.76
55.1942	524.08
55.2086	529.83
55.2231	509.78
55.2375	513.76
55.2520	539.21
55.2664	556.54
55.2808	534.32
55.2953	485.01
55.3097	540.47
55.3242	541.17
55.3386	545.89
55.3530	491.94
55.3675	513.08
55.3819	520.05
55.3964	513.30
55.4108	513.12
55.4252	524.48
55.4397	517.05
55.4541	496.92
55.4686	544.42
55.4830	547.86
55.4974	520.73
55.5119	495.29
55.5263	494.45
55.5408	547.91
55.5552	523.75
55.5696	507.49
55.5841	530.04
55.5985	526.03
55.6130	542.51
55.6274	553.43
55.6418	530.83
55.6563	538.64
55.6707	527.89
55.6852	538.48
55.6996	554.49
55.7140	495.67
55.7285	483.53
55.7429	510.56
55.7574	539.13
55.7718	516.86
55.7862	525.31
55.8007	537.42
55.8151	511.66
55.8296	531.80
55.8440	492.46
55.8584	536.98
55.8729	532.01
55.8873	494.67
55.9018	495.03
55.9162	544.89
55.9306	560.97
55.9451	536.86
55.9595	510.64
55.9740	492.41
55.9884	542.95
56.0028	516.98
56.0173	529.99
56.0317	517.45
56.0462	523.81
56.0606	524.08
56.0750	503.51
56.0895	513.81
56.1039	497.17
56.1184	507.31
56.1328	537.02
56.1472	501.53
56.1617	520.49
56.1761	512.17
56.1906	523.07
56.2050	500.66
56.2194	530.91
56.2339	515.91
56.2483	528.64
56.2628	520.34
56.2772	500.69
56.2916	519.42
56.3061	481.63
56.3205	504.78
56.3350	541.24
56.3494	524.99
56.3639	531.20
56.3783	508.45
56.3927	537.04
56.4072	542.29
56.4216	529.09
56.4361	525.76
56.4505	520.72
56.4649	540.18
56.4794	534.25
56.4938	542.94
56.5083	555.62
56.5227	550.76
56.5371	501.74
56.5516	535.61
56.5660	541.15
56.5805	531.01
56.5949	551.82
56.6093	504.18
56.6238	517.33
56.6382	498.41
56.6527	500.68
56.6671	523.09
56.6815	518.34
56.6960	549.28
56.7104	532.61
56.7249	477.34
56.7393	518.92
56.7537	552.08
56.7682	525.72
56.7826	545.87
56.7971	579.49
56.8115	553.16
56.8259	491.24
56.8404	516.29
56.8548	502.36
56.8693	545.72
56.8837	540.25
56.8981	546.54
56.9126	553.75
56.9270	521.56
56.9415	493.74
56.9559	518.47
56.9703	521.84
56.9848	520.08
56.9992	516.00
57.0137	537.04
57.0281	547.17
57.0425	533.06
57.0570	521.02
57.0714	526.29
57.0859	482.66
57.1003	517.60
57.1147	530.55
57.1292	503.56
57.1436	492.63
57.1581	508.22
57.1725	531.74
57.1869	495.46
57.2014	507.68
57.2158	506.58
57.2303	503.63
57.2447	513.26
57.2591	536.59
57.2736	506.12
57.2880	514.85
57.3025	513.99
57.3169	502.40
57.3313	542.78
57.3458	539.13
57.3602	527.64
57.3747	534.89
57.3891	542.16
57.4035	552.09
57.4180	512.90
57.4324	523.72
57.4469	534.51
57.4613	530.47
57.4757	509.52
57.4902	533.83
57.5046	527.31
57.5191	503.13
57.5335	550.97
57.5479	535.05
57.5624	545.47
57.5768	514.03
57.5913	520.67
57.6057	511.47
57.6201	527.71
57.6346	517.09
57.6490	539.92
57.6635	549.68
57.6779	523.47
57.6923	520.71
57.7068	565.57
57.7212	541.02
57.7357	521.28
57.7501	509.10
57.7645	527.47
57.7790	552.23
57.7934	547.68
57.8079	522.02
57.8223	548.57
57.8367	534.72
57.8512	535.86
57.8656	565.79
57.8801	545.14
57.8945	553.30
57.9089	538.54
57.9234	522.58
57.9378	585.14
57.9523	554.96
57.9667	564.79
57.9811	559.89
57.9956	570.68
58.0100	612.15
58.0245	605.83
58.0389	583.84
58.0533	603.16
58.0678	616.48
58.0822	687.07
58.0967	662.89
58.1111	676.72
58.1255	712.62
58.1400	679.84
58.1544	676.31
58.1689	668.20
58.1833	699.43
58.1977	666.58
58.2122	678.34
58.2266	664.09
58.2411	653.61
58.2555	683.42
58.2699	670.77
58.2844	681.50
58.2988	648.04
58.3133	650.28
58.3277	624.51
58.3421	601.40
58.3566	584.19
58.3710	573.64
58.3855	592.53
58.3999	577.70
58.4143	560.43
58.4288	547.84
58.4432	551.50
58.4577	562.03
58.4721	562.78
58.4865	575.70
58.5010	575.71
58.5154	570.98
58.5299	544.99
58.5443	537.21
58.5587	563.52
58.5732	543.33
58.5876	550.89
58.6021	544.34
58.6165	527.04
58.6309	555.10
58.6454	571.09
58.6598	519.54
58.6743	579.92
58.6887	545.98
58.7031	518.90
58.7176	556.96
58.7320	560.05
58.7465	536.52
58.7609	511.14
58.7753	523.94
58.7898	534.16
58.8042	539.72
58.8187	556.77
58.8331	528.37
58.8475	532.06
58.8620	559.25
58.8764	502.66
58.8909	523.68
58.9053	532.14
58.9197	527.83
58.9342	545.27
58.9486	570.26
58.9631	552.26
58.9775	547.99
58.9919	590.34
59.0064	554.46
59.0208	543.50
59.0353	541.98
59.0497	524.94
59.0641	581.13
59.0786	559.39
59.0930	534.15
59.1075	541.11
59.1219	553.94
59.1363	533.15
59.1508	536.45
59.1652	542.55
59.1797	528.52
59.1941	558.90
59.2085	527.23
59.2230	520.70
59.2374	559.56
59.2519	519.21
59.2663	547.29
59.2807	551.96
59.2952	524.54
59.3096	552.48
59.3241	558.94
59.3385	578.71
59.3529	564.52
59.3674	577.49
59.3818	547.53
59.3963	532.03
59.4107	514.33
59.4251	550.28
59.4396	566.68
59.4540	541.67
59.4685	558.14
59.4829	561.31
59.4973	551.86
59.5118	517.69
59.5262	545.44
59.5407	583.95
59.5551	571.02
59.5695	573.26
59.5840	526.70
59.5984	559.94
59.6129	566.24
59.6273	552.48
59.6417	545.53
59.6562	557.39
59.6706	540.26
59.6851	524.51
59.6995	536.62
59.7139	534.80
59.7284	518.26
59.7428	536.31
59.7573	539.76
59.7717	542.80
59.7861	542.21
59.8006	511.88
59.8150	543.44
59.8295	563.62
59.8439	552.68
59.8583	552.11
59.8728	552.53
59.8872	514.55
59.9017	547.27
59.9161	548.57
59.9305	513.82
59.9450	529.08
59.9594	542.65
59.9739	525.53
59.9883	543.73
60.0027	513.83
60.0172	521.37
60.0316	528.58
60.0461	570.08
60.0605	552.92
60.0750	544.16
60.0894	556.66
60.1038	560.92
60.1183	572.53
60.1327	575.40
60.1472	551.97
60.1616	560.66
60.1760	565.51
60.1905	525.87
60.2049	481.63
60.2194	557.62
60.2338	547.15
60.2482	519.37
60.2627	530.04
60.2771	523.74
60.2916	544.69
60.3060	513.73
60.3204	547.68
60.3349	537.24
60.3493	516.52
60.3638	524.91
60.3782	586.08
60.3926	559.05
60.4071	511.87
60.4215	550.70
60.4360	554.61
60.4504	517.42
60.4648	572.18
60.4793	564.10
60.4937	523.29
60.5082	535.27
60.5226	563.89
60.5370	529.55
60.5515	573.62
60.5659	556.65
60.5804	530.43
60.5948	538.92
60.6092	550.54
60.6237	551.50
60.6381	568.34
60.6526	562.51
60.6670	547.61
60.6814	571.03
60.6959	547.80
60.7103	566.22
60.7248	539.81
60.7392	527.10
60.7536	550.24
60.7681	546.18
60.7825	531.13
60.7970	522.33
60.8114	531.23
60.8258	537.88
60.8403	552.80
60.8547	501.03
60.8692	572.80
60.8836	541.04
60.8980	544.79
60.9125	575.51
60.9269	539.20
60.9414	567.92
60.9558	546.42
60.9702	563.12
60.9847	577.83
60.9991	583.06
61.0136	542.70
61.0280	550.37
61.0424	549.58
61.0569	537.19
61.0713	562.21
61.0858	536.36
61.1002	545.71
61.1146	547.20
61.1291	557.60
61.1435	540.49
61.1580	533.66
61.1724	542.20
61.1868	530.13
61.2013	562.32
61.2157	552.19
61.2302	502.29
61.2446	518.62
61.2590	514.38
61.2735	532.18
61.2879	530.25
61.3024	554.86
61.3168	538.70
61.3312	543.92
61.3457	541.16
61.3601	555.07
61.3746	520.23
61.3890	525.89
61.4034	523.14
61.4179	568.91
61.4323	559.53
61.4468	550.00
61.4612	572.96
61.4756	565.35
61.4901	560.35
61.5045	528.14
61.5190	564.95
61.5334	550.09
61.5478	546.08
61.5623	555.18
61.5767	532.47
61.5912	551.38
61.6056	550.07
61.6200	518.13
61.6345	514.93
61.6489	507.74
61.6634	549.53
61.6778	565.56
61.6922	566.69
61.7067	572.44
61.7211	551.63
61.7356	518.61
61.7500	542.11
61.7644	552.03
61.7789	563.35
61.7933	524.29
61.8078	561.29
61.8222	500.87
61.8366	518.68
61.8511	519.50
61.8655	566.57
61.8800	549.54
61.8944	550.48
61.9088	542.33
61.9233	522.85
61.9377	558.62
61.9522	571.13
61.9666	562.97
61.9810	550.56
61.9955	509.21
62.0099	553.54
62.0244	575.56
62.0388	522.18
62.0532	536.62
62.0677	562.08
62.0821	518.30
62.0966	529.38
62.1110	541.12
62.1254	544.73
62.1399	560.01
62.1543	522.56
62.1688	570.90
62.1832	548.22
62.1976	578.60
62.2121	537.87
62.2265	534.62
62.2410	570.13
62.2554	574.17
62.2698	524.43
62.2843	558.62
62.2987	559.41
62.3132	528.38
62.3276	537.95
62.3420	565.60
62.3565	566.74
62.3709	546.75
62.3854	565.47
62.3998	541.53
62.4142	540.30
62.4287	589.87
62.4431	577.34
62.4576	545.04
62.4720	573.75
62.4864	540.62
62.5009	590.81
62.5153	590.24
62.5298	563.39
62.5442	564.37
62.5586	573.21
62.5731	573.29
62.5875	551.40
62.6020	532.87
62.6164	521.07
62.6308	580.33
62.6453	591.85
62.6597	550.36
62.6742	540.42
62.6886	531.02
62.7030	578.90
62.7175	560.19
62.7319	535.84
62.7464	571.85
62.7608	556.34
62.7752	566.71
62.7897	564.03
62.8041	591.06
62.8186	552.68
62.8330	550.21
62.8474	551.55
62.8619	587.46
62.8763	590.68
62.8908	575.26
62.9052	587.28
62.9196	591.45
62.9341	591.03
62.9485	557.54
62.9630	543.70
62.9774	550.58
62.9918	591.79
63.0063	576.28
63.0207	563.61
63.0352	549.75
63.0496	608.81
63.0640	609.66
63.0785	566.44
63.0929	573.89
63.1074	568.93
63.1218	560.86
63.1362	538.16
63.1507	551.04
63.1651	596.15
63.1796	582.55
63.1940	578.76
63.2084	577.83
63.2229	549.96
63.2373	579.09
63.2518	590.00
63.2662	549.35
63.2806	603.30
63.2951	589.56
63.3095	582.65
63.3240	580.77
63.3384	571.31
63.3528	555.98
63.3673	542.37
63.3817	563.62
63.3962	584.04
63.4106	582.95
63.4250	589.73
63.4395	580.03
63.4539	582.54
63.4684	613.16
63.4828	640.18
63.4972	607.35
63.5117	565.57
63.5261	564.07
63.5406	584.29
63.5550	611.58
63.5694	651.40
63.5839	636.63
63.5983	635.54
63.6128	654.01
63.6272	626.31
63.6416	641.48
63.6561	614.15
63.6705	621.97
63.6850	615.38
63.6994	674.63
63.7138	715.77
63.7283	711.02
63.7427	694.10
63.7572	712.69
63.7716	729.86
63.7861	784.79
63.8005	763.51
63.8149	874.96
63.8294	864.82
63.8438	859.24
63.8583	882.74
63.8727	820.17
63.8871	803.75
63.9016	816.25
63.9160	822.91
63.9305	739.87
63.9449	817.77
63.9593	759.24
63.9738	806.41
63.9882	761.13
64.0027	776.24
64.0171	750.37
64.0315	728.63
64.0460	741.65
64.0604	785.75
64.0749	751.53
64.0893	776.30
64.1037	711.09
64.1182	696.14
64.1326	709.60
64.1471	686.28
64.1615	666.90
64.1759	655.41
64.1904	630.25
64.2048	648.50
64.2193	685.95
64.2337	665.57
64.2481	649.36
64.2626	646.42
64.2770	635.04
64.2915	592.38
64.3059	615.63
64.3203	669.73
64.3348	628.62
64.3492	582.42
64.3637	623.21
64.3781	641.91
64.3925	618.16
64.4070	617.50
64.4214	608.71
64.4359	652.73
64.4503	610.51
64.4647	639.60
64.4792	655.31
64.4936	666.40
64.5081	639.06
64.5225	630.26
64.5369	661.86
64.5514	660.48
64.5658	635.15
64.5803	614.37
64.5947	632.24
64.6091	640.36
64.6236	644.55
64.6380	677.08
64.6525	637.46
64.6669	656.20
64.6813	667.04
64.6958	655.03
64.7102	723.74
64.7247	686.65
64.7391	684.30
64.7535	706.44
64.7680	719.31
64.7824	732.53
64.7969	752.47
64.8113	739.66
64.8257	780.85
64.8402	820.07
64.8546	820.01
64.8691	850.79
64.8835	864.54
64.8979	877.07
64.9124	833.58
64.9268	867.88
64.9413	901.13
64.9557	947.68
64.9701	1032.27
64.9846	1091.14
64.9990	1084.72
65.0135	1308.90
65.0279	1517.74
65.0423	1728.59
65.0568	2041.43
65.0712	2656.51
65.0857	3596.67
65.1001	4733.50
65.1145	6349.69
65.1290	8349.05
65.1434	9773.03
65.1579	11018.75
65.1723	11826.86
65.1867	11357.41
65.2012	9966.71
65.2156	8215.84
65.2301	6573.47
65.2445	5387.48
65.2589	4488.81
65.2734	4193.35
65.2878	4478.15
65.3023	5060.53
65.3167	5858.93
65.3311	6644.10
65.3456	7080.30
65.3600	7052.85
65.3745	6540.80
65.3889	5430.46
65.4033	4465.76
65.4178	3507.59
65.4322	2692.08
65.4467	1966.18
65.4611	1712.45
65.4755	1489.34
65.4900	1280.51
65.5044	1156.73
65.5189	1071.94
65.5333	1001.55
65.5477	948.24
65.5622	874.43
65.5766	831.78
65.5911	768.03
65.6055	748.98
65.6199	769.50
65.6344	818.96
65.6488	755.57
65.6633	747.33
65.6777	722.21
65.6921	748.98
65.7066	707.05
65.7210	693.08
65.7355	671.39
65.7499	704.66
65.7643	686.46
65.7788	684.35
65.7932	647.40
65.8077	654.07
65.8221	709.28
65.8365	700.20
65.8510	689.44
65.8654	674.50
65.8799	673.23
65.8943	681.13
65.9087	647.14
65.9232	663.27
65.9376	648.90
65.9521	647.87
65.9665	611.43
65.9809	602.73
65.9954	638.73
66.0098	606.32
66.0243	600.03
66.0387	613.17
66.0531	609.91
66.0676	628.11
66.0820	603.75
66.0965	630.97
66.1109	593.53
66.1253	643.80
66.1398	605.09
66.1542	612.67
66.1687	644.84
66.1831	641.45
66.1975	616.04
66.2120	605.12
66.2264	618.45
66.2409	628.72
66.2553	609.59
66.2697	572.73
66.2842	598.06
66.2986	587.46
66.3131	615.35
66.3275	607.73
66.3419	606.45
66.3564	631.53
66.3708	629.30
66.3853	617.22
66.3997	590.83
66.4141	623.68
66.4286	594.87
66.4430	607.67
66.4575	614.05
66.4719	589.24
66.4863	596.88
66.5008	591.05
66.5152	601.58
66.5297	588.33
66.5441	601.34
66.5585	588.86
66.5730	572.76
66.5874	588.17
66.6019	579.44
66.6163	578.59
66.6307	598.02
66.6452	608.62
66.6596	615.09
66.6741	592.68
66.6885	597.31
66.7029	597.13
66.7174	618.05
66.7318	600.00
66.7463	576.47
66.7607	587.22
66.7751	601.45
66.7896	582.13
66.8040	596.08
66.8185	597.71
66.8329	587.86
66.8473	633.87
66.8618	632.08
66.8762	605.73
66.8907	588.15
66.9051	619.20
66.9195	587.02
66.9340	582.73
66.9484	589.54
66.9629	574.13
66.9773	569.95
66.9917	581.40
67.0062	571.02
67.0206	581.59
67.0351	556.42
67.0495	568.84
67.0639	559.58
67.0784	568.88
67.0928	579.38
67.1073	575.90
67.1217	600.79
67.1361	595.87
67.1506	562.75
67.1650	598.75
67.1795	572.35
67.1939	564.30
67.2083	573.47
67.2228	590.38
67.2372	605.89
67.2517	583.90
67.2661	567.36
67.2805	574.10
67.2950	588.94
67.3094	612.45
67.3239	579.91
67.3383	578.63
67.3527	574.85
67.3672	597.64
67.3816	569.85
67.3961	595.76
67.4105	581.77
67.4250	615.88
67.4394	569.10
67.4538	575.70
67.4683	585.01
67.4827	596.67
67.4972	599.80
67.5116	564.22
67.5260	584.51
67.5405	565.45
67.5549	572.91
67.5694	592.02
67.5838	561.52
67.5982	542.01
67.6127	558.22
67.6271	543.63
67.6416	552.74
67.6560	568.34
67.6704	581.78
67.6849	581.97
67.6993	577.36
67.7138	587.22
67.7282	583.77
67.7426	557.58
67.7571	567.58
67.7715	574.60
67.7860	583.97
67.8004	556.83
67.8148	579.12
67.8293	577.11
67.8437	555.69
67.8582	585.98
67.8726	580.21
67.8870	557.48
67.9015	603.36
67.9159	542.91
67.9304	594.52
67.9448	623.17
67.9592	608.81
67.9737	558.78
67.9881	559.53
68.0026	570.31
68.0170	582.12
68.0314	567.12
68.0459	529.30
68.0603	550.34
68.0748	624.97
68.0892	633.22
68.1036	547.18
68.1181	570.38
68.1325	613.30
68.1470	567.83
68.1614	580.92
68.1758	555.15
68.1903	531.15
68.2047	534.15
68.2192	577.68
68.2336	574.98
68.2480	574.45
68.2625	563.92
68.2769	582.41
68.2914	553.82
68.3058	558.38
68.3202	517.04
68.3347	562.12
68.3491	575.04
68.3636	592.23
68.3780	587.67
68.3924	558.49
68.4069	567.60
68.4213	577.62
68.4358	602.62
68.4502	569.46
68.4646	591.08
68.4791	628.21
68.4935	541.05
68.5080	537.29
68.5224	581.57
68.5368	566.69
68.5513	534.59
68.5657	569.42
68.5802	553.50
68.5946	594.18
68.6090	593.29
68.6235	570.22
68.6379	548.92
68.6524	566.84
68.6668	570.68
68.6812	584.49
68.6957	573.84
68.7101	578.86
68.7246	601.71
68.7390	572.00
68.7534	565.34
68.7679	561.87
68.7823	591.33
68.7968	540.21
68.8112	563.16
68.8256	586.56
68.8401	615.71
68.8545	590.76
68.8690	582.07
68.8834	603.11
68.8978	593.27
68.9123	548.92
68.9267	573.40
68.9412	577.71
68.9556	543.65
68.9700	579.20
68.9845	600.49
68.9989	595.61
69.0134	549.58
69.0278	549.11
69.0422	586.36
69.0567	577.88
69.0711	603.34
69.0856	562.95
69.1000	582.06
69.1144	594.89
69.1289	590.26
69.1433	616.34
69.1578	604.42
69.1722	583.90
69.1866	539.99
69.2011	601.15
69.2155	610.47
69.2300	572.87
69.2444	602.20
69.2588	555.39
69.2733	578.24
69.2877	536.87
69.3022	594.37
69.3166	522.27
69.3310	578.66
69.3455	579.68
69.3599	568.83
69.3744	609.50
69.3888	608.66
69.4032	572.80
69.4177	577.63
69.4321	588.66
69.4466	559.14
69.4610	593.24
69.4754	604.94
69.4899	591.21
69.5043	584.05
69.5188	564.64
69.5332	585.98
69.5476	577.86
69.5621	591.17
69.5765	567.70
69.5910	585.30
69.6054	554.57
69.6198	576.00
69.6343	595.43
69.6487	587.15
69.6632	594.74
69.6776	586.03
69.6920	605.39
69.7065	581.33
69.7209	578.16
69.7354	532.02
69.7498	557.46
69.7642	557.35
69.7787	571.25
69.7931	553.88
69.8076	557.80
69.8220	549.30
69.8364	579.86
69.8509	556.00
69.8653	608.82
69.8798	610.40
69.8942	573.23
69.9086	656.43
69.9231	595.32
69.9375	590.00
69.9520	583.12
69.9664	568.35
69.9808	562.88
69.9953	600.00
70.0097	598.06
70.0242	583.96
70.0386	510.30
70.0530	532.74
70.0675	614.24
70.0819	602.11
70.0964	563.47
70.1108	633.92
70.1252	576.46
70.1397	580.65
70.1541	580.71
70.1686	589.83
70.1830	624.60
70.1974	594.61
70.2119	576.42
70.2263	541.24
70.2408	536.04
70.2552	571.24
70.2696	579.52
70.2841	604.28
70.2985	608.70
70.3130	593.13
70.3274	589.72
70.3418	585.84
70.3563	577.55
70.3707	549.98
70.3852	601.82
70.3996	590.50
70.4140	586.39
70.4285	568.58
70.4429	602.92
70.4574	598.90
70.4718	585.85
70.4862	593.99
70.5007	594.51
70.5151	592.74
70.5296	553.28
70.5440	581.31
70.5584	591.02
70.5729	588.13
70.5873	526.12
70.6018	593.56
70.6162	573.82
70.6306	524.62
70.6451	574.94
70.6595	590.13
70.6740	632.77
70.6884	585.14
70.7028	566.83
70.7173	562.26
70.7317	577.59
70.7462	575.64
70.7606	602.02
70.7750	565.04
70.7895	578.93
70.8039	576.07
70.8184	563.10
70.8328	606.43
70.8472	555.65
70.8617	603.11
70.8761	549.64
70.8906	600.91
70.9050	610.69
70.9194	615.84
70.9339	642.70
70.9483	614.74
70.9628	586.99
70.9772	572.68
70.9916	591.17
71.0061	547.77
71.0205	574.30
71.0350	632.28
71.0494	618.83
71.0638	590.08
71.0783	600.27
71.0927	625.55
71.1072	620.64
71.1216	585.77
71.1361	570.76
71.1505	561.98
71.1649	582.33
71.1794	599.78
71.1938	576.29
71.2083	582.20
71.2227	601.60
71.2371	595.16
71.2516	595.20
71.2660	535.16
71.2805	517.25
71.2949	547.57
71.3093	526.24
71.3238	522.39
71.3382	612.49
71.3527	613.74
71.3671	608.23
71.3815	621.70
71.3960	598.99
71.4104	578.87
71.4249	563.12
71.4393	582.59
71.4537	576.19
71.4682	528.92
71.4826	543.91
71.4971	599.09
71.5115	568.15
71.5259	562.99
71.5404	593.54
71.5548	575.14
71.5693	565.17
71.5837	580.65
71.5981	616.05
71.6126	568.54
71.6270	604.28
71.6415	596.71
71.6559	576.08
71.6703	604.86
71.6848	555.18
71.6992	580.57
71.7137	582.56
71.7281	575.56
71.7425	536.35
71.7570	556.10
71.7714	550.08
71.7859	539.59
71.8003	597.23
71.8147	616.10
71.8292	552.05
71.8436	559.92
71.8581	532.13
71.8725	571.76
71.8869	584.75
71.9014	707.23
71.9158	671.56
71.9303	547.86
71.9447	562.22
71.9591	620.45
71.9736	622.59
71.9880	566.81
72.0025	525.78
72.0169	540.55
72.0313	593.96
72.0458	591.59
72.0602	587.32
72.0747	598.97
72.0891	567.98
72.1035	551.86
72.1180	592.08
72.1324	588.71
72.1469	547.25
72.1613	528.52
72.1757	535.92
72.1902	550.10
72.2046	564.15
72.2191	575.56
72.2335	614.74
72.2479	680.27
72.2624	543.10
72.2768	529.91
72.2913	592.14
72.3057	604.09
72.3201	561.22
72.3346	572.06
72.3490	580.51
72.3635	568.32
72.3779	605.79
72.3923	633.34
72.4068	609.60
72.4212	581.35
72.4357	580.57
72.4501	607.80
72.4645	594.12
72.4790	605.50
72.4934	560.18
72.5079	598.74
72.5223	647.51
72.5367	637.08
72.5512	687.68
72.5656	685.17
72.5801	542.74
72.5945	529.09
72.6089	550.11
72.6234	587.85
72.6378	581.75
72.6523	625.56
72.6667	682.59
72.6811	583.74
72.6956	547.77
72.7100	565.75
72.7245	582.46
72.7389	612.83
72.7533	583.00
72.7678	604.41
72.7822	676.66
72.7967	630.13
72.8111	543.34
72.8255	573.81
72.8400	544.83
72.8544	573.90
72.8689	669.70
72.8833	645.46