2022.09.19 19:37:16
Îáðàçåö: ß÷åéêà LCoV 16-09-2022
Lambda1 = 1.54060
Lambda2 = 1.54439
Lambdam = 1.54186
R = 0.497
2Theta	I

line¹ 0 ;repeat¹ 0
22.1120	490.67
22.1264	609.89
22.1409	484.60
22.1553	507.16
22.1697	571.60
22.1842	583.58
22.1986	494.98
22.2131	463.90
22.2275	529.09
22.2419	578.53
22.2564	555.95
22.2708	605.78
22.2853	605.33
22.2997	577.09
22.3141	653.67
22.3286	626.45
22.3430	609.60
22.3575	591.15
22.3719	551.35
22.3863	576.23
22.4008	548.23
22.4152	544.47
22.4297	660.60
22.4441	668.64
22.4585	612.66
22.4730	639.48
22.4874	673.28
22.5019	608.51
22.5163	554.79
22.5307	541.76
22.5452	538.22
22.5596	594.01
22.5741	643.67
22.5885	555.44
22.6029	576.30
22.6174	551.49
22.6318	547.77
22.6463	635.62
22.6607	608.01
22.6751	540.60
22.6896	653.33
22.7040	667.46
22.7185	574.66
22.7329	543.56
22.7473	543.18
22.7618	538.31
22.7762	612.87
22.7907	642.35
22.8051	600.91
22.8195	582.09
22.8340	547.71
22.8484	546.49
22.8629	593.91
22.8773	603.65
22.8917	530.57
22.9062	576.53
22.9206	575.16
22.9351	533.22
22.9495	603.96
22.9639	569.34
22.9784	580.64
22.9928	595.65
23.0073	560.07
23.0217	627.18
23.0361	572.88
23.0506	532.61
23.0650	562.24
23.0795	492.51
23.0939	610.73
23.1083	561.38
23.1228	496.46
23.1372	595.57
23.1517	565.47
23.1661	600.70
23.1806	605.21
23.1950	582.30
23.2094	523.97
23.2239	568.03
23.2383	512.32
23.2528	574.72
23.2672	482.30
23.2816	522.80
23.2961	541.34
23.3105	579.05
23.3250	559.32
23.3394	579.23
23.3538	596.23
23.3683	511.68
23.3827	550.67
23.3972	495.59
23.4116	496.38
23.4260	568.09
23.4405	515.89
23.4549	566.98
23.4694	527.41
23.4838	547.68
23.4982	530.62
23.5127	477.70
23.5271	546.86
23.5416	582.20
23.5560	593.09
23.5704	579.93
23.5849	579.50
23.5993	600.37
23.6138	556.41
23.6282	500.08
23.6426	529.22
23.6571	528.45
23.6715	537.17
23.6860	553.04
23.7004	560.79
23.7148	561.21
23.7293	474.51
23.7437	547.52
23.7582	607.00
23.7726	591.37
23.7870	583.94
23.8015	526.64
23.8159	511.69
23.8304	592.30
23.8448	549.51
23.8592	565.34
23.8737	583.07
23.8881	567.95
23.9026	602.18
23.9170	549.65
23.9314	551.65
23.9459	504.69
23.9603	577.64
23.9748	579.56
23.9892	559.91
24.0036	497.80
24.0181	588.13
24.0325	566.22
24.0470	539.61
24.0614	554.05
24.0758	498.31
24.0903	578.28
24.1047	556.71
24.1192	540.60
24.1336	586.91
24.1480	534.82
24.1625	568.57
24.1769	629.94
24.1914	633.14
24.2058	519.64
24.2202	597.57
24.2347	621.22
24.2491	565.12
24.2636	549.36
24.2780	573.11
24.2924	636.61
24.3069	575.12
24.3213	534.60
24.3358	559.07
24.3502	566.86
24.3646	502.56
24.3791	531.84
24.3935	518.26
24.4080	569.89
24.4224	572.53
24.4368	564.91
24.4513	560.69
24.4657	553.52
24.4802	520.32
24.4946	533.77
24.5090	561.89
24.5235	526.19
24.5379	541.59
24.5524	564.88
24.5668	584.31
24.5812	568.77
24.5957	593.56
24.6101	576.58
24.6246	511.74
24.6390	586.43
24.6534	569.31
24.6679	582.91
24.6823	520.33
24.6968	503.09
24.7112	545.02
24.7256	554.10
24.7401	573.60
24.7545	537.47
24.7690	574.73
24.7834	517.97
24.7978	618.75
24.8123	618.82
24.8267	539.65
24.8412	499.64
24.8556	556.36
24.8700	590.37
24.8845	532.41
24.8989	564.06
24.9134	541.38
24.9278	520.94
24.9422	585.24
24.9567	590.44
24.9711	547.42
24.9856	542.92
25.0000	529.86
25.0144	509.93
25.0289	459.59
25.0433	560.65
25.0578	561.39
25.0722	554.98
25.0866	532.47
25.1011	559.28
25.1155	591.15
25.1300	567.51
25.1444	554.22
25.1588	593.23
25.1733	527.64
25.1877	512.29
25.2022	553.16
25.2166	521.42
25.2310	497.99
25.2455	518.75
25.2599	536.17
25.2744	563.39
25.2888	557.80
25.3032	545.84
25.3177	554.34
25.3321	518.33
25.3466	561.43
25.3610	576.55
25.3754	506.92
25.3899	528.87
25.4043	524.54
25.4188	523.92
25.4332	501.51
25.4476	506.71
25.4621	536.18
25.4765	524.16
25.4910	554.32
25.5054	515.38
25.5198	515.43
25.5343	556.71
25.5487	552.47
25.5632	591.99
25.5776	562.80
25.5920	559.87
25.6065	554.13
25.6209	553.57
25.6354	568.16
25.6498	533.83
25.6642	565.57
25.6787	543.00
25.6931	547.11
25.7076	566.98
25.7220	582.49
25.7364	493.75
25.7509	502.27
25.7653	547.94
25.7798	578.70
25.7942	561.53
25.8086	525.68
25.8231	552.64
25.8375	533.75
25.8520	561.59
25.8664	605.68
25.8808	549.76
25.8953	558.75
25.9097	549.15
25.9242	528.96
25.9386	527.11
25.9530	524.21
25.9675	511.62
25.9819	514.92
25.9964	491.19
26.0108	542.20
26.0252	552.31
26.0397	526.62
26.0541	534.41
26.0686	546.88
26.0830	520.21
26.0974	559.30
26.1119	545.74
26.1263	541.45
26.1408	532.15
26.1552	517.06
26.1696	538.32
26.1841	542.43
26.1985	527.08
26.2130	542.94
26.2274	541.86
26.2418	510.83
26.2563	518.86
26.2707	538.76
26.2852	525.61
26.2996	531.55
26.3140	559.76
26.3285	545.98
26.3429	530.67
26.3574	547.02
26.3718	514.43
26.3862	509.56
26.4007	541.85
26.4151	514.78
26.4296	497.89
26.4440	529.82
26.4584	506.46
26.4729	548.73
26.4873	543.07
26.5018	540.17
26.5162	533.40
26.5306	511.37
26.5451	528.99
26.5595	546.15
26.5740	554.03
26.5884	525.89
26.6028	516.10
26.6173	527.93
26.6317	524.48
26.6462	508.85
26.6606	524.65
26.6750	551.37
26.6895	521.43
26.7039	552.42
26.7184	536.23
26.7328	525.46
26.7472	525.09
26.7617	520.89
26.7761	540.35
26.7906	546.59
26.8050	525.89
26.8194	532.93
26.8339	560.29
26.8483	528.57
26.8628	509.97
26.8772	516.10
26.8917	532.11
26.9061	553.65
26.9205	558.77
26.9350	545.85
26.9494	515.86
26.9639	506.85
26.9783	515.56
26.9927	507.99
27.0072	532.22
27.0216	526.27
27.0361	508.54
27.0505	522.48
27.0649	547.01
27.0794	541.46
27.0938	526.27
27.1083	516.06
27.1227	516.78
27.1371	493.95
27.1516	489.27
27.1660	544.92
27.1805	557.55
27.1949	516.66
27.2093	521.79
27.2238	567.21
27.2382	541.63
27.2527	559.82
27.2671	540.84
27.2815	536.21
27.2960	530.41
27.3104	526.30
27.3249	510.37
27.3393	517.00
27.3537	531.09
27.3682	532.34
27.3826	515.91
27.3971	509.12
27.4115	495.78
27.4259	537.85
27.4404	509.31
27.4548	490.72
27.4693	535.90
27.4837	522.98
27.4981	533.44
27.5126	504.55
27.5270	478.53
27.5415	533.04
27.5559	487.86
27.5703	539.52
27.5848	553.43
27.5992	537.50
27.6137	537.47
27.6281	497.10
27.6425	515.31
27.6570	536.48
27.6714	544.38
27.6859	508.75
27.7003	541.62
27.7147	535.91
27.7292	528.02
27.7436	522.79
27.7581	495.94
27.7725	515.21
27.7869	512.56
27.8014	560.29
27.8158	569.22
27.8303	522.02
27.8447	492.33
27.8591	534.22
27.8736	530.12
27.8880	517.52
27.9025	521.74
27.9169	523.98
27.9313	542.36
27.9458	527.33
27.9602	495.72
27.9747	509.83
27.9891	512.79
28.0035	537.71
28.0180	492.56
28.0324	524.14
28.0469	531.19
28.0613	520.96
28.0757	523.39
28.0902	541.76
28.1046	546.90
28.1191	520.99
28.1335	516.46
28.1479	483.75
28.1624	523.42
28.1768	497.83
28.1913	506.73
28.2057	523.12
28.2201	528.95
28.2346	523.72
28.2490	533.38
28.2635	527.52
28.2779	515.35
28.2923	548.94
28.3068	553.11
28.3212	527.07
28.3357	520.90
28.3501	538.81
28.3645	520.54
28.3790	536.27
28.3934	521.67
28.4079	523.14
28.4223	551.96
28.4367	528.16
28.4512	504.04
28.4656	515.75
28.4801	552.93
28.4945	533.21
28.5089	521.97
28.5234	526.90
28.5378	533.03
28.5523	518.79
28.5667	530.52
28.5811	512.93
28.5956	513.65
28.6100	531.83
28.6245	531.50
28.6389	538.04
28.6533	534.06
28.6678	504.88
28.6822	507.49
28.6967	528.36
28.7111	544.39
28.7255	524.18
28.7400	529.76
28.7544	505.34
28.7689	488.89
28.7833	519.11
28.7977	497.35
28.8122	511.05
28.8266	530.02
28.8411	527.36
28.8555	521.41
28.8699	508.99
28.8844	487.06
28.8988	536.71
28.9133	542.70
28.9277	542.40
28.9421	484.98
28.9566	505.00
28.9710	527.25
28.9855	540.72
28.9999	561.43
29.0143	542.42
29.0288	558.09
29.0432	495.23
29.0577	514.02
29.0721	508.36
29.0865	493.26
29.1010	507.94
29.1154	537.23
29.1299	544.33
29.1443	520.85
29.1587	559.63
29.1732	513.67
29.1876	475.00
29.2021	477.89
29.2165	523.34
29.2309	538.46
29.2454	538.29
29.2598	524.43
29.2743	511.43
29.2887	540.15
29.3031	481.24
29.3176	463.30
29.3320	518.23
29.3465	518.24
29.3609	509.58
29.3753	536.19
29.3898	551.17
29.4042	530.70
29.4187	521.95
29.4331	532.26
29.4475	499.66
29.4620	557.23
29.4764	503.92
29.4909	512.30
29.5053	468.53
29.5197	505.31
29.5342	500.89
29.5486	482.76
29.5631	536.54
29.5775	524.99
29.5919	522.64
29.6064	524.05
29.6208	516.85
29.6353	515.71
29.6497	516.77
29.6641	537.72
29.6786	499.09
29.6930	513.39
29.7075	546.67
29.7219	499.46
29.7363	510.53
29.7508	478.09
29.7652	476.20
29.7797	531.67
29.7941	527.16
29.8085	505.67
29.8230	528.08
29.8374	500.08
29.8519	497.57
29.8663	515.10
29.8807	532.64
29.8952	512.13
29.9096	484.87
29.9241	525.17
29.9385	523.55
29.9529	530.96
29.9674	498.74
29.9818	506.08
29.9963	508.05
30.0107	500.98
30.0251	554.08
30.0396	517.47
30.0540	498.35
30.0685	517.08
30.0829	527.18
30.0973	520.28
30.1118	510.64
30.1262	489.13
30.1407	508.03
30.1551	515.00
30.1695	517.56
30.1840	516.42
30.1984	502.13
30.2129	517.91
30.2273	509.44
30.2417	518.44
30.2562	503.03
30.2706	517.77
30.2851	511.76
30.2995	515.98
30.3139	503.02
30.3284	535.89
30.3428	485.08
30.3573	488.19
30.3717	491.62
30.3861	483.34
30.4006	495.80
30.4150	504.68
30.4295	496.65
30.4439	517.65
30.4583	543.05
30.4728	525.95
30.4872	520.75
30.5017	507.16
30.5161	500.10
30.5305	516.53
30.5450	528.32
30.5594	542.66
30.5739	572.23
30.5883	537.86
30.6028	570.24
30.6172	593.42
30.6316	635.33
30.6461	675.51
30.6605	653.70
30.6750	648.12
30.6894	697.38
30.7038	764.62
30.7183	734.01
30.7327	724.02
30.7472	700.74
30.7616	742.98
30.7760	687.31
30.7905	666.49
30.8049	617.79
30.8194	601.80
30.8338	639.15
30.8482	588.75
30.8627	562.31
30.8771	518.11
30.8916	540.86
30.9060	535.46
30.9204	508.53
30.9349	534.81
30.9493	520.31
30.9638	517.80
30.9782	532.34
30.9926	547.29
31.0071	541.27
31.0215	543.65
31.0360	538.89
31.0504	492.84
31.0648	528.41
31.0793	540.05
31.0937	546.22
31.1082	510.65
31.1226	528.06
31.1370	506.08
31.1515	516.49
31.1659	537.98
31.1804	535.07
31.1948	531.67
31.2092	509.17
31.2237	513.17
31.2381	554.91
31.2526	524.15
31.2670	504.17
31.2814	541.89
31.2959	541.10
31.3103	515.58
31.3248	532.53
31.3392	548.08
31.3536	522.70
31.3681	533.66
31.3825	508.29
31.3970	507.79
31.4114	507.32
31.4258	529.61
31.4403	531.53
31.4547	546.59
31.4692	548.20
31.4836	517.56
31.4980	500.45
31.5125	535.18
31.5269	519.91
31.5414	509.80
31.5558	490.27
31.5702	506.37
31.5847	514.45
31.5991	502.09
31.6136	516.21
31.6280	521.24
31.6424	497.26
31.6569	491.47
31.6713	532.27
31.6858	515.15
31.7002	503.43
31.7146	527.64
31.7291	522.95
31.7435	530.69
31.7580	495.87
31.7724	502.45
31.7868	501.60
31.8013	496.84
31.8157	481.35
31.8302	537.48
31.8446	522.77
31.8590	537.05
31.8735	544.07
31.8879	523.33
31.9024	533.53
31.9168	525.34
31.9312	506.27
31.9457	489.31
31.9601	479.82
31.9746	477.14
31.9890	510.92
32.0034	507.10
32.0179	517.09
32.0323	499.44
32.0468	494.57
32.0612	476.27
32.0756	502.90
32.0901	518.38
32.1045	492.18
32.1190	520.42
32.1334	513.24
32.1478	518.06
32.1623	509.59
32.1767	490.63
32.1912	492.69
32.2056	484.07
32.2200	493.47
32.2345	493.18
32.2489	499.02
32.2634	467.82
32.2778	485.58
32.2922	466.26
32.3067	539.98
32.3211	492.02
32.3356	513.94
32.3500	491.73
32.3644	456.64
32.3789	500.71
32.3933	483.59
32.4078	494.20
32.4222	545.62
32.4366	517.20
32.4511	495.59
32.4655	493.34
32.4800	510.76
32.4944	525.38
32.5088	495.40
32.5233	501.15
32.5377	502.85
32.5522	516.99
32.5666	522.35
32.5810	510.10
32.5955	474.53
32.6099	526.17
32.6244	519.74
32.6388	482.88
32.6532	508.53
32.6677	504.17
32.6821	521.83
32.6966	489.88
32.7110	520.68
32.7254	542.14
32.7399	497.04
32.7543	496.41
32.7688	521.53
32.7832	507.95
32.7976	515.25
32.8121	505.62
32.8265	543.50
32.8410	528.96
32.8554	526.85
32.8698	515.80
32.8843	521.97
32.8987	513.43
32.9132	526.66
32.9276	525.26
32.9420	543.77
32.9565	516.82
32.9709	529.89
32.9854	486.04
32.9998	536.47
33.0142	526.84
33.0287	510.19
33.0431	511.30
33.0576	517.14
33.0720	495.08
33.0864	522.02
33.1009	497.56
33.1153	505.34
33.1298	514.31
33.1442	490.24
33.1586	515.17
33.1731	517.25
33.1875	505.71
33.2020	525.54
33.2164	533.21
33.2308	519.23
33.2453	509.68
33.2597	492.09
33.2742	526.26
33.2886	492.47
33.3030	488.84
33.3175	496.65
33.3319	495.34
33.3464	467.85
33.3608	483.28
33.3752	459.71
33.3897	477.56
33.4041	510.64
33.4186	488.91
33.4330	509.66
33.4474	508.22
33.4619	531.63
33.4763	500.22
33.4908	493.28
33.5052	492.55
33.5196	523.88
33.5341	476.58
33.5485	515.99
33.5630	488.65
33.5774	477.31
33.5918	505.56
33.6063	532.21
33.6207	504.28
33.6352	520.61
33.6496	493.41
33.6640	515.06
33.6785	505.92
33.6929	497.28
33.7074	511.48
33.7218	501.08
33.7362	493.71
33.7507	477.93
33.7651	482.76
33.7796	518.96
33.7940	508.05
33.8084	518.21
33.8229	540.93
33.8373	536.22
33.8518	545.65
33.8662	508.13
33.8806	490.78
33.8951	488.95
33.9095	538.94
33.9240	548.02
33.9384	500.53
33.9528	505.75
33.9673	473.21
33.9817	509.25
33.9962	524.52
34.0106	508.85
34.0250	500.38
34.0395	479.54
34.0539	497.57
34.0684	535.50
34.0828	545.86
34.0972	507.96
34.1117	522.53
34.1261	491.89
34.1406	506.80
34.1550	470.47
34.1694	493.94
34.1839	487.55
34.1983	498.27
34.2128	545.97
34.2272	517.40
34.2417	511.68
34.2561	504.49
34.2705	485.69
34.2850	522.36
34.2994	500.52
34.3139	508.26
34.3283	519.97
34.3427	488.21
34.3572	515.96
34.3716	475.09
34.3861	510.26
34.4005	479.99
34.4149	515.12
34.4294	525.79
34.4438	469.93
34.4583	472.64
34.4727	517.02
34.4871	522.32
34.5016	522.09
34.5160	520.26
34.5305	511.41
34.5449	494.35
34.5593	505.18
34.5738	500.71
34.5882	531.28
34.6027	537.92
34.6171	554.09
34.6315	528.32
34.6460	519.25
34.6604	524.37
34.6749	537.00
34.6893	549.56
34.7037	493.98
34.7182	484.87
34.7326	519.46
34.7471	510.63
34.7615	497.73
34.7759	516.11
34.7904	533.09
34.8048	531.40
34.8193	502.01
34.8337	497.25
34.8481	517.00
34.8626	508.89
34.8770	517.04
34.8915	511.08
34.9059	500.16
34.9203	509.51
34.9348	516.05
34.9492	499.73
34.9637	489.22
34.9781	472.19
34.9925	510.75
35.0070	529.17
35.0214	548.85
35.0359	545.55
35.0503	506.04
35.0647	556.48
35.0792	539.86
35.0936	513.88
35.1081	529.64
35.1225	546.09
35.1369	516.30
35.1514	489.19
35.1658	527.58
35.1803	510.52
35.1947	507.75
35.2091	513.54
35.2236	505.61
35.2380	506.56
35.2525	494.10
35.2669	521.27
35.2813	539.54
35.2958	504.98
35.3102	516.11
35.3247	535.76
35.3391	537.78
35.3535	514.59
35.3680	499.71
35.3824	550.85
35.3969	503.98
35.4113	531.34
35.4257	552.45
35.4402	530.96
35.4546	500.89
35.4691	521.97
35.4835	522.01
35.4979	537.17
35.5124	553.50
35.5268	556.75
35.5413	501.67
35.5557	492.04
35.5701	499.92
35.5846	518.76
35.5990	531.81
35.6135	538.31
35.6279	528.45
35.6423	514.39
35.6568	522.92
35.6712	524.33
35.6857	562.26
35.7001	660.86
35.7145	686.52
35.7290	640.76
35.7434	598.32
35.7579	585.54
35.7723	596.13
35.7867	617.39
35.8012	623.12
35.8156	675.70
35.8301	605.32
35.8445	600.25
35.8589	675.99
35.8734	746.96
35.8878	851.00
35.9023	1041.88
35.9167	1098.86
35.9311	1373.74
35.9456	2040.13
35.9600	2272.84
35.9745	1919.38
35.9889	1818.91
36.0033	2288.98
36.0178	2439.66
36.0322	2141.24
36.0467	1985.82
36.0611	1885.97
36.0755	1817.67
36.0900	1876.25
36.1044	1775.49
36.1189	1806.86
36.1333	1696.26
36.1477	1494.30
36.1622	1557.99
36.1766	1481.06
36.1911	1278.12
36.2055	1137.62
36.2199	1039.72
36.2344	947.11
36.2488	918.37
36.2633	888.78
36.2777	806.66
36.2921	753.47
36.3066	730.20
36.3210	670.01
36.3355	666.48
36.3499	619.31
36.3643	589.43
36.3788	617.98
36.3932	571.94
36.4077	547.50
36.4221	591.20
36.4365	563.86
36.4510	541.19
36.4654	583.12
36.4799	544.69
36.4943	531.12
36.5087	539.22
36.5232	526.38
36.5376	555.48
36.5521	527.86
36.5665	524.75
36.5809	510.14
36.5954	517.49
36.6098	537.91
36.6243	528.61
36.6387	556.90
36.6531	523.42
36.6676	503.90
36.6820	503.48
36.6965	525.46
36.7109	561.12
36.7253	499.44
36.7398	510.41
36.7542	569.30
36.7687	535.41
36.7831	552.13
36.7975	536.98
36.8120	594.81
36.8264	600.43
36.8409	588.31
36.8553	560.83
36.8697	604.86
36.8842	614.87
36.8986	608.62
36.9131	614.47
36.9275	588.88
36.9419	586.32
36.9564	555.95
36.9708	592.10
36.9853	526.06
36.9997	509.35
37.0141	522.75
37.0286	506.59
37.0430	544.21
37.0575	530.67
37.0719	545.70
37.0863	539.47
37.1008	500.22
37.1152	535.00
37.1297	500.52
37.1441	523.92
37.1585	508.63
37.1730	507.56
37.1874	513.47
37.2019	509.01
37.2163	521.21
37.2307	519.58
37.2452	521.03
37.2596	524.42
37.2741	511.71
37.2885	500.10
37.3029	480.71
37.3174	511.20
37.3318	543.26
37.3463	504.41
37.3607	516.44
37.3751	508.73
37.3896	501.48
37.4040	497.19
37.4185	479.66
37.4329	501.04
37.4473	510.91
37.4618	516.40
37.4762	498.31
37.4907	497.81
37.5051	498.95
37.5195	512.88
37.5340	501.99
37.5484	498.27
37.5629	523.96
37.5773	492.29
37.5917	495.87
37.6062	515.09
37.6206	508.15
37.6351	536.40
37.6495	502.41
37.6639	494.60
37.6784	505.46
37.6928	495.79
37.7073	496.89
37.7217	494.06
37.7361	495.64
37.7506	487.16
37.7650	501.43
37.7795	507.89
37.7939	512.18
37.8083	509.62
37.8228	489.10
37.8372	545.83
37.8517	500.14
37.8661	512.44
37.8805	490.14
37.8950	510.29
37.9094	487.90
37.9239	514.70
37.9383	530.10
37.9528	513.04
37.9672	473.72
37.9816	486.47
37.9961	498.16
38.0105	514.59
38.0250	515.97
38.0394	510.22
38.0538	482.41
38.0683	515.08
38.0827	532.98
38.0972	479.92
38.1116	489.60
38.1260	531.88
38.1405	499.72
38.1549	513.41
38.1694	502.43
38.1838	513.43
38.1982	468.40
38.2127	487.56
38.2271	505.03
38.2416	521.31
38.2560	512.89
38.2704	516.10
38.2849	505.58
38.2993	521.46
38.3138	548.08
38.3282	512.94
38.3426	530.97
38.3571	534.13
38.3715	525.76
38.3860	527.13
38.4004	524.79
38.4148	571.04
38.4293	604.00
38.4437	590.98
38.4582	589.10
38.4726	631.14
38.4870	686.33
38.5015	730.30
38.5159	768.28
38.5304	820.38
38.5448	796.54
38.5592	787.19
38.5737	740.49
38.5881	749.19
38.6026	736.80
38.6170	694.65
38.6314	682.09
38.6459	681.39
38.6603	656.00
38.6748	618.43
38.6892	586.38
38.7036	591.23
38.7181	548.12
38.7325	522.11
38.7470	501.32
38.7614	532.00
38.7758	550.73
38.7903	539.99
38.8047	536.43
38.8192	512.66
38.8336	487.17
38.8480	514.84
38.8625	520.34
38.8769	488.74
38.8914	498.68
38.9058	531.35
38.9202	524.84
38.9347	515.23
38.9491	519.50
38.9636	484.15
38.9780	479.87
38.9924	480.75
39.0069	490.57
39.0213	503.47
39.0358	497.25
39.0502	527.33
39.0646	530.52
39.0791	505.48
39.0935	516.42
39.1080	524.59
39.1224	505.34
39.1368	481.99
39.1513	475.07
39.1657	488.06
39.1802	481.17
39.1946	468.04
39.2090	475.61
39.2235	494.58
39.2379	526.13
39.2524	504.22
39.2668	503.41
39.2812	521.62
39.2957	496.49
39.3101	493.26
39.3246	530.93
39.3390	536.11
39.3534	484.46
39.3679	515.55
39.3823	528.53
39.3968	505.91
39.4112	505.44
39.4256	509.48
39.4401	498.41
39.4545	477.68
39.4690	441.48
39.4834	488.96
39.4978	492.50
39.5123	498.68
39.5267	505.87
39.5412	493.08
39.5556	478.40
39.5700	478.75
39.5845	501.11
39.5989	517.84
39.6134	531.49
39.6278	513.28
39.6422	528.18
39.6567	493.15
39.6711	507.43
39.6856	524.56
39.7000	526.47
39.7144	511.07
39.7289	497.43
39.7433	472.33
39.7578	506.29
39.7722	484.15
39.7866	504.52
39.8011	535.35
39.8155	532.54
39.8300	519.25
39.8444	492.14
39.8588	496.22
39.8733	496.30
39.8877	456.70
39.9022	507.13
39.9166	517.09
39.9310	497.01
39.9455	534.31
39.9599	488.84
39.9744	504.46
39.9888	461.26
40.0032	475.13
40.0177	507.86
40.0321	508.54
40.0466	489.57
40.0610	496.91
40.0754	515.41
40.0899	495.98
40.1043	472.64
40.1188	530.56
40.1332	522.92
40.1476	498.00
40.1621	503.34
40.1765	493.47
40.1910	479.28
40.2054	490.21
40.2198	479.31
40.2343	485.02
40.2487	478.01
40.2632	498.50
40.2776	527.62
40.2920	488.81
40.3065	498.83
40.3209	499.78
40.3354	514.14
40.3498	520.29
40.3642	517.26
40.3787	499.15
40.3931	431.27
40.4076	485.43
40.4220	485.33
40.4364	506.44
40.4509	468.99
40.4653	505.64
40.4798	484.95
40.4942	506.12
40.5086	499.32
40.5231	480.55
40.5375	478.45
40.5520	493.20
40.5664	489.18
40.5808	506.68
40.5953	478.36
40.6097	478.16
40.6242	486.00
40.6386	513.26
40.6530	529.63
40.6675	478.35
40.6819	500.22
40.6964	492.33
40.7108	525.22
40.7252	500.97
40.7397	521.27
40.7541	512.38
40.7686	450.48
40.7830	517.57
40.7974	516.94
40.8119	522.25
40.8263	517.86
40.8408	511.46
40.8552	499.59
40.8696	520.57
40.8841	489.36
40.8985	519.61
40.9130	487.38
40.9274	523.13
40.9418	500.89
40.9563	503.28
40.9707	495.80
40.9852	504.15
40.9996	450.07
41.0140	536.91
41.0285	535.53
41.0429	494.89
41.0574	474.05
41.0718	477.66
41.0862	540.86
41.1007	490.67
41.1151	482.78
41.1296	508.01
41.1440	484.63
41.1584	488.10
41.1729	527.69
41.1873	491.62
41.2018	494.67
41.2162	519.04
41.2306	496.40
41.2451	514.73
41.2595	487.23
41.2740	478.07
41.2884	499.79
41.3028	498.98
41.3173	518.65
41.3317	496.56
41.3462	493.17
41.3606	475.82
41.3750	508.01
41.3895	484.43
41.4039	478.96
41.4184	516.95
41.4328	513.63
41.4472	511.60
41.4617	504.74
41.4761	513.54
41.4906	528.34
41.5050	512.27
41.5194	524.41
41.5339	502.96
41.5483	457.06
41.5628	481.85
41.5772	503.25
41.5916	473.22
41.6061	532.07
41.6205	509.85
41.6350	506.86
41.6494	504.87
41.6639	520.39
41.6783	520.46
41.6927	483.96
41.7072	527.06
41.7216	522.13
41.7361	528.20
41.7505	517.71
41.7649	484.60
41.7794	509.41
41.7938	493.34
41.8083	502.49
41.8227	497.68
41.8371	520.96
41.8516	534.65
41.8660	539.80
41.8805	561.74
41.8949	532.37
41.9093	528.66
41.9238	551.37
41.9382	546.75
41.9527	537.02
41.9671	526.17
41.9815	533.20
41.9960	583.25
42.0104	568.67
42.0249	532.07
42.0393	542.38
42.0537	565.63
42.0682	564.72
42.0826	552.13
42.0971	590.54
42.1115	584.67
42.1259	613.89
42.1404	590.13
42.1548	611.66
42.1693	665.35
42.1837	698.04
42.1981	741.00
42.2126	807.47
42.2270	903.31
42.2415	1053.57
42.2559	1160.63
42.2703	1325.27
42.2848	1453.82
42.2992	1577.93
42.3137	1614.29
42.3281	1617.91
42.3425	1520.63
42.3570	1464.05
42.3714	1417.57
42.3859	1368.65
42.4003	1301.88
42.4147	1304.57
42.4292	1281.73
42.4436	1175.32
42.4581	1037.76
42.4725	959.76
42.4869	852.86
42.5014	765.15
42.5158	737.96
42.5303	676.91
42.5447	621.58
42.5591	623.69
42.5736	605.32
42.5880	573.23
42.6025	588.81
42.6169	565.28
42.6313	576.03
42.6458	549.86
42.6602	538.71
42.6747	539.71
42.6891	525.11
42.7035	526.40
42.7180	542.74
42.7324	508.69
42.7469	501.52
42.7613	503.11
42.7757	526.63
42.7902	532.71
42.8046	481.56
42.8191	515.93
42.8335	530.04
42.8479	501.93
42.8624	496.63
42.8768	521.44
42.8913	496.91
42.9057	512.13
42.9201	518.76
42.9346	534.15
42.9490	535.07
42.9635	523.04
42.9779	499.24
42.9923	490.13
43.0068	481.81
43.0212	540.10
43.0357	533.27
43.0501	503.84
43.0645	535.93
43.0790	517.15
43.0934	530.49
43.1079	560.20
43.1223	529.03
43.1367	514.19
43.1512	489.98
43.1656	524.84
43.1801	509.02
43.1945	522.19
43.2089	518.66
43.2234	534.66
43.2378	535.45
43.2523	509.05
43.2667	522.57
43.2811	533.35
43.2956	536.96
43.3100	519.90
43.3245	525.08
43.3389	582.09
43.3533	530.45
43.3678	517.35
43.3822	533.35
43.3967	546.83
43.4111	504.13
43.4255	525.53
43.4400	509.60
43.4544	508.45
43.4689	535.63
43.4833	489.36
43.4977	485.28
43.5122	518.32
43.5266	524.74
43.5411	509.47
43.5555	495.63
43.5699	488.34
43.5844	545.67
43.5988	486.50
43.6133	507.31
43.6277	520.87
43.6421	510.38
43.6566	510.87
43.6710	490.76
43.6855	532.43
43.6999	501.70
43.7143	513.03
43.7288	540.09
43.7432	502.77
43.7577	516.02
43.7721	504.16
43.7865	516.81
43.8010	515.15
43.8154	527.02
43.8299	546.05
43.8443	540.38
43.8587	606.06
43.8732	558.95
43.8876	591.42
43.9021	624.68
43.9165	635.04
43.9309	638.56
43.9454	640.05
43.9598	688.71
43.9743	627.81
43.9887	612.50
44.0031	596.17
44.0176	575.11
44.0320	638.73
44.0465	616.39
44.0609	582.25
44.0753	592.61
44.0898	610.99
44.1042	531.77
44.1187	576.28
44.1331	561.84
44.1475	552.14
44.1620	531.42
44.1764	534.97
44.1909	516.27
44.2053	555.92
44.2197	527.74
44.2342	527.60
44.2486	539.46
44.2631	515.61
44.2775	533.63
44.2919	520.97
44.3064	540.89
44.3208	553.50
44.3353	564.68
44.3497	524.52
44.3641	548.24
44.3786	557.93
44.3930	512.62
44.4075	549.35
44.4219	571.20
44.4363	548.04
44.4508	555.68
44.4652	570.00
44.4797	592.08
44.4941	601.74
44.5085	614.03
44.5230	574.04
44.5374	580.79
44.5519	564.24
44.5663	596.26
44.5807	568.06
44.5952	544.20
44.6096	558.18
44.6241	560.61
44.6385	596.77
44.6529	600.65
44.6674	565.25
44.6818	592.06
44.6963	621.50
44.7107	661.91
44.7251	694.07
44.7396	740.11
44.7540	808.70
44.7685	803.29
44.7829	897.92
44.7973	847.11
44.8118	847.13
44.8262	845.77
44.8407	771.29
44.8551	752.21
44.8695	748.47
44.8840	715.79
44.8984	795.45
44.9129	755.24
44.9273	715.99
44.9417	686.92
44.9562	634.67
44.9706	609.68
44.9851	568.46
44.9995	526.40
45.0139	516.99
45.0284	553.06
45.0428	512.06
45.0573	522.09
45.0717	508.96
45.0861	551.32
45.1006	561.84
45.1150	525.17
45.1295	508.81
45.1439	467.90
45.1583	529.07
45.1728	524.67
45.1872	511.19
45.2017	545.92
45.2161	508.41
45.2305	518.10
45.2450	510.00
45.2594	524.49
45.2739	514.24
45.2883	533.94
45.3028	504.65
45.3172	489.48
45.3316	514.11
45.3461	505.50
45.3605	539.24
45.3750	500.94
45.3894	505.65
45.4038	505.92
45.4183	517.81
45.4327	526.56
45.4472	487.60
45.4616	485.83
45.4760	498.61
45.4905	518.85
45.5049	536.22
45.5194	522.61
45.5338	511.31
45.5482	537.43
45.5627	510.62
45.5771	500.41
45.5916	493.32
45.6060	514.95
45.6204	507.57
45.6349	543.72
45.6493	521.58
45.6638	478.17
45.6782	529.57
45.6926	514.13
45.7071	553.47
45.7215	535.40
45.7360	542.36
45.7504	536.12
45.7648	520.35
45.7793	565.71
45.7937	523.59
45.8082	559.10
45.8226	514.65
45.8370	506.01
45.8515	476.73
45.8659	509.63
45.8804	521.14
45.8948	509.86
45.9092	484.06
45.9237	472.97
45.9381	504.49
45.9526	502.75
45.9670	489.24
45.9814	500.33
45.9959	538.67
46.0103	507.77
46.0248	482.62
46.0392	458.28
46.0536	475.05
46.0681	519.19
46.0825	513.31
46.0970	531.50
46.1114	508.33
46.1258	513.22
46.1403	497.35
46.1547	510.14
46.1692	480.58
46.1836	497.56
46.1980	482.46
46.2125	535.51
46.2269	495.31
46.2414	513.33
46.2558	507.11
46.2702	489.53
46.2847	512.42
46.2991	505.35
46.3136	515.64
46.3280	501.06
46.3424	473.24
46.3569	473.15
46.3713	464.48
46.3858	510.33
46.4002	502.59
46.4146	492.78
46.4291	509.74
46.4435	531.41
46.4580	481.62
46.4724	496.55
46.4868	498.17
46.5013	495.10
46.5157	529.51
46.5302	508.82
46.5446	489.78
46.5590	532.91
46.5735	492.97
46.5879	492.98
46.6024	482.05
46.6168	512.61
46.6312	517.65
46.6457	491.52
46.6601	507.21
46.6746	507.42
46.6890	509.31
46.7034	496.59
46.7179	502.51
46.7323	516.40
46.7468	528.43
46.7612	486.00
46.7756	498.33
46.7901	502.33
46.8045	500.41
46.8190	509.13
46.8334	519.65
46.8478	521.60
46.8623	533.90
46.8767	532.86
46.8912	513.54
46.9056	538.80
46.9200	491.20
46.9345	491.79
46.9489	511.16
46.9634	518.45
46.9778	527.75
46.9922	505.61
47.0067	522.23
47.0211	522.46
47.0356	523.12
47.0500	512.06
47.0644	529.67
47.0789	525.15
47.0933	499.75
47.1078	507.51
47.1222	524.16
47.1366	519.58
47.1511	507.36
47.1655	506.89
47.1800	515.72
47.1944	525.08
47.2088	522.62
47.2233	509.07
47.2377	490.10
47.2522	484.58
47.2666	499.08
47.2810	518.28
47.2955	506.21
47.3099	526.80
47.3244	547.12
47.3388	556.45
47.3532	527.82
47.3677	506.37
47.3821	481.31
47.3966	486.73
47.4110	492.54
47.4254	520.63
47.4399	497.05
47.4543	493.95
47.4688	514.82
47.4832	507.50
47.4976	509.65
47.5121	498.34
47.5265	509.61
47.5410	487.11
47.5554	475.98
47.5698	508.27
47.5843	487.33
47.5987	518.48
47.6132	531.48
47.6276	473.48
47.6420	475.37
47.6565	506.74
47.6709	491.97
47.6854	520.72
47.6998	512.65
47.7142	543.94
47.7287	535.36
47.7431	517.57
47.7576	522.71
47.7720	493.13
47.7864	517.79
47.8009	511.87
47.8153	543.61
47.8298	546.09
47.8442	520.73
47.8586	532.55
47.8731	506.79
47.8875	502.85
47.9020	503.52
47.9164	495.70
47.9308	528.51
47.9453	511.42
47.9597	519.61
47.9742	514.51
47.9886	503.42
48.0030	503.69
48.0175	509.37
48.0319	524.34
48.0464	487.15
48.0608	495.49
48.0752	517.01
48.0897	539.53
48.1041	540.55
48.1186	545.46
48.1330	518.53
48.1474	482.55
48.1619	504.29
48.1763	521.43
48.1908	550.33
48.2052	499.62
48.2196	514.61
48.2341	560.65
48.2485	521.34
48.2630	517.31
48.2774	484.29
48.2918	536.85
48.3063	505.47
48.3207	512.73
48.3352	507.85
48.3496	517.60
48.3640	528.79
48.3785	514.38
48.3929	521.47
48.4074	531.50
48.4218	526.95
48.4362	524.82
48.4507	489.15
48.4651	516.92
48.4796	516.42
48.4940	531.70
48.5084	498.98
48.5229	508.99
48.5373	499.47
48.5518	507.61
48.5662	499.49
48.5806	521.63
48.5951	520.98
48.6095	536.68
48.6240	515.78
48.6384	520.66
48.6528	542.74
48.6673	508.57
48.6817	497.58
48.6962	525.48
48.7106	479.14
48.7250	495.36
48.7395	488.24
48.7539	533.90
48.7684	533.15
48.7828	552.97
48.7972	543.28
48.8117	514.92
48.8261	504.98
48.8406	534.67
48.8550	535.29
48.8694	545.71
48.8839	543.53
48.8983	574.41
48.9128	583.40
48.9272	520.25
48.9416	580.11
48.9561	555.99
48.9705	570.65
48.9850	590.82
48.9994	576.75
49.0139	585.19
49.0283	541.48
49.0427	611.71
49.0572	590.76
49.0716	602.91
49.0861	647.17
49.1005	683.36
49.1149	692.77
49.1294	764.68
49.1438	722.84
49.1583	777.69
49.1727	822.54
49.1871	885.89
49.2016	902.94
49.2160	968.93
49.2305	1010.18
49.2449	1114.48
49.2593	1223.63
49.2738	1345.31
49.2882	1451.47
49.3027	1539.18
49.3171	1639.42
49.3315	1644.68
49.3460	1652.79
49.3604	1765.27
49.3749	1745.28
49.3893	1683.34
49.4037	1705.49
49.4182	1769.00
49.4326	1767.74
49.4471	1651.44
49.4615	1578.08
49.4759	1541.72
49.4904	1519.84
49.5048	1439.83
49.5193	1375.06
49.5337	1288.86
49.5481	1187.87
49.5626	1177.41
49.5770	1035.36
49.5915	933.98
49.6059	902.04
49.6203	896.78
49.6348	817.55
49.6492	776.93
49.6637	776.11
49.6781	674.91
49.6925	716.08
49.7070	697.35
49.7214	681.74
49.7359	622.33
49.7503	658.38
49.7647	613.33
49.7792	590.43
49.7936	566.30
49.8081	596.55
49.8225	609.55
49.8369	624.40
49.8514	599.38
49.8658	582.14
49.8803	578.96
49.8947	591.12
49.9091	580.30
49.9236	575.02
49.9380	565.51
49.9525	506.63
49.9669	508.10
49.9813	501.11
49.9958	533.93
50.0102	541.42
50.0247	545.47
50.0391	527.05
50.0535	536.97
50.0680	559.88
50.0824	528.43
50.0969	525.63
50.1113	525.45
50.1257	560.63
50.1402	514.93
50.1546	493.47
50.1691	538.05
50.1835	537.42
50.1979	496.51
50.2124	553.11
50.2268	532.47
50.2413	505.61
50.2557	514.87
50.2701	511.68
50.2846	537.75
50.2990	518.89
50.3135	516.18
50.3279	546.21
50.3423	561.86
50.3568	506.28
50.3712	513.56
50.3857	511.39
50.4001	498.06
50.4145	477.40
50.4290	521.03
50.4434	495.17
50.4579	489.83
50.4723	532.01
50.4867	533.80
50.5012	509.25
50.5156	493.93
50.5301	500.17
50.5445	503.41
50.5589	518.95
50.5734	494.58
50.5878	540.07
50.6023	553.97
50.6167	527.88
50.6311	503.84
50.6456	509.59
50.6600	506.03
50.6745	543.91
50.6889	504.63
50.7033	518.04
50.7178	495.14
50.7322	530.50
50.7467	529.79
50.7611	512.00
50.7755	514.37
50.7900	495.00
50.8044	485.61
50.8189	525.06
50.8333	527.95
50.8477	502.38
50.8622	519.37
50.8766	531.67
50.8911	515.36
50.9055	527.12
50.9199	528.15
50.9344	496.37
50.9488	483.48
50.9633	493.06
50.9777	495.49
50.9921	489.74
51.0066	495.25
51.0210	518.83
51.0355	510.69
51.0499	486.42
51.0643	531.95
51.0788	521.22
51.0932	526.75
51.1077	511.74
51.1221	507.73
51.1365	506.52
51.1510	482.90
51.1654	514.77
51.1799	519.82
51.1943	508.08
51.2087	510.91
51.2232	532.80
51.2376	526.53
51.2521	520.60
51.2665	503.73
51.2809	516.67
51.2954	515.08
51.3098	523.92
51.3243	532.59
51.3387	499.37
51.3531	518.94
51.3676	516.83
51.3820	509.42
51.3965	490.35
51.4109	455.49
51.4253	511.82
51.4398	486.59
51.4542	534.03
51.4687	539.48
51.4831	523.13
51.4975	504.28
51.5120	514.72
51.5264	547.69
51.5409	547.97
51.5553	497.35
51.5697	489.95
51.5842	490.91
51.5986	526.50
51.6131	541.98
51.6275	519.77
51.6419	522.08
51.6564	496.77
51.6708	483.79
51.6853	467.89
51.6997	480.47
51.7141	537.48
51.7286	510.66
51.7430	491.28
51.7575	517.76
51.7719	495.05
51.7863	494.02
51.8008	474.99
51.8152	522.37
51.8297	521.48
51.8441	498.19
51.8585	512.88
51.8730	511.59
51.8874	531.69
51.9019	550.43
51.9163	541.94
51.9307	509.10
51.9452	541.69
51.9596	535.27
51.9741	491.93
51.9885	518.29
52.0029	536.33
52.0174	520.81
52.0318	527.86
52.0463	518.44
52.0607	492.08
52.0751	529.86
52.0896	537.15
52.1040	534.16
52.1185	516.20
52.1329	556.26
52.1473	511.44
52.1618	508.22
52.1762	513.96
52.1907	499.84
52.2051	482.56
52.2195	509.23
52.2340	509.16
52.2484	502.40
52.2629	513.30
52.2773	515.02
52.2917	493.11
52.3062	485.43
52.3206	518.18
52.3351	528.86
52.3495	489.09
52.3639	520.48
52.3784	480.84
52.3928	496.20
52.4073	465.84
52.4217	485.22
52.4361	503.90
52.4506	530.67
52.4650	525.98
52.4795	511.85
52.4939	473.20
52.5083	482.30
52.5228	501.28
52.5372	523.80
52.5517	539.62
52.5661	524.73
52.5805	518.13
52.5950	523.26
52.6094	535.83
52.6239	551.99
52.6383	494.78
52.6527	503.06
52.6672	518.24
52.6816	503.09
52.6961	483.66
52.7105	515.12
52.7250	540.75
52.7394	535.13
52.7538	492.72
52.7683	472.06
52.7827	493.78
52.7972	514.79
52.8116	539.16
52.8260	508.68
52.8405	515.24
52.8549	550.66
52.8694	544.40
52.8838	514.72
52.8982	539.17
52.9127	515.21
52.9271	502.73
52.9416	522.73
52.9560	528.18
52.9704	519.00
52.9849	538.42
52.9993	525.36
53.0138	509.19
53.0282	549.06
53.0426	546.09
53.0571	522.73
53.0715	525.66
53.0860	529.85
53.1004	521.45
53.1148	543.51
53.1293	546.73
53.1437	499.29
53.1582	513.54
53.1726	504.12
53.1870	503.08
53.2015	485.39
53.2159	495.55
53.2304	472.93
53.2448	534.93
53.2592	499.81
53.2737	480.43
53.2881	530.88
53.3026	518.02
53.3170	510.04
53.3314	512.33
53.3459	499.98
53.3603	501.68
53.3748	489.98
53.3892	503.45
53.4036	500.21
53.4181	491.36
53.4325	513.14
53.4470	498.45
53.4614	517.12
53.4758	509.41
53.4903	526.77
53.5047	509.80
53.5192	502.89
53.5336	512.56
53.5480	510.19
53.5625	558.83
53.5769	516.15
53.5914	536.90
53.6058	538.98
53.6202	512.48
53.6347	486.96
53.6491	489.62
53.6636	527.19
53.6780	512.98
53.6924	522.25
53.7069	507.84
53.7213	528.72
53.7358	513.36
53.7502	505.35
53.7646	492.89
53.7791	479.61
53.7935	510.01
53.8080	519.21
53.8224	528.61
53.8368	503.77
53.8513	483.19
53.8657	515.84
53.8802	513.91
53.8946	519.13
53.9090	517.34
53.9235	501.13
53.9379	522.76
53.9524	509.04
53.9668	501.37
53.9812	514.19
53.9957	539.20
54.0101	526.36
54.0246	532.74
54.0390	500.44
54.0534	493.33
54.0679	524.07
54.0823	560.11
54.0968	565.02
54.1112	548.81
54.1256	525.00
54.1401	523.81
54.1545	518.27
54.1690	555.43
54.1834	551.32
54.1978	535.94
54.2123	532.70
54.2267	531.56
54.2412	540.69
54.2556	536.53
54.2700	540.12
54.2845	563.88
54.2989	567.14
54.3134	525.77
54.3278	551.72
54.3422	552.79
54.3567	596.18
54.3711	566.51
54.3856	530.16
54.4000	563.75
54.4144	550.97
54.4289	578.95
54.4433	572.14
54.4578	549.83
54.4722	609.06
54.4866	597.19
54.5011	593.24
54.5155	604.67
54.5300	620.99
54.5444	609.79
54.5588	646.35
54.5733	604.29
54.5877	616.29
54.6022	594.10
54.6166	610.29
54.6310	575.11
54.6455	582.20
54.6599	558.08
54.6744	580.20
54.6888	576.47
54.7032	557.84
54.7177	604.09
54.7321	559.24
54.7466	556.14
54.7610	542.94
54.7754	578.74
54.7899	543.16
54.8043	548.11
54.8188	560.22
54.8332	541.50
54.8476	548.20
54.8621	566.02
54.8765	549.99
54.8910	534.54
54.9054	554.76
54.9198	501.28
54.9343	512.72
54.9487	532.17
54.9632	527.84
54.9776	523.02
54.9920	534.99
55.0065	538.08
55.0209	545.66
55.0354	522.53
55.0498	493.92
55.0642	524.84
55.0787	531.45
55.0931	509.36
55.1076	474.34
55.1220	490.24
55.1364	521.84
55.1509	505.98
55.1653	527.26
55.1798	562.83
55.1942	518.36
55.2086	530.16
55.2231	542.81
55.2375	530.48
55.2520	517.97
55.2664	501.04
55.2808	499.35
55.2953	515.12
55.3097	520.20
55.3242	523.88
55.3386	551.26
55.3530	521.61
55.3675	513.08
55.3819	519.34
55.3964	525.83
55.4108	545.80
55.4252	524.45
55.4397	493.75
55.4541	525.05
55.4686	548.05
55.4830	522.96
55.4974	547.61
55.5119	529.30
55.5263	494.41
55.5408	482.75
55.5552	526.42
55.5696	543.80
55.5841	517.60
55.5985	520.62
55.6130	491.02
55.6274	513.18
55.6418	512.96
55.6563	514.60
55.6707	497.16
55.6852	480.60
55.6996	526.36
55.7140	527.96
55.7285	518.95
55.7429	540.42
55.7574	545.00
55.7718	521.66
55.7862	550.00
55.8007	508.75
55.8151	519.18
55.8296	524.04
55.8440	501.60
55.8584	531.16
55.8729	523.98
55.8873	516.84
55.9018	537.18
55.9162	498.12
55.9306	506.21
55.9451	533.60
55.9595	506.64
55.9740	523.25
55.9884	532.93
56.0028	531.44
56.0173	537.75
56.0317	578.73
56.0462	560.75
56.0606	500.26
56.0750	520.93
56.0895	550.14
56.1039	533.45
56.1184	557.42
56.1328	552.32
56.1472	489.25
56.1617	532.79
56.1761	529.59
56.1906	507.94
56.2050	519.05
56.2194	547.68
56.2339	551.13
56.2483	515.09
56.2628	492.01
56.2772	509.25
56.2916	538.70
56.3061	517.32
56.3205	498.58
56.3350	541.29
56.3494	483.61
56.3639	533.53
56.3783	540.61
56.3927	528.99
56.4072	492.66
56.4216	527.50
56.4361	550.40
56.4505	567.25
56.4649	558.72
56.4794	548.01
56.4938	506.19
56.5083	512.71
56.5227	520.79
56.5371	530.02
56.5516	556.87
56.5660	546.93
56.5805	514.50
56.5949	518.05
56.6093	544.98
56.6238	507.07
56.6382	524.97
56.6527	549.72
56.6671	499.47
56.6815	501.40
56.6960	551.55
56.7104	530.08
56.7249	522.44
56.7393	523.76
56.7537	559.35
56.7682	507.91
56.7826	508.11
56.7971	572.17
56.8115	539.70
56.8259	535.12
56.8404	535.95
56.8548	537.08
56.8693	534.49
56.8837	534.67
56.8981	555.70
56.9126	543.47
56.9270	526.36
56.9415	500.99
56.9559	502.86
56.9703	510.51
56.9848	509.76
56.9992	508.31
57.0137	537.76
57.0281	490.09
57.0425	531.57
57.0570	516.43
57.0714	543.26
57.0859	516.99
57.1003	515.14
57.1147	577.94
57.1292	564.02
57.1436	534.65
57.1581	512.74
57.1725	517.58
57.1869	563.90
57.2014	519.13
57.2158	529.95
57.2303	537.81
57.2447	508.40
57.2591	532.52
57.2736	511.17
57.2880	508.42
57.3025	509.03
57.3169	519.20
57.3313	529.58
57.3458	522.86
57.3602	516.05
57.3747	503.99
57.3891	532.95
57.4035	511.89
57.4180	488.29
57.4324	507.99
57.4469	512.27
57.4613	528.11
57.4757	504.80
57.4902	521.27
57.5046	513.43
57.5191	519.12
57.5335	545.00
57.5479	530.03
57.5624	556.22
57.5768	524.48
57.5913	516.08
57.6057	534.29
57.6201	520.53
57.6346	566.57
57.6490	540.16
57.6635	544.44
57.6779	514.26
57.6923	531.79
57.7068	533.63
57.7212	528.48
57.7357	501.26
57.7501	549.25
57.7645	546.28
57.7790	540.61
57.7934	556.14
57.8079	548.70
57.8223	533.07
57.8367	588.94
57.8512	547.72
57.8656	533.75
57.8801	535.72
57.8945	563.11
57.9089	579.18
57.9234	578.03
57.9378	557.07
57.9523	565.92
57.9667	545.79
57.9811	585.20
57.9956	620.73
58.0100	566.27
58.0245	537.17
58.0389	573.57
58.0533	593.79
58.0678	620.40
58.0822	613.41
58.0967	642.89
58.1111	676.80
58.1255	677.30
58.1400	640.68
58.1544	655.86
58.1689	680.52
58.1833	674.97
58.1977	692.00
58.2122	697.25
58.2266	657.82
58.2411	653.16
58.2555	698.09
58.2699	671.83
58.2844	692.60
58.2988	664.54
58.3133	621.54
58.3277	637.62
58.3421	628.47
58.3566	629.56
58.3710	597.11
58.3855	610.61
58.3999	585.43
58.4143	567.11
58.4288	550.39
58.4432	547.78
58.4577	542.23
58.4721	555.54
58.4865	569.38
58.5010	545.19
58.5154	523.08
58.5299	536.68
58.5443	532.59
58.5587	556.32
58.5732	555.05
58.5876	557.17
58.6021	568.88
58.6165	562.18
58.6309	536.53
58.6454	512.06
58.6598	552.07
58.6743	551.01
58.6887	560.21
58.7031	520.07
58.7176	545.32
58.7320	526.60
58.7465	544.46
58.7609	539.91
58.7753	565.50
58.7898	528.05
58.8042	552.07
58.8187	545.62
58.8331	542.52
58.8475	540.84
58.8620	556.59
58.8764	531.14
58.8909	576.30
58.9053	560.88
58.9197	550.53
58.9342	517.22
58.9486	544.63
58.9631	546.64
58.9775	553.58
58.9919	533.74
59.0064	525.04
59.0208	545.02
59.0353	556.06
59.0497	517.64
59.0641	523.77
59.0786	507.80
59.0930	556.03
59.1075	534.09
59.1219	536.30
59.1363	544.87
59.1508	551.25
59.1652	543.67
59.1797	562.60
59.1941	556.07
59.2085	550.13
59.2230	573.11
59.2374	550.69
59.2519	502.64
59.2663	550.47
59.2807	588.95
59.2952	565.25
59.3096	556.28
59.3241	579.07
59.3385	563.04
59.3529	578.46
59.3674	535.96
59.3818	577.46
59.3963	596.91
59.4107	584.63
59.4251	579.69
59.4396	577.60
59.4540	542.71
59.4685	562.16
59.4829	539.68
59.4973	527.40
59.5118	531.91
59.5262	546.94
59.5407	577.70
59.5551	540.87
59.5695	530.21
59.5840	563.97
59.5984	538.49
59.6129	588.14
59.6273	565.09
59.6417	535.28
59.6562	538.27
59.6706	504.93
59.6851	528.08
59.6995	522.50
59.7139	500.22
59.7284	528.02
59.7428	522.30
59.7573	513.73
59.7717	571.03
59.7861	547.02
59.8006	499.44
59.8150	551.12
59.8295	549.18
59.8439	542.79
59.8583	538.27
59.8728	539.01
59.8872	519.69
59.9017	577.30
59.9161	534.08
59.9305	574.98
59.9450	525.48
59.9594	528.75
59.9739	528.28
59.9883	525.20
60.0027	542.28
60.0172	557.35
60.0316	550.23
60.0461	521.79
60.0605	566.55
60.0750	569.86
60.0894	551.81
60.1038	512.89
60.1183	532.53
60.1327	548.01
60.1472	491.51
60.1616	550.66
60.1760	580.51
60.1905	542.82
60.2049	536.58
60.2194	579.54
60.2338	508.08
60.2482	520.72
60.2627	546.30
60.2771	556.32
60.2916	537.01
60.3060	487.74
60.3204	568.87
60.3349	562.78
60.3493	555.56
60.3638	560.35
60.3782	505.29
60.3926	536.06
60.4071	520.30
60.4215	547.14
60.4360	547.37
60.4504	510.77
60.4648	539.63
60.4793	539.48
60.4937	533.80
60.5082	534.36
60.5226	549.95
60.5370	544.85
60.5515	552.62
60.5659	536.46
60.5804	525.31
60.5948	542.80
60.6092	550.57
60.6237	528.12
60.6381	563.48
60.6526	531.09
60.6670	526.29
60.6814	538.37
60.6959	544.35
60.7103	592.01
60.7248	555.50
60.7392	558.92
60.7536	554.55
60.7681	545.72
60.7825	545.43
60.7970	546.43
60.8114	559.18
60.8258	526.82
60.8403	526.33
60.8547	528.19
60.8692	562.92
60.8836	532.24
60.8980	549.91
60.9125	523.11
60.9269	517.35
60.9414	562.95
60.9558	575.79
60.9702	541.74
60.9847	561.04
60.9991	559.54
61.0136	519.73
61.0280	549.93
61.0424	530.40
61.0569	529.91
61.0713	555.95
61.0858	595.00
61.1002	572.88
61.1146	553.95
61.1291	575.50
61.1435	549.79
61.1580	528.21
61.1724	552.51
61.1868	541.41
61.2013	524.01
61.2157	541.82
61.2302	485.53
61.2446	539.42
61.2590	525.39
61.2735	540.42
61.2879	558.22
61.3024	542.30
61.3168	536.21
61.3312	550.16
61.3457	585.05
61.3601	541.60
61.3746	551.70
61.3890	532.69
61.4034	547.96
61.4179	550.01
61.4323	553.58
61.4468	510.54
61.4612	536.59
61.4756	537.92
61.4901	542.15
61.5045	555.50
61.5190	524.83
61.5334	529.56
61.5478	543.21
61.5623	542.84
61.5767	522.08
61.5912	540.00
61.6056	569.48
61.6200	559.41
61.6345	574.74
61.6489	536.99
61.6634	538.31
61.6778	516.49
61.6922	535.49
61.7067	554.23
61.7211	561.05
61.7356	528.76
61.7500	557.63
61.7644	507.81
61.7789	556.26
61.7933	532.14
61.8078	546.99
61.8222	533.71
61.8366	521.66
61.8511	533.24
61.8655	546.07
61.8800	563.83
61.8944	571.51
61.9088	591.68
61.9233	540.31
61.9377	546.52
61.9522	563.53
61.9666	542.83
61.9810	555.46
61.9955	572.88
62.0099	529.33
62.0244	563.94
62.0388	537.56
62.0532	551.59
62.0677	561.06
62.0821	561.96
62.0966	536.87
62.1110	551.86
62.1254	556.91
62.1399	534.55
62.1543	552.40
62.1688	552.07
62.1832	537.41
62.1976	528.90
62.2121	517.60
62.2265	548.49
62.2410	576.42
62.2554	551.38
62.2698	566.90
62.2843	590.80
62.2987	543.41
62.3132	543.58
62.3276	536.11
62.3420	543.12
62.3565	560.58
62.3709	575.46
62.3854	603.38
62.3998	581.18
62.4142	540.22
62.4287	587.96
62.4431	591.40
62.4576	557.65
62.4720	584.88
62.4864	591.19
62.5009	578.34
62.5153	535.76
62.5298	567.19
62.5442	538.49
62.5586	520.23
62.5731	539.65
62.5875	543.16
62.6020	565.17
62.6164	544.18
62.6308	540.90
62.6453	545.14
62.6597	546.04
62.6742	564.00
62.6886	598.39
62.7030	570.50
62.7175	575.61
62.7319	552.93
62.7464	564.97
62.7608	571.36
62.7752	549.61
62.7897	582.44
62.8041	548.51
62.8186	582.23
62.8330	589.86
62.8474	556.87
62.8619	582.10
62.8763	594.20
62.8908	585.97
62.9052	566.92
62.9196	557.60
62.9341	579.99
62.9485	576.39
62.9630	566.30
62.9774	558.13
62.9918	588.59
63.0063	567.06
63.0207	557.10
63.0352	580.57
63.0496	535.06
63.0640	561.64
63.0785	575.70
63.0929	581.40
63.1074	594.82
63.1218	574.51
63.1362	569.88
63.1507	553.81
63.1651	560.15
63.1796	597.61
63.1940	558.39
63.2084	551.09
63.2229	571.52
63.2373	582.40
63.2518	588.03
63.2662	531.43
63.2806	589.98
63.2951	555.04
63.3095	573.30
63.3240	603.38
63.3384	617.95
63.3528	586.29
63.3673	570.95
63.3817	585.52
63.3962	577.35
63.4106	588.06
63.4250	609.87
63.4395	596.57
63.4539	564.52
63.4684	578.14
63.4828	542.95
63.4972	570.79
63.5117	593.57
63.5261	617.53
63.5406	611.84
63.5550	551.51
63.5694	597.45
63.5839	657.78
63.5983	647.06
63.6128	620.23
63.6272	612.18
63.6416	636.67
63.6561	632.74
63.6705	636.88
63.6850	606.62
63.6994	644.12
63.7138	662.09
63.7283	658.00
63.7427	661.84
63.7572	702.52
63.7716	721.33
63.7861	745.06
63.8005	805.37
63.8149	830.36
63.8294	870.92
63.8438	850.88
63.8583	857.90
63.8727	937.86
63.8871	877.15
63.9016	846.55
63.9160	834.95
63.9305	840.74
63.9449	786.78
63.9593	758.90
63.9738	753.74
63.9882	803.17
64.0027	748.75
64.0171	819.83
64.0315	818.78
64.0460	760.26
64.0604	756.73
64.0749	768.42
64.0893	800.07
64.1037	737.87
64.1182	771.44
64.1326	751.93
64.1471	676.55
64.1615	618.26
64.1759	659.53
64.1904	667.27
64.2048	687.37
64.2193	625.88
64.2337	620.57
64.2481	634.53
64.2626	664.78
64.2770	671.81
64.2915	638.43
64.3059	620.94
64.3203	628.91
64.3348	644.32
64.3492	687.64
64.3637	646.49
64.3781	640.33
64.3925	622.32
64.4070	607.90
64.4214	627.80
64.4359	628.86
64.4503	613.47
64.4647	632.51
64.4792	605.93
64.4936	648.70
64.5081	642.71
64.5225	595.68
64.5369	616.84
64.5514	668.62
64.5658	636.79
64.5803	656.28
64.5947	658.79
64.6091	656.42
64.6236	617.45
64.6380	656.88
64.6525	676.34
64.6669	665.56
64.6813	669.01
64.6958	685.94
64.7102	699.13
64.7247	666.82
64.7391	623.31
64.7535	642.50
64.7680	707.51
64.7824	698.69
64.7969	745.06
64.8113	741.88
64.8257	784.42
64.8402	807.41
64.8546	813.77
64.8691	846.87
64.8835	788.88
64.8979	860.29
64.9124	853.22
64.9268	885.48
64.9413	884.37
64.9557	951.73
64.9701	976.96
64.9846	1009.01
64.9990	1152.56
65.0135	1227.16
65.0279	1429.98
65.0423	1737.66
65.0568	2086.66
65.0712	2633.98
65.0857	3494.14
65.1001	4599.63
65.1145	6305.18
65.1290	8209.57
65.1434	9700.84
65.1579	11465.07
65.1723	12034.61
65.1867	11368.42
65.2012	9983.16
65.2156	8304.14
65.2301	6526.37
65.2445	5279.27
65.2589	4510.58
65.2734	4238.47
65.2878	4418.62
65.3023	5139.34
65.3167	5983.07
65.3311	6815.34
65.3456	7088.11
65.3600	7059.70
65.3745	6468.43
65.3889	5445.15
65.4033	4302.95
65.4178	3435.46
65.4322	2658.63
65.4467	2034.51
65.4611	1702.62
65.4755	1477.79
65.4900	1311.82
65.5044	1205.95
65.5189	1057.01
65.5333	983.31
65.5477	942.04
65.5622	893.78
65.5766	914.08
65.5911	872.09
65.6055	791.60
65.6199	756.73
65.6344	799.01
65.6488	749.34
65.6633	739.21
65.6777	741.93
65.6921	744.08
65.7066	736.55
65.7210	697.24
65.7355	687.12
65.7499	697.18
65.7643	750.58
65.7788	733.78
65.7932	660.17
65.8077	643.71
65.8221	649.92
65.8365	682.20
65.8510	660.25
65.8654	690.88
65.8799	640.57
65.8943	655.76
65.9087	647.64
65.9232	631.26
65.9376	650.29
65.9521	621.87
65.9665	615.04
65.9809	603.32
65.9954	594.85
66.0098	595.82
66.0243	637.23
66.0387	648.73
66.0531	662.09
66.0676	662.63
66.0820	640.18
66.0965	612.46
66.1109	609.71
66.1253	615.42
66.1398	601.40
66.1542	585.48
66.1687	633.25
66.1831	632.27
66.1975	616.74
66.2120	594.53
66.2264	595.79
66.2409	651.68
66.2553	622.63
66.2697	603.20
66.2842	646.38
66.2986	597.53
66.3131	606.79
66.3275	600.86
66.3419	605.66
66.3564	608.94
66.3708	612.20
66.3853	610.50
66.3997	603.60
66.4141	589.12
66.4286	629.69
66.4430	603.58
66.4575	554.01
66.4719	597.22
66.4863	600.90
66.5008	561.44
66.5152	574.78
66.5297	617.75
66.5441	634.28
66.5585	595.25
66.5730	546.92
66.5874	595.73
66.6019	595.41
66.6163	593.61
66.6307	596.11
66.6452	620.76
66.6596	599.92
66.6741	578.42
66.6885	556.21
66.7029	589.76
66.7174	583.04
66.7318	602.66
66.7463	583.22
66.7607	543.59
66.7751	609.78
66.7896	601.85
66.8040	621.23
66.8185	596.39
66.8329	571.24
66.8473	580.57
66.8618	632.18
66.8762	578.17
66.8907	557.94
66.9051	588.40
66.9195	596.66
66.9340	585.11
66.9484	582.02
66.9629	598.03
66.9773	586.85
66.9917	569.73
67.0062	605.99
67.0206	619.10
67.0351	605.63
67.0495	589.15
67.0639	585.76
67.0784	560.46
67.0928	577.02
67.1073	583.50
67.1217	576.75
67.1361	575.46
67.1506	576.17
67.1650	635.50
67.1795	582.10
67.1939	569.56
67.2083	577.06
67.2228	559.97
67.2372	586.31
67.2517	586.81
67.2661	574.90
67.2805	587.28
67.2950	573.93
67.3094	568.23
67.3239	552.29
67.3383	587.32
67.3527	617.53
67.3672	600.42
67.3816	574.81
67.3961	552.95
67.4105	607.49
67.4250	588.32
67.4394	544.07
67.4538	546.48
67.4683	589.02
67.4827	598.18
67.4972	570.80
67.5116	565.50
67.5260	615.78
67.5405	590.86
67.5549	566.19
67.5694	576.93
67.5838	591.39
67.5982	616.79
67.6127	576.13
67.6271	596.16
67.6416	601.50
67.6560	605.99
67.6704	545.08
67.6849	563.41
67.6993	564.29
67.7138	582.32
67.7282	552.99
67.7426	573.63
67.7571	572.51
67.7715	562.37
67.7860	616.23
67.8004	593.56
67.8148	593.33
67.8293	607.16
67.8437	583.15
67.8582	594.41
67.8726	595.26
67.8870	570.92
67.9015	573.98
67.9159	589.54
67.9304	564.14
67.9448	552.12
67.9592	574.68
67.9737	581.19
67.9881	611.79
68.0026	605.07
68.0170	544.49
68.0314	567.82
68.0459	571.15
68.0603	564.31
68.0748	560.11
68.0892	578.62
68.1036	573.18
68.1181	602.29
68.1325	585.87
68.1470	584.83
68.1614	614.52
68.1758	578.06
68.1903	540.08
68.2047	596.86
68.2192	610.31
68.2336	596.27
68.2480	578.93
68.2625	536.07
68.2769	543.86
68.2914	592.20
68.3058	585.82
68.3202	563.31
68.3347	572.97
68.3491	586.96
68.3636	586.11
68.3780	560.03
68.3924	539.00
68.4069	571.11
68.4213	560.23
68.4358	587.34
68.4502	587.06
68.4646	568.06
68.4791	596.52
68.4935	576.41
68.5080	553.98
68.5224	578.90
68.5368	556.39
68.5513	513.55
68.5657	527.56
68.5802	636.38
68.5946	587.03
68.6090	569.59
68.6235	561.05
68.6379	560.27
68.6524	572.02
68.6668	532.95
68.6812	571.80
68.6957	595.77
68.7101	584.65
68.7246	575.06
68.7390	539.95
68.7534	622.93
68.7679	556.33
68.7823	585.77
68.7968	532.28
68.8112	571.10
68.8256	554.76
68.8401	584.38
68.8545	595.71
68.8690	547.77
68.8834	565.16
68.8978	631.08
68.9123	593.71
68.9267	597.21
68.9412	588.09
68.9556	572.66
68.9700	601.76
68.9845	513.83
68.9989	573.44
69.0134	556.41
69.0278	596.49
69.0422	589.50
69.0567	574.83
69.0711	581.49
69.0856	590.78
69.1000	597.31
69.1144	571.97
69.1289	575.65
69.1433	604.38
69.1578	622.61
69.1722	574.95
69.1866	566.88
69.2011	541.79
69.2155	585.82
69.2300	562.84
69.2444	565.98
69.2588	598.03
69.2733	590.31
69.2877	576.30
69.3022	570.35
69.3166	581.67
69.3310	588.49
69.3455	582.70
69.3599	568.81
69.3744	538.22
69.3888	582.60
69.4032	625.10
69.4177	582.62
69.4321	617.86
69.4466	585.56
69.4610	561.99
69.4754	615.32
69.4899	620.84
69.5043	557.65
69.5188	623.31
69.5332	563.85
69.5476	601.74
69.5621	540.60
69.5765	592.46
69.5910	540.67
69.6054	575.33
69.6198	574.61
69.6343	584.94
69.6487	556.51
69.6632	571.29
69.6776	574.45
69.6920	574.60
69.7065	601.68
69.7209	602.78
69.7354	543.50
69.7498	585.02
69.7642	573.35
69.7787	584.90
69.7931	549.83
69.8076	541.32
69.8220	588.69
69.8364	570.29
69.8509	568.95
69.8653	569.75
69.8798	546.75
69.8942	588.52
69.9086	584.01
69.9231	621.51
69.9375	558.86
69.9520	553.99
69.9664	586.82
69.9808	561.82
69.9953	607.14
70.0097	616.14
70.0242	536.34
70.0386	574.78
70.0530	500.37
70.0675	607.39
70.0819	600.79
70.0964	597.00
70.1108	592.44
70.1252	586.58
70.1397	573.77
70.1541	557.90
70.1686	580.72
70.1830	593.80
70.1974	570.44
70.2119	566.18
70.2263	557.32
70.2408	565.04
70.2552	568.58
70.2696	558.59
70.2841	566.96
70.2985	553.85
70.3130	585.01
70.3274	585.35
70.3418	583.18
70.3563	555.64
70.3707	575.40
70.3852	610.38
70.3996	590.83
70.4140	573.21
70.4285	634.60
70.4429	641.28
70.4574	590.65
70.4718	587.76
70.4862	589.41
70.5007	575.05
70.5151	542.17
70.5296	570.70
70.5440	541.79
70.5584	554.75
70.5729	553.90
70.5873	560.43
70.6018	565.82
70.6162	605.95
70.6306	625.65
70.6451	555.72
70.6595	546.66
70.6740	594.50
70.6884	587.45
70.7028	593.19
70.7173	617.93
70.7317	567.78
70.7462	545.88
70.7606	548.58
70.7750	563.16
70.7895	588.24
70.8039	607.93
70.8184	551.43
70.8328	647.87
70.8472	611.33
70.8617	593.36
70.8761	544.07
70.8906	541.77
70.9050	556.12
70.9194	542.80
70.9339	616.46
70.9483	620.12
70.9628	597.76
70.9772	568.10
70.9916	571.22
71.0061	598.15
71.0205	593.33
71.0350	578.28
71.0494	510.44
71.0638	532.65
71.0783	545.61
71.0927	560.70
71.1072	583.97
71.1216	616.16
71.1361	644.66
71.1505	606.04
71.1649	598.29
71.1794	597.35
71.1938	549.78
71.2083	553.89
71.2227	549.75
71.2371	515.12
71.2516	542.97
71.2660	618.82
71.2805	587.11
71.2949	563.27
71.3093	591.13
71.3238	565.92
71.3382	552.11
71.3527	600.19
71.3671	653.43
71.3815	605.27
71.3960	596.65
71.4104	590.02
71.4249	637.68
71.4393	584.38
71.4537	587.12
71.4682	606.67
71.4826	618.88
71.4971	584.25
71.5115	529.69
71.5259	552.96
71.5404	620.44
71.5548	622.24
71.5693	579.76
71.5837	530.99
71.5981	522.01
71.6126	558.25
71.6270	579.09
71.6415	563.78
71.6559	566.93
71.6703	590.27
71.6848	604.55
71.6992	641.00
71.7137	617.81
71.7281	575.78
71.7425	546.36
71.7570	551.03
71.7714	589.53
71.7859	612.28
71.8003	601.89
71.8147	589.73
71.8292	621.35
71.8436	604.29
71.8581	615.07
71.8725	598.89
71.8869	566.88
71.9014	641.43
71.9158	563.59
71.9303	620.99
71.9447	663.50
71.9591	623.58
71.9736	641.72
71.9880	547.62
72.0025	446.16
72.0169	561.07
72.0313	592.46
72.0458	563.50
72.0602	559.69
72.0747	511.13
72.0891	521.38
72.1035	531.09
72.1180	540.69
72.1324	584.47
72.1469	553.00
72.1613	563.23
72.1757	567.32
72.1902	542.99
72.2046	560.74
72.2191	561.67
72.2335	515.69
72.2479	517.50
72.2624	603.17
72.2768	619.46
72.2913	561.61
72.3057	584.60
72.3201	569.62
72.3346	590.70
72.3490	643.11
72.3635	587.62
72.3779	578.48
72.3923	615.20
72.4068	604.52
72.4212	604.96
72.4357	681.76
72.4501	631.25
72.4645	662.99
72.4790	601.27
72.4934	604.29
72.5079	586.80
72.5223	495.44
72.5367	532.43
72.5512	656.19
72.5656	632.53
72.5801	565.41
72.5945	626.85
72.6089	615.17
72.6234	579.41
72.6378	598.80
72.6523	650.76
72.6667	654.87
72.6811	635.15
72.6956	593.04
72.7100	605.30
72.7245	549.03
72.7389	567.90
72.7533	533.58
72.7678	605.17
72.7822	740.99
72.7967	715.73
72.8111	616.00
72.8255	575.09
72.8400	532.89
72.8544	563.09
72.8689	634.81
72.8833	560.44

Result vector
22.1120	490.67
22.1264	609.89
22.1409	484.60
22.1553	507.16
22.1697	571.60
22.1842	583.58
22.1986	494.98
22.2131	463.90
22.2275	529.09
22.2419	578.53
22.2564	555.95
22.2708	605.78
22.2853	605.33
22.2997	577.09
22.3141	653.67
22.3286	626.45
22.3430	609.60
22.3575	591.15
22.3719	551.35
22.3863	576.23
22.4008	548.23
22.4152	544.47
22.4297	660.60
22.4441	668.64
22.4585	612.66
22.4730	639.48
22.4874	673.28
22.5019	608.51
22.5163	554.79
22.5307	541.76
22.5452	538.22
22.5596	594.01
22.5741	643.67
22.5885	555.44
22.6029	576.30
22.6174	551.49
22.6318	547.77
22.6463	635.62
22.6607	608.01
22.6751	540.60
22.6896	653.33
22.7040	667.46
22.7185	574.66
22.7329	543.56
22.7473	543.18
22.7618	538.31
22.7762	612.87
22.7907	642.35
22.8051	600.91
22.8195	582.09
22.8340	547.71
22.8484	546.49
22.8629	593.91
22.8773	603.65
22.8917	530.57
22.9062	576.53
22.9206	575.16
22.9351	533.22
22.9495	603.96
22.9639	569.34
22.9784	580.64
22.9928	595.65
23.0073	560.07
23.0217	627.18
23.0361	572.88
23.0506	532.61
23.0650	562.24
23.0795	492.51
23.0939	610.73
23.1083	561.38
23.1228	496.46
23.1372	595.57
23.1517	565.47
23.1661	600.70
23.1806	605.21
23.1950	582.30
23.2094	523.97
23.2239	568.03
23.2383	512.32
23.2528	574.72
23.2672	482.30
23.2816	522.80
23.2961	541.34
23.3105	579.05
23.3250	559.32
23.3394	579.23
23.3538	596.23
23.3683	511.68
23.3827	550.67
23.3972	495.59
23.4116	496.38
23.4260	568.09
23.4405	515.89
23.4549	566.98
23.4694	527.41
23.4838	547.68
23.4982	530.62
23.5127	477.70
23.5271	546.86
23.5416	582.20
23.5560	593.09
23.5704	579.93
23.5849	579.50
23.5993	600.37
23.6138	556.41
23.6282	500.08
23.6426	529.22
23.6571	528.45
23.6715	537.17
23.6860	553.04
23.7004	560.79
23.7148	561.21
23.7293	474.51
23.7437	547.52
23.7582	607.00
23.7726	591.37
23.7870	583.94
23.8015	526.64
23.8159	511.69
23.8304	592.30
23.8448	549.51
23.8592	565.34
23.8737	583.07
23.8881	567.95
23.9026	602.18
23.9170	549.65
23.9314	551.65
23.9459	504.69
23.9603	577.64
23.9748	579.56
23.9892	559.91
24.0036	497.80
24.0181	588.13
24.0325	566.22
24.0470	539.61
24.0614	554.05
24.0758	498.31
24.0903	578.28
24.1047	556.71
24.1192	540.60
24.1336	586.91
24.1480	534.82
24.1625	568.57
24.1769	629.94
24.1914	633.14
24.2058	519.64
24.2202	597.57
24.2347	621.22
24.2491	565.12
24.2636	549.36
24.2780	573.11
24.2924	636.61
24.3069	575.12
24.3213	534.60
24.3358	559.07
24.3502	566.86
24.3646	502.56
24.3791	531.84
24.3935	518.26
24.4080	569.89
24.4224	572.53
24.4368	564.91
24.4513	560.69
24.4657	553.52
24.4802	520.32
24.4946	533.77
24.5090	561.89
24.5235	526.19
24.5379	541.59
24.5524	564.88
24.5668	584.31
24.5812	568.77
24.5957	593.56
24.6101	576.58
24.6246	511.74
24.6390	586.43
24.6534	569.31
24.6679	582.91
24.6823	520.33
24.6968	503.09
24.7112	545.02
24.7256	554.10
24.7401	573.60
24.7545	537.47
24.7690	574.73
24.7834	517.97
24.7978	618.75
24.8123	618.82
24.8267	539.65
24.8412	499.64
24.8556	556.36
24.8700	590.37
24.8845	532.41
24.8989	564.06
24.9134	541.38
24.9278	520.94
24.9422	585.24
24.9567	590.44
24.9711	547.42
24.9856	542.92
25.0000	529.86
25.0144	509.93
25.0289	459.59
25.0433	560.65
25.0578	561.39
25.0722	554.98
25.0866	532.47
25.1011	559.28
25.1155	591.15
25.1300	567.51
25.1444	554.22
25.1588	593.23
25.1733	527.64
25.1877	512.29
25.2022	553.16
25.2166	521.42
25.2310	497.99
25.2455	518.75
25.2599	536.17
25.2744	563.39
25.2888	557.80
25.3032	545.84
25.3177	554.34
25.3321	518.33
25.3466	561.43
25.3610	576.55
25.3754	506.92
25.3899	528.87
25.4043	524.54
25.4188	523.92
25.4332	501.51
25.4476	506.71
25.4621	536.18
25.4765	524.16
25.4910	554.32
25.5054	515.38
25.5198	515.43
25.5343	556.71
25.5487	552.47
25.5632	591.99
25.5776	562.80
25.5920	559.87
25.6065	554.13
25.6209	553.57
25.6354	568.16
25.6498	533.83
25.6642	565.57
25.6787	543.00
25.6931	547.11
25.7076	566.98
25.7220	582.49
25.7364	493.75
25.7509	502.27
25.7653	547.94
25.7798	578.70
25.7942	561.53
25.8086	525.68
25.8231	552.64
25.8375	533.75
25.8520	561.59
25.8664	605.68
25.8808	549.76
25.8953	558.75
25.9097	549.15
25.9242	528.96
25.9386	527.11
25.9530	524.21
25.9675	511.62
25.9819	514.92
25.9964	491.19
26.0108	542.20
26.0252	552.31
26.0397	526.62
26.0541	534.41
26.0686	546.88
26.0830	520.21
26.0974	559.30
26.1119	545.74
26.1263	541.45
26.1408	532.15
26.1552	517.06
26.1696	538.32
26.1841	542.43
26.1985	527.08
26.2130	542.94
26.2274	541.86
26.2418	510.83
26.2563	518.86
26.2707	538.76
26.2852	525.61
26.2996	531.55
26.3140	559.76
26.3285	545.98
26.3429	530.67
26.3574	547.02
26.3718	514.43
26.3862	509.56
26.4007	541.85
26.4151	514.78
26.4296	497.89
26.4440	529.82
26.4584	506.46
26.4729	548.73
26.4873	543.07
26.5018	540.17
26.5162	533.40
26.5306	511.37
26.5451	528.99
26.5595	546.15
26.5740	554.03
26.5884	525.89
26.6028	516.10
26.6173	527.93
26.6317	524.48
26.6462	508.85
26.6606	524.65
26.6750	551.37
26.6895	521.43
26.7039	552.42
26.7184	536.23
26.7328	525.46
26.7472	525.09
26.7617	520.89
26.7761	540.35
26.7906	546.59
26.8050	525.89
26.8194	532.93
26.8339	560.29
26.8483	528.57
26.8628	509.97
26.8772	516.10
26.8917	532.11
26.9061	553.65
26.9205	558.77
26.9350	545.85
26.9494	515.86
26.9639	506.85
26.9783	515.56
26.9927	507.99
27.0072	532.22
27.0216	526.27
27.0361	508.54
27.0505	522.48
27.0649	547.01
27.0794	541.46
27.0938	526.27
27.1083	516.06
27.1227	516.78
27.1371	493.95
27.1516	489.27
27.1660	544.92
27.1805	557.55
27.1949	516.66
27.2093	521.79
27.2238	567.21
27.2382	541.63
27.2527	559.82
27.2671	540.84
27.2815	536.21
27.2960	530.41
27.3104	526.30
27.3249	510.37
27.3393	517.00
27.3537	531.09
27.3682	532.34
27.3826	515.91
27.3971	509.12
27.4115	495.78
27.4259	537.85
27.4404	509.31
27.4548	490.72
27.4693	535.90
27.4837	522.98
27.4981	533.44
27.5126	504.55
27.5270	478.53
27.5415	533.04
27.5559	487.86
27.5703	539.52
27.5848	553.43
27.5992	537.50
27.6137	537.47
27.6281	497.10
27.6425	515.31
27.6570	536.48
27.6714	544.38
27.6859	508.75
27.7003	541.62
27.7147	535.91
27.7292	528.02
27.7436	522.79
27.7581	495.94
27.7725	515.21
27.7869	512.56
27.8014	560.29
27.8158	569.22
27.8303	522.02
27.8447	492.33
27.8591	534.22
27.8736	530.12
27.8880	517.52
27.9025	521.74
27.9169	523.98
27.9313	542.36
27.9458	527.33
27.9602	495.72
27.9747	509.83
27.9891	512.79
28.0035	537.71
28.0180	492.56
28.0324	524.14
28.0469	531.19
28.0613	520.96
28.0757	523.39
28.0902	541.76
28.1046	546.90
28.1191	520.99
28.1335	516.46
28.1479	483.75
28.1624	523.42
28.1768	497.83
28.1913	506.73
28.2057	523.12
28.2201	528.95
28.2346	523.72
28.2490	533.38
28.2635	527.52
28.2779	515.35
28.2923	548.94
28.3068	553.11
28.3212	527.07
28.3357	520.90
28.3501	538.81
28.3645	520.54
28.3790	536.27
28.3934	521.67
28.4079	523.14
28.4223	551.96
28.4367	528.16
28.4512	504.04
28.4656	515.75
28.4801	552.93
28.4945	533.21
28.5089	521.97
28.5234	526.90
28.5378	533.03
28.5523	518.79
28.5667	530.52
28.5811	512.93
28.5956	513.65
28.6100	531.83
28.6245	531.50
28.6389	538.04
28.6533	534.06
28.6678	504.88
28.6822	507.49
28.6967	528.36
28.7111	544.39
28.7255	524.18
28.7400	529.76
28.7544	505.34
28.7689	488.89
28.7833	519.11
28.7977	497.35
28.8122	511.05
28.8266	530.02
28.8411	527.36
28.8555	521.41
28.8699	508.99
28.8844	487.06
28.8988	536.71
28.9133	542.70
28.9277	542.40
28.9421	484.98
28.9566	505.00
28.9710	527.25
28.9855	540.72
28.9999	561.43
29.0143	542.42
29.0288	558.09
29.0432	495.23
29.0577	514.02
29.0721	508.36
29.0865	493.26
29.1010	507.94
29.1154	537.23
29.1299	544.33
29.1443	520.85
29.1587	559.63
29.1732	513.67
29.1876	475.00
29.2021	477.89
29.2165	523.34
29.2309	538.46
29.2454	538.29
29.2598	524.43
29.2743	511.43
29.2887	540.15
29.3031	481.24
29.3176	463.30
29.3320	518.23
29.3465	518.24
29.3609	509.58
29.3753	536.19
29.3898	551.17
29.4042	530.70
29.4187	521.95
29.4331	532.26
29.4475	499.66
29.4620	557.23
29.4764	503.92
29.4909	512.30
29.5053	468.53
29.5197	505.31
29.5342	500.89
29.5486	482.76
29.5631	536.54
29.5775	524.99
29.5919	522.64
29.6064	524.05
29.6208	516.85
29.6353	515.71
29.6497	516.77
29.6641	537.72
29.6786	499.09
29.6930	513.39
29.7075	546.67
29.7219	499.46
29.7363	510.53
29.7508	478.09
29.7652	476.20
29.7797	531.67
29.7941	527.16
29.8085	505.67
29.8230	528.08
29.8374	500.08
29.8519	497.57
29.8663	515.10
29.8807	532.64
29.8952	512.13
29.9096	484.87
29.9241	525.17
29.9385	523.55
29.9529	530.96
29.9674	498.74
29.9818	506.08
29.9963	508.05
30.0107	500.98
30.0251	554.08
30.0396	517.47
30.0540	498.35
30.0685	517.08
30.0829	527.18
30.0973	520.28
30.1118	510.64
30.1262	489.13
30.1407	508.03
30.1551	515.00
30.1695	517.56
30.1840	516.42
30.1984	502.13
30.2129	517.91
30.2273	509.44
30.2417	518.44
30.2562	503.03
30.2706	517.77
30.2851	511.76
30.2995	515.98
30.3139	503.02
30.3284	535.89
30.3428	485.08
30.3573	488.19
30.3717	491.62
30.3861	483.34
30.4006	495.80
30.4150	504.68
30.4295	496.65
30.4439	517.65
30.4583	543.05
30.4728	525.95
30.4872	520.75
30.5017	507.16
30.5161	500.10
30.5305	516.53
30.5450	528.32
30.5594	542.66
30.5739	572.23
30.5883	537.86
30.6028	570.24
30.6172	593.42
30.6316	635.33
30.6461	675.51
30.6605	653.70
30.6750	648.12
30.6894	697.38
30.7038	764.62
30.7183	734.01
30.7327	724.02
30.7472	700.74
30.7616	742.98
30.7760	687.31
30.7905	666.49
30.8049	617.79
30.8194	601.80
30.8338	639.15
30.8482	588.75
30.8627	562.31
30.8771	518.11
30.8916	540.86
30.9060	535.46
30.9204	508.53
30.9349	534.81
30.9493	520.31
30.9638	517.80
30.9782	532.34
30.9926	547.29
31.0071	541.27
31.0215	543.65
31.0360	538.89
31.0504	492.84
31.0648	528.41
31.0793	540.05
31.0937	546.22
31.1082	510.65
31.1226	528.06
31.1370	506.08
31.1515	516.49
31.1659	537.98
31.1804	535.07
31.1948	531.67
31.2092	509.17
31.2237	513.17
31.2381	554.91
31.2526	524.15
31.2670	504.17
31.2814	541.89
31.2959	541.10
31.3103	515.58
31.3248	532.53
31.3392	548.08
31.3536	522.70
31.3681	533.66
31.3825	508.29
31.3970	507.79
31.4114	507.32
31.4258	529.61
31.4403	531.53
31.4547	546.59
31.4692	548.20
31.4836	517.56
31.4980	500.45
31.5125	535.18
31.5269	519.91
31.5414	509.80
31.5558	490.27
31.5702	506.37
31.5847	514.45
31.5991	502.09
31.6136	516.21
31.6280	521.24
31.6424	497.26
31.6569	491.47
31.6713	532.27
31.6858	515.15
31.7002	503.43
31.7146	527.64
31.7291	522.95
31.7435	530.69
31.7580	495.87
31.7724	502.45
31.7868	501.60
31.8013	496.84
31.8157	481.35
31.8302	537.48
31.8446	522.77
31.8590	537.05
31.8735	544.07
31.8879	523.33
31.9024	533.53
31.9168	525.34
31.9312	506.27
31.9457	489.31
31.9601	479.82
31.9746	477.14
31.9890	510.92
32.0034	507.10
32.0179	517.09
32.0323	499.44
32.0468	494.57
32.0612	476.27
32.0756	502.90
32.0901	518.38
32.1045	492.18
32.1190	520.42
32.1334	513.24
32.1478	518.06
32.1623	509.59
32.1767	490.63
32.1912	492.69
32.2056	484.07
32.2200	493.47
32.2345	493.18
32.2489	499.02
32.2634	467.82
32.2778	485.58
32.2922	466.26
32.3067	539.98
32.3211	492.02
32.3356	513.94
32.3500	491.73
32.3644	456.64
32.3789	500.71
32.3933	483.59
32.4078	494.20
32.4222	545.62
32.4366	517.20
32.4511	495.59
32.4655	493.34
32.4800	510.76
32.4944	525.38
32.5088	495.40
32.5233	501.15
32.5377	502.85
32.5522	516.99
32.5666	522.35
32.5810	510.10
32.5955	474.53
32.6099	526.17
32.6244	519.74
32.6388	482.88
32.6532	508.53
32.6677	504.17
32.6821	521.83
32.6966	489.88
32.7110	520.68
32.7254	542.14
32.7399	497.04
32.7543	496.41
32.7688	521.53
32.7832	507.95
32.7976	515.25
32.8121	505.62
32.8265	543.50
32.8410	528.96
32.8554	526.85
32.8698	515.80
32.8843	521.97
32.8987	513.43
32.9132	526.66
32.9276	525.26
32.9420	543.77
32.9565	516.82
32.9709	529.89
32.9854	486.04
32.9998	536.47
33.0142	526.84
33.0287	510.19
33.0431	511.30
33.0576	517.14
33.0720	495.08
33.0864	522.02
33.1009	497.56
33.1153	505.34
33.1298	514.31
33.1442	490.24
33.1586	515.17
33.1731	517.25
33.1875	505.71
33.2020	525.54
33.2164	533.21
33.2308	519.23
33.2453	509.68
33.2597	492.09
33.2742	526.26
33.2886	492.47
33.3030	488.84
33.3175	496.65
33.3319	495.34
33.3464	467.85
33.3608	483.28
33.3752	459.71
33.3897	477.56
33.4041	510.64
33.4186	488.91
33.4330	509.66
33.4474	508.22
33.4619	531.63
33.4763	500.22
33.4908	493.28
33.5052	492.55
33.5196	523.88
33.5341	476.58
33.5485	515.99
33.5630	488.65
33.5774	477.31
33.5918	505.56
33.6063	532.21
33.6207	504.28
33.6352	520.61
33.6496	493.41
33.6640	515.06
33.6785	505.92
33.6929	497.28
33.7074	511.48
33.7218	501.08
33.7362	493.71
33.7507	477.93
33.7651	482.76
33.7796	518.96
33.7940	508.05
33.8084	518.21
33.8229	540.93
33.8373	536.22
33.8518	545.65
33.8662	508.13
33.8806	490.78
33.8951	488.95
33.9095	538.94
33.9240	548.02
33.9384	500.53
33.9528	505.75
33.9673	473.21
33.9817	509.25
33.9962	524.52
34.0106	508.85
34.0250	500.38
34.0395	479.54
34.0539	497.57
34.0684	535.50
34.0828	545.86
34.0972	507.96
34.1117	522.53
34.1261	491.89
34.1406	506.80
34.1550	470.47
34.1694	493.94
34.1839	487.55
34.1983	498.27
34.2128	545.97
34.2272	517.40
34.2417	511.68
34.2561	504.49
34.2705	485.69
34.2850	522.36
34.2994	500.52
34.3139	508.26
34.3283	519.97
34.3427	488.21
34.3572	515.96
34.3716	475.09
34.3861	510.26
34.4005	479.99
34.4149	515.12
34.4294	525.79
34.4438	469.93
34.4583	472.64
34.4727	517.02
34.4871	522.32
34.5016	522.09
34.5160	520.26
34.5305	511.41
34.5449	494.35
34.5593	505.18
34.5738	500.71
34.5882	531.28
34.6027	537.92
34.6171	554.09
34.6315	528.32
34.6460	519.25
34.6604	524.37
34.6749	537.00
34.6893	549.56
34.7037	493.98
34.7182	484.87
34.7326	519.46
34.7471	510.63
34.7615	497.73
34.7759	516.11
34.7904	533.09
34.8048	531.40
34.8193	502.01
34.8337	497.25
34.8481	517.00
34.8626	508.89
34.8770	517.04
34.8915	511.08
34.9059	500.16
34.9203	509.51
34.9348	516.05
34.9492	499.73
34.9637	489.22
34.9781	472.19
34.9925	510.75
35.0070	529.17
35.0214	548.85
35.0359	545.55
35.0503	506.04
35.0647	556.48
35.0792	539.86
35.0936	513.88
35.1081	529.64
35.1225	546.09
35.1369	516.30
35.1514	489.19
35.1658	527.58
35.1803	510.52
35.1947	507.75
35.2091	513.54
35.2236	505.61
35.2380	506.56
35.2525	494.10
35.2669	521.27
35.2813	539.54
35.2958	504.98
35.3102	516.11
35.3247	535.76
35.3391	537.78
35.3535	514.59
35.3680	499.71
35.3824	550.85
35.3969	503.98
35.4113	531.34
35.4257	552.45
35.4402	530.96
35.4546	500.89
35.4691	521.97
35.4835	522.01
35.4979	537.17
35.5124	553.50
35.5268	556.75
35.5413	501.67
35.5557	492.04
35.5701	499.92
35.5846	518.76
35.5990	531.81
35.6135	538.31
35.6279	528.45
35.6423	514.39
35.6568	522.92
35.6712	524.33
35.6857	562.26
35.7001	660.86
35.7145	686.52
35.7290	640.76
35.7434	598.32
35.7579	585.54
35.7723	596.13
35.7867	617.39
35.8012	623.12
35.8156	675.70
35.8301	605.32
35.8445	600.25
35.8589	675.99
35.8734	746.96
35.8878	851.00
35.9023	1041.88
35.9167	1098.86
35.9311	1373.74
35.9456	2040.13
35.9600	2272.84
35.9745	1919.38
35.9889	1818.91
36.0033	2288.98
36.0178	2439.66
36.0322	2141.24
36.0467	1985.82
36.0611	1885.97
36.0755	1817.67
36.0900	1876.25
36.1044	1775.49
36.1189	1806.86
36.1333	1696.26
36.1477	1494.30
36.1622	1557.99
36.1766	1481.06
36.1911	1278.12
36.2055	1137.62
36.2199	1039.72
36.2344	947.11
36.2488	918.37
36.2633	888.78
36.2777	806.66
36.2921	753.47
36.3066	730.20
36.3210	670.01
36.3355	666.48
36.3499	619.31
36.3643	589.43
36.3788	617.98
36.3932	571.94
36.4077	547.50
36.4221	591.20
36.4365	563.86
36.4510	541.19
36.4654	583.12
36.4799	544.69
36.4943	531.12
36.5087	539.22
36.5232	526.38
36.5376	555.48
36.5521	527.86
36.5665	524.75
36.5809	510.14
36.5954	517.49
36.6098	537.91
36.6243	528.61
36.6387	556.90
36.6531	523.42
36.6676	503.90
36.6820	503.48
36.6965	525.46
36.7109	561.12
36.7253	499.44
36.7398	510.41
36.7542	569.30
36.7687	535.41
36.7831	552.13
36.7975	536.98
36.8120	594.81
36.8264	600.43
36.8409	588.31
36.8553	560.83
36.8697	604.86
36.8842	614.87
36.8986	608.62
36.9131	614.47
36.9275	588.88
36.9419	586.32
36.9564	555.95
36.9708	592.10
36.9853	526.06
36.9997	509.35
37.0141	522.75
37.0286	506.59
37.0430	544.21
37.0575	530.67
37.0719	545.70
37.0863	539.47
37.1008	500.22
37.1152	535.00
37.1297	500.52
37.1441	523.92
37.1585	508.63
37.1730	507.56
37.1874	513.47
37.2019	509.01
37.2163	521.21
37.2307	519.58
37.2452	521.03
37.2596	524.42
37.2741	511.71
37.2885	500.10
37.3029	480.71
37.3174	511.20
37.3318	543.26
37.3463	504.41
37.3607	516.44
37.3751	508.73
37.3896	501.48
37.4040	497.19
37.4185	479.66
37.4329	501.04
37.4473	510.91
37.4618	516.40
37.4762	498.31
37.4907	497.81
37.5051	498.95
37.5195	512.88
37.5340	501.99
37.5484	498.27
37.5629	523.96
37.5773	492.29
37.5917	495.87
37.6062	515.09
37.6206	508.15
37.6351	536.40
37.6495	502.41
37.6639	494.60
37.6784	505.46
37.6928	495.79
37.7073	496.89
37.7217	494.06
37.7361	495.64
37.7506	487.16
37.7650	501.43
37.7795	507.89
37.7939	512.18
37.8083	509.62
37.8228	489.10
37.8372	545.83
37.8517	500.14
37.8661	512.44
37.8805	490.14
37.8950	510.29
37.9094	487.90
37.9239	514.70
37.9383	530.10
37.9528	513.04
37.9672	473.72
37.9816	486.47
37.9961	498.16
38.0105	514.59
38.0250	515.97
38.0394	510.22
38.0538	482.41
38.0683	515.08
38.0827	532.98
38.0972	479.92
38.1116	489.60
38.1260	531.88
38.1405	499.72
38.1549	513.41
38.1694	502.43
38.1838	513.43
38.1982	468.40
38.2127	487.56
38.2271	505.03
38.2416	521.31
38.2560	512.89
38.2704	516.10
38.2849	505.58
38.2993	521.46
38.3138	548.08
38.3282	512.94
38.3426	530.97
38.3571	534.13
38.3715	525.76
38.3860	527.13
38.4004	524.79
38.4148	571.04
38.4293	604.00
38.4437	590.98
38.4582	589.10
38.4726	631.14
38.4870	686.33
38.5015	730.30
38.5159	768.28
38.5304	820.38
38.5448	796.54
38.5592	787.19
38.5737	740.49
38.5881	749.19
38.6026	736.80
38.6170	694.65
38.6314	682.09
38.6459	681.39
38.6603	656.00
38.6748	618.43
38.6892	586.38
38.7036	591.23
38.7181	548.12
38.7325	522.11
38.7470	501.32
38.7614	532.00
38.7758	550.73
38.7903	539.99
38.8047	536.43
38.8192	512.66
38.8336	487.17
38.8480	514.84
38.8625	520.34
38.8769	488.74
38.8914	498.68
38.9058	531.35
38.9202	524.84
38.9347	515.23
38.9491	519.50
38.9636	484.15
38.9780	479.87
38.9924	480.75
39.0069	490.57
39.0213	503.47
39.0358	497.25
39.0502	527.33
39.0646	530.52
39.0791	505.48
39.0935	516.42
39.1080	524.59
39.1224	505.34
39.1368	481.99
39.1513	475.07
39.1657	488.06
39.1802	481.17
39.1946	468.04
39.2090	475.61
39.2235	494.58
39.2379	526.13
39.2524	504.22
39.2668	503.41
39.2812	521.62
39.2957	496.49
39.3101	493.26
39.3246	530.93
39.3390	536.11
39.3534	484.46
39.3679	515.55
39.3823	528.53
39.3968	505.91
39.4112	505.44
39.4256	509.48
39.4401	498.41
39.4545	477.68
39.4690	441.48
39.4834	488.96
39.4978	492.50
39.5123	498.68
39.5267	505.87
39.5412	493.08
39.5556	478.40
39.5700	478.75
39.5845	501.11
39.5989	517.84
39.6134	531.49
39.6278	513.28
39.6422	528.18
39.6567	493.15
39.6711	507.43
39.6856	524.56
39.7000	526.47
39.7144	511.07
39.7289	497.43
39.7433	472.33
39.7578	506.29
39.7722	484.15
39.7866	504.52
39.8011	535.35
39.8155	532.54
39.8300	519.25
39.8444	492.14
39.8588	496.22
39.8733	496.30
39.8877	456.70
39.9022	507.13
39.9166	517.09
39.9310	497.01
39.9455	534.31
39.9599	488.84
39.9744	504.46
39.9888	461.26
40.0032	475.13
40.0177	507.86
40.0321	508.54
40.0466	489.57
40.0610	496.91
40.0754	515.41
40.0899	495.98
40.1043	472.64
40.1188	530.56
40.1332	522.92
40.1476	498.00
40.1621	503.34
40.1765	493.47
40.1910	479.28
40.2054	490.21
40.2198	479.31
40.2343	485.02
40.2487	478.01
40.2632	498.50
40.2776	527.62
40.2920	488.81
40.3065	498.83
40.3209	499.78
40.3354	514.14
40.3498	520.29
40.3642	517.26
40.3787	499.15
40.3931	431.27
40.4076	485.43
40.4220	485.33
40.4364	506.44
40.4509	468.99
40.4653	505.64
40.4798	484.95
40.4942	506.12
40.5086	499.32
40.5231	480.55
40.5375	478.45
40.5520	493.20
40.5664	489.18
40.5808	506.68
40.5953	478.36
40.6097	478.16
40.6242	486.00
40.6386	513.26
40.6530	529.63
40.6675	478.35
40.6819	500.22
40.6964	492.33
40.7108	525.22
40.7252	500.97
40.7397	521.27
40.7541	512.38
40.7686	450.48
40.7830	517.57
40.7974	516.94
40.8119	522.25
40.8263	517.86
40.8408	511.46
40.8552	499.59
40.8696	520.57
40.8841	489.36
40.8985	519.61
40.9130	487.38
40.9274	523.13
40.9418	500.89
40.9563	503.28
40.9707	495.80
40.9852	504.15
40.9996	450.07
41.0140	536.91
41.0285	535.53
41.0429	494.89
41.0574	474.05
41.0718	477.66
41.0862	540.86
41.1007	490.67
41.1151	482.78
41.1296	508.01
41.1440	484.63
41.1584	488.10
41.1729	527.69
41.1873	491.62
41.2018	494.67
41.2162	519.04
41.2306	496.40
41.2451	514.73
41.2595	487.23
41.2740	478.07
41.2884	499.79
41.3028	498.98
41.3173	518.65
41.3317	496.56
41.3462	493.17
41.3606	475.82
41.3750	508.01
41.3895	484.43
41.4039	478.96
41.4184	516.95
41.4328	513.63
41.4472	511.60
41.4617	504.74
41.4761	513.54
41.4906	528.34
41.5050	512.27
41.5194	524.41
41.5339	502.96
41.5483	457.06
41.5628	481.85
41.5772	503.25
41.5916	473.22
41.6061	532.07
41.6205	509.85
41.6350	506.86
41.6494	504.87
41.6639	520.39
41.6783	520.46
41.6927	483.96
41.7072	527.06
41.7216	522.13
41.7361	528.20
41.7505	517.71
41.7649	484.60
41.7794	509.41
41.7938	493.34
41.8083	502.49
41.8227	497.68
41.8371	520.96
41.8516	534.65
41.8660	539.80
41.8805	561.74
41.8949	532.37
41.9093	528.66
41.9238	551.37
41.9382	546.75
41.9527	537.02
41.9671	526.17
41.9815	533.20
41.9960	583.25
42.0104	568.67
42.0249	532.07
42.0393	542.38
42.0537	565.63
42.0682	564.72
42.0826	552.13
42.0971	590.54
42.1115	584.67
42.1259	613.89
42.1404	590.13
42.1548	611.66
42.1693	665.35
42.1837	698.04
42.1981	741.00
42.2126	807.47
42.2270	903.31
42.2415	1053.57
42.2559	1160.63
42.2703	1325.27
42.2848	1453.82
42.2992	1577.93
42.3137	1614.29
42.3281	1617.91
42.3425	1520.63
42.3570	1464.05
42.3714	1417.57
42.3859	1368.65
42.4003	1301.88
42.4147	1304.57
42.4292	1281.73
42.4436	1175.32
42.4581	1037.76
42.4725	959.76
42.4869	852.86
42.5014	765.15
42.5158	737.96
42.5303	676.91
42.5447	621.58
42.5591	623.69
42.5736	605.32
42.5880	573.23
42.6025	588.81
42.6169	565.28
42.6313	576.03
42.6458	549.86
42.6602	538.71
42.6747	539.71
42.6891	525.11
42.7035	526.40
42.7180	542.74
42.7324	508.69
42.7469	501.52
42.7613	503.11
42.7757	526.63
42.7902	532.71
42.8046	481.56
42.8191	515.93
42.8335	530.04
42.8479	501.93
42.8624	496.63
42.8768	521.44
42.8913	496.91
42.9057	512.13
42.9201	518.76
42.9346	534.15
42.9490	535.07
42.9635	523.04
42.9779	499.24
42.9923	490.13
43.0068	481.81
43.0212	540.10
43.0357	533.27
43.0501	503.84
43.0645	535.93
43.0790	517.15
43.0934	530.49
43.1079	560.20
43.1223	529.03
43.1367	514.19
43.1512	489.98
43.1656	524.84
43.1801	509.02
43.1945	522.19
43.2089	518.66
43.2234	534.66
43.2378	535.45
43.2523	509.05
43.2667	522.57
43.2811	533.35
43.2956	536.96
43.3100	519.90
43.3245	525.08
43.3389	582.09
43.3533	530.45
43.3678	517.35
43.3822	533.35
43.3967	546.83
43.4111	504.13
43.4255	525.53
43.4400	509.60
43.4544	508.45
43.4689	535.63
43.4833	489.36
43.4977	485.28
43.5122	518.32
43.5266	524.74
43.5411	509.47
43.5555	495.63
43.5699	488.34
43.5844	545.67
43.5988	486.50
43.6133	507.31
43.6277	520.87
43.6421	510.38
43.6566	510.87
43.6710	490.76
43.6855	532.43
43.6999	501.70
43.7143	513.03
43.7288	540.09
43.7432	502.77
43.7577	516.02
43.7721	504.16
43.7865	516.81
43.8010	515.15
43.8154	527.02
43.8299	546.05
43.8443	540.38
43.8587	606.06
43.8732	558.95
43.8876	591.42
43.9021	624.68
43.9165	635.04
43.9309	638.56
43.9454	640.05
43.9598	688.71
43.9743	627.81
43.9887	612.50
44.0031	596.17
44.0176	575.11
44.0320	638.73
44.0465	616.39
44.0609	582.25
44.0753	592.61
44.0898	610.99
44.1042	531.77
44.1187	576.28
44.1331	561.84
44.1475	552.14
44.1620	531.42
44.1764	534.97
44.1909	516.27
44.2053	555.92
44.2197	527.74
44.2342	527.60
44.2486	539.46
44.2631	515.61
44.2775	533.63
44.2919	520.97
44.3064	540.89
44.3208	553.50
44.3353	564.68
44.3497	524.52
44.3641	548.24
44.3786	557.93
44.3930	512.62
44.4075	549.35
44.4219	571.20
44.4363	548.04
44.4508	555.68
44.4652	570.00
44.4797	592.08
44.4941	601.74
44.5085	614.03
44.5230	574.04
44.5374	580.79
44.5519	564.24
44.5663	596.26
44.5807	568.06
44.5952	544.20
44.6096	558.18
44.6241	560.61
44.6385	596.77
44.6529	600.65
44.6674	565.25
44.6818	592.06
44.6963	621.50
44.7107	661.91
44.7251	694.07
44.7396	740.11
44.7540	808.70
44.7685	803.29
44.7829	897.92
44.7973	847.11
44.8118	847.13
44.8262	845.77
44.8407	771.29
44.8551	752.21
44.8695	748.47
44.8840	715.79
44.8984	795.45
44.9129	755.24
44.9273	715.99
44.9417	686.92
44.9562	634.67
44.9706	609.68
44.9851	568.46
44.9995	526.40
45.0139	516.99
45.0284	553.06
45.0428	512.06
45.0573	522.09
45.0717	508.96
45.0861	551.32
45.1006	561.84
45.1150	525.17
45.1295	508.81
45.1439	467.90
45.1583	529.07
45.1728	524.67
45.1872	511.19
45.2017	545.92
45.2161	508.41
45.2305	518.10
45.2450	510.00
45.2594	524.49
45.2739	514.24
45.2883	533.94
45.3028	504.65
45.3172	489.48
45.3316	514.11
45.3461	505.50
45.3605	539.24
45.3750	500.94
45.3894	505.65
45.4038	505.92
45.4183	517.81
45.4327	526.56
45.4472	487.60
45.4616	485.83
45.4760	498.61
45.4905	518.85
45.5049	536.22
45.5194	522.61
45.5338	511.31
45.5482	537.43
45.5627	510.62
45.5771	500.41
45.5916	493.32
45.6060	514.95
45.6204	507.57
45.6349	543.72
45.6493	521.58
45.6638	478.17
45.6782	529.57
45.6926	514.13
45.7071	553.47
45.7215	535.40
45.7360	542.36
45.7504	536.12
45.7648	520.35
45.7793	565.71
45.7937	523.59
45.8082	559.10
45.8226	514.65
45.8370	506.01
45.8515	476.73
45.8659	509.63
45.8804	521.14
45.8948	509.86
45.9092	484.06
45.9237	472.97
45.9381	504.49
45.9526	502.75
45.9670	489.24
45.9814	500.33
45.9959	538.67
46.0103	507.77
46.0248	482.62
46.0392	458.28
46.0536	475.05
46.0681	519.19
46.0825	513.31
46.0970	531.50
46.1114	508.33
46.1258	513.22
46.1403	497.35
46.1547	510.14
46.1692	480.58
46.1836	497.56
46.1980	482.46
46.2125	535.51
46.2269	495.31
46.2414	513.33
46.2558	507.11
46.2702	489.53
46.2847	512.42
46.2991	505.35
46.3136	515.64
46.3280	501.06
46.3424	473.24
46.3569	473.15
46.3713	464.48
46.3858	510.33
46.4002	502.59
46.4146	492.78
46.4291	509.74
46.4435	531.41
46.4580	481.62
46.4724	496.55
46.4868	498.17
46.5013	495.10
46.5157	529.51
46.5302	508.82
46.5446	489.78
46.5590	532.91
46.5735	492.97
46.5879	492.98
46.6024	482.05
46.6168	512.61
46.6312	517.65
46.6457	491.52
46.6601	507.21
46.6746	507.42
46.6890	509.31
46.7034	496.59
46.7179	502.51
46.7323	516.40
46.7468	528.43
46.7612	486.00
46.7756	498.33
46.7901	502.33
46.8045	500.41
46.8190	509.13
46.8334	519.65
46.8478	521.60
46.8623	533.90
46.8767	532.86
46.8912	513.54
46.9056	538.80
46.9200	491.20
46.9345	491.79
46.9489	511.16
46.9634	518.45
46.9778	527.75
46.9922	505.61
47.0067	522.23
47.0211	522.46
47.0356	523.12
47.0500	512.06
47.0644	529.67
47.0789	525.15
47.0933	499.75
47.1078	507.51
47.1222	524.16
47.1366	519.58
47.1511	507.36
47.1655	506.89
47.1800	515.72
47.1944	525.08
47.2088	522.62
47.2233	509.07
47.2377	490.10
47.2522	484.58
47.2666	499.08
47.2810	518.28
47.2955	506.21
47.3099	526.80
47.3244	547.12
47.3388	556.45
47.3532	527.82
47.3677	506.37
47.3821	481.31
47.3966	486.73
47.4110	492.54
47.4254	520.63
47.4399	497.05
47.4543	493.95
47.4688	514.82
47.4832	507.50
47.4976	509.65
47.5121	498.34
47.5265	509.61
47.5410	487.11
47.5554	475.98
47.5698	508.27
47.5843	487.33
47.5987	518.48
47.6132	531.48
47.6276	473.48
47.6420	475.37
47.6565	506.74
47.6709	491.97
47.6854	520.72
47.6998	512.65
47.7142	543.94
47.7287	535.36
47.7431	517.57
47.7576	522.71
47.7720	493.13
47.7864	517.79
47.8009	511.87
47.8153	543.61
47.8298	546.09
47.8442	520.73
47.8586	532.55
47.8731	506.79
47.8875	502.85
47.9020	503.52
47.9164	495.70
47.9308	528.51
47.9453	511.42
47.9597	519.61
47.9742	514.51
47.9886	503.42
48.0030	503.69
48.0175	509.37
48.0319	524.34
48.0464	487.15
48.0608	495.49
48.0752	517.01
48.0897	539.53
48.1041	540.55
48.1186	545.46
48.1330	518.53
48.1474	482.55
48.1619	504.29
48.1763	521.43
48.1908	550.33
48.2052	499.62
48.2196	514.61
48.2341	560.65
48.2485	521.34
48.2630	517.31
48.2774	484.29
48.2918	536.85
48.3063	505.47
48.3207	512.73
48.3352	507.85
48.3496	517.60
48.3640	528.79
48.3785	514.38
48.3929	521.47
48.4074	531.50
48.4218	526.95
48.4362	524.82
48.4507	489.15
48.4651	516.92
48.4796	516.42
48.4940	531.70
48.5084	498.98
48.5229	508.99
48.5373	499.47
48.5518	507.61
48.5662	499.49
48.5806	521.63
48.5951	520.98
48.6095	536.68
48.6240	515.78
48.6384	520.66
48.6528	542.74
48.6673	508.57
48.6817	497.58
48.6962	525.48
48.7106	479.14
48.7250	495.36
48.7395	488.24
48.7539	533.90
48.7684	533.15
48.7828	552.97
48.7972	543.28
48.8117	514.92
48.8261	504.98
48.8406	534.67
48.8550	535.29
48.8694	545.71
48.8839	543.53
48.8983	574.41
48.9128	583.40
48.9272	520.25
48.9416	580.11
48.9561	555.99
48.9705	570.65
48.9850	590.82
48.9994	576.75
49.0139	585.19
49.0283	541.48
49.0427	611.71
49.0572	590.76
49.0716	602.91
49.0861	647.17
49.1005	683.36
49.1149	692.77
49.1294	764.68
49.1438	722.84
49.1583	777.69
49.1727	822.54
49.1871	885.89
49.2016	902.94
49.2160	968.93
49.2305	1010.18
49.2449	1114.48
49.2593	1223.63
49.2738	1345.31
49.2882	1451.47
49.3027	1539.18
49.3171	1639.42
49.3315	1644.68
49.3460	1652.79
49.3604	1765.27
49.3749	1745.28
49.3893	1683.34
49.4037	1705.49
49.4182	1769.00
49.4326	1767.74
49.4471	1651.44
49.4615	1578.08
49.4759	1541.72
49.4904	1519.84
49.5048	1439.83
49.5193	1375.06
49.5337	1288.86
49.5481	1187.87
49.5626	1177.41
49.5770	1035.36
49.5915	933.98
49.6059	902.04
49.6203	896.78
49.6348	817.55
49.6492	776.93
49.6637	776.11
49.6781	674.91
49.6925	716.08
49.7070	697.35
49.7214	681.74
49.7359	622.33
49.7503	658.38
49.7647	613.33
49.7792	590.43
49.7936	566.30
49.8081	596.55
49.8225	609.55
49.8369	624.40
49.8514	599.38
49.8658	582.14
49.8803	578.96
49.8947	591.12
49.9091	580.30
49.9236	575.02
49.9380	565.51
49.9525	506.63
49.9669	508.10
49.9813	501.11
49.9958	533.93
50.0102	541.42
50.0247	545.47
50.0391	527.05
50.0535	536.97
50.0680	559.88
50.0824	528.43
50.0969	525.63
50.1113	525.45
50.1257	560.63
50.1402	514.93
50.1546	493.47
50.1691	538.05
50.1835	537.42
50.1979	496.51
50.2124	553.11
50.2268	532.47
50.2413	505.61
50.2557	514.87
50.2701	511.68
50.2846	537.75
50.2990	518.89
50.3135	516.18
50.3279	546.21
50.3423	561.86
50.3568	506.28
50.3712	513.56
50.3857	511.39
50.4001	498.06
50.4145	477.40
50.4290	521.03
50.4434	495.17
50.4579	489.83
50.4723	532.01
50.4867	533.80
50.5012	509.25
50.5156	493.93
50.5301	500.17
50.5445	503.41
50.5589	518.95
50.5734	494.58
50.5878	540.07
50.6023	553.97
50.6167	527.88
50.6311	503.84
50.6456	509.59
50.6600	506.03
50.6745	543.91
50.6889	504.63
50.7033	518.04
50.7178	495.14
50.7322	530.50
50.7467	529.79
50.7611	512.00
50.7755	514.37
50.7900	495.00
50.8044	485.61
50.8189	525.06
50.8333	527.95
50.8477	502.38
50.8622	519.37
50.8766	531.67
50.8911	515.36
50.9055	527.12
50.9199	528.15
50.9344	496.37
50.9488	483.48
50.9633	493.06
50.9777	495.49
50.9921	489.74
51.0066	495.25
51.0210	518.83
51.0355	510.69
51.0499	486.42
51.0643	531.95
51.0788	521.22
51.0932	526.75
51.1077	511.74
51.1221	507.73
51.1365	506.52
51.1510	482.90
51.1654	514.77
51.1799	519.82
51.1943	508.08
51.2087	510.91
51.2232	532.80
51.2376	526.53
51.2521	520.60
51.2665	503.73
51.2809	516.67
51.2954	515.08
51.3098	523.92
51.3243	532.59
51.3387	499.37
51.3531	518.94
51.3676	516.83
51.3820	509.42
51.3965	490.35
51.4109	455.49
51.4253	511.82
51.4398	486.59
51.4542	534.03
51.4687	539.48
51.4831	523.13
51.4975	504.28
51.5120	514.72
51.5264	547.69
51.5409	547.97
51.5553	497.35
51.5697	489.95
51.5842	490.91
51.5986	526.50
51.6131	541.98
51.6275	519.77
51.6419	522.08
51.6564	496.77
51.6708	483.79
51.6853	467.89
51.6997	480.47
51.7141	537.48
51.7286	510.66
51.7430	491.28
51.7575	517.76
51.7719	495.05
51.7863	494.02
51.8008	474.99
51.8152	522.37
51.8297	521.48
51.8441	498.19
51.8585	512.88
51.8730	511.59
51.8874	531.69
51.9019	550.43
51.9163	541.94
51.9307	509.10
51.9452	541.69
51.9596	535.27
51.9741	491.93
51.9885	518.29
52.0029	536.33
52.0174	520.81
52.0318	527.86
52.0463	518.44
52.0607	492.08
52.0751	529.86
52.0896	537.15
52.1040	534.16
52.1185	516.20
52.1329	556.26
52.1473	511.44
52.1618	508.22
52.1762	513.96
52.1907	499.84
52.2051	482.56
52.2195	509.23
52.2340	509.16
52.2484	502.40
52.2629	513.30
52.2773	515.02
52.2917	493.11
52.3062	485.43
52.3206	518.18
52.3351	528.86
52.3495	489.09
52.3639	520.48
52.3784	480.84
52.3928	496.20
52.4073	465.84
52.4217	485.22
52.4361	503.90
52.4506	530.67
52.4650	525.98
52.4795	511.85
52.4939	473.20
52.5083	482.30
52.5228	501.28
52.5372	523.80
52.5517	539.62
52.5661	524.73
52.5805	518.13
52.5950	523.26
52.6094	535.83
52.6239	551.99
52.6383	494.78
52.6527	503.06
52.6672	518.24
52.6816	503.09
52.6961	483.66
52.7105	515.12
52.7250	540.75
52.7394	535.13
52.7538	492.72
52.7683	472.06
52.7827	493.78
52.7972	514.79
52.8116	539.16
52.8260	508.68
52.8405	515.24
52.8549	550.66
52.8694	544.40
52.8838	514.72
52.8982	539.17
52.9127	515.21
52.9271	502.73
52.9416	522.73
52.9560	528.18
52.9704	519.00
52.9849	538.42
52.9993	525.36
53.0138	509.19
53.0282	549.06
53.0426	546.09
53.0571	522.73
53.0715	525.66
53.0860	529.85
53.1004	521.45
53.1148	543.51
53.1293	546.73
53.1437	499.29
53.1582	513.54
53.1726	504.12
53.1870	503.08
53.2015	485.39
53.2159	495.55
53.2304	472.93
53.2448	534.93
53.2592	499.81
53.2737	480.43
53.2881	530.88
53.3026	518.02
53.3170	510.04
53.3314	512.33
53.3459	499.98
53.3603	501.68
53.3748	489.98
53.3892	503.45
53.4036	500.21
53.4181	491.36
53.4325	513.14
53.4470	498.45
53.4614	517.12
53.4758	509.41
53.4903	526.77
53.5047	509.80
53.5192	502.89
53.5336	512.56
53.5480	510.19
53.5625	558.83
53.5769	516.15
53.5914	536.90
53.6058	538.98
53.6202	512.48
53.6347	486.96
53.6491	489.62
53.6636	527.19
53.6780	512.98
53.6924	522.25
53.7069	507.84
53.7213	528.72
53.7358	513.36
53.7502	505.35
53.7646	492.89
53.7791	479.61
53.7935	510.01
53.8080	519.21
53.8224	528.61
53.8368	503.77
53.8513	483.19
53.8657	515.84
53.8802	513.91
53.8946	519.13
53.9090	517.34
53.9235	501.13
53.9379	522.76
53.9524	509.04
53.9668	501.37
53.9812	514.19
53.9957	539.20
54.0101	526.36
54.0246	532.74
54.0390	500.44
54.0534	493.33
54.0679	524.07
54.0823	560.11
54.0968	565.02
54.1112	548.81
54.1256	525.00
54.1401	523.81
54.1545	518.27
54.1690	555.43
54.1834	551.32
54.1978	535.94
54.2123	532.70
54.2267	531.56
54.2412	540.69
54.2556	536.53
54.2700	540.12
54.2845	563.88
54.2989	567.14
54.3134	525.77
54.3278	551.72
54.3422	552.79
54.3567	596.18
54.3711	566.51
54.3856	530.16
54.4000	563.75
54.4144	550.97
54.4289	578.95
54.4433	572.14
54.4578	549.83
54.4722	609.06
54.4866	597.19
54.5011	593.24
54.5155	604.67
54.5300	620.99
54.5444	609.79
54.5588	646.35
54.5733	604.29
54.5877	616.29
54.6022	594.10
54.6166	610.29
54.6310	575.11
54.6455	582.20
54.6599	558.08
54.6744	580.20
54.6888	576.47
54.7032	557.84
54.7177	604.09
54.7321	559.24
54.7466	556.14
54.7610	542.94
54.7754	578.74
54.7899	543.16
54.8043	548.11
54.8188	560.22
54.8332	541.50
54.8476	548.20
54.8621	566.02
54.8765	549.99
54.8910	534.54
54.9054	554.76
54.9198	501.28
54.9343	512.72
54.9487	532.17
54.9632	527.84
54.9776	523.02
54.9920	534.99
55.0065	538.08
55.0209	545.66
55.0354	522.53
55.0498	493.92
55.0642	524.84
55.0787	531.45
55.0931	509.36
55.1076	474.34
55.1220	490.24
55.1364	521.84
55.1509	505.98
55.1653	527.26
55.1798	562.83
55.1942	518.36
55.2086	530.16
55.2231	542.81
55.2375	530.48
55.2520	517.97
55.2664	501.04
55.2808	499.35
55.2953	515.12
55.3097	520.20
55.3242	523.88
55.3386	551.26
55.3530	521.61
55.3675	513.08
55.3819	519.34
55.3964	525.83
55.4108	545.80
55.4252	524.45
55.4397	493.75
55.4541	525.05
55.4686	548.05
55.4830	522.96
55.4974	547.61
55.5119	529.30
55.5263	494.41
55.5408	482.75
55.5552	526.42
55.5696	543.80
55.5841	517.60
55.5985	520.62
55.6130	491.02
55.6274	513.18
55.6418	512.96
55.6563	514.60
55.6707	497.16
55.6852	480.60
55.6996	526.36
55.7140	527.96
55.7285	518.95
55.7429	540.42
55.7574	545.00
55.7718	521.66
55.7862	550.00
55.8007	508.75
55.8151	519.18
55.8296	524.04
55.8440	501.60
55.8584	531.16
55.8729	523.98
55.8873	516.84
55.9018	537.18
55.9162	498.12
55.9306	506.21
55.9451	533.60
55.9595	506.64
55.9740	523.25
55.9884	532.93
56.0028	531.44
56.0173	537.75
56.0317	578.73
56.0462	560.75
56.0606	500.26
56.0750	520.93
56.0895	550.14
56.1039	533.45
56.1184	557.42
56.1328	552.32
56.1472	489.25
56.1617	532.79
56.1761	529.59
56.1906	507.94
56.2050	519.05
56.2194	547.68
56.2339	551.13
56.2483	515.09
56.2628	492.01
56.2772	509.25
56.2916	538.70
56.3061	517.32
56.3205	498.58
56.3350	541.29
56.3494	483.61
56.3639	533.53
56.3783	540.61
56.3927	528.99
56.4072	492.66
56.4216	527.50
56.4361	550.40
56.4505	567.25
56.4649	558.72
56.4794	548.01
56.4938	506.19
56.5083	512.71
56.5227	520.79
56.5371	530.02
56.5516	556.87
56.5660	546.93
56.5805	514.50
56.5949	518.05
56.6093	544.98
56.6238	507.07
56.6382	524.97
56.6527	549.72
56.6671	499.47
56.6815	501.40
56.6960	551.55
56.7104	530.08
56.7249	522.44
56.7393	523.76
56.7537	559.35
56.7682	507.91
56.7826	508.11
56.7971	572.17
56.8115	539.70
56.8259	535.12
56.8404	535.95
56.8548	537.08
56.8693	534.49
56.8837	534.67
56.8981	555.70
56.9126	543.47
56.9270	526.36
56.9415	500.99
56.9559	502.86
56.9703	510.51
56.9848	509.76
56.9992	508.31
57.0137	537.76
57.0281	490.09
57.0425	531.57
57.0570	516.43
57.0714	543.26
57.0859	516.99
57.1003	515.14
57.1147	577.94
57.1292	564.02
57.1436	534.65
57.1581	512.74
57.1725	517.58
57.1869	563.90
57.2014	519.13
57.2158	529.95
57.2303	537.81
57.2447	508.40
57.2591	532.52
57.2736	511.17
57.2880	508.42
57.3025	509.03
57.3169	519.20
57.3313	529.58
57.3458	522.86
57.3602	516.05
57.3747	503.99
57.3891	532.95
57.4035	511.89
57.4180	488.29
57.4324	507.99
57.4469	512.27
57.4613	528.11
57.4757	504.80
57.4902	521.27
57.5046	513.43
57.5191	519.12
57.5335	545.00
57.5479	530.03
57.5624	556.22
57.5768	524.48
57.5913	516.08
57.6057	534.29
57.6201	520.53
57.6346	566.57
57.6490	540.16
57.6635	544.44
57.6779	514.26
57.6923	531.79
57.7068	533.63
57.7212	528.48
57.7357	501.26
57.7501	549.25
57.7645	546.28
57.7790	540.61
57.7934	556.14
57.8079	548.70
57.8223	533.07
57.8367	588.94
57.8512	547.72
57.8656	533.75
57.8801	535.72
57.8945	563.11
57.9089	579.18
57.9234	578.03
57.9378	557.07
57.9523	565.92
57.9667	545.79
57.9811	585.20
57.9956	620.73
58.0100	566.27
58.0245	537.17
58.0389	573.57
58.0533	593.79
58.0678	620.40
58.0822	613.41
58.0967	642.89
58.1111	676.80
58.1255	677.30
58.1400	640.68
58.1544	655.86
58.1689	680.52
58.1833	674.97
58.1977	692.00
58.2122	697.25
58.2266	657.82
58.2411	653.16
58.2555	698.09
58.2699	671.83
58.2844	692.60
58.2988	664.54
58.3133	621.54
58.3277	637.62
58.3421	628.47
58.3566	629.56
58.3710	597.11
58.3855	610.61
58.3999	585.43
58.4143	567.11
58.4288	550.39
58.4432	547.78
58.4577	542.23
58.4721	555.54
58.4865	569.38
58.5010	545.19
58.5154	523.08
58.5299	536.68
58.5443	532.59
58.5587	556.32
58.5732	555.05
58.5876	557.17
58.6021	568.88
58.6165	562.18
58.6309	536.53
58.6454	512.06
58.6598	552.07
58.6743	551.01
58.6887	560.21
58.7031	520.07
58.7176	545.32
58.7320	526.60
58.7465	544.46
58.7609	539.91
58.7753	565.50
58.7898	528.05
58.8042	552.07
58.8187	545.62
58.8331	542.52
58.8475	540.84
58.8620	556.59
58.8764	531.14
58.8909	576.30
58.9053	560.88
58.9197	550.53
58.9342	517.22
58.9486	544.63
58.9631	546.64
58.9775	553.58
58.9919	533.74
59.0064	525.04
59.0208	545.02
59.0353	556.06
59.0497	517.64
59.0641	523.77
59.0786	507.80
59.0930	556.03
59.1075	534.09
59.1219	536.30
59.1363	544.87
59.1508	551.25
59.1652	543.67
59.1797	562.60
59.1941	556.07
59.2085	550.13
59.2230	573.11
59.2374	550.69
59.2519	502.64
59.2663	550.47
59.2807	588.95
59.2952	565.25
59.3096	556.28
59.3241	579.07
59.3385	563.04
59.3529	578.46
59.3674	535.96
59.3818	577.46
59.3963	596.91
59.4107	584.63
59.4251	579.69
59.4396	577.60
59.4540	542.71
59.4685	562.16
59.4829	539.68
59.4973	527.40
59.5118	531.91
59.5262	546.94
59.5407	577.70
59.5551	540.87
59.5695	530.21
59.5840	563.97
59.5984	538.49
59.6129	588.14
59.6273	565.09
59.6417	535.28
59.6562	538.27
59.6706	504.93
59.6851	528.08
59.6995	522.50
59.7139	500.22
59.7284	528.02
59.7428	522.30
59.7573	513.73
59.7717	571.03
59.7861	547.02
59.8006	499.44
59.8150	551.12
59.8295	549.18
59.8439	542.79
59.8583	538.27
59.8728	539.01
59.8872	519.69
59.9017	577.30
59.9161	534.08
59.9305	574.98
59.9450	525.48
59.9594	528.75
59.9739	528.28
59.9883	525.20
60.0027	542.28
60.0172	557.35
60.0316	550.23
60.0461	521.79
60.0605	566.55
60.0750	569.86
60.0894	551.81
60.1038	512.89
60.1183	532.53
60.1327	548.01
60.1472	491.51
60.1616	550.66
60.1760	580.51
60.1905	542.82
60.2049	536.58
60.2194	579.54
60.2338	508.08
60.2482	520.72
60.2627	546.30
60.2771	556.32
60.2916	537.01
60.3060	487.74
60.3204	568.87
60.3349	562.78
60.3493	555.56
60.3638	560.35
60.3782	505.29
60.3926	536.06
60.4071	520.30
60.4215	547.14
60.4360	547.37
60.4504	510.77
60.4648	539.63
60.4793	539.48
60.4937	533.80
60.5082	534.36
60.5226	549.95
60.5370	544.85
60.5515	552.62
60.5659	536.46
60.5804	525.31
60.5948	542.80
60.6092	550.57
60.6237	528.12
60.6381	563.48
60.6526	531.09
60.6670	526.29
60.6814	538.37
60.6959	544.35
60.7103	592.01
60.7248	555.50
60.7392	558.92
60.7536	554.55
60.7681	545.72
60.7825	545.43
60.7970	546.43
60.8114	559.18
60.8258	526.82
60.8403	526.33
60.8547	528.19
60.8692	562.92
60.8836	532.24
60.8980	549.91
60.9125	523.11
60.9269	517.35
60.9414	562.95
60.9558	575.79
60.9702	541.74
60.9847	561.04
60.9991	559.54
61.0136	519.73
61.0280	549.93
61.0424	530.40
61.0569	529.91
61.0713	555.95
61.0858	595.00
61.1002	572.88
61.1146	553.95
61.1291	575.50
61.1435	549.79
61.1580	528.21
61.1724	552.51
61.1868	541.41
61.2013	524.01
61.2157	541.82
61.2302	485.53
61.2446	539.42
61.2590	525.39
61.2735	540.42
61.2879	558.22
61.3024	542.30
61.3168	536.21
61.3312	550.16
61.3457	585.05
61.3601	541.60
61.3746	551.70
61.3890	532.69
61.4034	547.96
61.4179	550.01
61.4323	553.58
61.4468	510.54
61.4612	536.59
61.4756	537.92
61.4901	542.15
61.5045	555.50
61.5190	524.83
61.5334	529.56
61.5478	543.21
61.5623	542.84
61.5767	522.08
61.5912	540.00
61.6056	569.48
61.6200	559.41
61.6345	574.74
61.6489	536.99
61.6634	538.31
61.6778	516.49
61.6922	535.49
61.7067	554.23
61.7211	561.05
61.7356	528.76
61.7500	557.63
61.7644	507.81
61.7789	556.26
61.7933	532.14
61.8078	546.99
61.8222	533.71
61.8366	521.66
61.8511	533.24
61.8655	546.07
61.8800	563.83
61.8944	571.51
61.9088	591.68
61.9233	540.31
61.9377	546.52
61.9522	563.53
61.9666	542.83
61.9810	555.46
61.9955	572.88
62.0099	529.33
62.0244	563.94
62.0388	537.56
62.0532	551.59
62.0677	561.06
62.0821	561.96
62.0966	536.87
62.1110	551.86
62.1254	556.91
62.1399	534.55
62.1543	552.40
62.1688	552.07
62.1832	537.41
62.1976	528.90
62.2121	517.60
62.2265	548.49
62.2410	576.42
62.2554	551.38
62.2698	566.90
62.2843	590.80
62.2987	543.41
62.3132	543.58
62.3276	536.11
62.3420	543.12
62.3565	560.58
62.3709	575.46
62.3854	603.38
62.3998	581.18
62.4142	540.22
62.4287	587.96
62.4431	591.40
62.4576	557.65
62.4720	584.88
62.4864	591.19
62.5009	578.34
62.5153	535.76
62.5298	567.19
62.5442	538.49
62.5586	520.23
62.5731	539.65
62.5875	543.16
62.6020	565.17
62.6164	544.18
62.6308	540.90
62.6453	545.14
62.6597	546.04
62.6742	564.00
62.6886	598.39
62.7030	570.50
62.7175	575.61
62.7319	552.93
62.7464	564.97
62.7608	571.36
62.7752	549.61
62.7897	582.44
62.8041	548.51
62.8186	582.23
62.8330	589.86
62.8474	556.87
62.8619	582.10
62.8763	594.20
62.8908	585.97
62.9052	566.92
62.9196	557.60
62.9341	579.99
62.9485	576.39
62.9630	566.30
62.9774	558.13
62.9918	588.59
63.0063	567.06
63.0207	557.10
63.0352	580.57
63.0496	535.06
63.0640	561.64
63.0785	575.70
63.0929	581.40
63.1074	594.82
63.1218	574.51
63.1362	569.88
63.1507	553.81
63.1651	560.15
63.1796	597.61
63.1940	558.39
63.2084	551.09
63.2229	571.52
63.2373	582.40
63.2518	588.03
63.2662	531.43
63.2806	589.98
63.2951	555.04
63.3095	573.30
63.3240	603.38
63.3384	617.95
63.3528	586.29
63.3673	570.95
63.3817	585.52
63.3962	577.35
63.4106	588.06
63.4250	609.87
63.4395	596.57
63.4539	564.52
63.4684	578.14
63.4828	542.95
63.4972	570.79
63.5117	593.57
63.5261	617.53
63.5406	611.84
63.5550	551.51
63.5694	597.45
63.5839	657.78
63.5983	647.06
63.6128	620.23
63.6272	612.18
63.6416	636.67
63.6561	632.74
63.6705	636.88
63.6850	606.62
63.6994	644.12
63.7138	662.09
63.7283	658.00
63.7427	661.84
63.7572	702.52
63.7716	721.33
63.7861	745.06
63.8005	805.37
63.8149	830.36
63.8294	870.92
63.8438	850.88
63.8583	857.90
63.8727	937.86
63.8871	877.15
63.9016	846.55
63.9160	834.95
63.9305	840.74
63.9449	786.78
63.9593	758.90
63.9738	753.74
63.9882	803.17
64.0027	748.75
64.0171	819.83
64.0315	818.78
64.0460	760.26
64.0604	756.73
64.0749	768.42
64.0893	800.07
64.1037	737.87
64.1182	771.44
64.1326	751.93
64.1471	676.55
64.1615	618.26
64.1759	659.53
64.1904	667.27
64.2048	687.37
64.2193	625.88
64.2337	620.57
64.2481	634.53
64.2626	664.78
64.2770	671.81
64.2915	638.43
64.3059	620.94
64.3203	628.91
64.3348	644.32
64.3492	687.64
64.3637	646.49
64.3781	640.33
64.3925	622.32
64.4070	607.90
64.4214	627.80
64.4359	628.86
64.4503	613.47
64.4647	632.51
64.4792	605.93
64.4936	648.70
64.5081	642.71
64.5225	595.68
64.5369	616.84
64.5514	668.62
64.5658	636.79
64.5803	656.28
64.5947	658.79
64.6091	656.42
64.6236	617.45
64.6380	656.88
64.6525	676.34
64.6669	665.56
64.6813	669.01
64.6958	685.94
64.7102	699.13
64.7247	666.82
64.7391	623.31
64.7535	642.50
64.7680	707.51
64.7824	698.69
64.7969	745.06
64.8113	741.88
64.8257	784.42
64.8402	807.41
64.8546	813.77
64.8691	846.87
64.8835	788.88
64.8979	860.29
64.9124	853.22
64.9268	885.48
64.9413	884.37
64.9557	951.73
64.9701	976.96
64.9846	1009.01
64.9990	1152.56
65.0135	1227.16
65.0279	1429.98
65.0423	1737.66
65.0568	2086.66
65.0712	2633.98
65.0857	3494.14
65.1001	4599.63
65.1145	6305.18
65.1290	8209.57
65.1434	9700.84
65.1579	11465.07
65.1723	12034.61
65.1867	11368.42
65.2012	9983.16
65.2156	8304.14
65.2301	6526.37
65.2445	5279.27
65.2589	4510.58
65.2734	4238.47
65.2878	4418.62
65.3023	5139.34
65.3167	5983.07
65.3311	6815.34
65.3456	7088.11
65.3600	7059.70
65.3745	6468.43
65.3889	5445.15
65.4033	4302.95
65.4178	3435.46
65.4322	2658.63
65.4467	2034.51
65.4611	1702.62
65.4755	1477.79
65.4900	1311.82
65.5044	1205.95
65.5189	1057.01
65.5333	983.31
65.5477	942.04
65.5622	893.78
65.5766	914.08
65.5911	872.09
65.6055	791.60
65.6199	756.73
65.6344	799.01
65.6488	749.34
65.6633	739.21
65.6777	741.93
65.6921	744.08
65.7066	736.55
65.7210	697.24
65.7355	687.12
65.7499	697.18
65.7643	750.58
65.7788	733.78
65.7932	660.17
65.8077	643.71
65.8221	649.92
65.8365	682.20
65.8510	660.25
65.8654	690.88
65.8799	640.57
65.8943	655.76
65.9087	647.64
65.9232	631.26
65.9376	650.29
65.9521	621.87
65.9665	615.04
65.9809	603.32
65.9954	594.85
66.0098	595.82
66.0243	637.23
66.0387	648.73
66.0531	662.09
66.0676	662.63
66.0820	640.18
66.0965	612.46
66.1109	609.71
66.1253	615.42
66.1398	601.40
66.1542	585.48
66.1687	633.25
66.1831	632.27
66.1975	616.74
66.2120	594.53
66.2264	595.79
66.2409	651.68
66.2553	622.63
66.2697	603.20
66.2842	646.38
66.2986	597.53
66.3131	606.79
66.3275	600.86
66.3419	605.66
66.3564	608.94
66.3708	612.20
66.3853	610.50
66.3997	603.60
66.4141	589.12
66.4286	629.69
66.4430	603.58
66.4575	554.01
66.4719	597.22
66.4863	600.90
66.5008	561.44
66.5152	574.78
66.5297	617.75
66.5441	634.28
66.5585	595.25
66.5730	546.92
66.5874	595.73
66.6019	595.41
66.6163	593.61
66.6307	596.11
66.6452	620.76
66.6596	599.92
66.6741	578.42
66.6885	556.21
66.7029	589.76
66.7174	583.04
66.7318	602.66
66.7463	583.22
66.7607	543.59
66.7751	609.78
66.7896	601.85
66.8040	621.23
66.8185	596.39
66.8329	571.24
66.8473	580.57
66.8618	632.18
66.8762	578.17
66.8907	557.94
66.9051	588.40
66.9195	596.66
66.9340	585.11
66.9484	582.02
66.9629	598.03
66.9773	586.85
66.9917	569.73
67.0062	605.99
67.0206	619.10
67.0351	605.63
67.0495	589.15
67.0639	585.76
67.0784	560.46
67.0928	577.02
67.1073	583.50
67.1217	576.75
67.1361	575.46
67.1506	576.17
67.1650	635.50
67.1795	582.10
67.1939	569.56
67.2083	577.06
67.2228	559.97
67.2372	586.31
67.2517	586.81
67.2661	574.90
67.2805	587.28
67.2950	573.93
67.3094	568.23
67.3239	552.29
67.3383	587.32
67.3527	617.53
67.3672	600.42
67.3816	574.81
67.3961	552.95
67.4105	607.49
67.4250	588.32
67.4394	544.07
67.4538	546.48
67.4683	589.02
67.4827	598.18
67.4972	570.80
67.5116	565.50
67.5260	615.78
67.5405	590.86
67.5549	566.19
67.5694	576.93
67.5838	591.39
67.5982	616.79
67.6127	576.13
67.6271	596.16
67.6416	601.50
67.6560	605.99
67.6704	545.08
67.6849	563.41
67.6993	564.29
67.7138	582.32
67.7282	552.99
67.7426	573.63
67.7571	572.51
67.7715	562.37
67.7860	616.23
67.8004	593.56
67.8148	593.33
67.8293	607.16
67.8437	583.15
67.8582	594.41
67.8726	595.26
67.8870	570.92
67.9015	573.98
67.9159	589.54
67.9304	564.14
67.9448	552.12
67.9592	574.68
67.9737	581.19
67.9881	611.79
68.0026	605.07
68.0170	544.49
68.0314	567.82
68.0459	571.15
68.0603	564.31
68.0748	560.11
68.0892	578.62
68.1036	573.18
68.1181	602.29
68.1325	585.87
68.1470	584.83
68.1614	614.52
68.1758	578.06
68.1903	540.08
68.2047	596.86
68.2192	610.31
68.2336	596.27
68.2480	578.93
68.2625	536.07
68.2769	543.86
68.2914	592.20
68.3058	585.82
68.3202	563.31
68.3347	572.97
68.3491	586.96
68.3636	586.11
68.3780	560.03
68.3924	539.00
68.4069	571.11
68.4213	560.23
68.4358	587.34
68.4502	587.06
68.4646	568.06
68.4791	596.52
68.4935	576.41
68.5080	553.98
68.5224	578.90
68.5368	556.39
68.5513	513.55
68.5657	527.56
68.5802	636.38
68.5946	587.03
68.6090	569.59
68.6235	561.05
68.6379	560.27
68.6524	572.02
68.6668	532.95
68.6812	571.80
68.6957	595.77
68.7101	584.65
68.7246	575.06
68.7390	539.95
68.7534	622.93
68.7679	556.33
68.7823	585.77
68.7968	532.28
68.8112	571.10
68.8256	554.76
68.8401	584.38
68.8545	595.71
68.8690	547.77
68.8834	565.16
68.8978	631.08
68.9123	593.71
68.9267	597.21
68.9412	588.09
68.9556	572.66
68.9700	601.76
68.9845	513.83
68.9989	573.44
69.0134	556.41
69.0278	596.49
69.0422	589.50
69.0567	574.83
69.0711	581.49
69.0856	590.78
69.1000	597.31
69.1144	571.97
69.1289	575.65
69.1433	604.38
69.1578	622.61
69.1722	574.95
69.1866	566.88
69.2011	541.79
69.2155	585.82
69.2300	562.84
69.2444	565.98
69.2588	598.03
69.2733	590.31
69.2877	576.30
69.3022	570.35
69.3166	581.67
69.3310	588.49
69.3455	582.70
69.3599	568.81
69.3744	538.22
69.3888	582.60
69.4032	625.10
69.4177	582.62
69.4321	617.86
69.4466	585.56
69.4610	561.99
69.4754	615.32
69.4899	620.84
69.5043	557.65
69.5188	623.31
69.5332	563.85
69.5476	601.74
69.5621	540.60
69.5765	592.46
69.5910	540.67
69.6054	575.33
69.6198	574.61
69.6343	584.94
69.6487	556.51
69.6632	571.29
69.6776	574.45
69.6920	574.60
69.7065	601.68
69.7209	602.78
69.7354	543.50
69.7498	585.02
69.7642	573.35
69.7787	584.90
69.7931	549.83
69.8076	541.32
69.8220	588.69
69.8364	570.29
69.8509	568.95
69.8653	569.75
69.8798	546.75
69.8942	588.52
69.9086	584.01
69.9231	621.51
69.9375	558.86
69.9520	553.99
69.9664	586.82
69.9808	561.82
69.9953	607.14
70.0097	616.14
70.0242	536.34
70.0386	574.78
70.0530	500.37
70.0675	607.39
70.0819	600.79
70.0964	597.00
70.1108	592.44
70.1252	586.58
70.1397	573.77
70.1541	557.90
70.1686	580.72
70.1830	593.80
70.1974	570.44
70.2119	566.18
70.2263	557.32
70.2408	565.04
70.2552	568.58
70.2696	558.59
70.2841	566.96
70.2985	553.85
70.3130	585.01
70.3274	585.35
70.3418	583.18
70.3563	555.64
70.3707	575.40
70.3852	610.38
70.3996	590.83
70.4140	573.21
70.4285	634.60
70.4429	641.28
70.4574	590.65
70.4718	587.76
70.4862	589.41
70.5007	575.05
70.5151	542.17
70.5296	570.70
70.5440	541.79
70.5584	554.75
70.5729	553.90
70.5873	560.43
70.6018	565.82
70.6162	605.95
70.6306	625.65
70.6451	555.72
70.6595	546.66
70.6740	594.50
70.6884	587.45
70.7028	593.19
70.7173	617.93
70.7317	567.78
70.7462	545.88
70.7606	548.58
70.7750	563.16
70.7895	588.24
70.8039	607.93
70.8184	551.43
70.8328	647.87
70.8472	611.33
70.8617	593.36
70.8761	544.07
70.8906	541.77
70.9050	556.12
70.9194	542.80
70.9339	616.46
70.9483	620.12
70.9628	597.76
70.9772	568.10
70.9916	571.22
71.0061	598.15
71.0205	593.33
71.0350	578.28
71.0494	510.44
71.0638	532.65
71.0783	545.61
71.0927	560.70
71.1072	583.97
71.1216	616.16
71.1361	644.66
71.1505	606.04
71.1649	598.29
71.1794	597.35
71.1938	549.78
71.2083	553.89
71.2227	549.75
71.2371	515.12
71.2516	542.97
71.2660	618.82
71.2805	587.11
71.2949	563.27
71.3093	591.13
71.3238	565.92
71.3382	552.11
71.3527	600.19
71.3671	653.43
71.3815	605.27
71.3960	596.65
71.4104	590.02
71.4249	637.68
71.4393	584.38
71.4537	587.12
71.4682	606.67
71.4826	618.88
71.4971	584.25
71.5115	529.69
71.5259	552.96
71.5404	620.44
71.5548	622.24
71.5693	579.76
71.5837	530.99
71.5981	522.01
71.6126	558.25
71.6270	579.09
71.6415	563.78
71.6559	566.93
71.6703	590.27
71.6848	604.55
71.6992	641.00
71.7137	617.81
71.7281	575.78
71.7425	546.36
71.7570	551.03
71.7714	589.53
71.7859	612.28
71.8003	601.89
71.8147	589.73
71.8292	621.35
71.8436	604.29
71.8581	615.07
71.8725	598.89
71.8869	566.88
71.9014	641.43
71.9158	563.59
71.9303	620.99
71.9447	663.50
71.9591	623.58
71.9736	641.72
71.9880	547.62
72.0025	446.16
72.0169	561.07
72.0313	592.46
72.0458	563.50
72.0602	559.69
72.0747	511.13
72.0891	521.38
72.1035	531.09
72.1180	540.69
72.1324	584.47
72.1469	553.00
72.1613	563.23
72.1757	567.32
72.1902	542.99
72.2046	560.74
72.2191	561.67
72.2335	515.69
72.2479	517.50
72.2624	603.17
72.2768	619.46
72.2913	561.61
72.3057	584.60
72.3201	569.62
72.3346	590.70
72.3490	643.11
72.3635	587.62
72.3779	578.48
72.3923	615.20
72.4068	604.52
72.4212	604.96
72.4357	681.76
72.4501	631.25
72.4645	662.99
72.4790	601.27
72.4934	604.29
72.5079	586.80
72.5223	495.44
72.5367	532.43
72.5512	656.19
72.5656	632.53
72.5801	565.41
72.5945	626.85
72.6089	615.17
72.6234	579.41
72.6378	598.80
72.6523	650.76
72.6667	654.87
72.6811	635.15
72.6956	593.04
72.7100	605.30
72.7245	549.03
72.7389	567.90
72.7533	533.58
72.7678	605.17
72.7822	740.99
72.7967	715.73
72.8111	616.00
72.8255	575.09
72.8400	532.89
72.8544	563.09
72.8689	634.81
72.8833	560.44