2022.09.19 19:37:16
Îáðàçåö: ß÷åéêà LCoV 16-09-2022
Lambda1 = 1.54060
Lambda2 = 1.54439
Lambdam = 1.54186
R = 0.497
2Theta	I

line¹ 0 ;repeat¹ 0
22.1120	528.06
22.1264	596.72
22.1409	547.39
22.1553	590.46
22.1697	572.40
22.1842	580.84
22.1986	570.12
22.2131	540.59
22.2275	537.52
22.2419	550.58
22.2564	591.17
22.2708	549.81
22.2853	607.37
22.2997	668.19
22.3141	593.88
22.3286	582.72
22.3430	554.43
22.3575	572.36
22.3719	543.72
22.3863	601.52
22.4008	592.78
22.4152	668.25
22.4297	661.74
22.4441	654.07
22.4585	586.59
22.4730	598.84
22.4874	605.06
22.5019	538.26
22.5163	565.12
22.5307	578.49
22.5452	590.14
22.5596	584.03
22.5741	660.71
22.5885	645.05
22.6029	668.60
22.6174	577.23
22.6318	543.89
22.6463	552.77
22.6607	525.63
22.6751	579.34
22.6896	572.10
22.7040	562.10
22.7185	559.33
22.7329	559.13
22.7473	583.45
22.7618	667.90
22.7762	611.23
22.7907	625.24
22.8051	614.13
22.8195	627.99
22.8340	554.55
22.8484	490.44
22.8629	571.19
22.8773	665.47
22.8917	569.32
22.9062	547.77
22.9206	530.54
22.9351	524.72
22.9495	554.88
22.9639	595.02
22.9784	621.40
22.9928	582.01
23.0073	614.09
23.0217	586.76
23.0361	541.53
23.0506	469.56
23.0650	527.24
23.0795	566.08
23.0939	599.18
23.1083	573.42
23.1228	498.74
23.1372	540.33
23.1517	492.30
23.1661	610.52
23.1806	603.76
23.1950	591.59
23.2094	505.61
23.2239	635.04
23.2383	583.12
23.2528	530.13
23.2672	541.29
23.2816	550.47
23.2961	556.49
23.3105	589.32
23.3250	515.64
23.3394	556.82
23.3538	523.19
23.3683	571.56
23.3827	499.16
23.3972	494.90
23.4116	526.86
23.4260	567.58
23.4405	558.57
23.4549	583.44
23.4694	578.17
23.4838	630.56
23.4982	564.36
23.5127	526.48
23.5271	544.84
23.5416	653.83
23.5560	635.07
23.5704	609.14
23.5849	550.71
23.5993	595.96
23.6138	619.12
23.6282	580.78
23.6426	560.61
23.6571	599.62
23.6715	630.36
23.6860	605.68
23.7004	597.58
23.7148	548.75
23.7293	549.53
23.7437	538.88
23.7582	563.68
23.7726	572.41
23.7870	604.02
23.8015	534.34
23.8159	534.35
23.8304	518.25
23.8448	655.98
23.8592	600.22
23.8737	533.13
23.8881	496.69
23.9026	469.67
23.9170	543.53
23.9314	530.93
23.9459	527.68
23.9603	521.35
23.9748	577.26
23.9892	521.49
24.0036	510.60
24.0181	533.09
24.0325	566.80
24.0470	578.40
24.0614	587.99
24.0758	479.58
24.0903	560.57
24.1047	561.76
24.1192	552.27
24.1336	526.58
24.1480	558.95
24.1625	596.64
24.1769	519.62
24.1914	510.35
24.2058	552.58
24.2202	549.18
24.2347	592.87
24.2491	625.64
24.2636	560.49
24.2780	644.51
24.2924	578.38
24.3069	674.96
24.3213	564.65
24.3358	573.12
24.3502	550.92
24.3646	577.19
24.3791	544.89
24.3935	538.77
24.4080	583.32
24.4224	654.40
24.4368	565.13
24.4513	547.10
24.4657	579.53
24.4802	584.21
24.4946	533.06
24.5090	550.67
24.5235	583.04
24.5379	569.89
24.5524	524.79
24.5668	569.50
24.5812	635.55
24.5957	578.93
24.6101	598.34
24.6246	547.73
24.6390	479.01
24.6534	560.02
24.6679	546.64
24.6823	542.99
24.6968	544.92
24.7112	502.16
24.7256	506.96
24.7401	573.37
24.7545	574.38
24.7690	528.40
24.7834	552.03
24.7978	548.00
24.8123	546.17
24.8267	545.00
24.8412	539.91
24.8556	542.48
24.8700	523.67
24.8845	489.22
24.8989	581.60
24.9134	524.92
24.9278	550.57
24.9422	521.24
24.9567	511.62
24.9711	482.67
24.9856	582.32
25.0000	585.19
25.0144	565.35
25.0289	561.55
25.0433	506.20
25.0578	609.27
25.0722	555.10
25.0866	591.98
25.1011	531.16
25.1155	528.32
25.1300	542.58
25.1444	557.64
25.1588	549.37
25.1733	527.23
25.1877	542.83
25.2022	510.74
25.2166	522.21
25.2310	551.23
25.2455	534.32
25.2599	535.47
25.2744	547.51
25.2888	569.23
25.3032	521.00
25.3177	569.53
25.3321	528.43
25.3466	551.20
25.3610	585.45
25.3754	532.73
25.3899	545.42
25.4043	556.50
25.4188	546.74
25.4332	514.14
25.4476	486.77
25.4621	523.41
25.4765	566.92
25.4910	541.45
25.5054	517.94
25.5198	552.60
25.5343	522.50
25.5487	503.51
25.5632	533.15
25.5776	555.25
25.5920	553.00
25.6065	518.00
25.6209	544.11
25.6354	566.88
25.6498	497.86
25.6642	484.70
25.6787	558.96
25.6931	535.96
25.7076	537.52
25.7220	497.65
25.7364	554.30
25.7509	570.43
25.7653	549.52
25.7798	569.45
25.7942	513.24
25.8086	523.22
25.8231	541.30
25.8375	519.61
25.8520	532.94
25.8664	527.23
25.8808	495.03
25.8953	520.58
25.9097	523.89
25.9242	523.27
25.9386	552.17
25.9530	550.84
25.9675	537.31
25.9819	549.47
25.9964	547.32
26.0108	515.82
26.0252	551.80
26.0397	538.41
26.0541	565.36
26.0686	553.88
26.0830	555.16
26.0974	528.26
26.1119	545.95
26.1263	543.71
26.1408	521.17
26.1552	507.92
26.1696	533.36
26.1841	514.22
26.1985	542.99
26.2130	569.31
26.2274	515.17
26.2418	544.63
26.2563	563.50
26.2707	546.67
26.2852	522.17
26.2996	565.23
26.3140	572.43
26.3285	557.27
26.3429	530.40
26.3574	524.69
26.3718	516.09
26.3862	527.77
26.4007	528.77
26.4151	494.18
26.4296	525.16
26.4440	499.97
26.4584	508.09
26.4729	533.06
26.4873	542.72
26.5018	503.13
26.5162	516.76
26.5306	547.97
26.5451	554.68
26.5595	553.28
26.5740	553.01
26.5884	559.27
26.6028	547.46
26.6173	547.71
26.6317	543.09
26.6462	546.19
26.6606	561.01
26.6750	547.49
26.6895	519.73
26.7039	545.90
26.7184	531.02
26.7328	505.73
26.7472	507.97
26.7617	548.97
26.7761	531.56
26.7906	532.80
26.8050	529.23
26.8194	510.59
26.8339	532.85
26.8483	534.63
26.8628	530.80
26.8772	530.76
26.8917	550.11
26.9061	527.65
26.9205	517.17
26.9350	514.92
26.9494	511.26
26.9639	521.64
26.9783	533.81
26.9927	515.23
27.0072	541.55
27.0216	552.66
27.0361	562.56
27.0505	526.74
27.0649	505.69
27.0794	541.92
27.0938	520.24
27.1083	499.39
27.1227	518.59
27.1371	494.43
27.1516	539.31
27.1660	565.69
27.1805	569.81
27.1949	503.41
27.2093	507.79
27.2238	544.47
27.2382	539.96
27.2527	515.38
27.2671	515.59
27.2815	504.67
27.2960	541.10
27.3104	509.46
27.3249	534.56
27.3393	521.28
27.3537	537.72
27.3682	510.73
27.3826	538.77
27.3971	503.75
27.4115	481.69
27.4259	534.40
27.4404	532.04
27.4548	518.31
27.4693	497.80
27.4837	519.45
27.4981	511.09
27.5126	515.51
27.5270	528.51
27.5415	516.53
27.5559	520.67
27.5703	529.48
27.5848	533.68
27.5992	558.01
27.6137	563.86
27.6281	507.74
27.6425	492.99
27.6570	524.02
27.6714	553.87
27.6859	567.49
27.7003	579.33
27.7147	550.71
27.7292	539.83
27.7436	530.80
27.7581	500.26
27.7725	513.50
27.7869	511.42
27.8014	504.65
27.8158	537.89
27.8303	557.07
27.8447	512.68
27.8591	517.27
27.8736	516.07
27.8880	507.24
27.9025	505.46
27.9169	506.96
27.9313	539.48
27.9458	514.69
27.9602	483.58
27.9747	496.98
27.9891	513.64
28.0035	505.65
28.0180	559.58
28.0324	552.00
28.0469	532.09
28.0613	550.23
28.0757	515.86
28.0902	558.17
28.1046	518.71
28.1191	553.57
28.1335	528.02
28.1479	539.62
28.1624	546.14
28.1768	533.07
28.1913	527.12
28.2057	497.74
28.2201	496.02
28.2346	533.01
28.2490	536.50
28.2635	513.48
28.2779	539.17
28.2923	493.99
28.3068	486.30
28.3212	507.52
28.3357	518.24
28.3501	533.98
28.3645	548.15
28.3790	507.64
28.3934	489.15
28.4079	498.96
28.4223	492.25
28.4367	498.75
28.4512	510.97
28.4656	515.69
28.4801	519.51
28.4945	495.50
28.5089	506.21
28.5234	495.62
28.5378	543.69
28.5523	517.93
28.5667	491.80
28.5811	541.90
28.5956	585.07
28.6100	534.80
28.6245	527.62
28.6389	514.93
28.6533	478.97
28.6678	474.24
28.6822	501.92
28.6967	509.50
28.7111	535.46
28.7255	508.69
28.7400	489.96
28.7544	490.89
28.7689	495.27
28.7833	509.58
28.7977	530.93
28.8122	558.12
28.8266	519.80
28.8411	528.71
28.8555	508.78
28.8699	518.28
28.8844	513.26
28.8988	510.17
28.9133	513.88
28.9277	509.78
28.9421	499.78
28.9566	495.70
28.9710	512.96
28.9855	483.92
28.9999	538.18
29.0143	510.99
29.0288	552.86
29.0432	542.22
29.0577	508.98
29.0721	488.79
29.0865	509.13
29.1010	482.27
29.1154	519.30
29.1299	523.92
29.1443	510.52
29.1587	482.75
29.1732	510.65
29.1876	499.27
29.2021	485.81
29.2165	545.34
29.2309	517.57
29.2454	492.99
29.2598	471.86
29.2743	505.41
29.2887	489.79
29.3031	471.40
29.3176	515.38
29.3320	539.33
29.3465	502.16
29.3609	528.96
29.3753	523.85
29.3898	506.92
29.4042	516.96
29.4187	487.97
29.4331	536.60
29.4475	501.99
29.4620	514.28
29.4764	505.78
29.4909	532.07
29.5053	521.55
29.5197	477.46
29.5342	524.87
29.5486	510.13
29.5631	501.86
29.5775	492.95
29.5919	508.34
29.6064	515.36
29.6208	513.44
29.6353	529.39
29.6497	537.02
29.6641	499.77
29.6786	461.72
29.6930	489.71
29.7075	490.59
29.7219	503.30
29.7363	515.40
29.7508	531.42
29.7652	499.14
29.7797	486.01
29.7941	508.04
29.8085	486.65
29.8230	494.45
29.8374	525.92
29.8519	503.42
29.8663	517.94
29.8807	523.76
29.8952	574.54
29.9096	510.50
29.9241	472.57
29.9385	504.07
29.9529	510.50
29.9674	492.68
29.9818	492.09
29.9963	508.53
30.0107	484.91
30.0251	493.86
30.0396	482.60
30.0540	493.44
30.0685	549.70
30.0829	539.25
30.0973	515.96
30.1118	520.97
30.1262	515.59
30.1407	524.37
30.1551	492.98
30.1695	492.01
30.1840	521.29
30.1984	471.78
30.2129	467.33
30.2273	506.82
30.2417	513.82
30.2562	535.29
30.2706	505.12
30.2851	503.02
30.2995	513.71
30.3139	508.68
30.3284	528.35
30.3428	499.75
30.3573	508.68
30.3717	511.83
30.3861	498.48
30.4006	491.88
30.4150	497.06
30.4295	519.91
30.4439	502.07
30.4583	493.44
30.4728	519.95
30.4872	518.76
30.5017	522.50
30.5161	565.78
30.5305	537.25
30.5450	511.66
30.5594	532.99
30.5739	553.55
30.5883	554.19
30.6028	560.02
30.6172	606.16
30.6316	615.29
30.6461	592.67
30.6605	626.21
30.6750	700.99
30.6894	693.87
30.7038	733.10
30.7183	710.67
30.7327	726.22
30.7472	765.19
30.7616	698.99
30.7760	675.15
30.7905	624.24
30.8049	636.45
30.8194	618.09
30.8338	584.10
30.8482	574.20
30.8627	538.67
30.8771	579.47
30.8916	557.69
30.9060	538.42
30.9204	548.03
30.9349	533.50
30.9493	538.36
30.9638	531.67
30.9782	516.28
30.9926	523.51
31.0071	518.57
31.0215	522.03
31.0360	512.08
31.0504	505.49
31.0648	513.37
31.0793	501.58
31.0937	530.05
31.1082	506.76
31.1226	520.93
31.1370	511.14
31.1515	493.07
31.1659	528.24
31.1804	530.17
31.1948	537.64
31.2092	525.89
31.2237	496.35
31.2381	524.83
31.2526	573.00
31.2670	547.31
31.2814	527.47
31.2959	517.15
31.3103	523.23
31.3248	509.11
31.3392	535.54
31.3536	529.83
31.3681	547.91
31.3825	531.59
31.3970	523.00
31.4114	517.74
31.4258	511.16
31.4403	505.49
31.4547	478.95
31.4692	502.07
31.4836	514.37
31.4980	509.17
31.5125	488.37
31.5269	492.93
31.5414	489.28
31.5558	532.83
31.5702	551.05
31.5847	518.37
31.5991	508.79
31.6136	496.55
31.6280	502.09
31.6424	528.88
31.6569	514.08
31.6713	499.85
31.6858	503.28
31.7002	511.98
31.7146	488.41
31.7291	500.75
31.7435	521.08
31.7580	532.81
31.7724	496.13
31.7868	525.78
31.8013	547.33
31.8157	553.73
31.8302	517.91
31.8446	526.24
31.8590	521.36
31.8735	495.42
31.8879	483.91
31.9024	509.59
31.9168	504.63
31.9312	498.49
31.9457	475.69
31.9601	488.84
31.9746	538.18
31.9890	504.62
32.0034	513.03
32.0179	516.38
32.0323	546.72
32.0468	480.14
32.0612	571.34
32.0756	505.28
32.0901	489.29
32.1045	530.02
32.1190	533.35
32.1334	504.82
32.1478	484.09
32.1623	480.03
32.1767	501.07
32.1912	520.49
32.2056	466.18
32.2200	519.21
32.2345	506.97
32.2489	494.61
32.2634	472.39
32.2778	502.65
32.2922	520.57
32.3067	511.38
32.3211	554.85
32.3356	523.42
32.3500	495.33
32.3644	488.91
32.3789	503.08
32.3933	539.85
32.4078	521.50
32.4222	491.70
32.4366	528.22
32.4511	524.29
32.4655	501.06
32.4800	496.45
32.4944	498.18
32.5088	511.87
32.5233	492.93
32.5377	506.91
32.5522	515.92
32.5666	519.69
32.5810	529.72
32.5955	511.35
32.6099	490.42
32.6244	509.35
32.6388	512.78
32.6532	498.59
32.6677	507.43
32.6821	511.72
32.6966	520.25
32.7110	530.80
32.7254	549.41
32.7399	518.59
32.7543	515.28
32.7688	489.32
32.7832	509.50
32.7976	522.18
32.8121	513.66
32.8265	533.53
32.8410	528.56
32.8554	510.11
32.8698	505.02
32.8843	499.58
32.8987	519.96
32.9132	482.30
32.9276	484.30
32.9420	482.44
32.9565	507.20
32.9709	497.61
32.9854	496.84
32.9998	515.57
33.0142	504.13
33.0287	504.05
33.0431	463.92
33.0576	538.71
33.0720	496.13
33.0864	520.48
33.1009	508.20
33.1153	493.70
33.1298	504.01
33.1442	496.55
33.1586	480.37
33.1731	524.59
33.1875	474.52
33.2020	506.45
33.2164	497.33
33.2308	489.41
33.2453	546.41
33.2597	494.09
33.2742	510.30
33.2886	509.22
33.3030	516.08
33.3175	492.81
33.3319	522.36
33.3464	504.27
33.3608	503.14
33.3752	493.29
33.3897	504.74
33.4041	493.58
33.4186	499.54
33.4330	513.54
33.4474	501.42
33.4619	517.69
33.4763	527.45
33.4908	483.03
33.5052	495.84
33.5196	514.61
33.5341	509.70
33.5485	498.88
33.5630	486.55
33.5774	480.82
33.5918	495.51
33.6063	497.45
33.6207	517.42
33.6352	509.81
33.6496	506.04
33.6640	497.48
33.6785	494.58
33.6929	503.84
33.7074	542.59
33.7218	509.01
33.7362	491.43
33.7507	459.66
33.7651	496.60
33.7796	505.05
33.7940	483.24
33.8084	479.81
33.8229	499.52
33.8373	529.33
33.8518	499.26
33.8662	513.16
33.8806	511.24
33.8951	502.14
33.9095	513.64
33.9240	521.36
33.9384	484.23
33.9528	518.06
33.9673	534.94
33.9817	529.01
33.9962	505.02
34.0106	499.22
34.0250	520.37
34.0395	520.46
34.0539	514.05
34.0684	483.55
34.0828	490.46
34.0972	496.28
34.1117	512.21
34.1261	551.86
34.1406	516.09
34.1550	475.79
34.1694	494.72
34.1839	534.62
34.1983	523.33
34.2128	529.79
34.2272	527.89
34.2417	523.04
34.2561	523.38
34.2705	491.37
34.2850	507.95
34.2994	467.43
34.3139	522.84
34.3283	537.94
34.3427	538.48
34.3572	533.70
34.3716	530.76
34.3861	492.55
34.4005	501.63
34.4149	517.60
34.4294	499.29
34.4438	501.01
34.4583	502.02
34.4727	518.41
34.4871	524.47
34.5016	526.10
34.5160	508.05
34.5305	492.72
34.5449	515.53
34.5593	508.83
34.5738	489.42
34.5882	482.74
34.6027	486.01
34.6171	498.52
34.6315	489.63
34.6460	488.38
34.6604	520.34
34.6749	506.57
34.6893	496.11
34.7037	498.86
34.7182	518.06
34.7326	506.81
34.7471	510.68
34.7615	532.01
34.7759	500.93
34.7904	524.86
34.8048	516.43
34.8193	491.04
34.8337	477.61
34.8481	491.46
34.8626	503.40
34.8770	538.68
34.8915	508.81
34.9059	504.30
34.9203	495.43
34.9348	494.81
34.9492	497.05
34.9637	531.98
34.9781	499.56
34.9925	473.33
35.0070	506.24
35.0214	511.21
35.0359	524.90
35.0503	525.02
35.0647	522.28
35.0792	487.93
35.0936	527.37
35.1081	499.73
35.1225	530.81
35.1369	558.06
35.1514	532.76
35.1658	534.03
35.1803	508.40
35.1947	515.52
35.2091	523.95
35.2236	520.61
35.2380	519.18
35.2525	497.53
35.2669	480.06
35.2813	519.93
35.2958	515.50
35.3102	506.91
35.3247	498.72
35.3391	544.18
35.3535	495.63
35.3680	480.12
35.3824	506.56
35.3969	523.73
35.4113	508.24
35.4257	528.11
35.4402	529.90
35.4546	503.60
35.4691	549.67
35.4835	526.54
35.4979	540.87
35.5124	513.01
35.5268	510.03
35.5413	513.57
35.5557	509.32
35.5701	532.07
35.5846	516.18
35.5990	514.68
35.6135	520.30
35.6279	541.05
35.6423	514.89
35.6568	534.43
35.6712	571.54
35.6857	620.77
35.7001	694.28
35.7145	705.42
35.7290	638.18
35.7434	578.17
35.7579	576.00
35.7723	621.60
35.7867	630.72
35.8012	640.59
35.8156	630.70
35.8301	637.06
35.8445	623.51
35.8589	653.10
35.8734	729.82
35.8878	842.16
35.9023	1010.58
35.9167	1100.06
35.9311	1402.02
35.9456	2059.74
35.9600	2354.39
35.9745	1919.09
35.9889	1911.34
36.0033	2171.26
36.0178	2334.81
36.0322	2100.66
36.0467	1970.47
36.0611	1805.65
36.0755	1849.64
36.0900	1776.01
36.1044	1665.59
36.1189	1688.69
36.1333	1633.53
36.1477	1480.36
36.1622	1496.50
36.1766	1454.68
36.1911	1264.24
36.2055	1114.37
36.2199	1042.71
36.2344	987.98
36.2488	930.02
36.2633	903.02
36.2777	886.61
36.2921	783.78
36.3066	757.22
36.3210	699.60
36.3355	686.21
36.3499	668.65
36.3643	654.67
36.3788	612.04
36.3932	598.18
36.4077	603.51
36.4221	616.05
36.4365	598.70
36.4510	549.29
36.4654	540.19
36.4799	596.11
36.4943	580.12
36.5087	547.73
36.5232	513.57
36.5376	551.15
36.5521	557.22
36.5665	558.85
36.5809	542.30
36.5954	537.98
36.6098	537.31
36.6243	539.27
36.6387	540.49
36.6531	519.62
36.6676	503.15
36.6820	521.10
36.6965	547.73
36.7109	559.44
36.7253	569.03
36.7398	531.10
36.7542	516.56
36.7687	522.16
36.7831	576.30
36.7975	588.20
36.8120	560.86
36.8264	561.70
36.8409	570.43
36.8553	592.94
36.8697	619.31
36.8842	618.90
36.8986	613.82
36.9131	614.61
36.9275	592.17
36.9419	602.94
36.9564	588.31
36.9708	567.47
36.9853	609.39
36.9997	549.97
37.0141	549.20
37.0286	549.06
37.0430	538.64
37.0575	502.46
37.0719	541.50
37.0863	530.10
37.1008	476.25
37.1152	526.24
37.1297	512.02
37.1441	491.83
37.1585	497.51
37.1730	530.14
37.1874	478.37
37.2019	499.88
37.2163	522.20
37.2307	485.00
37.2452	501.92
37.2596	490.21
37.2741	530.24
37.2885	544.45
37.3029	521.14
37.3174	504.58
37.3318	525.24
37.3463	534.60
37.3607	517.24
37.3751	520.67
37.3896	518.76
37.4040	510.69
37.4185	507.98
37.4329	538.73
37.4473	482.04
37.4618	517.76
37.4762	506.21
37.4907	517.01
37.5051	499.58
37.5195	478.45
37.5340	472.63
37.5484	531.01
37.5629	535.81
37.5773	508.76
37.5917	509.47
37.6062	482.29
37.6206	506.69
37.6351	530.61
37.6495	494.86
37.6639	529.37
37.6784	503.05
37.6928	496.39
37.7073	497.32
37.7217	530.85
37.7361	484.66
37.7506	502.53
37.7650	499.93
37.7795	509.45
37.7939	527.12
37.8083	523.61
37.8228	475.10
37.8372	474.18
37.8517	536.23
37.8661	519.65
37.8805	519.60
37.8950	531.29
37.9094	524.55
37.9239	531.65
37.9383	497.84
37.9528	466.03
37.9672	511.22
37.9816	500.71
37.9961	516.94
38.0105	503.52
38.0250	529.02
38.0394	519.49
38.0538	504.68
38.0683	480.34
38.0827	513.32
38.0972	531.06
38.1116	502.88
38.1260	502.53
38.1405	472.27
38.1549	482.01
38.1694	500.37
38.1838	497.13
38.1982	496.53
38.2127	505.71
38.2271	502.52
38.2416	512.52
38.2560	515.66
38.2704	506.39
38.2849	530.03
38.2993	505.30
38.3138	515.73
38.3282	494.16
38.3426	506.25
38.3571	523.99
38.3715	509.95
38.3860	507.96
38.4004	510.57
38.4148	525.40
38.4293	598.30
38.4437	575.94
38.4582	587.18
38.4726	657.43
38.4870	692.30
38.5015	729.65
38.5159	805.43
38.5304	817.72
38.5448	779.24
38.5592	788.70
38.5737	759.70
38.5881	714.69
38.6026	735.45
38.6170	736.27
38.6314	704.69
38.6459	714.00
38.6603	681.64
38.6748	637.65
38.6892	599.90
38.7036	605.52
38.7181	535.33
38.7325	553.16
38.7470	516.77
38.7614	519.03
38.7758	520.28
38.7903	503.18
38.8047	536.67
38.8192	520.69
38.8336	496.76
38.8480	488.17
38.8625	507.07
38.8769	479.56
38.8914	482.90
38.9058	542.19
38.9202	522.61
38.9347	493.88
38.9491	507.25
38.9636	512.98
38.9780	512.59
38.9924	484.73
39.0069	458.83
39.0213	494.52
39.0358	519.81
39.0502	518.93
39.0646	553.80
39.0791	542.73
39.0935	521.95
39.1080	522.77
39.1224	507.68
39.1368	497.09
39.1513	504.19
39.1657	526.40
39.1802	483.09
39.1946	514.37
39.2090	536.67
39.2235	507.24
39.2379	506.95
39.2524	546.72
39.2668	534.12
39.2812	547.77
39.2957	485.75
39.3101	538.18
39.3246	519.98
39.3390	529.89
39.3534	517.82
39.3679	530.01
39.3823	536.04
39.3968	501.05
39.4112	480.03
39.4256	522.88
39.4401	526.55
39.4545	508.95
39.4690	532.19
39.4834	528.91
39.4978	509.46
39.5123	504.61
39.5267	508.81
39.5412	547.92
39.5556	499.03
39.5700	451.86
39.5845	498.38
39.5989	509.84
39.6134	539.99
39.6278	495.15
39.6422	492.69
39.6567	489.29
39.6711	519.23
39.6856	520.64
39.7000	503.15
39.7144	506.30
39.7289	483.61
39.7433	498.61
39.7578	487.48
39.7722	474.60
39.7866	498.97
39.8011	501.59
39.8155	507.31
39.8300	517.63
39.8444	498.35
39.8588	532.12
39.8733	507.97
39.8877	501.33
39.9022	526.80
39.9166	483.58
39.9310	479.38
39.9455	515.07
39.9599	495.10
39.9744	492.82
39.9888	504.69
40.0032	510.39
40.0177	482.59
40.0321	530.95
40.0466	530.38
40.0610	525.36
40.0754	540.56
40.0899	511.08
40.1043	490.97
40.1188	496.26
40.1332	490.86
40.1476	505.92
40.1621	484.87
40.1765	500.86
40.1910	474.91
40.2054	487.13
40.2198	508.06
40.2343	504.49
40.2487	510.49
40.2632	498.01
40.2776	514.81
40.2920	481.58
40.3065	498.18
40.3209	539.01
40.3354	541.58
40.3498	479.71
40.3642	480.44
40.3787	495.83
40.3931	480.49
40.4076	493.79
40.4220	516.15
40.4364	470.17
40.4509	490.59
40.4653	520.05
40.4798	515.57
40.4942	494.60
40.5086	517.94
40.5231	526.44
40.5375	498.32
40.5520	483.22
40.5664	516.10
40.5808	514.10
40.5953	497.90
40.6097	512.35
40.6242	476.59
40.6386	484.87
40.6530	521.27
40.6675	515.72
40.6819	502.39
40.6964	456.93
40.7108	495.84
40.7252	486.42
40.7397	530.27
40.7541	515.78
40.7686	513.59
40.7830	498.09
40.7974	514.07
40.8119	502.58
40.8263	502.89
40.8408	493.90
40.8552	505.71
40.8696	498.83
40.8841	508.66
40.8985	536.42
40.9130	541.96
40.9274	514.89
40.9418	486.04
40.9563	487.13
40.9707	520.18
40.9852	463.73
40.9996	453.93
41.0140	507.00
41.0285	498.17
41.0429	519.61
41.0574	516.56
41.0718	486.13
41.0862	531.93
41.1007	463.36
41.1151	531.24
41.1296	498.64
41.1440	491.63
41.1584	498.70
41.1729	504.49
41.1873	535.99
41.2018	521.27
41.2162	494.87
41.2306	488.57
41.2451	541.48
41.2595	512.10
41.2740	490.18
41.2884	492.79
41.3028	524.51
41.3173	544.25
41.3317	502.05
41.3462	517.60
41.3606	500.32
41.3750	489.72
41.3895	506.84
41.4039	515.09
41.4184	510.37
41.4328	499.44
41.4472	485.10
41.4617	495.88
41.4761	536.04
41.4906	516.69
41.5050	479.99
41.5194	512.06
41.5339	525.45
41.5483	492.70
41.5628	511.58
41.5772	496.88
41.5916	510.44
41.6061	504.74
41.6205	501.98
41.6350	473.28
41.6494	501.17
41.6639	550.70
41.6783	502.61
41.6927	490.55
41.7072	490.63
41.7216	542.06
41.7361	484.18
41.7505	500.95
41.7649	533.70
41.7794	544.08
41.7938	536.21
41.8083	536.11
41.8227	549.43
41.8371	516.56
41.8516	506.62
41.8660	540.09
41.8805	525.03
41.8949	510.12
41.9093	534.48
41.9238	561.29
41.9382	575.25
41.9527	553.89
41.9671	575.89
41.9815	577.33
41.9960	522.12
42.0104	550.43
42.0249	553.74
42.0393	565.47
42.0537	573.15
42.0682	590.26
42.0826	564.02
42.0971	574.48
42.1115	578.83
42.1259	593.54
42.1404	590.48
42.1548	635.80
42.1693	688.82
42.1837	691.34
42.1981	736.03
42.2126	823.10
42.2270	960.68
42.2415	1072.66
42.2559	1184.37
42.2703	1320.24
42.2848	1487.68
42.2992	1578.84
42.3137	1655.10
42.3281	1637.54
42.3425	1541.45
42.3570	1477.20
42.3714	1408.79
42.3859	1395.20
42.4003	1323.34
42.4147	1321.65
42.4292	1306.20
42.4436	1124.44
42.4581	1011.43
42.4725	907.23
42.4869	814.84
42.5014	743.14
42.5158	724.30
42.5303	700.10
42.5447	625.71
42.5591	628.68
42.5736	582.33
42.5880	563.73
42.6025	577.22
42.6169	561.13
42.6313	544.42
42.6458	560.04
42.6602	543.73
42.6747	553.28
42.6891	524.36
42.7035	561.15
42.7180	527.23
42.7324	520.79
42.7469	547.69
42.7613	530.53
42.7757	536.68
42.7902	534.51
42.8046	525.08
42.8191	487.57
42.8335	501.14
42.8479	503.72
42.8624	522.93
42.8768	493.28
42.8913	496.00
42.9057	550.64
42.9201	502.64
42.9346	510.87
42.9490	520.75
42.9635	524.05
42.9779	480.94
42.9923	504.18
43.0068	513.35
43.0212	493.05
43.0357	527.69
43.0501	516.92
43.0645	503.89
43.0790	505.27
43.0934	529.53
43.1079	523.28
43.1223	518.43
43.1367	512.86
43.1512	526.64
43.1656	534.82
43.1801	521.36
43.1945	541.76
43.2089	533.56
43.2234	504.30
43.2378	502.15
43.2523	544.05
43.2667	540.98
43.2811	552.68
43.2956	530.16
43.3100	507.95
43.3245	534.95
43.3389	499.71
43.3533	508.21
43.3678	509.74
43.3822	521.64
43.3967	508.11
43.4111	512.89
43.4255	529.31
43.4400	517.95
43.4544	512.22
43.4689	503.76
43.4833	496.16
43.4977	505.47
43.5122	477.91
43.5266	493.16
43.5411	511.00
43.5555	523.58
43.5699	496.92
43.5844	516.86
43.5988	508.08
43.6133	532.64
43.6277	529.24
43.6421	503.65
43.6566	506.69
43.6710	519.61
43.6855	507.08
43.6999	540.77
43.7143	522.01
43.7288	533.53
43.7432	549.89
43.7577	509.85
43.7721	524.25
43.7865	536.75
43.8010	521.26
43.8154	493.56
43.8299	515.39
43.8443	556.64
43.8587	580.84
43.8732	578.07
43.8876	596.36
43.9021	666.41
43.9165	607.14
43.9309	586.49
43.9454	666.34
43.9598	636.48
43.9743	638.99
43.9887	676.91
44.0031	651.45
44.0176	659.23
44.0320	658.84
44.0465	636.64
44.0609	574.53
44.0753	605.26
44.0898	574.43
44.1042	542.15
44.1187	568.34
44.1331	533.22
44.1475	496.71
44.1620	516.83
44.1764	525.29
44.1909	517.04
44.2053	536.15
44.2197	545.43
44.2342	540.78
44.2486	490.47
44.2631	492.05
44.2775	510.95
44.2919	501.39
44.3064	506.92
44.3208	543.03
44.3353	554.40
44.3497	535.39
44.3641	551.91
44.3786	486.93
44.3930	560.84
44.4075	534.02
44.4219	547.40
44.4363	585.91
44.4508	522.53
44.4652	568.76
44.4797	597.26
44.4941	589.93
44.5085	586.32
44.5230	605.68
44.5374	628.25
44.5519	575.84
44.5663	590.76
44.5807	580.56
44.5952	571.73
44.6096	582.88
44.6241	556.73
44.6385	564.75
44.6529	600.17
44.6674	599.39
44.6818	606.57
44.6963	609.56
44.7107	639.31
44.7251	672.91
44.7396	715.42
44.7540	840.48
44.7685	841.59
44.7829	897.92
44.7973	822.14
44.8118	831.76
44.8262	802.70
44.8407	733.53
44.8551	723.59
44.8695	754.75
44.8840	759.97
44.8984	763.92
44.9129	739.04
44.9273	675.18
44.9417	694.41
44.9562	608.08
44.9706	617.40
44.9851	617.80
44.9995	585.44
45.0139	583.42
45.0284	529.35
45.0428	542.77
45.0573	504.87
45.0717	479.82
45.0861	516.95
45.1006	503.81
45.1150	486.82
45.1295	536.80
45.1439	482.65
45.1583	536.24
45.1728	520.00
45.1872	508.27
45.2017	477.22
45.2161	496.59
45.2305	514.78
45.2450	507.32
45.2594	531.37
45.2739	507.65
45.2883	520.12
45.3028	487.26
45.3172	491.61
45.3316	486.57
45.3461	527.31
45.3605	519.45
45.3750	511.61
45.3894	498.01
45.4038	491.18
45.4183	482.12
45.4327	518.37
45.4472	498.14
45.4616	507.70
45.4760	501.28
45.4905	504.23
45.5049	498.12
45.5194	494.16
45.5338	496.97
45.5482	516.73
45.5627	510.39
45.5771	497.32
45.5916	521.50
45.6060	518.21
45.6204	526.87
45.6349	508.00
45.6493	537.86
45.6638	530.81
45.6782	496.05
45.6926	475.49
45.7071	520.22
45.7215	510.00
45.7360	518.64
45.7504	483.83
45.7648	502.46
45.7793	512.42
45.7937	536.79
45.8082	531.12
45.8226	529.95
45.8370	512.37
45.8515	490.63
45.8659	502.59
45.8804	491.96
45.8948	504.96
45.9092	499.73
45.9237	481.74
45.9381	524.47
45.9526	504.36
45.9670	486.70
45.9814	509.08
45.9959	510.43
46.0103	508.34
46.0248	513.65
46.0392	484.72
46.0536	519.73
46.0681	549.24
46.0825	537.22
46.0970	563.84
46.1114	537.44
46.1258	521.67
46.1403	516.79
46.1547	493.91
46.1692	497.57
46.1836	505.23
46.1980	508.39
46.2125	499.33
46.2269	496.31
46.2414	485.72
46.2558	515.15
46.2702	484.64
46.2847	482.68
46.2991	492.93
46.3136	516.92
46.3280	518.13
46.3424	491.91
46.3569	500.66
46.3713	480.57
46.3858	487.79
46.4002	480.55
46.4146	499.97
46.4291	510.09
46.4435	482.60
46.4580	462.48
46.4724	476.99
46.4868	485.19
46.5013	490.03
46.5157	486.36
46.5302	509.56
46.5446	553.41
46.5590	542.72
46.5735	498.34
46.5879	504.29
46.6024	493.17
46.6168	507.91
46.6312	470.17
46.6457	497.13
46.6601	482.26
46.6746	471.85
46.6890	470.03
46.7034	499.26
46.7179	513.32
46.7323	491.58
46.7468	514.69
46.7612	484.74
46.7756	495.65
46.7901	489.54
46.8045	503.98
46.8190	508.84
46.8334	528.42
46.8478	481.68
46.8623	487.03
46.8767	521.27
46.8912	500.30
46.9056	513.90
46.9200	521.98
46.9345	519.27
46.9489	510.53
46.9634	521.11
46.9778	504.14
46.9922	500.72
47.0067	520.21
47.0211	516.14
47.0356	521.39
47.0500	527.26
47.0644	502.43
47.0789	497.05
47.0933	517.22
47.1078	524.66
47.1222	527.02
47.1366	493.93
47.1511	487.59
47.1655	522.74
47.1800	497.31
47.1944	486.22
47.2088	495.96
47.2233	481.42
47.2377	494.80
47.2522	513.58
47.2666	528.78
47.2810	545.25
47.2955	494.83
47.3099	520.92
47.3244	519.49
47.3388	539.39
47.3532	526.36
47.3677	524.47
47.3821	525.09
47.3966	483.54
47.4110	468.68
47.4254	522.08
47.4399	474.53
47.4543	474.71
47.4688	501.86
47.4832	507.40
47.4976	496.17
47.5121	490.27
47.5265	485.07
47.5410	491.60
47.5554	486.44
47.5698	505.88
47.5843	513.37
47.5987	496.36
47.6132	482.19
47.6276	492.18
47.6420	500.22
47.6565	491.29
47.6709	497.45
47.6854	510.72
47.6998	522.89
47.7142	520.16
47.7287	492.62
47.7431	499.66
47.7576	486.77
47.7720	519.27
47.7864	490.53
47.8009	530.37
47.8153	492.18
47.8298	512.43
47.8442	520.03
47.8586	497.51
47.8731	513.48
47.8875	493.18
47.9020	508.66
47.9164	482.07
47.9308	471.31
47.9453	503.20
47.9597	492.71
47.9742	497.34
47.9886	495.99
48.0030	541.77
48.0175	498.18
48.0319	494.13
48.0464	518.31
48.0608	539.55
48.0752	471.33
48.0897	490.36
48.1041	508.21
48.1186	527.32
48.1330	529.58
48.1474	486.21
48.1619	504.66
48.1763	534.79
48.1908	493.44
48.2052	500.18
48.2196	505.87
48.2341	514.16
48.2485	526.82
48.2630	479.70
48.2774	509.17
48.2918	481.78
48.3063	475.96
48.3207	514.88
48.3352	541.99
48.3496	499.76
48.3640	535.73
48.3785	531.59
48.3929	506.88
48.4074	513.96
48.4218	515.06
48.4362	562.70
48.4507	503.88
48.4651	516.67
48.4796	528.10
48.4940	519.25
48.5084	502.33
48.5229	494.50
48.5373	497.88
48.5518	517.86
48.5662	541.03
48.5806	522.94
48.5951	518.03
48.6095	528.87
48.6240	545.69
48.6384	527.16
48.6528	521.31
48.6673	492.51
48.6817	476.47
48.6962	491.15
48.7106	524.27
48.7250	512.06
48.7395	503.86
48.7539	496.97
48.7684	476.88
48.7828	516.28
48.7972	550.17
48.8117	505.86
48.8261	529.86
48.8406	562.91
48.8550	562.11
48.8694	546.13
48.8839	547.62
48.8983	517.26
48.9128	555.12
48.9272	537.95
48.9416	572.46
48.9561	528.13
48.9705	549.27
48.9850	576.38
48.9994	600.84
49.0139	558.75
49.0283	563.93
49.0427	621.39
49.0572	632.72
49.0716	632.23
49.0861	679.01
49.1005	674.49
49.1149	695.51
49.1294	741.60
49.1438	719.71
49.1583	799.44
49.1727	820.04
49.1871	861.61
49.2016	964.71
49.2160	996.26
49.2305	1044.61
49.2449	1160.03
49.2593	1198.14
49.2738	1323.55
49.2882	1389.22
49.3027	1448.15
49.3171	1556.87
49.3315	1591.46
49.3460	1770.65
49.3604	1813.72
49.3749	1797.32
49.3893	1742.62
49.4037	1674.75
49.4182	1697.23
49.4326	1781.50
49.4471	1655.59
49.4615	1618.05
49.4759	1598.67
49.4904	1494.93
49.5048	1392.10
49.5193	1336.58
49.5337	1284.32
49.5481	1198.20
49.5626	1140.65
49.5770	1061.05
49.5915	977.65
49.6059	933.59
49.6203	860.46
49.6348	802.47
49.6492	740.81
49.6637	732.25
49.6781	774.02
49.6925	696.98
49.7070	709.70
49.7214	687.36
49.7359	675.36
49.7503	621.26
49.7647	580.16
49.7792	622.56
49.7936	605.82
49.8081	596.70
49.8225	587.75
49.8369	582.40
49.8514	613.55
49.8658	592.65
49.8803	563.77
49.8947	552.49
49.9091	564.32
49.9236	547.15
49.9380	583.64
49.9525	562.14
49.9669	529.78
49.9813	528.61
49.9958	502.17
50.0102	507.73
50.0247	512.02
50.0391	528.25
50.0535	540.98
50.0680	548.63
50.0824	551.47
50.0969	519.92
50.1113	515.48
50.1257	536.62
50.1402	529.89
50.1546	510.79
50.1691	511.49
50.1835	488.48
50.1979	493.39
50.2124	499.99
50.2268	513.94
50.2413	548.25
50.2557	537.50
50.2701	519.55
50.2846	519.01
50.2990	524.71
50.3135	534.07
50.3279	529.06
50.3423	528.17
50.3568	548.84
50.3712	519.47
50.3857	515.80
50.4001	471.99
50.4145	517.53
50.4290	533.28
50.4434	527.22
50.4579	498.87
50.4723	521.14
50.4867	486.69
50.5012	473.01
50.5156	533.99
50.5301	499.58
50.5445	477.18
50.5589	513.73
50.5734	508.80
50.5878	518.27
50.6023	531.72
50.6167	525.19
50.6311	535.68
50.6456	510.58
50.6600	491.01
50.6745	500.64
50.6889	480.71
50.7033	481.07
50.7178	520.44
50.7322	496.77
50.7467	535.55
50.7611	530.98
50.7755	495.61
50.7900	497.57
50.8044	524.71
50.8189	528.11
50.8333	544.96
50.8477	548.16
50.8622	554.88
50.8766	522.77
50.8911	521.27
50.9055	537.35
50.9199	492.03
50.9344	468.05
50.9488	498.14
50.9633	512.16
50.9777	524.00
50.9921	499.99
51.0066	522.50
51.0210	514.13
51.0355	488.24
51.0499	493.75
51.0643	524.49
51.0788	505.56
51.0932	532.94
51.1077	506.52
51.1221	531.30
51.1365	523.92
51.1510	477.97
51.1654	528.55
51.1799	547.67
51.1943	506.58
51.2087	535.57
51.2232	518.96
51.2376	509.48
51.2521	530.32
51.2665	498.46
51.2809	520.13
51.2954	514.03
51.3098	499.41
51.3243	492.69
51.3387	532.20
51.3531	495.52
51.3676	482.23
51.3820	497.97
51.3965	486.23
51.4109	479.34
51.4253	518.59
51.4398	496.79
51.4542	508.99
51.4687	485.84
51.4831	471.99
51.4975	493.37
51.5120	509.67
51.5264	504.39
51.5409	501.00
51.5553	514.11
51.5697	497.22
51.5842	487.13
51.5986	513.41
51.6131	522.93
51.6275	512.09
51.6419	494.09
51.6564	497.77
51.6708	524.78
51.6853	505.89
51.6997	499.56
51.7141	488.55
51.7286	506.16
51.7430	501.00
51.7575	509.80
51.7719	516.90
51.7863	527.40
51.8008	482.55
51.8152	512.75
51.8297	503.68
51.8441	508.74
51.8585	531.35
51.8730	508.71
51.8874	500.93
51.9019	531.46
51.9163	535.56
51.9307	524.40
51.9452	532.74
51.9596	529.48
51.9741	510.42
51.9885	473.94
52.0029	526.36
52.0174	507.92
52.0318	492.49
52.0463	542.37
52.0607	480.60
52.0751	497.46
52.0896	535.46
52.1040	543.24
52.1185	517.73
52.1329	534.75
52.1473	515.08
52.1618	511.63
52.1762	533.59
52.1907	506.07
52.2051	506.82
52.2195	534.13
52.2340	538.26
52.2484	496.57
52.2629	519.97
52.2773	503.93
52.2917	508.03
52.3062	497.08
52.3206	500.70
52.3351	533.86
52.3495	502.09
52.3639	531.00
52.3784	515.32
52.3928	540.64
52.4073	503.47
52.4217	518.97
52.4361	536.40
52.4506	525.13
52.4650	520.41
52.4795	539.54
52.4939	526.31
52.5083	533.86
52.5228	508.41
52.5372	508.72
52.5517	503.76
52.5661	508.85
52.5805	503.33
52.5950	510.74
52.6094	558.70
52.6239	510.47
52.6383	524.66
52.6527	532.79
52.6672	479.77
52.6816	498.55
52.6961	525.26
52.7105	545.51
52.7250	541.65
52.7394	505.99
52.7538	514.60
52.7683	496.50
52.7827	531.49
52.7972	543.83
52.8116	539.38
52.8260	528.68
52.8405	497.88
52.8549	552.79
52.8694	534.64
52.8838	536.62
52.8982	553.57
52.9127	546.15
52.9271	486.88
52.9416	499.60
52.9560	468.08
52.9704	512.22
52.9849	511.61
52.9993	511.50
53.0138	483.37
53.0282	499.46
53.0426	495.89
53.0571	522.32
53.0715	523.73
53.0860	503.95
53.1004	533.66
53.1148	537.20
53.1293	505.22
53.1437	502.02
53.1582	497.91
53.1726	506.39
53.1870	480.31
53.2015	514.99
53.2159	536.95
53.2304	503.67
53.2448	518.27
53.2592	512.97
53.2737	513.90
53.2881	512.70
53.3026	513.31
53.3170	522.04
53.3314	536.06
53.3459	478.70
53.3603	516.65
53.3748	509.64
53.3892	485.90
53.4036	495.47
53.4181	536.29
53.4325	538.38
53.4470	498.13
53.4614	516.79
53.4758	543.58
53.4903	526.57
53.5047	515.43
53.5192	508.43
53.5336	567.70
53.5480	513.27
53.5625	506.62
53.5769	521.26
53.5914	543.13
53.6058	500.23
53.6202	515.38
53.6347	510.31
53.6491	506.09
53.6636	504.67
53.6780	518.78
53.6924	489.22
53.7069	512.86
53.7213	510.97
53.7358	534.64
53.7502	519.00
53.7646	495.00
53.7791	544.66
53.7935	532.81
53.8080	530.81
53.8224	522.95
53.8368	521.46
53.8513	494.74
53.8657	494.48
53.8802	481.41
53.8946	513.86
53.9090	519.17
53.9235	499.54
53.9379	535.08
53.9524	522.15
53.9668	538.54
53.9812	516.33
53.9957	501.40
54.0101	539.48
54.0246	511.53
54.0390	507.02
54.0534	525.32
54.0679	508.13
54.0823	500.79
54.0968	490.24
54.1112	510.94
54.1256	535.87
54.1401	509.16
54.1545	490.48
54.1690	512.73
54.1834	522.41
54.1978	509.65
54.2123	538.82
54.2267	533.56
54.2412	534.22
54.2556	563.55
54.2700	566.59
54.2845	543.10
54.2989	499.42
54.3134	513.31
54.3278	564.18
54.3422	566.68
54.3567	534.35
54.3711	522.20
54.3856	515.50
54.4000	502.26
54.4144	554.27
54.4289	587.11
54.4433	543.10
54.4578	541.98
54.4722	582.24
54.4866	588.62
54.5011	620.88
54.5155	640.71
54.5300	621.39
54.5444	650.50
54.5588	625.19
54.5733	595.67
54.5877	588.40
54.6022	608.94
54.6166	610.30
54.6310	591.96
54.6455	591.10
54.6599	584.91
54.6744	564.36
54.6888	550.08
54.7032	583.16
54.7177	566.38
54.7321	559.64
54.7466	545.79
54.7610	542.41
54.7754	555.64
54.7899	560.10
54.8043	501.17
54.8188	524.10
54.8332	540.06
54.8476	532.69
54.8621	558.30
54.8765	536.24
54.8910	518.29
54.9054	541.89
54.9198	550.67
54.9343	534.09
54.9487	536.44
54.9632	554.49
54.9776	537.77
54.9920	528.57
55.0065	519.07
55.0209	537.96
55.0354	512.04
55.0498	495.02
55.0642	550.45
55.0787	543.65
55.0931	554.53
55.1076	542.61
55.1220	551.05
55.1364	518.95
55.1509	526.09
55.1653	555.51
55.1798	506.85
55.1942	512.08
55.2086	525.69
55.2231	520.89
55.2375	495.08
55.2520	536.60
55.2664	509.04
55.2808	512.48
55.2953	539.87
55.3097	526.83
55.3242	525.98
55.3386	510.58
55.3530	511.61
55.3675	529.63
55.3819	521.93
55.3964	519.44
55.4108	528.40
55.4252	514.92
55.4397	537.16
55.4541	537.25
55.4686	543.78
55.4830	518.08
55.4974	535.80
55.5119	514.19
55.5263	499.15
55.5408	508.61
55.5552	547.68
55.5696	554.51
55.5841	508.92
55.5985	491.33
55.6130	505.72
55.6274	502.35
55.6418	528.71
55.6563	512.21
55.6707	518.08
55.6852	590.21
55.6996	555.11
55.7140	574.98
55.7285	518.21
55.7429	491.97
55.7574	516.69
55.7718	507.18
55.7862	539.27
55.8007	558.23
55.8151	562.82
55.8296	520.37
55.8440	530.24
55.8584	536.19
55.8729	534.57
55.8873	549.42
55.9018	518.00
55.9162	507.95
55.9306	525.58
55.9451	552.91
55.9595	509.24
55.9740	537.44
55.9884	523.24
56.0028	528.80
56.0173	523.45
56.0317	526.67
56.0462	494.03
56.0606	533.81
56.0750	542.40
56.0895	532.90
56.1039	487.63
56.1184	514.21
56.1328	546.58
56.1472	527.24
56.1617	535.15
56.1761	543.48
56.1906	518.48
56.2050	502.39
56.2194	531.87
56.2339	524.71
56.2483	513.68
56.2628	507.30
56.2772	514.96
56.2916	515.57
56.3061	541.62
56.3205	543.05
56.3350	514.65
56.3494	509.14
56.3639	525.66
56.3783	533.68
56.3927	465.86
56.4072	503.98
56.4216	518.80
56.4361	530.04
56.4505	482.25
56.4649	515.65
56.4794	539.79
56.4938	541.47
56.5083	522.50
56.5227	534.99
56.5371	518.55
56.5516	522.73
56.5660	532.05
56.5805	518.25
56.5949	557.00
56.6093	527.25
56.6238	532.79
56.6382	533.73
56.6527	523.46
56.6671	517.50
56.6815	505.83
56.6960	511.40
56.7104	584.07
56.7249	535.14
56.7393	510.78
56.7537	500.51
56.7682	514.07
56.7826	547.36
56.7971	530.63
56.8115	494.63
56.8259	495.16
56.8404	516.32
56.8548	526.20
56.8693	544.08
56.8837	507.89
56.8981	517.39
56.9126	550.41
56.9270	515.61
56.9415	515.97
56.9559	501.08
56.9703	469.72
56.9848	506.80
56.9992	543.67
57.0137	526.09
57.0281	503.00
57.0425	492.73
57.0570	540.62
57.0714	536.80
57.0859	507.18
57.1003	544.49
57.1147	528.61
57.1292	519.61
57.1436	544.70
57.1581	505.69
57.1725	515.42
57.1869	505.07
57.2014	510.86
57.2158	510.97
57.2303	519.32
57.2447	514.27
57.2591	534.59
57.2736	527.11
57.2880	545.83
57.3025	528.83
57.3169	524.89
57.3313	545.54
57.3458	532.77
57.3602	511.38
57.3747	500.37
57.3891	522.74
57.4035	523.22
57.4180	510.99
57.4324	537.26
57.4469	503.32
57.4613	522.89
57.4757	562.28
57.4902	532.23
57.5046	535.16
57.5191	551.06
57.5335	499.84
57.5479	507.62
57.5624	503.77
57.5768	499.03
57.5913	521.23
57.6057	505.88
57.6201	542.33
57.6346	527.97
57.6490	545.35
57.6635	485.87
57.6779	532.28
57.6923	554.10
57.7068	577.21
57.7212	518.59
57.7357	487.05
57.7501	522.14
57.7645	540.26
57.7790	546.82
57.7934	541.40
57.8079	550.39
57.8223	530.16
57.8367	566.76
57.8512	523.75
57.8656	551.04
57.8801	572.10
57.8945	556.45
57.9089	564.86
57.9234	543.14
57.9378	561.68
57.9523	552.56
57.9667	560.59
57.9811	586.92
57.9956	550.03
58.0100	531.49
58.0245	577.49
58.0389	552.90
58.0533	541.45
58.0678	590.98
58.0822	625.62
58.0967	657.95
58.1111	634.22
58.1255	672.45
58.1400	651.97
58.1544	677.95
58.1689	703.67
58.1833	669.21
58.1977	688.70
58.2122	671.62
58.2266	624.70
58.2411	652.50
58.2555	672.61
58.2699	670.58
58.2844	666.81
58.2988	632.84
58.3133	687.77
58.3277	672.61
58.3421	644.10
58.3566	604.17
58.3710	647.21
58.3855	611.11
58.3999	586.25
58.4143	584.83
58.4288	535.83
58.4432	546.10
58.4577	552.45
58.4721	557.30
58.4865	538.42
58.5010	558.21
58.5154	543.39
58.5299	558.63
58.5443	573.81
58.5587	540.37
58.5732	526.11
58.5876	524.92
58.6021	507.48
58.6165	508.84
58.6309	533.91
58.6454	563.26
58.6598	524.85
58.6743	513.37
58.6887	512.84
58.7031	535.29
58.7176	536.43
58.7320	523.21
58.7465	495.52
58.7609	530.20
58.7753	550.15
58.7898	564.07
58.8042	545.87
58.8187	528.98
58.8331	520.62
58.8475	547.58
58.8620	550.17
58.8764	531.86
58.8909	526.24
58.9053	553.21
58.9197	524.85
58.9342	524.30
58.9486	551.05
58.9631	477.26
58.9775	497.73
58.9919	529.01
59.0064	546.09
59.0208	557.10
59.0353	537.09
59.0497	509.09
59.0641	541.81
59.0786	556.44
59.0930	555.69
59.1075	571.89
59.1219	540.77
59.1363	563.39
59.1508	563.11
59.1652	538.15
59.1797	532.96
59.1941	548.02
59.2085	556.49
59.2230	522.46
59.2374	551.70
59.2519	554.03
59.2663	542.55
59.2807	550.37
59.2952	567.15
59.3096	564.63
59.3241	574.52
59.3385	577.33
59.3529	620.68
59.3674	605.59
59.3818	542.07
59.3963	564.40
59.4107	564.80
59.4251	553.78
59.4396	537.80
59.4540	570.01
59.4685	585.68
59.4829	576.80
59.4973	589.30
59.5118	574.48
59.5262	577.16
59.5407	557.19
59.5551	574.79
59.5695	578.55
59.5840	563.88
59.5984	566.50
59.6129	564.95
59.6273	524.27
59.6417	524.12
59.6562	559.10
59.6706	520.86
59.6851	511.02
59.6995	544.83
59.7139	535.58
59.7284	549.26
59.7428	512.85
59.7573	526.62
59.7717	517.98
59.7861	548.17
59.8006	565.44
59.8150	527.52
59.8295	573.04
59.8439	560.01
59.8583	549.28
59.8728	554.55
59.8872	562.80
59.9017	574.68
59.9161	555.24
59.9305	538.01
59.9450	564.90
59.9594	553.68
59.9739	507.73
59.9883	566.79
60.0027	566.83
60.0172	564.07
60.0316	541.03
60.0461	532.87
60.0605	555.59
60.0750	519.07
60.0894	569.44
60.1038	536.44
60.1183	522.62
60.1327	541.89
60.1472	472.43
60.1616	506.14
60.1760	544.57
60.1905	520.65
60.2049	522.01
60.2194	526.24
60.2338	540.73
60.2482	526.39
60.2627	546.77
60.2771	548.32
60.2916	558.24
60.3060	525.58
60.3204	545.83
60.3349	555.20
60.3493	508.92
60.3638	530.38
60.3782	505.64
60.3926	519.22
60.4071	511.40
60.4215	503.14
60.4360	531.67
60.4504	526.53
60.4648	551.27
60.4793	533.47
60.4937	537.78
60.5082	548.57
60.5226	560.43
60.5370	515.02
60.5515	565.36
60.5659	517.93
60.5804	511.84
60.5948	538.07
60.6092	547.89
60.6237	543.21
60.6381	548.09
60.6526	574.08
60.6670	537.41
60.6814	504.18
60.6959	552.79
60.7103	539.59
60.7248	559.80
60.7392	554.73
60.7536	552.64
60.7681	539.78
60.7825	546.83
60.7970	537.70
60.8114	556.73
60.8258	541.78
60.8403	527.10
60.8547	557.95
60.8692	548.96
60.8836	596.18
60.8980	570.44
60.9125	528.89
60.9269	512.65
60.9414	539.77
60.9558	553.38
60.9702	551.09
60.9847	572.62
60.9991	546.36
61.0136	530.43
61.0280	504.47
61.0424	512.05
61.0569	588.47
61.0713	575.41
61.0858	574.84
61.1002	538.78
61.1146	579.99
61.1291	551.98
61.1435	511.46
61.1580	506.69
61.1724	539.37
61.1868	551.78
61.2013	587.23
61.2157	557.46
61.2302	526.09
61.2446	560.20
61.2590	557.57
61.2735	570.62
61.2879	560.51
61.3024	546.17
61.3168	565.14
61.3312	553.84
61.3457	533.44
61.3601	550.55
61.3746	549.05
61.3890	545.84
61.4034	534.07
61.4179	570.22
61.4323	545.60
61.4468	557.50
61.4612	553.20
61.4756	528.20
61.4901	529.54
61.5045	519.73
61.5190	544.57
61.5334	544.87
61.5478	553.05
61.5623	545.50
61.5767	500.15
61.5912	553.89
61.6056	549.30
61.6200	556.88
61.6345	584.75
61.6489	536.11
61.6634	514.31
61.6778	543.57
61.6922	525.08
61.7067	540.77
61.7211	532.40
61.7356	541.43
61.7500	566.88
61.7644	542.17
61.7789	585.35
61.7933	546.08
61.8078	561.22
61.8222	576.61
61.8366	557.15
61.8511	585.82
61.8655	560.75
61.8800	557.46
61.8944	582.34
61.9088	584.79
61.9233	579.86
61.9377	557.00
61.9522	578.19
61.9666	583.90
61.9810	560.23
61.9955	548.87
62.0099	544.18
62.0244	533.13
62.0388	585.68
62.0532	547.19
62.0677	571.93
62.0821	581.84
62.0966	591.49
62.1110	534.17
62.1254	533.19
62.1399	555.59
62.1543	524.26
62.1688	552.11
62.1832	554.69
62.1976	488.52
62.2121	526.58
62.2265	548.70
62.2410	601.47
62.2554	554.17
62.2698	567.65
62.2843	557.80
62.2987	527.52
62.3132	530.49
62.3276	554.55
62.3420	563.67
62.3565	538.69
62.3709	525.86
62.3854	545.09
62.3998	557.35
62.4142	597.55
62.4287	598.02
62.4431	571.32
62.4576	544.60
62.4720	560.21
62.4864	601.50
62.5009	555.12
62.5153	543.79
62.5298	539.76
62.5442	575.36
62.5586	570.95
62.5731	590.65
62.5875	557.17
62.6020	532.93
62.6164	536.68
62.6308	571.17
62.6453	556.32
62.6597	553.17
62.6742	548.52
62.6886	527.29
62.7030	582.90
62.7175	574.90
62.7319	544.22
62.7464	562.06
62.7608	570.17
62.7752	575.59
62.7897	605.29
62.8041	558.06
62.8186	559.35
62.8330	558.05
62.8474	550.32
62.8619	559.18
62.8763	590.76
62.8908	583.43
62.9052	575.27
62.9196	539.85
62.9341	556.59
62.9485	544.12
62.9630	538.99
62.9774	562.09
62.9918	551.05
63.0063	567.14
63.0207	562.46
63.0352	568.16
63.0496	554.31
63.0640	558.98
63.0785	549.16
63.0929	572.42
63.1074	556.28
63.1218	578.63
63.1362	586.29
63.1507	543.74
63.1651	574.57
63.1796	578.68
63.1940	599.94
63.2084	579.36
63.2229	574.09
63.2373	595.93
63.2518	580.71
63.2662	593.69
63.2806	587.10
63.2951	569.05
63.3095	590.41
63.3240	597.66
63.3384	601.82
63.3528	616.40
63.3673	599.29
63.3817	579.75
63.3962	566.12
63.4106	591.62
63.4250	637.56
63.4395	588.12
63.4539	610.70
63.4684	623.12
63.4828	627.04
63.4972	608.32
63.5117	592.99
63.5261	583.57
63.5406	588.18
63.5550	589.23
63.5694	585.05
63.5839	574.17
63.5983	603.94
63.6128	624.41
63.6272	603.23
63.6416	617.46
63.6561	615.61
63.6705	639.07
63.6850	656.04
63.6994	670.46
63.7138	663.95
63.7283	628.82
63.7427	641.20
63.7572	650.79
63.7716	664.74
63.7861	696.27
63.8005	737.72
63.8149	794.63
63.8294	774.27
63.8438	799.11
63.8583	880.37
63.8727	890.52
63.8871	819.68
63.9016	852.52
63.9160	897.13
63.9305	825.17
63.9449	844.90
63.9593	820.12
63.9738	782.99
63.9882	817.12
64.0027	752.44
64.0171	773.44
64.0315	783.47
64.0460	764.59
64.0604	817.02
64.0749	752.70
64.0893	726.92
64.1037	731.93
64.1182	764.56
64.1326	738.38
64.1471	671.66
64.1615	677.13
64.1759	672.83
64.1904	664.03
64.2048	673.99
64.2193	625.98
64.2337	663.01
64.2481	670.17
64.2626	644.10
64.2770	618.19
64.2915	566.77
64.3059	640.21
64.3203	606.39
64.3348	630.97
64.3492	622.61
64.3637	624.46
64.3781	645.14
64.3925	660.97
64.4070	645.45
64.4214	662.95
64.4359	648.67
64.4503	654.47
64.4647	644.96
64.4792	626.59
64.4936	613.46
64.5081	659.69
64.5225	659.97
64.5369	631.71
64.5514	611.98
64.5658	631.32
64.5803	636.53
64.5947	636.27
64.6091	653.66
64.6236	656.82
64.6380	684.95
64.6525	639.29
64.6669	676.67
64.6813	672.86
64.6958	733.61
64.7102	704.42
64.7247	679.54
64.7391	702.32
64.7535	715.49
64.7680	705.76
64.7824	687.69
64.7969	711.31
64.8113	738.62
64.8257	774.21
64.8402	784.12
64.8546	797.98
64.8691	858.36
64.8835	867.30
64.8979	892.27
64.9124	861.05
64.9268	892.99
64.9413	930.77
64.9557	951.09
64.9701	993.37
64.9846	1065.69
64.9990	1106.33
65.0135	1294.44
65.0279	1504.05
65.0423	1699.03
65.0568	2179.88
65.0712	2710.09
65.0857	3452.93
65.1001	4752.89
65.1145	6323.08
65.1290	8281.21
65.1434	9708.28
65.1579	11262.81
65.1723	11900.34
65.1867	11270.23
65.2012	9763.31
65.2156	8251.30
65.2301	6509.44
65.2445	5199.54
65.2589	4493.93
65.2734	4292.35
65.2878	4444.54
65.3023	5072.91
65.3167	5800.08
65.3311	6595.50
65.3456	7069.49
65.3600	7036.41
65.3745	6254.02
65.3889	5422.68
65.4033	4295.21
65.4178	3407.02
65.4322	2714.36
65.4467	2116.14
65.4611	1722.81
65.4755	1499.91
65.4900	1238.97
65.5044	1140.80
65.5189	1028.10
65.5333	978.97
65.5477	941.26
65.5622	922.05
65.5766	878.91
65.5911	821.45
65.6055	852.26
65.6199	806.14
65.6344	738.05
65.6488	753.71
65.6633	730.52
65.6777	733.13
65.6921	725.15
65.7066	699.03
65.7210	716.21
65.7355	687.39
65.7499	658.30
65.7643	693.38
65.7788	669.84
65.7932	664.50
65.8077	667.84
65.8221	672.96
65.8365	648.56
65.8510	641.48
65.8654	672.90
65.8799	607.49
65.8943	667.56
65.9087	659.95
65.9232	640.90
65.9376	633.71
65.9521	622.14
65.9665	649.62
65.9809	629.95
65.9954	635.50
66.0098	613.72
66.0243	628.86
66.0387	678.34
66.0531	647.06
66.0676	616.73
66.0820	630.26
66.0965	635.47
66.1109	633.66
66.1253	617.72
66.1398	597.82
66.1542	638.83
66.1687	628.50
66.1831	620.94
66.1975	630.79
66.2120	630.63
66.2264	664.81
66.2409	599.45
66.2553	587.17
66.2697	597.11
66.2842	610.65
66.2986	613.11
66.3131	589.12
66.3275	602.03
66.3419	642.91
66.3564	628.28
66.3708	632.65
66.3853	621.75
66.3997	568.68
66.4141	622.78
66.4286	637.90
66.4430	632.01
66.4575	576.59
66.4719	571.85
66.4863	599.16
66.5008	585.62
66.5152	552.08
66.5297	580.01
66.5441	589.17
66.5585	612.33
66.5730	582.52
66.5874	612.91
66.6019	614.96
66.6163	598.03
66.6307	596.23
66.6452	591.37
66.6596	616.24
66.6741	600.12
66.6885	588.73
66.7029	597.24
66.7174	643.42
66.7318	608.67
66.7463	616.07
66.7607	601.36
66.7751	599.11
66.7896	618.87
66.8040	614.46
66.8185	600.36
66.8329	583.62
66.8473	577.38
66.8618	613.56
66.8762	589.53
66.8907	583.37
66.9051	575.80
66.9195	571.39
66.9340	574.99
66.9484	584.66
66.9629	564.92
66.9773	565.77
66.9917	559.17
67.0062	592.18
67.0206	594.54
67.0351	564.81
67.0495	583.59
67.0639	579.02
67.0784	583.36
67.0928	573.51
67.1073	555.36
67.1217	601.92
67.1361	593.78
67.1506	553.93
67.1650	573.36
67.1795	595.03
67.1939	600.72
67.2083	600.52
67.2228	557.79
67.2372	552.30
67.2517	580.69
67.2661	573.87
67.2805	578.97
67.2950	583.01
67.3094	584.80
67.3239	566.19
67.3383	548.39
67.3527	579.63
67.3672	572.68
67.3816	569.64
67.3961	548.50
67.4105	573.44
67.4250	597.87
67.4394	591.91
67.4538	610.41
67.4683	610.96
67.4827	622.23
67.4972	609.48
67.5116	572.80
67.5260	581.49
67.5405	585.59
67.5549	580.06
67.5694	542.01
67.5838	560.52
67.5982	624.08
67.6127	601.92
67.6271	607.00
67.6416	606.46
67.6560	599.29
67.6704	565.25
67.6849	577.83
67.6993	587.98
67.7138	594.53
67.7282	576.25
67.7426	586.70
67.7571	584.06
67.7715	602.50
67.7860	576.99
67.8004	590.10
67.8148	567.35
67.8293	565.59
67.8437	555.77
67.8582	569.47
67.8726	594.54
67.8870	576.45
67.9015	563.10
67.9159	552.31
67.9304	593.57
67.9448	612.48
67.9592	555.73
67.9737	545.47
67.9881	586.69
68.0026	545.07
68.0170	557.22
68.0314	614.41
68.0459	597.32
68.0603	582.15
68.0748	556.70
68.0892	605.92
68.1036	585.36
68.1181	643.11
68.1325	615.96
68.1470	564.00
68.1614	574.59
68.1758	584.88
68.1903	572.88
68.2047	565.78
68.2192	576.40
68.2336	594.74
68.2480	561.64
68.2625	568.96
68.2769	615.68
68.2914	616.52
68.3058	593.56
68.3202	598.93
68.3347	555.98
68.3491	558.22
68.3636	604.20
68.3780	582.84
68.3924	574.16
68.4069	520.03
68.4213	607.18
68.4358	570.66
68.4502	581.20
68.4646	572.60
68.4791	600.51
68.4935	567.04
68.5080	566.67
68.5224	556.83
68.5368	566.24
68.5513	579.21
68.5657	530.28
68.5802	581.08
68.5946	624.71
68.6090	603.58
68.6235	580.72
68.6379	558.86
68.6524	528.46
68.6668	592.18
68.6812	546.00
68.6957	597.28
68.7101	593.97
68.7246	598.61
68.7390	604.15
68.7534	568.53
68.7679	580.73
68.7823	566.61
68.7968	581.86
68.8112	586.61
68.8256	611.52
68.8401	605.27
68.8545	582.08
68.8690	587.28
68.8834	567.54
68.8978	621.68
68.9123	575.41
68.9267	567.29
68.9412	584.54
68.9556	560.02
68.9700	534.96
68.9845	556.81
68.9989	603.01
69.0134	595.84
69.0278	586.99
69.0422	625.89
69.0567	576.02
69.0711	565.97
69.0856	570.04
69.1000	581.50
69.1144	625.83
69.1289	612.29
69.1433	553.50
69.1578	568.73
69.1722	554.81
69.1866	578.81
69.2011	621.56
69.2155	593.55
69.2300	591.47
69.2444	596.80
69.2588	631.64
69.2733	561.29
69.2877	566.45
69.3022	532.47
69.3166	549.39
69.3310	552.65
69.3455	602.03
69.3599	579.95
69.3744	579.90
69.3888	544.03
69.4032	582.10
69.4177	554.03
69.4321	592.51
69.4466	589.45
69.4610	588.68
69.4754	620.60
69.4899	561.48
69.5043	587.86
69.5188	584.00
69.5332	592.12
69.5476	569.39
69.5621	623.45
69.5765	589.90
69.5910	585.74
69.6054	556.94
69.6198	587.15
69.6343	591.15
69.6487	568.75
69.6632	542.17
69.6776	567.22
69.6920	566.93
69.7065	605.98
69.7209	539.13
69.7354	526.54
69.7498	573.77
69.7642	563.16
69.7787	604.71
69.7931	574.22
69.8076	597.62
69.8220	598.60
69.8364	612.20
69.8509	536.82
69.8653	531.22
69.8798	532.58
69.8942	569.23
69.9086	593.74
69.9231	592.22
69.9375	586.81
69.9520	595.40
69.9664	571.99
69.9808	578.12
69.9953	572.03
70.0097	528.35
70.0242	569.68
70.0386	590.43
70.0530	596.06
70.0675	538.87
70.0819	537.61
70.0964	591.35
70.1108	581.07
70.1252	578.93
70.1397	563.01
70.1541	558.84
70.1686	551.93
70.1830	591.91
70.1974	545.89
70.2119	546.87
70.2263	516.26
70.2408	564.04
70.2552	542.10
70.2696	566.10
70.2841	617.47
70.2985	631.36
70.3130	589.78
70.3274	578.54
70.3418	568.61
70.3563	580.67
70.3707	559.76
70.3852	546.18
70.3996	527.23
70.4140	582.53
70.4285	586.66
70.4429	524.80
70.4574	560.93
70.4718	608.61
70.4862	610.87
70.5007	591.61
70.5151	574.69
70.5296	576.46
70.5440	569.77
70.5584	561.62
70.5729	583.05
70.5873	593.95
70.6018	529.17
70.6162	587.33
70.6306	591.79
70.6451	570.20
70.6595	577.82
70.6740	598.88
70.6884	607.32
70.7028	622.01
70.7173	621.94
70.7317	587.94
70.7462	609.46
70.7606	596.21
70.7750	587.30
70.7895	588.57
70.8039	568.91
70.8184	645.38
70.8328	652.85
70.8472	516.88
70.8617	563.44
70.8761	529.57
70.8906	528.74
70.9050	640.37
70.9194	624.52
70.9339	584.14
70.9483	552.84
70.9628	573.39
70.9772	566.12
70.9916	557.28
71.0061	561.27
71.0205	593.77
71.0350	609.95
71.0494	604.76
71.0638	583.46
71.0783	558.33
71.0927	568.60
71.1072	602.59
71.1216	638.75
71.1361	631.08
71.1505	571.52
71.1649	570.43
71.1794	606.64
71.1938	605.77
71.2083	550.88
71.2227	489.69
71.2371	527.74
71.2516	581.80
71.2660	560.79
71.2805	568.75
71.2949	590.40
71.3093	535.78
71.3238	561.67
71.3382	605.06
71.3527	574.90
71.3671	584.16
71.3815	588.17
71.3960	624.63
71.4104	613.54
71.4249	600.49
71.4393	586.46
71.4537	537.96
71.4682	545.40
71.4826	534.69
71.4971	492.45
71.5115	563.55
71.5259	569.75
71.5404	528.08
71.5548	539.93
71.5693	597.27
71.5837	596.48
71.5981	523.18
71.6126	530.30
71.6270	571.85
71.6415	585.28
71.6559	576.02
71.6703	558.76
71.6848	514.98
71.6992	618.79
71.7137	632.10
71.7281	572.12
71.7425	626.49
71.7570	638.71
71.7714	606.37
71.7859	604.65
71.8003	562.97
71.8147	591.81
71.8292	603.29
71.8436	570.15
71.8581	555.37
71.8725	595.54
71.8869	579.74
71.9014	627.89
71.9158	614.08
71.9303	582.58
71.9447	550.02
71.9591	536.81
71.9736	617.13
71.9880	602.88
72.0025	582.53
72.0169	621.12
72.0313	546.51
72.0458	519.00
72.0602	562.86
72.0747	539.01
72.0891	594.86
72.1035	640.59
72.1180	592.98
72.1324	561.15
72.1469	526.01
72.1613	588.65
72.1757	615.35
72.1902	591.30
72.2046	543.43
72.2191	528.13
72.2335	551.59
72.2479	589.43
72.2624	533.25
72.2768	487.51
72.2913	577.47
72.3057	538.08
72.3201	498.68
72.3346	562.26
72.3490	578.83
72.3635	549.02
72.3779	538.64
72.3923	544.12
72.4068	608.28
72.4212	588.68
72.4357	589.21
72.4501	593.15
72.4645	609.26
72.4790	629.56
72.4934	598.54
72.5079	639.63
72.5223	603.02
72.5367	534.84
72.5512	539.52
72.5656	579.08
72.5801	605.81
72.5945	565.75
72.6089	549.75
72.6234	565.02
72.6378	585.34
72.6523	612.45
72.6667	648.43
72.6811	581.40
72.6956	546.69
72.7100	569.17
72.7245	552.09
72.7389	610.50
72.7533	607.04
72.7678	510.06
72.7822	574.21
72.7967	560.65
72.8111	543.55
72.8255	586.38
72.8400	534.17
72.8544	522.97
72.8689	597.28
72.8833	607.00

Result vector
22.1120	528.06
22.1264	596.72
22.1409	547.39
22.1553	590.46
22.1697	572.40
22.1842	580.84
22.1986	570.12
22.2131	540.59
22.2275	537.52
22.2419	550.58
22.2564	591.17
22.2708	549.81
22.2853	607.37
22.2997	668.19
22.3141	593.88
22.3286	582.72
22.3430	554.43
22.3575	572.36
22.3719	543.72
22.3863	601.52
22.4008	592.78
22.4152	668.25
22.4297	661.74
22.4441	654.07
22.4585	586.59
22.4730	598.84
22.4874	605.06
22.5019	538.26
22.5163	565.12
22.5307	578.49
22.5452	590.14
22.5596	584.03
22.5741	660.71
22.5885	645.05
22.6029	668.60
22.6174	577.23
22.6318	543.89
22.6463	552.77
22.6607	525.63
22.6751	579.34
22.6896	572.10
22.7040	562.10
22.7185	559.33
22.7329	559.13
22.7473	583.45
22.7618	667.90
22.7762	611.23
22.7907	625.24
22.8051	614.13
22.8195	627.99
22.8340	554.55
22.8484	490.44
22.8629	571.19
22.8773	665.47
22.8917	569.32
22.9062	547.77
22.9206	530.54
22.9351	524.72
22.9495	554.88
22.9639	595.02
22.9784	621.40
22.9928	582.01
23.0073	614.09
23.0217	586.76
23.0361	541.53
23.0506	469.56
23.0650	527.24
23.0795	566.08
23.0939	599.18
23.1083	573.42
23.1228	498.74
23.1372	540.33
23.1517	492.30
23.1661	610.52
23.1806	603.76
23.1950	591.59
23.2094	505.61
23.2239	635.04
23.2383	583.12
23.2528	530.13
23.2672	541.29
23.2816	550.47
23.2961	556.49
23.3105	589.32
23.3250	515.64
23.3394	556.82
23.3538	523.19
23.3683	571.56
23.3827	499.16
23.3972	494.90
23.4116	526.86
23.4260	567.58
23.4405	558.57
23.4549	583.44
23.4694	578.17
23.4838	630.56
23.4982	564.36
23.5127	526.48
23.5271	544.84
23.5416	653.83
23.5560	635.07
23.5704	609.14
23.5849	550.71
23.5993	595.96
23.6138	619.12
23.6282	580.78
23.6426	560.61
23.6571	599.62
23.6715	630.36
23.6860	605.68
23.7004	597.58
23.7148	548.75
23.7293	549.53
23.7437	538.88
23.7582	563.68
23.7726	572.41
23.7870	604.02
23.8015	534.34
23.8159	534.35
23.8304	518.25
23.8448	655.98
23.8592	600.22
23.8737	533.13
23.8881	496.69
23.9026	469.67
23.9170	543.53
23.9314	530.93
23.9459	527.68
23.9603	521.35
23.9748	577.26
23.9892	521.49
24.0036	510.60
24.0181	533.09
24.0325	566.80
24.0470	578.40
24.0614	587.99
24.0758	479.58
24.0903	560.57
24.1047	561.76
24.1192	552.27
24.1336	526.58
24.1480	558.95
24.1625	596.64
24.1769	519.62
24.1914	510.35
24.2058	552.58
24.2202	549.18
24.2347	592.87
24.2491	625.64
24.2636	560.49
24.2780	644.51
24.2924	578.38
24.3069	674.96
24.3213	564.65
24.3358	573.12
24.3502	550.92
24.3646	577.19
24.3791	544.89
24.3935	538.77
24.4080	583.32
24.4224	654.40
24.4368	565.13
24.4513	547.10
24.4657	579.53
24.4802	584.21
24.4946	533.06
24.5090	550.67
24.5235	583.04
24.5379	569.89
24.5524	524.79
24.5668	569.50
24.5812	635.55
24.5957	578.93
24.6101	598.34
24.6246	547.73
24.6390	479.01
24.6534	560.02
24.6679	546.64
24.6823	542.99
24.6968	544.92
24.7112	502.16
24.7256	506.96
24.7401	573.37
24.7545	574.38
24.7690	528.40
24.7834	552.03
24.7978	548.00
24.8123	546.17
24.8267	545.00
24.8412	539.91
24.8556	542.48
24.8700	523.67
24.8845	489.22
24.8989	581.60
24.9134	524.92
24.9278	550.57
24.9422	521.24
24.9567	511.62
24.9711	482.67
24.9856	582.32
25.0000	585.19
25.0144	565.35
25.0289	561.55
25.0433	506.20
25.0578	609.27
25.0722	555.10
25.0866	591.98
25.1011	531.16
25.1155	528.32
25.1300	542.58
25.1444	557.64
25.1588	549.37
25.1733	527.23
25.1877	542.83
25.2022	510.74
25.2166	522.21
25.2310	551.23
25.2455	534.32
25.2599	535.47
25.2744	547.51
25.2888	569.23
25.3032	521.00
25.3177	569.53
25.3321	528.43
25.3466	551.20
25.3610	585.45
25.3754	532.73
25.3899	545.42
25.4043	556.50
25.4188	546.74
25.4332	514.14
25.4476	486.77
25.4621	523.41
25.4765	566.92
25.4910	541.45
25.5054	517.94
25.5198	552.60
25.5343	522.50
25.5487	503.51
25.5632	533.15
25.5776	555.25
25.5920	553.00
25.6065	518.00
25.6209	544.11
25.6354	566.88
25.6498	497.86
25.6642	484.70
25.6787	558.96
25.6931	535.96
25.7076	537.52
25.7220	497.65
25.7364	554.30
25.7509	570.43
25.7653	549.52
25.7798	569.45
25.7942	513.24
25.8086	523.22
25.8231	541.30
25.8375	519.61
25.8520	532.94
25.8664	527.23
25.8808	495.03
25.8953	520.58
25.9097	523.89
25.9242	523.27
25.9386	552.17
25.9530	550.84
25.9675	537.31
25.9819	549.47
25.9964	547.32
26.0108	515.82
26.0252	551.80
26.0397	538.41
26.0541	565.36
26.0686	553.88
26.0830	555.16
26.0974	528.26
26.1119	545.95
26.1263	543.71
26.1408	521.17
26.1552	507.92
26.1696	533.36
26.1841	514.22
26.1985	542.99
26.2130	569.31
26.2274	515.17
26.2418	544.63
26.2563	563.50
26.2707	546.67
26.2852	522.17
26.2996	565.23
26.3140	572.43
26.3285	557.27
26.3429	530.40
26.3574	524.69
26.3718	516.09
26.3862	527.77
26.4007	528.77
26.4151	494.18
26.4296	525.16
26.4440	499.97
26.4584	508.09
26.4729	533.06
26.4873	542.72
26.5018	503.13
26.5162	516.76
26.5306	547.97
26.5451	554.68
26.5595	553.28
26.5740	553.01
26.5884	559.27
26.6028	547.46
26.6173	547.71
26.6317	543.09
26.6462	546.19
26.6606	561.01
26.6750	547.49
26.6895	519.73
26.7039	545.90
26.7184	531.02
26.7328	505.73
26.7472	507.97
26.7617	548.97
26.7761	531.56
26.7906	532.80
26.8050	529.23
26.8194	510.59
26.8339	532.85
26.8483	534.63
26.8628	530.80
26.8772	530.76
26.8917	550.11
26.9061	527.65
26.9205	517.17
26.9350	514.92
26.9494	511.26
26.9639	521.64
26.9783	533.81
26.9927	515.23
27.0072	541.55
27.0216	552.66
27.0361	562.56
27.0505	526.74
27.0649	505.69
27.0794	541.92
27.0938	520.24
27.1083	499.39
27.1227	518.59
27.1371	494.43
27.1516	539.31
27.1660	565.69
27.1805	569.81
27.1949	503.41
27.2093	507.79
27.2238	544.47
27.2382	539.96
27.2527	515.38
27.2671	515.59
27.2815	504.67
27.2960	541.10
27.3104	509.46
27.3249	534.56
27.3393	521.28
27.3537	537.72
27.3682	510.73
27.3826	538.77
27.3971	503.75
27.4115	481.69
27.4259	534.40
27.4404	532.04
27.4548	518.31
27.4693	497.80
27.4837	519.45
27.4981	511.09
27.5126	515.51
27.5270	528.51
27.5415	516.53
27.5559	520.67
27.5703	529.48
27.5848	533.68
27.5992	558.01
27.6137	563.86
27.6281	507.74
27.6425	492.99
27.6570	524.02
27.6714	553.87
27.6859	567.49
27.7003	579.33
27.7147	550.71
27.7292	539.83
27.7436	530.80
27.7581	500.26
27.7725	513.50
27.7869	511.42
27.8014	504.65
27.8158	537.89
27.8303	557.07
27.8447	512.68
27.8591	517.27
27.8736	516.07
27.8880	507.24
27.9025	505.46
27.9169	506.96
27.9313	539.48
27.9458	514.69
27.9602	483.58
27.9747	496.98
27.9891	513.64
28.0035	505.65
28.0180	559.58
28.0324	552.00
28.0469	532.09
28.0613	550.23
28.0757	515.86
28.0902	558.17
28.1046	518.71
28.1191	553.57
28.1335	528.02
28.1479	539.62
28.1624	546.14
28.1768	533.07
28.1913	527.12
28.2057	497.74
28.2201	496.02
28.2346	533.01
28.2490	536.50
28.2635	513.48
28.2779	539.17
28.2923	493.99
28.3068	486.30
28.3212	507.52
28.3357	518.24
28.3501	533.98
28.3645	548.15
28.3790	507.64
28.3934	489.15
28.4079	498.96
28.4223	492.25
28.4367	498.75
28.4512	510.97
28.4656	515.69
28.4801	519.51
28.4945	495.50
28.5089	506.21
28.5234	495.62
28.5378	543.69
28.5523	517.93
28.5667	491.80
28.5811	541.90
28.5956	585.07
28.6100	534.80
28.6245	527.62
28.6389	514.93
28.6533	478.97
28.6678	474.24
28.6822	501.92
28.6967	509.50
28.7111	535.46
28.7255	508.69
28.7400	489.96
28.7544	490.89
28.7689	495.27
28.7833	509.58
28.7977	530.93
28.8122	558.12
28.8266	519.80
28.8411	528.71
28.8555	508.78
28.8699	518.28
28.8844	513.26
28.8988	510.17
28.9133	513.88
28.9277	509.78
28.9421	499.78
28.9566	495.70
28.9710	512.96
28.9855	483.92
28.9999	538.18
29.0143	510.99
29.0288	552.86
29.0432	542.22
29.0577	508.98
29.0721	488.79
29.0865	509.13
29.1010	482.27
29.1154	519.30
29.1299	523.92
29.1443	510.52
29.1587	482.75
29.1732	510.65
29.1876	499.27
29.2021	485.81
29.2165	545.34
29.2309	517.57
29.2454	492.99
29.2598	471.86
29.2743	505.41
29.2887	489.79
29.3031	471.40
29.3176	515.38
29.3320	539.33
29.3465	502.16
29.3609	528.96
29.3753	523.85
29.3898	506.92
29.4042	516.96
29.4187	487.97
29.4331	536.60
29.4475	501.99
29.4620	514.28
29.4764	505.78
29.4909	532.07
29.5053	521.55
29.5197	477.46
29.5342	524.87
29.5486	510.13
29.5631	501.86
29.5775	492.95
29.5919	508.34
29.6064	515.36
29.6208	513.44
29.6353	529.39
29.6497	537.02
29.6641	499.77
29.6786	461.72
29.6930	489.71
29.7075	490.59
29.7219	503.30
29.7363	515.40
29.7508	531.42
29.7652	499.14
29.7797	486.01
29.7941	508.04
29.8085	486.65
29.8230	494.45
29.8374	525.92
29.8519	503.42
29.8663	517.94
29.8807	523.76
29.8952	574.54
29.9096	510.50
29.9241	472.57
29.9385	504.07
29.9529	510.50
29.9674	492.68
29.9818	492.09
29.9963	508.53
30.0107	484.91
30.0251	493.86
30.0396	482.60
30.0540	493.44
30.0685	549.70
30.0829	539.25
30.0973	515.96
30.1118	520.97
30.1262	515.59
30.1407	524.37
30.1551	492.98
30.1695	492.01
30.1840	521.29
30.1984	471.78
30.2129	467.33
30.2273	506.82
30.2417	513.82
30.2562	535.29
30.2706	505.12
30.2851	503.02
30.2995	513.71
30.3139	508.68
30.3284	528.35
30.3428	499.75
30.3573	508.68
30.3717	511.83
30.3861	498.48
30.4006	491.88
30.4150	497.06
30.4295	519.91
30.4439	502.07
30.4583	493.44
30.4728	519.95
30.4872	518.76
30.5017	522.50
30.5161	565.78
30.5305	537.25
30.5450	511.66
30.5594	532.99
30.5739	553.55
30.5883	554.19
30.6028	560.02
30.6172	606.16
30.6316	615.29
30.6461	592.67
30.6605	626.21
30.6750	700.99
30.6894	693.87
30.7038	733.10
30.7183	710.67
30.7327	726.22
30.7472	765.19
30.7616	698.99
30.7760	675.15
30.7905	624.24
30.8049	636.45
30.8194	618.09
30.8338	584.10
30.8482	574.20
30.8627	538.67
30.8771	579.47
30.8916	557.69
30.9060	538.42
30.9204	548.03
30.9349	533.50
30.9493	538.36
30.9638	531.67
30.9782	516.28
30.9926	523.51
31.0071	518.57
31.0215	522.03
31.0360	512.08
31.0504	505.49
31.0648	513.37
31.0793	501.58
31.0937	530.05
31.1082	506.76
31.1226	520.93
31.1370	511.14
31.1515	493.07
31.1659	528.24
31.1804	530.17
31.1948	537.64
31.2092	525.89
31.2237	496.35
31.2381	524.83
31.2526	573.00
31.2670	547.31
31.2814	527.47
31.2959	517.15
31.3103	523.23
31.3248	509.11
31.3392	535.54
31.3536	529.83
31.3681	547.91
31.3825	531.59
31.3970	523.00
31.4114	517.74
31.4258	511.16
31.4403	505.49
31.4547	478.95
31.4692	502.07
31.4836	514.37
31.4980	509.17
31.5125	488.37
31.5269	492.93
31.5414	489.28
31.5558	532.83
31.5702	551.05
31.5847	518.37
31.5991	508.79
31.6136	496.55
31.6280	502.09
31.6424	528.88
31.6569	514.08
31.6713	499.85
31.6858	503.28
31.7002	511.98
31.7146	488.41
31.7291	500.75
31.7435	521.08
31.7580	532.81
31.7724	496.13
31.7868	525.78
31.8013	547.33
31.8157	553.73
31.8302	517.91
31.8446	526.24
31.8590	521.36
31.8735	495.42
31.8879	483.91
31.9024	509.59
31.9168	504.63
31.9312	498.49
31.9457	475.69
31.9601	488.84
31.9746	538.18
31.9890	504.62
32.0034	513.03
32.0179	516.38
32.0323	546.72
32.0468	480.14
32.0612	571.34
32.0756	505.28
32.0901	489.29
32.1045	530.02
32.1190	533.35
32.1334	504.82
32.1478	484.09
32.1623	480.03
32.1767	501.07
32.1912	520.49
32.2056	466.18
32.2200	519.21
32.2345	506.97
32.2489	494.61
32.2634	472.39
32.2778	502.65
32.2922	520.57
32.3067	511.38
32.3211	554.85
32.3356	523.42
32.3500	495.33
32.3644	488.91
32.3789	503.08
32.3933	539.85
32.4078	521.50
32.4222	491.70
32.4366	528.22
32.4511	524.29
32.4655	501.06
32.4800	496.45
32.4944	498.18
32.5088	511.87
32.5233	492.93
32.5377	506.91
32.5522	515.92
32.5666	519.69
32.5810	529.72
32.5955	511.35
32.6099	490.42
32.6244	509.35
32.6388	512.78
32.6532	498.59
32.6677	507.43
32.6821	511.72
32.6966	520.25
32.7110	530.80
32.7254	549.41
32.7399	518.59
32.7543	515.28
32.7688	489.32
32.7832	509.50
32.7976	522.18
32.8121	513.66
32.8265	533.53
32.8410	528.56
32.8554	510.11
32.8698	505.02
32.8843	499.58
32.8987	519.96
32.9132	482.30
32.9276	484.30
32.9420	482.44
32.9565	507.20
32.9709	497.61
32.9854	496.84
32.9998	515.57
33.0142	504.13
33.0287	504.05
33.0431	463.92
33.0576	538.71
33.0720	496.13
33.0864	520.48
33.1009	508.20
33.1153	493.70
33.1298	504.01
33.1442	496.55
33.1586	480.37
33.1731	524.59
33.1875	474.52
33.2020	506.45
33.2164	497.33
33.2308	489.41
33.2453	546.41
33.2597	494.09
33.2742	510.30
33.2886	509.22
33.3030	516.08
33.3175	492.81
33.3319	522.36
33.3464	504.27
33.3608	503.14
33.3752	493.29
33.3897	504.74
33.4041	493.58
33.4186	499.54
33.4330	513.54
33.4474	501.42
33.4619	517.69
33.4763	527.45
33.4908	483.03
33.5052	495.84
33.5196	514.61
33.5341	509.70
33.5485	498.88
33.5630	486.55
33.5774	480.82
33.5918	495.51
33.6063	497.45
33.6207	517.42
33.6352	509.81
33.6496	506.04
33.6640	497.48
33.6785	494.58
33.6929	503.84
33.7074	542.59
33.7218	509.01
33.7362	491.43
33.7507	459.66
33.7651	496.60
33.7796	505.05
33.7940	483.24
33.8084	479.81
33.8229	499.52
33.8373	529.33
33.8518	499.26
33.8662	513.16
33.8806	511.24
33.8951	502.14
33.9095	513.64
33.9240	521.36
33.9384	484.23
33.9528	518.06
33.9673	534.94
33.9817	529.01
33.9962	505.02
34.0106	499.22
34.0250	520.37
34.0395	520.46
34.0539	514.05
34.0684	483.55
34.0828	490.46
34.0972	496.28
34.1117	512.21
34.1261	551.86
34.1406	516.09
34.1550	475.79
34.1694	494.72
34.1839	534.62
34.1983	523.33
34.2128	529.79
34.2272	527.89
34.2417	523.04
34.2561	523.38
34.2705	491.37
34.2850	507.95
34.2994	467.43
34.3139	522.84
34.3283	537.94
34.3427	538.48
34.3572	533.70
34.3716	530.76
34.3861	492.55
34.4005	501.63
34.4149	517.60
34.4294	499.29
34.4438	501.01
34.4583	502.02
34.4727	518.41
34.4871	524.47
34.5016	526.10
34.5160	508.05
34.5305	492.72
34.5449	515.53
34.5593	508.83
34.5738	489.42
34.5882	482.74
34.6027	486.01
34.6171	498.52
34.6315	489.63
34.6460	488.38
34.6604	520.34
34.6749	506.57
34.6893	496.11
34.7037	498.86
34.7182	518.06
34.7326	506.81
34.7471	510.68
34.7615	532.01
34.7759	500.93
34.7904	524.86
34.8048	516.43
34.8193	491.04
34.8337	477.61
34.8481	491.46
34.8626	503.40
34.8770	538.68
34.8915	508.81
34.9059	504.30
34.9203	495.43
34.9348	494.81
34.9492	497.05
34.9637	531.98
34.9781	499.56
34.9925	473.33
35.0070	506.24
35.0214	511.21
35.0359	524.90
35.0503	525.02
35.0647	522.28
35.0792	487.93
35.0936	527.37
35.1081	499.73
35.1225	530.81
35.1369	558.06
35.1514	532.76
35.1658	534.03
35.1803	508.40
35.1947	515.52
35.2091	523.95
35.2236	520.61
35.2380	519.18
35.2525	497.53
35.2669	480.06
35.2813	519.93
35.2958	515.50
35.3102	506.91
35.3247	498.72
35.3391	544.18
35.3535	495.63
35.3680	480.12
35.3824	506.56
35.3969	523.73
35.4113	508.24
35.4257	528.11
35.4402	529.90
35.4546	503.60
35.4691	549.67
35.4835	526.54
35.4979	540.87
35.5124	513.01
35.5268	510.03
35.5413	513.57
35.5557	509.32
35.5701	532.07
35.5846	516.18
35.5990	514.68
35.6135	520.30
35.6279	541.05
35.6423	514.89
35.6568	534.43
35.6712	571.54
35.6857	620.77
35.7001	694.28
35.7145	705.42
35.7290	638.18
35.7434	578.17
35.7579	576.00
35.7723	621.60
35.7867	630.72
35.8012	640.59
35.8156	630.70
35.8301	637.06
35.8445	623.51
35.8589	653.10
35.8734	729.82
35.8878	842.16
35.9023	1010.58
35.9167	1100.06
35.9311	1402.02
35.9456	2059.74
35.9600	2354.39
35.9745	1919.09
35.9889	1911.34
36.0033	2171.26
36.0178	2334.81
36.0322	2100.66
36.0467	1970.47
36.0611	1805.65
36.0755	1849.64
36.0900	1776.01
36.1044	1665.59
36.1189	1688.69
36.1333	1633.53
36.1477	1480.36
36.1622	1496.50
36.1766	1454.68
36.1911	1264.24
36.2055	1114.37
36.2199	1042.71
36.2344	987.98
36.2488	930.02
36.2633	903.02
36.2777	886.61
36.2921	783.78
36.3066	757.22
36.3210	699.60
36.3355	686.21
36.3499	668.65
36.3643	654.67
36.3788	612.04
36.3932	598.18
36.4077	603.51
36.4221	616.05
36.4365	598.70
36.4510	549.29
36.4654	540.19
36.4799	596.11
36.4943	580.12
36.5087	547.73
36.5232	513.57
36.5376	551.15
36.5521	557.22
36.5665	558.85
36.5809	542.30
36.5954	537.98
36.6098	537.31
36.6243	539.27
36.6387	540.49
36.6531	519.62
36.6676	503.15
36.6820	521.10
36.6965	547.73
36.7109	559.44
36.7253	569.03
36.7398	531.10
36.7542	516.56
36.7687	522.16
36.7831	576.30
36.7975	588.20
36.8120	560.86
36.8264	561.70
36.8409	570.43
36.8553	592.94
36.8697	619.31
36.8842	618.90
36.8986	613.82
36.9131	614.61
36.9275	592.17
36.9419	602.94
36.9564	588.31
36.9708	567.47
36.9853	609.39
36.9997	549.97
37.0141	549.20
37.0286	549.06
37.0430	538.64
37.0575	502.46
37.0719	541.50
37.0863	530.10
37.1008	476.25
37.1152	526.24
37.1297	512.02
37.1441	491.83
37.1585	497.51
37.1730	530.14
37.1874	478.37
37.2019	499.88
37.2163	522.20
37.2307	485.00
37.2452	501.92
37.2596	490.21
37.2741	530.24
37.2885	544.45
37.3029	521.14
37.3174	504.58
37.3318	525.24
37.3463	534.60
37.3607	517.24
37.3751	520.67
37.3896	518.76
37.4040	510.69
37.4185	507.98
37.4329	538.73
37.4473	482.04
37.4618	517.76
37.4762	506.21
37.4907	517.01
37.5051	499.58
37.5195	478.45
37.5340	472.63
37.5484	531.01
37.5629	535.81
37.5773	508.76
37.5917	509.47
37.6062	482.29
37.6206	506.69
37.6351	530.61
37.6495	494.86
37.6639	529.37
37.6784	503.05
37.6928	496.39
37.7073	497.32
37.7217	530.85
37.7361	484.66
37.7506	502.53
37.7650	499.93
37.7795	509.45
37.7939	527.12
37.8083	523.61
37.8228	475.10
37.8372	474.18
37.8517	536.23
37.8661	519.65
37.8805	519.60
37.8950	531.29
37.9094	524.55
37.9239	531.65
37.9383	497.84
37.9528	466.03
37.9672	511.22
37.9816	500.71
37.9961	516.94
38.0105	503.52
38.0250	529.02
38.0394	519.49
38.0538	504.68
38.0683	480.34
38.0827	513.32
38.0972	531.06
38.1116	502.88
38.1260	502.53
38.1405	472.27
38.1549	482.01
38.1694	500.37
38.1838	497.13
38.1982	496.53
38.2127	505.71
38.2271	502.52
38.2416	512.52
38.2560	515.66
38.2704	506.39
38.2849	530.03
38.2993	505.30
38.3138	515.73
38.3282	494.16
38.3426	506.25
38.3571	523.99
38.3715	509.95
38.3860	507.96
38.4004	510.57
38.4148	525.40
38.4293	598.30
38.4437	575.94
38.4582	587.18
38.4726	657.43
38.4870	692.30
38.5015	729.65
38.5159	805.43
38.5304	817.72
38.5448	779.24
38.5592	788.70
38.5737	759.70
38.5881	714.69
38.6026	735.45
38.6170	736.27
38.6314	704.69
38.6459	714.00
38.6603	681.64
38.6748	637.65
38.6892	599.90
38.7036	605.52
38.7181	535.33
38.7325	553.16
38.7470	516.77
38.7614	519.03
38.7758	520.28
38.7903	503.18
38.8047	536.67
38.8192	520.69
38.8336	496.76
38.8480	488.17
38.8625	507.07
38.8769	479.56
38.8914	482.90
38.9058	542.19
38.9202	522.61
38.9347	493.88
38.9491	507.25
38.9636	512.98
38.9780	512.59
38.9924	484.73
39.0069	458.83
39.0213	494.52
39.0358	519.81
39.0502	518.93
39.0646	553.80
39.0791	542.73
39.0935	521.95
39.1080	522.77
39.1224	507.68
39.1368	497.09
39.1513	504.19
39.1657	526.40
39.1802	483.09
39.1946	514.37
39.2090	536.67
39.2235	507.24
39.2379	506.95
39.2524	546.72
39.2668	534.12
39.2812	547.77
39.2957	485.75
39.3101	538.18
39.3246	519.98
39.3390	529.89
39.3534	517.82
39.3679	530.01
39.3823	536.04
39.3968	501.05
39.4112	480.03
39.4256	522.88
39.4401	526.55
39.4545	508.95
39.4690	532.19
39.4834	528.91
39.4978	509.46
39.5123	504.61
39.5267	508.81
39.5412	547.92
39.5556	499.03
39.5700	451.86
39.5845	498.38
39.5989	509.84
39.6134	539.99
39.6278	495.15
39.6422	492.69
39.6567	489.29
39.6711	519.23
39.6856	520.64
39.7000	503.15
39.7144	506.30
39.7289	483.61
39.7433	498.61
39.7578	487.48
39.7722	474.60
39.7866	498.97
39.8011	501.59
39.8155	507.31
39.8300	517.63
39.8444	498.35
39.8588	532.12
39.8733	507.97
39.8877	501.33
39.9022	526.80
39.9166	483.58
39.9310	479.38
39.9455	515.07
39.9599	495.10
39.9744	492.82
39.9888	504.69
40.0032	510.39
40.0177	482.59
40.0321	530.95
40.0466	530.38
40.0610	525.36
40.0754	540.56
40.0899	511.08
40.1043	490.97
40.1188	496.26
40.1332	490.86
40.1476	505.92
40.1621	484.87
40.1765	500.86
40.1910	474.91
40.2054	487.13
40.2198	508.06
40.2343	504.49
40.2487	510.49
40.2632	498.01
40.2776	514.81
40.2920	481.58
40.3065	498.18
40.3209	539.01
40.3354	541.58
40.3498	479.71
40.3642	480.44
40.3787	495.83
40.3931	480.49
40.4076	493.79
40.4220	516.15
40.4364	470.17
40.4509	490.59
40.4653	520.05
40.4798	515.57
40.4942	494.60
40.5086	517.94
40.5231	526.44
40.5375	498.32
40.5520	483.22
40.5664	516.10
40.5808	514.10
40.5953	497.90
40.6097	512.35
40.6242	476.59
40.6386	484.87
40.6530	521.27
40.6675	515.72
40.6819	502.39
40.6964	456.93
40.7108	495.84
40.7252	486.42
40.7397	530.27
40.7541	515.78
40.7686	513.59
40.7830	498.09
40.7974	514.07
40.8119	502.58
40.8263	502.89
40.8408	493.90
40.8552	505.71
40.8696	498.83
40.8841	508.66
40.8985	536.42
40.9130	541.96
40.9274	514.89
40.9418	486.04
40.9563	487.13
40.9707	520.18
40.9852	463.73
40.9996	453.93
41.0140	507.00
41.0285	498.17
41.0429	519.61
41.0574	516.56
41.0718	486.13
41.0862	531.93
41.1007	463.36
41.1151	531.24
41.1296	498.64
41.1440	491.63
41.1584	498.70
41.1729	504.49
41.1873	535.99
41.2018	521.27
41.2162	494.87
41.2306	488.57
41.2451	541.48
41.2595	512.10
41.2740	490.18
41.2884	492.79
41.3028	524.51
41.3173	544.25
41.3317	502.05
41.3462	517.60
41.3606	500.32
41.3750	489.72
41.3895	506.84
41.4039	515.09
41.4184	510.37
41.4328	499.44
41.4472	485.10
41.4617	495.88
41.4761	536.04
41.4906	516.69
41.5050	479.99
41.5194	512.06
41.5339	525.45
41.5483	492.70
41.5628	511.58
41.5772	496.88
41.5916	510.44
41.6061	504.74
41.6205	501.98
41.6350	473.28
41.6494	501.17
41.6639	550.70
41.6783	502.61
41.6927	490.55
41.7072	490.63
41.7216	542.06
41.7361	484.18
41.7505	500.95
41.7649	533.70
41.7794	544.08
41.7938	536.21
41.8083	536.11
41.8227	549.43
41.8371	516.56
41.8516	506.62
41.8660	540.09
41.8805	525.03
41.8949	510.12
41.9093	534.48
41.9238	561.29
41.9382	575.25
41.9527	553.89
41.9671	575.89
41.9815	577.33
41.9960	522.12
42.0104	550.43
42.0249	553.74
42.0393	565.47
42.0537	573.15
42.0682	590.26
42.0826	564.02
42.0971	574.48
42.1115	578.83
42.1259	593.54
42.1404	590.48
42.1548	635.80
42.1693	688.82
42.1837	691.34
42.1981	736.03
42.2126	823.10
42.2270	960.68
42.2415	1072.66
42.2559	1184.37
42.2703	1320.24
42.2848	1487.68
42.2992	1578.84
42.3137	1655.10
42.3281	1637.54
42.3425	1541.45
42.3570	1477.20
42.3714	1408.79
42.3859	1395.20
42.4003	1323.34
42.4147	1321.65
42.4292	1306.20
42.4436	1124.44
42.4581	1011.43
42.4725	907.23
42.4869	814.84
42.5014	743.14
42.5158	724.30
42.5303	700.10
42.5447	625.71
42.5591	628.68
42.5736	582.33
42.5880	563.73
42.6025	577.22
42.6169	561.13
42.6313	544.42
42.6458	560.04
42.6602	543.73
42.6747	553.28
42.6891	524.36
42.7035	561.15
42.7180	527.23
42.7324	520.79
42.7469	547.69
42.7613	530.53
42.7757	536.68
42.7902	534.51
42.8046	525.08
42.8191	487.57
42.8335	501.14
42.8479	503.72
42.8624	522.93
42.8768	493.28
42.8913	496.00
42.9057	550.64
42.9201	502.64
42.9346	510.87
42.9490	520.75
42.9635	524.05
42.9779	480.94
42.9923	504.18
43.0068	513.35
43.0212	493.05
43.0357	527.69
43.0501	516.92
43.0645	503.89
43.0790	505.27
43.0934	529.53
43.1079	523.28
43.1223	518.43
43.1367	512.86
43.1512	526.64
43.1656	534.82
43.1801	521.36
43.1945	541.76
43.2089	533.56
43.2234	504.30
43.2378	502.15
43.2523	544.05
43.2667	540.98
43.2811	552.68
43.2956	530.16
43.3100	507.95
43.3245	534.95
43.3389	499.71
43.3533	508.21
43.3678	509.74
43.3822	521.64
43.3967	508.11
43.4111	512.89
43.4255	529.31
43.4400	517.95
43.4544	512.22
43.4689	503.76
43.4833	496.16
43.4977	505.47
43.5122	477.91
43.5266	493.16
43.5411	511.00
43.5555	523.58
43.5699	496.92
43.5844	516.86
43.5988	508.08
43.6133	532.64
43.6277	529.24
43.6421	503.65
43.6566	506.69
43.6710	519.61
43.6855	507.08
43.6999	540.77
43.7143	522.01
43.7288	533.53
43.7432	549.89
43.7577	509.85
43.7721	524.25
43.7865	536.75
43.8010	521.26
43.8154	493.56
43.8299	515.39
43.8443	556.64
43.8587	580.84
43.8732	578.07
43.8876	596.36
43.9021	666.41
43.9165	607.14
43.9309	586.49
43.9454	666.34
43.9598	636.48
43.9743	638.99
43.9887	676.91
44.0031	651.45
44.0176	659.23
44.0320	658.84
44.0465	636.64
44.0609	574.53
44.0753	605.26
44.0898	574.43
44.1042	542.15
44.1187	568.34
44.1331	533.22
44.1475	496.71
44.1620	516.83
44.1764	525.29
44.1909	517.04
44.2053	536.15
44.2197	545.43
44.2342	540.78
44.2486	490.47
44.2631	492.05
44.2775	510.95
44.2919	501.39
44.3064	506.92
44.3208	543.03
44.3353	554.40
44.3497	535.39
44.3641	551.91
44.3786	486.93
44.3930	560.84
44.4075	534.02
44.4219	547.40
44.4363	585.91
44.4508	522.53
44.4652	568.76
44.4797	597.26
44.4941	589.93
44.5085	586.32
44.5230	605.68
44.5374	628.25
44.5519	575.84
44.5663	590.76
44.5807	580.56
44.5952	571.73
44.6096	582.88
44.6241	556.73
44.6385	564.75
44.6529	600.17
44.6674	599.39
44.6818	606.57
44.6963	609.56
44.7107	639.31
44.7251	672.91
44.7396	715.42
44.7540	840.48
44.7685	841.59
44.7829	897.92
44.7973	822.14
44.8118	831.76
44.8262	802.70
44.8407	733.53
44.8551	723.59
44.8695	754.75
44.8840	759.97
44.8984	763.92
44.9129	739.04
44.9273	675.18
44.9417	694.41
44.9562	608.08
44.9706	617.40
44.9851	617.80
44.9995	585.44
45.0139	583.42
45.0284	529.35
45.0428	542.77
45.0573	504.87
45.0717	479.82
45.0861	516.95
45.1006	503.81
45.1150	486.82
45.1295	536.80
45.1439	482.65
45.1583	536.24
45.1728	520.00
45.1872	508.27
45.2017	477.22
45.2161	496.59
45.2305	514.78
45.2450	507.32
45.2594	531.37
45.2739	507.65
45.2883	520.12
45.3028	487.26
45.3172	491.61
45.3316	486.57
45.3461	527.31
45.3605	519.45
45.3750	511.61
45.3894	498.01
45.4038	491.18
45.4183	482.12
45.4327	518.37
45.4472	498.14
45.4616	507.70
45.4760	501.28
45.4905	504.23
45.5049	498.12
45.5194	494.16
45.5338	496.97
45.5482	516.73
45.5627	510.39
45.5771	497.32
45.5916	521.50
45.6060	518.21
45.6204	526.87
45.6349	508.00
45.6493	537.86
45.6638	530.81
45.6782	496.05
45.6926	475.49
45.7071	520.22
45.7215	510.00
45.7360	518.64
45.7504	483.83
45.7648	502.46
45.7793	512.42
45.7937	536.79
45.8082	531.12
45.8226	529.95
45.8370	512.37
45.8515	490.63
45.8659	502.59
45.8804	491.96
45.8948	504.96
45.9092	499.73
45.9237	481.74
45.9381	524.47
45.9526	504.36
45.9670	486.70
45.9814	509.08
45.9959	510.43
46.0103	508.34
46.0248	513.65
46.0392	484.72
46.0536	519.73
46.0681	549.24
46.0825	537.22
46.0970	563.84
46.1114	537.44
46.1258	521.67
46.1403	516.79
46.1547	493.91
46.1692	497.57
46.1836	505.23
46.1980	508.39
46.2125	499.33
46.2269	496.31
46.2414	485.72
46.2558	515.15
46.2702	484.64
46.2847	482.68
46.2991	492.93
46.3136	516.92
46.3280	518.13
46.3424	491.91
46.3569	500.66
46.3713	480.57
46.3858	487.79
46.4002	480.55
46.4146	499.97
46.4291	510.09
46.4435	482.60
46.4580	462.48
46.4724	476.99
46.4868	485.19
46.5013	490.03
46.5157	486.36
46.5302	509.56
46.5446	553.41
46.5590	542.72
46.5735	498.34
46.5879	504.29
46.6024	493.17
46.6168	507.91
46.6312	470.17
46.6457	497.13
46.6601	482.26
46.6746	471.85
46.6890	470.03
46.7034	499.26
46.7179	513.32
46.7323	491.58
46.7468	514.69
46.7612	484.74
46.7756	495.65
46.7901	489.54
46.8045	503.98
46.8190	508.84
46.8334	528.42
46.8478	481.68
46.8623	487.03
46.8767	521.27
46.8912	500.30
46.9056	513.90
46.9200	521.98
46.9345	519.27
46.9489	510.53
46.9634	521.11
46.9778	504.14
46.9922	500.72
47.0067	520.21
47.0211	516.14
47.0356	521.39
47.0500	527.26
47.0644	502.43
47.0789	497.05
47.0933	517.22
47.1078	524.66
47.1222	527.02
47.1366	493.93
47.1511	487.59
47.1655	522.74
47.1800	497.31
47.1944	486.22
47.2088	495.96
47.2233	481.42
47.2377	494.80
47.2522	513.58
47.2666	528.78
47.2810	545.25
47.2955	494.83
47.3099	520.92
47.3244	519.49
47.3388	539.39
47.3532	526.36
47.3677	524.47
47.3821	525.09
47.3966	483.54
47.4110	468.68
47.4254	522.08
47.4399	474.53
47.4543	474.71
47.4688	501.86
47.4832	507.40
47.4976	496.17
47.5121	490.27
47.5265	485.07
47.5410	491.60
47.5554	486.44
47.5698	505.88
47.5843	513.37
47.5987	496.36
47.6132	482.19
47.6276	492.18
47.6420	500.22
47.6565	491.29
47.6709	497.45
47.6854	510.72
47.6998	522.89
47.7142	520.16
47.7287	492.62
47.7431	499.66
47.7576	486.77
47.7720	519.27
47.7864	490.53
47.8009	530.37
47.8153	492.18
47.8298	512.43
47.8442	520.03
47.8586	497.51
47.8731	513.48
47.8875	493.18
47.9020	508.66
47.9164	482.07
47.9308	471.31
47.9453	503.20
47.9597	492.71
47.9742	497.34
47.9886	495.99
48.0030	541.77
48.0175	498.18
48.0319	494.13
48.0464	518.31
48.0608	539.55
48.0752	471.33
48.0897	490.36
48.1041	508.21
48.1186	527.32
48.1330	529.58
48.1474	486.21
48.1619	504.66
48.1763	534.79
48.1908	493.44
48.2052	500.18
48.2196	505.87
48.2341	514.16
48.2485	526.82
48.2630	479.70
48.2774	509.17
48.2918	481.78
48.3063	475.96
48.3207	514.88
48.3352	541.99
48.3496	499.76
48.3640	535.73
48.3785	531.59
48.3929	506.88
48.4074	513.96
48.4218	515.06
48.4362	562.70
48.4507	503.88
48.4651	516.67
48.4796	528.10
48.4940	519.25
48.5084	502.33
48.5229	494.50
48.5373	497.88
48.5518	517.86
48.5662	541.03
48.5806	522.94
48.5951	518.03
48.6095	528.87
48.6240	545.69
48.6384	527.16
48.6528	521.31
48.6673	492.51
48.6817	476.47
48.6962	491.15
48.7106	524.27
48.7250	512.06
48.7395	503.86
48.7539	496.97
48.7684	476.88
48.7828	516.28
48.7972	550.17
48.8117	505.86
48.8261	529.86
48.8406	562.91
48.8550	562.11
48.8694	546.13
48.8839	547.62
48.8983	517.26
48.9128	555.12
48.9272	537.95
48.9416	572.46
48.9561	528.13
48.9705	549.27
48.9850	576.38
48.9994	600.84
49.0139	558.75
49.0283	563.93
49.0427	621.39
49.0572	632.72
49.0716	632.23
49.0861	679.01
49.1005	674.49
49.1149	695.51
49.1294	741.60
49.1438	719.71
49.1583	799.44
49.1727	820.04
49.1871	861.61
49.2016	964.71
49.2160	996.26
49.2305	1044.61
49.2449	1160.03
49.2593	1198.14
49.2738	1323.55
49.2882	1389.22
49.3027	1448.15
49.3171	1556.87
49.3315	1591.46
49.3460	1770.65
49.3604	1813.72
49.3749	1797.32
49.3893	1742.62
49.4037	1674.75
49.4182	1697.23
49.4326	1781.50
49.4471	1655.59
49.4615	1618.05
49.4759	1598.67
49.4904	1494.93
49.5048	1392.10
49.5193	1336.58
49.5337	1284.32
49.5481	1198.20
49.5626	1140.65
49.5770	1061.05
49.5915	977.65
49.6059	933.59
49.6203	860.46
49.6348	802.47
49.6492	740.81
49.6637	732.25
49.6781	774.02
49.6925	696.98
49.7070	709.70
49.7214	687.36
49.7359	675.36
49.7503	621.26
49.7647	580.16
49.7792	622.56
49.7936	605.82
49.8081	596.70
49.8225	587.75
49.8369	582.40
49.8514	613.55
49.8658	592.65
49.8803	563.77
49.8947	552.49
49.9091	564.32
49.9236	547.15
49.9380	583.64
49.9525	562.14
49.9669	529.78
49.9813	528.61
49.9958	502.17
50.0102	507.73
50.0247	512.02
50.0391	528.25
50.0535	540.98
50.0680	548.63
50.0824	551.47
50.0969	519.92
50.1113	515.48
50.1257	536.62
50.1402	529.89
50.1546	510.79
50.1691	511.49
50.1835	488.48
50.1979	493.39
50.2124	499.99
50.2268	513.94
50.2413	548.25
50.2557	537.50
50.2701	519.55
50.2846	519.01
50.2990	524.71
50.3135	534.07
50.3279	529.06
50.3423	528.17
50.3568	548.84
50.3712	519.47
50.3857	515.80
50.4001	471.99
50.4145	517.53
50.4290	533.28
50.4434	527.22
50.4579	498.87
50.4723	521.14
50.4867	486.69
50.5012	473.01
50.5156	533.99
50.5301	499.58
50.5445	477.18
50.5589	513.73
50.5734	508.80
50.5878	518.27
50.6023	531.72
50.6167	525.19
50.6311	535.68
50.6456	510.58
50.6600	491.01
50.6745	500.64
50.6889	480.71
50.7033	481.07
50.7178	520.44
50.7322	496.77
50.7467	535.55
50.7611	530.98
50.7755	495.61
50.7900	497.57
50.8044	524.71
50.8189	528.11
50.8333	544.96
50.8477	548.16
50.8622	554.88
50.8766	522.77
50.8911	521.27
50.9055	537.35
50.9199	492.03
50.9344	468.05
50.9488	498.14
50.9633	512.16
50.9777	524.00
50.9921	499.99
51.0066	522.50
51.0210	514.13
51.0355	488.24
51.0499	493.75
51.0643	524.49
51.0788	505.56
51.0932	532.94
51.1077	506.52
51.1221	531.30
51.1365	523.92
51.1510	477.97
51.1654	528.55
51.1799	547.67
51.1943	506.58
51.2087	535.57
51.2232	518.96
51.2376	509.48
51.2521	530.32
51.2665	498.46
51.2809	520.13
51.2954	514.03
51.3098	499.41
51.3243	492.69
51.3387	532.20
51.3531	495.52
51.3676	482.23
51.3820	497.97
51.3965	486.23
51.4109	479.34
51.4253	518.59
51.4398	496.79
51.4542	508.99
51.4687	485.84
51.4831	471.99
51.4975	493.37
51.5120	509.67
51.5264	504.39
51.5409	501.00
51.5553	514.11
51.5697	497.22
51.5842	487.13
51.5986	513.41
51.6131	522.93
51.6275	512.09
51.6419	494.09
51.6564	497.77
51.6708	524.78
51.6853	505.89
51.6997	499.56
51.7141	488.55
51.7286	506.16
51.7430	501.00
51.7575	509.80
51.7719	516.90
51.7863	527.40
51.8008	482.55
51.8152	512.75
51.8297	503.68
51.8441	508.74
51.8585	531.35
51.8730	508.71
51.8874	500.93
51.9019	531.46
51.9163	535.56
51.9307	524.40
51.9452	532.74
51.9596	529.48
51.9741	510.42
51.9885	473.94
52.0029	526.36
52.0174	507.92
52.0318	492.49
52.0463	542.37
52.0607	480.60
52.0751	497.46
52.0896	535.46
52.1040	543.24
52.1185	517.73
52.1329	534.75
52.1473	515.08
52.1618	511.63
52.1762	533.59
52.1907	506.07
52.2051	506.82
52.2195	534.13
52.2340	538.26
52.2484	496.57
52.2629	519.97
52.2773	503.93
52.2917	508.03
52.3062	497.08
52.3206	500.70
52.3351	533.86
52.3495	502.09
52.3639	531.00
52.3784	515.32
52.3928	540.64
52.4073	503.47
52.4217	518.97
52.4361	536.40
52.4506	525.13
52.4650	520.41
52.4795	539.54
52.4939	526.31
52.5083	533.86
52.5228	508.41
52.5372	508.72
52.5517	503.76
52.5661	508.85
52.5805	503.33
52.5950	510.74
52.6094	558.70
52.6239	510.47
52.6383	524.66
52.6527	532.79
52.6672	479.77
52.6816	498.55
52.6961	525.26
52.7105	545.51
52.7250	541.65
52.7394	505.99
52.7538	514.60
52.7683	496.50
52.7827	531.49
52.7972	543.83
52.8116	539.38
52.8260	528.68
52.8405	497.88
52.8549	552.79
52.8694	534.64
52.8838	536.62
52.8982	553.57
52.9127	546.15
52.9271	486.88
52.9416	499.60
52.9560	468.08
52.9704	512.22
52.9849	511.61
52.9993	511.50
53.0138	483.37
53.0282	499.46
53.0426	495.89
53.0571	522.32
53.0715	523.73
53.0860	503.95
53.1004	533.66
53.1148	537.20
53.1293	505.22
53.1437	502.02
53.1582	497.91
53.1726	506.39
53.1870	480.31
53.2015	514.99
53.2159	536.95
53.2304	503.67
53.2448	518.27
53.2592	512.97
53.2737	513.90
53.2881	512.70
53.3026	513.31
53.3170	522.04
53.3314	536.06
53.3459	478.70
53.3603	516.65
53.3748	509.64
53.3892	485.90
53.4036	495.47
53.4181	536.29
53.4325	538.38
53.4470	498.13
53.4614	516.79
53.4758	543.58
53.4903	526.57
53.5047	515.43
53.5192	508.43
53.5336	567.70
53.5480	513.27
53.5625	506.62
53.5769	521.26
53.5914	543.13
53.6058	500.23
53.6202	515.38
53.6347	510.31
53.6491	506.09
53.6636	504.67
53.6780	518.78
53.6924	489.22
53.7069	512.86
53.7213	510.97
53.7358	534.64
53.7502	519.00
53.7646	495.00
53.7791	544.66
53.7935	532.81
53.8080	530.81
53.8224	522.95
53.8368	521.46
53.8513	494.74
53.8657	494.48
53.8802	481.41
53.8946	513.86
53.9090	519.17
53.9235	499.54
53.9379	535.08
53.9524	522.15
53.9668	538.54
53.9812	516.33
53.9957	501.40
54.0101	539.48
54.0246	511.53
54.0390	507.02
54.0534	525.32
54.0679	508.13
54.0823	500.79
54.0968	490.24
54.1112	510.94
54.1256	535.87
54.1401	509.16
54.1545	490.48
54.1690	512.73
54.1834	522.41
54.1978	509.65
54.2123	538.82
54.2267	533.56
54.2412	534.22
54.2556	563.55
54.2700	566.59
54.2845	543.10
54.2989	499.42
54.3134	513.31
54.3278	564.18
54.3422	566.68
54.3567	534.35
54.3711	522.20
54.3856	515.50
54.4000	502.26
54.4144	554.27
54.4289	587.11
54.4433	543.10
54.4578	541.98
54.4722	582.24
54.4866	588.62
54.5011	620.88
54.5155	640.71
54.5300	621.39
54.5444	650.50
54.5588	625.19
54.5733	595.67
54.5877	588.40
54.6022	608.94
54.6166	610.30
54.6310	591.96
54.6455	591.10
54.6599	584.91
54.6744	564.36
54.6888	550.08
54.7032	583.16
54.7177	566.38
54.7321	559.64
54.7466	545.79
54.7610	542.41
54.7754	555.64
54.7899	560.10
54.8043	501.17
54.8188	524.10
54.8332	540.06
54.8476	532.69
54.8621	558.30
54.8765	536.24
54.8910	518.29
54.9054	541.89
54.9198	550.67
54.9343	534.09
54.9487	536.44
54.9632	554.49
54.9776	537.77
54.9920	528.57
55.0065	519.07
55.0209	537.96
55.0354	512.04
55.0498	495.02
55.0642	550.45
55.0787	543.65
55.0931	554.53
55.1076	542.61
55.1220	551.05
55.1364	518.95
55.1509	526.09
55.1653	555.51
55.1798	506.85
55.1942	512.08
55.2086	525.69
55.2231	520.89
55.2375	495.08
55.2520	536.60
55.2664	509.04
55.2808	512.48
55.2953	539.87
55.3097	526.83
55.3242	525.98
55.3386	510.58
55.3530	511.61
55.3675	529.63
55.3819	521.93
55.3964	519.44
55.4108	528.40
55.4252	514.92
55.4397	537.16
55.4541	537.25
55.4686	543.78
55.4830	518.08
55.4974	535.80
55.5119	514.19
55.5263	499.15
55.5408	508.61
55.5552	547.68
55.5696	554.51
55.5841	508.92
55.5985	491.33
55.6130	505.72
55.6274	502.35
55.6418	528.71
55.6563	512.21
55.6707	518.08
55.6852	590.21
55.6996	555.11
55.7140	574.98
55.7285	518.21
55.7429	491.97
55.7574	516.69
55.7718	507.18
55.7862	539.27
55.8007	558.23
55.8151	562.82
55.8296	520.37
55.8440	530.24
55.8584	536.19
55.8729	534.57
55.8873	549.42
55.9018	518.00
55.9162	507.95
55.9306	525.58
55.9451	552.91
55.9595	509.24
55.9740	537.44
55.9884	523.24
56.0028	528.80
56.0173	523.45
56.0317	526.67
56.0462	494.03
56.0606	533.81
56.0750	542.40
56.0895	532.90
56.1039	487.63
56.1184	514.21
56.1328	546.58
56.1472	527.24
56.1617	535.15
56.1761	543.48
56.1906	518.48
56.2050	502.39
56.2194	531.87
56.2339	524.71
56.2483	513.68
56.2628	507.30
56.2772	514.96
56.2916	515.57
56.3061	541.62
56.3205	543.05
56.3350	514.65
56.3494	509.14
56.3639	525.66
56.3783	533.68
56.3927	465.86
56.4072	503.98
56.4216	518.80
56.4361	530.04
56.4505	482.25
56.4649	515.65
56.4794	539.79
56.4938	541.47
56.5083	522.50
56.5227	534.99
56.5371	518.55
56.5516	522.73
56.5660	532.05
56.5805	518.25
56.5949	557.00
56.6093	527.25
56.6238	532.79
56.6382	533.73
56.6527	523.46
56.6671	517.50
56.6815	505.83
56.6960	511.40
56.7104	584.07
56.7249	535.14
56.7393	510.78
56.7537	500.51
56.7682	514.07
56.7826	547.36
56.7971	530.63
56.8115	494.63
56.8259	495.16
56.8404	516.32
56.8548	526.20
56.8693	544.08
56.8837	507.89
56.8981	517.39
56.9126	550.41
56.9270	515.61
56.9415	515.97
56.9559	501.08
56.9703	469.72
56.9848	506.80
56.9992	543.67
57.0137	526.09
57.0281	503.00
57.0425	492.73
57.0570	540.62
57.0714	536.80
57.0859	507.18
57.1003	544.49
57.1147	528.61
57.1292	519.61
57.1436	544.70
57.1581	505.69
57.1725	515.42
57.1869	505.07
57.2014	510.86
57.2158	510.97
57.2303	519.32
57.2447	514.27
57.2591	534.59
57.2736	527.11
57.2880	545.83
57.3025	528.83
57.3169	524.89
57.3313	545.54
57.3458	532.77
57.3602	511.38
57.3747	500.37
57.3891	522.74
57.4035	523.22
57.4180	510.99
57.4324	537.26
57.4469	503.32
57.4613	522.89
57.4757	562.28
57.4902	532.23
57.5046	535.16
57.5191	551.06
57.5335	499.84
57.5479	507.62
57.5624	503.77
57.5768	499.03
57.5913	521.23
57.6057	505.88
57.6201	542.33
57.6346	527.97
57.6490	545.35
57.6635	485.87
57.6779	532.28
57.6923	554.10
57.7068	577.21
57.7212	518.59
57.7357	487.05
57.7501	522.14
57.7645	540.26
57.7790	546.82
57.7934	541.40
57.8079	550.39
57.8223	530.16
57.8367	566.76
57.8512	523.75
57.8656	551.04
57.8801	572.10
57.8945	556.45
57.9089	564.86
57.9234	543.14
57.9378	561.68
57.9523	552.56
57.9667	560.59
57.9811	586.92
57.9956	550.03
58.0100	531.49
58.0245	577.49
58.0389	552.90
58.0533	541.45
58.0678	590.98
58.0822	625.62
58.0967	657.95
58.1111	634.22
58.1255	672.45
58.1400	651.97
58.1544	677.95
58.1689	703.67
58.1833	669.21
58.1977	688.70
58.2122	671.62
58.2266	624.70
58.2411	652.50
58.2555	672.61
58.2699	670.58
58.2844	666.81
58.2988	632.84
58.3133	687.77
58.3277	672.61
58.3421	644.10
58.3566	604.17
58.3710	647.21
58.3855	611.11
58.3999	586.25
58.4143	584.83
58.4288	535.83
58.4432	546.10
58.4577	552.45
58.4721	557.30
58.4865	538.42
58.5010	558.21
58.5154	543.39
58.5299	558.63
58.5443	573.81
58.5587	540.37
58.5732	526.11
58.5876	524.92
58.6021	507.48
58.6165	508.84
58.6309	533.91
58.6454	563.26
58.6598	524.85
58.6743	513.37
58.6887	512.84
58.7031	535.29
58.7176	536.43
58.7320	523.21
58.7465	495.52
58.7609	530.20
58.7753	550.15
58.7898	564.07
58.8042	545.87
58.8187	528.98
58.8331	520.62
58.8475	547.58
58.8620	550.17
58.8764	531.86
58.8909	526.24
58.9053	553.21
58.9197	524.85
58.9342	524.30
58.9486	551.05
58.9631	477.26
58.9775	497.73
58.9919	529.01
59.0064	546.09
59.0208	557.10
59.0353	537.09
59.0497	509.09
59.0641	541.81
59.0786	556.44
59.0930	555.69
59.1075	571.89
59.1219	540.77
59.1363	563.39
59.1508	563.11
59.1652	538.15
59.1797	532.96
59.1941	548.02
59.2085	556.49
59.2230	522.46
59.2374	551.70
59.2519	554.03
59.2663	542.55
59.2807	550.37
59.2952	567.15
59.3096	564.63
59.3241	574.52
59.3385	577.33
59.3529	620.68
59.3674	605.59
59.3818	542.07
59.3963	564.40
59.4107	564.80
59.4251	553.78
59.4396	537.80
59.4540	570.01
59.4685	585.68
59.4829	576.80
59.4973	589.30
59.5118	574.48
59.5262	577.16
59.5407	557.19
59.5551	574.79
59.5695	578.55
59.5840	563.88
59.5984	566.50
59.6129	564.95
59.6273	524.27
59.6417	524.12
59.6562	559.10
59.6706	520.86
59.6851	511.02
59.6995	544.83
59.7139	535.58
59.7284	549.26
59.7428	512.85
59.7573	526.62
59.7717	517.98
59.7861	548.17
59.8006	565.44
59.8150	527.52
59.8295	573.04
59.8439	560.01
59.8583	549.28
59.8728	554.55
59.8872	562.80
59.9017	574.68
59.9161	555.24
59.9305	538.01
59.9450	564.90
59.9594	553.68
59.9739	507.73
59.9883	566.79
60.0027	566.83
60.0172	564.07
60.0316	541.03
60.0461	532.87
60.0605	555.59
60.0750	519.07
60.0894	569.44
60.1038	536.44
60.1183	522.62
60.1327	541.89
60.1472	472.43
60.1616	506.14
60.1760	544.57
60.1905	520.65
60.2049	522.01
60.2194	526.24
60.2338	540.73
60.2482	526.39
60.2627	546.77
60.2771	548.32
60.2916	558.24
60.3060	525.58
60.3204	545.83
60.3349	555.20
60.3493	508.92
60.3638	530.38
60.3782	505.64
60.3926	519.22
60.4071	511.40
60.4215	503.14
60.4360	531.67
60.4504	526.53
60.4648	551.27
60.4793	533.47
60.4937	537.78
60.5082	548.57
60.5226	560.43
60.5370	515.02
60.5515	565.36
60.5659	517.93
60.5804	511.84
60.5948	538.07
60.6092	547.89
60.6237	543.21
60.6381	548.09
60.6526	574.08
60.6670	537.41
60.6814	504.18
60.6959	552.79
60.7103	539.59
60.7248	559.80
60.7392	554.73
60.7536	552.64
60.7681	539.78
60.7825	546.83
60.7970	537.70
60.8114	556.73
60.8258	541.78
60.8403	527.10
60.8547	557.95
60.8692	548.96
60.8836	596.18
60.8980	570.44
60.9125	528.89
60.9269	512.65
60.9414	539.77
60.9558	553.38
60.9702	551.09
60.9847	572.62
60.9991	546.36
61.0136	530.43
61.0280	504.47
61.0424	512.05
61.0569	588.47
61.0713	575.41
61.0858	574.84
61.1002	538.78
61.1146	579.99
61.1291	551.98
61.1435	511.46
61.1580	506.69
61.1724	539.37
61.1868	551.78
61.2013	587.23
61.2157	557.46
61.2302	526.09
61.2446	560.20
61.2590	557.57
61.2735	570.62
61.2879	560.51
61.3024	546.17
61.3168	565.14
61.3312	553.84
61.3457	533.44
61.3601	550.55
61.3746	549.05
61.3890	545.84
61.4034	534.07
61.4179	570.22
61.4323	545.60
61.4468	557.50
61.4612	553.20
61.4756	528.20
61.4901	529.54
61.5045	519.73
61.5190	544.57
61.5334	544.87
61.5478	553.05
61.5623	545.50
61.5767	500.15
61.5912	553.89
61.6056	549.30
61.6200	556.88
61.6345	584.75
61.6489	536.11
61.6634	514.31
61.6778	543.57
61.6922	525.08
61.7067	540.77
61.7211	532.40
61.7356	541.43
61.7500	566.88
61.7644	542.17
61.7789	585.35
61.7933	546.08
61.8078	561.22
61.8222	576.61
61.8366	557.15
61.8511	585.82
61.8655	560.75
61.8800	557.46
61.8944	582.34
61.9088	584.79
61.9233	579.86
61.9377	557.00
61.9522	578.19
61.9666	583.90
61.9810	560.23
61.9955	548.87
62.0099	544.18
62.0244	533.13
62.0388	585.68
62.0532	547.19
62.0677	571.93
62.0821	581.84
62.0966	591.49
62.1110	534.17
62.1254	533.19
62.1399	555.59
62.1543	524.26
62.1688	552.11
62.1832	554.69
62.1976	488.52
62.2121	526.58
62.2265	548.70
62.2410	601.47
62.2554	554.17
62.2698	567.65
62.2843	557.80
62.2987	527.52
62.3132	530.49
62.3276	554.55
62.3420	563.67
62.3565	538.69
62.3709	525.86
62.3854	545.09
62.3998	557.35
62.4142	597.55
62.4287	598.02
62.4431	571.32
62.4576	544.60
62.4720	560.21
62.4864	601.50
62.5009	555.12
62.5153	543.79
62.5298	539.76
62.5442	575.36
62.5586	570.95
62.5731	590.65
62.5875	557.17
62.6020	532.93
62.6164	536.68
62.6308	571.17
62.6453	556.32
62.6597	553.17
62.6742	548.52
62.6886	527.29
62.7030	582.90
62.7175	574.90
62.7319	544.22
62.7464	562.06
62.7608	570.17
62.7752	575.59
62.7897	605.29
62.8041	558.06
62.8186	559.35
62.8330	558.05
62.8474	550.32
62.8619	559.18
62.8763	590.76
62.8908	583.43
62.9052	575.27
62.9196	539.85
62.9341	556.59
62.9485	544.12
62.9630	538.99
62.9774	562.09
62.9918	551.05
63.0063	567.14
63.0207	562.46
63.0352	568.16
63.0496	554.31
63.0640	558.98
63.0785	549.16
63.0929	572.42
63.1074	556.28
63.1218	578.63
63.1362	586.29
63.1507	543.74
63.1651	574.57
63.1796	578.68
63.1940	599.94
63.2084	579.36
63.2229	574.09
63.2373	595.93
63.2518	580.71
63.2662	593.69
63.2806	587.10
63.2951	569.05
63.3095	590.41
63.3240	597.66
63.3384	601.82
63.3528	616.40
63.3673	599.29
63.3817	579.75
63.3962	566.12
63.4106	591.62
63.4250	637.56
63.4395	588.12
63.4539	610.70
63.4684	623.12
63.4828	627.04
63.4972	608.32
63.5117	592.99
63.5261	583.57
63.5406	588.18
63.5550	589.23
63.5694	585.05
63.5839	574.17
63.5983	603.94
63.6128	624.41
63.6272	603.23
63.6416	617.46
63.6561	615.61
63.6705	639.07
63.6850	656.04
63.6994	670.46
63.7138	663.95
63.7283	628.82
63.7427	641.20
63.7572	650.79
63.7716	664.74
63.7861	696.27
63.8005	737.72
63.8149	794.63
63.8294	774.27
63.8438	799.11
63.8583	880.37
63.8727	890.52
63.8871	819.68
63.9016	852.52
63.9160	897.13
63.9305	825.17
63.9449	844.90
63.9593	820.12
63.9738	782.99
63.9882	817.12
64.0027	752.44
64.0171	773.44
64.0315	783.47
64.0460	764.59
64.0604	817.02
64.0749	752.70
64.0893	726.92
64.1037	731.93
64.1182	764.56
64.1326	738.38
64.1471	671.66
64.1615	677.13
64.1759	672.83
64.1904	664.03
64.2048	673.99
64.2193	625.98
64.2337	663.01
64.2481	670.17
64.2626	644.10
64.2770	618.19
64.2915	566.77
64.3059	640.21
64.3203	606.39
64.3348	630.97
64.3492	622.61
64.3637	624.46
64.3781	645.14
64.3925	660.97
64.4070	645.45
64.4214	662.95
64.4359	648.67
64.4503	654.47
64.4647	644.96
64.4792	626.59
64.4936	613.46
64.5081	659.69
64.5225	659.97
64.5369	631.71
64.5514	611.98
64.5658	631.32
64.5803	636.53
64.5947	636.27
64.6091	653.66
64.6236	656.82
64.6380	684.95
64.6525	639.29
64.6669	676.67
64.6813	672.86
64.6958	733.61
64.7102	704.42
64.7247	679.54
64.7391	702.32
64.7535	715.49
64.7680	705.76
64.7824	687.69
64.7969	711.31
64.8113	738.62
64.8257	774.21
64.8402	784.12
64.8546	797.98
64.8691	858.36
64.8835	867.30
64.8979	892.27
64.9124	861.05
64.9268	892.99
64.9413	930.77
64.9557	951.09
64.9701	993.37
64.9846	1065.69
64.9990	1106.33
65.0135	1294.44
65.0279	1504.05
65.0423	1699.03
65.0568	2179.88
65.0712	2710.09
65.0857	3452.93
65.1001	4752.89
65.1145	6323.08
65.1290	8281.21
65.1434	9708.28
65.1579	11262.81
65.1723	11900.34
65.1867	11270.23
65.2012	9763.31
65.2156	8251.30
65.2301	6509.44
65.2445	5199.54
65.2589	4493.93
65.2734	4292.35
65.2878	4444.54
65.3023	5072.91
65.3167	5800.08
65.3311	6595.50
65.3456	7069.49
65.3600	7036.41
65.3745	6254.02
65.3889	5422.68
65.4033	4295.21
65.4178	3407.02
65.4322	2714.36
65.4467	2116.14
65.4611	1722.81
65.4755	1499.91
65.4900	1238.97
65.5044	1140.80
65.5189	1028.10
65.5333	978.97
65.5477	941.26
65.5622	922.05
65.5766	878.91
65.5911	821.45
65.6055	852.26
65.6199	806.14
65.6344	738.05
65.6488	753.71
65.6633	730.52
65.6777	733.13
65.6921	725.15
65.7066	699.03
65.7210	716.21
65.7355	687.39
65.7499	658.30
65.7643	693.38
65.7788	669.84
65.7932	664.50
65.8077	667.84
65.8221	672.96
65.8365	648.56
65.8510	641.48
65.8654	672.90
65.8799	607.49
65.8943	667.56
65.9087	659.95
65.9232	640.90
65.9376	633.71
65.9521	622.14
65.9665	649.62
65.9809	629.95
65.9954	635.50
66.0098	613.72
66.0243	628.86
66.0387	678.34
66.0531	647.06
66.0676	616.73
66.0820	630.26
66.0965	635.47
66.1109	633.66
66.1253	617.72
66.1398	597.82
66.1542	638.83
66.1687	628.50
66.1831	620.94
66.1975	630.79
66.2120	630.63
66.2264	664.81
66.2409	599.45
66.2553	587.17
66.2697	597.11
66.2842	610.65
66.2986	613.11
66.3131	589.12
66.3275	602.03
66.3419	642.91
66.3564	628.28
66.3708	632.65
66.3853	621.75
66.3997	568.68
66.4141	622.78
66.4286	637.90
66.4430	632.01
66.4575	576.59
66.4719	571.85
66.4863	599.16
66.5008	585.62
66.5152	552.08
66.5297	580.01
66.5441	589.17
66.5585	612.33
66.5730	582.52
66.5874	612.91
66.6019	614.96
66.6163	598.03
66.6307	596.23
66.6452	591.37
66.6596	616.24
66.6741	600.12
66.6885	588.73
66.7029	597.24
66.7174	643.42
66.7318	608.67
66.7463	616.07
66.7607	601.36
66.7751	599.11
66.7896	618.87
66.8040	614.46
66.8185	600.36
66.8329	583.62
66.8473	577.38
66.8618	613.56
66.8762	589.53
66.8907	583.37
66.9051	575.80
66.9195	571.39
66.9340	574.99
66.9484	584.66
66.9629	564.92
66.9773	565.77
66.9917	559.17
67.0062	592.18
67.0206	594.54
67.0351	564.81
67.0495	583.59
67.0639	579.02
67.0784	583.36
67.0928	573.51
67.1073	555.36
67.1217	601.92
67.1361	593.78
67.1506	553.93
67.1650	573.36
67.1795	595.03
67.1939	600.72
67.2083	600.52
67.2228	557.79
67.2372	552.30
67.2517	580.69
67.2661	573.87
67.2805	578.97
67.2950	583.01
67.3094	584.80
67.3239	566.19
67.3383	548.39
67.3527	579.63
67.3672	572.68
67.3816	569.64
67.3961	548.50
67.4105	573.44
67.4250	597.87
67.4394	591.91
67.4538	610.41
67.4683	610.96
67.4827	622.23
67.4972	609.48
67.5116	572.80
67.5260	581.49
67.5405	585.59
67.5549	580.06
67.5694	542.01
67.5838	560.52
67.5982	624.08
67.6127	601.92
67.6271	607.00
67.6416	606.46
67.6560	599.29
67.6704	565.25
67.6849	577.83
67.6993	587.98
67.7138	594.53
67.7282	576.25
67.7426	586.70
67.7571	584.06
67.7715	602.50
67.7860	576.99
67.8004	590.10
67.8148	567.35
67.8293	565.59
67.8437	555.77
67.8582	569.47
67.8726	594.54
67.8870	576.45
67.9015	563.10
67.9159	552.31
67.9304	593.57
67.9448	612.48
67.9592	555.73
67.9737	545.47
67.9881	586.69
68.0026	545.07
68.0170	557.22
68.0314	614.41
68.0459	597.32
68.0603	582.15
68.0748	556.70
68.0892	605.92
68.1036	585.36
68.1181	643.11
68.1325	615.96
68.1470	564.00
68.1614	574.59
68.1758	584.88
68.1903	572.88
68.2047	565.78
68.2192	576.40
68.2336	594.74
68.2480	561.64
68.2625	568.96
68.2769	615.68
68.2914	616.52
68.3058	593.56
68.3202	598.93
68.3347	555.98
68.3491	558.22
68.3636	604.20
68.3780	582.84
68.3924	574.16
68.4069	520.03
68.4213	607.18
68.4358	570.66
68.4502	581.20
68.4646	572.60
68.4791	600.51
68.4935	567.04
68.5080	566.67
68.5224	556.83
68.5368	566.24
68.5513	579.21
68.5657	530.28
68.5802	581.08
68.5946	624.71
68.6090	603.58
68.6235	580.72
68.6379	558.86
68.6524	528.46
68.6668	592.18
68.6812	546.00
68.6957	597.28
68.7101	593.97
68.7246	598.61
68.7390	604.15
68.7534	568.53
68.7679	580.73
68.7823	566.61
68.7968	581.86
68.8112	586.61
68.8256	611.52
68.8401	605.27
68.8545	582.08
68.8690	587.28
68.8834	567.54
68.8978	621.68
68.9123	575.41
68.9267	567.29
68.9412	584.54
68.9556	560.02
68.9700	534.96
68.9845	556.81
68.9989	603.01
69.0134	595.84
69.0278	586.99
69.0422	625.89
69.0567	576.02
69.0711	565.97
69.0856	570.04
69.1000	581.50
69.1144	625.83
69.1289	612.29
69.1433	553.50
69.1578	568.73
69.1722	554.81
69.1866	578.81
69.2011	621.56
69.2155	593.55
69.2300	591.47
69.2444	596.80
69.2588	631.64
69.2733	561.29
69.2877	566.45
69.3022	532.47
69.3166	549.39
69.3310	552.65
69.3455	602.03
69.3599	579.95
69.3744	579.90
69.3888	544.03
69.4032	582.10
69.4177	554.03
69.4321	592.51
69.4466	589.45
69.4610	588.68
69.4754	620.60
69.4899	561.48
69.5043	587.86
69.5188	584.00
69.5332	592.12
69.5476	569.39
69.5621	623.45
69.5765	589.90
69.5910	585.74
69.6054	556.94
69.6198	587.15
69.6343	591.15
69.6487	568.75
69.6632	542.17
69.6776	567.22
69.6920	566.93
69.7065	605.98
69.7209	539.13
69.7354	526.54
69.7498	573.77
69.7642	563.16
69.7787	604.71
69.7931	574.22
69.8076	597.62
69.8220	598.60
69.8364	612.20
69.8509	536.82
69.8653	531.22
69.8798	532.58
69.8942	569.23
69.9086	593.74
69.9231	592.22
69.9375	586.81
69.9520	595.40
69.9664	571.99
69.9808	578.12
69.9953	572.03
70.0097	528.35
70.0242	569.68
70.0386	590.43
70.0530	596.06
70.0675	538.87
70.0819	537.61
70.0964	591.35
70.1108	581.07
70.1252	578.93
70.1397	563.01
70.1541	558.84
70.1686	551.93
70.1830	591.91
70.1974	545.89
70.2119	546.87
70.2263	516.26
70.2408	564.04
70.2552	542.10
70.2696	566.10
70.2841	617.47
70.2985	631.36
70.3130	589.78
70.3274	578.54
70.3418	568.61
70.3563	580.67
70.3707	559.76
70.3852	546.18
70.3996	527.23
70.4140	582.53
70.4285	586.66
70.4429	524.80
70.4574	560.93
70.4718	608.61
70.4862	610.87
70.5007	591.61
70.5151	574.69
70.5296	576.46
70.5440	569.77
70.5584	561.62
70.5729	583.05
70.5873	593.95
70.6018	529.17
70.6162	587.33
70.6306	591.79
70.6451	570.20
70.6595	577.82
70.6740	598.88
70.6884	607.32
70.7028	622.01
70.7173	621.94
70.7317	587.94
70.7462	609.46
70.7606	596.21
70.7750	587.30
70.7895	588.57
70.8039	568.91
70.8184	645.38
70.8328	652.85
70.8472	516.88
70.8617	563.44
70.8761	529.57
70.8906	528.74
70.9050	640.37
70.9194	624.52
70.9339	584.14
70.9483	552.84
70.9628	573.39
70.9772	566.12
70.9916	557.28
71.0061	561.27
71.0205	593.77
71.0350	609.95
71.0494	604.76
71.0638	583.46
71.0783	558.33
71.0927	568.60
71.1072	602.59
71.1216	638.75
71.1361	631.08
71.1505	571.52
71.1649	570.43
71.1794	606.64
71.1938	605.77
71.2083	550.88
71.2227	489.69
71.2371	527.74
71.2516	581.80
71.2660	560.79
71.2805	568.75
71.2949	590.40
71.3093	535.78
71.3238	561.67
71.3382	605.06
71.3527	574.90
71.3671	584.16
71.3815	588.17
71.3960	624.63
71.4104	613.54
71.4249	600.49
71.4393	586.46
71.4537	537.96
71.4682	545.40
71.4826	534.69
71.4971	492.45
71.5115	563.55
71.5259	569.75
71.5404	528.08
71.5548	539.93
71.5693	597.27
71.5837	596.48
71.5981	523.18
71.6126	530.30
71.6270	571.85
71.6415	585.28
71.6559	576.02
71.6703	558.76
71.6848	514.98
71.6992	618.79
71.7137	632.10
71.7281	572.12
71.7425	626.49
71.7570	638.71
71.7714	606.37
71.7859	604.65
71.8003	562.97
71.8147	591.81
71.8292	603.29
71.8436	570.15
71.8581	555.37
71.8725	595.54
71.8869	579.74
71.9014	627.89
71.9158	614.08
71.9303	582.58
71.9447	550.02
71.9591	536.81
71.9736	617.13
71.9880	602.88
72.0025	582.53
72.0169	621.12
72.0313	546.51
72.0458	519.00
72.0602	562.86
72.0747	539.01
72.0891	594.86
72.1035	640.59
72.1180	592.98
72.1324	561.15
72.1469	526.01
72.1613	588.65
72.1757	615.35
72.1902	591.30
72.2046	543.43
72.2191	528.13
72.2335	551.59
72.2479	589.43
72.2624	533.25
72.2768	487.51
72.2913	577.47
72.3057	538.08
72.3201	498.68
72.3346	562.26
72.3490	578.83
72.3635	549.02
72.3779	538.64
72.3923	544.12
72.4068	608.28
72.4212	588.68
72.4357	589.21
72.4501	593.15
72.4645	609.26
72.4790	629.56
72.4934	598.54
72.5079	639.63
72.5223	603.02
72.5367	534.84
72.5512	539.52
72.5656	579.08
72.5801	605.81
72.5945	565.75
72.6089	549.75
72.6234	565.02
72.6378	585.34
72.6523	612.45
72.6667	648.43
72.6811	581.40
72.6956	546.69
72.7100	569.17
72.7245	552.09
72.7389	610.50
72.7533	607.04
72.7678	510.06
72.7822	574.21
72.7967	560.65
72.8111	543.55
72.8255	586.38
72.8400	534.17
72.8544	522.97
72.8689	597.28
72.8833	607.00