2022.09.19 19:37:16
Îáðàçåö: ß÷åéêà LCoV 16-09-2022
Lambda1 = 1.54060
Lambda2 = 1.54439
Lambdam = 1.54186
R = 0.497
2Theta	I

line¹ 0 ;repeat¹ 0
22.1120	561.06
22.1264	538.08
22.1409	590.23
22.1553	514.80
22.1697	582.01
22.1842	567.81
22.1986	560.53
22.2131	575.09
22.2275	609.20
22.2419	521.41
22.2564	514.15
22.2708	592.04
22.2853	644.74
22.2997	534.95
22.3141	655.21
22.3286	602.99
22.3430	521.46
22.3575	554.37
22.3719	522.94
22.3863	527.60
22.4008	577.38
22.4152	593.54
22.4297	705.83
22.4441	695.48
22.4585	646.43
22.4730	556.31
22.4874	582.69
22.5019	656.41
22.5163	625.32
22.5307	613.48
22.5452	599.96
22.5596	613.49
22.5741	592.35
22.5885	596.90
22.6029	592.94
22.6174	567.51
22.6318	617.79
22.6463	607.41
22.6607	634.82
22.6751	584.84
22.6896	559.10
22.7040	552.32
22.7185	554.43
22.7329	544.57
22.7473	620.54
22.7618	585.63
22.7762	631.13
22.7907	631.27
22.8051	614.72
22.8195	548.13
22.8340	579.01
22.8484	520.65
22.8629	531.65
22.8773	479.05
22.8917	615.39
22.9062	619.65
22.9206	537.68
22.9351	573.59
22.9495	586.77
22.9639	554.69
22.9784	612.52
22.9928	572.88
23.0073	489.94
23.0217	540.26
23.0361	543.11
23.0506	458.06
23.0650	528.15
23.0795	598.10
23.0939	570.76
23.1083	548.72
23.1228	551.94
23.1372	533.21
23.1517	548.34
23.1661	522.52
23.1806	661.64
23.1950	531.56
23.2094	559.73
23.2239	514.35
23.2383	616.55
23.2528	493.73
23.2672	519.14
23.2816	546.52
23.2961	573.65
23.3105	563.35
23.3250	533.75
23.3394	612.47
23.3538	584.74
23.3683	586.04
23.3827	527.83
23.3972	484.25
23.4116	564.75
23.4260	555.81
23.4405	506.27
23.4549	655.77
23.4694	626.50
23.4838	637.72
23.4982	567.49
23.5127	518.60
23.5271	554.29
23.5416	515.20
23.5560	588.55
23.5704	532.86
23.5849	597.58
23.5993	597.41
23.6138	580.08
23.6282	495.18
23.6426	558.59
23.6571	570.41
23.6715	488.82
23.6860	514.25
23.7004	511.88
23.7148	552.57
23.7293	579.38
23.7437	586.45
23.7582	618.14
23.7726	606.41
23.7870	545.26
23.8015	520.90
23.8159	537.81
23.8304	605.33
23.8448	495.03
23.8592	595.21
23.8737	584.76
23.8881	537.73
23.9026	520.30
23.9170	530.64
23.9314	536.36
23.9459	583.77
23.9603	507.97
23.9748	486.88
23.9892	549.77
24.0036	550.32
24.0181	581.69
24.0325	628.09
24.0470	614.55
24.0614	657.32
24.0758	576.27
24.0903	570.40
24.1047	569.84
24.1192	602.49
24.1336	583.27
24.1480	557.94
24.1625	621.46
24.1769	565.94
24.1914	536.26
24.2058	617.95
24.2202	546.63
24.2347	558.04
24.2491	588.65
24.2636	519.14
24.2780	617.35
24.2924	561.47
24.3069	657.77
24.3213	584.59
24.3358	603.64
24.3502	568.43
24.3646	593.36
24.3791	529.07
24.3935	557.90
24.4080	509.20
24.4224	581.74
24.4368	578.10
24.4513	568.58
24.4657	597.75
24.4802	493.43
24.4946	569.87
24.5090	568.58
24.5235	558.41
24.5379	593.10
24.5524	589.20
24.5668	521.07
24.5812	543.18
24.5957	593.07
24.6101	571.05
24.6246	510.18
24.6390	493.59
24.6534	567.39
24.6679	572.52
24.6823	515.62
24.6968	515.52
24.7112	528.77
24.7256	577.75
24.7401	581.14
24.7545	569.78
24.7690	594.47
24.7834	587.02
24.7978	575.02
24.8123	615.83
24.8267	582.54
24.8412	579.98
24.8556	571.79
24.8700	560.16
24.8845	539.68
24.8989	551.78
24.9134	575.88
24.9278	527.30
24.9422	558.39
24.9567	494.06
24.9711	530.72
24.9856	539.76
25.0000	564.03
25.0144	546.79
25.0289	541.59
25.0433	550.64
25.0578	514.73
25.0722	530.79
25.0866	562.13
25.1011	541.23
25.1155	533.46
25.1300	569.40
25.1444	528.63
25.1588	538.13
25.1733	572.80
25.1877	569.26
25.2022	561.44
25.2166	533.95
25.2310	560.42
25.2455	552.04
25.2599	547.63
25.2744	588.88
25.2888	592.32
25.3032	550.93
25.3177	597.00
25.3321	577.09
25.3466	593.61
25.3610	541.68
25.3754	533.57
25.3899	575.04
25.4043	578.08
25.4188	572.12
25.4332	560.74
25.4476	555.87
25.4621	544.50
25.4765	545.76
25.4910	526.01
25.5054	513.20
25.5198	514.15
25.5343	526.91
25.5487	547.46
25.5632	516.43
25.5776	535.80
25.5920	553.09
25.6065	581.56
25.6209	529.42
25.6354	537.89
25.6498	561.41
25.6642	523.79
25.6787	536.97
25.6931	522.16
25.7076	538.79
25.7220	550.24
25.7364	554.26
25.7509	531.73
25.7653	520.29
25.7798	559.14
25.7942	540.75
25.8086	555.57
25.8231	551.08
25.8375	527.96
25.8520	570.90
25.8664	532.21
25.8808	527.07
25.8953	557.35
25.9097	531.09
25.9242	506.97
25.9386	565.97
25.9530	512.60
25.9675	510.50
25.9819	504.59
25.9964	500.90
26.0108	543.25
26.0252	567.04
26.0397	525.22
26.0541	536.57
26.0686	536.96
26.0830	533.77
26.0974	563.95
26.1119	562.84
26.1263	572.28
26.1408	554.09
26.1552	541.48
26.1696	533.36
26.1841	538.33
26.1985	531.96
26.2130	494.26
26.2274	516.27
26.2418	520.51
26.2563	514.43
26.2707	579.59
26.2852	549.12
26.2996	554.16
26.3140	571.92
26.3285	562.23
26.3429	531.59
26.3574	524.35
26.3718	529.14
26.3862	537.10
26.4007	501.37
26.4151	518.87
26.4296	524.33
26.4440	534.08
26.4584	537.51
26.4729	570.31
26.4873	550.28
26.5018	511.36
26.5162	559.88
26.5306	558.60
26.5451	539.55
26.5595	517.93
26.5740	562.24
26.5884	548.86
26.6028	556.20
26.6173	528.93
26.6317	531.75
26.6462	566.28
26.6606	553.84
26.6750	530.83
26.6895	529.14
26.7039	544.98
26.7184	534.59
26.7328	494.49
26.7472	517.00
26.7617	507.03
26.7761	510.54
26.7906	555.79
26.8050	528.56
26.8194	544.40
26.8339	557.98
26.8483	536.08
26.8628	519.86
26.8772	514.08
26.8917	518.25
26.9061	526.30
26.9205	517.18
26.9350	527.68
26.9494	529.76
26.9639	525.71
26.9783	504.43
26.9927	528.73
27.0072	536.81
27.0216	530.33
27.0361	542.87
27.0505	541.95
27.0649	539.90
27.0794	550.73
27.0938	544.65
27.1083	520.95
27.1227	496.83
27.1371	524.44
27.1516	510.23
27.1660	547.81
27.1805	524.77
27.1949	538.99
27.2093	516.95
27.2238	519.16
27.2382	535.55
27.2527	515.32
27.2671	517.28
27.2815	536.60
27.2960	506.99
27.3104	526.25
27.3249	528.64
27.3393	507.85
27.3537	522.27
27.3682	510.13
27.3826	525.83
27.3971	501.90
27.4115	487.52
27.4259	568.64
27.4404	558.38
27.4548	523.66
27.4693	545.10
27.4837	496.64
27.4981	499.82
27.5126	504.40
27.5270	521.52
27.5415	532.68
27.5559	532.51
27.5703	547.91
27.5848	517.27
27.5992	527.37
27.6137	523.92
27.6281	514.20
27.6425	537.91
27.6570	515.21
27.6714	481.13
27.6859	528.90
27.7003	544.29
27.7147	518.44
27.7292	500.09
27.7436	504.81
27.7581	489.45
27.7725	531.36
27.7869	542.70
27.8014	504.22
27.8158	545.88
27.8303	556.61
27.8447	515.71
27.8591	541.79
27.8736	529.09
27.8880	510.06
27.9025	564.10
27.9169	532.22
27.9313	505.99
27.9458	526.93
27.9602	546.69
27.9747	505.63
27.9891	511.76
28.0035	538.59
28.0180	495.30
28.0324	523.45
28.0469	554.16
28.0613	522.46
28.0757	512.45
28.0902	538.81
28.1046	487.04
28.1191	521.67
28.1335	505.01
28.1479	505.37
28.1624	528.10
28.1768	514.73
28.1913	479.85
28.2057	497.77
28.2201	535.91
28.2346	531.11
28.2490	514.73
28.2635	527.61
28.2779	524.13
28.2923	505.03
28.3068	521.45
28.3212	528.08
28.3357	542.84
28.3501	511.02
28.3645	532.00
28.3790	492.12
28.3934	479.72
28.4079	521.40
28.4223	551.69
28.4367	550.08
28.4512	534.00
28.4656	508.14
28.4801	485.80
28.4945	505.22
28.5089	510.83
28.5234	513.60
28.5378	499.91
28.5523	506.96
28.5667	529.99
28.5811	514.39
28.5956	493.62
28.6100	504.01
28.6245	536.77
28.6389	556.54
28.6533	521.18
28.6678	482.28
28.6822	518.42
28.6967	533.34
28.7111	534.51
28.7255	520.17
28.7400	494.73
28.7544	514.74
28.7689	492.13
28.7833	486.20
28.7977	514.84
28.8122	507.56
28.8266	519.37
28.8411	513.72
28.8555	524.72
28.8699	533.83
28.8844	513.96
28.8988	508.69
28.9133	473.45
28.9277	520.04
28.9421	478.77
28.9566	479.48
28.9710	498.47
28.9855	526.10
28.9999	521.20
29.0143	520.58
29.0288	523.46
29.0432	532.34
29.0577	528.50
29.0721	505.37
29.0865	543.30
29.1010	496.61
29.1154	524.62
29.1299	514.74
29.1443	511.65
29.1587	501.89
29.1732	491.07
29.1876	506.73
29.2021	478.52
29.2165	525.56
29.2309	537.23
29.2454	527.12
29.2598	486.72
29.2743	512.83
29.2887	519.15
29.3031	483.92
29.3176	499.15
29.3320	529.76
29.3465	531.50
29.3609	513.77
29.3753	517.78
29.3898	527.91
29.4042	526.53
29.4187	525.29
29.4331	542.11
29.4475	525.00
29.4620	502.01
29.4764	517.46
29.4909	498.79
29.5053	484.97
29.5197	492.37
29.5342	491.88
29.5486	492.20
29.5631	552.42
29.5775	525.50
29.5919	525.38
29.6064	499.84
29.6208	485.25
29.6353	547.64
29.6497	496.75
29.6641	469.07
29.6786	510.83
29.6930	468.71
29.7075	509.76
29.7219	494.47
29.7363	487.91
29.7508	493.75
29.7652	485.25
29.7797	501.52
29.7941	489.67
29.8085	493.57
29.8230	476.73
29.8374	507.70
29.8519	490.82
29.8663	494.53
29.8807	504.56
29.8952	545.11
29.9096	523.18
29.9241	496.17
29.9385	517.94
29.9529	482.24
29.9674	509.90
29.9818	496.25
29.9963	471.54
30.0107	512.11
30.0251	531.00
30.0396	488.79
30.0540	464.22
30.0685	505.01
30.0829	485.07
30.0973	468.22
30.1118	490.61
30.1262	499.33
30.1407	483.08
30.1551	531.15
30.1695	525.80
30.1840	529.67
30.1984	512.40
30.2129	503.37
30.2273	478.66
30.2417	523.08
30.2562	494.50
30.2706	502.44
30.2851	522.90
30.2995	527.19
30.3139	503.10
30.3284	504.08
30.3428	501.86
30.3573	471.80
30.3717	498.72
30.3861	478.90
30.4006	489.91
30.4150	505.51
30.4295	539.00
30.4439	502.58
30.4583	504.62
30.4728	506.36
30.4872	527.20
30.5017	528.52
30.5161	508.28
30.5305	487.70
30.5450	532.44
30.5594	561.97
30.5739	553.99
30.5883	561.06
30.6028	553.14
30.6172	577.68
30.6316	603.83
30.6461	616.21
30.6605	646.83
30.6750	660.50
30.6894	657.21
30.7038	724.45
30.7183	721.16
30.7327	679.45
30.7472	724.68
30.7616	676.34
30.7760	685.02
30.7905	713.55
30.8049	702.26
30.8194	650.76
30.8338	616.27
30.8482	575.44
30.8627	585.06
30.8771	574.47
30.8916	551.43
30.9060	565.45
30.9204	544.49
30.9349	525.64
30.9493	516.55
30.9638	532.47
30.9782	539.88
30.9926	538.12
31.0071	540.02
31.0215	535.53
31.0360	518.53
31.0504	500.09
31.0648	492.83
31.0793	534.89
31.0937	518.61
31.1082	493.19
31.1226	523.80
31.1370	489.06
31.1515	459.63
31.1659	483.91
31.1804	500.73
31.1948	503.43
31.2092	515.68
31.2237	489.13
31.2381	509.37
31.2526	530.24
31.2670	534.39
31.2814	508.15
31.2959	536.28
31.3103	535.71
31.3248	526.42
31.3392	530.68
31.3536	547.50
31.3681	523.86
31.3825	531.83
31.3970	537.71
31.4114	550.27
31.4258	532.89
31.4403	507.79
31.4547	494.80
31.4692	479.75
31.4836	508.11
31.4980	548.42
31.5125	506.64
31.5269	522.69
31.5414	498.63
31.5558	511.73
31.5702	491.08
31.5847	471.04
31.5991	501.27
31.6136	512.64
31.6280	523.55
31.6424	502.56
31.6569	475.42
31.6713	512.64
31.6858	475.63
31.7002	485.24
31.7146	509.53
31.7291	497.35
31.7435	493.05
31.7580	483.72
31.7724	501.81
31.7868	497.12
31.8013	517.01
31.8157	508.25
31.8302	498.89
31.8446	469.61
31.8590	537.29
31.8735	530.16
31.8879	468.11
31.9024	543.50
31.9168	519.99
31.9312	529.88
31.9457	535.95
31.9601	503.26
31.9746	515.41
31.9890	524.36
32.0034	508.34
32.0179	481.51
32.0323	516.72
32.0468	532.00
32.0612	482.52
32.0756	517.41
32.0901	522.24
32.1045	485.95
32.1190	488.27
32.1334	503.44
32.1478	505.54
32.1623	511.15
32.1767	507.14
32.1912	514.17
32.2056	505.42
32.2200	504.25
32.2345	504.37
32.2489	519.03
32.2634	494.25
32.2778	501.86
32.2922	493.14
32.3067	526.92
32.3211	530.77
32.3356	483.00
32.3500	481.49
32.3644	515.84
32.3789	529.18
32.3933	491.93
32.4078	520.01
32.4222	507.98
32.4366	513.38
32.4511	495.44
32.4655	542.94
32.4800	561.31
32.4944	504.06
32.5088	513.57
32.5233	503.59
32.5377	513.05
32.5522	491.63
32.5666	488.78
32.5810	491.62
32.5955	519.74
32.6099	526.24
32.6244	513.51
32.6388	527.35
32.6532	511.95
32.6677	505.77
32.6821	508.96
32.6966	491.49
32.7110	509.64
32.7254	471.91
32.7399	527.58
32.7543	522.57
32.7688	499.68
32.7832	507.64
32.7976	498.48
32.8121	489.78
32.8265	528.11
32.8410	479.36
32.8554	489.99
32.8698	479.59
32.8843	515.98
32.8987	541.01
32.9132	498.57
32.9276	505.60
32.9420	487.48
32.9565	479.68
32.9709	506.41
32.9854	504.92
32.9998	514.12
33.0142	485.40
33.0287	469.21
33.0431	465.88
33.0576	492.71
33.0720	470.43
33.0864	533.68
33.1009	500.87
33.1153	479.92
33.1298	507.45
33.1442	505.43
33.1586	482.12
33.1731	534.17
33.1875	518.48
33.2020	464.70
33.2164	525.66
33.2308	512.16
33.2453	500.01
33.2597	460.17
33.2742	509.95
33.2886	526.06
33.3030	513.35
33.3175	498.47
33.3319	485.48
33.3464	469.55
33.3608	488.90
33.3752	490.35
33.3897	502.31
33.4041	537.38
33.4186	518.09
33.4330	574.32
33.4474	461.97
33.4619	483.48
33.4763	487.32
33.4908	498.63
33.5052	488.10
33.5196	513.05
33.5341	532.75
33.5485	574.27
33.5630	512.98
33.5774	507.74
33.5918	530.50
33.6063	487.77
33.6207	499.31
33.6352	495.06
33.6496	497.68
33.6640	511.00
33.6785	479.80
33.6929	485.39
33.7074	492.10
33.7218	512.88
33.7362	502.78
33.7507	531.65
33.7651	529.10
33.7796	532.76
33.7940	516.78
33.8084	507.65
33.8229	511.68
33.8373	503.42
33.8518	511.22
33.8662	490.21
33.8806	485.12
33.8951	515.02
33.9095	519.36
33.9240	504.28
33.9384	517.02
33.9528	466.05
33.9673	499.88
33.9817	507.89
33.9962	491.19
34.0106	529.75
34.0250	489.08
34.0395	507.73
34.0539	505.72
34.0684	516.69
34.0828	513.10
34.0972	529.27
34.1117	495.19
34.1261	506.57
34.1406	503.38
34.1550	511.47
34.1694	501.12
34.1839	491.18
34.1983	503.99
34.2128	489.69
34.2272	488.87
34.2417	505.24
34.2561	501.06
34.2705	499.30
34.2850	511.86
34.2994	518.88
34.3139	517.51
34.3283	501.28
34.3427	525.33
34.3572	532.51
34.3716	507.76
34.3861	503.73
34.4005	481.98
34.4149	491.99
34.4294	505.74
34.4438	522.60
34.4583	511.83
34.4727	514.37
34.4871	547.02
34.5016	526.37
34.5160	494.18
34.5305	501.34
34.5449	535.23
34.5593	514.80
34.5738	484.34
34.5882	480.26
34.6027	500.67
34.6171	493.28
34.6315	519.94
34.6460	527.54
34.6604	546.20
34.6749	481.87
34.6893	508.60
34.7037	566.43
34.7182	521.39
34.7326	494.12
34.7471	485.83
34.7615	489.28
34.7759	504.82
34.7904	519.80
34.8048	510.59
34.8193	560.54
34.8337	519.08
34.8481	472.43
34.8626	533.42
34.8770	528.46
34.8915	489.43
34.9059	521.49
34.9203	492.99
34.9348	513.39
34.9492	474.62
34.9637	497.78
34.9781	496.89
34.9925	503.99
35.0070	517.31
35.0214	514.28
35.0359	483.99
35.0503	499.23
35.0647	498.29
35.0792	521.40
35.0936	488.19
35.1081	513.80
35.1225	535.67
35.1369	511.24
35.1514	503.38
35.1658	511.73
35.1803	491.80
35.1947	488.71
35.2091	513.60
35.2236	481.95
35.2380	530.02
35.2525	514.01
35.2669	497.08
35.2813	510.29
35.2958	460.91
35.3102	501.09
35.3247	501.84
35.3391	550.21
35.3535	554.92
35.3680	544.10
35.3824	519.26
35.3969	510.15
35.4113	513.89
35.4257	541.26
35.4402	532.49
35.4546	544.92
35.4691	566.56
35.4835	553.40
35.4979	538.88
35.5124	489.76
35.5268	515.12
35.5413	541.83
35.5557	553.32
35.5701	548.72
35.5846	509.39
35.5990	504.38
35.6135	524.88
35.6279	520.94
35.6423	515.82
35.6568	528.95
35.6712	505.37
35.6857	569.46
35.7001	663.61
35.7145	700.46
35.7290	656.87
35.7434	581.86
35.7579	567.98
35.7723	598.45
35.7867	599.32
35.8012	640.84
35.8156	649.03
35.8301	651.19
35.8445	635.51
35.8589	647.61
35.8734	754.61
35.8878	904.31
35.9023	1030.41
35.9167	1014.74
35.9311	1340.40
35.9456	1994.60
35.9600	2385.20
35.9745	2006.46
35.9889	1887.70
36.0033	2230.69
36.0178	2353.62
36.0322	2113.09
36.0467	1860.95
36.0611	1840.33
36.0755	1709.70
36.0900	1775.03
36.1044	1686.45
36.1189	1653.29
36.1333	1551.38
36.1477	1404.52
36.1622	1528.88
36.1766	1507.64
36.1911	1335.56
36.2055	1176.07
36.2199	1084.15
36.2344	1035.95
36.2488	989.01
36.2633	920.43
36.2777	913.95
36.2921	830.45
36.3066	835.60
36.3210	720.30
36.3355	696.37
36.3499	635.64
36.3643	640.87
36.3788	579.97
36.3932	591.61
36.4077	606.54
36.4221	586.18
36.4365	566.13
36.4510	550.43
36.4654	568.82
36.4799	581.53
36.4943	545.47
36.5087	510.29
36.5232	544.62
36.5376	581.91
36.5521	547.55
36.5665	573.75
36.5809	549.42
36.5954	542.63
36.6098	512.46
36.6243	517.93
36.6387	525.17
36.6531	505.35
36.6676	550.33
36.6820	534.51
36.6965	525.61
36.7109	548.28
36.7253	532.06
36.7398	506.71
36.7542	506.65
36.7687	547.71
36.7831	571.33
36.7975	561.00
36.8120	570.55
36.8264	553.74
36.8409	606.09
36.8553	610.87
36.8697	594.78
36.8842	604.08
36.8986	647.81
36.9131	586.39
36.9275	598.48
36.9419	621.52
36.9564	575.37
36.9708	593.84
36.9853	573.53
36.9997	593.07
37.0141	540.98
37.0286	531.39
37.0430	559.93
37.0575	518.51
37.0719	551.21
37.0863	542.80
37.1008	523.75
37.1152	512.24
37.1297	511.75
37.1441	510.32
37.1585	509.30
37.1730	525.22
37.1874	489.57
37.2019	481.37
37.2163	513.58
37.2307	495.01
37.2452	496.06
37.2596	491.68
37.2741	524.56
37.2885	494.67
37.3029	477.67
37.3174	508.47
37.3318	497.28
37.3463	494.87
37.3607	514.27
37.3751	506.86
37.3896	468.27
37.4040	503.51
37.4185	535.85
37.4329	547.09
37.4473	503.86
37.4618	515.96
37.4762	491.35
37.4907	486.00
37.5051	502.59
37.5195	474.52
37.5340	490.19
37.5484	498.03
37.5629	517.57
37.5773	518.73
37.5917	522.53
37.6062	541.81
37.6206	503.42
37.6351	465.58
37.6495	497.34
37.6639	492.84
37.6784	511.83
37.6928	512.68
37.7073	516.00
37.7217	495.06
37.7361	516.30
37.7506	529.55
37.7650	488.50
37.7795	551.25
37.7939	521.28
37.8083	509.20
37.8228	501.24
37.8372	524.51
37.8517	520.60
37.8661	548.58
37.8805	524.95
37.8950	532.02
37.9094	533.30
37.9239	508.60
37.9383	499.36
37.9528	462.98
37.9672	504.69
37.9816	525.08
37.9961	551.49
38.0105	537.26
38.0250	493.04
38.0394	481.92
38.0538	495.32
38.0683	520.61
38.0827	522.63
38.0972	531.19
38.1116	504.20
38.1260	544.75
38.1405	527.23
38.1549	476.52
38.1694	517.12
38.1838	532.37
38.1982	507.00
38.2127	506.14
38.2271	511.21
38.2416	504.34
38.2560	513.10
38.2704	523.86
38.2849	523.92
38.2993	497.72
38.3138	496.99
38.3282	508.02
38.3426	530.46
38.3571	520.32
38.3715	536.13
38.3860	522.47
38.4004	497.55
38.4148	554.84
38.4293	617.11
38.4437	608.41
38.4582	614.67
38.4726	662.31
38.4870	711.76
38.5015	728.06
38.5159	758.58
38.5304	803.49
38.5448	765.77
38.5592	781.67
38.5737	745.79
38.5881	733.68
38.6026	735.70
38.6170	720.50
38.6314	679.58
38.6459	653.88
38.6603	633.85
38.6748	599.37
38.6892	562.88
38.7036	570.26
38.7181	536.93
38.7325	525.27
38.7470	518.75
38.7614	509.71
38.7758	529.27
38.7903	533.27
38.8047	527.69
38.8192	529.23
38.8336	492.39
38.8480	487.96
38.8625	503.23
38.8769	514.47
38.8914	515.31
38.9058	513.43
38.9202	513.34
38.9347	520.52
38.9491	531.29
38.9636	498.67
38.9780	486.62
38.9924	478.75
39.0069	478.45
39.0213	495.69
39.0358	502.06
39.0502	515.20
39.0646	514.61
39.0791	516.07
39.0935	554.63
39.1080	532.97
39.1224	526.19
39.1368	498.76
39.1513	475.66
39.1657	469.47
39.1802	503.68
39.1946	509.72
39.2090	474.87
39.2235	507.84
39.2379	508.52
39.2524	515.58
39.2668	518.72
39.2812	507.65
39.2957	483.15
39.3101	531.59
39.3246	532.08
39.3390	522.86
39.3534	523.54
39.3679	515.80
39.3823	500.65
39.3968	479.88
39.4112	499.90
39.4256	529.76
39.4401	513.67
39.4545	483.48
39.4690	466.88
39.4834	481.48
39.4978	465.39
39.5123	471.49
39.5267	488.14
39.5412	500.37
39.5556	485.53
39.5700	496.46
39.5845	511.83
39.5989	500.77
39.6134	480.37
39.6278	515.07
39.6422	474.90
39.6567	473.16
39.6711	465.50
39.6856	497.00
39.7000	512.52
39.7144	509.58
39.7289	488.53
39.7433	502.63
39.7578	484.90
39.7722	482.77
39.7866	500.11
39.8011	494.60
39.8155	503.13
39.8300	525.10
39.8444	469.50
39.8588	513.79
39.8733	498.34
39.8877	479.22
39.9022	486.12
39.9166	520.10
39.9310	500.52
39.9455	483.26
39.9599	483.94
39.9744	496.59
39.9888	506.36
40.0032	477.08
40.0177	489.44
40.0321	520.72
40.0466	480.40
40.0610	512.18
40.0754	499.15
40.0899	518.96
40.1043	499.45
40.1188	522.68
40.1332	503.72
40.1476	482.31
40.1621	491.76
40.1765	493.37
40.1910	492.04
40.2054	469.11
40.2198	485.54
40.2343	504.02
40.2487	482.33
40.2632	543.67
40.2776	510.87
40.2920	493.59
40.3065	524.25
40.3209	495.27
40.3354	497.23
40.3498	487.15
40.3642	515.44
40.3787	503.33
40.3931	491.43
40.4076	476.48
40.4220	508.11
40.4364	513.86
40.4509	487.76
40.4653	481.96
40.4798	494.61
40.4942	491.26
40.5086	493.57
40.5231	467.51
40.5375	503.41
40.5520	493.58
40.5664	481.33
40.5808	505.25
40.5953	518.14
40.6097	484.10
40.6242	502.78
40.6386	507.23
40.6530	487.54
40.6675	476.89
40.6819	472.91
40.6964	501.47
40.7108	538.33
40.7252	518.04
40.7397	502.87
40.7541	533.01
40.7686	508.15
40.7830	530.00
40.7974	511.45
40.8119	479.86
40.8263	485.52
40.8408	510.07
40.8552	474.93
40.8696	540.16
40.8841	536.77
40.8985	530.50
40.9130	538.13
40.9274	463.50
40.9418	483.26
40.9563	480.52
40.9707	496.24
40.9852	495.08
40.9996	486.74
41.0140	533.82
41.0285	503.20
41.0429	492.09
41.0574	503.97
41.0718	494.11
41.0862	538.48
41.1007	546.42
41.1151	484.81
41.1296	541.12
41.1440	502.52
41.1584	510.54
41.1729	534.71
41.1873	460.63
41.2018	462.91
41.2162	495.15
41.2306	484.64
41.2451	509.60
41.2595	498.64
41.2740	504.77
41.2884	508.25
41.3028	477.09
41.3173	501.81
41.3317	514.63
41.3462	531.83
41.3606	517.02
41.3750	487.51
41.3895	470.38
41.4039	470.94
41.4184	489.98
41.4328	542.42
41.4472	486.73
41.4617	476.66
41.4761	531.51
41.4906	513.37
41.5050	481.83
41.5194	511.24
41.5339	504.48
41.5483	544.93
41.5628	499.70
41.5772	497.76
41.5916	511.58
41.6061	490.74
41.6205	505.29
41.6350	521.79
41.6494	494.15
41.6639	500.79
41.6783	522.53
41.6927	475.05
41.7072	511.87
41.7216	507.71
41.7361	517.97
41.7505	531.88
41.7649	498.07
41.7794	520.97
41.7938	493.68
41.8083	503.87
41.8227	506.30
41.8371	546.81
41.8516	552.60
41.8660	531.60
41.8805	526.29
41.8949	543.23
41.9093	539.83
41.9238	562.14
41.9382	535.03
41.9527	549.43
41.9671	574.66
41.9815	561.39
41.9960	574.34
42.0104	558.73
42.0249	589.51
42.0393	548.49
42.0537	563.04
42.0682	607.81
42.0826	619.41
42.0971	628.79
42.1115	557.77
42.1259	558.78
42.1404	612.60
42.1548	623.15
42.1693	656.43
42.1837	708.68
42.1981	717.17
42.2126	846.14
42.2270	882.38
42.2415	1011.55
42.2559	1191.59
42.2703	1283.95
42.2848	1442.46
42.2992	1543.39
42.3137	1610.34
42.3281	1614.18
42.3425	1558.03
42.3570	1460.72
42.3714	1353.11
42.3859	1331.94
42.4003	1308.73
42.4147	1270.70
42.4292	1257.99
42.4436	1134.27
42.4581	1040.88
42.4725	975.85
42.4869	871.62
42.5014	787.71
42.5158	696.61
42.5303	682.52
42.5447	630.03
42.5591	617.75
42.5736	625.34
42.5880	556.13
42.6025	598.74
42.6169	588.54
42.6313	586.45
42.6458	541.44
42.6602	513.53
42.6747	528.39
42.6891	540.85
42.7035	536.61
42.7180	510.98
42.7324	526.47
42.7469	539.37
42.7613	512.17
42.7757	526.14
42.7902	513.71
42.8046	511.50
42.8191	509.93
42.8335	494.70
42.8479	492.32
42.8624	537.82
42.8768	539.21
42.8913	537.85
42.9057	555.59
42.9201	515.58
42.9346	503.66
42.9490	513.34
42.9635	485.41
42.9779	510.21
42.9923	488.39
43.0068	496.16
43.0212	545.99
43.0357	550.07
43.0501	539.47
43.0645	534.41
43.0790	504.27
43.0934	525.88
43.1079	549.89
43.1223	517.03
43.1367	490.02
43.1512	486.39
43.1656	502.88
43.1801	532.18
43.1945	513.17
43.2089	509.39
43.2234	496.40
43.2378	536.90
43.2523	528.17
43.2667	521.15
43.2811	522.11
43.2956	537.45
43.3100	543.32
43.3245	515.90
43.3389	500.72
43.3533	514.72
43.3678	514.36
43.3822	546.02
43.3967	520.63
43.4111	507.93
43.4255	549.00
43.4400	559.52
43.4544	509.27
43.4689	543.41
43.4833	512.97
43.4977	489.42
43.5122	503.06
43.5266	493.26
43.5411	482.22
43.5555	481.59
43.5699	511.15
43.5844	529.50
43.5988	534.09
43.6133	538.88
43.6277	529.78
43.6421	508.14
43.6566	514.96
43.6710	499.05
43.6855	482.70
43.6999	497.15
43.7143	527.82
43.7288	504.56
43.7432	516.34
43.7577	531.39
43.7721	525.45
43.7865	534.42
43.8010	522.27
43.8154	538.18
43.8299	537.12
43.8443	508.94
43.8587	515.08
43.8732	520.24
43.8876	556.82
43.9021	620.23
43.9165	634.29
43.9309	602.87
43.9454	635.90
43.9598	599.48
43.9743	641.44
43.9887	672.82
44.0031	647.40
44.0176	655.14
44.0320	616.70
44.0465	597.07
44.0609	583.09
44.0753	598.06
44.0898	626.40
44.1042	574.54
44.1187	556.74
44.1331	551.17
44.1475	532.11
44.1620	547.01
44.1764	535.42
44.1909	527.85
44.2053	543.44
44.2197	518.35
44.2342	529.50
44.2486	582.82
44.2631	504.02
44.2775	542.49
44.2919	520.26
44.3064	501.40
44.3208	509.84
44.3353	545.09
44.3497	522.54
44.3641	526.35
44.3786	535.48
44.3930	549.71
44.4075	574.97
44.4219	606.92
44.4363	620.67
44.4508	573.25
44.4652	585.45
44.4797	628.14
44.4941	556.72
44.5085	578.99
44.5230	580.48
44.5374	569.33
44.5519	567.05
44.5663	600.32
44.5807	563.53
44.5952	566.74
44.6096	535.89
44.6241	533.08
44.6385	590.07
44.6529	611.03
44.6674	574.15
44.6818	595.09
44.6963	589.67
44.7107	630.18
44.7251	714.13
44.7396	757.97
44.7540	803.11
44.7685	849.36
44.7829	859.07
44.7973	882.53
44.8118	875.61
44.8262	811.11
44.8407	766.83
44.8551	727.93
44.8695	725.67
44.8840	711.15
44.8984	746.02
44.9129	699.16
44.9273	714.25
44.9417	632.95
44.9562	578.90
44.9706	577.89
44.9851	600.83
44.9995	560.56
45.0139	567.50
45.0284	514.17
45.0428	508.05
45.0573	561.77
45.0717	529.46
45.0861	556.24
45.1006	495.98
45.1150	504.29
45.1295	521.28
45.1439	498.17
45.1583	493.96
45.1728	525.40
45.1872	516.57
45.2017	503.59
45.2161	494.41
45.2305	501.86
45.2450	509.73
45.2594	478.75
45.2739	515.33
45.2883	506.02
45.3028	542.64
45.3172	538.85
45.3316	522.18
45.3461	514.53
45.3605	493.41
45.3750	475.33
45.3894	485.43
45.4038	490.02
45.4183	501.59
45.4327	530.80
45.4472	531.45
45.4616	498.05
45.4760	522.08
45.4905	500.98
45.5049	493.68
45.5194	521.15
45.5338	509.80
45.5482	510.04
45.5627	520.96
45.5771	490.81
45.5916	522.69
45.6060	513.83
45.6204	505.85
45.6349	509.43
45.6493	513.94
45.6638	532.54
45.6782	513.11
45.6926	502.74
45.7071	541.15
45.7215	500.95
45.7360	499.19
45.7504	537.80
45.7648	522.47
45.7793	532.38
45.7937	507.84
45.8082	540.55
45.8226	547.88
45.8370	518.97
45.8515	536.94
45.8659	540.07
45.8804	540.19
45.8948	525.65
45.9092	520.06
45.9237	528.12
45.9381	515.57
45.9526	494.43
45.9670	454.63
45.9814	464.29
45.9959	522.64
46.0103	522.92
46.0248	498.46
46.0392	480.56
46.0536	488.98
46.0681	479.53
46.0825	512.10
46.0970	552.30
46.1114	515.66
46.1258	488.44
46.1403	497.10
46.1547	471.13
46.1692	498.43
46.1836	519.20
46.1980	496.11
46.2125	507.32
46.2269	506.79
46.2414	490.32
46.2558	498.99
46.2702	524.42
46.2847	518.72
46.2991	507.83
46.3136	499.56
46.3280	498.05
46.3424	520.04
46.3569	502.40
46.3713	504.36
46.3858	494.37
46.4002	509.39
46.4146	522.23
46.4291	516.18
46.4435	481.71
46.4580	476.75
46.4724	532.30
46.4868	517.13
46.5013	473.49
46.5157	466.34
46.5302	493.11
46.5446	500.61
46.5590	533.15
46.5735	524.39
46.5879	517.69
46.6024	521.46
46.6168	516.99
46.6312	491.98
46.6457	494.52
46.6601	512.66
46.6746	502.42
46.6890	494.42
46.7034	508.06
46.7179	486.17
46.7323	506.54
46.7468	502.29
46.7612	481.12
46.7756	480.95
46.7901	537.49
46.8045	531.47
46.8190	552.18
46.8334	515.03
46.8478	489.39
46.8623	516.83
46.8767	485.85
46.8912	495.03
46.9056	534.99
46.9200	530.28
46.9345	531.91
46.9489	498.49
46.9634	515.22
46.9778	505.42
46.9922	500.27
47.0067	517.78
47.0211	543.78
47.0356	514.40
47.0500	486.16
47.0644	477.56
47.0789	503.46
47.0933	515.68
47.1078	481.55
47.1222	514.64
47.1366	512.89
47.1511	502.84
47.1655	527.88
47.1800	525.32
47.1944	517.97
47.2088	519.77
47.2233	538.01
47.2377	506.38
47.2522	525.02
47.2666	502.55
47.2810	510.52
47.2955	494.11
47.3099	498.84
47.3244	498.94
47.3388	495.97
47.3532	506.79
47.3677	507.65
47.3821	519.96
47.3966	458.52
47.4110	494.62
47.4254	534.83
47.4399	479.43
47.4543	480.00
47.4688	482.85
47.4832	492.54
47.4976	530.67
47.5121	510.79
47.5265	475.81
47.5410	486.54
47.5554	524.24
47.5698	521.47
47.5843	498.99
47.5987	483.76
47.6132	507.23
47.6276	507.46
47.6420	479.88
47.6565	509.69
47.6709	506.90
47.6854	471.75
47.6998	493.64
47.7142	492.35
47.7287	484.70
47.7431	516.53
47.7576	530.69
47.7720	516.09
47.7864	498.27
47.8009	516.97
47.8153	512.56
47.8298	530.27
47.8442	523.93
47.8586	530.44
47.8731	492.70
47.8875	492.16
47.9020	526.58
47.9164	527.53
47.9308	496.78
47.9453	517.46
47.9597	486.84
47.9742	486.24
47.9886	488.63
48.0030	506.25
48.0175	502.63
48.0319	491.34
48.0464	503.50
48.0608	506.72
48.0752	515.31
48.0897	535.65
48.1041	505.67
48.1186	525.58
48.1330	504.24
48.1474	484.05
48.1619	502.06
48.1763	476.73
48.1908	474.04
48.2052	529.00
48.2196	544.25
48.2341	501.84
48.2485	494.30
48.2630	485.27
48.2774	512.46
48.2918	479.90
48.3063	517.21
48.3207	531.11
48.3352	534.88
48.3496	514.65
48.3640	511.73
48.3785	505.79
48.3929	504.59
48.4074	510.89
48.4218	509.14
48.4362	503.20
48.4507	502.89
48.4651	505.58
48.4796	511.89
48.4940	537.70
48.5084	487.96
48.5229	525.37
48.5373	519.21
48.5518	501.97
48.5662	496.80
48.5806	487.43
48.5951	524.15
48.6095	510.37
48.6240	559.74
48.6384	560.08
48.6528	549.95
48.6673	524.82
48.6817	511.35
48.6962	529.55
48.7106	540.80
48.7250	512.09
48.7395	528.66
48.7539	511.28
48.7684	526.74
48.7828	530.64
48.7972	546.95
48.8117	535.90
48.8261	521.62
48.8406	518.25
48.8550	540.11
48.8694	565.42
48.8839	537.11
48.8983	594.45
48.9128	569.69
48.9272	543.58
48.9416	538.55
48.9561	544.32
48.9705	574.36
48.9850	581.10
48.9994	590.64
49.0139	570.92
49.0283	604.46
49.0427	624.87
49.0572	618.47
49.0716	683.14
49.0861	709.29
49.1005	663.57
49.1149	714.45
49.1294	804.01
49.1438	776.93
49.1583	785.31
49.1727	869.30
49.1871	897.97
49.2016	974.69
49.2160	1088.65
49.2305	1046.80
49.2449	1116.40
49.2593	1207.97
49.2738	1267.98
49.2882	1454.75
49.3027	1531.58
49.3171	1554.93
49.3315	1677.86
49.3460	1745.58
49.3604	1750.01
49.3749	1776.78
49.3893	1737.96
49.4037	1713.61
49.4182	1816.62
49.4326	1782.78
49.4471	1595.18
49.4615	1617.75
49.4759	1521.61
49.4904	1490.16
49.5048	1414.46
49.5193	1306.20
49.5337	1254.55
49.5481	1218.96
49.5626	1121.95
49.5770	1050.91
49.5915	980.23
49.6059	922.60
49.6203	887.44
49.6348	846.77
49.6492	772.41
49.6637	766.13
49.6781	726.57
49.6925	684.17
49.7070	650.44
49.7214	666.03
49.7359	621.68
49.7503	616.55
49.7647	601.07
49.7792	601.22
49.7936	591.09
49.8081	613.71
49.8225	562.46
49.8369	564.53
49.8514	567.82
49.8658	604.37
49.8803	550.10
49.8947	530.09
49.9091	536.91
49.9236	507.40
49.9380	532.73
49.9525	525.69
49.9669	535.93
49.9813	543.60
49.9958	521.43
50.0102	523.65
50.0247	525.40
50.0391	541.66
50.0535	541.87
50.0680	546.87
50.0824	548.04
50.0969	542.92
50.1113	505.08
50.1257	526.85
50.1402	546.08
50.1546	503.20
50.1691	515.97
50.1835	494.49
50.1979	513.58
50.2124	534.12
50.2268	542.72
50.2413	505.19
50.2557	533.84
50.2701	507.12
50.2846	530.79
50.2990	528.17
50.3135	525.16
50.3279	536.84
50.3423	553.43
50.3568	517.88
50.3712	489.20
50.3857	512.85
50.4001	496.90
50.4145	523.06
50.4290	565.70
50.4434	500.95
50.4579	511.83
50.4723	557.13
50.4867	514.42
50.5012	508.64
50.5156	504.15
50.5301	506.58
50.5445	475.41
50.5589	526.26
50.5734	513.01
50.5878	488.75
50.6023	524.24
50.6167	485.12
50.6311	480.71
50.6456	513.24
50.6600	523.93
50.6745	495.62
50.6889	456.73
50.7033	508.13
50.7178	489.85
50.7322	523.96
50.7467	546.67
50.7611	537.80
50.7755	518.65
50.7900	546.54
50.8044	514.48
50.8189	502.40
50.8333	530.94
50.8477	517.38
50.8622	523.60
50.8766	499.72
50.8911	472.05
50.9055	488.09
50.9199	491.40
50.9344	507.78
50.9488	490.17
50.9633	485.53
50.9777	506.95
50.9921	534.76
51.0066	508.89
51.0210	476.45
51.0355	491.12
51.0499	525.31
51.0643	510.27
51.0788	519.26
51.0932	542.55
51.1077	513.83
51.1221	509.23
51.1365	520.48
51.1510	502.32
51.1654	502.20
51.1799	484.39
51.1943	474.42
51.2087	483.58
51.2232	504.87
51.2376	531.49
51.2521	516.19
51.2665	535.75
51.2809	497.22
51.2954	485.60
51.3098	519.98
51.3243	525.14
51.3387	534.63
51.3531	525.23
51.3676	515.10
51.3820	542.72
51.3965	528.08
51.4109	506.63
51.4253	504.22
51.4398	482.52
51.4542	511.10
51.4687	510.07
51.4831	547.74
51.4975	504.15
51.5120	501.27
51.5264	509.13
51.5409	513.23
51.5553	524.45
51.5697	519.28
51.5842	521.91
51.5986	521.61
51.6131	518.97
51.6275	497.69
51.6419	496.24
51.6564	504.82
51.6708	540.35
51.6853	463.81
51.6997	464.85
51.7141	509.30
51.7286	509.05
51.7430	531.12
51.7575	532.53
51.7719	514.00
51.7863	519.68
51.8008	494.65
51.8152	490.91
51.8297	484.85
51.8441	480.81
51.8585	493.48
51.8730	500.41
51.8874	511.58
51.9019	534.36
51.9163	507.14
51.9307	508.11
51.9452	483.17
51.9596	505.65
51.9741	528.86
51.9885	492.25
52.0029	504.57
52.0174	529.24
52.0318	560.16
52.0463	503.39
52.0607	522.70
52.0751	508.87
52.0896	531.76
52.1040	520.05
52.1185	498.57
52.1329	503.93
52.1473	524.53
52.1618	530.28
52.1762	507.84
52.1907	521.11
52.2051	507.86
52.2195	499.72
52.2340	530.69
52.2484	507.38
52.2629	480.38
52.2773	503.31
52.2917	504.04
52.3062	485.31
52.3206	508.91
52.3351	523.84
52.3495	504.38
52.3639	505.27
52.3784	483.35
52.3928	495.20
52.4073	494.74
52.4217	502.40
52.4361	521.11
52.4506	518.79
52.4650	527.96
52.4795	531.13
52.4939	510.11
52.5083	460.80
52.5228	503.98
52.5372	550.63
52.5517	495.29
52.5661	484.71
52.5805	491.53
52.5950	519.11
52.6094	521.11
52.6239	522.17
52.6383	493.66
52.6527	543.14
52.6672	528.19
52.6816	510.77
52.6961	516.66
52.7105	518.97
52.7250	523.19
52.7394	503.91
52.7538	539.69
52.7683	523.79
52.7827	556.20
52.7972	521.33
52.8116	533.18
52.8260	502.73
52.8405	468.50
52.8549	476.50
52.8694	503.88
52.8838	526.86
52.8982	533.21
52.9127	487.71
52.9271	515.69
52.9416	526.19
52.9560	518.48
52.9704	553.91
52.9849	493.00
52.9993	537.45
53.0138	508.15
53.0282	527.25
53.0426	507.81
53.0571	537.44
53.0715	516.39
53.0860	497.86
53.1004	511.73
53.1148	510.25
53.1293	549.84
53.1437	495.95
53.1582	528.69
53.1726	544.21
53.1870	540.78
53.2015	516.18
53.2159	496.65
53.2304	493.39
53.2448	520.85
53.2592	513.33
53.2737	533.14
53.2881	546.27
53.3026	556.01
53.3170	546.26
53.3314	532.34
53.3459	518.73
53.3603	548.16
53.3748	536.50
53.3892	511.95
53.4036	485.04
53.4181	498.85
53.4325	513.30
53.4470	521.48
53.4614	531.37
53.4758	544.30
53.4903	504.71
53.5047	490.07
53.5192	510.70
53.5336	531.66
53.5480	543.42
53.5625	558.26
53.5769	545.94
53.5914	470.50
53.6058	477.86
53.6202	498.33
53.6347	526.96
53.6491	490.62
53.6636	512.58
53.6780	516.51
53.6924	504.43
53.7069	559.52
53.7213	514.95
53.7358	507.97
53.7502	522.70
53.7646	518.22
53.7791	513.02
53.7935	494.83
53.8080	510.77
53.8224	509.88
53.8368	542.71
53.8513	558.89
53.8657	509.08
53.8802	519.03
53.8946	517.96
53.9090	536.58
53.9235	512.83
53.9379	559.57
53.9524	552.30
53.9668	521.91
53.9812	540.98
53.9957	501.10
54.0101	482.22
54.0246	538.24
54.0390	546.50
54.0534	512.78
54.0679	531.11
54.0823	540.31
54.0968	512.50
54.1112	520.80
54.1256	565.83
54.1401	525.67
54.1545	509.43
54.1690	542.74
54.1834	528.52
54.1978	523.95
54.2123	527.26
54.2267	528.71
54.2412	512.66
54.2556	505.72
54.2700	486.85
54.2845	514.21
54.2989	533.13
54.3134	523.56
54.3278	531.85
54.3422	531.72
54.3567	544.95
54.3711	537.56
54.3856	534.60
54.4000	568.83
54.4144	543.12
54.4289	570.89
54.4433	541.39
54.4578	521.41
54.4722	586.20
54.4866	590.82
54.5011	575.41
54.5155	587.78
54.5300	660.07
54.5444	627.79
54.5588	593.83
54.5733	580.12
54.5877	597.37
54.6022	619.18
54.6166	606.95
54.6310	588.61
54.6455	622.43
54.6599	566.08
54.6744	577.13
54.6888	550.62
54.7032	557.29
54.7177	575.11
54.7321	564.43
54.7466	573.97
54.7610	517.82
54.7754	549.51
54.7899	562.07
54.8043	542.51
54.8188	516.27
54.8332	516.51
54.8476	560.27
54.8621	568.83
54.8765	563.63
54.8910	490.72
54.9054	497.11
54.9198	488.10
54.9343	519.72
54.9487	527.88
54.9632	534.58
54.9776	507.66
54.9920	526.76
55.0065	514.94
55.0209	538.55
55.0354	537.97
55.0498	518.88
55.0642	541.12
55.0787	557.70
55.0931	537.71
55.1076	492.29
55.1220	525.97
55.1364	509.19
55.1509	507.40
55.1653	553.48
55.1798	557.97
55.1942	508.79
55.2086	509.09
55.2231	519.66
55.2375	530.64
55.2520	542.49
55.2664	531.55
55.2808	548.90
55.2953	523.43
55.3097	534.73
55.3242	544.29
55.3386	538.46
55.3530	552.19
55.3675	516.42
55.3819	517.70
55.3964	523.25
55.4108	532.48
55.4252	529.45
55.4397	486.39
55.4541	481.30
55.4686	510.53
55.4830	522.98
55.4974	548.35
55.5119	514.97
55.5263	512.16
55.5408	512.67
55.5552	508.83
55.5696	517.24
55.5841	529.76
55.5985	524.09
55.6130	538.15
55.6274	517.56
55.6418	521.85
55.6563	513.30
55.6707	537.05
55.6852	536.59
55.6996	522.59
55.7140	522.96
55.7285	495.99
55.7429	522.07
55.7574	522.78
55.7718	539.52
55.7862	545.95
55.8007	505.84
55.8151	528.97
55.8296	561.40
55.8440	539.45
55.8584	530.15
55.8729	535.72
55.8873	510.42
55.9018	525.29
55.9162	520.65
55.9306	530.15
55.9451	519.71
55.9595	512.07
55.9740	534.82
55.9884	527.40
56.0028	515.15
56.0173	537.97
56.0317	543.47
56.0462	545.27
56.0606	501.14
56.0750	529.92
56.0895	563.18
56.1039	541.57
56.1184	549.31
56.1328	557.37
56.1472	500.90
56.1617	508.85
56.1761	499.14
56.1906	485.18
56.2050	508.14
56.2194	528.93
56.2339	525.95
56.2483	528.81
56.2628	524.56
56.2772	535.54
56.2916	536.12
56.3061	519.52
56.3205	561.90
56.3350	523.41
56.3494	542.61
56.3639	494.75
56.3783	497.73
56.3927	504.56
56.4072	513.04
56.4216	537.96
56.4361	530.94
56.4505	487.91
56.4649	514.22
56.4794	541.10
56.4938	528.94
56.5083	504.71
56.5227	505.53
56.5371	510.11
56.5516	512.44
56.5660	516.94
56.5805	521.17
56.5949	521.60
56.6093	535.77
56.6238	553.67
56.6382	531.62
56.6527	476.10
56.6671	514.19
56.6815	538.67
56.6960	526.81
56.7104	544.45
56.7249	553.95
56.7393	511.66
56.7537	495.77
56.7682	481.06
56.7826	519.80
56.7971	510.20
56.8115	528.45
56.8259	524.01
56.8404	553.50
56.8548	521.15
56.8693	493.37
56.8837	527.89
56.8981	551.11
56.9126	521.34
56.9270	539.47
56.9415	574.60
56.9559	516.45
56.9703	545.09
56.9848	512.09
56.9992	536.18
57.0137	526.27
57.0281	567.31
57.0425	525.16
57.0570	527.29
57.0714	497.24
57.0859	495.57
57.1003	551.94
57.1147	547.33
57.1292	530.72
57.1436	506.82
57.1581	497.41
57.1725	526.83
57.1869	534.73
57.2014	535.99
57.2158	498.21
57.2303	528.82
57.2447	564.05
57.2591	534.16
57.2736	534.63
57.2880	518.82
57.3025	508.38
57.3169	493.82
57.3313	533.49
57.3458	539.65
57.3602	574.30
57.3747	560.54
57.3891	473.51
57.4035	511.66
57.4180	498.58
57.4324	558.00
57.4469	531.70
57.4613	536.64
57.4757	540.59
57.4902	538.22
57.5046	503.54
57.5191	523.72
57.5335	515.05
57.5479	532.00
57.5624	556.23
57.5768	532.60
57.5913	522.22
57.6057	512.85
57.6201	517.94
57.6346	532.91
57.6490	530.85
57.6635	513.80
57.6779	513.91
57.6923	500.38
57.7068	546.17
57.7212	521.36
57.7357	504.92
57.7501	531.12
57.7645	523.96
57.7790	532.66
57.7934	533.93
57.8079	521.40
57.8223	528.85
57.8367	523.54
57.8512	523.76
57.8656	524.04
57.8801	508.67
57.8945	518.34
57.9089	575.51
57.9234	609.04
57.9378	570.00
57.9523	549.69
57.9667	558.60
57.9811	566.32
57.9956	543.96
58.0100	535.91
58.0245	601.36
58.0389	614.40
58.0533	578.10
58.0678	584.97
58.0822	580.52
58.0967	615.23
58.1111	628.60
58.1255	635.31
58.1400	659.94
58.1544	643.34
58.1689	691.80
58.1833	708.84
58.1977	698.58
58.2122	710.89
58.2266	679.20
58.2411	683.98
58.2555	678.02
58.2699	645.78
58.2844	639.75
58.2988	618.68
58.3133	642.58
58.3277	662.34
58.3421	628.21
58.3566	658.54
58.3710	603.16
58.3855	597.71
58.3999	592.20
58.4143	576.43
58.4288	582.16
58.4432	576.43
58.4577	580.01
58.4721	586.58
58.4865	549.03
58.5010	556.91
58.5154	557.93
58.5299	548.64
58.5443	523.06
58.5587	554.63
58.5732	555.17
58.5876	544.85
58.6021	548.38
58.6165	556.26
58.6309	552.91
58.6454	535.27
58.6598	550.03
58.6743	527.88
58.6887	518.99
58.7031	551.47
58.7176	551.97
58.7320	555.55
58.7465	570.61
58.7609	549.07
58.7753	556.19
58.7898	514.97
58.8042	517.97
58.8187	527.51
58.8331	552.67
58.8475	513.20
58.8620	539.38
58.8764	517.42
58.8909	540.77
58.9053	579.46
58.9197	547.23
58.9342	534.89
58.9486	576.22
58.9631	533.29
58.9775	502.30
58.9919	525.15
59.0064	578.48
59.0208	570.98
59.0353	563.42
59.0497	556.23
59.0641	552.47
59.0786	551.86
59.0930	576.92
59.1075	530.59
59.1219	544.41
59.1363	552.55
59.1508	523.07
59.1652	515.58
59.1797	529.83
59.1941	556.91
59.2085	525.61
59.2230	541.50
59.2374	548.88
59.2519	549.01
59.2663	548.52
59.2807	578.41
59.2952	549.28
59.3096	555.26
59.3241	560.56
59.3385	546.59
59.3529	544.21
59.3674	571.35
59.3818	568.01
59.3963	549.10
59.4107	559.73
59.4251	560.70
59.4396	547.34
59.4540	575.41
59.4685	599.19
59.4829	582.22
59.4973	580.27
59.5118	545.52
59.5262	551.03
59.5407	554.49
59.5551	609.14
59.5695	534.78
59.5840	553.59
59.5984	535.60
59.6129	543.70
59.6273	556.12
59.6417	526.26
59.6562	560.31
59.6706	570.75
59.6851	523.68
59.6995	515.28
59.7139	562.76
59.7284	526.33
59.7428	547.56
59.7573	512.86
59.7717	537.50
59.7861	543.99
59.8006	546.53
59.8150	555.78
59.8295	556.69
59.8439	545.64
59.8583	537.43
59.8728	549.46
59.8872	535.12
59.9017	562.20
59.9161	523.98
59.9305	509.72
59.9450	535.55
59.9594	560.46
59.9739	541.15
59.9883	489.62
60.0027	536.45
60.0172	549.75
60.0316	530.21
60.0461	534.67
60.0605	542.46
60.0750	515.84
60.0894	534.63
60.1038	522.83
60.1183	564.18
60.1327	531.60
60.1472	530.20
60.1616	564.06
60.1760	536.11
60.1905	526.02
60.2049	545.35
60.2194	538.36
60.2338	550.03
60.2482	546.15
60.2627	535.37
60.2771	511.09
60.2916	517.62
60.3060	572.62
60.3204	513.93
60.3349	519.83
60.3493	524.99
60.3638	542.65
60.3782	516.49
60.3926	482.15
60.4071	515.01
60.4215	573.03
60.4360	570.96
60.4504	541.23
60.4648	558.13
60.4793	538.24
60.4937	591.70
60.5082	552.53
60.5226	535.71
60.5370	529.99
60.5515	529.65
60.5659	556.09
60.5804	520.42
60.5948	517.09
60.6092	554.70
60.6237	508.80
60.6381	515.92
60.6526	476.55
60.6670	518.52
60.6814	488.48
60.6959	514.27
60.7103	527.20
60.7248	578.05
60.7392	532.82
60.7536	564.52
60.7681	556.80
60.7825	581.30
60.7970	507.05
60.8114	533.24
60.8258	598.60
60.8403	572.84
60.8547	575.61
60.8692	530.62
60.8836	498.19
60.8980	568.17
60.9125	531.45
60.9269	494.71
60.9414	547.01
60.9558	529.03
60.9702	523.79
60.9847	523.15
60.9991	552.89
61.0136	560.67
61.0280	518.11
61.0424	532.26
61.0569	519.77
61.0713	562.02
61.0858	578.31
61.1002	529.81
61.1146	504.70
61.1291	538.30
61.1435	531.03
61.1580	537.34
61.1724	577.47
61.1868	542.24
61.2013	528.13
61.2157	554.50
61.2302	530.28
61.2446	532.60
61.2590	541.53
61.2735	553.44
61.2879	551.54
61.3024	520.13
61.3168	517.26
61.3312	557.98
61.3457	560.97
61.3601	559.32
61.3746	532.75
61.3890	559.58
61.4034	577.27
61.4179	548.47
61.4323	544.67
61.4468	525.58
61.4612	573.50
61.4756	549.12
61.4901	558.76
61.5045	541.79
61.5190	533.40
61.5334	547.89
61.5478	553.07
61.5623	569.34
61.5767	554.58
61.5912	529.42
61.6056	567.94
61.6200	540.31
61.6345	542.33
61.6489	520.36
61.6634	567.82
61.6778	542.32
61.6922	552.66
61.7067	569.80
61.7211	570.96
61.7356	526.05
61.7500	568.33
61.7644	582.14
61.7789	585.50
61.7933	578.42
61.8078	557.39
61.8222	572.27
61.8366	590.76
61.8511	540.50
61.8655	586.08
61.8800	540.77
61.8944	567.20
61.9088	562.02
61.9233	515.95
61.9377	563.28
61.9522	557.90
61.9666	546.69
61.9810	541.73
61.9955	555.95
62.0099	554.60
62.0244	548.68
62.0388	548.54
62.0532	547.71
62.0677	560.50
62.0821	584.80
62.0966	571.32
62.1110	519.50
62.1254	547.37
62.1399	537.78
62.1543	556.39
62.1688	560.51
62.1832	544.45
62.1976	511.37
62.2121	528.84
62.2265	554.61
62.2410	536.18
62.2554	542.80
62.2698	524.61
62.2843	580.64
62.2987	543.13
62.3132	564.99
62.3276	551.08
62.3420	530.00
62.3565	525.34
62.3709	570.12
62.3854	569.96
62.3998	550.29
62.4142	578.33
62.4287	584.98
62.4431	570.86
62.4576	567.55
62.4720	566.85
62.4864	556.62
62.5009	563.02
62.5153	546.32
62.5298	542.76
62.5442	557.37
62.5586	570.62
62.5731	543.16
62.5875	552.46
62.6020	571.50
62.6164	555.94
62.6308	542.63
62.6453	518.70
62.6597	572.44
62.6742	565.09
62.6886	530.44
62.7030	520.15
62.7175	561.32
62.7319	566.56
62.7464	568.95
62.7608	554.28
62.7752	554.52
62.7897	543.51
62.8041	558.51
62.8186	602.83
62.8330	576.12
62.8474	594.17
62.8619	570.68
62.8763	560.36
62.8908	552.30
62.9052	586.72
62.9196	588.15
62.9341	587.22
62.9485	560.59
62.9630	541.83
62.9774	520.78
62.9918	553.15
63.0063	584.02
63.0207	609.53
63.0352	576.56
63.0496	564.75
63.0640	575.35
63.0785	549.28
63.0929	600.99
63.1074	573.41
63.1218	530.05
63.1362	580.77
63.1507	576.15
63.1651	597.58
63.1796	577.63
63.1940	582.64
63.2084	568.23
63.2229	568.90
63.2373	538.80
63.2518	559.22
63.2662	573.45
63.2806	570.45
63.2951	550.25
63.3095	572.72
63.3240	607.77
63.3384	598.06
63.3528	567.13
63.3673	595.71
63.3817	568.69
63.3962	563.96
63.4106	552.61
63.4250	626.13
63.4395	592.71
63.4539	577.51
63.4684	599.65
63.4828	550.50
63.4972	567.07
63.5117	556.01
63.5261	608.70
63.5406	608.10
63.5550	617.28
63.5694	642.60
63.5839	631.64
63.5983	643.51
63.6128	618.04
63.6272	636.92
63.6416	657.20
63.6561	648.75
63.6705	644.49
63.6850	592.08
63.6994	626.01
63.7138	655.04
63.7283	636.55
63.7427	619.01
63.7572	633.31
63.7716	666.87
63.7861	694.20
63.8005	688.25
63.8149	703.97
63.8294	811.02
63.8438	796.85
63.8583	822.09
63.8727	887.66
63.8871	910.03
63.9016	866.52
63.9160	842.42
63.9305	835.18
63.9449	803.36
63.9593	798.64
63.9738	806.23
63.9882	789.67
64.0027	767.00
64.0171	777.88
64.0315	787.38
64.0460	777.44
64.0604	769.79
64.0749	773.70
64.0893	770.86
64.1037	768.67
64.1182	790.59
64.1326	740.66
64.1471	704.09
64.1615	720.79
64.1759	685.67
64.1904	714.10
64.2048	699.63
64.2193	650.78
64.2337	642.32
64.2481	641.77
64.2626	643.75
64.2770	668.69
64.2915	641.72
64.3059	647.83
64.3203	653.17
64.3348	655.33
64.3492	644.16
64.3637	610.62
64.3781	630.86
64.3925	640.14
64.4070	625.96
64.4214	633.10
64.4359	622.67
64.4503	622.11
64.4647	639.43
64.4792	657.58
64.4936	654.38
64.5081	629.91
64.5225	626.48
64.5369	624.13
64.5514	649.04
64.5658	633.28
64.5803	616.70
64.5947	633.55
64.6091	649.66
64.6236	603.75
64.6380	692.29
64.6525	654.20
64.6669	665.91
64.6813	692.39
64.6958	685.64
64.7102	697.34
64.7247	685.17
64.7391	671.86
64.7535	679.58
64.7680	690.90
64.7824	723.27
64.7969	796.41
64.8113	751.18
64.8257	761.55
64.8402	774.92
64.8546	764.02
64.8691	801.37
64.8835	845.90
64.8979	892.95
64.9124	909.11
64.9268	888.16
64.9413	947.41
64.9557	973.75
64.9701	962.13
64.9846	1041.63
64.9990	1179.28
65.0135	1309.90
65.0279	1453.54
65.0423	1738.63
65.0568	2130.30
65.0712	2758.43
65.0857	3657.27
65.1001	4662.96
65.1145	6194.50
65.1290	8226.85
65.1434	9733.02
65.1579	11296.29
65.1723	12099.25
65.1867	11359.51
65.2012	9947.15
65.2156	8334.63
65.2301	6578.59
65.2445	5240.79
65.2589	4472.96
65.2734	4335.86
65.2878	4476.86
65.3023	4989.05
65.3167	5840.94
65.3311	6663.49
65.3456	7047.10
65.3600	6931.93
65.3745	6470.31
65.3889	5468.11
65.4033	4376.45
65.4178	3435.40
65.4322	2680.13
65.4467	1987.69
65.4611	1663.54
65.4755	1520.33
65.4900	1313.48
65.5044	1115.38
65.5189	1049.33
65.5333	1003.45
65.5477	931.00
65.5622	938.63
65.5766	836.96
65.5911	819.54
65.6055	811.25
65.6199	809.78
65.6344	800.00
65.6488	806.36
65.6633	727.71
65.6777	703.77
65.6921	760.90
65.7066	718.63
65.7210	726.38
65.7355	715.93
65.7499	710.49
65.7643	692.68
65.7788	714.37
65.7932	697.47
65.8077	688.52
65.8221	670.49
65.8365	699.93
65.8510	641.38
65.8654	652.38
65.8799	657.14
65.8943	627.74
65.9087	636.16
65.9232	634.53
65.9376	656.80
65.9521	645.01
65.9665	592.01
65.9809	633.54
65.9954	620.02
66.0098	620.54
66.0243	615.93
66.0387	623.86
66.0531	655.39
66.0676	646.88
66.0820	642.98
66.0965	638.81
66.1109	673.62
66.1253	660.33
66.1398	606.84
66.1542	564.03
66.1687	606.53
66.1831	629.35
66.1975	596.22
66.2120	606.18
66.2264	602.78
66.2409	638.24
66.2553	632.97
66.2697	645.64
66.2842	648.69
66.2986	603.93
66.3131	619.77
66.3275	598.07
66.3419	614.30
66.3564	608.09
66.3708	603.12
66.3853	605.65
66.3997	578.87
66.4141	614.67
66.4286	629.15
66.4430	635.53
66.4575	591.42
66.4719	604.54
66.4863	609.62
66.5008	619.31
66.5152	597.07
66.5297	598.52
66.5441	593.51
66.5585	573.72
66.5730	597.16
66.5874	615.87
66.6019	612.92
66.6163	583.74
66.6307	565.28
66.6452	578.63
66.6596	583.23
66.6741	604.22
66.6885	571.80
66.7029	594.91
66.7174	588.34
66.7318	606.39
66.7463	621.37
66.7607	598.68
66.7751	577.67
66.7896	575.61
66.8040	587.58
66.8185	591.82
66.8329	575.94
66.8473	575.53
66.8618	605.27
66.8762	583.83
66.8907	556.64
66.9051	557.43
66.9195	598.35
66.9340	647.30
66.9484	630.40
66.9629	590.72
66.9773	603.62
66.9917	615.31
67.0062	609.72
67.0206	574.65
67.0351	587.42
67.0495	575.07
67.0639	599.45
67.0784	602.58
67.0928	588.55
67.1073	582.98
67.1217	621.97
67.1361	579.95
67.1506	568.16
67.1650	588.30
67.1795	617.69
67.1939	584.20
67.2083	598.31
67.2228	581.28
67.2372	567.74
67.2517	592.73
67.2661	590.53
67.2805	584.82
67.2950	571.34
67.3094	570.36
67.3239	574.97
67.3383	586.20
67.3527	586.92
67.3672	575.86
67.3816	587.61
67.3961	582.89
67.4105	585.07
67.4250	606.77
67.4394	570.52
67.4538	566.04
67.4683	583.88
67.4827	578.76
67.4972	590.20
67.5116	550.01
67.5260	566.96
67.5405	565.63
67.5549	573.15
67.5694	561.48
67.5838	566.43
67.5982	579.86
67.6127	620.15
67.6271	586.65
67.6416	574.17
67.6560	541.16
67.6704	533.62
67.6849	532.83
67.6993	575.52
67.7138	573.94
67.7282	574.53
67.7426	568.10
67.7571	607.76
67.7715	581.57
67.7860	620.72
67.8004	599.23
67.8148	553.39
67.8293	571.08
67.8437	552.65
67.8582	561.01
67.8726	600.12
67.8870	548.14
67.9015	601.82
67.9159	557.12
67.9304	568.46
67.9448	575.17
67.9592	560.37
67.9737	580.13
67.9881	604.75
68.0026	566.37
68.0170	570.71
68.0314	598.25
68.0459	545.91
68.0603	559.75
68.0748	588.13
68.0892	584.46
68.1036	535.01
68.1181	571.84
68.1325	539.07
68.1470	554.07
68.1614	646.32
68.1758	566.04
68.1903	567.94
68.2047	599.47
68.2192	569.63
68.2336	556.69
68.2480	595.36
68.2625	556.40
68.2769	570.22
68.2914	544.54
68.3058	561.68
68.3202	576.35
68.3347	589.51
68.3491	606.50
68.3636	582.70
68.3780	595.90
68.3924	577.45
68.4069	562.18
68.4213	546.07
68.4358	591.73
68.4502	562.24
68.4646	570.53
68.4791	557.88
68.4935	572.53
68.5080	542.44
68.5224	573.75
68.5368	519.30
68.5513	597.33
68.5657	601.04
68.5802	595.19
68.5946	588.57
68.6090	567.50
68.6235	579.56
68.6379	576.71
68.6524	584.85
68.6668	578.66
68.6812	582.14
68.6957	576.78
68.7101	581.23
68.7246	570.42
68.7390	603.06
68.7534	564.62
68.7679	558.35
68.7823	570.16
68.7968	605.68
68.8112	591.51
68.8256	621.42
68.8401	587.10
68.8545	587.62
68.8690	576.30
68.8834	570.13
68.8978	556.77
68.9123	579.80
68.9267	571.75
68.9412	590.49
68.9556	576.34
68.9700	590.04
68.9845	579.96
68.9989	563.46
69.0134	597.36
69.0278	589.88
69.0422	600.22
69.0567	590.40
69.0711	607.70
69.0856	599.64
69.1000	588.16
69.1144	578.38
69.1289	584.45
69.1433	532.84
69.1578	578.00
69.1722	610.30
69.1866	632.45
69.2011	535.34
69.2155	562.82
69.2300	571.43
69.2444	603.00
69.2588	602.85
69.2733	600.57
69.2877	565.89
69.3022	583.22
69.3166	510.22
69.3310	564.52
69.3455	597.87
69.3599	597.84
69.3744	557.85
69.3888	557.07
69.4032	527.43
69.4177	550.69
69.4321	565.20
69.4466	591.02
69.4610	523.06
69.4754	583.59
69.4899	575.59
69.5043	564.22
69.5188	518.45
69.5332	586.97
69.5476	553.82
69.5621	544.42
69.5765	542.05
69.5910	539.90
69.6054	592.09
69.6198	562.45
69.6343	549.25
69.6487	565.48
69.6632	549.04
69.6776	571.76
69.6920	529.45
69.7065	580.95
69.7209	503.65
69.7354	512.32
69.7498	565.40
69.7642	611.39
69.7787	536.43
69.7931	616.92
69.8076	542.01
69.8220	574.86
69.8364	622.27
69.8509	578.04
69.8653	539.84
69.8798	594.41
69.8942	580.25
69.9086	660.60
69.9231	588.66
69.9375	556.99
69.9520	582.57
69.9664	591.35
69.9808	633.81
69.9953	586.26
70.0097	629.17
70.0242	593.36
70.0386	510.97
70.0530	572.74
70.0675	630.25
70.0819	615.66
70.0964	582.36
70.1108	532.61
70.1252	601.32
70.1397	589.74
70.1541	573.97
70.1686	596.19
70.1830	596.99
70.1974	580.07
70.2119	594.44
70.2263	626.20
70.2408	662.06
70.2552	602.25
70.2696	564.09
70.2841	556.78
70.2985	624.78
70.3130	543.83
70.3274	598.19
70.3418	547.85
70.3563	607.46
70.3707	617.74
70.3852	565.43
70.3996	566.96
70.4140	596.38
70.4285	572.83
70.4429	600.77
70.4574	551.10
70.4718	628.24
70.4862	597.94
70.5007	557.40
70.5151	565.13
70.5296	605.97
70.5440	575.55
70.5584	601.45
70.5729	570.89
70.5873	543.64
70.6018	524.13
70.6162	581.68
70.6306	603.72
70.6451	602.81
70.6595	562.86
70.6740	561.16
70.6884	574.77
70.7028	605.18
70.7173	559.75
70.7317	560.73
70.7462	580.64
70.7606	585.55
70.7750	611.16
70.7895	611.85
70.8039	556.01
70.8184	562.03
70.8328	595.06
70.8472	552.20
70.8617	585.73
70.8761	602.62
70.8906	594.62
70.9050	644.41
70.9194	617.39
70.9339	568.01
70.9483	538.77
70.9628	581.49
70.9772	586.97
70.9916	592.69
71.0061	546.09
71.0205	563.63
71.0350	575.28
71.0494	576.04
71.0638	588.10
71.0783	591.12
71.0927	589.12
71.1072	569.41
71.1216	580.27
71.1361	560.73
71.1505	541.90
71.1649	571.03
71.1794	590.79
71.1938	634.44
71.2083	588.60
71.2227	562.23
71.2371	597.16
71.2516	599.94
71.2660	589.64
71.2805	580.77
71.2949	558.99
71.3093	548.86
71.3238	573.83
71.3382	572.75
71.3527	591.34
71.3671	613.24
71.3815	546.39
71.3960	566.65
71.4104	549.47
71.4249	586.64
71.4393	635.89
71.4537	605.16
71.4682	624.43
71.4826	602.00
71.4971	557.62
71.5115	588.76
71.5259	576.06
71.5404	552.55
71.5548	529.53
71.5693	546.49
71.5837	526.37
71.5981	548.00
71.6126	556.59
71.6270	571.24
71.6415	579.15
71.6559	540.82
71.6703	535.93
71.6848	568.10
71.6992	606.56
71.7137	608.27
71.7281	604.25
71.7425	548.72
71.7570	569.13
71.7714	620.23
71.7859	589.70
71.8003	524.17
71.8147	538.34
71.8292	515.41
71.8436	527.67
71.8581	573.28
71.8725	571.67
71.8869	551.37
71.9014	582.31
71.9158	559.34
71.9303	563.81
71.9447	623.94
71.9591	682.79
71.9736	646.30
71.9880	570.95
72.0025	550.44
72.0169	582.44
72.0313	579.40
72.0458	534.65
72.0602	566.17
72.0747	573.19
72.0891	604.73
72.1035	549.47
72.1180	546.17
72.1324	605.96
72.1469	535.49
72.1613	558.82
72.1757	648.38
72.1902	638.35
72.2046	575.93
72.2191	512.80
72.2335	527.19
72.2479	529.01
72.2624	569.34
72.2768	576.49
72.2913	572.32
72.3057	568.72
72.3201	575.74
72.3346	499.95
72.3490	510.78
72.3635	618.42
72.3779	609.90
72.3923	584.39
72.4068	537.47
72.4212	607.28
72.4357	650.38
72.4501	567.30
72.4645	576.53
72.4790	648.11
72.4934	615.57
72.5079	632.60
72.5223	576.40
72.5367	546.07
72.5512	616.42
72.5656	551.14
72.5801	503.23
72.5945	541.48
72.6089	531.60
72.6234	540.41
72.6378	506.99
72.6523	508.76
72.6667	623.39
72.6811	640.38
72.6956	572.72
72.7100	669.27
72.7245	627.57
72.7389	558.56
72.7533	501.22
72.7678	561.50
72.7822	625.88
72.7967	559.31
72.8111	584.25
72.8255	618.33
72.8400	649.41
72.8544	596.58
72.8689	604.57
72.8833	601.55

Result vector
22.1120	561.06
22.1264	538.08
22.1409	590.23
22.1553	514.80
22.1697	582.01
22.1842	567.81
22.1986	560.53
22.2131	575.09
22.2275	609.20
22.2419	521.41
22.2564	514.15
22.2708	592.04
22.2853	644.74
22.2997	534.95
22.3141	655.21
22.3286	602.99
22.3430	521.46
22.3575	554.37
22.3719	522.94
22.3863	527.60
22.4008	577.38
22.4152	593.54
22.4297	705.83
22.4441	695.48
22.4585	646.43
22.4730	556.31
22.4874	582.69
22.5019	656.41
22.5163	625.32
22.5307	613.48
22.5452	599.96
22.5596	613.49
22.5741	592.35
22.5885	596.90
22.6029	592.94
22.6174	567.51
22.6318	617.79
22.6463	607.41
22.6607	634.82
22.6751	584.84
22.6896	559.10
22.7040	552.32
22.7185	554.43
22.7329	544.57
22.7473	620.54
22.7618	585.63
22.7762	631.13
22.7907	631.27
22.8051	614.72
22.8195	548.13
22.8340	579.01
22.8484	520.65
22.8629	531.65
22.8773	479.05
22.8917	615.39
22.9062	619.65
22.9206	537.68
22.9351	573.59
22.9495	586.77
22.9639	554.69
22.9784	612.52
22.9928	572.88
23.0073	489.94
23.0217	540.26
23.0361	543.11
23.0506	458.06
23.0650	528.15
23.0795	598.10
23.0939	570.76
23.1083	548.72
23.1228	551.94
23.1372	533.21
23.1517	548.34
23.1661	522.52
23.1806	661.64
23.1950	531.56
23.2094	559.73
23.2239	514.35
23.2383	616.55
23.2528	493.73
23.2672	519.14
23.2816	546.52
23.2961	573.65
23.3105	563.35
23.3250	533.75
23.3394	612.47
23.3538	584.74
23.3683	586.04
23.3827	527.83
23.3972	484.25
23.4116	564.75
23.4260	555.81
23.4405	506.27
23.4549	655.77
23.4694	626.50
23.4838	637.72
23.4982	567.49
23.5127	518.60
23.5271	554.29
23.5416	515.20
23.5560	588.55
23.5704	532.86
23.5849	597.58
23.5993	597.41
23.6138	580.08
23.6282	495.18
23.6426	558.59
23.6571	570.41
23.6715	488.82
23.6860	514.25
23.7004	511.88
23.7148	552.57
23.7293	579.38
23.7437	586.45
23.7582	618.14
23.7726	606.41
23.7870	545.26
23.8015	520.90
23.8159	537.81
23.8304	605.33
23.8448	495.03
23.8592	595.21
23.8737	584.76
23.8881	537.73
23.9026	520.30
23.9170	530.64
23.9314	536.36
23.9459	583.77
23.9603	507.97
23.9748	486.88
23.9892	549.77
24.0036	550.32
24.0181	581.69
24.0325	628.09
24.0470	614.55
24.0614	657.32
24.0758	576.27
24.0903	570.40
24.1047	569.84
24.1192	602.49
24.1336	583.27
24.1480	557.94
24.1625	621.46
24.1769	565.94
24.1914	536.26
24.2058	617.95
24.2202	546.63
24.2347	558.04
24.2491	588.65
24.2636	519.14
24.2780	617.35
24.2924	561.47
24.3069	657.77
24.3213	584.59
24.3358	603.64
24.3502	568.43
24.3646	593.36
24.3791	529.07
24.3935	557.90
24.4080	509.20
24.4224	581.74
24.4368	578.10
24.4513	568.58
24.4657	597.75
24.4802	493.43
24.4946	569.87
24.5090	568.58
24.5235	558.41
24.5379	593.10
24.5524	589.20
24.5668	521.07
24.5812	543.18
24.5957	593.07
24.6101	571.05
24.6246	510.18
24.6390	493.59
24.6534	567.39
24.6679	572.52
24.6823	515.62
24.6968	515.52
24.7112	528.77
24.7256	577.75
24.7401	581.14
24.7545	569.78
24.7690	594.47
24.7834	587.02
24.7978	575.02
24.8123	615.83
24.8267	582.54
24.8412	579.98
24.8556	571.79
24.8700	560.16
24.8845	539.68
24.8989	551.78
24.9134	575.88
24.9278	527.30
24.9422	558.39
24.9567	494.06
24.9711	530.72
24.9856	539.76
25.0000	564.03
25.0144	546.79
25.0289	541.59
25.0433	550.64
25.0578	514.73
25.0722	530.79
25.0866	562.13
25.1011	541.23
25.1155	533.46
25.1300	569.40
25.1444	528.63
25.1588	538.13
25.1733	572.80
25.1877	569.26
25.2022	561.44
25.2166	533.95
25.2310	560.42
25.2455	552.04
25.2599	547.63
25.2744	588.88
25.2888	592.32
25.3032	550.93
25.3177	597.00
25.3321	577.09
25.3466	593.61
25.3610	541.68
25.3754	533.57
25.3899	575.04
25.4043	578.08
25.4188	572.12
25.4332	560.74
25.4476	555.87
25.4621	544.50
25.4765	545.76
25.4910	526.01
25.5054	513.20
25.5198	514.15
25.5343	526.91
25.5487	547.46
25.5632	516.43
25.5776	535.80
25.5920	553.09
25.6065	581.56
25.6209	529.42
25.6354	537.89
25.6498	561.41
25.6642	523.79
25.6787	536.97
25.6931	522.16
25.7076	538.79
25.7220	550.24
25.7364	554.26
25.7509	531.73
25.7653	520.29
25.7798	559.14
25.7942	540.75
25.8086	555.57
25.8231	551.08
25.8375	527.96
25.8520	570.90
25.8664	532.21
25.8808	527.07
25.8953	557.35
25.9097	531.09
25.9242	506.97
25.9386	565.97
25.9530	512.60
25.9675	510.50
25.9819	504.59
25.9964	500.90
26.0108	543.25
26.0252	567.04
26.0397	525.22
26.0541	536.57
26.0686	536.96
26.0830	533.77
26.0974	563.95
26.1119	562.84
26.1263	572.28
26.1408	554.09
26.1552	541.48
26.1696	533.36
26.1841	538.33
26.1985	531.96
26.2130	494.26
26.2274	516.27
26.2418	520.51
26.2563	514.43
26.2707	579.59
26.2852	549.12
26.2996	554.16
26.3140	571.92
26.3285	562.23
26.3429	531.59
26.3574	524.35
26.3718	529.14
26.3862	537.10
26.4007	501.37
26.4151	518.87
26.4296	524.33
26.4440	534.08
26.4584	537.51
26.4729	570.31
26.4873	550.28
26.5018	511.36
26.5162	559.88
26.5306	558.60
26.5451	539.55
26.5595	517.93
26.5740	562.24
26.5884	548.86
26.6028	556.20
26.6173	528.93
26.6317	531.75
26.6462	566.28
26.6606	553.84
26.6750	530.83
26.6895	529.14
26.7039	544.98
26.7184	534.59
26.7328	494.49
26.7472	517.00
26.7617	507.03
26.7761	510.54
26.7906	555.79
26.8050	528.56
26.8194	544.40
26.8339	557.98
26.8483	536.08
26.8628	519.86
26.8772	514.08
26.8917	518.25
26.9061	526.30
26.9205	517.18
26.9350	527.68
26.9494	529.76
26.9639	525.71
26.9783	504.43
26.9927	528.73
27.0072	536.81
27.0216	530.33
27.0361	542.87
27.0505	541.95
27.0649	539.90
27.0794	550.73
27.0938	544.65
27.1083	520.95
27.1227	496.83
27.1371	524.44
27.1516	510.23
27.1660	547.81
27.1805	524.77
27.1949	538.99
27.2093	516.95
27.2238	519.16
27.2382	535.55
27.2527	515.32
27.2671	517.28
27.2815	536.60
27.2960	506.99
27.3104	526.25
27.3249	528.64
27.3393	507.85
27.3537	522.27
27.3682	510.13
27.3826	525.83
27.3971	501.90
27.4115	487.52
27.4259	568.64
27.4404	558.38
27.4548	523.66
27.4693	545.10
27.4837	496.64
27.4981	499.82
27.5126	504.40
27.5270	521.52
27.5415	532.68
27.5559	532.51
27.5703	547.91
27.5848	517.27
27.5992	527.37
27.6137	523.92
27.6281	514.20
27.6425	537.91
27.6570	515.21
27.6714	481.13
27.6859	528.90
27.7003	544.29
27.7147	518.44
27.7292	500.09
27.7436	504.81
27.7581	489.45
27.7725	531.36
27.7869	542.70
27.8014	504.22
27.8158	545.88
27.8303	556.61
27.8447	515.71
27.8591	541.79
27.8736	529.09
27.8880	510.06
27.9025	564.10
27.9169	532.22
27.9313	505.99
27.9458	526.93
27.9602	546.69
27.9747	505.63
27.9891	511.76
28.0035	538.59
28.0180	495.30
28.0324	523.45
28.0469	554.16
28.0613	522.46
28.0757	512.45
28.0902	538.81
28.1046	487.04
28.1191	521.67
28.1335	505.01
28.1479	505.37
28.1624	528.10
28.1768	514.73
28.1913	479.85
28.2057	497.77
28.2201	535.91
28.2346	531.11
28.2490	514.73
28.2635	527.61
28.2779	524.13
28.2923	505.03
28.3068	521.45
28.3212	528.08
28.3357	542.84
28.3501	511.02
28.3645	532.00
28.3790	492.12
28.3934	479.72
28.4079	521.40
28.4223	551.69
28.4367	550.08
28.4512	534.00
28.4656	508.14
28.4801	485.80
28.4945	505.22
28.5089	510.83
28.5234	513.60
28.5378	499.91
28.5523	506.96
28.5667	529.99
28.5811	514.39
28.5956	493.62
28.6100	504.01
28.6245	536.77
28.6389	556.54
28.6533	521.18
28.6678	482.28
28.6822	518.42
28.6967	533.34
28.7111	534.51
28.7255	520.17
28.7400	494.73
28.7544	514.74
28.7689	492.13
28.7833	486.20
28.7977	514.84
28.8122	507.56
28.8266	519.37
28.8411	513.72
28.8555	524.72
28.8699	533.83
28.8844	513.96
28.8988	508.69
28.9133	473.45
28.9277	520.04
28.9421	478.77
28.9566	479.48
28.9710	498.47
28.9855	526.10
28.9999	521.20
29.0143	520.58
29.0288	523.46
29.0432	532.34
29.0577	528.50
29.0721	505.37
29.0865	543.30
29.1010	496.61
29.1154	524.62
29.1299	514.74
29.1443	511.65
29.1587	501.89
29.1732	491.07
29.1876	506.73
29.2021	478.52
29.2165	525.56
29.2309	537.23
29.2454	527.12
29.2598	486.72
29.2743	512.83
29.2887	519.15
29.3031	483.92
29.3176	499.15
29.3320	529.76
29.3465	531.50
29.3609	513.77
29.3753	517.78
29.3898	527.91
29.4042	526.53
29.4187	525.29
29.4331	542.11
29.4475	525.00
29.4620	502.01
29.4764	517.46
29.4909	498.79
29.5053	484.97
29.5197	492.37
29.5342	491.88
29.5486	492.20
29.5631	552.42
29.5775	525.50
29.5919	525.38
29.6064	499.84
29.6208	485.25
29.6353	547.64
29.6497	496.75
29.6641	469.07
29.6786	510.83
29.6930	468.71
29.7075	509.76
29.7219	494.47
29.7363	487.91
29.7508	493.75
29.7652	485.25
29.7797	501.52
29.7941	489.67
29.8085	493.57
29.8230	476.73
29.8374	507.70
29.8519	490.82
29.8663	494.53
29.8807	504.56
29.8952	545.11
29.9096	523.18
29.9241	496.17
29.9385	517.94
29.9529	482.24
29.9674	509.90
29.9818	496.25
29.9963	471.54
30.0107	512.11
30.0251	531.00
30.0396	488.79
30.0540	464.22
30.0685	505.01
30.0829	485.07
30.0973	468.22
30.1118	490.61
30.1262	499.33
30.1407	483.08
30.1551	531.15
30.1695	525.80
30.1840	529.67
30.1984	512.40
30.2129	503.37
30.2273	478.66
30.2417	523.08
30.2562	494.50
30.2706	502.44
30.2851	522.90
30.2995	527.19
30.3139	503.10
30.3284	504.08
30.3428	501.86
30.3573	471.80
30.3717	498.72
30.3861	478.90
30.4006	489.91
30.4150	505.51
30.4295	539.00
30.4439	502.58
30.4583	504.62
30.4728	506.36
30.4872	527.20
30.5017	528.52
30.5161	508.28
30.5305	487.70
30.5450	532.44
30.5594	561.97
30.5739	553.99
30.5883	561.06
30.6028	553.14
30.6172	577.68
30.6316	603.83
30.6461	616.21
30.6605	646.83
30.6750	660.50
30.6894	657.21
30.7038	724.45
30.7183	721.16
30.7327	679.45
30.7472	724.68
30.7616	676.34
30.7760	685.02
30.7905	713.55
30.8049	702.26
30.8194	650.76
30.8338	616.27
30.8482	575.44
30.8627	585.06
30.8771	574.47
30.8916	551.43
30.9060	565.45
30.9204	544.49
30.9349	525.64
30.9493	516.55
30.9638	532.47
30.9782	539.88
30.9926	538.12
31.0071	540.02
31.0215	535.53
31.0360	518.53
31.0504	500.09
31.0648	492.83
31.0793	534.89
31.0937	518.61
31.1082	493.19
31.1226	523.80
31.1370	489.06
31.1515	459.63
31.1659	483.91
31.1804	500.73
31.1948	503.43
31.2092	515.68
31.2237	489.13
31.2381	509.37
31.2526	530.24
31.2670	534.39
31.2814	508.15
31.2959	536.28
31.3103	535.71
31.3248	526.42
31.3392	530.68
31.3536	547.50
31.3681	523.86
31.3825	531.83
31.3970	537.71
31.4114	550.27
31.4258	532.89
31.4403	507.79
31.4547	494.80
31.4692	479.75
31.4836	508.11
31.4980	548.42
31.5125	506.64
31.5269	522.69
31.5414	498.63
31.5558	511.73
31.5702	491.08
31.5847	471.04
31.5991	501.27
31.6136	512.64
31.6280	523.55
31.6424	502.56
31.6569	475.42
31.6713	512.64
31.6858	475.63
31.7002	485.24
31.7146	509.53
31.7291	497.35
31.7435	493.05
31.7580	483.72
31.7724	501.81
31.7868	497.12
31.8013	517.01
31.8157	508.25
31.8302	498.89
31.8446	469.61
31.8590	537.29
31.8735	530.16
31.8879	468.11
31.9024	543.50
31.9168	519.99
31.9312	529.88
31.9457	535.95
31.9601	503.26
31.9746	515.41
31.9890	524.36
32.0034	508.34
32.0179	481.51
32.0323	516.72
32.0468	532.00
32.0612	482.52
32.0756	517.41
32.0901	522.24
32.1045	485.95
32.1190	488.27
32.1334	503.44
32.1478	505.54
32.1623	511.15
32.1767	507.14
32.1912	514.17
32.2056	505.42
32.2200	504.25
32.2345	504.37
32.2489	519.03
32.2634	494.25
32.2778	501.86
32.2922	493.14
32.3067	526.92
32.3211	530.77
32.3356	483.00
32.3500	481.49
32.3644	515.84
32.3789	529.18
32.3933	491.93
32.4078	520.01
32.4222	507.98
32.4366	513.38
32.4511	495.44
32.4655	542.94
32.4800	561.31
32.4944	504.06
32.5088	513.57
32.5233	503.59
32.5377	513.05
32.5522	491.63
32.5666	488.78
32.5810	491.62
32.5955	519.74
32.6099	526.24
32.6244	513.51
32.6388	527.35
32.6532	511.95
32.6677	505.77
32.6821	508.96
32.6966	491.49
32.7110	509.64
32.7254	471.91
32.7399	527.58
32.7543	522.57
32.7688	499.68
32.7832	507.64
32.7976	498.48
32.8121	489.78
32.8265	528.11
32.8410	479.36
32.8554	489.99
32.8698	479.59
32.8843	515.98
32.8987	541.01
32.9132	498.57
32.9276	505.60
32.9420	487.48
32.9565	479.68
32.9709	506.41
32.9854	504.92
32.9998	514.12
33.0142	485.40
33.0287	469.21
33.0431	465.88
33.0576	492.71
33.0720	470.43
33.0864	533.68
33.1009	500.87
33.1153	479.92
33.1298	507.45
33.1442	505.43
33.1586	482.12
33.1731	534.17
33.1875	518.48
33.2020	464.70
33.2164	525.66
33.2308	512.16
33.2453	500.01
33.2597	460.17
33.2742	509.95
33.2886	526.06
33.3030	513.35
33.3175	498.47
33.3319	485.48
33.3464	469.55
33.3608	488.90
33.3752	490.35
33.3897	502.31
33.4041	537.38
33.4186	518.09
33.4330	574.32
33.4474	461.97
33.4619	483.48
33.4763	487.32
33.4908	498.63
33.5052	488.10
33.5196	513.05
33.5341	532.75
33.5485	574.27
33.5630	512.98
33.5774	507.74
33.5918	530.50
33.6063	487.77
33.6207	499.31
33.6352	495.06
33.6496	497.68
33.6640	511.00
33.6785	479.80
33.6929	485.39
33.7074	492.10
33.7218	512.88
33.7362	502.78
33.7507	531.65
33.7651	529.10
33.7796	532.76
33.7940	516.78
33.8084	507.65
33.8229	511.68
33.8373	503.42
33.8518	511.22
33.8662	490.21
33.8806	485.12
33.8951	515.02
33.9095	519.36
33.9240	504.28
33.9384	517.02
33.9528	466.05
33.9673	499.88
33.9817	507.89
33.9962	491.19
34.0106	529.75
34.0250	489.08
34.0395	507.73
34.0539	505.72
34.0684	516.69
34.0828	513.10
34.0972	529.27
34.1117	495.19
34.1261	506.57
34.1406	503.38
34.1550	511.47
34.1694	501.12
34.1839	491.18
34.1983	503.99
34.2128	489.69
34.2272	488.87
34.2417	505.24
34.2561	501.06
34.2705	499.30
34.2850	511.86
34.2994	518.88
34.3139	517.51
34.3283	501.28
34.3427	525.33
34.3572	532.51
34.3716	507.76
34.3861	503.73
34.4005	481.98
34.4149	491.99
34.4294	505.74
34.4438	522.60
34.4583	511.83
34.4727	514.37
34.4871	547.02
34.5016	526.37
34.5160	494.18
34.5305	501.34
34.5449	535.23
34.5593	514.80
34.5738	484.34
34.5882	480.26
34.6027	500.67
34.6171	493.28
34.6315	519.94
34.6460	527.54
34.6604	546.20
34.6749	481.87
34.6893	508.60
34.7037	566.43
34.7182	521.39
34.7326	494.12
34.7471	485.83
34.7615	489.28
34.7759	504.82
34.7904	519.80
34.8048	510.59
34.8193	560.54
34.8337	519.08
34.8481	472.43
34.8626	533.42
34.8770	528.46
34.8915	489.43
34.9059	521.49
34.9203	492.99
34.9348	513.39
34.9492	474.62
34.9637	497.78
34.9781	496.89
34.9925	503.99
35.0070	517.31
35.0214	514.28
35.0359	483.99
35.0503	499.23
35.0647	498.29
35.0792	521.40
35.0936	488.19
35.1081	513.80
35.1225	535.67
35.1369	511.24
35.1514	503.38
35.1658	511.73
35.1803	491.80
35.1947	488.71
35.2091	513.60
35.2236	481.95
35.2380	530.02
35.2525	514.01
35.2669	497.08
35.2813	510.29
35.2958	460.91
35.3102	501.09
35.3247	501.84
35.3391	550.21
35.3535	554.92
35.3680	544.10
35.3824	519.26
35.3969	510.15
35.4113	513.89
35.4257	541.26
35.4402	532.49
35.4546	544.92
35.4691	566.56
35.4835	553.40
35.4979	538.88
35.5124	489.76
35.5268	515.12
35.5413	541.83
35.5557	553.32
35.5701	548.72
35.5846	509.39
35.5990	504.38
35.6135	524.88
35.6279	520.94
35.6423	515.82
35.6568	528.95
35.6712	505.37
35.6857	569.46
35.7001	663.61
35.7145	700.46
35.7290	656.87
35.7434	581.86
35.7579	567.98
35.7723	598.45
35.7867	599.32
35.8012	640.84
35.8156	649.03
35.8301	651.19
35.8445	635.51
35.8589	647.61
35.8734	754.61
35.8878	904.31
35.9023	1030.41
35.9167	1014.74
35.9311	1340.40
35.9456	1994.60
35.9600	2385.20
35.9745	2006.46
35.9889	1887.70
36.0033	2230.69
36.0178	2353.62
36.0322	2113.09
36.0467	1860.95
36.0611	1840.33
36.0755	1709.70
36.0900	1775.03
36.1044	1686.45
36.1189	1653.29
36.1333	1551.38
36.1477	1404.52
36.1622	1528.88
36.1766	1507.64
36.1911	1335.56
36.2055	1176.07
36.2199	1084.15
36.2344	1035.95
36.2488	989.01
36.2633	920.43
36.2777	913.95
36.2921	830.45
36.3066	835.60
36.3210	720.30
36.3355	696.37
36.3499	635.64
36.3643	640.87
36.3788	579.97
36.3932	591.61
36.4077	606.54
36.4221	586.18
36.4365	566.13
36.4510	550.43
36.4654	568.82
36.4799	581.53
36.4943	545.47
36.5087	510.29
36.5232	544.62
36.5376	581.91
36.5521	547.55
36.5665	573.75
36.5809	549.42
36.5954	542.63
36.6098	512.46
36.6243	517.93
36.6387	525.17
36.6531	505.35
36.6676	550.33
36.6820	534.51
36.6965	525.61
36.7109	548.28
36.7253	532.06
36.7398	506.71
36.7542	506.65
36.7687	547.71
36.7831	571.33
36.7975	561.00
36.8120	570.55
36.8264	553.74
36.8409	606.09
36.8553	610.87
36.8697	594.78
36.8842	604.08
36.8986	647.81
36.9131	586.39
36.9275	598.48
36.9419	621.52
36.9564	575.37
36.9708	593.84
36.9853	573.53
36.9997	593.07
37.0141	540.98
37.0286	531.39
37.0430	559.93
37.0575	518.51
37.0719	551.21
37.0863	542.80
37.1008	523.75
37.1152	512.24
37.1297	511.75
37.1441	510.32
37.1585	509.30
37.1730	525.22
37.1874	489.57
37.2019	481.37
37.2163	513.58
37.2307	495.01
37.2452	496.06
37.2596	491.68
37.2741	524.56
37.2885	494.67
37.3029	477.67
37.3174	508.47
37.3318	497.28
37.3463	494.87
37.3607	514.27
37.3751	506.86
37.3896	468.27
37.4040	503.51
37.4185	535.85
37.4329	547.09
37.4473	503.86
37.4618	515.96
37.4762	491.35
37.4907	486.00
37.5051	502.59
37.5195	474.52
37.5340	490.19
37.5484	498.03
37.5629	517.57
37.5773	518.73
37.5917	522.53
37.6062	541.81
37.6206	503.42
37.6351	465.58
37.6495	497.34
37.6639	492.84
37.6784	511.83
37.6928	512.68
37.7073	516.00
37.7217	495.06
37.7361	516.30
37.7506	529.55
37.7650	488.50
37.7795	551.25
37.7939	521.28
37.8083	509.20
37.8228	501.24
37.8372	524.51
37.8517	520.60
37.8661	548.58
37.8805	524.95
37.8950	532.02
37.9094	533.30
37.9239	508.60
37.9383	499.36
37.9528	462.98
37.9672	504.69
37.9816	525.08
37.9961	551.49
38.0105	537.26
38.0250	493.04
38.0394	481.92
38.0538	495.32
38.0683	520.61
38.0827	522.63
38.0972	531.19
38.1116	504.20
38.1260	544.75
38.1405	527.23
38.1549	476.52
38.1694	517.12
38.1838	532.37
38.1982	507.00
38.2127	506.14
38.2271	511.21
38.2416	504.34
38.2560	513.10
38.2704	523.86
38.2849	523.92
38.2993	497.72
38.3138	496.99
38.3282	508.02
38.3426	530.46
38.3571	520.32
38.3715	536.13
38.3860	522.47
38.4004	497.55
38.4148	554.84
38.4293	617.11
38.4437	608.41
38.4582	614.67
38.4726	662.31
38.4870	711.76
38.5015	728.06
38.5159	758.58
38.5304	803.49
38.5448	765.77
38.5592	781.67
38.5737	745.79
38.5881	733.68
38.6026	735.70
38.6170	720.50
38.6314	679.58
38.6459	653.88
38.6603	633.85
38.6748	599.37
38.6892	562.88
38.7036	570.26
38.7181	536.93
38.7325	525.27
38.7470	518.75
38.7614	509.71
38.7758	529.27
38.7903	533.27
38.8047	527.69
38.8192	529.23
38.8336	492.39
38.8480	487.96
38.8625	503.23
38.8769	514.47
38.8914	515.31
38.9058	513.43
38.9202	513.34
38.9347	520.52
38.9491	531.29
38.9636	498.67
38.9780	486.62
38.9924	478.75
39.0069	478.45
39.0213	495.69
39.0358	502.06
39.0502	515.20
39.0646	514.61
39.0791	516.07
39.0935	554.63
39.1080	532.97
39.1224	526.19
39.1368	498.76
39.1513	475.66
39.1657	469.47
39.1802	503.68
39.1946	509.72
39.2090	474.87
39.2235	507.84
39.2379	508.52
39.2524	515.58
39.2668	518.72
39.2812	507.65
39.2957	483.15
39.3101	531.59
39.3246	532.08
39.3390	522.86
39.3534	523.54
39.3679	515.80
39.3823	500.65
39.3968	479.88
39.4112	499.90
39.4256	529.76
39.4401	513.67
39.4545	483.48
39.4690	466.88
39.4834	481.48
39.4978	465.39
39.5123	471.49
39.5267	488.14
39.5412	500.37
39.5556	485.53
39.5700	496.46
39.5845	511.83
39.5989	500.77
39.6134	480.37
39.6278	515.07
39.6422	474.90
39.6567	473.16
39.6711	465.50
39.6856	497.00
39.7000	512.52
39.7144	509.58
39.7289	488.53
39.7433	502.63
39.7578	484.90
39.7722	482.77
39.7866	500.11
39.8011	494.60
39.8155	503.13
39.8300	525.10
39.8444	469.50
39.8588	513.79
39.8733	498.34
39.8877	479.22
39.9022	486.12
39.9166	520.10
39.9310	500.52
39.9455	483.26
39.9599	483.94
39.9744	496.59
39.9888	506.36
40.0032	477.08
40.0177	489.44
40.0321	520.72
40.0466	480.40
40.0610	512.18
40.0754	499.15
40.0899	518.96
40.1043	499.45
40.1188	522.68
40.1332	503.72
40.1476	482.31
40.1621	491.76
40.1765	493.37
40.1910	492.04
40.2054	469.11
40.2198	485.54
40.2343	504.02
40.2487	482.33
40.2632	543.67
40.2776	510.87
40.2920	493.59
40.3065	524.25
40.3209	495.27
40.3354	497.23
40.3498	487.15
40.3642	515.44
40.3787	503.33
40.3931	491.43
40.4076	476.48
40.4220	508.11
40.4364	513.86
40.4509	487.76
40.4653	481.96
40.4798	494.61
40.4942	491.26
40.5086	493.57
40.5231	467.51
40.5375	503.41
40.5520	493.58
40.5664	481.33
40.5808	505.25
40.5953	518.14
40.6097	484.10
40.6242	502.78
40.6386	507.23
40.6530	487.54
40.6675	476.89
40.6819	472.91
40.6964	501.47
40.7108	538.33
40.7252	518.04
40.7397	502.87
40.7541	533.01
40.7686	508.15
40.7830	530.00
40.7974	511.45
40.8119	479.86
40.8263	485.52
40.8408	510.07
40.8552	474.93
40.8696	540.16
40.8841	536.77
40.8985	530.50
40.9130	538.13
40.9274	463.50
40.9418	483.26
40.9563	480.52
40.9707	496.24
40.9852	495.08
40.9996	486.74
41.0140	533.82
41.0285	503.20
41.0429	492.09
41.0574	503.97
41.0718	494.11
41.0862	538.48
41.1007	546.42
41.1151	484.81
41.1296	541.12
41.1440	502.52
41.1584	510.54
41.1729	534.71
41.1873	460.63
41.2018	462.91
41.2162	495.15
41.2306	484.64
41.2451	509.60
41.2595	498.64
41.2740	504.77
41.2884	508.25
41.3028	477.09
41.3173	501.81
41.3317	514.63
41.3462	531.83
41.3606	517.02
41.3750	487.51
41.3895	470.38
41.4039	470.94
41.4184	489.98
41.4328	542.42
41.4472	486.73
41.4617	476.66
41.4761	531.51
41.4906	513.37
41.5050	481.83
41.5194	511.24
41.5339	504.48
41.5483	544.93
41.5628	499.70
41.5772	497.76
41.5916	511.58
41.6061	490.74
41.6205	505.29
41.6350	521.79
41.6494	494.15
41.6639	500.79
41.6783	522.53
41.6927	475.05
41.7072	511.87
41.7216	507.71
41.7361	517.97
41.7505	531.88
41.7649	498.07
41.7794	520.97
41.7938	493.68
41.8083	503.87
41.8227	506.30
41.8371	546.81
41.8516	552.60
41.8660	531.60
41.8805	526.29
41.8949	543.23
41.9093	539.83
41.9238	562.14
41.9382	535.03
41.9527	549.43
41.9671	574.66
41.9815	561.39
41.9960	574.34
42.0104	558.73
42.0249	589.51
42.0393	548.49
42.0537	563.04
42.0682	607.81
42.0826	619.41
42.0971	628.79
42.1115	557.77
42.1259	558.78
42.1404	612.60
42.1548	623.15
42.1693	656.43
42.1837	708.68
42.1981	717.17
42.2126	846.14
42.2270	882.38
42.2415	1011.55
42.2559	1191.59
42.2703	1283.95
42.2848	1442.46
42.2992	1543.39
42.3137	1610.34
42.3281	1614.18
42.3425	1558.03
42.3570	1460.72
42.3714	1353.11
42.3859	1331.94
42.4003	1308.73
42.4147	1270.70
42.4292	1257.99
42.4436	1134.27
42.4581	1040.88
42.4725	975.85
42.4869	871.62
42.5014	787.71
42.5158	696.61
42.5303	682.52
42.5447	630.03
42.5591	617.75
42.5736	625.34
42.5880	556.13
42.6025	598.74
42.6169	588.54
42.6313	586.45
42.6458	541.44
42.6602	513.53
42.6747	528.39
42.6891	540.85
42.7035	536.61
42.7180	510.98
42.7324	526.47
42.7469	539.37
42.7613	512.17
42.7757	526.14
42.7902	513.71
42.8046	511.50
42.8191	509.93
42.8335	494.70
42.8479	492.32
42.8624	537.82
42.8768	539.21
42.8913	537.85
42.9057	555.59
42.9201	515.58
42.9346	503.66
42.9490	513.34
42.9635	485.41
42.9779	510.21
42.9923	488.39
43.0068	496.16
43.0212	545.99
43.0357	550.07
43.0501	539.47
43.0645	534.41
43.0790	504.27
43.0934	525.88
43.1079	549.89
43.1223	517.03
43.1367	490.02
43.1512	486.39
43.1656	502.88
43.1801	532.18
43.1945	513.17
43.2089	509.39
43.2234	496.40
43.2378	536.90
43.2523	528.17
43.2667	521.15
43.2811	522.11
43.2956	537.45
43.3100	543.32
43.3245	515.90
43.3389	500.72
43.3533	514.72
43.3678	514.36
43.3822	546.02
43.3967	520.63
43.4111	507.93
43.4255	549.00
43.4400	559.52
43.4544	509.27
43.4689	543.41
43.4833	512.97
43.4977	489.42
43.5122	503.06
43.5266	493.26
43.5411	482.22
43.5555	481.59
43.5699	511.15
43.5844	529.50
43.5988	534.09
43.6133	538.88
43.6277	529.78
43.6421	508.14
43.6566	514.96
43.6710	499.05
43.6855	482.70
43.6999	497.15
43.7143	527.82
43.7288	504.56
43.7432	516.34
43.7577	531.39
43.7721	525.45
43.7865	534.42
43.8010	522.27
43.8154	538.18
43.8299	537.12
43.8443	508.94
43.8587	515.08
43.8732	520.24
43.8876	556.82
43.9021	620.23
43.9165	634.29
43.9309	602.87
43.9454	635.90
43.9598	599.48
43.9743	641.44
43.9887	672.82
44.0031	647.40
44.0176	655.14
44.0320	616.70
44.0465	597.07
44.0609	583.09
44.0753	598.06
44.0898	626.40
44.1042	574.54
44.1187	556.74
44.1331	551.17
44.1475	532.11
44.1620	547.01
44.1764	535.42
44.1909	527.85
44.2053	543.44
44.2197	518.35
44.2342	529.50
44.2486	582.82
44.2631	504.02
44.2775	542.49
44.2919	520.26
44.3064	501.40
44.3208	509.84
44.3353	545.09
44.3497	522.54
44.3641	526.35
44.3786	535.48
44.3930	549.71
44.4075	574.97
44.4219	606.92
44.4363	620.67
44.4508	573.25
44.4652	585.45
44.4797	628.14
44.4941	556.72
44.5085	578.99
44.5230	580.48
44.5374	569.33
44.5519	567.05
44.5663	600.32
44.5807	563.53
44.5952	566.74
44.6096	535.89
44.6241	533.08
44.6385	590.07
44.6529	611.03
44.6674	574.15
44.6818	595.09
44.6963	589.67
44.7107	630.18
44.7251	714.13
44.7396	757.97
44.7540	803.11
44.7685	849.36
44.7829	859.07
44.7973	882.53
44.8118	875.61
44.8262	811.11
44.8407	766.83
44.8551	727.93
44.8695	725.67
44.8840	711.15
44.8984	746.02
44.9129	699.16
44.9273	714.25
44.9417	632.95
44.9562	578.90
44.9706	577.89
44.9851	600.83
44.9995	560.56
45.0139	567.50
45.0284	514.17
45.0428	508.05
45.0573	561.77
45.0717	529.46
45.0861	556.24
45.1006	495.98
45.1150	504.29
45.1295	521.28
45.1439	498.17
45.1583	493.96
45.1728	525.40
45.1872	516.57
45.2017	503.59
45.2161	494.41
45.2305	501.86
45.2450	509.73
45.2594	478.75
45.2739	515.33
45.2883	506.02
45.3028	542.64
45.3172	538.85
45.3316	522.18
45.3461	514.53
45.3605	493.41
45.3750	475.33
45.3894	485.43
45.4038	490.02
45.4183	501.59
45.4327	530.80
45.4472	531.45
45.4616	498.05
45.4760	522.08
45.4905	500.98
45.5049	493.68
45.5194	521.15
45.5338	509.80
45.5482	510.04
45.5627	520.96
45.5771	490.81
45.5916	522.69
45.6060	513.83
45.6204	505.85
45.6349	509.43
45.6493	513.94
45.6638	532.54
45.6782	513.11
45.6926	502.74
45.7071	541.15
45.7215	500.95
45.7360	499.19
45.7504	537.80
45.7648	522.47
45.7793	532.38
45.7937	507.84
45.8082	540.55
45.8226	547.88
45.8370	518.97
45.8515	536.94
45.8659	540.07
45.8804	540.19
45.8948	525.65
45.9092	520.06
45.9237	528.12
45.9381	515.57
45.9526	494.43
45.9670	454.63
45.9814	464.29
45.9959	522.64
46.0103	522.92
46.0248	498.46
46.0392	480.56
46.0536	488.98
46.0681	479.53
46.0825	512.10
46.0970	552.30
46.1114	515.66
46.1258	488.44
46.1403	497.10
46.1547	471.13
46.1692	498.43
46.1836	519.20
46.1980	496.11
46.2125	507.32
46.2269	506.79
46.2414	490.32
46.2558	498.99
46.2702	524.42
46.2847	518.72
46.2991	507.83
46.3136	499.56
46.3280	498.05
46.3424	520.04
46.3569	502.40
46.3713	504.36
46.3858	494.37
46.4002	509.39
46.4146	522.23
46.4291	516.18
46.4435	481.71
46.4580	476.75
46.4724	532.30
46.4868	517.13
46.5013	473.49
46.5157	466.34
46.5302	493.11
46.5446	500.61
46.5590	533.15
46.5735	524.39
46.5879	517.69
46.6024	521.46
46.6168	516.99
46.6312	491.98
46.6457	494.52
46.6601	512.66
46.6746	502.42
46.6890	494.42
46.7034	508.06
46.7179	486.17
46.7323	506.54
46.7468	502.29
46.7612	481.12
46.7756	480.95
46.7901	537.49
46.8045	531.47
46.8190	552.18
46.8334	515.03
46.8478	489.39
46.8623	516.83
46.8767	485.85
46.8912	495.03
46.9056	534.99
46.9200	530.28
46.9345	531.91
46.9489	498.49
46.9634	515.22
46.9778	505.42
46.9922	500.27
47.0067	517.78
47.0211	543.78
47.0356	514.40
47.0500	486.16
47.0644	477.56
47.0789	503.46
47.0933	515.68
47.1078	481.55
47.1222	514.64
47.1366	512.89
47.1511	502.84
47.1655	527.88
47.1800	525.32
47.1944	517.97
47.2088	519.77
47.2233	538.01
47.2377	506.38
47.2522	525.02
47.2666	502.55
47.2810	510.52
47.2955	494.11
47.3099	498.84
47.3244	498.94
47.3388	495.97
47.3532	506.79
47.3677	507.65
47.3821	519.96
47.3966	458.52
47.4110	494.62
47.4254	534.83
47.4399	479.43
47.4543	480.00
47.4688	482.85
47.4832	492.54
47.4976	530.67
47.5121	510.79
47.5265	475.81
47.5410	486.54
47.5554	524.24
47.5698	521.47
47.5843	498.99
47.5987	483.76
47.6132	507.23
47.6276	507.46
47.6420	479.88
47.6565	509.69
47.6709	506.90
47.6854	471.75
47.6998	493.64
47.7142	492.35
47.7287	484.70
47.7431	516.53
47.7576	530.69
47.7720	516.09
47.7864	498.27
47.8009	516.97
47.8153	512.56
47.8298	530.27
47.8442	523.93
47.8586	530.44
47.8731	492.70
47.8875	492.16
47.9020	526.58
47.9164	527.53
47.9308	496.78
47.9453	517.46
47.9597	486.84
47.9742	486.24
47.9886	488.63
48.0030	506.25
48.0175	502.63
48.0319	491.34
48.0464	503.50
48.0608	506.72
48.0752	515.31
48.0897	535.65
48.1041	505.67
48.1186	525.58
48.1330	504.24
48.1474	484.05
48.1619	502.06
48.1763	476.73
48.1908	474.04
48.2052	529.00
48.2196	544.25
48.2341	501.84
48.2485	494.30
48.2630	485.27
48.2774	512.46
48.2918	479.90
48.3063	517.21
48.3207	531.11
48.3352	534.88
48.3496	514.65
48.3640	511.73
48.3785	505.79
48.3929	504.59
48.4074	510.89
48.4218	509.14
48.4362	503.20
48.4507	502.89
48.4651	505.58
48.4796	511.89
48.4940	537.70
48.5084	487.96
48.5229	525.37
48.5373	519.21
48.5518	501.97
48.5662	496.80
48.5806	487.43
48.5951	524.15
48.6095	510.37
48.6240	559.74
48.6384	560.08
48.6528	549.95
48.6673	524.82
48.6817	511.35
48.6962	529.55
48.7106	540.80
48.7250	512.09
48.7395	528.66
48.7539	511.28
48.7684	526.74
48.7828	530.64
48.7972	546.95
48.8117	535.90
48.8261	521.62
48.8406	518.25
48.8550	540.11
48.8694	565.42
48.8839	537.11
48.8983	594.45
48.9128	569.69
48.9272	543.58
48.9416	538.55
48.9561	544.32
48.9705	574.36
48.9850	581.10
48.9994	590.64
49.0139	570.92
49.0283	604.46
49.0427	624.87
49.0572	618.47
49.0716	683.14
49.0861	709.29
49.1005	663.57
49.1149	714.45
49.1294	804.01
49.1438	776.93
49.1583	785.31
49.1727	869.30
49.1871	897.97
49.2016	974.69
49.2160	1088.65
49.2305	1046.80
49.2449	1116.40
49.2593	1207.97
49.2738	1267.98
49.2882	1454.75
49.3027	1531.58
49.3171	1554.93
49.3315	1677.86
49.3460	1745.58
49.3604	1750.01
49.3749	1776.78
49.3893	1737.96
49.4037	1713.61
49.4182	1816.62
49.4326	1782.78
49.4471	1595.18
49.4615	1617.75
49.4759	1521.61
49.4904	1490.16
49.5048	1414.46
49.5193	1306.20
49.5337	1254.55
49.5481	1218.96
49.5626	1121.95
49.5770	1050.91
49.5915	980.23
49.6059	922.60
49.6203	887.44
49.6348	846.77
49.6492	772.41
49.6637	766.13
49.6781	726.57
49.6925	684.17
49.7070	650.44
49.7214	666.03
49.7359	621.68
49.7503	616.55
49.7647	601.07
49.7792	601.22
49.7936	591.09
49.8081	613.71
49.8225	562.46
49.8369	564.53
49.8514	567.82
49.8658	604.37
49.8803	550.10
49.8947	530.09
49.9091	536.91
49.9236	507.40
49.9380	532.73
49.9525	525.69
49.9669	535.93
49.9813	543.60
49.9958	521.43
50.0102	523.65
50.0247	525.40
50.0391	541.66
50.0535	541.87
50.0680	546.87
50.0824	548.04
50.0969	542.92
50.1113	505.08
50.1257	526.85
50.1402	546.08
50.1546	503.20
50.1691	515.97
50.1835	494.49
50.1979	513.58
50.2124	534.12
50.2268	542.72
50.2413	505.19
50.2557	533.84
50.2701	507.12
50.2846	530.79
50.2990	528.17
50.3135	525.16
50.3279	536.84
50.3423	553.43
50.3568	517.88
50.3712	489.20
50.3857	512.85
50.4001	496.90
50.4145	523.06
50.4290	565.70
50.4434	500.95
50.4579	511.83
50.4723	557.13
50.4867	514.42
50.5012	508.64
50.5156	504.15
50.5301	506.58
50.5445	475.41
50.5589	526.26
50.5734	513.01
50.5878	488.75
50.6023	524.24
50.6167	485.12
50.6311	480.71
50.6456	513.24
50.6600	523.93
50.6745	495.62
50.6889	456.73
50.7033	508.13
50.7178	489.85
50.7322	523.96
50.7467	546.67
50.7611	537.80
50.7755	518.65
50.7900	546.54
50.8044	514.48
50.8189	502.40
50.8333	530.94
50.8477	517.38
50.8622	523.60
50.8766	499.72
50.8911	472.05
50.9055	488.09
50.9199	491.40
50.9344	507.78
50.9488	490.17
50.9633	485.53
50.9777	506.95
50.9921	534.76
51.0066	508.89
51.0210	476.45
51.0355	491.12
51.0499	525.31
51.0643	510.27
51.0788	519.26
51.0932	542.55
51.1077	513.83
51.1221	509.23
51.1365	520.48
51.1510	502.32
51.1654	502.20
51.1799	484.39
51.1943	474.42
51.2087	483.58
51.2232	504.87
51.2376	531.49
51.2521	516.19
51.2665	535.75
51.2809	497.22
51.2954	485.60
51.3098	519.98
51.3243	525.14
51.3387	534.63
51.3531	525.23
51.3676	515.10
51.3820	542.72
51.3965	528.08
51.4109	506.63
51.4253	504.22
51.4398	482.52
51.4542	511.10
51.4687	510.07
51.4831	547.74
51.4975	504.15
51.5120	501.27
51.5264	509.13
51.5409	513.23
51.5553	524.45
51.5697	519.28
51.5842	521.91
51.5986	521.61
51.6131	518.97
51.6275	497.69
51.6419	496.24
51.6564	504.82
51.6708	540.35
51.6853	463.81
51.6997	464.85
51.7141	509.30
51.7286	509.05
51.7430	531.12
51.7575	532.53
51.7719	514.00
51.7863	519.68
51.8008	494.65
51.8152	490.91
51.8297	484.85
51.8441	480.81
51.8585	493.48
51.8730	500.41
51.8874	511.58
51.9019	534.36
51.9163	507.14
51.9307	508.11
51.9452	483.17
51.9596	505.65
51.9741	528.86
51.9885	492.25
52.0029	504.57
52.0174	529.24
52.0318	560.16
52.0463	503.39
52.0607	522.70
52.0751	508.87
52.0896	531.76
52.1040	520.05
52.1185	498.57
52.1329	503.93
52.1473	524.53
52.1618	530.28
52.1762	507.84
52.1907	521.11
52.2051	507.86
52.2195	499.72
52.2340	530.69
52.2484	507.38
52.2629	480.38
52.2773	503.31
52.2917	504.04
52.3062	485.31
52.3206	508.91
52.3351	523.84
52.3495	504.38
52.3639	505.27
52.3784	483.35
52.3928	495.20
52.4073	494.74
52.4217	502.40
52.4361	521.11
52.4506	518.79
52.4650	527.96
52.4795	531.13
52.4939	510.11
52.5083	460.80
52.5228	503.98
52.5372	550.63
52.5517	495.29
52.5661	484.71
52.5805	491.53
52.5950	519.11
52.6094	521.11
52.6239	522.17
52.6383	493.66
52.6527	543.14
52.6672	528.19
52.6816	510.77
52.6961	516.66
52.7105	518.97
52.7250	523.19
52.7394	503.91
52.7538	539.69
52.7683	523.79
52.7827	556.20
52.7972	521.33
52.8116	533.18
52.8260	502.73
52.8405	468.50
52.8549	476.50
52.8694	503.88
52.8838	526.86
52.8982	533.21
52.9127	487.71
52.9271	515.69
52.9416	526.19
52.9560	518.48
52.9704	553.91
52.9849	493.00
52.9993	537.45
53.0138	508.15
53.0282	527.25
53.0426	507.81
53.0571	537.44
53.0715	516.39
53.0860	497.86
53.1004	511.73
53.1148	510.25
53.1293	549.84
53.1437	495.95
53.1582	528.69
53.1726	544.21
53.1870	540.78
53.2015	516.18
53.2159	496.65
53.2304	493.39
53.2448	520.85
53.2592	513.33
53.2737	533.14
53.2881	546.27
53.3026	556.01
53.3170	546.26
53.3314	532.34
53.3459	518.73
53.3603	548.16
53.3748	536.50
53.3892	511.95
53.4036	485.04
53.4181	498.85
53.4325	513.30
53.4470	521.48
53.4614	531.37
53.4758	544.30
53.4903	504.71
53.5047	490.07
53.5192	510.70
53.5336	531.66
53.5480	543.42
53.5625	558.26
53.5769	545.94
53.5914	470.50
53.6058	477.86
53.6202	498.33
53.6347	526.96
53.6491	490.62
53.6636	512.58
53.6780	516.51
53.6924	504.43
53.7069	559.52
53.7213	514.95
53.7358	507.97
53.7502	522.70
53.7646	518.22
53.7791	513.02
53.7935	494.83
53.8080	510.77
53.8224	509.88
53.8368	542.71
53.8513	558.89
53.8657	509.08
53.8802	519.03
53.8946	517.96
53.9090	536.58
53.9235	512.83
53.9379	559.57
53.9524	552.30
53.9668	521.91
53.9812	540.98
53.9957	501.10
54.0101	482.22
54.0246	538.24
54.0390	546.50
54.0534	512.78
54.0679	531.11
54.0823	540.31
54.0968	512.50
54.1112	520.80
54.1256	565.83
54.1401	525.67
54.1545	509.43
54.1690	542.74
54.1834	528.52
54.1978	523.95
54.2123	527.26
54.2267	528.71
54.2412	512.66
54.2556	505.72
54.2700	486.85
54.2845	514.21
54.2989	533.13
54.3134	523.56
54.3278	531.85
54.3422	531.72
54.3567	544.95
54.3711	537.56
54.3856	534.60
54.4000	568.83
54.4144	543.12
54.4289	570.89
54.4433	541.39
54.4578	521.41
54.4722	586.20
54.4866	590.82
54.5011	575.41
54.5155	587.78
54.5300	660.07
54.5444	627.79
54.5588	593.83
54.5733	580.12
54.5877	597.37
54.6022	619.18
54.6166	606.95
54.6310	588.61
54.6455	622.43
54.6599	566.08
54.6744	577.13
54.6888	550.62
54.7032	557.29
54.7177	575.11
54.7321	564.43
54.7466	573.97
54.7610	517.82
54.7754	549.51
54.7899	562.07
54.8043	542.51
54.8188	516.27
54.8332	516.51
54.8476	560.27
54.8621	568.83
54.8765	563.63
54.8910	490.72
54.9054	497.11
54.9198	488.10
54.9343	519.72
54.9487	527.88
54.9632	534.58
54.9776	507.66
54.9920	526.76
55.0065	514.94
55.0209	538.55
55.0354	537.97
55.0498	518.88
55.0642	541.12
55.0787	557.70
55.0931	537.71
55.1076	492.29
55.1220	525.97
55.1364	509.19
55.1509	507.40
55.1653	553.48
55.1798	557.97
55.1942	508.79
55.2086	509.09
55.2231	519.66
55.2375	530.64
55.2520	542.49
55.2664	531.55
55.2808	548.90
55.2953	523.43
55.3097	534.73
55.3242	544.29
55.3386	538.46
55.3530	552.19
55.3675	516.42
55.3819	517.70
55.3964	523.25
55.4108	532.48
55.4252	529.45
55.4397	486.39
55.4541	481.30
55.4686	510.53
55.4830	522.98
55.4974	548.35
55.5119	514.97
55.5263	512.16
55.5408	512.67
55.5552	508.83
55.5696	517.24
55.5841	529.76
55.5985	524.09
55.6130	538.15
55.6274	517.56
55.6418	521.85
55.6563	513.30
55.6707	537.05
55.6852	536.59
55.6996	522.59
55.7140	522.96
55.7285	495.99
55.7429	522.07
55.7574	522.78
55.7718	539.52
55.7862	545.95
55.8007	505.84
55.8151	528.97
55.8296	561.40
55.8440	539.45
55.8584	530.15
55.8729	535.72
55.8873	510.42
55.9018	525.29
55.9162	520.65
55.9306	530.15
55.9451	519.71
55.9595	512.07
55.9740	534.82
55.9884	527.40
56.0028	515.15
56.0173	537.97
56.0317	543.47
56.0462	545.27
56.0606	501.14
56.0750	529.92
56.0895	563.18
56.1039	541.57
56.1184	549.31
56.1328	557.37
56.1472	500.90
56.1617	508.85
56.1761	499.14
56.1906	485.18
56.2050	508.14
56.2194	528.93
56.2339	525.95
56.2483	528.81
56.2628	524.56
56.2772	535.54
56.2916	536.12
56.3061	519.52
56.3205	561.90
56.3350	523.41
56.3494	542.61
56.3639	494.75
56.3783	497.73
56.3927	504.56
56.4072	513.04
56.4216	537.96
56.4361	530.94
56.4505	487.91
56.4649	514.22
56.4794	541.10
56.4938	528.94
56.5083	504.71
56.5227	505.53
56.5371	510.11
56.5516	512.44
56.5660	516.94
56.5805	521.17
56.5949	521.60
56.6093	535.77
56.6238	553.67
56.6382	531.62
56.6527	476.10
56.6671	514.19
56.6815	538.67
56.6960	526.81
56.7104	544.45
56.7249	553.95
56.7393	511.66
56.7537	495.77
56.7682	481.06
56.7826	519.80
56.7971	510.20
56.8115	528.45
56.8259	524.01
56.8404	553.50
56.8548	521.15
56.8693	493.37
56.8837	527.89
56.8981	551.11
56.9126	521.34
56.9270	539.47
56.9415	574.60
56.9559	516.45
56.9703	545.09
56.9848	512.09
56.9992	536.18
57.0137	526.27
57.0281	567.31
57.0425	525.16
57.0570	527.29
57.0714	497.24
57.0859	495.57
57.1003	551.94
57.1147	547.33
57.1292	530.72
57.1436	506.82
57.1581	497.41
57.1725	526.83
57.1869	534.73
57.2014	535.99
57.2158	498.21
57.2303	528.82
57.2447	564.05
57.2591	534.16
57.2736	534.63
57.2880	518.82
57.3025	508.38
57.3169	493.82
57.3313	533.49
57.3458	539.65
57.3602	574.30
57.3747	560.54
57.3891	473.51
57.4035	511.66
57.4180	498.58
57.4324	558.00
57.4469	531.70
57.4613	536.64
57.4757	540.59
57.4902	538.22
57.5046	503.54
57.5191	523.72
57.5335	515.05
57.5479	532.00
57.5624	556.23
57.5768	532.60
57.5913	522.22
57.6057	512.85
57.6201	517.94
57.6346	532.91
57.6490	530.85
57.6635	513.80
57.6779	513.91
57.6923	500.38
57.7068	546.17
57.7212	521.36
57.7357	504.92
57.7501	531.12
57.7645	523.96
57.7790	532.66
57.7934	533.93
57.8079	521.40
57.8223	528.85
57.8367	523.54
57.8512	523.76
57.8656	524.04
57.8801	508.67
57.8945	518.34
57.9089	575.51
57.9234	609.04
57.9378	570.00
57.9523	549.69
57.9667	558.60
57.9811	566.32
57.9956	543.96
58.0100	535.91
58.0245	601.36
58.0389	614.40
58.0533	578.10
58.0678	584.97
58.0822	580.52
58.0967	615.23
58.1111	628.60
58.1255	635.31
58.1400	659.94
58.1544	643.34
58.1689	691.80
58.1833	708.84
58.1977	698.58
58.2122	710.89
58.2266	679.20
58.2411	683.98
58.2555	678.02
58.2699	645.78
58.2844	639.75
58.2988	618.68
58.3133	642.58
58.3277	662.34
58.3421	628.21
58.3566	658.54
58.3710	603.16
58.3855	597.71
58.3999	592.20
58.4143	576.43
58.4288	582.16
58.4432	576.43
58.4577	580.01
58.4721	586.58
58.4865	549.03
58.5010	556.91
58.5154	557.93
58.5299	548.64
58.5443	523.06
58.5587	554.63
58.5732	555.17
58.5876	544.85
58.6021	548.38
58.6165	556.26
58.6309	552.91
58.6454	535.27
58.6598	550.03
58.6743	527.88
58.6887	518.99
58.7031	551.47
58.7176	551.97
58.7320	555.55
58.7465	570.61
58.7609	549.07
58.7753	556.19
58.7898	514.97
58.8042	517.97
58.8187	527.51
58.8331	552.67
58.8475	513.20
58.8620	539.38
58.8764	517.42
58.8909	540.77
58.9053	579.46
58.9197	547.23
58.9342	534.89
58.9486	576.22
58.9631	533.29
58.9775	502.30
58.9919	525.15
59.0064	578.48
59.0208	570.98
59.0353	563.42
59.0497	556.23
59.0641	552.47
59.0786	551.86
59.0930	576.92
59.1075	530.59
59.1219	544.41
59.1363	552.55
59.1508	523.07
59.1652	515.58
59.1797	529.83
59.1941	556.91
59.2085	525.61
59.2230	541.50
59.2374	548.88
59.2519	549.01
59.2663	548.52
59.2807	578.41
59.2952	549.28
59.3096	555.26
59.3241	560.56
59.3385	546.59
59.3529	544.21
59.3674	571.35
59.3818	568.01
59.3963	549.10
59.4107	559.73
59.4251	560.70
59.4396	547.34
59.4540	575.41
59.4685	599.19
59.4829	582.22
59.4973	580.27
59.5118	545.52
59.5262	551.03
59.5407	554.49
59.5551	609.14
59.5695	534.78
59.5840	553.59
59.5984	535.60
59.6129	543.70
59.6273	556.12
59.6417	526.26
59.6562	560.31
59.6706	570.75
59.6851	523.68
59.6995	515.28
59.7139	562.76
59.7284	526.33
59.7428	547.56
59.7573	512.86
59.7717	537.50
59.7861	543.99
59.8006	546.53
59.8150	555.78
59.8295	556.69
59.8439	545.64
59.8583	537.43
59.8728	549.46
59.8872	535.12
59.9017	562.20
59.9161	523.98
59.9305	509.72
59.9450	535.55
59.9594	560.46
59.9739	541.15
59.9883	489.62
60.0027	536.45
60.0172	549.75
60.0316	530.21
60.0461	534.67
60.0605	542.46
60.0750	515.84
60.0894	534.63
60.1038	522.83
60.1183	564.18
60.1327	531.60
60.1472	530.20
60.1616	564.06
60.1760	536.11
60.1905	526.02
60.2049	545.35
60.2194	538.36
60.2338	550.03
60.2482	546.15
60.2627	535.37
60.2771	511.09
60.2916	517.62
60.3060	572.62
60.3204	513.93
60.3349	519.83
60.3493	524.99
60.3638	542.65
60.3782	516.49
60.3926	482.15
60.4071	515.01
60.4215	573.03
60.4360	570.96
60.4504	541.23
60.4648	558.13
60.4793	538.24
60.4937	591.70
60.5082	552.53
60.5226	535.71
60.5370	529.99
60.5515	529.65
60.5659	556.09
60.5804	520.42
60.5948	517.09
60.6092	554.70
60.6237	508.80
60.6381	515.92
60.6526	476.55
60.6670	518.52
60.6814	488.48
60.6959	514.27
60.7103	527.20
60.7248	578.05
60.7392	532.82
60.7536	564.52
60.7681	556.80
60.7825	581.30
60.7970	507.05
60.8114	533.24
60.8258	598.60
60.8403	572.84
60.8547	575.61
60.8692	530.62
60.8836	498.19
60.8980	568.17
60.9125	531.45
60.9269	494.71
60.9414	547.01
60.9558	529.03
60.9702	523.79
60.9847	523.15
60.9991	552.89
61.0136	560.67
61.0280	518.11
61.0424	532.26
61.0569	519.77
61.0713	562.02
61.0858	578.31
61.1002	529.81
61.1146	504.70
61.1291	538.30
61.1435	531.03
61.1580	537.34
61.1724	577.47
61.1868	542.24
61.2013	528.13
61.2157	554.50
61.2302	530.28
61.2446	532.60
61.2590	541.53
61.2735	553.44
61.2879	551.54
61.3024	520.13
61.3168	517.26
61.3312	557.98
61.3457	560.97
61.3601	559.32
61.3746	532.75
61.3890	559.58
61.4034	577.27
61.4179	548.47
61.4323	544.67
61.4468	525.58
61.4612	573.50
61.4756	549.12
61.4901	558.76
61.5045	541.79
61.5190	533.40
61.5334	547.89
61.5478	553.07
61.5623	569.34
61.5767	554.58
61.5912	529.42
61.6056	567.94
61.6200	540.31
61.6345	542.33
61.6489	520.36
61.6634	567.82
61.6778	542.32
61.6922	552.66
61.7067	569.80
61.7211	570.96
61.7356	526.05
61.7500	568.33
61.7644	582.14
61.7789	585.50
61.7933	578.42
61.8078	557.39
61.8222	572.27
61.8366	590.76
61.8511	540.50
61.8655	586.08
61.8800	540.77
61.8944	567.20
61.9088	562.02
61.9233	515.95
61.9377	563.28
61.9522	557.90
61.9666	546.69
61.9810	541.73
61.9955	555.95
62.0099	554.60
62.0244	548.68
62.0388	548.54
62.0532	547.71
62.0677	560.50
62.0821	584.80
62.0966	571.32
62.1110	519.50
62.1254	547.37
62.1399	537.78
62.1543	556.39
62.1688	560.51
62.1832	544.45
62.1976	511.37
62.2121	528.84
62.2265	554.61
62.2410	536.18
62.2554	542.80
62.2698	524.61
62.2843	580.64
62.2987	543.13
62.3132	564.99
62.3276	551.08
62.3420	530.00
62.3565	525.34
62.3709	570.12
62.3854	569.96
62.3998	550.29
62.4142	578.33
62.4287	584.98
62.4431	570.86
62.4576	567.55
62.4720	566.85
62.4864	556.62
62.5009	563.02
62.5153	546.32
62.5298	542.76
62.5442	557.37
62.5586	570.62
62.5731	543.16
62.5875	552.46
62.6020	571.50
62.6164	555.94
62.6308	542.63
62.6453	518.70
62.6597	572.44
62.6742	565.09
62.6886	530.44
62.7030	520.15
62.7175	561.32
62.7319	566.56
62.7464	568.95
62.7608	554.28
62.7752	554.52
62.7897	543.51
62.8041	558.51
62.8186	602.83
62.8330	576.12
62.8474	594.17
62.8619	570.68
62.8763	560.36
62.8908	552.30
62.9052	586.72
62.9196	588.15
62.9341	587.22
62.9485	560.59
62.9630	541.83
62.9774	520.78
62.9918	553.15
63.0063	584.02
63.0207	609.53
63.0352	576.56
63.0496	564.75
63.0640	575.35
63.0785	549.28
63.0929	600.99
63.1074	573.41
63.1218	530.05
63.1362	580.77
63.1507	576.15
63.1651	597.58
63.1796	577.63
63.1940	582.64
63.2084	568.23
63.2229	568.90
63.2373	538.80
63.2518	559.22
63.2662	573.45
63.2806	570.45
63.2951	550.25
63.3095	572.72
63.3240	607.77
63.3384	598.06
63.3528	567.13
63.3673	595.71
63.3817	568.69
63.3962	563.96
63.4106	552.61
63.4250	626.13
63.4395	592.71
63.4539	577.51
63.4684	599.65
63.4828	550.50
63.4972	567.07
63.5117	556.01
63.5261	608.70
63.5406	608.10
63.5550	617.28
63.5694	642.60
63.5839	631.64
63.5983	643.51
63.6128	618.04
63.6272	636.92
63.6416	657.20
63.6561	648.75
63.6705	644.49
63.6850	592.08
63.6994	626.01
63.7138	655.04
63.7283	636.55
63.7427	619.01
63.7572	633.31
63.7716	666.87
63.7861	694.20
63.8005	688.25
63.8149	703.97
63.8294	811.02
63.8438	796.85
63.8583	822.09
63.8727	887.66
63.8871	910.03
63.9016	866.52
63.9160	842.42
63.9305	835.18
63.9449	803.36
63.9593	798.64
63.9738	806.23
63.9882	789.67
64.0027	767.00
64.0171	777.88
64.0315	787.38
64.0460	777.44
64.0604	769.79
64.0749	773.70
64.0893	770.86
64.1037	768.67
64.1182	790.59
64.1326	740.66
64.1471	704.09
64.1615	720.79
64.1759	685.67
64.1904	714.10
64.2048	699.63
64.2193	650.78
64.2337	642.32
64.2481	641.77
64.2626	643.75
64.2770	668.69
64.2915	641.72
64.3059	647.83
64.3203	653.17
64.3348	655.33
64.3492	644.16
64.3637	610.62
64.3781	630.86
64.3925	640.14
64.4070	625.96
64.4214	633.10
64.4359	622.67
64.4503	622.11
64.4647	639.43
64.4792	657.58
64.4936	654.38
64.5081	629.91
64.5225	626.48
64.5369	624.13
64.5514	649.04
64.5658	633.28
64.5803	616.70
64.5947	633.55
64.6091	649.66
64.6236	603.75
64.6380	692.29
64.6525	654.20
64.6669	665.91
64.6813	692.39
64.6958	685.64
64.7102	697.34
64.7247	685.17
64.7391	671.86
64.7535	679.58
64.7680	690.90
64.7824	723.27
64.7969	796.41
64.8113	751.18
64.8257	761.55
64.8402	774.92
64.8546	764.02
64.8691	801.37
64.8835	845.90
64.8979	892.95
64.9124	909.11
64.9268	888.16
64.9413	947.41
64.9557	973.75
64.9701	962.13
64.9846	1041.63
64.9990	1179.28
65.0135	1309.90
65.0279	1453.54
65.0423	1738.63
65.0568	2130.30
65.0712	2758.43
65.0857	3657.27
65.1001	4662.96
65.1145	6194.50
65.1290	8226.85
65.1434	9733.02
65.1579	11296.29
65.1723	12099.25
65.1867	11359.51
65.2012	9947.15
65.2156	8334.63
65.2301	6578.59
65.2445	5240.79
65.2589	4472.96
65.2734	4335.86
65.2878	4476.86
65.3023	4989.05
65.3167	5840.94
65.3311	6663.49
65.3456	7047.10
65.3600	6931.93
65.3745	6470.31
65.3889	5468.11
65.4033	4376.45
65.4178	3435.40
65.4322	2680.13
65.4467	1987.69
65.4611	1663.54
65.4755	1520.33
65.4900	1313.48
65.5044	1115.38
65.5189	1049.33
65.5333	1003.45
65.5477	931.00
65.5622	938.63
65.5766	836.96
65.5911	819.54
65.6055	811.25
65.6199	809.78
65.6344	800.00
65.6488	806.36
65.6633	727.71
65.6777	703.77
65.6921	760.90
65.7066	718.63
65.7210	726.38
65.7355	715.93
65.7499	710.49
65.7643	692.68
65.7788	714.37
65.7932	697.47
65.8077	688.52
65.8221	670.49
65.8365	699.93
65.8510	641.38
65.8654	652.38
65.8799	657.14
65.8943	627.74
65.9087	636.16
65.9232	634.53
65.9376	656.80
65.9521	645.01
65.9665	592.01
65.9809	633.54
65.9954	620.02
66.0098	620.54
66.0243	615.93
66.0387	623.86
66.0531	655.39
66.0676	646.88
66.0820	642.98
66.0965	638.81
66.1109	673.62
66.1253	660.33
66.1398	606.84
66.1542	564.03
66.1687	606.53
66.1831	629.35
66.1975	596.22
66.2120	606.18
66.2264	602.78
66.2409	638.24
66.2553	632.97
66.2697	645.64
66.2842	648.69
66.2986	603.93
66.3131	619.77
66.3275	598.07
66.3419	614.30
66.3564	608.09
66.3708	603.12
66.3853	605.65
66.3997	578.87
66.4141	614.67
66.4286	629.15
66.4430	635.53
66.4575	591.42
66.4719	604.54
66.4863	609.62
66.5008	619.31
66.5152	597.07
66.5297	598.52
66.5441	593.51
66.5585	573.72
66.5730	597.16
66.5874	615.87
66.6019	612.92
66.6163	583.74
66.6307	565.28
66.6452	578.63
66.6596	583.23
66.6741	604.22
66.6885	571.80
66.7029	594.91
66.7174	588.34
66.7318	606.39
66.7463	621.37
66.7607	598.68
66.7751	577.67
66.7896	575.61
66.8040	587.58
66.8185	591.82
66.8329	575.94
66.8473	575.53
66.8618	605.27
66.8762	583.83
66.8907	556.64
66.9051	557.43
66.9195	598.35
66.9340	647.30
66.9484	630.40
66.9629	590.72
66.9773	603.62
66.9917	615.31
67.0062	609.72
67.0206	574.65
67.0351	587.42
67.0495	575.07
67.0639	599.45
67.0784	602.58
67.0928	588.55
67.1073	582.98
67.1217	621.97
67.1361	579.95
67.1506	568.16
67.1650	588.30
67.1795	617.69
67.1939	584.20
67.2083	598.31
67.2228	581.28
67.2372	567.74
67.2517	592.73
67.2661	590.53
67.2805	584.82
67.2950	571.34
67.3094	570.36
67.3239	574.97
67.3383	586.20
67.3527	586.92
67.3672	575.86
67.3816	587.61
67.3961	582.89
67.4105	585.07
67.4250	606.77
67.4394	570.52
67.4538	566.04
67.4683	583.88
67.4827	578.76
67.4972	590.20
67.5116	550.01
67.5260	566.96
67.5405	565.63
67.5549	573.15
67.5694	561.48
67.5838	566.43
67.5982	579.86
67.6127	620.15
67.6271	586.65
67.6416	574.17
67.6560	541.16
67.6704	533.62
67.6849	532.83
67.6993	575.52
67.7138	573.94
67.7282	574.53
67.7426	568.10
67.7571	607.76
67.7715	581.57
67.7860	620.72
67.8004	599.23
67.8148	553.39
67.8293	571.08
67.8437	552.65
67.8582	561.01
67.8726	600.12
67.8870	548.14
67.9015	601.82
67.9159	557.12
67.9304	568.46
67.9448	575.17
67.9592	560.37
67.9737	580.13
67.9881	604.75
68.0026	566.37
68.0170	570.71
68.0314	598.25
68.0459	545.91
68.0603	559.75
68.0748	588.13
68.0892	584.46
68.1036	535.01
68.1181	571.84
68.1325	539.07
68.1470	554.07
68.1614	646.32
68.1758	566.04
68.1903	567.94
68.2047	599.47
68.2192	569.63
68.2336	556.69
68.2480	595.36
68.2625	556.40
68.2769	570.22
68.2914	544.54
68.3058	561.68
68.3202	576.35
68.3347	589.51
68.3491	606.50
68.3636	582.70
68.3780	595.90
68.3924	577.45
68.4069	562.18
68.4213	546.07
68.4358	591.73
68.4502	562.24
68.4646	570.53
68.4791	557.88
68.4935	572.53
68.5080	542.44
68.5224	573.75
68.5368	519.30
68.5513	597.33
68.5657	601.04
68.5802	595.19
68.5946	588.57
68.6090	567.50
68.6235	579.56
68.6379	576.71
68.6524	584.85
68.6668	578.66
68.6812	582.14
68.6957	576.78
68.7101	581.23
68.7246	570.42
68.7390	603.06
68.7534	564.62
68.7679	558.35
68.7823	570.16
68.7968	605.68
68.8112	591.51
68.8256	621.42
68.8401	587.10
68.8545	587.62
68.8690	576.30
68.8834	570.13
68.8978	556.77
68.9123	579.80
68.9267	571.75
68.9412	590.49
68.9556	576.34
68.9700	590.04
68.9845	579.96
68.9989	563.46
69.0134	597.36
69.0278	589.88
69.0422	600.22
69.0567	590.40
69.0711	607.70
69.0856	599.64
69.1000	588.16
69.1144	578.38
69.1289	584.45
69.1433	532.84
69.1578	578.00
69.1722	610.30
69.1866	632.45
69.2011	535.34
69.2155	562.82
69.2300	571.43
69.2444	603.00
69.2588	602.85
69.2733	600.57
69.2877	565.89
69.3022	583.22
69.3166	510.22
69.3310	564.52
69.3455	597.87
69.3599	597.84
69.3744	557.85
69.3888	557.07
69.4032	527.43
69.4177	550.69
69.4321	565.20
69.4466	591.02
69.4610	523.06
69.4754	583.59
69.4899	575.59
69.5043	564.22
69.5188	518.45
69.5332	586.97
69.5476	553.82
69.5621	544.42
69.5765	542.05
69.5910	539.90
69.6054	592.09
69.6198	562.45
69.6343	549.25
69.6487	565.48
69.6632	549.04
69.6776	571.76
69.6920	529.45
69.7065	580.95
69.7209	503.65
69.7354	512.32
69.7498	565.40
69.7642	611.39
69.7787	536.43
69.7931	616.92
69.8076	542.01
69.8220	574.86
69.8364	622.27
69.8509	578.04
69.8653	539.84
69.8798	594.41
69.8942	580.25
69.9086	660.60
69.9231	588.66
69.9375	556.99
69.9520	582.57
69.9664	591.35
69.9808	633.81
69.9953	586.26
70.0097	629.17
70.0242	593.36
70.0386	510.97
70.0530	572.74
70.0675	630.25
70.0819	615.66
70.0964	582.36
70.1108	532.61
70.1252	601.32
70.1397	589.74
70.1541	573.97
70.1686	596.19
70.1830	596.99
70.1974	580.07
70.2119	594.44
70.2263	626.20
70.2408	662.06
70.2552	602.25
70.2696	564.09
70.2841	556.78
70.2985	624.78
70.3130	543.83
70.3274	598.19
70.3418	547.85
70.3563	607.46
70.3707	617.74
70.3852	565.43
70.3996	566.96
70.4140	596.38
70.4285	572.83
70.4429	600.77
70.4574	551.10
70.4718	628.24
70.4862	597.94
70.5007	557.40
70.5151	565.13
70.5296	605.97
70.5440	575.55
70.5584	601.45
70.5729	570.89
70.5873	543.64
70.6018	524.13
70.6162	581.68
70.6306	603.72
70.6451	602.81
70.6595	562.86
70.6740	561.16
70.6884	574.77
70.7028	605.18
70.7173	559.75
70.7317	560.73
70.7462	580.64
70.7606	585.55
70.7750	611.16
70.7895	611.85
70.8039	556.01
70.8184	562.03
70.8328	595.06
70.8472	552.20
70.8617	585.73
70.8761	602.62
70.8906	594.62
70.9050	644.41
70.9194	617.39
70.9339	568.01
70.9483	538.77
70.9628	581.49
70.9772	586.97
70.9916	592.69
71.0061	546.09
71.0205	563.63
71.0350	575.28
71.0494	576.04
71.0638	588.10
71.0783	591.12
71.0927	589.12
71.1072	569.41
71.1216	580.27
71.1361	560.73
71.1505	541.90
71.1649	571.03
71.1794	590.79
71.1938	634.44
71.2083	588.60
71.2227	562.23
71.2371	597.16
71.2516	599.94
71.2660	589.64
71.2805	580.77
71.2949	558.99
71.3093	548.86
71.3238	573.83
71.3382	572.75
71.3527	591.34
71.3671	613.24
71.3815	546.39
71.3960	566.65
71.4104	549.47
71.4249	586.64
71.4393	635.89
71.4537	605.16
71.4682	624.43
71.4826	602.00
71.4971	557.62
71.5115	588.76
71.5259	576.06
71.5404	552.55
71.5548	529.53
71.5693	546.49
71.5837	526.37
71.5981	548.00
71.6126	556.59
71.6270	571.24
71.6415	579.15
71.6559	540.82
71.6703	535.93
71.6848	568.10
71.6992	606.56
71.7137	608.27
71.7281	604.25
71.7425	548.72
71.7570	569.13
71.7714	620.23
71.7859	589.70
71.8003	524.17
71.8147	538.34
71.8292	515.41
71.8436	527.67
71.8581	573.28
71.8725	571.67
71.8869	551.37
71.9014	582.31
71.9158	559.34
71.9303	563.81
71.9447	623.94
71.9591	682.79
71.9736	646.30
71.9880	570.95
72.0025	550.44
72.0169	582.44
72.0313	579.40
72.0458	534.65
72.0602	566.17
72.0747	573.19
72.0891	604.73
72.1035	549.47
72.1180	546.17
72.1324	605.96
72.1469	535.49
72.1613	558.82
72.1757	648.38
72.1902	638.35
72.2046	575.93
72.2191	512.80
72.2335	527.19
72.2479	529.01
72.2624	569.34
72.2768	576.49
72.2913	572.32
72.3057	568.72
72.3201	575.74
72.3346	499.95
72.3490	510.78
72.3635	618.42
72.3779	609.90
72.3923	584.39
72.4068	537.47
72.4212	607.28
72.4357	650.38
72.4501	567.30
72.4645	576.53
72.4790	648.11
72.4934	615.57
72.5079	632.60
72.5223	576.40
72.5367	546.07
72.5512	616.42
72.5656	551.14
72.5801	503.23
72.5945	541.48
72.6089	531.60
72.6234	540.41
72.6378	506.99
72.6523	508.76
72.6667	623.39
72.6811	640.38
72.6956	572.72
72.7100	669.27
72.7245	627.57
72.7389	558.56
72.7533	501.22
72.7678	561.50
72.7822	625.88
72.7967	559.31
72.8111	584.25
72.8255	618.33
72.8400	649.41
72.8544	596.58
72.8689	604.57
72.8833	601.55