2022.09.19 19:37:16
Îáðàçåö: ß÷åéêà LCoV 16-09-2022
Lambda1 = 1.54060
Lambda2 = 1.54439
Lambdam = 1.54186
R = 0.497
2Theta	I

line¹ 0 ;repeat¹ 0
22.1120	501.34
22.1264	544.47
22.1409	505.03
22.1553	503.20
22.1697	597.07
22.1842	486.14
22.1986	539.01
22.2131	624.56
22.2275	515.66
22.2419	493.04
22.2564	516.47
22.2708	586.20
22.2853	580.10
22.2997	618.82
22.3141	639.49
22.3286	600.71
22.3430	526.01
22.3575	511.43
22.3719	511.49
22.3863	540.94
22.4008	526.84
22.4152	600.00
22.4297	570.12
22.4441	577.78
22.4585	565.85
22.4730	710.46
22.4874	631.13
22.5019	548.31
22.5163	515.24
22.5307	566.51
22.5452	641.40
22.5596	654.42
22.5741	650.40
22.5885	615.98
22.6029	619.57
22.6174	574.15
22.6318	663.23
22.6463	593.30
22.6607	538.03
22.6751	495.84
22.6896	588.33
22.7040	591.66
22.7185	527.17
22.7329	515.61
22.7473	574.53
22.7618	541.10
22.7762	579.05
22.7907	539.11
22.8051	565.69
22.8195	632.17
22.8340	565.05
22.8484	567.89
22.8629	540.36
22.8773	464.34
22.8917	493.32
22.9062	629.72
22.9206	567.96
22.9351	516.12
22.9495	543.32
22.9639	565.32
22.9784	538.48
22.9928	640.12
23.0073	589.54
23.0217	590.62
23.0361	615.54
23.0506	577.32
23.0650	529.76
23.0795	582.48
23.0939	546.10
23.1083	509.23
23.1228	602.04
23.1372	557.24
23.1517	563.90
23.1661	488.94
23.1806	492.46
23.1950	495.42
23.2094	567.98
23.2239	612.86
23.2383	578.53
23.2528	580.30
23.2672	549.93
23.2816	493.54
23.2961	537.11
23.3105	488.53
23.3250	548.32
23.3394	589.48
23.3538	615.15
23.3683	651.84
23.3827	507.76
23.3972	569.58
23.4116	582.99
23.4260	597.70
23.4405	532.28
23.4549	526.63
23.4694	514.19
23.4838	563.97
23.4982	564.48
23.5127	595.55
23.5271	572.93
23.5416	590.04
23.5560	548.72
23.5704	559.13
23.5849	572.08
23.5993	565.12
23.6138	530.37
23.6282	539.49
23.6426	513.46
23.6571	543.03
23.6715	586.50
23.6860	563.24
23.7004	554.50
23.7148	546.78
23.7293	563.64
23.7437	523.51
23.7582	542.23
23.7726	583.75
23.7870	569.18
23.8015	524.40
23.8159	577.06
23.8304	561.68
23.8448	494.91
23.8592	588.21
23.8737	582.61
23.8881	554.51
23.9026	572.90
23.9170	530.76
23.9314	486.41
23.9459	562.15
23.9603	542.27
23.9748	617.60
23.9892	600.65
24.0036	592.80
24.0181	631.86
24.0325	572.64
24.0470	519.74
24.0614	564.63
24.0758	486.84
24.0903	553.15
24.1047	586.49
24.1192	543.63
24.1336	610.10
24.1480	535.78
24.1625	565.59
24.1769	557.06
24.1914	575.82
24.2058	560.49
24.2202	523.17
24.2347	549.65
24.2491	607.07
24.2636	562.59
24.2780	563.23
24.2924	577.50
24.3069	528.84
24.3213	553.87
24.3358	631.49
24.3502	559.25
24.3646	546.87
24.3791	547.71
24.3935	524.77
24.4080	538.00
24.4224	573.26
24.4368	545.39
24.4513	562.30
24.4657	581.59
24.4802	515.50
24.4946	600.73
24.5090	557.97
24.5235	520.18
24.5379	546.20
24.5524	506.33
24.5668	547.32
24.5812	542.71
24.5957	569.84
24.6101	551.10
24.6246	520.41
24.6390	547.97
24.6534	595.26
24.6679	570.09
24.6823	530.95
24.6968	544.42
24.7112	573.25
24.7256	521.73
24.7401	537.82
24.7545	572.81
24.7690	516.58
24.7834	544.53
24.7978	528.38
24.8123	503.35
24.8267	584.63
24.8412	499.40
24.8556	635.28
24.8700	567.06
24.8845	548.65
24.8989	583.22
24.9134	582.23
24.9278	549.40
24.9422	539.42
24.9567	542.28
24.9711	539.13
24.9856	528.66
25.0000	560.61
25.0144	501.17
25.0289	570.67
25.0433	556.80
25.0578	492.09
25.0722	528.31
25.0866	552.70
25.1011	554.36
25.1155	582.76
25.1300	568.87
25.1444	521.87
25.1588	516.00
25.1733	521.97
25.1877	482.88
25.2022	510.26
25.2166	552.18
25.2310	534.18
25.2455	560.28
25.2599	529.28
25.2744	554.56
25.2888	538.83
25.3032	591.24
25.3177	580.30
25.3321	544.52
25.3466	553.05
25.3610	509.01
25.3754	498.95
25.3899	538.88
25.4043	542.50
25.4188	548.02
25.4332	486.96
25.4476	498.92
25.4621	499.32
25.4765	564.25
25.4910	545.44
25.5054	522.06
25.5198	499.51
25.5343	565.94
25.5487	577.91
25.5632	543.19
25.5776	525.32
25.5920	523.96
25.6065	509.96
25.6209	536.40
25.6354	537.94
25.6498	539.61
25.6642	532.83
25.6787	532.90
25.6931	533.89
25.7076	537.01
25.7220	510.58
25.7364	560.38
25.7509	554.98
25.7653	534.91
25.7798	524.17
25.7942	566.28
25.8086	535.42
25.8231	586.71
25.8375	589.78
25.8520	558.40
25.8664	569.40
25.8808	532.57
25.8953	536.63
25.9097	524.89
25.9242	531.14
25.9386	574.24
25.9530	547.94
25.9675	579.98
25.9819	570.70
25.9964	580.15
26.0108	580.31
26.0252	541.98
26.0397	564.09
26.0541	574.09
26.0686	545.68
26.0830	536.54
26.0974	538.98
26.1119	519.53
26.1263	522.36
26.1408	556.18
26.1552	535.55
26.1696	541.67
26.1841	509.58
26.1985	517.12
26.2130	517.29
26.2274	518.01
26.2418	537.50
26.2563	580.14
26.2707	519.53
26.2852	518.54
26.2996	546.06
26.3140	511.57
26.3285	524.65
26.3429	548.76
26.3574	575.88
26.3718	531.25
26.3862	524.29
26.4007	547.61
26.4151	550.19
26.4296	526.38
26.4440	509.64
26.4584	500.46
26.4729	530.37
26.4873	515.47
26.5018	563.31
26.5162	543.81
26.5306	560.15
26.5451	539.13
26.5595	522.55
26.5740	530.48
26.5884	548.01
26.6028	547.47
26.6173	552.22
26.6317	533.85
26.6462	552.03
26.6606	560.90
26.6750	534.74
26.6895	519.66
26.7039	518.43
26.7184	512.01
26.7328	476.30
26.7472	516.97
26.7617	521.30
26.7761	531.01
26.7906	528.29
26.8050	501.32
26.8194	523.08
26.8339	515.03
26.8483	493.96
26.8628	553.99
26.8772	543.62
26.8917	554.15
26.9061	540.88
26.9205	508.06
26.9350	532.67
26.9494	535.76
26.9639	517.23
26.9783	534.84
26.9927	509.41
27.0072	488.22
27.0216	521.03
27.0361	532.49
27.0505	551.83
27.0649	547.84
27.0794	545.15
27.0938	558.39
27.1083	544.19
27.1227	529.35
27.1371	508.05
27.1516	506.93
27.1660	529.59
27.1805	545.82
27.1949	510.22
27.2093	504.19
27.2238	480.16
27.2382	519.93
27.2527	505.48
27.2671	515.54
27.2815	520.06
27.2960	509.05
27.3104	497.98
27.3249	519.55
27.3393	518.22
27.3537	519.41
27.3682	532.62
27.3826	531.04
27.3971	493.51
27.4115	512.84
27.4259	547.51
27.4404	505.59
27.4548	511.09
27.4693	542.56
27.4837	560.57
27.4981	532.64
27.5126	537.19
27.5270	525.09
27.5415	509.53
27.5559	511.74
27.5703	516.39
27.5848	557.45
27.5992	497.34
27.6137	505.42
27.6281	530.24
27.6425	518.75
27.6570	501.85
27.6714	481.29
27.6859	484.46
27.7003	507.33
27.7147	522.31
27.7292	498.83
27.7436	522.82
27.7581	515.34
27.7725	506.37
27.7869	498.87
27.8014	522.41
27.8158	555.57
27.8303	502.19
27.8447	501.41
27.8591	543.04
27.8736	542.86
27.8880	503.92
27.9025	503.07
27.9169	532.87
27.9313	527.15
27.9458	533.25
27.9602	531.41
27.9747	524.25
27.9891	536.52
28.0035	476.68
28.0180	454.67
28.0324	504.37
28.0469	528.85
28.0613	503.18
28.0757	487.06
28.0902	517.38
28.1046	534.39
28.1191	518.06
28.1335	509.79
28.1479	511.07
28.1624	513.84
28.1768	556.30
28.1913	520.52
28.2057	523.87
28.2201	549.96
28.2346	515.39
28.2490	508.59
28.2635	500.50
28.2779	534.39
28.2923	515.29
28.3068	526.13
28.3212	540.84
28.3357	530.05
28.3501	527.52
28.3645	504.06
28.3790	538.56
28.3934	504.99
28.4079	525.79
28.4223	536.90
28.4367	498.66
28.4512	490.45
28.4656	508.89
28.4801	515.34
28.4945	504.98
28.5089	509.11
28.5234	482.70
28.5378	569.77
28.5523	545.76
28.5667	523.01
28.5811	512.83
28.5956	509.66
28.6100	498.75
28.6245	511.38
28.6389	537.32
28.6533	552.47
28.6678	496.35
28.6822	496.14
28.6967	504.03
28.7111	537.20
28.7255	533.69
28.7400	532.04
28.7544	510.40
28.7689	489.88
28.7833	507.63
28.7977	518.61
28.8122	556.33
28.8266	495.77
28.8411	509.23
28.8555	532.11
28.8699	531.16
28.8844	494.29
28.8988	517.69
28.9133	518.38
28.9277	515.87
28.9421	529.04
28.9566	465.89
28.9710	479.63
28.9855	529.98
28.9999	476.30
29.0143	507.36
29.0288	536.00
29.0432	488.73
29.0577	552.07
29.0721	498.94
29.0865	511.96
29.1010	503.97
29.1154	466.35
29.1299	514.95
29.1443	508.44
29.1587	511.36
29.1732	535.25
29.1876	499.63
29.2021	486.51
29.2165	486.13
29.2309	474.51
29.2454	508.18
29.2598	504.33
29.2743	504.20
29.2887	525.19
29.3031	525.29
29.3176	468.85
29.3320	491.08
29.3465	510.63
29.3609	518.26
29.3753	515.85
29.3898	497.77
29.4042	511.81
29.4187	504.69
29.4331	500.71
29.4475	487.91
29.4620	486.77
29.4764	535.27
29.4909	528.17
29.5053	521.24
29.5197	513.12
29.5342	516.33
29.5486	501.49
29.5631	494.80
29.5775	519.97
29.5919	531.68
29.6064	529.04
29.6208	480.06
29.6353	527.61
29.6497	525.38
29.6641	503.00
29.6786	515.78
29.6930	531.93
29.7075	546.08
29.7219	525.86
29.7363	499.88
29.7508	541.04
29.7652	517.16
29.7797	526.92
29.7941	478.52
29.8085	477.63
29.8230	507.26
29.8374	546.00
29.8519	535.74
29.8663	539.28
29.8807	515.94
29.8952	518.28
29.9096	533.21
29.9241	531.11
29.9385	530.90
29.9529	492.40
29.9674	481.21
29.9818	503.89
29.9963	478.62
30.0107	460.83
30.0251	493.20
30.0396	504.86
30.0540	499.20
30.0685	465.59
30.0829	527.22
30.0973	539.83
30.1118	493.54
30.1262	496.63
30.1407	479.16
30.1551	501.64
30.1695	540.54
30.1840	516.10
30.1984	513.99
30.2129	496.32
30.2273	500.39
30.2417	548.13
30.2562	514.99
30.2706	509.33
30.2851	506.33
30.2995	553.60
30.3139	538.16
30.3284	512.61
30.3428	524.92
30.3573	529.13
30.3717	509.60
30.3861	509.18
30.4006	507.36
30.4150	547.79
30.4295	561.77
30.4439	521.90
30.4583	545.91
30.4728	585.68
30.4872	565.91
30.5017	572.86
30.5161	661.07
30.5305	689.17
30.5450	717.24
30.5594	758.18
30.5739	746.65
30.5883	726.82
30.6028	776.63
30.6172	761.54
30.6316	729.20
30.6461	700.65
30.6605	688.68
30.6750	657.99
30.6894	637.50
30.7038	625.44
30.7183	581.59
30.7327	557.06
30.7472	533.01
30.7616	499.00
30.7760	541.01
30.7905	533.88
30.8049	536.66
30.8194	528.69
30.8338	495.04
30.8482	554.39
30.8627	547.08
30.8771	561.86
30.8916	503.79
30.9060	511.25
30.9204	505.77
30.9349	537.11
30.9493	519.58
30.9638	538.62
30.9782	495.65
30.9926	509.56
31.0071	527.60
31.0215	513.54
31.0360	490.26
31.0504	508.06
31.0648	519.69
31.0793	490.27
31.0937	514.55
31.1082	535.60
31.1226	513.82
31.1370	525.97
31.1515	507.76
31.1659	481.18
31.1804	509.62
31.1948	477.08
31.2092	500.13
31.2237	482.75
31.2381	524.23
31.2526	526.80
31.2670	537.34
31.2814	545.28
31.2959	519.85
31.3103	516.77
31.3248	517.67
31.3392	515.27
31.3536	526.57
31.3681	544.02
31.3825	509.25
31.3970	499.80
31.4114	542.44
31.4258	522.36
31.4403	484.49
31.4547	484.57
31.4692	522.80
31.4836	504.01
31.4980	488.98
31.5125	520.87
31.5269	514.57
31.5414	505.18
31.5558	523.76
31.5702	511.11
31.5847	530.66
31.5991	519.99
31.6136	486.59
31.6280	509.20
31.6424	507.85
31.6569	476.55
31.6713	477.31
31.6858	483.48
31.7002	498.50
31.7146	493.87
31.7291	483.44
31.7435	485.37
31.7580	502.11
31.7724	500.93
31.7868	539.99
31.8013	533.26
31.8157	518.37
31.8302	531.12
31.8446	511.29
31.8590	532.45
31.8735	496.66
31.8879	492.29
31.9024	547.35
31.9168	528.03
31.9312	491.48
31.9457	536.44
31.9601	508.67
31.9746	484.37
31.9890	521.37
32.0034	510.08
32.0179	521.09
32.0323	516.11
32.0468	520.59
32.0612	567.11
32.0756	505.39
32.0901	480.81
32.1045	503.23
32.1190	485.12
32.1334	506.68
32.1478	482.53
32.1623	523.55
32.1767	515.27
32.1912	502.64
32.2056	508.95
32.2200	471.57
32.2345	493.71
32.2489	464.10
32.2634	491.57
32.2778	511.20
32.2922	492.07
32.3067	512.44
32.3211	522.36
32.3356	508.06
32.3500	477.01
32.3644	496.08
32.3789	503.88
32.3933	488.96
32.4078	524.56
32.4222	504.21
32.4366	478.92
32.4511	516.47
32.4655	522.43
32.4800	507.67
32.4944	535.24
32.5088	513.33
32.5233	504.51
32.5377	499.75
32.5522	531.81
32.5666	520.26
32.5810	496.71
32.5955	511.97
32.6099	486.15
32.6244	527.10
32.6388	495.73
32.6532	484.84
32.6677	533.28
32.6821	488.45
32.6966	482.27
32.7110	529.93
32.7254	517.59
32.7399	513.69
32.7543	510.87
32.7688	484.86
32.7832	485.47
32.7976	500.54
32.8121	524.04
32.8265	524.87
32.8410	494.41
32.8554	495.78
32.8698	528.17
32.8843	508.95
32.8987	540.82
32.9132	534.43
32.9276	497.39
32.9420	517.81
32.9565	508.94
32.9709	518.35
32.9854	557.79
32.9998	511.29
33.0142	496.02
33.0287	559.38
33.0431	524.98
33.0576	510.87
33.0720	488.13
33.0864	517.95
33.1009	490.57
33.1153	493.72
33.1298	497.71
33.1442	477.71
33.1586	478.40
33.1731	494.03
33.1875	485.39
33.2020	485.29
33.2164	514.24
33.2308	477.09
33.2453	496.88
33.2597	464.80
33.2742	489.14
33.2886	524.59
33.3030	484.02
33.3175	518.64
33.3319	525.16
33.3464	510.68
33.3608	470.71
33.3752	473.15
33.3897	472.73
33.4041	480.48
33.4186	490.86
33.4330	482.63
33.4474	484.34
33.4619	514.09
33.4763	518.72
33.4908	526.75
33.5052	498.70
33.5196	483.60
33.5341	478.84
33.5485	495.40
33.5630	491.22
33.5774	494.34
33.5918	509.27
33.6063	534.70
33.6207	496.73
33.6352	478.62
33.6496	524.34
33.6640	513.28
33.6785	511.04
33.6929	468.97
33.7074	507.42
33.7218	492.33
33.7362	472.77
33.7507	463.61
33.7651	500.34
33.7796	491.04
33.7940	511.63
33.8084	532.35
33.8229	519.27
33.8373	516.42
33.8518	496.50
33.8662	524.38
33.8806	507.73
33.8951	466.79
33.9095	494.97
33.9240	474.65
33.9384	509.93
33.9528	497.90
33.9673	492.88
33.9817	498.76
33.9962	485.49
34.0106	508.16
34.0250	548.18
34.0395	520.88
34.0539	508.11
34.0684	507.64
34.0828	503.95
34.0972	507.46
34.1117	466.31
34.1261	500.37
34.1406	487.39
34.1550	492.76
34.1694	518.74
34.1839	459.49
34.1983	512.42
34.2128	540.83
34.2272	503.48
34.2417	508.76
34.2561	486.10
34.2705	482.57
34.2850	492.89
34.2994	510.21
34.3139	509.01
34.3283	510.05
34.3427	512.61
34.3572	518.65
34.3716	511.09
34.3861	521.36
34.4005	505.99
34.4149	494.33
34.4294	501.92
34.4438	501.25
34.4583	507.69
34.4727	495.48
34.4871	529.98
34.5016	511.10
34.5160	505.30
34.5305	495.32
34.5449	526.17
34.5593	512.51
34.5738	539.92
34.5882	505.69
34.6027	518.57
34.6171	488.10
34.6315	498.57
34.6460	513.76
34.6604	485.99
34.6749	502.18
34.6893	499.59
34.7037	519.74
34.7182	525.98
34.7326	497.63
34.7471	514.38
34.7615	493.00
34.7759	491.55
34.7904	492.92
34.8048	478.61
34.8193	526.60
34.8337	544.69
34.8481	506.33
34.8626	508.55
34.8770	515.75
34.8915	529.94
34.9059	544.23
34.9203	514.58
34.9348	496.30
34.9492	529.29
34.9637	561.06
34.9781	525.86
34.9925	552.12
35.0070	488.19
35.0214	475.59
35.0359	493.38
35.0503	537.43
35.0647	530.50
35.0792	544.25
35.0936	520.96
35.1081	529.02
35.1225	503.79
35.1369	496.82
35.1514	478.94
35.1658	497.11
35.1803	506.03
35.1947	478.66
35.2091	519.55
35.2236	541.55
35.2380	520.38
35.2525	478.44
35.2669	491.70
35.2813	507.14
35.2958	484.48
35.3102	497.57
35.3247	501.89
35.3391	497.34
35.3535	529.27
35.3680	547.83
35.3824	544.67
35.3969	520.36
35.4113	496.55
35.4257	498.24
35.4402	523.30
35.4546	556.66
35.4691	532.83
35.4835	520.30
35.4979	509.71
35.5124	508.78
35.5268	516.87
35.5413	558.11
35.5557	504.42
35.5701	530.96
35.5846	505.98
35.5990	543.70
35.6135	543.45
35.6279	504.06
35.6423	492.10
35.6568	531.80
35.6712	561.31
35.6857	610.42
35.7001	670.37
35.7145	733.44
35.7290	733.69
35.7434	600.83
35.7579	588.23
35.7723	567.97
35.7867	621.29
35.8012	665.67
35.8156	632.72
35.8301	661.91
35.8445	667.19
35.8589	706.24
35.8734	746.43
35.8878	888.39
35.9023	1031.39
35.9167	1097.07
35.9311	1417.74
35.9456	1987.53
35.9600	2527.01
35.9745	2336.81
35.9889	2421.35
36.0033	2934.66
36.0178	3145.34
36.0322	2672.93
36.0467	2379.38
36.0611	2174.82
36.0755	1971.20
36.0900	1926.70
36.1044	1648.31
36.1189	1685.13
36.1333	1520.05
36.1477	1198.85
36.1622	1141.41
36.1766	991.72
36.1911	871.02
36.2055	737.80
36.2199	660.91
36.2344	649.11
36.2488	587.68
36.2633	585.33
36.2777	573.56
36.2921	576.50
36.3066	525.72
36.3210	561.81
36.3355	582.39
36.3499	570.73
36.3643	556.61
36.3788	552.84
36.3932	525.80
36.4077	508.90
36.4221	535.88
36.4365	549.52
36.4510	548.17
36.4654	547.57
36.4799	534.43
36.4943	535.30
36.5087	540.10
36.5232	503.29
36.5376	553.49
36.5521	533.25
36.5665	550.59
36.5809	536.57
36.5954	523.96
36.6098	509.76
36.6243	495.06
36.6387	502.11
36.6531	487.52
36.6676	504.76
36.6820	506.64
36.6965	505.29
36.7109	517.28
36.7253	495.38
36.7398	494.79
36.7542	527.36
36.7687	573.15
36.7831	528.44
36.7975	560.75
36.8120	558.95
36.8264	553.54
36.8409	545.81
36.8553	560.89
36.8697	576.39
36.8842	588.37
36.8986	619.71
36.9131	606.18
36.9275	574.14
36.9419	586.60
36.9564	570.23
36.9708	563.46
36.9853	564.89
36.9997	576.05
37.0141	537.32
37.0286	554.55
37.0430	522.12
37.0575	525.86
37.0719	533.32
37.0863	528.61
37.1008	507.85
37.1152	521.17
37.1297	533.35
37.1441	510.45
37.1585	509.28
37.1730	507.48
37.1874	472.76
37.2019	487.41
37.2163	526.05
37.2307	484.95
37.2452	488.15
37.2596	503.52
37.2741	501.55
37.2885	525.41
37.3029	499.83
37.3174	496.81
37.3318	510.59
37.3463	509.63
37.3607	483.88
37.3751	530.88
37.3896	500.48
37.4040	469.06
37.4185	485.97
37.4329	540.32
37.4473	533.30
37.4618	509.77
37.4762	526.96
37.4907	504.34
37.5051	525.20
37.5195	508.61
37.5340	502.68
37.5484	501.17
37.5629	514.60
37.5773	494.74
37.5917	506.58
37.6062	502.54
37.6206	526.77
37.6351	487.93
37.6495	504.05
37.6639	499.03
37.6784	516.48
37.6928	527.36
37.7073	544.14
37.7217	517.98
37.7361	482.09
37.7506	505.29
37.7650	508.97
37.7795	506.42
37.7939	520.32
37.8083	549.01
37.8228	518.16
37.8372	495.56
37.8517	492.41
37.8661	488.54
37.8805	495.15
37.8950	523.10
37.9094	518.65
37.9239	512.92
37.9383	548.06
37.9528	567.82
37.9672	503.26
37.9816	493.18
37.9961	503.40
38.0105	488.05
38.0250	500.52
38.0394	491.38
38.0538	503.17
38.0683	524.81
38.0827	514.52
38.0972	504.66
38.1116	484.09
38.1260	515.24
38.1405	496.25
38.1549	526.88
38.1694	513.49
38.1838	493.80
38.1982	469.86
38.2127	525.02
38.2271	513.14
38.2416	504.75
38.2560	515.24
38.2704	518.27
38.2849	539.38
38.2993	543.69
38.3138	514.91
38.3282	549.90
38.3426	538.84
38.3571	532.37
38.3715	548.64
38.3860	498.62
38.4004	540.82
38.4148	547.41
38.4293	606.29
38.4437	616.75
38.4582	604.50
38.4726	648.80
38.4870	723.55
38.5015	737.72
38.5159	796.28
38.5304	815.86
38.5448	785.60
38.5592	786.13
38.5737	766.55
38.5881	749.02
38.6026	731.75
38.6170	720.08
38.6314	709.74
38.6459	676.30
38.6603	681.17
38.6748	634.20
38.6892	555.16
38.7036	568.56
38.7181	556.77
38.7325	523.20
38.7470	530.66
38.7614	508.27
38.7758	516.59
38.7903	518.32
38.8047	522.70
38.8192	512.08
38.8336	515.05
38.8480	498.32
38.8625	509.32
38.8769	510.14
38.8914	505.60
38.9058	491.43
38.9202	496.99
38.9347	489.53
38.9491	467.67
38.9636	482.99
38.9780	507.52
38.9924	520.76
39.0069	517.79
39.0213	513.53
39.0358	488.37
39.0502	507.76
39.0646	531.96
39.0791	506.49
39.0935	511.45
39.1080	509.61
39.1224	511.36
39.1368	522.16
39.1513	511.91
39.1657	522.73
39.1802	515.35
39.1946	484.14
39.2090	462.80
39.2235	500.79
39.2379	508.80
39.2524	513.00
39.2668	512.52
39.2812	519.12
39.2957	528.06
39.3101	511.61
39.3246	489.88
39.3390	524.06
39.3534	501.17
39.3679	523.88
39.3823	507.90
39.3968	495.39
39.4112	496.18
39.4256	525.43
39.4401	504.80
39.4545	507.68
39.4690	521.14
39.4834	508.28
39.4978	525.82
39.5123	539.24
39.5267	516.64
39.5412	520.47
39.5556	507.15
39.5700	493.26
39.5845	502.81
39.5989	541.22
39.6134	516.62
39.6278	448.08
39.6422	486.90
39.6567	499.05
39.6711	465.70
39.6856	489.47
39.7000	529.61
39.7144	523.47
39.7289	513.34
39.7433	487.50
39.7578	492.96
39.7722	516.01
39.7866	530.86
39.8011	485.40
39.8155	487.07
39.8300	500.81
39.8444	508.70
39.8588	481.18
39.8733	503.26
39.8877	514.91
39.9022	509.55
39.9166	528.97
39.9310	474.98
39.9455	499.97
39.9599	485.87
39.9744	499.53
39.9888	501.35
40.0032	464.59
40.0177	509.81
40.0321	482.96
40.0466	471.70
40.0610	535.44
40.0754	530.22
40.0899	517.98
40.1043	493.28
40.1188	508.55
40.1332	515.11
40.1476	430.49
40.1621	514.35
40.1765	524.70
40.1910	457.31
40.2054	477.42
40.2198	474.35
40.2343	467.90
40.2487	524.21
40.2632	503.49
40.2776	497.81
40.2920	483.31
40.3065	481.31
40.3209	523.29
40.3354	510.86
40.3498	518.12
40.3642	494.20
40.3787	482.32
40.3931	455.27
40.4076	484.87
40.4220	512.87
40.4364	512.53
40.4509	488.34
40.4653	530.67
40.4798	520.07
40.4942	502.21
40.5086	502.50
40.5231	481.89
40.5375	495.61
40.5520	486.28
40.5664	503.65
40.5808	489.95
40.5953	508.11
40.6097	494.09
40.6242	492.41
40.6386	475.33
40.6530	491.30
40.6675	532.17
40.6819	496.18
40.6964	465.79
40.7108	489.86
40.7252	512.00
40.7397	502.48
40.7541	484.30
40.7686	534.91
40.7830	496.05
40.7974	476.31
40.8119	479.99
40.8263	514.74
40.8408	537.67
40.8552	531.06
40.8696	544.26
40.8841	512.84
40.8985	493.81
40.9130	521.91
40.9274	498.73
40.9418	523.91
40.9563	515.43
40.9707	463.18
40.9852	479.30
40.9996	492.64
41.0140	474.83
41.0285	469.69
41.0429	493.81
41.0574	467.61
41.0718	509.86
41.0862	491.40
41.1007	481.70
41.1151	461.47
41.1296	501.22
41.1440	481.66
41.1584	498.22
41.1729	506.59
41.1873	508.42
41.2018	486.86
41.2162	478.82
41.2306	494.82
41.2451	469.12
41.2595	495.30
41.2740	489.51
41.2884	551.38
41.3028	493.57
41.3173	470.12
41.3317	512.74
41.3462	496.34
41.3606	486.81
41.3750	506.28
41.3895	478.28
41.4039	491.16
41.4184	510.39
41.4328	491.14
41.4472	511.29
41.4617	529.07
41.4761	519.65
41.4906	511.37
41.5050	486.83
41.5194	479.00
41.5339	487.28
41.5483	512.20
41.5628	506.52
41.5772	479.87
41.5916	482.20
41.6061	496.91
41.6205	497.22
41.6350	512.65
41.6494	508.71
41.6639	477.49
41.6783	496.41
41.6927	479.34
41.7072	486.31
41.7216	517.18
41.7361	545.14
41.7505	509.54
41.7649	530.26
41.7794	509.95
41.7938	523.16
41.8083	502.65
41.8227	527.55
41.8371	524.68
41.8516	516.37
41.8660	519.46
41.8805	504.63
41.8949	571.59
41.9093	537.52
41.9238	537.20
41.9382	533.29
41.9527	558.36
41.9671	557.66
41.9815	561.67
41.9960	591.34
42.0104	596.13
42.0249	582.03
42.0393	587.85
42.0537	598.72
42.0682	602.17
42.0826	550.08
42.0971	561.43
42.1115	566.38
42.1259	596.31
42.1404	572.42
42.1548	584.38
42.1693	663.82
42.1837	679.36
42.1981	708.26
42.2126	819.65
42.2270	913.33
42.2415	1044.89
42.2559	1156.47
42.2703	1299.05
42.2848	1413.80
42.2992	1521.08
42.3137	1645.60
42.3281	1659.23
42.3425	1553.37
42.3570	1474.09
42.3714	1401.04
42.3859	1352.38
42.4003	1320.88
42.4147	1317.99
42.4292	1266.77
42.4436	1146.89
42.4581	1025.10
42.4725	975.41
42.4869	866.44
42.5014	769.38
42.5158	717.65
42.5303	660.71
42.5447	641.17
42.5591	599.79
42.5736	610.89
42.5880	579.55
42.6025	578.16
42.6169	544.90
42.6313	558.64
42.6458	568.13
42.6602	506.18
42.6747	521.05
42.6891	526.87
42.7035	513.34
42.7180	533.97
42.7324	515.89
42.7469	491.48
42.7613	485.87
42.7757	508.98
42.7902	526.51
42.8046	539.83
42.8191	507.70
42.8335	485.78
42.8479	507.94
42.8624	524.14
42.8768	512.36
42.8913	526.57
42.9057	551.39
42.9201	533.85
42.9346	523.75
42.9490	526.19
42.9635	505.59
42.9779	502.07
42.9923	529.03
43.0068	502.12
43.0212	504.10
43.0357	491.20
43.0501	536.97
43.0645	564.36
43.0790	531.24
43.0934	533.40
43.1079	509.05
43.1223	553.83
43.1367	553.44
43.1512	494.73
43.1656	502.20
43.1801	507.65
43.1945	519.30
43.2089	512.87
43.2234	540.09
43.2378	549.85
43.2523	536.70
43.2667	496.70
43.2811	517.60
43.2956	499.85
43.3100	509.90
43.3245	543.38
43.3389	531.95
43.3533	518.08
43.3678	503.02
43.3822	555.45
43.3967	508.54
43.4111	509.45
43.4255	548.64
43.4400	512.05
43.4544	498.53
43.4689	559.52
43.4833	508.58
43.4977	513.98
43.5122	551.03
43.5266	508.53
43.5411	509.05
43.5555	505.80
43.5699	517.60
43.5844	539.40
43.5988	545.79
43.6133	493.13
43.6277	480.50
43.6421	503.15
43.6566	527.65
43.6710	558.97
43.6855	589.25
43.6999	570.02
43.7143	632.57
43.7288	624.75
43.7432	640.23
43.7577	686.20
43.7721	696.53
43.7865	669.26
43.8010	659.67
43.8154	657.18
43.8299	643.45
43.8443	648.68
43.8587	624.04
43.8732	596.94
43.8876	602.69
43.9021	607.00
43.9165	594.60
43.9309	568.88
43.9454	524.79
43.9598	524.58
43.9743	490.73
43.9887	532.13
44.0031	509.98
44.0176	492.11
44.0320	549.74
44.0465	530.32
44.0609	524.84
44.0753	538.87
44.0898	567.94
44.1042	536.93
44.1187	519.74
44.1331	505.76
44.1475	495.69
44.1620	539.07
44.1764	549.99
44.1909	528.32
44.2053	499.32
44.2197	508.42
44.2342	505.01
44.2486	546.80
44.2631	510.00
44.2775	512.14
44.2919	492.11
44.3064	519.89
44.3208	518.84
44.3353	548.67
44.3497	546.69
44.3641	535.10
44.3786	500.61
44.3930	522.95
44.4075	550.30
44.4219	560.29
44.4363	574.86
44.4508	569.06
44.4652	601.67
44.4797	593.44
44.4941	630.01
44.5085	551.39
44.5230	595.45
44.5374	583.04
44.5519	554.20
44.5663	577.52
44.5807	571.83
44.5952	606.12
44.6096	601.01
44.6241	578.95
44.6385	550.30
44.6529	563.22
44.6674	603.18
44.6818	581.06
44.6963	602.21
44.7107	659.09
44.7251	668.56
44.7396	759.13
44.7540	816.06
44.7685	791.87
44.7829	868.61
44.7973	865.80
44.8118	872.64
44.8262	852.31
44.8407	780.39
44.8551	778.62
44.8695	706.69
44.8840	780.46
44.8984	748.29
44.9129	736.52
44.9273	680.11
44.9417	624.34
44.9562	629.32
44.9706	563.79
44.9851	582.44
44.9995	572.33
45.0139	528.59
45.0284	551.14
45.0428	537.58
45.0573	540.50
45.0717	528.49
45.0861	534.09
45.1006	514.35
45.1150	545.69
45.1295	543.10
45.1439	497.50
45.1583	488.38
45.1728	474.96
45.1872	465.03
45.2017	530.63
45.2161	526.84
45.2305	504.77
45.2450	505.52
45.2594	518.50
45.2739	517.90
45.2883	517.43
45.3028	502.01
45.3172	483.16
45.3316	513.31
45.3461	534.16
45.3605	516.72
45.3750	491.16
45.3894	517.20
45.4038	489.17
45.4183	506.43
45.4327	535.19
45.4472	493.37
45.4616	516.92
45.4760	510.43
45.4905	531.21
45.5049	501.02
45.5194	496.88
45.5338	515.05
45.5482	514.75
45.5627	488.40
45.5771	472.77
45.5916	499.96
45.6060	523.46
45.6204	499.50
45.6349	489.48
45.6493	496.27
45.6638	487.98
45.6782	499.01
45.6926	497.98
45.7071	537.14
45.7215	551.35
45.7360	504.13
45.7504	526.73
45.7648	469.15
45.7793	507.50
45.7937	494.61
45.8082	496.08
45.8226	493.25
45.8370	516.82
45.8515	491.97
45.8659	523.95
45.8804	532.09
45.8948	538.67
45.9092	497.62
45.9237	494.65
45.9381	496.18
45.9526	475.64
45.9670	496.61
45.9814	532.72
45.9959	510.14
46.0103	507.34
46.0248	498.40
46.0392	504.92
46.0536	517.52
46.0681	517.84
46.0825	493.64
46.0970	500.22
46.1114	518.03
46.1258	522.88
46.1403	491.41
46.1547	495.06
46.1692	498.51
46.1836	494.23
46.1980	487.11
46.2125	511.43
46.2269	516.41
46.2414	503.27
46.2558	538.54
46.2702	522.88
46.2847	505.55
46.2991	500.42
46.3136	514.75
46.3280	501.02
46.3424	479.70
46.3569	499.28
46.3713	475.72
46.3858	495.11
46.4002	501.72
46.4146	512.83
46.4291	505.60
46.4435	511.03
46.4580	492.34
46.4724	514.79
46.4868	513.40
46.5013	485.67
46.5157	501.11
46.5302	511.73
46.5446	518.19
46.5590	494.51
46.5735	496.65
46.5879	487.81
46.6024	499.35
46.6168	534.87
46.6312	518.39
46.6457	499.54
46.6601	547.11
46.6746	519.97
46.6890	502.95
46.7034	520.60
46.7179	499.08
46.7323	492.01
46.7468	489.90
46.7612	484.22
46.7756	501.32
46.7901	502.55
46.8045	486.02
46.8190	529.85
46.8334	525.85
46.8478	488.45
46.8623	510.37
46.8767	495.94
46.8912	503.27
46.9056	520.20
46.9200	522.91
46.9345	512.69
46.9489	510.56
46.9634	523.97
46.9778	492.91
46.9922	510.40
47.0067	510.75
47.0211	487.69
47.0356	535.94
47.0500	527.05
47.0644	514.06
47.0789	517.11
47.0933	500.52
47.1078	515.57
47.1222	534.35
47.1366	512.24
47.1511	520.16
47.1655	530.21
47.1800	524.76
47.1944	516.28
47.2088	495.21
47.2233	498.05
47.2377	509.92
47.2522	501.01
47.2666	460.33
47.2810	499.87
47.2955	517.37
47.3099	488.84
47.3244	508.78
47.3388	486.80
47.3532	512.65
47.3677	509.38
47.3821	499.09
47.3966	498.24
47.4110	487.79
47.4254	535.11
47.4399	535.14
47.4543	498.12
47.4688	482.90
47.4832	503.00
47.4976	492.91
47.5121	493.05
47.5265	514.68
47.5410	507.59
47.5554	510.41
47.5698	497.15
47.5843	491.30
47.5987	491.23
47.6132	489.98
47.6276	477.92
47.6420	504.38
47.6565	505.95
47.6709	507.49
47.6854	471.87
47.6998	514.60
47.7142	498.79
47.7287	509.40
47.7431	537.86
47.7576	522.40
47.7720	516.03
47.7864	528.36
47.8009	516.03
47.8153	518.90
47.8298	484.50
47.8442	502.81
47.8586	529.34
47.8731	514.07
47.8875	532.33
47.9020	527.03
47.9164	537.19
47.9308	513.06
47.9453	503.78
47.9597	482.29
47.9742	522.71
47.9886	514.91
48.0030	489.85
48.0175	489.44
48.0319	493.21
48.0464	500.78
48.0608	506.16
48.0752	518.82
48.0897	499.92
48.1041	464.35
48.1186	504.02
48.1330	503.76
48.1474	515.99
48.1619	504.40
48.1763	528.79
48.1908	506.55
48.2052	514.10
48.2196	506.01
48.2341	554.61
48.2485	511.41
48.2630	474.84
48.2774	495.61
48.2918	501.24
48.3063	499.44
48.3207	511.90
48.3352	503.25
48.3496	520.78
48.3640	465.46
48.3785	525.51
48.3929	501.63
48.4074	519.54
48.4218	516.27
48.4362	508.58
48.4507	503.72
48.4651	535.28
48.4796	548.46
48.4940	507.75
48.5084	514.65
48.5229	491.24
48.5373	502.69
48.5518	552.26
48.5662	534.51
48.5806	512.96
48.5951	498.90
48.6095	513.55
48.6240	516.37
48.6384	526.94
48.6528	488.73
48.6673	540.96
48.6817	530.43
48.6962	513.99
48.7106	535.94
48.7250	535.63
48.7395	511.22
48.7539	501.52
48.7684	549.75
48.7828	543.01
48.7972	530.24
48.8117	523.48
48.8261	521.42
48.8406	534.79
48.8550	558.96
48.8694	567.41
48.8839	515.11
48.8983	515.47
48.9128	539.24
48.9272	527.31
48.9416	543.08
48.9561	523.18
48.9705	588.75
48.9850	603.48
48.9994	574.89
49.0139	586.51
49.0283	604.66
49.0427	580.63
49.0572	613.32
49.0716	622.04
49.0861	681.91
49.1005	673.03
49.1149	650.24
49.1294	686.82
49.1438	708.64
49.1583	759.10
49.1727	811.70
49.1871	846.95
49.2016	944.56
49.2160	1038.27
49.2305	1093.46
49.2449	1088.80
49.2593	1152.12
49.2738	1286.09
49.2882	1359.89
49.3027	1512.88
49.3171	1523.61
49.3315	1668.17
49.3460	1681.21
49.3604	1736.14
49.3749	1699.23
49.3893	1695.69
49.4037	1680.48
49.4182	1686.83
49.4326	1661.99
49.4471	1621.60
49.4615	1578.88
49.4759	1543.02
49.4904	1522.57
49.5048	1438.81
49.5193	1310.09
49.5337	1287.41
49.5481	1191.01
49.5626	1138.77
49.5770	1068.91
49.5915	1000.36
49.6059	941.21
49.6203	880.18
49.6348	823.29
49.6492	816.50
49.6637	723.55
49.6781	687.51
49.6925	661.95
49.7070	691.72
49.7214	628.35
49.7359	590.54
49.7503	619.40
49.7647	592.54
49.7792	595.08
49.7936	592.69
49.8081	600.78
49.8225	594.13
49.8369	562.67
49.8514	574.42
49.8658	536.17
49.8803	552.90
49.8947	602.01
49.9091	544.69
49.9236	519.22
49.9380	528.13
49.9525	516.40
49.9669	560.33
49.9813	545.82
49.9958	548.18
50.0102	536.24
50.0247	565.23
50.0391	543.11
50.0535	530.38
50.0680	516.56
50.0824	518.81
50.0969	510.68
50.1113	559.80
50.1257	538.09
50.1402	493.82
50.1546	507.14
50.1691	524.96
50.1835	511.06
50.1979	503.80
50.2124	515.93
50.2268	494.46
50.2413	535.15
50.2557	502.49
50.2701	514.14
50.2846	528.00
50.2990	509.64
50.3135	531.16
50.3279	555.62
50.3423	532.15
50.3568	529.56
50.3712	519.77
50.3857	532.44
50.4001	489.90
50.4145	480.82
50.4290	515.49
50.4434	497.62
50.4579	477.09
50.4723	514.02
50.4867	524.45
50.5012	510.20
50.5156	506.07
50.5301	491.16
50.5445	506.01
50.5589	544.00
50.5734	532.23
50.5878	536.71
50.6023	487.76
50.6167	510.00
50.6311	513.04
50.6456	494.27
50.6600	472.37
50.6745	481.24
50.6889	459.84
50.7033	502.14
50.7178	496.59
50.7322	474.91
50.7467	508.10
50.7611	504.75
50.7755	520.57
50.7900	511.15
50.8044	519.75
50.8189	516.63
50.8333	506.85
50.8477	501.62
50.8622	533.48
50.8766	513.89
50.8911	475.57
50.9055	512.89
50.9199	528.69
50.9344	522.44
50.9488	525.51
50.9633	519.07
50.9777	500.94
50.9921	500.55
51.0066	489.26
51.0210	534.13
51.0355	529.05
51.0499	497.67
51.0643	515.99
51.0788	530.16
51.0932	521.81
51.1077	511.01
51.1221	531.49
51.1365	486.82
51.1510	479.20
51.1654	518.38
51.1799	508.36
51.1943	482.05
51.2087	485.76
51.2232	476.22
51.2376	473.29
51.2521	479.05
51.2665	471.24
51.2809	528.85
51.2954	554.44
51.3098	524.55
51.3243	497.63
51.3387	509.73
51.3531	484.26
51.3676	502.57
51.3820	484.87
51.3965	510.54
51.4109	522.44
51.4253	529.44
51.4398	508.94
51.4542	513.91
51.4687	508.08
51.4831	534.88
51.4975	492.29
51.5120	508.85
51.5264	508.19
51.5409	506.25
51.5553	523.12
51.5697	521.33
51.5842	504.22
51.5986	503.58
51.6131	505.36
51.6275	497.40
51.6419	530.73
51.6564	508.79
51.6708	492.62
51.6853	494.94
51.6997	499.43
51.7141	501.85
51.7286	504.29
51.7430	506.16
51.7575	523.85
51.7719	524.97
51.7863	571.86
51.8008	488.70
51.8152	495.38
51.8297	515.13
51.8441	517.77
51.8585	487.84
51.8730	503.62
51.8874	509.74
51.9019	537.20
51.9163	504.73
51.9307	507.85
51.9452	515.44
51.9596	538.07
51.9741	487.57
51.9885	507.30
52.0029	496.71
52.0174	481.20
52.0318	496.40
52.0463	514.89
52.0607	539.86
52.0751	502.44
52.0896	499.02
52.1040	516.85
52.1185	514.59
52.1329	509.17
52.1473	495.52
52.1618	508.20
52.1762	535.29
52.1907	513.81
52.2051	498.79
52.2195	525.03
52.2340	488.90
52.2484	515.64
52.2629	486.30
52.2773	501.61
52.2917	531.51
52.3062	515.67
52.3206	552.92
52.3351	528.74
52.3495	519.47
52.3639	537.60
52.3784	518.22
52.3928	512.43
52.4073	506.92
52.4217	535.90
52.4361	529.49
52.4506	498.88
52.4650	505.12
52.4795	537.25
52.4939	514.08
52.5083	493.11
52.5228	517.31
52.5372	530.88
52.5517	522.27
52.5661	480.95
52.5805	497.58
52.5950	543.24
52.6094	502.35
52.6239	523.13
52.6383	510.39
52.6527	522.88
52.6672	518.38
52.6816	495.70
52.6961	498.44
52.7105	534.21
52.7250	461.35
52.7394	500.49
52.7538	500.05
52.7683	548.95
52.7827	509.71
52.7972	507.21
52.8116	510.14
52.8260	506.69
52.8405	503.66
52.8549	532.69
52.8694	535.09
52.8838	517.43
52.8982	555.26
52.9127	513.81
52.9271	518.56
52.9416	493.71
52.9560	541.23
52.9704	483.45
52.9849	472.12
52.9993	451.53
53.0138	512.81
53.0282	550.94
53.0426	544.78
53.0571	548.65
53.0715	542.81
53.0860	510.56
53.1004	475.23
53.1148	522.71
53.1293	528.75
53.1437	502.44
53.1582	518.75
53.1726	536.88
53.1870	497.72
53.2015	525.27
53.2159	489.07
53.2304	539.30
53.2448	545.66
53.2592	513.38
53.2737	522.38
53.2881	525.13
53.3026	504.42
53.3170	507.84
53.3314	477.94
53.3459	479.43
53.3603	506.17
53.3748	521.86
53.3892	510.98
53.4036	516.75
53.4181	511.72
53.4325	515.43
53.4470	498.16
53.4614	493.30
53.4758	508.43
53.4903	523.59
53.5047	559.09
53.5192	524.21
53.5336	528.79
53.5480	527.69
53.5625	517.71
53.5769	533.14
53.5914	523.99
53.6058	517.72
53.6202	505.99
53.6347	509.69
53.6491	511.99
53.6636	507.42
53.6780	517.49
53.6924	507.15
53.7069	521.74
53.7213	529.18
53.7358	503.37
53.7502	536.52
53.7646	525.38
53.7791	545.35
53.7935	577.99
53.8080	529.78
53.8224	508.89
53.8368	550.74
53.8513	520.84
53.8657	513.15
53.8802	509.28
53.8946	527.59
53.9090	553.38
53.9235	514.27
53.9379	534.42
53.9524	533.89
53.9668	515.10
53.9812	501.58
53.9957	490.66
54.0101	510.18
54.0246	525.13
54.0390	486.41
54.0534	508.77
54.0679	516.87
54.0823	547.73
54.0968	522.47
54.1112	511.42
54.1256	531.15
54.1401	557.34
54.1545	513.76
54.1690	533.74
54.1834	522.31
54.1978	549.11
54.2123	559.07
54.2267	580.84
54.2412	590.44
54.2556	559.83
54.2700	590.94
54.2845	623.00
54.2989	592.84
54.3134	609.07
54.3278	618.58
54.3422	602.64
54.3567	598.08
54.3711	618.03
54.3856	574.19
54.4000	556.26
54.4144	573.00
54.4289	612.24
54.4433	576.92
54.4578	596.47
54.4722	598.31
54.4866	576.64
54.5011	578.43
54.5155	573.84
54.5300	561.81
54.5444	524.45
54.5588	549.51
54.5733	538.50
54.5877	517.26
54.6022	544.94
54.6166	521.63
54.6310	514.20
54.6455	532.14
54.6599	490.34
54.6744	527.88
54.6888	515.77
54.7032	549.41
54.7177	555.25
54.7321	526.68
54.7466	518.75
54.7610	512.36
54.7754	520.12
54.7899	530.84
54.8043	504.62
54.8188	539.92
54.8332	537.17
54.8476	525.96
54.8621	542.29
54.8765	546.04
54.8910	543.14
54.9054	536.95
54.9198	520.67
54.9343	514.17
54.9487	526.65
54.9632	510.25
54.9776	521.49
54.9920	545.75
55.0065	535.87
55.0209	494.25
55.0354	489.93
55.0498	499.02
55.0642	519.26
55.0787	531.09
55.0931	562.04
55.1076	522.79
55.1220	509.76
55.1364	501.29
55.1509	488.30
55.1653	504.54
55.1798	524.76
55.1942	501.26
55.2086	503.90
55.2231	533.73
55.2375	522.48
55.2520	491.99
55.2664	499.27
55.2808	507.15
55.2953	504.88
55.3097	539.59
55.3242	522.19
55.3386	534.15
55.3530	519.42
55.3675	509.47
55.3819	504.12
55.3964	521.05
55.4108	533.73
55.4252	538.17
55.4397	520.51
55.4541	510.47
55.4686	528.22
55.4830	539.23
55.4974	509.45
55.5119	506.86
55.5263	520.72
55.5408	518.74
55.5552	555.05
55.5696	532.03
55.5841	532.42
55.5985	531.34
55.6130	526.94
55.6274	504.98
55.6418	566.12
55.6563	536.33
55.6707	494.08
55.6852	558.02
55.6996	547.89
55.7140	540.58
55.7285	512.51
55.7429	560.45
55.7574	539.20
55.7718	507.88
55.7862	551.05
55.8007	520.91
55.8151	503.89
55.8296	506.10
55.8440	540.93
55.8584	501.74
55.8729	529.94
55.8873	522.18
55.9018	556.48
55.9162	529.76
55.9306	572.57
55.9451	554.70
55.9595	546.51
55.9740	527.16
55.9884	548.01
56.0028	503.45
56.0173	518.86
56.0317	550.43
56.0462	513.65
56.0606	517.32
56.0750	511.51
56.0895	495.02
56.1039	517.95
56.1184	515.87
56.1328	534.84
56.1472	518.38
56.1617	543.74
56.1761	503.07
56.1906	505.35
56.2050	513.92
56.2194	569.83
56.2339	524.90
56.2483	509.33
56.2628	511.49
56.2772	546.87
56.2916	507.88
56.3061	540.76
56.3205	556.32
56.3350	499.10
56.3494	523.71
56.3639	532.03
56.3783	557.33
56.3927	511.45
56.4072	512.99
56.4216	551.23
56.4361	533.12
56.4505	512.37
56.4649	507.38
56.4794	521.94
56.4938	535.89
56.5083	507.88
56.5227	519.34
56.5371	532.69
56.5516	531.96
56.5660	537.49
56.5805	492.05
56.5949	514.02
56.6093	516.99
56.6238	507.05
56.6382	535.14
56.6527	519.58
56.6671	541.37
56.6815	543.65
56.6960	526.75
56.7104	514.05
56.7249	517.02
56.7393	551.13
56.7537	539.36
56.7682	532.34
56.7826	535.48
56.7971	536.85
56.8115	517.58
56.8259	492.02
56.8404	503.00
56.8548	500.09
56.8693	529.10
56.8837	538.53
56.8981	525.21
56.9126	520.21
56.9270	524.88
56.9415	493.29
56.9559	521.21
56.9703	548.96
56.9848	482.16
56.9992	463.30
57.0137	524.38
57.0281	525.28
57.0425	559.83
57.0570	511.04
57.0714	527.24
57.0859	535.30
57.1003	557.70
57.1147	550.33
57.1292	543.38
57.1436	512.81
57.1581	518.59
57.1725	517.62
57.1869	483.07
57.2014	513.55
57.2158	555.01
57.2303	519.65
57.2447	560.91
57.2591	537.85
57.2736	524.95
57.2880	526.53
57.3025	530.98
57.3169	554.99
57.3313	528.12
57.3458	542.75
57.3602	526.32
57.3747	548.52
57.3891	519.39
57.4035	520.89
57.4180	518.89
57.4324	557.89
57.4469	542.84
57.4613	543.40
57.4757	548.64
57.4902	522.84
57.5046	509.55
57.5191	519.82
57.5335	551.61
57.5479	564.50
57.5624	571.97
57.5768	533.43
57.5913	548.07
57.6057	563.80
57.6201	527.54
57.6346	530.19
57.6490	523.40
57.6635	514.59
57.6779	503.48
57.6923	531.11
57.7068	507.90
57.7212	544.89
57.7357	538.21
57.7501	563.58
57.7645	545.66
57.7790	569.97
57.7934	611.96
57.8079	572.68
57.8223	631.82
57.8367	613.69
57.8512	628.71
57.8656	672.42
57.8801	697.82
57.8945	735.56
57.9089	781.40
57.9234	710.18
57.9378	740.73
57.9523	745.78
57.9667	690.95
57.9811	660.86
57.9956	682.57
58.0100	637.92
58.0245	655.87
58.0389	669.08
58.0533	668.48
58.0678	685.33
58.0822	701.48
58.0967	654.82
58.1111	624.30
58.1255	598.94
58.1400	597.69
58.1544	595.95
58.1689	588.25
58.1833	551.94
58.1977	563.94
58.2122	562.68
58.2266	577.10
58.2411	578.95
58.2555	568.44
58.2699	551.98
58.2844	563.61
58.2988	550.93
58.3133	523.55
58.3277	549.03
58.3421	524.44
58.3566	533.60
58.3710	516.86
58.3855	515.73
58.3999	556.10
58.4143	557.10
58.4288	542.05
58.4432	499.96
58.4577	538.47
58.4721	558.89
58.4865	534.55
58.5010	555.46
58.5154	531.54
58.5299	530.23
58.5443	531.21
58.5587	529.27
58.5732	545.21
58.5876	502.14
58.6021	499.25
58.6165	553.26
58.6309	544.86
58.6454	527.25
58.6598	529.41
58.6743	511.18
58.6887	552.63
58.7031	535.48
58.7176	527.42
58.7320	543.60
58.7465	500.57
58.7609	496.39
58.7753	538.29
58.7898	554.23
58.8042	508.02
58.8187	547.84
58.8331	544.94
58.8475	538.59
58.8620	517.24
58.8764	537.28
58.8909	519.16
58.9053	540.92
58.9197	547.44
58.9342	545.50
58.9486	547.49
58.9631	522.52
58.9775	497.17
58.9919	509.86
59.0064	542.75
59.0208	558.13
59.0353	571.56
59.0497	536.00
59.0641	530.61
59.0786	530.08
59.0930	549.63
59.1075	565.92
59.1219	581.89
59.1363	573.24
59.1508	493.25
59.1652	536.97
59.1797	558.07
59.1941	550.35
59.2085	566.33
59.2230	583.76
59.2374	551.16
59.2519	543.81
59.2663	586.28
59.2807	567.11
59.2952	554.98
59.3096	550.40
59.3241	569.25
59.3385	583.60
59.3529	566.43
59.3674	557.43
59.3818	505.65
59.3963	537.59
59.4107	572.51
59.4251	567.24
59.4396	573.42
59.4540	547.44
59.4685	557.77
59.4829	552.25
59.4973	562.36
59.5118	537.54
59.5262	543.69
59.5407	583.84
59.5551	557.90
59.5695	549.02
59.5840	532.74
59.5984	557.35
59.6129	568.92
59.6273	517.00
59.6417	539.42
59.6562	538.73
59.6706	520.50
59.6851	523.56
59.6995	541.78
59.7139	558.89
59.7284	522.63
59.7428	568.79
59.7573	574.81
59.7717	582.58
59.7861	559.51
59.8006	516.90
59.8150	554.01
59.8295	546.41
59.8439	513.73
59.8583	520.69
59.8728	494.54
59.8872	496.34
59.9017	560.86
59.9161	548.02
59.9305	570.52
59.9450	575.43
59.9594	557.49
59.9739	548.08
59.9883	531.14
60.0027	568.93
60.0172	512.73
60.0316	515.02
60.0461	528.98
60.0605	544.79
60.0750	496.92
60.0894	559.64
60.1038	532.11
60.1183	516.18
60.1327	532.09
60.1472	545.83
60.1616	554.91
60.1760	569.64
60.1905	545.88
60.2049	562.56
60.2194	552.77
60.2338	555.74
60.2482	546.37
60.2627	544.77
60.2771	562.72
60.2916	523.91
60.3060	544.43
60.3204	535.32
60.3349	573.18
60.3493	576.06
60.3638	575.14
60.3782	545.27
60.3926	512.12
60.4071	512.46
60.4215	533.06
60.4360	558.56
60.4504	528.12
60.4648	536.81
60.4793	549.87
60.4937	553.86
60.5082	517.85
60.5226	517.80
60.5370	527.57
60.5515	511.99
60.5659	525.80
60.5804	554.18
60.5948	507.68
60.6092	538.60
60.6237	517.70
60.6381	540.12
60.6526	521.22
60.6670	531.82
60.6814	543.49
60.6959	497.43
60.7103	546.38
60.7248	528.03
60.7392	558.21
60.7536	530.61
60.7681	545.77
60.7825	552.87
60.7970	541.23
60.8114	509.55
60.8258	546.79
60.8403	548.83
60.8547	538.42
60.8692	582.52
60.8836	525.34
60.8980	540.54
60.9125	537.30
60.9269	557.06
60.9414	528.36
60.9558	544.74
60.9702	544.88
60.9847	566.12
60.9991	557.05
61.0136	504.19
61.0280	539.96
61.0424	567.41
61.0569	541.64
61.0713	536.25
61.0858	522.57
61.1002	548.10
61.1146	534.37
61.1291	560.92
61.1435	523.23
61.1580	524.30
61.1724	568.55
61.1868	526.05
61.2013	529.25
61.2157	552.84
61.2302	550.48
61.2446	546.16
61.2590	526.88
61.2735	534.82
61.2879	536.70
61.3024	536.51
61.3168	563.50
61.3312	537.28
61.3457	529.72
61.3601	493.84
61.3746	557.22
61.3890	541.72
61.4034	544.14
61.4179	569.50
61.4323	566.52
61.4468	559.70
61.4612	563.56
61.4756	553.32
61.4901	527.50
61.5045	516.88
61.5190	544.20
61.5334	555.39
61.5478	549.03
61.5623	558.93
61.5767	548.06
61.5912	545.25
61.6056	536.40
61.6200	545.10
61.6345	571.60
61.6489	557.30
61.6634	564.93
61.6778	557.63
61.6922	568.99
61.7067	537.17
61.7211	520.88
61.7356	518.29
61.7500	522.22
61.7644	524.16
61.7789	538.50
61.7933	536.46
61.8078	569.80
61.8222	568.85
61.8366	538.56
61.8511	526.31
61.8655	578.01
61.8800	552.36
61.8944	519.02
61.9088	590.11
61.9233	568.21
61.9377	538.18
61.9522	519.97
61.9666	561.95
61.9810	539.90
61.9955	560.63
62.0099	552.43
62.0244	553.92
62.0388	564.62
62.0532	565.67
62.0677	564.61
62.0821	562.31
62.0966	532.62
62.1110	520.34
62.1254	552.54
62.1399	560.70
62.1543	539.65
62.1688	566.00
62.1832	564.70
62.1976	526.14
62.2121	552.38
62.2265	576.88
62.2410	582.00
62.2554	532.07
62.2698	542.02
62.2843	553.32
62.2987	550.38
62.3132	543.13
62.3276	540.03
62.3420	559.70
62.3565	564.11
62.3709	544.50
62.3854	547.02
62.3998	545.70
62.4142	513.87
62.4287	548.33
62.4431	567.21
62.4576	562.56
62.4720	570.81
62.4864	545.65
62.5009	525.27
62.5153	547.43
62.5298	576.66
62.5442	548.77
62.5586	559.68
62.5731	561.22
62.5875	563.96
62.6020	563.79
62.6164	572.57
62.6308	536.99
62.6453	604.41
62.6597	599.67
62.6742	582.99
62.6886	568.91
62.7030	596.49
62.7175	556.14
62.7319	542.07
62.7464	584.79
62.7608	572.28
62.7752	558.30
62.7897	562.53
62.8041	543.61
62.8186	566.57
62.8330	554.26
62.8474	564.25
62.8619	560.31
62.8763	582.60
62.8908	554.35
62.9052	588.15
62.9196	559.61
62.9341	570.43
62.9485	592.10
62.9630	586.83
62.9774	546.16
62.9918	558.46
63.0063	554.64
63.0207	550.60
63.0352	558.41
63.0496	579.34
63.0640	592.95
63.0785	591.85
63.0929	605.10
63.1074	587.94
63.1218	609.03
63.1362	590.12
63.1507	553.01
63.1651	554.12
63.1796	580.50
63.1940	553.47
63.2084	546.69
63.2229	580.09
63.2373	590.78
63.2518	585.81
63.2662	562.29
63.2806	567.44
63.2951	555.57
63.3095	597.57
63.3240	603.17
63.3384	609.30
63.3528	578.18
63.3673	616.32
63.3817	605.48
63.3962	563.47
63.4106	561.17
63.4250	590.08
63.4395	656.75
63.4539	620.31
63.4684	653.74
63.4828	675.69
63.4972	706.24
63.5117	735.40
63.5261	769.66
63.5406	815.31
63.5550	872.52
63.5694	910.95
63.5839	995.66
63.5983	1053.02
63.6128	996.72
63.6272	986.40
63.6416	896.03
63.6561	849.80
63.6705	782.01
63.6850	792.02
63.6994	814.13
63.7138	784.17
63.7283	746.73
63.7427	775.89
63.7572	825.52
63.7716	817.88
63.7861	793.72
63.8005	778.45
63.8149	758.96
63.8294	721.77
63.8438	723.14
63.8583	742.14
63.8727	700.54
63.8871	697.98
63.9016	659.58
63.9160	654.35
63.9305	602.57
63.9449	649.85
63.9593	633.55
63.9738	606.91
63.9882	602.76
64.0027	638.62
64.0171	597.51
64.0315	599.26
64.0460	630.67
64.0604	620.58
64.0749	620.20
64.0893	633.29
64.1037	582.12
64.1182	627.83
64.1326	587.09
64.1471	586.18
64.1615	597.81
64.1759	616.91
64.1904	594.17
64.2048	616.80
64.2193	625.73
64.2337	597.19
64.2481	605.33
64.2626	581.04
64.2770	630.84
64.2915	613.22
64.3059	599.05
64.3203	620.20
64.3348	599.91
64.3492	605.77
64.3637	628.62
64.3781	627.23
64.3925	589.65
64.4070	588.63
64.4214	639.06
64.4359	648.37
64.4503	621.59
64.4647	639.31
64.4792	590.39
64.4936	618.15
64.5081	637.33
64.5225	647.99
64.5369	628.99
64.5514	633.13
64.5658	614.33
64.5803	621.70
64.5947	630.53
64.6091	635.67
64.6236	618.67
64.6380	641.46
64.6525	675.09
64.6669	678.53
64.6813	685.71
64.6958	666.48
64.7102	661.05
64.7247	658.57
64.7391	691.80
64.7535	684.51
64.7680	692.81
64.7824	711.79
64.7969	733.84
64.8113	756.01
64.8257	807.17
64.8402	781.23
64.8546	795.47
64.8691	846.91
64.8835	831.93
64.8979	821.07
64.9124	884.71
64.9268	844.96
64.9413	923.30
64.9557	926.55
64.9701	1028.12
64.9846	1048.36
64.9990	1057.48
65.0135	1257.79
65.0279	1454.71
65.0423	1635.19
65.0568	2118.46
65.0712	2548.70
65.0857	3304.76
65.1001	4256.35
65.1145	5879.00
65.1290	7624.26
65.1434	9382.78
65.1579	10982.84
65.1723	11745.69
65.1867	11524.30
65.2012	10266.37
65.2156	8687.23
65.2301	6890.41
65.2445	5515.59
65.2589	4655.98
65.2734	4208.99
65.2878	4391.07
65.3023	4960.92
65.3167	5729.81
65.3311	6396.79
65.3456	6935.69
65.3600	7126.12
65.3745	6600.65
65.3889	5721.49
65.4033	4655.19
65.4178	3626.86
65.4322	2942.68
65.4467	2157.09
65.4611	1784.75
65.4755	1521.75
65.4900	1343.99
65.5044	1212.00
65.5189	1083.29
65.5333	997.68
65.5477	955.00
65.5622	918.30
65.5766	846.06
65.5911	892.03
65.6055	849.25
65.6199	835.15
65.6344	801.68
65.6488	743.23
65.6633	771.60
65.6777	745.25
65.6921	736.00
65.7066	730.74
65.7210	701.42
65.7355	702.29
65.7499	665.98
65.7643	656.43
65.7788	686.70
65.7932	645.26
65.8077	682.63
65.8221	679.76
65.8365	692.16
65.8510	654.02
65.8654	659.08
65.8799	666.87
65.8943	653.57
65.9087	657.11
65.9232	666.85
65.9376	649.55
65.9521	639.35
65.9665	598.44
65.9809	627.50
65.9954	625.19
66.0098	655.99
66.0243	611.75
66.0387	616.39
66.0531	651.53
66.0676	631.85
66.0820	638.41
66.0965	638.79
66.1109	635.01
66.1253	618.72
66.1398	601.55
66.1542	581.38
66.1687	618.05
66.1831	639.09
66.1975	610.82
66.2120	602.75
66.2264	576.53
66.2409	592.68
66.2553	608.90
66.2697	586.84
66.2842	607.80
66.2986	612.65
66.3131	586.29
66.3275	608.36
66.3419	612.40
66.3564	593.39
66.3708	602.30
66.3853	585.49
66.3997	600.29
66.4141	580.63
66.4286	583.42
66.4430	596.56
66.4575	591.42
66.4719	612.39
66.4863	614.34
66.5008	583.10
66.5152	578.61
66.5297	595.83
66.5441	575.26
66.5585	575.62
66.5730	607.68
66.5874	602.59
66.6019	613.87
66.6163	620.74
66.6307	587.97
66.6452	637.96
66.6596	579.95
66.6741	605.20
66.6885	618.32
66.7029	618.21
66.7174	589.46
66.7318	590.61
66.7463	601.97
66.7607	602.37
66.7751	604.99
66.7896	578.42
66.8040	585.02
66.8185	573.48
66.8329	542.15
66.8473	582.55
66.8618	604.01
66.8762	589.46
66.8907	586.18
66.9051	609.05
66.9195	594.95
66.9340	574.00
66.9484	572.53
66.9629	598.16
66.9773	578.16
66.9917	534.59
67.0062	551.08
67.0206	616.88
67.0351	632.01
67.0495	599.60
67.0639	620.82
67.0784	586.76
67.0928	597.40
67.1073	613.46
67.1217	607.35
67.1361	578.57
67.1506	532.59
67.1650	589.05
67.1795	584.98
67.1939	571.17
67.2083	590.15
67.2228	607.53
67.2372	590.88
67.2517	570.49
67.2661	554.27
67.2805	606.63
67.2950	580.73
67.3094	574.35
67.3239	585.18
67.3383	573.85
67.3527	556.31
67.3672	577.29
67.3816	589.57
67.3961	536.87
67.4105	577.07
67.4250	599.15
67.4394	575.83
67.4538	572.27
67.4683	576.63
67.4827	590.45
67.4972	588.34
67.5116	577.16
67.5260	599.37
67.5405	594.28
67.5549	618.62
67.5694	587.50
67.5838	605.56
67.5982	598.45
67.6127	595.36
67.6271	589.94
67.6416	577.38
67.6560	563.98
67.6704	546.26
67.6849	589.29
67.6993	595.54
67.7138	617.62
67.7282	582.85
67.7426	547.52
67.7571	569.53
67.7715	546.37
67.7860	598.11
67.8004	565.78
67.8148	575.17
67.8293	591.26
67.8437	600.85
67.8582	604.38
67.8726	590.68
67.8870	576.88
67.9015	602.79
67.9159	560.61
67.9304	589.66
67.9448	598.32
67.9592	582.07
67.9737	556.18
67.9881	606.90
68.0026	556.82
68.0170	588.57
68.0314	578.97
68.0459	562.23
68.0603	556.63
68.0748	530.28
68.0892	572.51
68.1036	589.20
68.1181	608.28
68.1325	594.92
68.1470	554.58
68.1614	598.92
68.1758	589.55
68.1903	576.82
68.2047	532.27
68.2192	574.32
68.2336	617.80
68.2480	583.39
68.2625	539.19
68.2769	572.60
68.2914	572.43
68.3058	539.54
68.3202	583.79
68.3347	552.62
68.3491	560.39
68.3636	568.31
68.3780	562.43
68.3924	562.76
68.4069	542.67
68.4213	571.90
68.4358	573.27
68.4502	541.52
68.4646	575.53
68.4791	579.43
68.4935	635.67
68.5080	561.78
68.5224	577.29
68.5368	578.59
68.5513	608.59
68.5657	594.17
68.5802	562.09
68.5946	561.02
68.6090	567.93
68.6235	569.73
68.6379	600.93
68.6524	574.96
68.6668	608.26
68.6812	606.86
68.6957	568.43
68.7101	601.87
68.7246	617.42
68.7390	568.68
68.7534	631.11
68.7679	572.68
68.7823	548.99
68.7968	580.48
68.8112	558.30
68.8256	577.40
68.8401	588.02
68.8545	623.10
68.8690	609.15
68.8834	601.39
68.8978	560.47
68.9123	582.12
68.9267	553.16
68.9412	596.55
68.9556	567.20
68.9700	587.45
68.9845	554.32
68.9989	575.05
69.0134	535.88
69.0278	553.61
69.0422	547.19
69.0567	526.16
69.0711	561.25
69.0856	556.39
69.1000	550.51
69.1144	601.14
69.1289	540.00
69.1433	525.47
69.1578	570.08
69.1722	549.32
69.1866	572.99
69.2011	539.90
69.2155	579.98
69.2300	529.39
69.2444	549.48
69.2588	562.13
69.2733	562.84
69.2877	570.93
69.3022	579.67
69.3166	588.06
69.3310	610.93
69.3455	591.44
69.3599	594.01
69.3744	589.26
69.3888	565.59
69.4032	557.64
69.4177	537.17
69.4321	600.03
69.4466	589.42
69.4610	630.02
69.4754	589.92
69.4899	529.36
69.5043	551.64
69.5188	546.36
69.5332	567.25
69.5476	567.66
69.5621	594.84
69.5765	565.43
69.5910	616.62
69.6054	589.06
69.6198	592.87
69.6343	616.68
69.6487	582.15
69.6632	564.02
69.6776	575.29
69.6920	595.11
69.7065	625.12
69.7209	660.75
69.7354	589.54
69.7498	569.33
69.7642	565.31
69.7787	567.24
69.7931	553.16
69.8076	595.77
69.8220	577.68
69.8364	587.89
69.8509	559.11
69.8653	539.02
69.8798	557.18
69.8942	538.13
69.9086	610.20
69.9231	564.18
69.9375	523.70
69.9520	563.54
69.9664	528.21
69.9808	585.68
69.9953	594.55
70.0097	582.05
70.0242	570.22
70.0386	538.54
70.0530	543.23
70.0675	530.27
70.0819	574.74
70.0964	549.23
70.1108	583.54
70.1252	546.76
70.1397	587.29
70.1541	570.10
70.1686	571.28
70.1830	548.37
70.1974	570.66
70.2119	579.95
70.2263	603.45
70.2408	575.76
70.2552	620.84
70.2696	609.23
70.2841	604.34
70.2985	574.19
70.3130	611.48
70.3274	567.51
70.3418	581.76
70.3563	610.49
70.3707	568.05
70.3852	575.97
70.3996	614.32
70.4140	563.27
70.4285	573.63
70.4429	628.71
70.4574	629.60
70.4718	549.22
70.4862	574.12
70.5007	583.95
70.5151	546.86
70.5296	560.06
70.5440	574.97
70.5584	577.44
70.5729	566.87
70.5873	525.05
70.6018	513.76
70.6162	526.30
70.6306	599.98
70.6451	611.02
70.6595	571.60
70.6740	597.83
70.6884	557.46
70.7028	591.25
70.7173	585.23
70.7317	559.98
70.7462	584.71
70.7606	575.65
70.7750	576.59
70.7895	593.72
70.8039	595.28
70.8184	587.91
70.8328	551.23
70.8472	523.97
70.8617	623.78
70.8761	630.32
70.8906	555.91
70.9050	546.75
70.9194	621.11
70.9339	662.20
70.9483	612.13
70.9628	613.37
70.9772	576.50
70.9916	548.45
71.0061	578.42
71.0205	596.14
71.0350	569.47
71.0494	538.71
71.0638	594.92
71.0783	607.32
71.0927	559.56
71.1072	561.46
71.1216	592.38
71.1361	594.26
71.1505	567.45
71.1649	623.01
71.1794	681.47
71.1938	660.39
71.2083	592.39
71.2227	554.47
71.2371	583.77
71.2516	617.67
71.2660	590.71
71.2805	572.62
71.2949	597.59
71.3093	624.33
71.3238	574.33
71.3382	551.99
71.3527	547.28
71.3671	554.93
71.3815	541.52
71.3960	563.86
71.4104	608.45
71.4249	668.88
71.4393	637.22
71.4537	582.41
71.4682	632.79
71.4826	582.50
71.4971	534.49
71.5115	565.96
71.5259	565.80
71.5404	541.43
71.5548	564.80
71.5693	596.06
71.5837	543.75
71.5981	579.28
71.6126	581.26
71.6270	561.50
71.6415	613.24
71.6559	570.19
71.6703	556.53
71.6848	591.70
71.6992	611.93
71.7137	562.26
71.7281	557.63
71.7425	548.68
71.7570	559.88
71.7714	583.23
71.7859	570.34
71.8003	577.10
71.8147	601.32
71.8292	582.80
71.8436	547.24
71.8581	556.46
71.8725	581.88
71.8869	557.90
71.9014	552.26
71.9158	696.90
71.9303	675.57
71.9447	566.43
71.9591	617.83
71.9736	586.41
71.9880	515.86
72.0025	507.75
72.0169	528.28
72.0313	536.40
72.0458	606.11
72.0602	653.16
72.0747	569.30
72.0891	535.60
72.1035	611.61
72.1180	543.55
72.1324	556.04
72.1469	589.08
72.1613	543.57
72.1757	606.95
72.1902	664.70
72.2046	620.54
72.2191	554.00
72.2335	533.41
72.2479	520.94
72.2624	541.44
72.2768	570.33
72.2913	546.94
72.3057	530.46
72.3201	552.45
72.3346	543.27
72.3490	541.59
72.3635	585.25
72.3779	596.35
72.3923	641.01
72.4068	642.50
72.4212	612.99
72.4357	574.32
72.4501	567.99
72.4645	613.82
72.4790	558.44
72.4934	512.89
72.5079	531.86
72.5223	564.66
72.5367	543.80
72.5512	530.35
72.5656	561.63
72.5801	587.67
72.5945	550.46
72.6089	599.53
72.6234	661.38
72.6378	568.44
72.6523	585.34
72.6667	565.75
72.6811	545.08
72.6956	551.18
72.7100	544.73
72.7245	584.43
72.7389	667.64
72.7533	600.25
72.7678	633.36
72.7822	610.38
72.7967	505.41
72.8111	548.68
72.8255	596.61
72.8400	609.77
72.8544	588.80
72.8689	599.01
72.8833	563.79

Result vector
22.1120	501.34
22.1264	544.47
22.1409	505.03
22.1553	503.20
22.1697	597.07
22.1842	486.14
22.1986	539.01
22.2131	624.56
22.2275	515.66
22.2419	493.04
22.2564	516.47
22.2708	586.20
22.2853	580.10
22.2997	618.82
22.3141	639.49
22.3286	600.71
22.3430	526.01
22.3575	511.43
22.3719	511.49
22.3863	540.94
22.4008	526.84
22.4152	600.00
22.4297	570.12
22.4441	577.78
22.4585	565.85
22.4730	710.46
22.4874	631.13
22.5019	548.31
22.5163	515.24
22.5307	566.51
22.5452	641.40
22.5596	654.42
22.5741	650.40
22.5885	615.98
22.6029	619.57
22.6174	574.15
22.6318	663.23
22.6463	593.30
22.6607	538.03
22.6751	495.84
22.6896	588.33
22.7040	591.66
22.7185	527.17
22.7329	515.61
22.7473	574.53
22.7618	541.10
22.7762	579.05
22.7907	539.11
22.8051	565.69
22.8195	632.17
22.8340	565.05
22.8484	567.89
22.8629	540.36
22.8773	464.34
22.8917	493.32
22.9062	629.72
22.9206	567.96
22.9351	516.12
22.9495	543.32
22.9639	565.32
22.9784	538.48
22.9928	640.12
23.0073	589.54
23.0217	590.62
23.0361	615.54
23.0506	577.32
23.0650	529.76
23.0795	582.48
23.0939	546.10
23.1083	509.23
23.1228	602.04
23.1372	557.24
23.1517	563.90
23.1661	488.94
23.1806	492.46
23.1950	495.42
23.2094	567.98
23.2239	612.86
23.2383	578.53
23.2528	580.30
23.2672	549.93
23.2816	493.54
23.2961	537.11
23.3105	488.53
23.3250	548.32
23.3394	589.48
23.3538	615.15
23.3683	651.84
23.3827	507.76
23.3972	569.58
23.4116	582.99
23.4260	597.70
23.4405	532.28
23.4549	526.63
23.4694	514.19
23.4838	563.97
23.4982	564.48
23.5127	595.55
23.5271	572.93
23.5416	590.04
23.5560	548.72
23.5704	559.13
23.5849	572.08
23.5993	565.12
23.6138	530.37
23.6282	539.49
23.6426	513.46
23.6571	543.03
23.6715	586.50
23.6860	563.24
23.7004	554.50
23.7148	546.78
23.7293	563.64
23.7437	523.51
23.7582	542.23
23.7726	583.75
23.7870	569.18
23.8015	524.40
23.8159	577.06
23.8304	561.68
23.8448	494.91
23.8592	588.21
23.8737	582.61
23.8881	554.51
23.9026	572.90
23.9170	530.76
23.9314	486.41
23.9459	562.15
23.9603	542.27
23.9748	617.60
23.9892	600.65
24.0036	592.80
24.0181	631.86
24.0325	572.64
24.0470	519.74
24.0614	564.63
24.0758	486.84
24.0903	553.15
24.1047	586.49
24.1192	543.63
24.1336	610.10
24.1480	535.78
24.1625	565.59
24.1769	557.06
24.1914	575.82
24.2058	560.49
24.2202	523.17
24.2347	549.65
24.2491	607.07
24.2636	562.59
24.2780	563.23
24.2924	577.50
24.3069	528.84
24.3213	553.87
24.3358	631.49
24.3502	559.25
24.3646	546.87
24.3791	547.71
24.3935	524.77
24.4080	538.00
24.4224	573.26
24.4368	545.39
24.4513	562.30
24.4657	581.59
24.4802	515.50
24.4946	600.73
24.5090	557.97
24.5235	520.18
24.5379	546.20
24.5524	506.33
24.5668	547.32
24.5812	542.71
24.5957	569.84
24.6101	551.10
24.6246	520.41
24.6390	547.97
24.6534	595.26
24.6679	570.09
24.6823	530.95
24.6968	544.42
24.7112	573.25
24.7256	521.73
24.7401	537.82
24.7545	572.81
24.7690	516.58
24.7834	544.53
24.7978	528.38
24.8123	503.35
24.8267	584.63
24.8412	499.40
24.8556	635.28
24.8700	567.06
24.8845	548.65
24.8989	583.22
24.9134	582.23
24.9278	549.40
24.9422	539.42
24.9567	542.28
24.9711	539.13
24.9856	528.66
25.0000	560.61
25.0144	501.17
25.0289	570.67
25.0433	556.80
25.0578	492.09
25.0722	528.31
25.0866	552.70
25.1011	554.36
25.1155	582.76
25.1300	568.87
25.1444	521.87
25.1588	516.00
25.1733	521.97
25.1877	482.88
25.2022	510.26
25.2166	552.18
25.2310	534.18
25.2455	560.28
25.2599	529.28
25.2744	554.56
25.2888	538.83
25.3032	591.24
25.3177	580.30
25.3321	544.52
25.3466	553.05
25.3610	509.01
25.3754	498.95
25.3899	538.88
25.4043	542.50
25.4188	548.02
25.4332	486.96
25.4476	498.92
25.4621	499.32
25.4765	564.25
25.4910	545.44
25.5054	522.06
25.5198	499.51
25.5343	565.94
25.5487	577.91
25.5632	543.19
25.5776	525.32
25.5920	523.96
25.6065	509.96
25.6209	536.40
25.6354	537.94
25.6498	539.61
25.6642	532.83
25.6787	532.90
25.6931	533.89
25.7076	537.01
25.7220	510.58
25.7364	560.38
25.7509	554.98
25.7653	534.91
25.7798	524.17
25.7942	566.28
25.8086	535.42
25.8231	586.71
25.8375	589.78
25.8520	558.40
25.8664	569.40
25.8808	532.57
25.8953	536.63
25.9097	524.89
25.9242	531.14
25.9386	574.24
25.9530	547.94
25.9675	579.98
25.9819	570.70
25.9964	580.15
26.0108	580.31
26.0252	541.98
26.0397	564.09
26.0541	574.09
26.0686	545.68
26.0830	536.54
26.0974	538.98
26.1119	519.53
26.1263	522.36
26.1408	556.18
26.1552	535.55
26.1696	541.67
26.1841	509.58
26.1985	517.12
26.2130	517.29
26.2274	518.01
26.2418	537.50
26.2563	580.14
26.2707	519.53
26.2852	518.54
26.2996	546.06
26.3140	511.57
26.3285	524.65
26.3429	548.76
26.3574	575.88
26.3718	531.25
26.3862	524.29
26.4007	547.61
26.4151	550.19
26.4296	526.38
26.4440	509.64
26.4584	500.46
26.4729	530.37
26.4873	515.47
26.5018	563.31
26.5162	543.81
26.5306	560.15
26.5451	539.13
26.5595	522.55
26.5740	530.48
26.5884	548.01
26.6028	547.47
26.6173	552.22
26.6317	533.85
26.6462	552.03
26.6606	560.90
26.6750	534.74
26.6895	519.66
26.7039	518.43
26.7184	512.01
26.7328	476.30
26.7472	516.97
26.7617	521.30
26.7761	531.01
26.7906	528.29
26.8050	501.32
26.8194	523.08
26.8339	515.03
26.8483	493.96
26.8628	553.99
26.8772	543.62
26.8917	554.15
26.9061	540.88
26.9205	508.06
26.9350	532.67
26.9494	535.76
26.9639	517.23
26.9783	534.84
26.9927	509.41
27.0072	488.22
27.0216	521.03
27.0361	532.49
27.0505	551.83
27.0649	547.84
27.0794	545.15
27.0938	558.39
27.1083	544.19
27.1227	529.35
27.1371	508.05
27.1516	506.93
27.1660	529.59
27.1805	545.82
27.1949	510.22
27.2093	504.19
27.2238	480.16
27.2382	519.93
27.2527	505.48
27.2671	515.54
27.2815	520.06
27.2960	509.05
27.3104	497.98
27.3249	519.55
27.3393	518.22
27.3537	519.41
27.3682	532.62
27.3826	531.04
27.3971	493.51
27.4115	512.84
27.4259	547.51
27.4404	505.59
27.4548	511.09
27.4693	542.56
27.4837	560.57
27.4981	532.64
27.5126	537.19
27.5270	525.09
27.5415	509.53
27.5559	511.74
27.5703	516.39
27.5848	557.45
27.5992	497.34
27.6137	505.42
27.6281	530.24
27.6425	518.75
27.6570	501.85
27.6714	481.29
27.6859	484.46
27.7003	507.33
27.7147	522.31
27.7292	498.83
27.7436	522.82
27.7581	515.34
27.7725	506.37
27.7869	498.87
27.8014	522.41
27.8158	555.57
27.8303	502.19
27.8447	501.41
27.8591	543.04
27.8736	542.86
27.8880	503.92
27.9025	503.07
27.9169	532.87
27.9313	527.15
27.9458	533.25
27.9602	531.41
27.9747	524.25
27.9891	536.52
28.0035	476.68
28.0180	454.67
28.0324	504.37
28.0469	528.85
28.0613	503.18
28.0757	487.06
28.0902	517.38
28.1046	534.39
28.1191	518.06
28.1335	509.79
28.1479	511.07
28.1624	513.84
28.1768	556.30
28.1913	520.52
28.2057	523.87
28.2201	549.96
28.2346	515.39
28.2490	508.59
28.2635	500.50
28.2779	534.39
28.2923	515.29
28.3068	526.13
28.3212	540.84
28.3357	530.05
28.3501	527.52
28.3645	504.06
28.3790	538.56
28.3934	504.99
28.4079	525.79
28.4223	536.90
28.4367	498.66
28.4512	490.45
28.4656	508.89
28.4801	515.34
28.4945	504.98
28.5089	509.11
28.5234	482.70
28.5378	569.77
28.5523	545.76
28.5667	523.01
28.5811	512.83
28.5956	509.66
28.6100	498.75
28.6245	511.38
28.6389	537.32
28.6533	552.47
28.6678	496.35
28.6822	496.14
28.6967	504.03
28.7111	537.20
28.7255	533.69
28.7400	532.04
28.7544	510.40
28.7689	489.88
28.7833	507.63
28.7977	518.61
28.8122	556.33
28.8266	495.77
28.8411	509.23
28.8555	532.11
28.8699	531.16
28.8844	494.29
28.8988	517.69
28.9133	518.38
28.9277	515.87
28.9421	529.04
28.9566	465.89
28.9710	479.63
28.9855	529.98
28.9999	476.30
29.0143	507.36
29.0288	536.00
29.0432	488.73
29.0577	552.07
29.0721	498.94
29.0865	511.96
29.1010	503.97
29.1154	466.35
29.1299	514.95
29.1443	508.44
29.1587	511.36
29.1732	535.25
29.1876	499.63
29.2021	486.51
29.2165	486.13
29.2309	474.51
29.2454	508.18
29.2598	504.33
29.2743	504.20
29.2887	525.19
29.3031	525.29
29.3176	468.85
29.3320	491.08
29.3465	510.63
29.3609	518.26
29.3753	515.85
29.3898	497.77
29.4042	511.81
29.4187	504.69
29.4331	500.71
29.4475	487.91
29.4620	486.77
29.4764	535.27
29.4909	528.17
29.5053	521.24
29.5197	513.12
29.5342	516.33
29.5486	501.49
29.5631	494.80
29.5775	519.97
29.5919	531.68
29.6064	529.04
29.6208	480.06
29.6353	527.61
29.6497	525.38
29.6641	503.00
29.6786	515.78
29.6930	531.93
29.7075	546.08
29.7219	525.86
29.7363	499.88
29.7508	541.04
29.7652	517.16
29.7797	526.92
29.7941	478.52
29.8085	477.63
29.8230	507.26
29.8374	546.00
29.8519	535.74
29.8663	539.28
29.8807	515.94
29.8952	518.28
29.9096	533.21
29.9241	531.11
29.9385	530.90
29.9529	492.40
29.9674	481.21
29.9818	503.89
29.9963	478.62
30.0107	460.83
30.0251	493.20
30.0396	504.86
30.0540	499.20
30.0685	465.59
30.0829	527.22
30.0973	539.83
30.1118	493.54
30.1262	496.63
30.1407	479.16
30.1551	501.64
30.1695	540.54
30.1840	516.10
30.1984	513.99
30.2129	496.32
30.2273	500.39
30.2417	548.13
30.2562	514.99
30.2706	509.33
30.2851	506.33
30.2995	553.60
30.3139	538.16
30.3284	512.61
30.3428	524.92
30.3573	529.13
30.3717	509.60
30.3861	509.18
30.4006	507.36
30.4150	547.79
30.4295	561.77
30.4439	521.90
30.4583	545.91
30.4728	585.68
30.4872	565.91
30.5017	572.86
30.5161	661.07
30.5305	689.17
30.5450	717.24
30.5594	758.18
30.5739	746.65
30.5883	726.82
30.6028	776.63
30.6172	761.54
30.6316	729.20
30.6461	700.65
30.6605	688.68
30.6750	657.99
30.6894	637.50
30.7038	625.44
30.7183	581.59
30.7327	557.06
30.7472	533.01
30.7616	499.00
30.7760	541.01
30.7905	533.88
30.8049	536.66
30.8194	528.69
30.8338	495.04
30.8482	554.39
30.8627	547.08
30.8771	561.86
30.8916	503.79
30.9060	511.25
30.9204	505.77
30.9349	537.11
30.9493	519.58
30.9638	538.62
30.9782	495.65
30.9926	509.56
31.0071	527.60
31.0215	513.54
31.0360	490.26
31.0504	508.06
31.0648	519.69
31.0793	490.27
31.0937	514.55
31.1082	535.60
31.1226	513.82
31.1370	525.97
31.1515	507.76
31.1659	481.18
31.1804	509.62
31.1948	477.08
31.2092	500.13
31.2237	482.75
31.2381	524.23
31.2526	526.80
31.2670	537.34
31.2814	545.28
31.2959	519.85
31.3103	516.77
31.3248	517.67
31.3392	515.27
31.3536	526.57
31.3681	544.02
31.3825	509.25
31.3970	499.80
31.4114	542.44
31.4258	522.36
31.4403	484.49
31.4547	484.57
31.4692	522.80
31.4836	504.01
31.4980	488.98
31.5125	520.87
31.5269	514.57
31.5414	505.18
31.5558	523.76
31.5702	511.11
31.5847	530.66
31.5991	519.99
31.6136	486.59
31.6280	509.20
31.6424	507.85
31.6569	476.55
31.6713	477.31
31.6858	483.48
31.7002	498.50
31.7146	493.87
31.7291	483.44
31.7435	485.37
31.7580	502.11
31.7724	500.93
31.7868	539.99
31.8013	533.26
31.8157	518.37
31.8302	531.12
31.8446	511.29
31.8590	532.45
31.8735	496.66
31.8879	492.29
31.9024	547.35
31.9168	528.03
31.9312	491.48
31.9457	536.44
31.9601	508.67
31.9746	484.37
31.9890	521.37
32.0034	510.08
32.0179	521.09
32.0323	516.11
32.0468	520.59
32.0612	567.11
32.0756	505.39
32.0901	480.81
32.1045	503.23
32.1190	485.12
32.1334	506.68
32.1478	482.53
32.1623	523.55
32.1767	515.27
32.1912	502.64
32.2056	508.95
32.2200	471.57
32.2345	493.71
32.2489	464.10
32.2634	491.57
32.2778	511.20
32.2922	492.07
32.3067	512.44
32.3211	522.36
32.3356	508.06
32.3500	477.01
32.3644	496.08
32.3789	503.88
32.3933	488.96
32.4078	524.56
32.4222	504.21
32.4366	478.92
32.4511	516.47
32.4655	522.43
32.4800	507.67
32.4944	535.24
32.5088	513.33
32.5233	504.51
32.5377	499.75
32.5522	531.81
32.5666	520.26
32.5810	496.71
32.5955	511.97
32.6099	486.15
32.6244	527.10
32.6388	495.73
32.6532	484.84
32.6677	533.28
32.6821	488.45
32.6966	482.27
32.7110	529.93
32.7254	517.59
32.7399	513.69
32.7543	510.87
32.7688	484.86
32.7832	485.47
32.7976	500.54
32.8121	524.04
32.8265	524.87
32.8410	494.41
32.8554	495.78
32.8698	528.17
32.8843	508.95
32.8987	540.82
32.9132	534.43
32.9276	497.39
32.9420	517.81
32.9565	508.94
32.9709	518.35
32.9854	557.79
32.9998	511.29
33.0142	496.02
33.0287	559.38
33.0431	524.98
33.0576	510.87
33.0720	488.13
33.0864	517.95
33.1009	490.57
33.1153	493.72
33.1298	497.71
33.1442	477.71
33.1586	478.40
33.1731	494.03
33.1875	485.39
33.2020	485.29
33.2164	514.24
33.2308	477.09
33.2453	496.88
33.2597	464.80
33.2742	489.14
33.2886	524.59
33.3030	484.02
33.3175	518.64
33.3319	525.16
33.3464	510.68
33.3608	470.71
33.3752	473.15
33.3897	472.73
33.4041	480.48
33.4186	490.86
33.4330	482.63
33.4474	484.34
33.4619	514.09
33.4763	518.72
33.4908	526.75
33.5052	498.70
33.5196	483.60
33.5341	478.84
33.5485	495.40
33.5630	491.22
33.5774	494.34
33.5918	509.27
33.6063	534.70
33.6207	496.73
33.6352	478.62
33.6496	524.34
33.6640	513.28
33.6785	511.04
33.6929	468.97
33.7074	507.42
33.7218	492.33
33.7362	472.77
33.7507	463.61
33.7651	500.34
33.7796	491.04
33.7940	511.63
33.8084	532.35
33.8229	519.27
33.8373	516.42
33.8518	496.50
33.8662	524.38
33.8806	507.73
33.8951	466.79
33.9095	494.97
33.9240	474.65
33.9384	509.93
33.9528	497.90
33.9673	492.88
33.9817	498.76
33.9962	485.49
34.0106	508.16
34.0250	548.18
34.0395	520.88
34.0539	508.11
34.0684	507.64
34.0828	503.95
34.0972	507.46
34.1117	466.31
34.1261	500.37
34.1406	487.39
34.1550	492.76
34.1694	518.74
34.1839	459.49
34.1983	512.42
34.2128	540.83
34.2272	503.48
34.2417	508.76
34.2561	486.10
34.2705	482.57
34.2850	492.89
34.2994	510.21
34.3139	509.01
34.3283	510.05
34.3427	512.61
34.3572	518.65
34.3716	511.09
34.3861	521.36
34.4005	505.99
34.4149	494.33
34.4294	501.92
34.4438	501.25
34.4583	507.69
34.4727	495.48
34.4871	529.98
34.5016	511.10
34.5160	505.30
34.5305	495.32
34.5449	526.17
34.5593	512.51
34.5738	539.92
34.5882	505.69
34.6027	518.57
34.6171	488.10
34.6315	498.57
34.6460	513.76
34.6604	485.99
34.6749	502.18
34.6893	499.59
34.7037	519.74
34.7182	525.98
34.7326	497.63
34.7471	514.38
34.7615	493.00
34.7759	491.55
34.7904	492.92
34.8048	478.61
34.8193	526.60
34.8337	544.69
34.8481	506.33
34.8626	508.55
34.8770	515.75
34.8915	529.94
34.9059	544.23
34.9203	514.58
34.9348	496.30
34.9492	529.29
34.9637	561.06
34.9781	525.86
34.9925	552.12
35.0070	488.19
35.0214	475.59
35.0359	493.38
35.0503	537.43
35.0647	530.50
35.0792	544.25
35.0936	520.96
35.1081	529.02
35.1225	503.79
35.1369	496.82
35.1514	478.94
35.1658	497.11
35.1803	506.03
35.1947	478.66
35.2091	519.55
35.2236	541.55
35.2380	520.38
35.2525	478.44
35.2669	491.70
35.2813	507.14
35.2958	484.48
35.3102	497.57
35.3247	501.89
35.3391	497.34
35.3535	529.27
35.3680	547.83
35.3824	544.67
35.3969	520.36
35.4113	496.55
35.4257	498.24
35.4402	523.30
35.4546	556.66
35.4691	532.83
35.4835	520.30
35.4979	509.71
35.5124	508.78
35.5268	516.87
35.5413	558.11
35.5557	504.42
35.5701	530.96
35.5846	505.98
35.5990	543.70
35.6135	543.45
35.6279	504.06
35.6423	492.10
35.6568	531.80
35.6712	561.31
35.6857	610.42
35.7001	670.37
35.7145	733.44
35.7290	733.69
35.7434	600.83
35.7579	588.23
35.7723	567.97
35.7867	621.29
35.8012	665.67
35.8156	632.72
35.8301	661.91
35.8445	667.19
35.8589	706.24
35.8734	746.43
35.8878	888.39
35.9023	1031.39
35.9167	1097.07
35.9311	1417.74
35.9456	1987.53
35.9600	2527.01
35.9745	2336.81
35.9889	2421.35
36.0033	2934.66
36.0178	3145.34
36.0322	2672.93
36.0467	2379.38
36.0611	2174.82
36.0755	1971.20
36.0900	1926.70
36.1044	1648.31
36.1189	1685.13
36.1333	1520.05
36.1477	1198.85
36.1622	1141.41
36.1766	991.72
36.1911	871.02
36.2055	737.80
36.2199	660.91
36.2344	649.11
36.2488	587.68
36.2633	585.33
36.2777	573.56
36.2921	576.50
36.3066	525.72
36.3210	561.81
36.3355	582.39
36.3499	570.73
36.3643	556.61
36.3788	552.84
36.3932	525.80
36.4077	508.90
36.4221	535.88
36.4365	549.52
36.4510	548.17
36.4654	547.57
36.4799	534.43
36.4943	535.30
36.5087	540.10
36.5232	503.29
36.5376	553.49
36.5521	533.25
36.5665	550.59
36.5809	536.57
36.5954	523.96
36.6098	509.76
36.6243	495.06
36.6387	502.11
36.6531	487.52
36.6676	504.76
36.6820	506.64
36.6965	505.29
36.7109	517.28
36.7253	495.38
36.7398	494.79
36.7542	527.36
36.7687	573.15
36.7831	528.44
36.7975	560.75
36.8120	558.95
36.8264	553.54
36.8409	545.81
36.8553	560.89
36.8697	576.39
36.8842	588.37
36.8986	619.71
36.9131	606.18
36.9275	574.14
36.9419	586.60
36.9564	570.23
36.9708	563.46
36.9853	564.89
36.9997	576.05
37.0141	537.32
37.0286	554.55
37.0430	522.12
37.0575	525.86
37.0719	533.32
37.0863	528.61
37.1008	507.85
37.1152	521.17
37.1297	533.35
37.1441	510.45
37.1585	509.28
37.1730	507.48
37.1874	472.76
37.2019	487.41
37.2163	526.05
37.2307	484.95
37.2452	488.15
37.2596	503.52
37.2741	501.55
37.2885	525.41
37.3029	499.83
37.3174	496.81
37.3318	510.59
37.3463	509.63
37.3607	483.88
37.3751	530.88
37.3896	500.48
37.4040	469.06
37.4185	485.97
37.4329	540.32
37.4473	533.30
37.4618	509.77
37.4762	526.96
37.4907	504.34
37.5051	525.20
37.5195	508.61
37.5340	502.68
37.5484	501.17
37.5629	514.60
37.5773	494.74
37.5917	506.58
37.6062	502.54
37.6206	526.77
37.6351	487.93
37.6495	504.05
37.6639	499.03
37.6784	516.48
37.6928	527.36
37.7073	544.14
37.7217	517.98
37.7361	482.09
37.7506	505.29
37.7650	508.97
37.7795	506.42
37.7939	520.32
37.8083	549.01
37.8228	518.16
37.8372	495.56
37.8517	492.41
37.8661	488.54
37.8805	495.15
37.8950	523.10
37.9094	518.65
37.9239	512.92
37.9383	548.06
37.9528	567.82
37.9672	503.26
37.9816	493.18
37.9961	503.40
38.0105	488.05
38.0250	500.52
38.0394	491.38
38.0538	503.17
38.0683	524.81
38.0827	514.52
38.0972	504.66
38.1116	484.09
38.1260	515.24
38.1405	496.25
38.1549	526.88
38.1694	513.49
38.1838	493.80
38.1982	469.86
38.2127	525.02
38.2271	513.14
38.2416	504.75
38.2560	515.24
38.2704	518.27
38.2849	539.38
38.2993	543.69
38.3138	514.91
38.3282	549.90
38.3426	538.84
38.3571	532.37
38.3715	548.64
38.3860	498.62
38.4004	540.82
38.4148	547.41
38.4293	606.29
38.4437	616.75
38.4582	604.50
38.4726	648.80
38.4870	723.55
38.5015	737.72
38.5159	796.28
38.5304	815.86
38.5448	785.60
38.5592	786.13
38.5737	766.55
38.5881	749.02
38.6026	731.75
38.6170	720.08
38.6314	709.74
38.6459	676.30
38.6603	681.17
38.6748	634.20
38.6892	555.16
38.7036	568.56
38.7181	556.77
38.7325	523.20
38.7470	530.66
38.7614	508.27
38.7758	516.59
38.7903	518.32
38.8047	522.70
38.8192	512.08
38.8336	515.05
38.8480	498.32
38.8625	509.32
38.8769	510.14
38.8914	505.60
38.9058	491.43
38.9202	496.99
38.9347	489.53
38.9491	467.67
38.9636	482.99
38.9780	507.52
38.9924	520.76
39.0069	517.79
39.0213	513.53
39.0358	488.37
39.0502	507.76
39.0646	531.96
39.0791	506.49
39.0935	511.45
39.1080	509.61
39.1224	511.36
39.1368	522.16
39.1513	511.91
39.1657	522.73
39.1802	515.35
39.1946	484.14
39.2090	462.80
39.2235	500.79
39.2379	508.80
39.2524	513.00
39.2668	512.52
39.2812	519.12
39.2957	528.06
39.3101	511.61
39.3246	489.88
39.3390	524.06
39.3534	501.17
39.3679	523.88
39.3823	507.90
39.3968	495.39
39.4112	496.18
39.4256	525.43
39.4401	504.80
39.4545	507.68
39.4690	521.14
39.4834	508.28
39.4978	525.82
39.5123	539.24
39.5267	516.64
39.5412	520.47
39.5556	507.15
39.5700	493.26
39.5845	502.81
39.5989	541.22
39.6134	516.62
39.6278	448.08
39.6422	486.90
39.6567	499.05
39.6711	465.70
39.6856	489.47
39.7000	529.61
39.7144	523.47
39.7289	513.34
39.7433	487.50
39.7578	492.96
39.7722	516.01
39.7866	530.86
39.8011	485.40
39.8155	487.07
39.8300	500.81
39.8444	508.70
39.8588	481.18
39.8733	503.26
39.8877	514.91
39.9022	509.55
39.9166	528.97
39.9310	474.98
39.9455	499.97
39.9599	485.87
39.9744	499.53
39.9888	501.35
40.0032	464.59
40.0177	509.81
40.0321	482.96
40.0466	471.70
40.0610	535.44
40.0754	530.22
40.0899	517.98
40.1043	493.28
40.1188	508.55
40.1332	515.11
40.1476	430.49
40.1621	514.35
40.1765	524.70
40.1910	457.31
40.2054	477.42
40.2198	474.35
40.2343	467.90
40.2487	524.21
40.2632	503.49
40.2776	497.81
40.2920	483.31
40.3065	481.31
40.3209	523.29
40.3354	510.86
40.3498	518.12
40.3642	494.20
40.3787	482.32
40.3931	455.27
40.4076	484.87
40.4220	512.87
40.4364	512.53
40.4509	488.34
40.4653	530.67
40.4798	520.07
40.4942	502.21
40.5086	502.50
40.5231	481.89
40.5375	495.61
40.5520	486.28
40.5664	503.65
40.5808	489.95
40.5953	508.11
40.6097	494.09
40.6242	492.41
40.6386	475.33
40.6530	491.30
40.6675	532.17
40.6819	496.18
40.6964	465.79
40.7108	489.86
40.7252	512.00
40.7397	502.48
40.7541	484.30
40.7686	534.91
40.7830	496.05
40.7974	476.31
40.8119	479.99
40.8263	514.74
40.8408	537.67
40.8552	531.06
40.8696	544.26
40.8841	512.84
40.8985	493.81
40.9130	521.91
40.9274	498.73
40.9418	523.91
40.9563	515.43
40.9707	463.18
40.9852	479.30
40.9996	492.64
41.0140	474.83
41.0285	469.69
41.0429	493.81
41.0574	467.61
41.0718	509.86
41.0862	491.40
41.1007	481.70
41.1151	461.47
41.1296	501.22
41.1440	481.66
41.1584	498.22
41.1729	506.59
41.1873	508.42
41.2018	486.86
41.2162	478.82
41.2306	494.82
41.2451	469.12
41.2595	495.30
41.2740	489.51
41.2884	551.38
41.3028	493.57
41.3173	470.12
41.3317	512.74
41.3462	496.34
41.3606	486.81
41.3750	506.28
41.3895	478.28
41.4039	491.16
41.4184	510.39
41.4328	491.14
41.4472	511.29
41.4617	529.07
41.4761	519.65
41.4906	511.37
41.5050	486.83
41.5194	479.00
41.5339	487.28
41.5483	512.20
41.5628	506.52
41.5772	479.87
41.5916	482.20
41.6061	496.91
41.6205	497.22
41.6350	512.65
41.6494	508.71
41.6639	477.49
41.6783	496.41
41.6927	479.34
41.7072	486.31
41.7216	517.18
41.7361	545.14
41.7505	509.54
41.7649	530.26
41.7794	509.95
41.7938	523.16
41.8083	502.65
41.8227	527.55
41.8371	524.68
41.8516	516.37
41.8660	519.46
41.8805	504.63
41.8949	571.59
41.9093	537.52
41.9238	537.20
41.9382	533.29
41.9527	558.36
41.9671	557.66
41.9815	561.67
41.9960	591.34
42.0104	596.13
42.0249	582.03
42.0393	587.85
42.0537	598.72
42.0682	602.17
42.0826	550.08
42.0971	561.43
42.1115	566.38
42.1259	596.31
42.1404	572.42
42.1548	584.38
42.1693	663.82
42.1837	679.36
42.1981	708.26
42.2126	819.65
42.2270	913.33
42.2415	1044.89
42.2559	1156.47
42.2703	1299.05
42.2848	1413.80
42.2992	1521.08
42.3137	1645.60
42.3281	1659.23
42.3425	1553.37
42.3570	1474.09
42.3714	1401.04
42.3859	1352.38
42.4003	1320.88
42.4147	1317.99
42.4292	1266.77
42.4436	1146.89
42.4581	1025.10
42.4725	975.41
42.4869	866.44
42.5014	769.38
42.5158	717.65
42.5303	660.71
42.5447	641.17
42.5591	599.79
42.5736	610.89
42.5880	579.55
42.6025	578.16
42.6169	544.90
42.6313	558.64
42.6458	568.13
42.6602	506.18
42.6747	521.05
42.6891	526.87
42.7035	513.34
42.7180	533.97
42.7324	515.89
42.7469	491.48
42.7613	485.87
42.7757	508.98
42.7902	526.51
42.8046	539.83
42.8191	507.70
42.8335	485.78
42.8479	507.94
42.8624	524.14
42.8768	512.36
42.8913	526.57
42.9057	551.39
42.9201	533.85
42.9346	523.75
42.9490	526.19
42.9635	505.59
42.9779	502.07
42.9923	529.03
43.0068	502.12
43.0212	504.10
43.0357	491.20
43.0501	536.97
43.0645	564.36
43.0790	531.24
43.0934	533.40
43.1079	509.05
43.1223	553.83
43.1367	553.44
43.1512	494.73
43.1656	502.20
43.1801	507.65
43.1945	519.30
43.2089	512.87
43.2234	540.09
43.2378	549.85
43.2523	536.70
43.2667	496.70
43.2811	517.60
43.2956	499.85
43.3100	509.90
43.3245	543.38
43.3389	531.95
43.3533	518.08
43.3678	503.02
43.3822	555.45
43.3967	508.54
43.4111	509.45
43.4255	548.64
43.4400	512.05
43.4544	498.53
43.4689	559.52
43.4833	508.58
43.4977	513.98
43.5122	551.03
43.5266	508.53
43.5411	509.05
43.5555	505.80
43.5699	517.60
43.5844	539.40
43.5988	545.79
43.6133	493.13
43.6277	480.50
43.6421	503.15
43.6566	527.65
43.6710	558.97
43.6855	589.25
43.6999	570.02
43.7143	632.57
43.7288	624.75
43.7432	640.23
43.7577	686.20
43.7721	696.53
43.7865	669.26
43.8010	659.67
43.8154	657.18
43.8299	643.45
43.8443	648.68
43.8587	624.04
43.8732	596.94
43.8876	602.69
43.9021	607.00
43.9165	594.60
43.9309	568.88
43.9454	524.79
43.9598	524.58
43.9743	490.73
43.9887	532.13
44.0031	509.98
44.0176	492.11
44.0320	549.74
44.0465	530.32
44.0609	524.84
44.0753	538.87
44.0898	567.94
44.1042	536.93
44.1187	519.74
44.1331	505.76
44.1475	495.69
44.1620	539.07
44.1764	549.99
44.1909	528.32
44.2053	499.32
44.2197	508.42
44.2342	505.01
44.2486	546.80
44.2631	510.00
44.2775	512.14
44.2919	492.11
44.3064	519.89
44.3208	518.84
44.3353	548.67
44.3497	546.69
44.3641	535.10
44.3786	500.61
44.3930	522.95
44.4075	550.30
44.4219	560.29
44.4363	574.86
44.4508	569.06
44.4652	601.67
44.4797	593.44
44.4941	630.01
44.5085	551.39
44.5230	595.45
44.5374	583.04
44.5519	554.20
44.5663	577.52
44.5807	571.83
44.5952	606.12
44.6096	601.01
44.6241	578.95
44.6385	550.30
44.6529	563.22
44.6674	603.18
44.6818	581.06
44.6963	602.21
44.7107	659.09
44.7251	668.56
44.7396	759.13
44.7540	816.06
44.7685	791.87
44.7829	868.61
44.7973	865.80
44.8118	872.64
44.8262	852.31
44.8407	780.39
44.8551	778.62
44.8695	706.69
44.8840	780.46
44.8984	748.29
44.9129	736.52
44.9273	680.11
44.9417	624.34
44.9562	629.32
44.9706	563.79
44.9851	582.44
44.9995	572.33
45.0139	528.59
45.0284	551.14
45.0428	537.58
45.0573	540.50
45.0717	528.49
45.0861	534.09
45.1006	514.35
45.1150	545.69
45.1295	543.10
45.1439	497.50
45.1583	488.38
45.1728	474.96
45.1872	465.03
45.2017	530.63
45.2161	526.84
45.2305	504.77
45.2450	505.52
45.2594	518.50
45.2739	517.90
45.2883	517.43
45.3028	502.01
45.3172	483.16
45.3316	513.31
45.3461	534.16
45.3605	516.72
45.3750	491.16
45.3894	517.20
45.4038	489.17
45.4183	506.43
45.4327	535.19
45.4472	493.37
45.4616	516.92
45.4760	510.43
45.4905	531.21
45.5049	501.02
45.5194	496.88
45.5338	515.05
45.5482	514.75
45.5627	488.40
45.5771	472.77
45.5916	499.96
45.6060	523.46
45.6204	499.50
45.6349	489.48
45.6493	496.27
45.6638	487.98
45.6782	499.01
45.6926	497.98
45.7071	537.14
45.7215	551.35
45.7360	504.13
45.7504	526.73
45.7648	469.15
45.7793	507.50
45.7937	494.61
45.8082	496.08
45.8226	493.25
45.8370	516.82
45.8515	491.97
45.8659	523.95
45.8804	532.09
45.8948	538.67
45.9092	497.62
45.9237	494.65
45.9381	496.18
45.9526	475.64
45.9670	496.61
45.9814	532.72
45.9959	510.14
46.0103	507.34
46.0248	498.40
46.0392	504.92
46.0536	517.52
46.0681	517.84
46.0825	493.64
46.0970	500.22
46.1114	518.03
46.1258	522.88
46.1403	491.41
46.1547	495.06
46.1692	498.51
46.1836	494.23
46.1980	487.11
46.2125	511.43
46.2269	516.41
46.2414	503.27
46.2558	538.54
46.2702	522.88
46.2847	505.55
46.2991	500.42
46.3136	514.75
46.3280	501.02
46.3424	479.70
46.3569	499.28
46.3713	475.72
46.3858	495.11
46.4002	501.72
46.4146	512.83
46.4291	505.60
46.4435	511.03
46.4580	492.34
46.4724	514.79
46.4868	513.40
46.5013	485.67
46.5157	501.11
46.5302	511.73
46.5446	518.19
46.5590	494.51
46.5735	496.65
46.5879	487.81
46.6024	499.35
46.6168	534.87
46.6312	518.39
46.6457	499.54
46.6601	547.11
46.6746	519.97
46.6890	502.95
46.7034	520.60
46.7179	499.08
46.7323	492.01
46.7468	489.90
46.7612	484.22
46.7756	501.32
46.7901	502.55
46.8045	486.02
46.8190	529.85
46.8334	525.85
46.8478	488.45
46.8623	510.37
46.8767	495.94
46.8912	503.27
46.9056	520.20
46.9200	522.91
46.9345	512.69
46.9489	510.56
46.9634	523.97
46.9778	492.91
46.9922	510.40
47.0067	510.75
47.0211	487.69
47.0356	535.94
47.0500	527.05
47.0644	514.06
47.0789	517.11
47.0933	500.52
47.1078	515.57
47.1222	534.35
47.1366	512.24
47.1511	520.16
47.1655	530.21
47.1800	524.76
47.1944	516.28
47.2088	495.21
47.2233	498.05
47.2377	509.92
47.2522	501.01
47.2666	460.33
47.2810	499.87
47.2955	517.37
47.3099	488.84
47.3244	508.78
47.3388	486.80
47.3532	512.65
47.3677	509.38
47.3821	499.09
47.3966	498.24
47.4110	487.79
47.4254	535.11
47.4399	535.14
47.4543	498.12
47.4688	482.90
47.4832	503.00
47.4976	492.91
47.5121	493.05
47.5265	514.68
47.5410	507.59
47.5554	510.41
47.5698	497.15
47.5843	491.30
47.5987	491.23
47.6132	489.98
47.6276	477.92
47.6420	504.38
47.6565	505.95
47.6709	507.49
47.6854	471.87
47.6998	514.60
47.7142	498.79
47.7287	509.40
47.7431	537.86
47.7576	522.40
47.7720	516.03
47.7864	528.36
47.8009	516.03
47.8153	518.90
47.8298	484.50
47.8442	502.81
47.8586	529.34
47.8731	514.07
47.8875	532.33
47.9020	527.03
47.9164	537.19
47.9308	513.06
47.9453	503.78
47.9597	482.29
47.9742	522.71
47.9886	514.91
48.0030	489.85
48.0175	489.44
48.0319	493.21
48.0464	500.78
48.0608	506.16
48.0752	518.82
48.0897	499.92
48.1041	464.35
48.1186	504.02
48.1330	503.76
48.1474	515.99
48.1619	504.40
48.1763	528.79
48.1908	506.55
48.2052	514.10
48.2196	506.01
48.2341	554.61
48.2485	511.41
48.2630	474.84
48.2774	495.61
48.2918	501.24
48.3063	499.44
48.3207	511.90
48.3352	503.25
48.3496	520.78
48.3640	465.46
48.3785	525.51
48.3929	501.63
48.4074	519.54
48.4218	516.27
48.4362	508.58
48.4507	503.72
48.4651	535.28
48.4796	548.46
48.4940	507.75
48.5084	514.65
48.5229	491.24
48.5373	502.69
48.5518	552.26
48.5662	534.51
48.5806	512.96
48.5951	498.90
48.6095	513.55
48.6240	516.37
48.6384	526.94
48.6528	488.73
48.6673	540.96
48.6817	530.43
48.6962	513.99
48.7106	535.94
48.7250	535.63
48.7395	511.22
48.7539	501.52
48.7684	549.75
48.7828	543.01
48.7972	530.24
48.8117	523.48
48.8261	521.42
48.8406	534.79
48.8550	558.96
48.8694	567.41
48.8839	515.11
48.8983	515.47
48.9128	539.24
48.9272	527.31
48.9416	543.08
48.9561	523.18
48.9705	588.75
48.9850	603.48
48.9994	574.89
49.0139	586.51
49.0283	604.66
49.0427	580.63
49.0572	613.32
49.0716	622.04
49.0861	681.91
49.1005	673.03
49.1149	650.24
49.1294	686.82
49.1438	708.64
49.1583	759.10
49.1727	811.70
49.1871	846.95
49.2016	944.56
49.2160	1038.27
49.2305	1093.46
49.2449	1088.80
49.2593	1152.12
49.2738	1286.09
49.2882	1359.89
49.3027	1512.88
49.3171	1523.61
49.3315	1668.17
49.3460	1681.21
49.3604	1736.14
49.3749	1699.23
49.3893	1695.69
49.4037	1680.48
49.4182	1686.83
49.4326	1661.99
49.4471	1621.60
49.4615	1578.88
49.4759	1543.02
49.4904	1522.57
49.5048	1438.81
49.5193	1310.09
49.5337	1287.41
49.5481	1191.01
49.5626	1138.77
49.5770	1068.91
49.5915	1000.36
49.6059	941.21
49.6203	880.18
49.6348	823.29
49.6492	816.50
49.6637	723.55
49.6781	687.51
49.6925	661.95
49.7070	691.72
49.7214	628.35
49.7359	590.54
49.7503	619.40
49.7647	592.54
49.7792	595.08
49.7936	592.69
49.8081	600.78
49.8225	594.13
49.8369	562.67
49.8514	574.42
49.8658	536.17
49.8803	552.90
49.8947	602.01
49.9091	544.69
49.9236	519.22
49.9380	528.13
49.9525	516.40
49.9669	560.33
49.9813	545.82
49.9958	548.18
50.0102	536.24
50.0247	565.23
50.0391	543.11
50.0535	530.38
50.0680	516.56
50.0824	518.81
50.0969	510.68
50.1113	559.80
50.1257	538.09
50.1402	493.82
50.1546	507.14
50.1691	524.96
50.1835	511.06
50.1979	503.80
50.2124	515.93
50.2268	494.46
50.2413	535.15
50.2557	502.49
50.2701	514.14
50.2846	528.00
50.2990	509.64
50.3135	531.16
50.3279	555.62
50.3423	532.15
50.3568	529.56
50.3712	519.77
50.3857	532.44
50.4001	489.90
50.4145	480.82
50.4290	515.49
50.4434	497.62
50.4579	477.09
50.4723	514.02
50.4867	524.45
50.5012	510.20
50.5156	506.07
50.5301	491.16
50.5445	506.01
50.5589	544.00
50.5734	532.23
50.5878	536.71
50.6023	487.76
50.6167	510.00
50.6311	513.04
50.6456	494.27
50.6600	472.37
50.6745	481.24
50.6889	459.84
50.7033	502.14
50.7178	496.59
50.7322	474.91
50.7467	508.10
50.7611	504.75
50.7755	520.57
50.7900	511.15
50.8044	519.75
50.8189	516.63
50.8333	506.85
50.8477	501.62
50.8622	533.48
50.8766	513.89
50.8911	475.57
50.9055	512.89
50.9199	528.69
50.9344	522.44
50.9488	525.51
50.9633	519.07
50.9777	500.94
50.9921	500.55
51.0066	489.26
51.0210	534.13
51.0355	529.05
51.0499	497.67
51.0643	515.99
51.0788	530.16
51.0932	521.81
51.1077	511.01
51.1221	531.49
51.1365	486.82
51.1510	479.20
51.1654	518.38
51.1799	508.36
51.1943	482.05
51.2087	485.76
51.2232	476.22
51.2376	473.29
51.2521	479.05
51.2665	471.24
51.2809	528.85
51.2954	554.44
51.3098	524.55
51.3243	497.63
51.3387	509.73
51.3531	484.26
51.3676	502.57
51.3820	484.87
51.3965	510.54
51.4109	522.44
51.4253	529.44
51.4398	508.94
51.4542	513.91
51.4687	508.08
51.4831	534.88
51.4975	492.29
51.5120	508.85
51.5264	508.19
51.5409	506.25
51.5553	523.12
51.5697	521.33
51.5842	504.22
51.5986	503.58
51.6131	505.36
51.6275	497.40
51.6419	530.73
51.6564	508.79
51.6708	492.62
51.6853	494.94
51.6997	499.43
51.7141	501.85
51.7286	504.29
51.7430	506.16
51.7575	523.85
51.7719	524.97
51.7863	571.86
51.8008	488.70
51.8152	495.38
51.8297	515.13
51.8441	517.77
51.8585	487.84
51.8730	503.62
51.8874	509.74
51.9019	537.20
51.9163	504.73
51.9307	507.85
51.9452	515.44
51.9596	538.07
51.9741	487.57
51.9885	507.30
52.0029	496.71
52.0174	481.20
52.0318	496.40
52.0463	514.89
52.0607	539.86
52.0751	502.44
52.0896	499.02
52.1040	516.85
52.1185	514.59
52.1329	509.17
52.1473	495.52
52.1618	508.20
52.1762	535.29
52.1907	513.81
52.2051	498.79
52.2195	525.03
52.2340	488.90
52.2484	515.64
52.2629	486.30
52.2773	501.61
52.2917	531.51
52.3062	515.67
52.3206	552.92
52.3351	528.74
52.3495	519.47
52.3639	537.60
52.3784	518.22
52.3928	512.43
52.4073	506.92
52.4217	535.90
52.4361	529.49
52.4506	498.88
52.4650	505.12
52.4795	537.25
52.4939	514.08
52.5083	493.11
52.5228	517.31
52.5372	530.88
52.5517	522.27
52.5661	480.95
52.5805	497.58
52.5950	543.24
52.6094	502.35
52.6239	523.13
52.6383	510.39
52.6527	522.88
52.6672	518.38
52.6816	495.70
52.6961	498.44
52.7105	534.21
52.7250	461.35
52.7394	500.49
52.7538	500.05
52.7683	548.95
52.7827	509.71
52.7972	507.21
52.8116	510.14
52.8260	506.69
52.8405	503.66
52.8549	532.69
52.8694	535.09
52.8838	517.43
52.8982	555.26
52.9127	513.81
52.9271	518.56
52.9416	493.71
52.9560	541.23
52.9704	483.45
52.9849	472.12
52.9993	451.53
53.0138	512.81
53.0282	550.94
53.0426	544.78
53.0571	548.65
53.0715	542.81
53.0860	510.56
53.1004	475.23
53.1148	522.71
53.1293	528.75
53.1437	502.44
53.1582	518.75
53.1726	536.88
53.1870	497.72
53.2015	525.27
53.2159	489.07
53.2304	539.30
53.2448	545.66
53.2592	513.38
53.2737	522.38
53.2881	525.13
53.3026	504.42
53.3170	507.84
53.3314	477.94
53.3459	479.43
53.3603	506.17
53.3748	521.86
53.3892	510.98
53.4036	516.75
53.4181	511.72
53.4325	515.43
53.4470	498.16
53.4614	493.30
53.4758	508.43
53.4903	523.59
53.5047	559.09
53.5192	524.21
53.5336	528.79
53.5480	527.69
53.5625	517.71
53.5769	533.14
53.5914	523.99
53.6058	517.72
53.6202	505.99
53.6347	509.69
53.6491	511.99
53.6636	507.42
53.6780	517.49
53.6924	507.15
53.7069	521.74
53.7213	529.18
53.7358	503.37
53.7502	536.52
53.7646	525.38
53.7791	545.35
53.7935	577.99
53.8080	529.78
53.8224	508.89
53.8368	550.74
53.8513	520.84
53.8657	513.15
53.8802	509.28
53.8946	527.59
53.9090	553.38
53.9235	514.27
53.9379	534.42
53.9524	533.89
53.9668	515.10
53.9812	501.58
53.9957	490.66
54.0101	510.18
54.0246	525.13
54.0390	486.41
54.0534	508.77
54.0679	516.87
54.0823	547.73
54.0968	522.47
54.1112	511.42
54.1256	531.15
54.1401	557.34
54.1545	513.76
54.1690	533.74
54.1834	522.31
54.1978	549.11
54.2123	559.07
54.2267	580.84
54.2412	590.44
54.2556	559.83
54.2700	590.94
54.2845	623.00
54.2989	592.84
54.3134	609.07
54.3278	618.58
54.3422	602.64
54.3567	598.08
54.3711	618.03
54.3856	574.19
54.4000	556.26
54.4144	573.00
54.4289	612.24
54.4433	576.92
54.4578	596.47
54.4722	598.31
54.4866	576.64
54.5011	578.43
54.5155	573.84
54.5300	561.81
54.5444	524.45
54.5588	549.51
54.5733	538.50
54.5877	517.26
54.6022	544.94
54.6166	521.63
54.6310	514.20
54.6455	532.14
54.6599	490.34
54.6744	527.88
54.6888	515.77
54.7032	549.41
54.7177	555.25
54.7321	526.68
54.7466	518.75
54.7610	512.36
54.7754	520.12
54.7899	530.84
54.8043	504.62
54.8188	539.92
54.8332	537.17
54.8476	525.96
54.8621	542.29
54.8765	546.04
54.8910	543.14
54.9054	536.95
54.9198	520.67
54.9343	514.17
54.9487	526.65
54.9632	510.25
54.9776	521.49
54.9920	545.75
55.0065	535.87
55.0209	494.25
55.0354	489.93
55.0498	499.02
55.0642	519.26
55.0787	531.09
55.0931	562.04
55.1076	522.79
55.1220	509.76
55.1364	501.29
55.1509	488.30
55.1653	504.54
55.1798	524.76
55.1942	501.26
55.2086	503.90
55.2231	533.73
55.2375	522.48
55.2520	491.99
55.2664	499.27
55.2808	507.15
55.2953	504.88
55.3097	539.59
55.3242	522.19
55.3386	534.15
55.3530	519.42
55.3675	509.47
55.3819	504.12
55.3964	521.05
55.4108	533.73
55.4252	538.17
55.4397	520.51
55.4541	510.47
55.4686	528.22
55.4830	539.23
55.4974	509.45
55.5119	506.86
55.5263	520.72
55.5408	518.74
55.5552	555.05
55.5696	532.03
55.5841	532.42
55.5985	531.34
55.6130	526.94
55.6274	504.98
55.6418	566.12
55.6563	536.33
55.6707	494.08
55.6852	558.02
55.6996	547.89
55.7140	540.58
55.7285	512.51
55.7429	560.45
55.7574	539.20
55.7718	507.88
55.7862	551.05
55.8007	520.91
55.8151	503.89
55.8296	506.10
55.8440	540.93
55.8584	501.74
55.8729	529.94
55.8873	522.18
55.9018	556.48
55.9162	529.76
55.9306	572.57
55.9451	554.70
55.9595	546.51
55.9740	527.16
55.9884	548.01
56.0028	503.45
56.0173	518.86
56.0317	550.43
56.0462	513.65
56.0606	517.32
56.0750	511.51
56.0895	495.02
56.1039	517.95
56.1184	515.87
56.1328	534.84
56.1472	518.38
56.1617	543.74
56.1761	503.07
56.1906	505.35
56.2050	513.92
56.2194	569.83
56.2339	524.90
56.2483	509.33
56.2628	511.49
56.2772	546.87
56.2916	507.88
56.3061	540.76
56.3205	556.32
56.3350	499.10
56.3494	523.71
56.3639	532.03
56.3783	557.33
56.3927	511.45
56.4072	512.99
56.4216	551.23
56.4361	533.12
56.4505	512.37
56.4649	507.38
56.4794	521.94
56.4938	535.89
56.5083	507.88
56.5227	519.34
56.5371	532.69
56.5516	531.96
56.5660	537.49
56.5805	492.05
56.5949	514.02
56.6093	516.99
56.6238	507.05
56.6382	535.14
56.6527	519.58
56.6671	541.37
56.6815	543.65
56.6960	526.75
56.7104	514.05
56.7249	517.02
56.7393	551.13
56.7537	539.36
56.7682	532.34
56.7826	535.48
56.7971	536.85
56.8115	517.58
56.8259	492.02
56.8404	503.00
56.8548	500.09
56.8693	529.10
56.8837	538.53
56.8981	525.21
56.9126	520.21
56.9270	524.88
56.9415	493.29
56.9559	521.21
56.9703	548.96
56.9848	482.16
56.9992	463.30
57.0137	524.38
57.0281	525.28
57.0425	559.83
57.0570	511.04
57.0714	527.24
57.0859	535.30
57.1003	557.70
57.1147	550.33
57.1292	543.38
57.1436	512.81
57.1581	518.59
57.1725	517.62
57.1869	483.07
57.2014	513.55
57.2158	555.01
57.2303	519.65
57.2447	560.91
57.2591	537.85
57.2736	524.95
57.2880	526.53
57.3025	530.98
57.3169	554.99
57.3313	528.12
57.3458	542.75
57.3602	526.32
57.3747	548.52
57.3891	519.39
57.4035	520.89
57.4180	518.89
57.4324	557.89
57.4469	542.84
57.4613	543.40
57.4757	548.64
57.4902	522.84
57.5046	509.55
57.5191	519.82
57.5335	551.61
57.5479	564.50
57.5624	571.97
57.5768	533.43
57.5913	548.07
57.6057	563.80
57.6201	527.54
57.6346	530.19
57.6490	523.40
57.6635	514.59
57.6779	503.48
57.6923	531.11
57.7068	507.90
57.7212	544.89
57.7357	538.21
57.7501	563.58
57.7645	545.66
57.7790	569.97
57.7934	611.96
57.8079	572.68
57.8223	631.82
57.8367	613.69
57.8512	628.71
57.8656	672.42
57.8801	697.82
57.8945	735.56
57.9089	781.40
57.9234	710.18
57.9378	740.73
57.9523	745.78
57.9667	690.95
57.9811	660.86
57.9956	682.57
58.0100	637.92
58.0245	655.87
58.0389	669.08
58.0533	668.48
58.0678	685.33
58.0822	701.48
58.0967	654.82
58.1111	624.30
58.1255	598.94
58.1400	597.69
58.1544	595.95
58.1689	588.25
58.1833	551.94
58.1977	563.94
58.2122	562.68
58.2266	577.10
58.2411	578.95
58.2555	568.44
58.2699	551.98
58.2844	563.61
58.2988	550.93
58.3133	523.55
58.3277	549.03
58.3421	524.44
58.3566	533.60
58.3710	516.86
58.3855	515.73
58.3999	556.10
58.4143	557.10
58.4288	542.05
58.4432	499.96
58.4577	538.47
58.4721	558.89
58.4865	534.55
58.5010	555.46
58.5154	531.54
58.5299	530.23
58.5443	531.21
58.5587	529.27
58.5732	545.21
58.5876	502.14
58.6021	499.25
58.6165	553.26
58.6309	544.86
58.6454	527.25
58.6598	529.41
58.6743	511.18
58.6887	552.63
58.7031	535.48
58.7176	527.42
58.7320	543.60
58.7465	500.57
58.7609	496.39
58.7753	538.29
58.7898	554.23
58.8042	508.02
58.8187	547.84
58.8331	544.94
58.8475	538.59
58.8620	517.24
58.8764	537.28
58.8909	519.16
58.9053	540.92
58.9197	547.44
58.9342	545.50
58.9486	547.49
58.9631	522.52
58.9775	497.17
58.9919	509.86
59.0064	542.75
59.0208	558.13
59.0353	571.56
59.0497	536.00
59.0641	530.61
59.0786	530.08
59.0930	549.63
59.1075	565.92
59.1219	581.89
59.1363	573.24
59.1508	493.25
59.1652	536.97
59.1797	558.07
59.1941	550.35
59.2085	566.33
59.2230	583.76
59.2374	551.16
59.2519	543.81
59.2663	586.28
59.2807	567.11
59.2952	554.98
59.3096	550.40
59.3241	569.25
59.3385	583.60
59.3529	566.43
59.3674	557.43
59.3818	505.65
59.3963	537.59
59.4107	572.51
59.4251	567.24
59.4396	573.42
59.4540	547.44
59.4685	557.77
59.4829	552.25
59.4973	562.36
59.5118	537.54
59.5262	543.69
59.5407	583.84
59.5551	557.90
59.5695	549.02
59.5840	532.74
59.5984	557.35
59.6129	568.92
59.6273	517.00
59.6417	539.42
59.6562	538.73
59.6706	520.50
59.6851	523.56
59.6995	541.78
59.7139	558.89
59.7284	522.63
59.7428	568.79
59.7573	574.81
59.7717	582.58
59.7861	559.51
59.8006	516.90
59.8150	554.01
59.8295	546.41
59.8439	513.73
59.8583	520.69
59.8728	494.54
59.8872	496.34
59.9017	560.86
59.9161	548.02
59.9305	570.52
59.9450	575.43
59.9594	557.49
59.9739	548.08
59.9883	531.14
60.0027	568.93
60.0172	512.73
60.0316	515.02
60.0461	528.98
60.0605	544.79
60.0750	496.92
60.0894	559.64
60.1038	532.11
60.1183	516.18
60.1327	532.09
60.1472	545.83
60.1616	554.91
60.1760	569.64
60.1905	545.88
60.2049	562.56
60.2194	552.77
60.2338	555.74
60.2482	546.37
60.2627	544.77
60.2771	562.72
60.2916	523.91
60.3060	544.43
60.3204	535.32
60.3349	573.18
60.3493	576.06
60.3638	575.14
60.3782	545.27
60.3926	512.12
60.4071	512.46
60.4215	533.06
60.4360	558.56
60.4504	528.12
60.4648	536.81
60.4793	549.87
60.4937	553.86
60.5082	517.85
60.5226	517.80
60.5370	527.57
60.5515	511.99
60.5659	525.80
60.5804	554.18
60.5948	507.68
60.6092	538.60
60.6237	517.70
60.6381	540.12
60.6526	521.22
60.6670	531.82
60.6814	543.49
60.6959	497.43
60.7103	546.38
60.7248	528.03
60.7392	558.21
60.7536	530.61
60.7681	545.77
60.7825	552.87
60.7970	541.23
60.8114	509.55
60.8258	546.79
60.8403	548.83
60.8547	538.42
60.8692	582.52
60.8836	525.34
60.8980	540.54
60.9125	537.30
60.9269	557.06
60.9414	528.36
60.9558	544.74
60.9702	544.88
60.9847	566.12
60.9991	557.05
61.0136	504.19
61.0280	539.96
61.0424	567.41
61.0569	541.64
61.0713	536.25
61.0858	522.57
61.1002	548.10
61.1146	534.37
61.1291	560.92
61.1435	523.23
61.1580	524.30
61.1724	568.55
61.1868	526.05
61.2013	529.25
61.2157	552.84
61.2302	550.48
61.2446	546.16
61.2590	526.88
61.2735	534.82
61.2879	536.70
61.3024	536.51
61.3168	563.50
61.3312	537.28
61.3457	529.72
61.3601	493.84
61.3746	557.22
61.3890	541.72
61.4034	544.14
61.4179	569.50
61.4323	566.52
61.4468	559.70
61.4612	563.56
61.4756	553.32
61.4901	527.50
61.5045	516.88
61.5190	544.20
61.5334	555.39
61.5478	549.03
61.5623	558.93
61.5767	548.06
61.5912	545.25
61.6056	536.40
61.6200	545.10
61.6345	571.60
61.6489	557.30
61.6634	564.93
61.6778	557.63
61.6922	568.99
61.7067	537.17
61.7211	520.88
61.7356	518.29
61.7500	522.22
61.7644	524.16
61.7789	538.50
61.7933	536.46
61.8078	569.80
61.8222	568.85
61.8366	538.56
61.8511	526.31
61.8655	578.01
61.8800	552.36
61.8944	519.02
61.9088	590.11
61.9233	568.21
61.9377	538.18
61.9522	519.97
61.9666	561.95
61.9810	539.90
61.9955	560.63
62.0099	552.43
62.0244	553.92
62.0388	564.62
62.0532	565.67
62.0677	564.61
62.0821	562.31
62.0966	532.62
62.1110	520.34
62.1254	552.54
62.1399	560.70
62.1543	539.65
62.1688	566.00
62.1832	564.70
62.1976	526.14
62.2121	552.38
62.2265	576.88
62.2410	582.00
62.2554	532.07
62.2698	542.02
62.2843	553.32
62.2987	550.38
62.3132	543.13
62.3276	540.03
62.3420	559.70
62.3565	564.11
62.3709	544.50
62.3854	547.02
62.3998	545.70
62.4142	513.87
62.4287	548.33
62.4431	567.21
62.4576	562.56
62.4720	570.81
62.4864	545.65
62.5009	525.27
62.5153	547.43
62.5298	576.66
62.5442	548.77
62.5586	559.68
62.5731	561.22
62.5875	563.96
62.6020	563.79
62.6164	572.57
62.6308	536.99
62.6453	604.41
62.6597	599.67
62.6742	582.99
62.6886	568.91
62.7030	596.49
62.7175	556.14
62.7319	542.07
62.7464	584.79
62.7608	572.28
62.7752	558.30
62.7897	562.53
62.8041	543.61
62.8186	566.57
62.8330	554.26
62.8474	564.25
62.8619	560.31
62.8763	582.60
62.8908	554.35
62.9052	588.15
62.9196	559.61
62.9341	570.43
62.9485	592.10
62.9630	586.83
62.9774	546.16
62.9918	558.46
63.0063	554.64
63.0207	550.60
63.0352	558.41
63.0496	579.34
63.0640	592.95
63.0785	591.85
63.0929	605.10
63.1074	587.94
63.1218	609.03
63.1362	590.12
63.1507	553.01
63.1651	554.12
63.1796	580.50
63.1940	553.47
63.2084	546.69
63.2229	580.09
63.2373	590.78
63.2518	585.81
63.2662	562.29
63.2806	567.44
63.2951	555.57
63.3095	597.57
63.3240	603.17
63.3384	609.30
63.3528	578.18
63.3673	616.32
63.3817	605.48
63.3962	563.47
63.4106	561.17
63.4250	590.08
63.4395	656.75
63.4539	620.31
63.4684	653.74
63.4828	675.69
63.4972	706.24
63.5117	735.40
63.5261	769.66
63.5406	815.31
63.5550	872.52
63.5694	910.95
63.5839	995.66
63.5983	1053.02
63.6128	996.72
63.6272	986.40
63.6416	896.03
63.6561	849.80
63.6705	782.01
63.6850	792.02
63.6994	814.13
63.7138	784.17
63.7283	746.73
63.7427	775.89
63.7572	825.52
63.7716	817.88
63.7861	793.72
63.8005	778.45
63.8149	758.96
63.8294	721.77
63.8438	723.14
63.8583	742.14
63.8727	700.54
63.8871	697.98
63.9016	659.58
63.9160	654.35
63.9305	602.57
63.9449	649.85
63.9593	633.55
63.9738	606.91
63.9882	602.76
64.0027	638.62
64.0171	597.51
64.0315	599.26
64.0460	630.67
64.0604	620.58
64.0749	620.20
64.0893	633.29
64.1037	582.12
64.1182	627.83
64.1326	587.09
64.1471	586.18
64.1615	597.81
64.1759	616.91
64.1904	594.17
64.2048	616.80
64.2193	625.73
64.2337	597.19
64.2481	605.33
64.2626	581.04
64.2770	630.84
64.2915	613.22
64.3059	599.05
64.3203	620.20
64.3348	599.91
64.3492	605.77
64.3637	628.62
64.3781	627.23
64.3925	589.65
64.4070	588.63
64.4214	639.06
64.4359	648.37
64.4503	621.59
64.4647	639.31
64.4792	590.39
64.4936	618.15
64.5081	637.33
64.5225	647.99
64.5369	628.99
64.5514	633.13
64.5658	614.33
64.5803	621.70
64.5947	630.53
64.6091	635.67
64.6236	618.67
64.6380	641.46
64.6525	675.09
64.6669	678.53
64.6813	685.71
64.6958	666.48
64.7102	661.05
64.7247	658.57
64.7391	691.80
64.7535	684.51
64.7680	692.81
64.7824	711.79
64.7969	733.84
64.8113	756.01
64.8257	807.17
64.8402	781.23
64.8546	795.47
64.8691	846.91
64.8835	831.93
64.8979	821.07
64.9124	884.71
64.9268	844.96
64.9413	923.30
64.9557	926.55
64.9701	1028.12
64.9846	1048.36
64.9990	1057.48
65.0135	1257.79
65.0279	1454.71
65.0423	1635.19
65.0568	2118.46
65.0712	2548.70
65.0857	3304.76
65.1001	4256.35
65.1145	5879.00
65.1290	7624.26
65.1434	9382.78
65.1579	10982.84
65.1723	11745.69
65.1867	11524.30
65.2012	10266.37
65.2156	8687.23
65.2301	6890.41
65.2445	5515.59
65.2589	4655.98
65.2734	4208.99
65.2878	4391.07
65.3023	4960.92
65.3167	5729.81
65.3311	6396.79
65.3456	6935.69
65.3600	7126.12
65.3745	6600.65
65.3889	5721.49
65.4033	4655.19
65.4178	3626.86
65.4322	2942.68
65.4467	2157.09
65.4611	1784.75
65.4755	1521.75
65.4900	1343.99
65.5044	1212.00
65.5189	1083.29
65.5333	997.68
65.5477	955.00
65.5622	918.30
65.5766	846.06
65.5911	892.03
65.6055	849.25
65.6199	835.15
65.6344	801.68
65.6488	743.23
65.6633	771.60
65.6777	745.25
65.6921	736.00
65.7066	730.74
65.7210	701.42
65.7355	702.29
65.7499	665.98
65.7643	656.43
65.7788	686.70
65.7932	645.26
65.8077	682.63
65.8221	679.76
65.8365	692.16
65.8510	654.02
65.8654	659.08
65.8799	666.87
65.8943	653.57
65.9087	657.11
65.9232	666.85
65.9376	649.55
65.9521	639.35
65.9665	598.44
65.9809	627.50
65.9954	625.19
66.0098	655.99
66.0243	611.75
66.0387	616.39
66.0531	651.53
66.0676	631.85
66.0820	638.41
66.0965	638.79
66.1109	635.01
66.1253	618.72
66.1398	601.55
66.1542	581.38
66.1687	618.05
66.1831	639.09
66.1975	610.82
66.2120	602.75
66.2264	576.53
66.2409	592.68
66.2553	608.90
66.2697	586.84
66.2842	607.80
66.2986	612.65
66.3131	586.29
66.3275	608.36
66.3419	612.40
66.3564	593.39
66.3708	602.30
66.3853	585.49
66.3997	600.29
66.4141	580.63
66.4286	583.42
66.4430	596.56
66.4575	591.42
66.4719	612.39
66.4863	614.34
66.5008	583.10
66.5152	578.61
66.5297	595.83
66.5441	575.26
66.5585	575.62
66.5730	607.68
66.5874	602.59
66.6019	613.87
66.6163	620.74
66.6307	587.97
66.6452	637.96
66.6596	579.95
66.6741	605.20
66.6885	618.32
66.7029	618.21
66.7174	589.46
66.7318	590.61
66.7463	601.97
66.7607	602.37
66.7751	604.99
66.7896	578.42
66.8040	585.02
66.8185	573.48
66.8329	542.15
66.8473	582.55
66.8618	604.01
66.8762	589.46
66.8907	586.18
66.9051	609.05
66.9195	594.95
66.9340	574.00
66.9484	572.53
66.9629	598.16
66.9773	578.16
66.9917	534.59
67.0062	551.08
67.0206	616.88
67.0351	632.01
67.0495	599.60
67.0639	620.82
67.0784	586.76
67.0928	597.40
67.1073	613.46
67.1217	607.35
67.1361	578.57
67.1506	532.59
67.1650	589.05
67.1795	584.98
67.1939	571.17
67.2083	590.15
67.2228	607.53
67.2372	590.88
67.2517	570.49
67.2661	554.27
67.2805	606.63
67.2950	580.73
67.3094	574.35
67.3239	585.18
67.3383	573.85
67.3527	556.31
67.3672	577.29
67.3816	589.57
67.3961	536.87
67.4105	577.07
67.4250	599.15
67.4394	575.83
67.4538	572.27
67.4683	576.63
67.4827	590.45
67.4972	588.34
67.5116	577.16
67.5260	599.37
67.5405	594.28
67.5549	618.62
67.5694	587.50
67.5838	605.56
67.5982	598.45
67.6127	595.36
67.6271	589.94
67.6416	577.38
67.6560	563.98
67.6704	546.26
67.6849	589.29
67.6993	595.54
67.7138	617.62
67.7282	582.85
67.7426	547.52
67.7571	569.53
67.7715	546.37
67.7860	598.11
67.8004	565.78
67.8148	575.17
67.8293	591.26
67.8437	600.85
67.8582	604.38
67.8726	590.68
67.8870	576.88
67.9015	602.79
67.9159	560.61
67.9304	589.66
67.9448	598.32
67.9592	582.07
67.9737	556.18
67.9881	606.90
68.0026	556.82
68.0170	588.57
68.0314	578.97
68.0459	562.23
68.0603	556.63
68.0748	530.28
68.0892	572.51
68.1036	589.20
68.1181	608.28
68.1325	594.92
68.1470	554.58
68.1614	598.92
68.1758	589.55
68.1903	576.82
68.2047	532.27
68.2192	574.32
68.2336	617.80
68.2480	583.39
68.2625	539.19
68.2769	572.60
68.2914	572.43
68.3058	539.54
68.3202	583.79
68.3347	552.62
68.3491	560.39
68.3636	568.31
68.3780	562.43
68.3924	562.76
68.4069	542.67
68.4213	571.90
68.4358	573.27
68.4502	541.52
68.4646	575.53
68.4791	579.43
68.4935	635.67
68.5080	561.78
68.5224	577.29
68.5368	578.59
68.5513	608.59
68.5657	594.17
68.5802	562.09
68.5946	561.02
68.6090	567.93
68.6235	569.73
68.6379	600.93
68.6524	574.96
68.6668	608.26
68.6812	606.86
68.6957	568.43
68.7101	601.87
68.7246	617.42
68.7390	568.68
68.7534	631.11
68.7679	572.68
68.7823	548.99
68.7968	580.48
68.8112	558.30
68.8256	577.40
68.8401	588.02
68.8545	623.10
68.8690	609.15
68.8834	601.39
68.8978	560.47
68.9123	582.12
68.9267	553.16
68.9412	596.55
68.9556	567.20
68.9700	587.45
68.9845	554.32
68.9989	575.05
69.0134	535.88
69.0278	553.61
69.0422	547.19
69.0567	526.16
69.0711	561.25
69.0856	556.39
69.1000	550.51
69.1144	601.14
69.1289	540.00
69.1433	525.47
69.1578	570.08
69.1722	549.32
69.1866	572.99
69.2011	539.90
69.2155	579.98
69.2300	529.39
69.2444	549.48
69.2588	562.13
69.2733	562.84
69.2877	570.93
69.3022	579.67
69.3166	588.06
69.3310	610.93
69.3455	591.44
69.3599	594.01
69.3744	589.26
69.3888	565.59
69.4032	557.64
69.4177	537.17
69.4321	600.03
69.4466	589.42
69.4610	630.02
69.4754	589.92
69.4899	529.36
69.5043	551.64
69.5188	546.36
69.5332	567.25
69.5476	567.66
69.5621	594.84
69.5765	565.43
69.5910	616.62
69.6054	589.06
69.6198	592.87
69.6343	616.68
69.6487	582.15
69.6632	564.02
69.6776	575.29
69.6920	595.11
69.7065	625.12
69.7209	660.75
69.7354	589.54
69.7498	569.33
69.7642	565.31
69.7787	567.24
69.7931	553.16
69.8076	595.77
69.8220	577.68
69.8364	587.89
69.8509	559.11
69.8653	539.02
69.8798	557.18
69.8942	538.13
69.9086	610.20
69.9231	564.18
69.9375	523.70
69.9520	563.54
69.9664	528.21
69.9808	585.68
69.9953	594.55
70.0097	582.05
70.0242	570.22
70.0386	538.54
70.0530	543.23
70.0675	530.27
70.0819	574.74
70.0964	549.23
70.1108	583.54
70.1252	546.76
70.1397	587.29
70.1541	570.10
70.1686	571.28
70.1830	548.37
70.1974	570.66
70.2119	579.95
70.2263	603.45
70.2408	575.76
70.2552	620.84
70.2696	609.23
70.2841	604.34
70.2985	574.19
70.3130	611.48
70.3274	567.51
70.3418	581.76
70.3563	610.49
70.3707	568.05
70.3852	575.97
70.3996	614.32
70.4140	563.27
70.4285	573.63
70.4429	628.71
70.4574	629.60
70.4718	549.22
70.4862	574.12
70.5007	583.95
70.5151	546.86
70.5296	560.06
70.5440	574.97
70.5584	577.44
70.5729	566.87
70.5873	525.05
70.6018	513.76
70.6162	526.30
70.6306	599.98
70.6451	611.02
70.6595	571.60
70.6740	597.83
70.6884	557.46
70.7028	591.25
70.7173	585.23
70.7317	559.98
70.7462	584.71
70.7606	575.65
70.7750	576.59
70.7895	593.72
70.8039	595.28
70.8184	587.91
70.8328	551.23
70.8472	523.97
70.8617	623.78
70.8761	630.32
70.8906	555.91
70.9050	546.75
70.9194	621.11
70.9339	662.20
70.9483	612.13
70.9628	613.37
70.9772	576.50
70.9916	548.45
71.0061	578.42
71.0205	596.14
71.0350	569.47
71.0494	538.71
71.0638	594.92
71.0783	607.32
71.0927	559.56
71.1072	561.46
71.1216	592.38
71.1361	594.26
71.1505	567.45
71.1649	623.01
71.1794	681.47
71.1938	660.39
71.2083	592.39
71.2227	554.47
71.2371	583.77
71.2516	617.67
71.2660	590.71
71.2805	572.62
71.2949	597.59
71.3093	624.33
71.3238	574.33
71.3382	551.99
71.3527	547.28
71.3671	554.93
71.3815	541.52
71.3960	563.86
71.4104	608.45
71.4249	668.88
71.4393	637.22
71.4537	582.41
71.4682	632.79
71.4826	582.50
71.4971	534.49
71.5115	565.96
71.5259	565.80
71.5404	541.43
71.5548	564.80
71.5693	596.06
71.5837	543.75
71.5981	579.28
71.6126	581.26
71.6270	561.50
71.6415	613.24
71.6559	570.19
71.6703	556.53
71.6848	591.70
71.6992	611.93
71.7137	562.26
71.7281	557.63
71.7425	548.68
71.7570	559.88
71.7714	583.23
71.7859	570.34
71.8003	577.10
71.8147	601.32
71.8292	582.80
71.8436	547.24
71.8581	556.46
71.8725	581.88
71.8869	557.90
71.9014	552.26
71.9158	696.90
71.9303	675.57
71.9447	566.43
71.9591	617.83
71.9736	586.41
71.9880	515.86
72.0025	507.75
72.0169	528.28
72.0313	536.40
72.0458	606.11
72.0602	653.16
72.0747	569.30
72.0891	535.60
72.1035	611.61
72.1180	543.55
72.1324	556.04
72.1469	589.08
72.1613	543.57
72.1757	606.95
72.1902	664.70
72.2046	620.54
72.2191	554.00
72.2335	533.41
72.2479	520.94
72.2624	541.44
72.2768	570.33
72.2913	546.94
72.3057	530.46
72.3201	552.45
72.3346	543.27
72.3490	541.59
72.3635	585.25
72.3779	596.35
72.3923	641.01
72.4068	642.50
72.4212	612.99
72.4357	574.32
72.4501	567.99
72.4645	613.82
72.4790	558.44
72.4934	512.89
72.5079	531.86
72.5223	564.66
72.5367	543.80
72.5512	530.35
72.5656	561.63
72.5801	587.67
72.5945	550.46
72.6089	599.53
72.6234	661.38
72.6378	568.44
72.6523	585.34
72.6667	565.75
72.6811	545.08
72.6956	551.18
72.7100	544.73
72.7245	584.43
72.7389	667.64
72.7533	600.25
72.7678	633.36
72.7822	610.38
72.7967	505.41
72.8111	548.68
72.8255	596.61
72.8400	609.77
72.8544	588.80
72.8689	599.01
72.8833	563.79