2022.09.19 19:37:16
Îáðàçåö: ß÷åéêà LCoV 16-09-2022
Lambda1 = 1.54060
Lambda2 = 1.54439
Lambdam = 1.54186
R = 0.497
2Theta	I

line¹ 0 ;repeat¹ 0
22.1120	542.78
22.1264	567.13
22.1409	501.62
22.1553	472.92
22.1697	597.73
22.1842	557.88
22.1986	506.84
22.2131	555.92
22.2275	578.15
22.2419	535.62
22.2564	534.02
22.2708	526.19
22.2853	710.68
22.2997	558.64
22.3141	569.28
22.3286	519.92
22.3430	613.20
22.3575	711.06
22.3719	572.81
22.3863	591.95
22.4008	576.63
22.4152	603.87
22.4297	641.02
22.4441	570.88
22.4585	588.89
22.4730	596.23
22.4874	521.01
22.5019	576.91
22.5163	668.99
22.5307	659.61
22.5452	575.09
22.5596	575.09
22.5741	582.69
22.5885	606.88
22.6029	583.55
22.6174	517.26
22.6318	562.73
22.6463	537.45
22.6607	608.09
22.6751	587.34
22.6896	548.08
22.7040	591.76
22.7185	648.15
22.7329	614.95
22.7473	563.03
22.7618	502.95
22.7762	515.73
22.7907	592.97
22.8051	515.15
22.8195	583.88
22.8340	594.99
22.8484	553.55
22.8629	575.26
22.8773	610.93
22.8917	563.59
22.9062	533.39
22.9206	477.22
22.9351	573.70
22.9495	563.47
22.9639	589.59
22.9784	560.77
22.9928	543.64
23.0073	556.84
23.0217	653.48
23.0361	559.80
23.0506	540.92
23.0650	624.33
23.0795	595.35
23.0939	598.90
23.1083	617.07
23.1228	561.01
23.1372	546.58
23.1517	565.21
23.1661	580.45
23.1806	595.87
23.1950	549.47
23.2094	574.17
23.2239	575.36
23.2383	529.86
23.2528	570.51
23.2672	558.43
23.2816	611.02
23.2961	532.76
23.3105	577.81
23.3250	619.03
23.3394	567.12
23.3538	533.01
23.3683	600.61
23.3827	591.92
23.3972	524.99
23.4116	489.39
23.4260	535.27
23.4405	554.08
23.4549	521.91
23.4694	531.11
23.4838	640.31
23.4982	597.26
23.5127	468.04
23.5271	549.61
23.5416	633.48
23.5560	605.04
23.5704	519.03
23.5849	604.96
23.5993	600.29
23.6138	565.61
23.6282	556.53
23.6426	511.04
23.6571	621.89
23.6715	518.80
23.6860	567.81
23.7004	551.52
23.7148	546.49
23.7293	552.69
23.7437	527.18
23.7582	620.11
23.7726	548.76
23.7870	553.98
23.8015	553.27
23.8159	628.25
23.8304	605.20
23.8448	557.90
23.8592	585.74
23.8737	545.04
23.8881	617.14
23.9026	569.09
23.9170	526.63
23.9314	509.11
23.9459	560.46
23.9603	576.40
23.9748	622.08
23.9892	501.93
24.0036	577.27
24.0181	531.59
24.0325	601.90
24.0470	549.50
24.0614	535.68
24.0758	524.18
24.0903	661.23
24.1047	547.12
24.1192	576.12
24.1336	550.74
24.1480	554.83
24.1625	544.88
24.1769	547.28
24.1914	560.75
24.2058	611.48
24.2202	622.65
24.2347	635.23
24.2491	525.41
24.2636	641.45
24.2780	579.28
24.2924	555.87
24.3069	569.11
24.3213	540.00
24.3358	560.28
24.3502	551.07
24.3646	586.70
24.3791	533.18
24.3935	546.43
24.4080	574.90
24.4224	558.70
24.4368	542.04
24.4513	523.42
24.4657	549.68
24.4802	546.19
24.4946	563.28
24.5090	519.11
24.5235	537.36
24.5379	558.80
24.5524	562.41
24.5668	573.84
24.5812	595.18
24.5957	577.74
24.6101	556.81
24.6246	510.16
24.6390	499.18
24.6534	516.86
24.6679	556.05
24.6823	519.70
24.6968	521.37
24.7112	558.57
24.7256	543.56
24.7401	579.19
24.7545	552.77
24.7690	534.67
24.7834	511.99
24.7978	572.44
24.8123	563.72
24.8267	608.45
24.8412	541.84
24.8556	559.63
24.8700	623.49
24.8845	581.24
24.8989	540.67
24.9134	561.28
24.9278	533.05
24.9422	515.58
24.9567	561.51
24.9711	508.78
24.9856	540.06
25.0000	554.50
25.0144	641.54
25.0289	601.70
25.0433	562.78
25.0578	561.13
25.0722	548.06
25.0866	573.98
25.1011	540.21
25.1155	538.15
25.1300	575.54
25.1444	527.17
25.1588	580.49
25.1733	560.70
25.1877	519.88
25.2022	532.08
25.2166	545.32
25.2310	528.44
25.2455	532.44
25.2599	525.24
25.2744	507.20
25.2888	544.65
25.3032	537.06
25.3177	540.23
25.3321	554.20
25.3466	533.30
25.3610	517.26
25.3754	560.42
25.3899	535.87
25.4043	513.28
25.4188	509.69
25.4332	525.88
25.4476	551.88
25.4621	566.47
25.4765	546.53
25.4910	544.42
25.5054	539.35
25.5198	576.24
25.5343	574.82
25.5487	593.02
25.5632	544.52
25.5776	540.24
25.5920	492.04
25.6065	537.15
25.6209	563.53
25.6354	552.26
25.6498	545.66
25.6642	543.21
25.6787	527.95
25.6931	516.30
25.7076	552.85
25.7220	581.07
25.7364	579.41
25.7509	582.58
25.7653	576.62
25.7798	559.96
25.7942	576.16
25.8086	522.41
25.8231	504.25
25.8375	537.57
25.8520	508.96
25.8664	527.53
25.8808	541.07
25.8953	572.05
25.9097	539.32
25.9242	541.40
25.9386	533.15
25.9530	534.73
25.9675	524.00
25.9819	513.35
25.9964	497.31
26.0108	524.72
26.0252	537.30
26.0397	552.20
26.0541	562.09
26.0686	572.61
26.0830	532.65
26.0974	508.48
26.1119	529.34
26.1263	516.29
26.1408	522.87
26.1552	514.37
26.1696	545.27
26.1841	505.28
26.1985	528.79
26.2130	528.47
26.2274	482.97
26.2418	527.39
26.2563	536.28
26.2707	520.01
26.2852	517.94
26.2996	530.85
26.3140	531.95
26.3285	537.68
26.3429	562.44
26.3574	516.32
26.3718	518.57
26.3862	525.09
26.4007	533.13
26.4151	529.93
26.4296	572.86
26.4440	538.78
26.4584	530.82
26.4729	557.69
26.4873	545.73
26.5018	523.74
26.5162	562.87
26.5306	558.09
26.5451	549.09
26.5595	561.12
26.5740	560.49
26.5884	535.96
26.6028	533.04
26.6173	545.75
26.6317	583.96
26.6462	564.12
26.6606	543.49
26.6750	515.27
26.6895	555.42
26.7039	537.74
26.7184	517.76
26.7328	514.38
26.7472	556.49
26.7617	513.79
26.7761	505.31
26.7906	548.46
26.8050	552.25
26.8194	546.16
26.8339	561.80
26.8483	540.67
26.8628	558.90
26.8772	519.16
26.8917	503.01
26.9061	514.09
26.9205	523.21
26.9350	520.56
26.9494	522.04
26.9639	516.73
26.9783	541.92
26.9927	534.37
27.0072	545.94
27.0216	523.85
27.0361	499.66
27.0505	536.11
27.0649	554.97
27.0794	541.91
27.0938	543.63
27.1083	548.33
27.1227	502.24
27.1371	497.11
27.1516	520.30
27.1660	535.95
27.1805	530.45
27.1949	507.08
27.2093	539.19
27.2238	530.31
27.2382	520.45
27.2527	521.18
27.2671	523.43
27.2815	525.99
27.2960	525.67
27.3104	540.40
27.3249	536.20
27.3393	534.05
27.3537	533.33
27.3682	519.93
27.3826	510.51
27.3971	514.57
27.4115	494.79
27.4259	519.53
27.4404	533.44
27.4548	531.38
27.4693	524.03
27.4837	492.03
27.4981	476.05
27.5126	527.00
27.5270	540.79
27.5415	516.70
27.5559	521.15
27.5703	530.37
27.5848	532.73
27.5992	532.65
27.6137	517.32
27.6281	555.08
27.6425	544.44
27.6570	507.33
27.6714	515.42
27.6859	516.91
27.7003	546.17
27.7147	549.06
27.7292	525.52
27.7436	526.23
27.7581	515.16
27.7725	501.02
27.7869	532.38
27.8014	538.26
27.8158	537.34
27.8303	538.61
27.8447	540.56
27.8591	526.22
27.8736	566.61
27.8880	521.50
27.9025	536.72
27.9169	552.32
27.9313	498.07
27.9458	529.75
27.9602	526.91
27.9747	497.80
27.9891	536.76
28.0035	498.51
28.0180	508.10
28.0324	579.85
28.0469	553.40
28.0613	523.85
28.0757	518.91
28.0902	506.84
28.1046	505.17
28.1191	514.94
28.1335	512.25
28.1479	504.57
28.1624	524.62
28.1768	519.92
28.1913	509.62
28.2057	489.69
28.2201	481.15
28.2346	500.40
28.2490	557.99
28.2635	539.09
28.2779	543.59
28.2923	551.45
28.3068	528.41
28.3212	511.09
28.3357	545.51
28.3501	535.67
28.3645	514.67
28.3790	502.08
28.3934	514.50
28.4079	511.72
28.4223	540.83
28.4367	529.78
28.4512	533.54
28.4656	489.55
28.4801	488.88
28.4945	508.61
28.5089	512.52
28.5234	520.75
28.5378	516.30
28.5523	511.14
28.5667	534.07
28.5811	517.70
28.5956	550.94
28.6100	530.31
28.6245	523.59
28.6389	494.77
28.6533	485.73
28.6678	507.59
28.6822	488.02
28.6967	492.65
28.7111	541.61
28.7255	520.92
28.7400	518.15
28.7544	527.05
28.7689	512.37
28.7833	489.10
28.7977	512.43
28.8122	496.58
28.8266	475.39
28.8411	477.45
28.8555	487.64
28.8699	506.80
28.8844	545.82
28.8988	525.13
28.9133	512.77
28.9277	490.57
28.9421	498.10
28.9566	498.39
28.9710	527.28
28.9855	483.32
28.9999	483.21
29.0143	480.97
29.0288	524.66
29.0432	554.67
29.0577	526.37
29.0721	512.41
29.0865	531.99
29.1010	514.29
29.1154	511.63
29.1299	517.38
29.1443	521.13
29.1587	508.69
29.1732	520.04
29.1876	521.56
29.2021	494.60
29.2165	520.87
29.2309	512.95
29.2454	526.67
29.2598	524.90
29.2743	525.00
29.2887	487.55
29.3031	499.90
29.3176	516.12
29.3320	527.80
29.3465	540.17
29.3609	530.30
29.3753	509.39
29.3898	500.85
29.4042	527.36
29.4187	487.81
29.4331	534.43
29.4475	517.95
29.4620	512.35
29.4764	492.39
29.4909	527.27
29.5053	524.66
29.5197	492.84
29.5342	514.33
29.5486	465.47
29.5631	522.90
29.5775	498.10
29.5919	503.14
29.6064	518.48
29.6208	529.06
29.6353	502.63
29.6497	506.38
29.6641	463.49
29.6786	494.40
29.6930	500.60
29.7075	517.24
29.7219	502.93
29.7363	521.13
29.7508	523.39
29.7652	483.94
29.7797	512.26
29.7941	536.10
29.8085	514.84
29.8230	526.70
29.8374	496.20
29.8519	529.37
29.8663	542.31
29.8807	486.23
29.8952	502.80
29.9096	522.94
29.9241	529.14
29.9385	537.32
29.9529	506.48
29.9674	511.38
29.9818	500.46
29.9963	517.97
30.0107	506.58
30.0251	514.48
30.0396	539.85
30.0540	540.55
30.0685	522.62
30.0829	509.61
30.0973	516.97
30.1118	523.56
30.1262	514.84
30.1407	517.37
30.1551	509.19
30.1695	525.80
30.1840	492.40
30.1984	477.60
30.2129	487.01
30.2273	520.73
30.2417	497.80
30.2562	499.94
30.2706	498.68
30.2851	513.02
30.2995	480.63
30.3139	489.79
30.3284	505.14
30.3428	555.97
30.3573	523.99
30.3717	542.40
30.3861	528.06
30.4006	486.48
30.4150	492.95
30.4295	502.93
30.4439	504.71
30.4583	530.12
30.4728	518.25
30.4872	516.33
30.5017	526.64
30.5161	524.60
30.5305	555.23
30.5450	521.05
30.5594	525.40
30.5739	531.77
30.5883	540.92
30.6028	530.29
30.6172	542.73
30.6316	560.75
30.6461	610.94
30.6605	676.80
30.6750	656.91
30.6894	653.90
30.7038	696.62
30.7183	717.24
30.7327	714.79
30.7472	734.06
30.7616	727.30
30.7760	737.32
30.7905	705.49
30.8049	655.42
30.8194	626.74
30.8338	616.01
30.8482	642.32
30.8627	606.70
30.8771	580.00
30.8916	526.66
30.9060	535.91
30.9204	523.84
30.9349	528.44
30.9493	535.99
30.9638	526.96
30.9782	540.28
30.9926	552.32
31.0071	544.46
31.0215	534.06
31.0360	515.02
31.0504	508.83
31.0648	497.44
31.0793	501.63
31.0937	519.77
31.1082	511.61
31.1226	527.11
31.1370	500.72
31.1515	516.91
31.1659	550.18
31.1804	525.86
31.1948	508.96
31.2092	526.10
31.2237	553.33
31.2381	543.32
31.2526	528.09
31.2670	534.47
31.2814	546.79
31.2959	553.44
31.3103	537.18
31.3248	548.48
31.3392	559.34
31.3536	553.41
31.3681	509.83
31.3825	517.46
31.3970	478.27
31.4114	493.72
31.4258	531.29
31.4403	538.75
31.4547	514.66
31.4692	535.85
31.4836	534.33
31.4980	500.46
31.5125	515.17
31.5269	517.09
31.5414	512.92
31.5558	524.91
31.5702	524.41
31.5847	454.76
31.5991	513.17
31.6136	527.44
31.6280	509.33
31.6424	527.31
31.6569	531.86
31.6713	496.14
31.6858	484.11
31.7002	509.71
31.7146	478.07
31.7291	473.58
31.7435	481.10
31.7580	518.69
31.7724	495.06
31.7868	559.76
31.8013	500.19
31.8157	509.68
31.8302	483.82
31.8446	445.74
31.8590	493.68
31.8735	491.49
31.8879	496.20
31.9024	513.46
31.9168	520.86
31.9312	516.89
31.9457	518.68
31.9601	493.76
31.9746	511.34
31.9890	505.85
32.0034	511.99
32.0179	505.05
32.0323	494.72
32.0468	530.63
32.0612	509.43
32.0756	484.88
32.0901	496.04
32.1045	487.55
32.1190	507.22
32.1334	538.94
32.1478	500.51
32.1623	512.89
32.1767	500.42
32.1912	523.12
32.2056	543.29
32.2200	508.80
32.2345	501.83
32.2489	507.83
32.2634	530.41
32.2778	519.52
32.2922	510.96
32.3067	500.48
32.3211	505.21
32.3356	514.96
32.3500	513.09
32.3644	531.52
32.3789	502.18
32.3933	495.71
32.4078	490.01
32.4222	530.77
32.4366	505.98
32.4511	530.72
32.4655	508.26
32.4800	549.59
32.4944	535.38
32.5088	479.41
32.5233	516.96
32.5377	542.28
32.5522	510.00
32.5666	514.68
32.5810	500.04
32.5955	506.63
32.6099	501.57
32.6244	473.82
32.6388	502.33
32.6532	513.37
32.6677	518.33
32.6821	504.16
32.6966	499.94
32.7110	514.83
32.7254	490.29
32.7399	485.66
32.7543	498.05
32.7688	505.35
32.7832	521.58
32.7976	483.87
32.8121	504.31
32.8265	496.30
32.8410	498.45
32.8554	515.10
32.8698	528.40
32.8843	516.29
32.8987	516.04
32.9132	499.42
32.9276	511.42
32.9420	527.33
32.9565	515.15
32.9709	518.50
32.9854	476.90
32.9998	500.14
33.0142	515.20
33.0287	508.32
33.0431	512.30
33.0576	518.55
33.0720	535.96
33.0864	535.01
33.1009	469.16
33.1153	504.55
33.1298	522.23
33.1442	503.04
33.1586	494.07
33.1731	494.99
33.1875	484.57
33.2020	481.00
33.2164	524.06
33.2308	500.57
33.2453	486.18
33.2597	472.76
33.2742	484.09
33.2886	471.20
33.3030	509.62
33.3175	529.03
33.3319	499.67
33.3464	492.25
33.3608	505.16
33.3752	503.20
33.3897	470.73
33.4041	489.46
33.4186	497.75
33.4330	506.81
33.4474	481.68
33.4619	515.36
33.4763	521.60
33.4908	513.35
33.5052	488.15
33.5196	510.60
33.5341	507.05
33.5485	525.62
33.5630	521.20
33.5774	497.67
33.5918	500.96
33.6063	522.96
33.6207	508.42
33.6352	490.97
33.6496	498.06
33.6640	538.32
33.6785	512.01
33.6929	540.15
33.7074	530.68
33.7218	503.76
33.7362	466.86
33.7507	486.21
33.7651	468.03
33.7796	497.51
33.7940	503.72
33.8084	539.95
33.8229	525.85
33.8373	515.60
33.8518	492.22
33.8662	509.96
33.8806	545.61
33.8951	501.12
33.9095	497.46
33.9240	528.32
33.9384	516.88
33.9528	513.05
33.9673	505.42
33.9817	530.86
33.9962	529.84
34.0106	502.88
34.0250	507.90
34.0395	504.32
34.0539	506.09
34.0684	550.80
34.0828	547.90
34.0972	515.83
34.1117	480.11
34.1261	539.52
34.1406	536.57
34.1550	494.26
34.1694	536.16
34.1839	474.41
34.1983	504.16
34.2128	517.23
34.2272	544.31
34.2417	509.28
34.2561	517.92
34.2705	508.60
34.2850	516.97
34.2994	521.79
34.3139	526.39
34.3283	534.82
34.3427	485.49
34.3572	494.00
34.3716	482.18
34.3861	489.53
34.4005	503.29
34.4149	500.29
34.4294	508.53
34.4438	501.76
34.4583	502.74
34.4727	502.49
34.4871	500.51
34.5016	522.30
34.5160	506.17
34.5305	508.16
34.5449	553.18
34.5593	533.95
34.5738	528.66
34.5882	527.36
34.6027	541.33
34.6171	497.18
34.6315	507.69
34.6460	516.14
34.6604	491.37
34.6749	505.73
34.6893	491.65
34.7037	506.31
34.7182	517.64
34.7326	479.92
34.7471	474.16
34.7615	511.35
34.7759	510.19
34.7904	527.12
34.8048	545.15
34.8193	530.31
34.8337	519.68
34.8481	513.59
34.8626	512.93
34.8770	511.54
34.8915	523.54
34.9059	508.80
34.9203	501.35
34.9348	510.40
34.9492	495.32
34.9637	484.79
34.9781	516.10
34.9925	525.87
35.0070	507.86
35.0214	512.74
35.0359	534.02
35.0503	540.24
35.0647	522.29
35.0792	515.66
35.0936	546.14
35.1081	526.96
35.1225	533.87
35.1369	495.30
35.1514	469.98
35.1658	521.50
35.1803	528.91
35.1947	486.09
35.2091	480.50
35.2236	505.41
35.2380	484.70
35.2525	525.96
35.2669	516.94
35.2813	499.06
35.2958	525.74
35.3102	531.69
35.3247	523.33
35.3391	516.94
35.3535	490.07
35.3680	508.46
35.3824	528.86
35.3969	523.34
35.4113	502.46
35.4257	543.18
35.4402	529.91
35.4546	510.15
35.4691	549.60
35.4835	533.83
35.4979	535.33
35.5124	527.41
35.5268	538.12
35.5413	530.44
35.5557	490.98
35.5701	511.03
35.5846	526.38
35.5990	520.82
35.6135	524.11
35.6279	520.31
35.6423	513.87
35.6568	521.33
35.6712	521.37
35.6857	566.90
35.7001	646.60
35.7145	700.14
35.7290	664.10
35.7434	611.65
35.7579	580.11
35.7723	585.93
35.7867	610.22
35.8012	639.72
35.8156	653.78
35.8301	639.30
35.8445	620.79
35.8589	662.59
35.8734	760.42
35.8878	860.25
35.9023	1011.22
35.9167	1037.80
35.9311	1347.42
35.9456	2073.65
35.9600	2411.98
35.9745	1958.98
35.9889	1922.98
36.0033	2358.71
36.0178	2443.70
36.0322	2114.09
36.0467	1991.86
36.0611	1731.86
36.0755	1718.91
36.0900	1778.53
36.1044	1681.08
36.1189	1627.29
36.1333	1594.31
36.1477	1391.60
36.1622	1446.43
36.1766	1416.45
36.1911	1297.39
36.2055	1146.90
36.2199	1070.52
36.2344	1037.42
36.2488	1000.95
36.2633	988.45
36.2777	856.01
36.2921	849.81
36.3066	865.18
36.3210	781.66
36.3355	721.34
36.3499	643.28
36.3643	633.77
36.3788	621.64
36.3932	584.69
36.4077	565.78
36.4221	605.40
36.4365	573.52
36.4510	562.09
36.4654	572.29
36.4799	559.74
36.4943	547.78
36.5087	566.47
36.5232	549.64
36.5376	572.90
36.5521	540.22
36.5665	543.23
36.5809	549.23
36.5954	542.80
36.6098	522.55
36.6243	519.34
36.6387	536.91
36.6531	552.43
36.6676	524.04
36.6820	508.25
36.6965	546.64
36.7109	514.20
36.7253	512.14
36.7398	503.31
36.7542	557.38
36.7687	559.97
36.7831	581.52
36.7975	560.57
36.8120	571.64
36.8264	564.40
36.8409	568.34
36.8553	582.49
36.8697	594.92
36.8842	570.39
36.8986	618.05
36.9131	595.61
36.9275	578.02
36.9419	549.68
36.9564	569.16
36.9708	577.28
36.9853	575.51
36.9997	585.36
37.0141	549.61
37.0286	517.44
37.0430	516.79
37.0575	517.74
37.0719	504.47
37.0863	530.58
37.1008	519.78
37.1152	528.19
37.1297	517.82
37.1441	525.59
37.1585	524.77
37.1730	512.60
37.1874	508.76
37.2019	499.48
37.2163	523.59
37.2307	476.38
37.2452	539.09
37.2596	519.75
37.2741	499.09
37.2885	504.22
37.3029	511.38
37.3174	510.56
37.3318	519.29
37.3463	512.58
37.3607	523.86
37.3751	460.60
37.3896	443.77
37.4040	503.87
37.4185	554.09
37.4329	547.69
37.4473	490.99
37.4618	534.09
37.4762	513.30
37.4907	511.87
37.5051	486.41
37.5195	495.55
37.5340	513.52
37.5484	516.91
37.5629	500.56
37.5773	513.45
37.5917	550.11
37.6062	529.54
37.6206	522.51
37.6351	501.47
37.6495	537.76
37.6639	496.59
37.6784	485.69
37.6928	530.25
37.7073	509.32
37.7217	530.43
37.7361	514.50
37.7506	539.19
37.7650	506.60
37.7795	530.01
37.7939	545.60
37.8083	522.36
37.8228	533.35
37.8372	556.44
37.8517	506.36
37.8661	507.42
37.8805	518.19
37.8950	507.97
37.9094	519.67
37.9239	505.18
37.9383	539.89
37.9528	503.70
37.9672	514.14
37.9816	483.82
37.9961	488.22
38.0105	496.12
38.0250	505.14
38.0394	507.42
38.0538	523.31
38.0683	512.91
38.0827	516.82
38.0972	486.48
38.1116	471.73
38.1260	531.61
38.1405	508.83
38.1549	498.09
38.1694	515.36
38.1838	494.74
38.1982	495.71
38.2127	507.91
38.2271	488.96
38.2416	519.12
38.2560	498.10
38.2704	488.27
38.2849	507.42
38.2993	526.73
38.3138	493.03
38.3282	514.37
38.3426	532.06
38.3571	519.12
38.3715	523.58
38.3860	526.32
38.4004	539.32
38.4148	534.77
38.4293	591.23
38.4437	576.52
38.4582	597.30
38.4726	649.94
38.4870	693.24
38.5015	758.56
38.5159	810.70
38.5304	806.75
38.5448	796.10
38.5592	735.62
38.5737	732.69
38.5881	774.58
38.6026	711.88
38.6170	688.15
38.6314	692.99
38.6459	678.82
38.6603	633.63
38.6748	603.59
38.6892	584.69
38.7036	551.97
38.7181	527.17
38.7325	521.28
38.7470	521.47
38.7614	499.74
38.7758	510.36
38.7903	492.79
38.8047	510.69
38.8192	539.62
38.8336	528.03
38.8480	505.75
38.8625	524.38
38.8769	506.99
38.8914	503.30
38.9058	520.60
38.9202	482.75
38.9347	504.66
38.9491	527.83
38.9636	503.91
38.9780	497.51
38.9924	497.37
39.0069	496.12
39.0213	489.55
39.0358	494.92
39.0502	518.89
39.0646	511.70
39.0791	529.06
39.0935	531.95
39.1080	510.56
39.1224	507.93
39.1368	474.82
39.1513	482.90
39.1657	483.46
39.1802	517.29
39.1946	531.72
39.2090	525.16
39.2235	503.11
39.2379	514.71
39.2524	512.01
39.2668	517.75
39.2812	520.82
39.2957	511.61
39.3101	506.01
39.3246	541.33
39.3390	524.89
39.3534	492.91
39.3679	506.81
39.3823	497.36
39.3968	496.99
39.4112	510.80
39.4256	528.00
39.4401	519.08
39.4545	450.22
39.4690	490.88
39.4834	479.55
39.4978	500.16
39.5123	527.43
39.5267	510.28
39.5412	499.74
39.5556	536.05
39.5700	538.69
39.5845	512.82
39.5989	518.62
39.6134	496.44
39.6278	491.36
39.6422	518.09
39.6567	506.60
39.6711	493.83
39.6856	528.55
39.7000	505.94
39.7144	497.45
39.7289	484.00
39.7433	478.85
39.7578	508.41
39.7722	488.07
39.7866	493.33
39.8011	506.58
39.8155	505.62
39.8300	506.24
39.8444	486.30
39.8588	525.00
39.8733	500.65
39.8877	493.53
39.9022	543.60
39.9166	472.96
39.9310	472.79
39.9455	491.25
39.9599	482.15
39.9744	497.48
39.9888	511.25
40.0032	517.70
40.0177	497.77
40.0321	502.35
40.0466	494.88
40.0610	475.22
40.0754	469.99
40.0899	514.07
40.1043	486.43
40.1188	496.64
40.1332	488.05
40.1476	477.64
40.1621	504.22
40.1765	481.08
40.1910	511.22
40.2054	500.38
40.2198	528.59
40.2343	502.82
40.2487	512.99
40.2632	477.48
40.2776	494.18
40.2920	510.45
40.3065	456.96
40.3209	484.18
40.3354	498.31
40.3498	531.69
40.3642	496.90
40.3787	495.19
40.3931	484.55
40.4076	476.60
40.4220	504.26
40.4364	491.94
40.4509	495.03
40.4653	481.81
40.4798	489.28
40.4942	539.34
40.5086	485.60
40.5231	463.63
40.5375	511.35
40.5520	504.84
40.5664	495.24
40.5808	494.39
40.5953	471.84
40.6097	502.69
40.6242	473.77
40.6386	533.98
40.6530	490.92
40.6675	494.01
40.6819	474.08
40.6964	486.30
40.7108	480.25
40.7252	525.42
40.7397	518.37
40.7541	496.55
40.7686	473.30
40.7830	516.36
40.7974	527.98
40.8119	502.51
40.8263	500.58
40.8408	497.99
40.8552	507.10
40.8696	511.34
40.8841	514.35
40.8985	510.58
40.9130	489.25
40.9274	467.86
40.9418	503.92
40.9563	518.09
40.9707	499.69
40.9852	498.90
40.9996	505.98
41.0140	471.42
41.0285	497.45
41.0429	497.67
41.0574	511.05
41.0718	493.04
41.0862	524.76
41.1007	489.34
41.1151	512.92
41.1296	497.78
41.1440	460.76
41.1584	464.20
41.1729	501.23
41.1873	531.64
41.2018	478.08
41.2162	470.16
41.2306	471.26
41.2451	494.82
41.2595	474.47
41.2740	523.28
41.2884	548.85
41.3028	554.84
41.3173	518.75
41.3317	500.92
41.3462	469.90
41.3606	485.54
41.3750	459.23
41.3895	493.87
41.4039	478.06
41.4184	483.64
41.4328	511.31
41.4472	468.49
41.4617	477.57
41.4761	505.81
41.4906	538.67
41.5050	499.35
41.5194	480.44
41.5339	468.05
41.5483	508.98
41.5628	504.17
41.5772	489.28
41.5916	476.97
41.6061	497.64
41.6205	498.05
41.6350	502.22
41.6494	517.80
41.6639	494.31
41.6783	489.56
41.6927	484.98
41.7072	510.73
41.7216	486.28
41.7361	508.33
41.7505	483.11
41.7649	501.86
41.7794	503.09
41.7938	513.69
41.8083	494.83
41.8227	537.92
41.8371	531.17
41.8516	558.58
41.8660	532.14
41.8805	527.54
41.8949	569.45
41.9093	597.72
41.9238	549.24
41.9382	581.54
41.9527	564.00
41.9671	556.45
41.9815	576.78
41.9960	534.04
42.0104	560.40
42.0249	571.21
42.0393	549.32
42.0537	580.64
42.0682	584.59
42.0826	581.96
42.0971	546.27
42.1115	571.70
42.1259	609.95
42.1404	572.42
42.1548	608.44
42.1693	658.87
42.1837	671.67
42.1981	738.19
42.2126	838.26
42.2270	916.19
42.2415	1061.50
42.2559	1152.63
42.2703	1291.77
42.2848	1479.93
42.2992	1592.45
42.3137	1654.98
42.3281	1641.65
42.3425	1528.96
42.3570	1437.59
42.3714	1397.46
42.3859	1392.58
42.4003	1304.75
42.4147	1280.55
42.4292	1283.60
42.4436	1166.01
42.4581	1058.80
42.4725	925.53
42.4869	836.86
42.5014	758.65
42.5158	689.58
42.5303	655.17
42.5447	638.21
42.5591	631.27
42.5736	607.82
42.5880	568.83
42.6025	571.15
42.6169	558.37
42.6313	492.80
42.6458	531.49
42.6602	546.22
42.6747	536.70
42.6891	525.90
42.7035	545.52
42.7180	531.37
42.7324	507.88
42.7469	520.14
42.7613	518.51
42.7757	539.37
42.7902	519.82
42.8046	522.60
42.8191	524.30
42.8335	504.71
42.8479	506.94
42.8624	511.37
42.8768	523.03
42.8913	508.02
42.9057	518.10
42.9201	528.10
42.9346	546.92
42.9490	513.40
42.9635	504.08
42.9779	469.08
42.9923	471.47
43.0068	513.42
43.0212	527.41
43.0357	467.63
43.0501	476.18
43.0645	525.50
43.0790	519.64
43.0934	539.67
43.1079	541.01
43.1223	565.98
43.1367	523.32
43.1512	471.27
43.1656	549.48
43.1801	539.52
43.1945	495.66
43.2089	494.29
43.2234	533.96
43.2378	535.09
43.2523	516.76
43.2667	521.68
43.2811	543.76
43.2956	513.30
43.3100	553.10
43.3245	525.18
43.3389	519.88
43.3533	526.68
43.3678	504.19
43.3822	471.91
43.3967	496.16
43.4111	502.83
43.4255	517.38
43.4400	529.10
43.4544	505.42
43.4689	513.98
43.4833	529.79
43.4977	515.55
43.5122	483.32
43.5266	494.03
43.5411	492.64
43.5555	503.51
43.5699	507.95
43.5844	512.79
43.5988	543.75
43.6133	523.75
43.6277	502.08
43.6421	514.56
43.6566	539.93
43.6710	530.05
43.6855	496.69
43.6999	517.61
43.7143	551.97
43.7288	551.54
43.7432	517.97
43.7577	539.24
43.7721	529.87
43.7865	531.37
43.8010	523.96
43.8154	536.73
43.8299	534.45
43.8443	497.64
43.8587	506.74
43.8732	533.20
43.8876	565.42
43.9021	599.79
43.9165	592.95
43.9309	615.66
43.9454	661.02
43.9598	628.24
43.9743	577.11
43.9887	606.89
44.0031	619.67
44.0176	704.59
44.0320	633.68
44.0465	587.92
44.0609	639.88
44.0753	622.75
44.0898	621.08
44.1042	606.68
44.1187	591.06
44.1331	569.06
44.1475	550.65
44.1620	546.46
44.1764	522.51
44.1909	527.82
44.2053	514.15
44.2197	542.08
44.2342	529.54
44.2486	526.23
44.2631	526.40
44.2775	522.20
44.2919	536.76
44.3064	538.13
44.3208	549.62
44.3353	562.14
44.3497	562.31
44.3641	583.89
44.3786	521.85
44.3930	514.19
44.4075	568.27
44.4219	583.18
44.4363	577.86
44.4508	538.95
44.4652	598.62
44.4797	605.14
44.4941	587.34
44.5085	569.02
44.5230	555.30
44.5374	557.31
44.5519	574.17
44.5663	595.70
44.5807	590.37
44.5952	601.04
44.6096	555.09
44.6241	577.38
44.6385	566.99
44.6529	597.32
44.6674	595.61
44.6818	553.12
44.6963	627.06
44.7107	672.50
44.7251	691.35
44.7396	764.26
44.7540	800.03
44.7685	820.86
44.7829	924.21
44.7973	892.90
44.8118	835.73
44.8262	800.24
44.8407	729.40
44.8551	755.63
44.8695	738.47
44.8840	742.60
44.8984	770.78
44.9129	774.55
44.9273	703.95
44.9417	640.90
44.9562	568.22
44.9706	588.43
44.9851	581.54
44.9995	572.52
45.0139	523.87
45.0284	506.35
45.0428	529.58
45.0573	514.48
45.0717	538.25
45.0861	522.34
45.1006	518.27
45.1150	532.80
45.1295	503.10
45.1439	497.56
45.1583	548.60
45.1728	554.64
45.1872	490.28
45.2017	527.68
45.2161	531.80
45.2305	514.79
45.2450	518.98
45.2594	520.73
45.2739	512.41
45.2883	498.31
45.3028	510.85
45.3172	540.50
45.3316	530.77
45.3461	517.01
45.3605	494.81
45.3750	488.67
45.3894	472.59
45.4038	502.60
45.4183	493.28
45.4327	493.67
45.4472	498.22
45.4616	493.62
45.4760	536.25
45.4905	515.37
45.5049	487.85
45.5194	520.99
45.5338	506.58
45.5482	497.36
45.5627	536.44
45.5771	492.12
45.5916	486.02
45.6060	509.34
45.6204	515.72
45.6349	523.14
45.6493	519.96
45.6638	506.82
45.6782	533.41
45.6926	500.90
45.7071	519.12
45.7215	477.37
45.7360	479.04
45.7504	494.48
45.7648	486.54
45.7793	547.63
45.7937	556.43
45.8082	506.34
45.8226	502.40
45.8370	524.87
45.8515	500.97
45.8659	513.70
45.8804	530.08
45.8948	504.15
45.9092	511.61
45.9237	517.68
45.9381	505.01
45.9526	482.58
45.9670	496.80
45.9814	498.51
45.9959	509.77
46.0103	469.79
46.0248	547.63
46.0392	544.72
46.0536	531.10
46.0681	495.29
46.0825	487.18
46.0970	513.88
46.1114	500.73
46.1258	535.31
46.1403	504.92
46.1547	493.47
46.1692	498.42
46.1836	523.83
46.1980	489.18
46.2125	522.02
46.2269	518.80
46.2414	519.60
46.2558	538.81
46.2702	483.22
46.2847	493.76
46.2991	462.71
46.3136	501.24
46.3280	491.55
46.3424	523.47
46.3569	498.68
46.3713	488.93
46.3858	488.87
46.4002	503.26
46.4146	515.94
46.4291	515.67
46.4435	502.96
46.4580	482.56
46.4724	508.35
46.4868	512.45
46.5013	518.38
46.5157	515.60
46.5302	538.46
46.5446	538.51
46.5590	535.08
46.5735	510.22
46.5879	495.60
46.6024	514.85
46.6168	492.04
46.6312	507.63
46.6457	520.52
46.6601	487.29
46.6746	490.02
46.6890	497.18
46.7034	515.72
46.7179	513.82
46.7323	506.37
46.7468	524.25
46.7612	507.84
46.7756	532.93
46.7901	542.19
46.8045	505.58
46.8190	499.19
46.8334	539.66
46.8478	519.64
46.8623	507.87
46.8767	492.04
46.8912	478.91
46.9056	510.25
46.9200	536.61
46.9345	526.50
46.9489	545.88
46.9634	522.72
46.9778	489.15
46.9922	482.59
47.0067	507.65
47.0211	514.45
47.0356	482.67
47.0500	473.82
47.0644	526.96
47.0789	539.32
47.0933	538.82
47.1078	510.75
47.1222	491.27
47.1366	525.37
47.1511	526.22
47.1655	526.59
47.1800	511.85
47.1944	506.75
47.2088	499.34
47.2233	534.03
47.2377	529.16
47.2522	523.63
47.2666	502.72
47.2810	515.26
47.2955	516.33
47.3099	515.41
47.3244	500.70
47.3388	487.06
47.3532	482.68
47.3677	496.34
47.3821	491.14
47.3966	458.21
47.4110	470.01
47.4254	501.38
47.4399	515.89
47.4543	515.54
47.4688	525.37
47.4832	514.64
47.4976	509.80
47.5121	504.26
47.5265	529.69
47.5410	531.15
47.5554	513.55
47.5698	483.50
47.5843	516.02
47.5987	523.14
47.6132	519.98
47.6276	494.91
47.6420	517.03
47.6565	506.23
47.6709	510.94
47.6854	539.59
47.6998	547.69
47.7142	509.73
47.7287	507.16
47.7431	463.52
47.7576	525.83
47.7720	490.05
47.7864	478.63
47.8009	487.54
47.8153	514.61
47.8298	484.68
47.8442	487.70
47.8586	495.27
47.8731	520.78
47.8875	534.71
47.9020	520.88
47.9164	499.23
47.9308	534.95
47.9453	495.06
47.9597	511.69
47.9742	497.01
47.9886	474.98
48.0030	504.39
48.0175	489.76
48.0319	460.53
48.0464	536.88
48.0608	514.93
48.0752	487.37
48.0897	509.01
48.1041	471.00
48.1186	495.42
48.1330	526.15
48.1474	485.07
48.1619	476.63
48.1763	489.33
48.1908	507.08
48.2052	504.55
48.2196	518.45
48.2341	502.87
48.2485	533.66
48.2630	515.68
48.2774	530.06
48.2918	503.43
48.3063	501.06
48.3207	510.56
48.3352	521.07
48.3496	500.88
48.3640	498.56
48.3785	507.02
48.3929	523.77
48.4074	505.85
48.4218	550.30
48.4362	480.00
48.4507	526.07
48.4651	530.74
48.4796	514.90
48.4940	512.87
48.5084	501.53
48.5229	504.53
48.5373	551.42
48.5518	539.40
48.5662	517.77
48.5806	529.73
48.5951	517.35
48.6095	521.90
48.6240	531.17
48.6384	530.04
48.6528	488.37
48.6673	530.59
48.6817	511.24
48.6962	497.36
48.7106	521.44
48.7250	516.63
48.7395	511.46
48.7539	542.76
48.7684	529.43
48.7828	497.93
48.7972	524.10
48.8117	511.15
48.8261	532.17
48.8406	524.50
48.8550	504.43
48.8694	539.85
48.8839	519.91
48.8983	606.34
48.9128	548.37
48.9272	543.15
48.9416	569.46
48.9561	512.74
48.9705	535.55
48.9850	583.04
48.9994	562.00
49.0139	565.81
49.0283	561.63
49.0427	608.97
49.0572	643.85
49.0716	636.16
49.0861	665.47
49.1005	757.47
49.1149	686.91
49.1294	740.18
49.1438	696.42
49.1583	785.47
49.1727	841.30
49.1871	920.80
49.2016	908.31
49.2160	1025.86
49.2305	1077.41
49.2449	1174.06
49.2593	1237.06
49.2738	1349.20
49.2882	1401.95
49.3027	1496.37
49.3171	1590.92
49.3315	1618.43
49.3460	1685.18
49.3604	1758.51
49.3749	1770.80
49.3893	1754.47
49.4037	1801.34
49.4182	1750.68
49.4326	1689.62
49.4471	1647.81
49.4615	1598.76
49.4759	1542.49
49.4904	1533.75
49.5048	1443.69
49.5193	1419.54
49.5337	1302.80
49.5481	1208.72
49.5626	1130.06
49.5770	1054.75
49.5915	992.67
49.6059	919.92
49.6203	867.88
49.6348	855.47
49.6492	797.85
49.6637	745.14
49.6781	667.12
49.6925	655.75
49.7070	655.67
49.7214	639.75
49.7359	650.15
49.7503	615.40
49.7647	600.15
49.7792	586.98
49.7936	590.25
49.8081	596.25
49.8225	574.90
49.8369	540.08
49.8514	563.05
49.8658	591.65
49.8803	570.52
49.8947	535.87
49.9091	560.47
49.9236	551.88
49.9380	563.54
49.9525	539.69
49.9669	554.06
49.9813	528.44
49.9958	542.57
50.0102	526.39
50.0247	509.48
50.0391	546.61
50.0535	535.69
50.0680	513.72
50.0824	505.55
50.0969	518.90
50.1113	560.14
50.1257	561.46
50.1402	536.86
50.1546	501.48
50.1691	529.83
50.1835	498.93
50.1979	537.13
50.2124	549.79
50.2268	540.60
50.2413	537.55
50.2557	537.23
50.2701	520.40
50.2846	519.26
50.2990	539.56
50.3135	523.71
50.3279	530.38
50.3423	507.65
50.3568	557.01
50.3712	545.13
50.3857	516.90
50.4001	509.37
50.4145	531.54
50.4290	576.42
50.4434	537.82
50.4579	542.34
50.4723	518.31
50.4867	514.06
50.5012	528.55
50.5156	516.44
50.5301	521.05
50.5445	514.95
50.5589	504.62
50.5734	514.97
50.5878	507.71
50.6023	489.83
50.6167	519.45
50.6311	539.40
50.6456	485.17
50.6600	467.91
50.6745	467.22
50.6889	496.88
50.7033	483.91
50.7178	479.88
50.7322	492.56
50.7467	495.77
50.7611	510.49
50.7755	499.14
50.7900	525.47
50.8044	534.12
50.8189	509.94
50.8333	520.05
50.8477	506.28
50.8622	499.83
50.8766	534.87
50.8911	506.81
50.9055	487.45
50.9199	507.24
50.9344	515.98
50.9488	514.91
50.9633	493.90
50.9777	503.95
50.9921	511.12
51.0066	501.25
51.0210	490.36
51.0355	507.26
51.0499	496.93
51.0643	514.83
51.0788	498.10
51.0932	516.39
51.1077	517.14
51.1221	514.98
51.1365	521.89
51.1510	516.91
51.1654	505.03
51.1799	496.29
51.1943	506.10
51.2087	483.80
51.2232	505.87
51.2376	517.04
51.2521	527.63
51.2665	519.24
51.2809	498.57
51.2954	500.08
51.3098	497.96
51.3243	502.16
51.3387	500.25
51.3531	488.40
51.3676	498.84
51.3820	524.55
51.3965	520.65
51.4109	520.15
51.4253	546.91
51.4398	521.98
51.4542	474.61
51.4687	497.85
51.4831	538.40
51.4975	513.17
51.5120	514.28
51.5264	526.70
51.5409	538.03
51.5553	519.95
51.5697	470.78
51.5842	508.19
51.5986	513.38
51.6131	476.69
51.6275	496.89
51.6419	522.72
51.6564	517.00
51.6708	469.18
51.6853	474.73
51.6997	513.09
51.7141	528.49
51.7286	504.72
51.7430	495.37
51.7575	515.91
51.7719	509.23
51.7863	529.44
51.8008	505.51
51.8152	489.62
51.8297	474.28
51.8441	509.55
51.8585	517.01
51.8730	517.02
51.8874	517.70
51.9019	558.17
51.9163	494.90
51.9307	509.08
51.9452	511.93
51.9596	458.67
51.9741	477.26
51.9885	496.43
52.0029	511.86
52.0174	503.83
52.0318	534.39
52.0463	473.70
52.0607	539.20
52.0751	506.05
52.0896	535.11
52.1040	523.82
52.1185	522.69
52.1329	518.31
52.1473	487.51
52.1618	499.60
52.1762	503.84
52.1907	511.46
52.2051	480.87
52.2195	471.28
52.2340	499.20
52.2484	513.05
52.2629	492.45
52.2773	484.80
52.2917	515.45
52.3062	532.87
52.3206	518.88
52.3351	490.80
52.3495	487.48
52.3639	506.91
52.3784	554.50
52.3928	524.47
52.4073	476.24
52.4217	496.57
52.4361	517.70
52.4506	514.10
52.4650	557.69
52.4795	517.20
52.4939	515.39
52.5083	491.12
52.5228	504.29
52.5372	488.41
52.5517	549.94
52.5661	521.82
52.5805	470.24
52.5950	493.19
52.6094	489.50
52.6239	492.99
52.6383	533.62
52.6527	515.59
52.6672	517.15
52.6816	476.20
52.6961	522.96
52.7105	554.02
52.7250	533.93
52.7394	485.64
52.7538	509.40
52.7683	498.66
52.7827	482.10
52.7972	490.64
52.8116	539.48
52.8260	557.06
52.8405	527.83
52.8549	520.31
52.8694	516.90
52.8838	544.22
52.8982	564.52
52.9127	524.06
52.9271	509.67
52.9416	483.41
52.9560	530.08
52.9704	527.83
52.9849	535.94
52.9993	475.15
53.0138	511.45
53.0282	535.65
53.0426	525.84
53.0571	512.91
53.0715	531.35
53.0860	502.26
53.1004	510.96
53.1148	506.64
53.1293	550.11
53.1437	494.88
53.1582	506.37
53.1726	536.25
53.1870	519.18
53.2015	488.52
53.2159	524.03
53.2304	526.42
53.2448	534.98
53.2592	532.77
53.2737	505.12
53.2881	522.75
53.3026	500.23
53.3170	525.37
53.3314	497.67
53.3459	510.64
53.3603	523.04
53.3748	512.50
53.3892	530.82
53.4036	515.59
53.4181	512.82
53.4325	559.85
53.4470	502.20
53.4614	507.51
53.4758	544.85
53.4903	519.28
53.5047	496.74
53.5192	511.61
53.5336	550.07
53.5480	518.24
53.5625	534.03
53.5769	502.20
53.5914	510.78
53.6058	539.39
53.6202	552.95
53.6347	507.74
53.6491	514.28
53.6636	488.73
53.6780	507.93
53.6924	490.86
53.7069	520.32
53.7213	551.46
53.7358	511.73
53.7502	492.06
53.7646	483.48
53.7791	514.62
53.7935	541.47
53.8080	526.94
53.8224	532.41
53.8368	517.01
53.8513	483.38
53.8657	483.81
53.8802	495.27
53.8946	501.89
53.9090	503.23
53.9235	529.73
53.9379	547.46
53.9524	512.93
53.9668	492.27
53.9812	553.15
53.9957	542.28
54.0101	528.04
54.0246	516.51
54.0390	528.03
54.0534	504.06
54.0679	494.43
54.0823	539.44
54.0968	512.92
54.1112	487.54
54.1256	548.73
54.1401	522.22
54.1545	504.17
54.1690	522.54
54.1834	502.84
54.1978	498.19
54.2123	499.46
54.2267	547.47
54.2412	538.86
54.2556	556.30
54.2700	536.29
54.2845	550.23
54.2989	513.53
54.3134	535.45
54.3278	528.88
54.3422	521.75
54.3567	551.86
54.3711	551.79
54.3856	505.06
54.4000	514.29
54.4144	547.21
54.4289	560.75
54.4433	557.14
54.4578	545.86
54.4722	566.74
54.4866	600.20
54.5011	602.36
54.5155	573.93
54.5300	608.63
54.5444	630.44
54.5588	587.70
54.5733	563.55
54.5877	582.73
54.6022	611.81
54.6166	615.59
54.6310	592.34
54.6455	589.51
54.6599	554.44
54.6744	548.96
54.6888	563.58
54.7032	608.97
54.7177	592.79
54.7321	592.62
54.7466	594.99
54.7610	575.77
54.7754	569.19
54.7899	547.74
54.8043	533.98
54.8188	513.76
54.8332	513.82
54.8476	534.86
54.8621	571.98
54.8765	556.30
54.8910	527.24
54.9054	549.85
54.9198	568.45
54.9343	574.80
54.9487	528.62
54.9632	507.75
54.9776	507.32
54.9920	525.41
55.0065	514.12
55.0209	541.34
55.0354	527.70
55.0498	489.35
55.0642	493.04
55.0787	501.63
55.0931	509.75
55.1076	524.91
55.1220	523.90
55.1364	528.57
55.1509	523.16
55.1653	526.44
55.1798	505.68
55.1942	512.31
55.2086	490.57
55.2231	499.56
55.2375	512.60
55.2520	494.33
55.2664	541.26
55.2808	561.33
55.2953	535.81
55.3097	540.31
55.3242	567.07
55.3386	505.49
55.3530	515.00
55.3675	521.55
55.3819	535.15
55.3964	517.86
55.4108	523.58
55.4252	536.79
55.4397	533.28
55.4541	510.87
55.4686	495.29
55.4830	555.62
55.4974	537.74
55.5119	507.57
55.5263	538.05
55.5408	564.60
55.5552	563.70
55.5696	529.45
55.5841	527.48
55.5985	534.45
55.6130	502.66
55.6274	529.88
55.6418	558.61
55.6563	565.12
55.6707	561.26
55.6852	544.31
55.6996	578.95
55.7140	522.98
55.7285	504.84
55.7429	547.24
55.7574	536.04
55.7718	523.30
55.7862	546.04
55.8007	552.77
55.8151	526.74
55.8296	511.94
55.8440	512.03
55.8584	526.57
55.8729	503.49
55.8873	536.89
55.9018	578.07
55.9162	534.49
55.9306	525.20
55.9451	524.95
55.9595	511.74
55.9740	513.80
55.9884	514.38
56.0028	501.17
56.0173	533.18
56.0317	544.50
56.0462	535.02
56.0606	498.05
56.0750	525.74
56.0895	531.68
56.1039	517.71
56.1184	532.78
56.1328	519.07
56.1472	519.85
56.1617	535.99
56.1761	528.61
56.1906	499.38
56.2050	516.91
56.2194	515.30
56.2339	492.75
56.2483	536.96
56.2628	483.70
56.2772	527.99
56.2916	517.19
56.3061	538.87
56.3205	522.99
56.3350	548.76
56.3494	569.72
56.3639	517.87
56.3783	534.63
56.3927	546.71
56.4072	508.55
56.4216	502.38
56.4361	520.19
56.4505	522.58
56.4649	509.48
56.4794	521.23
56.4938	487.65
56.5083	524.97
56.5227	514.90
56.5371	498.74
56.5516	512.34
56.5660	527.35
56.5805	511.95
56.5949	540.64
56.6093	538.27
56.6238	550.77
56.6382	543.91
56.6527	529.62
56.6671	504.37
56.6815	545.09
56.6960	533.99
56.7104	483.93
56.7249	532.16
56.7393	518.35
56.7537	544.44
56.7682	513.11
56.7826	548.75
56.7971	537.12
56.8115	524.88
56.8259	534.80
56.8404	546.30
56.8548	522.71
56.8693	526.62
56.8837	503.38
56.8981	543.89
56.9126	510.10
56.9270	500.52
56.9415	497.08
56.9559	528.51
56.9703	518.57
56.9848	522.47
56.9992	541.04
57.0137	526.17
57.0281	489.24
57.0425	487.18
57.0570	528.98
57.0714	551.93
57.0859	506.50
57.1003	546.74
57.1147	531.64
57.1292	530.70
57.1436	497.12
57.1581	523.99
57.1725	522.78
57.1869	573.91
57.2014	510.60
57.2158	513.55
57.2303	500.75
57.2447	535.94
57.2591	512.51
57.2736	522.38
57.2880	544.59
57.3025	515.18
57.3169	517.63
57.3313	554.38
57.3458	537.88
57.3602	542.11
57.3747	550.65
57.3891	526.25
57.4035	535.30
57.4180	530.28
57.4324	551.99
57.4469	536.99
57.4613	518.80
57.4757	546.32
57.4902	515.39
57.5046	521.71
57.5191	540.77
57.5335	528.51
57.5479	525.08
57.5624	530.31
57.5768	513.63
57.5913	538.16
57.6057	521.64
57.6201	528.39
57.6346	521.87
57.6490	540.04
57.6635	521.13
57.6779	526.13
57.6923	521.00
57.7068	553.54
57.7212	523.20
57.7357	549.03
57.7501	557.62
57.7645	531.92
57.7790	524.43
57.7934	533.66
57.8079	537.86
57.8223	547.11
57.8367	554.02
57.8512	531.94
57.8656	518.20
57.8801	541.11
57.8945	529.96
57.9089	538.67
57.9234	542.57
57.9378	562.47
57.9523	569.73
57.9667	526.14
57.9811	536.13
57.9956	551.37
58.0100	543.66
58.0245	569.63
58.0389	538.83
58.0533	580.61
58.0678	595.63
58.0822	593.70
58.0967	586.28
58.1111	576.52
58.1255	648.44
58.1400	643.81
58.1544	716.19
58.1689	691.63
58.1833	676.37
58.1977	692.69
58.2122	709.08
58.2266	704.02
58.2411	651.79
58.2555	669.21
58.2699	650.48
58.2844	672.00
58.2988	671.33
58.3133	652.18
58.3277	669.18
58.3421	669.67
58.3566	633.90
58.3710	623.30
58.3855	609.86
58.3999	605.02
58.4143	595.26
58.4288	565.38
58.4432	555.05
58.4577	568.17
58.4721	580.61
58.4865	573.25
58.5010	560.09
58.5154	544.88
58.5299	557.78
58.5443	567.63
58.5587	579.71
58.5732	556.65
58.5876	506.87
58.6021	546.76
58.6165	554.69
58.6309	503.59
58.6454	520.99
58.6598	529.79
58.6743	527.06
58.6887	554.41
58.7031	552.82
58.7176	551.93
58.7320	524.80
58.7465	513.86
58.7609	518.84
58.7753	528.22
58.7898	528.47
58.8042	537.31
58.8187	571.45
58.8331	555.38
58.8475	529.76
58.8620	538.26
58.8764	556.22
58.8909	521.64
58.9053	542.69
58.9197	541.07
58.9342	544.26
58.9486	544.16
58.9631	527.21
58.9775	513.52
58.9919	509.89
59.0064	505.26
59.0208	557.20
59.0353	570.28
59.0497	527.66
59.0641	525.38
59.0786	530.51
59.0930	553.20
59.1075	540.17
59.1219	537.19
59.1363	544.01
59.1508	505.74
59.1652	548.36
59.1797	565.98
59.1941	542.87
59.2085	533.11
59.2230	561.98
59.2374	534.62
59.2519	533.71
59.2663	559.72
59.2807	576.42
59.2952	569.66
59.3096	600.93
59.3241	601.50
59.3385	586.65
59.3529	561.94
59.3674	538.56
59.3818	539.81
59.3963	551.83
59.4107	556.55
59.4251	530.16
59.4396	548.82
59.4540	551.42
59.4685	583.37
59.4829	570.80
59.4973	527.14
59.5118	508.29
59.5262	565.44
59.5407	587.74
59.5551	584.30
59.5695	562.60
59.5840	574.81
59.5984	547.73
59.6129	543.06
59.6273	546.58
59.6417	548.58
59.6562	545.18
59.6706	566.33
59.6851	542.25
59.6995	544.08
59.7139	555.19
59.7284	523.51
59.7428	543.89
59.7573	559.58
59.7717	524.93
59.7861	543.62
59.8006	524.67
59.8150	528.60
59.8295	519.71
59.8439	539.78
59.8583	580.83
59.8728	565.98
59.8872	496.91
59.9017	547.77
59.9161	548.62
59.9305	553.35
59.9450	529.90
59.9594	496.51
59.9739	522.58
59.9883	516.79
60.0027	565.31
60.0172	552.67
60.0316	527.40
60.0461	522.11
60.0605	510.37
60.0750	518.37
60.0894	587.88
60.1038	553.29
60.1183	550.42
60.1327	492.53
60.1472	522.83
60.1616	566.23
60.1760	559.20
60.1905	567.53
60.2049	579.46
60.2194	574.57
60.2338	504.65
60.2482	541.49
60.2627	542.73
60.2771	559.32
60.2916	533.46
60.3060	526.84
60.3204	563.90
60.3349	556.48
60.3493	520.95
60.3638	528.59
60.3782	520.02
60.3926	533.59
60.4071	536.26
60.4215	527.93
60.4360	537.65
60.4504	509.64
60.4648	497.03
60.4793	520.60
60.4937	566.96
60.5082	560.17
60.5226	509.59
60.5370	560.20
60.5515	550.40
60.5659	552.59
60.5804	554.29
60.5948	579.22
60.6092	560.02
60.6237	547.78
60.6381	521.40
60.6526	573.19
60.6670	536.70
60.6814	524.38
60.6959	512.77
60.7103	498.95
60.7248	569.18
60.7392	568.69
60.7536	572.38
60.7681	528.63
60.7825	522.62
60.7970	523.29
60.8114	547.16
60.8258	550.76
60.8403	536.16
60.8547	546.52
60.8692	569.47
60.8836	548.89
60.8980	525.77
60.9125	539.25
60.9269	556.51
60.9414	532.64
60.9558	523.02
60.9702	551.66
60.9847	566.59
60.9991	523.77
61.0136	570.16
61.0280	564.74
61.0424	535.29
61.0569	557.13
61.0713	526.09
61.0858	553.32
61.1002	519.69
61.1146	533.55
61.1291	566.64
61.1435	531.66
61.1580	543.76
61.1724	562.70
61.1868	565.71
61.2013	532.20
61.2157	529.00
61.2302	538.35
61.2446	552.24
61.2590	515.43
61.2735	512.87
61.2879	510.85
61.3024	529.98
61.3168	548.19
61.3312	561.64
61.3457	587.21
61.3601	557.46
61.3746	549.30
61.3890	550.89
61.4034	539.45
61.4179	546.82
61.4323	536.56
61.4468	519.10
61.4612	530.97
61.4756	528.46
61.4901	551.63
61.5045	593.72
61.5190	581.28
61.5334	564.61
61.5478	537.06
61.5623	549.52
61.5767	550.56
61.5912	555.78
61.6056	551.35
61.6200	485.19
61.6345	513.32
61.6489	523.00
61.6634	531.83
61.6778	573.87
61.6922	541.03
61.7067	530.23
61.7211	534.12
61.7356	522.10
61.7500	543.70
61.7644	553.53
61.7789	555.61
61.7933	510.61
61.8078	544.89
61.8222	575.73
61.8366	559.36
61.8511	554.00
61.8655	554.25
61.8800	577.05
61.8944	583.86
61.9088	561.90
61.9233	560.23
61.9377	540.11
61.9522	566.11
61.9666	552.75
61.9810	536.35
61.9955	581.09
62.0099	572.55
62.0244	555.95
62.0388	549.03
62.0532	557.23
62.0677	541.37
62.0821	504.86
62.0966	556.89
62.1110	536.16
62.1254	584.03
62.1399	566.91
62.1543	526.52
62.1688	574.94
62.1832	530.94
62.1976	524.85
62.2121	525.19
62.2265	546.27
62.2410	542.01
62.2554	547.14
62.2698	566.40
62.2843	557.78
62.2987	555.39
62.3132	542.74
62.3276	527.45
62.3420	547.63
62.3565	550.23
62.3709	562.01
62.3854	530.08
62.3998	553.74
62.4142	570.88
62.4287	575.98
62.4431	569.74
62.4576	560.29
62.4720	548.82
62.4864	555.49
62.5009	549.15
62.5153	517.64
62.5298	595.86
62.5442	582.96
62.5586	563.70
62.5731	552.75
62.5875	572.64
62.6020	558.44
62.6164	574.58
62.6308	559.23
62.6453	545.45
62.6597	560.52
62.6742	546.84
62.6886	514.95
62.7030	579.06
62.7175	590.12
62.7319	564.63
62.7464	542.64
62.7608	537.67
62.7752	568.47
62.7897	592.96
62.8041	565.95
62.8186	540.09
62.8330	575.52
62.8474	564.02
62.8619	587.00
62.8763	544.02
62.8908	548.78
62.9052	560.33
62.9196	519.14
62.9341	545.91
62.9485	588.20
62.9630	538.24
62.9774	545.22
62.9918	584.00
63.0063	567.15
63.0207	595.62
63.0352	562.68
63.0496	525.03
63.0640	584.26
63.0785	567.40
63.0929	569.14
63.1074	590.26
63.1218	594.30
63.1362	582.84
63.1507	522.50
63.1651	599.01
63.1796	587.06
63.1940	514.39
63.2084	525.61
63.2229	559.32
63.2373	569.20
63.2518	591.51
63.2662	561.58
63.2806	583.18
63.2951	553.96
63.3095	585.88
63.3240	603.50
63.3384	606.16
63.3528	550.65
63.3673	573.12
63.3817	549.32
63.3962	527.87
63.4106	571.27
63.4250	614.33
63.4395	569.27
63.4539	552.45
63.4684	594.91
63.4828	602.67
63.4972	599.37
63.5117	564.07
63.5261	555.88
63.5406	570.73
63.5550	597.79
63.5694	596.33
63.5839	579.15
63.5983	600.32
63.6128	645.80
63.6272	608.64
63.6416	623.25
63.6561	607.78
63.6705	619.78
63.6850	615.76
63.6994	612.64
63.7138	665.46
63.7283	662.33
63.7427	631.89
63.7572	636.68
63.7716	648.93
63.7861	682.50
63.8005	700.76
63.8149	687.50
63.8294	677.81
63.8438	710.70
63.8583	733.58
63.8727	787.71
63.8871	844.08
63.9016	909.55
63.9160	841.30
63.9305	889.78
63.9449	843.67
63.9593	865.59
63.9738	849.36
63.9882	788.64
64.0027	744.93
64.0171	769.29
64.0315	761.43
64.0460	767.94
64.0604	723.71
64.0749	762.74
64.0893	800.33
64.1037	771.48
64.1182	798.48
64.1326	741.30
64.1471	713.30
64.1615	744.91
64.1759	678.07
64.1904	676.29
64.2048	697.59
64.2193	659.93
64.2337	664.43
64.2481	642.95
64.2626	637.37
64.2770	617.10
64.2915	659.13
64.3059	706.01
64.3203	674.46
64.3348	609.81
64.3492	661.88
64.3637	615.66
64.3781	632.68
64.3925	638.20
64.4070	646.21
64.4214	620.64
64.4359	647.18
64.4503	648.37
64.4647	648.15
64.4792	662.22
64.4936	682.07
64.5081	632.63
64.5225	644.06
64.5369	648.73
64.5514	644.91
64.5658	647.42
64.5803	618.87
64.5947	599.45
64.6091	666.70
64.6236	636.04
64.6380	661.89
64.6525	660.57
64.6669	661.64
64.6813	646.80
64.6958	672.67
64.7102	738.00
64.7247	710.70
64.7391	678.82
64.7535	682.28
64.7680	688.84
64.7824	716.59
64.7969	777.98
64.8113	808.09
64.8257	795.76
64.8402	827.48
64.8546	801.43
64.8691	842.98
64.8835	805.16
64.8979	819.62
64.9124	915.41
64.9268	901.93
64.9413	925.58
64.9557	916.55
64.9701	950.30
64.9846	1037.48
64.9990	1167.10
65.0135	1339.49
65.0279	1476.18
65.0423	1700.69
65.0568	2102.15
65.0712	2647.74
65.0857	3500.79
65.1001	4587.52
65.1145	6298.00
65.1290	8258.89
65.1434	9788.81
65.1579	11329.19
65.1723	11845.32
65.1867	11288.39
65.2012	9971.98
65.2156	8275.89
65.2301	6453.02
65.2445	5274.64
65.2589	4485.19
65.2734	4258.71
65.2878	4614.19
65.3023	5088.53
65.3167	5895.35
65.3311	6562.92
65.3456	7155.72
65.3600	7030.29
65.3745	6463.23
65.3889	5548.60
65.4033	4480.10
65.4178	3430.62
65.4322	2661.46
65.4467	2028.35
65.4611	1667.62
65.4755	1396.35
65.4900	1275.07
65.5044	1224.85
65.5189	1103.50
65.5333	985.05
65.5477	927.07
65.5622	861.30
65.5766	852.09
65.5911	838.63
65.6055	794.43
65.6199	783.66
65.6344	813.02
65.6488	756.67
65.6633	731.74
65.6777	755.11
65.6921	710.24
65.7066	715.89
65.7210	727.97
65.7355	679.07
65.7499	653.65
65.7643	681.81
65.7788	666.97
65.7932	681.15
65.8077	685.26
65.8221	687.62
65.8365	681.67
65.8510	649.87
65.8654	606.41
65.8799	647.19
65.8943	627.75
65.9087	646.16
65.9232	665.11
65.9376	689.17
65.9521	641.33
65.9665	633.87
65.9809	620.02
65.9954	649.25
66.0098	649.06
66.0243	647.11
66.0387	681.57
66.0531	666.12
66.0676	650.43
66.0820	631.60
66.0965	627.17
66.1109	628.93
66.1253	643.20
66.1398	628.13
66.1542	592.74
66.1687	607.60
66.1831	596.53
66.1975	597.05
66.2120	626.48
66.2264	618.33
66.2409	635.00
66.2553	624.16
66.2697	605.01
66.2842	589.20
66.2986	597.50
66.3131	596.42
66.3275	639.37
66.3419	598.52
66.3564	580.26
66.3708	560.48
66.3853	598.80
66.3997	598.64
66.4141	577.10
66.4286	620.49
66.4430	610.04
66.4575	615.49
66.4719	615.39
66.4863	604.27
66.5008	598.32
66.5152	614.99
66.5297	628.37
66.5441	594.41
66.5585	617.25
66.5730	607.29
66.5874	596.26
66.6019	591.17
66.6163	606.57
66.6307	592.08
66.6452	569.11
66.6596	596.61
66.6741	588.54
66.6885	593.57
66.7029	627.01
66.7174	603.26
66.7318	556.15
66.7463	543.03
66.7607	560.10
66.7751	613.62
66.7896	608.21
66.8040	579.75
66.8185	593.11
66.8329	590.81
66.8473	586.85
66.8618	586.16
66.8762	609.17
66.8907	598.83
66.9051	593.03
66.9195	603.22
66.9340	601.60
66.9484	587.64
66.9629	553.71
66.9773	563.92
66.9917	558.67
67.0062	547.87
67.0206	579.03
67.0351	571.11
67.0495	552.67
67.0639	578.08
67.0784	589.24
67.0928	580.93
67.1073	583.15
67.1217	589.09
67.1361	571.90
67.1506	563.94
67.1650	577.61
67.1795	586.02
67.1939	569.46
67.2083	572.74
67.2228	586.14
67.2372	575.51
67.2517	606.75
67.2661	585.38
67.2805	588.00
67.2950	602.25
67.3094	585.39
67.3239	556.09
67.3383	561.80
67.3527	590.25
67.3672	562.02
67.3816	589.70
67.3961	584.28
67.4105	600.91
67.4250	608.21
67.4394	622.87
67.4538	605.98
67.4683	581.32
67.4827	585.97
67.4972	576.12
67.5116	543.87
67.5260	556.48
67.5405	579.72
67.5549	567.96
67.5694	586.08
67.5838	560.72
67.5982	581.81
67.6127	581.06
67.6271	579.90
67.6416	608.45
67.6560	576.46
67.6704	560.45
67.6849	591.56
67.6993	554.11
67.7138	543.97
67.7282	545.79
67.7426	579.91
67.7571	593.56
67.7715	567.24
67.7860	573.07
67.8004	564.78
67.8148	596.86
67.8293	547.42
67.8437	544.66
67.8582	581.58
67.8726	547.18
67.8870	558.19
67.9015	588.72
67.9159	576.43
67.9304	553.48
67.9448	582.61
67.9592	563.64
67.9737	556.27
67.9881	583.78
68.0026	562.41
68.0170	571.53
68.0314	552.18
68.0459	607.73
68.0603	570.42
68.0748	581.27
68.0892	576.11
68.1036	556.72
68.1181	546.16
68.1325	600.76
68.1470	565.43
68.1614	570.22
68.1758	590.88
68.1903	571.28
68.2047	602.31
68.2192	603.35
68.2336	572.14
68.2480	565.88
68.2625	578.97
68.2769	578.41
68.2914	569.62
68.3058	592.58
68.3202	575.27
68.3347	593.97
68.3491	572.16
68.3636	548.58
68.3780	530.02
68.3924	537.37
68.4069	580.42
68.4213	568.57
68.4358	564.35
68.4502	514.71
68.4646	606.95
68.4791	541.97
68.4935	579.43
68.5080	565.21
68.5224	548.76
68.5368	575.27
68.5513	595.45
68.5657	570.17
68.5802	567.85
68.5946	576.81
68.6090	615.49
68.6235	585.18
68.6379	574.14
68.6524	589.04
68.6668	600.63
68.6812	548.13
68.6957	563.41
68.7101	590.34
68.7246	602.98
68.7390	593.73
68.7534	566.87
68.7679	582.66
68.7823	575.14
68.7968	557.77
68.8112	535.00
68.8256	575.59
68.8401	621.37
68.8545	571.56
68.8690	562.07
68.8834	554.08
68.8978	606.78
68.9123	569.80
68.9267	582.73
68.9412	556.70
68.9556	569.35
68.9700	542.73
68.9845	554.22
68.9989	577.75
69.0134	550.31
69.0278	556.52
69.0422	591.68
69.0567	547.18
69.0711	541.45
69.0856	596.16
69.1000	563.25
69.1144	569.08
69.1289	558.21
69.1433	565.52
69.1578	579.39
69.1722	597.09
69.1866	564.17
69.2011	579.07
69.2155	606.29
69.2300	556.61
69.2444	562.79
69.2588	533.72
69.2733	561.84
69.2877	564.76
69.3022	576.98
69.3166	549.24
69.3310	571.88
69.3455	580.06
69.3599	558.22
69.3744	567.85
69.3888	617.03
69.4032	561.46
69.4177	603.99
69.4321	614.22
69.4466	567.96
69.4610	544.16
69.4754	568.07
69.4899	614.11
69.5043	539.75
69.5188	546.19
69.5332	530.96
69.5476	584.17
69.5621	575.46
69.5765	573.00
69.5910	595.83
69.6054	593.55
69.6198	581.85
69.6343	560.77
69.6487	536.34
69.6632	590.48
69.6776	608.51
69.6920	556.45
69.7065	601.20
69.7209	569.71
69.7354	545.53
69.7498	591.60
69.7642	581.78
69.7787	565.86
69.7931	534.21
69.8076	556.83
69.8220	598.83
69.8364	569.05
69.8509	569.07
69.8653	553.03
69.8798	541.05
69.8942	607.07
69.9086	606.64
69.9231	573.82
69.9375	629.57
69.9520	619.60
69.9664	591.02
69.9808	624.94
69.9953	599.87
70.0097	599.21
70.0242	557.10
70.0386	581.02
70.0530	512.32
70.0675	558.14
70.0819	578.19
70.0964	553.97
70.1108	576.62
70.1252	528.41
70.1397	532.35
70.1541	588.84
70.1686	594.83
70.1830	581.79
70.1974	579.75
70.2119	567.18
70.2263	575.96
70.2408	548.26
70.2552	557.67
70.2696	572.19
70.2841	561.77
70.2985	591.98
70.3130	550.24
70.3274	521.30
70.3418	600.12
70.3563	627.11
70.3707	593.01
70.3852	617.72
70.3996	558.70
70.4140	553.39
70.4285	631.22
70.4429	608.55
70.4574	580.40
70.4718	591.29
70.4862	566.49
70.5007	553.52
70.5151	588.90
70.5296	547.40
70.5440	550.32
70.5584	568.08
70.5729	525.47
70.5873	527.06
70.6018	531.23
70.6162	585.76
70.6306	549.24
70.6451	513.57
70.6595	608.09
70.6740	626.13
70.6884	572.77
70.7028	600.90
70.7173	569.21
70.7317	570.49
70.7462	604.32
70.7606	593.95
70.7750	579.00
70.7895	575.26
70.8039	558.71
70.8184	586.92
70.8328	587.36
70.8472	540.65
70.8617	597.52
70.8761	598.55
70.8906	599.76
70.9050	585.93
70.9194	554.45
70.9339	596.92
70.9483	622.55
70.9628	590.89
70.9772	553.73
70.9916	565.65
71.0061	605.27
71.0205	628.46
71.0350	602.81
71.0494	608.02
71.0638	592.11
71.0783	593.48
71.0927	607.56
71.1072	554.50
71.1216	568.18
71.1361	587.29
71.1505	562.60
71.1649	594.37
71.1794	616.77
71.1938	624.35
71.2083	587.56
71.2227	517.54
71.2371	536.80
71.2516	563.12
71.2660	600.42
71.2805	572.02
71.2949	582.81
71.3093	605.83
71.3238	584.26
71.3382	618.45
71.3527	595.35
71.3671	550.48
71.3815	519.35
71.3960	568.59
71.4104	623.06
71.4249	600.82
71.4393	622.04
71.4537	578.55
71.4682	603.73
71.4826	592.25
71.4971	566.87
71.5115	545.35
71.5259	610.56
71.5404	542.67
71.5548	596.59
71.5693	608.10
71.5837	598.00
71.5981	563.68
71.6126	531.85
71.6270	596.69
71.6415	573.93
71.6559	565.55
71.6703	589.53
71.6848	569.02
71.6992	591.77
71.7137	605.31
71.7281	572.50
71.7425	583.39
71.7570	599.00
71.7714	607.49
71.7859	609.16
71.8003	610.46
71.8147	577.40
71.8292	555.41
71.8436	576.85
71.8581	556.52
71.8725	581.55
71.8869	542.30
71.9014	622.00
71.9158	595.05
71.9303	518.99
71.9447	598.27
71.9591	623.58
71.9736	574.81
71.9880	540.70
72.0025	586.59
72.0169	576.75
72.0313	539.03
72.0458	481.57
72.0602	473.03
72.0747	552.46
72.0891	600.73
72.1035	614.88
72.1180	605.54
72.1324	589.64
72.1469	578.57
72.1613	479.95
72.1757	545.02
72.1902	539.02
72.2046	491.23
72.2191	506.56
72.2335	537.69
72.2479	545.89
72.2624	526.70
72.2768	559.07
72.2913	597.70
72.3057	616.48
72.3201	595.92
72.3346	513.54
72.3490	526.39
72.3635	506.08
72.3779	524.97
72.3923	580.40
72.4068	623.46
72.4212	617.43
72.4357	615.61
72.4501	606.75
72.4645	564.65
72.4790	611.81
72.4934	624.46
72.5079	561.89
72.5223	588.52
72.5367	588.27
72.5512	620.90
72.5656	617.88
72.5801	626.67
72.5945	553.51
72.6089	504.28
72.6234	528.73
72.6378	522.60
72.6523	556.59
72.6667	593.04
72.6811	645.01
72.6956	572.06
72.7100	547.04
72.7245	643.38
72.7389	644.64
72.7533	584.26
72.7678	585.52
72.7822	559.60
72.7967	511.83
72.8111	551.64
72.8255	562.74
72.8400	529.75
72.8544	611.35
72.8689	596.90
72.8833	523.58

Result vector
22.1120	542.78
22.1264	567.13
22.1409	501.62
22.1553	472.92
22.1697	597.73
22.1842	557.88
22.1986	506.84
22.2131	555.92
22.2275	578.15
22.2419	535.62
22.2564	534.02
22.2708	526.19
22.2853	710.68
22.2997	558.64
22.3141	569.28
22.3286	519.92
22.3430	613.20
22.3575	711.06
22.3719	572.81
22.3863	591.95
22.4008	576.63
22.4152	603.87
22.4297	641.02
22.4441	570.88
22.4585	588.89
22.4730	596.23
22.4874	521.01
22.5019	576.91
22.5163	668.99
22.5307	659.61
22.5452	575.09
22.5596	575.09
22.5741	582.69
22.5885	606.88
22.6029	583.55
22.6174	517.26
22.6318	562.73
22.6463	537.45
22.6607	608.09
22.6751	587.34
22.6896	548.08
22.7040	591.76
22.7185	648.15
22.7329	614.95
22.7473	563.03
22.7618	502.95
22.7762	515.73
22.7907	592.97
22.8051	515.15
22.8195	583.88
22.8340	594.99
22.8484	553.55
22.8629	575.26
22.8773	610.93
22.8917	563.59
22.9062	533.39
22.9206	477.22
22.9351	573.70
22.9495	563.47
22.9639	589.59
22.9784	560.77
22.9928	543.64
23.0073	556.84
23.0217	653.48
23.0361	559.80
23.0506	540.92
23.0650	624.33
23.0795	595.35
23.0939	598.90
23.1083	617.07
23.1228	561.01
23.1372	546.58
23.1517	565.21
23.1661	580.45
23.1806	595.87
23.1950	549.47
23.2094	574.17
23.2239	575.36
23.2383	529.86
23.2528	570.51
23.2672	558.43
23.2816	611.02
23.2961	532.76
23.3105	577.81
23.3250	619.03
23.3394	567.12
23.3538	533.01
23.3683	600.61
23.3827	591.92
23.3972	524.99
23.4116	489.39
23.4260	535.27
23.4405	554.08
23.4549	521.91
23.4694	531.11
23.4838	640.31
23.4982	597.26
23.5127	468.04
23.5271	549.61
23.5416	633.48
23.5560	605.04
23.5704	519.03
23.5849	604.96
23.5993	600.29
23.6138	565.61
23.6282	556.53
23.6426	511.04
23.6571	621.89
23.6715	518.80
23.6860	567.81
23.7004	551.52
23.7148	546.49
23.7293	552.69
23.7437	527.18
23.7582	620.11
23.7726	548.76
23.7870	553.98
23.8015	553.27
23.8159	628.25
23.8304	605.20
23.8448	557.90
23.8592	585.74
23.8737	545.04
23.8881	617.14
23.9026	569.09
23.9170	526.63
23.9314	509.11
23.9459	560.46
23.9603	576.40
23.9748	622.08
23.9892	501.93
24.0036	577.27
24.0181	531.59
24.0325	601.90
24.0470	549.50
24.0614	535.68
24.0758	524.18
24.0903	661.23
24.1047	547.12
24.1192	576.12
24.1336	550.74
24.1480	554.83
24.1625	544.88
24.1769	547.28
24.1914	560.75
24.2058	611.48
24.2202	622.65
24.2347	635.23
24.2491	525.41
24.2636	641.45
24.2780	579.28
24.2924	555.87
24.3069	569.11
24.3213	540.00
24.3358	560.28
24.3502	551.07
24.3646	586.70
24.3791	533.18
24.3935	546.43
24.4080	574.90
24.4224	558.70
24.4368	542.04
24.4513	523.42
24.4657	549.68
24.4802	546.19
24.4946	563.28
24.5090	519.11
24.5235	537.36
24.5379	558.80
24.5524	562.41
24.5668	573.84
24.5812	595.18
24.5957	577.74
24.6101	556.81
24.6246	510.16
24.6390	499.18
24.6534	516.86
24.6679	556.05
24.6823	519.70
24.6968	521.37
24.7112	558.57
24.7256	543.56
24.7401	579.19
24.7545	552.77
24.7690	534.67
24.7834	511.99
24.7978	572.44
24.8123	563.72
24.8267	608.45
24.8412	541.84
24.8556	559.63
24.8700	623.49
24.8845	581.24
24.8989	540.67
24.9134	561.28
24.9278	533.05
24.9422	515.58
24.9567	561.51
24.9711	508.78
24.9856	540.06
25.0000	554.50
25.0144	641.54
25.0289	601.70
25.0433	562.78
25.0578	561.13
25.0722	548.06
25.0866	573.98
25.1011	540.21
25.1155	538.15
25.1300	575.54
25.1444	527.17
25.1588	580.49
25.1733	560.70
25.1877	519.88
25.2022	532.08
25.2166	545.32
25.2310	528.44
25.2455	532.44
25.2599	525.24
25.2744	507.20
25.2888	544.65
25.3032	537.06
25.3177	540.23
25.3321	554.20
25.3466	533.30
25.3610	517.26
25.3754	560.42
25.3899	535.87
25.4043	513.28
25.4188	509.69
25.4332	525.88
25.4476	551.88
25.4621	566.47
25.4765	546.53
25.4910	544.42
25.5054	539.35
25.5198	576.24
25.5343	574.82
25.5487	593.02
25.5632	544.52
25.5776	540.24
25.5920	492.04
25.6065	537.15
25.6209	563.53
25.6354	552.26
25.6498	545.66
25.6642	543.21
25.6787	527.95
25.6931	516.30
25.7076	552.85
25.7220	581.07
25.7364	579.41
25.7509	582.58
25.7653	576.62
25.7798	559.96
25.7942	576.16
25.8086	522.41
25.8231	504.25
25.8375	537.57
25.8520	508.96
25.8664	527.53
25.8808	541.07
25.8953	572.05
25.9097	539.32
25.9242	541.40
25.9386	533.15
25.9530	534.73
25.9675	524.00
25.9819	513.35
25.9964	497.31
26.0108	524.72
26.0252	537.30
26.0397	552.20
26.0541	562.09
26.0686	572.61
26.0830	532.65
26.0974	508.48
26.1119	529.34
26.1263	516.29
26.1408	522.87
26.1552	514.37
26.1696	545.27
26.1841	505.28
26.1985	528.79
26.2130	528.47
26.2274	482.97
26.2418	527.39
26.2563	536.28
26.2707	520.01
26.2852	517.94
26.2996	530.85
26.3140	531.95
26.3285	537.68
26.3429	562.44
26.3574	516.32
26.3718	518.57
26.3862	525.09
26.4007	533.13
26.4151	529.93
26.4296	572.86
26.4440	538.78
26.4584	530.82
26.4729	557.69
26.4873	545.73
26.5018	523.74
26.5162	562.87
26.5306	558.09
26.5451	549.09
26.5595	561.12
26.5740	560.49
26.5884	535.96
26.6028	533.04
26.6173	545.75
26.6317	583.96
26.6462	564.12
26.6606	543.49
26.6750	515.27
26.6895	555.42
26.7039	537.74
26.7184	517.76
26.7328	514.38
26.7472	556.49
26.7617	513.79
26.7761	505.31
26.7906	548.46
26.8050	552.25
26.8194	546.16
26.8339	561.80
26.8483	540.67
26.8628	558.90
26.8772	519.16
26.8917	503.01
26.9061	514.09
26.9205	523.21
26.9350	520.56
26.9494	522.04
26.9639	516.73
26.9783	541.92
26.9927	534.37
27.0072	545.94
27.0216	523.85
27.0361	499.66
27.0505	536.11
27.0649	554.97
27.0794	541.91
27.0938	543.63
27.1083	548.33
27.1227	502.24
27.1371	497.11
27.1516	520.30
27.1660	535.95
27.1805	530.45
27.1949	507.08
27.2093	539.19
27.2238	530.31
27.2382	520.45
27.2527	521.18
27.2671	523.43
27.2815	525.99
27.2960	525.67
27.3104	540.40
27.3249	536.20
27.3393	534.05
27.3537	533.33
27.3682	519.93
27.3826	510.51
27.3971	514.57
27.4115	494.79
27.4259	519.53
27.4404	533.44
27.4548	531.38
27.4693	524.03
27.4837	492.03
27.4981	476.05
27.5126	527.00
27.5270	540.79
27.5415	516.70
27.5559	521.15
27.5703	530.37
27.5848	532.73
27.5992	532.65
27.6137	517.32
27.6281	555.08
27.6425	544.44
27.6570	507.33
27.6714	515.42
27.6859	516.91
27.7003	546.17
27.7147	549.06
27.7292	525.52
27.7436	526.23
27.7581	515.16
27.7725	501.02
27.7869	532.38
27.8014	538.26
27.8158	537.34
27.8303	538.61
27.8447	540.56
27.8591	526.22
27.8736	566.61
27.8880	521.50
27.9025	536.72
27.9169	552.32
27.9313	498.07
27.9458	529.75
27.9602	526.91
27.9747	497.80
27.9891	536.76
28.0035	498.51
28.0180	508.10
28.0324	579.85
28.0469	553.40
28.0613	523.85
28.0757	518.91
28.0902	506.84
28.1046	505.17
28.1191	514.94
28.1335	512.25
28.1479	504.57
28.1624	524.62
28.1768	519.92
28.1913	509.62
28.2057	489.69
28.2201	481.15
28.2346	500.40
28.2490	557.99
28.2635	539.09
28.2779	543.59
28.2923	551.45
28.3068	528.41
28.3212	511.09
28.3357	545.51
28.3501	535.67
28.3645	514.67
28.3790	502.08
28.3934	514.50
28.4079	511.72
28.4223	540.83
28.4367	529.78
28.4512	533.54
28.4656	489.55
28.4801	488.88
28.4945	508.61
28.5089	512.52
28.5234	520.75
28.5378	516.30
28.5523	511.14
28.5667	534.07
28.5811	517.70
28.5956	550.94
28.6100	530.31
28.6245	523.59
28.6389	494.77
28.6533	485.73
28.6678	507.59
28.6822	488.02
28.6967	492.65
28.7111	541.61
28.7255	520.92
28.7400	518.15
28.7544	527.05
28.7689	512.37
28.7833	489.10
28.7977	512.43
28.8122	496.58
28.8266	475.39
28.8411	477.45
28.8555	487.64
28.8699	506.80
28.8844	545.82
28.8988	525.13
28.9133	512.77
28.9277	490.57
28.9421	498.10
28.9566	498.39
28.9710	527.28
28.9855	483.32
28.9999	483.21
29.0143	480.97
29.0288	524.66
29.0432	554.67
29.0577	526.37
29.0721	512.41
29.0865	531.99
29.1010	514.29
29.1154	511.63
29.1299	517.38
29.1443	521.13
29.1587	508.69
29.1732	520.04
29.1876	521.56
29.2021	494.60
29.2165	520.87
29.2309	512.95
29.2454	526.67
29.2598	524.90
29.2743	525.00
29.2887	487.55
29.3031	499.90
29.3176	516.12
29.3320	527.80
29.3465	540.17
29.3609	530.30
29.3753	509.39
29.3898	500.85
29.4042	527.36
29.4187	487.81
29.4331	534.43
29.4475	517.95
29.4620	512.35
29.4764	492.39
29.4909	527.27
29.5053	524.66
29.5197	492.84
29.5342	514.33
29.5486	465.47
29.5631	522.90
29.5775	498.10
29.5919	503.14
29.6064	518.48
29.6208	529.06
29.6353	502.63
29.6497	506.38
29.6641	463.49
29.6786	494.40
29.6930	500.60
29.7075	517.24
29.7219	502.93
29.7363	521.13
29.7508	523.39
29.7652	483.94
29.7797	512.26
29.7941	536.10
29.8085	514.84
29.8230	526.70
29.8374	496.20
29.8519	529.37
29.8663	542.31
29.8807	486.23
29.8952	502.80
29.9096	522.94
29.9241	529.14
29.9385	537.32
29.9529	506.48
29.9674	511.38
29.9818	500.46
29.9963	517.97
30.0107	506.58
30.0251	514.48
30.0396	539.85
30.0540	540.55
30.0685	522.62
30.0829	509.61
30.0973	516.97
30.1118	523.56
30.1262	514.84
30.1407	517.37
30.1551	509.19
30.1695	525.80
30.1840	492.40
30.1984	477.60
30.2129	487.01
30.2273	520.73
30.2417	497.80
30.2562	499.94
30.2706	498.68
30.2851	513.02
30.2995	480.63
30.3139	489.79
30.3284	505.14
30.3428	555.97
30.3573	523.99
30.3717	542.40
30.3861	528.06
30.4006	486.48
30.4150	492.95
30.4295	502.93
30.4439	504.71
30.4583	530.12
30.4728	518.25
30.4872	516.33
30.5017	526.64
30.5161	524.60
30.5305	555.23
30.5450	521.05
30.5594	525.40
30.5739	531.77
30.5883	540.92
30.6028	530.29
30.6172	542.73
30.6316	560.75
30.6461	610.94
30.6605	676.80
30.6750	656.91
30.6894	653.90
30.7038	696.62
30.7183	717.24
30.7327	714.79
30.7472	734.06
30.7616	727.30
30.7760	737.32
30.7905	705.49
30.8049	655.42
30.8194	626.74
30.8338	616.01
30.8482	642.32
30.8627	606.70
30.8771	580.00
30.8916	526.66
30.9060	535.91
30.9204	523.84
30.9349	528.44
30.9493	535.99
30.9638	526.96
30.9782	540.28
30.9926	552.32
31.0071	544.46
31.0215	534.06
31.0360	515.02
31.0504	508.83
31.0648	497.44
31.0793	501.63
31.0937	519.77
31.1082	511.61
31.1226	527.11
31.1370	500.72
31.1515	516.91
31.1659	550.18
31.1804	525.86
31.1948	508.96
31.2092	526.10
31.2237	553.33
31.2381	543.32
31.2526	528.09
31.2670	534.47
31.2814	546.79
31.2959	553.44
31.3103	537.18
31.3248	548.48
31.3392	559.34
31.3536	553.41
31.3681	509.83
31.3825	517.46
31.3970	478.27
31.4114	493.72
31.4258	531.29
31.4403	538.75
31.4547	514.66
31.4692	535.85
31.4836	534.33
31.4980	500.46
31.5125	515.17
31.5269	517.09
31.5414	512.92
31.5558	524.91
31.5702	524.41
31.5847	454.76
31.5991	513.17
31.6136	527.44
31.6280	509.33
31.6424	527.31
31.6569	531.86
31.6713	496.14
31.6858	484.11
31.7002	509.71
31.7146	478.07
31.7291	473.58
31.7435	481.10
31.7580	518.69
31.7724	495.06
31.7868	559.76
31.8013	500.19
31.8157	509.68
31.8302	483.82
31.8446	445.74
31.8590	493.68
31.8735	491.49
31.8879	496.20
31.9024	513.46
31.9168	520.86
31.9312	516.89
31.9457	518.68
31.9601	493.76
31.9746	511.34
31.9890	505.85
32.0034	511.99
32.0179	505.05
32.0323	494.72
32.0468	530.63
32.0612	509.43
32.0756	484.88
32.0901	496.04
32.1045	487.55
32.1190	507.22
32.1334	538.94
32.1478	500.51
32.1623	512.89
32.1767	500.42
32.1912	523.12
32.2056	543.29
32.2200	508.80
32.2345	501.83
32.2489	507.83
32.2634	530.41
32.2778	519.52
32.2922	510.96
32.3067	500.48
32.3211	505.21
32.3356	514.96
32.3500	513.09
32.3644	531.52
32.3789	502.18
32.3933	495.71
32.4078	490.01
32.4222	530.77
32.4366	505.98
32.4511	530.72
32.4655	508.26
32.4800	549.59
32.4944	535.38
32.5088	479.41
32.5233	516.96
32.5377	542.28
32.5522	510.00
32.5666	514.68
32.5810	500.04
32.5955	506.63
32.6099	501.57
32.6244	473.82
32.6388	502.33
32.6532	513.37
32.6677	518.33
32.6821	504.16
32.6966	499.94
32.7110	514.83
32.7254	490.29
32.7399	485.66
32.7543	498.05
32.7688	505.35
32.7832	521.58
32.7976	483.87
32.8121	504.31
32.8265	496.30
32.8410	498.45
32.8554	515.10
32.8698	528.40
32.8843	516.29
32.8987	516.04
32.9132	499.42
32.9276	511.42
32.9420	527.33
32.9565	515.15
32.9709	518.50
32.9854	476.90
32.9998	500.14
33.0142	515.20
33.0287	508.32
33.0431	512.30
33.0576	518.55
33.0720	535.96
33.0864	535.01
33.1009	469.16
33.1153	504.55
33.1298	522.23
33.1442	503.04
33.1586	494.07
33.1731	494.99
33.1875	484.57
33.2020	481.00
33.2164	524.06
33.2308	500.57
33.2453	486.18
33.2597	472.76
33.2742	484.09
33.2886	471.20
33.3030	509.62
33.3175	529.03
33.3319	499.67
33.3464	492.25
33.3608	505.16
33.3752	503.20
33.3897	470.73
33.4041	489.46
33.4186	497.75
33.4330	506.81
33.4474	481.68
33.4619	515.36
33.4763	521.60
33.4908	513.35
33.5052	488.15
33.5196	510.60
33.5341	507.05
33.5485	525.62
33.5630	521.20
33.5774	497.67
33.5918	500.96
33.6063	522.96
33.6207	508.42
33.6352	490.97
33.6496	498.06
33.6640	538.32
33.6785	512.01
33.6929	540.15
33.7074	530.68
33.7218	503.76
33.7362	466.86
33.7507	486.21
33.7651	468.03
33.7796	497.51
33.7940	503.72
33.8084	539.95
33.8229	525.85
33.8373	515.60
33.8518	492.22
33.8662	509.96
33.8806	545.61
33.8951	501.12
33.9095	497.46
33.9240	528.32
33.9384	516.88
33.9528	513.05
33.9673	505.42
33.9817	530.86
33.9962	529.84
34.0106	502.88
34.0250	507.90
34.0395	504.32
34.0539	506.09
34.0684	550.80
34.0828	547.90
34.0972	515.83
34.1117	480.11
34.1261	539.52
34.1406	536.57
34.1550	494.26
34.1694	536.16
34.1839	474.41
34.1983	504.16
34.2128	517.23
34.2272	544.31
34.2417	509.28
34.2561	517.92
34.2705	508.60
34.2850	516.97
34.2994	521.79
34.3139	526.39
34.3283	534.82
34.3427	485.49
34.3572	494.00
34.3716	482.18
34.3861	489.53
34.4005	503.29
34.4149	500.29
34.4294	508.53
34.4438	501.76
34.4583	502.74
34.4727	502.49
34.4871	500.51
34.5016	522.30
34.5160	506.17
34.5305	508.16
34.5449	553.18
34.5593	533.95
34.5738	528.66
34.5882	527.36
34.6027	541.33
34.6171	497.18
34.6315	507.69
34.6460	516.14
34.6604	491.37
34.6749	505.73
34.6893	491.65
34.7037	506.31
34.7182	517.64
34.7326	479.92
34.7471	474.16
34.7615	511.35
34.7759	510.19
34.7904	527.12
34.8048	545.15
34.8193	530.31
34.8337	519.68
34.8481	513.59
34.8626	512.93
34.8770	511.54
34.8915	523.54
34.9059	508.80
34.9203	501.35
34.9348	510.40
34.9492	495.32
34.9637	484.79
34.9781	516.10
34.9925	525.87
35.0070	507.86
35.0214	512.74
35.0359	534.02
35.0503	540.24
35.0647	522.29
35.0792	515.66
35.0936	546.14
35.1081	526.96
35.1225	533.87
35.1369	495.30
35.1514	469.98
35.1658	521.50
35.1803	528.91
35.1947	486.09
35.2091	480.50
35.2236	505.41
35.2380	484.70
35.2525	525.96
35.2669	516.94
35.2813	499.06
35.2958	525.74
35.3102	531.69
35.3247	523.33
35.3391	516.94
35.3535	490.07
35.3680	508.46
35.3824	528.86
35.3969	523.34
35.4113	502.46
35.4257	543.18
35.4402	529.91
35.4546	510.15
35.4691	549.60
35.4835	533.83
35.4979	535.33
35.5124	527.41
35.5268	538.12
35.5413	530.44
35.5557	490.98
35.5701	511.03
35.5846	526.38
35.5990	520.82
35.6135	524.11
35.6279	520.31
35.6423	513.87
35.6568	521.33
35.6712	521.37
35.6857	566.90
35.7001	646.60
35.7145	700.14
35.7290	664.10
35.7434	611.65
35.7579	580.11
35.7723	585.93
35.7867	610.22
35.8012	639.72
35.8156	653.78
35.8301	639.30
35.8445	620.79
35.8589	662.59
35.8734	760.42
35.8878	860.25
35.9023	1011.22
35.9167	1037.80
35.9311	1347.42
35.9456	2073.65
35.9600	2411.98
35.9745	1958.98
35.9889	1922.98
36.0033	2358.71
36.0178	2443.70
36.0322	2114.09
36.0467	1991.86
36.0611	1731.86
36.0755	1718.91
36.0900	1778.53
36.1044	1681.08
36.1189	1627.29
36.1333	1594.31
36.1477	1391.60
36.1622	1446.43
36.1766	1416.45
36.1911	1297.39
36.2055	1146.90
36.2199	1070.52
36.2344	1037.42
36.2488	1000.95
36.2633	988.45
36.2777	856.01
36.2921	849.81
36.3066	865.18
36.3210	781.66
36.3355	721.34
36.3499	643.28
36.3643	633.77
36.3788	621.64
36.3932	584.69
36.4077	565.78
36.4221	605.40
36.4365	573.52
36.4510	562.09
36.4654	572.29
36.4799	559.74
36.4943	547.78
36.5087	566.47
36.5232	549.64
36.5376	572.90
36.5521	540.22
36.5665	543.23
36.5809	549.23
36.5954	542.80
36.6098	522.55
36.6243	519.34
36.6387	536.91
36.6531	552.43
36.6676	524.04
36.6820	508.25
36.6965	546.64
36.7109	514.20
36.7253	512.14
36.7398	503.31
36.7542	557.38
36.7687	559.97
36.7831	581.52
36.7975	560.57
36.8120	571.64
36.8264	564.40
36.8409	568.34
36.8553	582.49
36.8697	594.92
36.8842	570.39
36.8986	618.05
36.9131	595.61
36.9275	578.02
36.9419	549.68
36.9564	569.16
36.9708	577.28
36.9853	575.51
36.9997	585.36
37.0141	549.61
37.0286	517.44
37.0430	516.79
37.0575	517.74
37.0719	504.47
37.0863	530.58
37.1008	519.78
37.1152	528.19
37.1297	517.82
37.1441	525.59
37.1585	524.77
37.1730	512.60
37.1874	508.76
37.2019	499.48
37.2163	523.59
37.2307	476.38
37.2452	539.09
37.2596	519.75
37.2741	499.09
37.2885	504.22
37.3029	511.38
37.3174	510.56
37.3318	519.29
37.3463	512.58
37.3607	523.86
37.3751	460.60
37.3896	443.77
37.4040	503.87
37.4185	554.09
37.4329	547.69
37.4473	490.99
37.4618	534.09
37.4762	513.30
37.4907	511.87
37.5051	486.41
37.5195	495.55
37.5340	513.52
37.5484	516.91
37.5629	500.56
37.5773	513.45
37.5917	550.11
37.6062	529.54
37.6206	522.51
37.6351	501.47
37.6495	537.76
37.6639	496.59
37.6784	485.69
37.6928	530.25
37.7073	509.32
37.7217	530.43
37.7361	514.50
37.7506	539.19
37.7650	506.60
37.7795	530.01
37.7939	545.60
37.8083	522.36
37.8228	533.35
37.8372	556.44
37.8517	506.36
37.8661	507.42
37.8805	518.19
37.8950	507.97
37.9094	519.67
37.9239	505.18
37.9383	539.89
37.9528	503.70
37.9672	514.14
37.9816	483.82
37.9961	488.22
38.0105	496.12
38.0250	505.14
38.0394	507.42
38.0538	523.31
38.0683	512.91
38.0827	516.82
38.0972	486.48
38.1116	471.73
38.1260	531.61
38.1405	508.83
38.1549	498.09
38.1694	515.36
38.1838	494.74
38.1982	495.71
38.2127	507.91
38.2271	488.96
38.2416	519.12
38.2560	498.10
38.2704	488.27
38.2849	507.42
38.2993	526.73
38.3138	493.03
38.3282	514.37
38.3426	532.06
38.3571	519.12
38.3715	523.58
38.3860	526.32
38.4004	539.32
38.4148	534.77
38.4293	591.23
38.4437	576.52
38.4582	597.30
38.4726	649.94
38.4870	693.24
38.5015	758.56
38.5159	810.70
38.5304	806.75
38.5448	796.10
38.5592	735.62
38.5737	732.69
38.5881	774.58
38.6026	711.88
38.6170	688.15
38.6314	692.99
38.6459	678.82
38.6603	633.63
38.6748	603.59
38.6892	584.69
38.7036	551.97
38.7181	527.17
38.7325	521.28
38.7470	521.47
38.7614	499.74
38.7758	510.36
38.7903	492.79
38.8047	510.69
38.8192	539.62
38.8336	528.03
38.8480	505.75
38.8625	524.38
38.8769	506.99
38.8914	503.30
38.9058	520.60
38.9202	482.75
38.9347	504.66
38.9491	527.83
38.9636	503.91
38.9780	497.51
38.9924	497.37
39.0069	496.12
39.0213	489.55
39.0358	494.92
39.0502	518.89
39.0646	511.70
39.0791	529.06
39.0935	531.95
39.1080	510.56
39.1224	507.93
39.1368	474.82
39.1513	482.90
39.1657	483.46
39.1802	517.29
39.1946	531.72
39.2090	525.16
39.2235	503.11
39.2379	514.71
39.2524	512.01
39.2668	517.75
39.2812	520.82
39.2957	511.61
39.3101	506.01
39.3246	541.33
39.3390	524.89
39.3534	492.91
39.3679	506.81
39.3823	497.36
39.3968	496.99
39.4112	510.80
39.4256	528.00
39.4401	519.08
39.4545	450.22
39.4690	490.88
39.4834	479.55
39.4978	500.16
39.5123	527.43
39.5267	510.28
39.5412	499.74
39.5556	536.05
39.5700	538.69
39.5845	512.82
39.5989	518.62
39.6134	496.44
39.6278	491.36
39.6422	518.09
39.6567	506.60
39.6711	493.83
39.6856	528.55
39.7000	505.94
39.7144	497.45
39.7289	484.00
39.7433	478.85
39.7578	508.41
39.7722	488.07
39.7866	493.33
39.8011	506.58
39.8155	505.62
39.8300	506.24
39.8444	486.30
39.8588	525.00
39.8733	500.65
39.8877	493.53
39.9022	543.60
39.9166	472.96
39.9310	472.79
39.9455	491.25
39.9599	482.15
39.9744	497.48
39.9888	511.25
40.0032	517.70
40.0177	497.77
40.0321	502.35
40.0466	494.88
40.0610	475.22
40.0754	469.99
40.0899	514.07
40.1043	486.43
40.1188	496.64
40.1332	488.05
40.1476	477.64
40.1621	504.22
40.1765	481.08
40.1910	511.22
40.2054	500.38
40.2198	528.59
40.2343	502.82
40.2487	512.99
40.2632	477.48
40.2776	494.18
40.2920	510.45
40.3065	456.96
40.3209	484.18
40.3354	498.31
40.3498	531.69
40.3642	496.90
40.3787	495.19
40.3931	484.55
40.4076	476.60
40.4220	504.26
40.4364	491.94
40.4509	495.03
40.4653	481.81
40.4798	489.28
40.4942	539.34
40.5086	485.60
40.5231	463.63
40.5375	511.35
40.5520	504.84
40.5664	495.24
40.5808	494.39
40.5953	471.84
40.6097	502.69
40.6242	473.77
40.6386	533.98
40.6530	490.92
40.6675	494.01
40.6819	474.08
40.6964	486.30
40.7108	480.25
40.7252	525.42
40.7397	518.37
40.7541	496.55
40.7686	473.30
40.7830	516.36
40.7974	527.98
40.8119	502.51
40.8263	500.58
40.8408	497.99
40.8552	507.10
40.8696	511.34
40.8841	514.35
40.8985	510.58
40.9130	489.25
40.9274	467.86
40.9418	503.92
40.9563	518.09
40.9707	499.69
40.9852	498.90
40.9996	505.98
41.0140	471.42
41.0285	497.45
41.0429	497.67
41.0574	511.05
41.0718	493.04
41.0862	524.76
41.1007	489.34
41.1151	512.92
41.1296	497.78
41.1440	460.76
41.1584	464.20
41.1729	501.23
41.1873	531.64
41.2018	478.08
41.2162	470.16
41.2306	471.26
41.2451	494.82
41.2595	474.47
41.2740	523.28
41.2884	548.85
41.3028	554.84
41.3173	518.75
41.3317	500.92
41.3462	469.90
41.3606	485.54
41.3750	459.23
41.3895	493.87
41.4039	478.06
41.4184	483.64
41.4328	511.31
41.4472	468.49
41.4617	477.57
41.4761	505.81
41.4906	538.67
41.5050	499.35
41.5194	480.44
41.5339	468.05
41.5483	508.98
41.5628	504.17
41.5772	489.28
41.5916	476.97
41.6061	497.64
41.6205	498.05
41.6350	502.22
41.6494	517.80
41.6639	494.31
41.6783	489.56
41.6927	484.98
41.7072	510.73
41.7216	486.28
41.7361	508.33
41.7505	483.11
41.7649	501.86
41.7794	503.09
41.7938	513.69
41.8083	494.83
41.8227	537.92
41.8371	531.17
41.8516	558.58
41.8660	532.14
41.8805	527.54
41.8949	569.45
41.9093	597.72
41.9238	549.24
41.9382	581.54
41.9527	564.00
41.9671	556.45
41.9815	576.78
41.9960	534.04
42.0104	560.40
42.0249	571.21
42.0393	549.32
42.0537	580.64
42.0682	584.59
42.0826	581.96
42.0971	546.27
42.1115	571.70
42.1259	609.95
42.1404	572.42
42.1548	608.44
42.1693	658.87
42.1837	671.67
42.1981	738.19
42.2126	838.26
42.2270	916.19
42.2415	1061.50
42.2559	1152.63
42.2703	1291.77
42.2848	1479.93
42.2992	1592.45
42.3137	1654.98
42.3281	1641.65
42.3425	1528.96
42.3570	1437.59
42.3714	1397.46
42.3859	1392.58
42.4003	1304.75
42.4147	1280.55
42.4292	1283.60
42.4436	1166.01
42.4581	1058.80
42.4725	925.53
42.4869	836.86
42.5014	758.65
42.5158	689.58
42.5303	655.17
42.5447	638.21
42.5591	631.27
42.5736	607.82
42.5880	568.83
42.6025	571.15
42.6169	558.37
42.6313	492.80
42.6458	531.49
42.6602	546.22
42.6747	536.70
42.6891	525.90
42.7035	545.52
42.7180	531.37
42.7324	507.88
42.7469	520.14
42.7613	518.51
42.7757	539.37
42.7902	519.82
42.8046	522.60
42.8191	524.30
42.8335	504.71
42.8479	506.94
42.8624	511.37
42.8768	523.03
42.8913	508.02
42.9057	518.10
42.9201	528.10
42.9346	546.92
42.9490	513.40
42.9635	504.08
42.9779	469.08
42.9923	471.47
43.0068	513.42
43.0212	527.41
43.0357	467.63
43.0501	476.18
43.0645	525.50
43.0790	519.64
43.0934	539.67
43.1079	541.01
43.1223	565.98
43.1367	523.32
43.1512	471.27
43.1656	549.48
43.1801	539.52
43.1945	495.66
43.2089	494.29
43.2234	533.96
43.2378	535.09
43.2523	516.76
43.2667	521.68
43.2811	543.76
43.2956	513.30
43.3100	553.10
43.3245	525.18
43.3389	519.88
43.3533	526.68
43.3678	504.19
43.3822	471.91
43.3967	496.16
43.4111	502.83
43.4255	517.38
43.4400	529.10
43.4544	505.42
43.4689	513.98
43.4833	529.79
43.4977	515.55
43.5122	483.32
43.5266	494.03
43.5411	492.64
43.5555	503.51
43.5699	507.95
43.5844	512.79
43.5988	543.75
43.6133	523.75
43.6277	502.08
43.6421	514.56
43.6566	539.93
43.6710	530.05
43.6855	496.69
43.6999	517.61
43.7143	551.97
43.7288	551.54
43.7432	517.97
43.7577	539.24
43.7721	529.87
43.7865	531.37
43.8010	523.96
43.8154	536.73
43.8299	534.45
43.8443	497.64
43.8587	506.74
43.8732	533.20
43.8876	565.42
43.9021	599.79
43.9165	592.95
43.9309	615.66
43.9454	661.02
43.9598	628.24
43.9743	577.11
43.9887	606.89
44.0031	619.67
44.0176	704.59
44.0320	633.68
44.0465	587.92
44.0609	639.88
44.0753	622.75
44.0898	621.08
44.1042	606.68
44.1187	591.06
44.1331	569.06
44.1475	550.65
44.1620	546.46
44.1764	522.51
44.1909	527.82
44.2053	514.15
44.2197	542.08
44.2342	529.54
44.2486	526.23
44.2631	526.40
44.2775	522.20
44.2919	536.76
44.3064	538.13
44.3208	549.62
44.3353	562.14
44.3497	562.31
44.3641	583.89
44.3786	521.85
44.3930	514.19
44.4075	568.27
44.4219	583.18
44.4363	577.86
44.4508	538.95
44.4652	598.62
44.4797	605.14
44.4941	587.34
44.5085	569.02
44.5230	555.30
44.5374	557.31
44.5519	574.17
44.5663	595.70
44.5807	590.37
44.5952	601.04
44.6096	555.09
44.6241	577.38
44.6385	566.99
44.6529	597.32
44.6674	595.61
44.6818	553.12
44.6963	627.06
44.7107	672.50
44.7251	691.35
44.7396	764.26
44.7540	800.03
44.7685	820.86
44.7829	924.21
44.7973	892.90
44.8118	835.73
44.8262	800.24
44.8407	729.40
44.8551	755.63
44.8695	738.47
44.8840	742.60
44.8984	770.78
44.9129	774.55
44.9273	703.95
44.9417	640.90
44.9562	568.22
44.9706	588.43
44.9851	581.54
44.9995	572.52
45.0139	523.87
45.0284	506.35
45.0428	529.58
45.0573	514.48
45.0717	538.25
45.0861	522.34
45.1006	518.27
45.1150	532.80
45.1295	503.10
45.1439	497.56
45.1583	548.60
45.1728	554.64
45.1872	490.28
45.2017	527.68
45.2161	531.80
45.2305	514.79
45.2450	518.98
45.2594	520.73
45.2739	512.41
45.2883	498.31
45.3028	510.85
45.3172	540.50
45.3316	530.77
45.3461	517.01
45.3605	494.81
45.3750	488.67
45.3894	472.59
45.4038	502.60
45.4183	493.28
45.4327	493.67
45.4472	498.22
45.4616	493.62
45.4760	536.25
45.4905	515.37
45.5049	487.85
45.5194	520.99
45.5338	506.58
45.5482	497.36
45.5627	536.44
45.5771	492.12
45.5916	486.02
45.6060	509.34
45.6204	515.72
45.6349	523.14
45.6493	519.96
45.6638	506.82
45.6782	533.41
45.6926	500.90
45.7071	519.12
45.7215	477.37
45.7360	479.04
45.7504	494.48
45.7648	486.54
45.7793	547.63
45.7937	556.43
45.8082	506.34
45.8226	502.40
45.8370	524.87
45.8515	500.97
45.8659	513.70
45.8804	530.08
45.8948	504.15
45.9092	511.61
45.9237	517.68
45.9381	505.01
45.9526	482.58
45.9670	496.80
45.9814	498.51
45.9959	509.77
46.0103	469.79
46.0248	547.63
46.0392	544.72
46.0536	531.10
46.0681	495.29
46.0825	487.18
46.0970	513.88
46.1114	500.73
46.1258	535.31
46.1403	504.92
46.1547	493.47
46.1692	498.42
46.1836	523.83
46.1980	489.18
46.2125	522.02
46.2269	518.80
46.2414	519.60
46.2558	538.81
46.2702	483.22
46.2847	493.76
46.2991	462.71
46.3136	501.24
46.3280	491.55
46.3424	523.47
46.3569	498.68
46.3713	488.93
46.3858	488.87
46.4002	503.26
46.4146	515.94
46.4291	515.67
46.4435	502.96
46.4580	482.56
46.4724	508.35
46.4868	512.45
46.5013	518.38
46.5157	515.60
46.5302	538.46
46.5446	538.51
46.5590	535.08
46.5735	510.22
46.5879	495.60
46.6024	514.85
46.6168	492.04
46.6312	507.63
46.6457	520.52
46.6601	487.29
46.6746	490.02
46.6890	497.18
46.7034	515.72
46.7179	513.82
46.7323	506.37
46.7468	524.25
46.7612	507.84
46.7756	532.93
46.7901	542.19
46.8045	505.58
46.8190	499.19
46.8334	539.66
46.8478	519.64
46.8623	507.87
46.8767	492.04
46.8912	478.91
46.9056	510.25
46.9200	536.61
46.9345	526.50
46.9489	545.88
46.9634	522.72
46.9778	489.15
46.9922	482.59
47.0067	507.65
47.0211	514.45
47.0356	482.67
47.0500	473.82
47.0644	526.96
47.0789	539.32
47.0933	538.82
47.1078	510.75
47.1222	491.27
47.1366	525.37
47.1511	526.22
47.1655	526.59
47.1800	511.85
47.1944	506.75
47.2088	499.34
47.2233	534.03
47.2377	529.16
47.2522	523.63
47.2666	502.72
47.2810	515.26
47.2955	516.33
47.3099	515.41
47.3244	500.70
47.3388	487.06
47.3532	482.68
47.3677	496.34
47.3821	491.14
47.3966	458.21
47.4110	470.01
47.4254	501.38
47.4399	515.89
47.4543	515.54
47.4688	525.37
47.4832	514.64
47.4976	509.80
47.5121	504.26
47.5265	529.69
47.5410	531.15
47.5554	513.55
47.5698	483.50
47.5843	516.02
47.5987	523.14
47.6132	519.98
47.6276	494.91
47.6420	517.03
47.6565	506.23
47.6709	510.94
47.6854	539.59
47.6998	547.69
47.7142	509.73
47.7287	507.16
47.7431	463.52
47.7576	525.83
47.7720	490.05
47.7864	478.63
47.8009	487.54
47.8153	514.61
47.8298	484.68
47.8442	487.70
47.8586	495.27
47.8731	520.78
47.8875	534.71
47.9020	520.88
47.9164	499.23
47.9308	534.95
47.9453	495.06
47.9597	511.69
47.9742	497.01
47.9886	474.98
48.0030	504.39
48.0175	489.76
48.0319	460.53
48.0464	536.88
48.0608	514.93
48.0752	487.37
48.0897	509.01
48.1041	471.00
48.1186	495.42
48.1330	526.15
48.1474	485.07
48.1619	476.63
48.1763	489.33
48.1908	507.08
48.2052	504.55
48.2196	518.45
48.2341	502.87
48.2485	533.66
48.2630	515.68
48.2774	530.06
48.2918	503.43
48.3063	501.06
48.3207	510.56
48.3352	521.07
48.3496	500.88
48.3640	498.56
48.3785	507.02
48.3929	523.77
48.4074	505.85
48.4218	550.30
48.4362	480.00
48.4507	526.07
48.4651	530.74
48.4796	514.90
48.4940	512.87
48.5084	501.53
48.5229	504.53
48.5373	551.42
48.5518	539.40
48.5662	517.77
48.5806	529.73
48.5951	517.35
48.6095	521.90
48.6240	531.17
48.6384	530.04
48.6528	488.37
48.6673	530.59
48.6817	511.24
48.6962	497.36
48.7106	521.44
48.7250	516.63
48.7395	511.46
48.7539	542.76
48.7684	529.43
48.7828	497.93
48.7972	524.10
48.8117	511.15
48.8261	532.17
48.8406	524.50
48.8550	504.43
48.8694	539.85
48.8839	519.91
48.8983	606.34
48.9128	548.37
48.9272	543.15
48.9416	569.46
48.9561	512.74
48.9705	535.55
48.9850	583.04
48.9994	562.00
49.0139	565.81
49.0283	561.63
49.0427	608.97
49.0572	643.85
49.0716	636.16
49.0861	665.47
49.1005	757.47
49.1149	686.91
49.1294	740.18
49.1438	696.42
49.1583	785.47
49.1727	841.30
49.1871	920.80
49.2016	908.31
49.2160	1025.86
49.2305	1077.41
49.2449	1174.06
49.2593	1237.06
49.2738	1349.20
49.2882	1401.95
49.3027	1496.37
49.3171	1590.92
49.3315	1618.43
49.3460	1685.18
49.3604	1758.51
49.3749	1770.80
49.3893	1754.47
49.4037	1801.34
49.4182	1750.68
49.4326	1689.62
49.4471	1647.81
49.4615	1598.76
49.4759	1542.49
49.4904	1533.75
49.5048	1443.69
49.5193	1419.54
49.5337	1302.80
49.5481	1208.72
49.5626	1130.06
49.5770	1054.75
49.5915	992.67
49.6059	919.92
49.6203	867.88
49.6348	855.47
49.6492	797.85
49.6637	745.14
49.6781	667.12
49.6925	655.75
49.7070	655.67
49.7214	639.75
49.7359	650.15
49.7503	615.40
49.7647	600.15
49.7792	586.98
49.7936	590.25
49.8081	596.25
49.8225	574.90
49.8369	540.08
49.8514	563.05
49.8658	591.65
49.8803	570.52
49.8947	535.87
49.9091	560.47
49.9236	551.88
49.9380	563.54
49.9525	539.69
49.9669	554.06
49.9813	528.44
49.9958	542.57
50.0102	526.39
50.0247	509.48
50.0391	546.61
50.0535	535.69
50.0680	513.72
50.0824	505.55
50.0969	518.90
50.1113	560.14
50.1257	561.46
50.1402	536.86
50.1546	501.48
50.1691	529.83
50.1835	498.93
50.1979	537.13
50.2124	549.79
50.2268	540.60
50.2413	537.55
50.2557	537.23
50.2701	520.40
50.2846	519.26
50.2990	539.56
50.3135	523.71
50.3279	530.38
50.3423	507.65
50.3568	557.01
50.3712	545.13
50.3857	516.90
50.4001	509.37
50.4145	531.54
50.4290	576.42
50.4434	537.82
50.4579	542.34
50.4723	518.31
50.4867	514.06
50.5012	528.55
50.5156	516.44
50.5301	521.05
50.5445	514.95
50.5589	504.62
50.5734	514.97
50.5878	507.71
50.6023	489.83
50.6167	519.45
50.6311	539.40
50.6456	485.17
50.6600	467.91
50.6745	467.22
50.6889	496.88
50.7033	483.91
50.7178	479.88
50.7322	492.56
50.7467	495.77
50.7611	510.49
50.7755	499.14
50.7900	525.47
50.8044	534.12
50.8189	509.94
50.8333	520.05
50.8477	506.28
50.8622	499.83
50.8766	534.87
50.8911	506.81
50.9055	487.45
50.9199	507.24
50.9344	515.98
50.9488	514.91
50.9633	493.90
50.9777	503.95
50.9921	511.12
51.0066	501.25
51.0210	490.36
51.0355	507.26
51.0499	496.93
51.0643	514.83
51.0788	498.10
51.0932	516.39
51.1077	517.14
51.1221	514.98
51.1365	521.89
51.1510	516.91
51.1654	505.03
51.1799	496.29
51.1943	506.10
51.2087	483.80
51.2232	505.87
51.2376	517.04
51.2521	527.63
51.2665	519.24
51.2809	498.57
51.2954	500.08
51.3098	497.96
51.3243	502.16
51.3387	500.25
51.3531	488.40
51.3676	498.84
51.3820	524.55
51.3965	520.65
51.4109	520.15
51.4253	546.91
51.4398	521.98
51.4542	474.61
51.4687	497.85
51.4831	538.40
51.4975	513.17
51.5120	514.28
51.5264	526.70
51.5409	538.03
51.5553	519.95
51.5697	470.78
51.5842	508.19
51.5986	513.38
51.6131	476.69
51.6275	496.89
51.6419	522.72
51.6564	517.00
51.6708	469.18
51.6853	474.73
51.6997	513.09
51.7141	528.49
51.7286	504.72
51.7430	495.37
51.7575	515.91
51.7719	509.23
51.7863	529.44
51.8008	505.51
51.8152	489.62
51.8297	474.28
51.8441	509.55
51.8585	517.01
51.8730	517.02
51.8874	517.70
51.9019	558.17
51.9163	494.90
51.9307	509.08
51.9452	511.93
51.9596	458.67
51.9741	477.26
51.9885	496.43
52.0029	511.86
52.0174	503.83
52.0318	534.39
52.0463	473.70
52.0607	539.20
52.0751	506.05
52.0896	535.11
52.1040	523.82
52.1185	522.69
52.1329	518.31
52.1473	487.51
52.1618	499.60
52.1762	503.84
52.1907	511.46
52.2051	480.87
52.2195	471.28
52.2340	499.20
52.2484	513.05
52.2629	492.45
52.2773	484.80
52.2917	515.45
52.3062	532.87
52.3206	518.88
52.3351	490.80
52.3495	487.48
52.3639	506.91
52.3784	554.50
52.3928	524.47
52.4073	476.24
52.4217	496.57
52.4361	517.70
52.4506	514.10
52.4650	557.69
52.4795	517.20
52.4939	515.39
52.5083	491.12
52.5228	504.29
52.5372	488.41
52.5517	549.94
52.5661	521.82
52.5805	470.24
52.5950	493.19
52.6094	489.50
52.6239	492.99
52.6383	533.62
52.6527	515.59
52.6672	517.15
52.6816	476.20
52.6961	522.96
52.7105	554.02
52.7250	533.93
52.7394	485.64
52.7538	509.40
52.7683	498.66
52.7827	482.10
52.7972	490.64
52.8116	539.48
52.8260	557.06
52.8405	527.83
52.8549	520.31
52.8694	516.90
52.8838	544.22
52.8982	564.52
52.9127	524.06
52.9271	509.67
52.9416	483.41
52.9560	530.08
52.9704	527.83
52.9849	535.94
52.9993	475.15
53.0138	511.45
53.0282	535.65
53.0426	525.84
53.0571	512.91
53.0715	531.35
53.0860	502.26
53.1004	510.96
53.1148	506.64
53.1293	550.11
53.1437	494.88
53.1582	506.37
53.1726	536.25
53.1870	519.18
53.2015	488.52
53.2159	524.03
53.2304	526.42
53.2448	534.98
53.2592	532.77
53.2737	505.12
53.2881	522.75
53.3026	500.23
53.3170	525.37
53.3314	497.67
53.3459	510.64
53.3603	523.04
53.3748	512.50
53.3892	530.82
53.4036	515.59
53.4181	512.82
53.4325	559.85
53.4470	502.20
53.4614	507.51
53.4758	544.85
53.4903	519.28
53.5047	496.74
53.5192	511.61
53.5336	550.07
53.5480	518.24
53.5625	534.03
53.5769	502.20
53.5914	510.78
53.6058	539.39
53.6202	552.95
53.6347	507.74
53.6491	514.28
53.6636	488.73
53.6780	507.93
53.6924	490.86
53.7069	520.32
53.7213	551.46
53.7358	511.73
53.7502	492.06
53.7646	483.48
53.7791	514.62
53.7935	541.47
53.8080	526.94
53.8224	532.41
53.8368	517.01
53.8513	483.38
53.8657	483.81
53.8802	495.27
53.8946	501.89
53.9090	503.23
53.9235	529.73
53.9379	547.46
53.9524	512.93
53.9668	492.27
53.9812	553.15
53.9957	542.28
54.0101	528.04
54.0246	516.51
54.0390	528.03
54.0534	504.06
54.0679	494.43
54.0823	539.44
54.0968	512.92
54.1112	487.54
54.1256	548.73
54.1401	522.22
54.1545	504.17
54.1690	522.54
54.1834	502.84
54.1978	498.19
54.2123	499.46
54.2267	547.47
54.2412	538.86
54.2556	556.30
54.2700	536.29
54.2845	550.23
54.2989	513.53
54.3134	535.45
54.3278	528.88
54.3422	521.75
54.3567	551.86
54.3711	551.79
54.3856	505.06
54.4000	514.29
54.4144	547.21
54.4289	560.75
54.4433	557.14
54.4578	545.86
54.4722	566.74
54.4866	600.20
54.5011	602.36
54.5155	573.93
54.5300	608.63
54.5444	630.44
54.5588	587.70
54.5733	563.55
54.5877	582.73
54.6022	611.81
54.6166	615.59
54.6310	592.34
54.6455	589.51
54.6599	554.44
54.6744	548.96
54.6888	563.58
54.7032	608.97
54.7177	592.79
54.7321	592.62
54.7466	594.99
54.7610	575.77
54.7754	569.19
54.7899	547.74
54.8043	533.98
54.8188	513.76
54.8332	513.82
54.8476	534.86
54.8621	571.98
54.8765	556.30
54.8910	527.24
54.9054	549.85
54.9198	568.45
54.9343	574.80
54.9487	528.62
54.9632	507.75
54.9776	507.32
54.9920	525.41
55.0065	514.12
55.0209	541.34
55.0354	527.70
55.0498	489.35
55.0642	493.04
55.0787	501.63
55.0931	509.75
55.1076	524.91
55.1220	523.90
55.1364	528.57
55.1509	523.16
55.1653	526.44
55.1798	505.68
55.1942	512.31
55.2086	490.57
55.2231	499.56
55.2375	512.60
55.2520	494.33
55.2664	541.26
55.2808	561.33
55.2953	535.81
55.3097	540.31
55.3242	567.07
55.3386	505.49
55.3530	515.00
55.3675	521.55
55.3819	535.15
55.3964	517.86
55.4108	523.58
55.4252	536.79
55.4397	533.28
55.4541	510.87
55.4686	495.29
55.4830	555.62
55.4974	537.74
55.5119	507.57
55.5263	538.05
55.5408	564.60
55.5552	563.70
55.5696	529.45
55.5841	527.48
55.5985	534.45
55.6130	502.66
55.6274	529.88
55.6418	558.61
55.6563	565.12
55.6707	561.26
55.6852	544.31
55.6996	578.95
55.7140	522.98
55.7285	504.84
55.7429	547.24
55.7574	536.04
55.7718	523.30
55.7862	546.04
55.8007	552.77
55.8151	526.74
55.8296	511.94
55.8440	512.03
55.8584	526.57
55.8729	503.49
55.8873	536.89
55.9018	578.07
55.9162	534.49
55.9306	525.20
55.9451	524.95
55.9595	511.74
55.9740	513.80
55.9884	514.38
56.0028	501.17
56.0173	533.18
56.0317	544.50
56.0462	535.02
56.0606	498.05
56.0750	525.74
56.0895	531.68
56.1039	517.71
56.1184	532.78
56.1328	519.07
56.1472	519.85
56.1617	535.99
56.1761	528.61
56.1906	499.38
56.2050	516.91
56.2194	515.30
56.2339	492.75
56.2483	536.96
56.2628	483.70
56.2772	527.99
56.2916	517.19
56.3061	538.87
56.3205	522.99
56.3350	548.76
56.3494	569.72
56.3639	517.87
56.3783	534.63
56.3927	546.71
56.4072	508.55
56.4216	502.38
56.4361	520.19
56.4505	522.58
56.4649	509.48
56.4794	521.23
56.4938	487.65
56.5083	524.97
56.5227	514.90
56.5371	498.74
56.5516	512.34
56.5660	527.35
56.5805	511.95
56.5949	540.64
56.6093	538.27
56.6238	550.77
56.6382	543.91
56.6527	529.62
56.6671	504.37
56.6815	545.09
56.6960	533.99
56.7104	483.93
56.7249	532.16
56.7393	518.35
56.7537	544.44
56.7682	513.11
56.7826	548.75
56.7971	537.12
56.8115	524.88
56.8259	534.80
56.8404	546.30
56.8548	522.71
56.8693	526.62
56.8837	503.38
56.8981	543.89
56.9126	510.10
56.9270	500.52
56.9415	497.08
56.9559	528.51
56.9703	518.57
56.9848	522.47
56.9992	541.04
57.0137	526.17
57.0281	489.24
57.0425	487.18
57.0570	528.98
57.0714	551.93
57.0859	506.50
57.1003	546.74
57.1147	531.64
57.1292	530.70
57.1436	497.12
57.1581	523.99
57.1725	522.78
57.1869	573.91
57.2014	510.60
57.2158	513.55
57.2303	500.75
57.2447	535.94
57.2591	512.51
57.2736	522.38
57.2880	544.59
57.3025	515.18
57.3169	517.63
57.3313	554.38
57.3458	537.88
57.3602	542.11
57.3747	550.65
57.3891	526.25
57.4035	535.30
57.4180	530.28
57.4324	551.99
57.4469	536.99
57.4613	518.80
57.4757	546.32
57.4902	515.39
57.5046	521.71
57.5191	540.77
57.5335	528.51
57.5479	525.08
57.5624	530.31
57.5768	513.63
57.5913	538.16
57.6057	521.64
57.6201	528.39
57.6346	521.87
57.6490	540.04
57.6635	521.13
57.6779	526.13
57.6923	521.00
57.7068	553.54
57.7212	523.20
57.7357	549.03
57.7501	557.62
57.7645	531.92
57.7790	524.43
57.7934	533.66
57.8079	537.86
57.8223	547.11
57.8367	554.02
57.8512	531.94
57.8656	518.20
57.8801	541.11
57.8945	529.96
57.9089	538.67
57.9234	542.57
57.9378	562.47
57.9523	569.73
57.9667	526.14
57.9811	536.13
57.9956	551.37
58.0100	543.66
58.0245	569.63
58.0389	538.83
58.0533	580.61
58.0678	595.63
58.0822	593.70
58.0967	586.28
58.1111	576.52
58.1255	648.44
58.1400	643.81
58.1544	716.19
58.1689	691.63
58.1833	676.37
58.1977	692.69
58.2122	709.08
58.2266	704.02
58.2411	651.79
58.2555	669.21
58.2699	650.48
58.2844	672.00
58.2988	671.33
58.3133	652.18
58.3277	669.18
58.3421	669.67
58.3566	633.90
58.3710	623.30
58.3855	609.86
58.3999	605.02
58.4143	595.26
58.4288	565.38
58.4432	555.05
58.4577	568.17
58.4721	580.61
58.4865	573.25
58.5010	560.09
58.5154	544.88
58.5299	557.78
58.5443	567.63
58.5587	579.71
58.5732	556.65
58.5876	506.87
58.6021	546.76
58.6165	554.69
58.6309	503.59
58.6454	520.99
58.6598	529.79
58.6743	527.06
58.6887	554.41
58.7031	552.82
58.7176	551.93
58.7320	524.80
58.7465	513.86
58.7609	518.84
58.7753	528.22
58.7898	528.47
58.8042	537.31
58.8187	571.45
58.8331	555.38
58.8475	529.76
58.8620	538.26
58.8764	556.22
58.8909	521.64
58.9053	542.69
58.9197	541.07
58.9342	544.26
58.9486	544.16
58.9631	527.21
58.9775	513.52
58.9919	509.89
59.0064	505.26
59.0208	557.20
59.0353	570.28
59.0497	527.66
59.0641	525.38
59.0786	530.51
59.0930	553.20
59.1075	540.17
59.1219	537.19
59.1363	544.01
59.1508	505.74
59.1652	548.36
59.1797	565.98
59.1941	542.87
59.2085	533.11
59.2230	561.98
59.2374	534.62
59.2519	533.71
59.2663	559.72
59.2807	576.42
59.2952	569.66
59.3096	600.93
59.3241	601.50
59.3385	586.65
59.3529	561.94
59.3674	538.56
59.3818	539.81
59.3963	551.83
59.4107	556.55
59.4251	530.16
59.4396	548.82
59.4540	551.42
59.4685	583.37
59.4829	570.80
59.4973	527.14
59.5118	508.29
59.5262	565.44
59.5407	587.74
59.5551	584.30
59.5695	562.60
59.5840	574.81
59.5984	547.73
59.6129	543.06
59.6273	546.58
59.6417	548.58
59.6562	545.18
59.6706	566.33
59.6851	542.25
59.6995	544.08
59.7139	555.19
59.7284	523.51
59.7428	543.89
59.7573	559.58
59.7717	524.93
59.7861	543.62
59.8006	524.67
59.8150	528.60
59.8295	519.71
59.8439	539.78
59.8583	580.83
59.8728	565.98
59.8872	496.91
59.9017	547.77
59.9161	548.62
59.9305	553.35
59.9450	529.90
59.9594	496.51
59.9739	522.58
59.9883	516.79
60.0027	565.31
60.0172	552.67
60.0316	527.40
60.0461	522.11
60.0605	510.37
60.0750	518.37
60.0894	587.88
60.1038	553.29
60.1183	550.42
60.1327	492.53
60.1472	522.83
60.1616	566.23
60.1760	559.20
60.1905	567.53
60.2049	579.46
60.2194	574.57
60.2338	504.65
60.2482	541.49
60.2627	542.73
60.2771	559.32
60.2916	533.46
60.3060	526.84
60.3204	563.90
60.3349	556.48
60.3493	520.95
60.3638	528.59
60.3782	520.02
60.3926	533.59
60.4071	536.26
60.4215	527.93
60.4360	537.65
60.4504	509.64
60.4648	497.03
60.4793	520.60
60.4937	566.96
60.5082	560.17
60.5226	509.59
60.5370	560.20
60.5515	550.40
60.5659	552.59
60.5804	554.29
60.5948	579.22
60.6092	560.02
60.6237	547.78
60.6381	521.40
60.6526	573.19
60.6670	536.70
60.6814	524.38
60.6959	512.77
60.7103	498.95
60.7248	569.18
60.7392	568.69
60.7536	572.38
60.7681	528.63
60.7825	522.62
60.7970	523.29
60.8114	547.16
60.8258	550.76
60.8403	536.16
60.8547	546.52
60.8692	569.47
60.8836	548.89
60.8980	525.77
60.9125	539.25
60.9269	556.51
60.9414	532.64
60.9558	523.02
60.9702	551.66
60.9847	566.59
60.9991	523.77
61.0136	570.16
61.0280	564.74
61.0424	535.29
61.0569	557.13
61.0713	526.09
61.0858	553.32
61.1002	519.69
61.1146	533.55
61.1291	566.64
61.1435	531.66
61.1580	543.76
61.1724	562.70
61.1868	565.71
61.2013	532.20
61.2157	529.00
61.2302	538.35
61.2446	552.24
61.2590	515.43
61.2735	512.87
61.2879	510.85
61.3024	529.98
61.3168	548.19
61.3312	561.64
61.3457	587.21
61.3601	557.46
61.3746	549.30
61.3890	550.89
61.4034	539.45
61.4179	546.82
61.4323	536.56
61.4468	519.10
61.4612	530.97
61.4756	528.46
61.4901	551.63
61.5045	593.72
61.5190	581.28
61.5334	564.61
61.5478	537.06
61.5623	549.52
61.5767	550.56
61.5912	555.78
61.6056	551.35
61.6200	485.19
61.6345	513.32
61.6489	523.00
61.6634	531.83
61.6778	573.87
61.6922	541.03
61.7067	530.23
61.7211	534.12
61.7356	522.10
61.7500	543.70
61.7644	553.53
61.7789	555.61
61.7933	510.61
61.8078	544.89
61.8222	575.73
61.8366	559.36
61.8511	554.00
61.8655	554.25
61.8800	577.05
61.8944	583.86
61.9088	561.90
61.9233	560.23
61.9377	540.11
61.9522	566.11
61.9666	552.75
61.9810	536.35
61.9955	581.09
62.0099	572.55
62.0244	555.95
62.0388	549.03
62.0532	557.23
62.0677	541.37
62.0821	504.86
62.0966	556.89
62.1110	536.16
62.1254	584.03
62.1399	566.91
62.1543	526.52
62.1688	574.94
62.1832	530.94
62.1976	524.85
62.2121	525.19
62.2265	546.27
62.2410	542.01
62.2554	547.14
62.2698	566.40
62.2843	557.78
62.2987	555.39
62.3132	542.74
62.3276	527.45
62.3420	547.63
62.3565	550.23
62.3709	562.01
62.3854	530.08
62.3998	553.74
62.4142	570.88
62.4287	575.98
62.4431	569.74
62.4576	560.29
62.4720	548.82
62.4864	555.49
62.5009	549.15
62.5153	517.64
62.5298	595.86
62.5442	582.96
62.5586	563.70
62.5731	552.75
62.5875	572.64
62.6020	558.44
62.6164	574.58
62.6308	559.23
62.6453	545.45
62.6597	560.52
62.6742	546.84
62.6886	514.95
62.7030	579.06
62.7175	590.12
62.7319	564.63
62.7464	542.64
62.7608	537.67
62.7752	568.47
62.7897	592.96
62.8041	565.95
62.8186	540.09
62.8330	575.52
62.8474	564.02
62.8619	587.00
62.8763	544.02
62.8908	548.78
62.9052	560.33
62.9196	519.14
62.9341	545.91
62.9485	588.20
62.9630	538.24
62.9774	545.22
62.9918	584.00
63.0063	567.15
63.0207	595.62
63.0352	562.68
63.0496	525.03
63.0640	584.26
63.0785	567.40
63.0929	569.14
63.1074	590.26
63.1218	594.30
63.1362	582.84
63.1507	522.50
63.1651	599.01
63.1796	587.06
63.1940	514.39
63.2084	525.61
63.2229	559.32
63.2373	569.20
63.2518	591.51
63.2662	561.58
63.2806	583.18
63.2951	553.96
63.3095	585.88
63.3240	603.50
63.3384	606.16
63.3528	550.65
63.3673	573.12
63.3817	549.32
63.3962	527.87
63.4106	571.27
63.4250	614.33
63.4395	569.27
63.4539	552.45
63.4684	594.91
63.4828	602.67
63.4972	599.37
63.5117	564.07
63.5261	555.88
63.5406	570.73
63.5550	597.79
63.5694	596.33
63.5839	579.15
63.5983	600.32
63.6128	645.80
63.6272	608.64
63.6416	623.25
63.6561	607.78
63.6705	619.78
63.6850	615.76
63.6994	612.64
63.7138	665.46
63.7283	662.33
63.7427	631.89
63.7572	636.68
63.7716	648.93
63.7861	682.50
63.8005	700.76
63.8149	687.50
63.8294	677.81
63.8438	710.70
63.8583	733.58
63.8727	787.71
63.8871	844.08
63.9016	909.55
63.9160	841.30
63.9305	889.78
63.9449	843.67
63.9593	865.59
63.9738	849.36
63.9882	788.64
64.0027	744.93
64.0171	769.29
64.0315	761.43
64.0460	767.94
64.0604	723.71
64.0749	762.74
64.0893	800.33
64.1037	771.48
64.1182	798.48
64.1326	741.30
64.1471	713.30
64.1615	744.91
64.1759	678.07
64.1904	676.29
64.2048	697.59
64.2193	659.93
64.2337	664.43
64.2481	642.95
64.2626	637.37
64.2770	617.10
64.2915	659.13
64.3059	706.01
64.3203	674.46
64.3348	609.81
64.3492	661.88
64.3637	615.66
64.3781	632.68
64.3925	638.20
64.4070	646.21
64.4214	620.64
64.4359	647.18
64.4503	648.37
64.4647	648.15
64.4792	662.22
64.4936	682.07
64.5081	632.63
64.5225	644.06
64.5369	648.73
64.5514	644.91
64.5658	647.42
64.5803	618.87
64.5947	599.45
64.6091	666.70
64.6236	636.04
64.6380	661.89
64.6525	660.57
64.6669	661.64
64.6813	646.80
64.6958	672.67
64.7102	738.00
64.7247	710.70
64.7391	678.82
64.7535	682.28
64.7680	688.84
64.7824	716.59
64.7969	777.98
64.8113	808.09
64.8257	795.76
64.8402	827.48
64.8546	801.43
64.8691	842.98
64.8835	805.16
64.8979	819.62
64.9124	915.41
64.9268	901.93
64.9413	925.58
64.9557	916.55
64.9701	950.30
64.9846	1037.48
64.9990	1167.10
65.0135	1339.49
65.0279	1476.18
65.0423	1700.69
65.0568	2102.15
65.0712	2647.74
65.0857	3500.79
65.1001	4587.52
65.1145	6298.00
65.1290	8258.89
65.1434	9788.81
65.1579	11329.19
65.1723	11845.32
65.1867	11288.39
65.2012	9971.98
65.2156	8275.89
65.2301	6453.02
65.2445	5274.64
65.2589	4485.19
65.2734	4258.71
65.2878	4614.19
65.3023	5088.53
65.3167	5895.35
65.3311	6562.92
65.3456	7155.72
65.3600	7030.29
65.3745	6463.23
65.3889	5548.60
65.4033	4480.10
65.4178	3430.62
65.4322	2661.46
65.4467	2028.35
65.4611	1667.62
65.4755	1396.35
65.4900	1275.07
65.5044	1224.85
65.5189	1103.50
65.5333	985.05
65.5477	927.07
65.5622	861.30
65.5766	852.09
65.5911	838.63
65.6055	794.43
65.6199	783.66
65.6344	813.02
65.6488	756.67
65.6633	731.74
65.6777	755.11
65.6921	710.24
65.7066	715.89
65.7210	727.97
65.7355	679.07
65.7499	653.65
65.7643	681.81
65.7788	666.97
65.7932	681.15
65.8077	685.26
65.8221	687.62
65.8365	681.67
65.8510	649.87
65.8654	606.41
65.8799	647.19
65.8943	627.75
65.9087	646.16
65.9232	665.11
65.9376	689.17
65.9521	641.33
65.9665	633.87
65.9809	620.02
65.9954	649.25
66.0098	649.06
66.0243	647.11
66.0387	681.57
66.0531	666.12
66.0676	650.43
66.0820	631.60
66.0965	627.17
66.1109	628.93
66.1253	643.20
66.1398	628.13
66.1542	592.74
66.1687	607.60
66.1831	596.53
66.1975	597.05
66.2120	626.48
66.2264	618.33
66.2409	635.00
66.2553	624.16
66.2697	605.01
66.2842	589.20
66.2986	597.50
66.3131	596.42
66.3275	639.37
66.3419	598.52
66.3564	580.26
66.3708	560.48
66.3853	598.80
66.3997	598.64
66.4141	577.10
66.4286	620.49
66.4430	610.04
66.4575	615.49
66.4719	615.39
66.4863	604.27
66.5008	598.32
66.5152	614.99
66.5297	628.37
66.5441	594.41
66.5585	617.25
66.5730	607.29
66.5874	596.26
66.6019	591.17
66.6163	606.57
66.6307	592.08
66.6452	569.11
66.6596	596.61
66.6741	588.54
66.6885	593.57
66.7029	627.01
66.7174	603.26
66.7318	556.15
66.7463	543.03
66.7607	560.10
66.7751	613.62
66.7896	608.21
66.8040	579.75
66.8185	593.11
66.8329	590.81
66.8473	586.85
66.8618	586.16
66.8762	609.17
66.8907	598.83
66.9051	593.03
66.9195	603.22
66.9340	601.60
66.9484	587.64
66.9629	553.71
66.9773	563.92
66.9917	558.67
67.0062	547.87
67.0206	579.03
67.0351	571.11
67.0495	552.67
67.0639	578.08
67.0784	589.24
67.0928	580.93
67.1073	583.15
67.1217	589.09
67.1361	571.90
67.1506	563.94
67.1650	577.61
67.1795	586.02
67.1939	569.46
67.2083	572.74
67.2228	586.14
67.2372	575.51
67.2517	606.75
67.2661	585.38
67.2805	588.00
67.2950	602.25
67.3094	585.39
67.3239	556.09
67.3383	561.80
67.3527	590.25
67.3672	562.02
67.3816	589.70
67.3961	584.28
67.4105	600.91
67.4250	608.21
67.4394	622.87
67.4538	605.98
67.4683	581.32
67.4827	585.97
67.4972	576.12
67.5116	543.87
67.5260	556.48
67.5405	579.72
67.5549	567.96
67.5694	586.08
67.5838	560.72
67.5982	581.81
67.6127	581.06
67.6271	579.90
67.6416	608.45
67.6560	576.46
67.6704	560.45
67.6849	591.56
67.6993	554.11
67.7138	543.97
67.7282	545.79
67.7426	579.91
67.7571	593.56
67.7715	567.24
67.7860	573.07
67.8004	564.78
67.8148	596.86
67.8293	547.42
67.8437	544.66
67.8582	581.58
67.8726	547.18
67.8870	558.19
67.9015	588.72
67.9159	576.43
67.9304	553.48
67.9448	582.61
67.9592	563.64
67.9737	556.27
67.9881	583.78
68.0026	562.41
68.0170	571.53
68.0314	552.18
68.0459	607.73
68.0603	570.42
68.0748	581.27
68.0892	576.11
68.1036	556.72
68.1181	546.16
68.1325	600.76
68.1470	565.43
68.1614	570.22
68.1758	590.88
68.1903	571.28
68.2047	602.31
68.2192	603.35
68.2336	572.14
68.2480	565.88
68.2625	578.97
68.2769	578.41
68.2914	569.62
68.3058	592.58
68.3202	575.27
68.3347	593.97
68.3491	572.16
68.3636	548.58
68.3780	530.02
68.3924	537.37
68.4069	580.42
68.4213	568.57
68.4358	564.35
68.4502	514.71
68.4646	606.95
68.4791	541.97
68.4935	579.43
68.5080	565.21
68.5224	548.76
68.5368	575.27
68.5513	595.45
68.5657	570.17
68.5802	567.85
68.5946	576.81
68.6090	615.49
68.6235	585.18
68.6379	574.14
68.6524	589.04
68.6668	600.63
68.6812	548.13
68.6957	563.41
68.7101	590.34
68.7246	602.98
68.7390	593.73
68.7534	566.87
68.7679	582.66
68.7823	575.14
68.7968	557.77
68.8112	535.00
68.8256	575.59
68.8401	621.37
68.8545	571.56
68.8690	562.07
68.8834	554.08
68.8978	606.78
68.9123	569.80
68.9267	582.73
68.9412	556.70
68.9556	569.35
68.9700	542.73
68.9845	554.22
68.9989	577.75
69.0134	550.31
69.0278	556.52
69.0422	591.68
69.0567	547.18
69.0711	541.45
69.0856	596.16
69.1000	563.25
69.1144	569.08
69.1289	558.21
69.1433	565.52
69.1578	579.39
69.1722	597.09
69.1866	564.17
69.2011	579.07
69.2155	606.29
69.2300	556.61
69.2444	562.79
69.2588	533.72
69.2733	561.84
69.2877	564.76
69.3022	576.98
69.3166	549.24
69.3310	571.88
69.3455	580.06
69.3599	558.22
69.3744	567.85
69.3888	617.03
69.4032	561.46
69.4177	603.99
69.4321	614.22
69.4466	567.96
69.4610	544.16
69.4754	568.07
69.4899	614.11
69.5043	539.75
69.5188	546.19
69.5332	530.96
69.5476	584.17
69.5621	575.46
69.5765	573.00
69.5910	595.83
69.6054	593.55
69.6198	581.85
69.6343	560.77
69.6487	536.34
69.6632	590.48
69.6776	608.51
69.6920	556.45
69.7065	601.20
69.7209	569.71
69.7354	545.53
69.7498	591.60
69.7642	581.78
69.7787	565.86
69.7931	534.21
69.8076	556.83
69.8220	598.83
69.8364	569.05
69.8509	569.07
69.8653	553.03
69.8798	541.05
69.8942	607.07
69.9086	606.64
69.9231	573.82
69.9375	629.57
69.9520	619.60
69.9664	591.02
69.9808	624.94
69.9953	599.87
70.0097	599.21
70.0242	557.10
70.0386	581.02
70.0530	512.32
70.0675	558.14
70.0819	578.19
70.0964	553.97
70.1108	576.62
70.1252	528.41
70.1397	532.35
70.1541	588.84
70.1686	594.83
70.1830	581.79
70.1974	579.75
70.2119	567.18
70.2263	575.96
70.2408	548.26
70.2552	557.67
70.2696	572.19
70.2841	561.77
70.2985	591.98
70.3130	550.24
70.3274	521.30
70.3418	600.12
70.3563	627.11
70.3707	593.01
70.3852	617.72
70.3996	558.70
70.4140	553.39
70.4285	631.22
70.4429	608.55
70.4574	580.40
70.4718	591.29
70.4862	566.49
70.5007	553.52
70.5151	588.90
70.5296	547.40
70.5440	550.32
70.5584	568.08
70.5729	525.47
70.5873	527.06
70.6018	531.23
70.6162	585.76
70.6306	549.24
70.6451	513.57
70.6595	608.09
70.6740	626.13
70.6884	572.77
70.7028	600.90
70.7173	569.21
70.7317	570.49
70.7462	604.32
70.7606	593.95
70.7750	579.00
70.7895	575.26
70.8039	558.71
70.8184	586.92
70.8328	587.36
70.8472	540.65
70.8617	597.52
70.8761	598.55
70.8906	599.76
70.9050	585.93
70.9194	554.45
70.9339	596.92
70.9483	622.55
70.9628	590.89
70.9772	553.73
70.9916	565.65
71.0061	605.27
71.0205	628.46
71.0350	602.81
71.0494	608.02
71.0638	592.11
71.0783	593.48
71.0927	607.56
71.1072	554.50
71.1216	568.18
71.1361	587.29
71.1505	562.60
71.1649	594.37
71.1794	616.77
71.1938	624.35
71.2083	587.56
71.2227	517.54
71.2371	536.80
71.2516	563.12
71.2660	600.42
71.2805	572.02
71.2949	582.81
71.3093	605.83
71.3238	584.26
71.3382	618.45
71.3527	595.35
71.3671	550.48
71.3815	519.35
71.3960	568.59
71.4104	623.06
71.4249	600.82
71.4393	622.04
71.4537	578.55
71.4682	603.73
71.4826	592.25
71.4971	566.87
71.5115	545.35
71.5259	610.56
71.5404	542.67
71.5548	596.59
71.5693	608.10
71.5837	598.00
71.5981	563.68
71.6126	531.85
71.6270	596.69
71.6415	573.93
71.6559	565.55
71.6703	589.53
71.6848	569.02
71.6992	591.77
71.7137	605.31
71.7281	572.50
71.7425	583.39
71.7570	599.00
71.7714	607.49
71.7859	609.16
71.8003	610.46
71.8147	577.40
71.8292	555.41
71.8436	576.85
71.8581	556.52
71.8725	581.55
71.8869	542.30
71.9014	622.00
71.9158	595.05
71.9303	518.99
71.9447	598.27
71.9591	623.58
71.9736	574.81
71.9880	540.70
72.0025	586.59
72.0169	576.75
72.0313	539.03
72.0458	481.57
72.0602	473.03
72.0747	552.46
72.0891	600.73
72.1035	614.88
72.1180	605.54
72.1324	589.64
72.1469	578.57
72.1613	479.95
72.1757	545.02
72.1902	539.02
72.2046	491.23
72.2191	506.56
72.2335	537.69
72.2479	545.89
72.2624	526.70
72.2768	559.07
72.2913	597.70
72.3057	616.48
72.3201	595.92
72.3346	513.54
72.3490	526.39
72.3635	506.08
72.3779	524.97
72.3923	580.40
72.4068	623.46
72.4212	617.43
72.4357	615.61
72.4501	606.75
72.4645	564.65
72.4790	611.81
72.4934	624.46
72.5079	561.89
72.5223	588.52
72.5367	588.27
72.5512	620.90
72.5656	617.88
72.5801	626.67
72.5945	553.51
72.6089	504.28
72.6234	528.73
72.6378	522.60
72.6523	556.59
72.6667	593.04
72.6811	645.01
72.6956	572.06
72.7100	547.04
72.7245	643.38
72.7389	644.64
72.7533	584.26
72.7678	585.52
72.7822	559.60
72.7967	511.83
72.8111	551.64
72.8255	562.74
72.8400	529.75
72.8544	611.35
72.8689	596.90
72.8833	523.58