2022.09.19 19:37:16
Îáðàçåö: ß÷åéêà LCoV 16-09-2022
Lambda1 = 1.54060
Lambda2 = 1.54439
Lambdam = 1.54186
R = 0.497
2Theta	I

line¹ 0 ;repeat¹ 0
22.1120	557.84
22.1264	550.22
22.1409	550.45
22.1553	580.58
22.1697	509.51
22.1842	528.71
22.1986	511.83
22.2131	530.23
22.2275	591.58
22.2419	604.21
22.2564	553.23
22.2708	571.32
22.2853	611.03
22.2997	499.59
22.3141	533.70
22.3286	549.41
22.3430	556.30
22.3575	559.78
22.3719	585.46
22.3863	585.80
22.4008	573.59
22.4152	624.93
22.4297	622.26
22.4441	655.99
22.4585	598.87
22.4730	573.94
22.4874	575.89
22.5019	553.98
22.5163	578.15
22.5307	574.39
22.5452	580.19
22.5596	671.86
22.5741	602.87
22.5885	574.84
22.6029	617.15
22.6174	560.86
22.6318	564.81
22.6463	592.77
22.6607	693.83
22.6751	619.58
22.6896	532.56
22.7040	575.09
22.7185	590.01
22.7329	607.31
22.7473	551.16
22.7618	608.46
22.7762	620.63
22.7907	559.03
22.8051	523.21
22.8195	532.45
22.8340	596.45
22.8484	582.60
22.8629	654.15
22.8773	612.22
22.8917	529.19
22.9062	609.60
22.9206	615.28
22.9351	670.08
22.9495	616.89
22.9639	580.92
22.9784	560.77
22.9928	567.57
23.0073	602.73
23.0217	576.16
23.0361	602.83
23.0506	538.66
23.0650	486.28
23.0795	578.95
23.0939	591.83
23.1083	531.98
23.1228	568.02
23.1372	534.60
23.1517	550.03
23.1661	580.60
23.1806	521.53
23.1950	540.58
23.2094	517.13
23.2239	557.36
23.2383	563.00
23.2528	492.22
23.2672	645.76
23.2816	641.90
23.2961	604.10
23.3105	564.15
23.3250	572.58
23.3394	589.82
23.3538	581.63
23.3683	571.16
23.3827	607.35
23.3972	631.90
23.4116	511.28
23.4260	550.37
23.4405	555.64
23.4549	609.01
23.4694	566.25
23.4838	525.05
23.4982	583.93
23.5127	566.42
23.5271	611.97
23.5416	569.45
23.5560	609.51
23.5704	572.49
23.5849	555.66
23.5993	538.28
23.6138	554.84
23.6282	536.40
23.6426	606.70
23.6571	596.00
23.6715	552.00
23.6860	557.55
23.7004	583.26
23.7148	567.99
23.7293	549.18
23.7437	531.70
23.7582	548.74
23.7726	557.82
23.7870	635.23
23.8015	571.69
23.8159	565.94
23.8304	591.95
23.8448	558.32
23.8592	518.89
23.8737	563.00
23.8881	542.28
23.9026	538.06
23.9170	510.95
23.9314	525.56
23.9459	516.80
23.9603	540.57
23.9748	531.93
23.9892	552.19
24.0036	581.97
24.0181	605.40
24.0325	618.03
24.0470	524.31
24.0614	547.90
24.0758	497.63
24.0903	570.10
24.1047	559.15
24.1192	564.74
24.1336	583.28
24.1480	545.04
24.1625	604.54
24.1769	648.68
24.1914	549.05
24.2058	581.97
24.2202	572.30
24.2347	556.44
24.2491	570.11
24.2636	578.64
24.2780	591.39
24.2924	574.90
24.3069	587.78
24.3213	543.25
24.3358	554.72
24.3502	589.32
24.3646	499.63
24.3791	521.16
24.3935	564.13
24.4080	606.38
24.4224	579.66
24.4368	548.96
24.4513	544.63
24.4657	617.45
24.4802	584.20
24.4946	574.98
24.5090	578.83
24.5235	555.69
24.5379	567.25
24.5524	563.01
24.5668	583.65
24.5812	586.99
24.5957	588.79
24.6101	595.83
24.6246	549.82
24.6390	567.54
24.6534	620.12
24.6679	555.41
24.6823	518.64
24.6968	569.96
24.7112	528.01
24.7256	544.63
24.7401	497.56
24.7545	562.23
24.7690	505.67
24.7834	526.04
24.7978	516.18
24.8123	538.82
24.8267	526.23
24.8412	534.36
24.8556	540.07
24.8700	559.60
24.8845	540.61
24.8989	586.63
24.9134	517.16
24.9278	540.30
24.9422	513.21
24.9567	528.67
24.9711	510.15
24.9856	533.13
25.0000	587.39
25.0144	552.43
25.0289	578.04
25.0433	546.60
25.0578	522.43
25.0722	542.19
25.0866	570.72
25.1011	513.08
25.1155	596.09
25.1300	522.74
25.1444	556.92
25.1588	533.30
25.1733	528.87
25.1877	528.72
25.2022	532.81
25.2166	572.94
25.2310	564.93
25.2455	550.96
25.2599	545.88
25.2744	544.45
25.2888	562.82
25.3032	508.96
25.3177	529.39
25.3321	558.96
25.3466	553.08
25.3610	552.04
25.3754	550.85
25.3899	499.68
25.4043	522.78
25.4188	510.62
25.4332	531.74
25.4476	537.00
25.4621	551.99
25.4765	538.73
25.4910	590.84
25.5054	552.75
25.5198	493.60
25.5343	556.03
25.5487	530.77
25.5632	472.66
25.5776	537.12
25.5920	554.46
25.6065	530.70
25.6209	508.45
25.6354	533.18
25.6498	548.30
25.6642	573.92
25.6787	524.08
25.6931	548.37
25.7076	543.27
25.7220	539.05
25.7364	576.30
25.7509	542.74
25.7653	538.22
25.7798	521.69
25.7942	560.13
25.8086	563.85
25.8231	563.45
25.8375	539.97
25.8520	528.54
25.8664	557.66
25.8808	556.52
25.8953	518.56
25.9097	505.38
25.9242	522.25
25.9386	555.68
25.9530	558.16
25.9675	535.84
25.9819	506.16
25.9964	561.91
26.0108	544.53
26.0252	538.78
26.0397	505.41
26.0541	542.92
26.0686	544.87
26.0830	517.46
26.0974	519.50
26.1119	520.85
26.1263	517.18
26.1408	489.84
26.1552	541.34
26.1696	557.72
26.1841	556.93
26.1985	557.41
26.2130	564.76
26.2274	522.68
26.2418	512.35
26.2563	514.06
26.2707	500.18
26.2852	518.69
26.2996	544.39
26.3140	539.39
26.3285	598.08
26.3429	523.94
26.3574	523.52
26.3718	560.75
26.3862	523.16
26.4007	514.42
26.4151	517.25
26.4296	528.69
26.4440	527.83
26.4584	526.43
26.4729	525.27
26.4873	556.40
26.5018	530.86
26.5162	541.11
26.5306	515.80
26.5451	522.83
26.5595	515.86
26.5740	509.05
26.5884	520.14
26.6028	536.76
26.6173	516.63
26.6317	534.00
26.6462	539.82
26.6606	517.14
26.6750	530.49
26.6895	513.61
26.7039	537.18
26.7184	557.83
26.7328	533.01
26.7472	530.30
26.7617	516.98
26.7761	541.44
26.7906	520.48
26.8050	524.34
26.8194	535.85
26.8339	529.85
26.8483	533.80
26.8628	539.53
26.8772	504.14
26.8917	539.20
26.9061	573.05
26.9205	550.48
26.9350	519.98
26.9494	520.11
26.9639	504.38
26.9783	544.29
26.9927	532.37
27.0072	504.34
27.0216	529.83
27.0361	510.86
27.0505	503.94
27.0649	538.96
27.0794	530.17
27.0938	523.57
27.1083	516.25
27.1227	525.15
27.1371	545.64
27.1516	520.45
27.1660	512.90
27.1805	512.36
27.1949	497.74
27.2093	500.95
27.2238	531.28
27.2382	566.75
27.2527	534.50
27.2671	499.37
27.2815	531.08
27.2960	512.32
27.3104	535.14
27.3249	512.84
27.3393	518.09
27.3537	517.72
27.3682	514.85
27.3826	495.57
27.3971	511.42
27.4115	519.66
27.4259	526.89
27.4404	517.35
27.4548	514.44
27.4693	509.94
27.4837	505.76
27.4981	514.21
27.5126	520.13
27.5270	520.03
27.5415	529.34
27.5559	522.72
27.5703	504.05
27.5848	491.55
27.5992	512.62
27.6137	541.40
27.6281	515.07
27.6425	531.78
27.6570	510.00
27.6714	495.30
27.6859	494.27
27.7003	535.47
27.7147	500.26
27.7292	503.00
27.7436	544.22
27.7581	506.55
27.7725	500.71
27.7869	562.60
27.8014	552.89
27.8158	528.47
27.8303	536.03
27.8447	502.16
27.8591	532.16
27.8736	569.47
27.8880	523.61
27.9025	532.20
27.9169	515.30
27.9313	531.85
27.9458	506.38
27.9602	543.84
27.9747	509.22
27.9891	522.43
28.0035	530.17
28.0180	542.53
28.0324	552.18
28.0469	520.51
28.0613	531.23
28.0757	525.66
28.0902	518.15
28.1046	484.07
28.1191	512.39
28.1335	546.81
28.1479	502.34
28.1624	529.65
28.1768	507.17
28.1913	473.82
28.2057	519.32
28.2201	506.26
28.2346	492.01
28.2490	514.86
28.2635	511.92
28.2779	532.23
28.2923	526.32
28.3068	514.33
28.3212	503.88
28.3357	534.51
28.3501	495.46
28.3645	479.95
28.3790	472.68
28.3934	493.10
28.4079	508.29
28.4223	534.55
28.4367	527.33
28.4512	509.83
28.4656	522.09
28.4801	527.29
28.4945	519.83
28.5089	483.32
28.5234	527.86
28.5378	530.51
28.5523	493.31
28.5667	469.86
28.5811	519.84
28.5956	517.28
28.6100	492.87
28.6245	508.68
28.6389	522.41
28.6533	520.18
28.6678	517.12
28.6822	513.15
28.6967	502.42
28.7111	513.95
28.7255	505.26
28.7400	506.75
28.7544	525.55
28.7689	496.01
28.7833	560.03
28.7977	516.85
28.8122	524.12
28.8266	543.56
28.8411	526.62
28.8555	497.43
28.8699	524.21
28.8844	525.54
28.8988	514.70
28.9133	560.43
28.9277	517.96
28.9421	528.79
28.9566	511.71
28.9710	507.10
28.9855	506.76
28.9999	496.20
29.0143	521.81
29.0288	521.82
29.0432	458.94
29.0577	498.28
29.0721	526.63
29.0865	535.46
29.1010	547.71
29.1154	531.86
29.1299	532.79
29.1443	504.07
29.1587	542.49
29.1732	538.77
29.1876	532.66
29.2021	485.81
29.2165	497.01
29.2309	497.72
29.2454	507.13
29.2598	552.87
29.2743	528.79
29.2887	477.05
29.3031	498.63
29.3176	514.84
29.3320	514.37
29.3465	498.67
29.3609	545.59
29.3753	528.30
29.3898	512.70
29.4042	522.92
29.4187	528.81
29.4331	544.85
29.4475	500.72
29.4620	523.32
29.4764	544.34
29.4909	504.53
29.5053	518.14
29.5197	506.38
29.5342	517.47
29.5486	524.17
29.5631	522.99
29.5775	484.75
29.5919	509.55
29.6064	526.70
29.6208	503.13
29.6353	500.03
29.6497	493.53
29.6641	513.53
29.6786	493.22
29.6930	510.08
29.7075	499.85
29.7219	484.40
29.7363	501.70
29.7508	477.08
29.7652	496.56
29.7797	513.90
29.7941	494.19
29.8085	520.99
29.8230	513.70
29.8374	528.56
29.8519	491.29
29.8663	503.55
29.8807	496.17
29.8952	516.08
29.9096	494.90
29.9241	495.30
29.9385	492.48
29.9529	510.04
29.9674	499.06
29.9818	529.00
29.9963	534.43
30.0107	529.23
30.0251	496.59
30.0396	521.26
30.0540	545.10
30.0685	541.89
30.0829	532.56
30.0973	496.43
30.1118	471.06
30.1262	535.05
30.1407	511.23
30.1551	523.89
30.1695	521.17
30.1840	484.03
30.1984	505.32
30.2129	536.74
30.2273	519.14
30.2417	537.73
30.2562	526.73
30.2706	514.36
30.2851	505.96
30.2995	495.89
30.3139	531.29
30.3284	507.60
30.3428	502.25
30.3573	519.82
30.3717	509.24
30.3861	527.72
30.4006	502.49
30.4150	508.68
30.4295	535.84
30.4439	512.68
30.4583	515.62
30.4728	502.70
30.4872	496.98
30.5017	527.64
30.5161	528.55
30.5305	530.53
30.5450	537.11
30.5594	534.10
30.5739	506.09
30.5883	518.35
30.6028	548.80
30.6172	559.83
30.6316	557.29
30.6461	598.73
30.6605	592.80
30.6750	599.61
30.6894	651.71
30.7038	709.50
30.7183	725.50
30.7327	735.38
30.7472	703.90
30.7616	691.14
30.7760	730.82
30.7905	663.31
30.8049	628.45
30.8194	660.31
30.8338	672.05
30.8482	644.50
30.8627	608.85
30.8771	570.07
30.8916	554.03
30.9060	555.15
30.9204	557.10
30.9349	563.66
30.9493	554.68
30.9638	519.08
30.9782	540.30
30.9926	579.19
31.0071	559.88
31.0215	504.27
31.0360	531.23
31.0504	535.33
31.0648	530.42
31.0793	510.43
31.0937	513.65
31.1082	507.25
31.1226	498.42
31.1370	468.35
31.1515	479.80
31.1659	530.85
31.1804	527.03
31.1948	505.31
31.2092	537.15
31.2237	504.93
31.2381	542.12
31.2526	543.97
31.2670	520.65
31.2814	552.97
31.2959	529.89
31.3103	526.92
31.3248	491.21
31.3392	501.33
31.3536	509.00
31.3681	528.13
31.3825	512.66
31.3970	523.12
31.4114	492.60
31.4258	522.52
31.4403	529.89
31.4547	488.94
31.4692	483.89
31.4836	531.12
31.4980	495.38
31.5125	496.84
31.5269	486.28
31.5414	505.90
31.5558	520.61
31.5702	510.05
31.5847	514.07
31.5991	519.63
31.6136	537.14
31.6280	520.33
31.6424	552.65
31.6569	508.52
31.6713	483.42
31.6858	465.76
31.7002	493.08
31.7146	561.87
31.7291	556.74
31.7435	529.86
31.7580	529.23
31.7724	518.60
31.7868	488.27
31.8013	485.56
31.8157	515.45
31.8302	513.67
31.8446	523.64
31.8590	536.61
31.8735	532.08
31.8879	498.36
31.9024	532.00
31.9168	524.66
31.9312	499.20
31.9457	521.86
31.9601	496.20
31.9746	489.90
31.9890	468.95
32.0034	511.45
32.0179	528.59
32.0323	499.24
32.0468	499.54
32.0612	520.73
32.0756	526.30
32.0901	526.71
32.1045	501.14
32.1190	510.31
32.1334	488.91
32.1478	478.68
32.1623	504.36
32.1767	540.76
32.1912	502.82
32.2056	499.97
32.2200	495.81
32.2345	524.88
32.2489	516.19
32.2634	501.10
32.2778	504.59
32.2922	470.82
32.3067	501.25
32.3211	509.31
32.3356	499.46
32.3500	520.23
32.3644	522.85
32.3789	486.08
32.3933	498.95
32.4078	502.91
32.4222	517.64
32.4366	519.11
32.4511	498.11
32.4655	542.56
32.4800	500.11
32.4944	471.23
32.5088	494.22
32.5233	495.67
32.5377	507.29
32.5522	513.59
32.5666	532.37
32.5810	521.68
32.5955	497.90
32.6099	513.60
32.6244	535.20
32.6388	530.65
32.6532	525.84
32.6677	495.98
32.6821	492.65
32.6966	500.71
32.7110	514.53
32.7254	515.24
32.7399	506.30
32.7543	471.21
32.7688	517.77
32.7832	508.62
32.7976	478.09
32.8121	489.57
32.8265	503.91
32.8410	501.47
32.8554	469.97
32.8698	498.91
32.8843	544.13
32.8987	528.16
32.9132	522.29
32.9276	482.32
32.9420	498.57
32.9565	553.32
32.9709	497.82
32.9854	505.13
32.9998	461.65
33.0142	526.86
33.0287	513.06
33.0431	515.82
33.0576	500.14
33.0720	472.07
33.0864	509.12
33.1009	554.67
33.1153	498.23
33.1298	516.29
33.1442	499.32
33.1586	491.66
33.1731	515.92
33.1875	491.73
33.2020	494.55
33.2164	533.21
33.2308	497.32
33.2453	492.65
33.2597	519.82
33.2742	507.26
33.2886	478.63
33.3030	484.11
33.3175	514.08
33.3319	508.71
33.3464	567.63
33.3608	505.38
33.3752	503.71
33.3897	483.82
33.4041	476.64
33.4186	512.11
33.4330	503.41
33.4474	495.85
33.4619	498.10
33.4763	495.29
33.4908	536.66
33.5052	530.67
33.5196	523.24
33.5341	530.32
33.5485	524.02
33.5630	513.56
33.5774	524.95
33.5918	532.67
33.6063	504.70
33.6207	547.94
33.6352	544.37
33.6496	521.01
33.6640	496.37
33.6785	491.69
33.6929	504.34
33.7074	489.56
33.7218	484.72
33.7362	496.77
33.7507	507.44
33.7651	470.07
33.7796	511.18
33.7940	485.25
33.8084	512.33
33.8229	518.63
33.8373	516.37
33.8518	495.63
33.8662	529.89
33.8806	483.37
33.8951	516.54
33.9095	522.00
33.9240	506.59
33.9384	490.06
33.9528	503.78
33.9673	514.76
33.9817	489.83
33.9962	552.70
34.0106	529.43
34.0250	501.57
34.0395	551.66
34.0539	538.94
34.0684	552.89
34.0828	534.43
34.0972	522.04
34.1117	534.57
34.1261	530.84
34.1406	488.75
34.1550	465.24
34.1694	495.94
34.1839	531.17
34.1983	503.59
34.2128	500.04
34.2272	518.50
34.2417	505.90
34.2561	495.52
34.2705	512.91
34.2850	497.83
34.2994	481.34
34.3139	486.97
34.3283	499.86
34.3427	511.59
34.3572	532.20
34.3716	521.58
34.3861	488.21
34.4005	517.78
34.4149	521.03
34.4294	516.23
34.4438	503.91
34.4583	507.44
34.4727	527.29
34.4871	546.05
34.5016	509.41
34.5160	512.76
34.5305	488.18
34.5449	511.68
34.5593	552.30
34.5738	524.56
34.5882	505.99
34.6027	505.30
34.6171	519.67
34.6315	530.67
34.6460	499.93
34.6604	504.05
34.6749	514.20
34.6893	504.97
34.7037	515.47
34.7182	507.81
34.7326	473.09
34.7471	491.05
34.7615	529.08
34.7759	538.23
34.7904	548.76
34.8048	533.87
34.8193	521.31
34.8337	517.44
34.8481	504.93
34.8626	528.12
34.8770	511.96
34.8915	524.04
34.9059	557.73
34.9203	545.46
34.9348	529.89
34.9492	507.71
34.9637	483.08
34.9781	507.63
34.9925	531.69
35.0070	545.58
35.0214	518.30
35.0359	481.72
35.0503	502.53
35.0647	527.06
35.0792	545.32
35.0936	513.17
35.1081	526.93
35.1225	531.18
35.1369	496.97
35.1514	496.98
35.1658	538.33
35.1803	523.35
35.1947	532.59
35.2091	520.51
35.2236	553.77
35.2380	555.84
35.2525	518.45
35.2669	495.88
35.2813	507.30
35.2958	503.84
35.3102	517.79
35.3247	532.59
35.3391	529.45
35.3535	527.77
35.3680	525.77
35.3824	517.91
35.3969	486.21
35.4113	478.71
35.4257	533.96
35.4402	518.74
35.4546	506.12
35.4691	560.26
35.4835	540.60
35.4979	511.39
35.5124	515.13
35.5268	548.50
35.5413	561.11
35.5557	541.32
35.5701	516.32
35.5846	496.83
35.5990	509.91
35.6135	551.62
35.6279	525.88
35.6423	531.70
35.6568	525.33
35.6712	554.34
35.6857	552.69
35.7001	657.78
35.7145	742.80
35.7290	662.77
35.7434	582.84
35.7579	554.85
35.7723	573.74
35.7867	628.62
35.8012	666.67
35.8156	630.48
35.8301	592.87
35.8445	583.88
35.8589	649.36
35.8734	763.47
35.8878	857.75
35.9023	963.67
35.9167	1076.51
35.9311	1350.62
35.9456	1968.51
35.9600	2304.67
35.9745	1885.59
35.9889	1928.35
36.0033	2194.58
36.0178	2455.86
36.0322	2068.71
36.0467	1964.01
36.0611	1725.38
36.0755	1700.98
36.0900	1740.27
36.1044	1700.33
36.1189	1666.39
36.1333	1502.75
36.1477	1392.33
36.1622	1407.43
36.1766	1395.17
36.1911	1281.66
36.2055	1188.30
36.2199	1145.96
36.2344	1077.03
36.2488	1010.87
36.2633	968.25
36.2777	933.08
36.2921	864.69
36.3066	846.59
36.3210	811.75
36.3355	749.61
36.3499	742.96
36.3643	673.96
36.3788	623.00
36.3932	605.94
36.4077	599.80
36.4221	582.65
36.4365	571.45
36.4510	550.45
36.4654	614.90
36.4799	603.88
36.4943	573.73
36.5087	539.68
36.5232	558.79
36.5376	558.10
36.5521	530.50
36.5665	511.56
36.5809	545.47
36.5954	545.18
36.6098	544.94
36.6243	541.43
36.6387	544.78
36.6531	536.93
36.6676	515.08
36.6820	516.79
36.6965	507.67
36.7109	536.13
36.7253	552.80
36.7398	514.32
36.7542	538.12
36.7687	503.31
36.7831	539.36
36.7975	545.46
36.8120	571.27
36.8264	611.77
36.8409	639.44
36.8553	623.16
36.8697	587.52
36.8842	602.38
36.8986	598.06
36.9131	560.25
36.9275	547.80
36.9419	592.67
36.9564	556.31
36.9708	531.73
36.9853	543.42
36.9997	515.55
37.0141	534.80
37.0286	536.43
37.0430	547.46
37.0575	503.54
37.0719	517.76
37.0863	516.77
37.1008	498.87
37.1152	558.93
37.1297	529.22
37.1441	513.17
37.1585	515.64
37.1730	520.03
37.1874	512.55
37.2019	526.98
37.2163	497.49
37.2307	500.69
37.2452	485.60
37.2596	497.16
37.2741	499.03
37.2885	490.04
37.3029	484.22
37.3174	536.04
37.3318	515.99
37.3463	500.78
37.3607	478.19
37.3751	469.16
37.3896	507.16
37.4040	518.84
37.4185	519.39
37.4329	498.53
37.4473	493.15
37.4618	483.40
37.4762	481.50
37.4907	500.90
37.5051	507.52
37.5195	510.04
37.5340	501.83
37.5484	508.20
37.5629	527.12
37.5773	518.28
37.5917	487.92
37.6062	491.87
37.6206	511.86
37.6351	537.47
37.6495	545.97
37.6639	510.76
37.6784	488.29
37.6928	533.34
37.7073	557.11
37.7217	485.82
37.7361	483.79
37.7506	540.05
37.7650	502.47
37.7795	502.79
37.7939	500.44
37.8083	503.74
37.8228	497.52
37.8372	504.60
37.8517	497.24
37.8661	524.45
37.8805	521.33
37.8950	521.19
37.9094	513.15
37.9239	492.04
37.9383	535.33
37.9528	460.83
37.9672	470.03
37.9816	514.86
37.9961	527.25
38.0105	496.97
38.0250	522.64
38.0394	495.26
38.0538	497.59
38.0683	485.98
38.0827	491.80
38.0972	511.84
38.1116	510.57
38.1260	524.24
38.1405	490.85
38.1549	465.20
38.1694	507.37
38.1838	518.89
38.1982	496.66
38.2127	493.11
38.2271	507.47
38.2416	516.89
38.2560	488.56
38.2704	513.51
38.2849	485.68
38.2993	498.08
38.3138	492.70
38.3282	511.82
38.3426	514.69
38.3571	541.44
38.3715	538.38
38.3860	546.21
38.4004	546.11
38.4148	528.71
38.4293	571.56
38.4437	559.55
38.4582	584.51
38.4726	639.72
38.4870	699.56
38.5015	726.17
38.5159	778.47
38.5304	798.42
38.5448	793.85
38.5592	786.45
38.5737	796.41
38.5881	700.20
38.6026	712.29
38.6170	688.46
38.6314	688.27
38.6459	678.63
38.6603	640.46
38.6748	627.62
38.6892	602.95
38.7036	592.08
38.7181	525.20
38.7325	545.07
38.7470	538.53
38.7614	503.10
38.7758	516.87
38.7903	530.59
38.8047	540.62
38.8192	535.76
38.8336	495.45
38.8480	475.83
38.8625	499.61
38.8769	532.56
38.8914	536.81
38.9058	527.30
38.9202	516.68
38.9347	530.90
38.9491	513.08
38.9636	519.04
38.9780	517.49
38.9924	536.01
39.0069	496.40
39.0213	506.35
39.0358	527.89
39.0502	516.22
39.0646	473.49
39.0791	446.55
39.0935	511.68
39.1080	516.95
39.1224	506.15
39.1368	520.78
39.1513	488.41
39.1657	498.03
39.1802	481.59
39.1946	525.97
39.2090	514.16
39.2235	505.62
39.2379	505.17
39.2524	500.51
39.2668	502.09
39.2812	534.98
39.2957	512.87
39.3101	502.88
39.3246	488.52
39.3390	495.93
39.3534	488.86
39.3679	493.25
39.3823	493.46
39.3968	500.35
39.4112	529.07
39.4256	511.38
39.4401	499.68
39.4545	492.91
39.4690	503.05
39.4834	486.90
39.4978	532.95
39.5123	520.21
39.5267	514.20
39.5412	533.83
39.5556	511.27
39.5700	529.87
39.5845	511.37
39.5989	521.13
39.6134	487.91
39.6278	468.41
39.6422	468.68
39.6567	478.32
39.6711	506.04
39.6856	476.80
39.7000	519.61
39.7144	495.88
39.7289	515.73
39.7433	491.35
39.7578	514.58
39.7722	546.90
39.7866	519.12
39.8011	502.35
39.8155	498.02
39.8300	517.34
39.8444	521.75
39.8588	511.31
39.8733	521.95
39.8877	516.72
39.9022	525.08
39.9166	504.20
39.9310	490.54
39.9455	518.12
39.9599	509.42
39.9744	485.56
39.9888	480.75
40.0032	487.08
40.0177	461.90
40.0321	494.09
40.0466	475.67
40.0610	460.62
40.0754	517.12
40.0899	514.86
40.1043	506.97
40.1188	517.33
40.1332	496.12
40.1476	487.89
40.1621	515.97
40.1765	482.60
40.1910	486.14
40.2054	491.66
40.2198	518.80
40.2343	525.39
40.2487	488.36
40.2632	497.65
40.2776	515.56
40.2920	489.66
40.3065	514.67
40.3209	486.09
40.3354	480.75
40.3498	493.51
40.3642	505.93
40.3787	504.84
40.3931	486.30
40.4076	503.17
40.4220	520.88
40.4364	510.73
40.4509	486.16
40.4653	499.34
40.4798	495.71
40.4942	532.56
40.5086	518.45
40.5231	504.36
40.5375	514.10
40.5520	486.08
40.5664	506.43
40.5808	495.63
40.5953	508.59
40.6097	495.71
40.6242	485.81
40.6386	510.11
40.6530	513.82
40.6675	514.36
40.6819	495.18
40.6964	496.45
40.7108	521.43
40.7252	465.56
40.7397	483.25
40.7541	502.90
40.7686	522.52
40.7830	481.87
40.7974	481.88
40.8119	502.72
40.8263	488.14
40.8408	442.24
40.8552	469.93
40.8696	552.10
40.8841	518.41
40.8985	540.88
40.9130	519.05
40.9274	456.24
40.9418	486.54
40.9563	475.60
40.9707	498.21
40.9852	475.21
40.9996	458.18
41.0140	510.33
41.0285	488.44
41.0429	511.36
41.0574	506.26
41.0718	503.89
41.0862	523.06
41.1007	496.25
41.1151	490.64
41.1296	518.84
41.1440	486.39
41.1584	508.28
41.1729	522.64
41.1873	476.94
41.2018	493.96
41.2162	521.65
41.2306	512.97
41.2451	528.72
41.2595	509.26
41.2740	494.59
41.2884	530.81
41.3028	496.80
41.3173	476.32
41.3317	527.31
41.3462	512.82
41.3606	487.21
41.3750	477.36
41.3895	499.88
41.4039	516.52
41.4184	497.54
41.4328	476.81
41.4472	462.02
41.4617	491.58
41.4761	497.85
41.4906	505.93
41.5050	508.83
41.5194	475.95
41.5339	466.10
41.5483	488.17
41.5628	507.12
41.5772	487.77
41.5916	486.45
41.6061	509.63
41.6205	502.67
41.6350	498.84
41.6494	514.50
41.6639	486.77
41.6783	461.24
41.6927	487.44
41.7072	510.90
41.7216	481.56
41.7361	486.29
41.7505	507.95
41.7649	489.38
41.7794	510.65
41.7938	494.06
41.8083	504.48
41.8227	520.43
41.8371	513.46
41.8516	525.55
41.8660	525.56
41.8805	534.83
41.8949	581.76
41.9093	554.49
41.9238	552.02
41.9382	601.99
41.9527	617.94
41.9671	584.61
41.9815	551.81
41.9960	561.49
42.0104	566.88
42.0249	594.96
42.0393	568.17
42.0537	580.40
42.0682	566.65
42.0826	618.95
42.0971	598.82
42.1115	569.74
42.1259	570.35
42.1404	572.57
42.1548	591.06
42.1693	673.76
42.1837	676.39
42.1981	718.07
42.2126	791.97
42.2270	937.81
42.2415	1053.35
42.2559	1141.26
42.2703	1270.15
42.2848	1478.94
42.2992	1603.96
42.3137	1671.45
42.3281	1598.12
42.3425	1535.89
42.3570	1482.16
42.3714	1399.71
42.3859	1338.43
42.4003	1336.44
42.4147	1329.97
42.4292	1269.97
42.4436	1140.27
42.4581	1007.12
42.4725	933.60
42.4869	844.13
42.5014	766.07
42.5158	708.22
42.5303	671.22
42.5447	621.89
42.5591	627.68
42.5736	560.01
42.5880	566.10
42.6025	566.32
42.6169	567.06
42.6313	572.95
42.6458	574.95
42.6602	587.28
42.6747	542.93
42.6891	539.61
42.7035	551.03
42.7180	563.31
42.7324	551.26
42.7469	537.53
42.7613	519.78
42.7757	541.26
42.7902	561.69
42.8046	515.74
42.8191	527.36
42.8335	543.04
42.8479	484.87
42.8624	500.83
42.8768	515.64
42.8913	528.39
42.9057	533.92
42.9201	515.10
42.9346	472.62
42.9490	496.91
42.9635	502.40
42.9779	525.51
42.9923	553.57
43.0068	521.62
43.0212	501.54
43.0357	515.43
43.0501	527.05
43.0645	532.50
43.0790	495.59
43.0934	478.00
43.1079	455.50
43.1223	510.32
43.1367	484.76
43.1512	518.25
43.1656	531.38
43.1801	535.34
43.1945	466.49
43.2089	510.13
43.2234	531.10
43.2378	537.25
43.2523	502.71
43.2667	521.61
43.2811	524.61
43.2956	493.86
43.3100	504.78
43.3245	512.55
43.3389	540.33
43.3533	538.55
43.3678	523.86
43.3822	503.31
43.3967	532.61
43.4111	537.07
43.4255	544.69
43.4400	543.77
43.4544	491.81
43.4689	504.38
43.4833	517.82
43.4977	507.24
43.5122	482.96
43.5266	505.46
43.5411	503.02
43.5555	503.67
43.5699	500.84
43.5844	512.76
43.5988	515.98
43.6133	533.00
43.6277	503.74
43.6421	527.93
43.6566	527.67
43.6710	512.92
43.6855	522.69
43.6999	527.01
43.7143	524.92
43.7288	531.98
43.7432	523.62
43.7577	527.12
43.7721	507.05
43.7865	529.18
43.8010	525.75
43.8154	539.05
43.8299	525.68
43.8443	554.94
43.8587	569.35
43.8732	507.60
43.8876	517.39
43.9021	537.09
43.9165	573.00
43.9309	610.81
43.9454	611.07
43.9598	601.34
43.9743	637.73
43.9887	681.15
44.0031	658.31
44.0176	651.29
44.0320	608.56
44.0465	628.49
44.0609	624.19
44.0753	580.03
44.0898	610.25
44.1042	569.93
44.1187	601.11
44.1331	577.35
44.1475	530.47
44.1620	528.53
44.1764	548.59
44.1909	523.09
44.2053	529.87
44.2197	542.15
44.2342	553.00
44.2486	559.87
44.2631	529.37
44.2775	548.31
44.2919	530.88
44.3064	564.91
44.3208	543.11
44.3353	552.55
44.3497	520.24
44.3641	551.34
44.3786	577.43
44.3930	539.42
44.4075	554.85
44.4219	605.42
44.4363	623.51
44.4508	620.16
44.4652	601.90
44.4797	595.35
44.4941	563.75
44.5085	554.76
44.5230	552.28
44.5374	567.81
44.5519	545.96
44.5663	574.89
44.5807	605.61
44.5952	572.43
44.6096	567.69
44.6241	569.20
44.6385	610.33
44.6529	571.88
44.6674	565.48
44.6818	598.72
44.6963	608.12
44.7107	639.02
44.7251	690.17
44.7396	753.26
44.7540	848.64
44.7685	890.98
44.7829	910.60
44.7973	886.01
44.8118	824.69
44.8262	833.37
44.8407	758.10
44.8551	730.52
44.8695	742.91
44.8840	753.22
44.8984	736.71
44.9129	732.86
44.9273	685.81
44.9417	638.58
44.9562	602.64
44.9706	593.98
44.9851	603.89
44.9995	507.59
45.0139	559.71
45.0284	541.55
45.0428	495.69
45.0573	527.95
45.0717	517.77
45.0861	526.32
45.1006	508.78
45.1150	517.74
45.1295	539.38
45.1439	504.97
45.1583	498.96
45.1728	530.10
45.1872	514.32
45.2017	495.74
45.2161	520.50
45.2305	495.50
45.2450	486.57
45.2594	517.44
45.2739	492.51
45.2883	529.40
45.3028	525.01
45.3172	495.62
45.3316	545.95
45.3461	542.41
45.3605	498.31
45.3750	500.86
45.3894	510.78
45.4038	506.46
45.4183	505.93
45.4327	529.53
45.4472	465.67
45.4616	518.97
45.4760	547.14
45.4905	531.23
45.5049	512.57
45.5194	531.30
45.5338	497.44
45.5482	499.37
45.5627	519.90
45.5771	518.88
45.5916	479.91
45.6060	500.44
45.6204	504.29
45.6349	528.64
45.6493	521.11
45.6638	512.67
45.6782	509.73
45.6926	485.48
45.7071	513.79
45.7215	507.74
45.7360	495.19
45.7504	507.81
45.7648	506.47
45.7793	504.31
45.7937	530.90
45.8082	517.83
45.8226	549.79
45.8370	506.98
45.8515	517.51
45.8659	545.01
45.8804	508.61
45.8948	546.88
45.9092	493.19
45.9237	504.61
45.9381	462.43
45.9526	489.37
45.9670	511.70
45.9814	488.79
45.9959	489.23
46.0103	503.42
46.0248	493.58
46.0392	519.59
46.0536	511.53
46.0681	537.61
46.0825	520.74
46.0970	504.60
46.1114	525.03
46.1258	517.15
46.1403	485.37
46.1547	450.11
46.1692	505.40
46.1836	503.23
46.1980	471.98
46.2125	483.73
46.2269	494.83
46.2414	515.74
46.2558	512.67
46.2702	495.87
46.2847	514.46
46.2991	490.92
46.3136	515.54
46.3280	503.67
46.3424	531.22
46.3569	522.07
46.3713	509.36
46.3858	501.69
46.4002	454.85
46.4146	491.21
46.4291	528.61
46.4435	498.93
46.4580	512.41
46.4724	497.29
46.4868	532.14
46.5013	542.20
46.5157	497.69
46.5302	498.96
46.5446	508.95
46.5590	502.85
46.5735	493.08
46.5879	505.24
46.6024	519.62
46.6168	514.64
46.6312	508.94
46.6457	525.77
46.6601	520.97
46.6746	486.50
46.6890	494.66
46.7034	536.89
46.7179	511.42
46.7323	497.04
46.7468	489.67
46.7612	509.92
46.7756	500.71
46.7901	489.05
46.8045	539.00
46.8190	538.99
46.8334	525.24
46.8478	518.45
46.8623	530.72
46.8767	525.13
46.8912	507.40
46.9056	528.21
46.9200	511.20
46.9345	517.00
46.9489	493.31
46.9634	470.20
46.9778	488.17
46.9922	492.60
47.0067	502.43
47.0211	492.31
47.0356	490.39
47.0500	517.84
47.0644	523.53
47.0789	543.60
47.0933	526.33
47.1078	509.78
47.1222	516.88
47.1366	520.78
47.1511	523.69
47.1655	538.95
47.1800	550.83
47.1944	532.85
47.2088	514.74
47.2233	522.49
47.2377	513.59
47.2522	518.28
47.2666	492.39
47.2810	475.77
47.2955	509.70
47.3099	513.54
47.3244	490.21
47.3388	510.64
47.3532	502.68
47.3677	521.64
47.3821	497.09
47.3966	488.68
47.4110	476.92
47.4254	517.16
47.4399	505.22
47.4543	512.70
47.4688	504.26
47.4832	470.59
47.4976	498.70
47.5121	494.99
47.5265	510.89
47.5410	483.01
47.5554	484.58
47.5698	504.13
47.5843	539.49
47.5987	505.50
47.6132	513.28
47.6276	483.73
47.6420	500.78
47.6565	507.58
47.6709	492.59
47.6854	499.77
47.6998	519.36
47.7142	525.99
47.7287	505.39
47.7431	480.77
47.7576	489.67
47.7720	487.55
47.7864	519.97
47.8009	521.35
47.8153	524.89
47.8298	498.00
47.8442	456.63
47.8586	503.92
47.8731	518.25
47.8875	498.91
47.9020	540.95
47.9164	531.84
47.9308	523.82
47.9453	541.96
47.9597	495.35
47.9742	523.86
47.9886	484.41
48.0030	511.66
48.0175	487.60
48.0319	530.19
48.0464	440.17
48.0608	509.83
48.0752	490.59
48.0897	500.51
48.1041	516.65
48.1186	520.79
48.1330	522.43
48.1474	493.49
48.1619	520.60
48.1763	507.40
48.1908	478.82
48.2052	487.78
48.2196	533.76
48.2341	517.06
48.2485	548.42
48.2630	520.12
48.2774	505.40
48.2918	514.33
48.3063	560.10
48.3207	510.59
48.3352	493.62
48.3496	514.24
48.3640	527.19
48.3785	526.21
48.3929	499.47
48.4074	481.85
48.4218	522.79
48.4362	513.27
48.4507	491.84
48.4651	523.62
48.4796	525.46
48.4940	515.26
48.5084	531.75
48.5229	487.75
48.5373	500.71
48.5518	535.93
48.5662	582.24
48.5806	530.43
48.5951	517.01
48.6095	517.62
48.6240	509.68
48.6384	519.61
48.6528	498.56
48.6673	496.62
48.6817	506.74
48.6962	546.28
48.7106	539.89
48.7250	501.59
48.7395	530.74
48.7539	519.64
48.7684	520.54
48.7828	483.42
48.7972	522.98
48.8117	524.98
48.8261	514.64
48.8406	516.97
48.8550	539.96
48.8694	539.82
48.8839	549.94
48.8983	579.61
48.9128	555.22
48.9272	544.93
48.9416	544.23
48.9561	538.38
48.9705	579.82
48.9850	570.42
48.9994	545.12
49.0139	573.78
49.0283	637.29
49.0427	608.46
49.0572	617.78
49.0716	670.55
49.0861	653.07
49.1005	650.53
49.1149	682.74
49.1294	727.66
49.1438	709.84
49.1583	801.48
49.1727	872.65
49.1871	908.77
49.2016	878.29
49.2160	1006.38
49.2305	1076.97
49.2449	1159.83
49.2593	1300.87
49.2738	1306.78
49.2882	1422.49
49.3027	1495.36
49.3171	1630.92
49.3315	1679.57
49.3460	1715.38
49.3604	1694.54
49.3749	1735.12
49.3893	1748.25
49.4037	1751.26
49.4182	1746.62
49.4326	1745.33
49.4471	1654.02
49.4615	1578.66
49.4759	1577.99
49.4904	1535.19
49.5048	1452.73
49.5193	1372.16
49.5337	1280.85
49.5481	1211.61
49.5626	1120.76
49.5770	1054.66
49.5915	994.18
49.6059	963.48
49.6203	860.40
49.6348	837.03
49.6492	774.37
49.6637	742.60
49.6781	674.19
49.6925	685.43
49.7070	662.60
49.7214	658.87
49.7359	617.08
49.7503	597.88
49.7647	608.77
49.7792	581.54
49.7936	596.89
49.8081	574.09
49.8225	595.11
49.8369	608.29
49.8514	600.32
49.8658	575.34
49.8803	588.38
49.8947	558.63
49.9091	550.46
49.9236	537.45
49.9380	569.97
49.9525	541.26
49.9669	515.34
49.9813	541.51
49.9958	576.57
50.0102	547.52
50.0247	504.32
50.0391	511.48
50.0535	562.34
50.0680	535.71
50.0824	519.53
50.0969	551.18
50.1113	537.37
50.1257	538.02
50.1402	519.03
50.1546	498.38
50.1691	503.34
50.1835	507.81
50.1979	505.97
50.2124	533.92
50.2268	489.06
50.2413	533.45
50.2557	539.65
50.2701	529.83
50.2846	521.58
50.2990	505.17
50.3135	509.93
50.3279	520.51
50.3423	512.94
50.3568	497.91
50.3712	531.45
50.3857	502.06
50.4001	501.85
50.4145	500.27
50.4290	517.75
50.4434	509.44
50.4579	507.37
50.4723	538.36
50.4867	556.46
50.5012	534.53
50.5156	535.18
50.5301	509.85
50.5445	535.92
50.5589	555.94
50.5734	533.47
50.5878	515.57
50.6023	516.51
50.6167	517.50
50.6311	503.16
50.6456	500.37
50.6600	491.89
50.6745	483.95
50.6889	506.04
50.7033	530.67
50.7178	519.28
50.7322	490.79
50.7467	489.47
50.7611	519.81
50.7755	541.20
50.7900	511.90
50.8044	467.14
50.8189	486.46
50.8333	522.93
50.8477	514.42
50.8622	499.10
50.8766	507.26
50.8911	525.62
50.9055	542.63
50.9199	543.16
50.9344	529.58
50.9488	507.34
50.9633	481.91
50.9777	497.13
50.9921	501.67
51.0066	472.97
51.0210	493.24
51.0355	518.93
51.0499	520.98
51.0643	556.95
51.0788	521.88
51.0932	505.06
51.1077	504.23
51.1221	548.68
51.1365	530.87
51.1510	501.03
51.1654	502.58
51.1799	539.19
51.1943	519.15
51.2087	517.29
51.2232	496.67
51.2376	513.72
51.2521	508.98
51.2665	474.21
51.2809	529.78
51.2954	501.09
51.3098	481.22
51.3243	522.07
51.3387	533.32
51.3531	496.73
51.3676	499.08
51.3820	537.02
51.3965	517.49
51.4109	508.73
51.4253	512.83
51.4398	525.41
51.4542	513.02
51.4687	498.87
51.4831	479.21
51.4975	506.07
51.5120	529.17
51.5264	518.93
51.5409	476.81
51.5553	522.38
51.5697	526.20
51.5842	510.57
51.5986	534.47
51.6131	504.42
51.6275	503.83
51.6419	481.39
51.6564	502.79
51.6708	496.22
51.6853	481.83
51.6997	522.67
51.7141	534.85
51.7286	539.69
51.7430	545.25
51.7575	569.52
51.7719	512.59
51.7863	532.48
51.8008	521.70
51.8152	555.60
51.8297	516.62
51.8441	507.13
51.8585	525.10
51.8730	502.76
51.8874	492.81
51.9019	489.28
51.9163	488.14
51.9307	501.70
51.9452	492.24
51.9596	471.84
51.9741	540.50
51.9885	529.06
52.0029	496.03
52.0174	528.98
52.0318	524.08
52.0463	465.89
52.0607	509.33
52.0751	557.23
52.0896	551.44
52.1040	525.05
52.1185	500.43
52.1329	449.30
52.1473	486.39
52.1618	517.46
52.1762	510.07
52.1907	490.97
52.2051	526.25
52.2195	541.94
52.2340	501.07
52.2484	500.32
52.2629	532.58
52.2773	518.07
52.2917	518.20
52.3062	512.46
52.3206	499.23
52.3351	504.98
52.3495	528.05
52.3639	529.91
52.3784	475.60
52.3928	536.61
52.4073	487.59
52.4217	477.96
52.4361	510.86
52.4506	497.85
52.4650	497.69
52.4795	519.25
52.4939	518.79
52.5083	542.61
52.5228	539.30
52.5372	499.67
52.5517	497.69
52.5661	505.51
52.5805	538.16
52.5950	545.78
52.6094	516.97
52.6239	488.90
52.6383	520.71
52.6527	484.81
52.6672	506.37
52.6816	503.61
52.6961	500.29
52.7105	499.37
52.7250	502.52
52.7394	479.48
52.7538	503.12
52.7683	502.31
52.7827	504.63
52.7972	525.42
52.8116	554.05
52.8260	518.06
52.8405	537.59
52.8549	530.80
52.8694	500.13
52.8838	510.28
52.8982	512.01
52.9127	528.57
52.9271	496.88
52.9416	514.80
52.9560	547.22
52.9704	498.69
52.9849	522.10
52.9993	528.04
53.0138	509.01
53.0282	497.90
53.0426	484.29
53.0571	528.46
53.0715	525.94
53.0860	527.20
53.1004	511.99
53.1148	502.88
53.1293	530.34
53.1437	495.56
53.1582	484.96
53.1726	514.87
53.1870	491.62
53.2015	488.84
53.2159	524.50
53.2304	491.29
53.2448	518.26
53.2592	513.82
53.2737	498.01
53.2881	462.59
53.3026	513.46
53.3170	526.38
53.3314	513.24
53.3459	499.08
53.3603	494.27
53.3748	490.45
53.3892	513.42
53.4036	520.39
53.4181	519.41
53.4325	525.15
53.4470	515.42
53.4614	521.32
53.4758	522.01
53.4903	515.51
53.5047	517.91
53.5192	528.81
53.5336	513.23
53.5480	532.13
53.5625	514.77
53.5769	480.88
53.5914	509.60
53.6058	507.47
53.6202	513.86
53.6347	535.22
53.6491	500.13
53.6636	537.48
53.6780	523.45
53.6924	516.18
53.7069	528.77
53.7213	512.84
53.7358	491.82
53.7502	540.77
53.7646	515.36
53.7791	531.38
53.7935	515.24
53.8080	519.73
53.8224	494.21
53.8368	525.55
53.8513	510.58
53.8657	497.88
53.8802	490.80
53.8946	526.38
53.9090	514.49
53.9235	533.15
53.9379	517.55
53.9524	507.15
53.9668	505.62
53.9812	510.75
53.9957	519.65
54.0101	537.56
54.0246	538.81
54.0390	482.59
54.0534	519.31
54.0679	536.98
54.0823	568.62
54.0968	538.31
54.1112	520.92
54.1256	553.46
54.1401	514.60
54.1545	502.45
54.1690	521.75
54.1834	515.17
54.1978	533.88
54.2123	525.65
54.2267	496.68
54.2412	523.54
54.2556	532.23
54.2700	510.47
54.2845	573.29
54.2989	544.50
54.3134	537.97
54.3278	514.91
54.3422	520.45
54.3567	527.94
54.3711	551.32
54.3856	533.78
54.4000	523.60
54.4144	542.90
54.4289	560.13
54.4433	547.07
54.4578	542.25
54.4722	556.85
54.4866	575.04
54.5011	552.77
54.5155	580.61
54.5300	592.31
54.5444	578.23
54.5588	579.75
54.5733	566.50
54.5877	613.27
54.6022	622.46
54.6166	612.57
54.6310	600.18
54.6455	639.87
54.6599	591.92
54.6744	562.70
54.6888	583.72
54.7032	564.01
54.7177	518.35
54.7321	560.13
54.7466	557.27
54.7610	538.65
54.7754	555.50
54.7899	586.65
54.8043	526.81
54.8188	536.81
54.8332	545.13
54.8476	540.16
54.8621	524.39
54.8765	526.10
54.8910	535.48
54.9054	546.66
54.9198	539.49
54.9343	546.06
54.9487	535.92
54.9632	505.65
54.9776	491.70
54.9920	516.40
55.0065	507.29
55.0209	513.79
55.0354	516.77
55.0498	529.69
55.0642	536.28
55.0787	548.27
55.0931	551.20
55.1076	542.27
55.1220	537.99
55.1364	517.85
55.1509	533.99
55.1653	516.09
55.1798	547.71
55.1942	512.91
55.2086	504.17
55.2231	503.50
55.2375	510.04
55.2520	549.11
55.2664	523.52
55.2808	518.00
55.2953	542.31
55.3097	523.40
55.3242	520.71
55.3386	532.76
55.3530	497.50
55.3675	486.89
55.3819	521.05
55.3964	522.54
55.4108	505.68
55.4252	539.11
55.4397	542.41
55.4541	500.06
55.4686	515.02
55.4830	523.65
55.4974	542.57
55.5119	496.65
55.5263	540.29
55.5408	530.33
55.5552	548.02
55.5696	522.26
55.5841	538.51
55.5985	526.17
55.6130	533.53
55.6274	533.53
55.6418	546.63
55.6563	540.36
55.6707	525.76
55.6852	512.55
55.6996	546.37
55.7140	520.81
55.7285	539.62
55.7429	478.80
55.7574	494.28
55.7718	542.24
55.7862	528.99
55.8007	498.36
55.8151	546.75
55.8296	522.07
55.8440	551.55
55.8584	522.58
55.8729	522.08
55.8873	548.65
55.9018	525.52
55.9162	494.62
55.9306	542.28
55.9451	525.53
55.9595	516.95
55.9740	505.95
55.9884	520.57
56.0028	528.84
56.0173	536.37
56.0317	513.43
56.0462	510.17
56.0606	519.84
56.0750	515.32
56.0895	545.95
56.1039	532.68
56.1184	503.64
56.1328	554.01
56.1472	514.38
56.1617	519.19
56.1761	491.55
56.1906	530.90
56.2050	543.44
56.2194	528.21
56.2339	522.04
56.2483	517.83
56.2628	513.45
56.2772	494.27
56.2916	506.22
56.3061	533.48
56.3205	522.12
56.3350	519.37
56.3494	535.39
56.3639	515.17
56.3783	506.50
56.3927	509.91
56.4072	478.34
56.4216	517.49
56.4361	524.04
56.4505	513.52
56.4649	537.45
56.4794	528.11
56.4938	504.74
56.5083	510.95
56.5227	541.14
56.5371	527.93
56.5516	524.91
56.5660	556.91
56.5805	509.45
56.5949	502.93
56.6093	514.47
56.6238	488.74
56.6382	536.70
56.6527	531.89
56.6671	511.77
56.6815	525.64
56.6960	508.05
56.7104	529.01
56.7249	537.96
56.7393	526.75
56.7537	534.76
56.7682	501.62
56.7826	569.85
56.7971	531.04
56.8115	519.43
56.8259	504.45
56.8404	507.77
56.8548	505.98
56.8693	578.38
56.8837	545.83
56.8981	536.56
56.9126	519.47
56.9270	549.32
56.9415	549.08
56.9559	512.87
56.9703	506.32
56.9848	557.80
56.9992	501.33
57.0137	549.06
57.0281	563.47
57.0425	546.05
57.0570	537.75
57.0714	525.19
57.0859	518.80
57.1003	527.43
57.1147	516.93
57.1292	543.33
57.1436	487.80
57.1581	520.71
57.1725	544.14
57.1869	525.32
57.2014	541.02
57.2158	549.58
57.2303	522.91
57.2447	469.33
57.2591	483.88
57.2736	550.76
57.2880	570.11
57.3025	524.28
57.3169	503.66
57.3313	510.85
57.3458	523.84
57.3602	540.45
57.3747	513.52
57.3891	509.50
57.4035	524.86
57.4180	501.07
57.4324	518.15
57.4469	510.91
57.4613	482.30
57.4757	486.53
57.4902	507.66
57.5046	536.24
57.5191	556.49
57.5335	529.01
57.5479	524.43
57.5624	543.91
57.5768	524.26
57.5913	528.37
57.6057	504.79
57.6201	527.73
57.6346	577.26
57.6490	513.70
57.6635	490.78
57.6779	492.13
57.6923	495.72
57.7068	511.28
57.7212	552.38
57.7357	508.04
57.7501	552.27
57.7645	538.07
57.7790	518.82
57.7934	536.53
57.8079	531.21
57.8223	533.70
57.8367	520.71
57.8512	511.34
57.8656	563.47
57.8801	552.94
57.8945	562.59
57.9089	564.14
57.9234	556.24
57.9378	574.71
57.9523	534.94
57.9667	536.09
57.9811	512.91
57.9956	545.43
58.0100	546.96
58.0245	569.44
58.0389	584.32
58.0533	578.35
58.0678	594.57
58.0822	666.47
58.0967	602.26
58.1111	583.92
58.1255	639.74
58.1400	654.07
58.1544	654.45
58.1689	666.19
58.1833	693.35
58.1977	682.69
58.2122	685.43
58.2266	684.26
58.2411	693.08
58.2555	723.42
58.2699	655.25
58.2844	645.60
58.2988	643.22
58.3133	665.53
58.3277	677.28
58.3421	674.17
58.3566	635.94
58.3710	599.02
58.3855	603.50
58.3999	624.78
58.4143	627.97
58.4288	624.64
58.4432	592.08
58.4577	586.44
58.4721	579.67
58.4865	562.87
58.5010	579.62
58.5154	565.45
58.5299	571.54
58.5443	584.27
58.5587	576.79
58.5732	556.84
58.5876	549.24
58.6021	565.30
58.6165	586.73
58.6309	586.34
58.6454	542.48
58.6598	561.38
58.6743	548.66
58.6887	568.33
58.7031	530.42
58.7176	535.63
58.7320	536.68
58.7465	523.89
58.7609	514.79
58.7753	539.21
58.7898	525.89
58.8042	541.56
58.8187	517.64
58.8331	544.50
58.8475	535.77
58.8620	564.35
58.8764	529.30
58.8909	559.25
58.9053	578.55
58.9197	541.48
58.9342	537.40
58.9486	531.42
58.9631	518.77
58.9775	541.40
58.9919	530.46
59.0064	524.72
59.0208	545.64
59.0353	517.18
59.0497	540.23
59.0641	533.73
59.0786	559.42
59.0930	573.52
59.1075	555.33
59.1219	542.71
59.1363	558.27
59.1508	512.58
59.1652	521.46
59.1797	556.90
59.1941	540.44
59.2085	524.12
59.2230	532.23
59.2374	552.79
59.2519	551.56
59.2663	509.42
59.2807	533.53
59.2952	582.85
59.3096	600.03
59.3241	551.99
59.3385	564.33
59.3529	544.47
59.3674	517.77
59.3818	545.73
59.3963	558.30
59.4107	562.79
59.4251	612.62
59.4396	548.70
59.4540	551.62
59.4685	559.84
59.4829	556.26
59.4973	579.10
59.5118	606.81
59.5262	541.31
59.5407	534.02
59.5551	539.27
59.5695	559.09
59.5840	549.15
59.5984	543.98
59.6129	578.59
59.6273	538.36
59.6417	539.98
59.6562	538.56
59.6706	520.95
59.6851	533.31
59.6995	584.91
59.7139	580.22
59.7284	555.52
59.7428	577.21
59.7573	534.13
59.7717	539.33
59.7861	570.39
59.8006	519.52
59.8150	529.99
59.8295	558.08
59.8439	542.00
59.8583	524.95
59.8728	531.79
59.8872	507.44
59.9017	567.59
59.9161	521.97
59.9305	524.70
59.9450	600.38
59.9594	560.62
59.9739	547.58
59.9883	560.81
60.0027	543.14
60.0172	547.65
60.0316	540.84
60.0461	549.20
60.0605	545.31
60.0750	510.10
60.0894	539.94
60.1038	512.85
60.1183	520.01
60.1327	526.51
60.1472	516.72
60.1616	520.22
60.1760	534.32
60.1905	484.65
60.2049	509.89
60.2194	519.07
60.2338	551.33
60.2482	544.93
60.2627	531.99
60.2771	519.83
60.2916	510.17
60.3060	540.54
60.3204	555.45
60.3349	543.72
60.3493	558.66
60.3638	532.66
60.3782	535.73
60.3926	533.37
60.4071	561.71
60.4215	583.94
60.4360	555.24
60.4504	510.80
60.4648	550.64
60.4793	549.35
60.4937	521.76
60.5082	534.03
60.5226	538.97
60.5370	524.81
60.5515	529.93
60.5659	501.04
60.5804	518.32
60.5948	545.64
60.6092	543.35
60.6237	541.24
60.6381	545.69
60.6526	512.55
60.6670	543.26
60.6814	516.55
60.6959	528.60
60.7103	584.15
60.7248	569.69
60.7392	534.65
60.7536	526.65
60.7681	509.19
60.7825	521.37
60.7970	491.04
60.8114	519.37
60.8258	554.41
60.8403	516.36
60.8547	570.18
60.8692	569.17
60.8836	535.11
60.8980	536.40
60.9125	559.87
60.9269	520.38
60.9414	586.50
60.9558	577.10
60.9702	524.24
60.9847	545.77
60.9991	507.18
61.0136	540.40
61.0280	530.67
61.0424	518.85
61.0569	541.17
61.0713	529.40
61.0858	549.87
61.1002	557.64
61.1146	523.77
61.1291	557.14
61.1435	554.22
61.1580	562.04
61.1724	551.44
61.1868	524.59
61.2013	523.51
61.2157	530.23
61.2302	508.75
61.2446	529.79
61.2590	523.10
61.2735	542.16
61.2879	523.10
61.3024	593.11
61.3168	564.50
61.3312	579.72
61.3457	517.71
61.3601	528.67
61.3746	514.26
61.3890	519.22
61.4034	523.00
61.4179	605.85
61.4323	573.54
61.4468	501.59
61.4612	577.55
61.4756	536.18
61.4901	537.16
61.5045	533.39
61.5190	545.76
61.5334	539.42
61.5478	527.36
61.5623	580.24
61.5767	513.03
61.5912	557.96
61.6056	565.71
61.6200	548.95
61.6345	528.81
61.6489	534.86
61.6634	541.29
61.6778	519.40
61.6922	547.23
61.7067	540.09
61.7211	552.11
61.7356	551.48
61.7500	520.96
61.7644	517.01
61.7789	566.92
61.7933	565.54
61.8078	524.98
61.8222	541.81
61.8366	539.69
61.8511	579.86
61.8655	538.17
61.8800	540.06
61.8944	540.15
61.9088	556.67
61.9233	584.20
61.9377	555.05
61.9522	551.26
61.9666	553.90
61.9810	546.26
61.9955	555.87
62.0099	528.70
62.0244	559.27
62.0388	558.05
62.0532	554.19
62.0677	548.74
62.0821	583.78
62.0966	581.00
62.1110	552.73
62.1254	562.00
62.1399	550.27
62.1543	547.29
62.1688	559.76
62.1832	515.88
62.1976	525.33
62.2121	549.70
62.2265	537.16
62.2410	574.23
62.2554	544.24
62.2698	559.88
62.2843	559.64
62.2987	559.77
62.3132	552.80
62.3276	568.29
62.3420	547.59
62.3565	538.19
62.3709	530.36
62.3854	550.64
62.3998	561.94
62.4142	557.33
62.4287	564.39
62.4431	576.41
62.4576	570.75
62.4720	562.01
62.4864	560.51
62.5009	556.35
62.5153	570.62
62.5298	565.68
62.5442	532.26
62.5586	562.79
62.5731	562.58
62.5875	549.29
62.6020	563.25
62.6164	569.68
62.6308	533.41
62.6453	544.66
62.6597	554.05
62.6742	548.71
62.6886	547.70
62.7030	594.40
62.7175	584.89
62.7319	544.08
62.7464	529.22
62.7608	547.31
62.7752	572.77
62.7897	579.17
62.8041	569.91
62.8186	578.24
62.8330	555.79
62.8474	573.69
62.8619	570.02
62.8763	557.22
62.8908	544.73
62.9052	605.35
62.9196	531.50
62.9341	552.27
62.9485	568.80
62.9630	564.70
62.9774	547.26
62.9918	540.79
63.0063	569.90
63.0207	569.90
63.0352	586.66
63.0496	555.76
63.0640	568.11
63.0785	569.17
63.0929	581.54
63.1074	562.44
63.1218	572.76
63.1362	557.91
63.1507	544.60
63.1651	545.26
63.1796	565.95
63.1940	586.95
63.2084	591.15
63.2229	592.86
63.2373	574.44
63.2518	569.67
63.2662	583.20
63.2806	581.97
63.2951	592.19
63.3095	594.30
63.3240	574.72
63.3384	536.99
63.3528	584.21
63.3673	588.15
63.3817	545.50
63.3962	584.25
63.4106	580.44
63.4250	569.75
63.4395	577.54
63.4539	588.70
63.4684	608.58
63.4828	629.41
63.4972	611.59
63.5117	595.31
63.5261	591.64
63.5406	601.92
63.5550	638.12
63.5694	621.68
63.5839	596.62
63.5983	586.42
63.6128	597.52
63.6272	580.62
63.6416	600.62
63.6561	614.69
63.6705	599.29
63.6850	599.05
63.6994	649.08
63.7138	624.07
63.7283	642.46
63.7427	625.69
63.7572	613.48
63.7716	641.53
63.7861	678.53
63.8005	679.60
63.8149	665.49
63.8294	658.29
63.8438	694.18
63.8583	723.58
63.8727	736.87
63.8871	765.42
63.9016	848.01
63.9160	887.27
63.9305	864.65
63.9449	857.61
63.9593	843.02
63.9738	828.59
63.9882	808.31
64.0027	822.77
64.0171	780.47
64.0315	779.53
64.0460	771.78
64.0604	806.76
64.0749	746.75
64.0893	760.13
64.1037	762.23
64.1182	785.51
64.1326	752.80
64.1471	719.83
64.1615	702.16
64.1759	706.63
64.1904	705.81
64.2048	695.43
64.2193	723.28
64.2337	667.44
64.2481	653.35
64.2626	668.42
64.2770	650.69
64.2915	645.79
64.3059	632.97
64.3203	617.44
64.3348	611.26
64.3492	628.01
64.3637	633.31
64.3781	626.93
64.3925	602.85
64.4070	617.12
64.4214	682.31
64.4359	657.01
64.4503	612.43
64.4647	610.27
64.4792	610.07
64.4936	637.80
64.5081	664.52
64.5225	677.25
64.5369	661.13
64.5514	633.83
64.5658	656.10
64.5803	627.99
64.5947	646.28
64.6091	633.36
64.6236	678.43
64.6380	674.35
64.6525	627.96
64.6669	670.45
64.6813	611.72
64.6958	675.29
64.7102	682.44
64.7247	693.91
64.7391	693.98
64.7535	712.29
64.7680	721.16
64.7824	751.78
64.7969	717.95
64.8113	753.69
64.8257	767.73
64.8402	753.81
64.8546	807.72
64.8691	846.90
64.8835	838.99
64.8979	794.46
64.9124	872.90
64.9268	863.96
64.9413	844.07
64.9557	984.95
64.9701	986.33
64.9846	1058.61
64.9990	1142.04
65.0135	1359.55
65.0279	1518.05
65.0423	1710.06
65.0568	2135.09
65.0712	2740.79
65.0857	3564.64
65.1001	4687.40
65.1145	6208.88
65.1290	8123.94
65.1434	9847.11
65.1579	11260.03
65.1723	11925.84
65.1867	11338.13
65.2012	9871.08
65.2156	8124.12
65.2301	6395.16
65.2445	5194.17
65.2589	4549.52
65.2734	4301.03
65.2878	4439.25
65.3023	5030.87
65.3167	5951.95
65.3311	6722.74
65.3456	7141.64
65.3600	7127.57
65.3745	6520.58
65.3889	5478.41
65.4033	4345.01
65.4178	3477.94
65.4322	2700.69
65.4467	2096.74
65.4611	1736.69
65.4755	1419.49
65.4900	1293.57
65.5044	1091.75
65.5189	998.86
65.5333	972.16
65.5477	955.96
65.5622	923.02
65.5766	852.22
65.5911	879.94
65.6055	841.76
65.6199	765.92
65.6344	761.03
65.6488	744.83
65.6633	735.48
65.6777	733.81
65.6921	724.73
65.7066	778.60
65.7210	738.09
65.7355	674.26
65.7499	681.12
65.7643	667.79
65.7788	662.96
65.7932	648.02
65.8077	682.20
65.8221	698.90
65.8365	673.87
65.8510	640.33
65.8654	675.60
65.8799	677.74
65.8943	669.04
65.9087	667.76
65.9232	640.93
65.9376	641.34
65.9521	641.79
65.9665	672.90
65.9809	666.35
65.9954	645.78
66.0098	641.07
66.0243	648.44
66.0387	636.22
66.0531	592.81
66.0676	608.67
66.0820	648.99
66.0965	613.82
66.1109	620.19
66.1253	608.43
66.1398	561.56
66.1542	592.19
66.1687	623.74
66.1831	626.58
66.1975	579.59
66.2120	627.47
66.2264	605.37
66.2409	619.41
66.2553	603.33
66.2697	590.99
66.2842	625.29
66.2986	622.21
66.3131	637.10
66.3275	616.15
66.3419	612.45
66.3564	584.34
66.3708	594.96
66.3853	585.01
66.3997	589.80
66.4141	538.87
66.4286	606.21
66.4430	623.64
66.4575	610.43
66.4719	610.64
66.4863	601.81
66.5008	591.56
66.5152	572.63
66.5297	610.76
66.5441	628.89
66.5585	622.03
66.5730	604.23
66.5874	614.53
66.6019	605.52
66.6163	570.32
66.6307	562.11
66.6452	575.93
66.6596	609.11
66.6741	608.79
66.6885	576.83
66.7029	607.44
66.7174	618.27
66.7318	589.74
66.7463	560.42
66.7607	602.45
66.7751	608.41
66.7896	622.22
66.8040	571.57
66.8185	588.52
66.8329	591.39
66.8473	600.09
66.8618	631.21
66.8762	590.72
66.8907	583.10
66.9051	617.96
66.9195	610.17
66.9340	637.75
66.9484	566.00
66.9629	573.34
66.9773	573.06
66.9917	594.99
67.0062	570.45
67.0206	569.87
67.0351	599.61
67.0495	591.45
67.0639	556.46
67.0784	562.10
67.0928	605.27
67.1073	577.82
67.1217	560.23
67.1361	595.23
67.1506	584.62
67.1650	582.40
67.1795	586.14
67.1939	562.12
67.2083	579.19
67.2228	539.04
67.2372	559.10
67.2517	592.04
67.2661	586.43
67.2805	611.69
67.2950	581.44
67.3094	599.59
67.3239	575.56
67.3383	575.99
67.3527	578.52
67.3672	585.45
67.3816	593.07
67.3961	580.42
67.4105	561.43
67.4250	588.73
67.4394	583.23
67.4538	544.46
67.4683	571.81
67.4827	608.27
67.4972	572.77
67.5116	586.09
67.5260	600.08
67.5405	582.90
67.5549	577.83
67.5694	581.83
67.5838	562.05
67.5982	565.46
67.6127	571.93
67.6271	541.74
67.6416	588.31
67.6560	569.88
67.6704	535.96
67.6849	557.13
67.6993	563.09
67.7138	579.23
67.7282	599.70
67.7426	579.53
67.7571	613.16
67.7715	589.66
67.7860	607.52
67.8004	577.50
67.8148	595.01
67.8293	573.36
67.8437	588.40
67.8582	619.11
67.8726	580.83
67.8870	577.63
67.9015	565.04
67.9159	574.15
67.9304	579.99
67.9448	612.80
67.9592	595.54
67.9737	593.42
67.9881	601.17
68.0026	601.80
68.0170	566.88
68.0314	604.46
68.0459	590.02
68.0603	577.37
68.0748	579.55
68.0892	599.12
68.1036	546.41
68.1181	587.15
68.1325	591.75
68.1470	549.85
68.1614	602.17
68.1758	598.22
68.1903	592.38
68.2047	609.89
68.2192	581.92
68.2336	613.58
68.2480	575.82
68.2625	550.55
68.2769	568.44
68.2914	566.54
68.3058	502.57
68.3202	571.16
68.3347	597.72
68.3491	572.62
68.3636	623.40
68.3780	567.00
68.3924	575.15
68.4069	583.62
68.4213	550.95
68.4358	590.69
68.4502	567.23
68.4646	613.24
68.4791	588.20
68.4935	610.99
68.5080	566.37
68.5224	556.57
68.5368	578.91
68.5513	582.50
68.5657	525.98
68.5802	580.23
68.5946	572.09
68.6090	543.99
68.6235	560.05
68.6379	579.24
68.6524	587.54
68.6668	587.40
68.6812	589.56
68.6957	570.43
68.7101	574.79
68.7246	620.24
68.7390	587.88
68.7534	557.30
68.7679	565.89
68.7823	578.02
68.7968	582.30
68.8112	547.85
68.8256	574.04
68.8401	547.78
68.8545	547.53
68.8690	588.12
68.8834	578.11
68.8978	622.54
68.9123	545.18
68.9267	543.28
68.9412	575.40
68.9556	578.11
68.9700	585.93
68.9845	558.05
68.9989	565.31
69.0134	545.26
69.0278	540.89
69.0422	544.28
69.0567	550.36
69.0711	553.40
69.0856	603.62
69.1000	555.41
69.1144	585.59
69.1289	575.70
69.1433	601.88
69.1578	526.96
69.1722	592.09
69.1866	589.91
69.2011	535.05
69.2155	543.40
69.2300	560.35
69.2444	573.11
69.2588	569.06
69.2733	534.56
69.2877	617.29
69.3022	592.41
69.3166	578.83
69.3310	589.20
69.3455	602.27
69.3599	570.29
69.3744	614.70
69.3888	566.80
69.4032	577.67
69.4177	607.67
69.4321	602.52
69.4466	587.66
69.4610	585.07
69.4754	566.08
69.4899	544.47
69.5043	578.24
69.5188	545.96
69.5332	593.55
69.5476	543.06
69.5621	570.16
69.5765	568.04
69.5910	564.90
69.6054	596.64
69.6198	556.03
69.6343	596.26
69.6487	602.53
69.6632	596.66
69.6776	577.89
69.6920	572.18
69.7065	639.57
69.7209	606.33
69.7354	571.63
69.7498	593.75
69.7642	576.02
69.7787	533.28
69.7931	570.22
69.8076	575.39
69.8220	582.11
69.8364	586.65
69.8509	561.03
69.8653	553.43
69.8798	565.10
69.8942	557.09
69.9086	542.56
69.9231	532.87
69.9375	564.14
69.9520	616.81
69.9664	633.07
69.9808	588.63
69.9953	626.78
70.0097	595.36
70.0242	577.98
70.0386	549.55
70.0530	581.81
70.0675	574.63
70.0819	591.10
70.0964	576.66
70.1108	622.72
70.1252	586.33
70.1397	601.69
70.1541	632.21
70.1686	576.70
70.1830	569.20
70.1974	603.43
70.2119	623.49
70.2263	564.20
70.2408	537.90
70.2552	561.69
70.2696	625.81
70.2841	542.08
70.2985	575.89
70.3130	587.22
70.3274	561.01
70.3418	601.47
70.3563	591.22
70.3707	567.08
70.3852	611.21
70.3996	570.19
70.4140	510.53
70.4285	582.62
70.4429	561.53
70.4574	539.52
70.4718	564.54
70.4862	621.16
70.5007	600.60
70.5151	563.18
70.5296	578.87
70.5440	551.10
70.5584	584.68
70.5729	607.44
70.5873	563.79
70.6018	548.71
70.6162	601.46
70.6306	636.13
70.6451	606.66
70.6595	595.06
70.6740	567.45
70.6884	605.99
70.7028	581.34
70.7173	535.21
70.7317	544.76
70.7462	584.87
70.7606	560.04
70.7750	579.54
70.7895	565.61
70.8039	524.82
70.8184	550.79
70.8328	599.90
70.8472	558.40
70.8617	584.33
70.8761	572.16
70.8906	568.40
70.9050	601.90
70.9194	549.76
70.9339	555.98
70.9483	607.15
70.9628	606.77
70.9772	531.82
70.9916	528.07
71.0061	504.45
71.0205	562.18
71.0350	586.09
71.0494	548.78
71.0638	598.92
71.0783	603.28
71.0927	604.94
71.1072	577.97
71.1216	568.43
71.1361	570.56
71.1505	572.73
71.1649	606.71
71.1794	611.88
71.1938	582.16
71.2083	608.38
71.2227	572.97
71.2371	506.52
71.2516	518.57
71.2660	534.32
71.2805	598.63
71.2949	585.46
71.3093	599.71
71.3238	627.70
71.3382	601.18
71.3527	589.07
71.3671	593.40
71.3815	548.52
71.3960	563.83
71.4104	575.79
71.4249	599.67
71.4393	564.84
71.4537	528.94
71.4682	563.58
71.4826	542.46
71.4971	531.43
71.5115	553.17
71.5259	578.15
71.5404	532.24
71.5548	560.83
71.5693	547.54
71.5837	551.02
71.5981	576.47
71.6126	557.19
71.6270	533.46
71.6415	557.94
71.6559	576.37
71.6703	593.65
71.6848	591.31
71.6992	581.98
71.7137	557.03
71.7281	573.66
71.7425	568.87
71.7570	583.50
71.7714	608.03
71.7859	612.09
71.8003	599.12
71.8147	567.07
71.8292	559.04
71.8436	546.04
71.8581	574.12
71.8725	555.28
71.8869	567.65
71.9014	539.68
71.9158	526.61
71.9303	613.07
71.9447	657.50
71.9591	680.18
71.9736	617.54
71.9880	539.73
72.0025	515.93
72.0169	560.24
72.0313	593.30
72.0458	567.55
72.0602	589.17
72.0747	564.46
72.0891	570.02
72.1035	613.34
72.1180	623.16
72.1324	586.59
72.1469	603.52
72.1613	605.13
72.1757	596.77
72.1902	590.78
72.2046	542.99
72.2191	519.97
72.2335	511.80
72.2479	564.04
72.2624	554.60
72.2768	531.88
72.2913	561.61
72.3057	591.72
72.3201	582.13
72.3346	494.55
72.3490	503.35
72.3635	543.72
72.3779	496.53
72.3923	526.43
72.4068	508.44
72.4212	549.50
72.4357	617.96
72.4501	577.25
72.4645	500.57
72.4790	508.20
72.4934	525.06
72.5079	564.66
72.5223	534.42
72.5367	582.25
72.5512	626.75
72.5656	496.54
72.5801	489.20
72.5945	528.01
72.6089	495.12
72.6234	514.15
72.6378	610.50
72.6523	656.65
72.6667	707.75
72.6811	676.97
72.6956	664.81
72.7100	596.46
72.7245	670.70
72.7389	682.02
72.7533	627.19
72.7678	622.24
72.7822	673.15
72.7967	581.71
72.8111	618.72
72.8255	674.56
72.8400	601.06
72.8544	594.09
72.8689	607.83
72.8833	544.79

Result vector
22.1120	557.84
22.1264	550.22
22.1409	550.45
22.1553	580.58
22.1697	509.51
22.1842	528.71
22.1986	511.83
22.2131	530.23
22.2275	591.58
22.2419	604.21
22.2564	553.23
22.2708	571.32
22.2853	611.03
22.2997	499.59
22.3141	533.70
22.3286	549.41
22.3430	556.30
22.3575	559.78
22.3719	585.46
22.3863	585.80
22.4008	573.59
22.4152	624.93
22.4297	622.26
22.4441	655.99
22.4585	598.87
22.4730	573.94
22.4874	575.89
22.5019	553.98
22.5163	578.15
22.5307	574.39
22.5452	580.19
22.5596	671.86
22.5741	602.87
22.5885	574.84
22.6029	617.15
22.6174	560.86
22.6318	564.81
22.6463	592.77
22.6607	693.83
22.6751	619.58
22.6896	532.56
22.7040	575.09
22.7185	590.01
22.7329	607.31
22.7473	551.16
22.7618	608.46
22.7762	620.63
22.7907	559.03
22.8051	523.21
22.8195	532.45
22.8340	596.45
22.8484	582.60
22.8629	654.15
22.8773	612.22
22.8917	529.19
22.9062	609.60
22.9206	615.28
22.9351	670.08
22.9495	616.89
22.9639	580.92
22.9784	560.77
22.9928	567.57
23.0073	602.73
23.0217	576.16
23.0361	602.83
23.0506	538.66
23.0650	486.28
23.0795	578.95
23.0939	591.83
23.1083	531.98
23.1228	568.02
23.1372	534.60
23.1517	550.03
23.1661	580.60
23.1806	521.53
23.1950	540.58
23.2094	517.13
23.2239	557.36
23.2383	563.00
23.2528	492.22
23.2672	645.76
23.2816	641.90
23.2961	604.10
23.3105	564.15
23.3250	572.58
23.3394	589.82
23.3538	581.63
23.3683	571.16
23.3827	607.35
23.3972	631.90
23.4116	511.28
23.4260	550.37
23.4405	555.64
23.4549	609.01
23.4694	566.25
23.4838	525.05
23.4982	583.93
23.5127	566.42
23.5271	611.97
23.5416	569.45
23.5560	609.51
23.5704	572.49
23.5849	555.66
23.5993	538.28
23.6138	554.84
23.6282	536.40
23.6426	606.70
23.6571	596.00
23.6715	552.00
23.6860	557.55
23.7004	583.26
23.7148	567.99
23.7293	549.18
23.7437	531.70
23.7582	548.74
23.7726	557.82
23.7870	635.23
23.8015	571.69
23.8159	565.94
23.8304	591.95
23.8448	558.32
23.8592	518.89
23.8737	563.00
23.8881	542.28
23.9026	538.06
23.9170	510.95
23.9314	525.56
23.9459	516.80
23.9603	540.57
23.9748	531.93
23.9892	552.19
24.0036	581.97
24.0181	605.40
24.0325	618.03
24.0470	524.31
24.0614	547.90
24.0758	497.63
24.0903	570.10
24.1047	559.15
24.1192	564.74
24.1336	583.28
24.1480	545.04
24.1625	604.54
24.1769	648.68
24.1914	549.05
24.2058	581.97
24.2202	572.30
24.2347	556.44
24.2491	570.11
24.2636	578.64
24.2780	591.39
24.2924	574.90
24.3069	587.78
24.3213	543.25
24.3358	554.72
24.3502	589.32
24.3646	499.63
24.3791	521.16
24.3935	564.13
24.4080	606.38
24.4224	579.66
24.4368	548.96
24.4513	544.63
24.4657	617.45
24.4802	584.20
24.4946	574.98
24.5090	578.83
24.5235	555.69
24.5379	567.25
24.5524	563.01
24.5668	583.65
24.5812	586.99
24.5957	588.79
24.6101	595.83
24.6246	549.82
24.6390	567.54
24.6534	620.12
24.6679	555.41
24.6823	518.64
24.6968	569.96
24.7112	528.01
24.7256	544.63
24.7401	497.56
24.7545	562.23
24.7690	505.67
24.7834	526.04
24.7978	516.18
24.8123	538.82
24.8267	526.23
24.8412	534.36
24.8556	540.07
24.8700	559.60
24.8845	540.61
24.8989	586.63
24.9134	517.16
24.9278	540.30
24.9422	513.21
24.9567	528.67
24.9711	510.15
24.9856	533.13
25.0000	587.39
25.0144	552.43
25.0289	578.04
25.0433	546.60
25.0578	522.43
25.0722	542.19
25.0866	570.72
25.1011	513.08
25.1155	596.09
25.1300	522.74
25.1444	556.92
25.1588	533.30
25.1733	528.87
25.1877	528.72
25.2022	532.81
25.2166	572.94
25.2310	564.93
25.2455	550.96
25.2599	545.88
25.2744	544.45
25.2888	562.82
25.3032	508.96
25.3177	529.39
25.3321	558.96
25.3466	553.08
25.3610	552.04
25.3754	550.85
25.3899	499.68
25.4043	522.78
25.4188	510.62
25.4332	531.74
25.4476	537.00
25.4621	551.99
25.4765	538.73
25.4910	590.84
25.5054	552.75
25.5198	493.60
25.5343	556.03
25.5487	530.77
25.5632	472.66
25.5776	537.12
25.5920	554.46
25.6065	530.70
25.6209	508.45
25.6354	533.18
25.6498	548.30
25.6642	573.92
25.6787	524.08
25.6931	548.37
25.7076	543.27
25.7220	539.05
25.7364	576.30
25.7509	542.74
25.7653	538.22
25.7798	521.69
25.7942	560.13
25.8086	563.85
25.8231	563.45
25.8375	539.97
25.8520	528.54
25.8664	557.66
25.8808	556.52
25.8953	518.56
25.9097	505.38
25.9242	522.25
25.9386	555.68
25.9530	558.16
25.9675	535.84
25.9819	506.16
25.9964	561.91
26.0108	544.53
26.0252	538.78
26.0397	505.41
26.0541	542.92
26.0686	544.87
26.0830	517.46
26.0974	519.50
26.1119	520.85
26.1263	517.18
26.1408	489.84
26.1552	541.34
26.1696	557.72
26.1841	556.93
26.1985	557.41
26.2130	564.76
26.2274	522.68
26.2418	512.35
26.2563	514.06
26.2707	500.18
26.2852	518.69
26.2996	544.39
26.3140	539.39
26.3285	598.08
26.3429	523.94
26.3574	523.52
26.3718	560.75
26.3862	523.16
26.4007	514.42
26.4151	517.25
26.4296	528.69
26.4440	527.83
26.4584	526.43
26.4729	525.27
26.4873	556.40
26.5018	530.86
26.5162	541.11
26.5306	515.80
26.5451	522.83
26.5595	515.86
26.5740	509.05
26.5884	520.14
26.6028	536.76
26.6173	516.63
26.6317	534.00
26.6462	539.82
26.6606	517.14
26.6750	530.49
26.6895	513.61
26.7039	537.18
26.7184	557.83
26.7328	533.01
26.7472	530.30
26.7617	516.98
26.7761	541.44
26.7906	520.48
26.8050	524.34
26.8194	535.85
26.8339	529.85
26.8483	533.80
26.8628	539.53
26.8772	504.14
26.8917	539.20
26.9061	573.05
26.9205	550.48
26.9350	519.98
26.9494	520.11
26.9639	504.38
26.9783	544.29
26.9927	532.37
27.0072	504.34
27.0216	529.83
27.0361	510.86
27.0505	503.94
27.0649	538.96
27.0794	530.17
27.0938	523.57
27.1083	516.25
27.1227	525.15
27.1371	545.64
27.1516	520.45
27.1660	512.90
27.1805	512.36
27.1949	497.74
27.2093	500.95
27.2238	531.28
27.2382	566.75
27.2527	534.50
27.2671	499.37
27.2815	531.08
27.2960	512.32
27.3104	535.14
27.3249	512.84
27.3393	518.09
27.3537	517.72
27.3682	514.85
27.3826	495.57
27.3971	511.42
27.4115	519.66
27.4259	526.89
27.4404	517.35
27.4548	514.44
27.4693	509.94
27.4837	505.76
27.4981	514.21
27.5126	520.13
27.5270	520.03
27.5415	529.34
27.5559	522.72
27.5703	504.05
27.5848	491.55
27.5992	512.62
27.6137	541.40
27.6281	515.07
27.6425	531.78
27.6570	510.00
27.6714	495.30
27.6859	494.27
27.7003	535.47
27.7147	500.26
27.7292	503.00
27.7436	544.22
27.7581	506.55
27.7725	500.71
27.7869	562.60
27.8014	552.89
27.8158	528.47
27.8303	536.03
27.8447	502.16
27.8591	532.16
27.8736	569.47
27.8880	523.61
27.9025	532.20
27.9169	515.30
27.9313	531.85
27.9458	506.38
27.9602	543.84
27.9747	509.22
27.9891	522.43
28.0035	530.17
28.0180	542.53
28.0324	552.18
28.0469	520.51
28.0613	531.23
28.0757	525.66
28.0902	518.15
28.1046	484.07
28.1191	512.39
28.1335	546.81
28.1479	502.34
28.1624	529.65
28.1768	507.17
28.1913	473.82
28.2057	519.32
28.2201	506.26
28.2346	492.01
28.2490	514.86
28.2635	511.92
28.2779	532.23
28.2923	526.32
28.3068	514.33
28.3212	503.88
28.3357	534.51
28.3501	495.46
28.3645	479.95
28.3790	472.68
28.3934	493.10
28.4079	508.29
28.4223	534.55
28.4367	527.33
28.4512	509.83
28.4656	522.09
28.4801	527.29
28.4945	519.83
28.5089	483.32
28.5234	527.86
28.5378	530.51
28.5523	493.31
28.5667	469.86
28.5811	519.84
28.5956	517.28
28.6100	492.87
28.6245	508.68
28.6389	522.41
28.6533	520.18
28.6678	517.12
28.6822	513.15
28.6967	502.42
28.7111	513.95
28.7255	505.26
28.7400	506.75
28.7544	525.55
28.7689	496.01
28.7833	560.03
28.7977	516.85
28.8122	524.12
28.8266	543.56
28.8411	526.62
28.8555	497.43
28.8699	524.21
28.8844	525.54
28.8988	514.70
28.9133	560.43
28.9277	517.96
28.9421	528.79
28.9566	511.71
28.9710	507.10
28.9855	506.76
28.9999	496.20
29.0143	521.81
29.0288	521.82
29.0432	458.94
29.0577	498.28
29.0721	526.63
29.0865	535.46
29.1010	547.71
29.1154	531.86
29.1299	532.79
29.1443	504.07
29.1587	542.49
29.1732	538.77
29.1876	532.66
29.2021	485.81
29.2165	497.01
29.2309	497.72
29.2454	507.13
29.2598	552.87
29.2743	528.79
29.2887	477.05
29.3031	498.63
29.3176	514.84
29.3320	514.37
29.3465	498.67
29.3609	545.59
29.3753	528.30
29.3898	512.70
29.4042	522.92
29.4187	528.81
29.4331	544.85
29.4475	500.72
29.4620	523.32
29.4764	544.34
29.4909	504.53
29.5053	518.14
29.5197	506.38
29.5342	517.47
29.5486	524.17
29.5631	522.99
29.5775	484.75
29.5919	509.55
29.6064	526.70
29.6208	503.13
29.6353	500.03
29.6497	493.53
29.6641	513.53
29.6786	493.22
29.6930	510.08
29.7075	499.85
29.7219	484.40
29.7363	501.70
29.7508	477.08
29.7652	496.56
29.7797	513.90
29.7941	494.19
29.8085	520.99
29.8230	513.70
29.8374	528.56
29.8519	491.29
29.8663	503.55
29.8807	496.17
29.8952	516.08
29.9096	494.90
29.9241	495.30
29.9385	492.48
29.9529	510.04
29.9674	499.06
29.9818	529.00
29.9963	534.43
30.0107	529.23
30.0251	496.59
30.0396	521.26
30.0540	545.10
30.0685	541.89
30.0829	532.56
30.0973	496.43
30.1118	471.06
30.1262	535.05
30.1407	511.23
30.1551	523.89
30.1695	521.17
30.1840	484.03
30.1984	505.32
30.2129	536.74
30.2273	519.14
30.2417	537.73
30.2562	526.73
30.2706	514.36
30.2851	505.96
30.2995	495.89
30.3139	531.29
30.3284	507.60
30.3428	502.25
30.3573	519.82
30.3717	509.24
30.3861	527.72
30.4006	502.49
30.4150	508.68
30.4295	535.84
30.4439	512.68
30.4583	515.62
30.4728	502.70
30.4872	496.98
30.5017	527.64
30.5161	528.55
30.5305	530.53
30.5450	537.11
30.5594	534.10
30.5739	506.09
30.5883	518.35
30.6028	548.80
30.6172	559.83
30.6316	557.29
30.6461	598.73
30.6605	592.80
30.6750	599.61
30.6894	651.71
30.7038	709.50
30.7183	725.50
30.7327	735.38
30.7472	703.90
30.7616	691.14
30.7760	730.82
30.7905	663.31
30.8049	628.45
30.8194	660.31
30.8338	672.05
30.8482	644.50
30.8627	608.85
30.8771	570.07
30.8916	554.03
30.9060	555.15
30.9204	557.10
30.9349	563.66
30.9493	554.68
30.9638	519.08
30.9782	540.30
30.9926	579.19
31.0071	559.88
31.0215	504.27
31.0360	531.23
31.0504	535.33
31.0648	530.42
31.0793	510.43
31.0937	513.65
31.1082	507.25
31.1226	498.42
31.1370	468.35
31.1515	479.80
31.1659	530.85
31.1804	527.03
31.1948	505.31
31.2092	537.15
31.2237	504.93
31.2381	542.12
31.2526	543.97
31.2670	520.65
31.2814	552.97
31.2959	529.89
31.3103	526.92
31.3248	491.21
31.3392	501.33
31.3536	509.00
31.3681	528.13
31.3825	512.66
31.3970	523.12
31.4114	492.60
31.4258	522.52
31.4403	529.89
31.4547	488.94
31.4692	483.89
31.4836	531.12
31.4980	495.38
31.5125	496.84
31.5269	486.28
31.5414	505.90
31.5558	520.61
31.5702	510.05
31.5847	514.07
31.5991	519.63
31.6136	537.14
31.6280	520.33
31.6424	552.65
31.6569	508.52
31.6713	483.42
31.6858	465.76
31.7002	493.08
31.7146	561.87
31.7291	556.74
31.7435	529.86
31.7580	529.23
31.7724	518.60
31.7868	488.27
31.8013	485.56
31.8157	515.45
31.8302	513.67
31.8446	523.64
31.8590	536.61
31.8735	532.08
31.8879	498.36
31.9024	532.00
31.9168	524.66
31.9312	499.20
31.9457	521.86
31.9601	496.20
31.9746	489.90
31.9890	468.95
32.0034	511.45
32.0179	528.59
32.0323	499.24
32.0468	499.54
32.0612	520.73
32.0756	526.30
32.0901	526.71
32.1045	501.14
32.1190	510.31
32.1334	488.91
32.1478	478.68
32.1623	504.36
32.1767	540.76
32.1912	502.82
32.2056	499.97
32.2200	495.81
32.2345	524.88
32.2489	516.19
32.2634	501.10
32.2778	504.59
32.2922	470.82
32.3067	501.25
32.3211	509.31
32.3356	499.46
32.3500	520.23
32.3644	522.85
32.3789	486.08
32.3933	498.95
32.4078	502.91
32.4222	517.64
32.4366	519.11
32.4511	498.11
32.4655	542.56
32.4800	500.11
32.4944	471.23
32.5088	494.22
32.5233	495.67
32.5377	507.29
32.5522	513.59
32.5666	532.37
32.5810	521.68
32.5955	497.90
32.6099	513.60
32.6244	535.20
32.6388	530.65
32.6532	525.84
32.6677	495.98
32.6821	492.65
32.6966	500.71
32.7110	514.53
32.7254	515.24
32.7399	506.30
32.7543	471.21
32.7688	517.77
32.7832	508.62
32.7976	478.09
32.8121	489.57
32.8265	503.91
32.8410	501.47
32.8554	469.97
32.8698	498.91
32.8843	544.13
32.8987	528.16
32.9132	522.29
32.9276	482.32
32.9420	498.57
32.9565	553.32
32.9709	497.82
32.9854	505.13
32.9998	461.65
33.0142	526.86
33.0287	513.06
33.0431	515.82
33.0576	500.14
33.0720	472.07
33.0864	509.12
33.1009	554.67
33.1153	498.23
33.1298	516.29
33.1442	499.32
33.1586	491.66
33.1731	515.92
33.1875	491.73
33.2020	494.55
33.2164	533.21
33.2308	497.32
33.2453	492.65
33.2597	519.82
33.2742	507.26
33.2886	478.63
33.3030	484.11
33.3175	514.08
33.3319	508.71
33.3464	567.63
33.3608	505.38
33.3752	503.71
33.3897	483.82
33.4041	476.64
33.4186	512.11
33.4330	503.41
33.4474	495.85
33.4619	498.10
33.4763	495.29
33.4908	536.66
33.5052	530.67
33.5196	523.24
33.5341	530.32
33.5485	524.02
33.5630	513.56
33.5774	524.95
33.5918	532.67
33.6063	504.70
33.6207	547.94
33.6352	544.37
33.6496	521.01
33.6640	496.37
33.6785	491.69
33.6929	504.34
33.7074	489.56
33.7218	484.72
33.7362	496.77
33.7507	507.44
33.7651	470.07
33.7796	511.18
33.7940	485.25
33.8084	512.33
33.8229	518.63
33.8373	516.37
33.8518	495.63
33.8662	529.89
33.8806	483.37
33.8951	516.54
33.9095	522.00
33.9240	506.59
33.9384	490.06
33.9528	503.78
33.9673	514.76
33.9817	489.83
33.9962	552.70
34.0106	529.43
34.0250	501.57
34.0395	551.66
34.0539	538.94
34.0684	552.89
34.0828	534.43
34.0972	522.04
34.1117	534.57
34.1261	530.84
34.1406	488.75
34.1550	465.24
34.1694	495.94
34.1839	531.17
34.1983	503.59
34.2128	500.04
34.2272	518.50
34.2417	505.90
34.2561	495.52
34.2705	512.91
34.2850	497.83
34.2994	481.34
34.3139	486.97
34.3283	499.86
34.3427	511.59
34.3572	532.20
34.3716	521.58
34.3861	488.21
34.4005	517.78
34.4149	521.03
34.4294	516.23
34.4438	503.91
34.4583	507.44
34.4727	527.29
34.4871	546.05
34.5016	509.41
34.5160	512.76
34.5305	488.18
34.5449	511.68
34.5593	552.30
34.5738	524.56
34.5882	505.99
34.6027	505.30
34.6171	519.67
34.6315	530.67
34.6460	499.93
34.6604	504.05
34.6749	514.20
34.6893	504.97
34.7037	515.47
34.7182	507.81
34.7326	473.09
34.7471	491.05
34.7615	529.08
34.7759	538.23
34.7904	548.76
34.8048	533.87
34.8193	521.31
34.8337	517.44
34.8481	504.93
34.8626	528.12
34.8770	511.96
34.8915	524.04
34.9059	557.73
34.9203	545.46
34.9348	529.89
34.9492	507.71
34.9637	483.08
34.9781	507.63
34.9925	531.69
35.0070	545.58
35.0214	518.30
35.0359	481.72
35.0503	502.53
35.0647	527.06
35.0792	545.32
35.0936	513.17
35.1081	526.93
35.1225	531.18
35.1369	496.97
35.1514	496.98
35.1658	538.33
35.1803	523.35
35.1947	532.59
35.2091	520.51
35.2236	553.77
35.2380	555.84
35.2525	518.45
35.2669	495.88
35.2813	507.30
35.2958	503.84
35.3102	517.79
35.3247	532.59
35.3391	529.45
35.3535	527.77
35.3680	525.77
35.3824	517.91
35.3969	486.21
35.4113	478.71
35.4257	533.96
35.4402	518.74
35.4546	506.12
35.4691	560.26
35.4835	540.60
35.4979	511.39
35.5124	515.13
35.5268	548.50
35.5413	561.11
35.5557	541.32
35.5701	516.32
35.5846	496.83
35.5990	509.91
35.6135	551.62
35.6279	525.88
35.6423	531.70
35.6568	525.33
35.6712	554.34
35.6857	552.69
35.7001	657.78
35.7145	742.80
35.7290	662.77
35.7434	582.84
35.7579	554.85
35.7723	573.74
35.7867	628.62
35.8012	666.67
35.8156	630.48
35.8301	592.87
35.8445	583.88
35.8589	649.36
35.8734	763.47
35.8878	857.75
35.9023	963.67
35.9167	1076.51
35.9311	1350.62
35.9456	1968.51
35.9600	2304.67
35.9745	1885.59
35.9889	1928.35
36.0033	2194.58
36.0178	2455.86
36.0322	2068.71
36.0467	1964.01
36.0611	1725.38
36.0755	1700.98
36.0900	1740.27
36.1044	1700.33
36.1189	1666.39
36.1333	1502.75
36.1477	1392.33
36.1622	1407.43
36.1766	1395.17
36.1911	1281.66
36.2055	1188.30
36.2199	1145.96
36.2344	1077.03
36.2488	1010.87
36.2633	968.25
36.2777	933.08
36.2921	864.69
36.3066	846.59
36.3210	811.75
36.3355	749.61
36.3499	742.96
36.3643	673.96
36.3788	623.00
36.3932	605.94
36.4077	599.80
36.4221	582.65
36.4365	571.45
36.4510	550.45
36.4654	614.90
36.4799	603.88
36.4943	573.73
36.5087	539.68
36.5232	558.79
36.5376	558.10
36.5521	530.50
36.5665	511.56
36.5809	545.47
36.5954	545.18
36.6098	544.94
36.6243	541.43
36.6387	544.78
36.6531	536.93
36.6676	515.08
36.6820	516.79
36.6965	507.67
36.7109	536.13
36.7253	552.80
36.7398	514.32
36.7542	538.12
36.7687	503.31
36.7831	539.36
36.7975	545.46
36.8120	571.27
36.8264	611.77
36.8409	639.44
36.8553	623.16
36.8697	587.52
36.8842	602.38
36.8986	598.06
36.9131	560.25
36.9275	547.80
36.9419	592.67
36.9564	556.31
36.9708	531.73
36.9853	543.42
36.9997	515.55
37.0141	534.80
37.0286	536.43
37.0430	547.46
37.0575	503.54
37.0719	517.76
37.0863	516.77
37.1008	498.87
37.1152	558.93
37.1297	529.22
37.1441	513.17
37.1585	515.64
37.1730	520.03
37.1874	512.55
37.2019	526.98
37.2163	497.49
37.2307	500.69
37.2452	485.60
37.2596	497.16
37.2741	499.03
37.2885	490.04
37.3029	484.22
37.3174	536.04
37.3318	515.99
37.3463	500.78
37.3607	478.19
37.3751	469.16
37.3896	507.16
37.4040	518.84
37.4185	519.39
37.4329	498.53
37.4473	493.15
37.4618	483.40
37.4762	481.50
37.4907	500.90
37.5051	507.52
37.5195	510.04
37.5340	501.83
37.5484	508.20
37.5629	527.12
37.5773	518.28
37.5917	487.92
37.6062	491.87
37.6206	511.86
37.6351	537.47
37.6495	545.97
37.6639	510.76
37.6784	488.29
37.6928	533.34
37.7073	557.11
37.7217	485.82
37.7361	483.79
37.7506	540.05
37.7650	502.47
37.7795	502.79
37.7939	500.44
37.8083	503.74
37.8228	497.52
37.8372	504.60
37.8517	497.24
37.8661	524.45
37.8805	521.33
37.8950	521.19
37.9094	513.15
37.9239	492.04
37.9383	535.33
37.9528	460.83
37.9672	470.03
37.9816	514.86
37.9961	527.25
38.0105	496.97
38.0250	522.64
38.0394	495.26
38.0538	497.59
38.0683	485.98
38.0827	491.80
38.0972	511.84
38.1116	510.57
38.1260	524.24
38.1405	490.85
38.1549	465.20
38.1694	507.37
38.1838	518.89
38.1982	496.66
38.2127	493.11
38.2271	507.47
38.2416	516.89
38.2560	488.56
38.2704	513.51
38.2849	485.68
38.2993	498.08
38.3138	492.70
38.3282	511.82
38.3426	514.69
38.3571	541.44
38.3715	538.38
38.3860	546.21
38.4004	546.11
38.4148	528.71
38.4293	571.56
38.4437	559.55
38.4582	584.51
38.4726	639.72
38.4870	699.56
38.5015	726.17
38.5159	778.47
38.5304	798.42
38.5448	793.85
38.5592	786.45
38.5737	796.41
38.5881	700.20
38.6026	712.29
38.6170	688.46
38.6314	688.27
38.6459	678.63
38.6603	640.46
38.6748	627.62
38.6892	602.95
38.7036	592.08
38.7181	525.20
38.7325	545.07
38.7470	538.53
38.7614	503.10
38.7758	516.87
38.7903	530.59
38.8047	540.62
38.8192	535.76
38.8336	495.45
38.8480	475.83
38.8625	499.61
38.8769	532.56
38.8914	536.81
38.9058	527.30
38.9202	516.68
38.9347	530.90
38.9491	513.08
38.9636	519.04
38.9780	517.49
38.9924	536.01
39.0069	496.40
39.0213	506.35
39.0358	527.89
39.0502	516.22
39.0646	473.49
39.0791	446.55
39.0935	511.68
39.1080	516.95
39.1224	506.15
39.1368	520.78
39.1513	488.41
39.1657	498.03
39.1802	481.59
39.1946	525.97
39.2090	514.16
39.2235	505.62
39.2379	505.17
39.2524	500.51
39.2668	502.09
39.2812	534.98
39.2957	512.87
39.3101	502.88
39.3246	488.52
39.3390	495.93
39.3534	488.86
39.3679	493.25
39.3823	493.46
39.3968	500.35
39.4112	529.07
39.4256	511.38
39.4401	499.68
39.4545	492.91
39.4690	503.05
39.4834	486.90
39.4978	532.95
39.5123	520.21
39.5267	514.20
39.5412	533.83
39.5556	511.27
39.5700	529.87
39.5845	511.37
39.5989	521.13
39.6134	487.91
39.6278	468.41
39.6422	468.68
39.6567	478.32
39.6711	506.04
39.6856	476.80
39.7000	519.61
39.7144	495.88
39.7289	515.73
39.7433	491.35
39.7578	514.58
39.7722	546.90
39.7866	519.12
39.8011	502.35
39.8155	498.02
39.8300	517.34
39.8444	521.75
39.8588	511.31
39.8733	521.95
39.8877	516.72
39.9022	525.08
39.9166	504.20
39.9310	490.54
39.9455	518.12
39.9599	509.42
39.9744	485.56
39.9888	480.75
40.0032	487.08
40.0177	461.90
40.0321	494.09
40.0466	475.67
40.0610	460.62
40.0754	517.12
40.0899	514.86
40.1043	506.97
40.1188	517.33
40.1332	496.12
40.1476	487.89
40.1621	515.97
40.1765	482.60
40.1910	486.14
40.2054	491.66
40.2198	518.80
40.2343	525.39
40.2487	488.36
40.2632	497.65
40.2776	515.56
40.2920	489.66
40.3065	514.67
40.3209	486.09
40.3354	480.75
40.3498	493.51
40.3642	505.93
40.3787	504.84
40.3931	486.30
40.4076	503.17
40.4220	520.88
40.4364	510.73
40.4509	486.16
40.4653	499.34
40.4798	495.71
40.4942	532.56
40.5086	518.45
40.5231	504.36
40.5375	514.10
40.5520	486.08
40.5664	506.43
40.5808	495.63
40.5953	508.59
40.6097	495.71
40.6242	485.81
40.6386	510.11
40.6530	513.82
40.6675	514.36
40.6819	495.18
40.6964	496.45
40.7108	521.43
40.7252	465.56
40.7397	483.25
40.7541	502.90
40.7686	522.52
40.7830	481.87
40.7974	481.88
40.8119	502.72
40.8263	488.14
40.8408	442.24
40.8552	469.93
40.8696	552.10
40.8841	518.41
40.8985	540.88
40.9130	519.05
40.9274	456.24
40.9418	486.54
40.9563	475.60
40.9707	498.21
40.9852	475.21
40.9996	458.18
41.0140	510.33
41.0285	488.44
41.0429	511.36
41.0574	506.26
41.0718	503.89
41.0862	523.06
41.1007	496.25
41.1151	490.64
41.1296	518.84
41.1440	486.39
41.1584	508.28
41.1729	522.64
41.1873	476.94
41.2018	493.96
41.2162	521.65
41.2306	512.97
41.2451	528.72
41.2595	509.26
41.2740	494.59
41.2884	530.81
41.3028	496.80
41.3173	476.32
41.3317	527.31
41.3462	512.82
41.3606	487.21
41.3750	477.36
41.3895	499.88
41.4039	516.52
41.4184	497.54
41.4328	476.81
41.4472	462.02
41.4617	491.58
41.4761	497.85
41.4906	505.93
41.5050	508.83
41.5194	475.95
41.5339	466.10
41.5483	488.17
41.5628	507.12
41.5772	487.77
41.5916	486.45
41.6061	509.63
41.6205	502.67
41.6350	498.84
41.6494	514.50
41.6639	486.77
41.6783	461.24
41.6927	487.44
41.7072	510.90
41.7216	481.56
41.7361	486.29
41.7505	507.95
41.7649	489.38
41.7794	510.65
41.7938	494.06
41.8083	504.48
41.8227	520.43
41.8371	513.46
41.8516	525.55
41.8660	525.56
41.8805	534.83
41.8949	581.76
41.9093	554.49
41.9238	552.02
41.9382	601.99
41.9527	617.94
41.9671	584.61
41.9815	551.81
41.9960	561.49
42.0104	566.88
42.0249	594.96
42.0393	568.17
42.0537	580.40
42.0682	566.65
42.0826	618.95
42.0971	598.82
42.1115	569.74
42.1259	570.35
42.1404	572.57
42.1548	591.06
42.1693	673.76
42.1837	676.39
42.1981	718.07
42.2126	791.97
42.2270	937.81
42.2415	1053.35
42.2559	1141.26
42.2703	1270.15
42.2848	1478.94
42.2992	1603.96
42.3137	1671.45
42.3281	1598.12
42.3425	1535.89
42.3570	1482.16
42.3714	1399.71
42.3859	1338.43
42.4003	1336.44
42.4147	1329.97
42.4292	1269.97
42.4436	1140.27
42.4581	1007.12
42.4725	933.60
42.4869	844.13
42.5014	766.07
42.5158	708.22
42.5303	671.22
42.5447	621.89
42.5591	627.68
42.5736	560.01
42.5880	566.10
42.6025	566.32
42.6169	567.06
42.6313	572.95
42.6458	574.95
42.6602	587.28
42.6747	542.93
42.6891	539.61
42.7035	551.03
42.7180	563.31
42.7324	551.26
42.7469	537.53
42.7613	519.78
42.7757	541.26
42.7902	561.69
42.8046	515.74
42.8191	527.36
42.8335	543.04
42.8479	484.87
42.8624	500.83
42.8768	515.64
42.8913	528.39
42.9057	533.92
42.9201	515.10
42.9346	472.62
42.9490	496.91
42.9635	502.40
42.9779	525.51
42.9923	553.57
43.0068	521.62
43.0212	501.54
43.0357	515.43
43.0501	527.05
43.0645	532.50
43.0790	495.59
43.0934	478.00
43.1079	455.50
43.1223	510.32
43.1367	484.76
43.1512	518.25
43.1656	531.38
43.1801	535.34
43.1945	466.49
43.2089	510.13
43.2234	531.10
43.2378	537.25
43.2523	502.71
43.2667	521.61
43.2811	524.61
43.2956	493.86
43.3100	504.78
43.3245	512.55
43.3389	540.33
43.3533	538.55
43.3678	523.86
43.3822	503.31
43.3967	532.61
43.4111	537.07
43.4255	544.69
43.4400	543.77
43.4544	491.81
43.4689	504.38
43.4833	517.82
43.4977	507.24
43.5122	482.96
43.5266	505.46
43.5411	503.02
43.5555	503.67
43.5699	500.84
43.5844	512.76
43.5988	515.98
43.6133	533.00
43.6277	503.74
43.6421	527.93
43.6566	527.67
43.6710	512.92
43.6855	522.69
43.6999	527.01
43.7143	524.92
43.7288	531.98
43.7432	523.62
43.7577	527.12
43.7721	507.05
43.7865	529.18
43.8010	525.75
43.8154	539.05
43.8299	525.68
43.8443	554.94
43.8587	569.35
43.8732	507.60
43.8876	517.39
43.9021	537.09
43.9165	573.00
43.9309	610.81
43.9454	611.07
43.9598	601.34
43.9743	637.73
43.9887	681.15
44.0031	658.31
44.0176	651.29
44.0320	608.56
44.0465	628.49
44.0609	624.19
44.0753	580.03
44.0898	610.25
44.1042	569.93
44.1187	601.11
44.1331	577.35
44.1475	530.47
44.1620	528.53
44.1764	548.59
44.1909	523.09
44.2053	529.87
44.2197	542.15
44.2342	553.00
44.2486	559.87
44.2631	529.37
44.2775	548.31
44.2919	530.88
44.3064	564.91
44.3208	543.11
44.3353	552.55
44.3497	520.24
44.3641	551.34
44.3786	577.43
44.3930	539.42
44.4075	554.85
44.4219	605.42
44.4363	623.51
44.4508	620.16
44.4652	601.90
44.4797	595.35
44.4941	563.75
44.5085	554.76
44.5230	552.28
44.5374	567.81
44.5519	545.96
44.5663	574.89
44.5807	605.61
44.5952	572.43
44.6096	567.69
44.6241	569.20
44.6385	610.33
44.6529	571.88
44.6674	565.48
44.6818	598.72
44.6963	608.12
44.7107	639.02
44.7251	690.17
44.7396	753.26
44.7540	848.64
44.7685	890.98
44.7829	910.60
44.7973	886.01
44.8118	824.69
44.8262	833.37
44.8407	758.10
44.8551	730.52
44.8695	742.91
44.8840	753.22
44.8984	736.71
44.9129	732.86
44.9273	685.81
44.9417	638.58
44.9562	602.64
44.9706	593.98
44.9851	603.89
44.9995	507.59
45.0139	559.71
45.0284	541.55
45.0428	495.69
45.0573	527.95
45.0717	517.77
45.0861	526.32
45.1006	508.78
45.1150	517.74
45.1295	539.38
45.1439	504.97
45.1583	498.96
45.1728	530.10
45.1872	514.32
45.2017	495.74
45.2161	520.50
45.2305	495.50
45.2450	486.57
45.2594	517.44
45.2739	492.51
45.2883	529.40
45.3028	525.01
45.3172	495.62
45.3316	545.95
45.3461	542.41
45.3605	498.31
45.3750	500.86
45.3894	510.78
45.4038	506.46
45.4183	505.93
45.4327	529.53
45.4472	465.67
45.4616	518.97
45.4760	547.14
45.4905	531.23
45.5049	512.57
45.5194	531.30
45.5338	497.44
45.5482	499.37
45.5627	519.90
45.5771	518.88
45.5916	479.91
45.6060	500.44
45.6204	504.29
45.6349	528.64
45.6493	521.11
45.6638	512.67
45.6782	509.73
45.6926	485.48
45.7071	513.79
45.7215	507.74
45.7360	495.19
45.7504	507.81
45.7648	506.47
45.7793	504.31
45.7937	530.90
45.8082	517.83
45.8226	549.79
45.8370	506.98
45.8515	517.51
45.8659	545.01
45.8804	508.61
45.8948	546.88
45.9092	493.19
45.9237	504.61
45.9381	462.43
45.9526	489.37
45.9670	511.70
45.9814	488.79
45.9959	489.23
46.0103	503.42
46.0248	493.58
46.0392	519.59
46.0536	511.53
46.0681	537.61
46.0825	520.74
46.0970	504.60
46.1114	525.03
46.1258	517.15
46.1403	485.37
46.1547	450.11
46.1692	505.40
46.1836	503.23
46.1980	471.98
46.2125	483.73
46.2269	494.83
46.2414	515.74
46.2558	512.67
46.2702	495.87
46.2847	514.46
46.2991	490.92
46.3136	515.54
46.3280	503.67
46.3424	531.22
46.3569	522.07
46.3713	509.36
46.3858	501.69
46.4002	454.85
46.4146	491.21
46.4291	528.61
46.4435	498.93
46.4580	512.41
46.4724	497.29
46.4868	532.14
46.5013	542.20
46.5157	497.69
46.5302	498.96
46.5446	508.95
46.5590	502.85
46.5735	493.08
46.5879	505.24
46.6024	519.62
46.6168	514.64
46.6312	508.94
46.6457	525.77
46.6601	520.97
46.6746	486.50
46.6890	494.66
46.7034	536.89
46.7179	511.42
46.7323	497.04
46.7468	489.67
46.7612	509.92
46.7756	500.71
46.7901	489.05
46.8045	539.00
46.8190	538.99
46.8334	525.24
46.8478	518.45
46.8623	530.72
46.8767	525.13
46.8912	507.40
46.9056	528.21
46.9200	511.20
46.9345	517.00
46.9489	493.31
46.9634	470.20
46.9778	488.17
46.9922	492.60
47.0067	502.43
47.0211	492.31
47.0356	490.39
47.0500	517.84
47.0644	523.53
47.0789	543.60
47.0933	526.33
47.1078	509.78
47.1222	516.88
47.1366	520.78
47.1511	523.69
47.1655	538.95
47.1800	550.83
47.1944	532.85
47.2088	514.74
47.2233	522.49
47.2377	513.59
47.2522	518.28
47.2666	492.39
47.2810	475.77
47.2955	509.70
47.3099	513.54
47.3244	490.21
47.3388	510.64
47.3532	502.68
47.3677	521.64
47.3821	497.09
47.3966	488.68
47.4110	476.92
47.4254	517.16
47.4399	505.22
47.4543	512.70
47.4688	504.26
47.4832	470.59
47.4976	498.70
47.5121	494.99
47.5265	510.89
47.5410	483.01
47.5554	484.58
47.5698	504.13
47.5843	539.49
47.5987	505.50
47.6132	513.28
47.6276	483.73
47.6420	500.78
47.6565	507.58
47.6709	492.59
47.6854	499.77
47.6998	519.36
47.7142	525.99
47.7287	505.39
47.7431	480.77
47.7576	489.67
47.7720	487.55
47.7864	519.97
47.8009	521.35
47.8153	524.89
47.8298	498.00
47.8442	456.63
47.8586	503.92
47.8731	518.25
47.8875	498.91
47.9020	540.95
47.9164	531.84
47.9308	523.82
47.9453	541.96
47.9597	495.35
47.9742	523.86
47.9886	484.41
48.0030	511.66
48.0175	487.60
48.0319	530.19
48.0464	440.17
48.0608	509.83
48.0752	490.59
48.0897	500.51
48.1041	516.65
48.1186	520.79
48.1330	522.43
48.1474	493.49
48.1619	520.60
48.1763	507.40
48.1908	478.82
48.2052	487.78
48.2196	533.76
48.2341	517.06
48.2485	548.42
48.2630	520.12
48.2774	505.40
48.2918	514.33
48.3063	560.10
48.3207	510.59
48.3352	493.62
48.3496	514.24
48.3640	527.19
48.3785	526.21
48.3929	499.47
48.4074	481.85
48.4218	522.79
48.4362	513.27
48.4507	491.84
48.4651	523.62
48.4796	525.46
48.4940	515.26
48.5084	531.75
48.5229	487.75
48.5373	500.71
48.5518	535.93
48.5662	582.24
48.5806	530.43
48.5951	517.01
48.6095	517.62
48.6240	509.68
48.6384	519.61
48.6528	498.56
48.6673	496.62
48.6817	506.74
48.6962	546.28
48.7106	539.89
48.7250	501.59
48.7395	530.74
48.7539	519.64
48.7684	520.54
48.7828	483.42
48.7972	522.98
48.8117	524.98
48.8261	514.64
48.8406	516.97
48.8550	539.96
48.8694	539.82
48.8839	549.94
48.8983	579.61
48.9128	555.22
48.9272	544.93
48.9416	544.23
48.9561	538.38
48.9705	579.82
48.9850	570.42
48.9994	545.12
49.0139	573.78
49.0283	637.29
49.0427	608.46
49.0572	617.78
49.0716	670.55
49.0861	653.07
49.1005	650.53
49.1149	682.74
49.1294	727.66
49.1438	709.84
49.1583	801.48
49.1727	872.65
49.1871	908.77
49.2016	878.29
49.2160	1006.38
49.2305	1076.97
49.2449	1159.83
49.2593	1300.87
49.2738	1306.78
49.2882	1422.49
49.3027	1495.36
49.3171	1630.92
49.3315	1679.57
49.3460	1715.38
49.3604	1694.54
49.3749	1735.12
49.3893	1748.25
49.4037	1751.26
49.4182	1746.62
49.4326	1745.33
49.4471	1654.02
49.4615	1578.66
49.4759	1577.99
49.4904	1535.19
49.5048	1452.73
49.5193	1372.16
49.5337	1280.85
49.5481	1211.61
49.5626	1120.76
49.5770	1054.66
49.5915	994.18
49.6059	963.48
49.6203	860.40
49.6348	837.03
49.6492	774.37
49.6637	742.60
49.6781	674.19
49.6925	685.43
49.7070	662.60
49.7214	658.87
49.7359	617.08
49.7503	597.88
49.7647	608.77
49.7792	581.54
49.7936	596.89
49.8081	574.09
49.8225	595.11
49.8369	608.29
49.8514	600.32
49.8658	575.34
49.8803	588.38
49.8947	558.63
49.9091	550.46
49.9236	537.45
49.9380	569.97
49.9525	541.26
49.9669	515.34
49.9813	541.51
49.9958	576.57
50.0102	547.52
50.0247	504.32
50.0391	511.48
50.0535	562.34
50.0680	535.71
50.0824	519.53
50.0969	551.18
50.1113	537.37
50.1257	538.02
50.1402	519.03
50.1546	498.38
50.1691	503.34
50.1835	507.81
50.1979	505.97
50.2124	533.92
50.2268	489.06
50.2413	533.45
50.2557	539.65
50.2701	529.83
50.2846	521.58
50.2990	505.17
50.3135	509.93
50.3279	520.51
50.3423	512.94
50.3568	497.91
50.3712	531.45
50.3857	502.06
50.4001	501.85
50.4145	500.27
50.4290	517.75
50.4434	509.44
50.4579	507.37
50.4723	538.36
50.4867	556.46
50.5012	534.53
50.5156	535.18
50.5301	509.85
50.5445	535.92
50.5589	555.94
50.5734	533.47
50.5878	515.57
50.6023	516.51
50.6167	517.50
50.6311	503.16
50.6456	500.37
50.6600	491.89
50.6745	483.95
50.6889	506.04
50.7033	530.67
50.7178	519.28
50.7322	490.79
50.7467	489.47
50.7611	519.81
50.7755	541.20
50.7900	511.90
50.8044	467.14
50.8189	486.46
50.8333	522.93
50.8477	514.42
50.8622	499.10
50.8766	507.26
50.8911	525.62
50.9055	542.63
50.9199	543.16
50.9344	529.58
50.9488	507.34
50.9633	481.91
50.9777	497.13
50.9921	501.67
51.0066	472.97
51.0210	493.24
51.0355	518.93
51.0499	520.98
51.0643	556.95
51.0788	521.88
51.0932	505.06
51.1077	504.23
51.1221	548.68
51.1365	530.87
51.1510	501.03
51.1654	502.58
51.1799	539.19
51.1943	519.15
51.2087	517.29
51.2232	496.67
51.2376	513.72
51.2521	508.98
51.2665	474.21
51.2809	529.78
51.2954	501.09
51.3098	481.22
51.3243	522.07
51.3387	533.32
51.3531	496.73
51.3676	499.08
51.3820	537.02
51.3965	517.49
51.4109	508.73
51.4253	512.83
51.4398	525.41
51.4542	513.02
51.4687	498.87
51.4831	479.21
51.4975	506.07
51.5120	529.17
51.5264	518.93
51.5409	476.81
51.5553	522.38
51.5697	526.20
51.5842	510.57
51.5986	534.47
51.6131	504.42
51.6275	503.83
51.6419	481.39
51.6564	502.79
51.6708	496.22
51.6853	481.83
51.6997	522.67
51.7141	534.85
51.7286	539.69
51.7430	545.25
51.7575	569.52
51.7719	512.59
51.7863	532.48
51.8008	521.70
51.8152	555.60
51.8297	516.62
51.8441	507.13
51.8585	525.10
51.8730	502.76
51.8874	492.81
51.9019	489.28
51.9163	488.14
51.9307	501.70
51.9452	492.24
51.9596	471.84
51.9741	540.50
51.9885	529.06
52.0029	496.03
52.0174	528.98
52.0318	524.08
52.0463	465.89
52.0607	509.33
52.0751	557.23
52.0896	551.44
52.1040	525.05
52.1185	500.43
52.1329	449.30
52.1473	486.39
52.1618	517.46
52.1762	510.07
52.1907	490.97
52.2051	526.25
52.2195	541.94
52.2340	501.07
52.2484	500.32
52.2629	532.58
52.2773	518.07
52.2917	518.20
52.3062	512.46
52.3206	499.23
52.3351	504.98
52.3495	528.05
52.3639	529.91
52.3784	475.60
52.3928	536.61
52.4073	487.59
52.4217	477.96
52.4361	510.86
52.4506	497.85
52.4650	497.69
52.4795	519.25
52.4939	518.79
52.5083	542.61
52.5228	539.30
52.5372	499.67
52.5517	497.69
52.5661	505.51
52.5805	538.16
52.5950	545.78
52.6094	516.97
52.6239	488.90
52.6383	520.71
52.6527	484.81
52.6672	506.37
52.6816	503.61
52.6961	500.29
52.7105	499.37
52.7250	502.52
52.7394	479.48
52.7538	503.12
52.7683	502.31
52.7827	504.63
52.7972	525.42
52.8116	554.05
52.8260	518.06
52.8405	537.59
52.8549	530.80
52.8694	500.13
52.8838	510.28
52.8982	512.01
52.9127	528.57
52.9271	496.88
52.9416	514.80
52.9560	547.22
52.9704	498.69
52.9849	522.10
52.9993	528.04
53.0138	509.01
53.0282	497.90
53.0426	484.29
53.0571	528.46
53.0715	525.94
53.0860	527.20
53.1004	511.99
53.1148	502.88
53.1293	530.34
53.1437	495.56
53.1582	484.96
53.1726	514.87
53.1870	491.62
53.2015	488.84
53.2159	524.50
53.2304	491.29
53.2448	518.26
53.2592	513.82
53.2737	498.01
53.2881	462.59
53.3026	513.46
53.3170	526.38
53.3314	513.24
53.3459	499.08
53.3603	494.27
53.3748	490.45
53.3892	513.42
53.4036	520.39
53.4181	519.41
53.4325	525.15
53.4470	515.42
53.4614	521.32
53.4758	522.01
53.4903	515.51
53.5047	517.91
53.5192	528.81
53.5336	513.23
53.5480	532.13
53.5625	514.77
53.5769	480.88
53.5914	509.60
53.6058	507.47
53.6202	513.86
53.6347	535.22
53.6491	500.13
53.6636	537.48
53.6780	523.45
53.6924	516.18
53.7069	528.77
53.7213	512.84
53.7358	491.82
53.7502	540.77
53.7646	515.36
53.7791	531.38
53.7935	515.24
53.8080	519.73
53.8224	494.21
53.8368	525.55
53.8513	510.58
53.8657	497.88
53.8802	490.80
53.8946	526.38
53.9090	514.49
53.9235	533.15
53.9379	517.55
53.9524	507.15
53.9668	505.62
53.9812	510.75
53.9957	519.65
54.0101	537.56
54.0246	538.81
54.0390	482.59
54.0534	519.31
54.0679	536.98
54.0823	568.62
54.0968	538.31
54.1112	520.92
54.1256	553.46
54.1401	514.60
54.1545	502.45
54.1690	521.75
54.1834	515.17
54.1978	533.88
54.2123	525.65
54.2267	496.68
54.2412	523.54
54.2556	532.23
54.2700	510.47
54.2845	573.29
54.2989	544.50
54.3134	537.97
54.3278	514.91
54.3422	520.45
54.3567	527.94
54.3711	551.32
54.3856	533.78
54.4000	523.60
54.4144	542.90
54.4289	560.13
54.4433	547.07
54.4578	542.25
54.4722	556.85
54.4866	575.04
54.5011	552.77
54.5155	580.61
54.5300	592.31
54.5444	578.23
54.5588	579.75
54.5733	566.50
54.5877	613.27
54.6022	622.46
54.6166	612.57
54.6310	600.18
54.6455	639.87
54.6599	591.92
54.6744	562.70
54.6888	583.72
54.7032	564.01
54.7177	518.35
54.7321	560.13
54.7466	557.27
54.7610	538.65
54.7754	555.50
54.7899	586.65
54.8043	526.81
54.8188	536.81
54.8332	545.13
54.8476	540.16
54.8621	524.39
54.8765	526.10
54.8910	535.48
54.9054	546.66
54.9198	539.49
54.9343	546.06
54.9487	535.92
54.9632	505.65
54.9776	491.70
54.9920	516.40
55.0065	507.29
55.0209	513.79
55.0354	516.77
55.0498	529.69
55.0642	536.28
55.0787	548.27
55.0931	551.20
55.1076	542.27
55.1220	537.99
55.1364	517.85
55.1509	533.99
55.1653	516.09
55.1798	547.71
55.1942	512.91
55.2086	504.17
55.2231	503.50
55.2375	510.04
55.2520	549.11
55.2664	523.52
55.2808	518.00
55.2953	542.31
55.3097	523.40
55.3242	520.71
55.3386	532.76
55.3530	497.50
55.3675	486.89
55.3819	521.05
55.3964	522.54
55.4108	505.68
55.4252	539.11
55.4397	542.41
55.4541	500.06
55.4686	515.02
55.4830	523.65
55.4974	542.57
55.5119	496.65
55.5263	540.29
55.5408	530.33
55.5552	548.02
55.5696	522.26
55.5841	538.51
55.5985	526.17
55.6130	533.53
55.6274	533.53
55.6418	546.63
55.6563	540.36
55.6707	525.76
55.6852	512.55
55.6996	546.37
55.7140	520.81
55.7285	539.62
55.7429	478.80
55.7574	494.28
55.7718	542.24
55.7862	528.99
55.8007	498.36
55.8151	546.75
55.8296	522.07
55.8440	551.55
55.8584	522.58
55.8729	522.08
55.8873	548.65
55.9018	525.52
55.9162	494.62
55.9306	542.28
55.9451	525.53
55.9595	516.95
55.9740	505.95
55.9884	520.57
56.0028	528.84
56.0173	536.37
56.0317	513.43
56.0462	510.17
56.0606	519.84
56.0750	515.32
56.0895	545.95
56.1039	532.68
56.1184	503.64
56.1328	554.01
56.1472	514.38
56.1617	519.19
56.1761	491.55
56.1906	530.90
56.2050	543.44
56.2194	528.21
56.2339	522.04
56.2483	517.83
56.2628	513.45
56.2772	494.27
56.2916	506.22
56.3061	533.48
56.3205	522.12
56.3350	519.37
56.3494	535.39
56.3639	515.17
56.3783	506.50
56.3927	509.91
56.4072	478.34
56.4216	517.49
56.4361	524.04
56.4505	513.52
56.4649	537.45
56.4794	528.11
56.4938	504.74
56.5083	510.95
56.5227	541.14
56.5371	527.93
56.5516	524.91
56.5660	556.91
56.5805	509.45
56.5949	502.93
56.6093	514.47
56.6238	488.74
56.6382	536.70
56.6527	531.89
56.6671	511.77
56.6815	525.64
56.6960	508.05
56.7104	529.01
56.7249	537.96
56.7393	526.75
56.7537	534.76
56.7682	501.62
56.7826	569.85
56.7971	531.04
56.8115	519.43
56.8259	504.45
56.8404	507.77
56.8548	505.98
56.8693	578.38
56.8837	545.83
56.8981	536.56
56.9126	519.47
56.9270	549.32
56.9415	549.08
56.9559	512.87
56.9703	506.32
56.9848	557.80
56.9992	501.33
57.0137	549.06
57.0281	563.47
57.0425	546.05
57.0570	537.75
57.0714	525.19
57.0859	518.80
57.1003	527.43
57.1147	516.93
57.1292	543.33
57.1436	487.80
57.1581	520.71
57.1725	544.14
57.1869	525.32
57.2014	541.02
57.2158	549.58
57.2303	522.91
57.2447	469.33
57.2591	483.88
57.2736	550.76
57.2880	570.11
57.3025	524.28
57.3169	503.66
57.3313	510.85
57.3458	523.84
57.3602	540.45
57.3747	513.52
57.3891	509.50
57.4035	524.86
57.4180	501.07
57.4324	518.15
57.4469	510.91
57.4613	482.30
57.4757	486.53
57.4902	507.66
57.5046	536.24
57.5191	556.49
57.5335	529.01
57.5479	524.43
57.5624	543.91
57.5768	524.26
57.5913	528.37
57.6057	504.79
57.6201	527.73
57.6346	577.26
57.6490	513.70
57.6635	490.78
57.6779	492.13
57.6923	495.72
57.7068	511.28
57.7212	552.38
57.7357	508.04
57.7501	552.27
57.7645	538.07
57.7790	518.82
57.7934	536.53
57.8079	531.21
57.8223	533.70
57.8367	520.71
57.8512	511.34
57.8656	563.47
57.8801	552.94
57.8945	562.59
57.9089	564.14
57.9234	556.24
57.9378	574.71
57.9523	534.94
57.9667	536.09
57.9811	512.91
57.9956	545.43
58.0100	546.96
58.0245	569.44
58.0389	584.32
58.0533	578.35
58.0678	594.57
58.0822	666.47
58.0967	602.26
58.1111	583.92
58.1255	639.74
58.1400	654.07
58.1544	654.45
58.1689	666.19
58.1833	693.35
58.1977	682.69
58.2122	685.43
58.2266	684.26
58.2411	693.08
58.2555	723.42
58.2699	655.25
58.2844	645.60
58.2988	643.22
58.3133	665.53
58.3277	677.28
58.3421	674.17
58.3566	635.94
58.3710	599.02
58.3855	603.50
58.3999	624.78
58.4143	627.97
58.4288	624.64
58.4432	592.08
58.4577	586.44
58.4721	579.67
58.4865	562.87
58.5010	579.62
58.5154	565.45
58.5299	571.54
58.5443	584.27
58.5587	576.79
58.5732	556.84
58.5876	549.24
58.6021	565.30
58.6165	586.73
58.6309	586.34
58.6454	542.48
58.6598	561.38
58.6743	548.66
58.6887	568.33
58.7031	530.42
58.7176	535.63
58.7320	536.68
58.7465	523.89
58.7609	514.79
58.7753	539.21
58.7898	525.89
58.8042	541.56
58.8187	517.64
58.8331	544.50
58.8475	535.77
58.8620	564.35
58.8764	529.30
58.8909	559.25
58.9053	578.55
58.9197	541.48
58.9342	537.40
58.9486	531.42
58.9631	518.77
58.9775	541.40
58.9919	530.46
59.0064	524.72
59.0208	545.64
59.0353	517.18
59.0497	540.23
59.0641	533.73
59.0786	559.42
59.0930	573.52
59.1075	555.33
59.1219	542.71
59.1363	558.27
59.1508	512.58
59.1652	521.46
59.1797	556.90
59.1941	540.44
59.2085	524.12
59.2230	532.23
59.2374	552.79
59.2519	551.56
59.2663	509.42
59.2807	533.53
59.2952	582.85
59.3096	600.03
59.3241	551.99
59.3385	564.33
59.3529	544.47
59.3674	517.77
59.3818	545.73
59.3963	558.30
59.4107	562.79
59.4251	612.62
59.4396	548.70
59.4540	551.62
59.4685	559.84
59.4829	556.26
59.4973	579.10
59.5118	606.81
59.5262	541.31
59.5407	534.02
59.5551	539.27
59.5695	559.09
59.5840	549.15
59.5984	543.98
59.6129	578.59
59.6273	538.36
59.6417	539.98
59.6562	538.56
59.6706	520.95
59.6851	533.31
59.6995	584.91
59.7139	580.22
59.7284	555.52
59.7428	577.21
59.7573	534.13
59.7717	539.33
59.7861	570.39
59.8006	519.52
59.8150	529.99
59.8295	558.08
59.8439	542.00
59.8583	524.95
59.8728	531.79
59.8872	507.44
59.9017	567.59
59.9161	521.97
59.9305	524.70
59.9450	600.38
59.9594	560.62
59.9739	547.58
59.9883	560.81
60.0027	543.14
60.0172	547.65
60.0316	540.84
60.0461	549.20
60.0605	545.31
60.0750	510.10
60.0894	539.94
60.1038	512.85
60.1183	520.01
60.1327	526.51
60.1472	516.72
60.1616	520.22
60.1760	534.32
60.1905	484.65
60.2049	509.89
60.2194	519.07
60.2338	551.33
60.2482	544.93
60.2627	531.99
60.2771	519.83
60.2916	510.17
60.3060	540.54
60.3204	555.45
60.3349	543.72
60.3493	558.66
60.3638	532.66
60.3782	535.73
60.3926	533.37
60.4071	561.71
60.4215	583.94
60.4360	555.24
60.4504	510.80
60.4648	550.64
60.4793	549.35
60.4937	521.76
60.5082	534.03
60.5226	538.97
60.5370	524.81
60.5515	529.93
60.5659	501.04
60.5804	518.32
60.5948	545.64
60.6092	543.35
60.6237	541.24
60.6381	545.69
60.6526	512.55
60.6670	543.26
60.6814	516.55
60.6959	528.60
60.7103	584.15
60.7248	569.69
60.7392	534.65
60.7536	526.65
60.7681	509.19
60.7825	521.37
60.7970	491.04
60.8114	519.37
60.8258	554.41
60.8403	516.36
60.8547	570.18
60.8692	569.17
60.8836	535.11
60.8980	536.40
60.9125	559.87
60.9269	520.38
60.9414	586.50
60.9558	577.10
60.9702	524.24
60.9847	545.77
60.9991	507.18
61.0136	540.40
61.0280	530.67
61.0424	518.85
61.0569	541.17
61.0713	529.40
61.0858	549.87
61.1002	557.64
61.1146	523.77
61.1291	557.14
61.1435	554.22
61.1580	562.04
61.1724	551.44
61.1868	524.59
61.2013	523.51
61.2157	530.23
61.2302	508.75
61.2446	529.79
61.2590	523.10
61.2735	542.16
61.2879	523.10
61.3024	593.11
61.3168	564.50
61.3312	579.72
61.3457	517.71
61.3601	528.67
61.3746	514.26
61.3890	519.22
61.4034	523.00
61.4179	605.85
61.4323	573.54
61.4468	501.59
61.4612	577.55
61.4756	536.18
61.4901	537.16
61.5045	533.39
61.5190	545.76
61.5334	539.42
61.5478	527.36
61.5623	580.24
61.5767	513.03
61.5912	557.96
61.6056	565.71
61.6200	548.95
61.6345	528.81
61.6489	534.86
61.6634	541.29
61.6778	519.40
61.6922	547.23
61.7067	540.09
61.7211	552.11
61.7356	551.48
61.7500	520.96
61.7644	517.01
61.7789	566.92
61.7933	565.54
61.8078	524.98
61.8222	541.81
61.8366	539.69
61.8511	579.86
61.8655	538.17
61.8800	540.06
61.8944	540.15
61.9088	556.67
61.9233	584.20
61.9377	555.05
61.9522	551.26
61.9666	553.90
61.9810	546.26
61.9955	555.87
62.0099	528.70
62.0244	559.27
62.0388	558.05
62.0532	554.19
62.0677	548.74
62.0821	583.78
62.0966	581.00
62.1110	552.73
62.1254	562.00
62.1399	550.27
62.1543	547.29
62.1688	559.76
62.1832	515.88
62.1976	525.33
62.2121	549.70
62.2265	537.16
62.2410	574.23
62.2554	544.24
62.2698	559.88
62.2843	559.64
62.2987	559.77
62.3132	552.80
62.3276	568.29
62.3420	547.59
62.3565	538.19
62.3709	530.36
62.3854	550.64
62.3998	561.94
62.4142	557.33
62.4287	564.39
62.4431	576.41
62.4576	570.75
62.4720	562.01
62.4864	560.51
62.5009	556.35
62.5153	570.62
62.5298	565.68
62.5442	532.26
62.5586	562.79
62.5731	562.58
62.5875	549.29
62.6020	563.25
62.6164	569.68
62.6308	533.41
62.6453	544.66
62.6597	554.05
62.6742	548.71
62.6886	547.70
62.7030	594.40
62.7175	584.89
62.7319	544.08
62.7464	529.22
62.7608	547.31
62.7752	572.77
62.7897	579.17
62.8041	569.91
62.8186	578.24
62.8330	555.79
62.8474	573.69
62.8619	570.02
62.8763	557.22
62.8908	544.73
62.9052	605.35
62.9196	531.50
62.9341	552.27
62.9485	568.80
62.9630	564.70
62.9774	547.26
62.9918	540.79
63.0063	569.90
63.0207	569.90
63.0352	586.66
63.0496	555.76
63.0640	568.11
63.0785	569.17
63.0929	581.54
63.1074	562.44
63.1218	572.76
63.1362	557.91
63.1507	544.60
63.1651	545.26
63.1796	565.95
63.1940	586.95
63.2084	591.15
63.2229	592.86
63.2373	574.44
63.2518	569.67
63.2662	583.20
63.2806	581.97
63.2951	592.19
63.3095	594.30
63.3240	574.72
63.3384	536.99
63.3528	584.21
63.3673	588.15
63.3817	545.50
63.3962	584.25
63.4106	580.44
63.4250	569.75
63.4395	577.54
63.4539	588.70
63.4684	608.58
63.4828	629.41
63.4972	611.59
63.5117	595.31
63.5261	591.64
63.5406	601.92
63.5550	638.12
63.5694	621.68
63.5839	596.62
63.5983	586.42
63.6128	597.52
63.6272	580.62
63.6416	600.62
63.6561	614.69
63.6705	599.29
63.6850	599.05
63.6994	649.08
63.7138	624.07
63.7283	642.46
63.7427	625.69
63.7572	613.48
63.7716	641.53
63.7861	678.53
63.8005	679.60
63.8149	665.49
63.8294	658.29
63.8438	694.18
63.8583	723.58
63.8727	736.87
63.8871	765.42
63.9016	848.01
63.9160	887.27
63.9305	864.65
63.9449	857.61
63.9593	843.02
63.9738	828.59
63.9882	808.31
64.0027	822.77
64.0171	780.47
64.0315	779.53
64.0460	771.78
64.0604	806.76
64.0749	746.75
64.0893	760.13
64.1037	762.23
64.1182	785.51
64.1326	752.80
64.1471	719.83
64.1615	702.16
64.1759	706.63
64.1904	705.81
64.2048	695.43
64.2193	723.28
64.2337	667.44
64.2481	653.35
64.2626	668.42
64.2770	650.69
64.2915	645.79
64.3059	632.97
64.3203	617.44
64.3348	611.26
64.3492	628.01
64.3637	633.31
64.3781	626.93
64.3925	602.85
64.4070	617.12
64.4214	682.31
64.4359	657.01
64.4503	612.43
64.4647	610.27
64.4792	610.07
64.4936	637.80
64.5081	664.52
64.5225	677.25
64.5369	661.13
64.5514	633.83
64.5658	656.10
64.5803	627.99
64.5947	646.28
64.6091	633.36
64.6236	678.43
64.6380	674.35
64.6525	627.96
64.6669	670.45
64.6813	611.72
64.6958	675.29
64.7102	682.44
64.7247	693.91
64.7391	693.98
64.7535	712.29
64.7680	721.16
64.7824	751.78
64.7969	717.95
64.8113	753.69
64.8257	767.73
64.8402	753.81
64.8546	807.72
64.8691	846.90
64.8835	838.99
64.8979	794.46
64.9124	872.90
64.9268	863.96
64.9413	844.07
64.9557	984.95
64.9701	986.33
64.9846	1058.61
64.9990	1142.04
65.0135	1359.55
65.0279	1518.05
65.0423	1710.06
65.0568	2135.09
65.0712	2740.79
65.0857	3564.64
65.1001	4687.40
65.1145	6208.88
65.1290	8123.94
65.1434	9847.11
65.1579	11260.03
65.1723	11925.84
65.1867	11338.13
65.2012	9871.08
65.2156	8124.12
65.2301	6395.16
65.2445	5194.17
65.2589	4549.52
65.2734	4301.03
65.2878	4439.25
65.3023	5030.87
65.3167	5951.95
65.3311	6722.74
65.3456	7141.64
65.3600	7127.57
65.3745	6520.58
65.3889	5478.41
65.4033	4345.01
65.4178	3477.94
65.4322	2700.69
65.4467	2096.74
65.4611	1736.69
65.4755	1419.49
65.4900	1293.57
65.5044	1091.75
65.5189	998.86
65.5333	972.16
65.5477	955.96
65.5622	923.02
65.5766	852.22
65.5911	879.94
65.6055	841.76
65.6199	765.92
65.6344	761.03
65.6488	744.83
65.6633	735.48
65.6777	733.81
65.6921	724.73
65.7066	778.60
65.7210	738.09
65.7355	674.26
65.7499	681.12
65.7643	667.79
65.7788	662.96
65.7932	648.02
65.8077	682.20
65.8221	698.90
65.8365	673.87
65.8510	640.33
65.8654	675.60
65.8799	677.74
65.8943	669.04
65.9087	667.76
65.9232	640.93
65.9376	641.34
65.9521	641.79
65.9665	672.90
65.9809	666.35
65.9954	645.78
66.0098	641.07
66.0243	648.44
66.0387	636.22
66.0531	592.81
66.0676	608.67
66.0820	648.99
66.0965	613.82
66.1109	620.19
66.1253	608.43
66.1398	561.56
66.1542	592.19
66.1687	623.74
66.1831	626.58
66.1975	579.59
66.2120	627.47
66.2264	605.37
66.2409	619.41
66.2553	603.33
66.2697	590.99
66.2842	625.29
66.2986	622.21
66.3131	637.10
66.3275	616.15
66.3419	612.45
66.3564	584.34
66.3708	594.96
66.3853	585.01
66.3997	589.80
66.4141	538.87
66.4286	606.21
66.4430	623.64
66.4575	610.43
66.4719	610.64
66.4863	601.81
66.5008	591.56
66.5152	572.63
66.5297	610.76
66.5441	628.89
66.5585	622.03
66.5730	604.23
66.5874	614.53
66.6019	605.52
66.6163	570.32
66.6307	562.11
66.6452	575.93
66.6596	609.11
66.6741	608.79
66.6885	576.83
66.7029	607.44
66.7174	618.27
66.7318	589.74
66.7463	560.42
66.7607	602.45
66.7751	608.41
66.7896	622.22
66.8040	571.57
66.8185	588.52
66.8329	591.39
66.8473	600.09
66.8618	631.21
66.8762	590.72
66.8907	583.10
66.9051	617.96
66.9195	610.17
66.9340	637.75
66.9484	566.00
66.9629	573.34
66.9773	573.06
66.9917	594.99
67.0062	570.45
67.0206	569.87
67.0351	599.61
67.0495	591.45
67.0639	556.46
67.0784	562.10
67.0928	605.27
67.1073	577.82
67.1217	560.23
67.1361	595.23
67.1506	584.62
67.1650	582.40
67.1795	586.14
67.1939	562.12
67.2083	579.19
67.2228	539.04
67.2372	559.10
67.2517	592.04
67.2661	586.43
67.2805	611.69
67.2950	581.44
67.3094	599.59
67.3239	575.56
67.3383	575.99
67.3527	578.52
67.3672	585.45
67.3816	593.07
67.3961	580.42
67.4105	561.43
67.4250	588.73
67.4394	583.23
67.4538	544.46
67.4683	571.81
67.4827	608.27
67.4972	572.77
67.5116	586.09
67.5260	600.08
67.5405	582.90
67.5549	577.83
67.5694	581.83
67.5838	562.05
67.5982	565.46
67.6127	571.93
67.6271	541.74
67.6416	588.31
67.6560	569.88
67.6704	535.96
67.6849	557.13
67.6993	563.09
67.7138	579.23
67.7282	599.70
67.7426	579.53
67.7571	613.16
67.7715	589.66
67.7860	607.52
67.8004	577.50
67.8148	595.01
67.8293	573.36
67.8437	588.40
67.8582	619.11
67.8726	580.83
67.8870	577.63
67.9015	565.04
67.9159	574.15
67.9304	579.99
67.9448	612.80
67.9592	595.54
67.9737	593.42
67.9881	601.17
68.0026	601.80
68.0170	566.88
68.0314	604.46
68.0459	590.02
68.0603	577.37
68.0748	579.55
68.0892	599.12
68.1036	546.41
68.1181	587.15
68.1325	591.75
68.1470	549.85
68.1614	602.17
68.1758	598.22
68.1903	592.38
68.2047	609.89
68.2192	581.92
68.2336	613.58
68.2480	575.82
68.2625	550.55
68.2769	568.44
68.2914	566.54
68.3058	502.57
68.3202	571.16
68.3347	597.72
68.3491	572.62
68.3636	623.40
68.3780	567.00
68.3924	575.15
68.4069	583.62
68.4213	550.95
68.4358	590.69
68.4502	567.23
68.4646	613.24
68.4791	588.20
68.4935	610.99
68.5080	566.37
68.5224	556.57
68.5368	578.91
68.5513	582.50
68.5657	525.98
68.5802	580.23
68.5946	572.09
68.6090	543.99
68.6235	560.05
68.6379	579.24
68.6524	587.54
68.6668	587.40
68.6812	589.56
68.6957	570.43
68.7101	574.79
68.7246	620.24
68.7390	587.88
68.7534	557.30
68.7679	565.89
68.7823	578.02
68.7968	582.30
68.8112	547.85
68.8256	574.04
68.8401	547.78
68.8545	547.53
68.8690	588.12
68.8834	578.11
68.8978	622.54
68.9123	545.18
68.9267	543.28
68.9412	575.40
68.9556	578.11
68.9700	585.93
68.9845	558.05
68.9989	565.31
69.0134	545.26
69.0278	540.89
69.0422	544.28
69.0567	550.36
69.0711	553.40
69.0856	603.62
69.1000	555.41
69.1144	585.59
69.1289	575.70
69.1433	601.88
69.1578	526.96
69.1722	592.09
69.1866	589.91
69.2011	535.05
69.2155	543.40
69.2300	560.35
69.2444	573.11
69.2588	569.06
69.2733	534.56
69.2877	617.29
69.3022	592.41
69.3166	578.83
69.3310	589.20
69.3455	602.27
69.3599	570.29
69.3744	614.70
69.3888	566.80
69.4032	577.67
69.4177	607.67
69.4321	602.52
69.4466	587.66
69.4610	585.07
69.4754	566.08
69.4899	544.47
69.5043	578.24
69.5188	545.96
69.5332	593.55
69.5476	543.06
69.5621	570.16
69.5765	568.04
69.5910	564.90
69.6054	596.64
69.6198	556.03
69.6343	596.26
69.6487	602.53
69.6632	596.66
69.6776	577.89
69.6920	572.18
69.7065	639.57
69.7209	606.33
69.7354	571.63
69.7498	593.75
69.7642	576.02
69.7787	533.28
69.7931	570.22
69.8076	575.39
69.8220	582.11
69.8364	586.65
69.8509	561.03
69.8653	553.43
69.8798	565.10
69.8942	557.09
69.9086	542.56
69.9231	532.87
69.9375	564.14
69.9520	616.81
69.9664	633.07
69.9808	588.63
69.9953	626.78
70.0097	595.36
70.0242	577.98
70.0386	549.55
70.0530	581.81
70.0675	574.63
70.0819	591.10
70.0964	576.66
70.1108	622.72
70.1252	586.33
70.1397	601.69
70.1541	632.21
70.1686	576.70
70.1830	569.20
70.1974	603.43
70.2119	623.49
70.2263	564.20
70.2408	537.90
70.2552	561.69
70.2696	625.81
70.2841	542.08
70.2985	575.89
70.3130	587.22
70.3274	561.01
70.3418	601.47
70.3563	591.22
70.3707	567.08
70.3852	611.21
70.3996	570.19
70.4140	510.53
70.4285	582.62
70.4429	561.53
70.4574	539.52
70.4718	564.54
70.4862	621.16
70.5007	600.60
70.5151	563.18
70.5296	578.87
70.5440	551.10
70.5584	584.68
70.5729	607.44
70.5873	563.79
70.6018	548.71
70.6162	601.46
70.6306	636.13
70.6451	606.66
70.6595	595.06
70.6740	567.45
70.6884	605.99
70.7028	581.34
70.7173	535.21
70.7317	544.76
70.7462	584.87
70.7606	560.04
70.7750	579.54
70.7895	565.61
70.8039	524.82
70.8184	550.79
70.8328	599.90
70.8472	558.40
70.8617	584.33
70.8761	572.16
70.8906	568.40
70.9050	601.90
70.9194	549.76
70.9339	555.98
70.9483	607.15
70.9628	606.77
70.9772	531.82
70.9916	528.07
71.0061	504.45
71.0205	562.18
71.0350	586.09
71.0494	548.78
71.0638	598.92
71.0783	603.28
71.0927	604.94
71.1072	577.97
71.1216	568.43
71.1361	570.56
71.1505	572.73
71.1649	606.71
71.1794	611.88
71.1938	582.16
71.2083	608.38
71.2227	572.97
71.2371	506.52
71.2516	518.57
71.2660	534.32
71.2805	598.63
71.2949	585.46
71.3093	599.71
71.3238	627.70
71.3382	601.18
71.3527	589.07
71.3671	593.40
71.3815	548.52
71.3960	563.83
71.4104	575.79
71.4249	599.67
71.4393	564.84
71.4537	528.94
71.4682	563.58
71.4826	542.46
71.4971	531.43
71.5115	553.17
71.5259	578.15
71.5404	532.24
71.5548	560.83
71.5693	547.54
71.5837	551.02
71.5981	576.47
71.6126	557.19
71.6270	533.46
71.6415	557.94
71.6559	576.37
71.6703	593.65
71.6848	591.31
71.6992	581.98
71.7137	557.03
71.7281	573.66
71.7425	568.87
71.7570	583.50
71.7714	608.03
71.7859	612.09
71.8003	599.12
71.8147	567.07
71.8292	559.04
71.8436	546.04
71.8581	574.12
71.8725	555.28
71.8869	567.65
71.9014	539.68
71.9158	526.61
71.9303	613.07
71.9447	657.50
71.9591	680.18
71.9736	617.54
71.9880	539.73
72.0025	515.93
72.0169	560.24
72.0313	593.30
72.0458	567.55
72.0602	589.17
72.0747	564.46
72.0891	570.02
72.1035	613.34
72.1180	623.16
72.1324	586.59
72.1469	603.52
72.1613	605.13
72.1757	596.77
72.1902	590.78
72.2046	542.99
72.2191	519.97
72.2335	511.80
72.2479	564.04
72.2624	554.60
72.2768	531.88
72.2913	561.61
72.3057	591.72
72.3201	582.13
72.3346	494.55
72.3490	503.35
72.3635	543.72
72.3779	496.53
72.3923	526.43
72.4068	508.44
72.4212	549.50
72.4357	617.96
72.4501	577.25
72.4645	500.57
72.4790	508.20
72.4934	525.06
72.5079	564.66
72.5223	534.42
72.5367	582.25
72.5512	626.75
72.5656	496.54
72.5801	489.20
72.5945	528.01
72.6089	495.12
72.6234	514.15
72.6378	610.50
72.6523	656.65
72.6667	707.75
72.6811	676.97
72.6956	664.81
72.7100	596.46
72.7245	670.70
72.7389	682.02
72.7533	627.19
72.7678	622.24
72.7822	673.15
72.7967	581.71
72.8111	618.72
72.8255	674.56
72.8400	601.06
72.8544	594.09
72.8689	607.83
72.8833	544.79