2022.09.19 19:37:16
Îáðàçåö: ß÷åéêà LCoV 16-09-2022
Lambda1 = 1.54060
Lambda2 = 1.54439
Lambdam = 1.54186
R = 0.497
2Theta	I

line¹ 0 ;repeat¹ 0
22.1120	605.86
22.1264	679.94
22.1409	573.33
22.1553	504.10
22.1697	546.34
22.1842	572.36
22.1986	639.51
22.2131	611.52
22.2275	567.81
22.2419	568.20
22.2564	563.95
22.2708	548.31
22.2853	654.12
22.2997	691.59
22.3141	629.53
22.3286	625.71
22.3430	632.20
22.3575	623.04
22.3719	631.81
22.3863	575.05
22.4008	524.12
22.4152	591.62
22.4297	685.90
22.4441	671.71
22.4585	625.70
22.4730	638.35
22.4874	618.46
22.5019	571.23
22.5163	592.35
22.5307	554.22
22.5452	466.85
22.5596	544.96
22.5741	598.31
22.5885	530.29
22.6029	513.04
22.6174	538.13
22.6318	609.39
22.6463	537.45
22.6607	611.10
22.6751	609.35
22.6896	595.34
22.7040	605.34
22.7185	611.09
22.7329	585.59
22.7473	503.30
22.7618	517.76
22.7762	524.50
22.7907	515.20
22.8051	573.62
22.8195	594.25
22.8340	648.12
22.8484	595.26
22.8629	606.75
22.8773	600.87
22.8917	567.94
22.9062	603.85
22.9206	602.47
22.9351	570.62
22.9495	611.37
22.9639	527.43
22.9784	563.79
22.9928	533.31
23.0073	567.37
23.0217	621.43
23.0361	585.20
23.0506	558.69
23.0650	519.17
23.0795	623.59
23.0939	606.11
23.1083	497.01
23.1228	594.13
23.1372	564.89
23.1517	543.95
23.1661	611.91
23.1806	601.63
23.1950	535.12
23.2094	608.41
23.2239	615.70
23.2383	619.42
23.2528	604.70
23.2672	571.61
23.2816	532.61
23.2961	547.41
23.3105	565.40
23.3250	602.59
23.3394	550.49
23.3538	508.57
23.3683	487.56
23.3827	564.72
23.3972	505.29
23.4116	560.86
23.4260	558.77
23.4405	506.39
23.4549	583.44
23.4694	578.77
23.4838	574.51
23.4982	540.34
23.5127	571.87
23.5271	564.99
23.5416	560.46
23.5560	609.85
23.5704	517.98
23.5849	565.49
23.5993	563.51
23.6138	575.59
23.6282	555.61
23.6426	527.75
23.6571	586.91
23.6715	526.95
23.6860	551.47
23.7004	567.61
23.7148	525.54
23.7293	565.22
23.7437	531.50
23.7582	525.81
23.7726	545.60
23.7870	590.15
23.8015	536.32
23.8159	543.05
23.8304	521.74
23.8448	555.66
23.8592	535.93
23.8737	593.13
23.8881	618.09
23.9026	573.13
23.9170	633.15
23.9314	594.58
23.9459	550.39
23.9603	522.26
23.9748	567.68
23.9892	517.03
24.0036	591.46
24.0181	631.57
24.0325	536.24
24.0470	538.57
24.0614	585.48
24.0758	574.68
24.0903	546.26
24.1047	610.49
24.1192	561.66
24.1336	577.84
24.1480	535.67
24.1625	596.98
24.1769	629.93
24.1914	540.44
24.2058	569.72
24.2202	622.98
24.2347	565.55
24.2491	621.39
24.2636	594.92
24.2780	601.27
24.2924	627.51
24.3069	588.14
24.3213	592.54
24.3358	584.68
24.3502	602.88
24.3646	594.10
24.3791	553.49
24.3935	513.54
24.4080	565.36
24.4224	546.18
24.4368	618.30
24.4513	582.48
24.4657	632.88
24.4802	543.19
24.4946	551.21
24.5090	555.20
24.5235	546.63
24.5379	526.41
24.5524	601.67
24.5668	581.62
24.5812	557.51
24.5957	566.16
24.6101	568.34
24.6246	516.84
24.6390	541.19
24.6534	562.19
24.6679	568.25
24.6823	497.43
24.6968	529.17
24.7112	538.81
24.7256	581.73
24.7401	591.48
24.7545	545.74
24.7690	575.10
24.7834	608.95
24.7978	498.60
24.8123	542.69
24.8267	549.30
24.8412	521.44
24.8556	580.77
24.8700	547.63
24.8845	538.21
24.8989	569.16
24.9134	543.96
24.9278	500.14
24.9422	550.76
24.9567	528.17
24.9711	567.35
24.9856	535.41
25.0000	504.84
25.0144	522.92
25.0289	506.92
25.0433	558.18
25.0578	549.15
25.0722	538.71
25.0866	526.07
25.1011	515.23
25.1155	509.54
25.1300	512.30
25.1444	506.25
25.1588	566.60
25.1733	535.35
25.1877	496.72
25.2022	522.08
25.2166	522.63
25.2310	565.94
25.2455	553.76
25.2599	543.50
25.2744	592.80
25.2888	558.84
25.3032	543.11
25.3177	565.44
25.3321	535.99
25.3466	538.41
25.3610	515.62
25.3754	579.50
25.3899	548.21
25.4043	502.85
25.4188	568.21
25.4332	576.47
25.4476	560.91
25.4621	531.28
25.4765	536.60
25.4910	536.58
25.5054	570.74
25.5198	554.34
25.5343	566.00
25.5487	578.13
25.5632	578.36
25.5776	516.81
25.5920	523.95
25.6065	545.14
25.6209	551.59
25.6354	553.02
25.6498	513.99
25.6642	563.45
25.6787	526.95
25.6931	536.45
25.7076	569.08
25.7220	570.35
25.7364	556.51
25.7509	539.43
25.7653	535.95
25.7798	570.44
25.7942	526.00
25.8086	541.50
25.8231	569.07
25.8375	568.37
25.8520	554.36
25.8664	554.38
25.8808	552.21
25.8953	585.96
25.9097	546.09
25.9242	528.58
25.9386	525.57
25.9530	548.85
25.9675	532.47
25.9819	546.72
25.9964	540.26
26.0108	538.11
26.0252	529.28
26.0397	522.99
26.0541	547.76
26.0686	557.87
26.0830	555.92
26.0974	542.69
26.1119	532.09
26.1263	519.53
26.1408	514.59
26.1552	541.41
26.1696	552.00
26.1841	537.82
26.1985	520.72
26.2130	538.08
26.2274	522.65
26.2418	518.46
26.2563	497.34
26.2707	532.70
26.2852	551.63
26.2996	553.81
26.3140	519.07
26.3285	543.58
26.3429	557.72
26.3574	533.87
26.3718	528.25
26.3862	531.41
26.4007	522.51
26.4151	550.20
26.4296	566.31
26.4440	514.91
26.4584	520.18
26.4729	538.34
26.4873	552.98
26.5018	536.71
26.5162	507.60
26.5306	570.73
26.5451	555.64
26.5595	554.81
26.5740	522.76
26.5884	554.01
26.6028	531.75
26.6173	529.71
26.6317	530.41
26.6462	531.72
26.6606	512.68
26.6750	531.43
26.6895	515.79
26.7039	535.36
26.7184	562.98
26.7328	571.06
26.7472	560.11
26.7617	509.46
26.7761	488.70
26.7906	537.13
26.8050	543.83
26.8194	523.34
26.8339	539.49
26.8483	501.88
26.8628	504.68
26.8772	493.39
26.8917	518.83
26.9061	537.65
26.9205	533.41
26.9350	517.67
26.9494	549.25
26.9639	511.32
26.9783	527.48
26.9927	527.51
27.0072	516.20
27.0216	525.72
27.0361	569.06
27.0505	564.43
27.0649	528.40
27.0794	532.10
27.0938	540.85
27.1083	494.88
27.1227	546.63
27.1371	533.66
27.1516	503.42
27.1660	513.45
27.1805	504.96
27.1949	488.00
27.2093	523.15
27.2238	525.46
27.2382	536.95
27.2527	554.95
27.2671	543.59
27.2815	530.65
27.2960	513.72
27.3104	477.97
27.3249	505.82
27.3393	496.25
27.3537	518.21
27.3682	510.04
27.3826	508.08
27.3971	473.99
27.4115	500.45
27.4259	519.71
27.4404	505.02
27.4548	527.65
27.4693	528.77
27.4837	488.25
27.4981	538.52
27.5126	528.10
27.5270	537.45
27.5415	510.17
27.5559	516.68
27.5703	535.61
27.5848	552.84
27.5992	522.55
27.6137	520.66
27.6281	496.74
27.6425	501.98
27.6570	557.54
27.6714	508.46
27.6859	520.34
27.7003	541.90
27.7147	541.66
27.7292	545.80
27.7436	548.38
27.7581	551.30
27.7725	521.68
27.7869	534.75
27.8014	523.80
27.8158	527.84
27.8303	500.61
27.8447	498.17
27.8591	493.91
27.8736	519.47
27.8880	538.40
27.9025	507.30
27.9169	502.77
27.9313	537.08
27.9458	518.79
27.9602	466.29
27.9747	503.72
27.9891	492.30
28.0035	506.89
28.0180	528.23
28.0324	498.62
28.0469	483.20
28.0613	548.99
28.0757	568.68
28.0902	590.13
28.1046	536.64
28.1191	505.37
28.1335	528.10
28.1479	499.59
28.1624	525.61
28.1768	532.12
28.1913	518.81
28.2057	488.08
28.2201	471.93
28.2346	480.97
28.2490	514.95
28.2635	515.89
28.2779	522.97
28.2923	543.74
28.3068	542.52
28.3212	543.07
28.3357	546.02
28.3501	520.44
28.3645	542.38
28.3790	535.81
28.3934	523.99
28.4079	506.88
28.4223	521.81
28.4367	520.73
28.4512	508.63
28.4656	529.34
28.4801	514.38
28.4945	507.74
28.5089	526.03
28.5234	504.40
28.5378	535.03
28.5523	513.16
28.5667	490.26
28.5811	553.94
28.5956	535.54
28.6100	488.11
28.6245	481.01
28.6389	530.39
28.6533	532.40
28.6678	524.45
28.6822	490.41
28.6967	530.84
28.7111	467.86
28.7255	511.33
28.7400	494.12
28.7544	501.19
28.7689	496.19
28.7833	517.06
28.7977	502.32
28.8122	492.63
28.8266	525.37
28.8411	531.99
28.8555	567.98
28.8699	521.31
28.8844	535.96
28.8988	494.30
28.9133	518.24
28.9277	532.17
28.9421	514.66
28.9566	461.08
28.9710	504.78
28.9855	542.29
28.9999	517.78
29.0143	546.55
29.0288	534.43
29.0432	521.52
29.0577	495.02
29.0721	544.94
29.0865	556.08
29.1010	495.28
29.1154	512.56
29.1299	522.24
29.1443	513.63
29.1587	518.17
29.1732	527.85
29.1876	481.20
29.2021	508.02
29.2165	484.71
29.2309	496.46
29.2454	525.86
29.2598	493.86
29.2743	498.23
29.2887	493.87
29.3031	492.86
29.3176	501.18
29.3320	500.33
29.3465	534.12
29.3609	500.84
29.3753	499.74
29.3898	499.24
29.4042	519.06
29.4187	554.70
29.4331	499.07
29.4475	490.51
29.4620	495.32
29.4764	507.12
29.4909	501.65
29.5053	490.94
29.5197	514.59
29.5342	507.20
29.5486	477.86
29.5631	492.70
29.5775	478.50
29.5919	515.43
29.6064	498.75
29.6208	500.35
29.6353	538.51
29.6497	531.24
29.6641	521.51
29.6786	493.05
29.6930	462.34
29.7075	512.76
29.7219	482.65
29.7363	458.82
29.7508	492.24
29.7652	503.30
29.7797	498.32
29.7941	519.04
29.8085	516.62
29.8230	501.08
29.8374	483.68
29.8519	489.46
29.8663	497.28
29.8807	512.76
29.8952	486.15
29.9096	542.11
29.9241	541.54
29.9385	504.57
29.9529	464.67
29.9674	483.44
29.9818	504.26
29.9963	489.70
30.0107	495.09
30.0251	514.90
30.0396	512.19
30.0540	528.07
30.0685	502.86
30.0829	521.32
30.0973	520.12
30.1118	515.58
30.1262	549.27
30.1407	517.30
30.1551	540.46
30.1695	557.21
30.1840	547.12
30.1984	550.39
30.2129	527.04
30.2273	517.56
30.2417	535.84
30.2562	521.42
30.2706	520.20
30.2851	528.40
30.2995	497.35
30.3139	536.73
30.3284	501.60
30.3428	480.63
30.3573	521.20
30.3717	536.74
30.3861	505.58
30.4006	521.05
30.4150	523.04
30.4295	526.14
30.4439	524.46
30.4583	507.02
30.4728	515.02
30.4872	515.33
30.5017	533.17
30.5161	525.45
30.5305	529.19
30.5450	511.90
30.5594	523.69
30.5739	570.01
30.5883	530.76
30.6028	544.14
30.6172	592.71
30.6316	605.73
30.6461	608.24
30.6605	587.81
30.6750	657.96
30.6894	677.09
30.7038	670.83
30.7183	676.04
30.7327	718.55
30.7472	721.48
30.7616	691.45
30.7760	726.19
30.7905	735.56
30.8049	667.37
30.8194	653.95
30.8338	624.40
30.8482	599.70
30.8627	612.47
30.8771	596.78
30.8916	598.98
30.9060	597.05
30.9204	529.83
30.9349	515.45
30.9493	533.93
30.9638	529.80
30.9782	555.66
30.9926	520.22
31.0071	523.53
31.0215	516.58
31.0360	530.63
31.0504	525.24
31.0648	542.56
31.0793	516.07
31.0937	536.54
31.1082	541.20
31.1226	542.20
31.1370	507.01
31.1515	499.29
31.1659	554.46
31.1804	583.65
31.1948	521.41
31.2092	516.98
31.2237	496.39
31.2381	492.20
31.2526	526.42
31.2670	501.22
31.2814	516.33
31.2959	537.77
31.3103	557.27
31.3248	550.74
31.3392	548.51
31.3536	525.00
31.3681	512.75
31.3825	536.23
31.3970	522.38
31.4114	509.86
31.4258	524.65
31.4403	488.87
31.4547	499.30
31.4692	536.64
31.4836	528.53
31.4980	484.23
31.5125	490.79
31.5269	504.01
31.5414	478.56
31.5558	519.59
31.5702	535.65
31.5847	522.35
31.5991	513.93
31.6136	504.64
31.6280	529.53
31.6424	515.30
31.6569	510.21
31.6713	508.07
31.6858	528.63
31.7002	505.31
31.7146	507.35
31.7291	515.75
31.7435	518.52
31.7580	500.67
31.7724	494.47
31.7868	494.99
31.8013	484.74
31.8157	519.18
31.8302	559.90
31.8446	517.74
31.8590	528.71
31.8735	546.73
31.8879	510.71
31.9024	527.54
31.9168	517.11
31.9312	518.20
31.9457	506.15
31.9601	509.19
31.9746	528.82
31.9890	500.81
32.0034	505.18
32.0179	524.12
32.0323	540.73
32.0468	500.56
32.0612	514.57
32.0756	487.26
32.0901	482.72
32.1045	521.97
32.1190	542.20
32.1334	493.77
32.1478	487.28
32.1623	513.03
32.1767	515.99
32.1912	482.46
32.2056	484.30
32.2200	523.49
32.2345	520.32
32.2489	537.63
32.2634	488.08
32.2778	538.24
32.2922	522.83
32.3067	510.58
32.3211	495.38
32.3356	518.59
32.3500	498.85
32.3644	533.12
32.3789	494.60
32.3933	506.32
32.4078	523.72
32.4222	535.13
32.4366	513.51
32.4511	529.46
32.4655	557.19
32.4800	552.83
32.4944	493.01
32.5088	511.61
32.5233	497.98
32.5377	516.07
32.5522	578.20
32.5666	489.42
32.5810	499.66
32.5955	505.00
32.6099	519.76
32.6244	499.70
32.6388	492.49
32.6532	475.55
32.6677	496.83
32.6821	528.17
32.6966	508.14
32.7110	549.14
32.7254	508.22
32.7399	481.64
32.7543	500.78
32.7688	491.01
32.7832	502.32
32.7976	507.74
32.8121	555.51
32.8265	533.75
32.8410	488.12
32.8554	497.20
32.8698	497.03
32.8843	519.83
32.8987	502.42
32.9132	522.88
32.9276	511.88
32.9420	499.75
32.9565	506.82
32.9709	484.22
32.9854	479.90
32.9998	520.60
33.0142	502.55
33.0287	518.71
33.0431	531.28
33.0576	507.94
33.0720	546.05
33.0864	526.02
33.1009	517.15
33.1153	498.91
33.1298	483.93
33.1442	507.08
33.1586	511.11
33.1731	532.91
33.1875	513.76
33.2020	482.29
33.2164	559.37
33.2308	524.49
33.2453	487.04
33.2597	467.56
33.2742	488.85
33.2886	472.37
33.3030	517.96
33.3175	491.99
33.3319	503.68
33.3464	524.72
33.3608	497.88
33.3752	490.77
33.3897	488.01
33.4041	512.89
33.4186	528.52
33.4330	510.65
33.4474	478.17
33.4619	521.84
33.4763	526.72
33.4908	490.29
33.5052	504.90
33.5196	519.64
33.5341	525.28
33.5485	535.26
33.5630	515.31
33.5774	516.31
33.5918	499.45
33.6063	534.96
33.6207	528.88
33.6352	488.74
33.6496	528.09
33.6640	522.87
33.6785	467.60
33.6929	470.88
33.7074	507.89
33.7218	526.72
33.7362	524.18
33.7507	534.97
33.7651	500.92
33.7796	509.14
33.7940	534.78
33.8084	524.12
33.8229	517.32
33.8373	494.39
33.8518	506.31
33.8662	533.21
33.8806	500.79
33.8951	504.50
33.9095	469.93
33.9240	498.25
33.9384	502.76
33.9528	495.61
33.9673	538.74
33.9817	459.61
33.9962	484.88
34.0106	509.93
34.0250	476.85
34.0395	467.78
34.0539	550.15
34.0684	549.25
34.0828	527.75
34.0972	495.62
34.1117	500.47
34.1261	530.44
34.1406	533.79
34.1550	519.17
34.1694	512.94
34.1839	494.27
34.1983	519.23
34.2128	516.65
34.2272	484.28
34.2417	506.96
34.2561	488.35
34.2705	503.71
34.2850	532.49
34.2994	514.69
34.3139	509.42
34.3283	502.06
34.3427	535.04
34.3572	481.22
34.3716	480.12
34.3861	516.60
34.4005	482.67
34.4149	469.85
34.4294	522.27
34.4438	506.69
34.4583	527.31
34.4727	539.90
34.4871	510.76
34.5016	518.22
34.5160	487.12
34.5305	500.07
34.5449	529.68
34.5593	513.00
34.5738	517.15
34.5882	534.60
34.6027	528.59
34.6171	520.36
34.6315	540.57
34.6460	530.73
34.6604	509.34
34.6749	485.39
34.6893	491.27
34.7037	513.67
34.7182	503.89
34.7326	487.31
34.7471	491.87
34.7615	507.37
34.7759	516.91
34.7904	510.23
34.8048	518.75
34.8193	553.21
34.8337	515.48
34.8481	467.37
34.8626	520.11
34.8770	503.69
34.8915	507.71
34.9059	515.57
34.9203	478.39
34.9348	481.10
34.9492	507.47
34.9637	526.07
34.9781	515.23
34.9925	522.99
35.0070	529.21
35.0214	512.90
35.0359	507.83
35.0503	519.76
35.0647	501.88
35.0792	501.18
35.0936	518.83
35.1081	508.65
35.1225	509.71
35.1369	489.30
35.1514	486.79
35.1658	517.58
35.1803	513.30
35.1947	507.56
35.2091	486.41
35.2236	514.85
35.2380	494.99
35.2525	475.48
35.2669	510.05
35.2813	505.16
35.2958	472.80
35.3102	500.05
35.3247	485.86
35.3391	523.68
35.3535	484.68
35.3680	507.68
35.3824	488.95
35.3969	480.24
35.4113	506.22
35.4257	508.44
35.4402	549.35
35.4546	550.44
35.4691	562.23
35.4835	533.99
35.4979	545.74
35.5124	518.94
35.5268	490.28
35.5413	505.57
35.5557	525.78
35.5701	536.28
35.5846	533.27
35.5990	521.41
35.6135	544.72
35.6279	504.74
35.6423	514.20
35.6568	534.88
35.6712	538.60
35.6857	559.48
35.7001	649.72
35.7145	682.48
35.7290	634.45
35.7434	580.30
35.7579	549.08
35.7723	568.83
35.7867	625.29
35.8012	641.76
35.8156	647.73
35.8301	600.38
35.8445	605.67
35.8589	649.96
35.8734	739.76
35.8878	819.42
35.9023	985.00
35.9167	1077.67
35.9311	1304.55
35.9456	1967.03
35.9600	2344.01
35.9745	1978.02
35.9889	1956.34
36.0033	2333.45
36.0178	2564.61
36.0322	2101.67
36.0467	1954.68
36.0611	1792.85
36.0755	1657.85
36.0900	1791.82
36.1044	1636.81
36.1189	1618.01
36.1333	1447.71
36.1477	1335.68
36.1622	1346.95
36.1766	1408.61
36.1911	1280.22
36.2055	1148.58
36.2199	1149.35
36.2344	1124.08
36.2488	999.83
36.2633	953.99
36.2777	960.60
36.2921	890.81
36.3066	858.88
36.3210	804.40
36.3355	748.81
36.3499	733.24
36.3643	658.07
36.3788	655.29
36.3932	602.49
36.4077	592.14
36.4221	626.68
36.4365	595.57
36.4510	590.32
36.4654	528.44
36.4799	574.48
36.4943	584.72
36.5087	557.14
36.5232	603.03
36.5376	596.97
36.5521	569.46
36.5665	535.52
36.5809	536.07
36.5954	551.91
36.6098	570.37
36.6243	515.40
36.6387	557.71
36.6531	528.18
36.6676	512.46
36.6820	520.71
36.6965	510.87
36.7109	571.28
36.7253	516.81
36.7398	511.54
36.7542	525.08
36.7687	484.78
36.7831	542.97
36.7975	532.67
36.8120	547.66
36.8264	540.89
36.8409	570.37
36.8553	580.75
36.8697	572.57
36.8842	622.60
36.8986	649.96
36.9131	568.64
36.9275	576.60
36.9419	610.34
36.9564	585.75
36.9708	540.01
36.9853	562.89
36.9997	562.26
37.0141	529.58
37.0286	540.69
37.0430	500.14
37.0575	550.79
37.0719	540.24
37.0863	526.94
37.1008	499.57
37.1152	507.35
37.1297	518.93
37.1441	477.19
37.1585	463.22
37.1730	500.99
37.1874	489.16
37.2019	517.29
37.2163	541.83
37.2307	522.83
37.2452	505.32
37.2596	488.77
37.2741	500.71
37.2885	489.85
37.3029	502.79
37.3174	442.43
37.3318	506.59
37.3463	504.84
37.3607	486.69
37.3751	505.91
37.3896	482.83
37.4040	497.67
37.4185	505.59
37.4329	515.46
37.4473	489.18
37.4618	491.28
37.4762	535.96
37.4907	506.42
37.5051	488.81
37.5195	501.40
37.5340	511.86
37.5484	530.75
37.5629	511.06
37.5773	493.46
37.5917	489.95
37.6062	498.59
37.6206	526.12
37.6351	550.30
37.6495	495.31
37.6639	503.25
37.6784	501.70
37.6928	469.04
37.7073	513.93
37.7217	465.13
37.7361	464.96
37.7506	470.29
37.7650	491.48
37.7795	517.42
37.7939	503.10
37.8083	500.52
37.8228	508.05
37.8372	529.45
37.8517	507.92
37.8661	511.23
37.8805	505.64
37.8950	507.08
37.9094	517.14
37.9239	515.27
37.9383	489.02
37.9528	494.05
37.9672	504.23
37.9816	508.71
37.9961	500.90
38.0105	510.53
38.0250	484.28
38.0394	530.39
38.0538	504.96
38.0683	530.70
38.0827	506.44
38.0972	505.41
38.1116	492.03
38.1260	501.87
38.1405	496.60
38.1549	493.14
38.1694	503.54
38.1838	504.97
38.1982	515.82
38.2127	499.12
38.2271	497.93
38.2416	506.90
38.2560	520.37
38.2704	485.24
38.2849	528.44
38.2993	530.46
38.3138	519.62
38.3282	546.26
38.3426	532.04
38.3571	494.19
38.3715	496.00
38.3860	518.95
38.4004	533.93
38.4148	548.89
38.4293	565.54
38.4437	585.49
38.4582	605.29
38.4726	691.39
38.4870	725.27
38.5015	750.03
38.5159	802.43
38.5304	810.30
38.5448	787.53
38.5592	820.31
38.5737	785.04
38.5881	744.63
38.6026	732.40
38.6170	720.78
38.6314	668.71
38.6459	658.15
38.6603	633.34
38.6748	590.85
38.6892	574.26
38.7036	607.47
38.7181	560.20
38.7325	530.29
38.7470	502.20
38.7614	519.34
38.7758	545.65
38.7903	556.87
38.8047	548.90
38.8192	540.07
38.8336	493.67
38.8480	496.41
38.8625	563.22
38.8769	530.32
38.8914	490.06
38.9058	511.41
38.9202	533.35
38.9347	510.21
38.9491	508.17
38.9636	529.25
38.9780	513.44
38.9924	492.41
39.0069	496.85
39.0213	503.46
39.0358	506.51
39.0502	505.58
39.0646	524.90
39.0791	519.78
39.0935	499.64
39.1080	499.20
39.1224	546.59
39.1368	511.65
39.1513	476.07
39.1657	512.47
39.1802	539.02
39.1946	499.47
39.2090	478.67
39.2235	513.75
39.2379	515.60
39.2524	532.02
39.2668	520.23
39.2812	498.62
39.2957	505.57
39.3101	522.83
39.3246	501.51
39.3390	497.47
39.3534	477.97
39.3679	504.05
39.3823	481.57
39.3968	458.28
39.4112	490.24
39.4256	507.44
39.4401	497.32
39.4545	486.47
39.4690	517.57
39.4834	513.79
39.4978	514.79
39.5123	499.89
39.5267	485.22
39.5412	476.03
39.5556	522.86
39.5700	510.06
39.5845	493.88
39.5989	501.26
39.6134	492.57
39.6278	488.56
39.6422	470.16
39.6567	487.63
39.6711	495.94
39.6856	479.54
39.7000	500.53
39.7144	512.71
39.7289	513.87
39.7433	480.53
39.7578	461.99
39.7722	480.96
39.7866	496.21
39.8011	514.14
39.8155	489.58
39.8300	504.92
39.8444	511.89
39.8588	514.08
39.8733	499.11
39.8877	474.34
39.9022	511.41
39.9166	517.32
39.9310	495.12
39.9455	521.67
39.9599	464.19
39.9744	488.09
39.9888	498.17
40.0032	486.82
40.0177	467.91
40.0321	537.48
40.0466	490.62
40.0610	496.16
40.0754	494.11
40.0899	508.19
40.1043	505.66
40.1188	504.16
40.1332	516.06
40.1476	503.42
40.1621	525.74
40.1765	474.82
40.1910	489.70
40.2054	532.34
40.2198	509.32
40.2343	503.76
40.2487	531.49
40.2632	488.53
40.2776	519.00
40.2920	497.85
40.3065	541.77
40.3209	517.97
40.3354	522.83
40.3498	488.18
40.3642	496.35
40.3787	459.19
40.3931	494.50
40.4076	547.41
40.4220	491.77
40.4364	510.16
40.4509	478.20
40.4653	510.27
40.4798	489.32
40.4942	488.03
40.5086	475.42
40.5231	501.59
40.5375	512.44
40.5520	513.89
40.5664	508.57
40.5808	468.65
40.5953	525.13
40.6097	514.83
40.6242	482.33
40.6386	521.50
40.6530	484.79
40.6675	465.36
40.6819	484.81
40.6964	497.98
40.7108	480.67
40.7252	494.14
40.7397	505.68
40.7541	497.26
40.7686	497.13
40.7830	501.22
40.7974	480.89
40.8119	432.30
40.8263	512.20
40.8408	490.73
40.8552	508.32
40.8696	499.26
40.8841	505.81
40.8985	502.65
40.9130	503.93
40.9274	488.13
40.9418	524.67
40.9563	521.30
40.9707	496.74
40.9852	478.19
40.9996	487.78
41.0140	528.19
41.0285	489.05
41.0429	490.30
41.0574	477.80
41.0718	509.59
41.0862	515.53
41.1007	507.33
41.1151	478.06
41.1296	525.97
41.1440	512.02
41.1584	502.26
41.1729	508.91
41.1873	485.53
41.2018	482.36
41.2162	506.50
41.2306	503.81
41.2451	496.48
41.2595	484.22
41.2740	507.31
41.2884	527.82
41.3028	499.09
41.3173	502.24
41.3317	501.34
41.3462	514.19
41.3606	516.04
41.3750	508.54
41.3895	470.81
41.4039	492.60
41.4184	489.53
41.4328	537.16
41.4472	516.70
41.4617	504.87
41.4761	524.31
41.4906	521.15
41.5050	476.49
41.5194	499.41
41.5339	513.36
41.5483	529.12
41.5628	529.66
41.5772	542.23
41.5916	489.77
41.6061	525.09
41.6205	476.24
41.6350	502.08
41.6494	492.33
41.6639	505.67
41.6783	515.34
41.6927	536.62
41.7072	512.53
41.7216	484.46
41.7361	503.20
41.7505	505.68
41.7649	489.09
41.7794	500.40
41.7938	522.72
41.8083	537.78
41.8227	522.39
41.8371	507.62
41.8516	530.95
41.8660	542.32
41.8805	511.77
41.8949	545.40
41.9093	567.52
41.9238	529.28
41.9382	545.16
41.9527	558.66
41.9671	568.88
41.9815	586.74
41.9960	556.07
42.0104	536.59
42.0249	562.00
42.0393	561.13
42.0537	572.69
42.0682	591.58
42.0826	546.86
42.0971	610.29
42.1115	575.50
42.1259	612.28
42.1404	599.09
42.1548	571.15
42.1693	618.98
42.1837	681.29
42.1981	755.87
42.2126	831.00
42.2270	902.54
42.2415	1045.60
42.2559	1194.06
42.2703	1324.50
42.2848	1411.14
42.2992	1534.69
42.3137	1612.17
42.3281	1605.15
42.3425	1557.42
42.3570	1433.19
42.3714	1351.65
42.3859	1362.36
42.4003	1303.18
42.4147	1312.30
42.4292	1266.96
42.4436	1106.74
42.4581	1026.49
42.4725	923.65
42.4869	872.36
42.5014	750.67
42.5158	724.01
42.5303	673.02
42.5447	595.24
42.5591	625.63
42.5736	585.54
42.5880	592.39
42.6025	591.65
42.6169	547.63
42.6313	540.59
42.6458	539.78
42.6602	525.26
42.6747	540.28
42.6891	561.39
42.7035	542.64
42.7180	544.49
42.7324	497.22
42.7469	560.70
42.7613	530.93
42.7757	515.45
42.7902	529.22
42.8046	526.01
42.8191	498.01
42.8335	494.18
42.8479	503.34
42.8624	520.59
42.8768	541.01
42.8913	507.82
42.9057	509.33
42.9201	542.53
42.9346	527.47
42.9490	513.90
42.9635	475.46
42.9779	457.87
42.9923	478.11
43.0068	482.26
43.0212	516.73
43.0357	522.47
43.0501	511.53
43.0645	516.71
43.0790	487.81
43.0934	485.52
43.1079	550.23
43.1223	523.47
43.1367	514.48
43.1512	490.92
43.1656	539.09
43.1801	510.30
43.1945	533.25
43.2089	551.87
43.2234	546.31
43.2378	518.58
43.2523	523.41
43.2667	495.22
43.2811	489.15
43.2956	519.28
43.3100	523.79
43.3245	523.42
43.3389	516.60
43.3533	535.91
43.3678	535.33
43.3822	514.05
43.3967	521.48
43.4111	498.63
43.4255	525.08
43.4400	541.09
43.4544	505.59
43.4689	515.94
43.4833	495.41
43.4977	500.83
43.5122	519.02
43.5266	517.12
43.5411	547.65
43.5555	547.83
43.5699	520.57
43.5844	499.23
43.5988	495.53
43.6133	530.31
43.6277	500.44
43.6421	521.37
43.6566	506.29
43.6710	525.65
43.6855	526.73
43.6999	500.64
43.7143	512.59
43.7288	502.68
43.7432	488.25
43.7577	513.64
43.7721	516.14
43.7865	564.40
43.8010	548.60
43.8154	557.85
43.8299	555.60
43.8443	521.80
43.8587	540.79
43.8732	547.46
43.8876	551.60
43.9021	542.93
43.9165	572.68
43.9309	575.43
43.9454	585.76
43.9598	581.19
43.9743	606.15
43.9887	653.74
44.0031	657.74
44.0176	651.96
44.0320	639.92
44.0465	625.34
44.0609	628.20
44.0753	614.46
44.0898	552.16
44.1042	592.07
44.1187	598.88
44.1331	597.60
44.1475	536.57
44.1620	578.23
44.1764	558.80
44.1909	509.86
44.2053	517.58
44.2197	527.47
44.2342	551.37
44.2486	534.00
44.2631	500.63
44.2775	529.17
44.2919	546.45
44.3064	524.32
44.3208	529.45
44.3353	529.92
44.3497	539.66
44.3641	511.41
44.3786	519.96
44.3930	534.87
44.4075	511.01
44.4219	541.70
44.4363	557.73
44.4508	561.21
44.4652	586.95
44.4797	580.83
44.4941	586.85
44.5085	593.30
44.5230	556.77
44.5374	609.31
44.5519	616.07
44.5663	601.09
44.5807	585.01
44.5952	547.84
44.6096	573.25
44.6241	586.23
44.6385	603.24
44.6529	554.22
44.6674	599.54
44.6818	658.65
44.6963	647.66
44.7107	648.01
44.7251	713.13
44.7396	753.88
44.7540	807.01
44.7685	837.86
44.7829	849.76
44.7973	854.33
44.8118	859.45
44.8262	799.36
44.8407	767.48
44.8551	719.13
44.8695	747.21
44.8840	746.69
44.8984	737.51
44.9129	695.01
44.9273	728.23
44.9417	672.12
44.9562	611.29
44.9706	588.06
44.9851	543.84
44.9995	530.34
45.0139	501.87
45.0284	556.80
45.0428	506.73
45.0573	503.38
45.0717	512.95
45.0861	588.31
45.1006	534.39
45.1150	517.64
45.1295	535.16
45.1439	533.18
45.1583	525.35
45.1728	502.22
45.1872	509.88
45.2017	514.26
45.2161	527.15
45.2305	527.36
45.2450	523.25
45.2594	535.51
45.2739	546.79
45.2883	508.49
45.3028	518.22
45.3172	545.74
45.3316	539.74
45.3461	510.84
45.3605	504.20
45.3750	536.47
45.3894	527.47
45.4038	455.11
45.4183	489.84
45.4327	539.77
45.4472	493.28
45.4616	485.10
45.4760	504.74
45.4905	543.84
45.5049	489.30
45.5194	471.16
45.5338	506.27
45.5482	518.26
45.5627	507.87
45.5771	501.27
45.5916	508.19
45.6060	531.08
45.6204	499.44
45.6349	513.52
45.6493	498.46
45.6638	510.33
45.6782	525.60
45.6926	550.80
45.7071	556.21
45.7215	513.10
45.7360	497.11
45.7504	493.23
45.7648	492.23
45.7793	510.02
45.7937	533.44
45.8082	524.50
45.8226	518.35
45.8370	515.39
45.8515	513.53
45.8659	532.71
45.8804	526.84
45.8948	512.61
45.9092	498.52
45.9237	482.91
45.9381	492.17
45.9526	473.02
45.9670	510.65
45.9814	497.55
45.9959	545.35
46.0103	559.95
46.0248	535.40
46.0392	508.96
46.0536	489.29
46.0681	469.71
46.0825	489.79
46.0970	522.14
46.1114	497.93
46.1258	507.49
46.1403	496.74
46.1547	529.47
46.1692	500.98
46.1836	511.74
46.1980	513.22
46.2125	514.92
46.2269	516.58
46.2414	523.40
46.2558	525.24
46.2702	518.88
46.2847	476.89
46.2991	476.65
46.3136	485.25
46.3280	515.29
46.3424	488.87
46.3569	508.35
46.3713	477.07
46.3858	495.32
46.4002	479.45
46.4146	492.85
46.4291	534.79
46.4435	546.30
46.4580	518.37
46.4724	497.10
46.4868	492.46
46.5013	515.32
46.5157	533.50
46.5302	493.51
46.5446	495.51
46.5590	512.71
46.5735	527.02
46.5879	501.04
46.6024	488.75
46.6168	489.25
46.6312	513.46
46.6457	506.76
46.6601	513.21
46.6746	480.44
46.6890	494.84
46.7034	485.91
46.7179	501.47
46.7323	479.75
46.7468	488.37
46.7612	505.15
46.7756	500.59
46.7901	485.83
46.8045	481.24
46.8190	486.14
46.8334	500.02
46.8478	500.52
46.8623	513.29
46.8767	495.14
46.8912	517.11
46.9056	541.92
46.9200	526.36
46.9345	525.26
46.9489	515.07
46.9634	511.06
46.9778	508.88
46.9922	486.08
47.0067	521.26
47.0211	553.61
47.0356	557.65
47.0500	518.63
47.0644	516.53
47.0789	515.59
47.0933	512.66
47.1078	511.79
47.1222	509.16
47.1366	512.08
47.1511	498.68
47.1655	523.22
47.1800	497.31
47.1944	471.92
47.2088	557.09
47.2233	516.43
47.2377	500.95
47.2522	523.32
47.2666	491.38
47.2810	509.71
47.2955	485.63
47.3099	485.56
47.3244	505.44
47.3388	526.67
47.3532	511.08
47.3677	496.12
47.3821	501.68
47.3966	488.93
47.4110	521.55
47.4254	512.11
47.4399	480.91
47.4543	486.56
47.4688	511.73
47.4832	541.91
47.4976	512.58
47.5121	501.21
47.5265	509.52
47.5410	509.82
47.5554	487.32
47.5698	484.29
47.5843	505.00
47.5987	549.39
47.6132	552.89
47.6276	515.56
47.6420	491.61
47.6565	511.83
47.6709	497.40
47.6854	512.02
47.6998	506.63
47.7142	524.86
47.7287	529.89
47.7431	504.43
47.7576	487.56
47.7720	504.81
47.7864	520.42
47.8009	491.50
47.8153	506.26
47.8298	488.32
47.8442	519.36
47.8586	489.25
47.8731	528.39
47.8875	497.23
47.9020	521.58
47.9164	517.51
47.9308	485.48
47.9453	497.83
47.9597	470.29
47.9742	504.00
47.9886	537.15
48.0030	500.94
48.0175	508.49
48.0319	484.40
48.0464	486.38
48.0608	469.61
48.0752	459.60
48.0897	568.43
48.1041	531.52
48.1186	491.67
48.1330	484.02
48.1474	475.04
48.1619	495.53
48.1763	506.41
48.1908	510.07
48.2052	515.70
48.2196	522.32
48.2341	527.72
48.2485	513.58
48.2630	511.28
48.2774	514.30
48.2918	537.12
48.3063	472.64
48.3207	460.66
48.3352	490.18
48.3496	532.65
48.3640	509.75
48.3785	487.53
48.3929	507.25
48.4074	488.04
48.4218	531.18
48.4362	504.67
48.4507	472.43
48.4651	496.39
48.4796	514.18
48.4940	534.75
48.5084	530.84
48.5229	487.61
48.5373	536.55
48.5518	529.65
48.5662	522.99
48.5806	500.81
48.5951	484.22
48.6095	505.79
48.6240	502.22
48.6384	529.20
48.6528	519.83
48.6673	467.32
48.6817	501.88
48.6962	492.60
48.7106	540.81
48.7250	553.71
48.7395	489.05
48.7539	504.10
48.7684	500.26
48.7828	530.00
48.7972	533.80
48.8117	522.92
48.8261	514.42
48.8406	527.55
48.8550	557.38
48.8694	571.56
48.8839	561.54
48.8983	584.91
48.9128	563.67
48.9272	537.05
48.9416	529.22
48.9561	531.64
48.9705	530.51
48.9850	583.09
48.9994	605.20
49.0139	589.31
49.0283	642.20
49.0427	651.82
49.0572	668.09
49.0716	682.59
49.0861	627.20
49.1005	625.37
49.1149	695.94
49.1294	728.26
49.1438	700.18
49.1583	729.80
49.1727	833.92
49.1871	889.00
49.2016	908.73
49.2160	983.31
49.2305	1087.83
49.2449	1172.03
49.2593	1170.99
49.2738	1311.41
49.2882	1401.95
49.3027	1521.03
49.3171	1554.69
49.3315	1628.42
49.3460	1694.50
49.3604	1690.23
49.3749	1743.31
49.3893	1724.10
49.4037	1777.07
49.4182	1761.89
49.4326	1683.64
49.4471	1604.70
49.4615	1503.99
49.4759	1534.66
49.4904	1454.33
49.5048	1399.64
49.5193	1315.76
49.5337	1245.97
49.5481	1203.60
49.5626	1146.03
49.5770	1028.35
49.5915	981.96
49.6059	958.70
49.6203	858.63
49.6348	853.86
49.6492	757.54
49.6637	715.66
49.6781	682.74
49.6925	658.53
49.7070	700.51
49.7214	673.69
49.7359	605.91
49.7503	602.71
49.7647	635.44
49.7792	624.34
49.7936	617.78
49.8081	569.53
49.8225	541.80
49.8369	536.68
49.8514	582.50
49.8658	591.63
49.8803	581.18
49.8947	540.51
49.9091	537.15
49.9236	539.55
49.9380	563.74
49.9525	568.63
49.9669	553.95
49.9813	548.88
49.9958	548.06
50.0102	523.69
50.0247	555.71
50.0391	542.65
50.0535	514.87
50.0680	539.19
50.0824	558.33
50.0969	576.40
50.1113	522.13
50.1257	524.58
50.1402	519.63
50.1546	476.67
50.1691	516.21
50.1835	485.80
50.1979	505.44
50.2124	498.38
50.2268	478.90
50.2413	519.97
50.2557	495.61
50.2701	524.81
50.2846	499.59
50.2990	488.61
50.3135	517.76
50.3279	490.71
50.3423	491.12
50.3568	504.12
50.3712	509.96
50.3857	505.30
50.4001	484.56
50.4145	501.57
50.4290	533.46
50.4434	507.94
50.4579	502.71
50.4723	517.91
50.4867	523.62
50.5012	521.11
50.5156	500.49
50.5301	519.22
50.5445	507.60
50.5589	482.83
50.5734	479.33
50.5878	480.54
50.6023	476.64
50.6167	502.30
50.6311	510.89
50.6456	501.98
50.6600	484.15
50.6745	495.48
50.6889	492.25
50.7033	533.22
50.7178	515.25
50.7322	510.80
50.7467	546.84
50.7611	505.58
50.7755	510.42
50.7900	493.06
50.8044	516.03
50.8189	526.43
50.8333	522.78
50.8477	506.07
50.8622	527.25
50.8766	535.90
50.8911	504.58
50.9055	552.03
50.9199	518.79
50.9344	512.44
50.9488	512.71
50.9633	481.03
50.9777	493.44
50.9921	492.58
51.0066	501.17
51.0210	505.59
51.0355	493.09
51.0499	499.74
51.0643	537.92
51.0788	518.87
51.0932	485.45
51.1077	474.23
51.1221	486.79
51.1365	468.05
51.1510	489.55
51.1654	496.35
51.1799	511.02
51.1943	498.21
51.2087	489.76
51.2232	505.39
51.2376	519.12
51.2521	487.32
51.2665	505.90
51.2809	528.36
51.2954	502.07
51.3098	495.97
51.3243	520.79
51.3387	529.51
51.3531	520.38
51.3676	511.69
51.3820	508.48
51.3965	515.18
51.4109	491.83
51.4253	531.82
51.4398	522.88
51.4542	488.45
51.4687	517.06
51.4831	485.43
51.4975	490.74
51.5120	518.22
51.5264	494.85
51.5409	536.84
51.5553	513.00
51.5697	490.02
51.5842	516.80
51.5986	509.43
51.6131	518.70
51.6275	502.23
51.6419	508.39
51.6564	497.19
51.6708	510.08
51.6853	517.78
51.6997	514.94
51.7141	499.82
51.7286	515.06
51.7430	529.78
51.7575	510.85
51.7719	524.52
51.7863	528.06
51.8008	547.17
51.8152	499.09
51.8297	462.94
51.8441	500.27
51.8585	532.28
51.8730	484.43
51.8874	503.11
51.9019	506.08
51.9163	513.11
51.9307	540.24
51.9452	511.62
51.9596	471.79
51.9741	501.47
51.9885	523.56
52.0029	494.43
52.0174	498.37
52.0318	485.69
52.0463	518.72
52.0607	547.68
52.0751	531.43
52.0896	531.99
52.1040	542.25
52.1185	505.45
52.1329	548.78
52.1473	487.21
52.1618	517.85
52.1762	522.25
52.1907	518.03
52.2051	468.40
52.2195	528.23
52.2340	495.90
52.2484	520.57
52.2629	499.67
52.2773	508.61
52.2917	514.88
52.3062	508.22
52.3206	535.13
52.3351	531.07
52.3495	501.11
52.3639	511.00
52.3784	520.47
52.3928	511.00
52.4073	514.09
52.4217	515.40
52.4361	541.93
52.4506	497.74
52.4650	516.26
52.4795	518.77
52.4939	508.19
52.5083	474.58
52.5228	494.77
52.5372	546.20
52.5517	505.37
52.5661	506.01
52.5805	532.76
52.5950	512.03
52.6094	493.17
52.6239	538.17
52.6383	520.05
52.6527	495.58
52.6672	492.27
52.6816	495.45
52.6961	493.21
52.7105	523.91
52.7250	531.77
52.7394	539.92
52.7538	500.71
52.7683	513.38
52.7827	532.28
52.7972	533.23
52.8116	498.35
52.8260	497.96
52.8405	500.31
52.8549	532.40
52.8694	538.31
52.8838	468.49
52.8982	546.15
52.9127	527.51
52.9271	526.56
52.9416	546.46
52.9560	504.30
52.9704	510.65
52.9849	504.81
52.9993	537.93
53.0138	504.74
53.0282	500.58
53.0426	518.21
53.0571	513.65
53.0715	552.29
53.0860	513.54
53.1004	509.73
53.1148	516.03
53.1293	530.74
53.1437	527.07
53.1582	522.07
53.1726	501.19
53.1870	497.80
53.2015	502.33
53.2159	506.96
53.2304	535.90
53.2448	501.44
53.2592	494.27
53.2737	529.39
53.2881	526.48
53.3026	514.50
53.3170	472.06
53.3314	522.70
53.3459	519.01
53.3603	512.09
53.3748	481.33
53.3892	504.55
53.4036	489.52
53.4181	489.55
53.4325	524.92
53.4470	538.53
53.4614	532.41
53.4758	523.70
53.4903	522.52
53.5047	498.32
53.5192	485.88
53.5336	503.93
53.5480	497.86
53.5625	527.25
53.5769	511.01
53.5914	483.05
53.6058	553.23
53.6202	526.54
53.6347	524.18
53.6491	505.46
53.6636	498.45
53.6780	524.05
53.6924	491.16
53.7069	512.16
53.7213	510.11
53.7358	486.94
53.7502	537.96
53.7646	518.24
53.7791	500.74
53.7935	524.20
53.8080	537.76
53.8224	544.77
53.8368	530.81
53.8513	503.80
53.8657	526.77
53.8802	535.60
53.8946	540.10
53.9090	515.93
53.9235	543.17
53.9379	527.38
53.9524	544.39
53.9668	514.35
53.9812	530.01
53.9957	522.93
54.0101	488.17
54.0246	516.50
54.0390	495.12
54.0534	531.65
54.0679	536.71
54.0823	521.37
54.0968	522.32
54.1112	513.87
54.1256	509.75
54.1401	505.88
54.1545	529.07
54.1690	536.43
54.1834	515.35
54.1978	550.74
54.2123	519.72
54.2267	530.92
54.2412	528.21
54.2556	533.25
54.2700	513.63
54.2845	542.77
54.2989	520.25
54.3134	542.88
54.3278	551.92
54.3422	569.77
54.3567	555.98
54.3711	528.75
54.3856	499.42
54.4000	517.20
54.4144	562.40
54.4289	561.26
54.4433	539.31
54.4578	562.16
54.4722	584.90
54.4866	594.48
54.5011	571.65
54.5155	548.85
54.5300	568.49
54.5444	584.44
54.5588	569.99
54.5733	581.04
54.5877	632.05
54.6022	599.54
54.6166	584.52
54.6310	575.52
54.6455	585.30
54.6599	579.56
54.6744	528.61
54.6888	525.13
54.7032	553.75
54.7177	542.13
54.7321	576.31
54.7466	576.97
54.7610	560.06
54.7754	543.14
54.7899	575.77
54.8043	550.37
54.8188	543.43
54.8332	573.75
54.8476	565.75
54.8621	544.50
54.8765	547.46
54.8910	524.27
54.9054	565.15
54.9198	551.72
54.9343	543.55
54.9487	569.57
54.9632	534.51
54.9776	534.59
54.9920	546.07
55.0065	512.39
55.0209	532.05
55.0354	493.11
55.0498	518.88
55.0642	553.06
55.0787	536.12
55.0931	519.35
55.1076	486.59
55.1220	522.14
55.1364	526.04
55.1509	509.55
55.1653	531.72
55.1798	510.36
55.1942	490.50
55.2086	519.43
55.2231	510.27
55.2375	526.79
55.2520	513.54
55.2664	504.45
55.2808	513.66
55.2953	481.92
55.3097	515.15
55.3242	517.93
55.3386	519.59
55.3530	511.82
55.3675	545.54
55.3819	482.63
55.3964	518.33
55.4108	532.25
55.4252	518.88
55.4397	494.36
55.4541	500.53
55.4686	517.72
55.4830	547.07
55.4974	501.33
55.5119	513.23
55.5263	500.69
55.5408	513.49
55.5552	538.53
55.5696	485.47
55.5841	531.10
55.5985	549.08
55.6130	545.58
55.6274	553.67
55.6418	554.36
55.6563	553.15
55.6707	522.30
55.6852	495.56
55.6996	513.55
55.7140	518.07
55.7285	493.51
55.7429	493.99
55.7574	522.35
55.7718	513.08
55.7862	517.02
55.8007	506.02
55.8151	529.72
55.8296	525.96
55.8440	512.39
55.8584	524.40
55.8729	511.10
55.8873	504.38
55.9018	523.42
55.9162	525.54
55.9306	521.91
55.9451	525.29
55.9595	515.25
55.9740	534.19
55.9884	510.37
56.0028	479.91
56.0173	478.17
56.0317	516.63
56.0462	527.61
56.0606	515.46
56.0750	538.72
56.0895	499.46
56.1039	494.71
56.1184	515.81
56.1328	567.01
56.1472	523.05
56.1617	531.65
56.1761	482.72
56.1906	492.28
56.2050	513.71
56.2194	553.56
56.2339	487.94
56.2483	492.00
56.2628	498.82
56.2772	515.57
56.2916	500.32
56.3061	507.02
56.3205	507.01
56.3350	518.49
56.3494	561.76
56.3639	580.45
56.3783	556.40
56.3927	515.59
56.4072	489.46
56.4216	485.43
56.4361	525.28
56.4505	516.40
56.4649	503.41
56.4794	516.93
56.4938	534.23
56.5083	530.52
56.5227	521.71
56.5371	542.53
56.5516	513.14
56.5660	533.52
56.5805	534.02
56.5949	539.95
56.6093	515.07
56.6238	517.30
56.6382	531.74
56.6527	520.99
56.6671	529.45
56.6815	524.38
56.6960	532.91
56.7104	548.16
56.7249	512.32
56.7393	542.54
56.7537	548.77
56.7682	517.48
56.7826	534.97
56.7971	510.28
56.8115	504.08
56.8259	542.80
56.8404	463.29
56.8548	502.39
56.8693	519.38
56.8837	546.28
56.8981	532.33
56.9126	505.36
56.9270	514.25
56.9415	543.49
56.9559	480.16
56.9703	514.61
56.9848	503.32
56.9992	519.25
57.0137	522.27
57.0281	522.64
57.0425	516.41
57.0570	542.43
57.0714	517.29
57.0859	557.68
57.1003	554.90
57.1147	532.28
57.1292	506.71
57.1436	508.55
57.1581	545.28
57.1725	587.55
57.1869	540.91
57.2014	534.16
57.2158	529.80
57.2303	519.20
57.2447	532.28
57.2591	501.21
57.2736	527.28
57.2880	530.27
57.3025	540.85
57.3169	522.81
57.3313	537.90
57.3458	503.31
57.3602	533.83
57.3747	517.33
57.3891	518.55
57.4035	508.46
57.4180	563.83
57.4324	525.38
57.4469	504.13
57.4613	484.14
57.4757	550.40
57.4902	505.85
57.5046	529.26
57.5191	513.81
57.5335	550.92
57.5479	517.15
57.5624	540.23
57.5768	514.01
57.5913	521.65
57.6057	540.66
57.6201	568.67
57.6346	543.28
57.6490	525.17
57.6635	525.83
57.6779	527.16
57.6923	528.52
57.7068	553.33
57.7212	528.56
57.7357	515.83
57.7501	514.32
57.7645	518.64
57.7790	562.73
57.7934	520.19
57.8079	552.78
57.8223	550.01
57.8367	542.46
57.8512	551.67
57.8656	580.17
57.8801	583.90
57.8945	557.31
57.9089	609.51
57.9234	559.37
57.9378	555.11
57.9523	529.51
57.9667	520.48
57.9811	540.39
57.9956	533.73
58.0100	545.50
58.0245	535.56
58.0389	564.61
58.0533	574.58
58.0678	573.71
58.0822	596.37
58.0967	605.69
58.1111	597.46
58.1255	614.14
58.1400	635.48
58.1544	632.33
58.1689	629.82
58.1833	636.84
58.1977	645.73
58.2122	695.69
58.2266	668.62
58.2411	660.34
58.2555	674.78
58.2699	683.51
58.2844	690.80
58.2988	665.03
58.3133	666.95
58.3277	658.36
58.3421	679.27
58.3566	660.51
58.3710	646.63
58.3855	637.02
58.3999	621.92
58.4143	626.78
58.4288	630.25
58.4432	586.89
58.4577	603.06
58.4721	602.72
58.4865	607.00
58.5010	574.25
58.5154	569.79
58.5299	564.72
58.5443	546.81
58.5587	545.90
58.5732	522.81
58.5876	522.57
58.6021	530.13
58.6165	546.81
58.6309	566.91
58.6454	530.11
58.6598	507.16
58.6743	524.40
58.6887	561.70
58.7031	575.78
58.7176	560.25
58.7320	567.66
58.7465	580.29
58.7609	505.81
58.7753	526.49
58.7898	526.27
58.8042	523.62
58.8187	547.08
58.8331	570.77
58.8475	522.76
58.8620	555.05
58.8764	556.22
58.8909	537.29
58.9053	533.46
58.9197	551.92
58.9342	558.39
58.9486	568.02
58.9631	568.94
58.9775	534.83
58.9919	543.66
59.0064	500.65
59.0208	532.86
59.0353	518.92
59.0497	519.39
59.0641	574.25
59.0786	530.84
59.0930	522.57
59.1075	525.28
59.1219	558.80
59.1363	543.22
59.1508	526.23
59.1652	549.84
59.1797	527.14
59.1941	536.13
59.2085	534.86
59.2230	519.41
59.2374	544.11
59.2519	544.73
59.2663	552.59
59.2807	546.97
59.2952	518.26
59.3096	547.18
59.3241	540.49
59.3385	543.27
59.3529	542.54
59.3674	554.54
59.3818	561.54
59.3963	557.34
59.4107	528.13
59.4251	570.14
59.4396	577.32
59.4540	533.76
59.4685	541.65
59.4829	596.45
59.4973	592.65
59.5118	568.75
59.5262	556.35
59.5407	550.66
59.5551	571.29
59.5695	562.29
59.5840	534.80
59.5984	578.32
59.6129	586.06
59.6273	565.04
59.6417	554.54
59.6562	538.22
59.6706	550.54
59.6851	555.21
59.6995	556.91
59.7139	550.02
59.7284	492.32
59.7428	544.41
59.7573	527.09
59.7717	525.66
59.7861	519.38
59.8006	520.36
59.8150	540.43
59.8295	536.19
59.8439	549.08
59.8583	571.13
59.8728	568.70
59.8872	535.39
59.9017	515.25
59.9161	515.31
59.9305	558.70
59.9450	569.23
59.9594	555.72
59.9739	540.32
59.9883	574.56
60.0027	542.18
60.0172	509.75
60.0316	559.56
60.0461	545.87
60.0605	570.22
60.0750	548.58
60.0894	531.16
60.1038	511.32
60.1183	537.38
60.1327	541.12
60.1472	509.47
60.1616	555.27
60.1760	520.85
60.1905	526.75
60.2049	531.51
60.2194	548.49
60.2338	533.97
60.2482	533.15
60.2627	527.98
60.2771	540.26
60.2916	494.75
60.3060	553.47
60.3204	573.64
60.3349	548.89
60.3493	523.09
60.3638	553.16
60.3782	539.76
60.3926	547.13
60.4071	549.90
60.4215	512.60
60.4360	534.44
60.4504	524.38
60.4648	541.04
60.4793	560.85
60.4937	550.54
60.5082	550.05
60.5226	541.51
60.5370	532.46
60.5515	519.83
60.5659	529.03
60.5804	564.72
60.5948	545.65
60.6092	504.38
60.6237	529.39
60.6381	544.99
60.6526	537.40
60.6670	539.12
60.6814	511.93
60.6959	504.60
60.7103	531.36
60.7248	538.67
60.7392	538.28
60.7536	578.48
60.7681	559.68
60.7825	534.64
60.7970	564.15
60.8114	555.03
60.8258	539.66
60.8403	507.67
60.8547	529.64
60.8692	558.62
60.8836	528.60
60.8980	595.46
60.9125	541.40
60.9269	548.70
60.9414	530.47
60.9558	516.20
60.9702	512.68
60.9847	554.45
60.9991	508.32
61.0136	539.75
61.0280	476.20
61.0424	493.26
61.0569	484.00
61.0713	521.28
61.0858	530.34
61.1002	531.97
61.1146	570.64
61.1291	536.98
61.1435	495.69
61.1580	528.74
61.1724	558.84
61.1868	534.06
61.2013	542.38
61.2157	538.97
61.2302	533.94
61.2446	565.39
61.2590	536.31
61.2735	535.30
61.2879	527.51
61.3024	539.60
61.3168	537.47
61.3312	538.81
61.3457	543.88
61.3601	491.68
61.3746	556.39
61.3890	547.65
61.4034	530.36
61.4179	533.11
61.4323	578.55
61.4468	530.15
61.4612	519.96
61.4756	531.15
61.4901	537.54
61.5045	565.75
61.5190	544.66
61.5334	553.16
61.5478	539.12
61.5623	567.46
61.5767	554.67
61.5912	521.31
61.6056	507.30
61.6200	525.67
61.6345	551.53
61.6489	555.14
61.6634	517.05
61.6778	525.86
61.6922	552.36
61.7067	562.21
61.7211	566.63
61.7356	570.55
61.7500	558.33
61.7644	536.72
61.7789	556.49
61.7933	540.56
61.8078	515.68
61.8222	539.98
61.8366	568.89
61.8511	513.96
61.8655	517.38
61.8800	554.16
61.8944	551.52
61.9088	546.08
61.9233	544.03
61.9377	538.35
61.9522	569.54
61.9666	544.92
61.9810	536.36
61.9955	545.02
62.0099	524.02
62.0244	572.13
62.0388	521.31
62.0532	575.58
62.0677	577.78
62.0821	521.24
62.0966	547.64
62.1110	554.88
62.1254	587.32
62.1399	508.99
62.1543	528.83
62.1688	562.64
62.1832	565.00
62.1976	587.79
62.2121	548.15
62.2265	564.80
62.2410	594.95
62.2554	554.97
62.2698	550.49
62.2843	531.78
62.2987	567.83
62.3132	550.24
62.3276	559.10
62.3420	562.66
62.3565	540.72
62.3709	566.00
62.3854	573.28
62.3998	557.46
62.4142	530.46
62.4287	538.97
62.4431	534.20
62.4576	571.96
62.4720	557.77
62.4864	554.53
62.5009	530.56
62.5153	555.81
62.5298	553.33
62.5442	537.57
62.5586	533.06
62.5731	520.06
62.5875	569.47
62.6020	539.01
62.6164	525.33
62.6308	552.92
62.6453	581.11
62.6597	537.99
62.6742	526.93
62.6886	547.24
62.7030	574.87
62.7175	574.44
62.7319	560.24
62.7464	570.24
62.7608	547.68
62.7752	548.41
62.7897	548.28
62.8041	585.98
62.8186	551.00
62.8330	530.61
62.8474	552.27
62.8619	543.11
62.8763	520.92
62.8908	525.95
62.9052	554.04
62.9196	556.75
62.9341	571.10
62.9485	549.85
62.9630	565.10
62.9774	583.83
62.9918	599.31
63.0063	544.81
63.0207	565.57
63.0352	555.24
63.0496	539.32
63.0640	546.62
63.0785	572.27
63.0929	581.34
63.1074	544.32
63.1218	580.14
63.1362	572.58
63.1507	556.91
63.1651	545.97
63.1796	551.61
63.1940	552.20
63.2084	587.80
63.2229	585.02
63.2373	588.43
63.2518	586.98
63.2662	560.64
63.2806	584.25
63.2951	554.30
63.3095	603.12
63.3240	565.87
63.3384	596.81
63.3528	594.62
63.3673	572.01
63.3817	587.16
63.3962	582.51
63.4106	584.13
63.4250	626.53
63.4395	597.13
63.4539	563.10
63.4684	569.87
63.4828	584.36
63.4972	610.87
63.5117	587.99
63.5261	558.97
63.5406	586.01
63.5550	612.22
63.5694	588.14
63.5839	593.64
63.5983	633.39
63.6128	629.46
63.6272	608.07
63.6416	583.81
63.6561	599.06
63.6705	597.72
63.6850	642.92
63.6994	627.04
63.7138	651.05
63.7283	643.98
63.7427	624.44
63.7572	634.15
63.7716	653.71
63.7861	671.94
63.8005	670.73
63.8149	666.65
63.8294	664.44
63.8438	690.48
63.8583	713.54
63.8727	739.01
63.8871	781.67
63.9016	759.55
63.9160	807.86
63.9305	834.36
63.9449	871.41
63.9593	840.90
63.9738	830.53
63.9882	809.29
64.0027	824.49
64.0171	792.68
64.0315	756.23
64.0460	783.64
64.0604	826.54
64.0749	781.25
64.0893	769.98
64.1037	741.08
64.1182	741.48
64.1326	769.00
64.1471	746.90
64.1615	731.94
64.1759	754.98
64.1904	710.33
64.2048	698.29
64.2193	721.73
64.2337	644.31
64.2481	639.79
64.2626	645.50
64.2770	668.40
64.2915	685.96
64.3059	654.23
64.3203	634.29
64.3348	622.64
64.3492	658.77
64.3637	634.75
64.3781	640.88
64.3925	631.33
64.4070	579.57
64.4214	618.31
64.4359	667.91
64.4503	643.89
64.4647	648.81
64.4792	626.19
64.4936	590.29
64.5081	642.69
64.5225	617.37
64.5369	600.69
64.5514	622.16
64.5658	661.40
64.5803	623.80
64.5947	636.26
64.6091	618.86
64.6236	649.00
64.6380	681.92
64.6525	673.68
64.6669	629.71
64.6813	665.58
64.6958	688.74
64.7102	682.31
64.7247	654.57
64.7391	692.08
64.7535	683.60
64.7680	717.94
64.7824	721.35
64.7969	716.60
64.8113	747.73
64.8257	782.97
64.8402	805.33
64.8546	810.70
64.8691	831.72
64.8835	830.14
64.8979	905.63
64.9124	875.38
64.9268	883.65
64.9413	977.01
64.9557	957.98
64.9701	977.73
64.9846	1056.43
64.9990	1174.80
65.0135	1241.40
65.0279	1501.82
65.0423	1782.26
65.0568	2125.52
65.0712	2737.68
65.0857	3631.16
65.1001	4724.37
65.1145	6373.02
65.1290	8322.11
65.1434	9778.64
65.1579	11367.19
65.1723	12009.24
65.1867	11417.65
65.2012	9734.79
65.2156	8217.38
65.2301	6402.23
65.2445	5121.34
65.2589	4419.86
65.2734	4231.46
65.2878	4499.64
65.3023	5176.30
65.3167	5877.98
65.3311	6644.51
65.3456	6961.71
65.3600	6827.56
65.3745	6330.28
65.3889	5429.45
65.4033	4359.19
65.4178	3447.52
65.4322	2670.11
65.4467	2038.99
65.4611	1710.57
65.4755	1439.59
65.4900	1277.30
65.5044	1186.06
65.5189	1101.19
65.5333	1012.56
65.5477	939.24
65.5622	911.34
65.5766	868.45
65.5911	848.82
65.6055	825.51
65.6199	729.79
65.6344	751.94
65.6488	752.39
65.6633	765.57
65.6777	732.03
65.6921	729.16
65.7066	743.92
65.7210	699.33
65.7355	708.42
65.7499	671.84
65.7643	657.27
65.7788	711.32
65.7932	682.35
65.8077	681.49
65.8221	664.29
65.8365	671.34
65.8510	647.90
65.8654	664.89
65.8799	624.25
65.8943	655.08
65.9087	664.69
65.9232	590.82
65.9376	630.62
65.9521	669.71
65.9665	608.86
65.9809	651.67
65.9954	613.09
66.0098	608.18
66.0243	618.78
66.0387	642.31
66.0531	630.86
66.0676	609.25
66.0820	656.95
66.0965	636.49
66.1109	636.54
66.1253	653.36
66.1398	615.35
66.1542	605.22
66.1687	614.13
66.1831	598.06
66.1975	610.59
66.2120	608.58
66.2264	623.35
66.2409	603.21
66.2553	590.07
66.2697	575.36
66.2842	611.89
66.2986	588.28
66.3131	578.88
66.3275	612.21
66.3419	603.98
66.3564	587.66
66.3708	584.76
66.3853	588.38
66.3997	601.78
66.4141	616.25
66.4286	631.90
66.4430	574.89
66.4575	566.92
66.4719	579.55
66.4863	612.93
66.5008	611.24
66.5152	583.61
66.5297	554.78
66.5441	620.01
66.5585	610.04
66.5730	590.47
66.5874	580.34
66.6019	557.93
66.6163	597.18
66.6307	563.83
66.6452	604.80
66.6596	571.40
66.6741	567.51
66.6885	582.53
66.7029	600.37
66.7174	581.03
66.7318	592.67
66.7463	583.98
66.7607	568.77
66.7751	581.74
66.7896	578.02
66.8040	614.30
66.8185	598.14
66.8329	592.29
66.8473	550.42
66.8618	620.41
66.8762	595.77
66.8907	596.79
66.9051	583.74
66.9195	572.53
66.9340	625.33
66.9484	590.29
66.9629	586.37
66.9773	577.00
66.9917	591.44
67.0062	584.58
67.0206	607.31
67.0351	615.03
67.0495	578.58
67.0639	596.57
67.0784	613.80
67.0928	601.71
67.1073	586.31
67.1217	616.68
67.1361	588.45
67.1506	571.80
67.1650	612.17
67.1795	586.90
67.1939	544.21
67.2083	549.86
67.2228	583.81
67.2372	579.41
67.2517	571.80
67.2661	558.21
67.2805	589.16
67.2950	569.36
67.3094	566.85
67.3239	569.41
67.3383	581.98
67.3527	575.94
67.3672	564.18
67.3816	588.08
67.3961	606.02
67.4105	609.14
67.4250	612.15
67.4394	582.44
67.4538	605.50
67.4683	594.28
67.4827	539.45
67.4972	574.05
67.5116	570.74
67.5260	595.18
67.5405	591.53
67.5549	590.97
67.5694	580.69
67.5838	570.04
67.5982	583.76
67.6127	601.80
67.6271	574.89
67.6416	593.87
67.6560	599.38
67.6704	586.72
67.6849	566.01
67.6993	562.39
67.7138	623.80
67.7282	582.01
67.7426	594.07
67.7571	618.53
67.7715	591.34
67.7860	597.29
67.8004	606.33
67.8148	554.11
67.8293	568.26
67.8437	596.53
67.8582	571.84
67.8726	605.49
67.8870	623.44
67.9015	602.75
67.9159	588.85
67.9304	581.88
67.9448	585.73
67.9592	549.29
67.9737	542.96
67.9881	535.74
68.0026	604.39
68.0170	590.87
68.0314	590.38
68.0459	609.20
68.0603	594.49
68.0748	546.66
68.0892	616.26
68.1036	557.36
68.1181	544.83
68.1325	569.80
68.1470	543.69
68.1614	557.23
68.1758	581.87
68.1903	564.00
68.2047	581.27
68.2192	578.37
68.2336	604.96
68.2480	567.42
68.2625	551.41
68.2769	599.46
68.2914	579.66
68.3058	572.90
68.3202	590.21
68.3347	618.97
68.3491	612.94
68.3636	586.01
68.3780	586.53
68.3924	570.83
68.4069	603.55
68.4213	585.50
68.4358	583.01
68.4502	583.07
68.4646	555.62
68.4791	569.60
68.4935	542.59
68.5080	565.24
68.5224	575.24
68.5368	584.16
68.5513	603.02
68.5657	579.29
68.5802	595.16
68.5946	552.83
68.6090	548.02
68.6235	525.37
68.6379	566.66
68.6524	549.47
68.6668	552.67
68.6812	545.45
68.6957	615.44
68.7101	593.63
68.7246	559.14
68.7390	550.31
68.7534	611.59
68.7679	572.97
68.7823	590.23
68.7968	604.09
68.8112	588.00
68.8256	563.25
68.8401	602.05
68.8545	599.85
68.8690	578.37
68.8834	579.57
68.8978	591.17
68.9123	606.34
68.9267	577.61
68.9412	617.67
68.9556	599.99
68.9700	526.88
68.9845	571.11
68.9989	569.24
69.0134	589.39
69.0278	558.35
69.0422	593.12
69.0567	579.92
69.0711	577.76
69.0856	612.31
69.1000	515.29
69.1144	561.65
69.1289	573.30
69.1433	523.39
69.1578	555.13
69.1722	564.36
69.1866	572.70
69.2011	572.48
69.2155	620.38
69.2300	543.86
69.2444	589.71
69.2588	561.11
69.2733	559.49
69.2877	582.23
69.3022	569.72
69.3166	568.85
69.3310	589.17
69.3455	580.35
69.3599	592.99
69.3744	540.62
69.3888	559.61
69.4032	543.28
69.4177	566.53
69.4321	616.97
69.4466	574.66
69.4610	551.37
69.4754	550.86
69.4899	569.12
69.5043	587.88
69.5188	556.94
69.5332	581.43
69.5476	588.99
69.5621	536.85
69.5765	582.46
69.5910	568.02
69.6054	568.35
69.6198	575.32
69.6343	533.10
69.6487	559.02
69.6632	568.95
69.6776	551.26
69.6920	616.50
69.7065	560.44
69.7209	576.03
69.7354	595.38
69.7498	570.34
69.7642	594.23
69.7787	571.64
69.7931	549.09
69.8076	550.85
69.8220	613.31
69.8364	579.73
69.8509	580.52
69.8653	615.39
69.8798	580.42
69.8942	601.48
69.9086	557.06
69.9231	633.86
69.9375	621.61
69.9520	607.92
69.9664	553.85
69.9808	528.94
69.9953	629.79
70.0097	603.13
70.0242	566.59
70.0386	583.56
70.0530	591.68
70.0675	576.07
70.0819	578.37
70.0964	557.80
70.1108	612.81
70.1252	577.09
70.1397	574.31
70.1541	596.58
70.1686	566.20
70.1830	560.38
70.1974	582.14
70.2119	567.81
70.2263	555.76
70.2408	577.45
70.2552	634.75
70.2696	564.82
70.2841	584.64
70.2985	582.12
70.3130	562.34
70.3274	579.13
70.3418	557.65
70.3563	579.61
70.3707	618.32
70.3852	619.04
70.3996	572.80
70.4140	535.92
70.4285	584.42
70.4429	593.34
70.4574	563.85
70.4718	612.69
70.4862	613.47
70.5007	581.38
70.5151	610.17
70.5296	589.76
70.5440	553.43
70.5584	530.37
70.5729	555.77
70.5873	580.65
70.6018	631.23
70.6162	584.30
70.6306	611.24
70.6451	586.52
70.6595	603.50
70.6740	635.90
70.6884	546.04
70.7028	581.46
70.7173	606.83
70.7317	554.47
70.7462	590.46
70.7606	587.06
70.7750	540.20
70.7895	542.16
70.8039	589.57
70.8184	562.60
70.8328	596.83
70.8472	614.64
70.8617	584.73
70.8761	580.36
70.8906	590.40
70.9050	632.84
70.9194	596.41
70.9339	621.80
70.9483	635.66
70.9628	620.08
70.9772	569.11
70.9916	549.46
71.0061	557.06
71.0205	621.64
71.0350	619.12
71.0494	582.77
71.0638	590.48
71.0783	581.35
71.0927	554.43
71.1072	561.43
71.1216	553.17
71.1361	583.14
71.1505	624.43
71.1649	587.92
71.1794	553.90
71.1938	546.86
71.2083	536.69
71.2227	547.86
71.2371	566.47
71.2516	580.88
71.2660	628.12
71.2805	622.77
71.2949	553.80
71.3093	575.35
71.3238	648.72
71.3382	612.39
71.3527	545.72
71.3671	512.95
71.3815	541.80
71.3960	565.49
71.4104	559.44
71.4249	580.19
71.4393	586.26
71.4537	581.07
71.4682	611.01
71.4826	586.39
71.4971	574.56
71.5115	567.28
71.5259	611.66
71.5404	557.74
71.5548	575.34
71.5693	613.04
71.5837	614.58
71.5981	583.87
71.6126	568.58
71.6270	578.14
71.6415	585.76
71.6559	560.27
71.6703	599.59
71.6848	579.49
71.6992	556.43
71.7137	544.29
71.7281	477.87
71.7425	515.10
71.7570	529.90
71.7714	573.60
71.7859	604.74
71.8003	594.29
71.8147	568.44
71.8292	603.43
71.8436	596.88
71.8581	580.33
71.8725	603.36
71.8869	536.23
71.9014	559.91
71.9158	634.87
71.9303	620.23
71.9447	563.94
71.9591	587.24
71.9736	565.27
71.9880	592.40
72.0025	570.94
72.0169	556.14
72.0313	617.81
72.0458	606.39
72.0602	584.15
72.0747	573.52
72.0891	553.85
72.1035	560.04
72.1180	564.75
72.1324	527.57
72.1469	580.44
72.1613	664.69
72.1757	630.04
72.1902	634.69
72.2046	641.59
72.2191	622.56
72.2335	698.76
72.2479	637.99
72.2624	590.39
72.2768	637.20
72.2913	624.88
72.3057	585.73
72.3201	645.11
72.3346	612.28
72.3490	549.06
72.3635	523.65
72.3779	550.03
72.3923	565.95
72.4068	607.05
72.4212	642.52
72.4357	587.12
72.4501	560.44
72.4645	592.59
72.4790	593.17
72.4934	557.62
72.5079	564.02
72.5223	584.05
72.5367	547.21
72.5512	565.45
72.5656	610.48
72.5801	598.28
72.5945	596.65
72.6089	578.69
72.6234	611.03
72.6378	631.35
72.6523	609.42
72.6667	606.36
72.6811	603.50
72.6956	588.02
72.7100	566.30
72.7245	513.27
72.7389	613.02
72.7533	637.06
72.7678	557.33
72.7822	638.74
72.7967	647.11
72.8111	658.77
72.8255	753.80
72.8400	687.06
72.8544	540.59
72.8689	564.07
72.8833	593.40

Result vector
22.1120	605.86
22.1264	679.94
22.1409	573.33
22.1553	504.10
22.1697	546.34
22.1842	572.36
22.1986	639.51
22.2131	611.52
22.2275	567.81
22.2419	568.20
22.2564	563.95
22.2708	548.31
22.2853	654.12
22.2997	691.59
22.3141	629.53
22.3286	625.71
22.3430	632.20
22.3575	623.04
22.3719	631.81
22.3863	575.05
22.4008	524.12
22.4152	591.62
22.4297	685.90
22.4441	671.71
22.4585	625.70
22.4730	638.35
22.4874	618.46
22.5019	571.23
22.5163	592.35
22.5307	554.22
22.5452	466.85
22.5596	544.96
22.5741	598.31
22.5885	530.29
22.6029	513.04
22.6174	538.13
22.6318	609.39
22.6463	537.45
22.6607	611.10
22.6751	609.35
22.6896	595.34
22.7040	605.34
22.7185	611.09
22.7329	585.59
22.7473	503.30
22.7618	517.76
22.7762	524.50
22.7907	515.20
22.8051	573.62
22.8195	594.25
22.8340	648.12
22.8484	595.26
22.8629	606.75
22.8773	600.87
22.8917	567.94
22.9062	603.85
22.9206	602.47
22.9351	570.62
22.9495	611.37
22.9639	527.43
22.9784	563.79
22.9928	533.31
23.0073	567.37
23.0217	621.43
23.0361	585.20
23.0506	558.69
23.0650	519.17
23.0795	623.59
23.0939	606.11
23.1083	497.01
23.1228	594.13
23.1372	564.89
23.1517	543.95
23.1661	611.91
23.1806	601.63
23.1950	535.12
23.2094	608.41
23.2239	615.70
23.2383	619.42
23.2528	604.70
23.2672	571.61
23.2816	532.61
23.2961	547.41
23.3105	565.40
23.3250	602.59
23.3394	550.49
23.3538	508.57
23.3683	487.56
23.3827	564.72
23.3972	505.29
23.4116	560.86
23.4260	558.77
23.4405	506.39
23.4549	583.44
23.4694	578.77
23.4838	574.51
23.4982	540.34
23.5127	571.87
23.5271	564.99
23.5416	560.46
23.5560	609.85
23.5704	517.98
23.5849	565.49
23.5993	563.51
23.6138	575.59
23.6282	555.61
23.6426	527.75
23.6571	586.91
23.6715	526.95
23.6860	551.47
23.7004	567.61
23.7148	525.54
23.7293	565.22
23.7437	531.50
23.7582	525.81
23.7726	545.60
23.7870	590.15
23.8015	536.32
23.8159	543.05
23.8304	521.74
23.8448	555.66
23.8592	535.93
23.8737	593.13
23.8881	618.09
23.9026	573.13
23.9170	633.15
23.9314	594.58
23.9459	550.39
23.9603	522.26
23.9748	567.68
23.9892	517.03
24.0036	591.46
24.0181	631.57
24.0325	536.24
24.0470	538.57
24.0614	585.48
24.0758	574.68
24.0903	546.26
24.1047	610.49
24.1192	561.66
24.1336	577.84
24.1480	535.67
24.1625	596.98
24.1769	629.93
24.1914	540.44
24.2058	569.72
24.2202	622.98
24.2347	565.55
24.2491	621.39
24.2636	594.92
24.2780	601.27
24.2924	627.51
24.3069	588.14
24.3213	592.54
24.3358	584.68
24.3502	602.88
24.3646	594.10
24.3791	553.49
24.3935	513.54
24.4080	565.36
24.4224	546.18
24.4368	618.30
24.4513	582.48
24.4657	632.88
24.4802	543.19
24.4946	551.21
24.5090	555.20
24.5235	546.63
24.5379	526.41
24.5524	601.67
24.5668	581.62
24.5812	557.51
24.5957	566.16
24.6101	568.34
24.6246	516.84
24.6390	541.19
24.6534	562.19
24.6679	568.25
24.6823	497.43
24.6968	529.17
24.7112	538.81
24.7256	581.73
24.7401	591.48
24.7545	545.74
24.7690	575.10
24.7834	608.95
24.7978	498.60
24.8123	542.69
24.8267	549.30
24.8412	521.44
24.8556	580.77
24.8700	547.63
24.8845	538.21
24.8989	569.16
24.9134	543.96
24.9278	500.14
24.9422	550.76
24.9567	528.17
24.9711	567.35
24.9856	535.41
25.0000	504.84
25.0144	522.92
25.0289	506.92
25.0433	558.18
25.0578	549.15
25.0722	538.71
25.0866	526.07
25.1011	515.23
25.1155	509.54
25.1300	512.30
25.1444	506.25
25.1588	566.60
25.1733	535.35
25.1877	496.72
25.2022	522.08
25.2166	522.63
25.2310	565.94
25.2455	553.76
25.2599	543.50
25.2744	592.80
25.2888	558.84
25.3032	543.11
25.3177	565.44
25.3321	535.99
25.3466	538.41
25.3610	515.62
25.3754	579.50
25.3899	548.21
25.4043	502.85
25.4188	568.21
25.4332	576.47
25.4476	560.91
25.4621	531.28
25.4765	536.60
25.4910	536.58
25.5054	570.74
25.5198	554.34
25.5343	566.00
25.5487	578.13
25.5632	578.36
25.5776	516.81
25.5920	523.95
25.6065	545.14
25.6209	551.59
25.6354	553.02
25.6498	513.99
25.6642	563.45
25.6787	526.95
25.6931	536.45
25.7076	569.08
25.7220	570.35
25.7364	556.51
25.7509	539.43
25.7653	535.95
25.7798	570.44
25.7942	526.00
25.8086	541.50
25.8231	569.07
25.8375	568.37
25.8520	554.36
25.8664	554.38
25.8808	552.21
25.8953	585.96
25.9097	546.09
25.9242	528.58
25.9386	525.57
25.9530	548.85
25.9675	532.47
25.9819	546.72
25.9964	540.26
26.0108	538.11
26.0252	529.28
26.0397	522.99
26.0541	547.76
26.0686	557.87
26.0830	555.92
26.0974	542.69
26.1119	532.09
26.1263	519.53
26.1408	514.59
26.1552	541.41
26.1696	552.00
26.1841	537.82
26.1985	520.72
26.2130	538.08
26.2274	522.65
26.2418	518.46
26.2563	497.34
26.2707	532.70
26.2852	551.63
26.2996	553.81
26.3140	519.07
26.3285	543.58
26.3429	557.72
26.3574	533.87
26.3718	528.25
26.3862	531.41
26.4007	522.51
26.4151	550.20
26.4296	566.31
26.4440	514.91
26.4584	520.18
26.4729	538.34
26.4873	552.98
26.5018	536.71
26.5162	507.60
26.5306	570.73
26.5451	555.64
26.5595	554.81
26.5740	522.76
26.5884	554.01
26.6028	531.75
26.6173	529.71
26.6317	530.41
26.6462	531.72
26.6606	512.68
26.6750	531.43
26.6895	515.79
26.7039	535.36
26.7184	562.98
26.7328	571.06
26.7472	560.11
26.7617	509.46
26.7761	488.70
26.7906	537.13
26.8050	543.83
26.8194	523.34
26.8339	539.49
26.8483	501.88
26.8628	504.68
26.8772	493.39
26.8917	518.83
26.9061	537.65
26.9205	533.41
26.9350	517.67
26.9494	549.25
26.9639	511.32
26.9783	527.48
26.9927	527.51
27.0072	516.20
27.0216	525.72
27.0361	569.06
27.0505	564.43
27.0649	528.40
27.0794	532.10
27.0938	540.85
27.1083	494.88
27.1227	546.63
27.1371	533.66
27.1516	503.42
27.1660	513.45
27.1805	504.96
27.1949	488.00
27.2093	523.15
27.2238	525.46
27.2382	536.95
27.2527	554.95
27.2671	543.59
27.2815	530.65
27.2960	513.72
27.3104	477.97
27.3249	505.82
27.3393	496.25
27.3537	518.21
27.3682	510.04
27.3826	508.08
27.3971	473.99
27.4115	500.45
27.4259	519.71
27.4404	505.02
27.4548	527.65
27.4693	528.77
27.4837	488.25
27.4981	538.52
27.5126	528.10
27.5270	537.45
27.5415	510.17
27.5559	516.68
27.5703	535.61
27.5848	552.84
27.5992	522.55
27.6137	520.66
27.6281	496.74
27.6425	501.98
27.6570	557.54
27.6714	508.46
27.6859	520.34
27.7003	541.90
27.7147	541.66
27.7292	545.80
27.7436	548.38
27.7581	551.30
27.7725	521.68
27.7869	534.75
27.8014	523.80
27.8158	527.84
27.8303	500.61
27.8447	498.17
27.8591	493.91
27.8736	519.47
27.8880	538.40
27.9025	507.30
27.9169	502.77
27.9313	537.08
27.9458	518.79
27.9602	466.29
27.9747	503.72
27.9891	492.30
28.0035	506.89
28.0180	528.23
28.0324	498.62
28.0469	483.20
28.0613	548.99
28.0757	568.68
28.0902	590.13
28.1046	536.64
28.1191	505.37
28.1335	528.10
28.1479	499.59
28.1624	525.61
28.1768	532.12
28.1913	518.81
28.2057	488.08
28.2201	471.93
28.2346	480.97
28.2490	514.95
28.2635	515.89
28.2779	522.97
28.2923	543.74
28.3068	542.52
28.3212	543.07
28.3357	546.02
28.3501	520.44
28.3645	542.38
28.3790	535.81
28.3934	523.99
28.4079	506.88
28.4223	521.81
28.4367	520.73
28.4512	508.63
28.4656	529.34
28.4801	514.38
28.4945	507.74
28.5089	526.03
28.5234	504.40
28.5378	535.03
28.5523	513.16
28.5667	490.26
28.5811	553.94
28.5956	535.54
28.6100	488.11
28.6245	481.01
28.6389	530.39
28.6533	532.40
28.6678	524.45
28.6822	490.41
28.6967	530.84
28.7111	467.86
28.7255	511.33
28.7400	494.12
28.7544	501.19
28.7689	496.19
28.7833	517.06
28.7977	502.32
28.8122	492.63
28.8266	525.37
28.8411	531.99
28.8555	567.98
28.8699	521.31
28.8844	535.96
28.8988	494.30
28.9133	518.24
28.9277	532.17
28.9421	514.66
28.9566	461.08
28.9710	504.78
28.9855	542.29
28.9999	517.78
29.0143	546.55
29.0288	534.43
29.0432	521.52
29.0577	495.02
29.0721	544.94
29.0865	556.08
29.1010	495.28
29.1154	512.56
29.1299	522.24
29.1443	513.63
29.1587	518.17
29.1732	527.85
29.1876	481.20
29.2021	508.02
29.2165	484.71
29.2309	496.46
29.2454	525.86
29.2598	493.86
29.2743	498.23
29.2887	493.87
29.3031	492.86
29.3176	501.18
29.3320	500.33
29.3465	534.12
29.3609	500.84
29.3753	499.74
29.3898	499.24
29.4042	519.06
29.4187	554.70
29.4331	499.07
29.4475	490.51
29.4620	495.32
29.4764	507.12
29.4909	501.65
29.5053	490.94
29.5197	514.59
29.5342	507.20
29.5486	477.86
29.5631	492.70
29.5775	478.50
29.5919	515.43
29.6064	498.75
29.6208	500.35
29.6353	538.51
29.6497	531.24
29.6641	521.51
29.6786	493.05
29.6930	462.34
29.7075	512.76
29.7219	482.65
29.7363	458.82
29.7508	492.24
29.7652	503.30
29.7797	498.32
29.7941	519.04
29.8085	516.62
29.8230	501.08
29.8374	483.68
29.8519	489.46
29.8663	497.28
29.8807	512.76
29.8952	486.15
29.9096	542.11
29.9241	541.54
29.9385	504.57
29.9529	464.67
29.9674	483.44
29.9818	504.26
29.9963	489.70
30.0107	495.09
30.0251	514.90
30.0396	512.19
30.0540	528.07
30.0685	502.86
30.0829	521.32
30.0973	520.12
30.1118	515.58
30.1262	549.27
30.1407	517.30
30.1551	540.46
30.1695	557.21
30.1840	547.12
30.1984	550.39
30.2129	527.04
30.2273	517.56
30.2417	535.84
30.2562	521.42
30.2706	520.20
30.2851	528.40
30.2995	497.35
30.3139	536.73
30.3284	501.60
30.3428	480.63
30.3573	521.20
30.3717	536.74
30.3861	505.58
30.4006	521.05
30.4150	523.04
30.4295	526.14
30.4439	524.46
30.4583	507.02
30.4728	515.02
30.4872	515.33
30.5017	533.17
30.5161	525.45
30.5305	529.19
30.5450	511.90
30.5594	523.69
30.5739	570.01
30.5883	530.76
30.6028	544.14
30.6172	592.71
30.6316	605.73
30.6461	608.24
30.6605	587.81
30.6750	657.96
30.6894	677.09
30.7038	670.83
30.7183	676.04
30.7327	718.55
30.7472	721.48
30.7616	691.45
30.7760	726.19
30.7905	735.56
30.8049	667.37
30.8194	653.95
30.8338	624.40
30.8482	599.70
30.8627	612.47
30.8771	596.78
30.8916	598.98
30.9060	597.05
30.9204	529.83
30.9349	515.45
30.9493	533.93
30.9638	529.80
30.9782	555.66
30.9926	520.22
31.0071	523.53
31.0215	516.58
31.0360	530.63
31.0504	525.24
31.0648	542.56
31.0793	516.07
31.0937	536.54
31.1082	541.20
31.1226	542.20
31.1370	507.01
31.1515	499.29
31.1659	554.46
31.1804	583.65
31.1948	521.41
31.2092	516.98
31.2237	496.39
31.2381	492.20
31.2526	526.42
31.2670	501.22
31.2814	516.33
31.2959	537.77
31.3103	557.27
31.3248	550.74
31.3392	548.51
31.3536	525.00
31.3681	512.75
31.3825	536.23
31.3970	522.38
31.4114	509.86
31.4258	524.65
31.4403	488.87
31.4547	499.30
31.4692	536.64
31.4836	528.53
31.4980	484.23
31.5125	490.79
31.5269	504.01
31.5414	478.56
31.5558	519.59
31.5702	535.65
31.5847	522.35
31.5991	513.93
31.6136	504.64
31.6280	529.53
31.6424	515.30
31.6569	510.21
31.6713	508.07
31.6858	528.63
31.7002	505.31
31.7146	507.35
31.7291	515.75
31.7435	518.52
31.7580	500.67
31.7724	494.47
31.7868	494.99
31.8013	484.74
31.8157	519.18
31.8302	559.90
31.8446	517.74
31.8590	528.71
31.8735	546.73
31.8879	510.71
31.9024	527.54
31.9168	517.11
31.9312	518.20
31.9457	506.15
31.9601	509.19
31.9746	528.82
31.9890	500.81
32.0034	505.18
32.0179	524.12
32.0323	540.73
32.0468	500.56
32.0612	514.57
32.0756	487.26
32.0901	482.72
32.1045	521.97
32.1190	542.20
32.1334	493.77
32.1478	487.28
32.1623	513.03
32.1767	515.99
32.1912	482.46
32.2056	484.30
32.2200	523.49
32.2345	520.32
32.2489	537.63
32.2634	488.08
32.2778	538.24
32.2922	522.83
32.3067	510.58
32.3211	495.38
32.3356	518.59
32.3500	498.85
32.3644	533.12
32.3789	494.60
32.3933	506.32
32.4078	523.72
32.4222	535.13
32.4366	513.51
32.4511	529.46
32.4655	557.19
32.4800	552.83
32.4944	493.01
32.5088	511.61
32.5233	497.98
32.5377	516.07
32.5522	578.20
32.5666	489.42
32.5810	499.66
32.5955	505.00
32.6099	519.76
32.6244	499.70
32.6388	492.49
32.6532	475.55
32.6677	496.83
32.6821	528.17
32.6966	508.14
32.7110	549.14
32.7254	508.22
32.7399	481.64
32.7543	500.78
32.7688	491.01
32.7832	502.32
32.7976	507.74
32.8121	555.51
32.8265	533.75
32.8410	488.12
32.8554	497.20
32.8698	497.03
32.8843	519.83
32.8987	502.42
32.9132	522.88
32.9276	511.88
32.9420	499.75
32.9565	506.82
32.9709	484.22
32.9854	479.90
32.9998	520.60
33.0142	502.55
33.0287	518.71
33.0431	531.28
33.0576	507.94
33.0720	546.05
33.0864	526.02
33.1009	517.15
33.1153	498.91
33.1298	483.93
33.1442	507.08
33.1586	511.11
33.1731	532.91
33.1875	513.76
33.2020	482.29
33.2164	559.37
33.2308	524.49
33.2453	487.04
33.2597	467.56
33.2742	488.85
33.2886	472.37
33.3030	517.96
33.3175	491.99
33.3319	503.68
33.3464	524.72
33.3608	497.88
33.3752	490.77
33.3897	488.01
33.4041	512.89
33.4186	528.52
33.4330	510.65
33.4474	478.17
33.4619	521.84
33.4763	526.72
33.4908	490.29
33.5052	504.90
33.5196	519.64
33.5341	525.28
33.5485	535.26
33.5630	515.31
33.5774	516.31
33.5918	499.45
33.6063	534.96
33.6207	528.88
33.6352	488.74
33.6496	528.09
33.6640	522.87
33.6785	467.60
33.6929	470.88
33.7074	507.89
33.7218	526.72
33.7362	524.18
33.7507	534.97
33.7651	500.92
33.7796	509.14
33.7940	534.78
33.8084	524.12
33.8229	517.32
33.8373	494.39
33.8518	506.31
33.8662	533.21
33.8806	500.79
33.8951	504.50
33.9095	469.93
33.9240	498.25
33.9384	502.76
33.9528	495.61
33.9673	538.74
33.9817	459.61
33.9962	484.88
34.0106	509.93
34.0250	476.85
34.0395	467.78
34.0539	550.15
34.0684	549.25
34.0828	527.75
34.0972	495.62
34.1117	500.47
34.1261	530.44
34.1406	533.79
34.1550	519.17
34.1694	512.94
34.1839	494.27
34.1983	519.23
34.2128	516.65
34.2272	484.28
34.2417	506.96
34.2561	488.35
34.2705	503.71
34.2850	532.49
34.2994	514.69
34.3139	509.42
34.3283	502.06
34.3427	535.04
34.3572	481.22
34.3716	480.12
34.3861	516.60
34.4005	482.67
34.4149	469.85
34.4294	522.27
34.4438	506.69
34.4583	527.31
34.4727	539.90
34.4871	510.76
34.5016	518.22
34.5160	487.12
34.5305	500.07
34.5449	529.68
34.5593	513.00
34.5738	517.15
34.5882	534.60
34.6027	528.59
34.6171	520.36
34.6315	540.57
34.6460	530.73
34.6604	509.34
34.6749	485.39
34.6893	491.27
34.7037	513.67
34.7182	503.89
34.7326	487.31
34.7471	491.87
34.7615	507.37
34.7759	516.91
34.7904	510.23
34.8048	518.75
34.8193	553.21
34.8337	515.48
34.8481	467.37
34.8626	520.11
34.8770	503.69
34.8915	507.71
34.9059	515.57
34.9203	478.39
34.9348	481.10
34.9492	507.47
34.9637	526.07
34.9781	515.23
34.9925	522.99
35.0070	529.21
35.0214	512.90
35.0359	507.83
35.0503	519.76
35.0647	501.88
35.0792	501.18
35.0936	518.83
35.1081	508.65
35.1225	509.71
35.1369	489.30
35.1514	486.79
35.1658	517.58
35.1803	513.30
35.1947	507.56
35.2091	486.41
35.2236	514.85
35.2380	494.99
35.2525	475.48
35.2669	510.05
35.2813	505.16
35.2958	472.80
35.3102	500.05
35.3247	485.86
35.3391	523.68
35.3535	484.68
35.3680	507.68
35.3824	488.95
35.3969	480.24
35.4113	506.22
35.4257	508.44
35.4402	549.35
35.4546	550.44
35.4691	562.23
35.4835	533.99
35.4979	545.74
35.5124	518.94
35.5268	490.28
35.5413	505.57
35.5557	525.78
35.5701	536.28
35.5846	533.27
35.5990	521.41
35.6135	544.72
35.6279	504.74
35.6423	514.20
35.6568	534.88
35.6712	538.60
35.6857	559.48
35.7001	649.72
35.7145	682.48
35.7290	634.45
35.7434	580.30
35.7579	549.08
35.7723	568.83
35.7867	625.29
35.8012	641.76
35.8156	647.73
35.8301	600.38
35.8445	605.67
35.8589	649.96
35.8734	739.76
35.8878	819.42
35.9023	985.00
35.9167	1077.67
35.9311	1304.55
35.9456	1967.03
35.9600	2344.01
35.9745	1978.02
35.9889	1956.34
36.0033	2333.45
36.0178	2564.61
36.0322	2101.67
36.0467	1954.68
36.0611	1792.85
36.0755	1657.85
36.0900	1791.82
36.1044	1636.81
36.1189	1618.01
36.1333	1447.71
36.1477	1335.68
36.1622	1346.95
36.1766	1408.61
36.1911	1280.22
36.2055	1148.58
36.2199	1149.35
36.2344	1124.08
36.2488	999.83
36.2633	953.99
36.2777	960.60
36.2921	890.81
36.3066	858.88
36.3210	804.40
36.3355	748.81
36.3499	733.24
36.3643	658.07
36.3788	655.29
36.3932	602.49
36.4077	592.14
36.4221	626.68
36.4365	595.57
36.4510	590.32
36.4654	528.44
36.4799	574.48
36.4943	584.72
36.5087	557.14
36.5232	603.03
36.5376	596.97
36.5521	569.46
36.5665	535.52
36.5809	536.07
36.5954	551.91
36.6098	570.37
36.6243	515.40
36.6387	557.71
36.6531	528.18
36.6676	512.46
36.6820	520.71
36.6965	510.87
36.7109	571.28
36.7253	516.81
36.7398	511.54
36.7542	525.08
36.7687	484.78
36.7831	542.97
36.7975	532.67
36.8120	547.66
36.8264	540.89
36.8409	570.37
36.8553	580.75
36.8697	572.57
36.8842	622.60
36.8986	649.96
36.9131	568.64
36.9275	576.60
36.9419	610.34
36.9564	585.75
36.9708	540.01
36.9853	562.89
36.9997	562.26
37.0141	529.58
37.0286	540.69
37.0430	500.14
37.0575	550.79
37.0719	540.24
37.0863	526.94
37.1008	499.57
37.1152	507.35
37.1297	518.93
37.1441	477.19
37.1585	463.22
37.1730	500.99
37.1874	489.16
37.2019	517.29
37.2163	541.83
37.2307	522.83
37.2452	505.32
37.2596	488.77
37.2741	500.71
37.2885	489.85
37.3029	502.79
37.3174	442.43
37.3318	506.59
37.3463	504.84
37.3607	486.69
37.3751	505.91
37.3896	482.83
37.4040	497.67
37.4185	505.59
37.4329	515.46
37.4473	489.18
37.4618	491.28
37.4762	535.96
37.4907	506.42
37.5051	488.81
37.5195	501.40
37.5340	511.86
37.5484	530.75
37.5629	511.06
37.5773	493.46
37.5917	489.95
37.6062	498.59
37.6206	526.12
37.6351	550.30
37.6495	495.31
37.6639	503.25
37.6784	501.70
37.6928	469.04
37.7073	513.93
37.7217	465.13
37.7361	464.96
37.7506	470.29
37.7650	491.48
37.7795	517.42
37.7939	503.10
37.8083	500.52
37.8228	508.05
37.8372	529.45
37.8517	507.92
37.8661	511.23
37.8805	505.64
37.8950	507.08
37.9094	517.14
37.9239	515.27
37.9383	489.02
37.9528	494.05
37.9672	504.23
37.9816	508.71
37.9961	500.90
38.0105	510.53
38.0250	484.28
38.0394	530.39
38.0538	504.96
38.0683	530.70
38.0827	506.44
38.0972	505.41
38.1116	492.03
38.1260	501.87
38.1405	496.60
38.1549	493.14
38.1694	503.54
38.1838	504.97
38.1982	515.82
38.2127	499.12
38.2271	497.93
38.2416	506.90
38.2560	520.37
38.2704	485.24
38.2849	528.44
38.2993	530.46
38.3138	519.62
38.3282	546.26
38.3426	532.04
38.3571	494.19
38.3715	496.00
38.3860	518.95
38.4004	533.93
38.4148	548.89
38.4293	565.54
38.4437	585.49
38.4582	605.29
38.4726	691.39
38.4870	725.27
38.5015	750.03
38.5159	802.43
38.5304	810.30
38.5448	787.53
38.5592	820.31
38.5737	785.04
38.5881	744.63
38.6026	732.40
38.6170	720.78
38.6314	668.71
38.6459	658.15
38.6603	633.34
38.6748	590.85
38.6892	574.26
38.7036	607.47
38.7181	560.20
38.7325	530.29
38.7470	502.20
38.7614	519.34
38.7758	545.65
38.7903	556.87
38.8047	548.90
38.8192	540.07
38.8336	493.67
38.8480	496.41
38.8625	563.22
38.8769	530.32
38.8914	490.06
38.9058	511.41
38.9202	533.35
38.9347	510.21
38.9491	508.17
38.9636	529.25
38.9780	513.44
38.9924	492.41
39.0069	496.85
39.0213	503.46
39.0358	506.51
39.0502	505.58
39.0646	524.90
39.0791	519.78
39.0935	499.64
39.1080	499.20
39.1224	546.59
39.1368	511.65
39.1513	476.07
39.1657	512.47
39.1802	539.02
39.1946	499.47
39.2090	478.67
39.2235	513.75
39.2379	515.60
39.2524	532.02
39.2668	520.23
39.2812	498.62
39.2957	505.57
39.3101	522.83
39.3246	501.51
39.3390	497.47
39.3534	477.97
39.3679	504.05
39.3823	481.57
39.3968	458.28
39.4112	490.24
39.4256	507.44
39.4401	497.32
39.4545	486.47
39.4690	517.57
39.4834	513.79
39.4978	514.79
39.5123	499.89
39.5267	485.22
39.5412	476.03
39.5556	522.86
39.5700	510.06
39.5845	493.88
39.5989	501.26
39.6134	492.57
39.6278	488.56
39.6422	470.16
39.6567	487.63
39.6711	495.94
39.6856	479.54
39.7000	500.53
39.7144	512.71
39.7289	513.87
39.7433	480.53
39.7578	461.99
39.7722	480.96
39.7866	496.21
39.8011	514.14
39.8155	489.58
39.8300	504.92
39.8444	511.89
39.8588	514.08
39.8733	499.11
39.8877	474.34
39.9022	511.41
39.9166	517.32
39.9310	495.12
39.9455	521.67
39.9599	464.19
39.9744	488.09
39.9888	498.17
40.0032	486.82
40.0177	467.91
40.0321	537.48
40.0466	490.62
40.0610	496.16
40.0754	494.11
40.0899	508.19
40.1043	505.66
40.1188	504.16
40.1332	516.06
40.1476	503.42
40.1621	525.74
40.1765	474.82
40.1910	489.70
40.2054	532.34
40.2198	509.32
40.2343	503.76
40.2487	531.49
40.2632	488.53
40.2776	519.00
40.2920	497.85
40.3065	541.77
40.3209	517.97
40.3354	522.83
40.3498	488.18
40.3642	496.35
40.3787	459.19
40.3931	494.50
40.4076	547.41
40.4220	491.77
40.4364	510.16
40.4509	478.20
40.4653	510.27
40.4798	489.32
40.4942	488.03
40.5086	475.42
40.5231	501.59
40.5375	512.44
40.5520	513.89
40.5664	508.57
40.5808	468.65
40.5953	525.13
40.6097	514.83
40.6242	482.33
40.6386	521.50
40.6530	484.79
40.6675	465.36
40.6819	484.81
40.6964	497.98
40.7108	480.67
40.7252	494.14
40.7397	505.68
40.7541	497.26
40.7686	497.13
40.7830	501.22
40.7974	480.89
40.8119	432.30
40.8263	512.20
40.8408	490.73
40.8552	508.32
40.8696	499.26
40.8841	505.81
40.8985	502.65
40.9130	503.93
40.9274	488.13
40.9418	524.67
40.9563	521.30
40.9707	496.74
40.9852	478.19
40.9996	487.78
41.0140	528.19
41.0285	489.05
41.0429	490.30
41.0574	477.80
41.0718	509.59
41.0862	515.53
41.1007	507.33
41.1151	478.06
41.1296	525.97
41.1440	512.02
41.1584	502.26
41.1729	508.91
41.1873	485.53
41.2018	482.36
41.2162	506.50
41.2306	503.81
41.2451	496.48
41.2595	484.22
41.2740	507.31
41.2884	527.82
41.3028	499.09
41.3173	502.24
41.3317	501.34
41.3462	514.19
41.3606	516.04
41.3750	508.54
41.3895	470.81
41.4039	492.60
41.4184	489.53
41.4328	537.16
41.4472	516.70
41.4617	504.87
41.4761	524.31
41.4906	521.15
41.5050	476.49
41.5194	499.41
41.5339	513.36
41.5483	529.12
41.5628	529.66
41.5772	542.23
41.5916	489.77
41.6061	525.09
41.6205	476.24
41.6350	502.08
41.6494	492.33
41.6639	505.67
41.6783	515.34
41.6927	536.62
41.7072	512.53
41.7216	484.46
41.7361	503.20
41.7505	505.68
41.7649	489.09
41.7794	500.40
41.7938	522.72
41.8083	537.78
41.8227	522.39
41.8371	507.62
41.8516	530.95
41.8660	542.32
41.8805	511.77
41.8949	545.40
41.9093	567.52
41.9238	529.28
41.9382	545.16
41.9527	558.66
41.9671	568.88
41.9815	586.74
41.9960	556.07
42.0104	536.59
42.0249	562.00
42.0393	561.13
42.0537	572.69
42.0682	591.58
42.0826	546.86
42.0971	610.29
42.1115	575.50
42.1259	612.28
42.1404	599.09
42.1548	571.15
42.1693	618.98
42.1837	681.29
42.1981	755.87
42.2126	831.00
42.2270	902.54
42.2415	1045.60
42.2559	1194.06
42.2703	1324.50
42.2848	1411.14
42.2992	1534.69
42.3137	1612.17
42.3281	1605.15
42.3425	1557.42
42.3570	1433.19
42.3714	1351.65
42.3859	1362.36
42.4003	1303.18
42.4147	1312.30
42.4292	1266.96
42.4436	1106.74
42.4581	1026.49
42.4725	923.65
42.4869	872.36
42.5014	750.67
42.5158	724.01
42.5303	673.02
42.5447	595.24
42.5591	625.63
42.5736	585.54
42.5880	592.39
42.6025	591.65
42.6169	547.63
42.6313	540.59
42.6458	539.78
42.6602	525.26
42.6747	540.28
42.6891	561.39
42.7035	542.64
42.7180	544.49
42.7324	497.22
42.7469	560.70
42.7613	530.93
42.7757	515.45
42.7902	529.22
42.8046	526.01
42.8191	498.01
42.8335	494.18
42.8479	503.34
42.8624	520.59
42.8768	541.01
42.8913	507.82
42.9057	509.33
42.9201	542.53
42.9346	527.47
42.9490	513.90
42.9635	475.46
42.9779	457.87
42.9923	478.11
43.0068	482.26
43.0212	516.73
43.0357	522.47
43.0501	511.53
43.0645	516.71
43.0790	487.81
43.0934	485.52
43.1079	550.23
43.1223	523.47
43.1367	514.48
43.1512	490.92
43.1656	539.09
43.1801	510.30
43.1945	533.25
43.2089	551.87
43.2234	546.31
43.2378	518.58
43.2523	523.41
43.2667	495.22
43.2811	489.15
43.2956	519.28
43.3100	523.79
43.3245	523.42
43.3389	516.60
43.3533	535.91
43.3678	535.33
43.3822	514.05
43.3967	521.48
43.4111	498.63
43.4255	525.08
43.4400	541.09
43.4544	505.59
43.4689	515.94
43.4833	495.41
43.4977	500.83
43.5122	519.02
43.5266	517.12
43.5411	547.65
43.5555	547.83
43.5699	520.57
43.5844	499.23
43.5988	495.53
43.6133	530.31
43.6277	500.44
43.6421	521.37
43.6566	506.29
43.6710	525.65
43.6855	526.73
43.6999	500.64
43.7143	512.59
43.7288	502.68
43.7432	488.25
43.7577	513.64
43.7721	516.14
43.7865	564.40
43.8010	548.60
43.8154	557.85
43.8299	555.60
43.8443	521.80
43.8587	540.79
43.8732	547.46
43.8876	551.60
43.9021	542.93
43.9165	572.68
43.9309	575.43
43.9454	585.76
43.9598	581.19
43.9743	606.15
43.9887	653.74
44.0031	657.74
44.0176	651.96
44.0320	639.92
44.0465	625.34
44.0609	628.20
44.0753	614.46
44.0898	552.16
44.1042	592.07
44.1187	598.88
44.1331	597.60
44.1475	536.57
44.1620	578.23
44.1764	558.80
44.1909	509.86
44.2053	517.58
44.2197	527.47
44.2342	551.37
44.2486	534.00
44.2631	500.63
44.2775	529.17
44.2919	546.45
44.3064	524.32
44.3208	529.45
44.3353	529.92
44.3497	539.66
44.3641	511.41
44.3786	519.96
44.3930	534.87
44.4075	511.01
44.4219	541.70
44.4363	557.73
44.4508	561.21
44.4652	586.95
44.4797	580.83
44.4941	586.85
44.5085	593.30
44.5230	556.77
44.5374	609.31
44.5519	616.07
44.5663	601.09
44.5807	585.01
44.5952	547.84
44.6096	573.25
44.6241	586.23
44.6385	603.24
44.6529	554.22
44.6674	599.54
44.6818	658.65
44.6963	647.66
44.7107	648.01
44.7251	713.13
44.7396	753.88
44.7540	807.01
44.7685	837.86
44.7829	849.76
44.7973	854.33
44.8118	859.45
44.8262	799.36
44.8407	767.48
44.8551	719.13
44.8695	747.21
44.8840	746.69
44.8984	737.51
44.9129	695.01
44.9273	728.23
44.9417	672.12
44.9562	611.29
44.9706	588.06
44.9851	543.84
44.9995	530.34
45.0139	501.87
45.0284	556.80
45.0428	506.73
45.0573	503.38
45.0717	512.95
45.0861	588.31
45.1006	534.39
45.1150	517.64
45.1295	535.16
45.1439	533.18
45.1583	525.35
45.1728	502.22
45.1872	509.88
45.2017	514.26
45.2161	527.15
45.2305	527.36
45.2450	523.25
45.2594	535.51
45.2739	546.79
45.2883	508.49
45.3028	518.22
45.3172	545.74
45.3316	539.74
45.3461	510.84
45.3605	504.20
45.3750	536.47
45.3894	527.47
45.4038	455.11
45.4183	489.84
45.4327	539.77
45.4472	493.28
45.4616	485.10
45.4760	504.74
45.4905	543.84
45.5049	489.30
45.5194	471.16
45.5338	506.27
45.5482	518.26
45.5627	507.87
45.5771	501.27
45.5916	508.19
45.6060	531.08
45.6204	499.44
45.6349	513.52
45.6493	498.46
45.6638	510.33
45.6782	525.60
45.6926	550.80
45.7071	556.21
45.7215	513.10
45.7360	497.11
45.7504	493.23
45.7648	492.23
45.7793	510.02
45.7937	533.44
45.8082	524.50
45.8226	518.35
45.8370	515.39
45.8515	513.53
45.8659	532.71
45.8804	526.84
45.8948	512.61
45.9092	498.52
45.9237	482.91
45.9381	492.17
45.9526	473.02
45.9670	510.65
45.9814	497.55
45.9959	545.35
46.0103	559.95
46.0248	535.40
46.0392	508.96
46.0536	489.29
46.0681	469.71
46.0825	489.79
46.0970	522.14
46.1114	497.93
46.1258	507.49
46.1403	496.74
46.1547	529.47
46.1692	500.98
46.1836	511.74
46.1980	513.22
46.2125	514.92
46.2269	516.58
46.2414	523.40
46.2558	525.24
46.2702	518.88
46.2847	476.89
46.2991	476.65
46.3136	485.25
46.3280	515.29
46.3424	488.87
46.3569	508.35
46.3713	477.07
46.3858	495.32
46.4002	479.45
46.4146	492.85
46.4291	534.79
46.4435	546.30
46.4580	518.37
46.4724	497.10
46.4868	492.46
46.5013	515.32
46.5157	533.50
46.5302	493.51
46.5446	495.51
46.5590	512.71
46.5735	527.02
46.5879	501.04
46.6024	488.75
46.6168	489.25
46.6312	513.46
46.6457	506.76
46.6601	513.21
46.6746	480.44
46.6890	494.84
46.7034	485.91
46.7179	501.47
46.7323	479.75
46.7468	488.37
46.7612	505.15
46.7756	500.59
46.7901	485.83
46.8045	481.24
46.8190	486.14
46.8334	500.02
46.8478	500.52
46.8623	513.29
46.8767	495.14
46.8912	517.11
46.9056	541.92
46.9200	526.36
46.9345	525.26
46.9489	515.07
46.9634	511.06
46.9778	508.88
46.9922	486.08
47.0067	521.26
47.0211	553.61
47.0356	557.65
47.0500	518.63
47.0644	516.53
47.0789	515.59
47.0933	512.66
47.1078	511.79
47.1222	509.16
47.1366	512.08
47.1511	498.68
47.1655	523.22
47.1800	497.31
47.1944	471.92
47.2088	557.09
47.2233	516.43
47.2377	500.95
47.2522	523.32
47.2666	491.38
47.2810	509.71
47.2955	485.63
47.3099	485.56
47.3244	505.44
47.3388	526.67
47.3532	511.08
47.3677	496.12
47.3821	501.68
47.3966	488.93
47.4110	521.55
47.4254	512.11
47.4399	480.91
47.4543	486.56
47.4688	511.73
47.4832	541.91
47.4976	512.58
47.5121	501.21
47.5265	509.52
47.5410	509.82
47.5554	487.32
47.5698	484.29
47.5843	505.00
47.5987	549.39
47.6132	552.89
47.6276	515.56
47.6420	491.61
47.6565	511.83
47.6709	497.40
47.6854	512.02
47.6998	506.63
47.7142	524.86
47.7287	529.89
47.7431	504.43
47.7576	487.56
47.7720	504.81
47.7864	520.42
47.8009	491.50
47.8153	506.26
47.8298	488.32
47.8442	519.36
47.8586	489.25
47.8731	528.39
47.8875	497.23
47.9020	521.58
47.9164	517.51
47.9308	485.48
47.9453	497.83
47.9597	470.29
47.9742	504.00
47.9886	537.15
48.0030	500.94
48.0175	508.49
48.0319	484.40
48.0464	486.38
48.0608	469.61
48.0752	459.60
48.0897	568.43
48.1041	531.52
48.1186	491.67
48.1330	484.02
48.1474	475.04
48.1619	495.53
48.1763	506.41
48.1908	510.07
48.2052	515.70
48.2196	522.32
48.2341	527.72
48.2485	513.58
48.2630	511.28
48.2774	514.30
48.2918	537.12
48.3063	472.64
48.3207	460.66
48.3352	490.18
48.3496	532.65
48.3640	509.75
48.3785	487.53
48.3929	507.25
48.4074	488.04
48.4218	531.18
48.4362	504.67
48.4507	472.43
48.4651	496.39
48.4796	514.18
48.4940	534.75
48.5084	530.84
48.5229	487.61
48.5373	536.55
48.5518	529.65
48.5662	522.99
48.5806	500.81
48.5951	484.22
48.6095	505.79
48.6240	502.22
48.6384	529.20
48.6528	519.83
48.6673	467.32
48.6817	501.88
48.6962	492.60
48.7106	540.81
48.7250	553.71
48.7395	489.05
48.7539	504.10
48.7684	500.26
48.7828	530.00
48.7972	533.80
48.8117	522.92
48.8261	514.42
48.8406	527.55
48.8550	557.38
48.8694	571.56
48.8839	561.54
48.8983	584.91
48.9128	563.67
48.9272	537.05
48.9416	529.22
48.9561	531.64
48.9705	530.51
48.9850	583.09
48.9994	605.20
49.0139	589.31
49.0283	642.20
49.0427	651.82
49.0572	668.09
49.0716	682.59
49.0861	627.20
49.1005	625.37
49.1149	695.94
49.1294	728.26
49.1438	700.18
49.1583	729.80
49.1727	833.92
49.1871	889.00
49.2016	908.73
49.2160	983.31
49.2305	1087.83
49.2449	1172.03
49.2593	1170.99
49.2738	1311.41
49.2882	1401.95
49.3027	1521.03
49.3171	1554.69
49.3315	1628.42
49.3460	1694.50
49.3604	1690.23
49.3749	1743.31
49.3893	1724.10
49.4037	1777.07
49.4182	1761.89
49.4326	1683.64
49.4471	1604.70
49.4615	1503.99
49.4759	1534.66
49.4904	1454.33
49.5048	1399.64
49.5193	1315.76
49.5337	1245.97
49.5481	1203.60
49.5626	1146.03
49.5770	1028.35
49.5915	981.96
49.6059	958.70
49.6203	858.63
49.6348	853.86
49.6492	757.54
49.6637	715.66
49.6781	682.74
49.6925	658.53
49.7070	700.51
49.7214	673.69
49.7359	605.91
49.7503	602.71
49.7647	635.44
49.7792	624.34
49.7936	617.78
49.8081	569.53
49.8225	541.80
49.8369	536.68
49.8514	582.50
49.8658	591.63
49.8803	581.18
49.8947	540.51
49.9091	537.15
49.9236	539.55
49.9380	563.74
49.9525	568.63
49.9669	553.95
49.9813	548.88
49.9958	548.06
50.0102	523.69
50.0247	555.71
50.0391	542.65
50.0535	514.87
50.0680	539.19
50.0824	558.33
50.0969	576.40
50.1113	522.13
50.1257	524.58
50.1402	519.63
50.1546	476.67
50.1691	516.21
50.1835	485.80
50.1979	505.44
50.2124	498.38
50.2268	478.90
50.2413	519.97
50.2557	495.61
50.2701	524.81
50.2846	499.59
50.2990	488.61
50.3135	517.76
50.3279	490.71
50.3423	491.12
50.3568	504.12
50.3712	509.96
50.3857	505.30
50.4001	484.56
50.4145	501.57
50.4290	533.46
50.4434	507.94
50.4579	502.71
50.4723	517.91
50.4867	523.62
50.5012	521.11
50.5156	500.49
50.5301	519.22
50.5445	507.60
50.5589	482.83
50.5734	479.33
50.5878	480.54
50.6023	476.64
50.6167	502.30
50.6311	510.89
50.6456	501.98
50.6600	484.15
50.6745	495.48
50.6889	492.25
50.7033	533.22
50.7178	515.25
50.7322	510.80
50.7467	546.84
50.7611	505.58
50.7755	510.42
50.7900	493.06
50.8044	516.03
50.8189	526.43
50.8333	522.78
50.8477	506.07
50.8622	527.25
50.8766	535.90
50.8911	504.58
50.9055	552.03
50.9199	518.79
50.9344	512.44
50.9488	512.71
50.9633	481.03
50.9777	493.44
50.9921	492.58
51.0066	501.17
51.0210	505.59
51.0355	493.09
51.0499	499.74
51.0643	537.92
51.0788	518.87
51.0932	485.45
51.1077	474.23
51.1221	486.79
51.1365	468.05
51.1510	489.55
51.1654	496.35
51.1799	511.02
51.1943	498.21
51.2087	489.76
51.2232	505.39
51.2376	519.12
51.2521	487.32
51.2665	505.90
51.2809	528.36
51.2954	502.07
51.3098	495.97
51.3243	520.79
51.3387	529.51
51.3531	520.38
51.3676	511.69
51.3820	508.48
51.3965	515.18
51.4109	491.83
51.4253	531.82
51.4398	522.88
51.4542	488.45
51.4687	517.06
51.4831	485.43
51.4975	490.74
51.5120	518.22
51.5264	494.85
51.5409	536.84
51.5553	513.00
51.5697	490.02
51.5842	516.80
51.5986	509.43
51.6131	518.70
51.6275	502.23
51.6419	508.39
51.6564	497.19
51.6708	510.08
51.6853	517.78
51.6997	514.94
51.7141	499.82
51.7286	515.06
51.7430	529.78
51.7575	510.85
51.7719	524.52
51.7863	528.06
51.8008	547.17
51.8152	499.09
51.8297	462.94
51.8441	500.27
51.8585	532.28
51.8730	484.43
51.8874	503.11
51.9019	506.08
51.9163	513.11
51.9307	540.24
51.9452	511.62
51.9596	471.79
51.9741	501.47
51.9885	523.56
52.0029	494.43
52.0174	498.37
52.0318	485.69
52.0463	518.72
52.0607	547.68
52.0751	531.43
52.0896	531.99
52.1040	542.25
52.1185	505.45
52.1329	548.78
52.1473	487.21
52.1618	517.85
52.1762	522.25
52.1907	518.03
52.2051	468.40
52.2195	528.23
52.2340	495.90
52.2484	520.57
52.2629	499.67
52.2773	508.61
52.2917	514.88
52.3062	508.22
52.3206	535.13
52.3351	531.07
52.3495	501.11
52.3639	511.00
52.3784	520.47
52.3928	511.00
52.4073	514.09
52.4217	515.40
52.4361	541.93
52.4506	497.74
52.4650	516.26
52.4795	518.77
52.4939	508.19
52.5083	474.58
52.5228	494.77
52.5372	546.20
52.5517	505.37
52.5661	506.01
52.5805	532.76
52.5950	512.03
52.6094	493.17
52.6239	538.17
52.6383	520.05
52.6527	495.58
52.6672	492.27
52.6816	495.45
52.6961	493.21
52.7105	523.91
52.7250	531.77
52.7394	539.92
52.7538	500.71
52.7683	513.38
52.7827	532.28
52.7972	533.23
52.8116	498.35
52.8260	497.96
52.8405	500.31
52.8549	532.40
52.8694	538.31
52.8838	468.49
52.8982	546.15
52.9127	527.51
52.9271	526.56
52.9416	546.46
52.9560	504.30
52.9704	510.65
52.9849	504.81
52.9993	537.93
53.0138	504.74
53.0282	500.58
53.0426	518.21
53.0571	513.65
53.0715	552.29
53.0860	513.54
53.1004	509.73
53.1148	516.03
53.1293	530.74
53.1437	527.07
53.1582	522.07
53.1726	501.19
53.1870	497.80
53.2015	502.33
53.2159	506.96
53.2304	535.90
53.2448	501.44
53.2592	494.27
53.2737	529.39
53.2881	526.48
53.3026	514.50
53.3170	472.06
53.3314	522.70
53.3459	519.01
53.3603	512.09
53.3748	481.33
53.3892	504.55
53.4036	489.52
53.4181	489.55
53.4325	524.92
53.4470	538.53
53.4614	532.41
53.4758	523.70
53.4903	522.52
53.5047	498.32
53.5192	485.88
53.5336	503.93
53.5480	497.86
53.5625	527.25
53.5769	511.01
53.5914	483.05
53.6058	553.23
53.6202	526.54
53.6347	524.18
53.6491	505.46
53.6636	498.45
53.6780	524.05
53.6924	491.16
53.7069	512.16
53.7213	510.11
53.7358	486.94
53.7502	537.96
53.7646	518.24
53.7791	500.74
53.7935	524.20
53.8080	537.76
53.8224	544.77
53.8368	530.81
53.8513	503.80
53.8657	526.77
53.8802	535.60
53.8946	540.10
53.9090	515.93
53.9235	543.17
53.9379	527.38
53.9524	544.39
53.9668	514.35
53.9812	530.01
53.9957	522.93
54.0101	488.17
54.0246	516.50
54.0390	495.12
54.0534	531.65
54.0679	536.71
54.0823	521.37
54.0968	522.32
54.1112	513.87
54.1256	509.75
54.1401	505.88
54.1545	529.07
54.1690	536.43
54.1834	515.35
54.1978	550.74
54.2123	519.72
54.2267	530.92
54.2412	528.21
54.2556	533.25
54.2700	513.63
54.2845	542.77
54.2989	520.25
54.3134	542.88
54.3278	551.92
54.3422	569.77
54.3567	555.98
54.3711	528.75
54.3856	499.42
54.4000	517.20
54.4144	562.40
54.4289	561.26
54.4433	539.31
54.4578	562.16
54.4722	584.90
54.4866	594.48
54.5011	571.65
54.5155	548.85
54.5300	568.49
54.5444	584.44
54.5588	569.99
54.5733	581.04
54.5877	632.05
54.6022	599.54
54.6166	584.52
54.6310	575.52
54.6455	585.30
54.6599	579.56
54.6744	528.61
54.6888	525.13
54.7032	553.75
54.7177	542.13
54.7321	576.31
54.7466	576.97
54.7610	560.06
54.7754	543.14
54.7899	575.77
54.8043	550.37
54.8188	543.43
54.8332	573.75
54.8476	565.75
54.8621	544.50
54.8765	547.46
54.8910	524.27
54.9054	565.15
54.9198	551.72
54.9343	543.55
54.9487	569.57
54.9632	534.51
54.9776	534.59
54.9920	546.07
55.0065	512.39
55.0209	532.05
55.0354	493.11
55.0498	518.88
55.0642	553.06
55.0787	536.12
55.0931	519.35
55.1076	486.59
55.1220	522.14
55.1364	526.04
55.1509	509.55
55.1653	531.72
55.1798	510.36
55.1942	490.50
55.2086	519.43
55.2231	510.27
55.2375	526.79
55.2520	513.54
55.2664	504.45
55.2808	513.66
55.2953	481.92
55.3097	515.15
55.3242	517.93
55.3386	519.59
55.3530	511.82
55.3675	545.54
55.3819	482.63
55.3964	518.33
55.4108	532.25
55.4252	518.88
55.4397	494.36
55.4541	500.53
55.4686	517.72
55.4830	547.07
55.4974	501.33
55.5119	513.23
55.5263	500.69
55.5408	513.49
55.5552	538.53
55.5696	485.47
55.5841	531.10
55.5985	549.08
55.6130	545.58
55.6274	553.67
55.6418	554.36
55.6563	553.15
55.6707	522.30
55.6852	495.56
55.6996	513.55
55.7140	518.07
55.7285	493.51
55.7429	493.99
55.7574	522.35
55.7718	513.08
55.7862	517.02
55.8007	506.02
55.8151	529.72
55.8296	525.96
55.8440	512.39
55.8584	524.40
55.8729	511.10
55.8873	504.38
55.9018	523.42
55.9162	525.54
55.9306	521.91
55.9451	525.29
55.9595	515.25
55.9740	534.19
55.9884	510.37
56.0028	479.91
56.0173	478.17
56.0317	516.63
56.0462	527.61
56.0606	515.46
56.0750	538.72
56.0895	499.46
56.1039	494.71
56.1184	515.81
56.1328	567.01
56.1472	523.05
56.1617	531.65
56.1761	482.72
56.1906	492.28
56.2050	513.71
56.2194	553.56
56.2339	487.94
56.2483	492.00
56.2628	498.82
56.2772	515.57
56.2916	500.32
56.3061	507.02
56.3205	507.01
56.3350	518.49
56.3494	561.76
56.3639	580.45
56.3783	556.40
56.3927	515.59
56.4072	489.46
56.4216	485.43
56.4361	525.28
56.4505	516.40
56.4649	503.41
56.4794	516.93
56.4938	534.23
56.5083	530.52
56.5227	521.71
56.5371	542.53
56.5516	513.14
56.5660	533.52
56.5805	534.02
56.5949	539.95
56.6093	515.07
56.6238	517.30
56.6382	531.74
56.6527	520.99
56.6671	529.45
56.6815	524.38
56.6960	532.91
56.7104	548.16
56.7249	512.32
56.7393	542.54
56.7537	548.77
56.7682	517.48
56.7826	534.97
56.7971	510.28
56.8115	504.08
56.8259	542.80
56.8404	463.29
56.8548	502.39
56.8693	519.38
56.8837	546.28
56.8981	532.33
56.9126	505.36
56.9270	514.25
56.9415	543.49
56.9559	480.16
56.9703	514.61
56.9848	503.32
56.9992	519.25
57.0137	522.27
57.0281	522.64
57.0425	516.41
57.0570	542.43
57.0714	517.29
57.0859	557.68
57.1003	554.90
57.1147	532.28
57.1292	506.71
57.1436	508.55
57.1581	545.28
57.1725	587.55
57.1869	540.91
57.2014	534.16
57.2158	529.80
57.2303	519.20
57.2447	532.28
57.2591	501.21
57.2736	527.28
57.2880	530.27
57.3025	540.85
57.3169	522.81
57.3313	537.90
57.3458	503.31
57.3602	533.83
57.3747	517.33
57.3891	518.55
57.4035	508.46
57.4180	563.83
57.4324	525.38
57.4469	504.13
57.4613	484.14
57.4757	550.40
57.4902	505.85
57.5046	529.26
57.5191	513.81
57.5335	550.92
57.5479	517.15
57.5624	540.23
57.5768	514.01
57.5913	521.65
57.6057	540.66
57.6201	568.67
57.6346	543.28
57.6490	525.17
57.6635	525.83
57.6779	527.16
57.6923	528.52
57.7068	553.33
57.7212	528.56
57.7357	515.83
57.7501	514.32
57.7645	518.64
57.7790	562.73
57.7934	520.19
57.8079	552.78
57.8223	550.01
57.8367	542.46
57.8512	551.67
57.8656	580.17
57.8801	583.90
57.8945	557.31
57.9089	609.51
57.9234	559.37
57.9378	555.11
57.9523	529.51
57.9667	520.48
57.9811	540.39
57.9956	533.73
58.0100	545.50
58.0245	535.56
58.0389	564.61
58.0533	574.58
58.0678	573.71
58.0822	596.37
58.0967	605.69
58.1111	597.46
58.1255	614.14
58.1400	635.48
58.1544	632.33
58.1689	629.82
58.1833	636.84
58.1977	645.73
58.2122	695.69
58.2266	668.62
58.2411	660.34
58.2555	674.78
58.2699	683.51
58.2844	690.80
58.2988	665.03
58.3133	666.95
58.3277	658.36
58.3421	679.27
58.3566	660.51
58.3710	646.63
58.3855	637.02
58.3999	621.92
58.4143	626.78
58.4288	630.25
58.4432	586.89
58.4577	603.06
58.4721	602.72
58.4865	607.00
58.5010	574.25
58.5154	569.79
58.5299	564.72
58.5443	546.81
58.5587	545.90
58.5732	522.81
58.5876	522.57
58.6021	530.13
58.6165	546.81
58.6309	566.91
58.6454	530.11
58.6598	507.16
58.6743	524.40
58.6887	561.70
58.7031	575.78
58.7176	560.25
58.7320	567.66
58.7465	580.29
58.7609	505.81
58.7753	526.49
58.7898	526.27
58.8042	523.62
58.8187	547.08
58.8331	570.77
58.8475	522.76
58.8620	555.05
58.8764	556.22
58.8909	537.29
58.9053	533.46
58.9197	551.92
58.9342	558.39
58.9486	568.02
58.9631	568.94
58.9775	534.83
58.9919	543.66
59.0064	500.65
59.0208	532.86
59.0353	518.92
59.0497	519.39
59.0641	574.25
59.0786	530.84
59.0930	522.57
59.1075	525.28
59.1219	558.80
59.1363	543.22
59.1508	526.23
59.1652	549.84
59.1797	527.14
59.1941	536.13
59.2085	534.86
59.2230	519.41
59.2374	544.11
59.2519	544.73
59.2663	552.59
59.2807	546.97
59.2952	518.26
59.3096	547.18
59.3241	540.49
59.3385	543.27
59.3529	542.54
59.3674	554.54
59.3818	561.54
59.3963	557.34
59.4107	528.13
59.4251	570.14
59.4396	577.32
59.4540	533.76
59.4685	541.65
59.4829	596.45
59.4973	592.65
59.5118	568.75
59.5262	556.35
59.5407	550.66
59.5551	571.29
59.5695	562.29
59.5840	534.80
59.5984	578.32
59.6129	586.06
59.6273	565.04
59.6417	554.54
59.6562	538.22
59.6706	550.54
59.6851	555.21
59.6995	556.91
59.7139	550.02
59.7284	492.32
59.7428	544.41
59.7573	527.09
59.7717	525.66
59.7861	519.38
59.8006	520.36
59.8150	540.43
59.8295	536.19
59.8439	549.08
59.8583	571.13
59.8728	568.70
59.8872	535.39
59.9017	515.25
59.9161	515.31
59.9305	558.70
59.9450	569.23
59.9594	555.72
59.9739	540.32
59.9883	574.56
60.0027	542.18
60.0172	509.75
60.0316	559.56
60.0461	545.87
60.0605	570.22
60.0750	548.58
60.0894	531.16
60.1038	511.32
60.1183	537.38
60.1327	541.12
60.1472	509.47
60.1616	555.27
60.1760	520.85
60.1905	526.75
60.2049	531.51
60.2194	548.49
60.2338	533.97
60.2482	533.15
60.2627	527.98
60.2771	540.26
60.2916	494.75
60.3060	553.47
60.3204	573.64
60.3349	548.89
60.3493	523.09
60.3638	553.16
60.3782	539.76
60.3926	547.13
60.4071	549.90
60.4215	512.60
60.4360	534.44
60.4504	524.38
60.4648	541.04
60.4793	560.85
60.4937	550.54
60.5082	550.05
60.5226	541.51
60.5370	532.46
60.5515	519.83
60.5659	529.03
60.5804	564.72
60.5948	545.65
60.6092	504.38
60.6237	529.39
60.6381	544.99
60.6526	537.40
60.6670	539.12
60.6814	511.93
60.6959	504.60
60.7103	531.36
60.7248	538.67
60.7392	538.28
60.7536	578.48
60.7681	559.68
60.7825	534.64
60.7970	564.15
60.8114	555.03
60.8258	539.66
60.8403	507.67
60.8547	529.64
60.8692	558.62
60.8836	528.60
60.8980	595.46
60.9125	541.40
60.9269	548.70
60.9414	530.47
60.9558	516.20
60.9702	512.68
60.9847	554.45
60.9991	508.32
61.0136	539.75
61.0280	476.20
61.0424	493.26
61.0569	484.00
61.0713	521.28
61.0858	530.34
61.1002	531.97
61.1146	570.64
61.1291	536.98
61.1435	495.69
61.1580	528.74
61.1724	558.84
61.1868	534.06
61.2013	542.38
61.2157	538.97
61.2302	533.94
61.2446	565.39
61.2590	536.31
61.2735	535.30
61.2879	527.51
61.3024	539.60
61.3168	537.47
61.3312	538.81
61.3457	543.88
61.3601	491.68
61.3746	556.39
61.3890	547.65
61.4034	530.36
61.4179	533.11
61.4323	578.55
61.4468	530.15
61.4612	519.96
61.4756	531.15
61.4901	537.54
61.5045	565.75
61.5190	544.66
61.5334	553.16
61.5478	539.12
61.5623	567.46
61.5767	554.67
61.5912	521.31
61.6056	507.30
61.6200	525.67
61.6345	551.53
61.6489	555.14
61.6634	517.05
61.6778	525.86
61.6922	552.36
61.7067	562.21
61.7211	566.63
61.7356	570.55
61.7500	558.33
61.7644	536.72
61.7789	556.49
61.7933	540.56
61.8078	515.68
61.8222	539.98
61.8366	568.89
61.8511	513.96
61.8655	517.38
61.8800	554.16
61.8944	551.52
61.9088	546.08
61.9233	544.03
61.9377	538.35
61.9522	569.54
61.9666	544.92
61.9810	536.36
61.9955	545.02
62.0099	524.02
62.0244	572.13
62.0388	521.31
62.0532	575.58
62.0677	577.78
62.0821	521.24
62.0966	547.64
62.1110	554.88
62.1254	587.32
62.1399	508.99
62.1543	528.83
62.1688	562.64
62.1832	565.00
62.1976	587.79
62.2121	548.15
62.2265	564.80
62.2410	594.95
62.2554	554.97
62.2698	550.49
62.2843	531.78
62.2987	567.83
62.3132	550.24
62.3276	559.10
62.3420	562.66
62.3565	540.72
62.3709	566.00
62.3854	573.28
62.3998	557.46
62.4142	530.46
62.4287	538.97
62.4431	534.20
62.4576	571.96
62.4720	557.77
62.4864	554.53
62.5009	530.56
62.5153	555.81
62.5298	553.33
62.5442	537.57
62.5586	533.06
62.5731	520.06
62.5875	569.47
62.6020	539.01
62.6164	525.33
62.6308	552.92
62.6453	581.11
62.6597	537.99
62.6742	526.93
62.6886	547.24
62.7030	574.87
62.7175	574.44
62.7319	560.24
62.7464	570.24
62.7608	547.68
62.7752	548.41
62.7897	548.28
62.8041	585.98
62.8186	551.00
62.8330	530.61
62.8474	552.27
62.8619	543.11
62.8763	520.92
62.8908	525.95
62.9052	554.04
62.9196	556.75
62.9341	571.10
62.9485	549.85
62.9630	565.10
62.9774	583.83
62.9918	599.31
63.0063	544.81
63.0207	565.57
63.0352	555.24
63.0496	539.32
63.0640	546.62
63.0785	572.27
63.0929	581.34
63.1074	544.32
63.1218	580.14
63.1362	572.58
63.1507	556.91
63.1651	545.97
63.1796	551.61
63.1940	552.20
63.2084	587.80
63.2229	585.02
63.2373	588.43
63.2518	586.98
63.2662	560.64
63.2806	584.25
63.2951	554.30
63.3095	603.12
63.3240	565.87
63.3384	596.81
63.3528	594.62
63.3673	572.01
63.3817	587.16
63.3962	582.51
63.4106	584.13
63.4250	626.53
63.4395	597.13
63.4539	563.10
63.4684	569.87
63.4828	584.36
63.4972	610.87
63.5117	587.99
63.5261	558.97
63.5406	586.01
63.5550	612.22
63.5694	588.14
63.5839	593.64
63.5983	633.39
63.6128	629.46
63.6272	608.07
63.6416	583.81
63.6561	599.06
63.6705	597.72
63.6850	642.92
63.6994	627.04
63.7138	651.05
63.7283	643.98
63.7427	624.44
63.7572	634.15
63.7716	653.71
63.7861	671.94
63.8005	670.73
63.8149	666.65
63.8294	664.44
63.8438	690.48
63.8583	713.54
63.8727	739.01
63.8871	781.67
63.9016	759.55
63.9160	807.86
63.9305	834.36
63.9449	871.41
63.9593	840.90
63.9738	830.53
63.9882	809.29
64.0027	824.49
64.0171	792.68
64.0315	756.23
64.0460	783.64
64.0604	826.54
64.0749	781.25
64.0893	769.98
64.1037	741.08
64.1182	741.48
64.1326	769.00
64.1471	746.90
64.1615	731.94
64.1759	754.98
64.1904	710.33
64.2048	698.29
64.2193	721.73
64.2337	644.31
64.2481	639.79
64.2626	645.50
64.2770	668.40
64.2915	685.96
64.3059	654.23
64.3203	634.29
64.3348	622.64
64.3492	658.77
64.3637	634.75
64.3781	640.88
64.3925	631.33
64.4070	579.57
64.4214	618.31
64.4359	667.91
64.4503	643.89
64.4647	648.81
64.4792	626.19
64.4936	590.29
64.5081	642.69
64.5225	617.37
64.5369	600.69
64.5514	622.16
64.5658	661.40
64.5803	623.80
64.5947	636.26
64.6091	618.86
64.6236	649.00
64.6380	681.92
64.6525	673.68
64.6669	629.71
64.6813	665.58
64.6958	688.74
64.7102	682.31
64.7247	654.57
64.7391	692.08
64.7535	683.60
64.7680	717.94
64.7824	721.35
64.7969	716.60
64.8113	747.73
64.8257	782.97
64.8402	805.33
64.8546	810.70
64.8691	831.72
64.8835	830.14
64.8979	905.63
64.9124	875.38
64.9268	883.65
64.9413	977.01
64.9557	957.98
64.9701	977.73
64.9846	1056.43
64.9990	1174.80
65.0135	1241.40
65.0279	1501.82
65.0423	1782.26
65.0568	2125.52
65.0712	2737.68
65.0857	3631.16
65.1001	4724.37
65.1145	6373.02
65.1290	8322.11
65.1434	9778.64
65.1579	11367.19
65.1723	12009.24
65.1867	11417.65
65.2012	9734.79
65.2156	8217.38
65.2301	6402.23
65.2445	5121.34
65.2589	4419.86
65.2734	4231.46
65.2878	4499.64
65.3023	5176.30
65.3167	5877.98
65.3311	6644.51
65.3456	6961.71
65.3600	6827.56
65.3745	6330.28
65.3889	5429.45
65.4033	4359.19
65.4178	3447.52
65.4322	2670.11
65.4467	2038.99
65.4611	1710.57
65.4755	1439.59
65.4900	1277.30
65.5044	1186.06
65.5189	1101.19
65.5333	1012.56
65.5477	939.24
65.5622	911.34
65.5766	868.45
65.5911	848.82
65.6055	825.51
65.6199	729.79
65.6344	751.94
65.6488	752.39
65.6633	765.57
65.6777	732.03
65.6921	729.16
65.7066	743.92
65.7210	699.33
65.7355	708.42
65.7499	671.84
65.7643	657.27
65.7788	711.32
65.7932	682.35
65.8077	681.49
65.8221	664.29
65.8365	671.34
65.8510	647.90
65.8654	664.89
65.8799	624.25
65.8943	655.08
65.9087	664.69
65.9232	590.82
65.9376	630.62
65.9521	669.71
65.9665	608.86
65.9809	651.67
65.9954	613.09
66.0098	608.18
66.0243	618.78
66.0387	642.31
66.0531	630.86
66.0676	609.25
66.0820	656.95
66.0965	636.49
66.1109	636.54
66.1253	653.36
66.1398	615.35
66.1542	605.22
66.1687	614.13
66.1831	598.06
66.1975	610.59
66.2120	608.58
66.2264	623.35
66.2409	603.21
66.2553	590.07
66.2697	575.36
66.2842	611.89
66.2986	588.28
66.3131	578.88
66.3275	612.21
66.3419	603.98
66.3564	587.66
66.3708	584.76
66.3853	588.38
66.3997	601.78
66.4141	616.25
66.4286	631.90
66.4430	574.89
66.4575	566.92
66.4719	579.55
66.4863	612.93
66.5008	611.24
66.5152	583.61
66.5297	554.78
66.5441	620.01
66.5585	610.04
66.5730	590.47
66.5874	580.34
66.6019	557.93
66.6163	597.18
66.6307	563.83
66.6452	604.80
66.6596	571.40
66.6741	567.51
66.6885	582.53
66.7029	600.37
66.7174	581.03
66.7318	592.67
66.7463	583.98
66.7607	568.77
66.7751	581.74
66.7896	578.02
66.8040	614.30
66.8185	598.14
66.8329	592.29
66.8473	550.42
66.8618	620.41
66.8762	595.77
66.8907	596.79
66.9051	583.74
66.9195	572.53
66.9340	625.33
66.9484	590.29
66.9629	586.37
66.9773	577.00
66.9917	591.44
67.0062	584.58
67.0206	607.31
67.0351	615.03
67.0495	578.58
67.0639	596.57
67.0784	613.80
67.0928	601.71
67.1073	586.31
67.1217	616.68
67.1361	588.45
67.1506	571.80
67.1650	612.17
67.1795	586.90
67.1939	544.21
67.2083	549.86
67.2228	583.81
67.2372	579.41
67.2517	571.80
67.2661	558.21
67.2805	589.16
67.2950	569.36
67.3094	566.85
67.3239	569.41
67.3383	581.98
67.3527	575.94
67.3672	564.18
67.3816	588.08
67.3961	606.02
67.4105	609.14
67.4250	612.15
67.4394	582.44
67.4538	605.50
67.4683	594.28
67.4827	539.45
67.4972	574.05
67.5116	570.74
67.5260	595.18
67.5405	591.53
67.5549	590.97
67.5694	580.69
67.5838	570.04
67.5982	583.76
67.6127	601.80
67.6271	574.89
67.6416	593.87
67.6560	599.38
67.6704	586.72
67.6849	566.01
67.6993	562.39
67.7138	623.80
67.7282	582.01
67.7426	594.07
67.7571	618.53
67.7715	591.34
67.7860	597.29
67.8004	606.33
67.8148	554.11
67.8293	568.26
67.8437	596.53
67.8582	571.84
67.8726	605.49
67.8870	623.44
67.9015	602.75
67.9159	588.85
67.9304	581.88
67.9448	585.73
67.9592	549.29
67.9737	542.96
67.9881	535.74
68.0026	604.39
68.0170	590.87
68.0314	590.38
68.0459	609.20
68.0603	594.49
68.0748	546.66
68.0892	616.26
68.1036	557.36
68.1181	544.83
68.1325	569.80
68.1470	543.69
68.1614	557.23
68.1758	581.87
68.1903	564.00
68.2047	581.27
68.2192	578.37
68.2336	604.96
68.2480	567.42
68.2625	551.41
68.2769	599.46
68.2914	579.66
68.3058	572.90
68.3202	590.21
68.3347	618.97
68.3491	612.94
68.3636	586.01
68.3780	586.53
68.3924	570.83
68.4069	603.55
68.4213	585.50
68.4358	583.01
68.4502	583.07
68.4646	555.62
68.4791	569.60
68.4935	542.59
68.5080	565.24
68.5224	575.24
68.5368	584.16
68.5513	603.02
68.5657	579.29
68.5802	595.16
68.5946	552.83
68.6090	548.02
68.6235	525.37
68.6379	566.66
68.6524	549.47
68.6668	552.67
68.6812	545.45
68.6957	615.44
68.7101	593.63
68.7246	559.14
68.7390	550.31
68.7534	611.59
68.7679	572.97
68.7823	590.23
68.7968	604.09
68.8112	588.00
68.8256	563.25
68.8401	602.05
68.8545	599.85
68.8690	578.37
68.8834	579.57
68.8978	591.17
68.9123	606.34
68.9267	577.61
68.9412	617.67
68.9556	599.99
68.9700	526.88
68.9845	571.11
68.9989	569.24
69.0134	589.39
69.0278	558.35
69.0422	593.12
69.0567	579.92
69.0711	577.76
69.0856	612.31
69.1000	515.29
69.1144	561.65
69.1289	573.30
69.1433	523.39
69.1578	555.13
69.1722	564.36
69.1866	572.70
69.2011	572.48
69.2155	620.38
69.2300	543.86
69.2444	589.71
69.2588	561.11
69.2733	559.49
69.2877	582.23
69.3022	569.72
69.3166	568.85
69.3310	589.17
69.3455	580.35
69.3599	592.99
69.3744	540.62
69.3888	559.61
69.4032	543.28
69.4177	566.53
69.4321	616.97
69.4466	574.66
69.4610	551.37
69.4754	550.86
69.4899	569.12
69.5043	587.88
69.5188	556.94
69.5332	581.43
69.5476	588.99
69.5621	536.85
69.5765	582.46
69.5910	568.02
69.6054	568.35
69.6198	575.32
69.6343	533.10
69.6487	559.02
69.6632	568.95
69.6776	551.26
69.6920	616.50
69.7065	560.44
69.7209	576.03
69.7354	595.38
69.7498	570.34
69.7642	594.23
69.7787	571.64
69.7931	549.09
69.8076	550.85
69.8220	613.31
69.8364	579.73
69.8509	580.52
69.8653	615.39
69.8798	580.42
69.8942	601.48
69.9086	557.06
69.9231	633.86
69.9375	621.61
69.9520	607.92
69.9664	553.85
69.9808	528.94
69.9953	629.79
70.0097	603.13
70.0242	566.59
70.0386	583.56
70.0530	591.68
70.0675	576.07
70.0819	578.37
70.0964	557.80
70.1108	612.81
70.1252	577.09
70.1397	574.31
70.1541	596.58
70.1686	566.20
70.1830	560.38
70.1974	582.14
70.2119	567.81
70.2263	555.76
70.2408	577.45
70.2552	634.75
70.2696	564.82
70.2841	584.64
70.2985	582.12
70.3130	562.34
70.3274	579.13
70.3418	557.65
70.3563	579.61
70.3707	618.32
70.3852	619.04
70.3996	572.80
70.4140	535.92
70.4285	584.42
70.4429	593.34
70.4574	563.85
70.4718	612.69
70.4862	613.47
70.5007	581.38
70.5151	610.17
70.5296	589.76
70.5440	553.43
70.5584	530.37
70.5729	555.77
70.5873	580.65
70.6018	631.23
70.6162	584.30
70.6306	611.24
70.6451	586.52
70.6595	603.50
70.6740	635.90
70.6884	546.04
70.7028	581.46
70.7173	606.83
70.7317	554.47
70.7462	590.46
70.7606	587.06
70.7750	540.20
70.7895	542.16
70.8039	589.57
70.8184	562.60
70.8328	596.83
70.8472	614.64
70.8617	584.73
70.8761	580.36
70.8906	590.40
70.9050	632.84
70.9194	596.41
70.9339	621.80
70.9483	635.66
70.9628	620.08
70.9772	569.11
70.9916	549.46
71.0061	557.06
71.0205	621.64
71.0350	619.12
71.0494	582.77
71.0638	590.48
71.0783	581.35
71.0927	554.43
71.1072	561.43
71.1216	553.17
71.1361	583.14
71.1505	624.43
71.1649	587.92
71.1794	553.90
71.1938	546.86
71.2083	536.69
71.2227	547.86
71.2371	566.47
71.2516	580.88
71.2660	628.12
71.2805	622.77
71.2949	553.80
71.3093	575.35
71.3238	648.72
71.3382	612.39
71.3527	545.72
71.3671	512.95
71.3815	541.80
71.3960	565.49
71.4104	559.44
71.4249	580.19
71.4393	586.26
71.4537	581.07
71.4682	611.01
71.4826	586.39
71.4971	574.56
71.5115	567.28
71.5259	611.66
71.5404	557.74
71.5548	575.34
71.5693	613.04
71.5837	614.58
71.5981	583.87
71.6126	568.58
71.6270	578.14
71.6415	585.76
71.6559	560.27
71.6703	599.59
71.6848	579.49
71.6992	556.43
71.7137	544.29
71.7281	477.87
71.7425	515.10
71.7570	529.90
71.7714	573.60
71.7859	604.74
71.8003	594.29
71.8147	568.44
71.8292	603.43
71.8436	596.88
71.8581	580.33
71.8725	603.36
71.8869	536.23
71.9014	559.91
71.9158	634.87
71.9303	620.23
71.9447	563.94
71.9591	587.24
71.9736	565.27
71.9880	592.40
72.0025	570.94
72.0169	556.14
72.0313	617.81
72.0458	606.39
72.0602	584.15
72.0747	573.52
72.0891	553.85
72.1035	560.04
72.1180	564.75
72.1324	527.57
72.1469	580.44
72.1613	664.69
72.1757	630.04
72.1902	634.69
72.2046	641.59
72.2191	622.56
72.2335	698.76
72.2479	637.99
72.2624	590.39
72.2768	637.20
72.2913	624.88
72.3057	585.73
72.3201	645.11
72.3346	612.28
72.3490	549.06
72.3635	523.65
72.3779	550.03
72.3923	565.95
72.4068	607.05
72.4212	642.52
72.4357	587.12
72.4501	560.44
72.4645	592.59
72.4790	593.17
72.4934	557.62
72.5079	564.02
72.5223	584.05
72.5367	547.21
72.5512	565.45
72.5656	610.48
72.5801	598.28
72.5945	596.65
72.6089	578.69
72.6234	611.03
72.6378	631.35
72.6523	609.42
72.6667	606.36
72.6811	603.50
72.6956	588.02
72.7100	566.30
72.7245	513.27
72.7389	613.02
72.7533	637.06
72.7678	557.33
72.7822	638.74
72.7967	647.11
72.8111	658.77
72.8255	753.80
72.8400	687.06
72.8544	540.59
72.8689	564.07
72.8833	593.40