2022.09.19 19:37:16
Îáðàçåö: ß÷åéêà LCoV 16-09-2022
Lambda1 = 1.54060
Lambda2 = 1.54439
Lambdam = 1.54186
R = 0.497
2Theta	I

line¹ 0 ;repeat¹ 0
22.1120	531.62
22.1264	588.12
22.1409	566.41
22.1553	493.05
22.1697	511.77
22.1842	561.32
22.1986	526.40
22.2131	551.70
22.2275	595.03
22.2419	571.24
22.2564	539.84
22.2708	610.83
22.2853	692.34
22.2997	591.55
22.3141	591.67
22.3286	688.97
22.3430	660.10
22.3575	547.88
22.3719	549.01
22.3863	539.05
22.4008	585.53
22.4152	724.62
22.4297	707.74
22.4441	650.62
22.4585	601.18
22.4730	564.71
22.4874	589.34
22.5019	529.81
22.5163	584.97
22.5307	604.45
22.5452	505.24
22.5596	542.44
22.5741	580.30
22.5885	638.99
22.6029	645.60
22.6174	578.41
22.6318	594.79
22.6463	584.41
22.6607	611.81
22.6751	573.84
22.6896	577.61
22.7040	561.06
22.7185	597.03
22.7329	617.92
22.7473	578.99
22.7618	537.63
22.7762	545.33
22.7907	568.78
22.8051	528.24
22.8195	584.69
22.8340	543.97
22.8484	599.03
22.8629	509.21
22.8773	557.64
22.8917	497.55
22.9062	590.91
22.9206	622.59
22.9351	565.09
22.9495	556.18
22.9639	609.76
22.9784	552.49
22.9928	499.97
23.0073	549.29
23.0217	521.04
23.0361	482.32
23.0506	553.47
23.0650	546.81
23.0795	529.68
23.0939	589.33
23.1083	576.58
23.1228	555.35
23.1372	551.79
23.1517	522.33
23.1661	564.04
23.1806	598.59
23.1950	559.54
23.2094	504.78
23.2239	617.61
23.2383	531.35
23.2528	489.38
23.2672	508.93
23.2816	566.47
23.2961	477.47
23.3105	552.67
23.3250	585.70
23.3394	528.99
23.3538	532.37
23.3683	564.48
23.3827	533.51
23.3972	460.79
23.4116	586.46
23.4260	568.13
23.4405	510.54
23.4549	551.99
23.4694	606.93
23.4838	510.58
23.4982	544.19
23.5127	532.27
23.5271	531.91
23.5416	618.79
23.5560	635.06
23.5704	580.87
23.5849	554.00
23.5993	649.62
23.6138	483.17
23.6282	516.01
23.6426	484.62
23.6571	551.07
23.6715	498.41
23.6860	518.96
23.7004	628.29
23.7148	571.68
23.7293	520.94
23.7437	567.33
23.7582	558.92
23.7726	574.97
23.7870	553.93
23.8015	535.25
23.8159	511.48
23.8304	596.26
23.8448	608.54
23.8592	588.10
23.8737	592.84
23.8881	431.81
23.9026	599.34
23.9170	592.65
23.9314	490.60
23.9459	558.87
23.9603	587.99
23.9748	567.15
23.9892	573.82
24.0036	439.63
24.0181	557.19
24.0325	594.29
24.0470	606.29
24.0614	645.00
24.0758	524.80
24.0903	595.84
24.1047	627.23
24.1192	568.84
24.1336	588.11
24.1480	513.54
24.1625	580.72
24.1769	568.91
24.1914	598.29
24.2058	503.13
24.2202	568.10
24.2347	562.27
24.2491	560.15
24.2636	583.35
24.2780	615.69
24.2924	597.35
24.3069	618.45
24.3213	608.23
24.3358	584.55
24.3502	575.30
24.3646	491.20
24.3791	560.67
24.3935	554.14
24.4080	581.00
24.4224	556.77
24.4368	570.92
24.4513	519.54
24.4657	578.44
24.4802	607.87
24.4946	533.09
24.5090	570.63
24.5235	529.35
24.5379	540.12
24.5524	563.16
24.5668	592.37
24.5812	613.33
24.5957	606.59
24.6101	559.73
24.6246	585.00
24.6390	608.22
24.6534	558.23
24.6679	535.87
24.6823	515.71
24.6968	572.24
24.7112	516.28
24.7256	556.77
24.7401	577.63
24.7545	463.50
24.7690	560.01
24.7834	551.16
24.7978	533.13
24.8123	536.98
24.8267	527.81
24.8412	567.93
24.8556	552.76
24.8700	579.26
24.8845	535.38
24.8989	560.76
24.9134	510.87
24.9278	539.23
24.9422	522.75
24.9567	524.12
24.9711	565.89
24.9856	584.01
25.0000	538.58
25.0144	564.53
25.0289	567.23
25.0433	586.96
25.0578	530.19
25.0722	540.75
25.0866	525.06
25.1011	552.36
25.1155	549.77
25.1300	568.36
25.1444	536.75
25.1588	559.39
25.1733	558.67
25.1877	536.60
25.2022	524.02
25.2166	581.32
25.2310	556.25
25.2455	566.95
25.2599	578.90
25.2744	557.68
25.2888	568.44
25.3032	524.92
25.3177	501.85
25.3321	514.13
25.3466	539.07
25.3610	573.69
25.3754	573.43
25.3899	533.32
25.4043	552.15
25.4188	555.53
25.4332	504.67
25.4476	520.38
25.4621	527.34
25.4765	517.73
25.4910	558.57
25.5054	537.78
25.5198	534.18
25.5343	497.24
25.5487	518.61
25.5632	534.79
25.5776	555.70
25.5920	579.64
25.6065	552.18
25.6209	498.39
25.6354	526.90
25.6498	537.78
25.6642	557.14
25.6787	574.19
25.6931	554.36
25.7076	568.17
25.7220	553.29
25.7364	516.26
25.7509	512.59
25.7653	574.03
25.7798	530.51
25.7942	552.39
25.8086	512.52
25.8231	543.38
25.8375	533.43
25.8520	552.71
25.8664	517.23
25.8808	537.71
25.8953	556.82
25.9097	513.26
25.9242	513.68
25.9386	514.28
25.9530	510.39
25.9675	498.16
25.9819	536.93
25.9964	506.29
26.0108	511.75
26.0252	548.10
26.0397	585.58
26.0541	542.34
26.0686	549.45
26.0830	544.61
26.0974	544.05
26.1119	543.99
26.1263	559.18
26.1408	509.59
26.1552	524.22
26.1696	515.96
26.1841	552.14
26.1985	556.62
26.2130	553.32
26.2274	563.16
26.2418	559.39
26.2563	523.88
26.2707	545.39
26.2852	574.52
26.2996	543.56
26.3140	536.52
26.3285	505.61
26.3429	545.59
26.3574	531.76
26.3718	525.89
26.3862	539.48
26.4007	535.15
26.4151	549.98
26.4296	568.30
26.4440	537.45
26.4584	560.89
26.4729	553.92
26.4873	538.24
26.5018	549.49
26.5162	519.64
26.5306	551.89
26.5451	539.03
26.5595	508.67
26.5740	550.50
26.5884	553.79
26.6028	528.09
26.6173	517.37
26.6317	530.41
26.6462	542.17
26.6606	526.10
26.6750	566.17
26.6895	553.30
26.7039	558.66
26.7184	533.66
26.7328	517.63
26.7472	522.23
26.7617	498.76
26.7761	505.11
26.7906	504.22
26.8050	536.13
26.8194	526.14
26.8339	530.46
26.8483	526.36
26.8628	533.15
26.8772	504.15
26.8917	508.69
26.9061	513.37
26.9205	514.83
26.9350	526.73
26.9494	517.74
26.9639	527.21
26.9783	521.73
26.9927	490.16
27.0072	501.73
27.0216	520.29
27.0361	533.87
27.0505	528.95
27.0649	504.10
27.0794	520.66
27.0938	532.28
27.1083	549.01
27.1227	539.42
27.1371	522.21
27.1516	484.45
27.1660	533.76
27.1805	523.46
27.1949	509.67
27.2093	521.90
27.2238	488.59
27.2382	515.68
27.2527	532.49
27.2671	500.19
27.2815	527.96
27.2960	575.06
27.3104	529.09
27.3249	518.64
27.3393	519.70
27.3537	517.80
27.3682	539.32
27.3826	518.02
27.3971	501.70
27.4115	502.18
27.4259	547.99
27.4404	486.19
27.4548	490.14
27.4693	505.98
27.4837	526.44
27.4981	509.18
27.5126	536.24
27.5270	526.68
27.5415	507.49
27.5559	517.33
27.5703	516.97
27.5848	524.08
27.5992	513.60
27.6137	520.76
27.6281	527.01
27.6425	501.91
27.6570	482.27
27.6714	513.70
27.6859	543.14
27.7003	555.07
27.7147	522.90
27.7292	501.43
27.7436	547.02
27.7581	551.42
27.7725	526.44
27.7869	547.60
27.8014	521.62
27.8158	526.34
27.8303	492.45
27.8447	507.78
27.8591	540.12
27.8736	543.28
27.8880	506.69
27.9025	525.86
27.9169	530.13
27.9313	492.78
27.9458	512.72
27.9602	502.04
27.9747	519.07
27.9891	490.76
28.0035	493.02
28.0180	544.68
28.0324	462.32
28.0469	526.22
28.0613	544.72
28.0757	536.09
28.0902	542.31
28.1046	513.10
28.1191	507.27
28.1335	517.84
28.1479	511.95
28.1624	512.06
28.1768	525.56
28.1913	536.97
28.2057	543.00
28.2201	524.83
28.2346	530.78
28.2490	553.62
28.2635	508.31
28.2779	520.98
28.2923	498.63
28.3068	496.98
28.3212	557.99
28.3357	565.69
28.3501	511.86
28.3645	542.56
28.3790	520.01
28.3934	503.27
28.4079	513.07
28.4223	517.21
28.4367	536.74
28.4512	508.58
28.4656	510.45
28.4801	514.23
28.4945	510.02
28.5089	531.01
28.5234	523.88
28.5378	511.98
28.5523	543.07
28.5667	543.42
28.5811	547.71
28.5956	512.72
28.6100	513.08
28.6245	539.57
28.6389	537.98
28.6533	532.78
28.6678	500.10
28.6822	528.20
28.6967	538.34
28.7111	549.75
28.7255	509.17
28.7400	519.79
28.7544	513.47
28.7689	478.38
28.7833	522.67
28.7977	522.02
28.8122	495.02
28.8266	518.90
28.8411	508.97
28.8555	527.17
28.8699	514.49
28.8844	505.90
28.8988	529.20
28.9133	492.29
28.9277	510.53
28.9421	518.31
28.9566	507.76
28.9710	482.37
28.9855	495.87
28.9999	471.11
29.0143	527.61
29.0288	509.55
29.0432	481.19
29.0577	520.74
29.0721	548.79
29.0865	529.31
29.1010	509.07
29.1154	508.85
29.1299	521.19
29.1443	476.01
29.1587	495.67
29.1732	498.00
29.1876	500.31
29.2021	489.53
29.2165	492.23
29.2309	474.10
29.2454	506.42
29.2598	508.05
29.2743	480.50
29.2887	499.15
29.3031	520.74
29.3176	499.77
29.3320	566.45
29.3465	535.06
29.3609	482.36
29.3753	469.37
29.3898	496.90
29.4042	483.87
29.4187	510.47
29.4331	496.79
29.4475	518.30
29.4620	541.15
29.4764	536.48
29.4909	496.40
29.5053	488.38
29.5197	545.72
29.5342	496.76
29.5486	481.87
29.5631	487.36
29.5775	487.71
29.5919	498.19
29.6064	500.53
29.6208	466.40
29.6353	521.71
29.6497	517.21
29.6641	501.01
29.6786	483.33
29.6930	492.89
29.7075	537.31
29.7219	484.20
29.7363	475.42
29.7508	495.89
29.7652	483.34
29.7797	486.42
29.7941	493.62
29.8085	513.39
29.8230	518.99
29.8374	503.18
29.8519	505.54
29.8663	520.14
29.8807	514.85
29.8952	508.50
29.9096	523.05
29.9241	487.36
29.9385	478.00
29.9529	510.11
29.9674	497.82
29.9818	544.84
29.9963	509.50
30.0107	516.83
30.0251	568.78
30.0396	513.45
30.0540	505.71
30.0685	529.07
30.0829	513.32
30.0973	512.00
30.1118	485.34
30.1262	504.08
30.1407	538.62
30.1551	499.63
30.1695	537.14
30.1840	545.89
30.1984	497.27
30.2129	497.49
30.2273	510.10
30.2417	521.80
30.2562	493.79
30.2706	516.57
30.2851	526.31
30.2995	522.11
30.3139	500.43
30.3284	486.00
30.3428	501.77
30.3573	480.66
30.3717	485.33
30.3861	494.18
30.4006	485.73
30.4150	495.79
30.4295	537.35
30.4439	495.96
30.4583	471.06
30.4728	514.03
30.4872	508.34
30.5017	499.52
30.5161	508.33
30.5305	513.15
30.5450	526.45
30.5594	553.43
30.5739	539.54
30.5883	516.40
30.6028	548.47
30.6172	547.26
30.6316	531.47
30.6461	598.63
30.6605	572.91
30.6750	627.04
30.6894	658.70
30.7038	678.58
30.7183	712.55
30.7327	674.33
30.7472	675.19
30.7616	682.00
30.7760	699.78
30.7905	753.61
30.8049	681.96
30.8194	632.88
30.8338	653.40
30.8482	641.59
30.8627	620.51
30.8771	617.96
30.8916	589.53
30.9060	600.47
30.9204	521.63
30.9349	584.93
30.9493	588.22
30.9638	527.87
30.9782	502.69
30.9926	544.40
31.0071	542.62
31.0215	525.25
31.0360	546.79
31.0504	523.94
31.0648	552.93
31.0793	541.54
31.0937	520.70
31.1082	522.70
31.1226	528.50
31.1370	532.37
31.1515	516.31
31.1659	533.78
31.1804	547.69
31.1948	516.21
31.2092	505.20
31.2237	501.90
31.2381	501.50
31.2526	553.83
31.2670	548.81
31.2814	529.45
31.2959	510.11
31.3103	520.14
31.3248	518.21
31.3392	539.04
31.3536	530.58
31.3681	506.75
31.3825	539.21
31.3970	484.89
31.4114	470.89
31.4258	516.58
31.4403	511.02
31.4547	506.63
31.4692	506.06
31.4836	526.65
31.4980	528.43
31.5125	537.64
31.5269	486.93
31.5414	491.76
31.5558	506.92
31.5702	502.17
31.5847	508.11
31.5991	521.50
31.6136	548.60
31.6280	523.18
31.6424	497.56
31.6569	477.03
31.6713	506.77
31.6858	504.28
31.7002	467.00
31.7146	493.84
31.7291	524.88
31.7435	526.35
31.7580	539.88
31.7724	488.37
31.7868	492.63
31.8013	509.22
31.8157	526.50
31.8302	506.64
31.8446	516.49
31.8590	516.48
31.8735	489.18
31.8879	480.76
31.9024	528.32
31.9168	552.64
31.9312	476.63
31.9457	480.65
31.9601	468.23
31.9746	491.58
31.9890	507.98
32.0034	500.87
32.0179	487.96
32.0323	516.27
32.0468	537.62
32.0612	531.51
32.0756	481.40
32.0901	540.93
32.1045	488.99
32.1190	508.93
32.1334	530.28
32.1478	486.36
32.1623	498.61
32.1767	499.64
32.1912	494.93
32.2056	504.22
32.2200	494.45
32.2345	473.69
32.2489	497.42
32.2634	500.89
32.2778	488.07
32.2922	493.69
32.3067	500.57
32.3211	475.06
32.3356	516.02
32.3500	503.02
32.3644	514.06
32.3789	514.20
32.3933	492.75
32.4078	484.76
32.4222	515.30
32.4366	509.39
32.4511	504.34
32.4655	499.79
32.4800	513.62
32.4944	485.03
32.5088	512.10
32.5233	503.88
32.5377	475.32
32.5522	503.13
32.5666	510.97
32.5810	507.24
32.5955	531.35
32.6099	510.39
32.6244	503.21
32.6388	518.88
32.6532	489.74
32.6677	485.00
32.6821	492.92
32.6966	528.60
32.7110	497.04
32.7254	512.73
32.7399	489.52
32.7543	505.14
32.7688	498.51
32.7832	523.19
32.7976	516.13
32.8121	510.47
32.8265	507.81
32.8410	536.68
32.8554	484.01
32.8698	493.49
32.8843	508.71
32.8987	510.68
32.9132	500.91
32.9276	516.28
32.9420	494.20
32.9565	478.46
32.9709	518.82
32.9854	506.27
32.9998	485.54
33.0142	495.58
33.0287	494.90
33.0431	471.03
33.0576	504.83
33.0720	500.91
33.0864	519.30
33.1009	508.82
33.1153	520.98
33.1298	521.90
33.1442	502.53
33.1586	513.22
33.1731	514.08
33.1875	529.66
33.2020	487.16
33.2164	522.45
33.2308	499.75
33.2453	488.17
33.2597	496.39
33.2742	521.75
33.2886	518.29
33.3030	489.11
33.3175	526.44
33.3319	500.40
33.3464	532.55
33.3608	513.87
33.3752	499.96
33.3897	530.85
33.4041	477.21
33.4186	490.16
33.4330	525.02
33.4474	497.37
33.4619	499.25
33.4763	507.98
33.4908	519.05
33.5052	521.82
33.5196	504.24
33.5341	541.94
33.5485	495.01
33.5630	513.69
33.5774	502.35
33.5918	503.97
33.6063	540.30
33.6207	501.91
33.6352	516.05
33.6496	516.65
33.6640	487.96
33.6785	515.87
33.6929	525.28
33.7074	529.36
33.7218	492.19
33.7362	508.06
33.7507	548.90
33.7651	524.18
33.7796	527.85
33.7940	499.82
33.8084	531.00
33.8229	505.84
33.8373	518.99
33.8518	521.51
33.8662	539.97
33.8806	508.44
33.8951	509.54
33.9095	515.13
33.9240	490.56
33.9384	483.86
33.9528	523.56
33.9673	475.47
33.9817	454.53
33.9962	485.99
34.0106	499.56
34.0250	511.10
34.0395	509.54
34.0539	515.57
34.0684	502.49
34.0828	523.53
34.0972	531.48
34.1117	522.66
34.1261	515.04
34.1406	487.92
34.1550	490.03
34.1694	494.05
34.1839	513.19
34.1983	494.17
34.2128	524.82
34.2272	530.66
34.2417	552.18
34.2561	538.37
34.2705	558.93
34.2850	509.01
34.2994	503.05
34.3139	511.81
34.3283	484.78
34.3427	490.43
34.3572	497.19
34.3716	477.78
34.3861	479.13
34.4005	513.38
34.4149	518.76
34.4294	527.56
34.4438	515.13
34.4583	528.02
34.4727	522.19
34.4871	502.46
34.5016	494.87
34.5160	461.06
34.5305	493.72
34.5449	466.09
34.5593	502.24
34.5738	520.74
34.5882	511.27
34.6027	524.42
34.6171	502.20
34.6315	529.20
34.6460	525.10
34.6604	517.53
34.6749	521.61
34.6893	537.44
34.7037	482.34
34.7182	477.95
34.7326	497.74
34.7471	519.06
34.7615	470.99
34.7759	474.48
34.7904	465.25
34.8048	472.04
34.8193	481.81
34.8337	489.69
34.8481	520.38
34.8626	512.19
34.8770	481.49
34.8915	512.66
34.9059	552.69
34.9203	497.14
34.9348	499.94
34.9492	509.64
34.9637	508.49
34.9781	512.97
34.9925	487.43
35.0070	509.86
35.0214	528.69
35.0359	534.33
35.0503	524.86
35.0647	489.86
35.0792	475.96
35.0936	491.30
35.1081	487.60
35.1225	535.64
35.1369	532.19
35.1514	519.50
35.1658	518.33
35.1803	506.46
35.1947	493.63
35.2091	492.31
35.2236	524.58
35.2380	516.90
35.2525	519.06
35.2669	526.07
35.2813	525.56
35.2958	500.49
35.3102	539.56
35.3247	507.33
35.3391	506.35
35.3535	506.86
35.3680	497.93
35.3824	541.32
35.3969	521.13
35.4113	499.34
35.4257	537.97
35.4402	513.20
35.4546	504.22
35.4691	523.38
35.4835	525.90
35.4979	500.83
35.5124	505.78
35.5268	505.68
35.5413	554.11
35.5557	552.01
35.5701	563.16
35.5846	524.54
35.5990	531.39
35.6135	503.15
35.6279	492.53
35.6423	515.35
35.6568	538.07
35.6712	570.51
35.6857	570.27
35.7001	621.16
35.7145	713.57
35.7290	702.11
35.7434	617.43
35.7579	563.16
35.7723	555.09
35.7867	625.59
35.8012	628.90
35.8156	664.94
35.8301	587.91
35.8445	595.22
35.8589	610.27
35.8734	721.13
35.8878	872.06
35.9023	1003.99
35.9167	1062.63
35.9311	1386.48
35.9456	2029.07
35.9600	2348.45
35.9745	1884.04
35.9889	1912.61
36.0033	2221.47
36.0178	2399.64
36.0322	2069.89
36.0467	1875.78
36.0611	1692.82
36.0755	1634.10
36.0900	1747.10
36.1044	1654.38
36.1189	1617.70
36.1333	1420.68
36.1477	1256.91
36.1622	1389.05
36.1766	1356.98
36.1911	1237.80
36.2055	1158.31
36.2199	1108.04
36.2344	1075.20
36.2488	1005.28
36.2633	1028.73
36.2777	993.57
36.2921	918.03
36.3066	869.46
36.3210	836.22
36.3355	796.06
36.3499	734.89
36.3643	699.41
36.3788	638.70
36.3932	628.81
36.4077	603.54
36.4221	614.74
36.4365	605.56
36.4510	582.47
36.4654	567.05
36.4799	600.81
36.4943	539.02
36.5087	552.61
36.5232	549.39
36.5376	587.95
36.5521	521.69
36.5665	514.23
36.5809	540.67
36.5954	552.98
36.6098	531.35
36.6243	544.19
36.6387	544.07
36.6531	539.43
36.6676	529.52
36.6820	527.10
36.6965	543.67
36.7109	526.67
36.7253	524.63
36.7398	520.04
36.7542	530.75
36.7687	538.86
36.7831	534.46
36.7975	586.73
36.8120	564.51
36.8264	582.71
36.8409	594.08
36.8553	602.09
36.8697	594.09
36.8842	583.00
36.8986	633.73
36.9131	560.39
36.9275	580.75
36.9419	612.16
36.9564	566.72
36.9708	541.28
36.9853	535.82
36.9997	561.95
37.0141	503.36
37.0286	557.70
37.0430	553.64
37.0575	563.02
37.0719	535.96
37.0863	526.85
37.1008	529.76
37.1152	522.06
37.1297	504.76
37.1441	500.51
37.1585	501.63
37.1730	502.09
37.1874	477.65
37.2019	477.59
37.2163	500.87
37.2307	500.51
37.2452	502.72
37.2596	508.77
37.2741	517.66
37.2885	494.23
37.3029	506.23
37.3174	492.98
37.3318	463.80
37.3463	502.38
37.3607	543.97
37.3751	504.48
37.3896	489.97
37.4040	464.54
37.4185	527.77
37.4329	509.47
37.4473	504.37
37.4618	518.48
37.4762	494.26
37.4907	462.06
37.5051	490.56
37.5195	481.44
37.5340	463.84
37.5484	501.16
37.5629	486.45
37.5773	510.69
37.5917	515.75
37.6062	508.29
37.6206	532.82
37.6351	508.49
37.6495	528.48
37.6639	530.78
37.6784	515.99
37.6928	508.72
37.7073	493.85
37.7217	491.02
37.7361	509.76
37.7506	493.35
37.7650	482.42
37.7795	505.66
37.7939	504.76
37.8083	501.02
37.8228	549.59
37.8372	513.03
37.8517	526.31
37.8661	502.59
37.8805	488.47
37.8950	530.95
37.9094	519.00
37.9239	532.97
37.9383	522.70
37.9528	490.57
37.9672	487.92
37.9816	510.02
37.9961	496.91
38.0105	446.69
38.0250	489.60
38.0394	473.98
38.0538	502.96
38.0683	508.62
38.0827	553.49
38.0972	505.71
38.1116	486.54
38.1260	526.85
38.1405	514.61
38.1549	503.68
38.1694	492.12
38.1838	498.31
38.1982	517.06
38.2127	521.92
38.2271	510.25
38.2416	487.19
38.2560	509.48
38.2704	497.74
38.2849	528.16
38.2993	505.76
38.3138	537.03
38.3282	485.20
38.3426	474.46
38.3571	494.37
38.3715	516.68
38.3860	533.52
38.4004	530.31
38.4148	539.98
38.4293	555.19
38.4437	580.82
38.4582	606.40
38.4726	661.05
38.4870	693.33
38.5015	718.28
38.5159	795.75
38.5304	819.79
38.5448	778.49
38.5592	789.53
38.5737	764.11
38.5881	723.56
38.6026	725.77
38.6170	694.46
38.6314	726.98
38.6459	626.76
38.6603	643.62
38.6748	603.79
38.6892	589.21
38.7036	556.89
38.7181	557.82
38.7325	531.40
38.7470	539.32
38.7614	544.10
38.7758	511.58
38.7903	502.71
38.8047	515.18
38.8192	513.92
38.8336	517.44
38.8480	497.80
38.8625	499.57
38.8769	508.75
38.8914	495.37
38.9058	520.59
38.9202	478.62
38.9347	488.04
38.9491	523.01
38.9636	501.71
38.9780	496.98
38.9924	516.62
39.0069	527.62
39.0213	547.28
39.0358	529.04
39.0502	485.76
39.0646	524.90
39.0791	491.00
39.0935	497.53
39.1080	505.79
39.1224	531.31
39.1368	542.46
39.1513	492.97
39.1657	476.18
39.1802	500.15
39.1946	488.34
39.2090	490.93
39.2235	495.47
39.2379	518.86
39.2524	504.96
39.2668	491.24
39.2812	509.61
39.2957	500.43
39.3101	513.79
39.3246	505.48
39.3390	517.86
39.3534	490.21
39.3679	484.04
39.3823	517.10
39.3968	530.90
39.4112	513.79
39.4256	509.02
39.4401	509.17
39.4545	479.00
39.4690	522.42
39.4834	475.40
39.4978	504.71
39.5123	496.17
39.5267	494.09
39.5412	514.10
39.5556	516.58
39.5700	520.04
39.5845	502.41
39.5989	470.51
39.6134	488.80
39.6278	505.80
39.6422	501.22
39.6567	508.14
39.6711	475.79
39.6856	493.96
39.7000	521.46
39.7144	513.19
39.7289	504.57
39.7433	497.47
39.7578	471.00
39.7722	501.71
39.7866	536.04
39.8011	514.45
39.8155	481.18
39.8300	480.40
39.8444	460.73
39.8588	499.19
39.8733	507.20
39.8877	480.67
39.9022	540.69
39.9166	557.81
39.9310	482.07
39.9455	503.29
39.9599	516.80
39.9744	497.75
39.9888	427.87
40.0032	474.56
40.0177	514.40
40.0321	504.48
40.0466	486.83
40.0610	489.28
40.0754	475.58
40.0899	484.78
40.1043	447.06
40.1188	509.72
40.1332	523.47
40.1476	495.12
40.1621	480.73
40.1765	522.95
40.1910	477.95
40.2054	483.84
40.2198	494.34
40.2343	524.63
40.2487	512.71
40.2632	523.91
40.2776	460.77
40.2920	461.22
40.3065	483.07
40.3209	479.87
40.3354	495.04
40.3498	474.87
40.3642	490.26
40.3787	481.86
40.3931	455.33
40.4076	497.38
40.4220	510.50
40.4364	520.58
40.4509	511.22
40.4653	531.24
40.4798	527.23
40.4942	501.77
40.5086	492.87
40.5231	518.77
40.5375	499.35
40.5520	481.25
40.5664	476.04
40.5808	497.47
40.5953	516.55
40.6097	479.12
40.6242	494.24
40.6386	513.75
40.6530	503.76
40.6675	476.72
40.6819	485.95
40.6964	495.47
40.7108	484.27
40.7252	514.72
40.7397	514.91
40.7541	491.89
40.7686	516.74
40.7830	502.70
40.7974	485.36
40.8119	467.57
40.8263	466.43
40.8408	498.17
40.8552	526.14
40.8696	488.97
40.8841	504.30
40.8985	477.37
40.9130	480.05
40.9274	488.24
40.9418	486.96
40.9563	514.13
40.9707	464.55
40.9852	508.25
40.9996	495.93
41.0140	510.02
41.0285	516.45
41.0429	525.35
41.0574	522.85
41.0718	499.52
41.0862	487.60
41.1007	489.58
41.1151	503.25
41.1296	515.61
41.1440	482.46
41.1584	475.25
41.1729	489.45
41.1873	492.55
41.2018	493.35
41.2162	484.62
41.2306	500.86
41.2451	494.71
41.2595	490.41
41.2740	489.91
41.2884	481.93
41.3028	523.31
41.3173	497.25
41.3317	509.54
41.3462	492.75
41.3606	482.99
41.3750	461.49
41.3895	497.44
41.4039	488.33
41.4184	508.79
41.4328	472.82
41.4472	487.94
41.4617	502.51
41.4761	516.67
41.4906	484.77
41.5050	483.07
41.5194	484.89
41.5339	517.71
41.5483	508.54
41.5628	537.57
41.5772	518.23
41.5916	489.28
41.6061	512.00
41.6205	521.30
41.6350	483.81
41.6494	507.69
41.6639	515.02
41.6783	506.15
41.6927	528.12
41.7072	509.55
41.7216	490.60
41.7361	468.68
41.7505	473.94
41.7649	538.84
41.7794	519.23
41.7938	473.12
41.8083	502.10
41.8227	510.38
41.8371	479.28
41.8516	515.30
41.8660	520.13
41.8805	524.98
41.8949	519.58
41.9093	538.58
41.9238	542.57
41.9382	570.86
41.9527	533.66
41.9671	531.92
41.9815	538.76
41.9960	532.38
42.0104	586.04
42.0249	544.90
42.0393	549.26
42.0537	563.15
42.0682	599.91
42.0826	564.73
42.0971	587.12
42.1115	587.75
42.1259	549.03
42.1404	557.34
42.1548	595.16
42.1693	635.04
42.1837	689.43
42.1981	741.26
42.2126	824.07
42.2270	882.94
42.2415	1038.05
42.2559	1166.10
42.2703	1291.42
42.2848	1448.56
42.2992	1550.88
42.3137	1627.67
42.3281	1634.37
42.3425	1527.24
42.3570	1448.27
42.3714	1392.06
42.3859	1290.06
42.4003	1258.61
42.4147	1281.91
42.4292	1218.87
42.4436	1091.91
42.4581	1010.41
42.4725	974.09
42.4869	806.23
42.5014	718.99
42.5158	701.47
42.5303	660.26
42.5447	629.09
42.5591	632.52
42.5736	608.24
42.5880	573.06
42.6025	565.97
42.6169	554.46
42.6313	524.36
42.6458	535.56
42.6602	538.33
42.6747	521.97
42.6891	530.94
42.7035	536.00
42.7180	535.23
42.7324	523.28
42.7469	531.95
42.7613	529.12
42.7757	529.57
42.7902	509.87
42.8046	510.80
42.8191	522.18
42.8335	532.48
42.8479	513.13
42.8624	500.86
42.8768	503.74
42.8913	519.86
42.9057	530.19
42.9201	529.68
42.9346	533.05
42.9490	505.56
42.9635	488.24
42.9779	498.22
42.9923	507.87
43.0068	490.86
43.0212	524.73
43.0357	509.29
43.0501	495.80
43.0645	525.63
43.0790	511.62
43.0934	510.39
43.1079	485.34
43.1223	532.35
43.1367	537.87
43.1512	527.79
43.1656	544.90
43.1801	520.83
43.1945	471.85
43.2089	513.83
43.2234	503.71
43.2378	490.40
43.2523	498.65
43.2667	504.53
43.2811	544.02
43.2956	522.86
43.3100	548.36
43.3245	564.14
43.3389	532.68
43.3533	508.82
43.3678	509.81
43.3822	531.29
43.3967	547.40
43.4111	500.22
43.4255	518.25
43.4400	509.37
43.4544	504.83
43.4689	514.33
43.4833	547.70
43.4977	529.30
43.5122	525.57
43.5266	501.33
43.5411	511.59
43.5555	525.15
43.5699	512.30
43.5844	514.05
43.5988	511.32
43.6133	528.09
43.6277	514.97
43.6421	528.40
43.6566	552.11
43.6710	524.23
43.6855	509.19
43.6999	532.01
43.7143	522.34
43.7288	520.55
43.7432	515.05
43.7577	538.62
43.7721	520.93
43.7865	508.23
43.8010	526.13
43.8154	513.10
43.8299	510.82
43.8443	525.99
43.8587	568.54
43.8732	589.22
43.8876	523.48
43.9021	539.57
43.9165	518.82
43.9309	593.23
43.9454	579.66
43.9598	587.71
43.9743	641.56
43.9887	611.58
44.0031	647.24
44.0176	635.13
44.0320	647.24
44.0465	658.07
44.0609	623.88
44.0753	596.21
44.0898	615.46
44.1042	615.71
44.1187	610.07
44.1331	616.33
44.1475	603.96
44.1620	584.75
44.1764	562.70
44.1909	556.36
44.2053	515.74
44.2197	547.99
44.2342	544.97
44.2486	533.79
44.2631	513.58
44.2775	540.22
44.2919	537.78
44.3064	621.72
44.3208	569.79
44.3353	510.42
44.3497	502.09
44.3641	530.78
44.3786	550.62
44.3930	559.07
44.4075	505.99
44.4219	554.73
44.4363	563.99
44.4508	564.34
44.4652	632.58
44.4797	581.69
44.4941	584.61
44.5085	599.41
44.5230	563.36
44.5374	586.24
44.5519	560.22
44.5663	574.32
44.5807	524.05
44.5952	571.13
44.6096	585.15
44.6241	564.40
44.6385	598.85
44.6529	576.95
44.6674	581.95
44.6818	590.77
44.6963	640.10
44.7107	670.81
44.7251	700.49
44.7396	775.36
44.7540	813.96
44.7685	789.20
44.7829	888.19
44.7973	858.15
44.8118	872.30
44.8262	842.68
44.8407	770.35
44.8551	784.40
44.8695	744.70
44.8840	735.15
44.8984	749.96
44.9129	705.38
44.9273	701.96
44.9417	657.78
44.9562	565.72
44.9706	552.64
44.9851	531.66
44.9995	531.46
45.0139	524.41
45.0284	545.04
45.0428	552.01
45.0573	549.24
45.0717	517.53
45.0861	519.33
45.1006	535.85
45.1150	515.21
45.1295	513.60
45.1439	519.75
45.1583	500.31
45.1728	517.76
45.1872	477.67
45.2017	477.40
45.2161	501.31
45.2305	497.15
45.2450	522.46
45.2594	537.97
45.2739	509.19
45.2883	523.52
45.3028	490.77
45.3172	512.05
45.3316	497.78
45.3461	506.08
45.3605	513.14
45.3750	499.15
45.3894	525.60
45.4038	498.35
45.4183	459.58
45.4327	535.77
45.4472	486.57
45.4616	512.98
45.4760	517.44
45.4905	502.99
45.5049	494.25
45.5194	517.10
45.5338	519.96
45.5482	506.42
45.5627	503.98
45.5771	474.75
45.5916	507.44
45.6060	496.69
45.6204	512.52
45.6349	548.23
45.6493	488.15
45.6638	516.12
45.6782	523.64
45.6926	504.85
45.7071	528.97
45.7215	526.79
45.7360	503.53
45.7504	501.69
45.7648	483.99
45.7793	515.04
45.7937	519.86
45.8082	536.82
45.8226	499.38
45.8370	546.79
45.8515	509.20
45.8659	507.20
45.8804	521.56
45.8948	493.99
45.9092	516.17
45.9237	551.77
45.9381	503.51
45.9526	492.68
45.9670	501.75
45.9814	517.87
45.9959	478.90
46.0103	471.13
46.0248	500.54
46.0392	468.73
46.0536	458.15
46.0681	501.28
46.0825	530.29
46.0970	533.03
46.1114	521.93
46.1258	511.58
46.1403	498.37
46.1547	486.64
46.1692	515.35
46.1836	495.89
46.1980	478.28
46.2125	493.71
46.2269	479.29
46.2414	470.31
46.2558	491.31
46.2702	506.37
46.2847	497.25
46.2991	499.40
46.3136	500.20
46.3280	508.57
46.3424	500.40
46.3569	494.86
46.3713	485.31
46.3858	498.54
46.4002	494.91
46.4146	481.83
46.4291	530.26
46.4435	491.40
46.4580	507.03
46.4724	503.89
46.4868	493.36
46.5013	510.01
46.5157	511.88
46.5302	509.22
46.5446	481.76
46.5590	513.79
46.5735	498.28
46.5879	510.65
46.6024	497.99
46.6168	505.99
46.6312	486.27
46.6457	499.58
46.6601	515.30
46.6746	515.29
46.6890	482.51
46.7034	501.99
46.7179	498.30
46.7323	500.80
46.7468	505.35
46.7612	525.48
46.7756	514.38
46.7901	505.77
46.8045	504.45
46.8190	492.96
46.8334	486.81
46.8478	549.57
46.8623	541.95
46.8767	533.94
46.8912	538.21
46.9056	523.13
46.9200	482.38
46.9345	531.53
46.9489	529.93
46.9634	494.06
46.9778	494.54
46.9922	509.16
47.0067	497.74
47.0211	511.83
47.0356	532.53
47.0500	511.24
47.0644	516.50
47.0789	537.50
47.0933	534.13
47.1078	501.87
47.1222	518.57
47.1366	499.51
47.1511	501.63
47.1655	538.72
47.1800	542.49
47.1944	498.83
47.2088	507.96
47.2233	504.61
47.2377	504.86
47.2522	506.39
47.2666	531.52
47.2810	524.60
47.2955	486.55
47.3099	518.67
47.3244	517.86
47.3388	522.03
47.3532	518.15
47.3677	523.29
47.3821	471.72
47.3966	473.45
47.4110	480.09
47.4254	511.02
47.4399	497.44
47.4543	511.00
47.4688	490.13
47.4832	473.88
47.4976	477.45
47.5121	495.44
47.5265	521.33
47.5410	481.98
47.5554	484.56
47.5698	482.26
47.5843	496.05
47.5987	526.94
47.6132	500.97
47.6276	489.03
47.6420	494.96
47.6565	475.57
47.6709	495.62
47.6854	468.67
47.6998	479.91
47.7142	497.60
47.7287	517.70
47.7431	486.00
47.7576	494.94
47.7720	530.03
47.7864	498.33
47.8009	511.86
47.8153	519.25
47.8298	507.48
47.8442	486.43
47.8586	507.37
47.8731	531.36
47.8875	539.31
47.9020	536.91
47.9164	475.33
47.9308	508.32
47.9453	523.62
47.9597	482.09
47.9742	483.87
47.9886	500.04
48.0030	505.83
48.0175	492.96
48.0319	531.83
48.0464	525.77
48.0608	534.59
48.0752	529.55
48.0897	510.52
48.1041	487.41
48.1186	518.40
48.1330	509.00
48.1474	463.28
48.1619	494.23
48.1763	494.66
48.1908	504.31
48.2052	505.78
48.2196	503.31
48.2341	508.10
48.2485	508.41
48.2630	529.99
48.2774	495.95
48.2918	492.01
48.3063	501.44
48.3207	495.18
48.3352	536.85
48.3496	498.35
48.3640	495.11
48.3785	497.92
48.3929	496.15
48.4074	502.03
48.4218	533.39
48.4362	529.04
48.4507	519.46
48.4651	511.79
48.4796	518.81
48.4940	525.98
48.5084	514.02
48.5229	501.55
48.5373	540.43
48.5518	545.24
48.5662	502.87
48.5806	508.62
48.5951	518.71
48.6095	530.61
48.6240	504.14
48.6384	533.62
48.6528	503.53
48.6673	496.67
48.6817	490.67
48.6962	479.36
48.7106	548.88
48.7250	523.94
48.7395	529.89
48.7539	507.53
48.7684	567.05
48.7828	539.28
48.7972	514.37
48.8117	536.22
48.8261	534.89
48.8406	531.38
48.8550	525.08
48.8694	558.56
48.8839	526.29
48.8983	545.92
48.9128	505.49
48.9272	550.09
48.9416	520.45
48.9561	562.33
48.9705	521.24
48.9850	551.82
48.9994	599.36
49.0139	585.47
49.0283	618.27
49.0427	585.38
49.0572	649.84
49.0716	639.79
49.0861	641.39
49.1005	682.17
49.1149	669.48
49.1294	714.27
49.1438	742.86
49.1583	779.67
49.1727	818.34
49.1871	872.51
49.2016	958.83
49.2160	1005.15
49.2305	1061.52
49.2449	1175.80
49.2593	1270.12
49.2738	1290.38
49.2882	1418.32
49.3027	1478.70
49.3171	1535.64
49.3315	1715.16
49.3460	1759.65
49.3604	1715.18
49.3749	1750.49
49.3893	1708.56
49.4037	1729.54
49.4182	1757.79
49.4326	1659.93
49.4471	1652.44
49.4615	1537.15
49.4759	1489.10
49.4904	1453.16
49.5048	1428.31
49.5193	1296.44
49.5337	1261.95
49.5481	1139.97
49.5626	1150.59
49.5770	1028.34
49.5915	1017.04
49.6059	898.83
49.6203	861.49
49.6348	858.26
49.6492	810.29
49.6637	738.61
49.6781	705.68
49.6925	682.70
49.7070	695.89
49.7214	665.46
49.7359	642.47
49.7503	635.51
49.7647	592.40
49.7792	622.19
49.7936	617.02
49.8081	571.19
49.8225	545.40
49.8369	569.61
49.8514	550.77
49.8658	561.95
49.8803	574.66
49.8947	550.73
49.9091	517.09
49.9236	535.80
49.9380	563.77
49.9525	539.75
49.9669	508.75
49.9813	510.36
49.9958	525.45
50.0102	509.98
50.0247	526.38
50.0391	501.83
50.0535	508.99
50.0680	547.10
50.0824	526.85
50.0969	503.46
50.1113	521.96
50.1257	520.30
50.1402	497.50
50.1546	515.88
50.1691	532.55
50.1835	528.26
50.1979	492.42
50.2124	532.95
50.2268	507.34
50.2413	525.14
50.2557	544.86
50.2701	527.86
50.2846	511.61
50.2990	505.42
50.3135	520.48
50.3279	512.61
50.3423	517.46
50.3568	542.45
50.3712	518.02
50.3857	520.54
50.4001	503.23
50.4145	533.60
50.4290	551.73
50.4434	482.48
50.4579	499.39
50.4723	521.39
50.4867	530.93
50.5012	517.24
50.5156	514.39
50.5301	535.70
50.5445	496.08
50.5589	484.18
50.5734	512.87
50.5878	511.26
50.6023	514.20
50.6167	492.04
50.6311	501.49
50.6456	493.49
50.6600	500.17
50.6745	516.83
50.6889	490.99
50.7033	513.49
50.7178	541.29
50.7322	496.99
50.7467	489.59
50.7611	510.88
50.7755	523.13
50.7900	527.67
50.8044	540.26
50.8189	527.92
50.8333	525.96
50.8477	501.79
50.8622	503.44
50.8766	523.13
50.8911	509.43
50.9055	524.47
50.9199	523.31
50.9344	539.02
50.9488	528.84
50.9633	465.83
50.9777	458.18
50.9921	522.30
51.0066	539.02
51.0210	496.83
51.0355	498.16
51.0499	494.45
51.0643	495.76
51.0788	463.75
51.0932	521.53
51.1077	543.70
51.1221	550.40
51.1365	521.04
51.1510	496.38
51.1654	533.75
51.1799	516.64
51.1943	506.09
51.2087	487.33
51.2232	510.68
51.2376	519.20
51.2521	494.24
51.2665	503.47
51.2809	517.32
51.2954	502.47
51.3098	520.24
51.3243	510.10
51.3387	527.96
51.3531	479.27
51.3676	494.80
51.3820	540.92
51.3965	523.60
51.4109	511.71
51.4253	535.76
51.4398	500.61
51.4542	484.88
51.4687	498.46
51.4831	511.74
51.4975	500.11
51.5120	485.99
51.5264	509.00
51.5409	501.06
51.5553	498.53
51.5697	510.62
51.5842	485.33
51.5986	517.51
51.6131	519.98
51.6275	518.38
51.6419	513.00
51.6564	512.37
51.6708	492.23
51.6853	506.09
51.6997	521.18
51.7141	518.62
51.7286	504.34
51.7430	492.68
51.7575	511.60
51.7719	523.76
51.7863	527.97
51.8008	487.24
51.8152	510.84
51.8297	536.05
51.8441	489.14
51.8585	523.39
51.8730	489.59
51.8874	485.00
51.9019	551.68
51.9163	506.33
51.9307	476.80
51.9452	539.99
51.9596	506.81
51.9741	473.93
51.9885	524.11
52.0029	548.77
52.0174	510.77
52.0318	506.50
52.0463	517.62
52.0607	515.02
52.0751	555.05
52.0896	506.29
52.1040	497.44
52.1185	503.65
52.1329	507.80
52.1473	494.45
52.1618	530.11
52.1762	533.14
52.1907	517.55
52.2051	511.44
52.2195	520.30
52.2340	488.06
52.2484	476.22
52.2629	492.98
52.2773	517.63
52.2917	562.27
52.3062	515.47
52.3206	517.13
52.3351	523.54
52.3495	529.96
52.3639	544.31
52.3784	539.57
52.3928	501.56
52.4073	494.76
52.4217	524.33
52.4361	516.17
52.4506	507.18
52.4650	528.73
52.4795	526.53
52.4939	530.55
52.5083	487.81
52.5228	461.45
52.5372	526.34
52.5517	535.24
52.5661	517.16
52.5805	480.22
52.5950	498.17
52.6094	527.45
52.6239	510.18
52.6383	510.44
52.6527	541.56
52.6672	486.84
52.6816	504.68
52.6961	471.07
52.7105	514.54
52.7250	505.27
52.7394	487.13
52.7538	521.76
52.7683	511.76
52.7827	543.98
52.7972	509.44
52.8116	525.54
52.8260	494.18
52.8405	498.96
52.8549	492.23
52.8694	526.78
52.8838	485.32
52.8982	500.37
52.9127	512.54
52.9271	530.13
52.9416	542.80
52.9560	537.03
52.9704	537.16
52.9849	501.33
52.9993	521.27
53.0138	529.20
53.0282	530.07
53.0426	496.10
53.0571	500.74
53.0715	528.74
53.0860	492.01
53.1004	529.63
53.1148	489.93
53.1293	518.02
53.1437	485.66
53.1582	522.11
53.1726	527.82
53.1870	500.35
53.2015	505.32
53.2159	518.30
53.2304	474.67
53.2448	540.44
53.2592	542.17
53.2737	534.08
53.2881	512.14
53.3026	499.17
53.3170	510.68
53.3314	545.76
53.3459	504.02
53.3603	503.63
53.3748	523.01
53.3892	547.14
53.4036	503.23
53.4181	504.43
53.4325	532.00
53.4470	510.68
53.4614	503.46
53.4758	556.71
53.4903	536.94
53.5047	511.75
53.5192	477.96
53.5336	488.64
53.5480	541.33
53.5625	494.68
53.5769	516.48
53.5914	528.19
53.6058	515.51
53.6202	512.40
53.6347	546.11
53.6491	515.47
53.6636	515.69
53.6780	510.81
53.6924	499.02
53.7069	503.82
53.7213	502.91
53.7358	479.91
53.7502	504.26
53.7646	511.04
53.7791	548.03
53.7935	516.82
53.8080	555.87
53.8224	543.49
53.8368	513.96
53.8513	527.44
53.8657	544.08
53.8802	536.60
53.8946	517.54
53.9090	532.64
53.9235	521.12
53.9379	495.60
53.9524	489.79
53.9668	497.58
53.9812	487.92
53.9957	488.33
54.0101	509.10
54.0246	527.54
54.0390	495.01
54.0534	500.65
54.0679	517.23
54.0823	543.02
54.0968	529.75
54.1112	506.05
54.1256	529.30
54.1401	527.37
54.1545	514.48
54.1690	550.45
54.1834	528.07
54.1978	490.13
54.2123	510.17
54.2267	546.64
54.2412	523.70
54.2556	538.48
54.2700	543.60
54.2845	552.79
54.2989	539.41
54.3134	544.38
54.3278	558.65
54.3422	541.17
54.3567	541.18
54.3711	556.01
54.3856	541.29
54.4000	501.53
54.4144	514.58
54.4289	591.48
54.4433	538.20
54.4578	576.73
54.4722	559.27
54.4866	557.17
54.5011	550.56
54.5155	556.69
54.5300	589.38
54.5444	610.69
54.5588	593.29
54.5733	541.83
54.5877	561.17
54.6022	567.68
54.6166	570.82
54.6310	602.57
54.6455	603.62
54.6599	619.80
54.6744	598.55
54.6888	538.85
54.7032	598.11
54.7177	586.08
54.7321	538.20
54.7466	548.04
54.7610	554.09
54.7754	519.06
54.7899	558.53
54.8043	560.77
54.8188	556.50
54.8332	555.05
54.8476	533.55
54.8621	537.52
54.8765	537.26
54.8910	550.69
54.9054	550.10
54.9198	546.66
54.9343	566.95
54.9487	548.08
54.9632	508.09
54.9776	500.87
54.9920	531.47
55.0065	514.29
55.0209	542.14
55.0354	514.80
55.0498	516.90
55.0642	554.74
55.0787	534.65
55.0931	521.76
55.1076	494.90
55.1220	480.39
55.1364	498.61
55.1509	510.31
55.1653	533.13
55.1798	501.83
55.1942	515.81
55.2086	516.02
55.2231	513.22
55.2375	497.15
55.2520	515.83
55.2664	491.21
55.2808	509.22
55.2953	501.08
55.3097	514.40
55.3242	518.89
55.3386	511.14
55.3530	516.17
55.3675	520.98
55.3819	539.41
55.3964	534.85
55.4108	511.95
55.4252	539.00
55.4397	555.27
55.4541	544.94
55.4686	533.97
55.4830	506.70
55.4974	495.49
55.5119	518.17
55.5263	499.08
55.5408	493.96
55.5552	530.67
55.5696	489.28
55.5841	496.69
55.5985	524.55
55.6130	533.23
55.6274	503.35
55.6418	519.33
55.6563	542.34
55.6707	505.75
55.6852	521.54
55.6996	525.40
55.7140	531.10
55.7285	518.07
55.7429	521.00
55.7574	553.12
55.7718	494.02
55.7862	517.41
55.8007	528.67
55.8151	554.63
55.8296	531.09
55.8440	494.88
55.8584	570.22
55.8729	539.07
55.8873	521.98
55.9018	526.48
55.9162	546.01
55.9306	555.70
55.9451	512.98
55.9595	521.77
55.9740	516.30
55.9884	483.09
56.0028	521.78
56.0173	520.24
56.0317	508.10
56.0462	539.87
56.0606	523.75
56.0750	544.26
56.0895	529.13
56.1039	504.42
56.1184	491.64
56.1328	502.39
56.1472	510.62
56.1617	510.02
56.1761	501.70
56.1906	546.06
56.2050	523.92
56.2194	508.00
56.2339	516.45
56.2483	575.37
56.2628	543.60
56.2772	552.15
56.2916	520.30
56.3061	505.13
56.3205	530.58
56.3350	544.25
56.3494	524.15
56.3639	533.72
56.3783	500.22
56.3927	511.74
56.4072	489.59
56.4216	534.06
56.4361	538.35
56.4505	531.31
56.4649	512.96
56.4794	533.24
56.4938	535.03
56.5083	532.32
56.5227	555.36
56.5371	530.51
56.5516	508.74
56.5660	533.48
56.5805	542.96
56.5949	543.11
56.6093	535.35
56.6238	497.34
56.6382	536.16
56.6527	484.32
56.6671	523.96
56.6815	527.99
56.6960	505.80
56.7104	511.34
56.7249	493.31
56.7393	474.21
56.7537	494.18
56.7682	520.74
56.7826	531.15
56.7971	503.70
56.8115	522.41
56.8259	505.67
56.8404	528.31
56.8548	529.20
56.8693	528.99
56.8837	514.02
56.8981	528.78
56.9126	528.50
56.9270	511.81
56.9415	524.88
56.9559	536.08
56.9703	521.03
56.9848	537.50
56.9992	522.35
57.0137	516.74
57.0281	549.98
57.0425	496.16
57.0570	532.93
57.0714	532.71
57.0859	530.09
57.1003	548.11
57.1147	521.92
57.1292	525.49
57.1436	495.60
57.1581	508.05
57.1725	512.78
57.1869	501.93
57.2014	530.58
57.2158	531.30
57.2303	519.23
57.2447	534.63
57.2591	525.73
57.2736	503.53
57.2880	544.94
57.3025	539.04
57.3169	527.91
57.3313	529.62
57.3458	545.75
57.3602	528.19
57.3747	511.27
57.3891	513.99
57.4035	522.02
57.4180	521.13
57.4324	540.65
57.4469	515.65
57.4613	515.71
57.4757	543.87
57.4902	541.06
57.5046	498.19
57.5191	502.70
57.5335	522.85
57.5479	487.76
57.5624	499.76
57.5768	509.08
57.5913	508.24
57.6057	543.28
57.6201	521.42
57.6346	516.35
57.6490	503.61
57.6635	484.10
57.6779	511.47
57.6923	473.20
57.7068	545.84
57.7212	501.99
57.7357	507.88
57.7501	515.23
57.7645	516.17
57.7790	532.76
57.7934	534.41
57.8079	524.33
57.8223	546.19
57.8367	514.67
57.8512	503.64
57.8656	540.90
57.8801	530.48
57.8945	524.76
57.9089	543.25
57.9234	517.44
57.9378	546.25
57.9523	558.72
57.9667	518.90
57.9811	513.65
57.9956	545.05
58.0100	586.19
58.0245	570.11
58.0389	577.56
58.0533	522.20
58.0678	550.46
58.0822	575.66
58.0967	593.53
58.1111	583.08
58.1255	574.38
58.1400	577.82
58.1544	614.89
58.1689	644.58
58.1833	642.02
58.1977	670.96
58.2122	663.71
58.2266	683.63
58.2411	719.94
58.2555	708.21
58.2699	705.61
58.2844	664.68
58.2988	658.00
58.3133	662.30
58.3277	651.71
58.3421	689.69
58.3566	674.86
58.3710	631.98
58.3855	636.81
58.3999	611.70
58.4143	614.43
58.4288	641.50
58.4432	610.98
58.4577	592.25
58.4721	628.92
58.4865	577.71
58.5010	556.55
58.5154	574.75
58.5299	566.42
58.5443	558.48
58.5587	592.40
58.5732	570.54
58.5876	589.60
58.6021	553.48
58.6165	535.05
58.6309	534.63
58.6454	534.67
58.6598	551.56
58.6743	566.89
58.6887	579.70
58.7031	528.28
58.7176	536.26
58.7320	546.15
58.7465	558.71
58.7609	546.60
58.7753	525.75
58.7898	545.15
58.8042	575.24
58.8187	549.36
58.8331	523.25
58.8475	528.38
58.8620	527.32
58.8764	536.75
58.8909	546.05
58.9053	519.98
58.9197	542.88
58.9342	517.38
58.9486	541.11
58.9631	540.30
58.9775	521.42
58.9919	543.04
59.0064	523.34
59.0208	516.43
59.0353	519.42
59.0497	545.02
59.0641	562.79
59.0786	541.22
59.0930	543.48
59.1075	536.89
59.1219	539.93
59.1363	549.28
59.1508	501.97
59.1652	527.24
59.1797	569.41
59.1941	494.04
59.2085	527.26
59.2230	542.50
59.2374	531.36
59.2519	553.77
59.2663	542.56
59.2807	526.22
59.2952	488.57
59.3096	520.15
59.3241	562.02
59.3385	591.62
59.3529	566.10
59.3674	546.12
59.3818	565.51
59.3963	548.13
59.4107	515.71
59.4251	559.97
59.4396	567.41
59.4540	571.78
59.4685	593.31
59.4829	548.84
59.4973	539.15
59.5118	539.14
59.5262	545.50
59.5407	560.42
59.5551	554.00
59.5695	542.65
59.5840	539.65
59.5984	556.30
59.6129	552.86
59.6273	526.36
59.6417	531.79
59.6562	560.50
59.6706	530.64
59.6851	546.53
59.6995	551.06
59.7139	520.91
59.7284	535.49
59.7428	520.68
59.7573	507.82
59.7717	551.01
59.7861	532.47
59.8006	517.06
59.8150	526.36
59.8295	529.82
59.8439	524.55
59.8583	534.02
59.8728	522.19
59.8872	506.29
59.9017	561.02
59.9161	548.62
59.9305	544.42
59.9450	510.33
59.9594	538.62
59.9739	518.07
59.9883	552.35
60.0027	568.25
60.0172	555.93
60.0316	509.25
60.0461	512.59
60.0605	524.66
60.0750	537.22
60.0894	552.40
60.1038	529.09
60.1183	538.83
60.1327	523.34
60.1472	507.09
60.1616	525.70
60.1760	521.89
60.1905	491.73
60.2049	519.27
60.2194	561.52
60.2338	509.33
60.2482	537.99
60.2627	541.27
60.2771	524.93
60.2916	536.08
60.3060	529.02
60.3204	569.20
60.3349	567.63
60.3493	567.23
60.3638	541.80
60.3782	517.42
60.3926	511.98
60.4071	540.92
60.4215	569.02
60.4360	584.87
60.4504	509.09
60.4648	543.05
60.4793	553.38
60.4937	582.92
60.5082	532.57
60.5226	558.36
60.5370	546.04
60.5515	521.68
60.5659	550.92
60.5804	556.67
60.5948	567.41
60.6092	536.23
60.6237	534.27
60.6381	584.79
60.6526	522.78
60.6670	520.99
60.6814	530.01
60.6959	580.04
60.7103	560.38
60.7248	548.77
60.7392	514.97
60.7536	566.33
60.7681	542.86
60.7825	547.34
60.7970	555.66
60.8114	521.46
60.8258	527.76
60.8403	576.20
60.8547	542.04
60.8692	548.17
60.8836	508.37
60.8980	537.20
60.9125	551.16
60.9269	483.52
60.9414	487.99
60.9558	554.00
60.9702	552.80
60.9847	519.65
60.9991	504.27
61.0136	533.41
61.0280	505.08
61.0424	553.45
61.0569	509.16
61.0713	574.42
61.0858	543.79
61.1002	530.35
61.1146	574.15
61.1291	551.51
61.1435	541.52
61.1580	501.26
61.1724	560.13
61.1868	551.26
61.2013	517.47
61.2157	516.19
61.2302	534.90
61.2446	533.85
61.2590	523.43
61.2735	528.88
61.2879	554.85
61.3024	560.70
61.3168	536.82
61.3312	563.79
61.3457	561.92
61.3601	558.80
61.3746	547.10
61.3890	534.82
61.4034	526.90
61.4179	544.99
61.4323	569.13
61.4468	512.23
61.4612	511.95
61.4756	565.74
61.4901	541.64
61.5045	518.11
61.5190	527.79
61.5334	564.77
61.5478	561.99
61.5623	567.52
61.5767	543.56
61.5912	556.16
61.6056	529.96
61.6200	514.25
61.6345	538.50
61.6489	541.51
61.6634	525.74
61.6778	561.63
61.6922	527.77
61.7067	559.57
61.7211	542.17
61.7356	545.18
61.7500	550.77
61.7644	517.92
61.7789	557.22
61.7933	537.32
61.8078	536.67
61.8222	570.55
61.8366	564.05
61.8511	549.80
61.8655	591.84
61.8800	557.20
61.8944	587.20
61.9088	571.43
61.9233	541.90
61.9377	536.82
61.9522	538.58
61.9666	558.37
61.9810	566.68
61.9955	558.25
62.0099	539.98
62.0244	553.81
62.0388	592.48
62.0532	576.94
62.0677	558.97
62.0821	582.54
62.0966	538.85
62.1110	523.85
62.1254	539.68
62.1399	519.10
62.1543	573.65
62.1688	560.55
62.1832	517.16
62.1976	548.84
62.2121	538.05
62.2265	547.98
62.2410	573.09
62.2554	526.39
62.2698	536.20
62.2843	576.22
62.2987	577.31
62.3132	575.74
62.3276	551.14
62.3420	559.05
62.3565	532.38
62.3709	535.26
62.3854	566.94
62.3998	530.70
62.4142	578.28
62.4287	575.64
62.4431	566.95
62.4576	579.11
62.4720	558.63
62.4864	542.95
62.5009	560.80
62.5153	550.61
62.5298	572.81
62.5442	551.07
62.5586	558.20
62.5731	587.33
62.5875	593.58
62.6020	590.95
62.6164	561.64
62.6308	548.25
62.6453	579.79
62.6597	540.33
62.6742	529.08
62.6886	552.94
62.7030	587.58
62.7175	567.64
62.7319	551.48
62.7464	524.85
62.7608	526.96
62.7752	540.60
62.7897	546.34
62.8041	565.13
62.8186	576.32
62.8330	533.80
62.8474	532.71
62.8619	559.40
62.8763	567.38
62.8908	556.38
62.9052	575.62
62.9196	577.11
62.9341	549.66
62.9485	556.62
62.9630	576.09
62.9774	588.86
62.9918	578.80
63.0063	587.99
63.0207	592.01
63.0352	594.85
63.0496	575.25
63.0640	566.88
63.0785	581.81
63.0929	558.22
63.1074	597.54
63.1218	598.74
63.1362	577.15
63.1507	540.53
63.1651	560.10
63.1796	573.61
63.1940	503.93
63.2084	557.79
63.2229	564.45
63.2373	548.26
63.2518	578.89
63.2662	562.81
63.2806	547.71
63.2951	567.62
63.3095	562.54
63.3240	603.99
63.3384	607.24
63.3528	559.74
63.3673	584.81
63.3817	573.35
63.3962	573.51
63.4106	581.11
63.4250	590.31
63.4395	624.85
63.4539	582.37
63.4684	569.45
63.4828	589.10
63.4972	594.84
63.5117	612.84
63.5261	603.63
63.5406	561.81
63.5550	591.18
63.5694	590.27
63.5839	584.61
63.5983	571.06
63.6128	592.81
63.6272	575.29
63.6416	614.93
63.6561	593.73
63.6705	595.11
63.6850	591.28
63.6994	599.07
63.7138	617.42
63.7283	590.79
63.7427	618.71
63.7572	632.94
63.7716	641.13
63.7861	618.01
63.8005	585.84
63.8149	638.83
63.8294	702.19
63.8438	679.03
63.8583	728.66
63.8727	723.21
63.8871	702.84
63.9016	772.88
63.9160	789.79
63.9305	808.02
63.9449	853.53
63.9593	875.55
63.9738	849.64
63.9882	849.87
64.0027	853.45
64.0171	790.59
64.0315	809.58
64.0460	754.75
64.0604	804.40
64.0749	771.33
64.0893	815.41
64.1037	785.76
64.1182	782.11
64.1326	793.11
64.1471	726.05
64.1615	778.49
64.1759	736.95
64.1904	741.86
64.2048	718.66
64.2193	716.28
64.2337	722.35
64.2481	695.34
64.2626	658.37
64.2770	674.27
64.2915	658.56
64.3059	658.17
64.3203	631.11
64.3348	657.94
64.3492	626.49
64.3637	640.53
64.3781	631.28
64.3925	645.83
64.4070	633.84
64.4214	683.12
64.4359	614.50
64.4503	649.74
64.4647	681.82
64.4792	645.79
64.4936	633.73
64.5081	631.27
64.5225	642.89
64.5369	654.03
64.5514	638.23
64.5658	612.39
64.5803	669.27
64.5947	648.46
64.6091	665.87
64.6236	621.25
64.6380	631.35
64.6525	629.28
64.6669	653.52
64.6813	665.91
64.6958	689.97
64.7102	725.63
64.7247	751.18
64.7391	664.29
64.7535	693.04
64.7680	671.80
64.7824	708.19
64.7969	756.08
64.8113	770.38
64.8257	774.58
64.8402	823.93
64.8546	828.05
64.8691	799.33
64.8835	839.90
64.8979	937.18
64.9124	885.73
64.9268	893.67
64.9413	922.24
64.9557	946.72
64.9701	977.99
64.9846	1122.61
64.9990	1141.76
65.0135	1281.12
65.0279	1576.78
65.0423	1762.08
65.0568	2222.51
65.0712	2770.25
65.0857	3451.44
65.1001	4572.19
65.1145	6262.27
65.1290	8273.17
65.1434	9658.16
65.1579	11195.71
65.1723	12083.55
65.1867	11323.33
65.2012	9930.41
65.2156	8236.67
65.2301	6581.07
65.2445	5294.20
65.2589	4502.88
65.2734	4298.70
65.2878	4524.00
65.3023	5137.58
65.3167	6112.70
65.3311	6791.71
65.3456	7241.67
65.3600	7041.09
65.3745	6377.81
65.3889	5439.49
65.4033	4307.21
65.4178	3367.50
65.4322	2648.75
65.4467	2011.29
65.4611	1656.35
65.4755	1479.08
65.4900	1303.47
65.5044	1180.90
65.5189	1079.57
65.5333	970.89
65.5477	915.68
65.5622	909.11
65.5766	856.06
65.5911	815.56
65.6055	822.23
65.6199	826.52
65.6344	791.69
65.6488	759.55
65.6633	766.55
65.6777	720.44
65.6921	683.15
65.7066	719.94
65.7210	765.46
65.7355	665.34
65.7499	709.24
65.7643	675.81
65.7788	678.59
65.7932	698.72
65.8077	676.59
65.8221	712.50
65.8365	681.92
65.8510	667.06
65.8654	644.97
65.8799	632.58
65.8943	638.32
65.9087	621.61
65.9232	629.05
65.9376	627.37
65.9521	585.97
65.9665	628.24
65.9809	654.57
65.9954	621.36
66.0098	599.06
66.0243	612.25
66.0387	617.89
66.0531	649.12
66.0676	644.74
66.0820	617.00
66.0965	616.44
66.1109	598.61
66.1253	631.74
66.1398	624.38
66.1542	613.25
66.1687	608.70
66.1831	598.44
66.1975	614.56
66.2120	636.61
66.2264	584.55
66.2409	618.53
66.2553	599.19
66.2697	618.46
66.2842	616.28
66.2986	614.12
66.3131	588.03
66.3275	560.60
66.3419	571.45
66.3564	585.39
66.3708	568.91
66.3853	589.67
66.3997	647.08
66.4141	596.17
66.4286	646.00
66.4430	626.29
66.4575	601.06
66.4719	603.64
66.4863	586.33
66.5008	594.36
66.5152	593.29
66.5297	599.48
66.5441	576.84
66.5585	594.98
66.5730	614.38
66.5874	582.76
66.6019	594.20
66.6163	650.46
66.6307	616.60
66.6452	571.87
66.6596	579.92
66.6741	578.01
66.6885	586.14
66.7029	599.36
66.7174	567.61
66.7318	576.42
66.7463	576.29
66.7607	590.11
66.7751	600.00
66.7896	590.09
66.8040	582.21
66.8185	590.93
66.8329	611.72
66.8473	596.43
66.8618	570.66
66.8762	566.38
66.8907	577.78
66.9051	607.52
66.9195	599.63
66.9340	604.34
66.9484	593.32
66.9629	567.09
66.9773	566.21
66.9917	545.73
67.0062	540.23
67.0206	597.10
67.0351	580.67
67.0495	551.51
67.0639	594.21
67.0784	600.67
67.0928	633.66
67.1073	567.34
67.1217	570.53
67.1361	596.55
67.1506	591.83
67.1650	616.67
67.1795	600.64
67.1939	542.28
67.2083	567.47
67.2228	597.97
67.2372	559.25
67.2517	554.55
67.2661	564.89
67.2805	580.17
67.2950	566.09
67.3094	561.85
67.3239	537.45
67.3383	566.86
67.3527	580.06
67.3672	563.61
67.3816	579.91
67.3961	578.85
67.4105	582.47
67.4250	602.08
67.4394	558.92
67.4538	534.37
67.4683	603.54
67.4827	596.26
67.4972	556.06
67.5116	553.67
67.5260	577.67
67.5405	579.63
67.5549	557.76
67.5694	539.63
67.5838	558.16
67.5982	586.56
67.6127	585.14
67.6271	577.97
67.6416	615.52
67.6560	583.23
67.6704	548.93
67.6849	539.56
67.6993	588.97
67.7138	598.90
67.7282	553.48
67.7426	594.37
67.7571	569.83
67.7715	563.30
67.7860	576.95
67.8004	578.66
67.8148	564.07
67.8293	582.81
67.8437	552.16
67.8582	587.14
67.8726	631.59
67.8870	566.88
67.9015	600.94
67.9159	608.82
67.9304	579.28
67.9448	560.21
67.9592	555.48
67.9737	569.38
67.9881	579.91
68.0026	572.42
68.0170	590.22
68.0314	595.22
68.0459	528.78
68.0603	578.37
68.0748	571.00
68.0892	613.12
68.1036	578.93
68.1181	593.91
68.1325	580.27
68.1470	565.58
68.1614	589.29
68.1758	565.58
68.1903	563.44
68.2047	534.30
68.2192	589.63
68.2336	563.29
68.2480	574.45
68.2625	553.64
68.2769	585.51
68.2914	564.01
68.3058	536.17
68.3202	551.46
68.3347	610.56
68.3491	535.22
68.3636	559.20
68.3780	577.38
68.3924	573.46
68.4069	558.56
68.4213	568.59
68.4358	572.57
68.4502	555.39
68.4646	590.13
68.4791	544.24
68.4935	577.35
68.5080	599.95
68.5224	621.90
68.5368	581.11
68.5513	618.32
68.5657	576.29
68.5802	571.49
68.5946	558.53
68.6090	541.33
68.6235	551.32
68.6379	602.69
68.6524	552.87
68.6668	553.49
68.6812	561.30
68.6957	555.36
68.7101	592.77
68.7246	563.17
68.7390	563.17
68.7534	578.26
68.7679	616.50
68.7823	576.45
68.7968	574.40
68.8112	597.32
68.8256	598.46
68.8401	567.64
68.8545	523.75
68.8690	549.99
68.8834	573.45
68.8978	587.29
68.9123	535.22
68.9267	580.34
68.9412	610.96
68.9556	545.12
68.9700	560.03
68.9845	566.43
68.9989	599.76
69.0134	577.42
69.0278	597.67
69.0422	575.07
69.0567	585.94
69.0711	574.64
69.0856	583.02
69.1000	558.59
69.1144	537.67
69.1289	587.55
69.1433	525.88
69.1578	550.94
69.1722	600.81
69.1866	556.45
69.2011	546.88
69.2155	551.89
69.2300	607.39
69.2444	603.48
69.2588	602.33
69.2733	592.58
69.2877	577.58
69.3022	555.54
69.3166	533.52
69.3310	594.13
69.3455	570.08
69.3599	539.37
69.3744	580.19
69.3888	547.00
69.4032	592.96
69.4177	562.49
69.4321	605.63
69.4466	553.66
69.4610	592.97
69.4754	543.92
69.4899	554.07
69.5043	572.23
69.5188	563.64
69.5332	579.83
69.5476	538.30
69.5621	575.60
69.5765	551.44
69.5910	549.80
69.6054	578.27
69.6198	539.36
69.6343	545.38
69.6487	586.29
69.6632	598.61
69.6776	550.31
69.6920	550.09
69.7065	559.63
69.7209	592.26
69.7354	552.10
69.7498	520.89
69.7642	523.37
69.7787	597.31
69.7931	590.07
69.8076	561.21
69.8220	552.51
69.8364	586.73
69.8509	611.44
69.8653	561.57
69.8798	611.60
69.8942	578.85
69.9086	539.01
69.9231	547.45
69.9375	564.10
69.9520	567.96
69.9664	520.29
69.9808	587.13
69.9953	597.66
70.0097	603.14
70.0242	535.87
70.0386	569.43
70.0530	650.34
70.0675	625.16
70.0819	609.97
70.0964	608.04
70.1108	560.21
70.1252	581.53
70.1397	577.52
70.1541	561.03
70.1686	562.28
70.1830	561.66
70.1974	565.01
70.2119	585.89
70.2263	527.62
70.2408	594.79
70.2552	603.59
70.2696	545.31
70.2841	590.61
70.2985	591.94
70.3130	576.28
70.3274	587.94
70.3418	565.92
70.3563	579.84
70.3707	558.02
70.3852	569.35
70.3996	569.85
70.4140	568.43
70.4285	624.66
70.4429	574.27
70.4574	531.97
70.4718	575.65
70.4862	598.90
70.5007	581.29
70.5151	564.66
70.5296	598.66
70.5440	603.10
70.5584	594.62
70.5729	525.86
70.5873	528.96
70.6018	590.99
70.6162	620.50
70.6306	630.07
70.6451	592.13
70.6595	571.74
70.6740	609.21
70.6884	628.88
70.7028	578.70
70.7173	584.52
70.7317	558.25
70.7462	550.56
70.7606	529.93
70.7750	586.88
70.7895	596.22
70.8039	623.75
70.8184	612.54
70.8328	638.47
70.8472	583.87
70.8617	536.25
70.8761	529.99
70.8906	547.76
70.9050	553.10
70.9194	572.16
70.9339	612.41
70.9483	591.88
70.9628	559.18
70.9772	557.90
70.9916	583.45
71.0061	587.05
71.0205	540.60
71.0350	630.59
71.0494	619.25
71.0638	632.15
71.0783	636.45
71.0927	596.11
71.1072	568.06
71.1216	617.07
71.1361	549.76
71.1505	513.38
71.1649	548.83
71.1794	613.79
71.1938	616.20
71.2083	575.85
71.2227	585.28
71.2371	585.60
71.2516	618.67
71.2660	637.55
71.2805	563.71
71.2949	542.70
71.3093	582.94
71.3238	550.75
71.3382	588.07
71.3527	574.27
71.3671	531.69
71.3815	530.17
71.3960	543.19
71.4104	550.06
71.4249	559.39
71.4393	531.72
71.4537	547.15
71.4682	605.96
71.4826	619.25
71.4971	556.39
71.5115	499.51
71.5259	553.69
71.5404	585.75
71.5548	579.27
71.5693	600.93
71.5837	613.88
71.5981	592.19
71.6126	607.29
71.6270	570.54
71.6415	561.91
71.6559	587.66
71.6703	598.42
71.6848	587.33
71.6992	590.79
71.7137	579.43
71.7281	566.50
71.7425	596.60
71.7570	542.89
71.7714	545.82
71.7859	565.19
71.8003	591.81
71.8147	617.04
71.8292	563.90
71.8436	594.21
71.8581	556.48
71.8725	567.65
71.8869	588.60
71.9014	598.40
71.9158	583.58
71.9303	522.36
71.9447	540.94
71.9591	556.79
71.9736	512.63
71.9880	560.48
72.0025	593.13
72.0169	560.28
72.0313	611.16
72.0458	604.88
72.0602	556.98
72.0747	556.27
72.0891	575.57
72.1035	595.90
72.1180	564.49
72.1324	567.53
72.1469	563.92
72.1613	535.76
72.1757	541.13
72.1902	596.32
72.2046	623.44
72.2191	562.62
72.2335	553.02
72.2479	560.31
72.2624	547.19
72.2768	604.67
72.2913	628.84
72.3057	586.84
72.3201	558.20
72.3346	572.72
72.3490	522.00
72.3635	508.70
72.3779	584.23
72.3923	625.67
72.4068	673.61
72.4212	685.17
72.4357	677.31
72.4501	566.49
72.4645	561.96
72.4790	567.36
72.4934	529.53
72.5079	549.53
72.5223	545.48
72.5367	592.75
72.5512	554.33
72.5656	509.37
72.5801	567.71
72.5945	553.71
72.6089	577.07
72.6234	534.66
72.6378	566.63
72.6523	636.02
72.6667	625.60
72.6811	596.67
72.6956	590.36
72.7100	616.43
72.7245	600.25
72.7389	584.26
72.7533	538.77
72.7678	470.31
72.7822	464.75
72.7967	518.38
72.8111	628.74
72.8255	683.08
72.8400	595.48
72.8544	534.70
72.8689	583.77
72.8833	536.94

Result vector
22.1120	531.62
22.1264	588.12
22.1409	566.41
22.1553	493.05
22.1697	511.77
22.1842	561.32
22.1986	526.40
22.2131	551.70
22.2275	595.03
22.2419	571.24
22.2564	539.84
22.2708	610.83
22.2853	692.34
22.2997	591.55
22.3141	591.67
22.3286	688.97
22.3430	660.10
22.3575	547.88
22.3719	549.01
22.3863	539.05
22.4008	585.53
22.4152	724.62
22.4297	707.74
22.4441	650.62
22.4585	601.18
22.4730	564.71
22.4874	589.34
22.5019	529.81
22.5163	584.97
22.5307	604.45
22.5452	505.24
22.5596	542.44
22.5741	580.30
22.5885	638.99
22.6029	645.60
22.6174	578.41
22.6318	594.79
22.6463	584.41
22.6607	611.81
22.6751	573.84
22.6896	577.61
22.7040	561.06
22.7185	597.03
22.7329	617.92
22.7473	578.99
22.7618	537.63
22.7762	545.33
22.7907	568.78
22.8051	528.24
22.8195	584.69
22.8340	543.97
22.8484	599.03
22.8629	509.21
22.8773	557.64
22.8917	497.55
22.9062	590.91
22.9206	622.59
22.9351	565.09
22.9495	556.18
22.9639	609.76
22.9784	552.49
22.9928	499.97
23.0073	549.29
23.0217	521.04
23.0361	482.32
23.0506	553.47
23.0650	546.81
23.0795	529.68
23.0939	589.33
23.1083	576.58
23.1228	555.35
23.1372	551.79
23.1517	522.33
23.1661	564.04
23.1806	598.59
23.1950	559.54
23.2094	504.78
23.2239	617.61
23.2383	531.35
23.2528	489.38
23.2672	508.93
23.2816	566.47
23.2961	477.47
23.3105	552.67
23.3250	585.70
23.3394	528.99
23.3538	532.37
23.3683	564.48
23.3827	533.51
23.3972	460.79
23.4116	586.46
23.4260	568.13
23.4405	510.54
23.4549	551.99
23.4694	606.93
23.4838	510.58
23.4982	544.19
23.5127	532.27
23.5271	531.91
23.5416	618.79
23.5560	635.06
23.5704	580.87
23.5849	554.00
23.5993	649.62
23.6138	483.17
23.6282	516.01
23.6426	484.62
23.6571	551.07
23.6715	498.41
23.6860	518.96
23.7004	628.29
23.7148	571.68
23.7293	520.94
23.7437	567.33
23.7582	558.92
23.7726	574.97
23.7870	553.93
23.8015	535.25
23.8159	511.48
23.8304	596.26
23.8448	608.54
23.8592	588.10
23.8737	592.84
23.8881	431.81
23.9026	599.34
23.9170	592.65
23.9314	490.60
23.9459	558.87
23.9603	587.99
23.9748	567.15
23.9892	573.82
24.0036	439.63
24.0181	557.19
24.0325	594.29
24.0470	606.29
24.0614	645.00
24.0758	524.80
24.0903	595.84
24.1047	627.23
24.1192	568.84
24.1336	588.11
24.1480	513.54
24.1625	580.72
24.1769	568.91
24.1914	598.29
24.2058	503.13
24.2202	568.10
24.2347	562.27
24.2491	560.15
24.2636	583.35
24.2780	615.69
24.2924	597.35
24.3069	618.45
24.3213	608.23
24.3358	584.55
24.3502	575.30
24.3646	491.20
24.3791	560.67
24.3935	554.14
24.4080	581.00
24.4224	556.77
24.4368	570.92
24.4513	519.54
24.4657	578.44
24.4802	607.87
24.4946	533.09
24.5090	570.63
24.5235	529.35
24.5379	540.12
24.5524	563.16
24.5668	592.37
24.5812	613.33
24.5957	606.59
24.6101	559.73
24.6246	585.00
24.6390	608.22
24.6534	558.23
24.6679	535.87
24.6823	515.71
24.6968	572.24
24.7112	516.28
24.7256	556.77
24.7401	577.63
24.7545	463.50
24.7690	560.01
24.7834	551.16
24.7978	533.13
24.8123	536.98
24.8267	527.81
24.8412	567.93
24.8556	552.76
24.8700	579.26
24.8845	535.38
24.8989	560.76
24.9134	510.87
24.9278	539.23
24.9422	522.75
24.9567	524.12
24.9711	565.89
24.9856	584.01
25.0000	538.58
25.0144	564.53
25.0289	567.23
25.0433	586.96
25.0578	530.19
25.0722	540.75
25.0866	525.06
25.1011	552.36
25.1155	549.77
25.1300	568.36
25.1444	536.75
25.1588	559.39
25.1733	558.67
25.1877	536.60
25.2022	524.02
25.2166	581.32
25.2310	556.25
25.2455	566.95
25.2599	578.90
25.2744	557.68
25.2888	568.44
25.3032	524.92
25.3177	501.85
25.3321	514.13
25.3466	539.07
25.3610	573.69
25.3754	573.43
25.3899	533.32
25.4043	552.15
25.4188	555.53
25.4332	504.67
25.4476	520.38
25.4621	527.34
25.4765	517.73
25.4910	558.57
25.5054	537.78
25.5198	534.18
25.5343	497.24
25.5487	518.61
25.5632	534.79
25.5776	555.70
25.5920	579.64
25.6065	552.18
25.6209	498.39
25.6354	526.90
25.6498	537.78
25.6642	557.14
25.6787	574.19
25.6931	554.36
25.7076	568.17
25.7220	553.29
25.7364	516.26
25.7509	512.59
25.7653	574.03
25.7798	530.51
25.7942	552.39
25.8086	512.52
25.8231	543.38
25.8375	533.43
25.8520	552.71
25.8664	517.23
25.8808	537.71
25.8953	556.82
25.9097	513.26
25.9242	513.68
25.9386	514.28
25.9530	510.39
25.9675	498.16
25.9819	536.93
25.9964	506.29
26.0108	511.75
26.0252	548.10
26.0397	585.58
26.0541	542.34
26.0686	549.45
26.0830	544.61
26.0974	544.05
26.1119	543.99
26.1263	559.18
26.1408	509.59
26.1552	524.22
26.1696	515.96
26.1841	552.14
26.1985	556.62
26.2130	553.32
26.2274	563.16
26.2418	559.39
26.2563	523.88
26.2707	545.39
26.2852	574.52
26.2996	543.56
26.3140	536.52
26.3285	505.61
26.3429	545.59
26.3574	531.76
26.3718	525.89
26.3862	539.48
26.4007	535.15
26.4151	549.98
26.4296	568.30
26.4440	537.45
26.4584	560.89
26.4729	553.92
26.4873	538.24
26.5018	549.49
26.5162	519.64
26.5306	551.89
26.5451	539.03
26.5595	508.67
26.5740	550.50
26.5884	553.79
26.6028	528.09
26.6173	517.37
26.6317	530.41
26.6462	542.17
26.6606	526.10
26.6750	566.17
26.6895	553.30
26.7039	558.66
26.7184	533.66
26.7328	517.63
26.7472	522.23
26.7617	498.76
26.7761	505.11
26.7906	504.22
26.8050	536.13
26.8194	526.14
26.8339	530.46
26.8483	526.36
26.8628	533.15
26.8772	504.15
26.8917	508.69
26.9061	513.37
26.9205	514.83
26.9350	526.73
26.9494	517.74
26.9639	527.21
26.9783	521.73
26.9927	490.16
27.0072	501.73
27.0216	520.29
27.0361	533.87
27.0505	528.95
27.0649	504.10
27.0794	520.66
27.0938	532.28
27.1083	549.01
27.1227	539.42
27.1371	522.21
27.1516	484.45
27.1660	533.76
27.1805	523.46
27.1949	509.67
27.2093	521.90
27.2238	488.59
27.2382	515.68
27.2527	532.49
27.2671	500.19
27.2815	527.96
27.2960	575.06
27.3104	529.09
27.3249	518.64
27.3393	519.70
27.3537	517.80
27.3682	539.32
27.3826	518.02
27.3971	501.70
27.4115	502.18
27.4259	547.99
27.4404	486.19
27.4548	490.14
27.4693	505.98
27.4837	526.44
27.4981	509.18
27.5126	536.24
27.5270	526.68
27.5415	507.49
27.5559	517.33
27.5703	516.97
27.5848	524.08
27.5992	513.60
27.6137	520.76
27.6281	527.01
27.6425	501.91
27.6570	482.27
27.6714	513.70
27.6859	543.14
27.7003	555.07
27.7147	522.90
27.7292	501.43
27.7436	547.02
27.7581	551.42
27.7725	526.44
27.7869	547.60
27.8014	521.62
27.8158	526.34
27.8303	492.45
27.8447	507.78
27.8591	540.12
27.8736	543.28
27.8880	506.69
27.9025	525.86
27.9169	530.13
27.9313	492.78
27.9458	512.72
27.9602	502.04
27.9747	519.07
27.9891	490.76
28.0035	493.02
28.0180	544.68
28.0324	462.32
28.0469	526.22
28.0613	544.72
28.0757	536.09
28.0902	542.31
28.1046	513.10
28.1191	507.27
28.1335	517.84
28.1479	511.95
28.1624	512.06
28.1768	525.56
28.1913	536.97
28.2057	543.00
28.2201	524.83
28.2346	530.78
28.2490	553.62
28.2635	508.31
28.2779	520.98
28.2923	498.63
28.3068	496.98
28.3212	557.99
28.3357	565.69
28.3501	511.86
28.3645	542.56
28.3790	520.01
28.3934	503.27
28.4079	513.07
28.4223	517.21
28.4367	536.74
28.4512	508.58
28.4656	510.45
28.4801	514.23
28.4945	510.02
28.5089	531.01
28.5234	523.88
28.5378	511.98
28.5523	543.07
28.5667	543.42
28.5811	547.71
28.5956	512.72
28.6100	513.08
28.6245	539.57
28.6389	537.98
28.6533	532.78
28.6678	500.10
28.6822	528.20
28.6967	538.34
28.7111	549.75
28.7255	509.17
28.7400	519.79
28.7544	513.47
28.7689	478.38
28.7833	522.67
28.7977	522.02
28.8122	495.02
28.8266	518.90
28.8411	508.97
28.8555	527.17
28.8699	514.49
28.8844	505.90
28.8988	529.20
28.9133	492.29
28.9277	510.53
28.9421	518.31
28.9566	507.76
28.9710	482.37
28.9855	495.87
28.9999	471.11
29.0143	527.61
29.0288	509.55
29.0432	481.19
29.0577	520.74
29.0721	548.79
29.0865	529.31
29.1010	509.07
29.1154	508.85
29.1299	521.19
29.1443	476.01
29.1587	495.67
29.1732	498.00
29.1876	500.31
29.2021	489.53
29.2165	492.23
29.2309	474.10
29.2454	506.42
29.2598	508.05
29.2743	480.50
29.2887	499.15
29.3031	520.74
29.3176	499.77
29.3320	566.45
29.3465	535.06
29.3609	482.36
29.3753	469.37
29.3898	496.90
29.4042	483.87
29.4187	510.47
29.4331	496.79
29.4475	518.30
29.4620	541.15
29.4764	536.48
29.4909	496.40
29.5053	488.38
29.5197	545.72
29.5342	496.76
29.5486	481.87
29.5631	487.36
29.5775	487.71
29.5919	498.19
29.6064	500.53
29.6208	466.40
29.6353	521.71
29.6497	517.21
29.6641	501.01
29.6786	483.33
29.6930	492.89
29.7075	537.31
29.7219	484.20
29.7363	475.42
29.7508	495.89
29.7652	483.34
29.7797	486.42
29.7941	493.62
29.8085	513.39
29.8230	518.99
29.8374	503.18
29.8519	505.54
29.8663	520.14
29.8807	514.85
29.8952	508.50
29.9096	523.05
29.9241	487.36
29.9385	478.00
29.9529	510.11
29.9674	497.82
29.9818	544.84
29.9963	509.50
30.0107	516.83
30.0251	568.78
30.0396	513.45
30.0540	505.71
30.0685	529.07
30.0829	513.32
30.0973	512.00
30.1118	485.34
30.1262	504.08
30.1407	538.62
30.1551	499.63
30.1695	537.14
30.1840	545.89
30.1984	497.27
30.2129	497.49
30.2273	510.10
30.2417	521.80
30.2562	493.79
30.2706	516.57
30.2851	526.31
30.2995	522.11
30.3139	500.43
30.3284	486.00
30.3428	501.77
30.3573	480.66
30.3717	485.33
30.3861	494.18
30.4006	485.73
30.4150	495.79
30.4295	537.35
30.4439	495.96
30.4583	471.06
30.4728	514.03
30.4872	508.34
30.5017	499.52
30.5161	508.33
30.5305	513.15
30.5450	526.45
30.5594	553.43
30.5739	539.54
30.5883	516.40
30.6028	548.47
30.6172	547.26
30.6316	531.47
30.6461	598.63
30.6605	572.91
30.6750	627.04
30.6894	658.70
30.7038	678.58
30.7183	712.55
30.7327	674.33
30.7472	675.19
30.7616	682.00
30.7760	699.78
30.7905	753.61
30.8049	681.96
30.8194	632.88
30.8338	653.40
30.8482	641.59
30.8627	620.51
30.8771	617.96
30.8916	589.53
30.9060	600.47
30.9204	521.63
30.9349	584.93
30.9493	588.22
30.9638	527.87
30.9782	502.69
30.9926	544.40
31.0071	542.62
31.0215	525.25
31.0360	546.79
31.0504	523.94
31.0648	552.93
31.0793	541.54
31.0937	520.70
31.1082	522.70
31.1226	528.50
31.1370	532.37
31.1515	516.31
31.1659	533.78
31.1804	547.69
31.1948	516.21
31.2092	505.20
31.2237	501.90
31.2381	501.50
31.2526	553.83
31.2670	548.81
31.2814	529.45
31.2959	510.11
31.3103	520.14
31.3248	518.21
31.3392	539.04
31.3536	530.58
31.3681	506.75
31.3825	539.21
31.3970	484.89
31.4114	470.89
31.4258	516.58
31.4403	511.02
31.4547	506.63
31.4692	506.06
31.4836	526.65
31.4980	528.43
31.5125	537.64
31.5269	486.93
31.5414	491.76
31.5558	506.92
31.5702	502.17
31.5847	508.11
31.5991	521.50
31.6136	548.60
31.6280	523.18
31.6424	497.56
31.6569	477.03
31.6713	506.77
31.6858	504.28
31.7002	467.00
31.7146	493.84
31.7291	524.88
31.7435	526.35
31.7580	539.88
31.7724	488.37
31.7868	492.63
31.8013	509.22
31.8157	526.50
31.8302	506.64
31.8446	516.49
31.8590	516.48
31.8735	489.18
31.8879	480.76
31.9024	528.32
31.9168	552.64
31.9312	476.63
31.9457	480.65
31.9601	468.23
31.9746	491.58
31.9890	507.98
32.0034	500.87
32.0179	487.96
32.0323	516.27
32.0468	537.62
32.0612	531.51
32.0756	481.40
32.0901	540.93
32.1045	488.99
32.1190	508.93
32.1334	530.28
32.1478	486.36
32.1623	498.61
32.1767	499.64
32.1912	494.93
32.2056	504.22
32.2200	494.45
32.2345	473.69
32.2489	497.42
32.2634	500.89
32.2778	488.07
32.2922	493.69
32.3067	500.57
32.3211	475.06
32.3356	516.02
32.3500	503.02
32.3644	514.06
32.3789	514.20
32.3933	492.75
32.4078	484.76
32.4222	515.30
32.4366	509.39
32.4511	504.34
32.4655	499.79
32.4800	513.62
32.4944	485.03
32.5088	512.10
32.5233	503.88
32.5377	475.32
32.5522	503.13
32.5666	510.97
32.5810	507.24
32.5955	531.35
32.6099	510.39
32.6244	503.21
32.6388	518.88
32.6532	489.74
32.6677	485.00
32.6821	492.92
32.6966	528.60
32.7110	497.04
32.7254	512.73
32.7399	489.52
32.7543	505.14
32.7688	498.51
32.7832	523.19
32.7976	516.13
32.8121	510.47
32.8265	507.81
32.8410	536.68
32.8554	484.01
32.8698	493.49
32.8843	508.71
32.8987	510.68
32.9132	500.91
32.9276	516.28
32.9420	494.20
32.9565	478.46
32.9709	518.82
32.9854	506.27
32.9998	485.54
33.0142	495.58
33.0287	494.90
33.0431	471.03
33.0576	504.83
33.0720	500.91
33.0864	519.30
33.1009	508.82
33.1153	520.98
33.1298	521.90
33.1442	502.53
33.1586	513.22
33.1731	514.08
33.1875	529.66
33.2020	487.16
33.2164	522.45
33.2308	499.75
33.2453	488.17
33.2597	496.39
33.2742	521.75
33.2886	518.29
33.3030	489.11
33.3175	526.44
33.3319	500.40
33.3464	532.55
33.3608	513.87
33.3752	499.96
33.3897	530.85
33.4041	477.21
33.4186	490.16
33.4330	525.02
33.4474	497.37
33.4619	499.25
33.4763	507.98
33.4908	519.05
33.5052	521.82
33.5196	504.24
33.5341	541.94
33.5485	495.01
33.5630	513.69
33.5774	502.35
33.5918	503.97
33.6063	540.30
33.6207	501.91
33.6352	516.05
33.6496	516.65
33.6640	487.96
33.6785	515.87
33.6929	525.28
33.7074	529.36
33.7218	492.19
33.7362	508.06
33.7507	548.90
33.7651	524.18
33.7796	527.85
33.7940	499.82
33.8084	531.00
33.8229	505.84
33.8373	518.99
33.8518	521.51
33.8662	539.97
33.8806	508.44
33.8951	509.54
33.9095	515.13
33.9240	490.56
33.9384	483.86
33.9528	523.56
33.9673	475.47
33.9817	454.53
33.9962	485.99
34.0106	499.56
34.0250	511.10
34.0395	509.54
34.0539	515.57
34.0684	502.49
34.0828	523.53
34.0972	531.48
34.1117	522.66
34.1261	515.04
34.1406	487.92
34.1550	490.03
34.1694	494.05
34.1839	513.19
34.1983	494.17
34.2128	524.82
34.2272	530.66
34.2417	552.18
34.2561	538.37
34.2705	558.93
34.2850	509.01
34.2994	503.05
34.3139	511.81
34.3283	484.78
34.3427	490.43
34.3572	497.19
34.3716	477.78
34.3861	479.13
34.4005	513.38
34.4149	518.76
34.4294	527.56
34.4438	515.13
34.4583	528.02
34.4727	522.19
34.4871	502.46
34.5016	494.87
34.5160	461.06
34.5305	493.72
34.5449	466.09
34.5593	502.24
34.5738	520.74
34.5882	511.27
34.6027	524.42
34.6171	502.20
34.6315	529.20
34.6460	525.10
34.6604	517.53
34.6749	521.61
34.6893	537.44
34.7037	482.34
34.7182	477.95
34.7326	497.74
34.7471	519.06
34.7615	470.99
34.7759	474.48
34.7904	465.25
34.8048	472.04
34.8193	481.81
34.8337	489.69
34.8481	520.38
34.8626	512.19
34.8770	481.49
34.8915	512.66
34.9059	552.69
34.9203	497.14
34.9348	499.94
34.9492	509.64
34.9637	508.49
34.9781	512.97
34.9925	487.43
35.0070	509.86
35.0214	528.69
35.0359	534.33
35.0503	524.86
35.0647	489.86
35.0792	475.96
35.0936	491.30
35.1081	487.60
35.1225	535.64
35.1369	532.19
35.1514	519.50
35.1658	518.33
35.1803	506.46
35.1947	493.63
35.2091	492.31
35.2236	524.58
35.2380	516.90
35.2525	519.06
35.2669	526.07
35.2813	525.56
35.2958	500.49
35.3102	539.56
35.3247	507.33
35.3391	506.35
35.3535	506.86
35.3680	497.93
35.3824	541.32
35.3969	521.13
35.4113	499.34
35.4257	537.97
35.4402	513.20
35.4546	504.22
35.4691	523.38
35.4835	525.90
35.4979	500.83
35.5124	505.78
35.5268	505.68
35.5413	554.11
35.5557	552.01
35.5701	563.16
35.5846	524.54
35.5990	531.39
35.6135	503.15
35.6279	492.53
35.6423	515.35
35.6568	538.07
35.6712	570.51
35.6857	570.27
35.7001	621.16
35.7145	713.57
35.7290	702.11
35.7434	617.43
35.7579	563.16
35.7723	555.09
35.7867	625.59
35.8012	628.90
35.8156	664.94
35.8301	587.91
35.8445	595.22
35.8589	610.27
35.8734	721.13
35.8878	872.06
35.9023	1003.99
35.9167	1062.63
35.9311	1386.48
35.9456	2029.07
35.9600	2348.45
35.9745	1884.04
35.9889	1912.61
36.0033	2221.47
36.0178	2399.64
36.0322	2069.89
36.0467	1875.78
36.0611	1692.82
36.0755	1634.10
36.0900	1747.10
36.1044	1654.38
36.1189	1617.70
36.1333	1420.68
36.1477	1256.91
36.1622	1389.05
36.1766	1356.98
36.1911	1237.80
36.2055	1158.31
36.2199	1108.04
36.2344	1075.20
36.2488	1005.28
36.2633	1028.73
36.2777	993.57
36.2921	918.03
36.3066	869.46
36.3210	836.22
36.3355	796.06
36.3499	734.89
36.3643	699.41
36.3788	638.70
36.3932	628.81
36.4077	603.54
36.4221	614.74
36.4365	605.56
36.4510	582.47
36.4654	567.05
36.4799	600.81
36.4943	539.02
36.5087	552.61
36.5232	549.39
36.5376	587.95
36.5521	521.69
36.5665	514.23
36.5809	540.67
36.5954	552.98
36.6098	531.35
36.6243	544.19
36.6387	544.07
36.6531	539.43
36.6676	529.52
36.6820	527.10
36.6965	543.67
36.7109	526.67
36.7253	524.63
36.7398	520.04
36.7542	530.75
36.7687	538.86
36.7831	534.46
36.7975	586.73
36.8120	564.51
36.8264	582.71
36.8409	594.08
36.8553	602.09
36.8697	594.09
36.8842	583.00
36.8986	633.73
36.9131	560.39
36.9275	580.75
36.9419	612.16
36.9564	566.72
36.9708	541.28
36.9853	535.82
36.9997	561.95
37.0141	503.36
37.0286	557.70
37.0430	553.64
37.0575	563.02
37.0719	535.96
37.0863	526.85
37.1008	529.76
37.1152	522.06
37.1297	504.76
37.1441	500.51
37.1585	501.63
37.1730	502.09
37.1874	477.65
37.2019	477.59
37.2163	500.87
37.2307	500.51
37.2452	502.72
37.2596	508.77
37.2741	517.66
37.2885	494.23
37.3029	506.23
37.3174	492.98
37.3318	463.80
37.3463	502.38
37.3607	543.97
37.3751	504.48
37.3896	489.97
37.4040	464.54
37.4185	527.77
37.4329	509.47
37.4473	504.37
37.4618	518.48
37.4762	494.26
37.4907	462.06
37.5051	490.56
37.5195	481.44
37.5340	463.84
37.5484	501.16
37.5629	486.45
37.5773	510.69
37.5917	515.75
37.6062	508.29
37.6206	532.82
37.6351	508.49
37.6495	528.48
37.6639	530.78
37.6784	515.99
37.6928	508.72
37.7073	493.85
37.7217	491.02
37.7361	509.76
37.7506	493.35
37.7650	482.42
37.7795	505.66
37.7939	504.76
37.8083	501.02
37.8228	549.59
37.8372	513.03
37.8517	526.31
37.8661	502.59
37.8805	488.47
37.8950	530.95
37.9094	519.00
37.9239	532.97
37.9383	522.70
37.9528	490.57
37.9672	487.92
37.9816	510.02
37.9961	496.91
38.0105	446.69
38.0250	489.60
38.0394	473.98
38.0538	502.96
38.0683	508.62
38.0827	553.49
38.0972	505.71
38.1116	486.54
38.1260	526.85
38.1405	514.61
38.1549	503.68
38.1694	492.12
38.1838	498.31
38.1982	517.06
38.2127	521.92
38.2271	510.25
38.2416	487.19
38.2560	509.48
38.2704	497.74
38.2849	528.16
38.2993	505.76
38.3138	537.03
38.3282	485.20
38.3426	474.46
38.3571	494.37
38.3715	516.68
38.3860	533.52
38.4004	530.31
38.4148	539.98
38.4293	555.19
38.4437	580.82
38.4582	606.40
38.4726	661.05
38.4870	693.33
38.5015	718.28
38.5159	795.75
38.5304	819.79
38.5448	778.49
38.5592	789.53
38.5737	764.11
38.5881	723.56
38.6026	725.77
38.6170	694.46
38.6314	726.98
38.6459	626.76
38.6603	643.62
38.6748	603.79
38.6892	589.21
38.7036	556.89
38.7181	557.82
38.7325	531.40
38.7470	539.32
38.7614	544.10
38.7758	511.58
38.7903	502.71
38.8047	515.18
38.8192	513.92
38.8336	517.44
38.8480	497.80
38.8625	499.57
38.8769	508.75
38.8914	495.37
38.9058	520.59
38.9202	478.62
38.9347	488.04
38.9491	523.01
38.9636	501.71
38.9780	496.98
38.9924	516.62
39.0069	527.62
39.0213	547.28
39.0358	529.04
39.0502	485.76
39.0646	524.90
39.0791	491.00
39.0935	497.53
39.1080	505.79
39.1224	531.31
39.1368	542.46
39.1513	492.97
39.1657	476.18
39.1802	500.15
39.1946	488.34
39.2090	490.93
39.2235	495.47
39.2379	518.86
39.2524	504.96
39.2668	491.24
39.2812	509.61
39.2957	500.43
39.3101	513.79
39.3246	505.48
39.3390	517.86
39.3534	490.21
39.3679	484.04
39.3823	517.10
39.3968	530.90
39.4112	513.79
39.4256	509.02
39.4401	509.17
39.4545	479.00
39.4690	522.42
39.4834	475.40
39.4978	504.71
39.5123	496.17
39.5267	494.09
39.5412	514.10
39.5556	516.58
39.5700	520.04
39.5845	502.41
39.5989	470.51
39.6134	488.80
39.6278	505.80
39.6422	501.22
39.6567	508.14
39.6711	475.79
39.6856	493.96
39.7000	521.46
39.7144	513.19
39.7289	504.57
39.7433	497.47
39.7578	471.00
39.7722	501.71
39.7866	536.04
39.8011	514.45
39.8155	481.18
39.8300	480.40
39.8444	460.73
39.8588	499.19
39.8733	507.20
39.8877	480.67
39.9022	540.69
39.9166	557.81
39.9310	482.07
39.9455	503.29
39.9599	516.80
39.9744	497.75
39.9888	427.87
40.0032	474.56
40.0177	514.40
40.0321	504.48
40.0466	486.83
40.0610	489.28
40.0754	475.58
40.0899	484.78
40.1043	447.06
40.1188	509.72
40.1332	523.47
40.1476	495.12
40.1621	480.73
40.1765	522.95
40.1910	477.95
40.2054	483.84
40.2198	494.34
40.2343	524.63
40.2487	512.71
40.2632	523.91
40.2776	460.77
40.2920	461.22
40.3065	483.07
40.3209	479.87
40.3354	495.04
40.3498	474.87
40.3642	490.26
40.3787	481.86
40.3931	455.33
40.4076	497.38
40.4220	510.50
40.4364	520.58
40.4509	511.22
40.4653	531.24
40.4798	527.23
40.4942	501.77
40.5086	492.87
40.5231	518.77
40.5375	499.35
40.5520	481.25
40.5664	476.04
40.5808	497.47
40.5953	516.55
40.6097	479.12
40.6242	494.24
40.6386	513.75
40.6530	503.76
40.6675	476.72
40.6819	485.95
40.6964	495.47
40.7108	484.27
40.7252	514.72
40.7397	514.91
40.7541	491.89
40.7686	516.74
40.7830	502.70
40.7974	485.36
40.8119	467.57
40.8263	466.43
40.8408	498.17
40.8552	526.14
40.8696	488.97
40.8841	504.30
40.8985	477.37
40.9130	480.05
40.9274	488.24
40.9418	486.96
40.9563	514.13
40.9707	464.55
40.9852	508.25
40.9996	495.93
41.0140	510.02
41.0285	516.45
41.0429	525.35
41.0574	522.85
41.0718	499.52
41.0862	487.60
41.1007	489.58
41.1151	503.25
41.1296	515.61
41.1440	482.46
41.1584	475.25
41.1729	489.45
41.1873	492.55
41.2018	493.35
41.2162	484.62
41.2306	500.86
41.2451	494.71
41.2595	490.41
41.2740	489.91
41.2884	481.93
41.3028	523.31
41.3173	497.25
41.3317	509.54
41.3462	492.75
41.3606	482.99
41.3750	461.49
41.3895	497.44
41.4039	488.33
41.4184	508.79
41.4328	472.82
41.4472	487.94
41.4617	502.51
41.4761	516.67
41.4906	484.77
41.5050	483.07
41.5194	484.89
41.5339	517.71
41.5483	508.54
41.5628	537.57
41.5772	518.23
41.5916	489.28
41.6061	512.00
41.6205	521.30
41.6350	483.81
41.6494	507.69
41.6639	515.02
41.6783	506.15
41.6927	528.12
41.7072	509.55
41.7216	490.60
41.7361	468.68
41.7505	473.94
41.7649	538.84
41.7794	519.23
41.7938	473.12
41.8083	502.10
41.8227	510.38
41.8371	479.28
41.8516	515.30
41.8660	520.13
41.8805	524.98
41.8949	519.58
41.9093	538.58
41.9238	542.57
41.9382	570.86
41.9527	533.66
41.9671	531.92
41.9815	538.76
41.9960	532.38
42.0104	586.04
42.0249	544.90
42.0393	549.26
42.0537	563.15
42.0682	599.91
42.0826	564.73
42.0971	587.12
42.1115	587.75
42.1259	549.03
42.1404	557.34
42.1548	595.16
42.1693	635.04
42.1837	689.43
42.1981	741.26
42.2126	824.07
42.2270	882.94
42.2415	1038.05
42.2559	1166.10
42.2703	1291.42
42.2848	1448.56
42.2992	1550.88
42.3137	1627.67
42.3281	1634.37
42.3425	1527.24
42.3570	1448.27
42.3714	1392.06
42.3859	1290.06
42.4003	1258.61
42.4147	1281.91
42.4292	1218.87
42.4436	1091.91
42.4581	1010.41
42.4725	974.09
42.4869	806.23
42.5014	718.99
42.5158	701.47
42.5303	660.26
42.5447	629.09
42.5591	632.52
42.5736	608.24
42.5880	573.06
42.6025	565.97
42.6169	554.46
42.6313	524.36
42.6458	535.56
42.6602	538.33
42.6747	521.97
42.6891	530.94
42.7035	536.00
42.7180	535.23
42.7324	523.28
42.7469	531.95
42.7613	529.12
42.7757	529.57
42.7902	509.87
42.8046	510.80
42.8191	522.18
42.8335	532.48
42.8479	513.13
42.8624	500.86
42.8768	503.74
42.8913	519.86
42.9057	530.19
42.9201	529.68
42.9346	533.05
42.9490	505.56
42.9635	488.24
42.9779	498.22
42.9923	507.87
43.0068	490.86
43.0212	524.73
43.0357	509.29
43.0501	495.80
43.0645	525.63
43.0790	511.62
43.0934	510.39
43.1079	485.34
43.1223	532.35
43.1367	537.87
43.1512	527.79
43.1656	544.90
43.1801	520.83
43.1945	471.85
43.2089	513.83
43.2234	503.71
43.2378	490.40
43.2523	498.65
43.2667	504.53
43.2811	544.02
43.2956	522.86
43.3100	548.36
43.3245	564.14
43.3389	532.68
43.3533	508.82
43.3678	509.81
43.3822	531.29
43.3967	547.40
43.4111	500.22
43.4255	518.25
43.4400	509.37
43.4544	504.83
43.4689	514.33
43.4833	547.70
43.4977	529.30
43.5122	525.57
43.5266	501.33
43.5411	511.59
43.5555	525.15
43.5699	512.30
43.5844	514.05
43.5988	511.32
43.6133	528.09
43.6277	514.97
43.6421	528.40
43.6566	552.11
43.6710	524.23
43.6855	509.19
43.6999	532.01
43.7143	522.34
43.7288	520.55
43.7432	515.05
43.7577	538.62
43.7721	520.93
43.7865	508.23
43.8010	526.13
43.8154	513.10
43.8299	510.82
43.8443	525.99
43.8587	568.54
43.8732	589.22
43.8876	523.48
43.9021	539.57
43.9165	518.82
43.9309	593.23
43.9454	579.66
43.9598	587.71
43.9743	641.56
43.9887	611.58
44.0031	647.24
44.0176	635.13
44.0320	647.24
44.0465	658.07
44.0609	623.88
44.0753	596.21
44.0898	615.46
44.1042	615.71
44.1187	610.07
44.1331	616.33
44.1475	603.96
44.1620	584.75
44.1764	562.70
44.1909	556.36
44.2053	515.74
44.2197	547.99
44.2342	544.97
44.2486	533.79
44.2631	513.58
44.2775	540.22
44.2919	537.78
44.3064	621.72
44.3208	569.79
44.3353	510.42
44.3497	502.09
44.3641	530.78
44.3786	550.62
44.3930	559.07
44.4075	505.99
44.4219	554.73
44.4363	563.99
44.4508	564.34
44.4652	632.58
44.4797	581.69
44.4941	584.61
44.5085	599.41
44.5230	563.36
44.5374	586.24
44.5519	560.22
44.5663	574.32
44.5807	524.05
44.5952	571.13
44.6096	585.15
44.6241	564.40
44.6385	598.85
44.6529	576.95
44.6674	581.95
44.6818	590.77
44.6963	640.10
44.7107	670.81
44.7251	700.49
44.7396	775.36
44.7540	813.96
44.7685	789.20
44.7829	888.19
44.7973	858.15
44.8118	872.30
44.8262	842.68
44.8407	770.35
44.8551	784.40
44.8695	744.70
44.8840	735.15
44.8984	749.96
44.9129	705.38
44.9273	701.96
44.9417	657.78
44.9562	565.72
44.9706	552.64
44.9851	531.66
44.9995	531.46
45.0139	524.41
45.0284	545.04
45.0428	552.01
45.0573	549.24
45.0717	517.53
45.0861	519.33
45.1006	535.85
45.1150	515.21
45.1295	513.60
45.1439	519.75
45.1583	500.31
45.1728	517.76
45.1872	477.67
45.2017	477.40
45.2161	501.31
45.2305	497.15
45.2450	522.46
45.2594	537.97
45.2739	509.19
45.2883	523.52
45.3028	490.77
45.3172	512.05
45.3316	497.78
45.3461	506.08
45.3605	513.14
45.3750	499.15
45.3894	525.60
45.4038	498.35
45.4183	459.58
45.4327	535.77
45.4472	486.57
45.4616	512.98
45.4760	517.44
45.4905	502.99
45.5049	494.25
45.5194	517.10
45.5338	519.96
45.5482	506.42
45.5627	503.98
45.5771	474.75
45.5916	507.44
45.6060	496.69
45.6204	512.52
45.6349	548.23
45.6493	488.15
45.6638	516.12
45.6782	523.64
45.6926	504.85
45.7071	528.97
45.7215	526.79
45.7360	503.53
45.7504	501.69
45.7648	483.99
45.7793	515.04
45.7937	519.86
45.8082	536.82
45.8226	499.38
45.8370	546.79
45.8515	509.20
45.8659	507.20
45.8804	521.56
45.8948	493.99
45.9092	516.17
45.9237	551.77
45.9381	503.51
45.9526	492.68
45.9670	501.75
45.9814	517.87
45.9959	478.90
46.0103	471.13
46.0248	500.54
46.0392	468.73
46.0536	458.15
46.0681	501.28
46.0825	530.29
46.0970	533.03
46.1114	521.93
46.1258	511.58
46.1403	498.37
46.1547	486.64
46.1692	515.35
46.1836	495.89
46.1980	478.28
46.2125	493.71
46.2269	479.29
46.2414	470.31
46.2558	491.31
46.2702	506.37
46.2847	497.25
46.2991	499.40
46.3136	500.20
46.3280	508.57
46.3424	500.40
46.3569	494.86
46.3713	485.31
46.3858	498.54
46.4002	494.91
46.4146	481.83
46.4291	530.26
46.4435	491.40
46.4580	507.03
46.4724	503.89
46.4868	493.36
46.5013	510.01
46.5157	511.88
46.5302	509.22
46.5446	481.76
46.5590	513.79
46.5735	498.28
46.5879	510.65
46.6024	497.99
46.6168	505.99
46.6312	486.27
46.6457	499.58
46.6601	515.30
46.6746	515.29
46.6890	482.51
46.7034	501.99
46.7179	498.30
46.7323	500.80
46.7468	505.35
46.7612	525.48
46.7756	514.38
46.7901	505.77
46.8045	504.45
46.8190	492.96
46.8334	486.81
46.8478	549.57
46.8623	541.95
46.8767	533.94
46.8912	538.21
46.9056	523.13
46.9200	482.38
46.9345	531.53
46.9489	529.93
46.9634	494.06
46.9778	494.54
46.9922	509.16
47.0067	497.74
47.0211	511.83
47.0356	532.53
47.0500	511.24
47.0644	516.50
47.0789	537.50
47.0933	534.13
47.1078	501.87
47.1222	518.57
47.1366	499.51
47.1511	501.63
47.1655	538.72
47.1800	542.49
47.1944	498.83
47.2088	507.96
47.2233	504.61
47.2377	504.86
47.2522	506.39
47.2666	531.52
47.2810	524.60
47.2955	486.55
47.3099	518.67
47.3244	517.86
47.3388	522.03
47.3532	518.15
47.3677	523.29
47.3821	471.72
47.3966	473.45
47.4110	480.09
47.4254	511.02
47.4399	497.44
47.4543	511.00
47.4688	490.13
47.4832	473.88
47.4976	477.45
47.5121	495.44
47.5265	521.33
47.5410	481.98
47.5554	484.56
47.5698	482.26
47.5843	496.05
47.5987	526.94
47.6132	500.97
47.6276	489.03
47.6420	494.96
47.6565	475.57
47.6709	495.62
47.6854	468.67
47.6998	479.91
47.7142	497.60
47.7287	517.70
47.7431	486.00
47.7576	494.94
47.7720	530.03
47.7864	498.33
47.8009	511.86
47.8153	519.25
47.8298	507.48
47.8442	486.43
47.8586	507.37
47.8731	531.36
47.8875	539.31
47.9020	536.91
47.9164	475.33
47.9308	508.32
47.9453	523.62
47.9597	482.09
47.9742	483.87
47.9886	500.04
48.0030	505.83
48.0175	492.96
48.0319	531.83
48.0464	525.77
48.0608	534.59
48.0752	529.55
48.0897	510.52
48.1041	487.41
48.1186	518.40
48.1330	509.00
48.1474	463.28
48.1619	494.23
48.1763	494.66
48.1908	504.31
48.2052	505.78
48.2196	503.31
48.2341	508.10
48.2485	508.41
48.2630	529.99
48.2774	495.95
48.2918	492.01
48.3063	501.44
48.3207	495.18
48.3352	536.85
48.3496	498.35
48.3640	495.11
48.3785	497.92
48.3929	496.15
48.4074	502.03
48.4218	533.39
48.4362	529.04
48.4507	519.46
48.4651	511.79
48.4796	518.81
48.4940	525.98
48.5084	514.02
48.5229	501.55
48.5373	540.43
48.5518	545.24
48.5662	502.87
48.5806	508.62
48.5951	518.71
48.6095	530.61
48.6240	504.14
48.6384	533.62
48.6528	503.53
48.6673	496.67
48.6817	490.67
48.6962	479.36
48.7106	548.88
48.7250	523.94
48.7395	529.89
48.7539	507.53
48.7684	567.05
48.7828	539.28
48.7972	514.37
48.8117	536.22
48.8261	534.89
48.8406	531.38
48.8550	525.08
48.8694	558.56
48.8839	526.29
48.8983	545.92
48.9128	505.49
48.9272	550.09
48.9416	520.45
48.9561	562.33
48.9705	521.24
48.9850	551.82
48.9994	599.36
49.0139	585.47
49.0283	618.27
49.0427	585.38
49.0572	649.84
49.0716	639.79
49.0861	641.39
49.1005	682.17
49.1149	669.48
49.1294	714.27
49.1438	742.86
49.1583	779.67
49.1727	818.34
49.1871	872.51
49.2016	958.83
49.2160	1005.15
49.2305	1061.52
49.2449	1175.80
49.2593	1270.12
49.2738	1290.38
49.2882	1418.32
49.3027	1478.70
49.3171	1535.64
49.3315	1715.16
49.3460	1759.65
49.3604	1715.18
49.3749	1750.49
49.3893	1708.56
49.4037	1729.54
49.4182	1757.79
49.4326	1659.93
49.4471	1652.44
49.4615	1537.15
49.4759	1489.10
49.4904	1453.16
49.5048	1428.31
49.5193	1296.44
49.5337	1261.95
49.5481	1139.97
49.5626	1150.59
49.5770	1028.34
49.5915	1017.04
49.6059	898.83
49.6203	861.49
49.6348	858.26
49.6492	810.29
49.6637	738.61
49.6781	705.68
49.6925	682.70
49.7070	695.89
49.7214	665.46
49.7359	642.47
49.7503	635.51
49.7647	592.40
49.7792	622.19
49.7936	617.02
49.8081	571.19
49.8225	545.40
49.8369	569.61
49.8514	550.77
49.8658	561.95
49.8803	574.66
49.8947	550.73
49.9091	517.09
49.9236	535.80
49.9380	563.77
49.9525	539.75
49.9669	508.75
49.9813	510.36
49.9958	525.45
50.0102	509.98
50.0247	526.38
50.0391	501.83
50.0535	508.99
50.0680	547.10
50.0824	526.85
50.0969	503.46
50.1113	521.96
50.1257	520.30
50.1402	497.50
50.1546	515.88
50.1691	532.55
50.1835	528.26
50.1979	492.42
50.2124	532.95
50.2268	507.34
50.2413	525.14
50.2557	544.86
50.2701	527.86
50.2846	511.61
50.2990	505.42
50.3135	520.48
50.3279	512.61
50.3423	517.46
50.3568	542.45
50.3712	518.02
50.3857	520.54
50.4001	503.23
50.4145	533.60
50.4290	551.73
50.4434	482.48
50.4579	499.39
50.4723	521.39
50.4867	530.93
50.5012	517.24
50.5156	514.39
50.5301	535.70
50.5445	496.08
50.5589	484.18
50.5734	512.87
50.5878	511.26
50.6023	514.20
50.6167	492.04
50.6311	501.49
50.6456	493.49
50.6600	500.17
50.6745	516.83
50.6889	490.99
50.7033	513.49
50.7178	541.29
50.7322	496.99
50.7467	489.59
50.7611	510.88
50.7755	523.13
50.7900	527.67
50.8044	540.26
50.8189	527.92
50.8333	525.96
50.8477	501.79
50.8622	503.44
50.8766	523.13
50.8911	509.43
50.9055	524.47
50.9199	523.31
50.9344	539.02
50.9488	528.84
50.9633	465.83
50.9777	458.18
50.9921	522.30
51.0066	539.02
51.0210	496.83
51.0355	498.16
51.0499	494.45
51.0643	495.76
51.0788	463.75
51.0932	521.53
51.1077	543.70
51.1221	550.40
51.1365	521.04
51.1510	496.38
51.1654	533.75
51.1799	516.64
51.1943	506.09
51.2087	487.33
51.2232	510.68
51.2376	519.20
51.2521	494.24
51.2665	503.47
51.2809	517.32
51.2954	502.47
51.3098	520.24
51.3243	510.10
51.3387	527.96
51.3531	479.27
51.3676	494.80
51.3820	540.92
51.3965	523.60
51.4109	511.71
51.4253	535.76
51.4398	500.61
51.4542	484.88
51.4687	498.46
51.4831	511.74
51.4975	500.11
51.5120	485.99
51.5264	509.00
51.5409	501.06
51.5553	498.53
51.5697	510.62
51.5842	485.33
51.5986	517.51
51.6131	519.98
51.6275	518.38
51.6419	513.00
51.6564	512.37
51.6708	492.23
51.6853	506.09
51.6997	521.18
51.7141	518.62
51.7286	504.34
51.7430	492.68
51.7575	511.60
51.7719	523.76
51.7863	527.97
51.8008	487.24
51.8152	510.84
51.8297	536.05
51.8441	489.14
51.8585	523.39
51.8730	489.59
51.8874	485.00
51.9019	551.68
51.9163	506.33
51.9307	476.80
51.9452	539.99
51.9596	506.81
51.9741	473.93
51.9885	524.11
52.0029	548.77
52.0174	510.77
52.0318	506.50
52.0463	517.62
52.0607	515.02
52.0751	555.05
52.0896	506.29
52.1040	497.44
52.1185	503.65
52.1329	507.80
52.1473	494.45
52.1618	530.11
52.1762	533.14
52.1907	517.55
52.2051	511.44
52.2195	520.30
52.2340	488.06
52.2484	476.22
52.2629	492.98
52.2773	517.63
52.2917	562.27
52.3062	515.47
52.3206	517.13
52.3351	523.54
52.3495	529.96
52.3639	544.31
52.3784	539.57
52.3928	501.56
52.4073	494.76
52.4217	524.33
52.4361	516.17
52.4506	507.18
52.4650	528.73
52.4795	526.53
52.4939	530.55
52.5083	487.81
52.5228	461.45
52.5372	526.34
52.5517	535.24
52.5661	517.16
52.5805	480.22
52.5950	498.17
52.6094	527.45
52.6239	510.18
52.6383	510.44
52.6527	541.56
52.6672	486.84
52.6816	504.68
52.6961	471.07
52.7105	514.54
52.7250	505.27
52.7394	487.13
52.7538	521.76
52.7683	511.76
52.7827	543.98
52.7972	509.44
52.8116	525.54
52.8260	494.18
52.8405	498.96
52.8549	492.23
52.8694	526.78
52.8838	485.32
52.8982	500.37
52.9127	512.54
52.9271	530.13
52.9416	542.80
52.9560	537.03
52.9704	537.16
52.9849	501.33
52.9993	521.27
53.0138	529.20
53.0282	530.07
53.0426	496.10
53.0571	500.74
53.0715	528.74
53.0860	492.01
53.1004	529.63
53.1148	489.93
53.1293	518.02
53.1437	485.66
53.1582	522.11
53.1726	527.82
53.1870	500.35
53.2015	505.32
53.2159	518.30
53.2304	474.67
53.2448	540.44
53.2592	542.17
53.2737	534.08
53.2881	512.14
53.3026	499.17
53.3170	510.68
53.3314	545.76
53.3459	504.02
53.3603	503.63
53.3748	523.01
53.3892	547.14
53.4036	503.23
53.4181	504.43
53.4325	532.00
53.4470	510.68
53.4614	503.46
53.4758	556.71
53.4903	536.94
53.5047	511.75
53.5192	477.96
53.5336	488.64
53.5480	541.33
53.5625	494.68
53.5769	516.48
53.5914	528.19
53.6058	515.51
53.6202	512.40
53.6347	546.11
53.6491	515.47
53.6636	515.69
53.6780	510.81
53.6924	499.02
53.7069	503.82
53.7213	502.91
53.7358	479.91
53.7502	504.26
53.7646	511.04
53.7791	548.03
53.7935	516.82
53.8080	555.87
53.8224	543.49
53.8368	513.96
53.8513	527.44
53.8657	544.08
53.8802	536.60
53.8946	517.54
53.9090	532.64
53.9235	521.12
53.9379	495.60
53.9524	489.79
53.9668	497.58
53.9812	487.92
53.9957	488.33
54.0101	509.10
54.0246	527.54
54.0390	495.01
54.0534	500.65
54.0679	517.23
54.0823	543.02
54.0968	529.75
54.1112	506.05
54.1256	529.30
54.1401	527.37
54.1545	514.48
54.1690	550.45
54.1834	528.07
54.1978	490.13
54.2123	510.17
54.2267	546.64
54.2412	523.70
54.2556	538.48
54.2700	543.60
54.2845	552.79
54.2989	539.41
54.3134	544.38
54.3278	558.65
54.3422	541.17
54.3567	541.18
54.3711	556.01
54.3856	541.29
54.4000	501.53
54.4144	514.58
54.4289	591.48
54.4433	538.20
54.4578	576.73
54.4722	559.27
54.4866	557.17
54.5011	550.56
54.5155	556.69
54.5300	589.38
54.5444	610.69
54.5588	593.29
54.5733	541.83
54.5877	561.17
54.6022	567.68
54.6166	570.82
54.6310	602.57
54.6455	603.62
54.6599	619.80
54.6744	598.55
54.6888	538.85
54.7032	598.11
54.7177	586.08
54.7321	538.20
54.7466	548.04
54.7610	554.09
54.7754	519.06
54.7899	558.53
54.8043	560.77
54.8188	556.50
54.8332	555.05
54.8476	533.55
54.8621	537.52
54.8765	537.26
54.8910	550.69
54.9054	550.10
54.9198	546.66
54.9343	566.95
54.9487	548.08
54.9632	508.09
54.9776	500.87
54.9920	531.47
55.0065	514.29
55.0209	542.14
55.0354	514.80
55.0498	516.90
55.0642	554.74
55.0787	534.65
55.0931	521.76
55.1076	494.90
55.1220	480.39
55.1364	498.61
55.1509	510.31
55.1653	533.13
55.1798	501.83
55.1942	515.81
55.2086	516.02
55.2231	513.22
55.2375	497.15
55.2520	515.83
55.2664	491.21
55.2808	509.22
55.2953	501.08
55.3097	514.40
55.3242	518.89
55.3386	511.14
55.3530	516.17
55.3675	520.98
55.3819	539.41
55.3964	534.85
55.4108	511.95
55.4252	539.00
55.4397	555.27
55.4541	544.94
55.4686	533.97
55.4830	506.70
55.4974	495.49
55.5119	518.17
55.5263	499.08
55.5408	493.96
55.5552	530.67
55.5696	489.28
55.5841	496.69
55.5985	524.55
55.6130	533.23
55.6274	503.35
55.6418	519.33
55.6563	542.34
55.6707	505.75
55.6852	521.54
55.6996	525.40
55.7140	531.10
55.7285	518.07
55.7429	521.00
55.7574	553.12
55.7718	494.02
55.7862	517.41
55.8007	528.67
55.8151	554.63
55.8296	531.09
55.8440	494.88
55.8584	570.22
55.8729	539.07
55.8873	521.98
55.9018	526.48
55.9162	546.01
55.9306	555.70
55.9451	512.98
55.9595	521.77
55.9740	516.30
55.9884	483.09
56.0028	521.78
56.0173	520.24
56.0317	508.10
56.0462	539.87
56.0606	523.75
56.0750	544.26
56.0895	529.13
56.1039	504.42
56.1184	491.64
56.1328	502.39
56.1472	510.62
56.1617	510.02
56.1761	501.70
56.1906	546.06
56.2050	523.92
56.2194	508.00
56.2339	516.45
56.2483	575.37
56.2628	543.60
56.2772	552.15
56.2916	520.30
56.3061	505.13
56.3205	530.58
56.3350	544.25
56.3494	524.15
56.3639	533.72
56.3783	500.22
56.3927	511.74
56.4072	489.59
56.4216	534.06
56.4361	538.35
56.4505	531.31
56.4649	512.96
56.4794	533.24
56.4938	535.03
56.5083	532.32
56.5227	555.36
56.5371	530.51
56.5516	508.74
56.5660	533.48
56.5805	542.96
56.5949	543.11
56.6093	535.35
56.6238	497.34
56.6382	536.16
56.6527	484.32
56.6671	523.96
56.6815	527.99
56.6960	505.80
56.7104	511.34
56.7249	493.31
56.7393	474.21
56.7537	494.18
56.7682	520.74
56.7826	531.15
56.7971	503.70
56.8115	522.41
56.8259	505.67
56.8404	528.31
56.8548	529.20
56.8693	528.99
56.8837	514.02
56.8981	528.78
56.9126	528.50
56.9270	511.81
56.9415	524.88
56.9559	536.08
56.9703	521.03
56.9848	537.50
56.9992	522.35
57.0137	516.74
57.0281	549.98
57.0425	496.16
57.0570	532.93
57.0714	532.71
57.0859	530.09
57.1003	548.11
57.1147	521.92
57.1292	525.49
57.1436	495.60
57.1581	508.05
57.1725	512.78
57.1869	501.93
57.2014	530.58
57.2158	531.30
57.2303	519.23
57.2447	534.63
57.2591	525.73
57.2736	503.53
57.2880	544.94
57.3025	539.04
57.3169	527.91
57.3313	529.62
57.3458	545.75
57.3602	528.19
57.3747	511.27
57.3891	513.99
57.4035	522.02
57.4180	521.13
57.4324	540.65
57.4469	515.65
57.4613	515.71
57.4757	543.87
57.4902	541.06
57.5046	498.19
57.5191	502.70
57.5335	522.85
57.5479	487.76
57.5624	499.76
57.5768	509.08
57.5913	508.24
57.6057	543.28
57.6201	521.42
57.6346	516.35
57.6490	503.61
57.6635	484.10
57.6779	511.47
57.6923	473.20
57.7068	545.84
57.7212	501.99
57.7357	507.88
57.7501	515.23
57.7645	516.17
57.7790	532.76
57.7934	534.41
57.8079	524.33
57.8223	546.19
57.8367	514.67
57.8512	503.64
57.8656	540.90
57.8801	530.48
57.8945	524.76
57.9089	543.25
57.9234	517.44
57.9378	546.25
57.9523	558.72
57.9667	518.90
57.9811	513.65
57.9956	545.05
58.0100	586.19
58.0245	570.11
58.0389	577.56
58.0533	522.20
58.0678	550.46
58.0822	575.66
58.0967	593.53
58.1111	583.08
58.1255	574.38
58.1400	577.82
58.1544	614.89
58.1689	644.58
58.1833	642.02
58.1977	670.96
58.2122	663.71
58.2266	683.63
58.2411	719.94
58.2555	708.21
58.2699	705.61
58.2844	664.68
58.2988	658.00
58.3133	662.30
58.3277	651.71
58.3421	689.69
58.3566	674.86
58.3710	631.98
58.3855	636.81
58.3999	611.70
58.4143	614.43
58.4288	641.50
58.4432	610.98
58.4577	592.25
58.4721	628.92
58.4865	577.71
58.5010	556.55
58.5154	574.75
58.5299	566.42
58.5443	558.48
58.5587	592.40
58.5732	570.54
58.5876	589.60
58.6021	553.48
58.6165	535.05
58.6309	534.63
58.6454	534.67
58.6598	551.56
58.6743	566.89
58.6887	579.70
58.7031	528.28
58.7176	536.26
58.7320	546.15
58.7465	558.71
58.7609	546.60
58.7753	525.75
58.7898	545.15
58.8042	575.24
58.8187	549.36
58.8331	523.25
58.8475	528.38
58.8620	527.32
58.8764	536.75
58.8909	546.05
58.9053	519.98
58.9197	542.88
58.9342	517.38
58.9486	541.11
58.9631	540.30
58.9775	521.42
58.9919	543.04
59.0064	523.34
59.0208	516.43
59.0353	519.42
59.0497	545.02
59.0641	562.79
59.0786	541.22
59.0930	543.48
59.1075	536.89
59.1219	539.93
59.1363	549.28
59.1508	501.97
59.1652	527.24
59.1797	569.41
59.1941	494.04
59.2085	527.26
59.2230	542.50
59.2374	531.36
59.2519	553.77
59.2663	542.56
59.2807	526.22
59.2952	488.57
59.3096	520.15
59.3241	562.02
59.3385	591.62
59.3529	566.10
59.3674	546.12
59.3818	565.51
59.3963	548.13
59.4107	515.71
59.4251	559.97
59.4396	567.41
59.4540	571.78
59.4685	593.31
59.4829	548.84
59.4973	539.15
59.5118	539.14
59.5262	545.50
59.5407	560.42
59.5551	554.00
59.5695	542.65
59.5840	539.65
59.5984	556.30
59.6129	552.86
59.6273	526.36
59.6417	531.79
59.6562	560.50
59.6706	530.64
59.6851	546.53
59.6995	551.06
59.7139	520.91
59.7284	535.49
59.7428	520.68
59.7573	507.82
59.7717	551.01
59.7861	532.47
59.8006	517.06
59.8150	526.36
59.8295	529.82
59.8439	524.55
59.8583	534.02
59.8728	522.19
59.8872	506.29
59.9017	561.02
59.9161	548.62
59.9305	544.42
59.9450	510.33
59.9594	538.62
59.9739	518.07
59.9883	552.35
60.0027	568.25
60.0172	555.93
60.0316	509.25
60.0461	512.59
60.0605	524.66
60.0750	537.22
60.0894	552.40
60.1038	529.09
60.1183	538.83
60.1327	523.34
60.1472	507.09
60.1616	525.70
60.1760	521.89
60.1905	491.73
60.2049	519.27
60.2194	561.52
60.2338	509.33
60.2482	537.99
60.2627	541.27
60.2771	524.93
60.2916	536.08
60.3060	529.02
60.3204	569.20
60.3349	567.63
60.3493	567.23
60.3638	541.80
60.3782	517.42
60.3926	511.98
60.4071	540.92
60.4215	569.02
60.4360	584.87
60.4504	509.09
60.4648	543.05
60.4793	553.38
60.4937	582.92
60.5082	532.57
60.5226	558.36
60.5370	546.04
60.5515	521.68
60.5659	550.92
60.5804	556.67
60.5948	567.41
60.6092	536.23
60.6237	534.27
60.6381	584.79
60.6526	522.78
60.6670	520.99
60.6814	530.01
60.6959	580.04
60.7103	560.38
60.7248	548.77
60.7392	514.97
60.7536	566.33
60.7681	542.86
60.7825	547.34
60.7970	555.66
60.8114	521.46
60.8258	527.76
60.8403	576.20
60.8547	542.04
60.8692	548.17
60.8836	508.37
60.8980	537.20
60.9125	551.16
60.9269	483.52
60.9414	487.99
60.9558	554.00
60.9702	552.80
60.9847	519.65
60.9991	504.27
61.0136	533.41
61.0280	505.08
61.0424	553.45
61.0569	509.16
61.0713	574.42
61.0858	543.79
61.1002	530.35
61.1146	574.15
61.1291	551.51
61.1435	541.52
61.1580	501.26
61.1724	560.13
61.1868	551.26
61.2013	517.47
61.2157	516.19
61.2302	534.90
61.2446	533.85
61.2590	523.43
61.2735	528.88
61.2879	554.85
61.3024	560.70
61.3168	536.82
61.3312	563.79
61.3457	561.92
61.3601	558.80
61.3746	547.10
61.3890	534.82
61.4034	526.90
61.4179	544.99
61.4323	569.13
61.4468	512.23
61.4612	511.95
61.4756	565.74
61.4901	541.64
61.5045	518.11
61.5190	527.79
61.5334	564.77
61.5478	561.99
61.5623	567.52
61.5767	543.56
61.5912	556.16
61.6056	529.96
61.6200	514.25
61.6345	538.50
61.6489	541.51
61.6634	525.74
61.6778	561.63
61.6922	527.77
61.7067	559.57
61.7211	542.17
61.7356	545.18
61.7500	550.77
61.7644	517.92
61.7789	557.22
61.7933	537.32
61.8078	536.67
61.8222	570.55
61.8366	564.05
61.8511	549.80
61.8655	591.84
61.8800	557.20
61.8944	587.20
61.9088	571.43
61.9233	541.90
61.9377	536.82
61.9522	538.58
61.9666	558.37
61.9810	566.68
61.9955	558.25
62.0099	539.98
62.0244	553.81
62.0388	592.48
62.0532	576.94
62.0677	558.97
62.0821	582.54
62.0966	538.85
62.1110	523.85
62.1254	539.68
62.1399	519.10
62.1543	573.65
62.1688	560.55
62.1832	517.16
62.1976	548.84
62.2121	538.05
62.2265	547.98
62.2410	573.09
62.2554	526.39
62.2698	536.20
62.2843	576.22
62.2987	577.31
62.3132	575.74
62.3276	551.14
62.3420	559.05
62.3565	532.38
62.3709	535.26
62.3854	566.94
62.3998	530.70
62.4142	578.28
62.4287	575.64
62.4431	566.95
62.4576	579.11
62.4720	558.63
62.4864	542.95
62.5009	560.80
62.5153	550.61
62.5298	572.81
62.5442	551.07
62.5586	558.20
62.5731	587.33
62.5875	593.58
62.6020	590.95
62.6164	561.64
62.6308	548.25
62.6453	579.79
62.6597	540.33
62.6742	529.08
62.6886	552.94
62.7030	587.58
62.7175	567.64
62.7319	551.48
62.7464	524.85
62.7608	526.96
62.7752	540.60
62.7897	546.34
62.8041	565.13
62.8186	576.32
62.8330	533.80
62.8474	532.71
62.8619	559.40
62.8763	567.38
62.8908	556.38
62.9052	575.62
62.9196	577.11
62.9341	549.66
62.9485	556.62
62.9630	576.09
62.9774	588.86
62.9918	578.80
63.0063	587.99
63.0207	592.01
63.0352	594.85
63.0496	575.25
63.0640	566.88
63.0785	581.81
63.0929	558.22
63.1074	597.54
63.1218	598.74
63.1362	577.15
63.1507	540.53
63.1651	560.10
63.1796	573.61
63.1940	503.93
63.2084	557.79
63.2229	564.45
63.2373	548.26
63.2518	578.89
63.2662	562.81
63.2806	547.71
63.2951	567.62
63.3095	562.54
63.3240	603.99
63.3384	607.24
63.3528	559.74
63.3673	584.81
63.3817	573.35
63.3962	573.51
63.4106	581.11
63.4250	590.31
63.4395	624.85
63.4539	582.37
63.4684	569.45
63.4828	589.10
63.4972	594.84
63.5117	612.84
63.5261	603.63
63.5406	561.81
63.5550	591.18
63.5694	590.27
63.5839	584.61
63.5983	571.06
63.6128	592.81
63.6272	575.29
63.6416	614.93
63.6561	593.73
63.6705	595.11
63.6850	591.28
63.6994	599.07
63.7138	617.42
63.7283	590.79
63.7427	618.71
63.7572	632.94
63.7716	641.13
63.7861	618.01
63.8005	585.84
63.8149	638.83
63.8294	702.19
63.8438	679.03
63.8583	728.66
63.8727	723.21
63.8871	702.84
63.9016	772.88
63.9160	789.79
63.9305	808.02
63.9449	853.53
63.9593	875.55
63.9738	849.64
63.9882	849.87
64.0027	853.45
64.0171	790.59
64.0315	809.58
64.0460	754.75
64.0604	804.40
64.0749	771.33
64.0893	815.41
64.1037	785.76
64.1182	782.11
64.1326	793.11
64.1471	726.05
64.1615	778.49
64.1759	736.95
64.1904	741.86
64.2048	718.66
64.2193	716.28
64.2337	722.35
64.2481	695.34
64.2626	658.37
64.2770	674.27
64.2915	658.56
64.3059	658.17
64.3203	631.11
64.3348	657.94
64.3492	626.49
64.3637	640.53
64.3781	631.28
64.3925	645.83
64.4070	633.84
64.4214	683.12
64.4359	614.50
64.4503	649.74
64.4647	681.82
64.4792	645.79
64.4936	633.73
64.5081	631.27
64.5225	642.89
64.5369	654.03
64.5514	638.23
64.5658	612.39
64.5803	669.27
64.5947	648.46
64.6091	665.87
64.6236	621.25
64.6380	631.35
64.6525	629.28
64.6669	653.52
64.6813	665.91
64.6958	689.97
64.7102	725.63
64.7247	751.18
64.7391	664.29
64.7535	693.04
64.7680	671.80
64.7824	708.19
64.7969	756.08
64.8113	770.38
64.8257	774.58
64.8402	823.93
64.8546	828.05
64.8691	799.33
64.8835	839.90
64.8979	937.18
64.9124	885.73
64.9268	893.67
64.9413	922.24
64.9557	946.72
64.9701	977.99
64.9846	1122.61
64.9990	1141.76
65.0135	1281.12
65.0279	1576.78
65.0423	1762.08
65.0568	2222.51
65.0712	2770.25
65.0857	3451.44
65.1001	4572.19
65.1145	6262.27
65.1290	8273.17
65.1434	9658.16
65.1579	11195.71
65.1723	12083.55
65.1867	11323.33
65.2012	9930.41
65.2156	8236.67
65.2301	6581.07
65.2445	5294.20
65.2589	4502.88
65.2734	4298.70
65.2878	4524.00
65.3023	5137.58
65.3167	6112.70
65.3311	6791.71
65.3456	7241.67
65.3600	7041.09
65.3745	6377.81
65.3889	5439.49
65.4033	4307.21
65.4178	3367.50
65.4322	2648.75
65.4467	2011.29
65.4611	1656.35
65.4755	1479.08
65.4900	1303.47
65.5044	1180.90
65.5189	1079.57
65.5333	970.89
65.5477	915.68
65.5622	909.11
65.5766	856.06
65.5911	815.56
65.6055	822.23
65.6199	826.52
65.6344	791.69
65.6488	759.55
65.6633	766.55
65.6777	720.44
65.6921	683.15
65.7066	719.94
65.7210	765.46
65.7355	665.34
65.7499	709.24
65.7643	675.81
65.7788	678.59
65.7932	698.72
65.8077	676.59
65.8221	712.50
65.8365	681.92
65.8510	667.06
65.8654	644.97
65.8799	632.58
65.8943	638.32
65.9087	621.61
65.9232	629.05
65.9376	627.37
65.9521	585.97
65.9665	628.24
65.9809	654.57
65.9954	621.36
66.0098	599.06
66.0243	612.25
66.0387	617.89
66.0531	649.12
66.0676	644.74
66.0820	617.00
66.0965	616.44
66.1109	598.61
66.1253	631.74
66.1398	624.38
66.1542	613.25
66.1687	608.70
66.1831	598.44
66.1975	614.56
66.2120	636.61
66.2264	584.55
66.2409	618.53
66.2553	599.19
66.2697	618.46
66.2842	616.28
66.2986	614.12
66.3131	588.03
66.3275	560.60
66.3419	571.45
66.3564	585.39
66.3708	568.91
66.3853	589.67
66.3997	647.08
66.4141	596.17
66.4286	646.00
66.4430	626.29
66.4575	601.06
66.4719	603.64
66.4863	586.33
66.5008	594.36
66.5152	593.29
66.5297	599.48
66.5441	576.84
66.5585	594.98
66.5730	614.38
66.5874	582.76
66.6019	594.20
66.6163	650.46
66.6307	616.60
66.6452	571.87
66.6596	579.92
66.6741	578.01
66.6885	586.14
66.7029	599.36
66.7174	567.61
66.7318	576.42
66.7463	576.29
66.7607	590.11
66.7751	600.00
66.7896	590.09
66.8040	582.21
66.8185	590.93
66.8329	611.72
66.8473	596.43
66.8618	570.66
66.8762	566.38
66.8907	577.78
66.9051	607.52
66.9195	599.63
66.9340	604.34
66.9484	593.32
66.9629	567.09
66.9773	566.21
66.9917	545.73
67.0062	540.23
67.0206	597.10
67.0351	580.67
67.0495	551.51
67.0639	594.21
67.0784	600.67
67.0928	633.66
67.1073	567.34
67.1217	570.53
67.1361	596.55
67.1506	591.83
67.1650	616.67
67.1795	600.64
67.1939	542.28
67.2083	567.47
67.2228	597.97
67.2372	559.25
67.2517	554.55
67.2661	564.89
67.2805	580.17
67.2950	566.09
67.3094	561.85
67.3239	537.45
67.3383	566.86
67.3527	580.06
67.3672	563.61
67.3816	579.91
67.3961	578.85
67.4105	582.47
67.4250	602.08
67.4394	558.92
67.4538	534.37
67.4683	603.54
67.4827	596.26
67.4972	556.06
67.5116	553.67
67.5260	577.67
67.5405	579.63
67.5549	557.76
67.5694	539.63
67.5838	558.16
67.5982	586.56
67.6127	585.14
67.6271	577.97
67.6416	615.52
67.6560	583.23
67.6704	548.93
67.6849	539.56
67.6993	588.97
67.7138	598.90
67.7282	553.48
67.7426	594.37
67.7571	569.83
67.7715	563.30
67.7860	576.95
67.8004	578.66
67.8148	564.07
67.8293	582.81
67.8437	552.16
67.8582	587.14
67.8726	631.59
67.8870	566.88
67.9015	600.94
67.9159	608.82
67.9304	579.28
67.9448	560.21
67.9592	555.48
67.9737	569.38
67.9881	579.91
68.0026	572.42
68.0170	590.22
68.0314	595.22
68.0459	528.78
68.0603	578.37
68.0748	571.00
68.0892	613.12
68.1036	578.93
68.1181	593.91
68.1325	580.27
68.1470	565.58
68.1614	589.29
68.1758	565.58
68.1903	563.44
68.2047	534.30
68.2192	589.63
68.2336	563.29
68.2480	574.45
68.2625	553.64
68.2769	585.51
68.2914	564.01
68.3058	536.17
68.3202	551.46
68.3347	610.56
68.3491	535.22
68.3636	559.20
68.3780	577.38
68.3924	573.46
68.4069	558.56
68.4213	568.59
68.4358	572.57
68.4502	555.39
68.4646	590.13
68.4791	544.24
68.4935	577.35
68.5080	599.95
68.5224	621.90
68.5368	581.11
68.5513	618.32
68.5657	576.29
68.5802	571.49
68.5946	558.53
68.6090	541.33
68.6235	551.32
68.6379	602.69
68.6524	552.87
68.6668	553.49
68.6812	561.30
68.6957	555.36
68.7101	592.77
68.7246	563.17
68.7390	563.17
68.7534	578.26
68.7679	616.50
68.7823	576.45
68.7968	574.40
68.8112	597.32
68.8256	598.46
68.8401	567.64
68.8545	523.75
68.8690	549.99
68.8834	573.45
68.8978	587.29
68.9123	535.22
68.9267	580.34
68.9412	610.96
68.9556	545.12
68.9700	560.03
68.9845	566.43
68.9989	599.76
69.0134	577.42
69.0278	597.67
69.0422	575.07
69.0567	585.94
69.0711	574.64
69.0856	583.02
69.1000	558.59
69.1144	537.67
69.1289	587.55
69.1433	525.88
69.1578	550.94
69.1722	600.81
69.1866	556.45
69.2011	546.88
69.2155	551.89
69.2300	607.39
69.2444	603.48
69.2588	602.33
69.2733	592.58
69.2877	577.58
69.3022	555.54
69.3166	533.52
69.3310	594.13
69.3455	570.08
69.3599	539.37
69.3744	580.19
69.3888	547.00
69.4032	592.96
69.4177	562.49
69.4321	605.63
69.4466	553.66
69.4610	592.97
69.4754	543.92
69.4899	554.07
69.5043	572.23
69.5188	563.64
69.5332	579.83
69.5476	538.30
69.5621	575.60
69.5765	551.44
69.5910	549.80
69.6054	578.27
69.6198	539.36
69.6343	545.38
69.6487	586.29
69.6632	598.61
69.6776	550.31
69.6920	550.09
69.7065	559.63
69.7209	592.26
69.7354	552.10
69.7498	520.89
69.7642	523.37
69.7787	597.31
69.7931	590.07
69.8076	561.21
69.8220	552.51
69.8364	586.73
69.8509	611.44
69.8653	561.57
69.8798	611.60
69.8942	578.85
69.9086	539.01
69.9231	547.45
69.9375	564.10
69.9520	567.96
69.9664	520.29
69.9808	587.13
69.9953	597.66
70.0097	603.14
70.0242	535.87
70.0386	569.43
70.0530	650.34
70.0675	625.16
70.0819	609.97
70.0964	608.04
70.1108	560.21
70.1252	581.53
70.1397	577.52
70.1541	561.03
70.1686	562.28
70.1830	561.66
70.1974	565.01
70.2119	585.89
70.2263	527.62
70.2408	594.79
70.2552	603.59
70.2696	545.31
70.2841	590.61
70.2985	591.94
70.3130	576.28
70.3274	587.94
70.3418	565.92
70.3563	579.84
70.3707	558.02
70.3852	569.35
70.3996	569.85
70.4140	568.43
70.4285	624.66
70.4429	574.27
70.4574	531.97
70.4718	575.65
70.4862	598.90
70.5007	581.29
70.5151	564.66
70.5296	598.66
70.5440	603.10
70.5584	594.62
70.5729	525.86
70.5873	528.96
70.6018	590.99
70.6162	620.50
70.6306	630.07
70.6451	592.13
70.6595	571.74
70.6740	609.21
70.6884	628.88
70.7028	578.70
70.7173	584.52
70.7317	558.25
70.7462	550.56
70.7606	529.93
70.7750	586.88
70.7895	596.22
70.8039	623.75
70.8184	612.54
70.8328	638.47
70.8472	583.87
70.8617	536.25
70.8761	529.99
70.8906	547.76
70.9050	553.10
70.9194	572.16
70.9339	612.41
70.9483	591.88
70.9628	559.18
70.9772	557.90
70.9916	583.45
71.0061	587.05
71.0205	540.60
71.0350	630.59
71.0494	619.25
71.0638	632.15
71.0783	636.45
71.0927	596.11
71.1072	568.06
71.1216	617.07
71.1361	549.76
71.1505	513.38
71.1649	548.83
71.1794	613.79
71.1938	616.20
71.2083	575.85
71.2227	585.28
71.2371	585.60
71.2516	618.67
71.2660	637.55
71.2805	563.71
71.2949	542.70
71.3093	582.94
71.3238	550.75
71.3382	588.07
71.3527	574.27
71.3671	531.69
71.3815	530.17
71.3960	543.19
71.4104	550.06
71.4249	559.39
71.4393	531.72
71.4537	547.15
71.4682	605.96
71.4826	619.25
71.4971	556.39
71.5115	499.51
71.5259	553.69
71.5404	585.75
71.5548	579.27
71.5693	600.93
71.5837	613.88
71.5981	592.19
71.6126	607.29
71.6270	570.54
71.6415	561.91
71.6559	587.66
71.6703	598.42
71.6848	587.33
71.6992	590.79
71.7137	579.43
71.7281	566.50
71.7425	596.60
71.7570	542.89
71.7714	545.82
71.7859	565.19
71.8003	591.81
71.8147	617.04
71.8292	563.90
71.8436	594.21
71.8581	556.48
71.8725	567.65
71.8869	588.60
71.9014	598.40
71.9158	583.58
71.9303	522.36
71.9447	540.94
71.9591	556.79
71.9736	512.63
71.9880	560.48
72.0025	593.13
72.0169	560.28
72.0313	611.16
72.0458	604.88
72.0602	556.98
72.0747	556.27
72.0891	575.57
72.1035	595.90
72.1180	564.49
72.1324	567.53
72.1469	563.92
72.1613	535.76
72.1757	541.13
72.1902	596.32
72.2046	623.44
72.2191	562.62
72.2335	553.02
72.2479	560.31
72.2624	547.19
72.2768	604.67
72.2913	628.84
72.3057	586.84
72.3201	558.20
72.3346	572.72
72.3490	522.00
72.3635	508.70
72.3779	584.23
72.3923	625.67
72.4068	673.61
72.4212	685.17
72.4357	677.31
72.4501	566.49
72.4645	561.96
72.4790	567.36
72.4934	529.53
72.5079	549.53
72.5223	545.48
72.5367	592.75
72.5512	554.33
72.5656	509.37
72.5801	567.71
72.5945	553.71
72.6089	577.07
72.6234	534.66
72.6378	566.63
72.6523	636.02
72.6667	625.60
72.6811	596.67
72.6956	590.36
72.7100	616.43
72.7245	600.25
72.7389	584.26
72.7533	538.77
72.7678	470.31
72.7822	464.75
72.7967	518.38
72.8111	628.74
72.8255	683.08
72.8400	595.48
72.8544	534.70
72.8689	583.77
72.8833	536.94