2022.09.19 19:37:16
Îáðàçåö: ß÷åéêà LCoV 16-09-2022
Lambda1 = 1.54060
Lambda2 = 1.54439
Lambdam = 1.54186
R = 0.497
2Theta	I

line¹ 0 ;repeat¹ 0
22.1120	551.24
22.1264	559.51
22.1409	526.27
22.1553	590.46
22.1697	587.69
22.1842	638.35
22.1986	627.63
22.2131	570.50
22.2275	539.07
22.2419	616.84
22.2564	500.72
22.2708	514.51
22.2853	501.47
22.2997	539.56
22.3141	646.32
22.3286	563.99
22.3430	568.54
22.3575	540.99
22.3719	556.30
22.3863	564.38
22.4008	576.59
22.4152	534.47
22.4297	557.83
22.4441	522.18
22.4585	631.81
22.4730	701.65
22.4874	619.99
22.5019	570.87
22.5163	552.19
22.5307	534.58
22.5452	621.75
22.5596	528.57
22.5741	576.61
22.5885	562.64
22.6029	517.89
22.6174	534.84
22.6318	539.36
22.6463	555.10
22.6607	586.15
22.6751	636.35
22.6896	595.10
22.7040	612.00
22.7185	648.57
22.7329	552.29
22.7473	538.17
22.7618	492.99
22.7762	607.81
22.7907	561.98
22.8051	550.87
22.8195	591.10
22.8340	588.96
22.8484	517.88
22.8629	579.33
22.8773	543.37
22.8917	527.74
22.9062	625.42
22.9206	634.16
22.9351	529.01
22.9495	562.17
22.9639	563.51
22.9784	576.61
22.9928	579.07
23.0073	622.65
23.0217	594.24
23.0361	537.99
23.0506	511.83
23.0650	529.76
23.0795	590.71
23.0939	587.44
23.1083	539.39
23.1228	498.74
23.1372	544.64
23.1517	517.07
23.1661	487.47
23.1806	463.87
23.1950	527.44
23.2094	554.07
23.2239	558.11
23.2383	621.50
23.2528	608.29
23.2672	570.80
23.2816	561.83
23.2961	554.79
23.3105	577.02
23.3250	532.63
23.3394	590.49
23.3538	538.58
23.3683	529.21
23.3827	531.16
23.3972	516.45
23.4116	508.13
23.4260	536.22
23.4405	602.25
23.4549	570.81
23.4694	558.24
23.4838	635.63
23.4982	497.00
23.5127	559.03
23.5271	548.40
23.5416	514.67
23.5560	604.54
23.5704	539.86
23.5849	508.93
23.5993	563.09
23.6138	526.59
23.6282	606.27
23.6426	540.81
23.6571	546.42
23.6715	528.87
23.6860	512.24
23.7004	609.90
23.7148	547.02
23.7293	609.92
23.7437	590.12
23.7582	549.39
23.7726	511.15
23.7870	556.73
23.8015	526.84
23.8159	576.32
23.8304	478.71
23.8448	552.88
23.8592	583.49
23.8737	579.60
23.8881	572.82
23.9026	569.40
23.9170	557.06
23.9314	535.72
23.9459	563.46
23.9603	544.50
23.9748	565.52
23.9892	552.09
24.0036	554.42
24.0181	611.29
24.0325	569.70
24.0470	518.92
24.0614	591.39
24.0758	540.23
24.0903	524.14
24.1047	556.21
24.1192	588.58
24.1336	601.79
24.1480	533.50
24.1625	566.50
24.1769	568.40
24.1914	563.30
24.2058	604.30
24.2202	572.08
24.2347	638.54
24.2491	600.44
24.2636	560.32
24.2780	558.43
24.2924	584.52
24.3069	616.83
24.3213	612.16
24.3358	567.81
24.3502	602.31
24.3646	576.78
24.3791	599.17
24.3935	594.24
24.4080	554.47
24.4224	551.84
24.4368	518.34
24.4513	571.87
24.4657	592.06
24.4802	534.03
24.4946	564.57
24.5090	571.87
24.5235	575.98
24.5379	562.93
24.5524	534.67
24.5668	556.24
24.5812	575.18
24.5957	593.38
24.6101	601.14
24.6246	589.37
24.6390	569.44
24.6534	532.29
24.6679	562.83
24.6823	474.34
24.6968	568.79
24.7112	587.88
24.7256	588.26
24.7401	513.03
24.7545	603.23
24.7690	547.15
24.7834	563.10
24.7978	532.45
24.8123	551.66
24.8267	569.37
24.8412	578.34
24.8556	521.67
24.8700	546.52
24.8845	575.12
24.8989	553.47
24.9134	584.92
24.9278	516.39
24.9422	519.13
24.9567	547.45
24.9711	537.07
24.9856	515.49
25.0000	540.98
25.0144	536.41
25.0289	561.33
25.0433	515.84
25.0578	506.18
25.0722	559.26
25.0866	545.29
25.1011	497.96
25.1155	542.43
25.1300	519.01
25.1444	525.74
25.1588	544.70
25.1733	507.42
25.1877	527.20
25.2022	508.63
25.2166	517.55
25.2310	513.25
25.2455	490.74
25.2599	516.03
25.2744	598.13
25.2888	559.84
25.3032	531.74
25.3177	533.08
25.3321	514.43
25.3466	559.19
25.3610	566.92
25.3754	556.32
25.3899	536.84
25.4043	559.51
25.4188	547.00
25.4332	575.07
25.4476	562.05
25.4621	531.34
25.4765	554.54
25.4910	535.84
25.5054	535.72
25.5198	556.20
25.5343	537.57
25.5487	528.87
25.5632	543.43
25.5776	544.06
25.5920	502.40
25.6065	511.63
25.6209	532.67
25.6354	549.40
25.6498	535.80
25.6642	549.42
25.6787	527.29
25.6931	559.41
25.7076	545.05
25.7220	522.78
25.7364	492.69
25.7509	552.25
25.7653	545.56
25.7798	560.74
25.7942	561.98
25.8086	551.88
25.8231	531.02
25.8375	565.00
25.8520	600.04
25.8664	518.51
25.8808	505.45
25.8953	541.91
25.9097	547.18
25.9242	550.21
25.9386	564.59
25.9530	555.87
25.9675	508.51
25.9819	517.33
25.9964	523.12
26.0108	521.30
26.0252	540.85
26.0397	557.74
26.0541	534.92
26.0686	523.85
26.0830	536.62
26.0974	515.65
26.1119	534.85
26.1263	535.14
26.1408	525.48
26.1552	513.05
26.1696	534.47
26.1841	529.86
26.1985	534.33
26.2130	519.42
26.2274	511.04
26.2418	509.21
26.2563	540.05
26.2707	549.01
26.2852	536.39
26.2996	536.48
26.3140	503.76
26.3285	509.62
26.3429	550.83
26.3574	545.26
26.3718	548.48
26.3862	538.66
26.4007	506.64
26.4151	518.41
26.4296	519.82
26.4440	513.23
26.4584	505.38
26.4729	526.78
26.4873	519.48
26.5018	553.78
26.5162	519.80
26.5306	562.95
26.5451	522.07
26.5595	519.34
26.5740	518.48
26.5884	533.03
26.6028	549.94
26.6173	528.25
26.6317	532.36
26.6462	535.66
26.6606	505.92
26.6750	504.70
26.6895	509.40
26.7039	534.47
26.7184	565.69
26.7328	535.85
26.7472	522.73
26.7617	535.19
26.7761	507.81
26.7906	532.42
26.8050	547.23
26.8194	536.93
26.8339	525.81
26.8483	499.56
26.8628	541.48
26.8772	528.46
26.8917	501.40
26.9061	521.83
26.9205	509.29
26.9350	535.86
26.9494	553.49
26.9639	547.09
26.9783	552.40
26.9927	505.71
27.0072	502.25
27.0216	536.36
27.0361	535.40
27.0505	558.68
27.0649	542.59
27.0794	520.73
27.0938	559.50
27.1083	540.14
27.1227	516.30
27.1371	509.43
27.1516	510.28
27.1660	526.76
27.1805	521.63
27.1949	524.83
27.2093	530.17
27.2238	524.87
27.2382	514.79
27.2527	508.19
27.2671	543.26
27.2815	542.82
27.2960	511.76
27.3104	494.34
27.3249	522.63
27.3393	501.59
27.3537	543.71
27.3682	520.73
27.3826	477.91
27.3971	480.72
27.4115	506.17
27.4259	556.30
27.4404	550.61
27.4548	542.35
27.4693	535.89
27.4837	535.18
27.4981	531.42
27.5126	503.96
27.5270	519.31
27.5415	545.70
27.5559	505.61
27.5703	499.04
27.5848	507.80
27.5992	521.92
27.6137	534.12
27.6281	527.34
27.6425	496.33
27.6570	473.33
27.6714	507.95
27.6859	494.14
27.7003	501.70
27.7147	545.14
27.7292	511.71
27.7436	505.88
27.7581	491.99
27.7725	501.40
27.7869	516.80
27.8014	518.34
27.8158	513.59
27.8303	513.08
27.8447	468.23
27.8591	518.10
27.8736	537.86
27.8880	523.81
27.9025	506.60
27.9169	510.08
27.9313	510.33
27.9458	504.41
27.9602	474.52
27.9747	514.42
27.9891	527.18
28.0035	510.46
28.0180	535.78
28.0324	551.05
28.0469	520.77
28.0613	510.92
28.0757	487.66
28.0902	509.87
28.1046	512.91
28.1191	527.73
28.1335	532.71
28.1479	524.25
28.1624	501.74
28.1768	510.21
28.1913	538.11
28.2057	493.75
28.2201	504.07
28.2346	518.75
28.2490	533.21
28.2635	507.95
28.2779	526.79
28.2923	519.21
28.3068	513.37
28.3212	506.05
28.3357	529.73
28.3501	547.17
28.3645	503.87
28.3790	497.93
28.3934	536.05
28.4079	529.42
28.4223	518.08
28.4367	519.52
28.4512	516.87
28.4656	556.27
28.4801	528.01
28.4945	537.98
28.5089	512.44
28.5234	519.20
28.5378	512.38
28.5523	537.57
28.5667	545.65
28.5811	489.47
28.5956	507.86
28.6100	490.93
28.6245	504.78
28.6389	519.86
28.6533	534.25
28.6678	528.42
28.6822	505.48
28.6967	483.18
28.7111	511.45
28.7255	513.13
28.7400	487.83
28.7544	499.56
28.7689	506.86
28.7833	509.80
28.7977	500.14
28.8122	492.34
28.8266	482.52
28.8411	512.99
28.8555	542.45
28.8699	500.68
28.8844	520.34
28.8988	540.44
28.9133	528.28
28.9277	496.16
28.9421	533.65
28.9566	503.04
28.9710	501.59
28.9855	474.65
28.9999	495.59
29.0143	533.68
29.0288	496.04
29.0432	518.81
29.0577	503.37
29.0721	513.31
29.0865	509.56
29.1010	491.81
29.1154	509.11
29.1299	526.14
29.1443	485.59
29.1587	479.06
29.1732	489.70
29.1876	501.07
29.2021	495.82
29.2165	532.86
29.2309	502.93
29.2454	517.60
29.2598	531.45
29.2743	539.31
29.2887	525.78
29.3031	469.48
29.3176	514.39
29.3320	511.40
29.3465	503.58
29.3609	512.27
29.3753	479.11
29.3898	489.34
29.4042	486.84
29.4187	530.89
29.4331	549.66
29.4475	496.53
29.4620	507.89
29.4764	491.68
29.4909	519.83
29.5053	510.15
29.5197	502.59
29.5342	523.94
29.5486	503.12
29.5631	505.07
29.5775	489.71
29.5919	518.07
29.6064	496.22
29.6208	504.19
29.6353	497.71
29.6497	478.62
29.6641	525.52
29.6786	522.68
29.6930	488.10
29.7075	514.36
29.7219	481.81
29.7363	471.44
29.7508	538.36
29.7652	495.35
29.7797	497.56
29.7941	508.39
29.8085	513.99
29.8230	489.57
29.8374	481.91
29.8519	480.39
29.8663	537.31
29.8807	507.92
29.8952	498.01
29.9096	505.04
29.9241	484.67
29.9385	496.52
29.9529	500.01
29.9674	484.91
29.9818	512.05
29.9963	519.93
30.0107	521.70
30.0251	545.12
30.0396	505.48
30.0540	471.03
30.0685	514.01
30.0829	519.02
30.0973	501.96
30.1118	522.82
30.1262	516.22
30.1407	494.17
30.1551	488.05
30.1695	489.02
30.1840	513.99
30.1984	499.91
30.2129	510.87
30.2273	489.20
30.2417	498.82
30.2562	486.33
30.2706	527.37
30.2851	537.91
30.2995	530.77
30.3139	483.13
30.3284	501.81
30.3428	502.30
30.3573	506.13
30.3717	534.81
30.3861	532.43
30.4006	539.63
30.4150	507.32
30.4295	503.64
30.4439	531.49
30.4583	560.23
30.4728	550.97
30.4872	533.45
30.5017	504.94
30.5161	508.84
30.5305	515.29
30.5450	483.78
30.5594	507.49
30.5739	535.55
30.5883	530.94
30.6028	535.24
30.6172	537.73
30.6316	556.01
30.6461	587.02
30.6605	598.62
30.6750	574.53
30.6894	614.10
30.7038	684.96
30.7183	698.56
30.7327	722.95
30.7472	720.72
30.7616	699.91
30.7760	684.42
30.7905	714.31
30.8049	703.78
30.8194	691.52
30.8338	650.58
30.8482	655.35
30.8627	658.00
30.8771	604.56
30.8916	581.23
30.9060	576.41
30.9204	535.54
30.9349	532.72
30.9493	556.17
30.9638	555.42
30.9782	541.88
30.9926	527.17
31.0071	519.72
31.0215	503.90
31.0360	539.81
31.0504	508.47
31.0648	502.02
31.0793	521.91
31.0937	513.94
31.1082	519.36
31.1226	508.45
31.1370	508.25
31.1515	488.79
31.1659	509.27
31.1804	530.59
31.1948	498.09
31.2092	485.78
31.2237	543.01
31.2381	514.22
31.2526	494.19
31.2670	529.55
31.2814	543.73
31.2959	522.64
31.3103	528.02
31.3248	530.38
31.3392	535.05
31.3536	512.66
31.3681	517.15
31.3825	538.37
31.3970	512.59
31.4114	523.13
31.4258	536.66
31.4403	519.42
31.4547	478.20
31.4692	493.64
31.4836	496.48
31.4980	527.83
31.5125	501.62
31.5269	516.02
31.5414	484.94
31.5558	481.08
31.5702	509.87
31.5847	539.48
31.5991	500.31
31.6136	513.62
31.6280	506.41
31.6424	513.54
31.6569	503.90
31.6713	506.60
31.6858	512.66
31.7002	506.88
31.7146	503.42
31.7291	504.30
31.7435	512.06
31.7580	501.03
31.7724	505.79
31.7868	514.24
31.8013	508.65
31.8157	463.50
31.8302	495.65
31.8446	535.54
31.8590	521.55
31.8735	547.61
31.8879	521.73
31.9024	514.96
31.9168	471.53
31.9312	473.87
31.9457	522.75
31.9601	510.98
31.9746	502.42
31.9890	546.06
32.0034	502.83
32.0179	485.47
32.0323	510.52
32.0468	537.68
32.0612	521.21
32.0756	518.87
32.0901	511.30
32.1045	493.04
32.1190	501.75
32.1334	507.19
32.1478	497.76
32.1623	502.35
32.1767	488.98
32.1912	518.35
32.2056	521.78
32.2200	506.11
32.2345	499.60
32.2489	510.96
32.2634	509.14
32.2778	468.29
32.2922	517.43
32.3067	515.18
32.3211	493.10
32.3356	508.22
32.3500	503.50
32.3644	487.57
32.3789	494.46
32.3933	509.76
32.4078	535.56
32.4222	541.74
32.4366	533.04
32.4511	476.23
32.4655	511.06
32.4800	523.89
32.4944	505.84
32.5088	484.59
32.5233	515.75
32.5377	506.34
32.5522	504.42
32.5666	501.22
32.5810	507.78
32.5955	500.18
32.6099	501.11
32.6244	533.20
32.6388	507.59
32.6532	478.78
32.6677	497.21
32.6821	486.40
32.6966	488.34
32.7110	540.97
32.7254	509.47
32.7399	505.81
32.7543	470.38
32.7688	488.82
32.7832	492.90
32.7976	495.68
32.8121	496.19
32.8265	475.53
32.8410	500.46
32.8554	498.33
32.8698	512.12
32.8843	477.82
32.8987	509.78
32.9132	473.06
32.9276	554.77
32.9420	515.81
32.9565	461.44
32.9709	507.32
32.9854	512.47
32.9998	525.94
33.0142	478.63
33.0287	531.77
33.0431	508.10
33.0576	504.22
33.0720	505.01
33.0864	556.48
33.1009	522.99
33.1153	539.90
33.1298	526.08
33.1442	447.83
33.1586	493.13
33.1731	511.80
33.1875	504.75
33.2020	498.59
33.2164	515.76
33.2308	485.93
33.2453	538.70
33.2597	492.36
33.2742	488.13
33.2886	508.10
33.3030	518.55
33.3175	507.04
33.3319	490.97
33.3464	517.79
33.3608	483.84
33.3752	509.12
33.3897	502.38
33.4041	520.36
33.4186	530.88
33.4330	517.44
33.4474	501.14
33.4619	523.24
33.4763	547.82
33.4908	504.03
33.5052	480.48
33.5196	506.16
33.5341	505.31
33.5485	513.34
33.5630	521.36
33.5774	494.00
33.5918	502.46
33.6063	523.31
33.6207	539.27
33.6352	540.45
33.6496	506.48
33.6640	526.37
33.6785	497.82
33.6929	521.43
33.7074	480.30
33.7218	504.23
33.7362	525.97
33.7507	529.87
33.7651	492.10
33.7796	492.47
33.7940	501.94
33.8084	514.06
33.8229	491.58
33.8373	490.67
33.8518	495.54
33.8662	545.00
33.8806	511.67
33.8951	500.61
33.9095	515.14
33.9240	477.20
33.9384	478.06
33.9528	498.16
33.9673	528.74
33.9817	500.37
33.9962	527.54
34.0106	556.33
34.0250	506.23
34.0395	515.17
34.0539	512.76
34.0684	474.97
34.0828	511.08
34.0972	481.98
34.1117	479.59
34.1261	520.59
34.1406	501.12
34.1550	489.47
34.1694	525.50
34.1839	501.40
34.1983	504.37
34.2128	474.03
34.2272	506.10
34.2417	526.14
34.2561	477.26
34.2705	473.71
34.2850	494.55
34.2994	516.72
34.3139	479.29
34.3283	510.31
34.3427	506.99
34.3572	511.57
34.3716	506.80
34.3861	515.63
34.4005	473.35
34.4149	491.36
34.4294	525.58
34.4438	546.40
34.4583	507.83
34.4727	499.13
34.4871	484.32
34.5016	501.30
34.5160	487.53
34.5305	491.50
34.5449	498.52
34.5593	496.63
34.5738	521.93
34.5882	516.90
34.6027	502.65
34.6171	516.30
34.6315	540.81
34.6460	516.42
34.6604	508.72
34.6749	521.78
34.6893	521.34
34.7037	507.92
34.7182	492.41
34.7326	485.63
34.7471	510.36
34.7615	502.43
34.7759	512.80
34.7904	502.85
34.8048	497.13
34.8193	502.13
34.8337	510.75
34.8481	501.29
34.8626	516.37
34.8770	499.71
34.8915	528.57
34.9059	553.25
34.9203	500.07
34.9348	492.60
34.9492	501.92
34.9637	486.51
34.9781	514.25
34.9925	482.57
35.0070	510.10
35.0214	509.76
35.0359	503.42
35.0503	480.60
35.0647	510.02
35.0792	518.05
35.0936	504.61
35.1081	487.37
35.1225	519.40
35.1369	527.50
35.1514	497.95
35.1658	531.07
35.1803	474.04
35.1947	493.97
35.2091	489.46
35.2236	497.97
35.2380	503.60
35.2525	515.92
35.2669	522.86
35.2813	557.98
35.2958	501.82
35.3102	522.36
35.3247	514.34
35.3391	509.37
35.3535	495.65
35.3680	519.94
35.3824	501.10
35.3969	502.91
35.4113	489.66
35.4257	510.78
35.4402	524.58
35.4546	522.23
35.4691	533.55
35.4835	535.08
35.4979	540.14
35.5124	530.17
35.5268	545.38
35.5413	573.80
35.5557	545.55
35.5701	507.99
35.5846	511.89
35.5990	500.75
35.6135	522.24
35.6279	518.20
35.6423	532.66
35.6568	559.00
35.6712	563.63
35.6857	565.37
35.7001	647.03
35.7145	713.87
35.7290	668.01
35.7434	602.47
35.7579	537.39
35.7723	567.66
35.7867	604.15
35.8012	629.07
35.8156	641.23
35.8301	597.48
35.8445	576.41
35.8589	663.60
35.8734	706.57
35.8878	834.59
35.9023	999.01
35.9167	1078.71
35.9311	1345.64
35.9456	2045.28
35.9600	2408.30
35.9745	1889.58
35.9889	1929.38
36.0033	2317.32
36.0178	2388.91
36.0322	2033.22
36.0467	1872.57
36.0611	1717.32
36.0755	1661.23
36.0900	1690.81
36.1044	1644.45
36.1189	1582.94
36.1333	1413.03
36.1477	1261.72
36.1622	1332.59
36.1766	1285.42
36.1911	1179.02
36.2055	1129.06
36.2199	1122.65
36.2344	1099.84
36.2488	1043.94
36.2633	1019.07
36.2777	990.96
36.2921	962.43
36.3066	875.58
36.3210	839.94
36.3355	822.69
36.3499	777.36
36.3643	791.54
36.3788	701.57
36.3932	620.95
36.4077	567.41
36.4221	615.69
36.4365	593.78
36.4510	585.98
36.4654	558.48
36.4799	592.98
36.4943	607.08
36.5087	572.30
36.5232	567.20
36.5376	580.55
36.5521	598.76
36.5665	529.73
36.5809	514.47
36.5954	546.17
36.6098	562.85
36.6243	518.23
36.6387	509.35
36.6531	538.09
36.6676	546.81
36.6820	521.87
36.6965	514.87
36.7109	551.68
36.7253	566.25
36.7398	530.04
36.7542	537.51
36.7687	510.83
36.7831	531.41
36.7975	546.73
36.8120	584.73
36.8264	584.92
36.8409	576.99
36.8553	588.32
36.8697	598.15
36.8842	605.35
36.8986	610.83
36.9131	584.94
36.9275	608.53
36.9419	589.70
36.9564	542.37
36.9708	553.11
36.9853	558.47
36.9997	594.79
37.0141	554.01
37.0286	526.89
37.0430	515.86
37.0575	510.80
37.0719	531.50
37.0863	531.29
37.1008	513.16
37.1152	548.02
37.1297	506.39
37.1441	485.03
37.1585	483.85
37.1730	479.74
37.1874	509.94
37.2019	497.65
37.2163	495.03
37.2307	524.85
37.2452	513.58
37.2596	507.03
37.2741	497.11
37.2885	515.94
37.3029	471.43
37.3174	458.75
37.3318	500.08
37.3463	500.27
37.3607	503.61
37.3751	495.59
37.3896	534.75
37.4040	519.29
37.4185	505.77
37.4329	508.84
37.4473	503.66
37.4618	486.34
37.4762	505.01
37.4907	504.85
37.5051	494.58
37.5195	467.06
37.5340	512.49
37.5484	522.07
37.5629	487.80
37.5773	529.96
37.5917	519.43
37.6062	506.49
37.6206	519.19
37.6351	508.68
37.6495	520.07
37.6639	493.73
37.6784	481.55
37.6928	466.36
37.7073	491.58
37.7217	463.14
37.7361	491.99
37.7506	544.18
37.7650	520.06
37.7795	520.92
37.7939	509.71
37.8083	482.72
37.8228	503.72
37.8372	469.50
37.8517	509.95
37.8661	507.58
37.8805	515.22
37.8950	537.99
37.9094	512.61
37.9239	532.10
37.9383	502.29
37.9528	496.82
37.9672	527.88
37.9816	525.51
37.9961	494.23
38.0105	521.75
38.0250	511.32
38.0394	500.82
38.0538	491.01
38.0683	500.27
38.0827	525.41
38.0972	485.78
38.1116	499.23
38.1260	526.35
38.1405	503.65
38.1549	483.22
38.1694	490.05
38.1838	494.01
38.1982	479.61
38.2127	502.18
38.2271	498.91
38.2416	508.78
38.2560	512.53
38.2704	516.66
38.2849	541.78
38.2993	523.10
38.3138	487.33
38.3282	505.40
38.3426	508.49
38.3571	494.34
38.3715	512.58
38.3860	507.75
38.4004	529.85
38.4148	551.38
38.4293	606.42
38.4437	584.67
38.4582	622.57
38.4726	690.62
38.4870	738.00
38.5015	778.94
38.5159	776.76
38.5304	779.87
38.5448	837.84
38.5592	808.75
38.5737	745.24
38.5881	726.18
38.6026	695.98
38.6170	695.76
38.6314	677.37
38.6459	691.50
38.6603	657.10
38.6748	606.85
38.6892	572.89
38.7036	554.63
38.7181	529.89
38.7325	529.52
38.7470	555.35
38.7614	550.53
38.7758	518.90
38.7903	512.55
38.8047	499.57
38.8192	513.26
38.8336	505.27
38.8480	483.48
38.8625	485.20
38.8769	500.03
38.8914	511.13
38.9058	525.77
38.9202	515.53
38.9347	525.88
38.9491	511.92
38.9636	522.20
38.9780	493.52
38.9924	482.90
39.0069	486.81
39.0213	509.61
39.0358	498.75
39.0502	486.77
39.0646	532.06
39.0791	507.83
39.0935	523.11
39.1080	493.57
39.1224	492.06
39.1368	481.02
39.1513	481.12
39.1657	523.18
39.1802	531.21
39.1946	502.58
39.2090	511.04
39.2235	490.66
39.2379	520.72
39.2524	513.16
39.2668	510.72
39.2812	515.20
39.2957	500.55
39.3101	535.83
39.3246	507.81
39.3390	507.28
39.3534	535.61
39.3679	520.07
39.3823	496.36
39.3968	496.95
39.4112	521.26
39.4256	512.21
39.4401	487.11
39.4545	498.50
39.4690	513.30
39.4834	490.33
39.4978	502.87
39.5123	516.18
39.5267	522.90
39.5412	483.53
39.5556	490.95
39.5700	471.65
39.5845	498.55
39.5989	480.76
39.6134	524.33
39.6278	527.09
39.6422	494.65
39.6567	451.98
39.6711	475.70
39.6856	478.84
39.7000	520.00
39.7144	537.72
39.7289	491.65
39.7433	502.08
39.7578	467.12
39.7722	474.23
39.7866	501.50
39.8011	514.90
39.8155	475.46
39.8300	502.42
39.8444	512.13
39.8588	485.08
39.8733	505.73
39.8877	515.89
39.9022	517.75
39.9166	496.00
39.9310	517.65
39.9455	495.94
39.9599	482.57
39.9744	479.25
39.9888	523.53
40.0032	488.92
40.0177	495.39
40.0321	478.07
40.0466	497.74
40.0610	493.46
40.0754	526.78
40.0899	504.37
40.1043	493.68
40.1188	516.37
40.1332	500.07
40.1476	475.31
40.1621	498.44
40.1765	512.31
40.1910	494.42
40.2054	509.33
40.2198	483.06
40.2343	495.57
40.2487	482.20
40.2632	465.13
40.2776	517.26
40.2920	488.71
40.3065	492.78
40.3209	501.74
40.3354	482.39
40.3498	509.16
40.3642	503.99
40.3787	519.61
40.3931	499.02
40.4076	510.27
40.4220	521.86
40.4364	494.76
40.4509	466.15
40.4653	492.27
40.4798	501.73
40.4942	485.72
40.5086	484.94
40.5231	482.52
40.5375	500.46
40.5520	516.26
40.5664	483.44
40.5808	484.23
40.5953	500.81
40.6097	510.74
40.6242	487.96
40.6386	482.28
40.6530	500.58
40.6675	525.83
40.6819	507.88
40.6964	471.11
40.7108	500.29
40.7252	501.03
40.7397	517.36
40.7541	513.93
40.7686	517.30
40.7830	531.88
40.7974	496.77
40.8119	512.01
40.8263	494.46
40.8408	500.12
40.8552	500.03
40.8696	518.12
40.8841	486.34
40.8985	522.80
40.9130	525.98
40.9274	490.62
40.9418	493.76
40.9563	459.17
40.9707	512.48
40.9852	481.19
40.9996	504.78
41.0140	514.12
41.0285	498.68
41.0429	510.14
41.0574	526.59
41.0718	543.41
41.0862	484.79
41.1007	488.53
41.1151	515.24
41.1296	503.52
41.1440	501.65
41.1584	519.56
41.1729	513.68
41.1873	471.50
41.2018	497.78
41.2162	525.63
41.2306	508.77
41.2451	522.22
41.2595	484.05
41.2740	516.68
41.2884	476.65
41.3028	519.42
41.3173	533.38
41.3317	547.02
41.3462	499.26
41.3606	471.85
41.3750	480.64
41.3895	508.95
41.4039	484.13
41.4184	504.22
41.4328	512.12
41.4472	501.75
41.4617	483.72
41.4761	509.64
41.4906	523.74
41.5050	470.92
41.5194	506.82
41.5339	504.98
41.5483	518.68
41.5628	509.03
41.5772	480.32
41.5916	450.11
41.6061	512.35
41.6205	500.70
41.6350	475.85
41.6494	491.16
41.6639	486.41
41.6783	477.70
41.6927	512.98
41.7072	531.70
41.7216	483.85
41.7361	498.49
41.7505	517.17
41.7649	517.77
41.7794	468.69
41.7938	517.84
41.8083	509.08
41.8227	472.34
41.8371	522.02
41.8516	521.12
41.8660	493.04
41.8805	527.16
41.8949	532.63
41.9093	562.06
41.9238	548.84
41.9382	583.77
41.9527	565.01
41.9671	534.11
41.9815	558.29
41.9960	588.29
42.0104	545.78
42.0249	554.75
42.0393	558.43
42.0537	576.53
42.0682	584.83
42.0826	586.88
42.0971	601.34
42.1115	577.14
42.1259	596.98
42.1404	559.58
42.1548	601.59
42.1693	659.11
42.1837	672.65
42.1981	770.94
42.2126	851.14
42.2270	950.75
42.2415	1061.93
42.2559	1128.44
42.2703	1245.11
42.2848	1438.21
42.2992	1554.14
42.3137	1617.58
42.3281	1598.30
42.3425	1535.40
42.3570	1448.83
42.3714	1356.63
42.3859	1360.90
42.4003	1324.28
42.4147	1281.21
42.4292	1256.06
42.4436	1093.99
42.4581	1018.71
42.4725	948.35
42.4869	836.75
42.5014	739.56
42.5158	703.47
42.5303	687.24
42.5447	646.64
42.5591	627.95
42.5736	599.63
42.5880	558.74
42.6025	559.21
42.6169	550.50
42.6313	566.01
42.6458	544.73
42.6602	568.67
42.6747	517.20
42.6891	494.24
42.7035	526.85
42.7180	563.64
42.7324	536.77
42.7469	553.68
42.7613	530.74
42.7757	520.83
42.7902	529.76
42.8046	504.36
42.8191	519.21
42.8335	502.18
42.8479	499.60
42.8624	551.83
42.8768	527.17
42.8913	534.13
42.9057	544.57
42.9201	497.83
42.9346	478.08
42.9490	492.67
42.9635	518.85
42.9779	496.79
42.9923	486.34
43.0068	489.54
43.0212	541.83
43.0357	509.58
43.0501	505.66
43.0645	538.03
43.0790	499.66
43.0934	508.81
43.1079	480.75
43.1223	506.05
43.1367	531.93
43.1512	497.41
43.1656	540.05
43.1801	538.62
43.1945	546.97
43.2089	524.89
43.2234	530.41
43.2378	558.40
43.2523	530.66
43.2667	529.06
43.2811	538.17
43.2956	512.99
43.3100	489.13
43.3245	526.83
43.3389	526.52
43.3533	524.11
43.3678	498.27
43.3822	488.04
43.3967	536.52
43.4111	494.69
43.4255	516.91
43.4400	552.77
43.4544	489.68
43.4689	540.35
43.4833	533.33
43.4977	497.67
43.5122	523.03
43.5266	550.99
43.5411	554.76
43.5555	522.33
43.5699	486.29
43.5844	522.45
43.5988	519.10
43.6133	510.57
43.6277	509.18
43.6421	519.72
43.6566	495.78
43.6710	518.15
43.6855	525.36
43.6999	551.31
43.7143	559.07
43.7288	517.18
43.7432	540.09
43.7577	543.10
43.7721	531.20
43.7865	542.86
43.8010	509.20
43.8154	523.84
43.8299	502.06
43.8443	490.63
43.8587	554.64
43.8732	546.30
43.8876	541.60
43.9021	552.36
43.9165	566.39
43.9309	595.72
43.9454	580.31
43.9598	597.73
43.9743	612.30
43.9887	585.28
44.0031	647.25
44.0176	618.53
44.0320	640.37
44.0465	676.98
44.0609	668.35
44.0753	606.78
44.0898	653.92
44.1042	609.36
44.1187	601.75
44.1331	620.02
44.1475	577.71
44.1620	587.77
44.1764	583.97
44.1909	571.72
44.2053	551.06
44.2197	600.13
44.2342	551.14
44.2486	518.72
44.2631	526.44
44.2775	510.89
44.2919	502.10
44.3064	546.78
44.3208	530.04
44.3353	520.73
44.3497	516.41
44.3641	572.02
44.3786	587.23
44.3930	540.99
44.4075	537.25
44.4219	533.41
44.4363	590.51
44.4508	545.18
44.4652	586.71
44.4797	566.16
44.4941	580.38
44.5085	578.90
44.5230	593.02
44.5374	558.42
44.5519	571.71
44.5663	573.56
44.5807	590.65
44.5952	566.83
44.6096	620.57
44.6241	531.04
44.6385	564.08
44.6529	557.20
44.6674	555.68
44.6818	562.94
44.6963	621.91
44.7107	673.59
44.7251	674.93
44.7396	775.60
44.7540	813.59
44.7685	855.77
44.7829	847.18
44.7973	850.45
44.8118	832.66
44.8262	823.19
44.8407	772.20
44.8551	727.37
44.8695	750.33
44.8840	747.77
44.8984	776.40
44.9129	705.85
44.9273	679.23
44.9417	627.07
44.9562	604.42
44.9706	558.12
44.9851	542.60
44.9995	519.82
45.0139	516.11
45.0284	519.54
45.0428	523.45
45.0573	472.15
45.0717	524.64
45.0861	506.68
45.1006	547.22
45.1150	519.09
45.1295	511.28
45.1439	508.04
45.1583	511.95
45.1728	501.54
45.1872	498.54
45.2017	507.16
45.2161	514.53
45.2305	507.02
45.2450	518.44
45.2594	514.58
45.2739	508.29
45.2883	522.03
45.3028	518.44
45.3172	522.75
45.3316	505.23
45.3461	508.27
45.3605	522.16
45.3750	488.84
45.3894	492.70
45.4038	523.83
45.4183	496.78
45.4327	524.02
45.4472	494.29
45.4616	501.61
45.4760	490.69
45.4905	473.63
45.5049	502.06
45.5194	504.13
45.5338	519.96
45.5482	508.55
45.5627	500.53
45.5771	497.78
45.5916	503.43
45.6060	502.44
45.6204	466.38
45.6349	507.19
45.6493	500.44
45.6638	495.60
45.6782	496.47
45.6926	514.39
45.7071	503.77
45.7215	488.41
45.7360	490.64
45.7504	507.02
45.7648	484.95
45.7793	511.71
45.7937	508.19
45.8082	511.52
45.8226	485.84
45.8370	520.49
45.8515	483.44
45.8659	504.10
45.8804	489.72
45.8948	482.19
45.9092	478.18
45.9237	500.69
45.9381	527.75
45.9526	516.28
45.9670	487.71
45.9814	500.67
45.9959	479.03
46.0103	492.64
46.0248	502.13
46.0392	489.87
46.0536	503.98
46.0681	501.95
46.0825	537.23
46.0970	529.61
46.1114	516.65
46.1258	516.98
46.1403	503.05
46.1547	476.08
46.1692	523.90
46.1836	510.81
46.1980	470.00
46.2125	498.13
46.2269	485.08
46.2414	484.75
46.2558	496.18
46.2702	464.64
46.2847	496.95
46.2991	512.89
46.3136	518.91
46.3280	518.48
46.3424	487.65
46.3569	483.64
46.3713	530.27
46.3858	493.36
46.4002	499.49
46.4146	497.21
46.4291	514.47
46.4435	475.37
46.4580	525.81
46.4724	500.72
46.4868	523.10
46.5013	492.80
46.5157	484.79
46.5302	499.05
46.5446	486.76
46.5590	501.10
46.5735	499.89
46.5879	523.43
46.6024	491.12
46.6168	508.07
46.6312	542.50
46.6457	534.85
46.6601	479.80
46.6746	500.16
46.6890	506.29
46.7034	492.80
46.7179	493.84
46.7323	512.47
46.7468	489.45
46.7612	472.66
46.7756	534.50
46.7901	530.70
46.8045	513.67
46.8190	516.32
46.8334	502.24
46.8478	515.45
46.8623	527.92
46.8767	503.43
46.8912	500.87
46.9056	546.33
46.9200	516.87
46.9345	523.42
46.9489	547.42
46.9634	502.60
46.9778	472.88
46.9922	496.96
47.0067	497.71
47.0211	504.63
47.0356	511.19
47.0500	539.89
47.0644	520.89
47.0789	510.34
47.0933	523.13
47.1078	525.79
47.1222	524.29
47.1366	497.13
47.1511	481.67
47.1655	517.68
47.1800	505.23
47.1944	488.79
47.2088	473.61
47.2233	485.08
47.2377	501.03
47.2522	487.40
47.2666	515.38
47.2810	531.13
47.2955	473.04
47.3099	493.98
47.3244	517.82
47.3388	520.56
47.3532	491.35
47.3677	537.48
47.3821	489.67
47.3966	506.04
47.4110	517.14
47.4254	479.13
47.4399	516.10
47.4543	516.77
47.4688	501.25
47.4832	491.34
47.4976	506.92
47.5121	524.17
47.5265	498.08
47.5410	501.36
47.5554	511.14
47.5698	498.09
47.5843	488.82
47.5987	548.55
47.6132	495.97
47.6276	493.37
47.6420	506.40
47.6565	496.88
47.6709	497.50
47.6854	503.07
47.6998	503.12
47.7142	520.84
47.7287	527.46
47.7431	499.33
47.7576	512.22
47.7720	497.27
47.7864	485.21
47.8009	499.06
47.8153	494.88
47.8298	509.55
47.8442	504.77
47.8586	514.38
47.8731	532.94
47.8875	519.22
47.9020	501.25
47.9164	533.57
47.9308	510.90
47.9453	532.96
47.9597	514.25
47.9742	526.04
47.9886	531.53
48.0030	501.74
48.0175	518.49
48.0319	527.07
48.0464	511.22
48.0608	548.96
48.0752	517.33
48.0897	497.13
48.1041	479.18
48.1186	518.37
48.1330	508.55
48.1474	474.65
48.1619	514.71
48.1763	512.52
48.1908	513.54
48.2052	518.15
48.2196	529.19
48.2341	498.09
48.2485	522.07
48.2630	502.62
48.2774	539.21
48.2918	498.12
48.3063	525.54
48.3207	505.79
48.3352	522.69
48.3496	513.86
48.3640	526.79
48.3785	518.84
48.3929	529.09
48.4074	515.09
48.4218	536.23
48.4362	533.46
48.4507	511.14
48.4651	524.09
48.4796	516.49
48.4940	544.77
48.5084	519.93
48.5229	526.37
48.5373	495.46
48.5518	480.39
48.5662	485.96
48.5806	501.52
48.5951	520.37
48.6095	511.01
48.6240	542.76
48.6384	536.97
48.6528	537.84
48.6673	520.46
48.6817	486.10
48.6962	505.54
48.7106	530.55
48.7250	542.24
48.7395	530.51
48.7539	536.30
48.7684	511.10
48.7828	501.52
48.7972	552.57
48.8117	531.28
48.8261	502.62
48.8406	510.17
48.8550	529.24
48.8694	520.00
48.8839	521.18
48.8983	526.18
48.9128	575.17
48.9272	532.29
48.9416	550.07
48.9561	531.06
48.9705	554.41
48.9850	531.66
48.9994	559.75
49.0139	563.85
49.0283	578.52
49.0427	579.33
49.0572	629.22
49.0716	606.34
49.0861	675.33
49.1005	679.98
49.1149	670.63
49.1294	687.93
49.1438	711.76
49.1583	800.27
49.1727	867.58
49.1871	858.63
49.2016	923.40
49.2160	990.29
49.2305	1055.31
49.2449	1148.37
49.2593	1210.18
49.2738	1355.65
49.2882	1424.28
49.3027	1500.49
49.3171	1607.59
49.3315	1630.08
49.3460	1736.36
49.3604	1792.47
49.3749	1776.50
49.3893	1759.77
49.4037	1730.89
49.4182	1785.79
49.4326	1751.40
49.4471	1585.57
49.4615	1575.50
49.4759	1528.05
49.4904	1460.80
49.5048	1379.98
49.5193	1322.83
49.5337	1249.43
49.5481	1155.41
49.5626	1127.27
49.5770	1097.52
49.5915	1039.78
49.6059	928.64
49.6203	831.18
49.6348	817.27
49.6492	826.57
49.6637	781.37
49.6781	716.33
49.6925	683.58
49.7070	685.68
49.7214	658.57
49.7359	640.83
49.7503	619.33
49.7647	574.37
49.7792	605.82
49.7936	598.73
49.8081	575.81
49.8225	553.18
49.8369	571.71
49.8514	549.24
49.8658	552.89
49.8803	558.78
49.8947	591.29
49.9091	575.06
49.9236	565.20
49.9380	549.39
49.9525	507.27
49.9669	528.52
49.9813	508.31
49.9958	481.23
50.0102	515.43
50.0247	515.67
50.0391	505.08
50.0535	539.55
50.0680	535.14
50.0824	537.87
50.0969	551.92
50.1113	549.67
50.1257	539.24
50.1402	496.10
50.1546	515.53
50.1691	530.98
50.1835	537.22
50.1979	524.27
50.2124	522.62
50.2268	527.72
50.2413	518.71
50.2557	521.13
50.2701	533.45
50.2846	509.81
50.2990	507.39
50.3135	520.47
50.3279	533.42
50.3423	527.97
50.3568	517.08
50.3712	505.00
50.3857	510.14
50.4001	526.61
50.4145	537.34
50.4290	541.44
50.4434	544.17
50.4579	530.64
50.4723	506.82
50.4867	494.12
50.5012	506.88
50.5156	498.89
50.5301	527.92
50.5445	554.03
50.5589	537.94
50.5734	523.29
50.5878	542.74
50.6023	530.13
50.6167	496.10
50.6311	512.60
50.6456	494.63
50.6600	506.16
50.6745	486.95
50.6889	475.44
50.7033	503.05
50.7178	523.10
50.7322	532.31
50.7467	498.69
50.7611	505.63
50.7755	539.24
50.7900	514.11
50.8044	502.83
50.8189	514.58
50.8333	514.63
50.8477	491.86
50.8622	522.12
50.8766	512.91
50.8911	489.70
50.9055	501.57
50.9199	513.62
50.9344	500.78
50.9488	513.64
50.9633	496.77
50.9777	449.57
50.9921	512.21
51.0066	524.94
51.0210	516.14
51.0355	503.37
51.0499	504.37
51.0643	494.63
51.0788	497.71
51.0932	515.79
51.1077	521.36
51.1221	565.03
51.1365	524.40
51.1510	509.35
51.1654	522.80
51.1799	504.80
51.1943	517.69
51.2087	507.58
51.2232	504.94
51.2376	513.72
51.2521	520.83
51.2665	507.06
51.2809	513.54
51.2954	506.40
51.3098	518.37
51.3243	505.89
51.3387	502.26
51.3531	523.59
51.3676	544.59
51.3820	498.55
51.3965	486.70
51.4109	506.92
51.4253	524.54
51.4398	470.99
51.4542	495.68
51.4687	507.58
51.4831	516.53
51.4975	495.17
51.5120	498.57
51.5264	480.15
51.5409	483.49
51.5553	507.50
51.5697	479.90
51.5842	506.43
51.5986	513.41
51.6131	533.22
51.6275	543.33
51.6419	502.96
51.6564	487.57
51.6708	479.47
51.6853	516.19
51.6997	518.82
51.7141	499.25
51.7286	510.44
51.7430	533.94
51.7575	529.15
51.7719	518.50
51.7863	506.26
51.8008	522.67
51.8152	535.07
51.8297	519.45
51.8441	492.10
51.8585	509.14
51.8730	528.09
51.8874	525.39
51.9019	495.65
51.9163	486.33
51.9307	500.42
51.9452	526.65
51.9596	473.09
51.9741	527.65
51.9885	547.57
52.0029	492.07
52.0174	493.09
52.0318	506.73
52.0463	506.27
52.0607	487.62
52.0751	479.48
52.0896	503.41
52.1040	488.84
52.1185	520.72
52.1329	544.85
52.1473	511.12
52.1618	514.69
52.1762	526.04
52.1907	472.65
52.2051	501.05
52.2195	503.24
52.2340	510.31
52.2484	551.84
52.2629	507.96
52.2773	493.75
52.2917	481.03
52.3062	489.90
52.3206	516.41
52.3351	536.04
52.3495	497.83
52.3639	493.82
52.3784	515.10
52.3928	482.57
52.4073	468.84
52.4217	506.89
52.4361	526.23
52.4506	515.93
52.4650	497.81
52.4795	527.23
52.4939	530.88
52.5083	532.50
52.5228	501.65
52.5372	548.17
52.5517	508.04
52.5661	494.26
52.5805	522.14
52.5950	479.30
52.6094	496.56
52.6239	496.89
52.6383	497.95
52.6527	542.45
52.6672	573.51
52.6816	493.88
52.6961	526.78
52.7105	527.80
52.7250	498.67
52.7394	481.16
52.7538	488.99
52.7683	496.02
52.7827	547.33
52.7972	520.94
52.8116	532.72
52.8260	507.33
52.8405	486.85
52.8549	498.11
52.8694	537.19
52.8838	514.73
52.8982	502.49
52.9127	503.17
52.9271	531.39
52.9416	528.98
52.9560	532.67
52.9704	503.24
52.9849	513.47
52.9993	529.41
53.0138	535.74
53.0282	544.12
53.0426	499.39
53.0571	517.98
53.0715	497.44
53.0860	541.06
53.1004	564.39
53.1148	541.78
53.1293	545.03
53.1437	517.53
53.1582	531.39
53.1726	526.86
53.1870	490.34
53.2015	496.94
53.2159	514.94
53.2304	498.25
53.2448	536.31
53.2592	497.58
53.2737	511.62
53.2881	545.12
53.3026	520.11
53.3170	519.02
53.3314	503.73
53.3459	515.60
53.3603	526.50
53.3748	502.31
53.3892	516.57
53.4036	512.00
53.4181	540.25
53.4325	512.98
53.4470	479.85
53.4614	523.15
53.4758	512.57
53.4903	508.45
53.5047	518.34
53.5192	524.65
53.5336	522.43
53.5480	499.72
53.5625	523.95
53.5769	511.08
53.5914	523.38
53.6058	540.94
53.6202	519.64
53.6347	512.26
53.6491	502.02
53.6636	503.92
53.6780	514.96
53.6924	478.00
53.7069	512.57
53.7213	516.64
53.7358	511.12
53.7502	513.20
53.7646	534.68
53.7791	536.85
53.7935	506.60
53.8080	513.67
53.8224	497.00
53.8368	513.27
53.8513	496.47
53.8657	456.25
53.8802	499.27
53.8946	522.40
53.9090	514.28
53.9235	523.24
53.9379	483.79
53.9524	509.26
53.9668	510.59
53.9812	557.73
53.9957	544.91
54.0101	562.52
54.0246	484.18
54.0390	484.74
54.0534	508.51
54.0679	515.99
54.0823	515.55
54.0968	523.02
54.1112	493.64
54.1256	539.23
54.1401	506.19
54.1545	516.33
54.1690	532.47
54.1834	528.29
54.1978	503.33
54.2123	509.65
54.2267	514.21
54.2412	510.61
54.2556	504.62
54.2700	522.06
54.2845	525.87
54.2989	524.28
54.3134	502.30
54.3278	534.31
54.3422	545.53
54.3567	548.22
54.3711	560.91
54.3856	536.76
54.4000	502.55
54.4144	506.76
54.4289	555.07
54.4433	531.56
54.4578	529.12
54.4722	558.65
54.4866	587.22
54.5011	568.80
54.5155	560.97
54.5300	591.95
54.5444	590.48
54.5588	570.87
54.5733	529.57
54.5877	541.89
54.6022	599.08
54.6166	605.10
54.6310	585.59
54.6455	595.87
54.6599	606.41
54.6744	595.94
54.6888	587.13
54.7032	574.47
54.7177	568.52
54.7321	577.19
54.7466	589.02
54.7610	571.86
54.7754	550.14
54.7899	572.19
54.8043	585.37
54.8188	591.37
54.8332	537.15
54.8476	529.16
54.8621	549.93
54.8765	536.22
54.8910	521.58
54.9054	541.54
54.9198	542.23
54.9343	545.72
54.9487	524.28
54.9632	522.97
54.9776	541.81
54.9920	537.78
55.0065	482.11
55.0209	499.07
55.0354	526.89
55.0498	531.89
55.0642	509.49
55.0787	498.59
55.0931	540.18
55.1076	526.29
55.1220	535.19
55.1364	507.82
55.1509	485.39
55.1653	552.44
55.1798	504.87
55.1942	544.60
55.2086	537.66
55.2231	557.39
55.2375	561.20
55.2520	536.06
55.2664	526.90
55.2808	551.98
55.2953	504.70
55.3097	496.07
55.3242	541.50
55.3386	546.71
55.3530	524.01
55.3675	521.68
55.3819	529.34
55.3964	518.56
55.4108	498.81
55.4252	517.60
55.4397	513.47
55.4541	533.99
55.4686	546.70
55.4830	557.72
55.4974	501.67
55.5119	514.94
55.5263	518.16
55.5408	535.44
55.5552	530.89
55.5696	500.34
55.5841	506.95
55.5985	578.15
55.6130	551.15
55.6274	555.50
55.6418	541.59
55.6563	511.58
55.6707	544.93
55.6852	506.98
55.6996	514.84
55.7140	526.90
55.7285	499.91
55.7429	498.72
55.7574	522.64
55.7718	508.82
55.7862	545.86
55.8007	523.25
55.8151	547.45
55.8296	542.07
55.8440	529.02
55.8584	510.93
55.8729	571.81
55.8873	556.57
55.9018	509.23
55.9162	500.93
55.9306	517.46
55.9451	516.77
55.9595	521.37
55.9740	533.19
55.9884	537.15
56.0028	522.39
56.0173	534.17
56.0317	496.27
56.0462	516.19
56.0606	522.23
56.0750	526.96
56.0895	554.47
56.1039	483.02
56.1184	490.98
56.1328	524.71
56.1472	532.44
56.1617	506.10
56.1761	515.89
56.1906	525.77
56.2050	530.13
56.2194	525.60
56.2339	540.26
56.2483	515.58
56.2628	516.23
56.2772	511.58
56.2916	486.62
56.3061	509.36
56.3205	496.51
56.3350	560.22
56.3494	555.66
56.3639	527.09
56.3783	532.86
56.3927	525.93
56.4072	521.77
56.4216	540.13
56.4361	529.11
56.4505	538.02
56.4649	511.61
56.4794	520.85
56.4938	527.78
56.5083	494.07
56.5227	463.39
56.5371	541.36
56.5516	535.75
56.5660	535.97
56.5805	515.62
56.5949	513.56
56.6093	544.38
56.6238	518.64
56.6382	522.61
56.6527	516.15
56.6671	489.63
56.6815	487.70
56.6960	519.61
56.7104	509.32
56.7249	532.16
56.7393	513.07
56.7537	502.94
56.7682	532.99
56.7826	528.08
56.7971	532.54
56.8115	522.74
56.8259	525.69
56.8404	524.70
56.8548	526.43
56.8693	524.72
56.8837	521.26
56.8981	539.71
56.9126	533.11
56.9270	497.92
56.9415	556.92
56.9559	511.97
56.9703	506.56
56.9848	516.94
56.9992	514.73
57.0137	525.82
57.0281	533.41
57.0425	518.95
57.0570	516.94
57.0714	514.48
57.0859	562.26
57.1003	537.76
57.1147	528.11
57.1292	510.76
57.1436	504.75
57.1581	491.06
57.1725	536.79
57.1869	522.53
57.2014	537.95
57.2158	518.68
57.2303	516.89
57.2447	538.85
57.2591	525.62
57.2736	531.58
57.2880	522.04
57.3025	526.45
57.3169	522.35
57.3313	504.13
57.3458	534.49
57.3602	522.92
57.3747	541.84
57.3891	493.51
57.4035	488.36
57.4180	503.63
57.4324	532.14
57.4469	522.65
57.4613	504.36
57.4757	527.48
57.4902	541.56
57.5046	525.63
57.5191	537.41
57.5335	534.27
57.5479	535.05
57.5624	529.84
57.5768	526.60
57.5913	541.27
57.6057	560.20
57.6201	537.21
57.6346	535.16
57.6490	520.58
57.6635	472.26
57.6779	534.89
57.6923	508.45
57.7068	525.22
57.7212	527.91
57.7357	526.25
57.7501	531.79
57.7645	538.10
57.7790	529.54
57.7934	547.03
57.8079	534.80
57.8223	548.91
57.8367	567.95
57.8512	520.22
57.8656	554.01
57.8801	518.68
57.8945	533.81
57.9089	555.19
57.9234	553.06
57.9378	555.53
57.9523	538.40
57.9667	489.95
57.9811	500.24
57.9956	557.45
58.0100	541.17
58.0245	613.38
58.0389	565.96
58.0533	565.30
58.0678	552.67
58.0822	571.81
58.0967	582.70
58.1111	584.32
58.1255	616.04
58.1400	577.21
58.1544	584.37
58.1689	612.66
58.1833	615.59
58.1977	608.66
58.2122	645.96
58.2266	694.16
58.2411	696.14
58.2555	683.47
58.2699	700.35
58.2844	675.96
58.2988	645.21
58.3133	652.66
58.3277	675.24
58.3421	639.78
58.3566	649.60
58.3710	653.71
58.3855	666.77
58.3999	661.98
58.4143	621.85
58.4288	622.40
58.4432	644.54
58.4577	617.18
58.4721	612.67
58.4865	581.95
58.5010	576.67
58.5154	586.68
58.5299	596.15
58.5443	565.46
58.5587	563.49
58.5732	545.03
58.5876	544.15
58.6021	514.11
58.6165	533.15
58.6309	541.92
58.6454	525.97
58.6598	514.94
58.6743	538.66
58.6887	518.01
58.7031	553.26
58.7176	535.19
58.7320	551.26
58.7465	527.29
58.7609	557.54
58.7753	543.18
58.7898	520.20
58.8042	495.78
58.8187	519.51
58.8331	522.59
58.8475	557.46
58.8620	524.37
58.8764	536.32
58.8909	535.58
58.9053	547.34
58.9197	553.27
58.9342	514.80
58.9486	531.69
58.9631	553.35
58.9775	528.51
58.9919	554.62
59.0064	574.65
59.0208	578.75
59.0353	543.98
59.0497	521.86
59.0641	538.61
59.0786	534.89
59.0930	561.09
59.1075	510.70
59.1219	511.32
59.1363	559.78
59.1508	554.35
59.1652	544.31
59.1797	559.53
59.1941	524.23
59.2085	554.83
59.2230	565.37
59.2374	570.47
59.2519	564.12
59.2663	563.23
59.2807	556.02
59.2952	525.52
59.3096	557.68
59.3241	563.40
59.3385	569.84
59.3529	534.74
59.3674	587.22
59.3818	542.68
59.3963	541.59
59.4107	551.34
59.4251	590.14
59.4396	607.68
59.4540	565.30
59.4685	554.02
59.4829	553.03
59.4973	556.20
59.5118	550.53
59.5262	526.26
59.5407	542.51
59.5551	545.46
59.5695	565.11
59.5840	536.56
59.5984	548.96
59.6129	570.69
59.6273	574.29
59.6417	553.53
59.6562	555.87
59.6706	558.91
59.6851	550.83
59.6995	534.83
59.7139	528.69
59.7284	517.46
59.7428	564.86
59.7573	513.49
59.7717	519.60
59.7861	557.76
59.8006	561.35
59.8150	565.90
59.8295	515.43
59.8439	559.74
59.8583	543.66
59.8728	550.40
59.8872	559.19
59.9017	573.09
59.9161	551.88
59.9305	593.36
59.9450	524.93
59.9594	527.56
59.9739	530.32
59.9883	499.59
60.0027	550.27
60.0172	542.25
60.0316	530.40
60.0461	503.05
60.0605	549.91
60.0750	569.39
60.0894	606.61
60.1038	581.25
60.1183	572.85
60.1327	532.44
60.1472	498.12
60.1616	552.21
60.1760	557.62
60.1905	526.79
60.2049	526.16
60.2194	541.55
60.2338	559.09
60.2482	567.22
60.2627	519.97
60.2771	526.00
60.2916	558.23
60.3060	541.30
60.3204	536.66
60.3349	517.61
60.3493	554.55
60.3638	554.88
60.3782	548.72
60.3926	500.41
60.4071	538.11
60.4215	543.53
60.4360	558.28
60.4504	534.37
60.4648	549.84
60.4793	517.85
60.4937	513.22
60.5082	548.03
60.5226	559.15
60.5370	588.98
60.5515	536.04
60.5659	539.88
60.5804	514.67
60.5948	561.18
60.6092	544.59
60.6237	510.95
60.6381	533.54
60.6526	556.11
60.6670	542.45
60.6814	531.56
60.6959	544.04
60.7103	570.28
60.7248	553.58
60.7392	559.02
60.7536	577.83
60.7681	543.47
60.7825	557.95
60.7970	545.65
60.8114	557.51
60.8258	573.44
60.8403	525.12
60.8547	555.40
60.8692	546.84
60.8836	536.10
60.8980	575.07
60.9125	546.06
60.9269	548.50
60.9414	543.54
60.9558	553.17
60.9702	490.56
60.9847	502.84
60.9991	501.11
61.0136	569.71
61.0280	545.67
61.0424	536.19
61.0569	547.58
61.0713	560.75
61.0858	580.81
61.1002	530.31
61.1146	493.51
61.1291	533.26
61.1435	525.53
61.1580	531.23
61.1724	539.89
61.1868	546.96
61.2013	536.81
61.2157	555.09
61.2302	532.19
61.2446	557.60
61.2590	535.76
61.2735	555.05
61.2879	565.32
61.3024	544.61
61.3168	537.53
61.3312	559.88
61.3457	551.54
61.3601	521.81
61.3746	545.49
61.3890	564.91
61.4034	576.24
61.4179	560.58
61.4323	557.87
61.4468	514.93
61.4612	523.04
61.4756	543.21
61.4901	536.41
61.5045	556.82
61.5190	528.84
61.5334	541.32
61.5478	562.19
61.5623	568.38
61.5767	556.72
61.5912	550.65
61.6056	548.41
61.6200	526.14
61.6345	522.51
61.6489	553.04
61.6634	534.28
61.6778	544.03
61.6922	542.57
61.7067	562.03
61.7211	561.63
61.7356	542.42
61.7500	543.48
61.7644	529.57
61.7789	542.37
61.7933	527.73
61.8078	561.14
61.8222	527.72
61.8366	525.92
61.8511	547.65
61.8655	551.83
61.8800	548.29
61.8944	595.20
61.9088	576.05
61.9233	518.36
61.9377	545.51
61.9522	541.38
61.9666	534.28
61.9810	536.32
61.9955	538.50
62.0099	550.33
62.0244	595.38
62.0388	534.51
62.0532	548.52
62.0677	534.70
62.0821	570.42
62.0966	566.93
62.1110	542.90
62.1254	579.38
62.1399	540.14
62.1543	541.14
62.1688	556.60
62.1832	548.19
62.1976	553.83
62.2121	531.27
62.2265	560.61
62.2410	556.38
62.2554	560.10
62.2698	531.78
62.2843	557.23
62.2987	581.63
62.3132	555.36
62.3276	555.04
62.3420	565.50
62.3565	562.88
62.3709	548.31
62.3854	534.22
62.3998	539.99
62.4142	550.63
62.4287	575.45
62.4431	540.10
62.4576	575.39
62.4720	560.96
62.4864	544.65
62.5009	540.93
62.5153	524.38
62.5298	571.31
62.5442	550.96
62.5586	567.90
62.5731	577.60
62.5875	581.45
62.6020	564.63
62.6164	560.51
62.6308	548.66
62.6453	533.77
62.6597	573.39
62.6742	538.49
62.6886	535.62
62.7030	548.16
62.7175	545.88
62.7319	559.59
62.7464	554.56
62.7608	553.85
62.7752	548.38
62.7897	548.77
62.8041	572.77
62.8186	571.50
62.8330	566.94
62.8474	532.12
62.8619	551.19
62.8763	552.82
62.8908	546.19
62.9052	534.45
62.9196	550.59
62.9341	547.82
62.9485	573.59
62.9630	543.06
62.9774	564.31
62.9918	551.75
63.0063	574.13
63.0207	601.96
63.0352	583.76
63.0496	534.71
63.0640	553.14
63.0785	546.52
63.0929	579.90
63.1074	584.93
63.1218	576.30
63.1362	580.82
63.1507	565.26
63.1651	559.50
63.1796	553.57
63.1940	573.29
63.2084	583.48
63.2229	546.75
63.2373	559.00
63.2518	570.06
63.2662	600.26
63.2806	601.13
63.2951	576.20
63.3095	578.07
63.3240	587.47
63.3384	580.42
63.3528	607.38
63.3673	570.71
63.3817	585.02
63.3962	583.30
63.4106	580.05
63.4250	568.81
63.4395	595.73
63.4539	569.22
63.4684	571.91
63.4828	602.73
63.4972	584.08
63.5117	582.32
63.5261	591.48
63.5406	590.76
63.5550	592.27
63.5694	572.49
63.5839	580.95
63.5983	593.62
63.6128	619.52
63.6272	615.08
63.6416	633.72
63.6561	671.67
63.6705	603.85
63.6850	566.05
63.6994	607.21
63.7138	621.91
63.7283	633.25
63.7427	608.17
63.7572	614.71
63.7716	611.38
63.7861	630.83
63.8005	581.84
63.8149	636.21
63.8294	676.06
63.8438	660.86
63.8583	729.03
63.8727	733.34
63.8871	719.58
63.9016	761.57
63.9160	722.61
63.9305	785.10
63.9449	773.82
63.9593	809.92
63.9738	853.74
63.9882	890.85
64.0027	824.85
64.0171	817.31
64.0315	807.37
64.0460	814.36
64.0604	840.67
64.0749	755.58
64.0893	795.30
64.1037	737.25
64.1182	750.34
64.1326	741.09
64.1471	715.55
64.1615	729.95
64.1759	780.28
64.1904	723.55
64.2048	701.53
64.2193	703.76
64.2337	712.70
64.2481	689.76
64.2626	720.31
64.2770	700.59
64.2915	665.32
64.3059	643.12
64.3203	654.65
64.3348	679.60
64.3492	625.70
64.3637	631.88
64.3781	624.72
64.3925	638.40
64.4070	604.92
64.4214	654.91
64.4359	672.89
64.4503	613.56
64.4647	647.75
64.4792	635.47
64.4936	679.31
64.5081	643.12
64.5225	601.61
64.5369	644.61
64.5514	653.46
64.5658	633.13
64.5803	627.46
64.5947	620.52
64.6091	655.72
64.6236	670.82
64.6380	633.97
64.6525	622.30
64.6669	661.26
64.6813	635.38
64.6958	701.51
64.7102	698.86
64.7247	710.27
64.7391	725.89
64.7535	711.40
64.7680	712.31
64.7824	753.32
64.7969	748.24
64.8113	775.72
64.8257	770.14
64.8402	799.69
64.8546	833.44
64.8691	853.33
64.8835	857.46
64.8979	876.77
64.9124	874.24
64.9268	877.70
64.9413	944.53
64.9557	959.37
64.9701	1016.83
64.9846	1110.93
64.9990	1202.49
65.0135	1286.66
65.0279	1529.41
65.0423	1765.15
65.0568	2202.79
65.0712	2733.16
65.0857	3529.07
65.1001	4594.49
65.1145	6402.54
65.1290	8226.74
65.1434	9894.65
65.1579	11438.81
65.1723	11874.80
65.1867	11092.05
65.2012	9939.04
65.2156	8141.97
65.2301	6481.66
65.2445	5332.55
65.2589	4416.92
65.2734	4216.16
65.2878	4406.61
65.3023	5080.05
65.3167	5940.21
65.3311	6672.47
65.3456	7115.05
65.3600	6985.10
65.3745	6454.03
65.3889	5476.29
65.4033	4365.03
65.4178	3415.39
65.4322	2639.65
65.4467	2044.67
65.4611	1686.82
65.4755	1489.98
65.4900	1285.74
65.5044	1188.54
65.5189	1066.00
65.5333	994.45
65.5477	903.77
65.5622	884.79
65.5766	853.52
65.5911	813.07
65.6055	804.62
65.6199	771.97
65.6344	763.94
65.6488	733.10
65.6633	732.49
65.6777	725.71
65.6921	722.59
65.7066	736.16
65.7210	711.77
65.7355	678.91
65.7499	681.24
65.7643	671.21
65.7788	651.90
65.7932	643.13
65.8077	665.30
65.8221	668.50
65.8365	644.54
65.8510	634.92
65.8654	639.73
65.8799	637.19
65.8943	639.64
65.9087	660.92
65.9232	653.30
65.9376	647.92
65.9521	629.13
65.9665	621.27
65.9809	602.30
65.9954	637.33
66.0098	613.69
66.0243	616.76
66.0387	652.43
66.0531	629.11
66.0676	638.27
66.0820	629.44
66.0965	600.61
66.1109	585.84
66.1253	630.73
66.1398	626.52
66.1542	623.67
66.1687	592.65
66.1831	599.96
66.1975	599.08
66.2120	599.82
66.2264	609.66
66.2409	605.50
66.2553	605.44
66.2697	601.82
66.2842	608.27
66.2986	570.34
66.3131	581.16
66.3275	595.01
66.3419	593.93
66.3564	587.65
66.3708	588.52
66.3853	598.85
66.3997	612.86
66.4141	585.73
66.4286	586.38
66.4430	605.72
66.4575	588.91
66.4719	562.11
66.4863	593.22
66.5008	577.13
66.5152	590.91
66.5297	619.71
66.5441	599.38
66.5585	579.40
66.5730	580.18
66.5874	580.49
66.6019	573.13
66.6163	588.56
66.6307	584.89
66.6452	590.40
66.6596	585.99
66.6741	553.56
66.6885	571.82
66.7029	586.53
66.7174	586.07
66.7318	583.34
66.7463	579.82
66.7607	571.77
66.7751	585.86
66.7896	567.31
66.8040	577.46
66.8185	570.59
66.8329	606.49
66.8473	581.74
66.8618	588.79
66.8762	590.17
66.8907	584.27
66.9051	564.90
66.9195	580.37
66.9340	608.64
66.9484	555.97
66.9629	565.73
66.9773	604.05
66.9917	589.13
67.0062	573.95
67.0206	579.33
67.0351	598.94
67.0495	570.25
67.0639	597.12
67.0784	610.81
67.0928	581.61
67.1073	568.57
67.1217	555.11
67.1361	595.69
67.1506	571.56
67.1650	617.90
67.1795	577.01
67.1939	585.56
67.2083	554.52
67.2228	573.16
67.2372	592.37
67.2517	552.30
67.2661	557.11
67.2805	592.57
67.2950	567.20
67.3094	593.56
67.3239	607.71
67.3383	598.09
67.3527	574.40
67.3672	603.27
67.3816	553.27
67.3961	569.86
67.4105	604.54
67.4250	569.94
67.4394	600.91
67.4538	589.88
67.4683	581.55
67.4827	555.49
67.4972	580.97
67.5116	600.38
67.5260	593.70
67.5405	580.40
67.5549	614.69
67.5694	607.66
67.5838	600.98
67.5982	616.75
67.6127	591.76
67.6271	584.05
67.6416	621.17
67.6560	580.78
67.6704	567.19
67.6849	541.15
67.6993	553.13
67.7138	576.00
67.7282	569.85
67.7426	577.75
67.7571	554.09
67.7715	547.45
67.7860	592.28
67.8004	559.58
67.8148	595.17
67.8293	590.61
67.8437	555.10
67.8582	554.63
67.8726	544.61
67.8870	549.01
67.9015	597.12
67.9159	590.47
67.9304	578.71
67.9448	566.62
67.9592	542.04
67.9737	558.42
67.9881	603.66
68.0026	606.57
68.0170	567.10
68.0314	546.41
68.0459	563.66
68.0603	556.25
68.0748	596.36
68.0892	627.73
68.1036	594.34
68.1181	576.01
68.1325	592.87
68.1470	582.63
68.1614	556.26
68.1758	585.44
68.1903	566.76
68.2047	552.49
68.2192	589.88
68.2336	586.61
68.2480	577.76
68.2625	556.58
68.2769	556.86
68.2914	582.88
68.3058	558.91
68.3202	570.74
68.3347	564.52
68.3491	574.52
68.3636	572.34
68.3780	578.07
68.3924	601.76
68.4069	570.10
68.4213	558.46
68.4358	576.96
68.4502	571.98
68.4646	617.07
68.4791	547.74
68.4935	567.08
68.5080	621.26
68.5224	609.85
68.5368	548.90
68.5513	578.98
68.5657	555.57
68.5802	581.58
68.5946	567.18
68.6090	556.68
68.6235	559.94
68.6379	563.42
68.6524	504.31
68.6668	554.39
68.6812	572.01
68.6957	563.82
68.7101	634.58
68.7246	599.97
68.7390	568.55
68.7534	574.53
68.7679	555.06
68.7823	581.86
68.7968	556.12
68.8112	570.04
68.8256	579.81
68.8401	543.11
68.8545	568.72
68.8690	582.48
68.8834	580.94
68.8978	589.43
68.9123	567.86
68.9267	582.11
68.9412	589.44
68.9556	582.28
68.9700	601.05
68.9845	588.98
68.9989	604.39
69.0134	546.41
69.0278	582.10
69.0422	558.40
69.0567	585.16
69.0711	604.87
69.0856	549.93
69.1000	592.62
69.1144	564.50
69.1289	595.88
69.1433	601.84
69.1578	641.65
69.1722	565.39
69.1866	591.65
69.2011	588.95
69.2155	546.87
69.2300	554.86
69.2444	596.70
69.2588	572.16
69.2733	586.65
69.2877	564.37
69.3022	549.53
69.3166	620.10
69.3310	615.78
69.3455	582.02
69.3599	525.97
69.3744	561.29
69.3888	538.42
69.4032	548.51
69.4177	564.27
69.4321	566.26
69.4466	576.09
69.4610	579.27
69.4754	593.52
69.4899	581.26
69.5043	601.21
69.5188	570.24
69.5332	551.42
69.5476	536.43
69.5621	561.96
69.5765	550.35
69.5910	548.98
69.6054	587.17
69.6198	569.39
69.6343	598.75
69.6487	555.81
69.6632	558.33
69.6776	518.50
69.6920	530.75
69.7065	553.04
69.7209	565.27
69.7354	575.76
69.7498	567.49
69.7642	532.96
69.7787	555.31
69.7931	558.53
69.8076	586.62
69.8220	564.70
69.8364	552.84
69.8509	578.21
69.8653	551.89
69.8798	547.03
69.8942	583.32
69.9086	564.22
69.9231	608.55
69.9375	603.55
69.9520	596.89
69.9664	579.98
69.9808	546.84
69.9953	524.26
70.0097	544.91
70.0242	584.08
70.0386	602.07
70.0530	610.67
70.0675	614.09
70.0819	508.05
70.0964	583.85
70.1108	543.16
70.1252	555.68
70.1397	569.62
70.1541	572.90
70.1686	589.42
70.1830	565.66
70.1974	596.91
70.2119	590.58
70.2263	545.39
70.2408	557.49
70.2552	578.24
70.2696	554.70
70.2841	566.52
70.2985	563.66
70.3130	623.53
70.3274	598.79
70.3418	563.07
70.3563	590.66
70.3707	593.89
70.3852	562.80
70.3996	624.86
70.4140	584.41
70.4285	616.22
70.4429	584.32
70.4574	592.85
70.4718	628.43
70.4862	645.50
70.5007	580.81
70.5151	566.36
70.5296	577.34
70.5440	552.42
70.5584	605.10
70.5729	547.11
70.5873	570.43
70.6018	560.80
70.6162	561.63
70.6306	543.52
70.6451	573.19
70.6595	533.73
70.6740	550.81
70.6884	541.31
70.7028	606.19
70.7173	609.01
70.7317	607.65
70.7462	596.70
70.7606	573.00
70.7750	605.32
70.7895	615.55
70.8039	588.93
70.8184	629.56
70.8328	601.57
70.8472	586.20
70.8617	589.41
70.8761	619.51
70.8906	572.66
70.9050	595.28
70.9194	586.80
70.9339	533.26
70.9483	581.59
70.9628	639.31
70.9772	577.84
70.9916	547.75
71.0061	543.27
71.0205	556.33
71.0350	600.56
71.0494	623.83
71.0638	565.79
71.0783	571.32
71.0927	593.80
71.1072	594.31
71.1216	583.38
71.1361	540.81
71.1505	552.97
71.1649	548.85
71.1794	567.46
71.1938	616.38
71.2083	610.95
71.2227	576.97
71.2371	575.10
71.2516	552.56
71.2660	521.14
71.2805	528.94
71.2949	539.99
71.3093	566.36
71.3238	561.50
71.3382	609.97
71.3527	610.58
71.3671	563.34
71.3815	555.94
71.3960	533.36
71.4104	545.57
71.4249	583.18
71.4393	612.92
71.4537	538.80
71.4682	568.66
71.4826	643.93
71.4971	608.62
71.5115	576.20
71.5259	558.52
71.5404	576.90
71.5548	560.71
71.5693	565.74
71.5837	561.85
71.5981	557.32
71.6126	550.46
71.6270	553.11
71.6415	611.59
71.6559	646.28
71.6703	628.06
71.6848	585.80
71.6992	608.49
71.7137	648.92
71.7281	611.18
71.7425	568.33
71.7570	563.82
71.7714	581.87
71.7859	575.81
71.8003	623.66
71.8147	611.43
71.8292	587.14
71.8436	551.11
71.8581	525.25
71.8725	554.67
71.8869	561.28
71.9014	620.36
71.9158	604.34
71.9303	597.55
71.9447	589.50
71.9591	605.17
71.9736	682.68
71.9880	635.77
72.0025	581.66
72.0169	584.94
72.0313	607.92
72.0458	567.17
72.0602	545.95
72.0747	586.06
72.0891	582.88
72.1035	625.31
72.1180	561.96
72.1324	563.92
72.1469	621.17
72.1613	519.23
72.1757	521.23
72.1902	595.69
72.2046	594.75
72.2191	533.38
72.2335	461.97
72.2479	512.72
72.2624	582.13
72.2768	601.63
72.2913	569.74
72.3057	560.46
72.3201	528.08
72.3346	553.79
72.3490	540.61
72.3635	501.99
72.3779	547.98
72.3923	568.02
72.4068	553.13
72.4212	593.43
72.4357	647.24
72.4501	572.80
72.4645	541.55
72.4790	541.55
72.4934	492.06
72.5079	577.65
72.5223	558.28
72.5367	535.44
72.5512	577.24
72.5656	589.31
72.5801	582.44
72.5945	554.97
72.6089	602.59
72.6234	587.67
72.6378	594.86
72.6523	610.68
72.6667	573.49
72.6811	578.12
72.6956	621.83
72.7100	564.49
72.7245	570.96
72.7389	655.07
72.7533	680.39
72.7678	634.94
72.7822	633.67
72.7967	615.15
72.8111	570.00
72.8255	566.57
72.8400	607.03
72.8544	567.82
72.8689	561.72
72.8833	552.39

Result vector
22.1120	551.24
22.1264	559.51
22.1409	526.27
22.1553	590.46
22.1697	587.69
22.1842	638.35
22.1986	627.63
22.2131	570.50
22.2275	539.07
22.2419	616.84
22.2564	500.72
22.2708	514.51
22.2853	501.47
22.2997	539.56
22.3141	646.32
22.3286	563.99
22.3430	568.54
22.3575	540.99
22.3719	556.30
22.3863	564.38
22.4008	576.59
22.4152	534.47
22.4297	557.83
22.4441	522.18
22.4585	631.81
22.4730	701.65
22.4874	619.99
22.5019	570.87
22.5163	552.19
22.5307	534.58
22.5452	621.75
22.5596	528.57
22.5741	576.61
22.5885	562.64
22.6029	517.89
22.6174	534.84
22.6318	539.36
22.6463	555.10
22.6607	586.15
22.6751	636.35
22.6896	595.10
22.7040	612.00
22.7185	648.57
22.7329	552.29
22.7473	538.17
22.7618	492.99
22.7762	607.81
22.7907	561.98
22.8051	550.87
22.8195	591.10
22.8340	588.96
22.8484	517.88
22.8629	579.33
22.8773	543.37
22.8917	527.74
22.9062	625.42
22.9206	634.16
22.9351	529.01
22.9495	562.17
22.9639	563.51
22.9784	576.61
22.9928	579.07
23.0073	622.65
23.0217	594.24
23.0361	537.99
23.0506	511.83
23.0650	529.76
23.0795	590.71
23.0939	587.44
23.1083	539.39
23.1228	498.74
23.1372	544.64
23.1517	517.07
23.1661	487.47
23.1806	463.87
23.1950	527.44
23.2094	554.07
23.2239	558.11
23.2383	621.50
23.2528	608.29
23.2672	570.80
23.2816	561.83
23.2961	554.79
23.3105	577.02
23.3250	532.63
23.3394	590.49
23.3538	538.58
23.3683	529.21
23.3827	531.16
23.3972	516.45
23.4116	508.13
23.4260	536.22
23.4405	602.25
23.4549	570.81
23.4694	558.24
23.4838	635.63
23.4982	497.00
23.5127	559.03
23.5271	548.40
23.5416	514.67
23.5560	604.54
23.5704	539.86
23.5849	508.93
23.5993	563.09
23.6138	526.59
23.6282	606.27
23.6426	540.81
23.6571	546.42
23.6715	528.87
23.6860	512.24
23.7004	609.90
23.7148	547.02
23.7293	609.92
23.7437	590.12
23.7582	549.39
23.7726	511.15
23.7870	556.73
23.8015	526.84
23.8159	576.32
23.8304	478.71
23.8448	552.88
23.8592	583.49
23.8737	579.60
23.8881	572.82
23.9026	569.40
23.9170	557.06
23.9314	535.72
23.9459	563.46
23.9603	544.50
23.9748	565.52
23.9892	552.09
24.0036	554.42
24.0181	611.29
24.0325	569.70
24.0470	518.92
24.0614	591.39
24.0758	540.23
24.0903	524.14
24.1047	556.21
24.1192	588.58
24.1336	601.79
24.1480	533.50
24.1625	566.50
24.1769	568.40
24.1914	563.30
24.2058	604.30
24.2202	572.08
24.2347	638.54
24.2491	600.44
24.2636	560.32
24.2780	558.43
24.2924	584.52
24.3069	616.83
24.3213	612.16
24.3358	567.81
24.3502	602.31
24.3646	576.78
24.3791	599.17
24.3935	594.24
24.4080	554.47
24.4224	551.84
24.4368	518.34
24.4513	571.87
24.4657	592.06
24.4802	534.03
24.4946	564.57
24.5090	571.87
24.5235	575.98
24.5379	562.93
24.5524	534.67
24.5668	556.24
24.5812	575.18
24.5957	593.38
24.6101	601.14
24.6246	589.37
24.6390	569.44
24.6534	532.29
24.6679	562.83
24.6823	474.34
24.6968	568.79
24.7112	587.88
24.7256	588.26
24.7401	513.03
24.7545	603.23
24.7690	547.15
24.7834	563.10
24.7978	532.45
24.8123	551.66
24.8267	569.37
24.8412	578.34
24.8556	521.67
24.8700	546.52
24.8845	575.12
24.8989	553.47
24.9134	584.92
24.9278	516.39
24.9422	519.13
24.9567	547.45
24.9711	537.07
24.9856	515.49
25.0000	540.98
25.0144	536.41
25.0289	561.33
25.0433	515.84
25.0578	506.18
25.0722	559.26
25.0866	545.29
25.1011	497.96
25.1155	542.43
25.1300	519.01
25.1444	525.74
25.1588	544.70
25.1733	507.42
25.1877	527.20
25.2022	508.63
25.2166	517.55
25.2310	513.25
25.2455	490.74
25.2599	516.03
25.2744	598.13
25.2888	559.84
25.3032	531.74
25.3177	533.08
25.3321	514.43
25.3466	559.19
25.3610	566.92
25.3754	556.32
25.3899	536.84
25.4043	559.51
25.4188	547.00
25.4332	575.07
25.4476	562.05
25.4621	531.34
25.4765	554.54
25.4910	535.84
25.5054	535.72
25.5198	556.20
25.5343	537.57
25.5487	528.87
25.5632	543.43
25.5776	544.06
25.5920	502.40
25.6065	511.63
25.6209	532.67
25.6354	549.40
25.6498	535.80
25.6642	549.42
25.6787	527.29
25.6931	559.41
25.7076	545.05
25.7220	522.78
25.7364	492.69
25.7509	552.25
25.7653	545.56
25.7798	560.74
25.7942	561.98
25.8086	551.88
25.8231	531.02
25.8375	565.00
25.8520	600.04
25.8664	518.51
25.8808	505.45
25.8953	541.91
25.9097	547.18
25.9242	550.21
25.9386	564.59
25.9530	555.87
25.9675	508.51
25.9819	517.33
25.9964	523.12
26.0108	521.30
26.0252	540.85
26.0397	557.74
26.0541	534.92
26.0686	523.85
26.0830	536.62
26.0974	515.65
26.1119	534.85
26.1263	535.14
26.1408	525.48
26.1552	513.05
26.1696	534.47
26.1841	529.86
26.1985	534.33
26.2130	519.42
26.2274	511.04
26.2418	509.21
26.2563	540.05
26.2707	549.01
26.2852	536.39
26.2996	536.48
26.3140	503.76
26.3285	509.62
26.3429	550.83
26.3574	545.26
26.3718	548.48
26.3862	538.66
26.4007	506.64
26.4151	518.41
26.4296	519.82
26.4440	513.23
26.4584	505.38
26.4729	526.78
26.4873	519.48
26.5018	553.78
26.5162	519.80
26.5306	562.95
26.5451	522.07
26.5595	519.34
26.5740	518.48
26.5884	533.03
26.6028	549.94
26.6173	528.25
26.6317	532.36
26.6462	535.66
26.6606	505.92
26.6750	504.70
26.6895	509.40
26.7039	534.47
26.7184	565.69
26.7328	535.85
26.7472	522.73
26.7617	535.19
26.7761	507.81
26.7906	532.42
26.8050	547.23
26.8194	536.93
26.8339	525.81
26.8483	499.56
26.8628	541.48
26.8772	528.46
26.8917	501.40
26.9061	521.83
26.9205	509.29
26.9350	535.86
26.9494	553.49
26.9639	547.09
26.9783	552.40
26.9927	505.71
27.0072	502.25
27.0216	536.36
27.0361	535.40
27.0505	558.68
27.0649	542.59
27.0794	520.73
27.0938	559.50
27.1083	540.14
27.1227	516.30
27.1371	509.43
27.1516	510.28
27.1660	526.76
27.1805	521.63
27.1949	524.83
27.2093	530.17
27.2238	524.87
27.2382	514.79
27.2527	508.19
27.2671	543.26
27.2815	542.82
27.2960	511.76
27.3104	494.34
27.3249	522.63
27.3393	501.59
27.3537	543.71
27.3682	520.73
27.3826	477.91
27.3971	480.72
27.4115	506.17
27.4259	556.30
27.4404	550.61
27.4548	542.35
27.4693	535.89
27.4837	535.18
27.4981	531.42
27.5126	503.96
27.5270	519.31
27.5415	545.70
27.5559	505.61
27.5703	499.04
27.5848	507.80
27.5992	521.92
27.6137	534.12
27.6281	527.34
27.6425	496.33
27.6570	473.33
27.6714	507.95
27.6859	494.14
27.7003	501.70
27.7147	545.14
27.7292	511.71
27.7436	505.88
27.7581	491.99
27.7725	501.40
27.7869	516.80
27.8014	518.34
27.8158	513.59
27.8303	513.08
27.8447	468.23
27.8591	518.10
27.8736	537.86
27.8880	523.81
27.9025	506.60
27.9169	510.08
27.9313	510.33
27.9458	504.41
27.9602	474.52
27.9747	514.42
27.9891	527.18
28.0035	510.46
28.0180	535.78
28.0324	551.05
28.0469	520.77
28.0613	510.92
28.0757	487.66
28.0902	509.87
28.1046	512.91
28.1191	527.73
28.1335	532.71
28.1479	524.25
28.1624	501.74
28.1768	510.21
28.1913	538.11
28.2057	493.75
28.2201	504.07
28.2346	518.75
28.2490	533.21
28.2635	507.95
28.2779	526.79
28.2923	519.21
28.3068	513.37
28.3212	506.05
28.3357	529.73
28.3501	547.17
28.3645	503.87
28.3790	497.93
28.3934	536.05
28.4079	529.42
28.4223	518.08
28.4367	519.52
28.4512	516.87
28.4656	556.27
28.4801	528.01
28.4945	537.98
28.5089	512.44
28.5234	519.20
28.5378	512.38
28.5523	537.57
28.5667	545.65
28.5811	489.47
28.5956	507.86
28.6100	490.93
28.6245	504.78
28.6389	519.86
28.6533	534.25
28.6678	528.42
28.6822	505.48
28.6967	483.18
28.7111	511.45
28.7255	513.13
28.7400	487.83
28.7544	499.56
28.7689	506.86
28.7833	509.80
28.7977	500.14
28.8122	492.34
28.8266	482.52
28.8411	512.99
28.8555	542.45
28.8699	500.68
28.8844	520.34
28.8988	540.44
28.9133	528.28
28.9277	496.16
28.9421	533.65
28.9566	503.04
28.9710	501.59
28.9855	474.65
28.9999	495.59
29.0143	533.68
29.0288	496.04
29.0432	518.81
29.0577	503.37
29.0721	513.31
29.0865	509.56
29.1010	491.81
29.1154	509.11
29.1299	526.14
29.1443	485.59
29.1587	479.06
29.1732	489.70
29.1876	501.07
29.2021	495.82
29.2165	532.86
29.2309	502.93
29.2454	517.60
29.2598	531.45
29.2743	539.31
29.2887	525.78
29.3031	469.48
29.3176	514.39
29.3320	511.40
29.3465	503.58
29.3609	512.27
29.3753	479.11
29.3898	489.34
29.4042	486.84
29.4187	530.89
29.4331	549.66
29.4475	496.53
29.4620	507.89
29.4764	491.68
29.4909	519.83
29.5053	510.15
29.5197	502.59
29.5342	523.94
29.5486	503.12
29.5631	505.07
29.5775	489.71
29.5919	518.07
29.6064	496.22
29.6208	504.19
29.6353	497.71
29.6497	478.62
29.6641	525.52
29.6786	522.68
29.6930	488.10
29.7075	514.36
29.7219	481.81
29.7363	471.44
29.7508	538.36
29.7652	495.35
29.7797	497.56
29.7941	508.39
29.8085	513.99
29.8230	489.57
29.8374	481.91
29.8519	480.39
29.8663	537.31
29.8807	507.92
29.8952	498.01
29.9096	505.04
29.9241	484.67
29.9385	496.52
29.9529	500.01
29.9674	484.91
29.9818	512.05
29.9963	519.93
30.0107	521.70
30.0251	545.12
30.0396	505.48
30.0540	471.03
30.0685	514.01
30.0829	519.02
30.0973	501.96
30.1118	522.82
30.1262	516.22
30.1407	494.17
30.1551	488.05
30.1695	489.02
30.1840	513.99
30.1984	499.91
30.2129	510.87
30.2273	489.20
30.2417	498.82
30.2562	486.33
30.2706	527.37
30.2851	537.91
30.2995	530.77
30.3139	483.13
30.3284	501.81
30.3428	502.30
30.3573	506.13
30.3717	534.81
30.3861	532.43
30.4006	539.63
30.4150	507.32
30.4295	503.64
30.4439	531.49
30.4583	560.23
30.4728	550.97
30.4872	533.45
30.5017	504.94
30.5161	508.84
30.5305	515.29
30.5450	483.78
30.5594	507.49
30.5739	535.55
30.5883	530.94
30.6028	535.24
30.6172	537.73
30.6316	556.01
30.6461	587.02
30.6605	598.62
30.6750	574.53
30.6894	614.10
30.7038	684.96
30.7183	698.56
30.7327	722.95
30.7472	720.72
30.7616	699.91
30.7760	684.42
30.7905	714.31
30.8049	703.78
30.8194	691.52
30.8338	650.58
30.8482	655.35
30.8627	658.00
30.8771	604.56
30.8916	581.23
30.9060	576.41
30.9204	535.54
30.9349	532.72
30.9493	556.17
30.9638	555.42
30.9782	541.88
30.9926	527.17
31.0071	519.72
31.0215	503.90
31.0360	539.81
31.0504	508.47
31.0648	502.02
31.0793	521.91
31.0937	513.94
31.1082	519.36
31.1226	508.45
31.1370	508.25
31.1515	488.79
31.1659	509.27
31.1804	530.59
31.1948	498.09
31.2092	485.78
31.2237	543.01
31.2381	514.22
31.2526	494.19
31.2670	529.55
31.2814	543.73
31.2959	522.64
31.3103	528.02
31.3248	530.38
31.3392	535.05
31.3536	512.66
31.3681	517.15
31.3825	538.37
31.3970	512.59
31.4114	523.13
31.4258	536.66
31.4403	519.42
31.4547	478.20
31.4692	493.64
31.4836	496.48
31.4980	527.83
31.5125	501.62
31.5269	516.02
31.5414	484.94
31.5558	481.08
31.5702	509.87
31.5847	539.48
31.5991	500.31
31.6136	513.62
31.6280	506.41
31.6424	513.54
31.6569	503.90
31.6713	506.60
31.6858	512.66
31.7002	506.88
31.7146	503.42
31.7291	504.30
31.7435	512.06
31.7580	501.03
31.7724	505.79
31.7868	514.24
31.8013	508.65
31.8157	463.50
31.8302	495.65
31.8446	535.54
31.8590	521.55
31.8735	547.61
31.8879	521.73
31.9024	514.96
31.9168	471.53
31.9312	473.87
31.9457	522.75
31.9601	510.98
31.9746	502.42
31.9890	546.06
32.0034	502.83
32.0179	485.47
32.0323	510.52
32.0468	537.68
32.0612	521.21
32.0756	518.87
32.0901	511.30
32.1045	493.04
32.1190	501.75
32.1334	507.19
32.1478	497.76
32.1623	502.35
32.1767	488.98
32.1912	518.35
32.2056	521.78
32.2200	506.11
32.2345	499.60
32.2489	510.96
32.2634	509.14
32.2778	468.29
32.2922	517.43
32.3067	515.18
32.3211	493.10
32.3356	508.22
32.3500	503.50
32.3644	487.57
32.3789	494.46
32.3933	509.76
32.4078	535.56
32.4222	541.74
32.4366	533.04
32.4511	476.23
32.4655	511.06
32.4800	523.89
32.4944	505.84
32.5088	484.59
32.5233	515.75
32.5377	506.34
32.5522	504.42
32.5666	501.22
32.5810	507.78
32.5955	500.18
32.6099	501.11
32.6244	533.20
32.6388	507.59
32.6532	478.78
32.6677	497.21
32.6821	486.40
32.6966	488.34
32.7110	540.97
32.7254	509.47
32.7399	505.81
32.7543	470.38
32.7688	488.82
32.7832	492.90
32.7976	495.68
32.8121	496.19
32.8265	475.53
32.8410	500.46
32.8554	498.33
32.8698	512.12
32.8843	477.82
32.8987	509.78
32.9132	473.06
32.9276	554.77
32.9420	515.81
32.9565	461.44
32.9709	507.32
32.9854	512.47
32.9998	525.94
33.0142	478.63
33.0287	531.77
33.0431	508.10
33.0576	504.22
33.0720	505.01
33.0864	556.48
33.1009	522.99
33.1153	539.90
33.1298	526.08
33.1442	447.83
33.1586	493.13
33.1731	511.80
33.1875	504.75
33.2020	498.59
33.2164	515.76
33.2308	485.93
33.2453	538.70
33.2597	492.36
33.2742	488.13
33.2886	508.10
33.3030	518.55
33.3175	507.04
33.3319	490.97
33.3464	517.79
33.3608	483.84
33.3752	509.12
33.3897	502.38
33.4041	520.36
33.4186	530.88
33.4330	517.44
33.4474	501.14
33.4619	523.24
33.4763	547.82
33.4908	504.03
33.5052	480.48
33.5196	506.16
33.5341	505.31
33.5485	513.34
33.5630	521.36
33.5774	494.00
33.5918	502.46
33.6063	523.31
33.6207	539.27
33.6352	540.45
33.6496	506.48
33.6640	526.37
33.6785	497.82
33.6929	521.43
33.7074	480.30
33.7218	504.23
33.7362	525.97
33.7507	529.87
33.7651	492.10
33.7796	492.47
33.7940	501.94
33.8084	514.06
33.8229	491.58
33.8373	490.67
33.8518	495.54
33.8662	545.00
33.8806	511.67
33.8951	500.61
33.9095	515.14
33.9240	477.20
33.9384	478.06
33.9528	498.16
33.9673	528.74
33.9817	500.37
33.9962	527.54
34.0106	556.33
34.0250	506.23
34.0395	515.17
34.0539	512.76
34.0684	474.97
34.0828	511.08
34.0972	481.98
34.1117	479.59
34.1261	520.59
34.1406	501.12
34.1550	489.47
34.1694	525.50
34.1839	501.40
34.1983	504.37
34.2128	474.03
34.2272	506.10
34.2417	526.14
34.2561	477.26
34.2705	473.71
34.2850	494.55
34.2994	516.72
34.3139	479.29
34.3283	510.31
34.3427	506.99
34.3572	511.57
34.3716	506.80
34.3861	515.63
34.4005	473.35
34.4149	491.36
34.4294	525.58
34.4438	546.40
34.4583	507.83
34.4727	499.13
34.4871	484.32
34.5016	501.30
34.5160	487.53
34.5305	491.50
34.5449	498.52
34.5593	496.63
34.5738	521.93
34.5882	516.90
34.6027	502.65
34.6171	516.30
34.6315	540.81
34.6460	516.42
34.6604	508.72
34.6749	521.78
34.6893	521.34
34.7037	507.92
34.7182	492.41
34.7326	485.63
34.7471	510.36
34.7615	502.43
34.7759	512.80
34.7904	502.85
34.8048	497.13
34.8193	502.13
34.8337	510.75
34.8481	501.29
34.8626	516.37
34.8770	499.71
34.8915	528.57
34.9059	553.25
34.9203	500.07
34.9348	492.60
34.9492	501.92
34.9637	486.51
34.9781	514.25
34.9925	482.57
35.0070	510.10
35.0214	509.76
35.0359	503.42
35.0503	480.60
35.0647	510.02
35.0792	518.05
35.0936	504.61
35.1081	487.37
35.1225	519.40
35.1369	527.50
35.1514	497.95
35.1658	531.07
35.1803	474.04
35.1947	493.97
35.2091	489.46
35.2236	497.97
35.2380	503.60
35.2525	515.92
35.2669	522.86
35.2813	557.98
35.2958	501.82
35.3102	522.36
35.3247	514.34
35.3391	509.37
35.3535	495.65
35.3680	519.94
35.3824	501.10
35.3969	502.91
35.4113	489.66
35.4257	510.78
35.4402	524.58
35.4546	522.23
35.4691	533.55
35.4835	535.08
35.4979	540.14
35.5124	530.17
35.5268	545.38
35.5413	573.80
35.5557	545.55
35.5701	507.99
35.5846	511.89
35.5990	500.75
35.6135	522.24
35.6279	518.20
35.6423	532.66
35.6568	559.00
35.6712	563.63
35.6857	565.37
35.7001	647.03
35.7145	713.87
35.7290	668.01
35.7434	602.47
35.7579	537.39
35.7723	567.66
35.7867	604.15
35.8012	629.07
35.8156	641.23
35.8301	597.48
35.8445	576.41
35.8589	663.60
35.8734	706.57
35.8878	834.59
35.9023	999.01
35.9167	1078.71
35.9311	1345.64
35.9456	2045.28
35.9600	2408.30
35.9745	1889.58
35.9889	1929.38
36.0033	2317.32
36.0178	2388.91
36.0322	2033.22
36.0467	1872.57
36.0611	1717.32
36.0755	1661.23
36.0900	1690.81
36.1044	1644.45
36.1189	1582.94
36.1333	1413.03
36.1477	1261.72
36.1622	1332.59
36.1766	1285.42
36.1911	1179.02
36.2055	1129.06
36.2199	1122.65
36.2344	1099.84
36.2488	1043.94
36.2633	1019.07
36.2777	990.96
36.2921	962.43
36.3066	875.58
36.3210	839.94
36.3355	822.69
36.3499	777.36
36.3643	791.54
36.3788	701.57
36.3932	620.95
36.4077	567.41
36.4221	615.69
36.4365	593.78
36.4510	585.98
36.4654	558.48
36.4799	592.98
36.4943	607.08
36.5087	572.30
36.5232	567.20
36.5376	580.55
36.5521	598.76
36.5665	529.73
36.5809	514.47
36.5954	546.17
36.6098	562.85
36.6243	518.23
36.6387	509.35
36.6531	538.09
36.6676	546.81
36.6820	521.87
36.6965	514.87
36.7109	551.68
36.7253	566.25
36.7398	530.04
36.7542	537.51
36.7687	510.83
36.7831	531.41
36.7975	546.73
36.8120	584.73
36.8264	584.92
36.8409	576.99
36.8553	588.32
36.8697	598.15
36.8842	605.35
36.8986	610.83
36.9131	584.94
36.9275	608.53
36.9419	589.70
36.9564	542.37
36.9708	553.11
36.9853	558.47
36.9997	594.79
37.0141	554.01
37.0286	526.89
37.0430	515.86
37.0575	510.80
37.0719	531.50
37.0863	531.29
37.1008	513.16
37.1152	548.02
37.1297	506.39
37.1441	485.03
37.1585	483.85
37.1730	479.74
37.1874	509.94
37.2019	497.65
37.2163	495.03
37.2307	524.85
37.2452	513.58
37.2596	507.03
37.2741	497.11
37.2885	515.94
37.3029	471.43
37.3174	458.75
37.3318	500.08
37.3463	500.27
37.3607	503.61
37.3751	495.59
37.3896	534.75
37.4040	519.29
37.4185	505.77
37.4329	508.84
37.4473	503.66
37.4618	486.34
37.4762	505.01
37.4907	504.85
37.5051	494.58
37.5195	467.06
37.5340	512.49
37.5484	522.07
37.5629	487.80
37.5773	529.96
37.5917	519.43
37.6062	506.49
37.6206	519.19
37.6351	508.68
37.6495	520.07
37.6639	493.73
37.6784	481.55
37.6928	466.36
37.7073	491.58
37.7217	463.14
37.7361	491.99
37.7506	544.18
37.7650	520.06
37.7795	520.92
37.7939	509.71
37.8083	482.72
37.8228	503.72
37.8372	469.50
37.8517	509.95
37.8661	507.58
37.8805	515.22
37.8950	537.99
37.9094	512.61
37.9239	532.10
37.9383	502.29
37.9528	496.82
37.9672	527.88
37.9816	525.51
37.9961	494.23
38.0105	521.75
38.0250	511.32
38.0394	500.82
38.0538	491.01
38.0683	500.27
38.0827	525.41
38.0972	485.78
38.1116	499.23
38.1260	526.35
38.1405	503.65
38.1549	483.22
38.1694	490.05
38.1838	494.01
38.1982	479.61
38.2127	502.18
38.2271	498.91
38.2416	508.78
38.2560	512.53
38.2704	516.66
38.2849	541.78
38.2993	523.10
38.3138	487.33
38.3282	505.40
38.3426	508.49
38.3571	494.34
38.3715	512.58
38.3860	507.75
38.4004	529.85
38.4148	551.38
38.4293	606.42
38.4437	584.67
38.4582	622.57
38.4726	690.62
38.4870	738.00
38.5015	778.94
38.5159	776.76
38.5304	779.87
38.5448	837.84
38.5592	808.75
38.5737	745.24
38.5881	726.18
38.6026	695.98
38.6170	695.76
38.6314	677.37
38.6459	691.50
38.6603	657.10
38.6748	606.85
38.6892	572.89
38.7036	554.63
38.7181	529.89
38.7325	529.52
38.7470	555.35
38.7614	550.53
38.7758	518.90
38.7903	512.55
38.8047	499.57
38.8192	513.26
38.8336	505.27
38.8480	483.48
38.8625	485.20
38.8769	500.03
38.8914	511.13
38.9058	525.77
38.9202	515.53
38.9347	525.88
38.9491	511.92
38.9636	522.20
38.9780	493.52
38.9924	482.90
39.0069	486.81
39.0213	509.61
39.0358	498.75
39.0502	486.77
39.0646	532.06
39.0791	507.83
39.0935	523.11
39.1080	493.57
39.1224	492.06
39.1368	481.02
39.1513	481.12
39.1657	523.18
39.1802	531.21
39.1946	502.58
39.2090	511.04
39.2235	490.66
39.2379	520.72
39.2524	513.16
39.2668	510.72
39.2812	515.20
39.2957	500.55
39.3101	535.83
39.3246	507.81
39.3390	507.28
39.3534	535.61
39.3679	520.07
39.3823	496.36
39.3968	496.95
39.4112	521.26
39.4256	512.21
39.4401	487.11
39.4545	498.50
39.4690	513.30
39.4834	490.33
39.4978	502.87
39.5123	516.18
39.5267	522.90
39.5412	483.53
39.5556	490.95
39.5700	471.65
39.5845	498.55
39.5989	480.76
39.6134	524.33
39.6278	527.09
39.6422	494.65
39.6567	451.98
39.6711	475.70
39.6856	478.84
39.7000	520.00
39.7144	537.72
39.7289	491.65
39.7433	502.08
39.7578	467.12
39.7722	474.23
39.7866	501.50
39.8011	514.90
39.8155	475.46
39.8300	502.42
39.8444	512.13
39.8588	485.08
39.8733	505.73
39.8877	515.89
39.9022	517.75
39.9166	496.00
39.9310	517.65
39.9455	495.94
39.9599	482.57
39.9744	479.25
39.9888	523.53
40.0032	488.92
40.0177	495.39
40.0321	478.07
40.0466	497.74
40.0610	493.46
40.0754	526.78
40.0899	504.37
40.1043	493.68
40.1188	516.37
40.1332	500.07
40.1476	475.31
40.1621	498.44
40.1765	512.31
40.1910	494.42
40.2054	509.33
40.2198	483.06
40.2343	495.57
40.2487	482.20
40.2632	465.13
40.2776	517.26
40.2920	488.71
40.3065	492.78
40.3209	501.74
40.3354	482.39
40.3498	509.16
40.3642	503.99
40.3787	519.61
40.3931	499.02
40.4076	510.27
40.4220	521.86
40.4364	494.76
40.4509	466.15
40.4653	492.27
40.4798	501.73
40.4942	485.72
40.5086	484.94
40.5231	482.52
40.5375	500.46
40.5520	516.26
40.5664	483.44
40.5808	484.23
40.5953	500.81
40.6097	510.74
40.6242	487.96
40.6386	482.28
40.6530	500.58
40.6675	525.83
40.6819	507.88
40.6964	471.11
40.7108	500.29
40.7252	501.03
40.7397	517.36
40.7541	513.93
40.7686	517.30
40.7830	531.88
40.7974	496.77
40.8119	512.01
40.8263	494.46
40.8408	500.12
40.8552	500.03
40.8696	518.12
40.8841	486.34
40.8985	522.80
40.9130	525.98
40.9274	490.62
40.9418	493.76
40.9563	459.17
40.9707	512.48
40.9852	481.19
40.9996	504.78
41.0140	514.12
41.0285	498.68
41.0429	510.14
41.0574	526.59
41.0718	543.41
41.0862	484.79
41.1007	488.53
41.1151	515.24
41.1296	503.52
41.1440	501.65
41.1584	519.56
41.1729	513.68
41.1873	471.50
41.2018	497.78
41.2162	525.63
41.2306	508.77
41.2451	522.22
41.2595	484.05
41.2740	516.68
41.2884	476.65
41.3028	519.42
41.3173	533.38
41.3317	547.02
41.3462	499.26
41.3606	471.85
41.3750	480.64
41.3895	508.95
41.4039	484.13
41.4184	504.22
41.4328	512.12
41.4472	501.75
41.4617	483.72
41.4761	509.64
41.4906	523.74
41.5050	470.92
41.5194	506.82
41.5339	504.98
41.5483	518.68
41.5628	509.03
41.5772	480.32
41.5916	450.11
41.6061	512.35
41.6205	500.70
41.6350	475.85
41.6494	491.16
41.6639	486.41
41.6783	477.70
41.6927	512.98
41.7072	531.70
41.7216	483.85
41.7361	498.49
41.7505	517.17
41.7649	517.77
41.7794	468.69
41.7938	517.84
41.8083	509.08
41.8227	472.34
41.8371	522.02
41.8516	521.12
41.8660	493.04
41.8805	527.16
41.8949	532.63
41.9093	562.06
41.9238	548.84
41.9382	583.77
41.9527	565.01
41.9671	534.11
41.9815	558.29
41.9960	588.29
42.0104	545.78
42.0249	554.75
42.0393	558.43
42.0537	576.53
42.0682	584.83
42.0826	586.88
42.0971	601.34
42.1115	577.14
42.1259	596.98
42.1404	559.58
42.1548	601.59
42.1693	659.11
42.1837	672.65
42.1981	770.94
42.2126	851.14
42.2270	950.75
42.2415	1061.93
42.2559	1128.44
42.2703	1245.11
42.2848	1438.21
42.2992	1554.14
42.3137	1617.58
42.3281	1598.30
42.3425	1535.40
42.3570	1448.83
42.3714	1356.63
42.3859	1360.90
42.4003	1324.28
42.4147	1281.21
42.4292	1256.06
42.4436	1093.99
42.4581	1018.71
42.4725	948.35
42.4869	836.75
42.5014	739.56
42.5158	703.47
42.5303	687.24
42.5447	646.64
42.5591	627.95
42.5736	599.63
42.5880	558.74
42.6025	559.21
42.6169	550.50
42.6313	566.01
42.6458	544.73
42.6602	568.67
42.6747	517.20
42.6891	494.24
42.7035	526.85
42.7180	563.64
42.7324	536.77
42.7469	553.68
42.7613	530.74
42.7757	520.83
42.7902	529.76
42.8046	504.36
42.8191	519.21
42.8335	502.18
42.8479	499.60
42.8624	551.83
42.8768	527.17
42.8913	534.13
42.9057	544.57
42.9201	497.83
42.9346	478.08
42.9490	492.67
42.9635	518.85
42.9779	496.79
42.9923	486.34
43.0068	489.54
43.0212	541.83
43.0357	509.58
43.0501	505.66
43.0645	538.03
43.0790	499.66
43.0934	508.81
43.1079	480.75
43.1223	506.05
43.1367	531.93
43.1512	497.41
43.1656	540.05
43.1801	538.62
43.1945	546.97
43.2089	524.89
43.2234	530.41
43.2378	558.40
43.2523	530.66
43.2667	529.06
43.2811	538.17
43.2956	512.99
43.3100	489.13
43.3245	526.83
43.3389	526.52
43.3533	524.11
43.3678	498.27
43.3822	488.04
43.3967	536.52
43.4111	494.69
43.4255	516.91
43.4400	552.77
43.4544	489.68
43.4689	540.35
43.4833	533.33
43.4977	497.67
43.5122	523.03
43.5266	550.99
43.5411	554.76
43.5555	522.33
43.5699	486.29
43.5844	522.45
43.5988	519.10
43.6133	510.57
43.6277	509.18
43.6421	519.72
43.6566	495.78
43.6710	518.15
43.6855	525.36
43.6999	551.31
43.7143	559.07
43.7288	517.18
43.7432	540.09
43.7577	543.10
43.7721	531.20
43.7865	542.86
43.8010	509.20
43.8154	523.84
43.8299	502.06
43.8443	490.63
43.8587	554.64
43.8732	546.30
43.8876	541.60
43.9021	552.36
43.9165	566.39
43.9309	595.72
43.9454	580.31
43.9598	597.73
43.9743	612.30
43.9887	585.28
44.0031	647.25
44.0176	618.53
44.0320	640.37
44.0465	676.98
44.0609	668.35
44.0753	606.78
44.0898	653.92
44.1042	609.36
44.1187	601.75
44.1331	620.02
44.1475	577.71
44.1620	587.77
44.1764	583.97
44.1909	571.72
44.2053	551.06
44.2197	600.13
44.2342	551.14
44.2486	518.72
44.2631	526.44
44.2775	510.89
44.2919	502.10
44.3064	546.78
44.3208	530.04
44.3353	520.73
44.3497	516.41
44.3641	572.02
44.3786	587.23
44.3930	540.99
44.4075	537.25
44.4219	533.41
44.4363	590.51
44.4508	545.18
44.4652	586.71
44.4797	566.16
44.4941	580.38
44.5085	578.90
44.5230	593.02
44.5374	558.42
44.5519	571.71
44.5663	573.56
44.5807	590.65
44.5952	566.83
44.6096	620.57
44.6241	531.04
44.6385	564.08
44.6529	557.20
44.6674	555.68
44.6818	562.94
44.6963	621.91
44.7107	673.59
44.7251	674.93
44.7396	775.60
44.7540	813.59
44.7685	855.77
44.7829	847.18
44.7973	850.45
44.8118	832.66
44.8262	823.19
44.8407	772.20
44.8551	727.37
44.8695	750.33
44.8840	747.77
44.8984	776.40
44.9129	705.85
44.9273	679.23
44.9417	627.07
44.9562	604.42
44.9706	558.12
44.9851	542.60
44.9995	519.82
45.0139	516.11
45.0284	519.54
45.0428	523.45
45.0573	472.15
45.0717	524.64
45.0861	506.68
45.1006	547.22
45.1150	519.09
45.1295	511.28
45.1439	508.04
45.1583	511.95
45.1728	501.54
45.1872	498.54
45.2017	507.16
45.2161	514.53
45.2305	507.02
45.2450	518.44
45.2594	514.58
45.2739	508.29
45.2883	522.03
45.3028	518.44
45.3172	522.75
45.3316	505.23
45.3461	508.27
45.3605	522.16
45.3750	488.84
45.3894	492.70
45.4038	523.83
45.4183	496.78
45.4327	524.02
45.4472	494.29
45.4616	501.61
45.4760	490.69
45.4905	473.63
45.5049	502.06
45.5194	504.13
45.5338	519.96
45.5482	508.55
45.5627	500.53
45.5771	497.78
45.5916	503.43
45.6060	502.44
45.6204	466.38
45.6349	507.19
45.6493	500.44
45.6638	495.60
45.6782	496.47
45.6926	514.39
45.7071	503.77
45.7215	488.41
45.7360	490.64
45.7504	507.02
45.7648	484.95
45.7793	511.71
45.7937	508.19
45.8082	511.52
45.8226	485.84
45.8370	520.49
45.8515	483.44
45.8659	504.10
45.8804	489.72
45.8948	482.19
45.9092	478.18
45.9237	500.69
45.9381	527.75
45.9526	516.28
45.9670	487.71
45.9814	500.67
45.9959	479.03
46.0103	492.64
46.0248	502.13
46.0392	489.87
46.0536	503.98
46.0681	501.95
46.0825	537.23
46.0970	529.61
46.1114	516.65
46.1258	516.98
46.1403	503.05
46.1547	476.08
46.1692	523.90
46.1836	510.81
46.1980	470.00
46.2125	498.13
46.2269	485.08
46.2414	484.75
46.2558	496.18
46.2702	464.64
46.2847	496.95
46.2991	512.89
46.3136	518.91
46.3280	518.48
46.3424	487.65
46.3569	483.64
46.3713	530.27
46.3858	493.36
46.4002	499.49
46.4146	497.21
46.4291	514.47
46.4435	475.37
46.4580	525.81
46.4724	500.72
46.4868	523.10
46.5013	492.80
46.5157	484.79
46.5302	499.05
46.5446	486.76
46.5590	501.10
46.5735	499.89
46.5879	523.43
46.6024	491.12
46.6168	508.07
46.6312	542.50
46.6457	534.85
46.6601	479.80
46.6746	500.16
46.6890	506.29
46.7034	492.80
46.7179	493.84
46.7323	512.47
46.7468	489.45
46.7612	472.66
46.7756	534.50
46.7901	530.70
46.8045	513.67
46.8190	516.32
46.8334	502.24
46.8478	515.45
46.8623	527.92
46.8767	503.43
46.8912	500.87
46.9056	546.33
46.9200	516.87
46.9345	523.42
46.9489	547.42
46.9634	502.60
46.9778	472.88
46.9922	496.96
47.0067	497.71
47.0211	504.63
47.0356	511.19
47.0500	539.89
47.0644	520.89
47.0789	510.34
47.0933	523.13
47.1078	525.79
47.1222	524.29
47.1366	497.13
47.1511	481.67
47.1655	517.68
47.1800	505.23
47.1944	488.79
47.2088	473.61
47.2233	485.08
47.2377	501.03
47.2522	487.40
47.2666	515.38
47.2810	531.13
47.2955	473.04
47.3099	493.98
47.3244	517.82
47.3388	520.56
47.3532	491.35
47.3677	537.48
47.3821	489.67
47.3966	506.04
47.4110	517.14
47.4254	479.13
47.4399	516.10
47.4543	516.77
47.4688	501.25
47.4832	491.34
47.4976	506.92
47.5121	524.17
47.5265	498.08
47.5410	501.36
47.5554	511.14
47.5698	498.09
47.5843	488.82
47.5987	548.55
47.6132	495.97
47.6276	493.37
47.6420	506.40
47.6565	496.88
47.6709	497.50
47.6854	503.07
47.6998	503.12
47.7142	520.84
47.7287	527.46
47.7431	499.33
47.7576	512.22
47.7720	497.27
47.7864	485.21
47.8009	499.06
47.8153	494.88
47.8298	509.55
47.8442	504.77
47.8586	514.38
47.8731	532.94
47.8875	519.22
47.9020	501.25
47.9164	533.57
47.9308	510.90
47.9453	532.96
47.9597	514.25
47.9742	526.04
47.9886	531.53
48.0030	501.74
48.0175	518.49
48.0319	527.07
48.0464	511.22
48.0608	548.96
48.0752	517.33
48.0897	497.13
48.1041	479.18
48.1186	518.37
48.1330	508.55
48.1474	474.65
48.1619	514.71
48.1763	512.52
48.1908	513.54
48.2052	518.15
48.2196	529.19
48.2341	498.09
48.2485	522.07
48.2630	502.62
48.2774	539.21
48.2918	498.12
48.3063	525.54
48.3207	505.79
48.3352	522.69
48.3496	513.86
48.3640	526.79
48.3785	518.84
48.3929	529.09
48.4074	515.09
48.4218	536.23
48.4362	533.46
48.4507	511.14
48.4651	524.09
48.4796	516.49
48.4940	544.77
48.5084	519.93
48.5229	526.37
48.5373	495.46
48.5518	480.39
48.5662	485.96
48.5806	501.52
48.5951	520.37
48.6095	511.01
48.6240	542.76
48.6384	536.97
48.6528	537.84
48.6673	520.46
48.6817	486.10
48.6962	505.54
48.7106	530.55
48.7250	542.24
48.7395	530.51
48.7539	536.30
48.7684	511.10
48.7828	501.52
48.7972	552.57
48.8117	531.28
48.8261	502.62
48.8406	510.17
48.8550	529.24
48.8694	520.00
48.8839	521.18
48.8983	526.18
48.9128	575.17
48.9272	532.29
48.9416	550.07
48.9561	531.06
48.9705	554.41
48.9850	531.66
48.9994	559.75
49.0139	563.85
49.0283	578.52
49.0427	579.33
49.0572	629.22
49.0716	606.34
49.0861	675.33
49.1005	679.98
49.1149	670.63
49.1294	687.93
49.1438	711.76
49.1583	800.27
49.1727	867.58
49.1871	858.63
49.2016	923.40
49.2160	990.29
49.2305	1055.31
49.2449	1148.37
49.2593	1210.18
49.2738	1355.65
49.2882	1424.28
49.3027	1500.49
49.3171	1607.59
49.3315	1630.08
49.3460	1736.36
49.3604	1792.47
49.3749	1776.50
49.3893	1759.77
49.4037	1730.89
49.4182	1785.79
49.4326	1751.40
49.4471	1585.57
49.4615	1575.50
49.4759	1528.05
49.4904	1460.80
49.5048	1379.98
49.5193	1322.83
49.5337	1249.43
49.5481	1155.41
49.5626	1127.27
49.5770	1097.52
49.5915	1039.78
49.6059	928.64
49.6203	831.18
49.6348	817.27
49.6492	826.57
49.6637	781.37
49.6781	716.33
49.6925	683.58
49.7070	685.68
49.7214	658.57
49.7359	640.83
49.7503	619.33
49.7647	574.37
49.7792	605.82
49.7936	598.73
49.8081	575.81
49.8225	553.18
49.8369	571.71
49.8514	549.24
49.8658	552.89
49.8803	558.78
49.8947	591.29
49.9091	575.06
49.9236	565.20
49.9380	549.39
49.9525	507.27
49.9669	528.52
49.9813	508.31
49.9958	481.23
50.0102	515.43
50.0247	515.67
50.0391	505.08
50.0535	539.55
50.0680	535.14
50.0824	537.87
50.0969	551.92
50.1113	549.67
50.1257	539.24
50.1402	496.10
50.1546	515.53
50.1691	530.98
50.1835	537.22
50.1979	524.27
50.2124	522.62
50.2268	527.72
50.2413	518.71
50.2557	521.13
50.2701	533.45
50.2846	509.81
50.2990	507.39
50.3135	520.47
50.3279	533.42
50.3423	527.97
50.3568	517.08
50.3712	505.00
50.3857	510.14
50.4001	526.61
50.4145	537.34
50.4290	541.44
50.4434	544.17
50.4579	530.64
50.4723	506.82
50.4867	494.12
50.5012	506.88
50.5156	498.89
50.5301	527.92
50.5445	554.03
50.5589	537.94
50.5734	523.29
50.5878	542.74
50.6023	530.13
50.6167	496.10
50.6311	512.60
50.6456	494.63
50.6600	506.16
50.6745	486.95
50.6889	475.44
50.7033	503.05
50.7178	523.10
50.7322	532.31
50.7467	498.69
50.7611	505.63
50.7755	539.24
50.7900	514.11
50.8044	502.83
50.8189	514.58
50.8333	514.63
50.8477	491.86
50.8622	522.12
50.8766	512.91
50.8911	489.70
50.9055	501.57
50.9199	513.62
50.9344	500.78
50.9488	513.64
50.9633	496.77
50.9777	449.57
50.9921	512.21
51.0066	524.94
51.0210	516.14
51.0355	503.37
51.0499	504.37
51.0643	494.63
51.0788	497.71
51.0932	515.79
51.1077	521.36
51.1221	565.03
51.1365	524.40
51.1510	509.35
51.1654	522.80
51.1799	504.80
51.1943	517.69
51.2087	507.58
51.2232	504.94
51.2376	513.72
51.2521	520.83
51.2665	507.06
51.2809	513.54
51.2954	506.40
51.3098	518.37
51.3243	505.89
51.3387	502.26
51.3531	523.59
51.3676	544.59
51.3820	498.55
51.3965	486.70
51.4109	506.92
51.4253	524.54
51.4398	470.99
51.4542	495.68
51.4687	507.58
51.4831	516.53
51.4975	495.17
51.5120	498.57
51.5264	480.15
51.5409	483.49
51.5553	507.50
51.5697	479.90
51.5842	506.43
51.5986	513.41
51.6131	533.22
51.6275	543.33
51.6419	502.96
51.6564	487.57
51.6708	479.47
51.6853	516.19
51.6997	518.82
51.7141	499.25
51.7286	510.44
51.7430	533.94
51.7575	529.15
51.7719	518.50
51.7863	506.26
51.8008	522.67
51.8152	535.07
51.8297	519.45
51.8441	492.10
51.8585	509.14
51.8730	528.09
51.8874	525.39
51.9019	495.65
51.9163	486.33
51.9307	500.42
51.9452	526.65
51.9596	473.09
51.9741	527.65
51.9885	547.57
52.0029	492.07
52.0174	493.09
52.0318	506.73
52.0463	506.27
52.0607	487.62
52.0751	479.48
52.0896	503.41
52.1040	488.84
52.1185	520.72
52.1329	544.85
52.1473	511.12
52.1618	514.69
52.1762	526.04
52.1907	472.65
52.2051	501.05
52.2195	503.24
52.2340	510.31
52.2484	551.84
52.2629	507.96
52.2773	493.75
52.2917	481.03
52.3062	489.90
52.3206	516.41
52.3351	536.04
52.3495	497.83
52.3639	493.82
52.3784	515.10
52.3928	482.57
52.4073	468.84
52.4217	506.89
52.4361	526.23
52.4506	515.93
52.4650	497.81
52.4795	527.23
52.4939	530.88
52.5083	532.50
52.5228	501.65
52.5372	548.17
52.5517	508.04
52.5661	494.26
52.5805	522.14
52.5950	479.30
52.6094	496.56
52.6239	496.89
52.6383	497.95
52.6527	542.45
52.6672	573.51
52.6816	493.88
52.6961	526.78
52.7105	527.80
52.7250	498.67
52.7394	481.16
52.7538	488.99
52.7683	496.02
52.7827	547.33
52.7972	520.94
52.8116	532.72
52.8260	507.33
52.8405	486.85
52.8549	498.11
52.8694	537.19
52.8838	514.73
52.8982	502.49
52.9127	503.17
52.9271	531.39
52.9416	528.98
52.9560	532.67
52.9704	503.24
52.9849	513.47
52.9993	529.41
53.0138	535.74
53.0282	544.12
53.0426	499.39
53.0571	517.98
53.0715	497.44
53.0860	541.06
53.1004	564.39
53.1148	541.78
53.1293	545.03
53.1437	517.53
53.1582	531.39
53.1726	526.86
53.1870	490.34
53.2015	496.94
53.2159	514.94
53.2304	498.25
53.2448	536.31
53.2592	497.58
53.2737	511.62
53.2881	545.12
53.3026	520.11
53.3170	519.02
53.3314	503.73
53.3459	515.60
53.3603	526.50
53.3748	502.31
53.3892	516.57
53.4036	512.00
53.4181	540.25
53.4325	512.98
53.4470	479.85
53.4614	523.15
53.4758	512.57
53.4903	508.45
53.5047	518.34
53.5192	524.65
53.5336	522.43
53.5480	499.72
53.5625	523.95
53.5769	511.08
53.5914	523.38
53.6058	540.94
53.6202	519.64
53.6347	512.26
53.6491	502.02
53.6636	503.92
53.6780	514.96
53.6924	478.00
53.7069	512.57
53.7213	516.64
53.7358	511.12
53.7502	513.20
53.7646	534.68
53.7791	536.85
53.7935	506.60
53.8080	513.67
53.8224	497.00
53.8368	513.27
53.8513	496.47
53.8657	456.25
53.8802	499.27
53.8946	522.40
53.9090	514.28
53.9235	523.24
53.9379	483.79
53.9524	509.26
53.9668	510.59
53.9812	557.73
53.9957	544.91
54.0101	562.52
54.0246	484.18
54.0390	484.74
54.0534	508.51
54.0679	515.99
54.0823	515.55
54.0968	523.02
54.1112	493.64
54.1256	539.23
54.1401	506.19
54.1545	516.33
54.1690	532.47
54.1834	528.29
54.1978	503.33
54.2123	509.65
54.2267	514.21
54.2412	510.61
54.2556	504.62
54.2700	522.06
54.2845	525.87
54.2989	524.28
54.3134	502.30
54.3278	534.31
54.3422	545.53
54.3567	548.22
54.3711	560.91
54.3856	536.76
54.4000	502.55
54.4144	506.76
54.4289	555.07
54.4433	531.56
54.4578	529.12
54.4722	558.65
54.4866	587.22
54.5011	568.80
54.5155	560.97
54.5300	591.95
54.5444	590.48
54.5588	570.87
54.5733	529.57
54.5877	541.89
54.6022	599.08
54.6166	605.10
54.6310	585.59
54.6455	595.87
54.6599	606.41
54.6744	595.94
54.6888	587.13
54.7032	574.47
54.7177	568.52
54.7321	577.19
54.7466	589.02
54.7610	571.86
54.7754	550.14
54.7899	572.19
54.8043	585.37
54.8188	591.37
54.8332	537.15
54.8476	529.16
54.8621	549.93
54.8765	536.22
54.8910	521.58
54.9054	541.54
54.9198	542.23
54.9343	545.72
54.9487	524.28
54.9632	522.97
54.9776	541.81
54.9920	537.78
55.0065	482.11
55.0209	499.07
55.0354	526.89
55.0498	531.89
55.0642	509.49
55.0787	498.59
55.0931	540.18
55.1076	526.29
55.1220	535.19
55.1364	507.82
55.1509	485.39
55.1653	552.44
55.1798	504.87
55.1942	544.60
55.2086	537.66
55.2231	557.39
55.2375	561.20
55.2520	536.06
55.2664	526.90
55.2808	551.98
55.2953	504.70
55.3097	496.07
55.3242	541.50
55.3386	546.71
55.3530	524.01
55.3675	521.68
55.3819	529.34
55.3964	518.56
55.4108	498.81
55.4252	517.60
55.4397	513.47
55.4541	533.99
55.4686	546.70
55.4830	557.72
55.4974	501.67
55.5119	514.94
55.5263	518.16
55.5408	535.44
55.5552	530.89
55.5696	500.34
55.5841	506.95
55.5985	578.15
55.6130	551.15
55.6274	555.50
55.6418	541.59
55.6563	511.58
55.6707	544.93
55.6852	506.98
55.6996	514.84
55.7140	526.90
55.7285	499.91
55.7429	498.72
55.7574	522.64
55.7718	508.82
55.7862	545.86
55.8007	523.25
55.8151	547.45
55.8296	542.07
55.8440	529.02
55.8584	510.93
55.8729	571.81
55.8873	556.57
55.9018	509.23
55.9162	500.93
55.9306	517.46
55.9451	516.77
55.9595	521.37
55.9740	533.19
55.9884	537.15
56.0028	522.39
56.0173	534.17
56.0317	496.27
56.0462	516.19
56.0606	522.23
56.0750	526.96
56.0895	554.47
56.1039	483.02
56.1184	490.98
56.1328	524.71
56.1472	532.44
56.1617	506.10
56.1761	515.89
56.1906	525.77
56.2050	530.13
56.2194	525.60
56.2339	540.26
56.2483	515.58
56.2628	516.23
56.2772	511.58
56.2916	486.62
56.3061	509.36
56.3205	496.51
56.3350	560.22
56.3494	555.66
56.3639	527.09
56.3783	532.86
56.3927	525.93
56.4072	521.77
56.4216	540.13
56.4361	529.11
56.4505	538.02
56.4649	511.61
56.4794	520.85
56.4938	527.78
56.5083	494.07
56.5227	463.39
56.5371	541.36
56.5516	535.75
56.5660	535.97
56.5805	515.62
56.5949	513.56
56.6093	544.38
56.6238	518.64
56.6382	522.61
56.6527	516.15
56.6671	489.63
56.6815	487.70
56.6960	519.61
56.7104	509.32
56.7249	532.16
56.7393	513.07
56.7537	502.94
56.7682	532.99
56.7826	528.08
56.7971	532.54
56.8115	522.74
56.8259	525.69
56.8404	524.70
56.8548	526.43
56.8693	524.72
56.8837	521.26
56.8981	539.71
56.9126	533.11
56.9270	497.92
56.9415	556.92
56.9559	511.97
56.9703	506.56
56.9848	516.94
56.9992	514.73
57.0137	525.82
57.0281	533.41
57.0425	518.95
57.0570	516.94
57.0714	514.48
57.0859	562.26
57.1003	537.76
57.1147	528.11
57.1292	510.76
57.1436	504.75
57.1581	491.06
57.1725	536.79
57.1869	522.53
57.2014	537.95
57.2158	518.68
57.2303	516.89
57.2447	538.85
57.2591	525.62
57.2736	531.58
57.2880	522.04
57.3025	526.45
57.3169	522.35
57.3313	504.13
57.3458	534.49
57.3602	522.92
57.3747	541.84
57.3891	493.51
57.4035	488.36
57.4180	503.63
57.4324	532.14
57.4469	522.65
57.4613	504.36
57.4757	527.48
57.4902	541.56
57.5046	525.63
57.5191	537.41
57.5335	534.27
57.5479	535.05
57.5624	529.84
57.5768	526.60
57.5913	541.27
57.6057	560.20
57.6201	537.21
57.6346	535.16
57.6490	520.58
57.6635	472.26
57.6779	534.89
57.6923	508.45
57.7068	525.22
57.7212	527.91
57.7357	526.25
57.7501	531.79
57.7645	538.10
57.7790	529.54
57.7934	547.03
57.8079	534.80
57.8223	548.91
57.8367	567.95
57.8512	520.22
57.8656	554.01
57.8801	518.68
57.8945	533.81
57.9089	555.19
57.9234	553.06
57.9378	555.53
57.9523	538.40
57.9667	489.95
57.9811	500.24
57.9956	557.45
58.0100	541.17
58.0245	613.38
58.0389	565.96
58.0533	565.30
58.0678	552.67
58.0822	571.81
58.0967	582.70
58.1111	584.32
58.1255	616.04
58.1400	577.21
58.1544	584.37
58.1689	612.66
58.1833	615.59
58.1977	608.66
58.2122	645.96
58.2266	694.16
58.2411	696.14
58.2555	683.47
58.2699	700.35
58.2844	675.96
58.2988	645.21
58.3133	652.66
58.3277	675.24
58.3421	639.78
58.3566	649.60
58.3710	653.71
58.3855	666.77
58.3999	661.98
58.4143	621.85
58.4288	622.40
58.4432	644.54
58.4577	617.18
58.4721	612.67
58.4865	581.95
58.5010	576.67
58.5154	586.68
58.5299	596.15
58.5443	565.46
58.5587	563.49
58.5732	545.03
58.5876	544.15
58.6021	514.11
58.6165	533.15
58.6309	541.92
58.6454	525.97
58.6598	514.94
58.6743	538.66
58.6887	518.01
58.7031	553.26
58.7176	535.19
58.7320	551.26
58.7465	527.29
58.7609	557.54
58.7753	543.18
58.7898	520.20
58.8042	495.78
58.8187	519.51
58.8331	522.59
58.8475	557.46
58.8620	524.37
58.8764	536.32
58.8909	535.58
58.9053	547.34
58.9197	553.27
58.9342	514.80
58.9486	531.69
58.9631	553.35
58.9775	528.51
58.9919	554.62
59.0064	574.65
59.0208	578.75
59.0353	543.98
59.0497	521.86
59.0641	538.61
59.0786	534.89
59.0930	561.09
59.1075	510.70
59.1219	511.32
59.1363	559.78
59.1508	554.35
59.1652	544.31
59.1797	559.53
59.1941	524.23
59.2085	554.83
59.2230	565.37
59.2374	570.47
59.2519	564.12
59.2663	563.23
59.2807	556.02
59.2952	525.52
59.3096	557.68
59.3241	563.40
59.3385	569.84
59.3529	534.74
59.3674	587.22
59.3818	542.68
59.3963	541.59
59.4107	551.34
59.4251	590.14
59.4396	607.68
59.4540	565.30
59.4685	554.02
59.4829	553.03
59.4973	556.20
59.5118	550.53
59.5262	526.26
59.5407	542.51
59.5551	545.46
59.5695	565.11
59.5840	536.56
59.5984	548.96
59.6129	570.69
59.6273	574.29
59.6417	553.53
59.6562	555.87
59.6706	558.91
59.6851	550.83
59.6995	534.83
59.7139	528.69
59.7284	517.46
59.7428	564.86
59.7573	513.49
59.7717	519.60
59.7861	557.76
59.8006	561.35
59.8150	565.90
59.8295	515.43
59.8439	559.74
59.8583	543.66
59.8728	550.40
59.8872	559.19
59.9017	573.09
59.9161	551.88
59.9305	593.36
59.9450	524.93
59.9594	527.56
59.9739	530.32
59.9883	499.59
60.0027	550.27
60.0172	542.25
60.0316	530.40
60.0461	503.05
60.0605	549.91
60.0750	569.39
60.0894	606.61
60.1038	581.25
60.1183	572.85
60.1327	532.44
60.1472	498.12
60.1616	552.21
60.1760	557.62
60.1905	526.79
60.2049	526.16
60.2194	541.55
60.2338	559.09
60.2482	567.22
60.2627	519.97
60.2771	526.00
60.2916	558.23
60.3060	541.30
60.3204	536.66
60.3349	517.61
60.3493	554.55
60.3638	554.88
60.3782	548.72
60.3926	500.41
60.4071	538.11
60.4215	543.53
60.4360	558.28
60.4504	534.37
60.4648	549.84
60.4793	517.85
60.4937	513.22
60.5082	548.03
60.5226	559.15
60.5370	588.98
60.5515	536.04
60.5659	539.88
60.5804	514.67
60.5948	561.18
60.6092	544.59
60.6237	510.95
60.6381	533.54
60.6526	556.11
60.6670	542.45
60.6814	531.56
60.6959	544.04
60.7103	570.28
60.7248	553.58
60.7392	559.02
60.7536	577.83
60.7681	543.47
60.7825	557.95
60.7970	545.65
60.8114	557.51
60.8258	573.44
60.8403	525.12
60.8547	555.40
60.8692	546.84
60.8836	536.10
60.8980	575.07
60.9125	546.06
60.9269	548.50
60.9414	543.54
60.9558	553.17
60.9702	490.56
60.9847	502.84
60.9991	501.11
61.0136	569.71
61.0280	545.67
61.0424	536.19
61.0569	547.58
61.0713	560.75
61.0858	580.81
61.1002	530.31
61.1146	493.51
61.1291	533.26
61.1435	525.53
61.1580	531.23
61.1724	539.89
61.1868	546.96
61.2013	536.81
61.2157	555.09
61.2302	532.19
61.2446	557.60
61.2590	535.76
61.2735	555.05
61.2879	565.32
61.3024	544.61
61.3168	537.53
61.3312	559.88
61.3457	551.54
61.3601	521.81
61.3746	545.49
61.3890	564.91
61.4034	576.24
61.4179	560.58
61.4323	557.87
61.4468	514.93
61.4612	523.04
61.4756	543.21
61.4901	536.41
61.5045	556.82
61.5190	528.84
61.5334	541.32
61.5478	562.19
61.5623	568.38
61.5767	556.72
61.5912	550.65
61.6056	548.41
61.6200	526.14
61.6345	522.51
61.6489	553.04
61.6634	534.28
61.6778	544.03
61.6922	542.57
61.7067	562.03
61.7211	561.63
61.7356	542.42
61.7500	543.48
61.7644	529.57
61.7789	542.37
61.7933	527.73
61.8078	561.14
61.8222	527.72
61.8366	525.92
61.8511	547.65
61.8655	551.83
61.8800	548.29
61.8944	595.20
61.9088	576.05
61.9233	518.36
61.9377	545.51
61.9522	541.38
61.9666	534.28
61.9810	536.32
61.9955	538.50
62.0099	550.33
62.0244	595.38
62.0388	534.51
62.0532	548.52
62.0677	534.70
62.0821	570.42
62.0966	566.93
62.1110	542.90
62.1254	579.38
62.1399	540.14
62.1543	541.14
62.1688	556.60
62.1832	548.19
62.1976	553.83
62.2121	531.27
62.2265	560.61
62.2410	556.38
62.2554	560.10
62.2698	531.78
62.2843	557.23
62.2987	581.63
62.3132	555.36
62.3276	555.04
62.3420	565.50
62.3565	562.88
62.3709	548.31
62.3854	534.22
62.3998	539.99
62.4142	550.63
62.4287	575.45
62.4431	540.10
62.4576	575.39
62.4720	560.96
62.4864	544.65
62.5009	540.93
62.5153	524.38
62.5298	571.31
62.5442	550.96
62.5586	567.90
62.5731	577.60
62.5875	581.45
62.6020	564.63
62.6164	560.51
62.6308	548.66
62.6453	533.77
62.6597	573.39
62.6742	538.49
62.6886	535.62
62.7030	548.16
62.7175	545.88
62.7319	559.59
62.7464	554.56
62.7608	553.85
62.7752	548.38
62.7897	548.77
62.8041	572.77
62.8186	571.50
62.8330	566.94
62.8474	532.12
62.8619	551.19
62.8763	552.82
62.8908	546.19
62.9052	534.45
62.9196	550.59
62.9341	547.82
62.9485	573.59
62.9630	543.06
62.9774	564.31
62.9918	551.75
63.0063	574.13
63.0207	601.96
63.0352	583.76
63.0496	534.71
63.0640	553.14
63.0785	546.52
63.0929	579.90
63.1074	584.93
63.1218	576.30
63.1362	580.82
63.1507	565.26
63.1651	559.50
63.1796	553.57
63.1940	573.29
63.2084	583.48
63.2229	546.75
63.2373	559.00
63.2518	570.06
63.2662	600.26
63.2806	601.13
63.2951	576.20
63.3095	578.07
63.3240	587.47
63.3384	580.42
63.3528	607.38
63.3673	570.71
63.3817	585.02
63.3962	583.30
63.4106	580.05
63.4250	568.81
63.4395	595.73
63.4539	569.22
63.4684	571.91
63.4828	602.73
63.4972	584.08
63.5117	582.32
63.5261	591.48
63.5406	590.76
63.5550	592.27
63.5694	572.49
63.5839	580.95
63.5983	593.62
63.6128	619.52
63.6272	615.08
63.6416	633.72
63.6561	671.67
63.6705	603.85
63.6850	566.05
63.6994	607.21
63.7138	621.91
63.7283	633.25
63.7427	608.17
63.7572	614.71
63.7716	611.38
63.7861	630.83
63.8005	581.84
63.8149	636.21
63.8294	676.06
63.8438	660.86
63.8583	729.03
63.8727	733.34
63.8871	719.58
63.9016	761.57
63.9160	722.61
63.9305	785.10
63.9449	773.82
63.9593	809.92
63.9738	853.74
63.9882	890.85
64.0027	824.85
64.0171	817.31
64.0315	807.37
64.0460	814.36
64.0604	840.67
64.0749	755.58
64.0893	795.30
64.1037	737.25
64.1182	750.34
64.1326	741.09
64.1471	715.55
64.1615	729.95
64.1759	780.28
64.1904	723.55
64.2048	701.53
64.2193	703.76
64.2337	712.70
64.2481	689.76
64.2626	720.31
64.2770	700.59
64.2915	665.32
64.3059	643.12
64.3203	654.65
64.3348	679.60
64.3492	625.70
64.3637	631.88
64.3781	624.72
64.3925	638.40
64.4070	604.92
64.4214	654.91
64.4359	672.89
64.4503	613.56
64.4647	647.75
64.4792	635.47
64.4936	679.31
64.5081	643.12
64.5225	601.61
64.5369	644.61
64.5514	653.46
64.5658	633.13
64.5803	627.46
64.5947	620.52
64.6091	655.72
64.6236	670.82
64.6380	633.97
64.6525	622.30
64.6669	661.26
64.6813	635.38
64.6958	701.51
64.7102	698.86
64.7247	710.27
64.7391	725.89
64.7535	711.40
64.7680	712.31
64.7824	753.32
64.7969	748.24
64.8113	775.72
64.8257	770.14
64.8402	799.69
64.8546	833.44
64.8691	853.33
64.8835	857.46
64.8979	876.77
64.9124	874.24
64.9268	877.70
64.9413	944.53
64.9557	959.37
64.9701	1016.83
64.9846	1110.93
64.9990	1202.49
65.0135	1286.66
65.0279	1529.41
65.0423	1765.15
65.0568	2202.79
65.0712	2733.16
65.0857	3529.07
65.1001	4594.49
65.1145	6402.54
65.1290	8226.74
65.1434	9894.65
65.1579	11438.81
65.1723	11874.80
65.1867	11092.05
65.2012	9939.04
65.2156	8141.97
65.2301	6481.66
65.2445	5332.55
65.2589	4416.92
65.2734	4216.16
65.2878	4406.61
65.3023	5080.05
65.3167	5940.21
65.3311	6672.47
65.3456	7115.05
65.3600	6985.10
65.3745	6454.03
65.3889	5476.29
65.4033	4365.03
65.4178	3415.39
65.4322	2639.65
65.4467	2044.67
65.4611	1686.82
65.4755	1489.98
65.4900	1285.74
65.5044	1188.54
65.5189	1066.00
65.5333	994.45
65.5477	903.77
65.5622	884.79
65.5766	853.52
65.5911	813.07
65.6055	804.62
65.6199	771.97
65.6344	763.94
65.6488	733.10
65.6633	732.49
65.6777	725.71
65.6921	722.59
65.7066	736.16
65.7210	711.77
65.7355	678.91
65.7499	681.24
65.7643	671.21
65.7788	651.90
65.7932	643.13
65.8077	665.30
65.8221	668.50
65.8365	644.54
65.8510	634.92
65.8654	639.73
65.8799	637.19
65.8943	639.64
65.9087	660.92
65.9232	653.30
65.9376	647.92
65.9521	629.13
65.9665	621.27
65.9809	602.30
65.9954	637.33
66.0098	613.69
66.0243	616.76
66.0387	652.43
66.0531	629.11
66.0676	638.27
66.0820	629.44
66.0965	600.61
66.1109	585.84
66.1253	630.73
66.1398	626.52
66.1542	623.67
66.1687	592.65
66.1831	599.96
66.1975	599.08
66.2120	599.82
66.2264	609.66
66.2409	605.50
66.2553	605.44
66.2697	601.82
66.2842	608.27
66.2986	570.34
66.3131	581.16
66.3275	595.01
66.3419	593.93
66.3564	587.65
66.3708	588.52
66.3853	598.85
66.3997	612.86
66.4141	585.73
66.4286	586.38
66.4430	605.72
66.4575	588.91
66.4719	562.11
66.4863	593.22
66.5008	577.13
66.5152	590.91
66.5297	619.71
66.5441	599.38
66.5585	579.40
66.5730	580.18
66.5874	580.49
66.6019	573.13
66.6163	588.56
66.6307	584.89
66.6452	590.40
66.6596	585.99
66.6741	553.56
66.6885	571.82
66.7029	586.53
66.7174	586.07
66.7318	583.34
66.7463	579.82
66.7607	571.77
66.7751	585.86
66.7896	567.31
66.8040	577.46
66.8185	570.59
66.8329	606.49
66.8473	581.74
66.8618	588.79
66.8762	590.17
66.8907	584.27
66.9051	564.90
66.9195	580.37
66.9340	608.64
66.9484	555.97
66.9629	565.73
66.9773	604.05
66.9917	589.13
67.0062	573.95
67.0206	579.33
67.0351	598.94
67.0495	570.25
67.0639	597.12
67.0784	610.81
67.0928	581.61
67.1073	568.57
67.1217	555.11
67.1361	595.69
67.1506	571.56
67.1650	617.90
67.1795	577.01
67.1939	585.56
67.2083	554.52
67.2228	573.16
67.2372	592.37
67.2517	552.30
67.2661	557.11
67.2805	592.57
67.2950	567.20
67.3094	593.56
67.3239	607.71
67.3383	598.09
67.3527	574.40
67.3672	603.27
67.3816	553.27
67.3961	569.86
67.4105	604.54
67.4250	569.94
67.4394	600.91
67.4538	589.88
67.4683	581.55
67.4827	555.49
67.4972	580.97
67.5116	600.38
67.5260	593.70
67.5405	580.40
67.5549	614.69
67.5694	607.66
67.5838	600.98
67.5982	616.75
67.6127	591.76
67.6271	584.05
67.6416	621.17
67.6560	580.78
67.6704	567.19
67.6849	541.15
67.6993	553.13
67.7138	576.00
67.7282	569.85
67.7426	577.75
67.7571	554.09
67.7715	547.45
67.7860	592.28
67.8004	559.58
67.8148	595.17
67.8293	590.61
67.8437	555.10
67.8582	554.63
67.8726	544.61
67.8870	549.01
67.9015	597.12
67.9159	590.47
67.9304	578.71
67.9448	566.62
67.9592	542.04
67.9737	558.42
67.9881	603.66
68.0026	606.57
68.0170	567.10
68.0314	546.41
68.0459	563.66
68.0603	556.25
68.0748	596.36
68.0892	627.73
68.1036	594.34
68.1181	576.01
68.1325	592.87
68.1470	582.63
68.1614	556.26
68.1758	585.44
68.1903	566.76
68.2047	552.49
68.2192	589.88
68.2336	586.61
68.2480	577.76
68.2625	556.58
68.2769	556.86
68.2914	582.88
68.3058	558.91
68.3202	570.74
68.3347	564.52
68.3491	574.52
68.3636	572.34
68.3780	578.07
68.3924	601.76
68.4069	570.10
68.4213	558.46
68.4358	576.96
68.4502	571.98
68.4646	617.07
68.4791	547.74
68.4935	567.08
68.5080	621.26
68.5224	609.85
68.5368	548.90
68.5513	578.98
68.5657	555.57
68.5802	581.58
68.5946	567.18
68.6090	556.68
68.6235	559.94
68.6379	563.42
68.6524	504.31
68.6668	554.39
68.6812	572.01
68.6957	563.82
68.7101	634.58
68.7246	599.97
68.7390	568.55
68.7534	574.53
68.7679	555.06
68.7823	581.86
68.7968	556.12
68.8112	570.04
68.8256	579.81
68.8401	543.11
68.8545	568.72
68.8690	582.48
68.8834	580.94
68.8978	589.43
68.9123	567.86
68.9267	582.11
68.9412	589.44
68.9556	582.28
68.9700	601.05
68.9845	588.98
68.9989	604.39
69.0134	546.41
69.0278	582.10
69.0422	558.40
69.0567	585.16
69.0711	604.87
69.0856	549.93
69.1000	592.62
69.1144	564.50
69.1289	595.88
69.1433	601.84
69.1578	641.65
69.1722	565.39
69.1866	591.65
69.2011	588.95
69.2155	546.87
69.2300	554.86
69.2444	596.70
69.2588	572.16
69.2733	586.65
69.2877	564.37
69.3022	549.53
69.3166	620.10
69.3310	615.78
69.3455	582.02
69.3599	525.97
69.3744	561.29
69.3888	538.42
69.4032	548.51
69.4177	564.27
69.4321	566.26
69.4466	576.09
69.4610	579.27
69.4754	593.52
69.4899	581.26
69.5043	601.21
69.5188	570.24
69.5332	551.42
69.5476	536.43
69.5621	561.96
69.5765	550.35
69.5910	548.98
69.6054	587.17
69.6198	569.39
69.6343	598.75
69.6487	555.81
69.6632	558.33
69.6776	518.50
69.6920	530.75
69.7065	553.04
69.7209	565.27
69.7354	575.76
69.7498	567.49
69.7642	532.96
69.7787	555.31
69.7931	558.53
69.8076	586.62
69.8220	564.70
69.8364	552.84
69.8509	578.21
69.8653	551.89
69.8798	547.03
69.8942	583.32
69.9086	564.22
69.9231	608.55
69.9375	603.55
69.9520	596.89
69.9664	579.98
69.9808	546.84
69.9953	524.26
70.0097	544.91
70.0242	584.08
70.0386	602.07
70.0530	610.67
70.0675	614.09
70.0819	508.05
70.0964	583.85
70.1108	543.16
70.1252	555.68
70.1397	569.62
70.1541	572.90
70.1686	589.42
70.1830	565.66
70.1974	596.91
70.2119	590.58
70.2263	545.39
70.2408	557.49
70.2552	578.24
70.2696	554.70
70.2841	566.52
70.2985	563.66
70.3130	623.53
70.3274	598.79
70.3418	563.07
70.3563	590.66
70.3707	593.89
70.3852	562.80
70.3996	624.86
70.4140	584.41
70.4285	616.22
70.4429	584.32
70.4574	592.85
70.4718	628.43
70.4862	645.50
70.5007	580.81
70.5151	566.36
70.5296	577.34
70.5440	552.42
70.5584	605.10
70.5729	547.11
70.5873	570.43
70.6018	560.80
70.6162	561.63
70.6306	543.52
70.6451	573.19
70.6595	533.73
70.6740	550.81
70.6884	541.31
70.7028	606.19
70.7173	609.01
70.7317	607.65
70.7462	596.70
70.7606	573.00
70.7750	605.32
70.7895	615.55
70.8039	588.93
70.8184	629.56
70.8328	601.57
70.8472	586.20
70.8617	589.41
70.8761	619.51
70.8906	572.66
70.9050	595.28
70.9194	586.80
70.9339	533.26
70.9483	581.59
70.9628	639.31
70.9772	577.84
70.9916	547.75
71.0061	543.27
71.0205	556.33
71.0350	600.56
71.0494	623.83
71.0638	565.79
71.0783	571.32
71.0927	593.80
71.1072	594.31
71.1216	583.38
71.1361	540.81
71.1505	552.97
71.1649	548.85
71.1794	567.46
71.1938	616.38
71.2083	610.95
71.2227	576.97
71.2371	575.10
71.2516	552.56
71.2660	521.14
71.2805	528.94
71.2949	539.99
71.3093	566.36
71.3238	561.50
71.3382	609.97
71.3527	610.58
71.3671	563.34
71.3815	555.94
71.3960	533.36
71.4104	545.57
71.4249	583.18
71.4393	612.92
71.4537	538.80
71.4682	568.66
71.4826	643.93
71.4971	608.62
71.5115	576.20
71.5259	558.52
71.5404	576.90
71.5548	560.71
71.5693	565.74
71.5837	561.85
71.5981	557.32
71.6126	550.46
71.6270	553.11
71.6415	611.59
71.6559	646.28
71.6703	628.06
71.6848	585.80
71.6992	608.49
71.7137	648.92
71.7281	611.18
71.7425	568.33
71.7570	563.82
71.7714	581.87
71.7859	575.81
71.8003	623.66
71.8147	611.43
71.8292	587.14
71.8436	551.11
71.8581	525.25
71.8725	554.67
71.8869	561.28
71.9014	620.36
71.9158	604.34
71.9303	597.55
71.9447	589.50
71.9591	605.17
71.9736	682.68
71.9880	635.77
72.0025	581.66
72.0169	584.94
72.0313	607.92
72.0458	567.17
72.0602	545.95
72.0747	586.06
72.0891	582.88
72.1035	625.31
72.1180	561.96
72.1324	563.92
72.1469	621.17
72.1613	519.23
72.1757	521.23
72.1902	595.69
72.2046	594.75
72.2191	533.38
72.2335	461.97
72.2479	512.72
72.2624	582.13
72.2768	601.63
72.2913	569.74
72.3057	560.46
72.3201	528.08
72.3346	553.79
72.3490	540.61
72.3635	501.99
72.3779	547.98
72.3923	568.02
72.4068	553.13
72.4212	593.43
72.4357	647.24
72.4501	572.80
72.4645	541.55
72.4790	541.55
72.4934	492.06
72.5079	577.65
72.5223	558.28
72.5367	535.44
72.5512	577.24
72.5656	589.31
72.5801	582.44
72.5945	554.97
72.6089	602.59
72.6234	587.67
72.6378	594.86
72.6523	610.68
72.6667	573.49
72.6811	578.12
72.6956	621.83
72.7100	564.49
72.7245	570.96
72.7389	655.07
72.7533	680.39
72.7678	634.94
72.7822	633.67
72.7967	615.15
72.8111	570.00
72.8255	566.57
72.8400	607.03
72.8544	567.82
72.8689	561.72
72.8833	552.39