2022.09.19 19:37:16
Îáðàçåö: ß÷åéêà LCoV 16-09-2022
Lambda1 = 1.54060
Lambda2 = 1.54439
Lambdam = 1.54186
R = 0.497
2Theta	I

line¹ 0 ;repeat¹ 0
22.1120	491.54
22.1264	545.56
22.1409	644.10
22.1553	461.51
22.1697	532.14
22.1842	531.40
22.1986	527.53
22.2131	597.33
22.2275	553.21
22.2419	406.07
22.2564	539.41
22.2708	499.58
22.2853	536.77
22.2997	579.36
22.3141	606.06
22.3286	545.26
22.3430	601.11
22.3575	544.80
22.3719	532.90
22.3863	513.37
22.4008	517.58
22.4152	566.72
22.4297	655.58
22.4441	555.16
22.4585	603.86
22.4730	569.68
22.4874	629.97
22.5019	593.43
22.5163	630.36
22.5307	567.94
22.5452	535.36
22.5596	594.57
22.5741	516.17
22.5885	598.41
22.6029	606.26
22.6174	585.38
22.6318	576.96
22.6463	567.30
22.6607	656.23
22.6751	510.33
22.6896	530.05
22.7040	578.67
22.7185	514.39
22.7329	508.17
22.7473	584.37
22.7618	630.78
22.7762	599.73
22.7907	610.79
22.8051	570.56
22.8195	553.77
22.8340	596.73
22.8484	612.51
22.8629	586.25
22.8773	514.92
22.8917	609.60
22.9062	606.72
22.9206	563.70
22.9351	502.92
22.9495	628.33
22.9639	606.84
22.9784	576.61
22.9928	570.63
23.0073	581.13
23.0217	561.70
23.0361	601.25
23.0506	559.86
23.0650	520.11
23.0795	558.70
23.0939	589.89
23.1083	517.32
23.1228	600.91
23.1372	476.06
23.1517	553.92
23.1661	602.06
23.1806	517.08
23.1950	535.04
23.2094	539.03
23.2239	551.92
23.2383	619.57
23.2528	661.95
23.2672	560.46
23.2816	605.93
23.2961	544.30
23.3105	541.78
23.3250	627.17
23.3394	643.40
23.3538	594.45
23.3683	594.23
23.3827	561.78
23.3972	577.53
23.4116	573.78
23.4260	515.88
23.4405	554.05
23.4549	533.10
23.4694	533.58
23.4838	585.11
23.4982	618.67
23.5127	527.99
23.5271	540.94
23.5416	528.10
23.5560	565.11
23.5704	579.03
23.5849	550.40
23.5993	627.81
23.6138	499.36
23.6282	575.43
23.6426	515.93
23.6571	540.66
23.6715	501.90
23.6860	497.01
23.7004	584.22
23.7148	540.61
23.7293	538.01
23.7437	550.12
23.7582	495.09
23.7726	516.28
23.7870	612.73
23.8015	551.22
23.8159	582.14
23.8304	545.69
23.8448	474.59
23.8592	554.45
23.8737	611.69
23.8881	597.19
23.9026	551.14
23.9170	565.62
23.9314	515.91
23.9459	580.58
23.9603	564.87
23.9748	507.22
23.9892	527.71
24.0036	596.10
24.0181	474.03
24.0325	573.12
24.0470	553.69
24.0614	558.45
24.0758	595.59
24.0903	560.51
24.1047	541.77
24.1192	565.83
24.1336	645.45
24.1480	543.95
24.1625	618.18
24.1769	562.36
24.1914	531.00
24.2058	583.47
24.2202	659.85
24.2347	628.87
24.2491	591.79
24.2636	568.31
24.2780	613.98
24.2924	560.53
24.3069	530.56
24.3213	541.45
24.3358	568.91
24.3502	533.64
24.3646	575.22
24.3791	571.06
24.3935	508.81
24.4080	514.93
24.4224	490.45
24.4368	562.82
24.4513	506.42
24.4657	585.04
24.4802	534.12
24.4946	533.99
24.5090	587.43
24.5235	566.45
24.5379	562.44
24.5524	574.07
24.5668	529.09
24.5812	540.52
24.5957	532.20
24.6101	547.27
24.6246	543.86
24.6390	599.97
24.6534	613.86
24.6679	575.76
24.6823	509.72
24.6968	564.04
24.7112	576.93
24.7256	516.41
24.7401	514.32
24.7545	521.74
24.7690	576.71
24.7834	536.77
24.7978	533.62
24.8123	553.29
24.8267	563.77
24.8412	547.32
24.8556	563.82
24.8700	550.75
24.8845	521.00
24.8989	567.70
24.9134	554.80
24.9278	567.55
24.9422	463.64
24.9567	516.27
24.9711	542.53
24.9856	558.35
25.0000	549.93
25.0144	558.58
25.0289	510.34
25.0433	522.32
25.0578	568.70
25.0722	553.42
25.0866	628.79
25.1011	597.43
25.1155	561.18
25.1300	604.43
25.1444	541.98
25.1588	547.70
25.1733	531.16
25.1877	541.77
25.2022	544.95
25.2166	538.94
25.2310	549.67
25.2455	554.51
25.2599	516.77
25.2744	528.91
25.2888	582.37
25.3032	522.47
25.3177	505.76
25.3321	527.26
25.3466	585.87
25.3610	553.13
25.3754	542.72
25.3899	518.52
25.4043	514.06
25.4188	541.95
25.4332	495.66
25.4476	480.88
25.4621	550.63
25.4765	493.63
25.4910	519.79
25.5054	566.38
25.5198	568.79
25.5343	550.01
25.5487	566.14
25.5632	572.22
25.5776	530.37
25.5920	561.33
25.6065	504.53
25.6209	528.05
25.6354	554.56
25.6498	533.74
25.6642	538.32
25.6787	492.07
25.6931	506.37
25.7076	538.52
25.7220	534.67
25.7364	535.58
25.7509	541.31
25.7653	547.13
25.7798	549.71
25.7942	550.55
25.8086	494.24
25.8231	510.54
25.8375	562.23
25.8520	529.77
25.8664	529.94
25.8808	537.89
25.8953	532.13
25.9097	542.75
25.9242	556.31
25.9386	547.31
25.9530	507.68
25.9675	502.91
25.9819	549.47
25.9964	526.12
26.0108	527.70
26.0252	549.52
26.0397	563.16
26.0541	531.61
26.0686	531.60
26.0830	535.54
26.0974	523.80
26.1119	520.68
26.1263	544.04
26.1408	520.94
26.1552	535.30
26.1696	535.31
26.1841	549.04
26.1985	516.48
26.2130	527.25
26.2274	542.56
26.2418	526.67
26.2563	529.51
26.2707	554.72
26.2852	554.16
26.2996	531.54
26.3140	543.86
26.3285	530.85
26.3429	545.93
26.3574	534.95
26.3718	540.33
26.3862	545.76
26.4007	517.41
26.4151	491.09
26.4296	530.16
26.4440	525.00
26.4584	529.08
26.4729	530.05
26.4873	539.35
26.5018	561.52
26.5162	560.83
26.5306	547.65
26.5451	567.79
26.5595	558.22
26.5740	557.21
26.5884	536.26
26.6028	540.11
26.6173	552.28
26.6317	525.34
26.6462	528.71
26.6606	541.32
26.6750	522.58
26.6895	522.43
26.7039	528.11
26.7184	524.45
26.7328	507.82
26.7472	551.50
26.7617	534.61
26.7761	531.72
26.7906	529.82
26.8050	511.19
26.8194	521.44
26.8339	538.14
26.8483	540.20
26.8628	547.74
26.8772	562.78
26.8917	548.52
26.9061	564.88
26.9205	509.46
26.9350	496.23
26.9494	537.22
26.9639	525.39
26.9783	495.87
26.9927	488.60
27.0072	524.82
27.0216	571.80
27.0361	553.10
27.0505	534.53
27.0649	513.84
27.0794	532.56
27.0938	529.31
27.1083	526.30
27.1227	562.46
27.1371	511.61
27.1516	486.37
27.1660	509.22
27.1805	499.79
27.1949	512.38
27.2093	514.81
27.2238	515.42
27.2382	519.56
27.2527	491.74
27.2671	500.88
27.2815	527.48
27.2960	518.81
27.3104	515.56
27.3249	491.55
27.3393	505.23
27.3537	500.40
27.3682	530.03
27.3826	542.29
27.3971	537.66
27.4115	524.14
27.4259	516.18
27.4404	520.78
27.4548	517.46
27.4693	546.39
27.4837	529.33
27.4981	516.74
27.5126	509.48
27.5270	532.27
27.5415	514.46
27.5559	543.38
27.5703	507.51
27.5848	518.46
27.5992	519.57
27.6137	480.53
27.6281	537.43
27.6425	538.81
27.6570	513.65
27.6714	508.27
27.6859	494.11
27.7003	504.08
27.7147	513.84
27.7292	517.32
27.7436	537.46
27.7581	509.63
27.7725	519.94
27.7869	532.00
27.8014	534.69
27.8158	541.38
27.8303	499.07
27.8447	509.48
27.8591	535.38
27.8736	563.89
27.8880	537.23
27.9025	538.33
27.9169	491.06
27.9313	511.37
27.9458	507.21
27.9602	492.62
27.9747	540.44
27.9891	517.26
28.0035	519.40
28.0180	541.66
28.0324	508.27
28.0469	525.68
28.0613	533.18
28.0757	539.80
28.0902	529.00
28.1046	530.02
28.1191	542.49
28.1335	508.14
28.1479	494.17
28.1624	514.36
28.1768	540.25
28.1913	532.38
28.2057	524.32
28.2201	537.02
28.2346	499.73
28.2490	514.60
28.2635	506.93
28.2779	513.66
28.2923	521.14
28.3068	520.77
28.3212	526.10
28.3357	524.36
28.3501	513.05
28.3645	502.35
28.3790	488.11
28.3934	525.53
28.4079	487.99
28.4223	544.34
28.4367	522.67
28.4512	516.08
28.4656	535.23
28.4801	510.65
28.4945	517.54
28.5089	557.52
28.5234	520.12
28.5378	489.58
28.5523	497.63
28.5667	519.29
28.5811	491.66
28.5956	503.80
28.6100	525.47
28.6245	533.17
28.6389	533.08
28.6533	506.18
28.6678	504.38
28.6822	550.92
28.6967	491.17
28.7111	541.18
28.7255	555.52
28.7400	494.07
28.7544	508.06
28.7689	518.48
28.7833	528.57
28.7977	495.74
28.8122	496.52
28.8266	502.04
28.8411	537.84
28.8555	503.05
28.8699	496.29
28.8844	476.33
28.8988	536.72
28.9133	513.83
28.9277	465.77
28.9421	532.24
28.9566	470.15
28.9710	461.40
28.9855	482.61
28.9999	476.88
29.0143	519.34
29.0288	515.97
29.0432	528.36
29.0577	468.73
29.0721	480.12
29.0865	499.57
29.1010	498.19
29.1154	512.60
29.1299	547.21
29.1443	497.50
29.1587	472.46
29.1732	499.00
29.1876	491.04
29.2021	476.36
29.2165	527.18
29.2309	505.08
29.2454	522.46
29.2598	539.32
29.2743	480.38
29.2887	498.82
29.3031	511.57
29.3176	508.63
29.3320	493.43
29.3465	534.46
29.3609	510.50
29.3753	542.21
29.3898	510.14
29.4042	496.33
29.4187	565.54
29.4331	568.71
29.4475	541.50
29.4620	524.49
29.4764	535.09
29.4909	509.49
29.5053	500.80
29.5197	485.45
29.5342	510.27
29.5486	545.67
29.5631	549.11
29.5775	523.74
29.5919	547.32
29.6064	538.91
29.6208	522.99
29.6353	523.52
29.6497	512.43
29.6641	540.44
29.6786	489.84
29.6930	523.75
29.7075	530.34
29.7219	512.44
29.7363	499.88
29.7508	483.95
29.7652	505.14
29.7797	469.64
29.7941	474.54
29.8085	491.27
29.8230	495.47
29.8374	484.87
29.8519	500.01
29.8663	516.45
29.8807	499.29
29.8952	533.22
29.9096	507.13
29.9241	528.70
29.9385	499.21
29.9529	532.50
29.9674	497.65
29.9818	492.05
29.9963	527.09
30.0107	508.17
30.0251	491.42
30.0396	490.08
30.0540	538.89
30.0685	522.06
30.0829	507.49
30.0973	507.78
30.1118	520.04
30.1262	521.60
30.1407	511.81
30.1551	527.70
30.1695	512.11
30.1840	518.89
30.1984	507.47
30.2129	498.51
30.2273	498.62
30.2417	511.88
30.2562	515.31
30.2706	515.64
30.2851	531.37
30.2995	542.41
30.3139	492.35
30.3284	497.15
30.3428	530.44
30.3573	504.91
30.3717	484.67
30.3861	510.42
30.4006	518.09
30.4150	497.23
30.4295	517.86
30.4439	483.74
30.4583	504.57
30.4728	532.98
30.4872	524.35
30.5017	495.03
30.5161	515.69
30.5305	529.14
30.5450	528.92
30.5594	513.07
30.5739	536.45
30.5883	516.96
30.6028	515.60
30.6172	554.14
30.6316	583.22
30.6461	574.74
30.6605	566.74
30.6750	571.19
30.6894	606.51
30.7038	646.89
30.7183	652.62
30.7327	685.32
30.7472	695.91
30.7616	705.01
30.7760	698.16
30.7905	689.26
30.8049	711.79
30.8194	687.91
30.8338	672.92
30.8482	660.22
30.8627	636.65
30.8771	617.05
30.8916	585.62
30.9060	596.25
30.9204	582.60
30.9349	574.01
30.9493	568.99
30.9638	535.12
30.9782	527.36
30.9926	523.58
31.0071	511.87
31.0215	548.95
31.0360	534.15
31.0504	526.21
31.0648	523.48
31.0793	532.34
31.0937	553.24
31.1082	544.56
31.1226	516.91
31.1370	553.92
31.1515	496.53
31.1659	509.04
31.1804	504.38
31.1948	518.26
31.2092	537.37
31.2237	531.36
31.2381	533.87
31.2526	509.33
31.2670	512.66
31.2814	500.56
31.2959	526.50
31.3103	529.07
31.3248	539.64
31.3392	524.91
31.3536	530.16
31.3681	532.70
31.3825	509.28
31.3970	496.96
31.4114	487.82
31.4258	501.80
31.4403	482.83
31.4547	495.54
31.4692	539.72
31.4836	528.53
31.4980	504.95
31.5125	522.18
31.5269	480.08
31.5414	505.26
31.5558	495.64
31.5702	505.85
31.5847	521.06
31.5991	478.33
31.6136	509.59
31.6280	512.00
31.6424	513.99
31.6569	502.99
31.6713	510.02
31.6858	513.87
31.7002	479.37
31.7146	473.73
31.7291	494.89
31.7435	498.15
31.7580	509.78
31.7724	509.88
31.7868	529.18
31.8013	518.14
31.8157	505.91
31.8302	531.27
31.8446	489.31
31.8590	513.86
31.8735	527.96
31.8879	533.84
31.9024	516.57
31.9168	535.80
31.9312	535.00
31.9457	498.00
31.9601	493.49
31.9746	496.11
31.9890	471.95
32.0034	506.17
32.0179	520.31
32.0323	537.09
32.0468	520.79
32.0612	502.10
32.0756	487.55
32.0901	523.39
32.1045	507.73
32.1190	526.73
32.1334	494.14
32.1478	473.86
32.1623	495.88
32.1767	489.06
32.1912	515.40
32.2056	515.30
32.2200	505.09
32.2345	511.82
32.2489	512.92
32.2634	521.03
32.2778	524.78
32.2922	513.99
32.3067	472.77
32.3211	512.47
32.3356	529.71
32.3500	505.95
32.3644	516.02
32.3789	503.10
32.3933	509.91
32.4078	494.13
32.4222	488.93
32.4366	504.47
32.4511	478.89
32.4655	536.46
32.4800	542.18
32.4944	484.86
32.5088	510.95
32.5233	490.19
32.5377	513.88
32.5522	516.59
32.5666	492.89
32.5810	477.88
32.5955	485.24
32.6099	503.24
32.6244	512.05
32.6388	504.04
32.6532	500.17
32.6677	500.33
32.6821	508.17
32.6966	521.19
32.7110	513.68
32.7254	497.76
32.7399	480.87
32.7543	487.87
32.7688	480.13
32.7832	515.14
32.7976	493.96
32.8121	502.28
32.8265	493.92
32.8410	489.52
32.8554	564.40
32.8698	497.43
32.8843	530.92
32.8987	537.48
32.9132	545.68
32.9276	488.94
32.9420	507.82
32.9565	492.93
32.9709	507.13
32.9854	494.41
32.9998	558.58
33.0142	510.57
33.0287	480.96
33.0431	460.94
33.0576	525.21
33.0720	504.77
33.0864	531.24
33.1009	511.58
33.1153	525.70
33.1298	539.57
33.1442	507.64
33.1586	484.80
33.1731	510.96
33.1875	465.12
33.2020	497.96
33.2164	481.37
33.2308	503.58
33.2453	521.80
33.2597	517.33
33.2742	549.18
33.2886	534.80
33.3030	520.27
33.3175	491.84
33.3319	493.31
33.3464	550.24
33.3608	488.61
33.3752	485.65
33.3897	509.81
33.4041	492.74
33.4186	500.25
33.4330	498.57
33.4474	534.85
33.4619	498.84
33.4763	533.25
33.4908	490.72
33.5052	494.67
33.5196	560.65
33.5341	534.65
33.5485	517.24
33.5630	527.47
33.5774	504.56
33.5918	504.63
33.6063	534.22
33.6207	522.88
33.6352	514.78
33.6496	523.60
33.6640	517.75
33.6785	497.19
33.6929	475.82
33.7074	525.64
33.7218	493.31
33.7362	514.16
33.7507	511.62
33.7651	497.31
33.7796	505.07
33.7940	502.41
33.8084	514.33
33.8229	486.06
33.8373	497.64
33.8518	491.93
33.8662	531.79
33.8806	495.72
33.8951	494.57
33.9095	495.51
33.9240	478.08
33.9384	487.46
33.9528	483.51
33.9673	504.33
33.9817	512.07
33.9962	482.58
34.0106	490.06
34.0250	505.24
34.0395	507.85
34.0539	515.38
34.0684	520.08
34.0828	512.16
34.0972	540.82
34.1117	511.32
34.1261	518.46
34.1406	523.37
34.1550	493.61
34.1694	487.64
34.1839	505.04
34.1983	518.75
34.2128	532.59
34.2272	517.96
34.2417	511.45
34.2561	455.65
34.2705	497.27
34.2850	485.27
34.2994	479.69
34.3139	496.01
34.3283	513.98
34.3427	519.92
34.3572	531.57
34.3716	502.66
34.3861	495.05
34.4005	524.41
34.4149	509.78
34.4294	547.38
34.4438	486.50
34.4583	461.33
34.4727	481.03
34.4871	510.82
34.5016	498.12
34.5160	503.11
34.5305	532.04
34.5449	530.88
34.5593	515.62
34.5738	517.27
34.5882	513.96
34.6027	505.96
34.6171	504.75
34.6315	510.69
34.6460	518.28
34.6604	509.73
34.6749	485.64
34.6893	491.21
34.7037	526.79
34.7182	528.57
34.7326	495.99
34.7471	485.57
34.7615	471.83
34.7759	543.81
34.7904	512.27
34.8048	503.55
34.8193	502.21
34.8337	490.25
34.8481	502.69
34.8626	538.11
34.8770	505.19
34.8915	513.32
34.9059	518.65
34.9203	509.24
34.9348	520.73
34.9492	530.78
34.9637	507.15
34.9781	471.01
34.9925	504.60
35.0070	504.40
35.0214	554.97
35.0359	529.08
35.0503	524.44
35.0647	542.26
35.0792	514.42
35.0936	515.72
35.1081	527.57
35.1225	515.78
35.1369	525.21
35.1514	530.12
35.1658	480.50
35.1803	507.55
35.1947	491.07
35.2091	510.34
35.2236	490.99
35.2380	489.44
35.2525	494.58
35.2669	480.39
35.2813	512.26
35.2958	507.73
35.3102	534.32
35.3247	530.06
35.3391	543.48
35.3535	537.02
35.3680	537.75
35.3824	515.82
35.3969	501.52
35.4113	510.94
35.4257	541.30
35.4402	557.47
35.4546	560.91
35.4691	538.82
35.4835	554.58
35.4979	527.41
35.5124	531.21
35.5268	513.67
35.5413	503.29
35.5557	526.57
35.5701	540.94
35.5846	521.93
35.5990	529.58
35.6135	539.05
35.6279	539.24
35.6423	547.12
35.6568	513.79
35.6712	528.22
35.6857	583.38
35.7001	630.80
35.7145	682.99
35.7290	653.85
35.7434	627.27
35.7579	567.97
35.7723	537.64
35.7867	590.59
35.8012	606.84
35.8156	670.78
35.8301	664.58
35.8445	617.57
35.8589	673.08
35.8734	707.96
35.8878	846.65
35.9023	1049.14
35.9167	1062.94
35.9311	1287.41
35.9456	1888.57
35.9600	2301.72
35.9745	1924.81
35.9889	1928.72
36.0033	2389.53
36.0178	2609.31
36.0322	2062.45
36.0467	1961.87
36.0611	1724.12
36.0755	1564.09
36.0900	1656.51
36.1044	1613.65
36.1189	1577.55
36.1333	1423.05
36.1477	1220.63
36.1622	1335.95
36.1766	1308.57
36.1911	1234.79
36.2055	1176.92
36.2199	1145.00
36.2344	1116.17
36.2488	1109.14
36.2633	1038.90
36.2777	997.93
36.2921	964.21
36.3066	916.43
36.3210	874.71
36.3355	861.66
36.3499	784.61
36.3643	722.64
36.3788	703.63
36.3932	638.10
36.4077	637.37
36.4221	648.77
36.4365	643.45
36.4510	577.94
36.4654	572.61
36.4799	565.83
36.4943	560.73
36.5087	558.31
36.5232	550.12
36.5376	560.51
36.5521	537.49
36.5665	586.45
36.5809	588.78
36.5954	553.28
36.6098	524.91
36.6243	506.13
36.6387	485.86
36.6531	502.56
36.6676	541.72
36.6820	536.54
36.6965	538.61
36.7109	537.61
36.7253	518.75
36.7398	527.14
36.7542	584.89
36.7687	546.12
36.7831	529.36
36.7975	566.06
36.8120	595.71
36.8264	587.41
36.8409	589.21
36.8553	589.42
36.8697	610.79
36.8842	602.43
36.8986	587.41
36.9131	591.97
36.9275	620.90
36.9419	596.76
36.9564	607.06
36.9708	533.19
36.9853	546.40
36.9997	550.75
37.0141	569.27
37.0286	526.26
37.0430	519.49
37.0575	516.35
37.0719	573.64
37.0863	548.57
37.1008	529.18
37.1152	540.08
37.1297	513.62
37.1441	467.32
37.1585	483.37
37.1730	528.52
37.1874	513.71
37.2019	520.92
37.2163	508.02
37.2307	478.96
37.2452	511.77
37.2596	528.88
37.2741	493.82
37.2885	478.01
37.3029	522.37
37.3174	488.74
37.3318	526.80
37.3463	514.04
37.3607	499.10
37.3751	554.58
37.3896	515.50
37.4040	503.56
37.4185	511.82
37.4329	508.02
37.4473	493.97
37.4618	514.96
37.4762	501.84
37.4907	504.89
37.5051	509.47
37.5195	518.08
37.5340	507.34
37.5484	513.36
37.5629	499.82
37.5773	487.97
37.5917	488.22
37.6062	510.54
37.6206	500.77
37.6351	469.51
37.6495	487.14
37.6639	486.64
37.6784	469.06
37.6928	504.86
37.7073	538.11
37.7217	528.43
37.7361	497.15
37.7506	530.93
37.7650	521.35
37.7795	532.46
37.7939	517.47
37.8083	531.32
37.8228	518.51
37.8372	497.35
37.8517	492.73
37.8661	508.13
37.8805	524.30
37.8950	529.87
37.9094	524.59
37.9239	512.74
37.9383	519.68
37.9528	514.23
37.9672	498.97
37.9816	496.83
37.9961	485.19
38.0105	498.69
38.0250	527.02
38.0394	490.44
38.0538	524.28
38.0683	532.80
38.0827	529.67
38.0972	537.05
38.1116	509.13
38.1260	531.62
38.1405	502.05
38.1549	526.82
38.1694	556.03
38.1838	490.66
38.1982	480.92
38.2127	497.10
38.2271	483.98
38.2416	506.54
38.2560	480.32
38.2704	473.65
38.2849	459.23
38.2993	488.88
38.3138	495.10
38.3282	543.52
38.3426	539.70
38.3571	511.48
38.3715	522.59
38.3860	524.00
38.4004	535.91
38.4148	605.56
38.4293	589.05
38.4437	611.64
38.4582	621.35
38.4726	655.33
38.4870	704.85
38.5015	743.91
38.5159	772.44
38.5304	787.59
38.5448	782.03
38.5592	796.45
38.5737	742.49
38.5881	718.97
38.6026	711.62
38.6170	692.22
38.6314	698.41
38.6459	632.81
38.6603	618.61
38.6748	603.20
38.6892	584.88
38.7036	602.37
38.7181	549.14
38.7325	520.55
38.7470	532.80
38.7614	488.50
38.7758	550.08
38.7903	542.83
38.8047	548.40
38.8192	530.35
38.8336	502.79
38.8480	504.86
38.8625	516.58
38.8769	509.11
38.8914	494.22
38.9058	502.72
38.9202	496.48
38.9347	504.56
38.9491	507.86
38.9636	498.26
38.9780	519.33
38.9924	502.77
39.0069	517.18
39.0213	526.86
39.0358	506.24
39.0502	487.00
39.0646	520.31
39.0791	543.78
39.0935	533.29
39.1080	512.57
39.1224	481.35
39.1368	450.32
39.1513	474.56
39.1657	510.09
39.1802	500.83
39.1946	497.77
39.2090	494.45
39.2235	489.88
39.2379	516.01
39.2524	507.16
39.2668	523.85
39.2812	516.34
39.2957	517.50
39.3101	526.05
39.3246	481.10
39.3390	503.70
39.3534	524.04
39.3679	504.14
39.3823	510.83
39.3968	498.44
39.4112	499.59
39.4256	542.06
39.4401	520.01
39.4545	499.22
39.4690	510.62
39.4834	508.32
39.4978	505.87
39.5123	523.62
39.5267	535.14
39.5412	510.78
39.5556	527.59
39.5700	506.59
39.5845	506.17
39.5989	477.94
39.6134	464.48
39.6278	485.98
39.6422	489.70
39.6567	493.34
39.6711	472.23
39.6856	492.85
39.7000	492.48
39.7144	478.93
39.7289	486.35
39.7433	512.51
39.7578	504.93
39.7722	496.55
39.7866	525.95
39.8011	508.96
39.8155	519.98
39.8300	525.61
39.8444	496.19
39.8588	491.66
39.8733	508.15
39.8877	471.24
39.9022	491.86
39.9166	526.48
39.9310	446.77
39.9455	554.94
39.9599	504.92
39.9744	496.32
39.9888	479.95
40.0032	501.79
40.0177	561.67
40.0321	526.86
40.0466	510.35
40.0610	509.58
40.0754	463.40
40.0899	510.02
40.1043	510.16
40.1188	475.09
40.1332	460.53
40.1476	495.55
40.1621	526.99
40.1765	494.48
40.1910	494.51
40.2054	485.18
40.2198	519.16
40.2343	517.05
40.2487	491.33
40.2632	477.69
40.2776	505.11
40.2920	531.71
40.3065	494.32
40.3209	493.38
40.3354	508.99
40.3498	494.00
40.3642	487.90
40.3787	498.31
40.3931	489.55
40.4076	491.69
40.4220	488.87
40.4364	487.15
40.4509	506.93
40.4653	459.10
40.4798	485.38
40.4942	482.20
40.5086	498.35
40.5231	494.45
40.5375	479.38
40.5520	490.36
40.5664	491.69
40.5808	482.71
40.5953	495.47
40.6097	514.07
40.6242	524.62
40.6386	535.00
40.6530	536.74
40.6675	508.29
40.6819	504.27
40.6964	487.39
40.7108	536.95
40.7252	511.45
40.7397	494.10
40.7541	489.16
40.7686	496.85
40.7830	514.92
40.7974	481.19
40.8119	498.35
40.8263	470.29
40.8408	522.44
40.8552	496.67
40.8696	521.79
40.8841	519.82
40.8985	510.30
40.9130	511.98
40.9274	489.99
40.9418	516.77
40.9563	529.83
40.9707	462.68
40.9852	457.49
40.9996	470.91
41.0140	514.17
41.0285	471.47
41.0429	506.45
41.0574	520.31
41.0718	466.77
41.0862	471.10
41.1007	473.76
41.1151	503.55
41.1296	518.54
41.1440	474.82
41.1584	498.00
41.1729	511.86
41.1873	495.48
41.2018	481.07
41.2162	496.82
41.2306	498.41
41.2451	511.59
41.2595	499.94
41.2740	489.77
41.2884	499.08
41.3028	499.27
41.3173	478.60
41.3317	530.42
41.3462	495.83
41.3606	496.30
41.3750	532.45
41.3895	503.40
41.4039	479.83
41.4184	523.93
41.4328	512.30
41.4472	487.52
41.4617	502.43
41.4761	518.66
41.4906	503.40
41.5050	492.85
41.5194	486.92
41.5339	494.25
41.5483	497.87
41.5628	483.96
41.5772	468.96
41.5916	472.93
41.6061	519.97
41.6205	499.93
41.6350	516.06
41.6494	516.94
41.6639	480.85
41.6783	497.63
41.6927	507.08
41.7072	535.66
41.7216	518.99
41.7361	449.36
41.7505	529.50
41.7649	503.26
41.7794	493.29
41.7938	513.05
41.8083	487.17
41.8227	516.39
41.8371	542.21
41.8516	500.17
41.8660	536.34
41.8805	522.58
41.8949	552.90
41.9093	573.34
41.9238	558.26
41.9382	563.13
41.9527	542.54
41.9671	487.56
41.9815	572.94
41.9960	552.73
42.0104	536.11
42.0249	598.66
42.0393	554.70
42.0537	554.24
42.0682	581.72
42.0826	595.61
42.0971	570.31
42.1115	584.72
42.1259	620.47
42.1404	573.78
42.1548	602.23
42.1693	676.91
42.1837	662.92
42.1981	726.26
42.2126	797.66
42.2270	926.24
42.2415	1052.14
42.2559	1166.64
42.2703	1293.78
42.2848	1452.59
42.2992	1540.37
42.3137	1604.60
42.3281	1548.77
42.3425	1489.84
42.3570	1419.38
42.3714	1349.81
42.3859	1319.57
42.4003	1290.04
42.4147	1275.97
42.4292	1257.52
42.4436	1133.51
42.4581	956.22
42.4725	899.02
42.4869	825.52
42.5014	746.62
42.5158	714.05
42.5303	681.48
42.5447	606.19
42.5591	584.59
42.5736	561.58
42.5880	564.29
42.6025	580.39
42.6169	566.16
42.6313	560.61
42.6458	531.07
42.6602	525.47
42.6747	529.50
42.6891	533.50
42.7035	576.82
42.7180	577.27
42.7324	546.55
42.7469	529.09
42.7613	526.43
42.7757	537.48
42.7902	535.91
42.8046	524.53
42.8191	512.35
42.8335	510.38
42.8479	463.87
42.8624	535.18
42.8768	527.32
42.8913	500.57
42.9057	488.46
42.9201	520.86
42.9346	532.23
42.9490	534.31
42.9635	526.48
42.9779	537.56
42.9923	499.60
43.0068	476.86
43.0212	519.73
43.0357	535.41
43.0501	481.11
43.0645	493.38
43.0790	526.39
43.0934	559.94
43.1079	527.18
43.1223	529.98
43.1367	535.07
43.1512	501.99
43.1656	523.57
43.1801	512.27
43.1945	495.21
43.2089	524.97
43.2234	543.08
43.2378	539.16
43.2523	520.56
43.2667	524.17
43.2811	519.32
43.2956	479.95
43.3100	528.80
43.3245	534.89
43.3389	518.82
43.3533	494.65
43.3678	493.27
43.3822	514.16
43.3967	507.71
43.4111	505.80
43.4255	531.89
43.4400	514.64
43.4544	512.15
43.4689	486.36
43.4833	496.64
43.4977	504.17
43.5122	525.34
43.5266	529.71
43.5411	518.26
43.5555	519.90
43.5699	489.63
43.5844	512.01
43.5988	525.96
43.6133	519.51
43.6277	518.51
43.6421	517.22
43.6566	531.98
43.6710	549.13
43.6855	520.51
43.6999	525.25
43.7143	514.67
43.7288	495.63
43.7432	498.47
43.7577	508.65
43.7721	514.15
43.7865	529.79
43.8010	554.80
43.8154	528.42
43.8299	523.01
43.8443	514.34
43.8587	521.18
43.8732	551.71
43.8876	535.27
43.9021	551.28
43.9165	546.62
43.9309	541.19
43.9454	600.27
43.9598	592.72
43.9743	583.03
43.9887	632.25
44.0031	660.47
44.0176	616.44
44.0320	651.09
44.0465	639.11
44.0609	636.07
44.0753	666.80
44.0898	676.42
44.1042	594.38
44.1187	632.12
44.1331	627.96
44.1475	593.04
44.1620	621.98
44.1764	610.88
44.1909	580.04
44.2053	564.57
44.2197	544.89
44.2342	564.37
44.2486	550.23
44.2631	547.82
44.2775	534.61
44.2919	495.27
44.3064	524.09
44.3208	515.50
44.3353	547.14
44.3497	534.62
44.3641	531.34
44.3786	536.32
44.3930	525.47
44.4075	557.77
44.4219	573.78
44.4363	589.78
44.4508	533.89
44.4652	603.49
44.4797	591.95
44.4941	583.15
44.5085	613.40
44.5230	633.32
44.5374	632.46
44.5519	597.44
44.5663	597.59
44.5807	590.66
44.5952	586.06
44.6096	579.97
44.6241	559.46
44.6385	590.65
44.6529	591.93
44.6674	578.56
44.6818	592.51
44.6963	654.85
44.7107	664.49
44.7251	725.54
44.7396	761.29
44.7540	808.91
44.7685	838.07
44.7829	894.17
44.7973	872.36
44.8118	876.91
44.8262	825.32
44.8407	737.75
44.8551	733.39
44.8695	717.55
44.8840	709.27
44.8984	738.04
44.9129	690.11
44.9273	712.41
44.9417	626.34
44.9562	570.47
44.9706	541.55
44.9851	535.44
44.9995	510.29
45.0139	560.57
45.0284	522.82
45.0428	547.94
45.0573	516.89
45.0717	519.41
45.0861	515.61
45.1006	472.41
45.1150	544.86
45.1295	538.32
45.1439	502.01
45.1583	510.45
45.1728	504.26
45.1872	534.45
45.2017	520.54
45.2161	513.33
45.2305	483.57
45.2450	524.03
45.2594	510.52
45.2739	512.07
45.2883	521.04
45.3028	506.89
45.3172	479.02
45.3316	533.69
45.3461	518.96
45.3605	475.11
45.3750	453.44
45.3894	484.19
45.4038	509.29
45.4183	464.09
45.4327	493.07
45.4472	513.18
45.4616	493.12
45.4760	511.80
45.4905	517.87
45.5049	519.39
45.5194	494.77
45.5338	541.54
45.5482	532.83
45.5627	503.50
45.5771	481.94
45.5916	515.40
45.6060	528.13
45.6204	499.65
45.6349	481.41
45.6493	504.22
45.6638	499.60
45.6782	518.20
45.6926	514.91
45.7071	504.76
45.7215	533.94
45.7360	503.05
45.7504	510.78
45.7648	498.06
45.7793	479.17
45.7937	494.96
45.8082	507.54
45.8226	478.16
45.8370	496.55
45.8515	509.39
45.8659	511.07
45.8804	487.54
45.8948	509.18
45.9092	516.68
45.9237	521.16
45.9381	507.51
45.9526	481.69
45.9670	491.94
45.9814	479.07
45.9959	495.02
46.0103	477.66
46.0248	501.24
46.0392	504.96
46.0536	493.46
46.0681	514.62
46.0825	512.89
46.0970	517.97
46.1114	509.59
46.1258	519.43
46.1403	494.89
46.1547	518.82
46.1692	526.36
46.1836	534.60
46.1980	535.79
46.2125	526.68
46.2269	491.13
46.2414	489.37
46.2558	501.36
46.2702	493.15
46.2847	465.08
46.2991	471.25
46.3136	486.19
46.3280	502.36
46.3424	487.01
46.3569	496.61
46.3713	506.43
46.3858	504.90
46.4002	468.18
46.4146	479.53
46.4291	482.13
46.4435	468.03
46.4580	511.78
46.4724	502.23
46.4868	480.24
46.5013	493.83
46.5157	491.16
46.5302	496.35
46.5446	482.68
46.5590	501.48
46.5735	484.19
46.5879	513.11
46.6024	493.28
46.6168	493.32
46.6312	523.89
46.6457	501.26
46.6601	517.83
46.6746	507.35
46.6890	467.29
46.7034	500.69
46.7179	517.25
46.7323	501.28
46.7468	482.68
46.7612	495.97
46.7756	507.42
46.7901	510.03
46.8045	514.38
46.8190	512.48
46.8334	505.88
46.8478	494.03
46.8623	498.94
46.8767	507.65
46.8912	518.39
46.9056	551.43
46.9200	532.36
46.9345	534.01
46.9489	551.37
46.9634	540.93
46.9778	516.78
46.9922	491.19
47.0067	504.75
47.0211	530.10
47.0356	509.42
47.0500	504.03
47.0644	510.97
47.0789	507.35
47.0933	510.07
47.1078	493.84
47.1222	516.01
47.1366	520.68
47.1511	479.28
47.1655	517.89
47.1800	518.75
47.1944	484.62
47.2088	510.44
47.2233	506.84
47.2377	521.39
47.2522	554.95
47.2666	511.13
47.2810	506.41
47.2955	517.51
47.3099	500.53
47.3244	522.28
47.3388	502.26
47.3532	507.35
47.3677	479.65
47.3821	518.93
47.3966	506.96
47.4110	494.38
47.4254	504.37
47.4399	504.68
47.4543	492.46
47.4688	513.25
47.4832	525.98
47.4976	517.44
47.5121	521.73
47.5265	501.74
47.5410	484.02
47.5554	496.00
47.5698	493.72
47.5843	515.14
47.5987	508.40
47.6132	511.49
47.6276	532.71
47.6420	525.99
47.6565	513.77
47.6709	542.56
47.6854	509.02
47.6998	524.28
47.7142	522.04
47.7287	443.22
47.7431	495.44
47.7576	504.81
47.7720	542.36
47.7864	527.17
47.8009	484.28
47.8153	501.37
47.8298	510.14
47.8442	491.42
47.8586	504.57
47.8731	479.69
47.8875	487.39
47.9020	507.78
47.9164	489.65
47.9308	467.41
47.9453	491.55
47.9597	480.43
47.9742	506.24
47.9886	462.57
48.0030	504.74
48.0175	520.49
48.0319	495.92
48.0464	509.92
48.0608	539.55
48.0752	535.81
48.0897	525.22
48.1041	519.69
48.1186	527.55
48.1330	503.76
48.1474	491.75
48.1619	537.68
48.1763	530.95
48.1908	466.25
48.2052	497.32
48.2196	509.22
48.2341	488.35
48.2485	519.24
48.2630	500.37
48.2774	506.99
48.2918	506.94
48.3063	536.29
48.3207	546.71
48.3352	493.39
48.3496	551.23
48.3640	542.07
48.3785	524.52
48.3929	548.36
48.4074	487.90
48.4218	526.42
48.4362	514.83
48.4507	487.87
48.4651	473.27
48.4796	519.61
48.4940	498.05
48.5084	503.28
48.5229	490.02
48.5373	513.50
48.5518	536.97
48.5662	513.96
48.5806	504.20
48.5951	508.60
48.6095	536.22
48.6240	478.37
48.6384	533.67
48.6528	507.21
48.6673	547.74
48.6817	524.07
48.6962	539.77
48.7106	533.70
48.7250	522.78
48.7395	537.24
48.7539	497.35
48.7684	514.51
48.7828	562.75
48.7972	499.83
48.8117	501.02
48.8261	516.15
48.8406	570.83
48.8550	540.15
48.8694	531.76
48.8839	547.98
48.8983	537.46
48.9128	548.37
48.9272	547.80
48.9416	541.03
48.9561	551.15
48.9705	570.95
48.9850	612.89
48.9994	567.76
49.0139	606.02
49.0283	584.56
49.0427	564.40
49.0572	590.18
49.0716	633.12
49.0861	645.67
49.1005	660.85
49.1149	706.48
49.1294	744.33
49.1438	746.43
49.1583	815.84
49.1727	854.31
49.1871	833.23
49.2016	919.58
49.2160	971.01
49.2305	1104.67
49.2449	1158.22
49.2593	1226.19
49.2738	1316.86
49.2882	1445.36
49.3027	1561.99
49.3171	1591.04
49.3315	1650.16
49.3460	1671.49
49.3604	1752.25
49.3749	1810.98
49.3893	1693.73
49.4037	1668.90
49.4182	1728.75
49.4326	1700.75
49.4471	1630.85
49.4615	1595.41
49.4759	1563.46
49.4904	1441.12
49.5048	1364.20
49.5193	1336.60
49.5337	1280.39
49.5481	1234.04
49.5626	1111.67
49.5770	1036.43
49.5915	981.07
49.6059	903.16
49.6203	903.22
49.6348	809.76
49.6492	793.45
49.6637	734.38
49.6781	725.18
49.6925	741.73
49.7070	699.55
49.7214	668.93
49.7359	588.03
49.7503	602.54
49.7647	604.82
49.7792	583.99
49.7936	567.84
49.8081	567.87
49.8225	574.34
49.8369	558.44
49.8514	553.72
49.8658	564.49
49.8803	562.97
49.8947	524.92
49.9091	561.30
49.9236	543.23
49.9380	535.85
49.9525	528.42
49.9669	534.26
49.9813	511.28
49.9958	505.23
50.0102	533.37
50.0247	519.43
50.0391	517.12
50.0535	532.35
50.0680	522.44
50.0824	527.28
50.0969	565.12
50.1113	527.53
50.1257	536.07
50.1402	480.14
50.1546	513.74
50.1691	543.39
50.1835	522.20
50.1979	540.82
50.2124	523.13
50.2268	502.36
50.2413	522.87
50.2557	501.29
50.2701	501.27
50.2846	475.17
50.2990	490.88
50.3135	515.85
50.3279	516.03
50.3423	545.59
50.3568	538.01
50.3712	525.41
50.3857	501.25
50.4001	496.62
50.4145	502.27
50.4290	537.35
50.4434	525.73
50.4579	506.06
50.4723	520.79
50.4867	517.95
50.5012	510.89
50.5156	519.37
50.5301	516.23
50.5445	520.85
50.5589	511.65
50.5734	544.84
50.5878	532.71
50.6023	504.50
50.6167	495.62
50.6311	525.24
50.6456	509.31
50.6600	522.31
50.6745	526.49
50.6889	507.51
50.7033	529.80
50.7178	506.22
50.7322	526.22
50.7467	503.42
50.7611	472.00
50.7755	489.57
50.7900	492.11
50.8044	501.92
50.8189	520.11
50.8333	518.95
50.8477	505.65
50.8622	510.45
50.8766	514.89
50.8911	544.16
50.9055	559.62
50.9199	520.84
50.9344	521.28
50.9488	525.37
50.9633	509.21
50.9777	508.28
50.9921	521.89
51.0066	511.39
51.0210	513.17
51.0355	521.41
51.0499	528.80
51.0643	513.60
51.0788	497.24
51.0932	513.20
51.1077	524.58
51.1221	532.35
51.1365	509.06
51.1510	501.03
51.1654	525.27
51.1799	518.53
51.1943	486.24
51.2087	505.61
51.2232	516.50
51.2376	506.59
51.2521	499.50
51.2665	488.02
51.2809	519.13
51.2954	517.57
51.3098	512.25
51.3243	527.33
51.3387	500.61
51.3531	509.66
51.3676	500.27
51.3820	493.68
51.3965	485.76
51.4109	480.18
51.4253	513.29
51.4398	511.97
51.4542	523.11
51.4687	535.40
51.4831	488.09
51.4975	496.69
51.5120	498.70
51.5264	547.95
51.5409	541.13
51.5553	522.21
51.5697	503.95
51.5842	478.19
51.5986	555.68
51.6131	514.56
51.6275	475.11
51.6419	480.28
51.6564	499.95
51.6708	513.77
51.6853	481.83
51.6997	521.43
51.7141	519.52
51.7286	515.83
51.7430	503.30
51.7575	513.21
51.7719	474.94
51.7863	531.81
51.8008	508.06
51.8152	511.00
51.8297	532.19
51.8441	532.39
51.8585	497.96
51.8730	512.36
51.8874	498.75
51.9019	515.60
51.9163	493.51
51.9307	484.49
51.9452	522.96
51.9596	523.94
51.9741	499.39
51.9885	519.41
52.0029	516.53
52.0174	522.34
52.0318	527.09
52.0463	490.32
52.0607	510.01
52.0751	493.01
52.0896	535.10
52.1040	540.38
52.1185	510.97
52.1329	512.09
52.1473	516.97
52.1618	505.26
52.1762	505.65
52.1907	501.44
52.2051	511.88
52.2195	516.25
52.2340	497.59
52.2484	491.66
52.2629	504.05
52.2773	507.94
52.2917	512.85
52.3062	515.34
52.3206	520.27
52.3351	527.47
52.3495	514.81
52.3639	537.91
52.3784	460.94
52.3928	489.06
52.4073	546.58
52.4217	511.20
52.4361	481.17
52.4506	507.16
52.4650	520.42
52.4795	513.36
52.4939	497.98
52.5083	515.96
52.5228	498.21
52.5372	549.76
52.5517	532.14
52.5661	526.74
52.5805	498.16
52.5950	502.74
52.6094	490.14
52.6239	473.76
52.6383	516.83
52.6527	476.52
52.6672	501.15
52.6816	506.67
52.6961	493.50
52.7105	495.95
52.7250	474.36
52.7394	496.15
52.7538	531.45
52.7683	519.61
52.7827	500.44
52.7972	517.09
52.8116	505.89
52.8260	514.41
52.8405	515.93
52.8549	495.28
52.8694	512.79
52.8838	492.10
52.8982	525.78
52.9127	493.51
52.9271	494.33
52.9416	507.98
52.9560	485.81
52.9704	515.90
52.9849	482.47
52.9993	493.09
53.0138	548.77
53.0282	496.85
53.0426	522.16
53.0571	497.93
53.0715	548.21
53.0860	491.81
53.1004	501.45
53.1148	538.18
53.1293	532.77
53.1437	469.81
53.1582	488.25
53.1726	500.46
53.1870	501.47
53.2015	523.36
53.2159	486.16
53.2304	516.13
53.2448	523.71
53.2592	511.17
53.2737	500.24
53.2881	516.52
53.3026	533.65
53.3170	541.25
53.3314	516.36
53.3459	519.28
53.3603	528.39
53.3748	512.92
53.3892	498.58
53.4036	526.30
53.4181	512.41
53.4325	512.17
53.4470	492.37
53.4614	507.89
53.4758	526.12
53.4903	515.20
53.5047	497.64
53.5192	524.77
53.5336	544.41
53.5480	508.35
53.5625	507.82
53.5769	528.41
53.5914	529.84
53.6058	522.19
53.6202	513.30
53.6347	520.53
53.6491	511.83
53.6636	509.35
53.6780	489.55
53.6924	520.15
53.7069	497.65
53.7213	521.12
53.7358	510.55
53.7502	536.19
53.7646	483.71
53.7791	513.43
53.7935	519.81
53.8080	499.62
53.8224	529.83
53.8368	487.93
53.8513	519.91
53.8657	540.84
53.8802	522.77
53.8946	502.58
53.9090	491.38
53.9235	482.41
53.9379	497.36
53.9524	494.55
53.9668	521.64
53.9812	515.62
53.9957	512.11
54.0101	482.23
54.0246	499.01
54.0390	532.16
54.0534	534.28
54.0679	500.37
54.0823	498.47
54.0968	544.74
54.1112	528.51
54.1256	524.75
54.1401	509.95
54.1545	489.47
54.1690	515.72
54.1834	527.45
54.1978	516.74
54.2123	513.06
54.2267	519.04
54.2412	487.53
54.2556	507.19
54.2700	502.30
54.2845	526.69
54.2989	525.17
54.3134	519.51
54.3278	497.89
54.3422	499.61
54.3567	518.34
54.3711	512.57
54.3856	500.45
54.4000	505.40
54.4144	532.30
54.4289	532.57
54.4433	527.72
54.4578	520.81
54.4722	542.98
54.4866	532.35
54.5011	569.62
54.5155	554.19
54.5300	582.41
54.5444	558.23
54.5588	582.55
54.5733	588.95
54.5877	580.70
54.6022	591.52
54.6166	603.94
54.6310	587.63
54.6455	623.05
54.6599	583.27
54.6744	570.71
54.6888	569.41
54.7032	595.88
54.7177	584.53
54.7321	586.11
54.7466	588.70
54.7610	560.42
54.7754	596.18
54.7899	593.81
54.8043	582.03
54.8188	565.18
54.8332	571.18
54.8476	522.60
54.8621	603.88
54.8765	576.17
54.8910	557.14
54.9054	539.60
54.9198	536.09
54.9343	554.87
54.9487	518.78
54.9632	514.10
54.9776	538.04
54.9920	544.14
55.0065	538.21
55.0209	539.94
55.0354	486.87
55.0498	510.70
55.0642	532.55
55.0787	509.33
55.0931	549.04
55.1076	532.66
55.1220	521.90
55.1364	525.84
55.1509	496.89
55.1653	512.88
55.1798	518.47
55.1942	517.01
55.2086	527.64
55.2231	538.88
55.2375	549.92
55.2520	516.12
55.2664	545.41
55.2808	527.40
55.2953	520.60
55.3097	491.14
55.3242	477.27
55.3386	539.31
55.3530	510.80
55.3675	510.89
55.3819	498.65
55.3964	499.59
55.4108	520.83
55.4252	541.09
55.4397	505.64
55.4541	516.71
55.4686	544.62
55.4830	540.20
55.4974	496.59
55.5119	534.14
55.5263	533.57
55.5408	533.20
55.5552	530.88
55.5696	531.40
55.5841	530.96
55.5985	498.60
55.6130	511.70
55.6274	532.64
55.6418	585.16
55.6563	571.79
55.6707	525.29
55.6852	512.99
55.6996	533.60
55.7140	539.87
55.7285	523.68
55.7429	527.87
55.7574	498.03
55.7718	551.56
55.7862	542.41
55.8007	485.46
55.8151	540.06
55.8296	566.07
55.8440	510.66
55.8584	521.61
55.8729	519.73
55.8873	496.07
55.9018	525.76
55.9162	520.66
55.9306	564.10
55.9451	590.36
55.9595	537.58
55.9740	517.69
55.9884	530.15
56.0028	495.94
56.0173	522.76
56.0317	518.97
56.0462	549.17
56.0606	507.76
56.0750	543.51
56.0895	551.51
56.1039	522.30
56.1184	518.62
56.1328	501.68
56.1472	525.61
56.1617	504.81
56.1761	510.13
56.1906	507.03
56.2050	520.99
56.2194	497.45
56.2339	497.94
56.2483	513.82
56.2628	495.44
56.2772	538.48
56.2916	520.97
56.3061	541.02
56.3205	535.23
56.3350	500.08
56.3494	513.51
56.3639	547.53
56.3783	510.04
56.3927	503.25
56.4072	512.35
56.4216	530.94
56.4361	545.27
56.4505	503.83
56.4649	528.92
56.4794	534.52
56.4938	516.52
56.5083	507.09
56.5227	508.51
56.5371	533.28
56.5516	528.48
56.5660	528.32
56.5805	545.79
56.5949	479.58
56.6093	510.59
56.6238	493.25
56.6382	513.48
56.6527	546.92
56.6671	567.05
56.6815	538.82
56.6960	507.49
56.7104	511.75
56.7249	503.59
56.7393	524.91
56.7537	532.80
56.7682	537.09
56.7826	533.40
56.7971	526.52
56.8115	536.45
56.8259	515.11
56.8404	545.20
56.8548	558.19
56.8693	533.55
56.8837	513.47
56.8981	515.06
56.9126	562.60
56.9270	544.56
56.9415	503.04
56.9559	516.91
56.9703	511.38
56.9848	513.24
56.9992	513.72
57.0137	501.17
57.0281	527.62
57.0425	553.35
57.0570	551.35
57.0714	531.31
57.0859	542.76
57.1003	543.55
57.1147	559.81
57.1292	536.30
57.1436	532.48
57.1581	543.60
57.1725	526.59
57.1869	495.19
57.2014	492.46
57.2158	511.63
57.2303	550.74
57.2447	514.77
57.2591	529.88
57.2736	533.30
57.2880	549.32
57.3025	531.25
57.3169	519.87
57.3313	535.36
57.3458	550.73
57.3602	587.23
57.3747	535.39
57.3891	516.69
57.4035	523.89
57.4180	547.35
57.4324	549.98
57.4469	518.01
57.4613	522.61
57.4757	524.67
57.4902	527.67
57.5046	520.78
57.5191	522.38
57.5335	505.96
57.5479	541.30
57.5624	525.30
57.5768	523.01
57.5913	511.64
57.6057	529.69
57.6201	568.61
57.6346	543.70
57.6490	504.79
57.6635	525.73
57.6779	525.04
57.6923	527.23
57.7068	528.51
57.7212	565.80
57.7357	567.67
57.7501	544.77
57.7645	519.68
57.7790	559.74
57.7934	531.12
57.8079	506.46
57.8223	556.23
57.8367	507.94
57.8512	537.18
57.8656	591.99
57.8801	569.13
57.8945	511.08
57.9089	534.99
57.9234	543.88
57.9378	531.62
57.9523	531.62
57.9667	515.33
57.9811	547.53
57.9956	527.74
58.0100	538.47
58.0245	546.48
58.0389	514.05
58.0533	552.65
58.0678	572.75
58.0822	528.74
58.0967	559.73
58.1111	551.98
58.1255	614.43
58.1400	595.55
58.1544	571.34
58.1689	630.78
58.1833	628.03
58.1977	610.17
58.2122	640.06
58.2266	677.69
58.2411	717.12
58.2555	682.97
58.2699	662.63
58.2844	701.89
58.2988	663.87
58.3133	642.63
58.3277	653.40
58.3421	644.78
58.3566	641.12
58.3710	625.39
58.3855	597.91
58.3999	599.52
58.4143	635.85
58.4288	660.99
58.4432	672.69
58.4577	632.47
58.4721	639.04
58.4865	649.23
58.5010	628.75
58.5154	605.69
58.5299	598.16
58.5443	588.82
58.5587	618.04
58.5732	578.50
58.5876	556.11
58.6021	576.01
58.6165	579.94
58.6309	561.56
58.6454	556.66
58.6598	530.14
58.6743	546.99
58.6887	541.77
58.7031	526.60
58.7176	534.45
58.7320	527.81
58.7465	566.56
58.7609	540.00
58.7753	536.09
58.7898	549.21
58.8042	522.12
58.8187	544.66
58.8331	544.31
58.8475	558.54
58.8620	559.04
58.8764	531.18
58.8909	525.55
58.9053	567.00
58.9197	537.56
58.9342	552.78
58.9486	543.58
58.9631	523.96
58.9775	521.59
58.9919	535.63
59.0064	558.25
59.0208	558.51
59.0353	566.32
59.0497	537.28
59.0641	509.19
59.0786	503.33
59.0930	527.69
59.1075	537.07
59.1219	557.75
59.1363	530.43
59.1508	526.59
59.1652	561.50
59.1797	533.47
59.1941	568.63
59.2085	530.92
59.2230	548.86
59.2374	507.43
59.2519	489.08
59.2663	515.70
59.2807	539.23
59.2952	544.58
59.3096	570.61
59.3241	567.78
59.3385	560.35
59.3529	575.58
59.3674	549.91
59.3818	543.92
59.3963	560.26
59.4107	578.25
59.4251	580.23
59.4396	553.14
59.4540	537.27
59.4685	559.36
59.4829	550.05
59.4973	551.60
59.5118	539.19
59.5262	520.64
59.5407	544.73
59.5551	578.27
59.5695	548.88
59.5840	529.76
59.5984	540.96
59.6129	530.46
59.6273	547.74
59.6417	513.82
59.6562	517.88
59.6706	548.58
59.6851	545.62
59.6995	507.47
59.7139	512.87
59.7284	527.29
59.7428	509.38
59.7573	537.55
59.7717	527.10
59.7861	544.45
59.8006	517.63
59.8150	544.21
59.8295	554.88
59.8439	546.57
59.8583	567.81
59.8728	543.10
59.8872	479.70
59.9017	551.60
59.9161	562.59
59.9305	549.07
59.9450	554.34
59.9594	547.67
59.9739	563.14
59.9883	540.46
60.0027	543.91
60.0172	536.43
60.0316	575.15
60.0461	539.49
60.0605	584.49
60.0750	572.41
60.0894	562.40
60.1038	551.45
60.1183	559.34
60.1327	583.13
60.1472	533.09
60.1616	522.27
60.1760	536.53
60.1905	516.42
60.2049	535.15
60.2194	544.39
60.2338	537.74
60.2482	549.42
60.2627	511.85
60.2771	548.49
60.2916	549.73
60.3060	534.08
60.3204	536.78
60.3349	542.96
60.3493	555.92
60.3638	518.59
60.3782	566.43
60.3926	556.56
60.4071	540.50
60.4215	556.92
60.4360	547.71
60.4504	536.44
60.4648	557.95
60.4793	529.39
60.4937	556.74
60.5082	537.47
60.5226	549.14
60.5370	546.47
60.5515	539.35
60.5659	525.06
60.5804	558.22
60.5948	536.62
60.6092	549.59
60.6237	545.14
60.6381	570.22
60.6526	520.70
60.6670	512.19
60.6814	503.82
60.6959	542.68
60.7103	552.65
60.7248	528.57
60.7392	515.80
60.7536	527.39
60.7681	551.99
60.7825	558.54
60.7970	518.39
60.8114	521.97
60.8258	551.41
60.8403	534.79
60.8547	542.59
60.8692	506.69
60.8836	495.15
60.8980	557.80
60.9125	539.11
60.9269	536.93
60.9414	555.02
60.9558	524.21
60.9702	532.90
60.9847	544.95
60.9991	505.28
61.0136	509.67
61.0280	549.41
61.0424	530.51
61.0569	561.95
61.0713	562.23
61.0858	570.51
61.1002	530.91
61.1146	548.96
61.1291	532.70
61.1435	524.65
61.1580	549.03
61.1724	557.57
61.1868	521.50
61.2013	563.86
61.2157	574.34
61.2302	547.06
61.2446	547.80
61.2590	546.46
61.2735	531.74
61.2879	544.15
61.3024	521.50
61.3168	545.56
61.3312	554.13
61.3457	564.93
61.3601	550.72
61.3746	554.67
61.3890	536.05
61.4034	536.73
61.4179	534.22
61.4323	521.09
61.4468	524.71
61.4612	539.88
61.4756	536.66
61.4901	523.25
61.5045	557.46
61.5190	556.27
61.5334	555.84
61.5478	558.60
61.5623	550.83
61.5767	520.65
61.5912	548.44
61.6056	526.72
61.6200	508.80
61.6345	541.25
61.6489	536.53
61.6634	525.96
61.6778	514.61
61.6922	547.55
61.7067	580.17
61.7211	556.47
61.7356	555.78
61.7500	533.03
61.7644	536.88
61.7789	555.58
61.7933	586.61
61.8078	582.24
61.8222	547.28
61.8366	551.32
61.8511	552.67
61.8655	590.98
61.8800	564.40
61.8944	571.77
61.9088	598.66
61.9233	546.95
61.9377	564.63
61.9522	534.75
61.9666	556.36
61.9810	533.74
61.9955	548.48
62.0099	557.70
62.0244	556.28
62.0388	576.42
62.0532	541.20
62.0677	510.79
62.0821	536.51
62.0966	550.72
62.1110	557.85
62.1254	590.47
62.1399	587.69
62.1543	551.84
62.1688	556.38
62.1832	551.96
62.1976	539.27
62.2121	568.94
62.2265	565.77
62.2410	576.14
62.2554	579.87
62.2698	554.21
62.2843	553.28
62.2987	564.38
62.3132	529.05
62.3276	551.66
62.3420	557.93
62.3565	546.73
62.3709	587.58
62.3854	531.07
62.3998	539.18
62.4142	558.30
62.4287	578.34
62.4431	552.45
62.4576	554.30
62.4720	572.47
62.4864	590.31
62.5009	580.38
62.5153	561.58
62.5298	575.50
62.5442	570.92
62.5586	603.31
62.5731	580.44
62.5875	561.10
62.6020	562.89
62.6164	554.93
62.6308	557.01
62.6453	577.84
62.6597	583.79
62.6742	558.83
62.6886	546.74
62.7030	555.17
62.7175	537.53
62.7319	525.35
62.7464	562.86
62.7608	551.26
62.7752	556.59
62.7897	602.56
62.8041	579.54
62.8186	569.39
62.8330	549.88
62.8474	555.79
62.8619	581.24
62.8763	579.97
62.8908	568.99
62.9052	585.07
62.9196	591.42
62.9341	589.39
62.9485	591.81
62.9630	549.28
62.9774	561.16
62.9918	554.68
63.0063	543.75
63.0207	564.57
63.0352	583.03
63.0496	542.36
63.0640	541.97
63.0785	589.31
63.0929	577.63
63.1074	536.73
63.1218	581.65
63.1362	575.96
63.1507	558.76
63.1651	587.11
63.1796	575.54
63.1940	540.13
63.2084	553.34
63.2229	551.13
63.2373	582.51
63.2518	547.95
63.2662	572.99
63.2806	586.36
63.2951	572.75
63.3095	601.63
63.3240	589.15
63.3384	586.71
63.3528	580.90
63.3673	569.25
63.3817	578.90
63.3962	534.09
63.4106	559.63
63.4250	588.77
63.4395	576.17
63.4539	591.57
63.4684	598.90
63.4828	591.46
63.4972	590.59
63.5117	575.98
63.5261	580.39
63.5406	591.44
63.5550	577.43
63.5694	585.94
63.5839	588.78
63.5983	589.26
63.6128	573.14
63.6272	606.96
63.6416	586.84
63.6561	632.59
63.6705	627.27
63.6850	611.56
63.6994	597.08
63.7138	598.25
63.7283	605.09
63.7427	608.55
63.7572	621.55
63.7716	621.71
63.7861	659.87
63.8005	641.87
63.8149	637.95
63.8294	650.46
63.8438	621.00
63.8583	668.71
63.8727	671.47
63.8871	692.28
63.9016	698.89
63.9160	686.93
63.9305	767.54
63.9449	752.10
63.9593	771.87
63.9738	834.25
63.9882	826.85
64.0027	814.01
64.0171	880.61
64.0315	805.47
64.0460	834.90
64.0604	877.58
64.0749	839.61
64.0893	849.89
64.1037	814.54
64.1182	780.17
64.1326	753.44
64.1471	736.81
64.1615	755.07
64.1759	721.48
64.1904	730.25
64.2048	750.95
64.2193	739.53
64.2337	722.86
64.2481	741.01
64.2626	693.10
64.2770	690.84
64.2915	674.79
64.3059	670.67
64.3203	681.76
64.3348	639.16
64.3492	629.90
64.3637	651.28
64.3781	631.53
64.3925	638.50
64.4070	627.45
64.4214	627.19
64.4359	672.53
64.4503	646.19
64.4647	677.89
64.4792	631.67
64.4936	607.95
64.5081	649.88
64.5225	641.12
64.5369	659.26
64.5514	680.50
64.5658	661.46
64.5803	647.28
64.5947	644.74
64.6091	621.14
64.6236	647.90
64.6380	597.57
64.6525	633.61
64.6669	677.88
64.6813	700.67
64.6958	733.03
64.7102	728.41
64.7247	681.46
64.7391	689.27
64.7535	662.97
64.7680	693.53
64.7824	738.11
64.7969	738.06
64.8113	756.16
64.8257	758.44
64.8402	831.01
64.8546	839.28
64.8691	879.22
64.8835	858.93
64.8979	848.19
64.9124	876.92
64.9268	847.87
64.9413	895.01
64.9557	909.89
64.9701	994.73
64.9846	1044.26
64.9990	1143.41
65.0135	1243.16
65.0279	1498.70
65.0423	1762.12
65.0568	2135.21
65.0712	2747.41
65.0857	3582.59
65.1001	4672.79
65.1145	6306.05
65.1290	8236.14
65.1434	9748.01
65.1579	11111.09
65.1723	11969.63
65.1867	11331.94
65.2012	9790.52
65.2156	8241.36
65.2301	6446.92
65.2445	5212.97
65.2589	4438.72
65.2734	4157.77
65.2878	4598.50
65.3023	5113.20
65.3167	5985.72
65.3311	6697.49
65.3456	7074.19
65.3600	6950.79
65.3745	6457.65
65.3889	5342.26
65.4033	4252.61
65.4178	3445.62
65.4322	2683.52
65.4467	2061.15
65.4611	1731.42
65.4755	1520.00
65.4900	1303.02
65.5044	1145.83
65.5189	1057.03
65.5333	1021.57
65.5477	915.16
65.5622	866.68
65.5766	830.90
65.5911	846.51
65.6055	779.51
65.6199	799.49
65.6344	787.71
65.6488	752.39
65.6633	733.16
65.6777	730.97
65.6921	712.31
65.7066	753.71
65.7210	705.59
65.7355	650.27
65.7499	678.55
65.7643	663.29
65.7788	661.98
65.7932	657.00
65.8077	677.48
65.8221	658.82
65.8365	667.23
65.8510	654.85
65.8654	646.35
65.8799	629.55
65.8943	624.63
65.9087	626.23
65.9232	613.23
65.9376	658.62
65.9521	656.51
65.9665	628.65
65.9809	608.92
65.9954	615.80
66.0098	622.35
66.0243	614.73
66.0387	634.37
66.0531	618.43
66.0676	612.22
66.0820	664.27
66.0965	644.04
66.1109	600.60
66.1253	621.92
66.1398	631.97
66.1542	632.69
66.1687	613.75
66.1831	584.36
66.1975	559.49
66.2120	588.20
66.2264	610.34
66.2409	627.55
66.2553	622.84
66.2697	625.78
66.2842	586.55
66.2986	585.44
66.3131	627.64
66.3275	641.00
66.3419	634.40
66.3564	613.32
66.3708	582.03
66.3853	580.57
66.3997	595.05
66.4141	577.06
66.4286	588.44
66.4430	546.51
66.4575	586.49
66.4719	645.82
66.4863	618.69
66.5008	623.67
66.5152	623.60
66.5297	591.34
66.5441	564.52
66.5585	564.26
66.5730	559.61
66.5874	559.66
66.6019	583.92
66.6163	597.32
66.6307	624.94
66.6452	633.56
66.6596	617.47
66.6741	593.90
66.6885	578.86
66.7029	576.53
66.7174	561.55
66.7318	566.52
66.7463	585.69
66.7607	573.11
66.7751	602.76
66.7896	579.17
66.8040	603.11
66.8185	617.84
66.8329	604.85
66.8473	598.14
66.8618	607.11
66.8762	590.70
66.8907	623.61
66.9051	596.21
66.9195	600.55
66.9340	590.92
66.9484	579.50
66.9629	573.71
66.9773	549.06
66.9917	551.05
67.0062	572.46
67.0206	625.67
67.0351	577.42
67.0495	594.42
67.0639	614.74
67.0784	586.68
67.0928	579.31
67.1073	615.78
67.1217	610.76
67.1361	603.93
67.1506	555.64
67.1650	570.54
67.1795	586.49
67.1939	571.58
67.2083	594.42
67.2228	621.87
67.2372	610.07
67.2517	595.23
67.2661	571.89
67.2805	600.98
67.2950	572.84
67.3094	575.86
67.3239	550.60
67.3383	558.12
67.3527	555.47
67.3672	604.76
67.3816	597.99
67.3961	567.35
67.4105	531.81
67.4250	539.94
67.4394	542.71
67.4538	587.28
67.4683	592.41
67.4827	575.78
67.4972	577.27
67.5116	580.74
67.5260	563.49
67.5405	565.32
67.5549	559.68
67.5694	575.74
67.5838	549.87
67.5982	586.48
67.6127	553.82
67.6271	536.20
67.6416	542.42
67.6560	570.78
67.6704	574.45
67.6849	594.27
67.6993	591.09
67.7138	582.02
67.7282	598.05
67.7426	534.28
67.7571	555.08
67.7715	585.03
67.7860	574.60
67.8004	609.98
67.8148	599.00
67.8293	560.99
67.8437	566.89
67.8582	576.92
67.8726	578.37
67.8870	545.60
67.9015	610.24
67.9159	551.86
67.9304	555.57
67.9448	598.05
67.9592	521.04
67.9737	590.90
67.9881	604.06
68.0026	596.43
68.0170	578.27
68.0314	583.41
68.0459	554.94
68.0603	592.19
68.0748	603.76
68.0892	631.26
68.1036	578.57
68.1181	583.91
68.1325	565.28
68.1470	602.73
68.1614	602.71
68.1758	577.76
68.1903	589.19
68.2047	543.73
68.2192	550.58
68.2336	566.13
68.2480	568.94
68.2625	577.95
68.2769	590.75
68.2914	550.98
68.3058	580.56
68.3202	563.69
68.3347	615.97
68.3491	600.39
68.3636	591.88
68.3780	588.29
68.3924	560.93
68.4069	569.40
68.4213	571.96
68.4358	597.32
68.4502	555.97
68.4646	568.09
68.4791	521.04
68.4935	552.09
68.5080	524.36
68.5224	602.61
68.5368	556.93
68.5513	551.78
68.5657	554.83
68.5802	573.87
68.5946	579.56
68.6090	583.27
68.6235	574.92
68.6379	604.22
68.6524	554.45
68.6668	508.12
68.6812	559.02
68.6957	571.40
68.7101	611.94
68.7246	593.72
68.7390	522.03
68.7534	544.09
68.7679	586.76
68.7823	602.44
68.7968	567.00
68.8112	550.40
68.8256	538.63
68.8401	561.99
68.8545	545.08
68.8690	549.62
68.8834	516.06
68.8978	579.12
68.9123	614.67
68.9267	540.15
68.9412	580.65
68.9556	576.43
68.9700	558.09
68.9845	552.82
68.9989	551.65
69.0134	564.72
69.0278	538.52
69.0422	578.66
69.0567	583.36
69.0711	547.10
69.0856	592.80
69.1000	585.16
69.1144	549.02
69.1289	581.58
69.1433	542.16
69.1578	607.18
69.1722	567.24
69.1866	564.63
69.2011	545.66
69.2155	573.43
69.2300	542.63
69.2444	579.01
69.2588	527.06
69.2733	569.15
69.2877	595.84
69.3022	550.59
69.3166	532.32
69.3310	595.91
69.3455	608.65
69.3599	616.19
69.3744	585.66
69.3888	570.67
69.4032	593.80
69.4177	588.73
69.4321	616.87
69.4466	539.12
69.4610	597.65
69.4754	586.55
69.4899	639.35
69.5043	593.59
69.5188	539.72
69.5332	551.78
69.5476	555.79
69.5621	560.95
69.5765	528.19
69.5910	522.65
69.6054	591.97
69.6198	592.86
69.6343	617.86
69.6487	614.50
69.6632	571.28
69.6776	592.86
69.6920	583.93
69.7065	610.30
69.7209	551.68
69.7354	514.42
69.7498	575.39
69.7642	581.35
69.7787	595.22
69.7931	577.96
69.8076	596.63
69.8220	573.73
69.8364	575.19
69.8509	588.37
69.8653	557.95
69.8798	546.77
69.8942	576.77
69.9086	610.39
69.9231	623.96
69.9375	545.30
69.9520	567.58
69.9664	578.56
69.9808	588.66
69.9953	565.63
70.0097	581.39
70.0242	586.94
70.0386	592.75
70.0530	629.24
70.0675	631.94
70.0819	592.70
70.0964	583.19
70.1108	577.57
70.1252	595.78
70.1397	582.86
70.1541	606.75
70.1686	591.38
70.1830	582.99
70.1974	602.48
70.2119	574.64
70.2263	553.26
70.2408	602.51
70.2552	592.83
70.2696	570.01
70.2841	600.73
70.2985	598.76
70.3130	548.54
70.3274	555.80
70.3418	534.09
70.3563	573.93
70.3707	572.36
70.3852	575.59
70.3996	561.41
70.4140	579.89
70.4285	640.67
70.4429	577.31
70.4574	555.10
70.4718	611.08
70.4862	647.11
70.5007	612.45
70.5151	582.98
70.5296	567.15
70.5440	582.49
70.5584	563.60
70.5729	520.62
70.5873	563.99
70.6018	564.28
70.6162	544.18
70.6306	536.67
70.6451	565.73
70.6595	555.18
70.6740	582.30
70.6884	584.67
70.7028	584.22
70.7173	600.14
70.7317	576.64
70.7462	575.10
70.7606	577.42
70.7750	552.06
70.7895	568.58
70.8039	572.72
70.8184	614.39
70.8328	580.54
70.8472	552.63
70.8617	612.87
70.8761	569.35
70.8906	546.06
70.9050	594.84
70.9194	620.75
70.9339	604.39
70.9483	592.23
70.9628	576.93
70.9772	559.79
70.9916	519.89
71.0061	534.48
71.0205	576.26
71.0350	518.75
71.0494	570.95
71.0638	620.93
71.0783	610.90
71.0927	628.39
71.1072	555.48
71.1216	542.87
71.1361	604.54
71.1505	628.98
71.1649	634.96
71.1794	624.89
71.1938	577.79
71.2083	580.36
71.2227	575.60
71.2371	584.20
71.2516	527.21
71.2660	489.33
71.2805	508.45
71.2949	575.51
71.3093	597.82
71.3238	595.65
71.3382	591.28
71.3527	620.58
71.3671	621.17
71.3815	568.34
71.3960	555.25
71.4104	537.18
71.4249	620.12
71.4393	603.21
71.4537	573.74
71.4682	550.69
71.4826	550.57
71.4971	551.84
71.5115	563.91
71.5259	585.33
71.5404	607.31
71.5548	603.63
71.5693	588.99
71.5837	544.88
71.5981	528.52
71.6126	524.62
71.6270	573.88
71.6415	642.53
71.6559	606.67
71.6703	597.28
71.6848	585.86
71.6992	633.94
71.7137	563.34
71.7281	520.19
71.7425	584.59
71.7570	601.79
71.7714	565.49
71.7859	537.87
71.8003	603.78
71.8147	609.18
71.8292	591.22
71.8436	582.07
71.8581	615.81
71.8725	621.42
71.8869	578.30
71.9014	523.33
71.9158	528.34
71.9303	572.27
71.9447	618.61
71.9591	642.67
71.9736	641.44
71.9880	562.67
72.0025	560.34
72.0169	577.60
72.0313	566.77
72.0458	597.34
72.0602	571.06
72.0747	535.87
72.0891	525.57
72.1035	598.29
72.1180	620.10
72.1324	587.81
72.1469	640.44
72.1613	587.47
72.1757	539.96
72.1902	634.07
72.2046	622.50
72.2191	580.36
72.2335	613.85
72.2479	612.67
72.2624	528.53
72.2768	559.24
72.2913	562.20
72.3057	561.59
72.3201	586.96
72.3346	615.70
72.3490	637.34
72.3635	573.18
72.3779	490.47
72.3923	557.69
72.4068	591.78
72.4212	562.55
72.4357	581.10
72.4501	595.75
72.4645	611.13
72.4790	593.77
72.4934	496.26
72.5079	483.72
72.5223	560.60
72.5367	579.37
72.5512	603.56
72.5656	578.06
72.5801	447.68
72.5945	497.28
72.6089	555.86
72.6234	581.92
72.6378	558.75
72.6523	530.17
72.6667	565.37
72.6811	591.83
72.6956	563.94
72.7100	588.75
72.7245	593.78
72.7389	644.47
72.7533	629.53
72.7678	649.03
72.7822	730.66
72.7967	611.14
72.8111	567.41
72.8255	619.18
72.8400	619.37
72.8544	589.17
72.8689	590.81
72.8833	507.18

Result vector
22.1120	491.54
22.1264	545.56
22.1409	644.10
22.1553	461.51
22.1697	532.14
22.1842	531.40
22.1986	527.53
22.2131	597.33
22.2275	553.21
22.2419	406.07
22.2564	539.41
22.2708	499.58
22.2853	536.77
22.2997	579.36
22.3141	606.06
22.3286	545.26
22.3430	601.11
22.3575	544.80
22.3719	532.90
22.3863	513.37
22.4008	517.58
22.4152	566.72
22.4297	655.58
22.4441	555.16
22.4585	603.86
22.4730	569.68
22.4874	629.97
22.5019	593.43
22.5163	630.36
22.5307	567.94
22.5452	535.36
22.5596	594.57
22.5741	516.17
22.5885	598.41
22.6029	606.26
22.6174	585.38
22.6318	576.96
22.6463	567.30
22.6607	656.23
22.6751	510.33
22.6896	530.05
22.7040	578.67
22.7185	514.39
22.7329	508.17
22.7473	584.37
22.7618	630.78
22.7762	599.73
22.7907	610.79
22.8051	570.56
22.8195	553.77
22.8340	596.73
22.8484	612.51
22.8629	586.25
22.8773	514.92
22.8917	609.60
22.9062	606.72
22.9206	563.70
22.9351	502.92
22.9495	628.33
22.9639	606.84
22.9784	576.61
22.9928	570.63
23.0073	581.13
23.0217	561.70
23.0361	601.25
23.0506	559.86
23.0650	520.11
23.0795	558.70
23.0939	589.89
23.1083	517.32
23.1228	600.91
23.1372	476.06
23.1517	553.92
23.1661	602.06
23.1806	517.08
23.1950	535.04
23.2094	539.03
23.2239	551.92
23.2383	619.57
23.2528	661.95
23.2672	560.46
23.2816	605.93
23.2961	544.30
23.3105	541.78
23.3250	627.17
23.3394	643.40
23.3538	594.45
23.3683	594.23
23.3827	561.78
23.3972	577.53
23.4116	573.78
23.4260	515.88
23.4405	554.05
23.4549	533.10
23.4694	533.58
23.4838	585.11
23.4982	618.67
23.5127	527.99
23.5271	540.94
23.5416	528.10
23.5560	565.11
23.5704	579.03
23.5849	550.40
23.5993	627.81
23.6138	499.36
23.6282	575.43
23.6426	515.93
23.6571	540.66
23.6715	501.90
23.6860	497.01
23.7004	584.22
23.7148	540.61
23.7293	538.01
23.7437	550.12
23.7582	495.09
23.7726	516.28
23.7870	612.73
23.8015	551.22
23.8159	582.14
23.8304	545.69
23.8448	474.59
23.8592	554.45
23.8737	611.69
23.8881	597.19
23.9026	551.14
23.9170	565.62
23.9314	515.91
23.9459	580.58
23.9603	564.87
23.9748	507.22
23.9892	527.71
24.0036	596.10
24.0181	474.03
24.0325	573.12
24.0470	553.69
24.0614	558.45
24.0758	595.59
24.0903	560.51
24.1047	541.77
24.1192	565.83
24.1336	645.45
24.1480	543.95
24.1625	618.18
24.1769	562.36
24.1914	531.00
24.2058	583.47
24.2202	659.85
24.2347	628.87
24.2491	591.79
24.2636	568.31
24.2780	613.98
24.2924	560.53
24.3069	530.56
24.3213	541.45
24.3358	568.91
24.3502	533.64
24.3646	575.22
24.3791	571.06
24.3935	508.81
24.4080	514.93
24.4224	490.45
24.4368	562.82
24.4513	506.42
24.4657	585.04
24.4802	534.12
24.4946	533.99
24.5090	587.43
24.5235	566.45
24.5379	562.44
24.5524	574.07
24.5668	529.09
24.5812	540.52
24.5957	532.20
24.6101	547.27
24.6246	543.86
24.6390	599.97
24.6534	613.86
24.6679	575.76
24.6823	509.72
24.6968	564.04
24.7112	576.93
24.7256	516.41
24.7401	514.32
24.7545	521.74
24.7690	576.71
24.7834	536.77
24.7978	533.62
24.8123	553.29
24.8267	563.77
24.8412	547.32
24.8556	563.82
24.8700	550.75
24.8845	521.00
24.8989	567.70
24.9134	554.80
24.9278	567.55
24.9422	463.64
24.9567	516.27
24.9711	542.53
24.9856	558.35
25.0000	549.93
25.0144	558.58
25.0289	510.34
25.0433	522.32
25.0578	568.70
25.0722	553.42
25.0866	628.79
25.1011	597.43
25.1155	561.18
25.1300	604.43
25.1444	541.98
25.1588	547.70
25.1733	531.16
25.1877	541.77
25.2022	544.95
25.2166	538.94
25.2310	549.67
25.2455	554.51
25.2599	516.77
25.2744	528.91
25.2888	582.37
25.3032	522.47
25.3177	505.76
25.3321	527.26
25.3466	585.87
25.3610	553.13
25.3754	542.72
25.3899	518.52
25.4043	514.06
25.4188	541.95
25.4332	495.66
25.4476	480.88
25.4621	550.63
25.4765	493.63
25.4910	519.79
25.5054	566.38
25.5198	568.79
25.5343	550.01
25.5487	566.14
25.5632	572.22
25.5776	530.37
25.5920	561.33
25.6065	504.53
25.6209	528.05
25.6354	554.56
25.6498	533.74
25.6642	538.32
25.6787	492.07
25.6931	506.37
25.7076	538.52
25.7220	534.67
25.7364	535.58
25.7509	541.31
25.7653	547.13
25.7798	549.71
25.7942	550.55
25.8086	494.24
25.8231	510.54
25.8375	562.23
25.8520	529.77
25.8664	529.94
25.8808	537.89
25.8953	532.13
25.9097	542.75
25.9242	556.31
25.9386	547.31
25.9530	507.68
25.9675	502.91
25.9819	549.47
25.9964	526.12
26.0108	527.70
26.0252	549.52
26.0397	563.16
26.0541	531.61
26.0686	531.60
26.0830	535.54
26.0974	523.80
26.1119	520.68
26.1263	544.04
26.1408	520.94
26.1552	535.30
26.1696	535.31
26.1841	549.04
26.1985	516.48
26.2130	527.25
26.2274	542.56
26.2418	526.67
26.2563	529.51
26.2707	554.72
26.2852	554.16
26.2996	531.54
26.3140	543.86
26.3285	530.85
26.3429	545.93
26.3574	534.95
26.3718	540.33
26.3862	545.76
26.4007	517.41
26.4151	491.09
26.4296	530.16
26.4440	525.00
26.4584	529.08
26.4729	530.05
26.4873	539.35
26.5018	561.52
26.5162	560.83
26.5306	547.65
26.5451	567.79
26.5595	558.22
26.5740	557.21
26.5884	536.26
26.6028	540.11
26.6173	552.28
26.6317	525.34
26.6462	528.71
26.6606	541.32
26.6750	522.58
26.6895	522.43
26.7039	528.11
26.7184	524.45
26.7328	507.82
26.7472	551.50
26.7617	534.61
26.7761	531.72
26.7906	529.82
26.8050	511.19
26.8194	521.44
26.8339	538.14
26.8483	540.20
26.8628	547.74
26.8772	562.78
26.8917	548.52
26.9061	564.88
26.9205	509.46
26.9350	496.23
26.9494	537.22
26.9639	525.39
26.9783	495.87
26.9927	488.60
27.0072	524.82
27.0216	571.80
27.0361	553.10
27.0505	534.53
27.0649	513.84
27.0794	532.56
27.0938	529.31
27.1083	526.30
27.1227	562.46
27.1371	511.61
27.1516	486.37
27.1660	509.22
27.1805	499.79
27.1949	512.38
27.2093	514.81
27.2238	515.42
27.2382	519.56
27.2527	491.74
27.2671	500.88
27.2815	527.48
27.2960	518.81
27.3104	515.56
27.3249	491.55
27.3393	505.23
27.3537	500.40
27.3682	530.03
27.3826	542.29
27.3971	537.66
27.4115	524.14
27.4259	516.18
27.4404	520.78
27.4548	517.46
27.4693	546.39
27.4837	529.33
27.4981	516.74
27.5126	509.48
27.5270	532.27
27.5415	514.46
27.5559	543.38
27.5703	507.51
27.5848	518.46
27.5992	519.57
27.6137	480.53
27.6281	537.43
27.6425	538.81
27.6570	513.65
27.6714	508.27
27.6859	494.11
27.7003	504.08
27.7147	513.84
27.7292	517.32
27.7436	537.46
27.7581	509.63
27.7725	519.94
27.7869	532.00
27.8014	534.69
27.8158	541.38
27.8303	499.07
27.8447	509.48
27.8591	535.38
27.8736	563.89
27.8880	537.23
27.9025	538.33
27.9169	491.06
27.9313	511.37
27.9458	507.21
27.9602	492.62
27.9747	540.44
27.9891	517.26
28.0035	519.40
28.0180	541.66
28.0324	508.27
28.0469	525.68
28.0613	533.18
28.0757	539.80
28.0902	529.00
28.1046	530.02
28.1191	542.49
28.1335	508.14
28.1479	494.17
28.1624	514.36
28.1768	540.25
28.1913	532.38
28.2057	524.32
28.2201	537.02
28.2346	499.73
28.2490	514.60
28.2635	506.93
28.2779	513.66
28.2923	521.14
28.3068	520.77
28.3212	526.10
28.3357	524.36
28.3501	513.05
28.3645	502.35
28.3790	488.11
28.3934	525.53
28.4079	487.99
28.4223	544.34
28.4367	522.67
28.4512	516.08
28.4656	535.23
28.4801	510.65
28.4945	517.54
28.5089	557.52
28.5234	520.12
28.5378	489.58
28.5523	497.63
28.5667	519.29
28.5811	491.66
28.5956	503.80
28.6100	525.47
28.6245	533.17
28.6389	533.08
28.6533	506.18
28.6678	504.38
28.6822	550.92
28.6967	491.17
28.7111	541.18
28.7255	555.52
28.7400	494.07
28.7544	508.06
28.7689	518.48
28.7833	528.57
28.7977	495.74
28.8122	496.52
28.8266	502.04
28.8411	537.84
28.8555	503.05
28.8699	496.29
28.8844	476.33
28.8988	536.72
28.9133	513.83
28.9277	465.77
28.9421	532.24
28.9566	470.15
28.9710	461.40
28.9855	482.61
28.9999	476.88
29.0143	519.34
29.0288	515.97
29.0432	528.36
29.0577	468.73
29.0721	480.12
29.0865	499.57
29.1010	498.19
29.1154	512.60
29.1299	547.21
29.1443	497.50
29.1587	472.46
29.1732	499.00
29.1876	491.04
29.2021	476.36
29.2165	527.18
29.2309	505.08
29.2454	522.46
29.2598	539.32
29.2743	480.38
29.2887	498.82
29.3031	511.57
29.3176	508.63
29.3320	493.43
29.3465	534.46
29.3609	510.50
29.3753	542.21
29.3898	510.14
29.4042	496.33
29.4187	565.54
29.4331	568.71
29.4475	541.50
29.4620	524.49
29.4764	535.09
29.4909	509.49
29.5053	500.80
29.5197	485.45
29.5342	510.27
29.5486	545.67
29.5631	549.11
29.5775	523.74
29.5919	547.32
29.6064	538.91
29.6208	522.99
29.6353	523.52
29.6497	512.43
29.6641	540.44
29.6786	489.84
29.6930	523.75
29.7075	530.34
29.7219	512.44
29.7363	499.88
29.7508	483.95
29.7652	505.14
29.7797	469.64
29.7941	474.54
29.8085	491.27
29.8230	495.47
29.8374	484.87
29.8519	500.01
29.8663	516.45
29.8807	499.29
29.8952	533.22
29.9096	507.13
29.9241	528.70
29.9385	499.21
29.9529	532.50
29.9674	497.65
29.9818	492.05
29.9963	527.09
30.0107	508.17
30.0251	491.42
30.0396	490.08
30.0540	538.89
30.0685	522.06
30.0829	507.49
30.0973	507.78
30.1118	520.04
30.1262	521.60
30.1407	511.81
30.1551	527.70
30.1695	512.11
30.1840	518.89
30.1984	507.47
30.2129	498.51
30.2273	498.62
30.2417	511.88
30.2562	515.31
30.2706	515.64
30.2851	531.37
30.2995	542.41
30.3139	492.35
30.3284	497.15
30.3428	530.44
30.3573	504.91
30.3717	484.67
30.3861	510.42
30.4006	518.09
30.4150	497.23
30.4295	517.86
30.4439	483.74
30.4583	504.57
30.4728	532.98
30.4872	524.35
30.5017	495.03
30.5161	515.69
30.5305	529.14
30.5450	528.92
30.5594	513.07
30.5739	536.45
30.5883	516.96
30.6028	515.60
30.6172	554.14
30.6316	583.22
30.6461	574.74
30.6605	566.74
30.6750	571.19
30.6894	606.51
30.7038	646.89
30.7183	652.62
30.7327	685.32
30.7472	695.91
30.7616	705.01
30.7760	698.16
30.7905	689.26
30.8049	711.79
30.8194	687.91
30.8338	672.92
30.8482	660.22
30.8627	636.65
30.8771	617.05
30.8916	585.62
30.9060	596.25
30.9204	582.60
30.9349	574.01
30.9493	568.99
30.9638	535.12
30.9782	527.36
30.9926	523.58
31.0071	511.87
31.0215	548.95
31.0360	534.15
31.0504	526.21
31.0648	523.48
31.0793	532.34
31.0937	553.24
31.1082	544.56
31.1226	516.91
31.1370	553.92
31.1515	496.53
31.1659	509.04
31.1804	504.38
31.1948	518.26
31.2092	537.37
31.2237	531.36
31.2381	533.87
31.2526	509.33
31.2670	512.66
31.2814	500.56
31.2959	526.50
31.3103	529.07
31.3248	539.64
31.3392	524.91
31.3536	530.16
31.3681	532.70
31.3825	509.28
31.3970	496.96
31.4114	487.82
31.4258	501.80
31.4403	482.83
31.4547	495.54
31.4692	539.72
31.4836	528.53
31.4980	504.95
31.5125	522.18
31.5269	480.08
31.5414	505.26
31.5558	495.64
31.5702	505.85
31.5847	521.06
31.5991	478.33
31.6136	509.59
31.6280	512.00
31.6424	513.99
31.6569	502.99
31.6713	510.02
31.6858	513.87
31.7002	479.37
31.7146	473.73
31.7291	494.89
31.7435	498.15
31.7580	509.78
31.7724	509.88
31.7868	529.18
31.8013	518.14
31.8157	505.91
31.8302	531.27
31.8446	489.31
31.8590	513.86
31.8735	527.96
31.8879	533.84
31.9024	516.57
31.9168	535.80
31.9312	535.00
31.9457	498.00
31.9601	493.49
31.9746	496.11
31.9890	471.95
32.0034	506.17
32.0179	520.31
32.0323	537.09
32.0468	520.79
32.0612	502.10
32.0756	487.55
32.0901	523.39
32.1045	507.73
32.1190	526.73
32.1334	494.14
32.1478	473.86
32.1623	495.88
32.1767	489.06
32.1912	515.40
32.2056	515.30
32.2200	505.09
32.2345	511.82
32.2489	512.92
32.2634	521.03
32.2778	524.78
32.2922	513.99
32.3067	472.77
32.3211	512.47
32.3356	529.71
32.3500	505.95
32.3644	516.02
32.3789	503.10
32.3933	509.91
32.4078	494.13
32.4222	488.93
32.4366	504.47
32.4511	478.89
32.4655	536.46
32.4800	542.18
32.4944	484.86
32.5088	510.95
32.5233	490.19
32.5377	513.88
32.5522	516.59
32.5666	492.89
32.5810	477.88
32.5955	485.24
32.6099	503.24
32.6244	512.05
32.6388	504.04
32.6532	500.17
32.6677	500.33
32.6821	508.17
32.6966	521.19
32.7110	513.68
32.7254	497.76
32.7399	480.87
32.7543	487.87
32.7688	480.13
32.7832	515.14
32.7976	493.96
32.8121	502.28
32.8265	493.92
32.8410	489.52
32.8554	564.40
32.8698	497.43
32.8843	530.92
32.8987	537.48
32.9132	545.68
32.9276	488.94
32.9420	507.82
32.9565	492.93
32.9709	507.13
32.9854	494.41
32.9998	558.58
33.0142	510.57
33.0287	480.96
33.0431	460.94
33.0576	525.21
33.0720	504.77
33.0864	531.24
33.1009	511.58
33.1153	525.70
33.1298	539.57
33.1442	507.64
33.1586	484.80
33.1731	510.96
33.1875	465.12
33.2020	497.96
33.2164	481.37
33.2308	503.58
33.2453	521.80
33.2597	517.33
33.2742	549.18
33.2886	534.80
33.3030	520.27
33.3175	491.84
33.3319	493.31
33.3464	550.24
33.3608	488.61
33.3752	485.65
33.3897	509.81
33.4041	492.74
33.4186	500.25
33.4330	498.57
33.4474	534.85
33.4619	498.84
33.4763	533.25
33.4908	490.72
33.5052	494.67
33.5196	560.65
33.5341	534.65
33.5485	517.24
33.5630	527.47
33.5774	504.56
33.5918	504.63
33.6063	534.22
33.6207	522.88
33.6352	514.78
33.6496	523.60
33.6640	517.75
33.6785	497.19
33.6929	475.82
33.7074	525.64
33.7218	493.31
33.7362	514.16
33.7507	511.62
33.7651	497.31
33.7796	505.07
33.7940	502.41
33.8084	514.33
33.8229	486.06
33.8373	497.64
33.8518	491.93
33.8662	531.79
33.8806	495.72
33.8951	494.57
33.9095	495.51
33.9240	478.08
33.9384	487.46
33.9528	483.51
33.9673	504.33
33.9817	512.07
33.9962	482.58
34.0106	490.06
34.0250	505.24
34.0395	507.85
34.0539	515.38
34.0684	520.08
34.0828	512.16
34.0972	540.82
34.1117	511.32
34.1261	518.46
34.1406	523.37
34.1550	493.61
34.1694	487.64
34.1839	505.04
34.1983	518.75
34.2128	532.59
34.2272	517.96
34.2417	511.45
34.2561	455.65
34.2705	497.27
34.2850	485.27
34.2994	479.69
34.3139	496.01
34.3283	513.98
34.3427	519.92
34.3572	531.57
34.3716	502.66
34.3861	495.05
34.4005	524.41
34.4149	509.78
34.4294	547.38
34.4438	486.50
34.4583	461.33
34.4727	481.03
34.4871	510.82
34.5016	498.12
34.5160	503.11
34.5305	532.04
34.5449	530.88
34.5593	515.62
34.5738	517.27
34.5882	513.96
34.6027	505.96
34.6171	504.75
34.6315	510.69
34.6460	518.28
34.6604	509.73
34.6749	485.64
34.6893	491.21
34.7037	526.79
34.7182	528.57
34.7326	495.99
34.7471	485.57
34.7615	471.83
34.7759	543.81
34.7904	512.27
34.8048	503.55
34.8193	502.21
34.8337	490.25
34.8481	502.69
34.8626	538.11
34.8770	505.19
34.8915	513.32
34.9059	518.65
34.9203	509.24
34.9348	520.73
34.9492	530.78
34.9637	507.15
34.9781	471.01
34.9925	504.60
35.0070	504.40
35.0214	554.97
35.0359	529.08
35.0503	524.44
35.0647	542.26
35.0792	514.42
35.0936	515.72
35.1081	527.57
35.1225	515.78
35.1369	525.21
35.1514	530.12
35.1658	480.50
35.1803	507.55
35.1947	491.07
35.2091	510.34
35.2236	490.99
35.2380	489.44
35.2525	494.58
35.2669	480.39
35.2813	512.26
35.2958	507.73
35.3102	534.32
35.3247	530.06
35.3391	543.48
35.3535	537.02
35.3680	537.75
35.3824	515.82
35.3969	501.52
35.4113	510.94
35.4257	541.30
35.4402	557.47
35.4546	560.91
35.4691	538.82
35.4835	554.58
35.4979	527.41
35.5124	531.21
35.5268	513.67
35.5413	503.29
35.5557	526.57
35.5701	540.94
35.5846	521.93
35.5990	529.58
35.6135	539.05
35.6279	539.24
35.6423	547.12
35.6568	513.79
35.6712	528.22
35.6857	583.38
35.7001	630.80
35.7145	682.99
35.7290	653.85
35.7434	627.27
35.7579	567.97
35.7723	537.64
35.7867	590.59
35.8012	606.84
35.8156	670.78
35.8301	664.58
35.8445	617.57
35.8589	673.08
35.8734	707.96
35.8878	846.65
35.9023	1049.14
35.9167	1062.94
35.9311	1287.41
35.9456	1888.57
35.9600	2301.72
35.9745	1924.81
35.9889	1928.72
36.0033	2389.53
36.0178	2609.31
36.0322	2062.45
36.0467	1961.87
36.0611	1724.12
36.0755	1564.09
36.0900	1656.51
36.1044	1613.65
36.1189	1577.55
36.1333	1423.05
36.1477	1220.63
36.1622	1335.95
36.1766	1308.57
36.1911	1234.79
36.2055	1176.92
36.2199	1145.00
36.2344	1116.17
36.2488	1109.14
36.2633	1038.90
36.2777	997.93
36.2921	964.21
36.3066	916.43
36.3210	874.71
36.3355	861.66
36.3499	784.61
36.3643	722.64
36.3788	703.63
36.3932	638.10
36.4077	637.37
36.4221	648.77
36.4365	643.45
36.4510	577.94
36.4654	572.61
36.4799	565.83
36.4943	560.73
36.5087	558.31
36.5232	550.12
36.5376	560.51
36.5521	537.49
36.5665	586.45
36.5809	588.78
36.5954	553.28
36.6098	524.91
36.6243	506.13
36.6387	485.86
36.6531	502.56
36.6676	541.72
36.6820	536.54
36.6965	538.61
36.7109	537.61
36.7253	518.75
36.7398	527.14
36.7542	584.89
36.7687	546.12
36.7831	529.36
36.7975	566.06
36.8120	595.71
36.8264	587.41
36.8409	589.21
36.8553	589.42
36.8697	610.79
36.8842	602.43
36.8986	587.41
36.9131	591.97
36.9275	620.90
36.9419	596.76
36.9564	607.06
36.9708	533.19
36.9853	546.40
36.9997	550.75
37.0141	569.27
37.0286	526.26
37.0430	519.49
37.0575	516.35
37.0719	573.64
37.0863	548.57
37.1008	529.18
37.1152	540.08
37.1297	513.62
37.1441	467.32
37.1585	483.37
37.1730	528.52
37.1874	513.71
37.2019	520.92
37.2163	508.02
37.2307	478.96
37.2452	511.77
37.2596	528.88
37.2741	493.82
37.2885	478.01
37.3029	522.37
37.3174	488.74
37.3318	526.80
37.3463	514.04
37.3607	499.10
37.3751	554.58
37.3896	515.50
37.4040	503.56
37.4185	511.82
37.4329	508.02
37.4473	493.97
37.4618	514.96
37.4762	501.84
37.4907	504.89
37.5051	509.47
37.5195	518.08
37.5340	507.34
37.5484	513.36
37.5629	499.82
37.5773	487.97
37.5917	488.22
37.6062	510.54
37.6206	500.77
37.6351	469.51
37.6495	487.14
37.6639	486.64
37.6784	469.06
37.6928	504.86
37.7073	538.11
37.7217	528.43
37.7361	497.15
37.7506	530.93
37.7650	521.35
37.7795	532.46
37.7939	517.47
37.8083	531.32
37.8228	518.51
37.8372	497.35
37.8517	492.73
37.8661	508.13
37.8805	524.30
37.8950	529.87
37.9094	524.59
37.9239	512.74
37.9383	519.68
37.9528	514.23
37.9672	498.97
37.9816	496.83
37.9961	485.19
38.0105	498.69
38.0250	527.02
38.0394	490.44
38.0538	524.28
38.0683	532.80
38.0827	529.67
38.0972	537.05
38.1116	509.13
38.1260	531.62
38.1405	502.05
38.1549	526.82
38.1694	556.03
38.1838	490.66
38.1982	480.92
38.2127	497.10
38.2271	483.98
38.2416	506.54
38.2560	480.32
38.2704	473.65
38.2849	459.23
38.2993	488.88
38.3138	495.10
38.3282	543.52
38.3426	539.70
38.3571	511.48
38.3715	522.59
38.3860	524.00
38.4004	535.91
38.4148	605.56
38.4293	589.05
38.4437	611.64
38.4582	621.35
38.4726	655.33
38.4870	704.85
38.5015	743.91
38.5159	772.44
38.5304	787.59
38.5448	782.03
38.5592	796.45
38.5737	742.49
38.5881	718.97
38.6026	711.62
38.6170	692.22
38.6314	698.41
38.6459	632.81
38.6603	618.61
38.6748	603.20
38.6892	584.88
38.7036	602.37
38.7181	549.14
38.7325	520.55
38.7470	532.80
38.7614	488.50
38.7758	550.08
38.7903	542.83
38.8047	548.40
38.8192	530.35
38.8336	502.79
38.8480	504.86
38.8625	516.58
38.8769	509.11
38.8914	494.22
38.9058	502.72
38.9202	496.48
38.9347	504.56
38.9491	507.86
38.9636	498.26
38.9780	519.33
38.9924	502.77
39.0069	517.18
39.0213	526.86
39.0358	506.24
39.0502	487.00
39.0646	520.31
39.0791	543.78
39.0935	533.29
39.1080	512.57
39.1224	481.35
39.1368	450.32
39.1513	474.56
39.1657	510.09
39.1802	500.83
39.1946	497.77
39.2090	494.45
39.2235	489.88
39.2379	516.01
39.2524	507.16
39.2668	523.85
39.2812	516.34
39.2957	517.50
39.3101	526.05
39.3246	481.10
39.3390	503.70
39.3534	524.04
39.3679	504.14
39.3823	510.83
39.3968	498.44
39.4112	499.59
39.4256	542.06
39.4401	520.01
39.4545	499.22
39.4690	510.62
39.4834	508.32
39.4978	505.87
39.5123	523.62
39.5267	535.14
39.5412	510.78
39.5556	527.59
39.5700	506.59
39.5845	506.17
39.5989	477.94
39.6134	464.48
39.6278	485.98
39.6422	489.70
39.6567	493.34
39.6711	472.23
39.6856	492.85
39.7000	492.48
39.7144	478.93
39.7289	486.35
39.7433	512.51
39.7578	504.93
39.7722	496.55
39.7866	525.95
39.8011	508.96
39.8155	519.98
39.8300	525.61
39.8444	496.19
39.8588	491.66
39.8733	508.15
39.8877	471.24
39.9022	491.86
39.9166	526.48
39.9310	446.77
39.9455	554.94
39.9599	504.92
39.9744	496.32
39.9888	479.95
40.0032	501.79
40.0177	561.67
40.0321	526.86
40.0466	510.35
40.0610	509.58
40.0754	463.40
40.0899	510.02
40.1043	510.16
40.1188	475.09
40.1332	460.53
40.1476	495.55
40.1621	526.99
40.1765	494.48
40.1910	494.51
40.2054	485.18
40.2198	519.16
40.2343	517.05
40.2487	491.33
40.2632	477.69
40.2776	505.11
40.2920	531.71
40.3065	494.32
40.3209	493.38
40.3354	508.99
40.3498	494.00
40.3642	487.90
40.3787	498.31
40.3931	489.55
40.4076	491.69
40.4220	488.87
40.4364	487.15
40.4509	506.93
40.4653	459.10
40.4798	485.38
40.4942	482.20
40.5086	498.35
40.5231	494.45
40.5375	479.38
40.5520	490.36
40.5664	491.69
40.5808	482.71
40.5953	495.47
40.6097	514.07
40.6242	524.62
40.6386	535.00
40.6530	536.74
40.6675	508.29
40.6819	504.27
40.6964	487.39
40.7108	536.95
40.7252	511.45
40.7397	494.10
40.7541	489.16
40.7686	496.85
40.7830	514.92
40.7974	481.19
40.8119	498.35
40.8263	470.29
40.8408	522.44
40.8552	496.67
40.8696	521.79
40.8841	519.82
40.8985	510.30
40.9130	511.98
40.9274	489.99
40.9418	516.77
40.9563	529.83
40.9707	462.68
40.9852	457.49
40.9996	470.91
41.0140	514.17
41.0285	471.47
41.0429	506.45
41.0574	520.31
41.0718	466.77
41.0862	471.10
41.1007	473.76
41.1151	503.55
41.1296	518.54
41.1440	474.82
41.1584	498.00
41.1729	511.86
41.1873	495.48
41.2018	481.07
41.2162	496.82
41.2306	498.41
41.2451	511.59
41.2595	499.94
41.2740	489.77
41.2884	499.08
41.3028	499.27
41.3173	478.60
41.3317	530.42
41.3462	495.83
41.3606	496.30
41.3750	532.45
41.3895	503.40
41.4039	479.83
41.4184	523.93
41.4328	512.30
41.4472	487.52
41.4617	502.43
41.4761	518.66
41.4906	503.40
41.5050	492.85
41.5194	486.92
41.5339	494.25
41.5483	497.87
41.5628	483.96
41.5772	468.96
41.5916	472.93
41.6061	519.97
41.6205	499.93
41.6350	516.06
41.6494	516.94
41.6639	480.85
41.6783	497.63
41.6927	507.08
41.7072	535.66
41.7216	518.99
41.7361	449.36
41.7505	529.50
41.7649	503.26
41.7794	493.29
41.7938	513.05
41.8083	487.17
41.8227	516.39
41.8371	542.21
41.8516	500.17
41.8660	536.34
41.8805	522.58
41.8949	552.90
41.9093	573.34
41.9238	558.26
41.9382	563.13
41.9527	542.54
41.9671	487.56
41.9815	572.94
41.9960	552.73
42.0104	536.11
42.0249	598.66
42.0393	554.70
42.0537	554.24
42.0682	581.72
42.0826	595.61
42.0971	570.31
42.1115	584.72
42.1259	620.47
42.1404	573.78
42.1548	602.23
42.1693	676.91
42.1837	662.92
42.1981	726.26
42.2126	797.66
42.2270	926.24
42.2415	1052.14
42.2559	1166.64
42.2703	1293.78
42.2848	1452.59
42.2992	1540.37
42.3137	1604.60
42.3281	1548.77
42.3425	1489.84
42.3570	1419.38
42.3714	1349.81
42.3859	1319.57
42.4003	1290.04
42.4147	1275.97
42.4292	1257.52
42.4436	1133.51
42.4581	956.22
42.4725	899.02
42.4869	825.52
42.5014	746.62
42.5158	714.05
42.5303	681.48
42.5447	606.19
42.5591	584.59
42.5736	561.58
42.5880	564.29
42.6025	580.39
42.6169	566.16
42.6313	560.61
42.6458	531.07
42.6602	525.47
42.6747	529.50
42.6891	533.50
42.7035	576.82
42.7180	577.27
42.7324	546.55
42.7469	529.09
42.7613	526.43
42.7757	537.48
42.7902	535.91
42.8046	524.53
42.8191	512.35
42.8335	510.38
42.8479	463.87
42.8624	535.18
42.8768	527.32
42.8913	500.57
42.9057	488.46
42.9201	520.86
42.9346	532.23
42.9490	534.31
42.9635	526.48
42.9779	537.56
42.9923	499.60
43.0068	476.86
43.0212	519.73
43.0357	535.41
43.0501	481.11
43.0645	493.38
43.0790	526.39
43.0934	559.94
43.1079	527.18
43.1223	529.98
43.1367	535.07
43.1512	501.99
43.1656	523.57
43.1801	512.27
43.1945	495.21
43.2089	524.97
43.2234	543.08
43.2378	539.16
43.2523	520.56
43.2667	524.17
43.2811	519.32
43.2956	479.95
43.3100	528.80
43.3245	534.89
43.3389	518.82
43.3533	494.65
43.3678	493.27
43.3822	514.16
43.3967	507.71
43.4111	505.80
43.4255	531.89
43.4400	514.64
43.4544	512.15
43.4689	486.36
43.4833	496.64
43.4977	504.17
43.5122	525.34
43.5266	529.71
43.5411	518.26
43.5555	519.90
43.5699	489.63
43.5844	512.01
43.5988	525.96
43.6133	519.51
43.6277	518.51
43.6421	517.22
43.6566	531.98
43.6710	549.13
43.6855	520.51
43.6999	525.25
43.7143	514.67
43.7288	495.63
43.7432	498.47
43.7577	508.65
43.7721	514.15
43.7865	529.79
43.8010	554.80
43.8154	528.42
43.8299	523.01
43.8443	514.34
43.8587	521.18
43.8732	551.71
43.8876	535.27
43.9021	551.28
43.9165	546.62
43.9309	541.19
43.9454	600.27
43.9598	592.72
43.9743	583.03
43.9887	632.25
44.0031	660.47
44.0176	616.44
44.0320	651.09
44.0465	639.11
44.0609	636.07
44.0753	666.80
44.0898	676.42
44.1042	594.38
44.1187	632.12
44.1331	627.96
44.1475	593.04
44.1620	621.98
44.1764	610.88
44.1909	580.04
44.2053	564.57
44.2197	544.89
44.2342	564.37
44.2486	550.23
44.2631	547.82
44.2775	534.61
44.2919	495.27
44.3064	524.09
44.3208	515.50
44.3353	547.14
44.3497	534.62
44.3641	531.34
44.3786	536.32
44.3930	525.47
44.4075	557.77
44.4219	573.78
44.4363	589.78
44.4508	533.89
44.4652	603.49
44.4797	591.95
44.4941	583.15
44.5085	613.40
44.5230	633.32
44.5374	632.46
44.5519	597.44
44.5663	597.59
44.5807	590.66
44.5952	586.06
44.6096	579.97
44.6241	559.46
44.6385	590.65
44.6529	591.93
44.6674	578.56
44.6818	592.51
44.6963	654.85
44.7107	664.49
44.7251	725.54
44.7396	761.29
44.7540	808.91
44.7685	838.07
44.7829	894.17
44.7973	872.36
44.8118	876.91
44.8262	825.32
44.8407	737.75
44.8551	733.39
44.8695	717.55
44.8840	709.27
44.8984	738.04
44.9129	690.11
44.9273	712.41
44.9417	626.34
44.9562	570.47
44.9706	541.55
44.9851	535.44
44.9995	510.29
45.0139	560.57
45.0284	522.82
45.0428	547.94
45.0573	516.89
45.0717	519.41
45.0861	515.61
45.1006	472.41
45.1150	544.86
45.1295	538.32
45.1439	502.01
45.1583	510.45
45.1728	504.26
45.1872	534.45
45.2017	520.54
45.2161	513.33
45.2305	483.57
45.2450	524.03
45.2594	510.52
45.2739	512.07
45.2883	521.04
45.3028	506.89
45.3172	479.02
45.3316	533.69
45.3461	518.96
45.3605	475.11
45.3750	453.44
45.3894	484.19
45.4038	509.29
45.4183	464.09
45.4327	493.07
45.4472	513.18
45.4616	493.12
45.4760	511.80
45.4905	517.87
45.5049	519.39
45.5194	494.77
45.5338	541.54
45.5482	532.83
45.5627	503.50
45.5771	481.94
45.5916	515.40
45.6060	528.13
45.6204	499.65
45.6349	481.41
45.6493	504.22
45.6638	499.60
45.6782	518.20
45.6926	514.91
45.7071	504.76
45.7215	533.94
45.7360	503.05
45.7504	510.78
45.7648	498.06
45.7793	479.17
45.7937	494.96
45.8082	507.54
45.8226	478.16
45.8370	496.55
45.8515	509.39
45.8659	511.07
45.8804	487.54
45.8948	509.18
45.9092	516.68
45.9237	521.16
45.9381	507.51
45.9526	481.69
45.9670	491.94
45.9814	479.07
45.9959	495.02
46.0103	477.66
46.0248	501.24
46.0392	504.96
46.0536	493.46
46.0681	514.62
46.0825	512.89
46.0970	517.97
46.1114	509.59
46.1258	519.43
46.1403	494.89
46.1547	518.82
46.1692	526.36
46.1836	534.60
46.1980	535.79
46.2125	526.68
46.2269	491.13
46.2414	489.37
46.2558	501.36
46.2702	493.15
46.2847	465.08
46.2991	471.25
46.3136	486.19
46.3280	502.36
46.3424	487.01
46.3569	496.61
46.3713	506.43
46.3858	504.90
46.4002	468.18
46.4146	479.53
46.4291	482.13
46.4435	468.03
46.4580	511.78
46.4724	502.23
46.4868	480.24
46.5013	493.83
46.5157	491.16
46.5302	496.35
46.5446	482.68
46.5590	501.48
46.5735	484.19
46.5879	513.11
46.6024	493.28
46.6168	493.32
46.6312	523.89
46.6457	501.26
46.6601	517.83
46.6746	507.35
46.6890	467.29
46.7034	500.69
46.7179	517.25
46.7323	501.28
46.7468	482.68
46.7612	495.97
46.7756	507.42
46.7901	510.03
46.8045	514.38
46.8190	512.48
46.8334	505.88
46.8478	494.03
46.8623	498.94
46.8767	507.65
46.8912	518.39
46.9056	551.43
46.9200	532.36
46.9345	534.01
46.9489	551.37
46.9634	540.93
46.9778	516.78
46.9922	491.19
47.0067	504.75
47.0211	530.10
47.0356	509.42
47.0500	504.03
47.0644	510.97
47.0789	507.35
47.0933	510.07
47.1078	493.84
47.1222	516.01
47.1366	520.68
47.1511	479.28
47.1655	517.89
47.1800	518.75
47.1944	484.62
47.2088	510.44
47.2233	506.84
47.2377	521.39
47.2522	554.95
47.2666	511.13
47.2810	506.41
47.2955	517.51
47.3099	500.53
47.3244	522.28
47.3388	502.26
47.3532	507.35
47.3677	479.65
47.3821	518.93
47.3966	506.96
47.4110	494.38
47.4254	504.37
47.4399	504.68
47.4543	492.46
47.4688	513.25
47.4832	525.98
47.4976	517.44
47.5121	521.73
47.5265	501.74
47.5410	484.02
47.5554	496.00
47.5698	493.72
47.5843	515.14
47.5987	508.40
47.6132	511.49
47.6276	532.71
47.6420	525.99
47.6565	513.77
47.6709	542.56
47.6854	509.02
47.6998	524.28
47.7142	522.04
47.7287	443.22
47.7431	495.44
47.7576	504.81
47.7720	542.36
47.7864	527.17
47.8009	484.28
47.8153	501.37
47.8298	510.14
47.8442	491.42
47.8586	504.57
47.8731	479.69
47.8875	487.39
47.9020	507.78
47.9164	489.65
47.9308	467.41
47.9453	491.55
47.9597	480.43
47.9742	506.24
47.9886	462.57
48.0030	504.74
48.0175	520.49
48.0319	495.92
48.0464	509.92
48.0608	539.55
48.0752	535.81
48.0897	525.22
48.1041	519.69
48.1186	527.55
48.1330	503.76
48.1474	491.75
48.1619	537.68
48.1763	530.95
48.1908	466.25
48.2052	497.32
48.2196	509.22
48.2341	488.35
48.2485	519.24
48.2630	500.37
48.2774	506.99
48.2918	506.94
48.3063	536.29
48.3207	546.71
48.3352	493.39
48.3496	551.23
48.3640	542.07
48.3785	524.52
48.3929	548.36
48.4074	487.90
48.4218	526.42
48.4362	514.83
48.4507	487.87
48.4651	473.27
48.4796	519.61
48.4940	498.05
48.5084	503.28
48.5229	490.02
48.5373	513.50
48.5518	536.97
48.5662	513.96
48.5806	504.20
48.5951	508.60
48.6095	536.22
48.6240	478.37
48.6384	533.67
48.6528	507.21
48.6673	547.74
48.6817	524.07
48.6962	539.77
48.7106	533.70
48.7250	522.78
48.7395	537.24
48.7539	497.35
48.7684	514.51
48.7828	562.75
48.7972	499.83
48.8117	501.02
48.8261	516.15
48.8406	570.83
48.8550	540.15
48.8694	531.76
48.8839	547.98
48.8983	537.46
48.9128	548.37
48.9272	547.80
48.9416	541.03
48.9561	551.15
48.9705	570.95
48.9850	612.89
48.9994	567.76
49.0139	606.02
49.0283	584.56
49.0427	564.40
49.0572	590.18
49.0716	633.12
49.0861	645.67
49.1005	660.85
49.1149	706.48
49.1294	744.33
49.1438	746.43
49.1583	815.84
49.1727	854.31
49.1871	833.23
49.2016	919.58
49.2160	971.01
49.2305	1104.67
49.2449	1158.22
49.2593	1226.19
49.2738	1316.86
49.2882	1445.36
49.3027	1561.99
49.3171	1591.04
49.3315	1650.16
49.3460	1671.49
49.3604	1752.25
49.3749	1810.98
49.3893	1693.73
49.4037	1668.90
49.4182	1728.75
49.4326	1700.75
49.4471	1630.85
49.4615	1595.41
49.4759	1563.46
49.4904	1441.12
49.5048	1364.20
49.5193	1336.60
49.5337	1280.39
49.5481	1234.04
49.5626	1111.67
49.5770	1036.43
49.5915	981.07
49.6059	903.16
49.6203	903.22
49.6348	809.76
49.6492	793.45
49.6637	734.38
49.6781	725.18
49.6925	741.73
49.7070	699.55
49.7214	668.93
49.7359	588.03
49.7503	602.54
49.7647	604.82
49.7792	583.99
49.7936	567.84
49.8081	567.87
49.8225	574.34
49.8369	558.44
49.8514	553.72
49.8658	564.49
49.8803	562.97
49.8947	524.92
49.9091	561.30
49.9236	543.23
49.9380	535.85
49.9525	528.42
49.9669	534.26
49.9813	511.28
49.9958	505.23
50.0102	533.37
50.0247	519.43
50.0391	517.12
50.0535	532.35
50.0680	522.44
50.0824	527.28
50.0969	565.12
50.1113	527.53
50.1257	536.07
50.1402	480.14
50.1546	513.74
50.1691	543.39
50.1835	522.20
50.1979	540.82
50.2124	523.13
50.2268	502.36
50.2413	522.87
50.2557	501.29
50.2701	501.27
50.2846	475.17
50.2990	490.88
50.3135	515.85
50.3279	516.03
50.3423	545.59
50.3568	538.01
50.3712	525.41
50.3857	501.25
50.4001	496.62
50.4145	502.27
50.4290	537.35
50.4434	525.73
50.4579	506.06
50.4723	520.79
50.4867	517.95
50.5012	510.89
50.5156	519.37
50.5301	516.23
50.5445	520.85
50.5589	511.65
50.5734	544.84
50.5878	532.71
50.6023	504.50
50.6167	495.62
50.6311	525.24
50.6456	509.31
50.6600	522.31
50.6745	526.49
50.6889	507.51
50.7033	529.80
50.7178	506.22
50.7322	526.22
50.7467	503.42
50.7611	472.00
50.7755	489.57
50.7900	492.11
50.8044	501.92
50.8189	520.11
50.8333	518.95
50.8477	505.65
50.8622	510.45
50.8766	514.89
50.8911	544.16
50.9055	559.62
50.9199	520.84
50.9344	521.28
50.9488	525.37
50.9633	509.21
50.9777	508.28
50.9921	521.89
51.0066	511.39
51.0210	513.17
51.0355	521.41
51.0499	528.80
51.0643	513.60
51.0788	497.24
51.0932	513.20
51.1077	524.58
51.1221	532.35
51.1365	509.06
51.1510	501.03
51.1654	525.27
51.1799	518.53
51.1943	486.24
51.2087	505.61
51.2232	516.50
51.2376	506.59
51.2521	499.50
51.2665	488.02
51.2809	519.13
51.2954	517.57
51.3098	512.25
51.3243	527.33
51.3387	500.61
51.3531	509.66
51.3676	500.27
51.3820	493.68
51.3965	485.76
51.4109	480.18
51.4253	513.29
51.4398	511.97
51.4542	523.11
51.4687	535.40
51.4831	488.09
51.4975	496.69
51.5120	498.70
51.5264	547.95
51.5409	541.13
51.5553	522.21
51.5697	503.95
51.5842	478.19
51.5986	555.68
51.6131	514.56
51.6275	475.11
51.6419	480.28
51.6564	499.95
51.6708	513.77
51.6853	481.83
51.6997	521.43
51.7141	519.52
51.7286	515.83
51.7430	503.30
51.7575	513.21
51.7719	474.94
51.7863	531.81
51.8008	508.06
51.8152	511.00
51.8297	532.19
51.8441	532.39
51.8585	497.96
51.8730	512.36
51.8874	498.75
51.9019	515.60
51.9163	493.51
51.9307	484.49
51.9452	522.96
51.9596	523.94
51.9741	499.39
51.9885	519.41
52.0029	516.53
52.0174	522.34
52.0318	527.09
52.0463	490.32
52.0607	510.01
52.0751	493.01
52.0896	535.10
52.1040	540.38
52.1185	510.97
52.1329	512.09
52.1473	516.97
52.1618	505.26
52.1762	505.65
52.1907	501.44
52.2051	511.88
52.2195	516.25
52.2340	497.59
52.2484	491.66
52.2629	504.05
52.2773	507.94
52.2917	512.85
52.3062	515.34
52.3206	520.27
52.3351	527.47
52.3495	514.81
52.3639	537.91
52.3784	460.94
52.3928	489.06
52.4073	546.58
52.4217	511.20
52.4361	481.17
52.4506	507.16
52.4650	520.42
52.4795	513.36
52.4939	497.98
52.5083	515.96
52.5228	498.21
52.5372	549.76
52.5517	532.14
52.5661	526.74
52.5805	498.16
52.5950	502.74
52.6094	490.14
52.6239	473.76
52.6383	516.83
52.6527	476.52
52.6672	501.15
52.6816	506.67
52.6961	493.50
52.7105	495.95
52.7250	474.36
52.7394	496.15
52.7538	531.45
52.7683	519.61
52.7827	500.44
52.7972	517.09
52.8116	505.89
52.8260	514.41
52.8405	515.93
52.8549	495.28
52.8694	512.79
52.8838	492.10
52.8982	525.78
52.9127	493.51
52.9271	494.33
52.9416	507.98
52.9560	485.81
52.9704	515.90
52.9849	482.47
52.9993	493.09
53.0138	548.77
53.0282	496.85
53.0426	522.16
53.0571	497.93
53.0715	548.21
53.0860	491.81
53.1004	501.45
53.1148	538.18
53.1293	532.77
53.1437	469.81
53.1582	488.25
53.1726	500.46
53.1870	501.47
53.2015	523.36
53.2159	486.16
53.2304	516.13
53.2448	523.71
53.2592	511.17
53.2737	500.24
53.2881	516.52
53.3026	533.65
53.3170	541.25
53.3314	516.36
53.3459	519.28
53.3603	528.39
53.3748	512.92
53.3892	498.58
53.4036	526.30
53.4181	512.41
53.4325	512.17
53.4470	492.37
53.4614	507.89
53.4758	526.12
53.4903	515.20
53.5047	497.64
53.5192	524.77
53.5336	544.41
53.5480	508.35
53.5625	507.82
53.5769	528.41
53.5914	529.84
53.6058	522.19
53.6202	513.30
53.6347	520.53
53.6491	511.83
53.6636	509.35
53.6780	489.55
53.6924	520.15
53.7069	497.65
53.7213	521.12
53.7358	510.55
53.7502	536.19
53.7646	483.71
53.7791	513.43
53.7935	519.81
53.8080	499.62
53.8224	529.83
53.8368	487.93
53.8513	519.91
53.8657	540.84
53.8802	522.77
53.8946	502.58
53.9090	491.38
53.9235	482.41
53.9379	497.36
53.9524	494.55
53.9668	521.64
53.9812	515.62
53.9957	512.11
54.0101	482.23
54.0246	499.01
54.0390	532.16
54.0534	534.28
54.0679	500.37
54.0823	498.47
54.0968	544.74
54.1112	528.51
54.1256	524.75
54.1401	509.95
54.1545	489.47
54.1690	515.72
54.1834	527.45
54.1978	516.74
54.2123	513.06
54.2267	519.04
54.2412	487.53
54.2556	507.19
54.2700	502.30
54.2845	526.69
54.2989	525.17
54.3134	519.51
54.3278	497.89
54.3422	499.61
54.3567	518.34
54.3711	512.57
54.3856	500.45
54.4000	505.40
54.4144	532.30
54.4289	532.57
54.4433	527.72
54.4578	520.81
54.4722	542.98
54.4866	532.35
54.5011	569.62
54.5155	554.19
54.5300	582.41
54.5444	558.23
54.5588	582.55
54.5733	588.95
54.5877	580.70
54.6022	591.52
54.6166	603.94
54.6310	587.63
54.6455	623.05
54.6599	583.27
54.6744	570.71
54.6888	569.41
54.7032	595.88
54.7177	584.53
54.7321	586.11
54.7466	588.70
54.7610	560.42
54.7754	596.18
54.7899	593.81
54.8043	582.03
54.8188	565.18
54.8332	571.18
54.8476	522.60
54.8621	603.88
54.8765	576.17
54.8910	557.14
54.9054	539.60
54.9198	536.09
54.9343	554.87
54.9487	518.78
54.9632	514.10
54.9776	538.04
54.9920	544.14
55.0065	538.21
55.0209	539.94
55.0354	486.87
55.0498	510.70
55.0642	532.55
55.0787	509.33
55.0931	549.04
55.1076	532.66
55.1220	521.90
55.1364	525.84
55.1509	496.89
55.1653	512.88
55.1798	518.47
55.1942	517.01
55.2086	527.64
55.2231	538.88
55.2375	549.92
55.2520	516.12
55.2664	545.41
55.2808	527.40
55.2953	520.60
55.3097	491.14
55.3242	477.27
55.3386	539.31
55.3530	510.80
55.3675	510.89
55.3819	498.65
55.3964	499.59
55.4108	520.83
55.4252	541.09
55.4397	505.64
55.4541	516.71
55.4686	544.62
55.4830	540.20
55.4974	496.59
55.5119	534.14
55.5263	533.57
55.5408	533.20
55.5552	530.88
55.5696	531.40
55.5841	530.96
55.5985	498.60
55.6130	511.70
55.6274	532.64
55.6418	585.16
55.6563	571.79
55.6707	525.29
55.6852	512.99
55.6996	533.60
55.7140	539.87
55.7285	523.68
55.7429	527.87
55.7574	498.03
55.7718	551.56
55.7862	542.41
55.8007	485.46
55.8151	540.06
55.8296	566.07
55.8440	510.66
55.8584	521.61
55.8729	519.73
55.8873	496.07
55.9018	525.76
55.9162	520.66
55.9306	564.10
55.9451	590.36
55.9595	537.58
55.9740	517.69
55.9884	530.15
56.0028	495.94
56.0173	522.76
56.0317	518.97
56.0462	549.17
56.0606	507.76
56.0750	543.51
56.0895	551.51
56.1039	522.30
56.1184	518.62
56.1328	501.68
56.1472	525.61
56.1617	504.81
56.1761	510.13
56.1906	507.03
56.2050	520.99
56.2194	497.45
56.2339	497.94
56.2483	513.82
56.2628	495.44
56.2772	538.48
56.2916	520.97
56.3061	541.02
56.3205	535.23
56.3350	500.08
56.3494	513.51
56.3639	547.53
56.3783	510.04
56.3927	503.25
56.4072	512.35
56.4216	530.94
56.4361	545.27
56.4505	503.83
56.4649	528.92
56.4794	534.52
56.4938	516.52
56.5083	507.09
56.5227	508.51
56.5371	533.28
56.5516	528.48
56.5660	528.32
56.5805	545.79
56.5949	479.58
56.6093	510.59
56.6238	493.25
56.6382	513.48
56.6527	546.92
56.6671	567.05
56.6815	538.82
56.6960	507.49
56.7104	511.75
56.7249	503.59
56.7393	524.91
56.7537	532.80
56.7682	537.09
56.7826	533.40
56.7971	526.52
56.8115	536.45
56.8259	515.11
56.8404	545.20
56.8548	558.19
56.8693	533.55
56.8837	513.47
56.8981	515.06
56.9126	562.60
56.9270	544.56
56.9415	503.04
56.9559	516.91
56.9703	511.38
56.9848	513.24
56.9992	513.72
57.0137	501.17
57.0281	527.62
57.0425	553.35
57.0570	551.35
57.0714	531.31
57.0859	542.76
57.1003	543.55
57.1147	559.81
57.1292	536.30
57.1436	532.48
57.1581	543.60
57.1725	526.59
57.1869	495.19
57.2014	492.46
57.2158	511.63
57.2303	550.74
57.2447	514.77
57.2591	529.88
57.2736	533.30
57.2880	549.32
57.3025	531.25
57.3169	519.87
57.3313	535.36
57.3458	550.73
57.3602	587.23
57.3747	535.39
57.3891	516.69
57.4035	523.89
57.4180	547.35
57.4324	549.98
57.4469	518.01
57.4613	522.61
57.4757	524.67
57.4902	527.67
57.5046	520.78
57.5191	522.38
57.5335	505.96
57.5479	541.30
57.5624	525.30
57.5768	523.01
57.5913	511.64
57.6057	529.69
57.6201	568.61
57.6346	543.70
57.6490	504.79
57.6635	525.73
57.6779	525.04
57.6923	527.23
57.7068	528.51
57.7212	565.80
57.7357	567.67
57.7501	544.77
57.7645	519.68
57.7790	559.74
57.7934	531.12
57.8079	506.46
57.8223	556.23
57.8367	507.94
57.8512	537.18
57.8656	591.99
57.8801	569.13
57.8945	511.08
57.9089	534.99
57.9234	543.88
57.9378	531.62
57.9523	531.62
57.9667	515.33
57.9811	547.53
57.9956	527.74
58.0100	538.47
58.0245	546.48
58.0389	514.05
58.0533	552.65
58.0678	572.75
58.0822	528.74
58.0967	559.73
58.1111	551.98
58.1255	614.43
58.1400	595.55
58.1544	571.34
58.1689	630.78
58.1833	628.03
58.1977	610.17
58.2122	640.06
58.2266	677.69
58.2411	717.12
58.2555	682.97
58.2699	662.63
58.2844	701.89
58.2988	663.87
58.3133	642.63
58.3277	653.40
58.3421	644.78
58.3566	641.12
58.3710	625.39
58.3855	597.91
58.3999	599.52
58.4143	635.85
58.4288	660.99
58.4432	672.69
58.4577	632.47
58.4721	639.04
58.4865	649.23
58.5010	628.75
58.5154	605.69
58.5299	598.16
58.5443	588.82
58.5587	618.04
58.5732	578.50
58.5876	556.11
58.6021	576.01
58.6165	579.94
58.6309	561.56
58.6454	556.66
58.6598	530.14
58.6743	546.99
58.6887	541.77
58.7031	526.60
58.7176	534.45
58.7320	527.81
58.7465	566.56
58.7609	540.00
58.7753	536.09
58.7898	549.21
58.8042	522.12
58.8187	544.66
58.8331	544.31
58.8475	558.54
58.8620	559.04
58.8764	531.18
58.8909	525.55
58.9053	567.00
58.9197	537.56
58.9342	552.78
58.9486	543.58
58.9631	523.96
58.9775	521.59
58.9919	535.63
59.0064	558.25
59.0208	558.51
59.0353	566.32
59.0497	537.28
59.0641	509.19
59.0786	503.33
59.0930	527.69
59.1075	537.07
59.1219	557.75
59.1363	530.43
59.1508	526.59
59.1652	561.50
59.1797	533.47
59.1941	568.63
59.2085	530.92
59.2230	548.86
59.2374	507.43
59.2519	489.08
59.2663	515.70
59.2807	539.23
59.2952	544.58
59.3096	570.61
59.3241	567.78
59.3385	560.35
59.3529	575.58
59.3674	549.91
59.3818	543.92
59.3963	560.26
59.4107	578.25
59.4251	580.23
59.4396	553.14
59.4540	537.27
59.4685	559.36
59.4829	550.05
59.4973	551.60
59.5118	539.19
59.5262	520.64
59.5407	544.73
59.5551	578.27
59.5695	548.88
59.5840	529.76
59.5984	540.96
59.6129	530.46
59.6273	547.74
59.6417	513.82
59.6562	517.88
59.6706	548.58
59.6851	545.62
59.6995	507.47
59.7139	512.87
59.7284	527.29
59.7428	509.38
59.7573	537.55
59.7717	527.10
59.7861	544.45
59.8006	517.63
59.8150	544.21
59.8295	554.88
59.8439	546.57
59.8583	567.81
59.8728	543.10
59.8872	479.70
59.9017	551.60
59.9161	562.59
59.9305	549.07
59.9450	554.34
59.9594	547.67
59.9739	563.14
59.9883	540.46
60.0027	543.91
60.0172	536.43
60.0316	575.15
60.0461	539.49
60.0605	584.49
60.0750	572.41
60.0894	562.40
60.1038	551.45
60.1183	559.34
60.1327	583.13
60.1472	533.09
60.1616	522.27
60.1760	536.53
60.1905	516.42
60.2049	535.15
60.2194	544.39
60.2338	537.74
60.2482	549.42
60.2627	511.85
60.2771	548.49
60.2916	549.73
60.3060	534.08
60.3204	536.78
60.3349	542.96
60.3493	555.92
60.3638	518.59
60.3782	566.43
60.3926	556.56
60.4071	540.50
60.4215	556.92
60.4360	547.71
60.4504	536.44
60.4648	557.95
60.4793	529.39
60.4937	556.74
60.5082	537.47
60.5226	549.14
60.5370	546.47
60.5515	539.35
60.5659	525.06
60.5804	558.22
60.5948	536.62
60.6092	549.59
60.6237	545.14
60.6381	570.22
60.6526	520.70
60.6670	512.19
60.6814	503.82
60.6959	542.68
60.7103	552.65
60.7248	528.57
60.7392	515.80
60.7536	527.39
60.7681	551.99
60.7825	558.54
60.7970	518.39
60.8114	521.97
60.8258	551.41
60.8403	534.79
60.8547	542.59
60.8692	506.69
60.8836	495.15
60.8980	557.80
60.9125	539.11
60.9269	536.93
60.9414	555.02
60.9558	524.21
60.9702	532.90
60.9847	544.95
60.9991	505.28
61.0136	509.67
61.0280	549.41
61.0424	530.51
61.0569	561.95
61.0713	562.23
61.0858	570.51
61.1002	530.91
61.1146	548.96
61.1291	532.70
61.1435	524.65
61.1580	549.03
61.1724	557.57
61.1868	521.50
61.2013	563.86
61.2157	574.34
61.2302	547.06
61.2446	547.80
61.2590	546.46
61.2735	531.74
61.2879	544.15
61.3024	521.50
61.3168	545.56
61.3312	554.13
61.3457	564.93
61.3601	550.72
61.3746	554.67
61.3890	536.05
61.4034	536.73
61.4179	534.22
61.4323	521.09
61.4468	524.71
61.4612	539.88
61.4756	536.66
61.4901	523.25
61.5045	557.46
61.5190	556.27
61.5334	555.84
61.5478	558.60
61.5623	550.83
61.5767	520.65
61.5912	548.44
61.6056	526.72
61.6200	508.80
61.6345	541.25
61.6489	536.53
61.6634	525.96
61.6778	514.61
61.6922	547.55
61.7067	580.17
61.7211	556.47
61.7356	555.78
61.7500	533.03
61.7644	536.88
61.7789	555.58
61.7933	586.61
61.8078	582.24
61.8222	547.28
61.8366	551.32
61.8511	552.67
61.8655	590.98
61.8800	564.40
61.8944	571.77
61.9088	598.66
61.9233	546.95
61.9377	564.63
61.9522	534.75
61.9666	556.36
61.9810	533.74
61.9955	548.48
62.0099	557.70
62.0244	556.28
62.0388	576.42
62.0532	541.20
62.0677	510.79
62.0821	536.51
62.0966	550.72
62.1110	557.85
62.1254	590.47
62.1399	587.69
62.1543	551.84
62.1688	556.38
62.1832	551.96
62.1976	539.27
62.2121	568.94
62.2265	565.77
62.2410	576.14
62.2554	579.87
62.2698	554.21
62.2843	553.28
62.2987	564.38
62.3132	529.05
62.3276	551.66
62.3420	557.93
62.3565	546.73
62.3709	587.58
62.3854	531.07
62.3998	539.18
62.4142	558.30
62.4287	578.34
62.4431	552.45
62.4576	554.30
62.4720	572.47
62.4864	590.31
62.5009	580.38
62.5153	561.58
62.5298	575.50
62.5442	570.92
62.5586	603.31
62.5731	580.44
62.5875	561.10
62.6020	562.89
62.6164	554.93
62.6308	557.01
62.6453	577.84
62.6597	583.79
62.6742	558.83
62.6886	546.74
62.7030	555.17
62.7175	537.53
62.7319	525.35
62.7464	562.86
62.7608	551.26
62.7752	556.59
62.7897	602.56
62.8041	579.54
62.8186	569.39
62.8330	549.88
62.8474	555.79
62.8619	581.24
62.8763	579.97
62.8908	568.99
62.9052	585.07
62.9196	591.42
62.9341	589.39
62.9485	591.81
62.9630	549.28
62.9774	561.16
62.9918	554.68
63.0063	543.75
63.0207	564.57
63.0352	583.03
63.0496	542.36
63.0640	541.97
63.0785	589.31
63.0929	577.63
63.1074	536.73
63.1218	581.65
63.1362	575.96
63.1507	558.76
63.1651	587.11
63.1796	575.54
63.1940	540.13
63.2084	553.34
63.2229	551.13
63.2373	582.51
63.2518	547.95
63.2662	572.99
63.2806	586.36
63.2951	572.75
63.3095	601.63
63.3240	589.15
63.3384	586.71
63.3528	580.90
63.3673	569.25
63.3817	578.90
63.3962	534.09
63.4106	559.63
63.4250	588.77
63.4395	576.17
63.4539	591.57
63.4684	598.90
63.4828	591.46
63.4972	590.59
63.5117	575.98
63.5261	580.39
63.5406	591.44
63.5550	577.43
63.5694	585.94
63.5839	588.78
63.5983	589.26
63.6128	573.14
63.6272	606.96
63.6416	586.84
63.6561	632.59
63.6705	627.27
63.6850	611.56
63.6994	597.08
63.7138	598.25
63.7283	605.09
63.7427	608.55
63.7572	621.55
63.7716	621.71
63.7861	659.87
63.8005	641.87
63.8149	637.95
63.8294	650.46
63.8438	621.00
63.8583	668.71
63.8727	671.47
63.8871	692.28
63.9016	698.89
63.9160	686.93
63.9305	767.54
63.9449	752.10
63.9593	771.87
63.9738	834.25
63.9882	826.85
64.0027	814.01
64.0171	880.61
64.0315	805.47
64.0460	834.90
64.0604	877.58
64.0749	839.61
64.0893	849.89
64.1037	814.54
64.1182	780.17
64.1326	753.44
64.1471	736.81
64.1615	755.07
64.1759	721.48
64.1904	730.25
64.2048	750.95
64.2193	739.53
64.2337	722.86
64.2481	741.01
64.2626	693.10
64.2770	690.84
64.2915	674.79
64.3059	670.67
64.3203	681.76
64.3348	639.16
64.3492	629.90
64.3637	651.28
64.3781	631.53
64.3925	638.50
64.4070	627.45
64.4214	627.19
64.4359	672.53
64.4503	646.19
64.4647	677.89
64.4792	631.67
64.4936	607.95
64.5081	649.88
64.5225	641.12
64.5369	659.26
64.5514	680.50
64.5658	661.46
64.5803	647.28
64.5947	644.74
64.6091	621.14
64.6236	647.90
64.6380	597.57
64.6525	633.61
64.6669	677.88
64.6813	700.67
64.6958	733.03
64.7102	728.41
64.7247	681.46
64.7391	689.27
64.7535	662.97
64.7680	693.53
64.7824	738.11
64.7969	738.06
64.8113	756.16
64.8257	758.44
64.8402	831.01
64.8546	839.28
64.8691	879.22
64.8835	858.93
64.8979	848.19
64.9124	876.92
64.9268	847.87
64.9413	895.01
64.9557	909.89
64.9701	994.73
64.9846	1044.26
64.9990	1143.41
65.0135	1243.16
65.0279	1498.70
65.0423	1762.12
65.0568	2135.21
65.0712	2747.41
65.0857	3582.59
65.1001	4672.79
65.1145	6306.05
65.1290	8236.14
65.1434	9748.01
65.1579	11111.09
65.1723	11969.63
65.1867	11331.94
65.2012	9790.52
65.2156	8241.36
65.2301	6446.92
65.2445	5212.97
65.2589	4438.72
65.2734	4157.77
65.2878	4598.50
65.3023	5113.20
65.3167	5985.72
65.3311	6697.49
65.3456	7074.19
65.3600	6950.79
65.3745	6457.65
65.3889	5342.26
65.4033	4252.61
65.4178	3445.62
65.4322	2683.52
65.4467	2061.15
65.4611	1731.42
65.4755	1520.00
65.4900	1303.02
65.5044	1145.83
65.5189	1057.03
65.5333	1021.57
65.5477	915.16
65.5622	866.68
65.5766	830.90
65.5911	846.51
65.6055	779.51
65.6199	799.49
65.6344	787.71
65.6488	752.39
65.6633	733.16
65.6777	730.97
65.6921	712.31
65.7066	753.71
65.7210	705.59
65.7355	650.27
65.7499	678.55
65.7643	663.29
65.7788	661.98
65.7932	657.00
65.8077	677.48
65.8221	658.82
65.8365	667.23
65.8510	654.85
65.8654	646.35
65.8799	629.55
65.8943	624.63
65.9087	626.23
65.9232	613.23
65.9376	658.62
65.9521	656.51
65.9665	628.65
65.9809	608.92
65.9954	615.80
66.0098	622.35
66.0243	614.73
66.0387	634.37
66.0531	618.43
66.0676	612.22
66.0820	664.27
66.0965	644.04
66.1109	600.60
66.1253	621.92
66.1398	631.97
66.1542	632.69
66.1687	613.75
66.1831	584.36
66.1975	559.49
66.2120	588.20
66.2264	610.34
66.2409	627.55
66.2553	622.84
66.2697	625.78
66.2842	586.55
66.2986	585.44
66.3131	627.64
66.3275	641.00
66.3419	634.40
66.3564	613.32
66.3708	582.03
66.3853	580.57
66.3997	595.05
66.4141	577.06
66.4286	588.44
66.4430	546.51
66.4575	586.49
66.4719	645.82
66.4863	618.69
66.5008	623.67
66.5152	623.60
66.5297	591.34
66.5441	564.52
66.5585	564.26
66.5730	559.61
66.5874	559.66
66.6019	583.92
66.6163	597.32
66.6307	624.94
66.6452	633.56
66.6596	617.47
66.6741	593.90
66.6885	578.86
66.7029	576.53
66.7174	561.55
66.7318	566.52
66.7463	585.69
66.7607	573.11
66.7751	602.76
66.7896	579.17
66.8040	603.11
66.8185	617.84
66.8329	604.85
66.8473	598.14
66.8618	607.11
66.8762	590.70
66.8907	623.61
66.9051	596.21
66.9195	600.55
66.9340	590.92
66.9484	579.50
66.9629	573.71
66.9773	549.06
66.9917	551.05
67.0062	572.46
67.0206	625.67
67.0351	577.42
67.0495	594.42
67.0639	614.74
67.0784	586.68
67.0928	579.31
67.1073	615.78
67.1217	610.76
67.1361	603.93
67.1506	555.64
67.1650	570.54
67.1795	586.49
67.1939	571.58
67.2083	594.42
67.2228	621.87
67.2372	610.07
67.2517	595.23
67.2661	571.89
67.2805	600.98
67.2950	572.84
67.3094	575.86
67.3239	550.60
67.3383	558.12
67.3527	555.47
67.3672	604.76
67.3816	597.99
67.3961	567.35
67.4105	531.81
67.4250	539.94
67.4394	542.71
67.4538	587.28
67.4683	592.41
67.4827	575.78
67.4972	577.27
67.5116	580.74
67.5260	563.49
67.5405	565.32
67.5549	559.68
67.5694	575.74
67.5838	549.87
67.5982	586.48
67.6127	553.82
67.6271	536.20
67.6416	542.42
67.6560	570.78
67.6704	574.45
67.6849	594.27
67.6993	591.09
67.7138	582.02
67.7282	598.05
67.7426	534.28
67.7571	555.08
67.7715	585.03
67.7860	574.60
67.8004	609.98
67.8148	599.00
67.8293	560.99
67.8437	566.89
67.8582	576.92
67.8726	578.37
67.8870	545.60
67.9015	610.24
67.9159	551.86
67.9304	555.57
67.9448	598.05
67.9592	521.04
67.9737	590.90
67.9881	604.06
68.0026	596.43
68.0170	578.27
68.0314	583.41
68.0459	554.94
68.0603	592.19
68.0748	603.76
68.0892	631.26
68.1036	578.57
68.1181	583.91
68.1325	565.28
68.1470	602.73
68.1614	602.71
68.1758	577.76
68.1903	589.19
68.2047	543.73
68.2192	550.58
68.2336	566.13
68.2480	568.94
68.2625	577.95
68.2769	590.75
68.2914	550.98
68.3058	580.56
68.3202	563.69
68.3347	615.97
68.3491	600.39
68.3636	591.88
68.3780	588.29
68.3924	560.93
68.4069	569.40
68.4213	571.96
68.4358	597.32
68.4502	555.97
68.4646	568.09
68.4791	521.04
68.4935	552.09
68.5080	524.36
68.5224	602.61
68.5368	556.93
68.5513	551.78
68.5657	554.83
68.5802	573.87
68.5946	579.56
68.6090	583.27
68.6235	574.92
68.6379	604.22
68.6524	554.45
68.6668	508.12
68.6812	559.02
68.6957	571.40
68.7101	611.94
68.7246	593.72
68.7390	522.03
68.7534	544.09
68.7679	586.76
68.7823	602.44
68.7968	567.00
68.8112	550.40
68.8256	538.63
68.8401	561.99
68.8545	545.08
68.8690	549.62
68.8834	516.06
68.8978	579.12
68.9123	614.67
68.9267	540.15
68.9412	580.65
68.9556	576.43
68.9700	558.09
68.9845	552.82
68.9989	551.65
69.0134	564.72
69.0278	538.52
69.0422	578.66
69.0567	583.36
69.0711	547.10
69.0856	592.80
69.1000	585.16
69.1144	549.02
69.1289	581.58
69.1433	542.16
69.1578	607.18
69.1722	567.24
69.1866	564.63
69.2011	545.66
69.2155	573.43
69.2300	542.63
69.2444	579.01
69.2588	527.06
69.2733	569.15
69.2877	595.84
69.3022	550.59
69.3166	532.32
69.3310	595.91
69.3455	608.65
69.3599	616.19
69.3744	585.66
69.3888	570.67
69.4032	593.80
69.4177	588.73
69.4321	616.87
69.4466	539.12
69.4610	597.65
69.4754	586.55
69.4899	639.35
69.5043	593.59
69.5188	539.72
69.5332	551.78
69.5476	555.79
69.5621	560.95
69.5765	528.19
69.5910	522.65
69.6054	591.97
69.6198	592.86
69.6343	617.86
69.6487	614.50
69.6632	571.28
69.6776	592.86
69.6920	583.93
69.7065	610.30
69.7209	551.68
69.7354	514.42
69.7498	575.39
69.7642	581.35
69.7787	595.22
69.7931	577.96
69.8076	596.63
69.8220	573.73
69.8364	575.19
69.8509	588.37
69.8653	557.95
69.8798	546.77
69.8942	576.77
69.9086	610.39
69.9231	623.96
69.9375	545.30
69.9520	567.58
69.9664	578.56
69.9808	588.66
69.9953	565.63
70.0097	581.39
70.0242	586.94
70.0386	592.75
70.0530	629.24
70.0675	631.94
70.0819	592.70
70.0964	583.19
70.1108	577.57
70.1252	595.78
70.1397	582.86
70.1541	606.75
70.1686	591.38
70.1830	582.99
70.1974	602.48
70.2119	574.64
70.2263	553.26
70.2408	602.51
70.2552	592.83
70.2696	570.01
70.2841	600.73
70.2985	598.76
70.3130	548.54
70.3274	555.80
70.3418	534.09
70.3563	573.93
70.3707	572.36
70.3852	575.59
70.3996	561.41
70.4140	579.89
70.4285	640.67
70.4429	577.31
70.4574	555.10
70.4718	611.08
70.4862	647.11
70.5007	612.45
70.5151	582.98
70.5296	567.15
70.5440	582.49
70.5584	563.60
70.5729	520.62
70.5873	563.99
70.6018	564.28
70.6162	544.18
70.6306	536.67
70.6451	565.73
70.6595	555.18
70.6740	582.30
70.6884	584.67
70.7028	584.22
70.7173	600.14
70.7317	576.64
70.7462	575.10
70.7606	577.42
70.7750	552.06
70.7895	568.58
70.8039	572.72
70.8184	614.39
70.8328	580.54
70.8472	552.63
70.8617	612.87
70.8761	569.35
70.8906	546.06
70.9050	594.84
70.9194	620.75
70.9339	604.39
70.9483	592.23
70.9628	576.93
70.9772	559.79
70.9916	519.89
71.0061	534.48
71.0205	576.26
71.0350	518.75
71.0494	570.95
71.0638	620.93
71.0783	610.90
71.0927	628.39
71.1072	555.48
71.1216	542.87
71.1361	604.54
71.1505	628.98
71.1649	634.96
71.1794	624.89
71.1938	577.79
71.2083	580.36
71.2227	575.60
71.2371	584.20
71.2516	527.21
71.2660	489.33
71.2805	508.45
71.2949	575.51
71.3093	597.82
71.3238	595.65
71.3382	591.28
71.3527	620.58
71.3671	621.17
71.3815	568.34
71.3960	555.25
71.4104	537.18
71.4249	620.12
71.4393	603.21
71.4537	573.74
71.4682	550.69
71.4826	550.57
71.4971	551.84
71.5115	563.91
71.5259	585.33
71.5404	607.31
71.5548	603.63
71.5693	588.99
71.5837	544.88
71.5981	528.52
71.6126	524.62
71.6270	573.88
71.6415	642.53
71.6559	606.67
71.6703	597.28
71.6848	585.86
71.6992	633.94
71.7137	563.34
71.7281	520.19
71.7425	584.59
71.7570	601.79
71.7714	565.49
71.7859	537.87
71.8003	603.78
71.8147	609.18
71.8292	591.22
71.8436	582.07
71.8581	615.81
71.8725	621.42
71.8869	578.30
71.9014	523.33
71.9158	528.34
71.9303	572.27
71.9447	618.61
71.9591	642.67
71.9736	641.44
71.9880	562.67
72.0025	560.34
72.0169	577.60
72.0313	566.77
72.0458	597.34
72.0602	571.06
72.0747	535.87
72.0891	525.57
72.1035	598.29
72.1180	620.10
72.1324	587.81
72.1469	640.44
72.1613	587.47
72.1757	539.96
72.1902	634.07
72.2046	622.50
72.2191	580.36
72.2335	613.85
72.2479	612.67
72.2624	528.53
72.2768	559.24
72.2913	562.20
72.3057	561.59
72.3201	586.96
72.3346	615.70
72.3490	637.34
72.3635	573.18
72.3779	490.47
72.3923	557.69
72.4068	591.78
72.4212	562.55
72.4357	581.10
72.4501	595.75
72.4645	611.13
72.4790	593.77
72.4934	496.26
72.5079	483.72
72.5223	560.60
72.5367	579.37
72.5512	603.56
72.5656	578.06
72.5801	447.68
72.5945	497.28
72.6089	555.86
72.6234	581.92
72.6378	558.75
72.6523	530.17
72.6667	565.37
72.6811	591.83
72.6956	563.94
72.7100	588.75
72.7245	593.78
72.7389	644.47
72.7533	629.53
72.7678	649.03
72.7822	730.66
72.7967	611.14
72.8111	567.41
72.8255	619.18
72.8400	619.37
72.8544	589.17
72.8689	590.81
72.8833	507.18