2022.09.19 19:37:16
Îáðàçåö: ß÷åéêà LCoV 16-09-2022
Lambda1 = 1.54060
Lambda2 = 1.54439
Lambdam = 1.54186
R = 0.497
2Theta	I

line¹ 0 ;repeat¹ 0
22.1120	635.13
22.1264	661.16
22.1409	544.23
22.1553	461.15
22.1697	539.36
22.1842	593.92
22.1986	547.09
22.2131	573.18
22.2275	550.55
22.2419	527.92
22.2564	518.80
22.2708	617.24
22.2853	605.83
22.2997	700.87
22.3141	705.77
22.3286	618.36
22.3430	592.81
22.3575	663.63
22.3719	603.00
22.3863	516.84
22.4008	543.27
22.4152	571.69
22.4297	652.91
22.4441	601.16
22.4585	637.18
22.4730	716.18
22.4874	687.90
22.5019	588.12
22.5163	599.98
22.5307	610.42
22.5452	579.32
22.5596	599.43
22.5741	654.96
22.5885	636.27
22.6029	643.78
22.6174	547.85
22.6318	552.09
22.6463	564.14
22.6607	616.14
22.6751	650.60
22.6896	611.34
22.7040	592.25
22.7185	508.64
22.7329	589.17
22.7473	563.59
22.7618	553.23
22.7762	539.58
22.7907	586.59
22.8051	586.59
22.8195	585.13
22.8340	573.54
22.8484	585.59
22.8629	645.16
22.8773	534.88
22.8917	549.20
22.9062	534.83
22.9206	513.28
22.9351	497.47
22.9495	505.91
22.9639	570.60
22.9784	592.65
22.9928	547.62
23.0073	593.17
23.0217	660.13
23.0361	611.93
23.0506	542.93
23.0650	547.98
23.0795	484.61
23.0939	664.66
23.1083	615.72
23.1228	641.05
23.1372	607.88
23.1517	603.42
23.1661	613.05
23.1806	602.07
23.1950	576.13
23.2094	520.27
23.2239	586.64
23.2383	530.52
23.2528	546.67
23.2672	594.89
23.2816	530.95
23.2961	526.70
23.3105	553.88
23.3250	515.47
23.3394	583.90
23.3538	595.22
23.3683	595.65
23.3827	537.53
23.3972	544.32
23.4116	584.59
23.4260	517.98
23.4405	547.82
23.4549	510.32
23.4694	525.48
23.4838	526.82
23.4982	478.93
23.5127	577.78
23.5271	575.47
23.5416	559.16
23.5560	609.92
23.5704	555.81
23.5849	526.60
23.5993	534.21
23.6138	563.44
23.6282	573.75
23.6426	564.92
23.6571	514.99
23.6715	509.78
23.6860	549.43
23.7004	599.98
23.7148	544.86
23.7293	590.13
23.7437	589.03
23.7582	574.09
23.7726	617.48
23.7870	563.37
23.8015	507.63
23.8159	535.32
23.8304	564.98
23.8448	618.33
23.8592	620.23
23.8737	564.37
23.8881	558.90
23.9026	588.44
23.9170	609.18
23.9314	566.40
23.9459	577.39
23.9603	570.87
23.9748	586.55
23.9892	651.99
24.0036	554.05
24.0181	581.72
24.0325	532.73
24.0470	499.30
24.0614	499.96
24.0758	494.08
24.0903	546.10
24.1047	547.00
24.1192	590.25
24.1336	587.71
24.1480	548.67
24.1625	592.59
24.1769	578.94
24.1914	567.50
24.2058	653.56
24.2202	608.33
24.2347	610.53
24.2491	581.55
24.2636	540.84
24.2780	569.71
24.2924	569.12
24.3069	564.20
24.3213	557.82
24.3358	542.51
24.3502	581.75
24.3646	544.26
24.3791	604.57
24.3935	555.11
24.4080	564.92
24.4224	565.48
24.4368	536.97
24.4513	560.45
24.4657	597.29
24.4802	509.81
24.4946	552.08
24.5090	527.12
24.5235	525.76
24.5379	534.89
24.5524	567.44
24.5668	525.03
24.5812	566.70
24.5957	596.44
24.6101	554.23
24.6246	538.67
24.6390	566.60
24.6534	511.81
24.6679	539.08
24.6823	523.74
24.6968	533.83
24.7112	547.63
24.7256	559.77
24.7401	514.95
24.7545	518.13
24.7690	487.15
24.7834	531.16
24.7978	572.15
24.8123	553.29
24.8267	509.79
24.8412	514.07
24.8556	515.72
24.8700	510.45
24.8845	567.16
24.8989	569.33
24.9134	555.69
24.9278	565.92
24.9422	557.76
24.9567	540.33
24.9711	508.51
24.9856	572.90
25.0000	535.88
25.0144	482.27
25.0289	543.62
25.0433	599.99
25.0578	546.45
25.0722	525.56
25.0866	566.94
25.1011	556.46
25.1155	585.72
25.1300	524.16
25.1444	523.11
25.1588	503.30
25.1733	513.76
25.1877	564.81
25.2022	532.66
25.2166	509.52
25.2310	532.31
25.2455	508.51
25.2599	534.74
25.2744	533.36
25.2888	538.45
25.3032	568.86
25.3177	513.53
25.3321	505.43
25.3466	495.69
25.3610	586.19
25.3754	515.75
25.3899	535.60
25.4043	553.84
25.4188	545.11
25.4332	527.09
25.4476	500.83
25.4621	572.07
25.4765	513.82
25.4910	519.31
25.5054	525.57
25.5198	537.98
25.5343	518.20
25.5487	513.92
25.5632	555.27
25.5776	542.85
25.5920	541.94
25.6065	594.91
25.6209	546.79
25.6354	518.23
25.6498	537.42
25.6642	543.77
25.6787	525.99
25.6931	518.68
25.7076	547.65
25.7220	549.18
25.7364	541.52
25.7509	540.97
25.7653	520.93
25.7798	521.76
25.7942	531.12
25.8086	519.06
25.8231	545.94
25.8375	561.03
25.8520	540.11
25.8664	567.13
25.8808	553.74
25.8953	552.16
25.9097	523.54
25.9242	529.95
25.9386	523.87
25.9530	550.26
25.9675	570.27
25.9819	533.72
25.9964	547.19
26.0108	548.86
26.0252	513.84
26.0397	530.44
26.0541	574.53
26.0686	532.12
26.0830	511.49
26.0974	553.25
26.1119	543.46
26.1263	575.42
26.1408	540.72
26.1552	502.23
26.1696	550.04
26.1841	519.65
26.1985	511.05
26.2130	503.13
26.2274	533.44
26.2418	536.03
26.2563	504.24
26.2707	498.94
26.2852	519.19
26.2996	516.67
26.3140	531.56
26.3285	530.40
26.3429	534.57
26.3574	539.54
26.3718	527.34
26.3862	510.48
26.4007	515.20
26.4151	528.88
26.4296	544.84
26.4440	527.75
26.4584	541.49
26.4729	521.55
26.4873	535.20
26.5018	517.86
26.5162	530.51
26.5306	561.94
26.5451	559.57
26.5595	544.06
26.5740	543.41
26.5884	542.96
26.6028	552.08
26.6173	523.80
26.6317	523.18
26.6462	501.90
26.6606	519.70
26.6750	531.02
26.6895	524.21
26.7039	535.23
26.7184	549.05
26.7328	531.64
26.7472	530.43
26.7617	533.68
26.7761	532.10
26.7906	539.65
26.8050	544.28
26.8194	542.92
26.8339	525.10
26.8483	536.49
26.8628	555.28
26.8772	571.06
26.8917	543.21
26.9061	535.97
26.9205	541.07
26.9350	520.81
26.9494	512.01
26.9639	478.92
26.9783	503.80
26.9927	520.31
27.0072	508.57
27.0216	521.03
27.0361	527.98
27.0505	505.59
27.0649	511.83
27.0794	517.27
27.0938	506.21
27.1083	511.22
27.1227	517.45
27.1371	507.30
27.1516	541.11
27.1660	540.69
27.1805	511.60
27.1949	526.84
27.2093	511.67
27.2238	507.25
27.2382	503.89
27.2527	547.32
27.2671	552.99
27.2815	536.35
27.2960	527.94
27.3104	512.75
27.3249	546.90
27.3393	513.87
27.3537	509.36
27.3682	507.61
27.3826	499.04
27.3971	517.70
27.4115	546.24
27.4259	555.33
27.4404	532.03
27.4548	524.06
27.4693	537.36
27.4837	524.22
27.4981	515.64
27.5126	534.61
27.5270	530.37
27.5415	516.50
27.5559	559.92
27.5703	558.66
27.5848	576.90
27.5992	547.92
27.6137	544.36
27.6281	537.05
27.6425	522.79
27.6570	514.18
27.6714	517.57
27.6859	517.29
27.7003	553.78
27.7147	535.82
27.7292	510.94
27.7436	518.32
27.7581	544.77
27.7725	533.43
27.7869	526.27
27.8014	515.97
27.8158	535.01
27.8303	532.15
27.8447	480.34
27.8591	525.30
27.8736	502.36
27.8880	495.04
27.9025	503.07
27.9169	529.19
27.9313	485.51
27.9458	553.55
27.9602	496.57
27.9747	459.96
27.9891	529.76
28.0035	514.19
28.0180	535.59
28.0324	483.94
28.0469	499.55
28.0613	502.80
28.0757	512.88
28.0902	521.32
28.1046	530.25
28.1191	539.19
28.1335	521.68
28.1479	516.87
28.1624	534.71
28.1768	519.10
28.1913	497.43
28.2057	503.05
28.2201	522.55
28.2346	511.53
28.2490	505.12
28.2635	543.35
28.2779	535.89
28.2923	523.33
28.3068	512.75
28.3212	518.36
28.3357	518.19
28.3501	513.33
28.3645	530.85
28.3790	507.04
28.3934	493.51
28.4079	491.19
28.4223	492.82
28.4367	516.78
28.4512	511.72
28.4656	518.28
28.4801	543.52
28.4945	490.12
28.5089	487.69
28.5234	521.07
28.5378	532.96
28.5523	520.09
28.5667	510.40
28.5811	504.09
28.5956	483.32
28.6100	502.13
28.6245	525.12
28.6389	518.20
28.6533	508.37
28.6678	522.50
28.6822	523.19
28.6967	486.07
28.7111	504.44
28.7255	531.28
28.7400	489.35
28.7544	504.94
28.7689	478.22
28.7833	502.39
28.7977	530.65
28.8122	542.57
28.8266	496.68
28.8411	489.95
28.8555	489.20
28.8699	505.72
28.8844	537.25
28.8988	532.71
28.9133	510.84
28.9277	528.29
28.9421	536.84
28.9566	484.06
28.9710	492.29
28.9855	520.93
28.9999	484.68
29.0143	516.85
29.0288	469.91
29.0432	544.95
29.0577	531.87
29.0721	489.29
29.0865	503.34
29.1010	532.95
29.1154	514.93
29.1299	550.62
29.1443	506.71
29.1587	523.50
29.1732	510.40
29.1876	535.95
29.2021	514.61
29.2165	522.21
29.2309	501.59
29.2454	518.07
29.2598	506.23
29.2743	513.70
29.2887	543.93
29.3031	507.29
29.3176	525.80
29.3320	525.23
29.3465	542.42
29.3609	509.56
29.3753	503.17
29.3898	472.74
29.4042	461.21
29.4187	505.50
29.4331	504.63
29.4475	500.08
29.4620	503.04
29.4764	524.03
29.4909	520.24
29.5053	502.09
29.5197	482.50
29.5342	499.25
29.5486	517.07
29.5631	506.80
29.5775	489.99
29.5919	473.37
29.6064	511.71
29.6208	501.23
29.6353	509.83
29.6497	493.07
29.6641	521.74
29.6786	486.13
29.6930	514.01
29.7075	512.31
29.7219	515.94
29.7363	498.53
29.7508	490.39
29.7652	532.76
29.7797	522.24
29.7941	533.15
29.8085	510.72
29.8230	529.88
29.8374	516.79
29.8519	464.36
29.8663	477.77
29.8807	519.82
29.8952	509.63
29.9096	518.50
29.9241	527.27
29.9385	498.67
29.9529	532.02
29.9674	528.81
29.9818	491.86
29.9963	488.96
30.0107	526.34
30.0251	544.98
30.0396	480.31
30.0540	483.38
30.0685	491.00
30.0829	513.06
30.0973	530.09
30.1118	497.16
30.1262	536.02
30.1407	547.16
30.1551	507.30
30.1695	497.18
30.1840	496.36
30.1984	478.39
30.2129	482.82
30.2273	496.99
30.2417	509.30
30.2562	525.01
30.2706	537.10
30.2851	540.23
30.2995	495.63
30.3139	498.10
30.3284	491.41
30.3428	489.98
30.3573	525.25
30.3717	514.89
30.3861	500.28
30.4006	515.43
30.4150	456.80
30.4295	500.83
30.4439	513.23
30.4583	520.14
30.4728	530.66
30.4872	510.07
30.5017	500.57
30.5161	486.53
30.5305	540.52
30.5450	527.41
30.5594	558.77
30.5739	507.12
30.5883	524.58
30.6028	527.20
30.6172	534.93
30.6316	500.19
30.6461	533.35
30.6605	572.24
30.6750	595.92
30.6894	586.18
30.7038	636.37
30.7183	652.72
30.7327	651.72
30.7472	708.98
30.7616	666.56
30.7760	650.92
30.7905	690.91
30.8049	712.50
30.8194	699.27
30.8338	702.28
30.8482	718.75
30.8627	681.40
30.8771	649.63
30.8916	631.92
30.9060	619.64
30.9204	618.61
30.9349	573.21
30.9493	569.19
30.9638	541.01
30.9782	507.24
30.9926	506.93
31.0071	529.30
31.0215	523.86
31.0360	500.77
31.0504	512.27
31.0648	518.06
31.0793	519.73
31.0937	546.54
31.1082	512.95
31.1226	534.18
31.1370	498.27
31.1515	465.43
31.1659	515.86
31.1804	503.89
31.1948	521.50
31.2092	569.09
31.2237	500.62
31.2381	490.89
31.2526	539.28
31.2670	559.52
31.2814	558.78
31.2959	529.45
31.3103	549.50
31.3248	524.76
31.3392	520.36
31.3536	520.57
31.3681	528.80
31.3825	505.23
31.3970	508.86
31.4114	506.09
31.4258	520.12
31.4403	518.81
31.4547	517.28
31.4692	507.23
31.4836	516.84
31.4980	521.22
31.5125	530.75
31.5269	503.03
31.5414	507.98
31.5558	506.45
31.5702	545.20
31.5847	547.78
31.5991	517.24
31.6136	484.40
31.6280	493.66
31.6424	520.33
31.6569	515.82
31.6713	512.22
31.6858	482.38
31.7002	514.53
31.7146	497.12
31.7291	522.41
31.7435	531.43
31.7580	495.44
31.7724	516.12
31.7868	537.10
31.8013	513.15
31.8157	464.88
31.8302	489.20
31.8446	479.82
31.8590	517.70
31.8735	521.52
31.8879	519.39
31.9024	517.76
31.9168	498.98
31.9312	506.62
31.9457	517.06
31.9601	512.93
31.9746	504.47
31.9890	492.68
32.0034	490.81
32.0179	547.67
32.0323	516.99
32.0468	533.70
32.0612	493.79
32.0756	520.15
32.0901	504.43
32.1045	517.67
32.1190	507.40
32.1334	538.82
32.1478	496.82
32.1623	528.80
32.1767	522.14
32.1912	507.17
32.2056	475.09
32.2200	480.57
32.2345	520.77
32.2489	536.99
32.2634	525.12
32.2778	531.60
32.2922	487.22
32.3067	482.49
32.3211	493.19
32.3356	490.32
32.3500	527.45
32.3644	494.56
32.3789	489.87
32.3933	493.84
32.4078	500.66
32.4222	522.49
32.4366	508.91
32.4511	507.55
32.4655	508.32
32.4800	504.29
32.4944	515.70
32.5088	522.15
32.5233	529.20
32.5377	534.57
32.5522	490.37
32.5666	491.14
32.5810	492.90
32.5955	543.15
32.6099	503.01
32.6244	487.41
32.6388	520.94
32.6532	493.58
32.6677	491.43
32.6821	492.67
32.6966	524.68
32.7110	520.64
32.7254	501.45
32.7399	491.30
32.7543	512.28
32.7688	477.56
32.7832	515.73
32.7976	510.01
32.8121	497.53
32.8265	513.21
32.8410	477.39
32.8554	500.38
32.8698	492.01
32.8843	486.88
32.8987	518.98
32.9132	547.84
32.9276	506.94
32.9420	559.58
32.9565	500.62
32.9709	471.83
32.9854	485.03
32.9998	511.09
33.0142	472.21
33.0287	516.62
33.0431	498.30
33.0576	497.38
33.0720	537.56
33.0864	499.21
33.1009	513.75
33.1153	503.96
33.1298	474.56
33.1442	493.72
33.1586	490.52
33.1731	524.52
33.1875	489.10
33.2020	513.28
33.2164	490.82
33.2308	503.73
33.2453	485.59
33.2597	505.22
33.2742	497.56
33.2886	498.99
33.3030	475.00
33.3175	458.16
33.3319	515.78
33.3464	496.30
33.3608	474.91
33.3752	512.72
33.3897	489.81
33.4041	485.39
33.4186	539.89
33.4330	537.44
33.4474	483.09
33.4619	509.62
33.4763	525.29
33.4908	536.23
33.5052	521.97
33.5196	508.33
33.5341	517.28
33.5485	526.26
33.5630	527.64
33.5774	527.93
33.5918	505.96
33.6063	512.02
33.6207	497.83
33.6352	513.48
33.6496	490.08
33.6640	532.17
33.6785	524.84
33.6929	549.63
33.7074	528.80
33.7218	528.42
33.7362	508.10
33.7507	527.29
33.7651	503.66
33.7796	502.00
33.7940	474.01
33.8084	510.46
33.8229	499.91
33.8373	505.14
33.8518	508.25
33.8662	523.30
33.8806	515.93
33.8951	524.71
33.9095	533.46
33.9240	489.30
33.9384	482.58
33.9528	494.54
33.9673	507.67
33.9817	492.53
33.9962	514.02
34.0106	547.17
34.0250	554.62
34.0395	492.13
34.0539	497.15
34.0684	505.93
34.0828	497.58
34.0972	494.56
34.1117	480.79
34.1261	483.53
34.1406	477.86
34.1550	501.17
34.1694	497.44
34.1839	478.83
34.1983	460.33
34.2128	523.81
34.2272	510.03
34.2417	533.17
34.2561	498.27
34.2705	481.35
34.2850	535.48
34.2994	521.74
34.3139	501.16
34.3283	525.90
34.3427	553.21
34.3572	513.74
34.3716	479.45
34.3861	471.80
34.4005	493.10
34.4149	510.04
34.4294	513.64
34.4438	504.44
34.4583	508.54
34.4727	522.92
34.4871	500.32
34.5016	492.82
34.5160	493.86
34.5305	518.78
34.5449	525.41
34.5593	466.98
34.5738	489.27
34.5882	496.67
34.6027	507.31
34.6171	533.65
34.6315	518.90
34.6460	523.78
34.6604	513.83
34.6749	522.75
34.6893	494.73
34.7037	502.51
34.7182	542.85
34.7326	503.82
34.7471	508.28
34.7615	505.32
34.7759	522.57
34.7904	484.02
34.8048	474.96
34.8193	489.57
34.8337	508.54
34.8481	518.51
34.8626	480.66
34.8770	476.02
34.8915	495.64
34.9059	526.95
34.9203	526.82
34.9348	498.93
34.9492	494.43
34.9637	473.63
34.9781	511.93
34.9925	503.49
35.0070	501.65
35.0214	510.67
35.0359	533.78
35.0503	515.05
35.0647	532.22
35.0792	539.31
35.0936	529.23
35.1081	515.13
35.1225	558.35
35.1369	505.68
35.1514	462.62
35.1658	526.28
35.1803	531.55
35.1947	520.52
35.2091	522.01
35.2236	491.29
35.2380	504.99
35.2525	492.29
35.2669	501.23
35.2813	545.12
35.2958	509.93
35.3102	545.56
35.3247	510.34
35.3391	504.24
35.3535	525.98
35.3680	518.35
35.3824	521.10
35.3969	499.86
35.4113	512.79
35.4257	560.46
35.4402	519.18
35.4546	476.27
35.4691	543.62
35.4835	540.69
35.4979	551.31
35.5124	544.08
35.5268	545.03
35.5413	556.87
35.5557	524.51
35.5701	526.60
35.5846	533.30
35.5990	541.07
35.6135	520.18
35.6279	548.99
35.6423	503.12
35.6568	528.32
35.6712	524.67
35.6857	541.19
35.7001	617.62
35.7145	700.22
35.7290	672.39
35.7434	633.08
35.7579	563.61
35.7723	573.91
35.7867	590.21
35.8012	643.04
35.8156	638.77
35.8301	635.00
35.8445	582.90
35.8589	651.01
35.8734	758.53
35.8878	852.01
35.9023	1018.94
35.9167	1081.32
35.9311	1364.78
35.9456	2041.66
35.9600	2317.39
35.9745	1910.66
35.9889	1868.94
36.0033	2261.45
36.0178	2286.10
36.0322	2033.56
36.0467	1878.26
36.0611	1647.95
36.0755	1647.45
36.0900	1725.07
36.1044	1680.52
36.1189	1564.39
36.1333	1358.47
36.1477	1181.94
36.1622	1297.43
36.1766	1289.83
36.1911	1147.52
36.2055	1121.66
36.2199	1143.68
36.2344	1102.27
36.2488	1058.62
36.2633	1011.32
36.2777	1042.43
36.2921	954.19
36.3066	950.58
36.3210	908.55
36.3355	855.19
36.3499	845.97
36.3643	792.48
36.3788	743.24
36.3932	689.33
36.4077	665.37
36.4221	659.44
36.4365	644.68
36.4510	596.36
36.4654	601.77
36.4799	577.82
36.4943	544.13
36.5087	557.45
36.5232	549.86
36.5376	573.60
36.5521	594.29
36.5665	595.08
36.5809	598.20
36.5954	536.73
36.6098	553.89
36.6243	563.90
36.6387	523.76
36.6531	540.60
36.6676	518.45
36.6820	580.12
36.6965	528.07
36.7109	548.47
36.7253	564.64
36.7398	546.49
36.7542	560.99
36.7687	549.03
36.7831	600.37
36.7975	578.45
36.8120	581.44
36.8264	575.99
36.8409	559.80
36.8553	596.93
36.8697	598.83
36.8842	569.98
36.8986	595.90
36.9131	609.17
36.9275	566.82
36.9419	527.90
36.9564	535.69
36.9708	545.14
36.9853	564.42
36.9997	519.56
37.0141	531.04
37.0286	565.57
37.0430	529.45
37.0575	506.04
37.0719	539.28
37.0863	540.89
37.1008	503.34
37.1152	500.35
37.1297	500.16
37.1441	509.63
37.1585	514.07
37.1730	487.61
37.1874	493.05
37.2019	499.78
37.2163	477.07
37.2307	487.42
37.2452	520.96
37.2596	541.25
37.2741	530.44
37.2885	530.45
37.3029	527.19
37.3174	515.08
37.3318	531.73
37.3463	529.40
37.3607	515.51
37.3751	450.36
37.3896	477.60
37.4040	505.10
37.4185	507.69
37.4329	518.71
37.4473	495.07
37.4618	487.48
37.4762	531.33
37.4907	511.75
37.5051	492.89
37.5195	498.11
37.5340	517.06
37.5484	495.34
37.5629	503.79
37.5773	512.84
37.5917	522.10
37.6062	483.47
37.6206	542.59
37.6351	514.77
37.6495	518.41
37.6639	502.10
37.6784	524.72
37.6928	515.34
37.7073	528.24
37.7217	506.10
37.7361	516.77
37.7506	492.75
37.7650	471.57
37.7795	518.95
37.7939	517.92
37.8083	498.41
37.8228	555.11
37.8372	505.45
37.8517	503.76
37.8661	531.73
37.8805	511.75
37.8950	544.68
37.9094	551.38
37.9239	514.02
37.9383	548.58
37.9528	507.83
37.9672	499.37
37.9816	498.50
37.9961	502.56
38.0105	481.32
38.0250	524.33
38.0394	539.26
38.0538	532.17
38.0683	550.22
38.0827	481.72
38.0972	511.89
38.1116	505.06
38.1260	495.28
38.1405	504.87
38.1549	505.39
38.1694	513.54
38.1838	503.49
38.1982	491.55
38.2127	491.15
38.2271	493.45
38.2416	514.63
38.2560	497.86
38.2704	496.72
38.2849	492.16
38.2993	501.16
38.3138	516.27
38.3282	508.49
38.3426	493.00
38.3571	533.83
38.3715	513.78
38.3860	509.81
38.4004	552.97
38.4148	540.50
38.4293	610.92
38.4437	634.58
38.4582	652.03
38.4726	692.90
38.4870	716.75
38.5015	784.11
38.5159	783.99
38.5304	799.32
38.5448	822.34
38.5592	804.68
38.5737	778.76
38.5881	716.16
38.6026	707.34
38.6170	670.63
38.6314	662.39
38.6459	646.23
38.6603	643.76
38.6748	624.15
38.6892	550.69
38.7036	568.73
38.7181	561.93
38.7325	516.73
38.7470	514.82
38.7614	493.40
38.7758	519.98
38.7903	504.81
38.8047	519.17
38.8192	506.49
38.8336	482.37
38.8480	488.16
38.8625	490.51
38.8769	498.77
38.8914	500.03
38.9058	525.59
38.9202	498.12
38.9347	511.66
38.9491	486.46
38.9636	484.42
38.9780	468.58
38.9924	500.40
39.0069	495.98
39.0213	485.89
39.0358	466.61
39.0502	516.19
39.0646	506.19
39.0791	488.60
39.0935	504.47
39.1080	519.57
39.1224	519.33
39.1368	516.49
39.1513	512.74
39.1657	511.59
39.1802	483.00
39.1946	490.85
39.2090	482.56
39.2235	478.45
39.2379	504.10
39.2524	507.63
39.2668	508.41
39.2812	523.15
39.2957	505.88
39.3101	540.13
39.3246	519.67
39.3390	530.36
39.3534	513.21
39.3679	517.90
39.3823	514.60
39.3968	501.83
39.4112	491.11
39.4256	502.32
39.4401	511.69
39.4545	496.24
39.4690	488.89
39.4834	533.58
39.4978	528.12
39.5123	508.42
39.5267	502.13
39.5412	497.79
39.5556	469.62
39.5700	485.75
39.5845	498.82
39.5989	532.64
39.6134	535.13
39.6278	494.46
39.6422	469.52
39.6567	470.93
39.6711	500.61
39.6856	516.55
39.7000	501.40
39.7144	511.57
39.7289	477.09
39.7433	497.51
39.7578	495.08
39.7722	498.24
39.7866	479.59
39.8011	495.69
39.8155	528.88
39.8300	501.54
39.8444	508.91
39.8588	513.32
39.8733	529.11
39.8877	491.06
39.9022	496.31
39.9166	503.31
39.9310	534.33
39.9455	515.37
39.9599	497.82
39.9744	466.98
39.9888	492.41
40.0032	513.58
40.0177	549.43
40.0321	508.36
40.0466	501.54
40.0610	496.66
40.0754	518.03
40.0899	500.59
40.1043	543.23
40.1188	507.95
40.1332	506.90
40.1476	495.47
40.1621	487.21
40.1765	490.04
40.1910	504.14
40.2054	512.44
40.2198	529.51
40.2343	499.95
40.2487	488.25
40.2632	501.53
40.2776	500.09
40.2920	509.71
40.3065	498.06
40.3209	496.20
40.3354	511.47
40.3498	504.18
40.3642	480.68
40.3787	470.97
40.3931	500.56
40.4076	489.34
40.4220	517.29
40.4364	482.32
40.4509	483.20
40.4653	504.77
40.4798	485.93
40.4942	532.21
40.5086	532.66
40.5231	506.88
40.5375	493.85
40.5520	483.53
40.5664	491.81
40.5808	462.73
40.5953	487.11
40.6097	500.84
40.6242	507.97
40.6386	501.66
40.6530	486.63
40.6675	523.45
40.6819	507.11
40.6964	487.60
40.7108	523.72
40.7252	523.70
40.7397	536.40
40.7541	503.91
40.7686	511.27
40.7830	507.46
40.7974	492.03
40.8119	501.47
40.8263	520.19
40.8408	509.64
40.8552	519.78
40.8696	528.90
40.8841	467.78
40.8985	501.33
40.9130	486.72
40.9274	460.96
40.9418	521.47
40.9563	510.87
40.9707	470.77
40.9852	505.62
40.9996	485.71
41.0140	512.57
41.0285	498.46
41.0429	524.98
41.0574	521.47
41.0718	493.89
41.0862	491.87
41.1007	501.23
41.1151	489.72
41.1296	490.48
41.1440	451.41
41.1584	466.68
41.1729	524.04
41.1873	501.22
41.2018	486.47
41.2162	518.28
41.2306	484.97
41.2451	483.22
41.2595	478.06
41.2740	508.09
41.2884	490.82
41.3028	487.15
41.3173	493.16
41.3317	500.57
41.3462	478.37
41.3606	459.17
41.3750	507.58
41.3895	467.55
41.4039	504.21
41.4184	481.17
41.4328	508.34
41.4472	476.68
41.4617	512.97
41.4761	479.92
41.4906	513.80
41.5050	487.15
41.5194	506.26
41.5339	522.66
41.5483	500.04
41.5628	499.62
41.5772	502.03
41.5916	485.12
41.6061	504.09
41.6205	503.86
41.6350	521.43
41.6494	512.83
41.6639	509.14
41.6783	500.42
41.6927	472.78
41.7072	486.98
41.7216	503.99
41.7361	489.18
41.7505	522.22
41.7649	491.78
41.7794	512.64
41.7938	499.28
41.8083	510.62
41.8227	492.66
41.8371	519.89
41.8516	507.68
41.8660	537.95
41.8805	515.08
41.8949	532.57
41.9093	567.13
41.9238	525.44
41.9382	562.89
41.9527	567.13
41.9671	554.54
41.9815	567.46
41.9960	574.74
42.0104	565.47
42.0249	594.63
42.0393	555.77
42.0537	569.96
42.0682	595.98
42.0826	612.06
42.0971	602.67
42.1115	536.95
42.1259	587.45
42.1404	593.42
42.1548	591.80
42.1693	641.16
42.1837	664.95
42.1981	720.08
42.2126	841.62
42.2270	914.02
42.2415	1072.85
42.2559	1189.25
42.2703	1292.90
42.2848	1477.09
42.2992	1556.18
42.3137	1594.62
42.3281	1562.72
42.3425	1500.32
42.3570	1397.58
42.3714	1378.26
42.3859	1361.44
42.4003	1324.11
42.4147	1298.42
42.4292	1246.15
42.4436	1157.59
42.4581	1029.28
42.4725	948.78
42.4869	810.65
42.5014	712.38
42.5158	692.66
42.5303	630.42
42.5447	640.12
42.5591	643.35
42.5736	590.06
42.5880	593.57
42.6025	575.24
42.6169	581.97
42.6313	547.38
42.6458	537.27
42.6602	550.12
42.6747	527.17
42.6891	523.29
42.7035	540.80
42.7180	527.37
42.7324	513.78
42.7469	495.98
42.7613	507.12
42.7757	518.76
42.7902	535.51
42.8046	516.07
42.8191	523.02
42.8335	531.14
42.8479	486.41
42.8624	520.00
42.8768	525.40
42.8913	552.07
42.9057	515.96
42.9201	507.71
42.9346	538.12
42.9490	525.65
42.9635	526.56
42.9779	533.69
42.9923	518.43
43.0068	519.65
43.0212	540.51
43.0357	502.95
43.0501	499.24
43.0645	511.57
43.0790	536.29
43.0934	526.13
43.1079	494.87
43.1223	545.30
43.1367	560.52
43.1512	514.89
43.1656	547.31
43.1801	527.52
43.1945	490.81
43.2089	503.37
43.2234	495.10
43.2378	506.69
43.2523	531.81
43.2667	560.06
43.2811	570.28
43.2956	528.29
43.3100	557.35
43.3245	544.24
43.3389	531.76
43.3533	540.46
43.3678	560.97
43.3822	533.01
43.3967	539.92
43.4111	503.88
43.4255	531.19
43.4400	537.34
43.4544	484.13
43.4689	529.87
43.4833	508.50
43.4977	532.52
43.5122	570.58
43.5266	549.09
43.5411	522.45
43.5555	526.64
43.5699	528.70
43.5844	528.76
43.5988	512.95
43.6133	567.12
43.6277	513.31
43.6421	532.02
43.6566	513.94
43.6710	514.24
43.6855	511.96
43.6999	526.85
43.7143	546.61
43.7288	522.42
43.7432	513.17
43.7577	513.11
43.7721	536.33
43.7865	539.84
43.8010	531.87
43.8154	520.70
43.8299	526.59
43.8443	501.85
43.8587	521.43
43.8732	567.52
43.8876	546.37
43.9021	552.02
43.9165	541.11
43.9309	540.76
43.9454	545.13
43.9598	568.60
43.9743	585.47
43.9887	574.23
44.0031	589.49
44.0176	616.80
44.0320	643.00
44.0465	638.30
44.0609	628.03
44.0753	617.57
44.0898	626.82
44.1042	565.73
44.1187	621.76
44.1331	614.07
44.1475	596.21
44.1620	577.63
44.1764	576.13
44.1909	600.18
44.2053	565.80
44.2197	547.70
44.2342	550.55
44.2486	566.49
44.2631	526.41
44.2775	511.82
44.2919	510.93
44.3064	545.76
44.3208	543.94
44.3353	547.21
44.3497	559.84
44.3641	502.10
44.3786	559.21
44.3930	539.58
44.4075	585.83
44.4219	574.31
44.4363	574.44
44.4508	564.72
44.4652	581.51
44.4797	616.77
44.4941	568.09
44.5085	539.12
44.5230	552.71
44.5374	590.00
44.5519	558.81
44.5663	567.72
44.5807	573.71
44.5952	611.85
44.6096	555.79
44.6241	573.68
44.6385	567.88
44.6529	564.90
44.6674	576.83
44.6818	587.78
44.6963	665.84
44.7107	663.91
44.7251	697.54
44.7396	729.25
44.7540	834.42
44.7685	879.76
44.7829	896.57
44.7973	885.63
44.8118	829.42
44.8262	796.59
44.8407	738.70
44.8551	723.59
44.8695	719.46
44.8840	798.80
44.8984	711.06
44.9129	686.86
44.9273	649.02
44.9417	676.86
44.9562	615.02
44.9706	560.94
44.9851	569.28
44.9995	503.31
45.0139	539.93
45.0284	527.72
45.0428	539.34
45.0573	516.11
45.0717	536.69
45.0861	549.08
45.1006	522.07
45.1150	504.16
45.1295	518.29
45.1439	515.78
45.1583	513.50
45.1728	507.62
45.1872	544.40
45.2017	525.44
45.2161	523.90
45.2305	514.42
45.2450	514.32
45.2594	505.98
45.2739	520.71
45.2883	512.94
45.3028	501.46
45.3172	510.32
45.3316	521.93
45.3461	502.27
45.3605	489.45
45.3750	508.69
45.3894	492.09
45.4038	521.14
45.4183	513.62
45.4327	496.97
45.4472	485.16
45.4616	528.74
45.4760	526.85
45.4905	509.89
45.5049	496.94
45.5194	538.75
45.5338	512.07
45.5482	525.13
45.5627	510.68
45.5771	520.92
45.5916	530.04
45.6060	499.34
45.6204	535.90
45.6349	537.57
45.6493	511.75
45.6638	524.36
45.6782	515.25
45.6926	515.24
45.7071	520.73
45.7215	490.77
45.7360	472.50
45.7504	490.72
45.7648	519.67
45.7793	515.60
45.7937	529.05
45.8082	529.09
45.8226	535.57
45.8370	498.67
45.8515	486.39
45.8659	494.44
45.8804	504.00
45.8948	504.22
45.9092	496.12
45.9237	503.64
45.9381	488.64
45.9526	503.31
45.9670	500.18
45.9814	504.33
45.9959	508.51
46.0103	527.59
46.0248	537.77
46.0392	528.58
46.0536	457.37
46.0681	466.47
46.0825	495.97
46.0970	534.85
46.1114	493.12
46.1258	503.15
46.1403	495.91
46.1547	497.86
46.1692	493.82
46.1836	511.12
46.1980	523.86
46.2125	498.77
46.2269	496.84
46.2414	514.69
46.2558	507.03
46.2702	489.36
46.2847	526.25
46.2991	500.57
46.3136	509.37
46.3280	487.57
46.3424	509.92
46.3569	477.95
46.3713	489.87
46.3858	533.81
46.4002	517.93
46.4146	522.17
46.4291	534.95
46.4435	454.17
46.4580	479.88
46.4724	529.06
46.4868	514.57
46.5013	507.05
46.5157	507.31
46.5302	517.23
46.5446	496.09
46.5590	508.51
46.5735	474.98
46.5879	486.62
46.6024	504.22
46.6168	502.15
46.6312	487.80
46.6457	481.22
46.6601	489.46
46.6746	467.90
46.6890	503.83
46.7034	525.13
46.7179	520.23
46.7323	487.81
46.7468	508.79
46.7612	539.97
46.7756	500.61
46.7901	533.85
46.8045	507.14
46.8190	503.74
46.8334	524.92
46.8478	517.60
46.8623	507.86
46.8767	514.22
46.8912	518.05
46.9056	479.72
46.9200	489.22
46.9345	500.82
46.9489	515.59
46.9634	499.16
46.9778	515.35
46.9922	503.05
47.0067	509.93
47.0211	490.28
47.0356	523.99
47.0500	514.50
47.0644	534.02
47.0789	516.93
47.0933	520.98
47.1078	516.32
47.1222	519.69
47.1366	499.57
47.1511	472.58
47.1655	509.85
47.1800	519.29
47.1944	458.13
47.2088	494.16
47.2233	496.62
47.2377	530.92
47.2522	548.88
47.2666	518.76
47.2810	472.49
47.2955	479.14
47.3099	531.73
47.3244	528.36
47.3388	500.89
47.3532	511.65
47.3677	496.22
47.3821	499.11
47.3966	538.41
47.4110	511.75
47.4254	505.80
47.4399	501.35
47.4543	504.66
47.4688	543.15
47.4832	519.02
47.4976	550.00
47.5121	536.80
47.5265	514.98
47.5410	506.11
47.5554	506.79
47.5698	517.46
47.5843	515.79
47.5987	500.38
47.6132	525.43
47.6276	526.51
47.6420	492.81
47.6565	468.97
47.6709	483.98
47.6854	497.32
47.6998	490.74
47.7142	501.83
47.7287	516.74
47.7431	502.92
47.7576	514.35
47.7720	497.93
47.7864	501.15
47.8009	491.04
47.8153	524.83
47.8298	524.17
47.8442	488.64
47.8586	514.96
47.8731	492.82
47.8875	485.32
47.9020	538.41
47.9164	499.14
47.9308	508.83
47.9453	549.45
47.9597	506.85
47.9742	511.82
47.9886	487.96
48.0030	483.91
48.0175	525.18
48.0319	535.64
48.0464	485.78
48.0608	481.89
48.0752	464.56
48.0897	540.32
48.1041	511.13
48.1186	515.08
48.1330	528.88
48.1474	460.71
48.1619	492.87
48.1763	539.04
48.1908	516.87
48.2052	511.23
48.2196	549.47
48.2341	498.14
48.2485	535.72
48.2630	507.34
48.2774	505.19
48.2918	539.27
48.3063	508.65
48.3207	473.62
48.3352	523.43
48.3496	511.36
48.3640	522.54
48.3785	507.45
48.3929	481.97
48.4074	513.40
48.4218	535.76
48.4362	520.56
48.4507	481.19
48.4651	507.23
48.4796	553.16
48.4940	518.96
48.5084	499.92
48.5229	493.99
48.5373	533.63
48.5518	519.09
48.5662	507.62
48.5806	497.72
48.5951	478.32
48.6095	507.73
48.6240	517.55
48.6384	497.20
48.6528	534.60
48.6673	483.60
48.6817	505.94
48.6962	504.48
48.7106	548.87
48.7250	505.16
48.7395	489.46
48.7539	531.53
48.7684	532.31
48.7828	528.47
48.7972	529.22
48.8117	527.57
48.8261	538.66
48.8406	536.78
48.8550	547.54
48.8694	533.17
48.8839	532.61
48.8983	581.13
48.9128	586.36
48.9272	566.71
48.9416	562.19
48.9561	539.40
48.9705	596.60
48.9850	559.31
48.9994	581.99
49.0139	593.46
49.0283	617.54
49.0427	599.61
49.0572	632.48
49.0716	675.16
49.0861	671.22
49.1005	688.56
49.1149	693.23
49.1294	709.34
49.1438	711.66
49.1583	746.47
49.1727	867.16
49.1871	853.85
49.2016	937.66
49.2160	1042.15
49.2305	1045.71
49.2449	1210.03
49.2593	1262.95
49.2738	1326.55
49.2882	1393.68
49.3027	1491.29
49.3171	1599.64
49.3315	1664.11
49.3460	1724.05
49.3604	1773.75
49.3749	1753.02
49.3893	1731.44
49.4037	1688.78
49.4182	1800.62
49.4326	1717.50
49.4471	1576.56
49.4615	1545.68
49.4759	1497.77
49.4904	1455.00
49.5048	1468.40
49.5193	1324.45
49.5337	1282.14
49.5481	1234.47
49.5626	1187.21
49.5770	1073.41
49.5915	983.04
49.6059	945.67
49.6203	849.71
49.6348	815.63
49.6492	789.26
49.6637	733.01
49.6781	675.10
49.6925	681.98
49.7070	669.88
49.7214	636.81
49.7359	613.62
49.7503	628.57
49.7647	592.37
49.7792	595.74
49.7936	617.05
49.8081	575.50
49.8225	583.29
49.8369	572.62
49.8514	575.01
49.8658	527.63
49.8803	565.45
49.8947	523.34
49.9091	514.22
49.9236	541.71
49.9380	578.08
49.9525	543.96
49.9669	531.17
49.9813	517.19
49.9958	513.89
50.0102	514.90
50.0247	545.56
50.0391	551.21
50.0535	567.79
50.0680	537.14
50.0824	536.09
50.0969	534.88
50.1113	525.17
50.1257	539.85
50.1402	497.78
50.1546	504.40
50.1691	543.08
50.1835	539.52
50.1979	507.92
50.2124	504.14
50.2268	481.80
50.2413	542.55
50.2557	519.96
50.2701	524.84
50.2846	481.91
50.2990	520.50
50.3135	542.95
50.3279	521.84
50.3423	527.10
50.3568	524.79
50.3712	513.96
50.3857	486.90
50.4001	503.40
50.4145	506.22
50.4290	533.91
50.4434	526.14
50.4579	504.51
50.4723	524.16
50.4867	517.77
50.5012	524.18
50.5156	535.20
50.5301	519.36
50.5445	524.19
50.5589	521.39
50.5734	493.11
50.5878	508.22
50.6023	534.38
50.6167	511.30
50.6311	515.79
50.6456	528.22
50.6600	491.06
50.6745	488.73
50.6889	479.58
50.7033	497.54
50.7178	485.26
50.7322	516.02
50.7467	495.27
50.7611	499.70
50.7755	521.84
50.7900	545.18
50.8044	515.88
50.8189	515.47
50.8333	532.00
50.8477	514.04
50.8622	539.27
50.8766	521.72
50.8911	523.62
50.9055	547.52
50.9199	502.74
50.9344	475.57
50.9488	479.13
50.9633	483.48
50.9777	505.97
50.9921	515.92
51.0066	491.25
51.0210	521.26
51.0355	485.99
51.0499	491.65
51.0643	490.24
51.0788	473.59
51.0932	510.13
51.1077	506.37
51.1221	531.75
51.1365	525.28
51.1510	481.05
51.1654	504.49
51.1799	520.52
51.1943	492.00
51.2087	480.45
51.2232	532.89
51.2376	505.89
51.2521	505.59
51.2665	524.49
51.2809	505.42
51.2954	494.11
51.3098	491.99
51.3243	512.13
51.3387	536.39
51.3531	546.03
51.3676	510.27
51.3820	513.22
51.3965	500.95
51.4109	515.53
51.4253	519.66
51.4398	509.74
51.4542	534.34
51.4687	504.57
51.4831	519.38
51.4975	503.44
51.5120	516.06
51.5264	515.69
51.5409	507.52
51.5553	532.28
51.5697	480.54
51.5842	500.37
51.5986	515.64
51.6131	529.40
51.6275	512.83
51.6419	514.88
51.6564	491.06
51.6708	485.05
51.6853	511.90
51.6997	518.62
51.7141	475.85
51.7286	477.49
51.7430	492.41
51.7575	494.85
51.7719	510.42
51.7863	510.51
51.8008	469.53
51.8152	511.37
51.8297	511.79
51.8441	490.99
51.8585	527.64
51.8730	509.13
51.8874	477.36
51.9019	530.62
51.9163	524.88
51.9307	524.42
51.9452	502.06
51.9596	480.61
51.9741	518.01
51.9885	516.52
52.0029	511.05
52.0174	533.57
52.0318	542.64
52.0463	557.79
52.0607	538.67
52.0751	514.53
52.0896	542.62
52.1040	525.11
52.1185	525.14
52.1329	514.80
52.1473	500.26
52.1618	530.24
52.1762	533.12
52.1907	536.82
52.2051	524.16
52.2195	495.40
52.2340	472.93
52.2484	514.14
52.2629	479.29
52.2773	487.25
52.2917	526.37
52.3062	516.65
52.3206	539.44
52.3351	536.95
52.3495	518.51
52.3639	496.09
52.3784	491.50
52.3928	483.20
52.4073	505.71
52.4217	481.98
52.4361	478.21
52.4506	486.02
52.4650	501.61
52.4795	505.95
52.4939	510.12
52.5083	513.89
52.5228	504.93
52.5372	521.99
52.5517	496.23
52.5661	511.52
52.5805	498.64
52.5950	531.02
52.6094	512.55
52.6239	524.02
52.6383	558.71
52.6527	527.89
52.6672	497.40
52.6816	482.73
52.6961	499.14
52.7105	514.61
52.7250	512.96
52.7394	477.27
52.7538	501.72
52.7683	512.41
52.7827	536.59
52.7972	535.14
52.8116	517.32
52.8260	504.58
52.8405	511.08
52.8549	486.98
52.8694	511.66
52.8838	513.12
52.8982	506.60
52.9127	550.82
52.9271	502.37
52.9416	499.93
52.9560	476.00
52.9704	487.60
52.9849	522.75
52.9993	540.99
53.0138	500.40
53.0282	525.31
53.0426	535.51
53.0571	555.69
53.0715	516.03
53.0860	537.99
53.1004	499.91
53.1148	541.89
53.1293	525.05
53.1437	470.33
53.1582	518.70
53.1726	505.98
53.1870	532.47
53.2015	489.05
53.2159	516.82
53.2304	527.11
53.2448	496.52
53.2592	503.89
53.2737	524.01
53.2881	505.34
53.3026	510.70
53.3170	542.97
53.3314	542.81
53.3459	523.95
53.3603	490.52
53.3748	509.34
53.3892	478.10
53.4036	505.98
53.4181	500.03
53.4325	529.38
53.4470	494.94
53.4614	496.38
53.4758	513.79
53.4903	510.53
53.5047	504.14
53.5192	516.12
53.5336	497.16
53.5480	491.00
53.5625	538.38
53.5769	533.75
53.5914	520.36
53.6058	567.78
53.6202	545.97
53.6347	528.17
53.6491	540.28
53.6636	498.94
53.6780	498.83
53.6924	502.16
53.7069	535.25
53.7213	554.89
53.7358	489.14
53.7502	538.51
53.7646	529.54
53.7791	525.25
53.7935	539.50
53.8080	527.81
53.8224	516.96
53.8368	546.77
53.8513	494.22
53.8657	508.86
53.8802	522.55
53.8946	518.20
53.9090	531.01
53.9235	513.91
53.9379	542.26
53.9524	508.85
53.9668	541.52
53.9812	512.69
53.9957	544.32
54.0101	530.74
54.0246	554.30
54.0390	516.15
54.0534	518.37
54.0679	518.06
54.0823	565.84
54.0968	520.91
54.1112	503.44
54.1256	565.81
54.1401	536.06
54.1545	519.58
54.1690	549.91
54.1834	525.71
54.1978	502.81
54.2123	496.41
54.2267	528.64
54.2412	527.26
54.2556	537.49
54.2700	536.42
54.2845	528.66
54.2989	510.91
54.3134	526.26
54.3278	523.24
54.3422	508.26
54.3567	523.34
54.3711	517.17
54.3856	542.28
54.4000	542.76
54.4144	556.87
54.4289	583.09
54.4433	566.33
54.4578	581.60
54.4722	556.22
54.4866	539.90
54.5011	544.51
54.5155	567.60
54.5300	561.88
54.5444	554.32
54.5588	567.60
54.5733	566.59
54.5877	562.14
54.6022	601.50
54.6166	600.11
54.6310	589.02
54.6455	596.78
54.6599	614.86
54.6744	614.70
54.6888	577.57
54.7032	597.94
54.7177	613.18
54.7321	572.02
54.7466	564.75
54.7610	572.03
54.7754	575.65
54.7899	572.27
54.8043	563.27
54.8188	554.48
54.8332	556.81
54.8476	577.54
54.8621	558.90
54.8765	549.53
54.8910	518.67
54.9054	559.44
54.9198	526.60
54.9343	526.16
54.9487	547.38
54.9632	537.62
54.9776	563.46
54.9920	532.51
55.0065	540.25
55.0209	541.24
55.0354	507.79
55.0498	514.53
55.0642	526.92
55.0787	521.02
55.0931	530.24
55.1076	508.76
55.1220	487.07
55.1364	527.21
55.1509	520.87
55.1653	539.21
55.1798	547.64
55.1942	504.09
55.2086	513.67
55.2231	526.49
55.2375	502.93
55.2520	523.08
55.2664	526.62
55.2808	534.09
55.2953	508.94
55.3097	512.76
55.3242	540.04
55.3386	555.95
55.3530	532.17
55.3675	520.15
55.3819	505.99
55.3964	498.56
55.4108	477.65
55.4252	532.63
55.4397	553.72
55.4541	509.39
55.4686	522.84
55.4830	534.85
55.4974	515.94
55.5119	520.77
55.5263	538.18
55.5408	519.39
55.5552	547.26
55.5696	509.12
55.5841	544.42
55.5985	556.45
55.6130	565.79
55.6274	528.45
55.6418	509.38
55.6563	530.40
55.6707	512.09
55.6852	537.66
55.6996	514.30
55.7140	538.81
55.7285	512.79
55.7429	529.09
55.7574	520.03
55.7718	553.95
55.7862	543.84
55.8007	542.64
55.8151	575.72
55.8296	511.91
55.8440	536.18
55.8584	549.86
55.8729	523.06
55.8873	453.15
55.9018	471.73
55.9162	528.17
55.9306	553.49
55.9451	555.00
55.9595	553.94
55.9740	541.20
55.9884	498.13
56.0028	520.65
56.0173	522.53
56.0317	525.18
56.0462	530.17
56.0606	518.43
56.0750	476.41
56.0895	517.90
56.1039	540.08
56.1184	509.46
56.1328	509.90
56.1472	504.24
56.1617	497.99
56.1761	559.21
56.1906	513.81
56.2050	501.40
56.2194	505.74
56.2339	526.36
56.2483	511.79
56.2628	561.30
56.2772	548.14
56.2916	510.34
56.3061	536.73
56.3205	471.19
56.3350	500.05
56.3494	527.87
56.3639	539.42
56.3783	495.22
56.3927	523.10
56.4072	562.47
56.4216	549.16
56.4361	563.78
56.4505	503.65
56.4649	541.95
56.4794	523.93
56.4938	540.13
56.5083	487.37
56.5227	456.53
56.5371	523.98
56.5516	557.23
56.5660	512.36
56.5805	518.97
56.5949	543.43
56.6093	543.37
56.6238	517.44
56.6382	505.74
56.6527	528.15
56.6671	495.06
56.6815	503.64
56.6960	495.41
56.7104	552.28
56.7249	536.25
56.7393	512.26
56.7537	506.71
56.7682	507.01
56.7826	516.01
56.7971	556.30
56.8115	538.98
56.8259	555.03
56.8404	554.71
56.8548	529.63
56.8693	520.86
56.8837	541.34
56.8981	524.08
56.9126	514.06
56.9270	544.13
56.9415	541.99
56.9559	499.71
56.9703	520.57
56.9848	527.66
56.9992	493.93
57.0137	543.92
57.0281	526.95
57.0425	511.87
57.0570	490.76
57.0714	556.33
57.0859	525.15
57.1003	537.08
57.1147	522.92
57.1292	506.17
57.1436	532.54
57.1581	508.48
57.1725	528.64
57.1869	539.27
57.2014	519.08
57.2158	524.68
57.2303	485.62
57.2447	545.52
57.2591	548.28
57.2736	549.93
57.2880	556.75
57.3025	509.83
57.3169	552.23
57.3313	528.84
57.3458	522.16
57.3602	495.62
57.3747	552.71
57.3891	525.77
57.4035	506.13
57.4180	526.42
57.4324	546.59
57.4469	515.93
57.4613	551.72
57.4757	542.47
57.4902	506.79
57.5046	506.41
57.5191	538.32
57.5335	542.48
57.5479	525.20
57.5624	540.65
57.5768	531.28
57.5913	539.06
57.6057	523.96
57.6201	518.69
57.6346	536.77
57.6490	557.55
57.6635	541.29
57.6779	537.76
57.6923	552.22
57.7068	547.57
57.7212	535.15
57.7357	520.35
57.7501	515.83
57.7645	536.53
57.7790	536.99
57.7934	522.76
57.8079	579.63
57.8223	567.65
57.8367	535.67
57.8512	519.25
57.8656	506.34
57.8801	542.75
57.8945	537.68
57.9089	526.85
57.9234	516.17
57.9378	532.61
57.9523	557.85
57.9667	582.76
57.9811	553.96
57.9956	542.28
58.0100	524.12
58.0245	548.91
58.0389	536.07
58.0533	551.11
58.0678	563.46
58.0822	531.67
58.0967	569.64
58.1111	564.81
58.1255	578.02
58.1400	569.25
58.1544	555.87
58.1689	573.09
58.1833	621.09
58.1977	616.38
58.2122	624.07
58.2266	647.44
58.2411	668.12
58.2555	696.37
58.2699	685.50
58.2844	745.67
58.2988	680.72
58.3133	671.38
58.3277	639.19
58.3421	624.84
58.3566	625.02
58.3710	658.41
58.3855	665.28
58.3999	619.54
58.4143	673.95
58.4288	713.07
58.4432	670.29
58.4577	629.62
58.4721	641.71
58.4865	634.46
58.5010	602.23
58.5154	621.30
58.5299	610.41
58.5443	587.11
58.5587	584.58
58.5732	559.99
58.5876	586.33
58.6021	573.88
58.6165	567.00
58.6309	534.14
58.6454	527.13
58.6598	528.70
58.6743	546.04
58.6887	514.94
58.7031	549.98
58.7176	556.05
58.7320	541.47
58.7465	551.23
58.7609	520.17
58.7753	520.74
58.7898	542.04
58.8042	499.58
58.8187	515.40
58.8331	528.84
58.8475	522.86
58.8620	555.42
58.8764	536.83
58.8909	553.07
58.9053	558.04
58.9197	527.15
58.9342	534.72
58.9486	540.92
58.9631	501.34
58.9775	522.94
58.9919	521.90
59.0064	534.19
59.0208	526.55
59.0353	532.02
59.0497	510.02
59.0641	547.10
59.0786	535.06
59.0930	560.85
59.1075	559.00
59.1219	560.29
59.1363	548.92
59.1508	511.25
59.1652	544.93
59.1797	537.05
59.1941	543.99
59.2085	559.89
59.2230	560.30
59.2374	556.62
59.2519	545.46
59.2663	552.67
59.2807	580.39
59.2952	581.37
59.3096	551.34
59.3241	590.70
59.3385	590.26
59.3529	586.79
59.3674	589.28
59.3818	576.47
59.3963	535.53
59.4107	542.32
59.4251	581.92
59.4396	569.17
59.4540	544.25
59.4685	553.73
59.4829	561.28
59.4973	545.10
59.5118	529.11
59.5262	541.16
59.5407	582.20
59.5551	564.91
59.5695	554.65
59.5840	548.43
59.5984	539.93
59.6129	526.68
59.6273	497.03
59.6417	544.65
59.6562	554.20
59.6706	512.84
59.6851	538.60
59.6995	532.07
59.7139	552.14
59.7284	544.22
59.7428	530.97
59.7573	510.26
59.7717	525.26
59.7861	517.91
59.8006	527.50
59.8150	528.92
59.8295	567.07
59.8439	548.33
59.8583	565.53
59.8728	558.61
59.8872	564.68
59.9017	588.17
59.9161	552.28
59.9305	557.84
59.9450	536.69
59.9594	490.53
59.9739	535.37
59.9883	566.64
60.0027	562.00
60.0172	554.89
60.0316	529.78
60.0461	533.20
60.0605	545.75
60.0750	532.20
60.0894	518.04
60.1038	534.27
60.1183	557.68
60.1327	542.04
60.1472	541.33
60.1616	524.14
60.1760	526.45
60.1905	537.11
60.2049	536.88
60.2194	525.88
60.2338	546.30
60.2482	550.65
60.2627	523.16
60.2771	544.42
60.2916	559.63
60.3060	542.34
60.3204	546.85
60.3349	540.57
60.3493	548.13
60.3638	512.89
60.3782	522.42
60.3926	541.69
60.4071	511.50
60.4215	556.83
60.4360	534.58
60.4504	476.59
60.4648	536.06
60.4793	561.21
60.4937	550.87
60.5082	522.25
60.5226	537.87
60.5370	578.85
60.5515	546.91
60.5659	538.85
60.5804	565.62
60.5948	517.63
60.6092	519.95
60.6237	511.82
60.6381	545.70
60.6526	531.31
60.6670	553.12
60.6814	547.08
60.6959	563.28
60.7103	575.17
60.7248	545.89
60.7392	521.44
60.7536	569.76
60.7681	518.11
60.7825	531.17
60.7970	508.13
60.8114	545.74
60.8258	560.30
60.8403	555.66
60.8547	531.57
60.8692	593.66
60.8836	558.06
60.8980	561.17
60.9125	547.96
60.9269	569.39
60.9414	546.12
60.9558	524.95
60.9702	530.03
60.9847	559.48
60.9991	556.90
61.0136	521.28
61.0280	537.95
61.0424	546.79
61.0569	562.17
61.0713	541.69
61.0858	552.00
61.1002	509.54
61.1146	536.31
61.1291	529.01
61.1435	519.52
61.1580	530.90
61.1724	586.76
61.1868	566.07
61.2013	528.66
61.2157	530.67
61.2302	536.65
61.2446	535.31
61.2590	525.11
61.2735	592.53
61.2879	558.44
61.3024	530.49
61.3168	572.66
61.3312	575.54
61.3457	533.47
61.3601	539.58
61.3746	570.42
61.3890	549.01
61.4034	568.10
61.4179	573.94
61.4323	585.97
61.4468	539.89
61.4612	548.27
61.4756	574.91
61.4901	561.89
61.5045	519.44
61.5190	534.03
61.5334	557.24
61.5478	539.99
61.5623	523.09
61.5767	529.95
61.5912	552.79
61.6056	538.61
61.6200	539.41
61.6345	546.39
61.6489	523.99
61.6634	535.33
61.6778	535.61
61.6922	564.08
61.7067	583.66
61.7211	564.83
61.7356	512.93
61.7500	526.29
61.7644	539.15
61.7789	550.51
61.7933	527.02
61.8078	568.84
61.8222	556.23
61.8366	525.61
61.8511	532.82
61.8655	598.27
61.8800	560.52
61.8944	534.67
61.9088	557.76
61.9233	564.26
61.9377	563.05
61.9522	506.67
61.9666	528.85
61.9810	523.67
61.9955	561.67
62.0099	552.95
62.0244	574.55
62.0388	555.88
62.0532	525.43
62.0677	535.99
62.0821	547.96
62.0966	553.44
62.1110	552.96
62.1254	575.80
62.1399	548.05
62.1543	503.78
62.1688	545.15
62.1832	541.08
62.1976	567.78
62.2121	509.57
62.2265	566.77
62.2410	558.96
62.2554	575.44
62.2698	558.55
62.2843	556.68
62.2987	556.22
62.3132	553.12
62.3276	549.99
62.3420	533.66
62.3565	535.24
62.3709	538.28
62.3854	570.72
62.3998	564.94
62.4142	566.75
62.4287	579.06
62.4431	528.46
62.4576	522.85
62.4720	534.96
62.4864	544.91
62.5009	558.73
62.5153	581.32
62.5298	581.18
62.5442	557.94
62.5586	571.12
62.5731	551.18
62.5875	558.47
62.6020	572.19
62.6164	544.47
62.6308	552.05
62.6453	545.42
62.6597	566.63
62.6742	570.78
62.6886	556.65
62.7030	568.44
62.7175	571.11
62.7319	568.79
62.7464	575.29
62.7608	543.23
62.7752	537.96
62.7897	549.00
62.8041	567.20
62.8186	542.84
62.8330	533.15
62.8474	539.99
62.8619	539.22
62.8763	552.70
62.8908	545.09
62.9052	593.04
62.9196	568.12
62.9341	532.37
62.9485	549.39
62.9630	564.97
62.9774	544.35
62.9918	559.02
63.0063	575.07
63.0207	576.96
63.0352	562.20
63.0496	533.53
63.0640	543.57
63.0785	551.61
63.0929	579.54
63.1074	550.21
63.1218	573.76
63.1362	576.63
63.1507	546.11
63.1651	589.29
63.1796	565.08
63.1940	570.79
63.2084	563.54
63.2229	596.48
63.2373	576.17
63.2518	595.90
63.2662	547.02
63.2806	600.59
63.2951	574.48
63.3095	573.16
63.3240	572.37
63.3384	572.70
63.3528	580.44
63.3673	560.25
63.3817	576.71
63.3962	588.33
63.4106	583.08
63.4250	609.67
63.4395	593.91
63.4539	568.92
63.4684	603.73
63.4828	612.68
63.4972	596.46
63.5117	600.42
63.5261	606.41
63.5406	592.75
63.5550	597.89
63.5694	610.32
63.5839	590.90
63.5983	586.11
63.6128	619.68
63.6272	594.69
63.6416	593.62
63.6561	594.99
63.6705	599.73
63.6850	614.11
63.6994	639.37
63.7138	608.95
63.7283	599.13
63.7427	586.55
63.7572	663.02
63.7716	597.76
63.7861	601.40
63.8005	670.20
63.8149	687.76
63.8294	652.68
63.8438	664.68
63.8583	634.42
63.8727	622.34
63.8871	686.77
63.9016	709.43
63.9160	710.97
63.9305	697.07
63.9449	710.87
63.9593	771.55
63.9738	811.31
63.9882	832.57
64.0027	839.05
64.0171	834.22
64.0315	889.20
64.0460	870.38
64.0604	809.37
64.0749	800.50
64.0893	819.43
64.1037	793.07
64.1182	785.01
64.1326	790.69
64.1471	763.18
64.1615	757.80
64.1759	780.84
64.1904	738.53
64.2048	727.19
64.2193	757.46
64.2337	754.11
64.2481	733.00
64.2626	744.83
64.2770	720.14
64.2915	695.67
64.3059	676.97
64.3203	679.03
64.3348	688.24
64.3492	681.32
64.3637	697.43
64.3781	672.93
64.3925	628.28
64.4070	670.10
64.4214	674.19
64.4359	663.76
64.4503	632.09
64.4647	685.29
64.4792	650.59
64.4936	628.70
64.5081	648.63
64.5225	643.91
64.5369	593.81
64.5514	645.86
64.5658	644.67
64.5803	669.11
64.5947	630.10
64.6091	619.72
64.6236	671.04
64.6380	637.48
64.6525	668.33
64.6669	658.71
64.6813	692.09
64.6958	662.34
64.7102	699.64
64.7247	688.20
64.7391	674.41
64.7535	729.98
64.7680	696.26
64.7824	734.93
64.7969	779.88
64.8113	780.68
64.8257	818.63
64.8402	801.04
64.8546	811.65
64.8691	901.72
64.8835	869.02
64.8979	864.42
64.9124	895.08
64.9268	947.64
64.9413	902.05
64.9557	978.49
64.9701	993.61
64.9846	1085.48
64.9990	1192.13
65.0135	1315.24
65.0279	1528.26
65.0423	1720.40
65.0568	2152.68
65.0712	2607.48
65.0857	3601.17
65.1001	4751.50
65.1145	6455.59
65.1290	8499.05
65.1434	10022.55
65.1579	11487.70
65.1723	12137.29
65.1867	11532.73
65.2012	9899.45
65.2156	8025.50
65.2301	6461.96
65.2445	5205.19
65.2589	4381.88
65.2734	4209.72
65.2878	4427.55
65.3023	5092.66
65.3167	5855.96
65.3311	6767.16
65.3456	7184.24
65.3600	6969.14
65.3745	6503.51
65.3889	5333.31
65.4033	4208.45
65.4178	3342.31
65.4322	2658.84
65.4467	2078.88
65.4611	1652.10
65.4755	1442.86
65.4900	1314.10
65.5044	1196.99
65.5189	1074.88
65.5333	970.63
65.5477	926.72
65.5622	877.25
65.5766	863.52
65.5911	861.31
65.6055	813.80
65.6199	759.06
65.6344	798.36
65.6488	782.08
65.6633	766.40
65.6777	732.48
65.6921	740.71
65.7066	712.49
65.7210	729.17
65.7355	675.45
65.7499	667.29
65.7643	682.56
65.7788	673.89
65.7932	675.71
65.8077	681.65
65.8221	690.20
65.8365	697.14
65.8510	667.15
65.8654	685.17
65.8799	699.87
65.8943	642.70
65.9087	671.84
65.9232	606.60
65.9376	629.72
65.9521	593.54
65.9665	592.84
65.9809	583.20
65.9954	634.16
66.0098	617.30
66.0243	602.51
66.0387	646.37
66.0531	617.81
66.0676	632.38
66.0820	630.78
66.0965	623.97
66.1109	620.05
66.1253	620.99
66.1398	613.94
66.1542	593.76
66.1687	616.34
66.1831	617.18
66.1975	605.34
66.2120	593.36
66.2264	591.28
66.2409	632.15
66.2553	614.85
66.2697	598.68
66.2842	633.61
66.2986	601.66
66.3131	591.76
66.3275	604.08
66.3419	595.19
66.3564	598.39
66.3708	593.45
66.3853	593.44
66.3997	590.14
66.4141	580.16
66.4286	601.04
66.4430	598.52
66.4575	610.59
66.4719	598.92
66.4863	581.51
66.5008	602.52
66.5152	587.76
66.5297	611.07
66.5441	584.57
66.5585	609.05
66.5730	577.20
66.5874	627.06
66.6019	613.40
66.6163	594.18
66.6307	603.35
66.6452	626.56
66.6596	591.56
66.6741	564.18
66.6885	580.74
66.7029	583.74
66.7174	598.68
66.7318	581.82
66.7463	554.74
66.7607	559.50
66.7751	626.65
66.7896	615.51
66.8040	616.48
66.8185	605.24
66.8329	607.23
66.8473	600.83
66.8618	615.25
66.8762	619.82
66.8907	583.35
66.9051	623.22
66.9195	569.03
66.9340	531.29
66.9484	566.44
66.9629	570.43
66.9773	597.67
66.9917	589.96
67.0062	570.26
67.0206	565.93
67.0351	571.45
67.0495	568.40
67.0639	602.47
67.0784	597.29
67.0928	619.08
67.1073	599.33
67.1217	603.53
67.1361	589.42
67.1506	572.63
67.1650	580.01
67.1795	579.50
67.1939	590.29
67.2083	579.02
67.2228	572.15
67.2372	578.10
67.2517	597.13
67.2661	580.52
67.2805	608.98
67.2950	589.02
67.3094	584.72
67.3239	573.12
67.3383	584.74
67.3527	590.68
67.3672	586.60
67.3816	561.33
67.3961	558.93
67.4105	557.34
67.4250	608.16
67.4394	582.01
67.4538	562.52
67.4683	589.17
67.4827	580.38
67.4972	588.56
67.5116	608.26
67.5260	577.98
67.5405	595.62
67.5549	583.61
67.5694	587.56
67.5838	595.38
67.5982	591.28
67.6127	567.50
67.6271	587.96
67.6416	602.70
67.6560	588.98
67.6704	576.74
67.6849	559.80
67.6993	599.01
67.7138	586.26
67.7282	580.75
67.7426	578.86
67.7571	549.64
67.7715	564.78
67.7860	588.79
67.8004	560.60
67.8148	581.15
67.8293	621.79
67.8437	595.99
67.8582	591.96
67.8726	605.36
67.8870	559.26
67.9015	602.09
67.9159	541.08
67.9304	597.63
67.9448	581.36
67.9592	556.72
67.9737	561.69
67.9881	561.13
68.0026	539.87
68.0170	584.23
68.0314	594.32
68.0459	605.13
68.0603	579.47
68.0748	577.05
68.0892	553.30
68.1036	563.68
68.1181	605.55
68.1325	600.79
68.1470	551.96
68.1614	586.62
68.1758	556.22
68.1903	578.09
68.2047	575.22
68.2192	558.48
68.2336	575.03
68.2480	554.98
68.2625	541.77
68.2769	581.70
68.2914	592.00
68.3058	567.51
68.3202	537.25
68.3347	552.70
68.3491	539.87
68.3636	541.97
68.3780	536.66
68.3924	542.32
68.4069	543.58
68.4213	590.96
68.4358	591.24
68.4502	601.86
68.4646	591.17
68.4791	603.61
68.4935	578.28
68.5080	553.67
68.5224	578.16
68.5368	601.28
68.5513	594.24
68.5657	610.61
68.5802	560.15
68.5946	549.08
68.6090	565.75
68.6235	583.85
68.6379	578.41
68.6524	512.21
68.6668	569.10
68.6812	598.80
68.6957	599.27
68.7101	600.32
68.7246	568.48
68.7390	592.15
68.7534	594.64
68.7679	570.77
68.7823	575.93
68.7968	605.45
68.8112	560.77
68.8256	583.20
68.8401	588.63
68.8545	592.49
68.8690	543.46
68.8834	601.76
68.8978	594.13
68.9123	572.62
68.9267	565.40
68.9412	560.87
68.9556	537.09
68.9700	554.34
68.9845	563.56
68.9989	631.89
69.0134	561.81
69.0278	598.59
69.0422	615.16
69.0567	573.86
69.0711	585.99
69.0856	598.10
69.1000	606.68
69.1144	570.69
69.1289	603.43
69.1433	566.57
69.1578	594.74
69.1722	564.89
69.1866	574.01
69.2011	594.59
69.2155	545.16
69.2300	535.69
69.2444	558.68
69.2588	597.17
69.2733	595.57
69.2877	584.48
69.3022	616.26
69.3166	575.98
69.3310	580.69
69.3455	567.85
69.3599	575.43
69.3744	553.29
69.3888	602.00
69.4032	603.38
69.4177	523.47
69.4321	545.05
69.4466	579.68
69.4610	574.77
69.4754	578.17
69.4899	632.29
69.5043	556.53
69.5188	605.91
69.5332	618.63
69.5476	584.27
69.5621	618.60
69.5765	600.13
69.5910	606.61
69.6054	614.64
69.6198	596.99
69.6343	584.84
69.6487	549.36
69.6632	592.24
69.6776	590.85
69.6920	589.77
69.7065	639.61
69.7209	583.59
69.7354	571.03
69.7498	619.51
69.7642	551.11
69.7787	544.79
69.7931	589.93
69.8076	542.25
69.8220	568.11
69.8364	615.76
69.8509	547.84
69.8653	597.25
69.8798	575.24
69.8942	619.96
69.9086	658.47
69.9231	569.54
69.9375	628.51
69.9520	642.93
69.9664	545.06
69.9808	579.45
69.9953	595.61
70.0097	623.01
70.0242	655.48
70.0386	633.93
70.0530	596.51
70.0675	609.25
70.0819	593.47
70.0964	548.76
70.1108	552.79
70.1252	594.83
70.1397	573.91
70.1541	578.72
70.1686	620.98
70.1830	623.81
70.1974	559.33
70.2119	596.37
70.2263	556.16
70.2408	559.95
70.2552	546.97
70.2696	586.87
70.2841	565.55
70.2985	585.30
70.3130	566.75
70.3274	582.95
70.3418	587.30
70.3563	573.70
70.3707	602.76
70.3852	567.97
70.3996	585.98
70.4140	544.90
70.4285	599.07
70.4429	585.84
70.4574	600.04
70.4718	657.93
70.4862	600.38
70.5007	577.23
70.5151	539.89
70.5296	562.30
70.5440	541.22
70.5584	588.98
70.5729	548.80
70.5873	539.47
70.6018	535.70
70.6162	551.30
70.6306	564.64
70.6451	581.82
70.6595	559.56
70.6740	521.69
70.6884	577.31
70.7028	612.36
70.7173	625.17
70.7317	553.00
70.7462	585.37
70.7606	563.46
70.7750	598.85
70.7895	586.19
70.8039	556.21
70.8184	645.02
70.8328	612.12
70.8472	554.70
70.8617	576.34
70.8761	613.23
70.8906	584.13
70.9050	586.66
70.9194	575.72
70.9339	614.53
70.9483	573.96
70.9628	563.78
70.9772	589.80
70.9916	584.36
71.0061	623.51
71.0205	596.82
71.0350	569.39
71.0494	577.53
71.0638	565.57
71.0783	574.35
71.0927	569.69
71.1072	575.83
71.1216	585.19
71.1361	627.57
71.1505	603.05
71.1649	578.93
71.1794	611.73
71.1938	597.80
71.2083	566.45
71.2227	547.17
71.2371	564.62
71.2516	567.05
71.2660	553.83
71.2805	571.26
71.2949	587.04
71.3093	549.04
71.3238	561.01
71.3382	605.53
71.3527	635.81
71.3671	640.57
71.3815	661.41
71.3960	576.93
71.4104	511.75
71.4249	531.05
71.4393	580.96
71.4537	570.54
71.4682	606.49
71.4826	606.75
71.4971	560.78
71.5115	556.90
71.5259	584.90
71.5404	636.86
71.5548	599.78
71.5693	589.37
71.5837	566.34
71.5981	559.73
71.6126	576.56
71.6270	561.17
71.6415	587.01
71.6559	548.97
71.6703	534.63
71.6848	567.24
71.6992	636.35
71.7137	624.58
71.7281	580.15
71.7425	593.71
71.7570	572.74
71.7714	565.23
71.7859	505.42
71.8003	521.51
71.8147	579.84
71.8292	540.85
71.8436	546.70
71.8581	550.16
71.8725	587.20
71.8869	581.94
71.9014	591.18
71.9158	581.82
71.9303	558.27
71.9447	611.32
71.9591	603.71
71.9736	561.02
71.9880	539.78
72.0025	543.87
72.0169	575.05
72.0313	628.47
72.0458	640.80
72.0602	580.51
72.0747	538.52
72.0891	637.08
72.1035	641.48
72.1180	572.67
72.1324	576.61
72.1469	586.59
72.1613	589.01
72.1757	604.39
72.1902	606.67
72.2046	576.99
72.2191	532.43
72.2335	500.80
72.2479	512.80
72.2624	544.26
72.2768	624.30
72.2913	673.25
72.3057	687.74
72.3201	625.04
72.3346	611.68
72.3490	618.44
72.3635	497.26
72.3779	505.78
72.3923	540.73
72.4068	587.07
72.4212	574.59
72.4357	629.46
72.4501	591.10
72.4645	571.83
72.4790	622.52
72.4934	532.05
72.5079	560.19
72.5223	620.48
72.5367	534.23
72.5512	518.17
72.5656	576.36
72.5801	631.01
72.5945	663.15
72.6089	627.03
72.6234	602.06
72.6378	584.96
72.6523	603.15
72.6667	609.56
72.6811	683.84
72.6956	641.94
72.7100	641.59
72.7245	595.40
72.7389	548.49
72.7533	541.85
72.7678	608.21
72.7822	643.33
72.7967	582.11
72.8111	613.42
72.8255	627.70
72.8400	578.06
72.8544	547.63
72.8689	611.85
72.8833	610.20

Result vector
22.1120	635.13
22.1264	661.16
22.1409	544.23
22.1553	461.15
22.1697	539.36
22.1842	593.92
22.1986	547.09
22.2131	573.18
22.2275	550.55
22.2419	527.92
22.2564	518.80
22.2708	617.24
22.2853	605.83
22.2997	700.87
22.3141	705.77
22.3286	618.36
22.3430	592.81
22.3575	663.63
22.3719	603.00
22.3863	516.84
22.4008	543.27
22.4152	571.69
22.4297	652.91
22.4441	601.16
22.4585	637.18
22.4730	716.18
22.4874	687.90
22.5019	588.12
22.5163	599.98
22.5307	610.42
22.5452	579.32
22.5596	599.43
22.5741	654.96
22.5885	636.27
22.6029	643.78
22.6174	547.85
22.6318	552.09
22.6463	564.14
22.6607	616.14
22.6751	650.60
22.6896	611.34
22.7040	592.25
22.7185	508.64
22.7329	589.17
22.7473	563.59
22.7618	553.23
22.7762	539.58
22.7907	586.59
22.8051	586.59
22.8195	585.13
22.8340	573.54
22.8484	585.59
22.8629	645.16
22.8773	534.88
22.8917	549.20
22.9062	534.83
22.9206	513.28
22.9351	497.47
22.9495	505.91
22.9639	570.60
22.9784	592.65
22.9928	547.62
23.0073	593.17
23.0217	660.13
23.0361	611.93
23.0506	542.93
23.0650	547.98
23.0795	484.61
23.0939	664.66
23.1083	615.72
23.1228	641.05
23.1372	607.88
23.1517	603.42
23.1661	613.05
23.1806	602.07
23.1950	576.13
23.2094	520.27
23.2239	586.64
23.2383	530.52
23.2528	546.67
23.2672	594.89
23.2816	530.95
23.2961	526.70
23.3105	553.88
23.3250	515.47
23.3394	583.90
23.3538	595.22
23.3683	595.65
23.3827	537.53
23.3972	544.32
23.4116	584.59
23.4260	517.98
23.4405	547.82
23.4549	510.32
23.4694	525.48
23.4838	526.82
23.4982	478.93
23.5127	577.78
23.5271	575.47
23.5416	559.16
23.5560	609.92
23.5704	555.81
23.5849	526.60
23.5993	534.21
23.6138	563.44
23.6282	573.75
23.6426	564.92
23.6571	514.99
23.6715	509.78
23.6860	549.43
23.7004	599.98
23.7148	544.86
23.7293	590.13
23.7437	589.03
23.7582	574.09
23.7726	617.48
23.7870	563.37
23.8015	507.63
23.8159	535.32
23.8304	564.98
23.8448	618.33
23.8592	620.23
23.8737	564.37
23.8881	558.90
23.9026	588.44
23.9170	609.18
23.9314	566.40
23.9459	577.39
23.9603	570.87
23.9748	586.55
23.9892	651.99
24.0036	554.05
24.0181	581.72
24.0325	532.73
24.0470	499.30
24.0614	499.96
24.0758	494.08
24.0903	546.10
24.1047	547.00
24.1192	590.25
24.1336	587.71
24.1480	548.67
24.1625	592.59
24.1769	578.94
24.1914	567.50
24.2058	653.56
24.2202	608.33
24.2347	610.53
24.2491	581.55
24.2636	540.84
24.2780	569.71
24.2924	569.12
24.3069	564.20
24.3213	557.82
24.3358	542.51
24.3502	581.75
24.3646	544.26
24.3791	604.57
24.3935	555.11
24.4080	564.92
24.4224	565.48
24.4368	536.97
24.4513	560.45
24.4657	597.29
24.4802	509.81
24.4946	552.08
24.5090	527.12
24.5235	525.76
24.5379	534.89
24.5524	567.44
24.5668	525.03
24.5812	566.70
24.5957	596.44
24.6101	554.23
24.6246	538.67
24.6390	566.60
24.6534	511.81
24.6679	539.08
24.6823	523.74
24.6968	533.83
24.7112	547.63
24.7256	559.77
24.7401	514.95
24.7545	518.13
24.7690	487.15
24.7834	531.16
24.7978	572.15
24.8123	553.29
24.8267	509.79
24.8412	514.07
24.8556	515.72
24.8700	510.45
24.8845	567.16
24.8989	569.33
24.9134	555.69
24.9278	565.92
24.9422	557.76
24.9567	540.33
24.9711	508.51
24.9856	572.90
25.0000	535.88
25.0144	482.27
25.0289	543.62
25.0433	599.99
25.0578	546.45
25.0722	525.56
25.0866	566.94
25.1011	556.46
25.1155	585.72
25.1300	524.16
25.1444	523.11
25.1588	503.30
25.1733	513.76
25.1877	564.81
25.2022	532.66
25.2166	509.52
25.2310	532.31
25.2455	508.51
25.2599	534.74
25.2744	533.36
25.2888	538.45
25.3032	568.86
25.3177	513.53
25.3321	505.43
25.3466	495.69
25.3610	586.19
25.3754	515.75
25.3899	535.60
25.4043	553.84
25.4188	545.11
25.4332	527.09
25.4476	500.83
25.4621	572.07
25.4765	513.82
25.4910	519.31
25.5054	525.57
25.5198	537.98
25.5343	518.20
25.5487	513.92
25.5632	555.27
25.5776	542.85
25.5920	541.94
25.6065	594.91
25.6209	546.79
25.6354	518.23
25.6498	537.42
25.6642	543.77
25.6787	525.99
25.6931	518.68
25.7076	547.65
25.7220	549.18
25.7364	541.52
25.7509	540.97
25.7653	520.93
25.7798	521.76
25.7942	531.12
25.8086	519.06
25.8231	545.94
25.8375	561.03
25.8520	540.11
25.8664	567.13
25.8808	553.74
25.8953	552.16
25.9097	523.54
25.9242	529.95
25.9386	523.87
25.9530	550.26
25.9675	570.27
25.9819	533.72
25.9964	547.19
26.0108	548.86
26.0252	513.84
26.0397	530.44
26.0541	574.53
26.0686	532.12
26.0830	511.49
26.0974	553.25
26.1119	543.46
26.1263	575.42
26.1408	540.72
26.1552	502.23
26.1696	550.04
26.1841	519.65
26.1985	511.05
26.2130	503.13
26.2274	533.44
26.2418	536.03
26.2563	504.24
26.2707	498.94
26.2852	519.19
26.2996	516.67
26.3140	531.56
26.3285	530.40
26.3429	534.57
26.3574	539.54
26.3718	527.34
26.3862	510.48
26.4007	515.20
26.4151	528.88
26.4296	544.84
26.4440	527.75
26.4584	541.49
26.4729	521.55
26.4873	535.20
26.5018	517.86
26.5162	530.51
26.5306	561.94
26.5451	559.57
26.5595	544.06
26.5740	543.41
26.5884	542.96
26.6028	552.08
26.6173	523.80
26.6317	523.18
26.6462	501.90
26.6606	519.70
26.6750	531.02
26.6895	524.21
26.7039	535.23
26.7184	549.05
26.7328	531.64
26.7472	530.43
26.7617	533.68
26.7761	532.10
26.7906	539.65
26.8050	544.28
26.8194	542.92
26.8339	525.10
26.8483	536.49
26.8628	555.28
26.8772	571.06
26.8917	543.21
26.9061	535.97
26.9205	541.07
26.9350	520.81
26.9494	512.01
26.9639	478.92
26.9783	503.80
26.9927	520.31
27.0072	508.57
27.0216	521.03
27.0361	527.98
27.0505	505.59
27.0649	511.83
27.0794	517.27
27.0938	506.21
27.1083	511.22
27.1227	517.45
27.1371	507.30
27.1516	541.11
27.1660	540.69
27.1805	511.60
27.1949	526.84
27.2093	511.67
27.2238	507.25
27.2382	503.89
27.2527	547.32
27.2671	552.99
27.2815	536.35
27.2960	527.94
27.3104	512.75
27.3249	546.90
27.3393	513.87
27.3537	509.36
27.3682	507.61
27.3826	499.04
27.3971	517.70
27.4115	546.24
27.4259	555.33
27.4404	532.03
27.4548	524.06
27.4693	537.36
27.4837	524.22
27.4981	515.64
27.5126	534.61
27.5270	530.37
27.5415	516.50
27.5559	559.92
27.5703	558.66
27.5848	576.90
27.5992	547.92
27.6137	544.36
27.6281	537.05
27.6425	522.79
27.6570	514.18
27.6714	517.57
27.6859	517.29
27.7003	553.78
27.7147	535.82
27.7292	510.94
27.7436	518.32
27.7581	544.77
27.7725	533.43
27.7869	526.27
27.8014	515.97
27.8158	535.01
27.8303	532.15
27.8447	480.34
27.8591	525.30
27.8736	502.36
27.8880	495.04
27.9025	503.07
27.9169	529.19
27.9313	485.51
27.9458	553.55
27.9602	496.57
27.9747	459.96
27.9891	529.76
28.0035	514.19
28.0180	535.59
28.0324	483.94
28.0469	499.55
28.0613	502.80
28.0757	512.88
28.0902	521.32
28.1046	530.25
28.1191	539.19
28.1335	521.68
28.1479	516.87
28.1624	534.71
28.1768	519.10
28.1913	497.43
28.2057	503.05
28.2201	522.55
28.2346	511.53
28.2490	505.12
28.2635	543.35
28.2779	535.89
28.2923	523.33
28.3068	512.75
28.3212	518.36
28.3357	518.19
28.3501	513.33
28.3645	530.85
28.3790	507.04
28.3934	493.51
28.4079	491.19
28.4223	492.82
28.4367	516.78
28.4512	511.72
28.4656	518.28
28.4801	543.52
28.4945	490.12
28.5089	487.69
28.5234	521.07
28.5378	532.96
28.5523	520.09
28.5667	510.40
28.5811	504.09
28.5956	483.32
28.6100	502.13
28.6245	525.12
28.6389	518.20
28.6533	508.37
28.6678	522.50
28.6822	523.19
28.6967	486.07
28.7111	504.44
28.7255	531.28
28.7400	489.35
28.7544	504.94
28.7689	478.22
28.7833	502.39
28.7977	530.65
28.8122	542.57
28.8266	496.68
28.8411	489.95
28.8555	489.20
28.8699	505.72
28.8844	537.25
28.8988	532.71
28.9133	510.84
28.9277	528.29
28.9421	536.84
28.9566	484.06
28.9710	492.29
28.9855	520.93
28.9999	484.68
29.0143	516.85
29.0288	469.91
29.0432	544.95
29.0577	531.87
29.0721	489.29
29.0865	503.34
29.1010	532.95
29.1154	514.93
29.1299	550.62
29.1443	506.71
29.1587	523.50
29.1732	510.40
29.1876	535.95
29.2021	514.61
29.2165	522.21
29.2309	501.59
29.2454	518.07
29.2598	506.23
29.2743	513.70
29.2887	543.93
29.3031	507.29
29.3176	525.80
29.3320	525.23
29.3465	542.42
29.3609	509.56
29.3753	503.17
29.3898	472.74
29.4042	461.21
29.4187	505.50
29.4331	504.63
29.4475	500.08
29.4620	503.04
29.4764	524.03
29.4909	520.24
29.5053	502.09
29.5197	482.50
29.5342	499.25
29.5486	517.07
29.5631	506.80
29.5775	489.99
29.5919	473.37
29.6064	511.71
29.6208	501.23
29.6353	509.83
29.6497	493.07
29.6641	521.74
29.6786	486.13
29.6930	514.01
29.7075	512.31
29.7219	515.94
29.7363	498.53
29.7508	490.39
29.7652	532.76
29.7797	522.24
29.7941	533.15
29.8085	510.72
29.8230	529.88
29.8374	516.79
29.8519	464.36
29.8663	477.77
29.8807	519.82
29.8952	509.63
29.9096	518.50
29.9241	527.27
29.9385	498.67
29.9529	532.02
29.9674	528.81
29.9818	491.86
29.9963	488.96
30.0107	526.34
30.0251	544.98
30.0396	480.31
30.0540	483.38
30.0685	491.00
30.0829	513.06
30.0973	530.09
30.1118	497.16
30.1262	536.02
30.1407	547.16
30.1551	507.30
30.1695	497.18
30.1840	496.36
30.1984	478.39
30.2129	482.82
30.2273	496.99
30.2417	509.30
30.2562	525.01
30.2706	537.10
30.2851	540.23
30.2995	495.63
30.3139	498.10
30.3284	491.41
30.3428	489.98
30.3573	525.25
30.3717	514.89
30.3861	500.28
30.4006	515.43
30.4150	456.80
30.4295	500.83
30.4439	513.23
30.4583	520.14
30.4728	530.66
30.4872	510.07
30.5017	500.57
30.5161	486.53
30.5305	540.52
30.5450	527.41
30.5594	558.77
30.5739	507.12
30.5883	524.58
30.6028	527.20
30.6172	534.93
30.6316	500.19
30.6461	533.35
30.6605	572.24
30.6750	595.92
30.6894	586.18
30.7038	636.37
30.7183	652.72
30.7327	651.72
30.7472	708.98
30.7616	666.56
30.7760	650.92
30.7905	690.91
30.8049	712.50
30.8194	699.27
30.8338	702.28
30.8482	718.75
30.8627	681.40
30.8771	649.63
30.8916	631.92
30.9060	619.64
30.9204	618.61
30.9349	573.21
30.9493	569.19
30.9638	541.01
30.9782	507.24
30.9926	506.93
31.0071	529.30
31.0215	523.86
31.0360	500.77
31.0504	512.27
31.0648	518.06
31.0793	519.73
31.0937	546.54
31.1082	512.95
31.1226	534.18
31.1370	498.27
31.1515	465.43
31.1659	515.86
31.1804	503.89
31.1948	521.50
31.2092	569.09
31.2237	500.62
31.2381	490.89
31.2526	539.28
31.2670	559.52
31.2814	558.78
31.2959	529.45
31.3103	549.50
31.3248	524.76
31.3392	520.36
31.3536	520.57
31.3681	528.80
31.3825	505.23
31.3970	508.86
31.4114	506.09
31.4258	520.12
31.4403	518.81
31.4547	517.28
31.4692	507.23
31.4836	516.84
31.4980	521.22
31.5125	530.75
31.5269	503.03
31.5414	507.98
31.5558	506.45
31.5702	545.20
31.5847	547.78
31.5991	517.24
31.6136	484.40
31.6280	493.66
31.6424	520.33
31.6569	515.82
31.6713	512.22
31.6858	482.38
31.7002	514.53
31.7146	497.12
31.7291	522.41
31.7435	531.43
31.7580	495.44
31.7724	516.12
31.7868	537.10
31.8013	513.15
31.8157	464.88
31.8302	489.20
31.8446	479.82
31.8590	517.70
31.8735	521.52
31.8879	519.39
31.9024	517.76
31.9168	498.98
31.9312	506.62
31.9457	517.06
31.9601	512.93
31.9746	504.47
31.9890	492.68
32.0034	490.81
32.0179	547.67
32.0323	516.99
32.0468	533.70
32.0612	493.79
32.0756	520.15
32.0901	504.43
32.1045	517.67
32.1190	507.40
32.1334	538.82
32.1478	496.82
32.1623	528.80
32.1767	522.14
32.1912	507.17
32.2056	475.09
32.2200	480.57
32.2345	520.77
32.2489	536.99
32.2634	525.12
32.2778	531.60
32.2922	487.22
32.3067	482.49
32.3211	493.19
32.3356	490.32
32.3500	527.45
32.3644	494.56
32.3789	489.87
32.3933	493.84
32.4078	500.66
32.4222	522.49
32.4366	508.91
32.4511	507.55
32.4655	508.32
32.4800	504.29
32.4944	515.70
32.5088	522.15
32.5233	529.20
32.5377	534.57
32.5522	490.37
32.5666	491.14
32.5810	492.90
32.5955	543.15
32.6099	503.01
32.6244	487.41
32.6388	520.94
32.6532	493.58
32.6677	491.43
32.6821	492.67
32.6966	524.68
32.7110	520.64
32.7254	501.45
32.7399	491.30
32.7543	512.28
32.7688	477.56
32.7832	515.73
32.7976	510.01
32.8121	497.53
32.8265	513.21
32.8410	477.39
32.8554	500.38
32.8698	492.01
32.8843	486.88
32.8987	518.98
32.9132	547.84
32.9276	506.94
32.9420	559.58
32.9565	500.62
32.9709	471.83
32.9854	485.03
32.9998	511.09
33.0142	472.21
33.0287	516.62
33.0431	498.30
33.0576	497.38
33.0720	537.56
33.0864	499.21
33.1009	513.75
33.1153	503.96
33.1298	474.56
33.1442	493.72
33.1586	490.52
33.1731	524.52
33.1875	489.10
33.2020	513.28
33.2164	490.82
33.2308	503.73
33.2453	485.59
33.2597	505.22
33.2742	497.56
33.2886	498.99
33.3030	475.00
33.3175	458.16
33.3319	515.78
33.3464	496.30
33.3608	474.91
33.3752	512.72
33.3897	489.81
33.4041	485.39
33.4186	539.89
33.4330	537.44
33.4474	483.09
33.4619	509.62
33.4763	525.29
33.4908	536.23
33.5052	521.97
33.5196	508.33
33.5341	517.28
33.5485	526.26
33.5630	527.64
33.5774	527.93
33.5918	505.96
33.6063	512.02
33.6207	497.83
33.6352	513.48
33.6496	490.08
33.6640	532.17
33.6785	524.84
33.6929	549.63
33.7074	528.80
33.7218	528.42
33.7362	508.10
33.7507	527.29
33.7651	503.66
33.7796	502.00
33.7940	474.01
33.8084	510.46
33.8229	499.91
33.8373	505.14
33.8518	508.25
33.8662	523.30
33.8806	515.93
33.8951	524.71
33.9095	533.46
33.9240	489.30
33.9384	482.58
33.9528	494.54
33.9673	507.67
33.9817	492.53
33.9962	514.02
34.0106	547.17
34.0250	554.62
34.0395	492.13
34.0539	497.15
34.0684	505.93
34.0828	497.58
34.0972	494.56
34.1117	480.79
34.1261	483.53
34.1406	477.86
34.1550	501.17
34.1694	497.44
34.1839	478.83
34.1983	460.33
34.2128	523.81
34.2272	510.03
34.2417	533.17
34.2561	498.27
34.2705	481.35
34.2850	535.48
34.2994	521.74
34.3139	501.16
34.3283	525.90
34.3427	553.21
34.3572	513.74
34.3716	479.45
34.3861	471.80
34.4005	493.10
34.4149	510.04
34.4294	513.64
34.4438	504.44
34.4583	508.54
34.4727	522.92
34.4871	500.32
34.5016	492.82
34.5160	493.86
34.5305	518.78
34.5449	525.41
34.5593	466.98
34.5738	489.27
34.5882	496.67
34.6027	507.31
34.6171	533.65
34.6315	518.90
34.6460	523.78
34.6604	513.83
34.6749	522.75
34.6893	494.73
34.7037	502.51
34.7182	542.85
34.7326	503.82
34.7471	508.28
34.7615	505.32
34.7759	522.57
34.7904	484.02
34.8048	474.96
34.8193	489.57
34.8337	508.54
34.8481	518.51
34.8626	480.66
34.8770	476.02
34.8915	495.64
34.9059	526.95
34.9203	526.82
34.9348	498.93
34.9492	494.43
34.9637	473.63
34.9781	511.93
34.9925	503.49
35.0070	501.65
35.0214	510.67
35.0359	533.78
35.0503	515.05
35.0647	532.22
35.0792	539.31
35.0936	529.23
35.1081	515.13
35.1225	558.35
35.1369	505.68
35.1514	462.62
35.1658	526.28
35.1803	531.55
35.1947	520.52
35.2091	522.01
35.2236	491.29
35.2380	504.99
35.2525	492.29
35.2669	501.23
35.2813	545.12
35.2958	509.93
35.3102	545.56
35.3247	510.34
35.3391	504.24
35.3535	525.98
35.3680	518.35
35.3824	521.10
35.3969	499.86
35.4113	512.79
35.4257	560.46
35.4402	519.18
35.4546	476.27
35.4691	543.62
35.4835	540.69
35.4979	551.31
35.5124	544.08
35.5268	545.03
35.5413	556.87
35.5557	524.51
35.5701	526.60
35.5846	533.30
35.5990	541.07
35.6135	520.18
35.6279	548.99
35.6423	503.12
35.6568	528.32
35.6712	524.67
35.6857	541.19
35.7001	617.62
35.7145	700.22
35.7290	672.39
35.7434	633.08
35.7579	563.61
35.7723	573.91
35.7867	590.21
35.8012	643.04
35.8156	638.77
35.8301	635.00
35.8445	582.90
35.8589	651.01
35.8734	758.53
35.8878	852.01
35.9023	1018.94
35.9167	1081.32
35.9311	1364.78
35.9456	2041.66
35.9600	2317.39
35.9745	1910.66
35.9889	1868.94
36.0033	2261.45
36.0178	2286.10
36.0322	2033.56
36.0467	1878.26
36.0611	1647.95
36.0755	1647.45
36.0900	1725.07
36.1044	1680.52
36.1189	1564.39
36.1333	1358.47
36.1477	1181.94
36.1622	1297.43
36.1766	1289.83
36.1911	1147.52
36.2055	1121.66
36.2199	1143.68
36.2344	1102.27
36.2488	1058.62
36.2633	1011.32
36.2777	1042.43
36.2921	954.19
36.3066	950.58
36.3210	908.55
36.3355	855.19
36.3499	845.97
36.3643	792.48
36.3788	743.24
36.3932	689.33
36.4077	665.37
36.4221	659.44
36.4365	644.68
36.4510	596.36
36.4654	601.77
36.4799	577.82
36.4943	544.13
36.5087	557.45
36.5232	549.86
36.5376	573.60
36.5521	594.29
36.5665	595.08
36.5809	598.20
36.5954	536.73
36.6098	553.89
36.6243	563.90
36.6387	523.76
36.6531	540.60
36.6676	518.45
36.6820	580.12
36.6965	528.07
36.7109	548.47
36.7253	564.64
36.7398	546.49
36.7542	560.99
36.7687	549.03
36.7831	600.37
36.7975	578.45
36.8120	581.44
36.8264	575.99
36.8409	559.80
36.8553	596.93
36.8697	598.83
36.8842	569.98
36.8986	595.90
36.9131	609.17
36.9275	566.82
36.9419	527.90
36.9564	535.69
36.9708	545.14
36.9853	564.42
36.9997	519.56
37.0141	531.04
37.0286	565.57
37.0430	529.45
37.0575	506.04
37.0719	539.28
37.0863	540.89
37.1008	503.34
37.1152	500.35
37.1297	500.16
37.1441	509.63
37.1585	514.07
37.1730	487.61
37.1874	493.05
37.2019	499.78
37.2163	477.07
37.2307	487.42
37.2452	520.96
37.2596	541.25
37.2741	530.44
37.2885	530.45
37.3029	527.19
37.3174	515.08
37.3318	531.73
37.3463	529.40
37.3607	515.51
37.3751	450.36
37.3896	477.60
37.4040	505.10
37.4185	507.69
37.4329	518.71
37.4473	495.07
37.4618	487.48
37.4762	531.33
37.4907	511.75
37.5051	492.89
37.5195	498.11
37.5340	517.06
37.5484	495.34
37.5629	503.79
37.5773	512.84
37.5917	522.10
37.6062	483.47
37.6206	542.59
37.6351	514.77
37.6495	518.41
37.6639	502.10
37.6784	524.72
37.6928	515.34
37.7073	528.24
37.7217	506.10
37.7361	516.77
37.7506	492.75
37.7650	471.57
37.7795	518.95
37.7939	517.92
37.8083	498.41
37.8228	555.11
37.8372	505.45
37.8517	503.76
37.8661	531.73
37.8805	511.75
37.8950	544.68
37.9094	551.38
37.9239	514.02
37.9383	548.58
37.9528	507.83
37.9672	499.37
37.9816	498.50
37.9961	502.56
38.0105	481.32
38.0250	524.33
38.0394	539.26
38.0538	532.17
38.0683	550.22
38.0827	481.72
38.0972	511.89
38.1116	505.06
38.1260	495.28
38.1405	504.87
38.1549	505.39
38.1694	513.54
38.1838	503.49
38.1982	491.55
38.2127	491.15
38.2271	493.45
38.2416	514.63
38.2560	497.86
38.2704	496.72
38.2849	492.16
38.2993	501.16
38.3138	516.27
38.3282	508.49
38.3426	493.00
38.3571	533.83
38.3715	513.78
38.3860	509.81
38.4004	552.97
38.4148	540.50
38.4293	610.92
38.4437	634.58
38.4582	652.03
38.4726	692.90
38.4870	716.75
38.5015	784.11
38.5159	783.99
38.5304	799.32
38.5448	822.34
38.5592	804.68
38.5737	778.76
38.5881	716.16
38.6026	707.34
38.6170	670.63
38.6314	662.39
38.6459	646.23
38.6603	643.76
38.6748	624.15
38.6892	550.69
38.7036	568.73
38.7181	561.93
38.7325	516.73
38.7470	514.82
38.7614	493.40
38.7758	519.98
38.7903	504.81
38.8047	519.17
38.8192	506.49
38.8336	482.37
38.8480	488.16
38.8625	490.51
38.8769	498.77
38.8914	500.03
38.9058	525.59
38.9202	498.12
38.9347	511.66
38.9491	486.46
38.9636	484.42
38.9780	468.58
38.9924	500.40
39.0069	495.98
39.0213	485.89
39.0358	466.61
39.0502	516.19
39.0646	506.19
39.0791	488.60
39.0935	504.47
39.1080	519.57
39.1224	519.33
39.1368	516.49
39.1513	512.74
39.1657	511.59
39.1802	483.00
39.1946	490.85
39.2090	482.56
39.2235	478.45
39.2379	504.10
39.2524	507.63
39.2668	508.41
39.2812	523.15
39.2957	505.88
39.3101	540.13
39.3246	519.67
39.3390	530.36
39.3534	513.21
39.3679	517.90
39.3823	514.60
39.3968	501.83
39.4112	491.11
39.4256	502.32
39.4401	511.69
39.4545	496.24
39.4690	488.89
39.4834	533.58
39.4978	528.12
39.5123	508.42
39.5267	502.13
39.5412	497.79
39.5556	469.62
39.5700	485.75
39.5845	498.82
39.5989	532.64
39.6134	535.13
39.6278	494.46
39.6422	469.52
39.6567	470.93
39.6711	500.61
39.6856	516.55
39.7000	501.40
39.7144	511.57
39.7289	477.09
39.7433	497.51
39.7578	495.08
39.7722	498.24
39.7866	479.59
39.8011	495.69
39.8155	528.88
39.8300	501.54
39.8444	508.91
39.8588	513.32
39.8733	529.11
39.8877	491.06
39.9022	496.31
39.9166	503.31
39.9310	534.33
39.9455	515.37
39.9599	497.82
39.9744	466.98
39.9888	492.41
40.0032	513.58
40.0177	549.43
40.0321	508.36
40.0466	501.54
40.0610	496.66
40.0754	518.03
40.0899	500.59
40.1043	543.23
40.1188	507.95
40.1332	506.90
40.1476	495.47
40.1621	487.21
40.1765	490.04
40.1910	504.14
40.2054	512.44
40.2198	529.51
40.2343	499.95
40.2487	488.25
40.2632	501.53
40.2776	500.09
40.2920	509.71
40.3065	498.06
40.3209	496.20
40.3354	511.47
40.3498	504.18
40.3642	480.68
40.3787	470.97
40.3931	500.56
40.4076	489.34
40.4220	517.29
40.4364	482.32
40.4509	483.20
40.4653	504.77
40.4798	485.93
40.4942	532.21
40.5086	532.66
40.5231	506.88
40.5375	493.85
40.5520	483.53
40.5664	491.81
40.5808	462.73
40.5953	487.11
40.6097	500.84
40.6242	507.97
40.6386	501.66
40.6530	486.63
40.6675	523.45
40.6819	507.11
40.6964	487.60
40.7108	523.72
40.7252	523.70
40.7397	536.40
40.7541	503.91
40.7686	511.27
40.7830	507.46
40.7974	492.03
40.8119	501.47
40.8263	520.19
40.8408	509.64
40.8552	519.78
40.8696	528.90
40.8841	467.78
40.8985	501.33
40.9130	486.72
40.9274	460.96
40.9418	521.47
40.9563	510.87
40.9707	470.77
40.9852	505.62
40.9996	485.71
41.0140	512.57
41.0285	498.46
41.0429	524.98
41.0574	521.47
41.0718	493.89
41.0862	491.87
41.1007	501.23
41.1151	489.72
41.1296	490.48
41.1440	451.41
41.1584	466.68
41.1729	524.04
41.1873	501.22
41.2018	486.47
41.2162	518.28
41.2306	484.97
41.2451	483.22
41.2595	478.06
41.2740	508.09
41.2884	490.82
41.3028	487.15
41.3173	493.16
41.3317	500.57
41.3462	478.37
41.3606	459.17
41.3750	507.58
41.3895	467.55
41.4039	504.21
41.4184	481.17
41.4328	508.34
41.4472	476.68
41.4617	512.97
41.4761	479.92
41.4906	513.80
41.5050	487.15
41.5194	506.26
41.5339	522.66
41.5483	500.04
41.5628	499.62
41.5772	502.03
41.5916	485.12
41.6061	504.09
41.6205	503.86
41.6350	521.43
41.6494	512.83
41.6639	509.14
41.6783	500.42
41.6927	472.78
41.7072	486.98
41.7216	503.99
41.7361	489.18
41.7505	522.22
41.7649	491.78
41.7794	512.64
41.7938	499.28
41.8083	510.62
41.8227	492.66
41.8371	519.89
41.8516	507.68
41.8660	537.95
41.8805	515.08
41.8949	532.57
41.9093	567.13
41.9238	525.44
41.9382	562.89
41.9527	567.13
41.9671	554.54
41.9815	567.46
41.9960	574.74
42.0104	565.47
42.0249	594.63
42.0393	555.77
42.0537	569.96
42.0682	595.98
42.0826	612.06
42.0971	602.67
42.1115	536.95
42.1259	587.45
42.1404	593.42
42.1548	591.80
42.1693	641.16
42.1837	664.95
42.1981	720.08
42.2126	841.62
42.2270	914.02
42.2415	1072.85
42.2559	1189.25
42.2703	1292.90
42.2848	1477.09
42.2992	1556.18
42.3137	1594.62
42.3281	1562.72
42.3425	1500.32
42.3570	1397.58
42.3714	1378.26
42.3859	1361.44
42.4003	1324.11
42.4147	1298.42
42.4292	1246.15
42.4436	1157.59
42.4581	1029.28
42.4725	948.78
42.4869	810.65
42.5014	712.38
42.5158	692.66
42.5303	630.42
42.5447	640.12
42.5591	643.35
42.5736	590.06
42.5880	593.57
42.6025	575.24
42.6169	581.97
42.6313	547.38
42.6458	537.27
42.6602	550.12
42.6747	527.17
42.6891	523.29
42.7035	540.80
42.7180	527.37
42.7324	513.78
42.7469	495.98
42.7613	507.12
42.7757	518.76
42.7902	535.51
42.8046	516.07
42.8191	523.02
42.8335	531.14
42.8479	486.41
42.8624	520.00
42.8768	525.40
42.8913	552.07
42.9057	515.96
42.9201	507.71
42.9346	538.12
42.9490	525.65
42.9635	526.56
42.9779	533.69
42.9923	518.43
43.0068	519.65
43.0212	540.51
43.0357	502.95
43.0501	499.24
43.0645	511.57
43.0790	536.29
43.0934	526.13
43.1079	494.87
43.1223	545.30
43.1367	560.52
43.1512	514.89
43.1656	547.31
43.1801	527.52
43.1945	490.81
43.2089	503.37
43.2234	495.10
43.2378	506.69
43.2523	531.81
43.2667	560.06
43.2811	570.28
43.2956	528.29
43.3100	557.35
43.3245	544.24
43.3389	531.76
43.3533	540.46
43.3678	560.97
43.3822	533.01
43.3967	539.92
43.4111	503.88
43.4255	531.19
43.4400	537.34
43.4544	484.13
43.4689	529.87
43.4833	508.50
43.4977	532.52
43.5122	570.58
43.5266	549.09
43.5411	522.45
43.5555	526.64
43.5699	528.70
43.5844	528.76
43.5988	512.95
43.6133	567.12
43.6277	513.31
43.6421	532.02
43.6566	513.94
43.6710	514.24
43.6855	511.96
43.6999	526.85
43.7143	546.61
43.7288	522.42
43.7432	513.17
43.7577	513.11
43.7721	536.33
43.7865	539.84
43.8010	531.87
43.8154	520.70
43.8299	526.59
43.8443	501.85
43.8587	521.43
43.8732	567.52
43.8876	546.37
43.9021	552.02
43.9165	541.11
43.9309	540.76
43.9454	545.13
43.9598	568.60
43.9743	585.47
43.9887	574.23
44.0031	589.49
44.0176	616.80
44.0320	643.00
44.0465	638.30
44.0609	628.03
44.0753	617.57
44.0898	626.82
44.1042	565.73
44.1187	621.76
44.1331	614.07
44.1475	596.21
44.1620	577.63
44.1764	576.13
44.1909	600.18
44.2053	565.80
44.2197	547.70
44.2342	550.55
44.2486	566.49
44.2631	526.41
44.2775	511.82
44.2919	510.93
44.3064	545.76
44.3208	543.94
44.3353	547.21
44.3497	559.84
44.3641	502.10
44.3786	559.21
44.3930	539.58
44.4075	585.83
44.4219	574.31
44.4363	574.44
44.4508	564.72
44.4652	581.51
44.4797	616.77
44.4941	568.09
44.5085	539.12
44.5230	552.71
44.5374	590.00
44.5519	558.81
44.5663	567.72
44.5807	573.71
44.5952	611.85
44.6096	555.79
44.6241	573.68
44.6385	567.88
44.6529	564.90
44.6674	576.83
44.6818	587.78
44.6963	665.84
44.7107	663.91
44.7251	697.54
44.7396	729.25
44.7540	834.42
44.7685	879.76
44.7829	896.57
44.7973	885.63
44.8118	829.42
44.8262	796.59
44.8407	738.70
44.8551	723.59
44.8695	719.46
44.8840	798.80
44.8984	711.06
44.9129	686.86
44.9273	649.02
44.9417	676.86
44.9562	615.02
44.9706	560.94
44.9851	569.28
44.9995	503.31
45.0139	539.93
45.0284	527.72
45.0428	539.34
45.0573	516.11
45.0717	536.69
45.0861	549.08
45.1006	522.07
45.1150	504.16
45.1295	518.29
45.1439	515.78
45.1583	513.50
45.1728	507.62
45.1872	544.40
45.2017	525.44
45.2161	523.90
45.2305	514.42
45.2450	514.32
45.2594	505.98
45.2739	520.71
45.2883	512.94
45.3028	501.46
45.3172	510.32
45.3316	521.93
45.3461	502.27
45.3605	489.45
45.3750	508.69
45.3894	492.09
45.4038	521.14
45.4183	513.62
45.4327	496.97
45.4472	485.16
45.4616	528.74
45.4760	526.85
45.4905	509.89
45.5049	496.94
45.5194	538.75
45.5338	512.07
45.5482	525.13
45.5627	510.68
45.5771	520.92
45.5916	530.04
45.6060	499.34
45.6204	535.90
45.6349	537.57
45.6493	511.75
45.6638	524.36
45.6782	515.25
45.6926	515.24
45.7071	520.73
45.7215	490.77
45.7360	472.50
45.7504	490.72
45.7648	519.67
45.7793	515.60
45.7937	529.05
45.8082	529.09
45.8226	535.57
45.8370	498.67
45.8515	486.39
45.8659	494.44
45.8804	504.00
45.8948	504.22
45.9092	496.12
45.9237	503.64
45.9381	488.64
45.9526	503.31
45.9670	500.18
45.9814	504.33
45.9959	508.51
46.0103	527.59
46.0248	537.77
46.0392	528.58
46.0536	457.37
46.0681	466.47
46.0825	495.97
46.0970	534.85
46.1114	493.12
46.1258	503.15
46.1403	495.91
46.1547	497.86
46.1692	493.82
46.1836	511.12
46.1980	523.86
46.2125	498.77
46.2269	496.84
46.2414	514.69
46.2558	507.03
46.2702	489.36
46.2847	526.25
46.2991	500.57
46.3136	509.37
46.3280	487.57
46.3424	509.92
46.3569	477.95
46.3713	489.87
46.3858	533.81
46.4002	517.93
46.4146	522.17
46.4291	534.95
46.4435	454.17
46.4580	479.88
46.4724	529.06
46.4868	514.57
46.5013	507.05
46.5157	507.31
46.5302	517.23
46.5446	496.09
46.5590	508.51
46.5735	474.98
46.5879	486.62
46.6024	504.22
46.6168	502.15
46.6312	487.80
46.6457	481.22
46.6601	489.46
46.6746	467.90
46.6890	503.83
46.7034	525.13
46.7179	520.23
46.7323	487.81
46.7468	508.79
46.7612	539.97
46.7756	500.61
46.7901	533.85
46.8045	507.14
46.8190	503.74
46.8334	524.92
46.8478	517.60
46.8623	507.86
46.8767	514.22
46.8912	518.05
46.9056	479.72
46.9200	489.22
46.9345	500.82
46.9489	515.59
46.9634	499.16
46.9778	515.35
46.9922	503.05
47.0067	509.93
47.0211	490.28
47.0356	523.99
47.0500	514.50
47.0644	534.02
47.0789	516.93
47.0933	520.98
47.1078	516.32
47.1222	519.69
47.1366	499.57
47.1511	472.58
47.1655	509.85
47.1800	519.29
47.1944	458.13
47.2088	494.16
47.2233	496.62
47.2377	530.92
47.2522	548.88
47.2666	518.76
47.2810	472.49
47.2955	479.14
47.3099	531.73
47.3244	528.36
47.3388	500.89
47.3532	511.65
47.3677	496.22
47.3821	499.11
47.3966	538.41
47.4110	511.75
47.4254	505.80
47.4399	501.35
47.4543	504.66
47.4688	543.15
47.4832	519.02
47.4976	550.00
47.5121	536.80
47.5265	514.98
47.5410	506.11
47.5554	506.79
47.5698	517.46
47.5843	515.79
47.5987	500.38
47.6132	525.43
47.6276	526.51
47.6420	492.81
47.6565	468.97
47.6709	483.98
47.6854	497.32
47.6998	490.74
47.7142	501.83
47.7287	516.74
47.7431	502.92
47.7576	514.35
47.7720	497.93
47.7864	501.15
47.8009	491.04
47.8153	524.83
47.8298	524.17
47.8442	488.64
47.8586	514.96
47.8731	492.82
47.8875	485.32
47.9020	538.41
47.9164	499.14
47.9308	508.83
47.9453	549.45
47.9597	506.85
47.9742	511.82
47.9886	487.96
48.0030	483.91
48.0175	525.18
48.0319	535.64
48.0464	485.78
48.0608	481.89
48.0752	464.56
48.0897	540.32
48.1041	511.13
48.1186	515.08
48.1330	528.88
48.1474	460.71
48.1619	492.87
48.1763	539.04
48.1908	516.87
48.2052	511.23
48.2196	549.47
48.2341	498.14
48.2485	535.72
48.2630	507.34
48.2774	505.19
48.2918	539.27
48.3063	508.65
48.3207	473.62
48.3352	523.43
48.3496	511.36
48.3640	522.54
48.3785	507.45
48.3929	481.97
48.4074	513.40
48.4218	535.76
48.4362	520.56
48.4507	481.19
48.4651	507.23
48.4796	553.16
48.4940	518.96
48.5084	499.92
48.5229	493.99
48.5373	533.63
48.5518	519.09
48.5662	507.62
48.5806	497.72
48.5951	478.32
48.6095	507.73
48.6240	517.55
48.6384	497.20
48.6528	534.60
48.6673	483.60
48.6817	505.94
48.6962	504.48
48.7106	548.87
48.7250	505.16
48.7395	489.46
48.7539	531.53
48.7684	532.31
48.7828	528.47
48.7972	529.22
48.8117	527.57
48.8261	538.66
48.8406	536.78
48.8550	547.54
48.8694	533.17
48.8839	532.61
48.8983	581.13
48.9128	586.36
48.9272	566.71
48.9416	562.19
48.9561	539.40
48.9705	596.60
48.9850	559.31
48.9994	581.99
49.0139	593.46
49.0283	617.54
49.0427	599.61
49.0572	632.48
49.0716	675.16
49.0861	671.22
49.1005	688.56
49.1149	693.23
49.1294	709.34
49.1438	711.66
49.1583	746.47
49.1727	867.16
49.1871	853.85
49.2016	937.66
49.2160	1042.15
49.2305	1045.71
49.2449	1210.03
49.2593	1262.95
49.2738	1326.55
49.2882	1393.68
49.3027	1491.29
49.3171	1599.64
49.3315	1664.11
49.3460	1724.05
49.3604	1773.75
49.3749	1753.02
49.3893	1731.44
49.4037	1688.78
49.4182	1800.62
49.4326	1717.50
49.4471	1576.56
49.4615	1545.68
49.4759	1497.77
49.4904	1455.00
49.5048	1468.40
49.5193	1324.45
49.5337	1282.14
49.5481	1234.47
49.5626	1187.21
49.5770	1073.41
49.5915	983.04
49.6059	945.67
49.6203	849.71
49.6348	815.63
49.6492	789.26
49.6637	733.01
49.6781	675.10
49.6925	681.98
49.7070	669.88
49.7214	636.81
49.7359	613.62
49.7503	628.57
49.7647	592.37
49.7792	595.74
49.7936	617.05
49.8081	575.50
49.8225	583.29
49.8369	572.62
49.8514	575.01
49.8658	527.63
49.8803	565.45
49.8947	523.34
49.9091	514.22
49.9236	541.71
49.9380	578.08
49.9525	543.96
49.9669	531.17
49.9813	517.19
49.9958	513.89
50.0102	514.90
50.0247	545.56
50.0391	551.21
50.0535	567.79
50.0680	537.14
50.0824	536.09
50.0969	534.88
50.1113	525.17
50.1257	539.85
50.1402	497.78
50.1546	504.40
50.1691	543.08
50.1835	539.52
50.1979	507.92
50.2124	504.14
50.2268	481.80
50.2413	542.55
50.2557	519.96
50.2701	524.84
50.2846	481.91
50.2990	520.50
50.3135	542.95
50.3279	521.84
50.3423	527.10
50.3568	524.79
50.3712	513.96
50.3857	486.90
50.4001	503.40
50.4145	506.22
50.4290	533.91
50.4434	526.14
50.4579	504.51
50.4723	524.16
50.4867	517.77
50.5012	524.18
50.5156	535.20
50.5301	519.36
50.5445	524.19
50.5589	521.39
50.5734	493.11
50.5878	508.22
50.6023	534.38
50.6167	511.30
50.6311	515.79
50.6456	528.22
50.6600	491.06
50.6745	488.73
50.6889	479.58
50.7033	497.54
50.7178	485.26
50.7322	516.02
50.7467	495.27
50.7611	499.70
50.7755	521.84
50.7900	545.18
50.8044	515.88
50.8189	515.47
50.8333	532.00
50.8477	514.04
50.8622	539.27
50.8766	521.72
50.8911	523.62
50.9055	547.52
50.9199	502.74
50.9344	475.57
50.9488	479.13
50.9633	483.48
50.9777	505.97
50.9921	515.92
51.0066	491.25
51.0210	521.26
51.0355	485.99
51.0499	491.65
51.0643	490.24
51.0788	473.59
51.0932	510.13
51.1077	506.37
51.1221	531.75
51.1365	525.28
51.1510	481.05
51.1654	504.49
51.1799	520.52
51.1943	492.00
51.2087	480.45
51.2232	532.89
51.2376	505.89
51.2521	505.59
51.2665	524.49
51.2809	505.42
51.2954	494.11
51.3098	491.99
51.3243	512.13
51.3387	536.39
51.3531	546.03
51.3676	510.27
51.3820	513.22
51.3965	500.95
51.4109	515.53
51.4253	519.66
51.4398	509.74
51.4542	534.34
51.4687	504.57
51.4831	519.38
51.4975	503.44
51.5120	516.06
51.5264	515.69
51.5409	507.52
51.5553	532.28
51.5697	480.54
51.5842	500.37
51.5986	515.64
51.6131	529.40
51.6275	512.83
51.6419	514.88
51.6564	491.06
51.6708	485.05
51.6853	511.90
51.6997	518.62
51.7141	475.85
51.7286	477.49
51.7430	492.41
51.7575	494.85
51.7719	510.42
51.7863	510.51
51.8008	469.53
51.8152	511.37
51.8297	511.79
51.8441	490.99
51.8585	527.64
51.8730	509.13
51.8874	477.36
51.9019	530.62
51.9163	524.88
51.9307	524.42
51.9452	502.06
51.9596	480.61
51.9741	518.01
51.9885	516.52
52.0029	511.05
52.0174	533.57
52.0318	542.64
52.0463	557.79
52.0607	538.67
52.0751	514.53
52.0896	542.62
52.1040	525.11
52.1185	525.14
52.1329	514.80
52.1473	500.26
52.1618	530.24
52.1762	533.12
52.1907	536.82
52.2051	524.16
52.2195	495.40
52.2340	472.93
52.2484	514.14
52.2629	479.29
52.2773	487.25
52.2917	526.37
52.3062	516.65
52.3206	539.44
52.3351	536.95
52.3495	518.51
52.3639	496.09
52.3784	491.50
52.3928	483.20
52.4073	505.71
52.4217	481.98
52.4361	478.21
52.4506	486.02
52.4650	501.61
52.4795	505.95
52.4939	510.12
52.5083	513.89
52.5228	504.93
52.5372	521.99
52.5517	496.23
52.5661	511.52
52.5805	498.64
52.5950	531.02
52.6094	512.55
52.6239	524.02
52.6383	558.71
52.6527	527.89
52.6672	497.40
52.6816	482.73
52.6961	499.14
52.7105	514.61
52.7250	512.96
52.7394	477.27
52.7538	501.72
52.7683	512.41
52.7827	536.59
52.7972	535.14
52.8116	517.32
52.8260	504.58
52.8405	511.08
52.8549	486.98
52.8694	511.66
52.8838	513.12
52.8982	506.60
52.9127	550.82
52.9271	502.37
52.9416	499.93
52.9560	476.00
52.9704	487.60
52.9849	522.75
52.9993	540.99
53.0138	500.40
53.0282	525.31
53.0426	535.51
53.0571	555.69
53.0715	516.03
53.0860	537.99
53.1004	499.91
53.1148	541.89
53.1293	525.05
53.1437	470.33
53.1582	518.70
53.1726	505.98
53.1870	532.47
53.2015	489.05
53.2159	516.82
53.2304	527.11
53.2448	496.52
53.2592	503.89
53.2737	524.01
53.2881	505.34
53.3026	510.70
53.3170	542.97
53.3314	542.81
53.3459	523.95
53.3603	490.52
53.3748	509.34
53.3892	478.10
53.4036	505.98
53.4181	500.03
53.4325	529.38
53.4470	494.94
53.4614	496.38
53.4758	513.79
53.4903	510.53
53.5047	504.14
53.5192	516.12
53.5336	497.16
53.5480	491.00
53.5625	538.38
53.5769	533.75
53.5914	520.36
53.6058	567.78
53.6202	545.97
53.6347	528.17
53.6491	540.28
53.6636	498.94
53.6780	498.83
53.6924	502.16
53.7069	535.25
53.7213	554.89
53.7358	489.14
53.7502	538.51
53.7646	529.54
53.7791	525.25
53.7935	539.50
53.8080	527.81
53.8224	516.96
53.8368	546.77
53.8513	494.22
53.8657	508.86
53.8802	522.55
53.8946	518.20
53.9090	531.01
53.9235	513.91
53.9379	542.26
53.9524	508.85
53.9668	541.52
53.9812	512.69
53.9957	544.32
54.0101	530.74
54.0246	554.30
54.0390	516.15
54.0534	518.37
54.0679	518.06
54.0823	565.84
54.0968	520.91
54.1112	503.44
54.1256	565.81
54.1401	536.06
54.1545	519.58
54.1690	549.91
54.1834	525.71
54.1978	502.81
54.2123	496.41
54.2267	528.64
54.2412	527.26
54.2556	537.49
54.2700	536.42
54.2845	528.66
54.2989	510.91
54.3134	526.26
54.3278	523.24
54.3422	508.26
54.3567	523.34
54.3711	517.17
54.3856	542.28
54.4000	542.76
54.4144	556.87
54.4289	583.09
54.4433	566.33
54.4578	581.60
54.4722	556.22
54.4866	539.90
54.5011	544.51
54.5155	567.60
54.5300	561.88
54.5444	554.32
54.5588	567.60
54.5733	566.59
54.5877	562.14
54.6022	601.50
54.6166	600.11
54.6310	589.02
54.6455	596.78
54.6599	614.86
54.6744	614.70
54.6888	577.57
54.7032	597.94
54.7177	613.18
54.7321	572.02
54.7466	564.75
54.7610	572.03
54.7754	575.65
54.7899	572.27
54.8043	563.27
54.8188	554.48
54.8332	556.81
54.8476	577.54
54.8621	558.90
54.8765	549.53
54.8910	518.67
54.9054	559.44
54.9198	526.60
54.9343	526.16
54.9487	547.38
54.9632	537.62
54.9776	563.46
54.9920	532.51
55.0065	540.25
55.0209	541.24
55.0354	507.79
55.0498	514.53
55.0642	526.92
55.0787	521.02
55.0931	530.24
55.1076	508.76
55.1220	487.07
55.1364	527.21
55.1509	520.87
55.1653	539.21
55.1798	547.64
55.1942	504.09
55.2086	513.67
55.2231	526.49
55.2375	502.93
55.2520	523.08
55.2664	526.62
55.2808	534.09
55.2953	508.94
55.3097	512.76
55.3242	540.04
55.3386	555.95
55.3530	532.17
55.3675	520.15
55.3819	505.99
55.3964	498.56
55.4108	477.65
55.4252	532.63
55.4397	553.72
55.4541	509.39
55.4686	522.84
55.4830	534.85
55.4974	515.94
55.5119	520.77
55.5263	538.18
55.5408	519.39
55.5552	547.26
55.5696	509.12
55.5841	544.42
55.5985	556.45
55.6130	565.79
55.6274	528.45
55.6418	509.38
55.6563	530.40
55.6707	512.09
55.6852	537.66
55.6996	514.30
55.7140	538.81
55.7285	512.79
55.7429	529.09
55.7574	520.03
55.7718	553.95
55.7862	543.84
55.8007	542.64
55.8151	575.72
55.8296	511.91
55.8440	536.18
55.8584	549.86
55.8729	523.06
55.8873	453.15
55.9018	471.73
55.9162	528.17
55.9306	553.49
55.9451	555.00
55.9595	553.94
55.9740	541.20
55.9884	498.13
56.0028	520.65
56.0173	522.53
56.0317	525.18
56.0462	530.17
56.0606	518.43
56.0750	476.41
56.0895	517.90
56.1039	540.08
56.1184	509.46
56.1328	509.90
56.1472	504.24
56.1617	497.99
56.1761	559.21
56.1906	513.81
56.2050	501.40
56.2194	505.74
56.2339	526.36
56.2483	511.79
56.2628	561.30
56.2772	548.14
56.2916	510.34
56.3061	536.73
56.3205	471.19
56.3350	500.05
56.3494	527.87
56.3639	539.42
56.3783	495.22
56.3927	523.10
56.4072	562.47
56.4216	549.16
56.4361	563.78
56.4505	503.65
56.4649	541.95
56.4794	523.93
56.4938	540.13
56.5083	487.37
56.5227	456.53
56.5371	523.98
56.5516	557.23
56.5660	512.36
56.5805	518.97
56.5949	543.43
56.6093	543.37
56.6238	517.44
56.6382	505.74
56.6527	528.15
56.6671	495.06
56.6815	503.64
56.6960	495.41
56.7104	552.28
56.7249	536.25
56.7393	512.26
56.7537	506.71
56.7682	507.01
56.7826	516.01
56.7971	556.30
56.8115	538.98
56.8259	555.03
56.8404	554.71
56.8548	529.63
56.8693	520.86
56.8837	541.34
56.8981	524.08
56.9126	514.06
56.9270	544.13
56.9415	541.99
56.9559	499.71
56.9703	520.57
56.9848	527.66
56.9992	493.93
57.0137	543.92
57.0281	526.95
57.0425	511.87
57.0570	490.76
57.0714	556.33
57.0859	525.15
57.1003	537.08
57.1147	522.92
57.1292	506.17
57.1436	532.54
57.1581	508.48
57.1725	528.64
57.1869	539.27
57.2014	519.08
57.2158	524.68
57.2303	485.62
57.2447	545.52
57.2591	548.28
57.2736	549.93
57.2880	556.75
57.3025	509.83
57.3169	552.23
57.3313	528.84
57.3458	522.16
57.3602	495.62
57.3747	552.71
57.3891	525.77
57.4035	506.13
57.4180	526.42
57.4324	546.59
57.4469	515.93
57.4613	551.72
57.4757	542.47
57.4902	506.79
57.5046	506.41
57.5191	538.32
57.5335	542.48
57.5479	525.20
57.5624	540.65
57.5768	531.28
57.5913	539.06
57.6057	523.96
57.6201	518.69
57.6346	536.77
57.6490	557.55
57.6635	541.29
57.6779	537.76
57.6923	552.22
57.7068	547.57
57.7212	535.15
57.7357	520.35
57.7501	515.83
57.7645	536.53
57.7790	536.99
57.7934	522.76
57.8079	579.63
57.8223	567.65
57.8367	535.67
57.8512	519.25
57.8656	506.34
57.8801	542.75
57.8945	537.68
57.9089	526.85
57.9234	516.17
57.9378	532.61
57.9523	557.85
57.9667	582.76
57.9811	553.96
57.9956	542.28
58.0100	524.12
58.0245	548.91
58.0389	536.07
58.0533	551.11
58.0678	563.46
58.0822	531.67
58.0967	569.64
58.1111	564.81
58.1255	578.02
58.1400	569.25
58.1544	555.87
58.1689	573.09
58.1833	621.09
58.1977	616.38
58.2122	624.07
58.2266	647.44
58.2411	668.12
58.2555	696.37
58.2699	685.50
58.2844	745.67
58.2988	680.72
58.3133	671.38
58.3277	639.19
58.3421	624.84
58.3566	625.02
58.3710	658.41
58.3855	665.28
58.3999	619.54
58.4143	673.95
58.4288	713.07
58.4432	670.29
58.4577	629.62
58.4721	641.71
58.4865	634.46
58.5010	602.23
58.5154	621.30
58.5299	610.41
58.5443	587.11
58.5587	584.58
58.5732	559.99
58.5876	586.33
58.6021	573.88
58.6165	567.00
58.6309	534.14
58.6454	527.13
58.6598	528.70
58.6743	546.04
58.6887	514.94
58.7031	549.98
58.7176	556.05
58.7320	541.47
58.7465	551.23
58.7609	520.17
58.7753	520.74
58.7898	542.04
58.8042	499.58
58.8187	515.40
58.8331	528.84
58.8475	522.86
58.8620	555.42
58.8764	536.83
58.8909	553.07
58.9053	558.04
58.9197	527.15
58.9342	534.72
58.9486	540.92
58.9631	501.34
58.9775	522.94
58.9919	521.90
59.0064	534.19
59.0208	526.55
59.0353	532.02
59.0497	510.02
59.0641	547.10
59.0786	535.06
59.0930	560.85
59.1075	559.00
59.1219	560.29
59.1363	548.92
59.1508	511.25
59.1652	544.93
59.1797	537.05
59.1941	543.99
59.2085	559.89
59.2230	560.30
59.2374	556.62
59.2519	545.46
59.2663	552.67
59.2807	580.39
59.2952	581.37
59.3096	551.34
59.3241	590.70
59.3385	590.26
59.3529	586.79
59.3674	589.28
59.3818	576.47
59.3963	535.53
59.4107	542.32
59.4251	581.92
59.4396	569.17
59.4540	544.25
59.4685	553.73
59.4829	561.28
59.4973	545.10
59.5118	529.11
59.5262	541.16
59.5407	582.20
59.5551	564.91
59.5695	554.65
59.5840	548.43
59.5984	539.93
59.6129	526.68
59.6273	497.03
59.6417	544.65
59.6562	554.20
59.6706	512.84
59.6851	538.60
59.6995	532.07
59.7139	552.14
59.7284	544.22
59.7428	530.97
59.7573	510.26
59.7717	525.26
59.7861	517.91
59.8006	527.50
59.8150	528.92
59.8295	567.07
59.8439	548.33
59.8583	565.53
59.8728	558.61
59.8872	564.68
59.9017	588.17
59.9161	552.28
59.9305	557.84
59.9450	536.69
59.9594	490.53
59.9739	535.37
59.9883	566.64
60.0027	562.00
60.0172	554.89
60.0316	529.78
60.0461	533.20
60.0605	545.75
60.0750	532.20
60.0894	518.04
60.1038	534.27
60.1183	557.68
60.1327	542.04
60.1472	541.33
60.1616	524.14
60.1760	526.45
60.1905	537.11
60.2049	536.88
60.2194	525.88
60.2338	546.30
60.2482	550.65
60.2627	523.16
60.2771	544.42
60.2916	559.63
60.3060	542.34
60.3204	546.85
60.3349	540.57
60.3493	548.13
60.3638	512.89
60.3782	522.42
60.3926	541.69
60.4071	511.50
60.4215	556.83
60.4360	534.58
60.4504	476.59
60.4648	536.06
60.4793	561.21
60.4937	550.87
60.5082	522.25
60.5226	537.87
60.5370	578.85
60.5515	546.91
60.5659	538.85
60.5804	565.62
60.5948	517.63
60.6092	519.95
60.6237	511.82
60.6381	545.70
60.6526	531.31
60.6670	553.12
60.6814	547.08
60.6959	563.28
60.7103	575.17
60.7248	545.89
60.7392	521.44
60.7536	569.76
60.7681	518.11
60.7825	531.17
60.7970	508.13
60.8114	545.74
60.8258	560.30
60.8403	555.66
60.8547	531.57
60.8692	593.66
60.8836	558.06
60.8980	561.17
60.9125	547.96
60.9269	569.39
60.9414	546.12
60.9558	524.95
60.9702	530.03
60.9847	559.48
60.9991	556.90
61.0136	521.28
61.0280	537.95
61.0424	546.79
61.0569	562.17
61.0713	541.69
61.0858	552.00
61.1002	509.54
61.1146	536.31
61.1291	529.01
61.1435	519.52
61.1580	530.90
61.1724	586.76
61.1868	566.07
61.2013	528.66
61.2157	530.67
61.2302	536.65
61.2446	535.31
61.2590	525.11
61.2735	592.53
61.2879	558.44
61.3024	530.49
61.3168	572.66
61.3312	575.54
61.3457	533.47
61.3601	539.58
61.3746	570.42
61.3890	549.01
61.4034	568.10
61.4179	573.94
61.4323	585.97
61.4468	539.89
61.4612	548.27
61.4756	574.91
61.4901	561.89
61.5045	519.44
61.5190	534.03
61.5334	557.24
61.5478	539.99
61.5623	523.09
61.5767	529.95
61.5912	552.79
61.6056	538.61
61.6200	539.41
61.6345	546.39
61.6489	523.99
61.6634	535.33
61.6778	535.61
61.6922	564.08
61.7067	583.66
61.7211	564.83
61.7356	512.93
61.7500	526.29
61.7644	539.15
61.7789	550.51
61.7933	527.02
61.8078	568.84
61.8222	556.23
61.8366	525.61
61.8511	532.82
61.8655	598.27
61.8800	560.52
61.8944	534.67
61.9088	557.76
61.9233	564.26
61.9377	563.05
61.9522	506.67
61.9666	528.85
61.9810	523.67
61.9955	561.67
62.0099	552.95
62.0244	574.55
62.0388	555.88
62.0532	525.43
62.0677	535.99
62.0821	547.96
62.0966	553.44
62.1110	552.96
62.1254	575.80
62.1399	548.05
62.1543	503.78
62.1688	545.15
62.1832	541.08
62.1976	567.78
62.2121	509.57
62.2265	566.77
62.2410	558.96
62.2554	575.44
62.2698	558.55
62.2843	556.68
62.2987	556.22
62.3132	553.12
62.3276	549.99
62.3420	533.66
62.3565	535.24
62.3709	538.28
62.3854	570.72
62.3998	564.94
62.4142	566.75
62.4287	579.06
62.4431	528.46
62.4576	522.85
62.4720	534.96
62.4864	544.91
62.5009	558.73
62.5153	581.32
62.5298	581.18
62.5442	557.94
62.5586	571.12
62.5731	551.18
62.5875	558.47
62.6020	572.19
62.6164	544.47
62.6308	552.05
62.6453	545.42
62.6597	566.63
62.6742	570.78
62.6886	556.65
62.7030	568.44
62.7175	571.11
62.7319	568.79
62.7464	575.29
62.7608	543.23
62.7752	537.96
62.7897	549.00
62.8041	567.20
62.8186	542.84
62.8330	533.15
62.8474	539.99
62.8619	539.22
62.8763	552.70
62.8908	545.09
62.9052	593.04
62.9196	568.12
62.9341	532.37
62.9485	549.39
62.9630	564.97
62.9774	544.35
62.9918	559.02
63.0063	575.07
63.0207	576.96
63.0352	562.20
63.0496	533.53
63.0640	543.57
63.0785	551.61
63.0929	579.54
63.1074	550.21
63.1218	573.76
63.1362	576.63
63.1507	546.11
63.1651	589.29
63.1796	565.08
63.1940	570.79
63.2084	563.54
63.2229	596.48
63.2373	576.17
63.2518	595.90
63.2662	547.02
63.2806	600.59
63.2951	574.48
63.3095	573.16
63.3240	572.37
63.3384	572.70
63.3528	580.44
63.3673	560.25
63.3817	576.71
63.3962	588.33
63.4106	583.08
63.4250	609.67
63.4395	593.91
63.4539	568.92
63.4684	603.73
63.4828	612.68
63.4972	596.46
63.5117	600.42
63.5261	606.41
63.5406	592.75
63.5550	597.89
63.5694	610.32
63.5839	590.90
63.5983	586.11
63.6128	619.68
63.6272	594.69
63.6416	593.62
63.6561	594.99
63.6705	599.73
63.6850	614.11
63.6994	639.37
63.7138	608.95
63.7283	599.13
63.7427	586.55
63.7572	663.02
63.7716	597.76
63.7861	601.40
63.8005	670.20
63.8149	687.76
63.8294	652.68
63.8438	664.68
63.8583	634.42
63.8727	622.34
63.8871	686.77
63.9016	709.43
63.9160	710.97
63.9305	697.07
63.9449	710.87
63.9593	771.55
63.9738	811.31
63.9882	832.57
64.0027	839.05
64.0171	834.22
64.0315	889.20
64.0460	870.38
64.0604	809.37
64.0749	800.50
64.0893	819.43
64.1037	793.07
64.1182	785.01
64.1326	790.69
64.1471	763.18
64.1615	757.80
64.1759	780.84
64.1904	738.53
64.2048	727.19
64.2193	757.46
64.2337	754.11
64.2481	733.00
64.2626	744.83
64.2770	720.14
64.2915	695.67
64.3059	676.97
64.3203	679.03
64.3348	688.24
64.3492	681.32
64.3637	697.43
64.3781	672.93
64.3925	628.28
64.4070	670.10
64.4214	674.19
64.4359	663.76
64.4503	632.09
64.4647	685.29
64.4792	650.59
64.4936	628.70
64.5081	648.63
64.5225	643.91
64.5369	593.81
64.5514	645.86
64.5658	644.67
64.5803	669.11
64.5947	630.10
64.6091	619.72
64.6236	671.04
64.6380	637.48
64.6525	668.33
64.6669	658.71
64.6813	692.09
64.6958	662.34
64.7102	699.64
64.7247	688.20
64.7391	674.41
64.7535	729.98
64.7680	696.26
64.7824	734.93
64.7969	779.88
64.8113	780.68
64.8257	818.63
64.8402	801.04
64.8546	811.65
64.8691	901.72
64.8835	869.02
64.8979	864.42
64.9124	895.08
64.9268	947.64
64.9413	902.05
64.9557	978.49
64.9701	993.61
64.9846	1085.48
64.9990	1192.13
65.0135	1315.24
65.0279	1528.26
65.0423	1720.40
65.0568	2152.68
65.0712	2607.48
65.0857	3601.17
65.1001	4751.50
65.1145	6455.59
65.1290	8499.05
65.1434	10022.55
65.1579	11487.70
65.1723	12137.29
65.1867	11532.73
65.2012	9899.45
65.2156	8025.50
65.2301	6461.96
65.2445	5205.19
65.2589	4381.88
65.2734	4209.72
65.2878	4427.55
65.3023	5092.66
65.3167	5855.96
65.3311	6767.16
65.3456	7184.24
65.3600	6969.14
65.3745	6503.51
65.3889	5333.31
65.4033	4208.45
65.4178	3342.31
65.4322	2658.84
65.4467	2078.88
65.4611	1652.10
65.4755	1442.86
65.4900	1314.10
65.5044	1196.99
65.5189	1074.88
65.5333	970.63
65.5477	926.72
65.5622	877.25
65.5766	863.52
65.5911	861.31
65.6055	813.80
65.6199	759.06
65.6344	798.36
65.6488	782.08
65.6633	766.40
65.6777	732.48
65.6921	740.71
65.7066	712.49
65.7210	729.17
65.7355	675.45
65.7499	667.29
65.7643	682.56
65.7788	673.89
65.7932	675.71
65.8077	681.65
65.8221	690.20
65.8365	697.14
65.8510	667.15
65.8654	685.17
65.8799	699.87
65.8943	642.70
65.9087	671.84
65.9232	606.60
65.9376	629.72
65.9521	593.54
65.9665	592.84
65.9809	583.20
65.9954	634.16
66.0098	617.30
66.0243	602.51
66.0387	646.37
66.0531	617.81
66.0676	632.38
66.0820	630.78
66.0965	623.97
66.1109	620.05
66.1253	620.99
66.1398	613.94
66.1542	593.76
66.1687	616.34
66.1831	617.18
66.1975	605.34
66.2120	593.36
66.2264	591.28
66.2409	632.15
66.2553	614.85
66.2697	598.68
66.2842	633.61
66.2986	601.66
66.3131	591.76
66.3275	604.08
66.3419	595.19
66.3564	598.39
66.3708	593.45
66.3853	593.44
66.3997	590.14
66.4141	580.16
66.4286	601.04
66.4430	598.52
66.4575	610.59
66.4719	598.92
66.4863	581.51
66.5008	602.52
66.5152	587.76
66.5297	611.07
66.5441	584.57
66.5585	609.05
66.5730	577.20
66.5874	627.06
66.6019	613.40
66.6163	594.18
66.6307	603.35
66.6452	626.56
66.6596	591.56
66.6741	564.18
66.6885	580.74
66.7029	583.74
66.7174	598.68
66.7318	581.82
66.7463	554.74
66.7607	559.50
66.7751	626.65
66.7896	615.51
66.8040	616.48
66.8185	605.24
66.8329	607.23
66.8473	600.83
66.8618	615.25
66.8762	619.82
66.8907	583.35
66.9051	623.22
66.9195	569.03
66.9340	531.29
66.9484	566.44
66.9629	570.43
66.9773	597.67
66.9917	589.96
67.0062	570.26
67.0206	565.93
67.0351	571.45
67.0495	568.40
67.0639	602.47
67.0784	597.29
67.0928	619.08
67.1073	599.33
67.1217	603.53
67.1361	589.42
67.1506	572.63
67.1650	580.01
67.1795	579.50
67.1939	590.29
67.2083	579.02
67.2228	572.15
67.2372	578.10
67.2517	597.13
67.2661	580.52
67.2805	608.98
67.2950	589.02
67.3094	584.72
67.3239	573.12
67.3383	584.74
67.3527	590.68
67.3672	586.60
67.3816	561.33
67.3961	558.93
67.4105	557.34
67.4250	608.16
67.4394	582.01
67.4538	562.52
67.4683	589.17
67.4827	580.38
67.4972	588.56
67.5116	608.26
67.5260	577.98
67.5405	595.62
67.5549	583.61
67.5694	587.56
67.5838	595.38
67.5982	591.28
67.6127	567.50
67.6271	587.96
67.6416	602.70
67.6560	588.98
67.6704	576.74
67.6849	559.80
67.6993	599.01
67.7138	586.26
67.7282	580.75
67.7426	578.86
67.7571	549.64
67.7715	564.78
67.7860	588.79
67.8004	560.60
67.8148	581.15
67.8293	621.79
67.8437	595.99
67.8582	591.96
67.8726	605.36
67.8870	559.26
67.9015	602.09
67.9159	541.08
67.9304	597.63
67.9448	581.36
67.9592	556.72
67.9737	561.69
67.9881	561.13
68.0026	539.87
68.0170	584.23
68.0314	594.32
68.0459	605.13
68.0603	579.47
68.0748	577.05
68.0892	553.30
68.1036	563.68
68.1181	605.55
68.1325	600.79
68.1470	551.96
68.1614	586.62
68.1758	556.22
68.1903	578.09
68.2047	575.22
68.2192	558.48
68.2336	575.03
68.2480	554.98
68.2625	541.77
68.2769	581.70
68.2914	592.00
68.3058	567.51
68.3202	537.25
68.3347	552.70
68.3491	539.87
68.3636	541.97
68.3780	536.66
68.3924	542.32
68.4069	543.58
68.4213	590.96
68.4358	591.24
68.4502	601.86
68.4646	591.17
68.4791	603.61
68.4935	578.28
68.5080	553.67
68.5224	578.16
68.5368	601.28
68.5513	594.24
68.5657	610.61
68.5802	560.15
68.5946	549.08
68.6090	565.75
68.6235	583.85
68.6379	578.41
68.6524	512.21
68.6668	569.10
68.6812	598.80
68.6957	599.27
68.7101	600.32
68.7246	568.48
68.7390	592.15
68.7534	594.64
68.7679	570.77
68.7823	575.93
68.7968	605.45
68.8112	560.77
68.8256	583.20
68.8401	588.63
68.8545	592.49
68.8690	543.46
68.8834	601.76
68.8978	594.13
68.9123	572.62
68.9267	565.40
68.9412	560.87
68.9556	537.09
68.9700	554.34
68.9845	563.56
68.9989	631.89
69.0134	561.81
69.0278	598.59
69.0422	615.16
69.0567	573.86
69.0711	585.99
69.0856	598.10
69.1000	606.68
69.1144	570.69
69.1289	603.43
69.1433	566.57
69.1578	594.74
69.1722	564.89
69.1866	574.01
69.2011	594.59
69.2155	545.16
69.2300	535.69
69.2444	558.68
69.2588	597.17
69.2733	595.57
69.2877	584.48
69.3022	616.26
69.3166	575.98
69.3310	580.69
69.3455	567.85
69.3599	575.43
69.3744	553.29
69.3888	602.00
69.4032	603.38
69.4177	523.47
69.4321	545.05
69.4466	579.68
69.4610	574.77
69.4754	578.17
69.4899	632.29
69.5043	556.53
69.5188	605.91
69.5332	618.63
69.5476	584.27
69.5621	618.60
69.5765	600.13
69.5910	606.61
69.6054	614.64
69.6198	596.99
69.6343	584.84
69.6487	549.36
69.6632	592.24
69.6776	590.85
69.6920	589.77
69.7065	639.61
69.7209	583.59
69.7354	571.03
69.7498	619.51
69.7642	551.11
69.7787	544.79
69.7931	589.93
69.8076	542.25
69.8220	568.11
69.8364	615.76
69.8509	547.84
69.8653	597.25
69.8798	575.24
69.8942	619.96
69.9086	658.47
69.9231	569.54
69.9375	628.51
69.9520	642.93
69.9664	545.06
69.9808	579.45
69.9953	595.61
70.0097	623.01
70.0242	655.48
70.0386	633.93
70.0530	596.51
70.0675	609.25
70.0819	593.47
70.0964	548.76
70.1108	552.79
70.1252	594.83
70.1397	573.91
70.1541	578.72
70.1686	620.98
70.1830	623.81
70.1974	559.33
70.2119	596.37
70.2263	556.16
70.2408	559.95
70.2552	546.97
70.2696	586.87
70.2841	565.55
70.2985	585.30
70.3130	566.75
70.3274	582.95
70.3418	587.30
70.3563	573.70
70.3707	602.76
70.3852	567.97
70.3996	585.98
70.4140	544.90
70.4285	599.07
70.4429	585.84
70.4574	600.04
70.4718	657.93
70.4862	600.38
70.5007	577.23
70.5151	539.89
70.5296	562.30
70.5440	541.22
70.5584	588.98
70.5729	548.80
70.5873	539.47
70.6018	535.70
70.6162	551.30
70.6306	564.64
70.6451	581.82
70.6595	559.56
70.6740	521.69
70.6884	577.31
70.7028	612.36
70.7173	625.17
70.7317	553.00
70.7462	585.37
70.7606	563.46
70.7750	598.85
70.7895	586.19
70.8039	556.21
70.8184	645.02
70.8328	612.12
70.8472	554.70
70.8617	576.34
70.8761	613.23
70.8906	584.13
70.9050	586.66
70.9194	575.72
70.9339	614.53
70.9483	573.96
70.9628	563.78
70.9772	589.80
70.9916	584.36
71.0061	623.51
71.0205	596.82
71.0350	569.39
71.0494	577.53
71.0638	565.57
71.0783	574.35
71.0927	569.69
71.1072	575.83
71.1216	585.19
71.1361	627.57
71.1505	603.05
71.1649	578.93
71.1794	611.73
71.1938	597.80
71.2083	566.45
71.2227	547.17
71.2371	564.62
71.2516	567.05
71.2660	553.83
71.2805	571.26
71.2949	587.04
71.3093	549.04
71.3238	561.01
71.3382	605.53
71.3527	635.81
71.3671	640.57
71.3815	661.41
71.3960	576.93
71.4104	511.75
71.4249	531.05
71.4393	580.96
71.4537	570.54
71.4682	606.49
71.4826	606.75
71.4971	560.78
71.5115	556.90
71.5259	584.90
71.5404	636.86
71.5548	599.78
71.5693	589.37
71.5837	566.34
71.5981	559.73
71.6126	576.56
71.6270	561.17
71.6415	587.01
71.6559	548.97
71.6703	534.63
71.6848	567.24
71.6992	636.35
71.7137	624.58
71.7281	580.15
71.7425	593.71
71.7570	572.74
71.7714	565.23
71.7859	505.42
71.8003	521.51
71.8147	579.84
71.8292	540.85
71.8436	546.70
71.8581	550.16
71.8725	587.20
71.8869	581.94
71.9014	591.18
71.9158	581.82
71.9303	558.27
71.9447	611.32
71.9591	603.71
71.9736	561.02
71.9880	539.78
72.0025	543.87
72.0169	575.05
72.0313	628.47
72.0458	640.80
72.0602	580.51
72.0747	538.52
72.0891	637.08
72.1035	641.48
72.1180	572.67
72.1324	576.61
72.1469	586.59
72.1613	589.01
72.1757	604.39
72.1902	606.67
72.2046	576.99
72.2191	532.43
72.2335	500.80
72.2479	512.80
72.2624	544.26
72.2768	624.30
72.2913	673.25
72.3057	687.74
72.3201	625.04
72.3346	611.68
72.3490	618.44
72.3635	497.26
72.3779	505.78
72.3923	540.73
72.4068	587.07
72.4212	574.59
72.4357	629.46
72.4501	591.10
72.4645	571.83
72.4790	622.52
72.4934	532.05
72.5079	560.19
72.5223	620.48
72.5367	534.23
72.5512	518.17
72.5656	576.36
72.5801	631.01
72.5945	663.15
72.6089	627.03
72.6234	602.06
72.6378	584.96
72.6523	603.15
72.6667	609.56
72.6811	683.84
72.6956	641.94
72.7100	641.59
72.7245	595.40
72.7389	548.49
72.7533	541.85
72.7678	608.21
72.7822	643.33
72.7967	582.11
72.8111	613.42
72.8255	627.70
72.8400	578.06
72.8544	547.63
72.8689	611.85
72.8833	610.20