2022.09.19 19:37:16
Îáðàçåö: ß÷åéêà LCoV 16-09-2022
Lambda1 = 1.54060
Lambda2 = 1.54439
Lambdam = 1.54186
R = 0.497
2Theta	I

line¹ 0 ;repeat¹ 0
22.1120	511.83
22.1264	510.31
22.1409	499.98
22.1553	509.05
22.1697	554.85
22.1842	499.91
22.1986	554.00
22.2131	541.36
22.2275	494.60
22.2419	587.33
22.2564	517.62
22.2708	602.36
22.2853	616.78
22.2997	520.72
22.3141	583.12
22.3286	570.14
22.3430	588.47
22.3575	560.18
22.3719	627.30
22.3863	699.68
22.4008	638.67
22.4152	553.65
22.4297	641.05
22.4441	665.19
22.4585	576.25
22.4730	592.68
22.4874	659.09
22.5019	611.93
22.5163	578.96
22.5307	568.52
22.5452	604.19
22.5596	619.58
22.5741	612.31
22.5885	617.50
22.6029	651.06
22.6174	623.23
22.6318	574.81
22.6463	557.84
22.6607	551.82
22.6751	549.85
22.6896	581.86
22.7040	549.10
22.7185	540.59
22.7329	531.66
22.7473	528.35
22.7618	571.62
22.7762	545.80
22.7907	617.59
22.8051	537.65
22.8195	551.06
22.8340	597.82
22.8484	569.64
22.8629	613.67
22.8773	514.53
22.8917	497.67
22.9062	629.71
22.9206	511.74
22.9351	573.82
22.9495	521.68
22.9639	588.01
22.9784	609.30
22.9928	637.43
23.0073	590.23
23.0217	626.78
23.0361	492.81
23.0506	509.49
23.0650	475.48
23.0795	518.44
23.0939	544.17
23.1083	487.55
23.1228	571.69
23.1372	584.10
23.1517	588.02
23.1661	584.16
23.1806	557.08
23.1950	609.47
23.2094	531.15
23.2239	583.34
23.2383	557.03
23.2528	565.52
23.2672	577.34
23.2816	581.33
23.2961	564.32
23.3105	533.96
23.3250	650.39
23.3394	573.77
23.3538	590.63
23.3683	623.68
23.3827	541.13
23.3972	498.07
23.4116	463.92
23.4260	527.55
23.4405	580.56
23.4549	579.30
23.4694	614.59
23.4838	593.00
23.4982	591.06
23.5127	628.72
23.5271	612.75
23.5416	628.17
23.5560	579.96
23.5704	558.06
23.5849	502.97
23.5993	536.90
23.6138	548.71
23.6282	518.36
23.6426	515.07
23.6571	546.89
23.6715	531.34
23.6860	537.49
23.7004	497.84
23.7148	511.53
23.7293	590.30
23.7437	493.97
23.7582	540.28
23.7726	557.24
23.7870	532.41
23.8015	525.22
23.8159	523.99
23.8304	585.55
23.8448	605.62
23.8592	606.83
23.8737	594.24
23.8881	565.52
23.9026	628.80
23.9170	607.42
23.9314	514.38
23.9459	518.39
23.9603	526.53
23.9748	555.60
23.9892	613.78
24.0036	525.65
24.0181	631.91
24.0325	609.14
24.0470	632.82
24.0614	542.44
24.0758	546.72
24.0903	648.41
24.1047	519.84
24.1192	585.13
24.1336	547.48
24.1480	512.05
24.1625	586.82
24.1769	560.58
24.1914	586.07
24.2058	524.98
24.2202	511.46
24.2347	584.61
24.2491	573.67
24.2636	619.62
24.2780	597.76
24.2924	590.58
24.3069	566.03
24.3213	591.79
24.3358	575.35
24.3502	552.35
24.3646	552.00
24.3791	556.62
24.3935	511.06
24.4080	528.15
24.4224	608.74
24.4368	506.34
24.4513	534.62
24.4657	571.20
24.4802	578.10
24.4946	566.06
24.5090	600.33
24.5235	560.34
24.5379	511.36
24.5524	570.38
24.5668	613.44
24.5812	573.07
24.5957	566.08
24.6101	581.26
24.6246	539.18
24.6390	585.35
24.6534	482.13
24.6679	533.00
24.6823	519.76
24.6968	524.78
24.7112	554.92
24.7256	533.19
24.7401	522.04
24.7545	575.53
24.7690	566.38
24.7834	551.29
24.7978	543.32
24.8123	644.93
24.8267	591.68
24.8412	573.31
24.8556	543.32
24.8700	554.08
24.8845	547.31
24.8989	584.95
24.9134	560.02
24.9278	465.41
24.9422	526.40
24.9567	519.09
24.9711	491.75
24.9856	543.35
25.0000	516.35
25.0144	545.69
25.0289	546.38
25.0433	505.91
25.0578	562.44
25.0722	493.77
25.0866	548.02
25.1011	577.55
25.1155	539.04
25.1300	558.32
25.1444	499.94
25.1588	550.80
25.1733	540.79
25.1877	498.75
25.2022	531.76
25.2166	571.41
25.2310	560.37
25.2455	557.80
25.2599	531.04
25.2744	573.29
25.2888	540.66
25.3032	509.70
25.3177	502.42
25.3321	481.45
25.3466	514.93
25.3610	532.54
25.3754	566.80
25.3899	530.49
25.4043	515.82
25.4188	538.85
25.4332	585.01
25.4476	543.88
25.4621	522.23
25.4765	552.65
25.4910	562.63
25.5054	560.74
25.5198	532.72
25.5343	582.83
25.5487	591.61
25.5632	543.70
25.5776	560.71
25.5920	571.07
25.6065	576.08
25.6209	530.07
25.6354	509.47
25.6498	504.42
25.6642	542.49
25.6787	571.92
25.6931	537.53
25.7076	545.96
25.7220	509.89
25.7364	553.51
25.7509	557.16
25.7653	524.62
25.7798	500.03
25.7942	534.78
25.8086	529.43
25.8231	541.19
25.8375	505.33
25.8520	563.02
25.8664	581.11
25.8808	604.08
25.8953	579.13
25.9097	552.29
25.9242	503.32
25.9386	534.31
25.9530	530.14
25.9675	526.96
25.9819	518.01
25.9964	532.25
26.0108	518.81
26.0252	530.68
26.0397	533.41
26.0541	532.18
26.0686	523.71
26.0830	552.62
26.0974	535.96
26.1119	531.80
26.1263	552.70
26.1408	497.17
26.1552	458.05
26.1696	531.30
26.1841	531.84
26.1985	543.49
26.2130	530.23
26.2274	530.94
26.2418	534.02
26.2563	502.74
26.2707	514.26
26.2852	525.72
26.2996	531.43
26.3140	555.62
26.3285	543.84
26.3429	556.87
26.3574	533.25
26.3718	522.51
26.3862	514.30
26.4007	514.89
26.4151	503.08
26.4296	522.56
26.4440	499.38
26.4584	529.09
26.4729	537.86
26.4873	548.29
26.5018	531.47
26.5162	507.00
26.5306	512.28
26.5451	509.62
26.5595	524.55
26.5740	505.28
26.5884	503.98
26.6028	533.60
26.6173	548.94
26.6317	541.16
26.6462	528.35
26.6606	545.15
26.6750	538.37
26.6895	518.32
26.7039	545.56
26.7184	540.23
26.7328	540.17
26.7472	549.35
26.7617	528.65
26.7761	520.74
26.7906	528.13
26.8050	520.08
26.8194	520.37
26.8339	543.96
26.8483	553.91
26.8628	571.05
26.8772	535.11
26.8917	504.42
26.9061	543.91
26.9205	511.13
26.9350	524.84
26.9494	500.26
26.9639	510.79
26.9783	529.60
26.9927	508.02
27.0072	507.51
27.0216	543.30
27.0361	551.87
27.0505	548.59
27.0649	559.91
27.0794	550.27
27.0938	526.80
27.1083	538.16
27.1227	536.43
27.1371	521.58
27.1516	510.03
27.1660	521.10
27.1805	534.39
27.1949	487.12
27.2093	504.21
27.2238	535.10
27.2382	543.92
27.2527	537.18
27.2671	535.45
27.2815	536.43
27.2960	525.43
27.3104	516.63
27.3249	514.47
27.3393	536.66
27.3537	512.60
27.3682	532.34
27.3826	534.35
27.3971	513.30
27.4115	519.56
27.4259	512.23
27.4404	543.37
27.4548	521.63
27.4693	530.28
27.4837	509.39
27.4981	538.72
27.5126	476.88
27.5270	530.89
27.5415	497.44
27.5559	551.57
27.5703	502.47
27.5848	520.71
27.5992	495.00
27.6137	491.90
27.6281	508.06
27.6425	531.49
27.6570	539.68
27.6714	527.69
27.6859	556.12
27.7003	500.74
27.7147	504.28
27.7292	529.66
27.7436	550.87
27.7581	523.97
27.7725	519.69
27.7869	531.23
27.8014	525.60
27.8158	535.88
27.8303	515.18
27.8447	511.77
27.8591	529.15
27.8736	555.48
27.8880	530.37
27.9025	564.34
27.9169	504.69
27.9313	487.39
27.9458	539.64
27.9602	471.31
27.9747	565.90
27.9891	526.99
28.0035	536.14
28.0180	509.11
28.0324	516.31
28.0469	526.27
28.0613	503.05
28.0757	493.81
28.0902	527.52
28.1046	542.77
28.1191	523.07
28.1335	517.31
28.1479	500.14
28.1624	509.59
28.1768	519.86
28.1913	502.00
28.2057	499.80
28.2201	512.67
28.2346	535.07
28.2490	549.22
28.2635	498.86
28.2779	499.46
28.2923	507.39
28.3068	513.88
28.3212	475.24
28.3357	512.72
28.3501	558.24
28.3645	502.22
28.3790	475.32
28.3934	516.22
28.4079	518.14
28.4223	527.45
28.4367	519.22
28.4512	502.65
28.4656	535.86
28.4801	522.59
28.4945	545.60
28.5089	526.86
28.5234	548.51
28.5378	535.43
28.5523	501.37
28.5667	491.53
28.5811	523.04
28.5956	473.26
28.6100	528.60
28.6245	510.63
28.6389	507.73
28.6533	521.59
28.6678	508.13
28.6822	495.71
28.6967	508.73
28.7111	520.92
28.7255	524.49
28.7400	531.28
28.7544	515.11
28.7689	502.30
28.7833	522.69
28.7977	543.34
28.8122	521.58
28.8266	517.11
28.8411	508.39
28.8555	516.03
28.8699	486.55
28.8844	477.07
28.8988	501.08
28.9133	529.16
28.9277	480.63
28.9421	543.02
28.9566	497.42
28.9710	489.05
28.9855	506.86
28.9999	470.30
29.0143	486.10
29.0288	470.77
29.0432	484.62
29.0577	492.19
29.0721	516.99
29.0865	532.48
29.1010	509.16
29.1154	512.35
29.1299	542.77
29.1443	541.54
29.1587	542.64
29.1732	532.73
29.1876	513.74
29.2021	490.13
29.2165	506.17
29.2309	513.31
29.2454	525.56
29.2598	503.71
29.2743	515.09
29.2887	502.87
29.3031	512.08
29.3176	527.92
29.3320	504.23
29.3465	516.31
29.3609	493.36
29.3753	474.98
29.3898	496.32
29.4042	511.19
29.4187	533.88
29.4331	524.82
29.4475	504.66
29.4620	484.23
29.4764	489.38
29.4909	487.34
29.5053	506.68
29.5197	516.98
29.5342	514.98
29.5486	501.83
29.5631	547.71
29.5775	493.48
29.5919	478.25
29.6064	525.73
29.6208	508.02
29.6353	527.26
29.6497	506.15
29.6641	520.63
29.6786	524.81
29.6930	489.30
29.7075	518.19
29.7219	510.23
29.7363	474.72
29.7508	456.50
29.7652	527.55
29.7797	544.56
29.7941	528.00
29.8085	507.50
29.8230	480.33
29.8374	508.17
29.8519	506.75
29.8663	507.41
29.8807	513.60
29.8952	528.34
29.9096	495.29
29.9241	500.67
29.9385	528.12
29.9529	506.73
29.9674	504.97
29.9818	498.33
29.9963	547.43
30.0107	526.14
30.0251	480.46
30.0396	545.96
30.0540	515.51
30.0685	523.89
30.0829	551.17
30.0973	520.23
30.1118	523.78
30.1262	522.00
30.1407	494.17
30.1551	500.49
30.1695	511.42
30.1840	512.85
30.1984	483.39
30.2129	498.66
30.2273	516.77
30.2417	517.94
30.2562	527.12
30.2706	514.79
30.2851	524.27
30.2995	519.19
30.3139	539.65
30.3284	521.22
30.3428	523.79
30.3573	525.01
30.3717	472.32
30.3861	512.00
30.4006	497.91
30.4150	507.20
30.4295	545.88
30.4439	504.51
30.4583	483.03
30.4728	531.75
30.4872	510.76
30.5017	520.95
30.5161	508.64
30.5305	530.48
30.5450	535.51
30.5594	531.26
30.5739	513.58
30.5883	531.58
30.6028	516.46
30.6172	535.26
30.6316	562.57
30.6461	558.19
30.6605	552.16
30.6750	557.24
30.6894	561.47
30.7038	655.87
30.7183	681.31
30.7327	670.39
30.7472	700.27
30.7616	717.74
30.7760	705.30
30.7905	730.10
30.8049	768.20
30.8194	714.06
30.8338	689.08
30.8482	646.88
30.8627	671.96
30.8771	656.33
30.8916	580.94
30.9060	620.86
30.9204	595.48
30.9349	591.34
30.9493	583.72
30.9638	536.93
30.9782	506.20
30.9926	545.73
31.0071	528.01
31.0215	524.81
31.0360	495.32
31.0504	541.13
31.0648	562.57
31.0793	517.64
31.0937	520.92
31.1082	525.91
31.1226	517.67
31.1370	498.13
31.1515	483.09
31.1659	531.32
31.1804	542.52
31.1948	497.56
31.2092	512.40
31.2237	555.58
31.2381	539.14
31.2526	514.72
31.2670	522.01
31.2814	550.81
31.2959	534.52
31.3103	582.15
31.3248	569.01
31.3392	526.41
31.3536	495.16
31.3681	515.12
31.3825	522.40
31.3970	520.62
31.4114	538.76
31.4258	574.84
31.4403	525.75
31.4547	510.43
31.4692	513.43
31.4836	505.23
31.4980	491.76
31.5125	496.29
31.5269	502.11
31.5414	478.91
31.5558	486.42
31.5702	515.60
31.5847	513.61
31.5991	500.39
31.6136	528.09
31.6280	502.73
31.6424	522.63
31.6569	523.34
31.6713	519.03
31.6858	484.17
31.7002	506.27
31.7146	525.41
31.7291	489.61
31.7435	502.87
31.7580	466.42
31.7724	482.88
31.7868	488.37
31.8013	495.31
31.8157	516.30
31.8302	503.52
31.8446	497.28
31.8590	517.83
31.8735	528.02
31.8879	537.09
31.9024	553.77
31.9168	509.31
31.9312	543.48
31.9457	522.62
31.9601	503.03
31.9746	500.60
31.9890	493.54
32.0034	479.31
32.0179	545.35
32.0323	535.02
32.0468	497.47
32.0612	507.96
32.0756	545.94
32.0901	519.02
32.1045	488.45
32.1190	501.39
32.1334	512.90
32.1478	484.27
32.1623	486.97
32.1767	519.80
32.1912	489.04
32.2056	484.76
32.2200	518.27
32.2345	528.91
32.2489	541.99
32.2634	524.65
32.2778	536.66
32.2922	515.12
32.3067	501.62
32.3211	519.73
32.3356	535.64
32.3500	529.31
32.3644	509.76
32.3789	504.66
32.3933	498.89
32.4078	485.54
32.4222	503.05
32.4366	494.25
32.4511	505.93
32.4655	537.72
32.4800	559.45
32.4944	478.97
32.5088	475.90
32.5233	509.98
32.5377	518.45
32.5522	509.76
32.5666	504.52
32.5810	496.23
32.5955	499.98
32.6099	475.87
32.6244	508.32
32.6388	526.92
32.6532	521.82
32.6677	495.33
32.6821	495.78
32.6966	527.45
32.7110	528.81
32.7254	519.95
32.7399	489.80
32.7543	520.78
32.7688	515.27
32.7832	549.74
32.7976	528.53
32.8121	493.53
32.8265	467.19
32.8410	483.19
32.8554	496.28
32.8698	500.77
32.8843	525.07
32.8987	493.38
32.9132	501.96
32.9276	495.63
32.9420	517.49
32.9565	514.78
32.9709	527.12
32.9854	468.95
32.9998	490.29
33.0142	529.86
33.0287	486.18
33.0431	505.36
33.0576	525.53
33.0720	527.49
33.0864	492.19
33.1009	507.58
33.1153	484.90
33.1298	543.33
33.1442	465.67
33.1586	508.34
33.1731	491.44
33.1875	499.43
33.2020	495.54
33.2164	506.44
33.2308	520.76
33.2453	545.44
33.2597	463.19
33.2742	479.29
33.2886	511.72
33.3030	516.74
33.3175	486.99
33.3319	548.97
33.3464	516.69
33.3608	506.72
33.3752	532.41
33.3897	493.26
33.4041	476.55
33.4186	507.30
33.4330	503.23
33.4474	502.96
33.4619	556.17
33.4763	539.64
33.4908	510.17
33.5052	475.63
33.5196	553.73
33.5341	501.68
33.5485	487.36
33.5630	518.17
33.5774	483.43
33.5918	506.54
33.6063	504.75
33.6207	509.71
33.6352	485.18
33.6496	512.22
33.6640	526.54
33.6785	494.51
33.6929	498.74
33.7074	540.55
33.7218	515.69
33.7362	481.88
33.7507	486.59
33.7651	482.52
33.7796	519.13
33.7940	519.00
33.8084	491.11
33.8229	498.04
33.8373	554.13
33.8518	484.01
33.8662	483.74
33.8806	502.03
33.8951	489.37
33.9095	531.26
33.9240	509.97
33.9384	515.27
33.9528	502.11
33.9673	507.00
33.9817	497.72
33.9962	485.82
34.0106	517.54
34.0250	518.38
34.0395	475.51
34.0539	478.79
34.0684	501.72
34.0828	551.63
34.0972	579.54
34.1117	545.30
34.1261	534.40
34.1406	499.00
34.1550	479.67
34.1694	497.93
34.1839	479.42
34.1983	520.57
34.2128	494.92
34.2272	498.45
34.2417	502.06
34.2561	514.07
34.2705	503.21
34.2850	522.56
34.2994	483.03
34.3139	499.81
34.3283	513.40
34.3427	515.48
34.3572	529.54
34.3716	517.99
34.3861	509.26
34.4005	503.90
34.4149	489.06
34.4294	502.16
34.4438	467.98
34.4583	487.38
34.4727	506.96
34.4871	499.22
34.5016	479.01
34.5160	482.53
34.5305	543.24
34.5449	507.67
34.5593	492.76
34.5738	501.98
34.5882	487.39
34.6027	511.13
34.6171	540.43
34.6315	523.11
34.6460	515.66
34.6604	522.74
34.6749	508.52
34.6893	501.63
34.7037	501.56
34.7182	523.41
34.7326	512.40
34.7471	492.54
34.7615	516.19
34.7759	506.64
34.7904	481.12
34.8048	498.46
34.8193	536.06
34.8337	486.71
34.8481	481.34
34.8626	538.59
34.8770	514.58
34.8915	502.90
34.9059	549.71
34.9203	541.85
34.9348	505.95
34.9492	525.46
34.9637	499.48
34.9781	493.76
34.9925	483.72
35.0070	522.98
35.0214	529.28
35.0359	528.36
35.0503	534.78
35.0647	528.51
35.0792	503.82
35.0936	522.96
35.1081	531.44
35.1225	497.53
35.1369	481.42
35.1514	482.03
35.1658	528.54
35.1803	508.50
35.1947	503.95
35.2091	495.47
35.2236	498.28
35.2380	496.79
35.2525	490.23
35.2669	506.51
35.2813	503.80
35.2958	518.91
35.3102	515.09
35.3247	505.40
35.3391	510.79
35.3535	485.30
35.3680	501.88
35.3824	506.44
35.3969	485.38
35.4113	512.16
35.4257	559.78
35.4402	538.89
35.4546	501.06
35.4691	517.92
35.4835	543.37
35.4979	510.67
35.5124	489.15
35.5268	497.67
35.5413	545.31
35.5557	539.44
35.5701	584.17
35.5846	530.06
35.5990	529.24
35.6135	529.12
35.6279	540.39
35.6423	546.63
35.6568	552.26
35.6712	529.45
35.6857	602.81
35.7001	629.85
35.7145	686.41
35.7290	682.18
35.7434	625.22
35.7579	559.28
35.7723	579.79
35.7867	594.46
35.8012	627.27
35.8156	618.43
35.8301	589.81
35.8445	559.90
35.8589	630.75
35.8734	731.48
35.8878	862.44
35.9023	984.93
35.9167	1057.04
35.9311	1335.03
35.9456	2038.36
35.9600	2234.94
35.9745	1856.99
35.9889	1924.84
36.0033	2336.93
36.0178	2502.96
36.0322	2133.70
36.0467	1963.14
36.0611	1707.16
36.0755	1612.91
36.0900	1615.80
36.1044	1539.13
36.1189	1579.15
36.1333	1285.40
36.1477	1198.72
36.1622	1241.26
36.1766	1176.01
36.1911	1125.71
36.2055	1112.14
36.2199	1132.71
36.2344	1098.58
36.2488	1072.24
36.2633	976.68
36.2777	1021.73
36.2921	1044.45
36.3066	975.27
36.3210	938.26
36.3355	911.47
36.3499	831.41
36.3643	775.56
36.3788	732.20
36.3932	717.14
36.4077	706.75
36.4221	674.95
36.4365	632.05
36.4510	580.61
36.4654	612.70
36.4799	616.81
36.4943	602.24
36.5087	558.90
36.5232	568.14
36.5376	579.73
36.5521	545.14
36.5665	537.24
36.5809	516.03
36.5954	544.45
36.6098	545.70
36.6243	537.06
36.6387	575.16
36.6531	574.64
36.6676	555.44
36.6820	509.91
36.6965	498.25
36.7109	533.52
36.7253	511.12
36.7398	521.04
36.7542	507.10
36.7687	492.63
36.7831	560.59
36.7975	521.25
36.8120	535.94
36.8264	571.42
36.8409	602.77
36.8553	588.17
36.8697	600.57
36.8842	603.46
36.8986	613.97
36.9131	572.56
36.9275	544.81
36.9419	607.64
36.9564	548.12
36.9708	551.30
36.9853	552.96
36.9997	537.67
37.0141	579.94
37.0286	581.54
37.0430	571.64
37.0575	520.67
37.0719	516.20
37.0863	532.73
37.1008	502.03
37.1152	514.41
37.1297	558.61
37.1441	536.05
37.1585	511.43
37.1730	492.30
37.1874	500.65
37.2019	503.69
37.2163	486.57
37.2307	496.57
37.2452	489.87
37.2596	477.62
37.2741	532.04
37.2885	469.15
37.3029	527.34
37.3174	532.88
37.3318	500.33
37.3463	493.43
37.3607	499.34
37.3751	460.23
37.3896	501.92
37.4040	507.15
37.4185	530.82
37.4329	527.43
37.4473	479.10
37.4618	494.33
37.4762	496.37
37.4907	503.45
37.5051	489.65
37.5195	487.48
37.5340	532.59
37.5484	506.32
37.5629	533.40
37.5773	530.54
37.5917	513.66
37.6062	482.96
37.6206	497.77
37.6351	518.54
37.6495	511.96
37.6639	491.78
37.6784	519.43
37.6928	493.48
37.7073	519.42
37.7217	507.86
37.7361	479.65
37.7506	485.49
37.7650	527.26
37.7795	533.20
37.7939	566.93
37.8083	520.86
37.8228	523.74
37.8372	505.01
37.8517	521.72
37.8661	531.91
37.8805	528.55
37.8950	549.49
37.9094	524.62
37.9239	526.78
37.9383	536.57
37.9528	497.09
37.9672	518.28
37.9816	498.99
37.9961	504.14
38.0105	495.61
38.0250	508.48
38.0394	478.10
38.0538	511.43
38.0683	501.49
38.0827	504.17
38.0972	516.86
38.1116	511.27
38.1260	517.84
38.1405	480.68
38.1549	474.28
38.1694	512.81
38.1838	525.22
38.1982	500.96
38.2127	498.83
38.2271	517.37
38.2416	511.20
38.2560	491.14
38.2704	521.20
38.2849	525.23
38.2993	510.27
38.3138	529.28
38.3282	502.93
38.3426	513.84
38.3571	523.35
38.3715	488.65
38.3860	534.29
38.4004	538.99
38.4148	524.49
38.4293	595.81
38.4437	610.63
38.4582	621.04
38.4726	687.94
38.4870	731.80
38.5015	750.69
38.5159	763.20
38.5304	804.88
38.5448	802.65
38.5592	769.02
38.5737	766.29
38.5881	738.68
38.6026	716.80
38.6170	697.27
38.6314	730.07
38.6459	689.40
38.6603	637.54
38.6748	634.70
38.6892	562.16
38.7036	548.32
38.7181	540.76
38.7325	524.18
38.7470	548.76
38.7614	508.36
38.7758	522.45
38.7903	514.61
38.8047	527.43
38.8192	539.99
38.8336	522.21
38.8480	517.84
38.8625	510.42
38.8769	514.39
38.8914	522.47
38.9058	533.98
38.9202	519.76
38.9347	507.87
38.9491	479.52
38.9636	494.89
38.9780	490.45
38.9924	523.91
39.0069	481.60
39.0213	490.26
39.0358	514.40
39.0502	531.11
39.0646	522.63
39.0791	525.59
39.0935	547.27
39.1080	518.92
39.1224	529.27
39.1368	477.22
39.1513	493.64
39.1657	474.37
39.1802	455.82
39.1946	460.93
39.2090	517.89
39.2235	552.73
39.2379	529.17
39.2524	516.56
39.2668	497.27
39.2812	540.73
39.2957	502.15
39.3101	483.22
39.3246	497.78
39.3390	485.05
39.3534	511.98
39.3679	502.16
39.3823	500.93
39.3968	528.96
39.4112	468.46
39.4256	508.07
39.4401	514.23
39.4545	528.04
39.4690	512.18
39.4834	540.50
39.4978	493.92
39.5123	482.05
39.5267	474.17
39.5412	507.61
39.5556	522.73
39.5700	517.02
39.5845	503.82
39.5989	525.02
39.6134	518.63
39.6278	514.90
39.6422	482.55
39.6567	503.50
39.6711	496.66
39.6856	497.07
39.7000	535.21
39.7144	523.24
39.7289	498.58
39.7433	504.98
39.7578	503.66
39.7722	480.01
39.7866	502.26
39.8011	494.41
39.8155	496.19
39.8300	490.35
39.8444	501.86
39.8588	535.69
39.8733	538.98
39.8877	526.67
39.9022	546.03
39.9166	509.09
39.9310	468.59
39.9455	488.40
39.9599	474.33
39.9744	456.54
39.9888	486.23
40.0032	520.77
40.0177	479.46
40.0321	515.49
40.0466	523.23
40.0610	511.51
40.0754	506.96
40.0899	521.21
40.1043	502.50
40.1188	503.86
40.1332	495.18
40.1476	497.74
40.1621	499.71
40.1765	496.71
40.1910	472.35
40.2054	478.31
40.2198	468.81
40.2343	534.61
40.2487	522.07
40.2632	495.97
40.2776	509.17
40.2920	489.71
40.3065	479.64
40.3209	488.80
40.3354	502.82
40.3498	491.54
40.3642	487.87
40.3787	514.83
40.3931	496.87
40.4076	479.34
40.4220	508.38
40.4364	494.93
40.4509	492.29
40.4653	490.95
40.4798	549.40
40.4942	488.22
40.5086	511.13
40.5231	493.61
40.5375	526.36
40.5520	528.97
40.5664	494.75
40.5808	483.70
40.5953	506.84
40.6097	548.34
40.6242	518.52
40.6386	514.90
40.6530	492.85
40.6675	455.04
40.6819	482.99
40.6964	500.02
40.7108	494.75
40.7252	468.50
40.7397	483.22
40.7541	523.69
40.7686	530.16
40.7830	501.84
40.7974	489.63
40.8119	503.29
40.8263	518.78
40.8408	526.10
40.8552	512.56
40.8696	509.91
40.8841	490.13
40.8985	514.44
40.9130	511.09
40.9274	505.92
40.9418	504.77
40.9563	507.77
40.9707	480.43
40.9852	463.96
40.9996	494.39
41.0140	524.78
41.0285	506.33
41.0429	506.23
41.0574	522.88
41.0718	515.15
41.0862	490.81
41.1007	506.76
41.1151	486.44
41.1296	470.85
41.1440	473.45
41.1584	500.94
41.1729	510.17
41.1873	494.06
41.2018	507.72
41.2162	563.62
41.2306	471.49
41.2451	489.39
41.2595	522.79
41.2740	515.92
41.2884	488.67
41.3028	529.67
41.3173	516.02
41.3317	507.31
41.3462	464.40
41.3606	512.80
41.3750	485.79
41.3895	513.93
41.4039	482.72
41.4184	486.95
41.4328	491.47
41.4472	495.20
41.4617	485.39
41.4761	515.18
41.4906	508.79
41.5050	459.83
41.5194	483.33
41.5339	521.86
41.5483	513.64
41.5628	505.06
41.5772	501.08
41.5916	524.10
41.6061	507.14
41.6205	499.05
41.6350	536.95
41.6494	514.67
41.6639	468.27
41.6783	499.88
41.6927	513.31
41.7072	539.67
41.7216	528.58
41.7361	496.28
41.7505	479.73
41.7649	516.69
41.7794	536.40
41.7938	512.76
41.8083	527.14
41.8227	512.57
41.8371	527.50
41.8516	508.95
41.8660	511.32
41.8805	516.22
41.8949	554.71
41.9093	575.08
41.9238	536.21
41.9382	584.61
41.9527	562.24
41.9671	532.61
41.9815	552.25
41.9960	557.37
42.0104	520.27
42.0249	570.67
42.0393	579.96
42.0537	550.94
42.0682	587.00
42.0826	607.96
42.0971	569.92
42.1115	538.24
42.1259	551.65
42.1404	577.80
42.1548	642.33
42.1693	668.54
42.1837	705.40
42.1981	728.30
42.2126	829.87
42.2270	935.02
42.2415	1023.29
42.2559	1166.48
42.2703	1328.22
42.2848	1475.92
42.2992	1525.67
42.3137	1608.45
42.3281	1630.77
42.3425	1569.30
42.3570	1423.67
42.3714	1374.84
42.3859	1381.67
42.4003	1390.37
42.4147	1296.10
42.4292	1265.92
42.4436	1151.82
42.4581	1035.48
42.4725	949.47
42.4869	822.31
42.5014	742.06
42.5158	695.81
42.5303	649.56
42.5447	651.58
42.5591	650.32
42.5736	579.96
42.5880	560.12
42.6025	565.68
42.6169	546.09
42.6313	536.64
42.6458	529.43
42.6602	510.30
42.6747	486.70
42.6891	528.54
42.7035	547.85
42.7180	522.93
42.7324	519.60
42.7469	535.59
42.7613	542.86
42.7757	545.70
42.7902	526.24
42.8046	505.79
42.8191	502.51
42.8335	526.54
42.8479	517.97
42.8624	487.89
42.8768	505.67
42.8913	510.74
42.9057	516.39
42.9201	526.40
42.9346	507.07
42.9490	500.34
42.9635	489.91
42.9779	524.14
42.9923	540.97
43.0068	517.56
43.0212	515.10
43.0357	523.11
43.0501	496.23
43.0645	507.78
43.0790	533.71
43.0934	541.95
43.1079	493.58
43.1223	510.89
43.1367	506.53
43.1512	482.05
43.1656	509.36
43.1801	524.68
43.1945	504.19
43.2089	503.37
43.2234	531.61
43.2378	561.08
43.2523	516.96
43.2667	517.07
43.2811	517.26
43.2956	486.48
43.3100	533.39
43.3245	536.65
43.3389	527.06
43.3533	524.70
43.3678	526.64
43.3822	510.53
43.3967	481.33
43.4111	482.43
43.4255	550.89
43.4400	538.36
43.4544	508.99
43.4689	532.54
43.4833	519.17
43.4977	495.38
43.5122	515.70
43.5266	496.56
43.5411	516.30
43.5555	522.53
43.5699	516.84
43.5844	525.31
43.5988	519.82
43.6133	485.08
43.6277	525.28
43.6421	505.19
43.6566	528.31
43.6710	500.89
43.6855	490.08
43.6999	523.90
43.7143	537.40
43.7288	508.67
43.7432	530.75
43.7577	531.80
43.7721	518.99
43.7865	520.17
43.8010	497.96
43.8154	529.38
43.8299	533.41
43.8443	510.28
43.8587	518.63
43.8732	561.56
43.8876	518.35
43.9021	553.11
43.9165	537.86
43.9309	545.83
43.9454	556.02
43.9598	543.47
43.9743	566.17
43.9887	606.28
44.0031	605.67
44.0176	670.27
44.0320	629.75
44.0465	621.00
44.0609	652.56
44.0753	629.92
44.0898	604.97
44.1042	603.61
44.1187	601.57
44.1331	603.46
44.1475	555.75
44.1620	555.41
44.1764	570.40
44.1909	566.99
44.2053	584.53
44.2197	562.08
44.2342	581.15
44.2486	545.72
44.2631	530.96
44.2775	547.16
44.2919	495.67
44.3064	522.61
44.3208	545.38
44.3353	597.42
44.3497	561.47
44.3641	554.49
44.3786	559.67
44.3930	516.26
44.4075	576.36
44.4219	576.81
44.4363	558.07
44.4508	559.06
44.4652	612.66
44.4797	609.10
44.4941	580.41
44.5085	569.51
44.5230	555.01
44.5374	610.12
44.5519	600.38
44.5663	598.00
44.5807	564.99
44.5952	591.33
44.6096	591.80
44.6241	559.90
44.6385	595.45
44.6529	573.43
44.6674	583.34
44.6818	600.74
44.6963	617.06
44.7107	695.59
44.7251	715.82
44.7396	754.51
44.7540	834.47
44.7685	874.35
44.7829	924.08
44.7973	914.93
44.8118	869.06
44.8262	809.98
44.8407	741.50
44.8551	751.00
44.8695	728.66
44.8840	728.21
44.8984	774.65
44.9129	738.35
44.9273	703.65
44.9417	694.57
44.9562	612.22
44.9706	545.20
44.9851	586.05
44.9995	545.66
45.0139	507.22
45.0284	534.69
45.0428	518.20
45.0573	503.07
45.0717	520.16
45.0861	500.32
45.1006	521.00
45.1150	495.84
45.1295	504.36
45.1439	501.80
45.1583	529.37
45.1728	520.40
45.1872	490.05
45.2017	483.47
45.2161	523.44
45.2305	542.22
45.2450	512.75
45.2594	496.80
45.2739	509.75
45.2883	475.37
45.3028	493.86
45.3172	523.07
45.3316	498.74
45.3461	491.53
45.3605	506.22
45.3750	474.92
45.3894	497.58
45.4038	478.17
45.4183	487.44
45.4327	509.20
45.4472	482.89
45.4616	532.36
45.4760	543.20
45.4905	518.77
45.5049	484.07
45.5194	492.68
45.5338	514.41
45.5482	513.41
45.5627	521.14
45.5771	509.41
45.5916	473.50
45.6060	486.88
45.6204	482.39
45.6349	487.77
45.6493	512.56
45.6638	514.86
45.6782	507.00
45.6926	481.03
45.7071	531.84
45.7215	514.49
45.7360	503.85
45.7504	493.80
45.7648	512.31
45.7793	553.35
45.7937	521.98
45.8082	512.42
45.8226	536.73
45.8370	520.84
45.8515	504.17
45.8659	528.38
45.8804	483.84
45.8948	477.39
45.9092	513.60
45.9237	523.59
45.9381	517.19
45.9526	467.55
45.9670	453.56
45.9814	477.39
45.9959	477.52
46.0103	467.26
46.0248	518.12
46.0392	511.00
46.0536	507.19
46.0681	507.71
46.0825	504.60
46.0970	511.62
46.1114	522.46
46.1258	523.87
46.1403	478.75
46.1547	479.40
46.1692	513.22
46.1836	508.40
46.1980	504.40
46.2125	529.40
46.2269	519.04
46.2414	499.38
46.2558	494.93
46.2702	502.30
46.2847	482.50
46.2991	471.97
46.3136	490.75
46.3280	527.94
46.3424	517.34
46.3569	483.02
46.3713	487.50
46.3858	483.80
46.4002	469.56
46.4146	513.93
46.4291	548.26
46.4435	518.02
46.4580	472.40
46.4724	512.06
46.4868	466.72
46.5013	455.59
46.5157	485.36
46.5302	517.51
46.5446	528.61
46.5590	522.54
46.5735	519.33
46.5879	515.09
46.6024	507.30
46.6168	471.54
46.6312	463.63
46.6457	494.86
46.6601	493.68
46.6746	508.84
46.6890	484.27
46.7034	479.70
46.7179	502.09
46.7323	510.20
46.7468	535.91
46.7612	493.39
46.7756	489.47
46.7901	524.61
46.8045	522.78
46.8190	500.65
46.8334	512.54
46.8478	514.88
46.8623	522.06
46.8767	489.89
46.8912	532.10
46.9056	553.27
46.9200	540.66
46.9345	503.29
46.9489	504.48
46.9634	500.94
46.9778	508.62
46.9922	519.72
47.0067	497.01
47.0211	509.79
47.0356	529.77
47.0500	526.37
47.0644	546.52
47.0789	544.08
47.0933	528.89
47.1078	514.17
47.1222	517.33
47.1366	504.26
47.1511	502.73
47.1655	514.36
47.1800	487.14
47.1944	463.10
47.2088	523.57
47.2233	532.99
47.2377	519.83
47.2522	510.51
47.2666	493.46
47.2810	495.41
47.2955	495.63
47.3099	498.69
47.3244	511.45
47.3388	500.55
47.3532	500.81
47.3677	496.51
47.3821	498.61
47.3966	467.14
47.4110	506.93
47.4254	507.28
47.4399	507.22
47.4543	531.26
47.4688	506.16
47.4832	512.95
47.4976	493.51
47.5121	503.88
47.5265	537.98
47.5410	532.97
47.5554	501.45
47.5698	500.23
47.5843	521.91
47.5987	509.17
47.6132	489.15
47.6276	516.33
47.6420	529.68
47.6565	502.87
47.6709	492.85
47.6854	499.00
47.6998	474.42
47.7142	540.66
47.7287	501.55
47.7431	480.01
47.7576	492.39
47.7720	481.23
47.7864	475.62
47.8009	502.94
47.8153	489.72
47.8298	503.36
47.8442	501.98
47.8586	485.87
47.8731	503.84
47.8875	524.43
47.9020	538.12
47.9164	532.58
47.9308	525.93
47.9453	486.90
47.9597	509.80
47.9742	499.11
47.9886	523.39
48.0030	534.61
48.0175	489.96
48.0319	489.63
48.0464	517.47
48.0608	520.29
48.0752	492.73
48.0897	502.90
48.1041	486.83
48.1186	486.98
48.1330	529.20
48.1474	480.35
48.1619	512.79
48.1763	536.12
48.1908	493.59
48.2052	507.41
48.2196	499.06
48.2341	486.31
48.2485	505.85
48.2630	505.86
48.2774	493.66
48.2918	505.67
48.3063	503.86
48.3207	510.78
48.3352	530.39
48.3496	492.52
48.3640	519.71
48.3785	497.62
48.3929	514.85
48.4074	525.61
48.4218	518.69
48.4362	552.71
48.4507	471.66
48.4651	493.90
48.4796	538.99
48.4940	555.88
48.5084	489.80
48.5229	503.26
48.5373	515.20
48.5518	530.77
48.5662	523.93
48.5806	518.18
48.5951	516.57
48.6095	516.44
48.6240	504.24
48.6384	523.99
48.6528	517.76
48.6673	520.61
48.6817	529.51
48.6962	539.40
48.7106	511.65
48.7250	533.94
48.7395	476.36
48.7539	508.25
48.7684	529.37
48.7828	511.30
48.7972	519.16
48.8117	531.07
48.8261	542.90
48.8406	516.12
48.8550	536.37
48.8694	538.25
48.8839	515.20
48.8983	561.44
48.9128	544.35
48.9272	532.96
48.9416	520.69
48.9561	531.56
48.9705	536.79
48.9850	597.93
48.9994	589.29
49.0139	564.50
49.0283	584.26
49.0427	623.16
49.0572	627.01
49.0716	668.29
49.0861	656.51
49.1005	739.59
49.1149	707.07
49.1294	695.20
49.1438	731.91
49.1583	800.12
49.1727	843.69
49.1871	879.72
49.2016	953.86
49.2160	981.49
49.2305	1081.75
49.2449	1149.47
49.2593	1245.64
49.2738	1315.14
49.2882	1470.99
49.3027	1516.13
49.3171	1588.56
49.3315	1688.75
49.3460	1759.62
49.3604	1763.33
49.3749	1706.79
49.3893	1731.91
49.4037	1785.79
49.4182	1752.35
49.4326	1701.97
49.4471	1599.13
49.4615	1583.02
49.4759	1570.56
49.4904	1478.67
49.5048	1386.01
49.5193	1355.48
49.5337	1262.03
49.5481	1229.35
49.5626	1167.21
49.5770	1034.92
49.5915	978.88
49.6059	945.64
49.6203	827.32
49.6348	790.22
49.6492	745.23
49.6637	729.80
49.6781	718.75
49.6925	668.50
49.7070	684.47
49.7214	662.58
49.7359	613.56
49.7503	654.66
49.7647	617.46
49.7792	566.10
49.7936	565.66
49.8081	560.32
49.8225	572.86
49.8369	559.53
49.8514	571.71
49.8658	536.27
49.8803	542.91
49.8947	589.20
49.9091	567.02
49.9236	551.43
49.9380	551.43
49.9525	518.08
49.9669	514.46
49.9813	542.78
49.9958	513.49
50.0102	524.25
50.0247	552.24
50.0391	552.67
50.0535	513.32
50.0680	509.67
50.0824	539.77
50.0969	545.11
50.1113	494.98
50.1257	521.21
50.1402	501.76
50.1546	499.47
50.1691	539.36
50.1835	540.38
50.1979	511.68
50.2124	516.09
50.2268	495.27
50.2413	531.68
50.2557	570.42
50.2701	551.12
50.2846	513.12
50.2990	502.64
50.3135	523.26
50.3279	502.16
50.3423	488.62
50.3568	508.66
50.3712	546.09
50.3857	516.69
50.4001	510.32
50.4145	513.71
50.4290	503.17
50.4434	511.04
50.4579	512.64
50.4723	509.11
50.4867	573.77
50.5012	528.82
50.5156	457.05
50.5301	484.69
50.5445	521.23
50.5589	527.08
50.5734	492.33
50.5878	506.38
50.6023	527.45
50.6167	510.98
50.6311	535.00
50.6456	502.61
50.6600	515.39
50.6745	500.29
50.6889	515.79
50.7033	513.58
50.7178	502.21
50.7322	494.44
50.7467	501.63
50.7611	521.09
50.7755	520.97
50.7900	504.92
50.8044	496.16
50.8189	494.16
50.8333	514.68
50.8477	515.39
50.8622	520.35
50.8766	512.29
50.8911	501.63
50.9055	501.54
50.9199	494.50
50.9344	516.54
50.9488	526.14
50.9633	497.44
50.9777	483.66
50.9921	513.31
51.0066	498.19
51.0210	495.78
51.0355	500.46
51.0499	548.44
51.0643	531.88
51.0788	518.61
51.0932	521.25
51.1077	507.48
51.1221	524.07
51.1365	503.59
51.1510	494.67
51.1654	475.88
51.1799	510.23
51.1943	534.69
51.2087	504.83
51.2232	521.79
51.2376	514.60
51.2521	512.65
51.2665	503.60
51.2809	525.07
51.2954	514.67
51.3098	516.80
51.3243	498.26
51.3387	535.79
51.3531	517.90
51.3676	489.76
51.3820	506.85
51.3965	504.70
51.4109	491.10
51.4253	523.78
51.4398	511.10
51.4542	505.85
51.4687	526.37
51.4831	470.51
51.4975	502.18
51.5120	542.48
51.5264	533.24
51.5409	503.15
51.5553	516.78
51.5697	530.44
51.5842	518.57
51.5986	515.08
51.6131	526.88
51.6275	510.01
51.6419	518.18
51.6564	495.82
51.6708	492.01
51.6853	504.55
51.6997	490.97
51.7141	517.71
51.7286	503.94
51.7430	481.87
51.7575	468.36
51.7719	518.96
51.7863	511.47
51.8008	509.39
51.8152	481.80
51.8297	511.99
51.8441	515.43
51.8585	500.61
51.8730	536.31
51.8874	500.22
51.9019	550.55
51.9163	539.33
51.9307	486.17
51.9452	532.95
51.9596	509.64
51.9741	506.89
51.9885	490.49
52.0029	456.02
52.0174	520.83
52.0318	528.17
52.0463	490.06
52.0607	511.89
52.0751	517.70
52.0896	532.08
52.1040	545.82
52.1185	524.16
52.1329	509.81
52.1473	506.97
52.1618	519.86
52.1762	515.43
52.1907	477.87
52.2051	478.15
52.2195	508.13
52.2340	506.04
52.2484	533.66
52.2629	490.22
52.2773	489.24
52.2917	514.80
52.3062	543.97
52.3206	480.25
52.3351	528.79
52.3495	537.56
52.3639	537.50
52.3784	491.30
52.3928	510.01
52.4073	498.65
52.4217	526.14
52.4361	518.18
52.4506	467.90
52.4650	526.36
52.4795	559.28
52.4939	525.79
52.5083	489.73
52.5228	502.04
52.5372	503.72
52.5517	500.53
52.5661	507.63
52.5805	496.71
52.5950	524.85
52.6094	508.69
52.6239	498.79
52.6383	509.58
52.6527	516.53
52.6672	521.70
52.6816	530.40
52.6961	514.67
52.7105	491.57
52.7250	524.25
52.7394	520.73
52.7538	519.29
52.7683	509.53
52.7827	486.10
52.7972	482.56
52.8116	471.40
52.8260	512.18
52.8405	510.17
52.8549	515.93
52.8694	491.00
52.8838	484.21
52.8982	504.70
52.9127	511.59
52.9271	517.28
52.9416	522.93
52.9560	496.00
52.9704	507.77
52.9849	543.64
52.9993	525.66
53.0138	492.43
53.0282	510.15
53.0426	464.84
53.0571	533.40
53.0715	514.07
53.0860	553.90
53.1004	512.19
53.1148	489.54
53.1293	476.25
53.1437	462.60
53.1582	482.39
53.1726	513.43
53.1870	498.68
53.2015	501.94
53.2159	529.30
53.2304	489.93
53.2448	496.60
53.2592	540.11
53.2737	514.09
53.2881	529.61
53.3026	531.20
53.3170	506.77
53.3314	505.61
53.3459	492.19
53.3603	498.57
53.3748	471.72
53.3892	527.54
53.4036	512.46
53.4181	497.09
53.4325	512.71
53.4470	494.51
53.4614	518.09
53.4758	516.00
53.4903	513.01
53.5047	514.08
53.5192	495.19
53.5336	506.92
53.5480	515.71
53.5625	526.02
53.5769	511.64
53.5914	527.38
53.6058	517.75
53.6202	482.50
53.6347	500.49
53.6491	483.83
53.6636	490.11
53.6780	517.23
53.6924	535.50
53.7069	537.24
53.7213	513.89
53.7358	520.14
53.7502	542.05
53.7646	525.32
53.7791	486.47
53.7935	493.16
53.8080	504.67
53.8224	510.65
53.8368	513.78
53.8513	526.33
53.8657	505.04
53.8802	484.00
53.8946	504.58
53.9090	530.49
53.9235	496.74
53.9379	505.94
53.9524	484.87
53.9668	475.01
53.9812	501.93
53.9957	514.69
54.0101	518.22
54.0246	504.95
54.0390	536.73
54.0534	517.19
54.0679	529.19
54.0823	502.50
54.0968	533.34
54.1112	541.79
54.1256	567.49
54.1401	527.44
54.1545	523.57
54.1690	524.29
54.1834	490.11
54.1978	510.66
54.2123	537.53
54.2267	503.49
54.2412	499.43
54.2556	498.05
54.2700	494.07
54.2845	494.27
54.2989	529.99
54.3134	488.24
54.3278	517.21
54.3422	524.48
54.3567	557.41
54.3711	548.36
54.3856	542.35
54.4000	534.32
54.4144	506.81
54.4289	526.76
54.4433	535.89
54.4578	571.99
54.4722	537.70
54.4866	557.23
54.5011	513.72
54.5155	558.53
54.5300	518.73
54.5444	541.53
54.5588	557.40
54.5733	552.71
54.5877	577.65
54.6022	566.19
54.6166	559.41
54.6310	559.92
54.6455	556.91
54.6599	552.79
54.6744	585.54
54.6888	610.86
54.7032	601.85
54.7177	606.05
54.7321	572.35
54.7466	548.29
54.7610	571.27
54.7754	551.28
54.7899	564.51
54.8043	569.89
54.8188	557.48
54.8332	561.39
54.8476	535.48
54.8621	564.07
54.8765	606.11
54.8910	566.73
54.9054	561.92
54.9198	536.14
54.9343	542.24
54.9487	578.27
54.9632	536.26
54.9776	544.30
54.9920	536.69
55.0065	536.01
55.0209	532.26
55.0354	504.17
55.0498	523.31
55.0642	562.16
55.0787	550.55
55.0931	530.42
55.1076	505.33
55.1220	535.36
55.1364	534.58
55.1509	524.76
55.1653	500.60
55.1798	500.45
55.1942	512.15
55.2086	524.21
55.2231	532.40
55.2375	540.27
55.2520	537.13
55.2664	521.60
55.2808	521.72
55.2953	520.64
55.3097	531.88
55.3242	518.52
55.3386	494.29
55.3530	526.00
55.3675	508.27
55.3819	512.52
55.3964	492.44
55.4108	519.35
55.4252	556.09
55.4397	536.72
55.4541	545.53
55.4686	573.42
55.4830	524.47
55.4974	517.86
55.5119	497.57
55.5263	504.10
55.5408	532.33
55.5552	525.92
55.5696	499.38
55.5841	489.16
55.5985	530.87
55.6130	506.63
55.6274	508.86
55.6418	540.20
55.6563	521.33
55.6707	521.10
55.6852	509.06
55.6996	518.79
55.7140	529.99
55.7285	536.32
55.7429	508.18
55.7574	545.80
55.7718	552.96
55.7862	566.92
55.8007	541.21
55.8151	530.35
55.8296	534.55
55.8440	514.05
55.8584	508.11
55.8729	521.36
55.8873	510.96
55.9018	527.80
55.9162	518.24
55.9306	531.91
55.9451	512.91
55.9595	536.38
55.9740	508.99
55.9884	514.83
56.0028	535.78
56.0173	575.81
56.0317	551.76
56.0462	537.10
56.0606	562.07
56.0750	548.60
56.0895	557.18
56.1039	508.46
56.1184	534.95
56.1328	546.68
56.1472	502.23
56.1617	496.79
56.1761	516.21
56.1906	503.07
56.2050	485.31
56.2194	502.50
56.2339	508.25
56.2483	511.80
56.2628	543.56
56.2772	524.04
56.2916	521.46
56.3061	565.55
56.3205	515.79
56.3350	484.21
56.3494	480.76
56.3639	521.66
56.3783	500.24
56.3927	497.57
56.4072	517.13
56.4216	514.25
56.4361	543.37
56.4505	503.93
56.4649	553.93
56.4794	536.08
56.4938	544.12
56.5083	510.08
56.5227	496.53
56.5371	508.90
56.5516	485.73
56.5660	514.04
56.5805	509.26
56.5949	504.10
56.6093	507.70
56.6238	517.32
56.6382	531.28
56.6527	500.62
56.6671	513.85
56.6815	513.18
56.6960	519.17
56.7104	537.55
56.7249	516.26
56.7393	535.15
56.7537	532.08
56.7682	521.20
56.7826	522.97
56.7971	508.06
56.8115	479.38
56.8259	550.49
56.8404	528.95
56.8548	508.83
56.8693	539.76
56.8837	542.52
56.8981	540.09
56.9126	534.02
56.9270	515.06
56.9415	540.36
56.9559	498.01
56.9703	535.10
56.9848	518.52
56.9992	528.24
57.0137	576.74
57.0281	532.09
57.0425	481.42
57.0570	486.15
57.0714	497.47
57.0859	521.13
57.1003	493.28
57.1147	530.57
57.1292	549.19
57.1436	506.73
57.1581	513.43
57.1725	511.07
57.1869	505.00
57.2014	460.93
57.2158	536.29
57.2303	532.50
57.2447	518.61
57.2591	514.88
57.2736	542.81
57.2880	537.19
57.3025	492.34
57.3169	491.07
57.3313	548.66
57.3458	504.38
57.3602	534.32
57.3747	568.73
57.3891	521.49
57.4035	524.79
57.4180	508.86
57.4324	505.14
57.4469	481.22
57.4613	518.53
57.4757	520.39
57.4902	537.63
57.5046	527.85
57.5191	497.83
57.5335	531.74
57.5479	498.33
57.5624	503.60
57.5768	510.16
57.5913	506.28
57.6057	524.54
57.6201	540.60
57.6346	534.06
57.6490	533.70
57.6635	501.47
57.6779	524.87
57.6923	530.05
57.7068	524.25
57.7212	543.15
57.7357	538.54
57.7501	551.75
57.7645	499.96
57.7790	545.65
57.7934	530.41
57.8079	538.53
57.8223	532.74
57.8367	536.57
57.8512	494.97
57.8656	544.22
57.8801	556.68
57.8945	531.59
57.9089	529.89
57.9234	533.92
57.9378	538.96
57.9523	553.77
57.9667	534.86
57.9811	514.55
57.9956	515.73
58.0100	532.53
58.0245	533.72
58.0389	546.09
58.0533	540.52
58.0678	572.45
58.0822	570.21
58.0967	549.77
58.1111	541.28
58.1255	582.67
58.1400	584.36
58.1544	581.56
58.1689	553.01
58.1833	577.00
58.1977	543.49
58.2122	576.27
58.2266	626.35
58.2411	648.56
58.2555	628.96
58.2699	644.55
58.2844	665.37
58.2988	663.18
58.3133	673.76
58.3277	710.80
58.3421	719.07
58.3566	673.66
58.3710	656.43
58.3855	621.79
58.3999	663.87
58.4143	642.39
58.4288	695.52
58.4432	635.91
58.4577	618.12
58.4721	599.49
58.4865	593.77
58.5010	624.95
58.5154	596.21
58.5299	586.53
58.5443	566.87
58.5587	589.39
58.5732	577.90
58.5876	566.10
58.6021	567.01
58.6165	540.48
58.6309	568.18
58.6454	528.26
58.6598	535.65
58.6743	539.76
58.6887	573.19
58.7031	577.89
58.7176	556.13
58.7320	524.49
58.7465	532.13
58.7609	515.92
58.7753	547.43
58.7898	550.20
58.8042	540.46
58.8187	539.14
58.8331	541.53
58.8475	545.96
58.8620	546.00
58.8764	528.69
58.8909	519.25
58.9053	542.82
58.9197	553.13
58.9342	556.79
58.9486	559.58
58.9631	516.39
58.9775	503.52
58.9919	488.44
59.0064	500.82
59.0208	529.62
59.0353	520.42
59.0497	523.72
59.0641	567.08
59.0786	561.04
59.0930	572.72
59.1075	544.51
59.1219	536.25
59.1363	537.04
59.1508	540.18
59.1652	556.49
59.1797	544.02
59.1941	503.65
59.2085	552.46
59.2230	554.29
59.2374	559.83
59.2519	520.89
59.2663	541.13
59.2807	560.15
59.2952	530.95
59.3096	545.95
59.3241	573.16
59.3385	572.42
59.3529	564.22
59.3674	534.50
59.3818	584.66
59.3963	552.67
59.4107	577.44
59.4251	554.75
59.4396	555.51
59.4540	563.95
59.4685	573.73
59.4829	590.86
59.4973	543.70
59.5118	556.99
59.5262	566.74
59.5407	609.67
59.5551	561.77
59.5695	592.54
59.5840	558.29
59.5984	540.10
59.6129	587.05
59.6273	554.43
59.6417	558.18
59.6562	502.05
59.6706	554.85
59.6851	560.28
59.6995	554.33
59.7139	563.81
59.7284	560.30
59.7428	562.63
59.7573	574.91
59.7717	545.86
59.7861	537.17
59.8006	529.13
59.8150	592.80
59.8295	569.91
59.8439	528.63
59.8583	556.77
59.8728	519.11
59.8872	511.99
59.9017	549.12
59.9161	562.37
59.9305	526.66
59.9450	550.44
59.9594	543.66
59.9739	516.49
59.9883	527.47
60.0027	539.52
60.0172	499.11
60.0316	486.44
60.0461	542.08
60.0605	561.47
60.0750	560.06
60.0894	544.91
60.1038	530.35
60.1183	556.65
60.1327	523.48
60.1472	512.62
60.1616	555.11
60.1760	515.23
60.1905	537.29
60.2049	529.88
60.2194	527.31
60.2338	550.91
60.2482	549.02
60.2627	565.54
60.2771	511.64
60.2916	522.34
60.3060	534.58
60.3204	545.38
60.3349	543.42
60.3493	537.37
60.3638	546.67
60.3782	533.79
60.3926	518.91
60.4071	564.05
60.4215	523.98
60.4360	522.11
60.4504	526.62
60.4648	566.75
60.4793	538.03
60.4937	541.56
60.5082	511.88
60.5226	552.04
60.5370	556.08
60.5515	526.37
60.5659	523.98
60.5804	533.41
60.5948	501.53
60.6092	518.49
60.6237	544.36
60.6381	549.51
60.6526	514.79
60.6670	501.82
60.6814	545.30
60.6959	509.16
60.7103	574.89
60.7248	543.61
60.7392	529.58
60.7536	533.92
60.7681	534.66
60.7825	559.56
60.7970	562.66
60.8114	555.13
60.8258	548.33
60.8403	496.58
60.8547	568.96
60.8692	578.69
60.8836	537.79
60.8980	559.33
60.9125	560.42
60.9269	542.31
60.9414	540.46
60.9558	560.19
60.9702	539.05
60.9847	544.86
60.9991	568.32
61.0136	562.96
61.0280	552.79
61.0424	551.91
61.0569	569.17
61.0713	540.65
61.0858	569.82
61.1002	529.60
61.1146	558.61
61.1291	552.47
61.1435	560.18
61.1580	558.38
61.1724	569.01
61.1868	577.05
61.2013	598.68
61.2157	544.44
61.2302	527.10
61.2446	511.81
61.2590	559.94
61.2735	559.75
61.2879	564.62
61.3024	585.41
61.3168	530.25
61.3312	526.00
61.3457	575.69
61.3601	524.34
61.3746	554.92
61.3890	557.81
61.4034	544.27
61.4179	519.51
61.4323	563.10
61.4468	536.69
61.4612	569.00
61.4756	581.55
61.4901	569.56
61.5045	520.69
61.5190	543.05
61.5334	499.89
61.5478	548.53
61.5623	523.23
61.5767	516.66
61.5912	543.61
61.6056	558.86
61.6200	551.40
61.6345	581.51
61.6489	533.51
61.6634	532.99
61.6778	527.94
61.6922	518.57
61.7067	521.75
61.7211	581.28
61.7356	521.76
61.7500	535.38
61.7644	531.33
61.7789	554.56
61.7933	548.45
61.8078	573.65
61.8222	552.69
61.8366	547.48
61.8511	539.88
61.8655	538.75
61.8800	533.27
61.8944	488.25
61.9088	548.45
61.9233	548.56
61.9377	506.67
61.9522	508.91
61.9666	502.38
61.9810	528.11
61.9955	530.25
62.0099	533.56
62.0244	557.21
62.0388	523.19
62.0532	512.21
62.0677	551.75
62.0821	540.99
62.0966	512.54
62.1110	528.88
62.1254	532.95
62.1399	515.52
62.1543	537.80
62.1688	512.99
62.1832	535.26
62.1976	516.36
62.2121	539.77
62.2265	544.29
62.2410	562.71
62.2554	547.04
62.2698	580.07
62.2843	556.17
62.2987	539.48
62.3132	534.45
62.3276	566.64
62.3420	551.62
62.3565	546.60
62.3709	558.62
62.3854	521.19
62.3998	519.80
62.4142	560.87
62.4287	554.70
62.4431	556.51
62.4576	581.01
62.4720	587.12
62.4864	565.92
62.5009	539.86
62.5153	569.02
62.5298	559.73
62.5442	548.25
62.5586	555.47
62.5731	571.64
62.5875	551.32
62.6020	576.11
62.6164	566.26
62.6308	546.04
62.6453	535.99
62.6597	573.17
62.6742	574.09
62.6886	536.90
62.7030	546.04
62.7175	566.30
62.7319	523.28
62.7464	534.37
62.7608	535.84
62.7752	561.17
62.7897	597.32
62.8041	568.20
62.8186	557.98
62.8330	594.34
62.8474	560.56
62.8619	565.86
62.8763	590.16
62.8908	547.61
62.9052	532.67
62.9196	561.90
62.9341	561.94
62.9485	561.08
62.9630	560.70
62.9774	577.94
62.9918	580.97
63.0063	584.82
63.0207	581.02
63.0352	555.69
63.0496	574.64
63.0640	573.84
63.0785	568.83
63.0929	557.61
63.1074	585.95
63.1218	575.27
63.1362	574.50
63.1507	588.38
63.1651	598.06
63.1796	555.38
63.1940	558.46
63.2084	570.79
63.2229	586.14
63.2373	562.85
63.2518	559.34
63.2662	550.06
63.2806	563.01
63.2951	605.58
63.3095	595.99
63.3240	607.62
63.3384	585.71
63.3528	595.73
63.3673	570.20
63.3817	564.69
63.3962	575.24
63.4106	543.52
63.4250	591.83
63.4395	592.12
63.4539	540.19
63.4684	571.87
63.4828	589.58
63.4972	600.05
63.5117	582.17
63.5261	612.08
63.5406	602.93
63.5550	626.17
63.5694	615.05
63.5839	580.49
63.5983	602.70
63.6128	609.25
63.6272	586.26
63.6416	598.38
63.6561	612.71
63.6705	591.39
63.6850	606.64
63.6994	588.08
63.7138	621.97
63.7283	595.23
63.7427	595.44
63.7572	558.45
63.7716	612.23
63.7861	669.09
63.8005	626.29
63.8149	644.19
63.8294	642.92
63.8438	642.85
63.8583	657.17
63.8727	671.80
63.8871	658.79
63.9016	679.18
63.9160	675.43
63.9305	723.04
63.9449	737.06
63.9593	732.43
63.9738	797.42
63.9882	768.78
64.0027	782.38
64.0171	823.48
64.0315	841.34
64.0460	869.72
64.0604	825.14
64.0749	831.76
64.0893	799.22
64.1037	818.41
64.1182	802.70
64.1326	781.61
64.1471	756.72
64.1615	764.46
64.1759	796.95
64.1904	790.13
64.2048	788.07
64.2193	753.29
64.2337	765.86
64.2481	790.69
64.2626	731.22
64.2770	724.49
64.2915	713.07
64.3059	732.83
64.3203	665.99
64.3348	664.45
64.3492	661.16
64.3637	674.74
64.3781	647.98
64.3925	616.69
64.4070	659.71
64.4214	656.19
64.4359	643.76
64.4503	652.12
64.4647	654.23
64.4792	649.40
64.4936	646.31
64.5081	636.14
64.5225	646.47
64.5369	653.54
64.5514	642.80
64.5658	638.21
64.5803	657.72
64.5947	646.12
64.6091	645.48
64.6236	651.37
64.6380	661.00
64.6525	646.53
64.6669	690.80
64.6813	681.24
64.6958	718.60
64.7102	726.50
64.7247	675.72
64.7391	677.84
64.7535	708.78
64.7680	686.30
64.7824	709.83
64.7969	775.11
64.8113	795.39
64.8257	791.39
64.8402	811.17
64.8546	823.51
64.8691	849.37
64.8835	856.77
64.8979	848.69
64.9124	927.95
64.9268	836.37
64.9413	899.45
64.9557	939.85
64.9701	1009.80
64.9846	1078.51
64.9990	1165.17
65.0135	1414.89
65.0279	1516.32
65.0423	1731.59
65.0568	2213.73
65.0712	2750.43
65.0857	3615.12
65.1001	4693.07
65.1145	6276.53
65.1290	8339.41
65.1434	9958.11
65.1579	11478.87
65.1723	12055.14
65.1867	11101.60
65.2012	9795.59
65.2156	8210.62
65.2301	6416.62
65.2445	5147.59
65.2589	4324.81
65.2734	4149.36
65.2878	4552.05
65.3023	5223.11
65.3167	5914.00
65.3311	6697.48
65.3456	7059.19
65.3600	6976.89
65.3745	6430.62
65.3889	5320.10
65.4033	4315.22
65.4178	3373.40
65.4322	2734.97
65.4467	2041.22
65.4611	1695.99
65.4755	1450.97
65.4900	1290.50
65.5044	1158.41
65.5189	1037.57
65.5333	979.40
65.5477	913.60
65.5622	885.42
65.5766	860.29
65.5911	822.72
65.6055	826.83
65.6199	782.38
65.6344	772.53
65.6488	776.11
65.6633	763.88
65.6777	727.54
65.6921	720.46
65.7066	744.81
65.7210	719.06
65.7355	662.61
65.7499	698.33
65.7643	653.22
65.7788	666.22
65.7932	677.72
65.8077	703.39
65.8221	664.57
65.8365	676.60
65.8510	668.81
65.8654	672.95
65.8799	655.98
65.8943	671.79
65.9087	651.69
65.9232	653.31
65.9376	659.26
65.9521	667.21
65.9665	646.98
65.9809	582.25
65.9954	625.23
66.0098	657.71
66.0243	665.31
66.0387	684.08
66.0531	639.86
66.0676	637.94
66.0820	618.01
66.0965	656.59
66.1109	641.91
66.1253	637.09
66.1398	600.65
66.1542	598.91
66.1687	620.61
66.1831	630.71
66.1975	614.57
66.2120	616.90
66.2264	613.76
66.2409	633.19
66.2553	602.60
66.2697	607.67
66.2842	597.57
66.2986	568.81
66.3131	594.10
66.3275	605.52
66.3419	624.87
66.3564	577.25
66.3708	560.48
66.3853	587.88
66.3997	577.55
66.4141	566.11
66.4286	632.42
66.4430	586.19
66.4575	596.16
66.4719	639.94
66.4863	581.87
66.5008	610.19
66.5152	591.51
66.5297	588.80
66.5441	561.05
66.5585	598.53
66.5730	569.54
66.5874	617.47
66.6019	626.71
66.6163	606.23
66.6307	611.75
66.6452	599.63
66.6596	596.19
66.6741	593.15
66.6885	585.54
66.7029	598.81
66.7174	610.37
66.7318	576.84
66.7463	606.16
66.7607	605.78
66.7751	621.13
66.7896	619.56
66.8040	606.08
66.8185	606.16
66.8329	591.82
66.8473	557.29
66.8618	591.91
66.8762	597.05
66.8907	574.16
66.9051	595.90
66.9195	607.47
66.9340	624.65
66.9484	614.73
66.9629	607.90
66.9773	587.54
66.9917	590.37
67.0062	587.85
67.0206	615.93
67.0351	589.37
67.0495	570.17
67.0639	583.44
67.0784	614.66
67.0928	598.68
67.1073	573.73
67.1217	571.91
67.1361	563.79
67.1506	538.57
67.1650	556.64
67.1795	625.25
67.1939	595.90
67.2083	582.41
67.2228	607.14
67.2372	608.32
67.2517	628.07
67.2661	585.07
67.2805	603.85
67.2950	572.72
67.3094	577.32
67.3239	561.42
67.3383	606.99
67.3527	605.38
67.3672	573.75
67.3816	572.69
67.3961	601.73
67.4105	604.85
67.4250	617.88
67.4394	576.89
67.4538	583.56
67.4683	591.45
67.4827	606.11
67.4972	587.92
67.5116	571.21
67.5260	550.68
67.5405	601.57
67.5549	615.64
67.5694	595.33
67.5838	573.17
67.5982	571.03
67.6127	570.56
67.6271	564.84
67.6416	561.66
67.6560	582.32
67.6704	563.12
67.6849	614.40
67.6993	575.91
67.7138	570.33
67.7282	599.87
67.7426	584.29
67.7571	568.17
67.7715	544.08
67.7860	606.92
67.8004	598.64
67.8148	570.61
67.8293	589.75
67.8437	591.52
67.8582	583.18
67.8726	576.93
67.8870	574.01
67.9015	615.31
67.9159	583.38
67.9304	578.45
67.9448	557.49
67.9592	584.72
67.9737	591.35
67.9881	611.90
68.0026	555.25
68.0170	531.55
68.0314	597.57
68.0459	560.07
68.0603	563.98
68.0748	591.63
68.0892	572.98
68.1036	566.67
68.1181	589.47
68.1325	611.33
68.1470	553.63
68.1614	599.05
68.1758	612.22
68.1903	617.20
68.2047	608.55
68.2192	609.90
68.2336	575.22
68.2480	573.25
68.2625	547.10
68.2769	531.26
68.2914	580.60
68.3058	597.83
68.3202	562.45
68.3347	616.79
68.3491	597.94
68.3636	561.56
68.3780	526.80
68.3924	603.28
68.4069	545.73
68.4213	616.68
68.4358	632.71
68.4502	555.04
68.4646	545.23
68.4791	581.12
68.4935	588.94
68.5080	568.80
68.5224	578.37
68.5368	612.22
68.5513	556.38
68.5657	579.26
68.5802	585.81
68.5946	553.75
68.6090	569.71
68.6235	563.69
68.6379	606.18
68.6524	561.61
68.6668	580.78
68.6812	561.33
68.6957	588.23
68.7101	628.83
68.7246	563.73
68.7390	560.44
68.7534	550.29
68.7679	541.78
68.7823	599.91
68.7968	548.76
68.8112	589.27
68.8256	589.52
68.8401	541.08
68.8545	531.95
68.8690	577.78
68.8834	597.60
68.8978	584.03
68.9123	564.32
68.9267	632.44
68.9412	557.13
68.9556	525.49
68.9700	527.01
68.9845	560.25
68.9989	581.49
69.0134	604.78
69.0278	613.33
69.0422	571.96
69.0567	575.89
69.0711	597.26
69.0856	585.64
69.1000	615.68
69.1144	604.58
69.1289	610.57
69.1433	544.39
69.1578	561.94
69.1722	592.89
69.1866	596.11
69.2011	568.97
69.2155	584.35
69.2300	559.02
69.2444	583.80
69.2588	556.55
69.2733	557.24
69.2877	540.65
69.3022	506.88
69.3166	556.81
69.3310	565.11
69.3455	589.53
69.3599	550.71
69.3744	564.08
69.3888	611.40
69.4032	572.82
69.4177	542.08
69.4321	585.28
69.4466	572.51
69.4610	615.73
69.4754	623.73
69.4899	592.53
69.5043	580.17
69.5188	598.69
69.5332	596.52
69.5476	553.44
69.5621	577.97
69.5765	562.55
69.5910	573.65
69.6054	602.27
69.6198	603.09
69.6343	609.46
69.6487	606.74
69.6632	598.02
69.6776	594.97
69.6920	607.93
69.7065	620.77
69.7209	584.45
69.7354	581.49
69.7498	560.81
69.7642	536.12
69.7787	563.05
69.7931	600.34
69.8076	589.44
69.8220	546.72
69.8364	602.01
69.8509	560.54
69.8653	552.16
69.8798	578.39
69.8942	610.63
69.9086	564.70
69.9231	617.66
69.9375	635.53
69.9520	570.59
69.9664	552.67
69.9808	579.46
69.9953	573.90
70.0097	547.60
70.0242	530.10
70.0386	606.73
70.0530	547.83
70.0675	585.69
70.0819	561.49
70.0964	653.96
70.1108	566.70
70.1252	582.79
70.1397	601.11
70.1541	572.72
70.1686	590.55
70.1830	538.60
70.1974	590.04
70.2119	578.99
70.2263	548.00
70.2408	601.46
70.2552	541.90
70.2696	581.76
70.2841	536.40
70.2985	523.01
70.3130	585.70
70.3274	567.96
70.3418	599.34
70.3563	554.09
70.3707	556.29
70.3852	556.17
70.3996	553.42
70.4140	612.56
70.4285	625.84
70.4429	639.48
70.4574	570.66
70.4718	682.35
70.4862	618.73
70.5007	585.65
70.5151	574.26
70.5296	597.70
70.5440	584.24
70.5584	546.85
70.5729	572.63
70.5873	547.99
70.6018	574.34
70.6162	569.59
70.6306	542.59
70.6451	586.25
70.6595	591.90
70.6740	602.01
70.6884	533.30
70.7028	533.00
70.7173	570.62
70.7317	549.32
70.7462	590.58
70.7606	612.73
70.7750	641.76
70.7895	589.44
70.8039	603.64
70.8184	615.68
70.8328	599.31
70.8472	553.62
70.8617	609.78
70.8761	569.15
70.8906	575.35
70.9050	580.51
70.9194	580.13
70.9339	532.42
70.9483	550.80
70.9628	591.53
70.9772	558.72
70.9916	619.38
71.0061	621.04
71.0205	619.02
71.0350	586.86
71.0494	590.42
71.0638	589.66
71.0783	588.83
71.0927	619.30
71.1072	536.40
71.1216	571.32
71.1361	583.18
71.1505	554.03
71.1649	543.68
71.1794	543.53
71.1938	607.67
71.2083	616.15
71.2227	589.44
71.2371	563.08
71.2516	587.55
71.2660	618.13
71.2805	618.20
71.2949	577.09
71.3093	640.03
71.3238	648.36
71.3382	583.63
71.3527	535.85
71.3671	556.95
71.3815	579.22
71.3960	610.52
71.4104	596.55
71.4249	580.32
71.4393	618.64
71.4537	609.91
71.4682	568.08
71.4826	543.19
71.4971	517.72
71.5115	516.03
71.5259	534.45
71.5404	583.67
71.5548	593.51
71.5693	569.18
71.5837	534.27
71.5981	504.77
71.6126	491.02
71.6270	560.63
71.6415	592.20
71.6559	567.50
71.6703	588.97
71.6848	589.98
71.6992	637.49
71.7137	604.85
71.7281	570.82
71.7425	560.21
71.7570	579.94
71.7714	574.84
71.7859	624.96
71.8003	659.36
71.8147	569.72
71.8292	549.83
71.8436	568.88
71.8581	591.65
71.8725	592.16
71.8869	593.04
71.9014	597.96
71.9158	604.83
71.9303	571.29
71.9447	626.26
71.9591	620.83
71.9736	589.96
71.9880	560.15
72.0025	479.78
72.0169	541.31
72.0313	622.83
72.0458	569.44
72.0602	558.57
72.0747	582.42
72.0891	609.40
72.1035	586.41
72.1180	540.32
72.1324	551.48
72.1469	520.33
72.1613	505.16
72.1757	576.88
72.1902	604.58
72.2046	536.79
72.2191	563.59
72.2335	561.20
72.2479	545.89
72.2624	510.00
72.2768	504.52
72.2913	565.77
72.3057	633.36
72.3201	626.77
72.3346	600.15
72.3490	632.27
72.3635	572.79
72.3779	537.81
72.3923	544.43
72.4068	530.97
72.4212	600.99
72.4357	626.59
72.4501	595.50
72.4645	612.67
72.4790	615.48
72.4934	566.38
72.5079	615.56
72.5223	625.58
72.5367	549.81
72.5512	473.04
72.5656	533.07
72.5801	580.84
72.5945	564.49
72.6089	547.60
72.6234	548.50
72.6378	506.81
72.6523	451.81
72.6667	531.73
72.6811	643.58
72.6956	561.99
72.7100	533.93
72.7245	585.87
72.7389	624.51
72.7533	590.71
72.7678	604.79
72.7822	652.68
72.7967	630.86
72.8111	648.17
72.8255	561.67
72.8400	549.57
72.8544	604.68
72.8689	594.93
72.8833	565.99

Result vector
22.1120	511.83
22.1264	510.31
22.1409	499.98
22.1553	509.05
22.1697	554.85
22.1842	499.91
22.1986	554.00
22.2131	541.36
22.2275	494.60
22.2419	587.33
22.2564	517.62
22.2708	602.36
22.2853	616.78
22.2997	520.72
22.3141	583.12
22.3286	570.14
22.3430	588.47
22.3575	560.18
22.3719	627.30
22.3863	699.68
22.4008	638.67
22.4152	553.65
22.4297	641.05
22.4441	665.19
22.4585	576.25
22.4730	592.68
22.4874	659.09
22.5019	611.93
22.5163	578.96
22.5307	568.52
22.5452	604.19
22.5596	619.58
22.5741	612.31
22.5885	617.50
22.6029	651.06
22.6174	623.23
22.6318	574.81
22.6463	557.84
22.6607	551.82
22.6751	549.85
22.6896	581.86
22.7040	549.10
22.7185	540.59
22.7329	531.66
22.7473	528.35
22.7618	571.62
22.7762	545.80
22.7907	617.59
22.8051	537.65
22.8195	551.06
22.8340	597.82
22.8484	569.64
22.8629	613.67
22.8773	514.53
22.8917	497.67
22.9062	629.71
22.9206	511.74
22.9351	573.82
22.9495	521.68
22.9639	588.01
22.9784	609.30
22.9928	637.43
23.0073	590.23
23.0217	626.78
23.0361	492.81
23.0506	509.49
23.0650	475.48
23.0795	518.44
23.0939	544.17
23.1083	487.55
23.1228	571.69
23.1372	584.10
23.1517	588.02
23.1661	584.16
23.1806	557.08
23.1950	609.47
23.2094	531.15
23.2239	583.34
23.2383	557.03
23.2528	565.52
23.2672	577.34
23.2816	581.33
23.2961	564.32
23.3105	533.96
23.3250	650.39
23.3394	573.77
23.3538	590.63
23.3683	623.68
23.3827	541.13
23.3972	498.07
23.4116	463.92
23.4260	527.55
23.4405	580.56
23.4549	579.30
23.4694	614.59
23.4838	593.00
23.4982	591.06
23.5127	628.72
23.5271	612.75
23.5416	628.17
23.5560	579.96
23.5704	558.06
23.5849	502.97
23.5993	536.90
23.6138	548.71
23.6282	518.36
23.6426	515.07
23.6571	546.89
23.6715	531.34
23.6860	537.49
23.7004	497.84
23.7148	511.53
23.7293	590.30
23.7437	493.97
23.7582	540.28
23.7726	557.24
23.7870	532.41
23.8015	525.22
23.8159	523.99
23.8304	585.55
23.8448	605.62
23.8592	606.83
23.8737	594.24
23.8881	565.52
23.9026	628.80
23.9170	607.42
23.9314	514.38
23.9459	518.39
23.9603	526.53
23.9748	555.60
23.9892	613.78
24.0036	525.65
24.0181	631.91
24.0325	609.14
24.0470	632.82
24.0614	542.44
24.0758	546.72
24.0903	648.41
24.1047	519.84
24.1192	585.13
24.1336	547.48
24.1480	512.05
24.1625	586.82
24.1769	560.58
24.1914	586.07
24.2058	524.98
24.2202	511.46
24.2347	584.61
24.2491	573.67
24.2636	619.62
24.2780	597.76
24.2924	590.58
24.3069	566.03
24.3213	591.79
24.3358	575.35
24.3502	552.35
24.3646	552.00
24.3791	556.62
24.3935	511.06
24.4080	528.15
24.4224	608.74
24.4368	506.34
24.4513	534.62
24.4657	571.20
24.4802	578.10
24.4946	566.06
24.5090	600.33
24.5235	560.34
24.5379	511.36
24.5524	570.38
24.5668	613.44
24.5812	573.07
24.5957	566.08
24.6101	581.26
24.6246	539.18
24.6390	585.35
24.6534	482.13
24.6679	533.00
24.6823	519.76
24.6968	524.78
24.7112	554.92
24.7256	533.19
24.7401	522.04
24.7545	575.53
24.7690	566.38
24.7834	551.29
24.7978	543.32
24.8123	644.93
24.8267	591.68
24.8412	573.31
24.8556	543.32
24.8700	554.08
24.8845	547.31
24.8989	584.95
24.9134	560.02
24.9278	465.41
24.9422	526.40
24.9567	519.09
24.9711	491.75
24.9856	543.35
25.0000	516.35
25.0144	545.69
25.0289	546.38
25.0433	505.91
25.0578	562.44
25.0722	493.77
25.0866	548.02
25.1011	577.55
25.1155	539.04
25.1300	558.32
25.1444	499.94
25.1588	550.80
25.1733	540.79
25.1877	498.75
25.2022	531.76
25.2166	571.41
25.2310	560.37
25.2455	557.80
25.2599	531.04
25.2744	573.29
25.2888	540.66
25.3032	509.70
25.3177	502.42
25.3321	481.45
25.3466	514.93
25.3610	532.54
25.3754	566.80
25.3899	530.49
25.4043	515.82
25.4188	538.85
25.4332	585.01
25.4476	543.88
25.4621	522.23
25.4765	552.65
25.4910	562.63
25.5054	560.74
25.5198	532.72
25.5343	582.83
25.5487	591.61
25.5632	543.70
25.5776	560.71
25.5920	571.07
25.6065	576.08
25.6209	530.07
25.6354	509.47
25.6498	504.42
25.6642	542.49
25.6787	571.92
25.6931	537.53
25.7076	545.96
25.7220	509.89
25.7364	553.51
25.7509	557.16
25.7653	524.62
25.7798	500.03
25.7942	534.78
25.8086	529.43
25.8231	541.19
25.8375	505.33
25.8520	563.02
25.8664	581.11
25.8808	604.08
25.8953	579.13
25.9097	552.29
25.9242	503.32
25.9386	534.31
25.9530	530.14
25.9675	526.96
25.9819	518.01
25.9964	532.25
26.0108	518.81
26.0252	530.68
26.0397	533.41
26.0541	532.18
26.0686	523.71
26.0830	552.62
26.0974	535.96
26.1119	531.80
26.1263	552.70
26.1408	497.17
26.1552	458.05
26.1696	531.30
26.1841	531.84
26.1985	543.49
26.2130	530.23
26.2274	530.94
26.2418	534.02
26.2563	502.74
26.2707	514.26
26.2852	525.72
26.2996	531.43
26.3140	555.62
26.3285	543.84
26.3429	556.87
26.3574	533.25
26.3718	522.51
26.3862	514.30
26.4007	514.89
26.4151	503.08
26.4296	522.56
26.4440	499.38
26.4584	529.09
26.4729	537.86
26.4873	548.29
26.5018	531.47
26.5162	507.00
26.5306	512.28
26.5451	509.62
26.5595	524.55
26.5740	505.28
26.5884	503.98
26.6028	533.60
26.6173	548.94
26.6317	541.16
26.6462	528.35
26.6606	545.15
26.6750	538.37
26.6895	518.32
26.7039	545.56
26.7184	540.23
26.7328	540.17
26.7472	549.35
26.7617	528.65
26.7761	520.74
26.7906	528.13
26.8050	520.08
26.8194	520.37
26.8339	543.96
26.8483	553.91
26.8628	571.05
26.8772	535.11
26.8917	504.42
26.9061	543.91
26.9205	511.13
26.9350	524.84
26.9494	500.26
26.9639	510.79
26.9783	529.60
26.9927	508.02
27.0072	507.51
27.0216	543.30
27.0361	551.87
27.0505	548.59
27.0649	559.91
27.0794	550.27
27.0938	526.80
27.1083	538.16
27.1227	536.43
27.1371	521.58
27.1516	510.03
27.1660	521.10
27.1805	534.39
27.1949	487.12
27.2093	504.21
27.2238	535.10
27.2382	543.92
27.2527	537.18
27.2671	535.45
27.2815	536.43
27.2960	525.43
27.3104	516.63
27.3249	514.47
27.3393	536.66
27.3537	512.60
27.3682	532.34
27.3826	534.35
27.3971	513.30
27.4115	519.56
27.4259	512.23
27.4404	543.37
27.4548	521.63
27.4693	530.28
27.4837	509.39
27.4981	538.72
27.5126	476.88
27.5270	530.89
27.5415	497.44
27.5559	551.57
27.5703	502.47
27.5848	520.71
27.5992	495.00
27.6137	491.90
27.6281	508.06
27.6425	531.49
27.6570	539.68
27.6714	527.69
27.6859	556.12
27.7003	500.74
27.7147	504.28
27.7292	529.66
27.7436	550.87
27.7581	523.97
27.7725	519.69
27.7869	531.23
27.8014	525.60
27.8158	535.88
27.8303	515.18
27.8447	511.77
27.8591	529.15
27.8736	555.48
27.8880	530.37
27.9025	564.34
27.9169	504.69
27.9313	487.39
27.9458	539.64
27.9602	471.31
27.9747	565.90
27.9891	526.99
28.0035	536.14
28.0180	509.11
28.0324	516.31
28.0469	526.27
28.0613	503.05
28.0757	493.81
28.0902	527.52
28.1046	542.77
28.1191	523.07
28.1335	517.31
28.1479	500.14
28.1624	509.59
28.1768	519.86
28.1913	502.00
28.2057	499.80
28.2201	512.67
28.2346	535.07
28.2490	549.22
28.2635	498.86
28.2779	499.46
28.2923	507.39
28.3068	513.88
28.3212	475.24
28.3357	512.72
28.3501	558.24
28.3645	502.22
28.3790	475.32
28.3934	516.22
28.4079	518.14
28.4223	527.45
28.4367	519.22
28.4512	502.65
28.4656	535.86
28.4801	522.59
28.4945	545.60
28.5089	526.86
28.5234	548.51
28.5378	535.43
28.5523	501.37
28.5667	491.53
28.5811	523.04
28.5956	473.26
28.6100	528.60
28.6245	510.63
28.6389	507.73
28.6533	521.59
28.6678	508.13
28.6822	495.71
28.6967	508.73
28.7111	520.92
28.7255	524.49
28.7400	531.28
28.7544	515.11
28.7689	502.30
28.7833	522.69
28.7977	543.34
28.8122	521.58
28.8266	517.11
28.8411	508.39
28.8555	516.03
28.8699	486.55
28.8844	477.07
28.8988	501.08
28.9133	529.16
28.9277	480.63
28.9421	543.02
28.9566	497.42
28.9710	489.05
28.9855	506.86
28.9999	470.30
29.0143	486.10
29.0288	470.77
29.0432	484.62
29.0577	492.19
29.0721	516.99
29.0865	532.48
29.1010	509.16
29.1154	512.35
29.1299	542.77
29.1443	541.54
29.1587	542.64
29.1732	532.73
29.1876	513.74
29.2021	490.13
29.2165	506.17
29.2309	513.31
29.2454	525.56
29.2598	503.71
29.2743	515.09
29.2887	502.87
29.3031	512.08
29.3176	527.92
29.3320	504.23
29.3465	516.31
29.3609	493.36
29.3753	474.98
29.3898	496.32
29.4042	511.19
29.4187	533.88
29.4331	524.82
29.4475	504.66
29.4620	484.23
29.4764	489.38
29.4909	487.34
29.5053	506.68
29.5197	516.98
29.5342	514.98
29.5486	501.83
29.5631	547.71
29.5775	493.48
29.5919	478.25
29.6064	525.73
29.6208	508.02
29.6353	527.26
29.6497	506.15
29.6641	520.63
29.6786	524.81
29.6930	489.30
29.7075	518.19
29.7219	510.23
29.7363	474.72
29.7508	456.50
29.7652	527.55
29.7797	544.56
29.7941	528.00
29.8085	507.50
29.8230	480.33
29.8374	508.17
29.8519	506.75
29.8663	507.41
29.8807	513.60
29.8952	528.34
29.9096	495.29
29.9241	500.67
29.9385	528.12
29.9529	506.73
29.9674	504.97
29.9818	498.33
29.9963	547.43
30.0107	526.14
30.0251	480.46
30.0396	545.96
30.0540	515.51
30.0685	523.89
30.0829	551.17
30.0973	520.23
30.1118	523.78
30.1262	522.00
30.1407	494.17
30.1551	500.49
30.1695	511.42
30.1840	512.85
30.1984	483.39
30.2129	498.66
30.2273	516.77
30.2417	517.94
30.2562	527.12
30.2706	514.79
30.2851	524.27
30.2995	519.19
30.3139	539.65
30.3284	521.22
30.3428	523.79
30.3573	525.01
30.3717	472.32
30.3861	512.00
30.4006	497.91
30.4150	507.20
30.4295	545.88
30.4439	504.51
30.4583	483.03
30.4728	531.75
30.4872	510.76
30.5017	520.95
30.5161	508.64
30.5305	530.48
30.5450	535.51
30.5594	531.26
30.5739	513.58
30.5883	531.58
30.6028	516.46
30.6172	535.26
30.6316	562.57
30.6461	558.19
30.6605	552.16
30.6750	557.24
30.6894	561.47
30.7038	655.87
30.7183	681.31
30.7327	670.39
30.7472	700.27
30.7616	717.74
30.7760	705.30
30.7905	730.10
30.8049	768.20
30.8194	714.06
30.8338	689.08
30.8482	646.88
30.8627	671.96
30.8771	656.33
30.8916	580.94
30.9060	620.86
30.9204	595.48
30.9349	591.34
30.9493	583.72
30.9638	536.93
30.9782	506.20
30.9926	545.73
31.0071	528.01
31.0215	524.81
31.0360	495.32
31.0504	541.13
31.0648	562.57
31.0793	517.64
31.0937	520.92
31.1082	525.91
31.1226	517.67
31.1370	498.13
31.1515	483.09
31.1659	531.32
31.1804	542.52
31.1948	497.56
31.2092	512.40
31.2237	555.58
31.2381	539.14
31.2526	514.72
31.2670	522.01
31.2814	550.81
31.2959	534.52
31.3103	582.15
31.3248	569.01
31.3392	526.41
31.3536	495.16
31.3681	515.12
31.3825	522.40
31.3970	520.62
31.4114	538.76
31.4258	574.84
31.4403	525.75
31.4547	510.43
31.4692	513.43
31.4836	505.23
31.4980	491.76
31.5125	496.29
31.5269	502.11
31.5414	478.91
31.5558	486.42
31.5702	515.60
31.5847	513.61
31.5991	500.39
31.6136	528.09
31.6280	502.73
31.6424	522.63
31.6569	523.34
31.6713	519.03
31.6858	484.17
31.7002	506.27
31.7146	525.41
31.7291	489.61
31.7435	502.87
31.7580	466.42
31.7724	482.88
31.7868	488.37
31.8013	495.31
31.8157	516.30
31.8302	503.52
31.8446	497.28
31.8590	517.83
31.8735	528.02
31.8879	537.09
31.9024	553.77
31.9168	509.31
31.9312	543.48
31.9457	522.62
31.9601	503.03
31.9746	500.60
31.9890	493.54
32.0034	479.31
32.0179	545.35
32.0323	535.02
32.0468	497.47
32.0612	507.96
32.0756	545.94
32.0901	519.02
32.1045	488.45
32.1190	501.39
32.1334	512.90
32.1478	484.27
32.1623	486.97
32.1767	519.80
32.1912	489.04
32.2056	484.76
32.2200	518.27
32.2345	528.91
32.2489	541.99
32.2634	524.65
32.2778	536.66
32.2922	515.12
32.3067	501.62
32.3211	519.73
32.3356	535.64
32.3500	529.31
32.3644	509.76
32.3789	504.66
32.3933	498.89
32.4078	485.54
32.4222	503.05
32.4366	494.25
32.4511	505.93
32.4655	537.72
32.4800	559.45
32.4944	478.97
32.5088	475.90
32.5233	509.98
32.5377	518.45
32.5522	509.76
32.5666	504.52
32.5810	496.23
32.5955	499.98
32.6099	475.87
32.6244	508.32
32.6388	526.92
32.6532	521.82
32.6677	495.33
32.6821	495.78
32.6966	527.45
32.7110	528.81
32.7254	519.95
32.7399	489.80
32.7543	520.78
32.7688	515.27
32.7832	549.74
32.7976	528.53
32.8121	493.53
32.8265	467.19
32.8410	483.19
32.8554	496.28
32.8698	500.77
32.8843	525.07
32.8987	493.38
32.9132	501.96
32.9276	495.63
32.9420	517.49
32.9565	514.78
32.9709	527.12
32.9854	468.95
32.9998	490.29
33.0142	529.86
33.0287	486.18
33.0431	505.36
33.0576	525.53
33.0720	527.49
33.0864	492.19
33.1009	507.58
33.1153	484.90
33.1298	543.33
33.1442	465.67
33.1586	508.34
33.1731	491.44
33.1875	499.43
33.2020	495.54
33.2164	506.44
33.2308	520.76
33.2453	545.44
33.2597	463.19
33.2742	479.29
33.2886	511.72
33.3030	516.74
33.3175	486.99
33.3319	548.97
33.3464	516.69
33.3608	506.72
33.3752	532.41
33.3897	493.26
33.4041	476.55
33.4186	507.30
33.4330	503.23
33.4474	502.96
33.4619	556.17
33.4763	539.64
33.4908	510.17
33.5052	475.63
33.5196	553.73
33.5341	501.68
33.5485	487.36
33.5630	518.17
33.5774	483.43
33.5918	506.54
33.6063	504.75
33.6207	509.71
33.6352	485.18
33.6496	512.22
33.6640	526.54
33.6785	494.51
33.6929	498.74
33.7074	540.55
33.7218	515.69
33.7362	481.88
33.7507	486.59
33.7651	482.52
33.7796	519.13
33.7940	519.00
33.8084	491.11
33.8229	498.04
33.8373	554.13
33.8518	484.01
33.8662	483.74
33.8806	502.03
33.8951	489.37
33.9095	531.26
33.9240	509.97
33.9384	515.27
33.9528	502.11
33.9673	507.00
33.9817	497.72
33.9962	485.82
34.0106	517.54
34.0250	518.38
34.0395	475.51
34.0539	478.79
34.0684	501.72
34.0828	551.63
34.0972	579.54
34.1117	545.30
34.1261	534.40
34.1406	499.00
34.1550	479.67
34.1694	497.93
34.1839	479.42
34.1983	520.57
34.2128	494.92
34.2272	498.45
34.2417	502.06
34.2561	514.07
34.2705	503.21
34.2850	522.56
34.2994	483.03
34.3139	499.81
34.3283	513.40
34.3427	515.48
34.3572	529.54
34.3716	517.99
34.3861	509.26
34.4005	503.90
34.4149	489.06
34.4294	502.16
34.4438	467.98
34.4583	487.38
34.4727	506.96
34.4871	499.22
34.5016	479.01
34.5160	482.53
34.5305	543.24
34.5449	507.67
34.5593	492.76
34.5738	501.98
34.5882	487.39
34.6027	511.13
34.6171	540.43
34.6315	523.11
34.6460	515.66
34.6604	522.74
34.6749	508.52
34.6893	501.63
34.7037	501.56
34.7182	523.41
34.7326	512.40
34.7471	492.54
34.7615	516.19
34.7759	506.64
34.7904	481.12
34.8048	498.46
34.8193	536.06
34.8337	486.71
34.8481	481.34
34.8626	538.59
34.8770	514.58
34.8915	502.90
34.9059	549.71
34.9203	541.85
34.9348	505.95
34.9492	525.46
34.9637	499.48
34.9781	493.76
34.9925	483.72
35.0070	522.98
35.0214	529.28
35.0359	528.36
35.0503	534.78
35.0647	528.51
35.0792	503.82
35.0936	522.96
35.1081	531.44
35.1225	497.53
35.1369	481.42
35.1514	482.03
35.1658	528.54
35.1803	508.50
35.1947	503.95
35.2091	495.47
35.2236	498.28
35.2380	496.79
35.2525	490.23
35.2669	506.51
35.2813	503.80
35.2958	518.91
35.3102	515.09
35.3247	505.40
35.3391	510.79
35.3535	485.30
35.3680	501.88
35.3824	506.44
35.3969	485.38
35.4113	512.16
35.4257	559.78
35.4402	538.89
35.4546	501.06
35.4691	517.92
35.4835	543.37
35.4979	510.67
35.5124	489.15
35.5268	497.67
35.5413	545.31
35.5557	539.44
35.5701	584.17
35.5846	530.06
35.5990	529.24
35.6135	529.12
35.6279	540.39
35.6423	546.63
35.6568	552.26
35.6712	529.45
35.6857	602.81
35.7001	629.85
35.7145	686.41
35.7290	682.18
35.7434	625.22
35.7579	559.28
35.7723	579.79
35.7867	594.46
35.8012	627.27
35.8156	618.43
35.8301	589.81
35.8445	559.90
35.8589	630.75
35.8734	731.48
35.8878	862.44
35.9023	984.93
35.9167	1057.04
35.9311	1335.03
35.9456	2038.36
35.9600	2234.94
35.9745	1856.99
35.9889	1924.84
36.0033	2336.93
36.0178	2502.96
36.0322	2133.70
36.0467	1963.14
36.0611	1707.16
36.0755	1612.91
36.0900	1615.80
36.1044	1539.13
36.1189	1579.15
36.1333	1285.40
36.1477	1198.72
36.1622	1241.26
36.1766	1176.01
36.1911	1125.71
36.2055	1112.14
36.2199	1132.71
36.2344	1098.58
36.2488	1072.24
36.2633	976.68
36.2777	1021.73
36.2921	1044.45
36.3066	975.27
36.3210	938.26
36.3355	911.47
36.3499	831.41
36.3643	775.56
36.3788	732.20
36.3932	717.14
36.4077	706.75
36.4221	674.95
36.4365	632.05
36.4510	580.61
36.4654	612.70
36.4799	616.81
36.4943	602.24
36.5087	558.90
36.5232	568.14
36.5376	579.73
36.5521	545.14
36.5665	537.24
36.5809	516.03
36.5954	544.45
36.6098	545.70
36.6243	537.06
36.6387	575.16
36.6531	574.64
36.6676	555.44
36.6820	509.91
36.6965	498.25
36.7109	533.52
36.7253	511.12
36.7398	521.04
36.7542	507.10
36.7687	492.63
36.7831	560.59
36.7975	521.25
36.8120	535.94
36.8264	571.42
36.8409	602.77
36.8553	588.17
36.8697	600.57
36.8842	603.46
36.8986	613.97
36.9131	572.56
36.9275	544.81
36.9419	607.64
36.9564	548.12
36.9708	551.30
36.9853	552.96
36.9997	537.67
37.0141	579.94
37.0286	581.54
37.0430	571.64
37.0575	520.67
37.0719	516.20
37.0863	532.73
37.1008	502.03
37.1152	514.41
37.1297	558.61
37.1441	536.05
37.1585	511.43
37.1730	492.30
37.1874	500.65
37.2019	503.69
37.2163	486.57
37.2307	496.57
37.2452	489.87
37.2596	477.62
37.2741	532.04
37.2885	469.15
37.3029	527.34
37.3174	532.88
37.3318	500.33
37.3463	493.43
37.3607	499.34
37.3751	460.23
37.3896	501.92
37.4040	507.15
37.4185	530.82
37.4329	527.43
37.4473	479.10
37.4618	494.33
37.4762	496.37
37.4907	503.45
37.5051	489.65
37.5195	487.48
37.5340	532.59
37.5484	506.32
37.5629	533.40
37.5773	530.54
37.5917	513.66
37.6062	482.96
37.6206	497.77
37.6351	518.54
37.6495	511.96
37.6639	491.78
37.6784	519.43
37.6928	493.48
37.7073	519.42
37.7217	507.86
37.7361	479.65
37.7506	485.49
37.7650	527.26
37.7795	533.20
37.7939	566.93
37.8083	520.86
37.8228	523.74
37.8372	505.01
37.8517	521.72
37.8661	531.91
37.8805	528.55
37.8950	549.49
37.9094	524.62
37.9239	526.78
37.9383	536.57
37.9528	497.09
37.9672	518.28
37.9816	498.99
37.9961	504.14
38.0105	495.61
38.0250	508.48
38.0394	478.10
38.0538	511.43
38.0683	501.49
38.0827	504.17
38.0972	516.86
38.1116	511.27
38.1260	517.84
38.1405	480.68
38.1549	474.28
38.1694	512.81
38.1838	525.22
38.1982	500.96
38.2127	498.83
38.2271	517.37
38.2416	511.20
38.2560	491.14
38.2704	521.20
38.2849	525.23
38.2993	510.27
38.3138	529.28
38.3282	502.93
38.3426	513.84
38.3571	523.35
38.3715	488.65
38.3860	534.29
38.4004	538.99
38.4148	524.49
38.4293	595.81
38.4437	610.63
38.4582	621.04
38.4726	687.94
38.4870	731.80
38.5015	750.69
38.5159	763.20
38.5304	804.88
38.5448	802.65
38.5592	769.02
38.5737	766.29
38.5881	738.68
38.6026	716.80
38.6170	697.27
38.6314	730.07
38.6459	689.40
38.6603	637.54
38.6748	634.70
38.6892	562.16
38.7036	548.32
38.7181	540.76
38.7325	524.18
38.7470	548.76
38.7614	508.36
38.7758	522.45
38.7903	514.61
38.8047	527.43
38.8192	539.99
38.8336	522.21
38.8480	517.84
38.8625	510.42
38.8769	514.39
38.8914	522.47
38.9058	533.98
38.9202	519.76
38.9347	507.87
38.9491	479.52
38.9636	494.89
38.9780	490.45
38.9924	523.91
39.0069	481.60
39.0213	490.26
39.0358	514.40
39.0502	531.11
39.0646	522.63
39.0791	525.59
39.0935	547.27
39.1080	518.92
39.1224	529.27
39.1368	477.22
39.1513	493.64
39.1657	474.37
39.1802	455.82
39.1946	460.93
39.2090	517.89
39.2235	552.73
39.2379	529.17
39.2524	516.56
39.2668	497.27
39.2812	540.73
39.2957	502.15
39.3101	483.22
39.3246	497.78
39.3390	485.05
39.3534	511.98
39.3679	502.16
39.3823	500.93
39.3968	528.96
39.4112	468.46
39.4256	508.07
39.4401	514.23
39.4545	528.04
39.4690	512.18
39.4834	540.50
39.4978	493.92
39.5123	482.05
39.5267	474.17
39.5412	507.61
39.5556	522.73
39.5700	517.02
39.5845	503.82
39.5989	525.02
39.6134	518.63
39.6278	514.90
39.6422	482.55
39.6567	503.50
39.6711	496.66
39.6856	497.07
39.7000	535.21
39.7144	523.24
39.7289	498.58
39.7433	504.98
39.7578	503.66
39.7722	480.01
39.7866	502.26
39.8011	494.41
39.8155	496.19
39.8300	490.35
39.8444	501.86
39.8588	535.69
39.8733	538.98
39.8877	526.67
39.9022	546.03
39.9166	509.09
39.9310	468.59
39.9455	488.40
39.9599	474.33
39.9744	456.54
39.9888	486.23
40.0032	520.77
40.0177	479.46
40.0321	515.49
40.0466	523.23
40.0610	511.51
40.0754	506.96
40.0899	521.21
40.1043	502.50
40.1188	503.86
40.1332	495.18
40.1476	497.74
40.1621	499.71
40.1765	496.71
40.1910	472.35
40.2054	478.31
40.2198	468.81
40.2343	534.61
40.2487	522.07
40.2632	495.97
40.2776	509.17
40.2920	489.71
40.3065	479.64
40.3209	488.80
40.3354	502.82
40.3498	491.54
40.3642	487.87
40.3787	514.83
40.3931	496.87
40.4076	479.34
40.4220	508.38
40.4364	494.93
40.4509	492.29
40.4653	490.95
40.4798	549.40
40.4942	488.22
40.5086	511.13
40.5231	493.61
40.5375	526.36
40.5520	528.97
40.5664	494.75
40.5808	483.70
40.5953	506.84
40.6097	548.34
40.6242	518.52
40.6386	514.90
40.6530	492.85
40.6675	455.04
40.6819	482.99
40.6964	500.02
40.7108	494.75
40.7252	468.50
40.7397	483.22
40.7541	523.69
40.7686	530.16
40.7830	501.84
40.7974	489.63
40.8119	503.29
40.8263	518.78
40.8408	526.10
40.8552	512.56
40.8696	509.91
40.8841	490.13
40.8985	514.44
40.9130	511.09
40.9274	505.92
40.9418	504.77
40.9563	507.77
40.9707	480.43
40.9852	463.96
40.9996	494.39
41.0140	524.78
41.0285	506.33
41.0429	506.23
41.0574	522.88
41.0718	515.15
41.0862	490.81
41.1007	506.76
41.1151	486.44
41.1296	470.85
41.1440	473.45
41.1584	500.94
41.1729	510.17
41.1873	494.06
41.2018	507.72
41.2162	563.62
41.2306	471.49
41.2451	489.39
41.2595	522.79
41.2740	515.92
41.2884	488.67
41.3028	529.67
41.3173	516.02
41.3317	507.31
41.3462	464.40
41.3606	512.80
41.3750	485.79
41.3895	513.93
41.4039	482.72
41.4184	486.95
41.4328	491.47
41.4472	495.20
41.4617	485.39
41.4761	515.18
41.4906	508.79
41.5050	459.83
41.5194	483.33
41.5339	521.86
41.5483	513.64
41.5628	505.06
41.5772	501.08
41.5916	524.10
41.6061	507.14
41.6205	499.05
41.6350	536.95
41.6494	514.67
41.6639	468.27
41.6783	499.88
41.6927	513.31
41.7072	539.67
41.7216	528.58
41.7361	496.28
41.7505	479.73
41.7649	516.69
41.7794	536.40
41.7938	512.76
41.8083	527.14
41.8227	512.57
41.8371	527.50
41.8516	508.95
41.8660	511.32
41.8805	516.22
41.8949	554.71
41.9093	575.08
41.9238	536.21
41.9382	584.61
41.9527	562.24
41.9671	532.61
41.9815	552.25
41.9960	557.37
42.0104	520.27
42.0249	570.67
42.0393	579.96
42.0537	550.94
42.0682	587.00
42.0826	607.96
42.0971	569.92
42.1115	538.24
42.1259	551.65
42.1404	577.80
42.1548	642.33
42.1693	668.54
42.1837	705.40
42.1981	728.30
42.2126	829.87
42.2270	935.02
42.2415	1023.29
42.2559	1166.48
42.2703	1328.22
42.2848	1475.92
42.2992	1525.67
42.3137	1608.45
42.3281	1630.77
42.3425	1569.30
42.3570	1423.67
42.3714	1374.84
42.3859	1381.67
42.4003	1390.37
42.4147	1296.10
42.4292	1265.92
42.4436	1151.82
42.4581	1035.48
42.4725	949.47
42.4869	822.31
42.5014	742.06
42.5158	695.81
42.5303	649.56
42.5447	651.58
42.5591	650.32
42.5736	579.96
42.5880	560.12
42.6025	565.68
42.6169	546.09
42.6313	536.64
42.6458	529.43
42.6602	510.30
42.6747	486.70
42.6891	528.54
42.7035	547.85
42.7180	522.93
42.7324	519.60
42.7469	535.59
42.7613	542.86
42.7757	545.70
42.7902	526.24
42.8046	505.79
42.8191	502.51
42.8335	526.54
42.8479	517.97
42.8624	487.89
42.8768	505.67
42.8913	510.74
42.9057	516.39
42.9201	526.40
42.9346	507.07
42.9490	500.34
42.9635	489.91
42.9779	524.14
42.9923	540.97
43.0068	517.56
43.0212	515.10
43.0357	523.11
43.0501	496.23
43.0645	507.78
43.0790	533.71
43.0934	541.95
43.1079	493.58
43.1223	510.89
43.1367	506.53
43.1512	482.05
43.1656	509.36
43.1801	524.68
43.1945	504.19
43.2089	503.37
43.2234	531.61
43.2378	561.08
43.2523	516.96
43.2667	517.07
43.2811	517.26
43.2956	486.48
43.3100	533.39
43.3245	536.65
43.3389	527.06
43.3533	524.70
43.3678	526.64
43.3822	510.53
43.3967	481.33
43.4111	482.43
43.4255	550.89
43.4400	538.36
43.4544	508.99
43.4689	532.54
43.4833	519.17
43.4977	495.38
43.5122	515.70
43.5266	496.56
43.5411	516.30
43.5555	522.53
43.5699	516.84
43.5844	525.31
43.5988	519.82
43.6133	485.08
43.6277	525.28
43.6421	505.19
43.6566	528.31
43.6710	500.89
43.6855	490.08
43.6999	523.90
43.7143	537.40
43.7288	508.67
43.7432	530.75
43.7577	531.80
43.7721	518.99
43.7865	520.17
43.8010	497.96
43.8154	529.38
43.8299	533.41
43.8443	510.28
43.8587	518.63
43.8732	561.56
43.8876	518.35
43.9021	553.11
43.9165	537.86
43.9309	545.83
43.9454	556.02
43.9598	543.47
43.9743	566.17
43.9887	606.28
44.0031	605.67
44.0176	670.27
44.0320	629.75
44.0465	621.00
44.0609	652.56
44.0753	629.92
44.0898	604.97
44.1042	603.61
44.1187	601.57
44.1331	603.46
44.1475	555.75
44.1620	555.41
44.1764	570.40
44.1909	566.99
44.2053	584.53
44.2197	562.08
44.2342	581.15
44.2486	545.72
44.2631	530.96
44.2775	547.16
44.2919	495.67
44.3064	522.61
44.3208	545.38
44.3353	597.42
44.3497	561.47
44.3641	554.49
44.3786	559.67
44.3930	516.26
44.4075	576.36
44.4219	576.81
44.4363	558.07
44.4508	559.06
44.4652	612.66
44.4797	609.10
44.4941	580.41
44.5085	569.51
44.5230	555.01
44.5374	610.12
44.5519	600.38
44.5663	598.00
44.5807	564.99
44.5952	591.33
44.6096	591.80
44.6241	559.90
44.6385	595.45
44.6529	573.43
44.6674	583.34
44.6818	600.74
44.6963	617.06
44.7107	695.59
44.7251	715.82
44.7396	754.51
44.7540	834.47
44.7685	874.35
44.7829	924.08
44.7973	914.93
44.8118	869.06
44.8262	809.98
44.8407	741.50
44.8551	751.00
44.8695	728.66
44.8840	728.21
44.8984	774.65
44.9129	738.35
44.9273	703.65
44.9417	694.57
44.9562	612.22
44.9706	545.20
44.9851	586.05
44.9995	545.66
45.0139	507.22
45.0284	534.69
45.0428	518.20
45.0573	503.07
45.0717	520.16
45.0861	500.32
45.1006	521.00
45.1150	495.84
45.1295	504.36
45.1439	501.80
45.1583	529.37
45.1728	520.40
45.1872	490.05
45.2017	483.47
45.2161	523.44
45.2305	542.22
45.2450	512.75
45.2594	496.80
45.2739	509.75
45.2883	475.37
45.3028	493.86
45.3172	523.07
45.3316	498.74
45.3461	491.53
45.3605	506.22
45.3750	474.92
45.3894	497.58
45.4038	478.17
45.4183	487.44
45.4327	509.20
45.4472	482.89
45.4616	532.36
45.4760	543.20
45.4905	518.77
45.5049	484.07
45.5194	492.68
45.5338	514.41
45.5482	513.41
45.5627	521.14
45.5771	509.41
45.5916	473.50
45.6060	486.88
45.6204	482.39
45.6349	487.77
45.6493	512.56
45.6638	514.86
45.6782	507.00
45.6926	481.03
45.7071	531.84
45.7215	514.49
45.7360	503.85
45.7504	493.80
45.7648	512.31
45.7793	553.35
45.7937	521.98
45.8082	512.42
45.8226	536.73
45.8370	520.84
45.8515	504.17
45.8659	528.38
45.8804	483.84
45.8948	477.39
45.9092	513.60
45.9237	523.59
45.9381	517.19
45.9526	467.55
45.9670	453.56
45.9814	477.39
45.9959	477.52
46.0103	467.26
46.0248	518.12
46.0392	511.00
46.0536	507.19
46.0681	507.71
46.0825	504.60
46.0970	511.62
46.1114	522.46
46.1258	523.87
46.1403	478.75
46.1547	479.40
46.1692	513.22
46.1836	508.40
46.1980	504.40
46.2125	529.40
46.2269	519.04
46.2414	499.38
46.2558	494.93
46.2702	502.30
46.2847	482.50
46.2991	471.97
46.3136	490.75
46.3280	527.94
46.3424	517.34
46.3569	483.02
46.3713	487.50
46.3858	483.80
46.4002	469.56
46.4146	513.93
46.4291	548.26
46.4435	518.02
46.4580	472.40
46.4724	512.06
46.4868	466.72
46.5013	455.59
46.5157	485.36
46.5302	517.51
46.5446	528.61
46.5590	522.54
46.5735	519.33
46.5879	515.09
46.6024	507.30
46.6168	471.54
46.6312	463.63
46.6457	494.86
46.6601	493.68
46.6746	508.84
46.6890	484.27
46.7034	479.70
46.7179	502.09
46.7323	510.20
46.7468	535.91
46.7612	493.39
46.7756	489.47
46.7901	524.61
46.8045	522.78
46.8190	500.65
46.8334	512.54
46.8478	514.88
46.8623	522.06
46.8767	489.89
46.8912	532.10
46.9056	553.27
46.9200	540.66
46.9345	503.29
46.9489	504.48
46.9634	500.94
46.9778	508.62
46.9922	519.72
47.0067	497.01
47.0211	509.79
47.0356	529.77
47.0500	526.37
47.0644	546.52
47.0789	544.08
47.0933	528.89
47.1078	514.17
47.1222	517.33
47.1366	504.26
47.1511	502.73
47.1655	514.36
47.1800	487.14
47.1944	463.10
47.2088	523.57
47.2233	532.99
47.2377	519.83
47.2522	510.51
47.2666	493.46
47.2810	495.41
47.2955	495.63
47.3099	498.69
47.3244	511.45
47.3388	500.55
47.3532	500.81
47.3677	496.51
47.3821	498.61
47.3966	467.14
47.4110	506.93
47.4254	507.28
47.4399	507.22
47.4543	531.26
47.4688	506.16
47.4832	512.95
47.4976	493.51
47.5121	503.88
47.5265	537.98
47.5410	532.97
47.5554	501.45
47.5698	500.23
47.5843	521.91
47.5987	509.17
47.6132	489.15
47.6276	516.33
47.6420	529.68
47.6565	502.87
47.6709	492.85
47.6854	499.00
47.6998	474.42
47.7142	540.66
47.7287	501.55
47.7431	480.01
47.7576	492.39
47.7720	481.23
47.7864	475.62
47.8009	502.94
47.8153	489.72
47.8298	503.36
47.8442	501.98
47.8586	485.87
47.8731	503.84
47.8875	524.43
47.9020	538.12
47.9164	532.58
47.9308	525.93
47.9453	486.90
47.9597	509.80
47.9742	499.11
47.9886	523.39
48.0030	534.61
48.0175	489.96
48.0319	489.63
48.0464	517.47
48.0608	520.29
48.0752	492.73
48.0897	502.90
48.1041	486.83
48.1186	486.98
48.1330	529.20
48.1474	480.35
48.1619	512.79
48.1763	536.12
48.1908	493.59
48.2052	507.41
48.2196	499.06
48.2341	486.31
48.2485	505.85
48.2630	505.86
48.2774	493.66
48.2918	505.67
48.3063	503.86
48.3207	510.78
48.3352	530.39
48.3496	492.52
48.3640	519.71
48.3785	497.62
48.3929	514.85
48.4074	525.61
48.4218	518.69
48.4362	552.71
48.4507	471.66
48.4651	493.90
48.4796	538.99
48.4940	555.88
48.5084	489.80
48.5229	503.26
48.5373	515.20
48.5518	530.77
48.5662	523.93
48.5806	518.18
48.5951	516.57
48.6095	516.44
48.6240	504.24
48.6384	523.99
48.6528	517.76
48.6673	520.61
48.6817	529.51
48.6962	539.40
48.7106	511.65
48.7250	533.94
48.7395	476.36
48.7539	508.25
48.7684	529.37
48.7828	511.30
48.7972	519.16
48.8117	531.07
48.8261	542.90
48.8406	516.12
48.8550	536.37
48.8694	538.25
48.8839	515.20
48.8983	561.44
48.9128	544.35
48.9272	532.96
48.9416	520.69
48.9561	531.56
48.9705	536.79
48.9850	597.93
48.9994	589.29
49.0139	564.50
49.0283	584.26
49.0427	623.16
49.0572	627.01
49.0716	668.29
49.0861	656.51
49.1005	739.59
49.1149	707.07
49.1294	695.20
49.1438	731.91
49.1583	800.12
49.1727	843.69
49.1871	879.72
49.2016	953.86
49.2160	981.49
49.2305	1081.75
49.2449	1149.47
49.2593	1245.64
49.2738	1315.14
49.2882	1470.99
49.3027	1516.13
49.3171	1588.56
49.3315	1688.75
49.3460	1759.62
49.3604	1763.33
49.3749	1706.79
49.3893	1731.91
49.4037	1785.79
49.4182	1752.35
49.4326	1701.97
49.4471	1599.13
49.4615	1583.02
49.4759	1570.56
49.4904	1478.67
49.5048	1386.01
49.5193	1355.48
49.5337	1262.03
49.5481	1229.35
49.5626	1167.21
49.5770	1034.92
49.5915	978.88
49.6059	945.64
49.6203	827.32
49.6348	790.22
49.6492	745.23
49.6637	729.80
49.6781	718.75
49.6925	668.50
49.7070	684.47
49.7214	662.58
49.7359	613.56
49.7503	654.66
49.7647	617.46
49.7792	566.10
49.7936	565.66
49.8081	560.32
49.8225	572.86
49.8369	559.53
49.8514	571.71
49.8658	536.27
49.8803	542.91
49.8947	589.20
49.9091	567.02
49.9236	551.43
49.9380	551.43
49.9525	518.08
49.9669	514.46
49.9813	542.78
49.9958	513.49
50.0102	524.25
50.0247	552.24
50.0391	552.67
50.0535	513.32
50.0680	509.67
50.0824	539.77
50.0969	545.11
50.1113	494.98
50.1257	521.21
50.1402	501.76
50.1546	499.47
50.1691	539.36
50.1835	540.38
50.1979	511.68
50.2124	516.09
50.2268	495.27
50.2413	531.68
50.2557	570.42
50.2701	551.12
50.2846	513.12
50.2990	502.64
50.3135	523.26
50.3279	502.16
50.3423	488.62
50.3568	508.66
50.3712	546.09
50.3857	516.69
50.4001	510.32
50.4145	513.71
50.4290	503.17
50.4434	511.04
50.4579	512.64
50.4723	509.11
50.4867	573.77
50.5012	528.82
50.5156	457.05
50.5301	484.69
50.5445	521.23
50.5589	527.08
50.5734	492.33
50.5878	506.38
50.6023	527.45
50.6167	510.98
50.6311	535.00
50.6456	502.61
50.6600	515.39
50.6745	500.29
50.6889	515.79
50.7033	513.58
50.7178	502.21
50.7322	494.44
50.7467	501.63
50.7611	521.09
50.7755	520.97
50.7900	504.92
50.8044	496.16
50.8189	494.16
50.8333	514.68
50.8477	515.39
50.8622	520.35
50.8766	512.29
50.8911	501.63
50.9055	501.54
50.9199	494.50
50.9344	516.54
50.9488	526.14
50.9633	497.44
50.9777	483.66
50.9921	513.31
51.0066	498.19
51.0210	495.78
51.0355	500.46
51.0499	548.44
51.0643	531.88
51.0788	518.61
51.0932	521.25
51.1077	507.48
51.1221	524.07
51.1365	503.59
51.1510	494.67
51.1654	475.88
51.1799	510.23
51.1943	534.69
51.2087	504.83
51.2232	521.79
51.2376	514.60
51.2521	512.65
51.2665	503.60
51.2809	525.07
51.2954	514.67
51.3098	516.80
51.3243	498.26
51.3387	535.79
51.3531	517.90
51.3676	489.76
51.3820	506.85
51.3965	504.70
51.4109	491.10
51.4253	523.78
51.4398	511.10
51.4542	505.85
51.4687	526.37
51.4831	470.51
51.4975	502.18
51.5120	542.48
51.5264	533.24
51.5409	503.15
51.5553	516.78
51.5697	530.44
51.5842	518.57
51.5986	515.08
51.6131	526.88
51.6275	510.01
51.6419	518.18
51.6564	495.82
51.6708	492.01
51.6853	504.55
51.6997	490.97
51.7141	517.71
51.7286	503.94
51.7430	481.87
51.7575	468.36
51.7719	518.96
51.7863	511.47
51.8008	509.39
51.8152	481.80
51.8297	511.99
51.8441	515.43
51.8585	500.61
51.8730	536.31
51.8874	500.22
51.9019	550.55
51.9163	539.33
51.9307	486.17
51.9452	532.95
51.9596	509.64
51.9741	506.89
51.9885	490.49
52.0029	456.02
52.0174	520.83
52.0318	528.17
52.0463	490.06
52.0607	511.89
52.0751	517.70
52.0896	532.08
52.1040	545.82
52.1185	524.16
52.1329	509.81
52.1473	506.97
52.1618	519.86
52.1762	515.43
52.1907	477.87
52.2051	478.15
52.2195	508.13
52.2340	506.04
52.2484	533.66
52.2629	490.22
52.2773	489.24
52.2917	514.80
52.3062	543.97
52.3206	480.25
52.3351	528.79
52.3495	537.56
52.3639	537.50
52.3784	491.30
52.3928	510.01
52.4073	498.65
52.4217	526.14
52.4361	518.18
52.4506	467.90
52.4650	526.36
52.4795	559.28
52.4939	525.79
52.5083	489.73
52.5228	502.04
52.5372	503.72
52.5517	500.53
52.5661	507.63
52.5805	496.71
52.5950	524.85
52.6094	508.69
52.6239	498.79
52.6383	509.58
52.6527	516.53
52.6672	521.70
52.6816	530.40
52.6961	514.67
52.7105	491.57
52.7250	524.25
52.7394	520.73
52.7538	519.29
52.7683	509.53
52.7827	486.10
52.7972	482.56
52.8116	471.40
52.8260	512.18
52.8405	510.17
52.8549	515.93
52.8694	491.00
52.8838	484.21
52.8982	504.70
52.9127	511.59
52.9271	517.28
52.9416	522.93
52.9560	496.00
52.9704	507.77
52.9849	543.64
52.9993	525.66
53.0138	492.43
53.0282	510.15
53.0426	464.84
53.0571	533.40
53.0715	514.07
53.0860	553.90
53.1004	512.19
53.1148	489.54
53.1293	476.25
53.1437	462.60
53.1582	482.39
53.1726	513.43
53.1870	498.68
53.2015	501.94
53.2159	529.30
53.2304	489.93
53.2448	496.60
53.2592	540.11
53.2737	514.09
53.2881	529.61
53.3026	531.20
53.3170	506.77
53.3314	505.61
53.3459	492.19
53.3603	498.57
53.3748	471.72
53.3892	527.54
53.4036	512.46
53.4181	497.09
53.4325	512.71
53.4470	494.51
53.4614	518.09
53.4758	516.00
53.4903	513.01
53.5047	514.08
53.5192	495.19
53.5336	506.92
53.5480	515.71
53.5625	526.02
53.5769	511.64
53.5914	527.38
53.6058	517.75
53.6202	482.50
53.6347	500.49
53.6491	483.83
53.6636	490.11
53.6780	517.23
53.6924	535.50
53.7069	537.24
53.7213	513.89
53.7358	520.14
53.7502	542.05
53.7646	525.32
53.7791	486.47
53.7935	493.16
53.8080	504.67
53.8224	510.65
53.8368	513.78
53.8513	526.33
53.8657	505.04
53.8802	484.00
53.8946	504.58
53.9090	530.49
53.9235	496.74
53.9379	505.94
53.9524	484.87
53.9668	475.01
53.9812	501.93
53.9957	514.69
54.0101	518.22
54.0246	504.95
54.0390	536.73
54.0534	517.19
54.0679	529.19
54.0823	502.50
54.0968	533.34
54.1112	541.79
54.1256	567.49
54.1401	527.44
54.1545	523.57
54.1690	524.29
54.1834	490.11
54.1978	510.66
54.2123	537.53
54.2267	503.49
54.2412	499.43
54.2556	498.05
54.2700	494.07
54.2845	494.27
54.2989	529.99
54.3134	488.24
54.3278	517.21
54.3422	524.48
54.3567	557.41
54.3711	548.36
54.3856	542.35
54.4000	534.32
54.4144	506.81
54.4289	526.76
54.4433	535.89
54.4578	571.99
54.4722	537.70
54.4866	557.23
54.5011	513.72
54.5155	558.53
54.5300	518.73
54.5444	541.53
54.5588	557.40
54.5733	552.71
54.5877	577.65
54.6022	566.19
54.6166	559.41
54.6310	559.92
54.6455	556.91
54.6599	552.79
54.6744	585.54
54.6888	610.86
54.7032	601.85
54.7177	606.05
54.7321	572.35
54.7466	548.29
54.7610	571.27
54.7754	551.28
54.7899	564.51
54.8043	569.89
54.8188	557.48
54.8332	561.39
54.8476	535.48
54.8621	564.07
54.8765	606.11
54.8910	566.73
54.9054	561.92
54.9198	536.14
54.9343	542.24
54.9487	578.27
54.9632	536.26
54.9776	544.30
54.9920	536.69
55.0065	536.01
55.0209	532.26
55.0354	504.17
55.0498	523.31
55.0642	562.16
55.0787	550.55
55.0931	530.42
55.1076	505.33
55.1220	535.36
55.1364	534.58
55.1509	524.76
55.1653	500.60
55.1798	500.45
55.1942	512.15
55.2086	524.21
55.2231	532.40
55.2375	540.27
55.2520	537.13
55.2664	521.60
55.2808	521.72
55.2953	520.64
55.3097	531.88
55.3242	518.52
55.3386	494.29
55.3530	526.00
55.3675	508.27
55.3819	512.52
55.3964	492.44
55.4108	519.35
55.4252	556.09
55.4397	536.72
55.4541	545.53
55.4686	573.42
55.4830	524.47
55.4974	517.86
55.5119	497.57
55.5263	504.10
55.5408	532.33
55.5552	525.92
55.5696	499.38
55.5841	489.16
55.5985	530.87
55.6130	506.63
55.6274	508.86
55.6418	540.20
55.6563	521.33
55.6707	521.10
55.6852	509.06
55.6996	518.79
55.7140	529.99
55.7285	536.32
55.7429	508.18
55.7574	545.80
55.7718	552.96
55.7862	566.92
55.8007	541.21
55.8151	530.35
55.8296	534.55
55.8440	514.05
55.8584	508.11
55.8729	521.36
55.8873	510.96
55.9018	527.80
55.9162	518.24
55.9306	531.91
55.9451	512.91
55.9595	536.38
55.9740	508.99
55.9884	514.83
56.0028	535.78
56.0173	575.81
56.0317	551.76
56.0462	537.10
56.0606	562.07
56.0750	548.60
56.0895	557.18
56.1039	508.46
56.1184	534.95
56.1328	546.68
56.1472	502.23
56.1617	496.79
56.1761	516.21
56.1906	503.07
56.2050	485.31
56.2194	502.50
56.2339	508.25
56.2483	511.80
56.2628	543.56
56.2772	524.04
56.2916	521.46
56.3061	565.55
56.3205	515.79
56.3350	484.21
56.3494	480.76
56.3639	521.66
56.3783	500.24
56.3927	497.57
56.4072	517.13
56.4216	514.25
56.4361	543.37
56.4505	503.93
56.4649	553.93
56.4794	536.08
56.4938	544.12
56.5083	510.08
56.5227	496.53
56.5371	508.90
56.5516	485.73
56.5660	514.04
56.5805	509.26
56.5949	504.10
56.6093	507.70
56.6238	517.32
56.6382	531.28
56.6527	500.62
56.6671	513.85
56.6815	513.18
56.6960	519.17
56.7104	537.55
56.7249	516.26
56.7393	535.15
56.7537	532.08
56.7682	521.20
56.7826	522.97
56.7971	508.06
56.8115	479.38
56.8259	550.49
56.8404	528.95
56.8548	508.83
56.8693	539.76
56.8837	542.52
56.8981	540.09
56.9126	534.02
56.9270	515.06
56.9415	540.36
56.9559	498.01
56.9703	535.10
56.9848	518.52
56.9992	528.24
57.0137	576.74
57.0281	532.09
57.0425	481.42
57.0570	486.15
57.0714	497.47
57.0859	521.13
57.1003	493.28
57.1147	530.57
57.1292	549.19
57.1436	506.73
57.1581	513.43
57.1725	511.07
57.1869	505.00
57.2014	460.93
57.2158	536.29
57.2303	532.50
57.2447	518.61
57.2591	514.88
57.2736	542.81
57.2880	537.19
57.3025	492.34
57.3169	491.07
57.3313	548.66
57.3458	504.38
57.3602	534.32
57.3747	568.73
57.3891	521.49
57.4035	524.79
57.4180	508.86
57.4324	505.14
57.4469	481.22
57.4613	518.53
57.4757	520.39
57.4902	537.63
57.5046	527.85
57.5191	497.83
57.5335	531.74
57.5479	498.33
57.5624	503.60
57.5768	510.16
57.5913	506.28
57.6057	524.54
57.6201	540.60
57.6346	534.06
57.6490	533.70
57.6635	501.47
57.6779	524.87
57.6923	530.05
57.7068	524.25
57.7212	543.15
57.7357	538.54
57.7501	551.75
57.7645	499.96
57.7790	545.65
57.7934	530.41
57.8079	538.53
57.8223	532.74
57.8367	536.57
57.8512	494.97
57.8656	544.22
57.8801	556.68
57.8945	531.59
57.9089	529.89
57.9234	533.92
57.9378	538.96
57.9523	553.77
57.9667	534.86
57.9811	514.55
57.9956	515.73
58.0100	532.53
58.0245	533.72
58.0389	546.09
58.0533	540.52
58.0678	572.45
58.0822	570.21
58.0967	549.77
58.1111	541.28
58.1255	582.67
58.1400	584.36
58.1544	581.56
58.1689	553.01
58.1833	577.00
58.1977	543.49
58.2122	576.27
58.2266	626.35
58.2411	648.56
58.2555	628.96
58.2699	644.55
58.2844	665.37
58.2988	663.18
58.3133	673.76
58.3277	710.80
58.3421	719.07
58.3566	673.66
58.3710	656.43
58.3855	621.79
58.3999	663.87
58.4143	642.39
58.4288	695.52
58.4432	635.91
58.4577	618.12
58.4721	599.49
58.4865	593.77
58.5010	624.95
58.5154	596.21
58.5299	586.53
58.5443	566.87
58.5587	589.39
58.5732	577.90
58.5876	566.10
58.6021	567.01
58.6165	540.48
58.6309	568.18
58.6454	528.26
58.6598	535.65
58.6743	539.76
58.6887	573.19
58.7031	577.89
58.7176	556.13
58.7320	524.49
58.7465	532.13
58.7609	515.92
58.7753	547.43
58.7898	550.20
58.8042	540.46
58.8187	539.14
58.8331	541.53
58.8475	545.96
58.8620	546.00
58.8764	528.69
58.8909	519.25
58.9053	542.82
58.9197	553.13
58.9342	556.79
58.9486	559.58
58.9631	516.39
58.9775	503.52
58.9919	488.44
59.0064	500.82
59.0208	529.62
59.0353	520.42
59.0497	523.72
59.0641	567.08
59.0786	561.04
59.0930	572.72
59.1075	544.51
59.1219	536.25
59.1363	537.04
59.1508	540.18
59.1652	556.49
59.1797	544.02
59.1941	503.65
59.2085	552.46
59.2230	554.29
59.2374	559.83
59.2519	520.89
59.2663	541.13
59.2807	560.15
59.2952	530.95
59.3096	545.95
59.3241	573.16
59.3385	572.42
59.3529	564.22
59.3674	534.50
59.3818	584.66
59.3963	552.67
59.4107	577.44
59.4251	554.75
59.4396	555.51
59.4540	563.95
59.4685	573.73
59.4829	590.86
59.4973	543.70
59.5118	556.99
59.5262	566.74
59.5407	609.67
59.5551	561.77
59.5695	592.54
59.5840	558.29
59.5984	540.10
59.6129	587.05
59.6273	554.43
59.6417	558.18
59.6562	502.05
59.6706	554.85
59.6851	560.28
59.6995	554.33
59.7139	563.81
59.7284	560.30
59.7428	562.63
59.7573	574.91
59.7717	545.86
59.7861	537.17
59.8006	529.13
59.8150	592.80
59.8295	569.91
59.8439	528.63
59.8583	556.77
59.8728	519.11
59.8872	511.99
59.9017	549.12
59.9161	562.37
59.9305	526.66
59.9450	550.44
59.9594	543.66
59.9739	516.49
59.9883	527.47
60.0027	539.52
60.0172	499.11
60.0316	486.44
60.0461	542.08
60.0605	561.47
60.0750	560.06
60.0894	544.91
60.1038	530.35
60.1183	556.65
60.1327	523.48
60.1472	512.62
60.1616	555.11
60.1760	515.23
60.1905	537.29
60.2049	529.88
60.2194	527.31
60.2338	550.91
60.2482	549.02
60.2627	565.54
60.2771	511.64
60.2916	522.34
60.3060	534.58
60.3204	545.38
60.3349	543.42
60.3493	537.37
60.3638	546.67
60.3782	533.79
60.3926	518.91
60.4071	564.05
60.4215	523.98
60.4360	522.11
60.4504	526.62
60.4648	566.75
60.4793	538.03
60.4937	541.56
60.5082	511.88
60.5226	552.04
60.5370	556.08
60.5515	526.37
60.5659	523.98
60.5804	533.41
60.5948	501.53
60.6092	518.49
60.6237	544.36
60.6381	549.51
60.6526	514.79
60.6670	501.82
60.6814	545.30
60.6959	509.16
60.7103	574.89
60.7248	543.61
60.7392	529.58
60.7536	533.92
60.7681	534.66
60.7825	559.56
60.7970	562.66
60.8114	555.13
60.8258	548.33
60.8403	496.58
60.8547	568.96
60.8692	578.69
60.8836	537.79
60.8980	559.33
60.9125	560.42
60.9269	542.31
60.9414	540.46
60.9558	560.19
60.9702	539.05
60.9847	544.86
60.9991	568.32
61.0136	562.96
61.0280	552.79
61.0424	551.91
61.0569	569.17
61.0713	540.65
61.0858	569.82
61.1002	529.60
61.1146	558.61
61.1291	552.47
61.1435	560.18
61.1580	558.38
61.1724	569.01
61.1868	577.05
61.2013	598.68
61.2157	544.44
61.2302	527.10
61.2446	511.81
61.2590	559.94
61.2735	559.75
61.2879	564.62
61.3024	585.41
61.3168	530.25
61.3312	526.00
61.3457	575.69
61.3601	524.34
61.3746	554.92
61.3890	557.81
61.4034	544.27
61.4179	519.51
61.4323	563.10
61.4468	536.69
61.4612	569.00
61.4756	581.55
61.4901	569.56
61.5045	520.69
61.5190	543.05
61.5334	499.89
61.5478	548.53
61.5623	523.23
61.5767	516.66
61.5912	543.61
61.6056	558.86
61.6200	551.40
61.6345	581.51
61.6489	533.51
61.6634	532.99
61.6778	527.94
61.6922	518.57
61.7067	521.75
61.7211	581.28
61.7356	521.76
61.7500	535.38
61.7644	531.33
61.7789	554.56
61.7933	548.45
61.8078	573.65
61.8222	552.69
61.8366	547.48
61.8511	539.88
61.8655	538.75
61.8800	533.27
61.8944	488.25
61.9088	548.45
61.9233	548.56
61.9377	506.67
61.9522	508.91
61.9666	502.38
61.9810	528.11
61.9955	530.25
62.0099	533.56
62.0244	557.21
62.0388	523.19
62.0532	512.21
62.0677	551.75
62.0821	540.99
62.0966	512.54
62.1110	528.88
62.1254	532.95
62.1399	515.52
62.1543	537.80
62.1688	512.99
62.1832	535.26
62.1976	516.36
62.2121	539.77
62.2265	544.29
62.2410	562.71
62.2554	547.04
62.2698	580.07
62.2843	556.17
62.2987	539.48
62.3132	534.45
62.3276	566.64
62.3420	551.62
62.3565	546.60
62.3709	558.62
62.3854	521.19
62.3998	519.80
62.4142	560.87
62.4287	554.70
62.4431	556.51
62.4576	581.01
62.4720	587.12
62.4864	565.92
62.5009	539.86
62.5153	569.02
62.5298	559.73
62.5442	548.25
62.5586	555.47
62.5731	571.64
62.5875	551.32
62.6020	576.11
62.6164	566.26
62.6308	546.04
62.6453	535.99
62.6597	573.17
62.6742	574.09
62.6886	536.90
62.7030	546.04
62.7175	566.30
62.7319	523.28
62.7464	534.37
62.7608	535.84
62.7752	561.17
62.7897	597.32
62.8041	568.20
62.8186	557.98
62.8330	594.34
62.8474	560.56
62.8619	565.86
62.8763	590.16
62.8908	547.61
62.9052	532.67
62.9196	561.90
62.9341	561.94
62.9485	561.08
62.9630	560.70
62.9774	577.94
62.9918	580.97
63.0063	584.82
63.0207	581.02
63.0352	555.69
63.0496	574.64
63.0640	573.84
63.0785	568.83
63.0929	557.61
63.1074	585.95
63.1218	575.27
63.1362	574.50
63.1507	588.38
63.1651	598.06
63.1796	555.38
63.1940	558.46
63.2084	570.79
63.2229	586.14
63.2373	562.85
63.2518	559.34
63.2662	550.06
63.2806	563.01
63.2951	605.58
63.3095	595.99
63.3240	607.62
63.3384	585.71
63.3528	595.73
63.3673	570.20
63.3817	564.69
63.3962	575.24
63.4106	543.52
63.4250	591.83
63.4395	592.12
63.4539	540.19
63.4684	571.87
63.4828	589.58
63.4972	600.05
63.5117	582.17
63.5261	612.08
63.5406	602.93
63.5550	626.17
63.5694	615.05
63.5839	580.49
63.5983	602.70
63.6128	609.25
63.6272	586.26
63.6416	598.38
63.6561	612.71
63.6705	591.39
63.6850	606.64
63.6994	588.08
63.7138	621.97
63.7283	595.23
63.7427	595.44
63.7572	558.45
63.7716	612.23
63.7861	669.09
63.8005	626.29
63.8149	644.19
63.8294	642.92
63.8438	642.85
63.8583	657.17
63.8727	671.80
63.8871	658.79
63.9016	679.18
63.9160	675.43
63.9305	723.04
63.9449	737.06
63.9593	732.43
63.9738	797.42
63.9882	768.78
64.0027	782.38
64.0171	823.48
64.0315	841.34
64.0460	869.72
64.0604	825.14
64.0749	831.76
64.0893	799.22
64.1037	818.41
64.1182	802.70
64.1326	781.61
64.1471	756.72
64.1615	764.46
64.1759	796.95
64.1904	790.13
64.2048	788.07
64.2193	753.29
64.2337	765.86
64.2481	790.69
64.2626	731.22
64.2770	724.49
64.2915	713.07
64.3059	732.83
64.3203	665.99
64.3348	664.45
64.3492	661.16
64.3637	674.74
64.3781	647.98
64.3925	616.69
64.4070	659.71
64.4214	656.19
64.4359	643.76
64.4503	652.12
64.4647	654.23
64.4792	649.40
64.4936	646.31
64.5081	636.14
64.5225	646.47
64.5369	653.54
64.5514	642.80
64.5658	638.21
64.5803	657.72
64.5947	646.12
64.6091	645.48
64.6236	651.37
64.6380	661.00
64.6525	646.53
64.6669	690.80
64.6813	681.24
64.6958	718.60
64.7102	726.50
64.7247	675.72
64.7391	677.84
64.7535	708.78
64.7680	686.30
64.7824	709.83
64.7969	775.11
64.8113	795.39
64.8257	791.39
64.8402	811.17
64.8546	823.51
64.8691	849.37
64.8835	856.77
64.8979	848.69
64.9124	927.95
64.9268	836.37
64.9413	899.45
64.9557	939.85
64.9701	1009.80
64.9846	1078.51
64.9990	1165.17
65.0135	1414.89
65.0279	1516.32
65.0423	1731.59
65.0568	2213.73
65.0712	2750.43
65.0857	3615.12
65.1001	4693.07
65.1145	6276.53
65.1290	8339.41
65.1434	9958.11
65.1579	11478.87
65.1723	12055.14
65.1867	11101.60
65.2012	9795.59
65.2156	8210.62
65.2301	6416.62
65.2445	5147.59
65.2589	4324.81
65.2734	4149.36
65.2878	4552.05
65.3023	5223.11
65.3167	5914.00
65.3311	6697.48
65.3456	7059.19
65.3600	6976.89
65.3745	6430.62
65.3889	5320.10
65.4033	4315.22
65.4178	3373.40
65.4322	2734.97
65.4467	2041.22
65.4611	1695.99
65.4755	1450.97
65.4900	1290.50
65.5044	1158.41
65.5189	1037.57
65.5333	979.40
65.5477	913.60
65.5622	885.42
65.5766	860.29
65.5911	822.72
65.6055	826.83
65.6199	782.38
65.6344	772.53
65.6488	776.11
65.6633	763.88
65.6777	727.54
65.6921	720.46
65.7066	744.81
65.7210	719.06
65.7355	662.61
65.7499	698.33
65.7643	653.22
65.7788	666.22
65.7932	677.72
65.8077	703.39
65.8221	664.57
65.8365	676.60
65.8510	668.81
65.8654	672.95
65.8799	655.98
65.8943	671.79
65.9087	651.69
65.9232	653.31
65.9376	659.26
65.9521	667.21
65.9665	646.98
65.9809	582.25
65.9954	625.23
66.0098	657.71
66.0243	665.31
66.0387	684.08
66.0531	639.86
66.0676	637.94
66.0820	618.01
66.0965	656.59
66.1109	641.91
66.1253	637.09
66.1398	600.65
66.1542	598.91
66.1687	620.61
66.1831	630.71
66.1975	614.57
66.2120	616.90
66.2264	613.76
66.2409	633.19
66.2553	602.60
66.2697	607.67
66.2842	597.57
66.2986	568.81
66.3131	594.10
66.3275	605.52
66.3419	624.87
66.3564	577.25
66.3708	560.48
66.3853	587.88
66.3997	577.55
66.4141	566.11
66.4286	632.42
66.4430	586.19
66.4575	596.16
66.4719	639.94
66.4863	581.87
66.5008	610.19
66.5152	591.51
66.5297	588.80
66.5441	561.05
66.5585	598.53
66.5730	569.54
66.5874	617.47
66.6019	626.71
66.6163	606.23
66.6307	611.75
66.6452	599.63
66.6596	596.19
66.6741	593.15
66.6885	585.54
66.7029	598.81
66.7174	610.37
66.7318	576.84
66.7463	606.16
66.7607	605.78
66.7751	621.13
66.7896	619.56
66.8040	606.08
66.8185	606.16
66.8329	591.82
66.8473	557.29
66.8618	591.91
66.8762	597.05
66.8907	574.16
66.9051	595.90
66.9195	607.47
66.9340	624.65
66.9484	614.73
66.9629	607.90
66.9773	587.54
66.9917	590.37
67.0062	587.85
67.0206	615.93
67.0351	589.37
67.0495	570.17
67.0639	583.44
67.0784	614.66
67.0928	598.68
67.1073	573.73
67.1217	571.91
67.1361	563.79
67.1506	538.57
67.1650	556.64
67.1795	625.25
67.1939	595.90
67.2083	582.41
67.2228	607.14
67.2372	608.32
67.2517	628.07
67.2661	585.07
67.2805	603.85
67.2950	572.72
67.3094	577.32
67.3239	561.42
67.3383	606.99
67.3527	605.38
67.3672	573.75
67.3816	572.69
67.3961	601.73
67.4105	604.85
67.4250	617.88
67.4394	576.89
67.4538	583.56
67.4683	591.45
67.4827	606.11
67.4972	587.92
67.5116	571.21
67.5260	550.68
67.5405	601.57
67.5549	615.64
67.5694	595.33
67.5838	573.17
67.5982	571.03
67.6127	570.56
67.6271	564.84
67.6416	561.66
67.6560	582.32
67.6704	563.12
67.6849	614.40
67.6993	575.91
67.7138	570.33
67.7282	599.87
67.7426	584.29
67.7571	568.17
67.7715	544.08
67.7860	606.92
67.8004	598.64
67.8148	570.61
67.8293	589.75
67.8437	591.52
67.8582	583.18
67.8726	576.93
67.8870	574.01
67.9015	615.31
67.9159	583.38
67.9304	578.45
67.9448	557.49
67.9592	584.72
67.9737	591.35
67.9881	611.90
68.0026	555.25
68.0170	531.55
68.0314	597.57
68.0459	560.07
68.0603	563.98
68.0748	591.63
68.0892	572.98
68.1036	566.67
68.1181	589.47
68.1325	611.33
68.1470	553.63
68.1614	599.05
68.1758	612.22
68.1903	617.20
68.2047	608.55
68.2192	609.90
68.2336	575.22
68.2480	573.25
68.2625	547.10
68.2769	531.26
68.2914	580.60
68.3058	597.83
68.3202	562.45
68.3347	616.79
68.3491	597.94
68.3636	561.56
68.3780	526.80
68.3924	603.28
68.4069	545.73
68.4213	616.68
68.4358	632.71
68.4502	555.04
68.4646	545.23
68.4791	581.12
68.4935	588.94
68.5080	568.80
68.5224	578.37
68.5368	612.22
68.5513	556.38
68.5657	579.26
68.5802	585.81
68.5946	553.75
68.6090	569.71
68.6235	563.69
68.6379	606.18
68.6524	561.61
68.6668	580.78
68.6812	561.33
68.6957	588.23
68.7101	628.83
68.7246	563.73
68.7390	560.44
68.7534	550.29
68.7679	541.78
68.7823	599.91
68.7968	548.76
68.8112	589.27
68.8256	589.52
68.8401	541.08
68.8545	531.95
68.8690	577.78
68.8834	597.60
68.8978	584.03
68.9123	564.32
68.9267	632.44
68.9412	557.13
68.9556	525.49
68.9700	527.01
68.9845	560.25
68.9989	581.49
69.0134	604.78
69.0278	613.33
69.0422	571.96
69.0567	575.89
69.0711	597.26
69.0856	585.64
69.1000	615.68
69.1144	604.58
69.1289	610.57
69.1433	544.39
69.1578	561.94
69.1722	592.89
69.1866	596.11
69.2011	568.97
69.2155	584.35
69.2300	559.02
69.2444	583.80
69.2588	556.55
69.2733	557.24
69.2877	540.65
69.3022	506.88
69.3166	556.81
69.3310	565.11
69.3455	589.53
69.3599	550.71
69.3744	564.08
69.3888	611.40
69.4032	572.82
69.4177	542.08
69.4321	585.28
69.4466	572.51
69.4610	615.73
69.4754	623.73
69.4899	592.53
69.5043	580.17
69.5188	598.69
69.5332	596.52
69.5476	553.44
69.5621	577.97
69.5765	562.55
69.5910	573.65
69.6054	602.27
69.6198	603.09
69.6343	609.46
69.6487	606.74
69.6632	598.02
69.6776	594.97
69.6920	607.93
69.7065	620.77
69.7209	584.45
69.7354	581.49
69.7498	560.81
69.7642	536.12
69.7787	563.05
69.7931	600.34
69.8076	589.44
69.8220	546.72
69.8364	602.01
69.8509	560.54
69.8653	552.16
69.8798	578.39
69.8942	610.63
69.9086	564.70
69.9231	617.66
69.9375	635.53
69.9520	570.59
69.9664	552.67
69.9808	579.46
69.9953	573.90
70.0097	547.60
70.0242	530.10
70.0386	606.73
70.0530	547.83
70.0675	585.69
70.0819	561.49
70.0964	653.96
70.1108	566.70
70.1252	582.79
70.1397	601.11
70.1541	572.72
70.1686	590.55
70.1830	538.60
70.1974	590.04
70.2119	578.99
70.2263	548.00
70.2408	601.46
70.2552	541.90
70.2696	581.76
70.2841	536.40
70.2985	523.01
70.3130	585.70
70.3274	567.96
70.3418	599.34
70.3563	554.09
70.3707	556.29
70.3852	556.17
70.3996	553.42
70.4140	612.56
70.4285	625.84
70.4429	639.48
70.4574	570.66
70.4718	682.35
70.4862	618.73
70.5007	585.65
70.5151	574.26
70.5296	597.70
70.5440	584.24
70.5584	546.85
70.5729	572.63
70.5873	547.99
70.6018	574.34
70.6162	569.59
70.6306	542.59
70.6451	586.25
70.6595	591.90
70.6740	602.01
70.6884	533.30
70.7028	533.00
70.7173	570.62
70.7317	549.32
70.7462	590.58
70.7606	612.73
70.7750	641.76
70.7895	589.44
70.8039	603.64
70.8184	615.68
70.8328	599.31
70.8472	553.62
70.8617	609.78
70.8761	569.15
70.8906	575.35
70.9050	580.51
70.9194	580.13
70.9339	532.42
70.9483	550.80
70.9628	591.53
70.9772	558.72
70.9916	619.38
71.0061	621.04
71.0205	619.02
71.0350	586.86
71.0494	590.42
71.0638	589.66
71.0783	588.83
71.0927	619.30
71.1072	536.40
71.1216	571.32
71.1361	583.18
71.1505	554.03
71.1649	543.68
71.1794	543.53
71.1938	607.67
71.2083	616.15
71.2227	589.44
71.2371	563.08
71.2516	587.55
71.2660	618.13
71.2805	618.20
71.2949	577.09
71.3093	640.03
71.3238	648.36
71.3382	583.63
71.3527	535.85
71.3671	556.95
71.3815	579.22
71.3960	610.52
71.4104	596.55
71.4249	580.32
71.4393	618.64
71.4537	609.91
71.4682	568.08
71.4826	543.19
71.4971	517.72
71.5115	516.03
71.5259	534.45
71.5404	583.67
71.5548	593.51
71.5693	569.18
71.5837	534.27
71.5981	504.77
71.6126	491.02
71.6270	560.63
71.6415	592.20
71.6559	567.50
71.6703	588.97
71.6848	589.98
71.6992	637.49
71.7137	604.85
71.7281	570.82
71.7425	560.21
71.7570	579.94
71.7714	574.84
71.7859	624.96
71.8003	659.36
71.8147	569.72
71.8292	549.83
71.8436	568.88
71.8581	591.65
71.8725	592.16
71.8869	593.04
71.9014	597.96
71.9158	604.83
71.9303	571.29
71.9447	626.26
71.9591	620.83
71.9736	589.96
71.9880	560.15
72.0025	479.78
72.0169	541.31
72.0313	622.83
72.0458	569.44
72.0602	558.57
72.0747	582.42
72.0891	609.40
72.1035	586.41
72.1180	540.32
72.1324	551.48
72.1469	520.33
72.1613	505.16
72.1757	576.88
72.1902	604.58
72.2046	536.79
72.2191	563.59
72.2335	561.20
72.2479	545.89
72.2624	510.00
72.2768	504.52
72.2913	565.77
72.3057	633.36
72.3201	626.77
72.3346	600.15
72.3490	632.27
72.3635	572.79
72.3779	537.81
72.3923	544.43
72.4068	530.97
72.4212	600.99
72.4357	626.59
72.4501	595.50
72.4645	612.67
72.4790	615.48
72.4934	566.38
72.5079	615.56
72.5223	625.58
72.5367	549.81
72.5512	473.04
72.5656	533.07
72.5801	580.84
72.5945	564.49
72.6089	547.60
72.6234	548.50
72.6378	506.81
72.6523	451.81
72.6667	531.73
72.6811	643.58
72.6956	561.99
72.7100	533.93
72.7245	585.87
72.7389	624.51
72.7533	590.71
72.7678	604.79
72.7822	652.68
72.7967	630.86
72.8111	648.17
72.8255	561.67
72.8400	549.57
72.8544	604.68
72.8689	594.93
72.8833	565.99