2022.09.19 19:37:16
Îáðàçåö: ß÷åéêà LCoV 16-09-2022
Lambda1 = 1.54060
Lambda2 = 1.54439
Lambdam = 1.54186
R = 0.497
2Theta	I

line¹ 0 ;repeat¹ 0
22.1120	513.34
22.1264	643.07
22.1409	570.99
22.1553	527.11
22.1697	573.93
22.1842	578.94
22.1986	544.05
22.2131	535.21
22.2275	621.49
22.2419	624.54
22.2564	577.38
22.2708	556.70
22.2853	569.34
22.2997	583.18
22.3141	627.25
22.3286	621.04
22.3430	536.31
22.3575	506.54
22.3719	574.30
22.3863	548.27
22.4008	564.73
22.4152	552.09
22.4297	544.42
22.4441	520.27
22.4585	574.66
22.4730	723.12
22.4874	646.43
22.5019	608.87
22.5163	579.67
22.5307	577.10
22.5452	566.82
22.5596	619.10
22.5741	513.03
22.5885	515.50
22.6029	568.44
22.6174	626.82
22.6318	668.12
22.6463	556.33
22.6607	568.63
22.6751	589.83
22.6896	529.57
22.7040	584.52
22.7185	627.70
22.7329	564.48
22.7473	526.49
22.7618	553.57
22.7762	547.50
22.7907	536.73
22.8051	585.00
22.8195	559.20
22.8340	547.80
22.8484	589.96
22.8629	658.05
22.8773	529.09
22.8917	559.39
22.9062	628.28
22.9206	552.13
22.9351	550.43
22.9495	628.51
22.9639	565.01
22.9784	552.39
22.9928	498.92
23.0073	531.03
23.0217	611.99
23.0361	510.44
23.0506	531.01
23.0650	591.67
23.0795	543.07
23.0939	547.47
23.1083	509.76
23.1228	600.23
23.1372	569.61
23.1517	537.32
23.1661	632.10
23.1806	553.95
23.1950	530.57
23.2094	551.16
23.2239	477.11
23.2383	522.21
23.2528	561.36
23.2672	518.80
23.2816	531.69
23.2961	545.27
23.3105	578.57
23.3250	600.02
23.3394	550.27
23.3538	535.83
23.3683	550.13
23.3827	518.07
23.3972	496.52
23.4116	553.76
23.4260	577.67
23.4405	544.28
23.4549	491.51
23.4694	595.41
23.4838	543.84
23.4982	541.22
23.5127	535.65
23.5271	562.68
23.5416	648.12
23.5560	558.54
23.5704	566.67
23.5849	513.57
23.5993	538.45
23.6138	619.51
23.6282	545.00
23.6426	551.81
23.6571	557.63
23.6715	585.45
23.6860	526.11
23.7004	583.82
23.7148	608.36
23.7293	635.86
23.7437	587.68
23.7582	533.75
23.7726	518.49
23.7870	501.14
23.8015	469.39
23.8159	553.97
23.8304	567.98
23.8448	548.84
23.8592	501.49
23.8737	620.19
23.8881	638.34
23.9026	567.32
23.9170	469.69
23.9314	548.83
23.9459	598.66
23.9603	539.66
23.9748	543.92
23.9892	531.06
24.0036	522.59
24.0181	580.98
24.0325	625.68
24.0470	606.10
24.0614	562.61
24.0758	534.43
24.0903	575.73
24.1047	577.12
24.1192	535.08
24.1336	585.74
24.1480	522.63
24.1625	561.89
24.1769	591.10
24.1914	576.22
24.2058	550.48
24.2202	597.10
24.2347	549.84
24.2491	608.84
24.2636	597.24
24.2780	547.75
24.2924	558.94
24.3069	610.17
24.3213	607.06
24.3358	605.40
24.3502	588.18
24.3646	521.52
24.3791	548.57
24.3935	589.76
24.4080	536.02
24.4224	532.62
24.4368	496.68
24.4513	552.03
24.4657	567.18
24.4802	540.91
24.4946	551.48
24.5090	576.78
24.5235	561.48
24.5379	580.16
24.5524	569.16
24.5668	608.36
24.5812	582.35
24.5957	603.38
24.6101	533.33
24.6246	536.21
24.6390	558.45
24.6534	580.18
24.6679	525.52
24.6823	560.38
24.6968	546.85
24.7112	516.89
24.7256	540.15
24.7401	524.52
24.7545	577.42
24.7690	540.05
24.7834	562.20
24.7978	539.26
24.8123	574.21
24.8267	490.62
24.8412	541.14
24.8556	519.94
24.8700	572.76
24.8845	547.75
24.8989	551.21
24.9134	572.98
24.9278	525.42
24.9422	529.05
24.9567	561.30
24.9711	561.55
24.9856	570.60
25.0000	520.55
25.0144	550.22
25.0289	605.56
25.0433	552.61
25.0578	581.67
25.0722	567.41
25.0866	558.48
25.1011	534.70
25.1155	546.96
25.1300	605.58
25.1444	532.79
25.1588	508.08
25.1733	579.71
25.1877	568.66
25.2022	541.14
25.2166	515.04
25.2310	534.65
25.2455	573.77
25.2599	539.32
25.2744	558.30
25.2888	546.95
25.3032	541.50
25.3177	557.00
25.3321	560.65
25.3466	551.29
25.3610	556.14
25.3754	535.54
25.3899	511.92
25.4043	524.75
25.4188	545.72
25.4332	565.95
25.4476	499.11
25.4621	532.33
25.4765	562.36
25.4910	528.73
25.5054	547.18
25.5198	565.94
25.5343	562.18
25.5487	546.13
25.5632	543.54
25.5776	584.45
25.5920	554.51
25.6065	555.14
25.6209	545.75
25.6354	574.34
25.6498	579.13
25.6642	543.84
25.6787	535.45
25.6931	534.99
25.7076	510.70
25.7220	525.72
25.7364	532.70
25.7509	513.61
25.7653	506.64
25.7798	579.26
25.7942	575.09
25.8086	518.65
25.8231	516.78
25.8375	544.65
25.8520	517.37
25.8664	513.95
25.8808	510.69
25.8953	523.82
25.9097	540.21
25.9242	548.94
25.9386	555.99
25.9530	529.61
25.9675	489.47
25.9819	514.94
25.9964	538.00
26.0108	553.00
26.0252	541.64
26.0397	522.45
26.0541	549.09
26.0686	545.67
26.0830	537.43
26.0974	552.88
26.1119	555.15
26.1263	567.48
26.1408	537.28
26.1552	529.74
26.1696	545.45
26.1841	539.75
26.1985	514.77
26.2130	568.12
26.2274	552.37
26.2418	566.93
26.2563	547.47
26.2707	498.16
26.2852	526.14
26.2996	532.65
26.3140	533.37
26.3285	552.29
26.3429	545.19
26.3574	548.30
26.3718	507.76
26.3862	520.09
26.4007	523.15
26.4151	519.55
26.4296	532.04
26.4440	504.22
26.4584	510.31
26.4729	548.10
26.4873	540.76
26.5018	543.45
26.5162	526.35
26.5306	532.11
26.5451	549.92
26.5595	547.68
26.5740	575.25
26.5884	524.96
26.6028	518.53
26.6173	512.22
26.6317	545.75
26.6462	535.00
26.6606	512.80
26.6750	531.66
26.6895	528.74
26.7039	560.77
26.7184	541.87
26.7328	523.87
26.7472	524.92
26.7617	521.17
26.7761	538.34
26.7906	537.69
26.8050	518.82
26.8194	516.10
26.8339	552.17
26.8483	523.27
26.8628	555.84
26.8772	521.52
26.8917	512.52
26.9061	539.35
26.9205	532.50
26.9350	546.18
26.9494	537.46
26.9639	512.46
26.9783	527.97
26.9927	509.80
27.0072	524.43
27.0216	522.98
27.0361	549.89
27.0505	556.95
27.0649	531.33
27.0794	515.20
27.0938	560.77
27.1083	525.16
27.1227	540.61
27.1371	527.42
27.1516	520.40
27.1660	542.91
27.1805	542.26
27.1949	510.85
27.2093	489.80
27.2238	506.79
27.2382	535.35
27.2527	544.05
27.2671	500.61
27.2815	515.47
27.2960	524.55
27.3104	539.27
27.3249	530.99
27.3393	565.82
27.3537	540.52
27.3682	512.48
27.3826	492.46
27.3971	500.01
27.4115	507.09
27.4259	537.49
27.4404	529.40
27.4548	541.31
27.4693	524.10
27.4837	521.44
27.4981	484.86
27.5126	520.85
27.5270	538.65
27.5415	544.38
27.5559	525.51
27.5703	551.95
27.5848	539.02
27.5992	512.79
27.6137	558.79
27.6281	544.55
27.6425	529.49
27.6570	508.44
27.6714	513.17
27.6859	532.22
27.7003	496.66
27.7147	537.18
27.7292	552.92
27.7436	527.82
27.7581	521.42
27.7725	508.16
27.7869	505.89
27.8014	522.66
27.8158	523.31
27.8303	512.71
27.8447	509.36
27.8591	510.22
27.8736	515.51
27.8880	487.63
27.9025	522.42
27.9169	533.80
27.9313	500.67
27.9458	496.56
27.9602	511.74
27.9747	517.12
27.9891	541.30
28.0035	510.45
28.0180	511.89
28.0324	515.58
28.0469	480.38
28.0613	509.63
28.0757	520.35
28.0902	525.16
28.1046	538.81
28.1191	541.00
28.1335	526.24
28.1479	527.29
28.1624	529.11
28.1768	522.48
28.1913	495.22
28.2057	516.90
28.2201	497.67
28.2346	491.50
28.2490	500.16
28.2635	491.77
28.2779	536.80
28.2923	495.01
28.3068	548.47
28.3212	527.28
28.3357	495.12
28.3501	511.79
28.3645	518.81
28.3790	510.86
28.3934	511.53
28.4079	479.41
28.4223	547.35
28.4367	540.80
28.4512	532.54
28.4656	527.95
28.4801	522.36
28.4945	516.09
28.5089	493.82
28.5234	522.25
28.5378	504.54
28.5523	535.22
28.5667	534.34
28.5811	526.71
28.5956	547.55
28.6100	547.23
28.6245	512.27
28.6389	514.06
28.6533	504.87
28.6678	543.28
28.6822	490.05
28.6967	507.55
28.7111	524.86
28.7255	512.69
28.7400	525.11
28.7544	538.12
28.7689	480.60
28.7833	526.63
28.7977	501.28
28.8122	514.99
28.8266	503.11
28.8411	478.78
28.8555	536.54
28.8699	506.41
28.8844	474.55
28.8988	558.81
28.9133	552.79
28.9277	563.53
28.9421	511.55
28.9566	513.30
28.9710	505.57
28.9855	487.99
28.9999	498.41
29.0143	532.65
29.0288	521.48
29.0432	493.27
29.0577	518.38
29.0721	548.82
29.0865	539.18
29.1010	513.86
29.1154	504.20
29.1299	507.47
29.1443	517.11
29.1587	479.48
29.1732	500.62
29.1876	561.35
29.2021	532.55
29.2165	522.47
29.2309	462.32
29.2454	509.43
29.2598	524.51
29.2743	511.76
29.2887	513.48
29.3031	516.99
29.3176	542.98
29.3320	528.21
29.3465	512.28
29.3609	499.92
29.3753	513.10
29.3898	493.13
29.4042	529.45
29.4187	508.81
29.4331	527.68
29.4475	521.21
29.4620	499.87
29.4764	515.36
29.4909	513.32
29.5053	506.17
29.5197	501.45
29.5342	500.89
29.5486	528.65
29.5631	491.03
29.5775	491.77
29.5919	513.72
29.6064	529.80
29.6208	503.42
29.6353	516.25
29.6497	498.33
29.6641	503.07
29.6786	489.34
29.6930	453.64
29.7075	494.34
29.7219	488.64
29.7363	476.97
29.7508	512.32
29.7652	487.39
29.7797	523.77
29.7941	520.70
29.8085	493.63
29.8230	525.63
29.8374	502.72
29.8519	463.04
29.8663	495.80
29.8807	491.59
29.8952	524.96
29.9096	524.51
29.9241	521.42
29.9385	527.62
29.9529	519.02
29.9674	500.77
29.9818	526.51
29.9963	481.59
30.0107	475.91
30.0251	514.29
30.0396	491.84
30.0540	472.28
30.0685	484.62
30.0829	502.96
30.0973	474.19
30.1118	514.72
30.1262	515.30
30.1407	510.92
30.1551	535.89
30.1695	486.57
30.1840	498.89
30.1984	499.62
30.2129	522.75
30.2273	498.48
30.2417	521.70
30.2562	496.40
30.2706	504.40
30.2851	515.30
30.2995	507.48
30.3139	494.26
30.3284	523.23
30.3428	534.70
30.3573	510.32
30.3717	506.37
30.3861	521.78
30.4006	494.65
30.4150	531.56
30.4295	511.68
30.4439	478.24
30.4583	483.72
30.4728	515.54
30.4872	515.86
30.5017	519.32
30.5161	526.92
30.5305	539.93
30.5450	533.13
30.5594	516.07
30.5739	535.97
30.5883	526.90
30.6028	533.09
30.6172	511.11
30.6316	549.03
30.6461	555.27
30.6605	580.33
30.6750	574.77
30.6894	578.15
30.7038	601.03
30.7183	621.93
30.7327	669.37
30.7472	681.90
30.7616	693.96
30.7760	692.14
30.7905	675.53
30.8049	676.03
30.8194	672.74
30.8338	663.97
30.8482	634.95
30.8627	657.73
30.8771	656.75
30.8916	637.96
30.9060	649.10
30.9204	633.66
30.9349	601.95
30.9493	555.91
30.9638	533.36
30.9782	563.94
30.9926	547.29
31.0071	539.72
31.0215	539.21
31.0360	550.65
31.0504	556.41
31.0648	546.16
31.0793	528.85
31.0937	516.62
31.1082	524.01
31.1226	512.91
31.1370	504.70
31.1515	502.20
31.1659	526.94
31.1804	545.44
31.1948	534.91
31.2092	509.18
31.2237	522.78
31.2381	538.12
31.2526	524.54
31.2670	539.79
31.2814	561.20
31.2959	512.83
31.3103	563.47
31.3248	536.55
31.3392	518.61
31.3536	533.15
31.3681	536.68
31.3825	487.35
31.3970	481.18
31.4114	489.84
31.4258	512.88
31.4403	495.93
31.4547	499.78
31.4692	482.07
31.4836	493.48
31.4980	503.98
31.5125	491.31
31.5269	535.67
31.5414	532.73
31.5558	530.20
31.5702	530.39
31.5847	476.59
31.5991	534.32
31.6136	510.45
31.6280	471.87
31.6424	488.59
31.6569	523.28
31.6713	535.68
31.6858	503.98
31.7002	505.92
31.7146	514.59
31.7291	533.29
31.7435	518.21
31.7580	541.99
31.7724	472.31
31.7868	491.56
31.8013	533.73
31.8157	540.84
31.8302	514.02
31.8446	513.73
31.8590	485.37
31.8735	505.13
31.8879	505.73
31.9024	524.95
31.9168	502.05
31.9312	476.08
31.9457	488.44
31.9601	474.01
31.9746	513.87
31.9890	522.78
32.0034	508.13
32.0179	528.39
32.0323	506.80
32.0468	526.77
32.0612	534.18
32.0756	502.84
32.0901	518.85
32.1045	507.42
32.1190	519.97
32.1334	515.12
32.1478	486.52
32.1623	468.71
32.1767	482.75
32.1912	490.95
32.2056	479.97
32.2200	504.51
32.2345	511.56
32.2489	532.30
32.2634	525.04
32.2778	488.35
32.2922	504.94
32.3067	494.95
32.3211	513.73
32.3356	519.33
32.3500	513.85
32.3644	529.22
32.3789	491.59
32.3933	461.08
32.4078	472.45
32.4222	513.48
32.4366	513.12
32.4511	494.29
32.4655	530.16
32.4800	536.65
32.4944	485.19
32.5088	492.63
32.5233	472.73
32.5377	492.26
32.5522	515.18
32.5666	495.14
32.5810	479.71
32.5955	479.48
32.6099	500.90
32.6244	500.07
32.6388	542.64
32.6532	501.78
32.6677	484.11
32.6821	476.14
32.6966	491.40
32.7110	520.67
32.7254	514.02
32.7399	516.89
32.7543	508.01
32.7688	466.27
32.7832	528.24
32.7976	515.99
32.8121	519.18
32.8265	533.43
32.8410	496.69
32.8554	513.44
32.8698	480.74
32.8843	494.86
32.8987	513.91
32.9132	484.04
32.9276	505.75
32.9420	525.78
32.9565	513.22
32.9709	523.97
32.9854	507.36
32.9998	494.77
33.0142	507.70
33.0287	528.06
33.0431	515.78
33.0576	574.94
33.0720	543.88
33.0864	550.03
33.1009	524.66
33.1153	514.48
33.1298	499.06
33.1442	495.08
33.1586	464.32
33.1731	494.23
33.1875	491.50
33.2020	520.01
33.2164	500.82
33.2308	482.61
33.2453	489.90
33.2597	463.13
33.2742	506.21
33.2886	512.64
33.3030	491.53
33.3175	494.48
33.3319	498.80
33.3464	476.03
33.3608	546.52
33.3752	490.64
33.3897	511.50
33.4041	515.67
33.4186	517.72
33.4330	530.79
33.4474	489.17
33.4619	485.50
33.4763	509.07
33.4908	537.14
33.5052	474.17
33.5196	520.81
33.5341	522.28
33.5485	470.69
33.5630	478.44
33.5774	528.01
33.5918	528.06
33.6063	514.32
33.6207	501.41
33.6352	513.97
33.6496	504.13
33.6640	481.22
33.6785	487.86
33.6929	492.65
33.7074	503.22
33.7218	468.18
33.7362	470.52
33.7507	476.35
33.7651	485.90
33.7796	514.32
33.7940	459.29
33.8084	486.50
33.8229	506.60
33.8373	512.47
33.8518	508.31
33.8662	511.46
33.8806	519.84
33.8951	527.77
33.9095	526.03
33.9240	503.53
33.9384	516.61
33.9528	499.37
33.9673	509.98
33.9817	471.93
33.9962	509.97
34.0106	492.64
34.0250	490.01
34.0395	532.59
34.0539	499.18
34.0684	497.21
34.0828	502.21
34.0972	510.21
34.1117	502.19
34.1261	546.65
34.1406	513.39
34.1550	491.41
34.1694	489.77
34.1839	506.23
34.1983	524.74
34.2128	501.27
34.2272	479.13
34.2417	487.76
34.2561	494.56
34.2705	508.96
34.2850	467.68
34.2994	472.78
34.3139	463.80
34.3283	503.74
34.3427	507.77
34.3572	536.79
34.3716	491.97
34.3861	506.99
34.4005	496.63
34.4149	510.70
34.4294	541.91
34.4438	537.05
34.4583	531.14
34.4727	502.99
34.4871	503.10
34.5016	480.81
34.5160	505.05
34.5305	524.14
34.5449	501.22
34.5593	515.49
34.5738	475.87
34.5882	492.12
34.6027	478.63
34.6171	475.89
34.6315	509.39
34.6460	537.14
34.6604	499.98
34.6749	503.36
34.6893	516.25
34.7037	546.30
34.7182	537.00
34.7326	487.24
34.7471	465.56
34.7615	492.90
34.7759	513.27
34.7904	540.10
34.8048	536.22
34.8193	537.53
34.8337	534.30
34.8481	511.06
34.8626	524.30
34.8770	520.67
34.8915	510.01
34.9059	541.54
34.9203	519.53
34.9348	521.19
34.9492	528.82
34.9637	523.33
34.9781	501.51
34.9925	524.89
35.0070	502.54
35.0214	508.14
35.0359	503.09
35.0503	510.58
35.0647	539.27
35.0792	526.66
35.0936	523.41
35.1081	490.97
35.1225	472.68
35.1369	503.61
35.1514	510.16
35.1658	501.79
35.1803	503.90
35.1947	512.27
35.2091	499.99
35.2236	511.41
35.2380	493.55
35.2525	512.06
35.2669	496.20
35.2813	485.81
35.2958	485.91
35.3102	539.64
35.3247	483.14
35.3391	527.76
35.3535	516.72
35.3680	522.01
35.3824	506.93
35.3969	495.84
35.4113	529.91
35.4257	538.02
35.4402	525.28
35.4546	517.46
35.4691	508.21
35.4835	541.25
35.4979	531.46
35.5124	523.48
35.5268	518.54
35.5413	523.47
35.5557	531.19
35.5701	511.30
35.5846	535.76
35.5990	520.75
35.6135	543.23
35.6279	522.80
35.6423	547.10
35.6568	542.03
35.6712	530.17
35.6857	544.82
35.7001	629.77
35.7145	688.30
35.7290	642.88
35.7434	586.57
35.7579	576.15
35.7723	564.33
35.7867	583.26
35.8012	603.81
35.8156	675.46
35.8301	649.91
35.8445	609.46
35.8589	662.06
35.8734	726.88
35.8878	841.67
35.9023	1026.09
35.9167	1083.38
35.9311	1330.31
35.9456	2009.05
35.9600	2306.30
35.9745	1898.90
35.9889	1936.93
36.0033	2342.08
36.0178	2642.24
36.0322	2150.77
36.0467	1923.77
36.0611	1741.39
36.0755	1625.43
36.0900	1649.78
36.1044	1531.60
36.1189	1512.66
36.1333	1346.74
36.1477	1175.91
36.1622	1155.37
36.1766	1150.42
36.1911	1045.56
36.2055	1073.09
36.2199	1063.47
36.2344	1068.88
36.2488	1135.91
36.2633	1097.52
36.2777	1074.57
36.2921	1076.44
36.3066	1014.30
36.3210	991.75
36.3355	967.63
36.3499	929.52
36.3643	801.10
36.3788	750.08
36.3932	745.34
36.4077	687.00
36.4221	676.89
36.4365	629.03
36.4510	617.67
36.4654	632.58
36.4799	622.03
36.4943	561.27
36.5087	582.72
36.5232	565.31
36.5376	562.45
36.5521	572.00
36.5665	622.17
36.5809	595.43
36.5954	582.22
36.6098	579.65
36.6243	552.47
36.6387	556.95
36.6531	524.03
36.6676	528.37
36.6820	511.92
36.6965	529.13
36.7109	503.46
36.7253	545.71
36.7398	528.81
36.7542	564.38
36.7687	537.20
36.7831	555.74
36.7975	574.73
36.8120	590.56
36.8264	575.64
36.8409	588.33
36.8553	616.35
36.8697	559.68
36.8842	581.34
36.8986	608.52
36.9131	575.57
36.9275	580.41
36.9419	592.47
36.9564	595.25
36.9708	566.26
36.9853	522.25
36.9997	527.56
37.0141	534.68
37.0286	554.09
37.0430	539.87
37.0575	511.64
37.0719	509.39
37.0863	549.63
37.1008	522.70
37.1152	522.17
37.1297	523.63
37.1441	477.05
37.1585	529.83
37.1730	487.28
37.1874	494.64
37.2019	495.01
37.2163	497.09
37.2307	511.63
37.2452	522.60
37.2596	480.46
37.2741	487.28
37.2885	536.10
37.3029	539.58
37.3174	498.18
37.3318	525.94
37.3463	475.02
37.3607	507.28
37.3751	507.47
37.3896	466.52
37.4040	459.95
37.4185	472.05
37.4329	549.90
37.4473	492.53
37.4618	506.19
37.4762	522.92
37.4907	513.14
37.5051	524.47
37.5195	522.06
37.5340	505.75
37.5484	512.21
37.5629	483.71
37.5773	469.90
37.5917	504.74
37.6062	509.42
37.6206	508.21
37.6351	520.69
37.6495	486.86
37.6639	489.90
37.6784	470.58
37.6928	482.60
37.7073	541.98
37.7217	531.90
37.7361	521.83
37.7506	475.00
37.7650	515.95
37.7795	510.62
37.7939	503.61
37.8083	512.18
37.8228	507.98
37.8372	524.00
37.8517	547.38
37.8661	525.19
37.8805	520.47
37.8950	528.79
37.9094	523.87
37.9239	501.62
37.9383	485.47
37.9528	490.16
37.9672	493.18
37.9816	511.90
37.9961	520.94
38.0105	485.89
38.0250	508.96
38.0394	505.13
38.0538	537.78
38.0683	553.88
38.0827	520.85
38.0972	536.98
38.1116	532.62
38.1260	516.29
38.1405	500.66
38.1549	487.47
38.1694	535.76
38.1838	541.99
38.1982	508.52
38.2127	520.06
38.2271	507.07
38.2416	502.81
38.2560	521.65
38.2704	511.13
38.2849	516.80
38.2993	528.16
38.3138	533.12
38.3282	532.76
38.3426	538.53
38.3571	527.31
38.3715	558.21
38.3860	553.79
38.4004	557.85
38.4148	547.86
38.4293	585.35
38.4437	591.07
38.4582	604.64
38.4726	683.19
38.4870	723.99
38.5015	756.24
38.5159	774.09
38.5304	802.36
38.5448	792.53
38.5592	800.31
38.5737	789.54
38.5881	709.60
38.6026	759.00
38.6170	711.69
38.6314	691.63
38.6459	694.78
38.6603	645.34
38.6748	581.81
38.6892	552.39
38.7036	541.00
38.7181	533.42
38.7325	517.31
38.7470	528.25
38.7614	498.93
38.7758	509.64
38.7903	533.09
38.8047	516.41
38.8192	512.08
38.8336	526.76
38.8480	526.90
38.8625	503.80
38.8769	499.76
38.8914	511.36
38.9058	535.26
38.9202	513.72
38.9347	510.27
38.9491	507.88
38.9636	508.87
38.9780	482.74
38.9924	475.40
39.0069	508.15
39.0213	519.77
39.0358	484.56
39.0502	495.37
39.0646	498.51
39.0791	456.59
39.0935	452.35
39.1080	493.48
39.1224	511.98
39.1368	487.59
39.1513	476.73
39.1657	498.00
39.1802	508.51
39.1946	460.44
39.2090	476.75
39.2235	492.55
39.2379	489.16
39.2524	504.08
39.2668	508.11
39.2812	525.55
39.2957	539.85
39.3101	498.90
39.3246	501.91
39.3390	553.92
39.3534	520.13
39.3679	525.89
39.3823	494.14
39.3968	501.49
39.4112	504.39
39.4256	539.24
39.4401	518.78
39.4545	480.43
39.4690	497.51
39.4834	502.97
39.4978	526.67
39.5123	537.42
39.5267	496.88
39.5412	527.56
39.5556	500.45
39.5700	502.70
39.5845	485.72
39.5989	510.41
39.6134	509.56
39.6278	532.71
39.6422	509.68
39.6567	491.06
39.6711	498.64
39.6856	515.66
39.7000	514.40
39.7144	521.46
39.7289	522.79
39.7433	509.85
39.7578	475.71
39.7722	502.22
39.7866	510.92
39.8011	514.46
39.8155	500.99
39.8300	495.69
39.8444	483.79
39.8588	480.07
39.8733	505.38
39.8877	502.35
39.9022	516.71
39.9166	498.45
39.9310	481.92
39.9455	464.08
39.9599	493.59
39.9744	476.44
39.9888	494.03
40.0032	470.34
40.0177	497.87
40.0321	499.94
40.0466	508.12
40.0610	504.80
40.0754	523.70
40.0899	536.13
40.1043	483.35
40.1188	489.06
40.1332	479.24
40.1476	484.16
40.1621	529.24
40.1765	506.00
40.1910	499.52
40.2054	506.51
40.2198	514.39
40.2343	471.54
40.2487	461.74
40.2632	477.29
40.2776	502.67
40.2920	507.82
40.3065	491.04
40.3209	510.44
40.3354	500.22
40.3498	497.18
40.3642	460.56
40.3787	472.75
40.3931	466.07
40.4076	518.00
40.4220	489.55
40.4364	531.97
40.4509	511.15
40.4653	528.66
40.4798	530.60
40.4942	508.99
40.5086	486.39
40.5231	534.79
40.5375	515.31
40.5520	498.45
40.5664	491.49
40.5808	478.48
40.5953	525.66
40.6097	512.75
40.6242	514.10
40.6386	542.46
40.6530	494.84
40.6675	533.09
40.6819	496.91
40.6964	502.15
40.7108	514.96
40.7252	506.92
40.7397	513.06
40.7541	504.40
40.7686	476.18
40.7830	479.11
40.7974	478.82
40.8119	480.83
40.8263	483.20
40.8408	478.17
40.8552	505.21
40.8696	504.58
40.8841	481.75
40.8985	482.85
40.9130	470.90
40.9274	515.02
40.9418	493.91
40.9563	480.55
40.9707	485.13
40.9852	536.99
40.9996	504.39
41.0140	469.20
41.0285	482.29
41.0429	508.67
41.0574	488.95
41.0718	512.71
41.0862	481.84
41.1007	484.97
41.1151	514.30
41.1296	531.77
41.1440	499.44
41.1584	516.97
41.1729	489.12
41.1873	526.45
41.2018	527.69
41.2162	511.54
41.2306	524.32
41.2451	499.17
41.2595	509.18
41.2740	521.95
41.2884	506.46
41.3028	489.52
41.3173	505.96
41.3317	536.82
41.3462	495.85
41.3606	486.21
41.3750	507.92
41.3895	525.43
41.4039	497.35
41.4184	484.95
41.4328	503.13
41.4472	499.49
41.4617	505.20
41.4761	513.22
41.4906	511.97
41.5050	497.36
41.5194	489.36
41.5339	523.29
41.5483	537.28
41.5628	513.37
41.5772	466.94
41.5916	496.27
41.6061	492.92
41.6205	466.48
41.6350	515.86
41.6494	526.33
41.6639	480.14
41.6783	488.09
41.6927	500.20
41.7072	484.86
41.7216	484.95
41.7361	487.31
41.7505	508.00
41.7649	525.62
41.7794	477.39
41.7938	487.46
41.8083	517.05
41.8227	526.52
41.8371	494.71
41.8516	530.39
41.8660	537.26
41.8805	511.02
41.8949	545.56
41.9093	520.99
41.9238	566.16
41.9382	556.40
41.9527	574.18
41.9671	588.77
41.9815	580.56
41.9960	559.75
42.0104	545.77
42.0249	571.89
42.0393	583.78
42.0537	562.22
42.0682	564.50
42.0826	539.31
42.0971	591.03
42.1115	557.54
42.1259	595.91
42.1404	608.87
42.1548	556.30
42.1693	650.06
42.1837	686.27
42.1981	703.37
42.2126	821.34
42.2270	903.14
42.2415	1031.91
42.2559	1175.05
42.2703	1294.30
42.2848	1460.24
42.2992	1539.87
42.3137	1658.22
42.3281	1642.59
42.3425	1514.76
42.3570	1462.19
42.3714	1407.76
42.3859	1362.47
42.4003	1331.10
42.4147	1327.27
42.4292	1240.18
42.4436	1104.81
42.4581	1034.74
42.4725	939.46
42.4869	820.66
42.5014	750.73
42.5158	678.18
42.5303	643.58
42.5447	633.89
42.5591	591.92
42.5736	575.81
42.5880	550.23
42.6025	552.29
42.6169	574.16
42.6313	582.15
42.6458	557.05
42.6602	553.80
42.6747	557.65
42.6891	530.99
42.7035	529.78
42.7180	539.99
42.7324	543.76
42.7469	529.46
42.7613	506.86
42.7757	511.29
42.7902	520.47
42.8046	532.86
42.8191	519.92
42.8335	481.96
42.8479	509.30
42.8624	543.39
42.8768	566.67
42.8913	511.43
42.9057	507.81
42.9201	511.82
42.9346	530.14
42.9490	471.02
42.9635	526.96
42.9779	514.80
42.9923	500.73
43.0068	497.61
43.0212	522.40
43.0357	523.50
43.0501	525.31
43.0645	505.10
43.0790	516.70
43.0934	528.65
43.1079	511.25
43.1223	502.19
43.1367	524.06
43.1512	509.25
43.1656	516.02
43.1801	537.51
43.1945	528.87
43.2089	513.22
43.2234	490.71
43.2378	534.41
43.2523	536.97
43.2667	502.89
43.2811	517.71
43.2956	512.80
43.3100	529.01
43.3245	484.25
43.3389	533.29
43.3533	523.73
43.3678	496.39
43.3822	530.13
43.3967	544.07
43.4111	514.02
43.4255	549.34
43.4400	519.39
43.4544	516.37
43.4689	493.01
43.4833	522.99
43.4977	527.51
43.5122	507.90
43.5266	512.77
43.5411	519.16
43.5555	516.75
43.5699	494.19
43.5844	510.58
43.5988	505.49
43.6133	531.82
43.6277	516.42
43.6421	555.87
43.6566	539.88
43.6710	505.14
43.6855	537.10
43.6999	551.55
43.7143	497.57
43.7288	499.22
43.7432	505.20
43.7577	527.11
43.7721	464.50
43.7865	496.29
43.8010	487.48
43.8154	514.04
43.8299	532.91
43.8443	533.12
43.8587	532.67
43.8732	547.58
43.8876	564.46
43.9021	532.06
43.9165	522.17
43.9309	521.54
43.9454	519.22
43.9598	537.21
43.9743	526.97
43.9887	576.12
44.0031	585.18
44.0176	634.64
44.0320	582.70
44.0465	696.69
44.0609	652.68
44.0753	650.26
44.0898	637.94
44.1042	631.92
44.1187	603.26
44.1331	592.68
44.1475	594.26
44.1620	590.97
44.1764	627.39
44.1909	580.18
44.2053	572.67
44.2197	574.54
44.2342	571.44
44.2486	584.66
44.2631	574.34
44.2775	543.99
44.2919	563.86
44.3064	569.73
44.3208	517.50
44.3353	544.87
44.3497	515.90
44.3641	566.86
44.3786	559.47
44.3930	558.35
44.4075	559.17
44.4219	570.04
44.4363	574.99
44.4508	606.57
44.4652	592.57
44.4797	578.89
44.4941	592.15
44.5085	595.81
44.5230	566.00
44.5374	575.16
44.5519	611.03
44.5663	585.97
44.5807	556.30
44.5952	543.53
44.6096	569.57
44.6241	584.26
44.6385	571.22
44.6529	589.86
44.6674	579.75
44.6818	582.31
44.6963	588.85
44.7107	685.80
44.7251	756.88
44.7396	749.58
44.7540	814.38
44.7685	884.84
44.7829	909.81
44.7973	868.50
44.8118	834.74
44.8262	879.35
44.8407	783.21
44.8551	741.03
44.8695	759.27
44.8840	728.65
44.8984	770.36
44.9129	694.43
44.9273	713.19
44.9417	726.62
44.9562	629.24
44.9706	584.63
44.9851	517.60
44.9995	552.11
45.0139	529.86
45.0284	518.18
45.0428	543.83
45.0573	534.27
45.0717	526.98
45.0861	555.86
45.1006	565.89
45.1150	527.41
45.1295	514.32
45.1439	491.09
45.1583	523.48
45.1728	513.43
45.1872	510.02
45.2017	478.76
45.2161	516.72
45.2305	517.13
45.2450	534.08
45.2594	530.71
45.2739	531.53
45.2883	495.61
45.3028	472.64
45.3172	475.22
45.3316	528.25
45.3461	518.56
45.3605	501.76
45.3750	498.66
45.3894	499.29
45.4038	475.43
45.4183	506.87
45.4327	514.31
45.4472	494.07
45.4616	494.14
45.4760	510.79
45.4905	531.18
45.5049	480.62
45.5194	486.05
45.5338	497.39
45.5482	474.20
45.5627	506.29
45.5771	496.79
45.5916	503.07
45.6060	505.69
45.6204	500.96
45.6349	527.37
45.6493	495.65
45.6638	507.21
45.6782	491.33
45.6926	520.61
45.7071	515.55
45.7215	540.82
45.7360	511.88
45.7504	516.37
45.7648	495.08
45.7793	503.36
45.7937	505.64
45.8082	511.73
45.8226	479.50
45.8370	497.75
45.8515	481.99
45.8659	523.06
45.8804	491.93
45.8948	519.13
45.9092	539.96
45.9237	527.90
45.9381	504.87
45.9526	484.11
45.9670	502.33
45.9814	525.72
45.9959	522.18
46.0103	496.66
46.0248	501.08
46.0392	485.88
46.0536	485.22
46.0681	518.20
46.0825	496.67
46.0970	476.13
46.1114	465.82
46.1258	481.85
46.1403	504.03
46.1547	517.85
46.1692	525.00
46.1836	501.29
46.1980	487.57
46.2125	490.74
46.2269	504.27
46.2414	509.30
46.2558	492.48
46.2702	504.93
46.2847	525.54
46.2991	496.21
46.3136	505.32
46.3280	492.48
46.3424	497.47
46.3569	523.72
46.3713	506.27
46.3858	472.33
46.4002	487.08
46.4146	500.36
46.4291	517.39
46.4435	490.09
46.4580	491.48
46.4724	504.69
46.4868	504.06
46.5013	492.31
46.5157	482.19
46.5302	505.63
46.5446	487.87
46.5590	516.54
46.5735	515.32
46.5879	474.46
46.6024	479.65
46.6168	505.57
46.6312	480.50
46.6457	472.23
46.6601	513.10
46.6746	520.16
46.6890	489.05
46.7034	488.01
46.7179	524.80
46.7323	537.58
46.7468	508.00
46.7612	486.84
46.7756	521.91
46.7901	509.97
46.8045	475.10
46.8190	511.94
46.8334	507.18
46.8478	518.27
46.8623	520.03
46.8767	489.40
46.8912	483.26
46.9056	490.76
46.9200	489.56
46.9345	522.84
46.9489	513.00
46.9634	498.77
46.9778	510.45
46.9922	549.83
47.0067	521.01
47.0211	498.50
47.0356	525.06
47.0500	540.78
47.0644	542.10
47.0789	527.69
47.0933	515.75
47.1078	492.64
47.1222	482.76
47.1366	512.09
47.1511	484.15
47.1655	512.67
47.1800	524.88
47.1944	508.30
47.2088	507.21
47.2233	516.53
47.2377	498.95
47.2522	511.57
47.2666	536.61
47.2810	538.30
47.2955	518.36
47.3099	523.33
47.3244	518.14
47.3388	498.09
47.3532	492.38
47.3677	491.56
47.3821	483.18
47.3966	507.52
47.4110	502.05
47.4254	494.14
47.4399	483.59
47.4543	478.90
47.4688	501.37
47.4832	557.51
47.4976	537.37
47.5121	506.60
47.5265	487.59
47.5410	490.45
47.5554	512.99
47.5698	500.61
47.5843	480.09
47.5987	501.18
47.6132	501.29
47.6276	511.56
47.6420	495.68
47.6565	517.02
47.6709	511.04
47.6854	498.22
47.6998	514.55
47.7142	521.07
47.7287	470.23
47.7431	480.04
47.7576	516.03
47.7720	492.56
47.7864	486.36
47.8009	481.29
47.8153	495.90
47.8298	515.14
47.8442	499.61
47.8586	537.96
47.8731	541.89
47.8875	504.36
47.9020	531.19
47.9164	494.29
47.9308	518.49
47.9453	491.75
47.9597	477.51
47.9742	511.31
47.9886	497.08
48.0030	503.22
48.0175	511.81
48.0319	499.49
48.0464	513.11
48.0608	515.51
48.0752	509.42
48.0897	537.34
48.1041	518.21
48.1186	505.33
48.1330	535.52
48.1474	511.58
48.1619	519.66
48.1763	509.30
48.1908	498.33
48.2052	503.57
48.2196	527.60
48.2341	495.40
48.2485	496.12
48.2630	472.71
48.2774	501.92
48.2918	503.31
48.3063	504.26
48.3207	512.63
48.3352	556.60
48.3496	483.69
48.3640	479.77
48.3785	512.31
48.3929	518.27
48.4074	507.62
48.4218	529.16
48.4362	518.96
48.4507	499.20
48.4651	489.48
48.4796	503.86
48.4940	499.99
48.5084	473.76
48.5229	516.27
48.5373	503.69
48.5518	517.56
48.5662	496.50
48.5806	547.94
48.5951	555.92
48.6095	529.68
48.6240	488.91
48.6384	505.83
48.6528	544.44
48.6673	511.95
48.6817	471.71
48.6962	487.15
48.7106	556.48
48.7250	531.82
48.7395	492.39
48.7539	549.91
48.7684	522.48
48.7828	558.36
48.7972	544.81
48.8117	501.98
48.8261	529.03
48.8406	519.98
48.8550	506.56
48.8694	569.78
48.8839	536.35
48.8983	568.34
48.9128	541.39
48.9272	539.29
48.9416	519.39
48.9561	554.48
48.9705	589.44
48.9850	605.32
48.9994	545.05
49.0139	582.68
49.0283	572.61
49.0427	570.40
49.0572	573.39
49.0716	648.49
49.0861	663.66
49.1005	635.36
49.1149	689.90
49.1294	747.56
49.1438	740.13
49.1583	754.87
49.1727	825.80
49.1871	864.25
49.2016	964.65
49.2160	973.83
49.2305	1039.10
49.2449	1186.07
49.2593	1295.25
49.2738	1301.08
49.2882	1376.81
49.3027	1506.77
49.3171	1587.42
49.3315	1641.50
49.3460	1666.31
49.3604	1730.08
49.3749	1775.78
49.3893	1766.99
49.4037	1757.70
49.4182	1742.89
49.4326	1685.45
49.4471	1624.12
49.4615	1560.55
49.4759	1582.06
49.4904	1481.58
49.5048	1354.74
49.5193	1357.16
49.5337	1254.20
49.5481	1173.21
49.5626	1110.62
49.5770	1007.14
49.5915	968.97
49.6059	928.27
49.6203	860.67
49.6348	807.04
49.6492	792.26
49.6637	734.03
49.6781	708.48
49.6925	669.98
49.7070	661.14
49.7214	629.38
49.7359	632.13
49.7503	610.32
49.7647	582.77
49.7792	603.97
49.7936	562.84
49.8081	572.91
49.8225	605.70
49.8369	603.37
49.8514	532.83
49.8658	550.64
49.8803	541.07
49.8947	580.64
49.9091	557.49
49.9236	530.32
49.9380	523.37
49.9525	536.48
49.9669	570.51
49.9813	566.45
49.9958	510.97
50.0102	556.45
50.0247	551.62
50.0391	532.01
50.0535	539.68
50.0680	502.34
50.0824	514.47
50.0969	565.01
50.1113	540.15
50.1257	532.76
50.1402	509.33
50.1546	501.19
50.1691	518.46
50.1835	505.90
50.1979	511.08
50.2124	517.36
50.2268	549.56
50.2413	546.87
50.2557	525.98
50.2701	529.93
50.2846	539.02
50.2990	539.89
50.3135	509.63
50.3279	512.85
50.3423	541.76
50.3568	510.74
50.3712	483.65
50.3857	473.92
50.4001	515.37
50.4145	518.80
50.4290	527.50
50.4434	495.67
50.4579	507.76
50.4723	514.24
50.4867	513.68
50.5012	519.72
50.5156	487.11
50.5301	507.94
50.5445	531.05
50.5589	502.79
50.5734	495.39
50.5878	515.52
50.6023	511.27
50.6167	494.16
50.6311	514.57
50.6456	487.73
50.6600	507.97
50.6745	509.42
50.6889	514.61
50.7033	530.45
50.7178	505.42
50.7322	501.87
50.7467	502.59
50.7611	508.01
50.7755	512.65
50.7900	541.49
50.8044	508.38
50.8189	500.26
50.8333	496.26
50.8477	487.52
50.8622	522.15
50.8766	514.42
50.8911	543.28
50.9055	526.72
50.9199	492.93
50.9344	509.01
50.9488	558.68
50.9633	528.65
50.9777	533.45
50.9921	513.84
51.0066	505.93
51.0210	510.42
51.0355	505.73
51.0499	470.06
51.0643	488.44
51.0788	493.57
51.0932	535.45
51.1077	526.80
51.1221	540.22
51.1365	507.70
51.1510	488.60
51.1654	493.05
51.1799	514.11
51.1943	507.39
51.2087	513.33
51.2232	519.50
51.2376	517.92
51.2521	534.96
51.2665	503.75
51.2809	507.41
51.2954	535.15
51.3098	505.79
51.3243	517.53
51.3387	484.20
51.3531	480.46
51.3676	501.79
51.3820	535.63
51.3965	503.56
51.4109	512.49
51.4253	519.20
51.4398	516.12
51.4542	493.19
51.4687	510.75
51.4831	516.55
51.4975	504.32
51.5120	515.40
51.5264	525.22
51.5409	501.82
51.5553	501.04
51.5697	463.34
51.5842	508.20
51.5986	501.49
51.6131	501.19
51.6275	503.04
51.6419	489.91
51.6564	498.23
51.6708	496.73
51.6853	485.80
51.6997	522.71
51.7141	496.37
51.7286	515.86
51.7430	503.03
51.7575	497.75
51.7719	521.98
51.7863	491.94
51.8008	518.10
51.8152	525.61
51.8297	536.88
51.8441	567.29
51.8585	519.18
51.8730	502.24
51.8874	476.01
51.9019	513.64
51.9163	509.97
51.9307	489.46
51.9452	521.31
51.9596	522.52
51.9741	494.90
51.9885	495.04
52.0029	527.87
52.0174	509.66
52.0318	517.71
52.0463	509.14
52.0607	493.94
52.0751	534.86
52.0896	547.48
52.1040	538.64
52.1185	540.58
52.1329	507.92
52.1473	503.10
52.1618	499.62
52.1762	495.50
52.1907	495.20
52.2051	499.51
52.2195	520.66
52.2340	499.27
52.2484	545.95
52.2629	555.55
52.2773	500.58
52.2917	478.64
52.3062	507.60
52.3206	487.02
52.3351	515.04
52.3495	470.25
52.3639	505.25
52.3784	507.08
52.3928	498.89
52.4073	538.61
52.4217	552.42
52.4361	544.24
52.4506	503.29
52.4650	537.11
52.4795	517.45
52.4939	538.31
52.5083	533.48
52.5228	528.57
52.5372	524.27
52.5517	502.23
52.5661	536.39
52.5805	559.02
52.5950	516.93
52.6094	482.40
52.6239	552.82
52.6383	513.61
52.6527	524.88
52.6672	521.50
52.6816	528.98
52.6961	486.73
52.7105	511.71
52.7250	545.36
52.7394	494.00
52.7538	492.85
52.7683	493.56
52.7827	512.16
52.7972	543.00
52.8116	498.65
52.8260	512.33
52.8405	488.89
52.8549	512.81
52.8694	530.01
52.8838	532.49
52.8982	509.87
52.9127	541.31
52.9271	537.08
52.9416	530.77
52.9560	511.30
52.9704	486.60
52.9849	494.59
52.9993	477.65
53.0138	517.80
53.0282	504.64
53.0426	526.78
53.0571	521.02
53.0715	505.27
53.0860	503.98
53.1004	499.21
53.1148	533.18
53.1293	508.93
53.1437	498.29
53.1582	492.98
53.1726	502.97
53.1870	550.88
53.2015	509.55
53.2159	506.75
53.2304	541.69
53.2448	549.81
53.2592	524.49
53.2737	489.47
53.2881	529.36
53.3026	536.57
53.3170	495.31
53.3314	510.66
53.3459	517.47
53.3603	544.80
53.3748	529.77
53.3892	505.49
53.4036	502.02
53.4181	509.35
53.4325	526.79
53.4470	502.08
53.4614	512.62
53.4758	537.37
53.4903	555.05
53.5047	492.31
53.5192	512.80
53.5336	512.64
53.5480	509.19
53.5625	494.42
53.5769	509.42
53.5914	502.52
53.6058	500.60
53.6202	513.03
53.6347	497.77
53.6491	515.02
53.6636	509.59
53.6780	494.30
53.6924	493.10
53.7069	516.40
53.7213	513.31
53.7358	503.34
53.7502	517.90
53.7646	493.90
53.7791	506.24
53.7935	497.58
53.8080	510.97
53.8224	529.42
53.8368	529.73
53.8513	519.95
53.8657	538.32
53.8802	528.31
53.8946	523.63
53.9090	538.39
53.9235	502.93
53.9379	500.14
53.9524	529.42
53.9668	492.95
53.9812	493.18
53.9957	510.34
54.0101	492.38
54.0246	509.43
54.0390	507.54
54.0534	507.94
54.0679	523.73
54.0823	521.33
54.0968	550.31
54.1112	554.60
54.1256	539.47
54.1401	524.39
54.1545	494.48
54.1690	518.86
54.1834	499.05
54.1978	523.22
54.2123	529.46
54.2267	538.91
54.2412	491.20
54.2556	493.45
54.2700	558.65
54.2845	546.92
54.2989	538.32
54.3134	537.96
54.3278	522.30
54.3422	540.37
54.3567	492.63
54.3711	507.71
54.3856	537.57
54.4000	512.27
54.4144	527.21
54.4289	532.91
54.4433	525.61
54.4578	558.56
54.4722	557.65
54.4866	545.44
54.5011	580.58
54.5155	599.55
54.5300	567.07
54.5444	591.71
54.5588	595.88
54.5733	547.83
54.5877	578.90
54.6022	589.01
54.6166	592.05
54.6310	574.02
54.6455	573.98
54.6599	592.12
54.6744	609.57
54.6888	601.59
54.7032	603.02
54.7177	582.08
54.7321	577.74
54.7466	567.44
54.7610	541.40
54.7754	563.36
54.7899	566.20
54.8043	541.51
54.8188	564.97
54.8332	579.57
54.8476	586.52
54.8621	616.32
54.8765	576.54
54.8910	536.74
54.9054	541.12
54.9198	519.70
54.9343	523.98
54.9487	529.05
54.9632	514.78
54.9776	520.74
54.9920	531.26
55.0065	535.89
55.0209	504.19
55.0354	526.27
55.0498	546.05
55.0642	554.63
55.0787	545.91
55.0931	555.35
55.1076	524.83
55.1220	528.08
55.1364	519.59
55.1509	517.65
55.1653	538.48
55.1798	518.37
55.1942	518.80
55.2086	543.87
55.2231	538.68
55.2375	525.55
55.2520	503.07
55.2664	518.90
55.2808	525.65
55.2953	509.63
55.3097	519.39
55.3242	524.65
55.3386	508.61
55.3530	538.29
55.3675	525.88
55.3819	508.01
55.3964	489.03
55.4108	489.59
55.4252	518.45
55.4397	502.35
55.4541	505.59
55.4686	518.96
55.4830	497.88
55.4974	495.76
55.5119	535.96
55.5263	542.92
55.5408	508.55
55.5552	499.89
55.5696	538.08
55.5841	494.62
55.5985	501.62
55.6130	504.91
55.6274	503.20
55.6418	513.74
55.6563	530.06
55.6707	475.28
55.6852	512.49
55.6996	551.00
55.7140	535.35
55.7285	508.05
55.7429	495.09
55.7574	523.60
55.7718	534.67
55.7862	542.76
55.8007	505.43
55.8151	516.93
55.8296	506.75
55.8440	503.19
55.8584	517.84
55.8729	537.25
55.8873	524.63
55.9018	559.27
55.9162	538.28
55.9306	495.27
55.9451	488.55
55.9595	497.07
55.9740	522.04
55.9884	531.49
56.0028	527.34
56.0173	510.08
56.0317	530.66
56.0462	519.60
56.0606	516.76
56.0750	513.33
56.0895	510.07
56.1039	461.02
56.1184	528.65
56.1328	514.27
56.1472	522.35
56.1617	528.08
56.1761	542.32
56.1906	526.15
56.2050	518.44
56.2194	517.21
56.2339	510.70
56.2483	546.03
56.2628	546.88
56.2772	553.11
56.2916	513.70
56.3061	508.81
56.3205	505.37
56.3350	537.99
56.3494	555.85
56.3639	526.38
56.3783	568.82
56.3927	559.75
56.4072	500.26
56.4216	526.70
56.4361	508.06
56.4505	502.59
56.4649	537.74
56.4794	535.41
56.4938	495.81
56.5083	501.76
56.5227	530.58
56.5371	518.67
56.5516	501.67
56.5660	507.98
56.5805	497.77
56.5949	508.83
56.6093	524.86
56.6238	505.54
56.6382	515.65
56.6527	489.62
56.6671	538.25
56.6815	547.64
56.6960	521.99
56.7104	537.98
56.7249	512.42
56.7393	537.44
56.7537	514.69
56.7682	495.25
56.7826	547.75
56.7971	526.52
56.8115	550.38
56.8259	492.17
56.8404	544.42
56.8548	538.58
56.8693	516.33
56.8837	526.94
56.8981	496.35
56.9126	492.12
56.9270	520.42
56.9415	574.77
56.9559	521.63
56.9703	533.23
56.9848	522.80
56.9992	522.16
57.0137	523.04
57.0281	511.31
57.0425	509.56
57.0570	538.88
57.0714	508.72
57.0859	559.10
57.1003	542.11
57.1147	531.74
57.1292	548.61
57.1436	500.78
57.1581	519.85
57.1725	557.60
57.1869	528.85
57.2014	518.76
57.2158	537.94
57.2303	551.87
57.2447	526.57
57.2591	523.88
57.2736	503.94
57.2880	549.07
57.3025	517.66
57.3169	544.45
57.3313	511.71
57.3458	514.42
57.3602	501.15
57.3747	507.62
57.3891	530.69
57.4035	530.07
57.4180	516.17
57.4324	508.46
57.4469	512.79
57.4613	508.23
57.4757	519.34
57.4902	526.85
57.5046	509.70
57.5191	515.39
57.5335	523.94
57.5479	522.70
57.5624	524.81
57.5768	528.33
57.5913	528.12
57.6057	514.95
57.6201	506.96
57.6346	518.33
57.6490	499.11
57.6635	527.75
57.6779	537.81
57.6923	507.96
57.7068	520.90
57.7212	524.11
57.7357	505.64
57.7501	534.34
57.7645	516.89
57.7790	488.13
57.7934	498.40
57.8079	567.53
57.8223	539.96
57.8367	547.19
57.8512	526.55
57.8656	543.58
57.8801	514.69
57.8945	534.29
57.9089	554.31
57.9234	501.04
57.9378	538.56
57.9523	541.59
57.9667	534.38
57.9811	522.48
57.9956	507.65
58.0100	530.73
58.0245	572.20
58.0389	555.98
58.0533	539.91
58.0678	517.96
58.0822	536.19
58.0967	566.60
58.1111	545.75
58.1255	565.62
58.1400	547.70
58.1544	558.00
58.1689	589.69
58.1833	597.60
58.1977	589.82
58.2122	618.90
58.2266	636.87
58.2411	634.73
58.2555	663.04
58.2699	653.69
58.2844	671.10
58.2988	649.48
58.3133	661.14
58.3277	693.05
58.3421	681.01
58.3566	675.27
58.3710	677.16
58.3855	662.88
58.3999	671.97
58.4143	630.21
58.4288	654.91
58.4432	651.00
58.4577	631.00
58.4721	649.81
58.4865	626.21
58.5010	622.68
58.5154	589.02
58.5299	579.02
58.5443	566.23
58.5587	571.35
58.5732	544.85
58.5876	577.25
58.6021	579.62
58.6165	533.18
58.6309	549.46
58.6454	529.94
58.6598	578.35
58.6743	544.18
58.6887	538.00
58.7031	556.08
58.7176	551.16
58.7320	530.53
58.7465	557.00
58.7609	535.70
58.7753	546.44
58.7898	555.90
58.8042	557.94
58.8187	561.87
58.8331	569.06
58.8475	524.92
58.8620	544.03
58.8764	520.18
58.8909	535.96
58.9053	538.33
58.9197	511.12
58.9342	536.79
58.9486	516.22
58.9631	519.89
58.9775	531.63
58.9919	526.70
59.0064	549.51
59.0208	574.71
59.0353	531.68
59.0497	507.83
59.0641	527.97
59.0786	531.84
59.0930	552.10
59.1075	551.58
59.1219	540.98
59.1363	521.05
59.1508	505.00
59.1652	537.36
59.1797	557.68
59.1941	548.18
59.2085	528.57
59.2230	539.79
59.2374	555.64
59.2519	532.37
59.2663	551.50
59.2807	544.09
59.2952	530.83
59.3096	548.32
59.3241	569.54
59.3385	538.34
59.3529	506.77
59.3674	539.86
59.3818	545.74
59.3963	542.36
59.4107	527.93
59.4251	569.16
59.4396	575.05
59.4540	532.31
59.4685	580.37
59.4829	567.47
59.4973	571.89
59.5118	541.97
59.5262	555.35
59.5407	557.05
59.5551	555.58
59.5695	544.72
59.5840	571.25
59.5984	557.85
59.6129	515.19
59.6273	541.02
59.6417	569.10
59.6562	542.23
59.6706	542.48
59.6851	526.81
59.6995	508.35
59.7139	536.28
59.7284	533.46
59.7428	521.43
59.7573	526.34
59.7717	529.06
59.7861	535.49
59.8006	547.03
59.8150	587.78
59.8295	576.26
59.8439	577.91
59.8583	556.15
59.8728	562.44
59.8872	530.76
59.9017	543.60
59.9161	524.88
59.9305	543.38
59.9450	558.68
59.9594	581.70
59.9739	552.77
59.9883	499.19
60.0027	558.54
60.0172	540.76
60.0316	582.24
60.0461	542.34
60.0605	543.82
60.0750	523.43
60.0894	552.89
60.1038	534.87
60.1183	526.58
60.1327	531.69
60.1472	500.51
60.1616	538.95
60.1760	531.69
60.1905	542.58
60.2049	519.63
60.2194	553.85
60.2338	562.50
60.2482	530.66
60.2627	525.15
60.2771	508.66
60.2916	517.61
60.3060	560.28
60.3204	565.36
60.3349	561.99
60.3493	533.22
60.3638	546.48
60.3782	536.36
60.3926	531.85
60.4071	537.72
60.4215	539.36
60.4360	552.30
60.4504	547.84
60.4648	555.70
60.4793	546.02
60.4937	573.47
60.5082	530.11
60.5226	523.64
60.5370	552.55
60.5515	543.48
60.5659	526.87
60.5804	558.29
60.5948	538.12
60.6092	533.54
60.6237	551.83
60.6381	530.89
60.6526	541.92
60.6670	544.49
60.6814	572.93
60.6959	534.98
60.7103	557.49
60.7248	509.39
60.7392	534.81
60.7536	570.00
60.7681	543.09
60.7825	527.17
60.7970	510.74
60.8114	529.67
60.8258	525.30
60.8403	540.98
60.8547	556.02
60.8692	549.40
60.8836	559.72
60.8980	575.79
60.9125	569.31
60.9269	549.91
60.9414	588.02
60.9558	536.54
60.9702	530.47
60.9847	542.20
60.9991	506.96
61.0136	544.17
61.0280	521.35
61.0424	513.84
61.0569	533.57
61.0713	541.38
61.0858	547.92
61.1002	587.40
61.1146	561.75
61.1291	542.87
61.1435	514.02
61.1580	527.04
61.1724	540.92
61.1868	532.59
61.2013	550.44
61.2157	540.05
61.2302	541.64
61.2446	501.11
61.2590	551.88
61.2735	558.39
61.2879	530.17
61.3024	560.75
61.3168	555.67
61.3312	531.30
61.3457	551.41
61.3601	537.58
61.3746	498.03
61.3890	572.14
61.4034	562.97
61.4179	526.75
61.4323	550.45
61.4468	555.61
61.4612	561.67
61.4756	543.27
61.4901	565.12
61.5045	556.00
61.5190	519.67
61.5334	549.22
61.5478	556.92
61.5623	538.47
61.5767	517.87
61.5912	522.05
61.6056	544.53
61.6200	562.45
61.6345	593.72
61.6489	518.59
61.6634	567.79
61.6778	565.73
61.6922	510.60
61.7067	543.34
61.7211	527.79
61.7356	544.11
61.7500	542.84
61.7644	536.03
61.7789	534.13
61.7933	517.98
61.8078	546.00
61.8222	526.65
61.8366	531.48
61.8511	567.89
61.8655	555.85
61.8800	560.24
61.8944	561.71
61.9088	537.77
61.9233	551.58
61.9377	540.95
61.9522	538.73
61.9666	549.07
61.9810	572.10
61.9955	521.41
62.0099	565.36
62.0244	583.38
62.0388	534.39
62.0532	568.53
62.0677	557.08
62.0821	591.58
62.0966	574.05
62.1110	550.65
62.1254	551.75
62.1399	510.77
62.1543	504.68
62.1688	534.01
62.1832	562.53
62.1976	541.45
62.2121	618.59
62.2265	581.27
62.2410	573.83
62.2554	557.73
62.2698	539.05
62.2843	495.82
62.2987	505.89
62.3132	528.20
62.3276	545.90
62.3420	539.80
62.3565	551.93
62.3709	541.76
62.3854	549.49
62.3998	526.79
62.4142	535.98
62.4287	554.42
62.4431	573.97
62.4576	530.36
62.4720	538.06
62.4864	573.59
62.5009	545.23
62.5153	539.85
62.5298	559.98
62.5442	539.67
62.5586	533.99
62.5731	562.08
62.5875	566.21
62.6020	552.84
62.6164	531.26
62.6308	561.12
62.6453	577.05
62.6597	549.28
62.6742	531.16
62.6886	543.69
62.7030	572.66
62.7175	556.19
62.7319	547.43
62.7464	577.61
62.7608	542.48
62.7752	523.58
62.7897	567.92
62.8041	549.49
62.8186	555.22
62.8330	584.38
62.8474	573.90
62.8619	587.74
62.8763	567.31
62.8908	552.22
62.9052	571.72
62.9196	561.46
62.9341	601.51
62.9485	616.68
62.9630	558.48
62.9774	567.93
62.9918	571.07
63.0063	514.52
63.0207	549.10
63.0352	577.03
63.0496	561.95
63.0640	545.46
63.0785	560.54
63.0929	566.15
63.1074	551.06
63.1218	587.97
63.1362	604.19
63.1507	580.15
63.1651	567.32
63.1796	566.94
63.1940	570.62
63.2084	545.13
63.2229	529.93
63.2373	573.23
63.2518	582.50
63.2662	571.47
63.2806	569.99
63.2951	579.03
63.3095	584.75
63.3240	557.03
63.3384	587.79
63.3528	594.56
63.3673	587.56
63.3817	567.26
63.3962	554.71
63.4106	589.89
63.4250	572.21
63.4395	561.76
63.4539	545.10
63.4684	565.60
63.4828	596.32
63.4972	571.97
63.5117	598.41
63.5261	567.52
63.5406	591.70
63.5550	591.81
63.5694	585.36
63.5839	577.29
63.5983	599.85
63.6128	645.22
63.6272	667.99
63.6416	576.15
63.6561	603.10
63.6705	594.01
63.6850	570.54
63.6994	588.20
63.7138	607.98
63.7283	623.01
63.7427	607.12
63.7572	630.13
63.7716	621.05
63.7861	646.22
63.8005	613.85
63.8149	599.73
63.8294	624.38
63.8438	611.56
63.8583	642.70
63.8727	676.54
63.8871	643.21
63.9016	646.05
63.9160	635.59
63.9305	702.54
63.9449	683.41
63.9593	657.01
63.9738	699.32
63.9882	722.08
64.0027	793.08
64.0171	802.80
64.0315	854.46
64.0460	840.59
64.0604	860.21
64.0749	829.62
64.0893	858.35
64.1037	830.79
64.1182	826.85
64.1326	805.81
64.1471	744.26
64.1615	769.85
64.1759	774.29
64.1904	775.87
64.2048	742.49
64.2193	780.59
64.2337	801.98
64.2481	757.96
64.2626	727.28
64.2770	729.75
64.2915	683.56
64.3059	720.26
64.3203	724.92
64.3348	692.37
64.3492	712.59
64.3637	690.70
64.3781	650.72
64.3925	650.38
64.4070	666.74
64.4214	674.20
64.4359	678.44
64.4503	672.02
64.4647	675.61
64.4792	640.76
64.4936	646.09
64.5081	679.98
64.5225	658.71
64.5369	662.23
64.5514	681.35
64.5658	653.58
64.5803	638.25
64.5947	643.07
64.6091	668.30
64.6236	652.34
64.6380	646.49
64.6525	654.07
64.6669	670.51
64.6813	654.13
64.6958	681.65
64.7102	697.47
64.7247	673.05
64.7391	674.21
64.7535	673.08
64.7680	729.99
64.7824	764.98
64.7969	753.73
64.8113	783.06
64.8257	762.64
64.8402	742.62
64.8546	826.02
64.8691	846.63
64.8835	846.50
64.8979	871.26
64.9124	888.39
64.9268	896.62
64.9413	894.98
64.9557	907.54
64.9701	1013.44
64.9846	1108.43
64.9990	1190.90
65.0135	1323.45
65.0279	1592.48
65.0423	1704.40
65.0568	2140.83
65.0712	2795.01
65.0857	3575.86
65.1001	4635.03
65.1145	6420.00
65.1290	8489.04
65.1434	9961.77
65.1579	11390.97
65.1723	11866.33
65.1867	11047.52
65.2012	9844.25
65.2156	8190.32
65.2301	6391.16
65.2445	5196.62
65.2589	4413.75
65.2734	4254.67
65.2878	4427.79
65.3023	5108.46
65.3167	5964.91
65.3311	6785.00
65.3456	6948.39
65.3600	6902.77
65.3745	6360.03
65.3889	5452.15
65.4033	4213.63
65.4178	3326.49
65.4322	2626.85
65.4467	1957.92
65.4611	1658.21
65.4755	1441.14
65.4900	1255.07
65.5044	1143.13
65.5189	1038.25
65.5333	1029.41
65.5477	934.78
65.5622	886.26
65.5766	824.78
65.5911	806.42
65.6055	804.56
65.6199	776.48
65.6344	850.13
65.6488	750.90
65.6633	730.16
65.6777	740.84
65.6921	723.76
65.7066	732.11
65.7210	721.11
65.7355	688.30
65.7499	697.46
65.7643	689.58
65.7788	682.58
65.7932	715.35
65.8077	679.59
65.8221	638.95
65.8365	662.78
65.8510	685.50
65.8654	638.05
65.8799	641.12
65.8943	655.77
65.9087	679.68
65.9232	648.89
65.9376	634.94
65.9521	659.57
65.9665	620.38
65.9809	623.66
65.9954	637.21
66.0098	655.55
66.0243	662.76
66.0387	671.01
66.0531	625.28
66.0676	601.15
66.0820	647.80
66.0965	618.53
66.1109	624.70
66.1253	667.53
66.1398	614.56
66.1542	606.48
66.1687	621.95
66.1831	597.76
66.1975	599.10
66.2120	651.49
66.2264	637.85
66.2409	598.36
66.2553	563.21
66.2697	578.39
66.2842	623.02
66.2986	607.10
66.3131	635.29
66.3275	608.15
66.3419	614.82
66.3564	594.65
66.3708	582.36
66.3853	590.85
66.3997	575.88
66.4141	593.85
66.4286	622.11
66.4430	590.17
66.4575	592.55
66.4719	588.51
66.4863	593.91
66.5008	592.87
66.5152	584.65
66.5297	624.59
66.5441	613.52
66.5585	586.73
66.5730	603.27
66.5874	596.36
66.6019	614.62
66.6163	606.53
66.6307	575.93
66.6452	598.10
66.6596	623.85
66.6741	614.66
66.6885	606.72
66.7029	589.80
66.7174	605.83
66.7318	600.96
66.7463	611.67
66.7607	591.11
66.7751	608.74
66.7896	615.61
66.8040	575.69
66.8185	588.47
66.8329	582.62
66.8473	591.11
66.8618	595.93
66.8762	584.04
66.8907	570.74
66.9051	628.84
66.9195	589.82
66.9340	568.89
66.9484	577.64
66.9629	560.37
66.9773	594.28
66.9917	633.17
67.0062	588.59
67.0206	602.94
67.0351	574.88
67.0495	580.92
67.0639	596.76
67.0784	594.85
67.0928	584.84
67.1073	558.35
67.1217	558.77
67.1361	566.44
67.1506	574.88
67.1650	623.80
67.1795	586.71
67.1939	582.21
67.2083	552.40
67.2228	585.13
67.2372	604.33
67.2517	595.08
67.2661	582.16
67.2805	594.60
67.2950	603.74
67.3094	608.89
67.3239	564.97
67.3383	612.29
67.3527	598.14
67.3672	596.64
67.3816	576.10
67.3961	562.95
67.4105	599.75
67.4250	612.11
67.4394	588.59
67.4538	579.45
67.4683	575.88
67.4827	570.05
67.4972	539.24
67.5116	561.44
67.5260	597.23
67.5405	564.89
67.5549	568.86
67.5694	559.30
67.5838	586.75
67.5982	575.02
67.6127	588.06
67.6271	577.47
67.6416	589.02
67.6560	581.21
67.6704	582.87
67.6849	558.38
67.6993	583.21
67.7138	583.01
67.7282	571.12
67.7426	600.70
67.7571	573.93
67.7715	553.79
67.7860	635.78
67.8004	586.02
67.8148	586.63
67.8293	610.96
67.8437	578.71
67.8582	587.56
67.8726	564.35
67.8870	571.71
67.9015	607.93
67.9159	544.71
67.9304	582.03
67.9448	595.90
67.9592	566.06
67.9737	553.37
67.9881	555.41
68.0026	579.81
68.0170	571.32
68.0314	582.62
68.0459	580.81
68.0603	607.64
68.0748	587.58
68.0892	627.00
68.1036	584.24
68.1181	551.45
68.1325	636.32
68.1470	615.19
68.1614	573.22
68.1758	574.03
68.1903	568.25
68.2047	547.72
68.2192	558.59
68.2336	573.45
68.2480	549.41
68.2625	590.96
68.2769	590.39
68.2914	602.31
68.3058	582.08
68.3202	572.18
68.3347	607.85
68.3491	560.28
68.3636	577.91
68.3780	606.85
68.3924	609.65
68.4069	585.01
68.4213	565.39
68.4358	598.44
68.4502	576.26
68.4646	611.04
68.4791	602.18
68.4935	572.40
68.5080	594.64
68.5224	539.30
68.5368	558.90
68.5513	576.03
68.5657	563.13
68.5802	577.35
68.5946	575.57
68.6090	534.59
68.6235	562.62
68.6379	559.96
68.6524	571.40
68.6668	599.76
68.6812	562.41
68.6957	549.06
68.7101	551.52
68.7246	568.13
68.7390	612.80
68.7534	600.77
68.7679	607.12
68.7823	583.96
68.7968	549.18
68.8112	556.44
68.8256	541.45
68.8401	548.89
68.8545	556.09
68.8690	605.54
68.8834	622.01
68.8978	593.73
68.9123	589.71
68.9267	611.38
68.9412	578.16
68.9556	597.19
68.9700	540.57
68.9845	528.62
68.9989	524.78
69.0134	572.58
69.0278	551.62
69.0422	555.81
69.0567	588.45
69.0711	588.99
69.0856	539.66
69.1000	540.66
69.1144	624.04
69.1289	560.08
69.1433	507.92
69.1578	579.78
69.1722	572.80
69.1866	568.74
69.2011	572.39
69.2155	590.29
69.2300	596.32
69.2444	603.32
69.2588	617.06
69.2733	566.13
69.2877	567.40
69.3022	546.78
69.3166	530.11
69.3310	623.12
69.3455	561.80
69.3599	552.42
69.3744	575.90
69.3888	582.69
69.4032	571.10
69.4177	576.26
69.4321	618.48
69.4466	572.10
69.4610	564.45
69.4754	559.20
69.4899	574.43
69.5043	568.04
69.5188	538.48
69.5332	575.50
69.5476	554.29
69.5621	594.97
69.5765	583.06
69.5910	575.16
69.6054	591.90
69.6198	587.48
69.6343	633.54
69.6487	575.14
69.6632	601.36
69.6776	605.56
69.6920	589.68
69.7065	598.58
69.7209	570.90
69.7354	572.50
69.7498	565.84
69.7642	563.18
69.7787	595.76
69.7931	562.63
69.8076	596.20
69.8220	576.47
69.8364	610.44
69.8509	598.28
69.8653	580.66
69.8798	574.40
69.8942	574.16
69.9086	577.77
69.9231	592.72
69.9375	617.72
69.9520	577.05
69.9664	556.25
69.9808	587.97
69.9953	590.05
70.0097	608.25
70.0242	555.89
70.0386	596.92
70.0530	583.31
70.0675	581.95
70.0819	599.18
70.0964	558.32
70.1108	544.62
70.1252	547.22
70.1397	580.27
70.1541	508.07
70.1686	561.24
70.1830	591.87
70.1974	570.77
70.2119	640.88
70.2263	554.56
70.2408	556.68
70.2552	582.51
70.2696	578.10
70.2841	556.99
70.2985	551.04
70.3130	567.08
70.3274	611.05
70.3418	602.26
70.3563	637.46
70.3707	576.52
70.3852	566.32
70.3996	553.80
70.4140	554.10
70.4285	653.74
70.4429	617.69
70.4574	554.57
70.4718	579.02
70.4862	563.57
70.5007	601.61
70.5151	595.01
70.5296	601.96
70.5440	627.68
70.5584	572.02
70.5729	514.63
70.5873	521.69
70.6018	575.22
70.6162	619.02
70.6306	594.09
70.6451	572.77
70.6595	614.50
70.6740	563.05
70.6884	532.40
70.7028	537.93
70.7173	532.54
70.7317	565.88
70.7462	586.65
70.7606	586.86
70.7750	580.11
70.7895	592.37
70.8039	577.18
70.8184	609.74
70.8328	599.75
70.8472	575.62
70.8617	555.45
70.8761	572.45
70.8906	601.01
70.9050	594.17
70.9194	606.27
70.9339	654.80
70.9483	573.17
70.9628	583.92
70.9772	600.01
70.9916	583.20
71.0061	530.42
71.0205	522.75
71.0350	568.82
71.0494	566.44
71.0638	537.14
71.0783	553.47
71.0927	595.98
71.1072	589.62
71.1216	556.76
71.1361	600.66
71.1505	591.41
71.1649	628.35
71.1794	622.59
71.1938	638.65
71.2083	615.05
71.2227	552.49
71.2371	584.27
71.2516	598.61
71.2660	587.44
71.2805	593.79
71.2949	582.42
71.3093	572.22
71.3238	592.97
71.3382	610.87
71.3527	571.27
71.3671	536.71
71.3815	577.23
71.3960	596.13
71.4104	566.43
71.4249	602.53
71.4393	593.13
71.4537	574.61
71.4682	583.64
71.4826	588.33
71.4971	590.46
71.5115	579.44
71.5259	517.10
71.5404	533.29
71.5548	547.36
71.5693	542.86
71.5837	587.77
71.5981	593.09
71.6126	590.38
71.6270	614.02
71.6415	617.59
71.6559	565.54
71.6703	534.76
71.6848	548.86
71.6992	556.12
71.7137	592.41
71.7281	588.26
71.7425	574.56
71.7570	558.43
71.7714	608.83
71.7859	639.30
71.8003	598.44
71.8147	595.26
71.8292	559.99
71.8436	556.77
71.8581	561.84
71.8725	526.90
71.8869	526.77
71.9014	613.88
71.9158	589.33
71.9303	540.59
71.9447	597.85
71.9591	598.34
71.9736	512.72
71.9880	534.03
72.0025	540.59
72.0169	538.13
72.0313	559.40
72.0458	607.05
72.0602	595.05
72.0747	578.94
72.0891	566.63
72.1035	551.39
72.1180	618.67
72.1324	625.04
72.1469	635.94
72.1613	618.12
72.1757	612.55
72.1902	613.36
72.2046	625.01
72.2191	635.46
72.2335	543.98
72.2479	531.39
72.2624	582.25
72.2768	549.46
72.2913	486.45
72.3057	511.59
72.3201	514.12
72.3346	479.03
72.3490	551.05
72.3635	584.61
72.3779	580.73
72.3923	600.61
72.4068	567.55
72.4212	635.77
72.4357	661.88
72.4501	597.60
72.4645	563.59
72.4790	572.98
72.4934	577.22
72.5079	563.59
72.5223	540.17
72.5367	538.85
72.5512	570.22
72.5656	579.08
72.5801	580.10
72.5945	525.85
72.6089	539.33
72.6234	552.44
72.6378	570.25
72.6523	625.73
72.6667	690.50
72.6811	570.98
72.6956	524.76
72.7100	559.10
72.7245	543.65
72.7389	578.52
72.7533	668.00
72.7678	651.12
72.7822	652.00
72.7967	628.99
72.8111	659.84
72.8255	661.35
72.8400	559.96
72.8544	576.84
72.8689	599.97
72.8833	571.69

Result vector
22.1120	513.34
22.1264	643.07
22.1409	570.99
22.1553	527.11
22.1697	573.93
22.1842	578.94
22.1986	544.05
22.2131	535.21
22.2275	621.49
22.2419	624.54
22.2564	577.38
22.2708	556.70
22.2853	569.34
22.2997	583.18
22.3141	627.25
22.3286	621.04
22.3430	536.31
22.3575	506.54
22.3719	574.30
22.3863	548.27
22.4008	564.73
22.4152	552.09
22.4297	544.42
22.4441	520.27
22.4585	574.66
22.4730	723.12
22.4874	646.43
22.5019	608.87
22.5163	579.67
22.5307	577.10
22.5452	566.82
22.5596	619.10
22.5741	513.03
22.5885	515.50
22.6029	568.44
22.6174	626.82
22.6318	668.12
22.6463	556.33
22.6607	568.63
22.6751	589.83
22.6896	529.57
22.7040	584.52
22.7185	627.70
22.7329	564.48
22.7473	526.49
22.7618	553.57
22.7762	547.50
22.7907	536.73
22.8051	585.00
22.8195	559.20
22.8340	547.80
22.8484	589.96
22.8629	658.05
22.8773	529.09
22.8917	559.39
22.9062	628.28
22.9206	552.13
22.9351	550.43
22.9495	628.51
22.9639	565.01
22.9784	552.39
22.9928	498.92
23.0073	531.03
23.0217	611.99
23.0361	510.44
23.0506	531.01
23.0650	591.67
23.0795	543.07
23.0939	547.47
23.1083	509.76
23.1228	600.23
23.1372	569.61
23.1517	537.32
23.1661	632.10
23.1806	553.95
23.1950	530.57
23.2094	551.16
23.2239	477.11
23.2383	522.21
23.2528	561.36
23.2672	518.80
23.2816	531.69
23.2961	545.27
23.3105	578.57
23.3250	600.02
23.3394	550.27
23.3538	535.83
23.3683	550.13
23.3827	518.07
23.3972	496.52
23.4116	553.76
23.4260	577.67
23.4405	544.28
23.4549	491.51
23.4694	595.41
23.4838	543.84
23.4982	541.22
23.5127	535.65
23.5271	562.68
23.5416	648.12
23.5560	558.54
23.5704	566.67
23.5849	513.57
23.5993	538.45
23.6138	619.51
23.6282	545.00
23.6426	551.81
23.6571	557.63
23.6715	585.45
23.6860	526.11
23.7004	583.82
23.7148	608.36
23.7293	635.86
23.7437	587.68
23.7582	533.75
23.7726	518.49
23.7870	501.14
23.8015	469.39
23.8159	553.97
23.8304	567.98
23.8448	548.84
23.8592	501.49
23.8737	620.19
23.8881	638.34
23.9026	567.32
23.9170	469.69
23.9314	548.83
23.9459	598.66
23.9603	539.66
23.9748	543.92
23.9892	531.06
24.0036	522.59
24.0181	580.98
24.0325	625.68
24.0470	606.10
24.0614	562.61
24.0758	534.43
24.0903	575.73
24.1047	577.12
24.1192	535.08
24.1336	585.74
24.1480	522.63
24.1625	561.89
24.1769	591.10
24.1914	576.22
24.2058	550.48
24.2202	597.10
24.2347	549.84
24.2491	608.84
24.2636	597.24
24.2780	547.75
24.2924	558.94
24.3069	610.17
24.3213	607.06
24.3358	605.40
24.3502	588.18
24.3646	521.52
24.3791	548.57
24.3935	589.76
24.4080	536.02
24.4224	532.62
24.4368	496.68
24.4513	552.03
24.4657	567.18
24.4802	540.91
24.4946	551.48
24.5090	576.78
24.5235	561.48
24.5379	580.16
24.5524	569.16
24.5668	608.36
24.5812	582.35
24.5957	603.38
24.6101	533.33
24.6246	536.21
24.6390	558.45
24.6534	580.18
24.6679	525.52
24.6823	560.38
24.6968	546.85
24.7112	516.89
24.7256	540.15
24.7401	524.52
24.7545	577.42
24.7690	540.05
24.7834	562.20
24.7978	539.26
24.8123	574.21
24.8267	490.62
24.8412	541.14
24.8556	519.94
24.8700	572.76
24.8845	547.75
24.8989	551.21
24.9134	572.98
24.9278	525.42
24.9422	529.05
24.9567	561.30
24.9711	561.55
24.9856	570.60
25.0000	520.55
25.0144	550.22
25.0289	605.56
25.0433	552.61
25.0578	581.67
25.0722	567.41
25.0866	558.48
25.1011	534.70
25.1155	546.96
25.1300	605.58
25.1444	532.79
25.1588	508.08
25.1733	579.71
25.1877	568.66
25.2022	541.14
25.2166	515.04
25.2310	534.65
25.2455	573.77
25.2599	539.32
25.2744	558.30
25.2888	546.95
25.3032	541.50
25.3177	557.00
25.3321	560.65
25.3466	551.29
25.3610	556.14
25.3754	535.54
25.3899	511.92
25.4043	524.75
25.4188	545.72
25.4332	565.95
25.4476	499.11
25.4621	532.33
25.4765	562.36
25.4910	528.73
25.5054	547.18
25.5198	565.94
25.5343	562.18
25.5487	546.13
25.5632	543.54
25.5776	584.45
25.5920	554.51
25.6065	555.14
25.6209	545.75
25.6354	574.34
25.6498	579.13
25.6642	543.84
25.6787	535.45
25.6931	534.99
25.7076	510.70
25.7220	525.72
25.7364	532.70
25.7509	513.61
25.7653	506.64
25.7798	579.26
25.7942	575.09
25.8086	518.65
25.8231	516.78
25.8375	544.65
25.8520	517.37
25.8664	513.95
25.8808	510.69
25.8953	523.82
25.9097	540.21
25.9242	548.94
25.9386	555.99
25.9530	529.61
25.9675	489.47
25.9819	514.94
25.9964	538.00
26.0108	553.00
26.0252	541.64
26.0397	522.45
26.0541	549.09
26.0686	545.67
26.0830	537.43
26.0974	552.88
26.1119	555.15
26.1263	567.48
26.1408	537.28
26.1552	529.74
26.1696	545.45
26.1841	539.75
26.1985	514.77
26.2130	568.12
26.2274	552.37
26.2418	566.93
26.2563	547.47
26.2707	498.16
26.2852	526.14
26.2996	532.65
26.3140	533.37
26.3285	552.29
26.3429	545.19
26.3574	548.30
26.3718	507.76
26.3862	520.09
26.4007	523.15
26.4151	519.55
26.4296	532.04
26.4440	504.22
26.4584	510.31
26.4729	548.10
26.4873	540.76
26.5018	543.45
26.5162	526.35
26.5306	532.11
26.5451	549.92
26.5595	547.68
26.5740	575.25
26.5884	524.96
26.6028	518.53
26.6173	512.22
26.6317	545.75
26.6462	535.00
26.6606	512.80
26.6750	531.66
26.6895	528.74
26.7039	560.77
26.7184	541.87
26.7328	523.87
26.7472	524.92
26.7617	521.17
26.7761	538.34
26.7906	537.69
26.8050	518.82
26.8194	516.10
26.8339	552.17
26.8483	523.27
26.8628	555.84
26.8772	521.52
26.8917	512.52
26.9061	539.35
26.9205	532.50
26.9350	546.18
26.9494	537.46
26.9639	512.46
26.9783	527.97
26.9927	509.80
27.0072	524.43
27.0216	522.98
27.0361	549.89
27.0505	556.95
27.0649	531.33
27.0794	515.20
27.0938	560.77
27.1083	525.16
27.1227	540.61
27.1371	527.42
27.1516	520.40
27.1660	542.91
27.1805	542.26
27.1949	510.85
27.2093	489.80
27.2238	506.79
27.2382	535.35
27.2527	544.05
27.2671	500.61
27.2815	515.47
27.2960	524.55
27.3104	539.27
27.3249	530.99
27.3393	565.82
27.3537	540.52
27.3682	512.48
27.3826	492.46
27.3971	500.01
27.4115	507.09
27.4259	537.49
27.4404	529.40
27.4548	541.31
27.4693	524.10
27.4837	521.44
27.4981	484.86
27.5126	520.85
27.5270	538.65
27.5415	544.38
27.5559	525.51
27.5703	551.95
27.5848	539.02
27.5992	512.79
27.6137	558.79
27.6281	544.55
27.6425	529.49
27.6570	508.44
27.6714	513.17
27.6859	532.22
27.7003	496.66
27.7147	537.18
27.7292	552.92
27.7436	527.82
27.7581	521.42
27.7725	508.16
27.7869	505.89
27.8014	522.66
27.8158	523.31
27.8303	512.71
27.8447	509.36
27.8591	510.22
27.8736	515.51
27.8880	487.63
27.9025	522.42
27.9169	533.80
27.9313	500.67
27.9458	496.56
27.9602	511.74
27.9747	517.12
27.9891	541.30
28.0035	510.45
28.0180	511.89
28.0324	515.58
28.0469	480.38
28.0613	509.63
28.0757	520.35
28.0902	525.16
28.1046	538.81
28.1191	541.00
28.1335	526.24
28.1479	527.29
28.1624	529.11
28.1768	522.48
28.1913	495.22
28.2057	516.90
28.2201	497.67
28.2346	491.50
28.2490	500.16
28.2635	491.77
28.2779	536.80
28.2923	495.01
28.3068	548.47
28.3212	527.28
28.3357	495.12
28.3501	511.79
28.3645	518.81
28.3790	510.86
28.3934	511.53
28.4079	479.41
28.4223	547.35
28.4367	540.80
28.4512	532.54
28.4656	527.95
28.4801	522.36
28.4945	516.09
28.5089	493.82
28.5234	522.25
28.5378	504.54
28.5523	535.22
28.5667	534.34
28.5811	526.71
28.5956	547.55
28.6100	547.23
28.6245	512.27
28.6389	514.06
28.6533	504.87
28.6678	543.28
28.6822	490.05
28.6967	507.55
28.7111	524.86
28.7255	512.69
28.7400	525.11
28.7544	538.12
28.7689	480.60
28.7833	526.63
28.7977	501.28
28.8122	514.99
28.8266	503.11
28.8411	478.78
28.8555	536.54
28.8699	506.41
28.8844	474.55
28.8988	558.81
28.9133	552.79
28.9277	563.53
28.9421	511.55
28.9566	513.30
28.9710	505.57
28.9855	487.99
28.9999	498.41
29.0143	532.65
29.0288	521.48
29.0432	493.27
29.0577	518.38
29.0721	548.82
29.0865	539.18
29.1010	513.86
29.1154	504.20
29.1299	507.47
29.1443	517.11
29.1587	479.48
29.1732	500.62
29.1876	561.35
29.2021	532.55
29.2165	522.47
29.2309	462.32
29.2454	509.43
29.2598	524.51
29.2743	511.76
29.2887	513.48
29.3031	516.99
29.3176	542.98
29.3320	528.21
29.3465	512.28
29.3609	499.92
29.3753	513.10
29.3898	493.13
29.4042	529.45
29.4187	508.81
29.4331	527.68
29.4475	521.21
29.4620	499.87
29.4764	515.36
29.4909	513.32
29.5053	506.17
29.5197	501.45
29.5342	500.89
29.5486	528.65
29.5631	491.03
29.5775	491.77
29.5919	513.72
29.6064	529.80
29.6208	503.42
29.6353	516.25
29.6497	498.33
29.6641	503.07
29.6786	489.34
29.6930	453.64
29.7075	494.34
29.7219	488.64
29.7363	476.97
29.7508	512.32
29.7652	487.39
29.7797	523.77
29.7941	520.70
29.8085	493.63
29.8230	525.63
29.8374	502.72
29.8519	463.04
29.8663	495.80
29.8807	491.59
29.8952	524.96
29.9096	524.51
29.9241	521.42
29.9385	527.62
29.9529	519.02
29.9674	500.77
29.9818	526.51
29.9963	481.59
30.0107	475.91
30.0251	514.29
30.0396	491.84
30.0540	472.28
30.0685	484.62
30.0829	502.96
30.0973	474.19
30.1118	514.72
30.1262	515.30
30.1407	510.92
30.1551	535.89
30.1695	486.57
30.1840	498.89
30.1984	499.62
30.2129	522.75
30.2273	498.48
30.2417	521.70
30.2562	496.40
30.2706	504.40
30.2851	515.30
30.2995	507.48
30.3139	494.26
30.3284	523.23
30.3428	534.70
30.3573	510.32
30.3717	506.37
30.3861	521.78
30.4006	494.65
30.4150	531.56
30.4295	511.68
30.4439	478.24
30.4583	483.72
30.4728	515.54
30.4872	515.86
30.5017	519.32
30.5161	526.92
30.5305	539.93
30.5450	533.13
30.5594	516.07
30.5739	535.97
30.5883	526.90
30.6028	533.09
30.6172	511.11
30.6316	549.03
30.6461	555.27
30.6605	580.33
30.6750	574.77
30.6894	578.15
30.7038	601.03
30.7183	621.93
30.7327	669.37
30.7472	681.90
30.7616	693.96
30.7760	692.14
30.7905	675.53
30.8049	676.03
30.8194	672.74
30.8338	663.97
30.8482	634.95
30.8627	657.73
30.8771	656.75
30.8916	637.96
30.9060	649.10
30.9204	633.66
30.9349	601.95
30.9493	555.91
30.9638	533.36
30.9782	563.94
30.9926	547.29
31.0071	539.72
31.0215	539.21
31.0360	550.65
31.0504	556.41
31.0648	546.16
31.0793	528.85
31.0937	516.62
31.1082	524.01
31.1226	512.91
31.1370	504.70
31.1515	502.20
31.1659	526.94
31.1804	545.44
31.1948	534.91
31.2092	509.18
31.2237	522.78
31.2381	538.12
31.2526	524.54
31.2670	539.79
31.2814	561.20
31.2959	512.83
31.3103	563.47
31.3248	536.55
31.3392	518.61
31.3536	533.15
31.3681	536.68
31.3825	487.35
31.3970	481.18
31.4114	489.84
31.4258	512.88
31.4403	495.93
31.4547	499.78
31.4692	482.07
31.4836	493.48
31.4980	503.98
31.5125	491.31
31.5269	535.67
31.5414	532.73
31.5558	530.20
31.5702	530.39
31.5847	476.59
31.5991	534.32
31.6136	510.45
31.6280	471.87
31.6424	488.59
31.6569	523.28
31.6713	535.68
31.6858	503.98
31.7002	505.92
31.7146	514.59
31.7291	533.29
31.7435	518.21
31.7580	541.99
31.7724	472.31
31.7868	491.56
31.8013	533.73
31.8157	540.84
31.8302	514.02
31.8446	513.73
31.8590	485.37
31.8735	505.13
31.8879	505.73
31.9024	524.95
31.9168	502.05
31.9312	476.08
31.9457	488.44
31.9601	474.01
31.9746	513.87
31.9890	522.78
32.0034	508.13
32.0179	528.39
32.0323	506.80
32.0468	526.77
32.0612	534.18
32.0756	502.84
32.0901	518.85
32.1045	507.42
32.1190	519.97
32.1334	515.12
32.1478	486.52
32.1623	468.71
32.1767	482.75
32.1912	490.95
32.2056	479.97
32.2200	504.51
32.2345	511.56
32.2489	532.30
32.2634	525.04
32.2778	488.35
32.2922	504.94
32.3067	494.95
32.3211	513.73
32.3356	519.33
32.3500	513.85
32.3644	529.22
32.3789	491.59
32.3933	461.08
32.4078	472.45
32.4222	513.48
32.4366	513.12
32.4511	494.29
32.4655	530.16
32.4800	536.65
32.4944	485.19
32.5088	492.63
32.5233	472.73
32.5377	492.26
32.5522	515.18
32.5666	495.14
32.5810	479.71
32.5955	479.48
32.6099	500.90
32.6244	500.07
32.6388	542.64
32.6532	501.78
32.6677	484.11
32.6821	476.14
32.6966	491.40
32.7110	520.67
32.7254	514.02
32.7399	516.89
32.7543	508.01
32.7688	466.27
32.7832	528.24
32.7976	515.99
32.8121	519.18
32.8265	533.43
32.8410	496.69
32.8554	513.44
32.8698	480.74
32.8843	494.86
32.8987	513.91
32.9132	484.04
32.9276	505.75
32.9420	525.78
32.9565	513.22
32.9709	523.97
32.9854	507.36
32.9998	494.77
33.0142	507.70
33.0287	528.06
33.0431	515.78
33.0576	574.94
33.0720	543.88
33.0864	550.03
33.1009	524.66
33.1153	514.48
33.1298	499.06
33.1442	495.08
33.1586	464.32
33.1731	494.23
33.1875	491.50
33.2020	520.01
33.2164	500.82
33.2308	482.61
33.2453	489.90
33.2597	463.13
33.2742	506.21
33.2886	512.64
33.3030	491.53
33.3175	494.48
33.3319	498.80
33.3464	476.03
33.3608	546.52
33.3752	490.64
33.3897	511.50
33.4041	515.67
33.4186	517.72
33.4330	530.79
33.4474	489.17
33.4619	485.50
33.4763	509.07
33.4908	537.14
33.5052	474.17
33.5196	520.81
33.5341	522.28
33.5485	470.69
33.5630	478.44
33.5774	528.01
33.5918	528.06
33.6063	514.32
33.6207	501.41
33.6352	513.97
33.6496	504.13
33.6640	481.22
33.6785	487.86
33.6929	492.65
33.7074	503.22
33.7218	468.18
33.7362	470.52
33.7507	476.35
33.7651	485.90
33.7796	514.32
33.7940	459.29
33.8084	486.50
33.8229	506.60
33.8373	512.47
33.8518	508.31
33.8662	511.46
33.8806	519.84
33.8951	527.77
33.9095	526.03
33.9240	503.53
33.9384	516.61
33.9528	499.37
33.9673	509.98
33.9817	471.93
33.9962	509.97
34.0106	492.64
34.0250	490.01
34.0395	532.59
34.0539	499.18
34.0684	497.21
34.0828	502.21
34.0972	510.21
34.1117	502.19
34.1261	546.65
34.1406	513.39
34.1550	491.41
34.1694	489.77
34.1839	506.23
34.1983	524.74
34.2128	501.27
34.2272	479.13
34.2417	487.76
34.2561	494.56
34.2705	508.96
34.2850	467.68
34.2994	472.78
34.3139	463.80
34.3283	503.74
34.3427	507.77
34.3572	536.79
34.3716	491.97
34.3861	506.99
34.4005	496.63
34.4149	510.70
34.4294	541.91
34.4438	537.05
34.4583	531.14
34.4727	502.99
34.4871	503.10
34.5016	480.81
34.5160	505.05
34.5305	524.14
34.5449	501.22
34.5593	515.49
34.5738	475.87
34.5882	492.12
34.6027	478.63
34.6171	475.89
34.6315	509.39
34.6460	537.14
34.6604	499.98
34.6749	503.36
34.6893	516.25
34.7037	546.30
34.7182	537.00
34.7326	487.24
34.7471	465.56
34.7615	492.90
34.7759	513.27
34.7904	540.10
34.8048	536.22
34.8193	537.53
34.8337	534.30
34.8481	511.06
34.8626	524.30
34.8770	520.67
34.8915	510.01
34.9059	541.54
34.9203	519.53
34.9348	521.19
34.9492	528.82
34.9637	523.33
34.9781	501.51
34.9925	524.89
35.0070	502.54
35.0214	508.14
35.0359	503.09
35.0503	510.58
35.0647	539.27
35.0792	526.66
35.0936	523.41
35.1081	490.97
35.1225	472.68
35.1369	503.61
35.1514	510.16
35.1658	501.79
35.1803	503.90
35.1947	512.27
35.2091	499.99
35.2236	511.41
35.2380	493.55
35.2525	512.06
35.2669	496.20
35.2813	485.81
35.2958	485.91
35.3102	539.64
35.3247	483.14
35.3391	527.76
35.3535	516.72
35.3680	522.01
35.3824	506.93
35.3969	495.84
35.4113	529.91
35.4257	538.02
35.4402	525.28
35.4546	517.46
35.4691	508.21
35.4835	541.25
35.4979	531.46
35.5124	523.48
35.5268	518.54
35.5413	523.47
35.5557	531.19
35.5701	511.30
35.5846	535.76
35.5990	520.75
35.6135	543.23
35.6279	522.80
35.6423	547.10
35.6568	542.03
35.6712	530.17
35.6857	544.82
35.7001	629.77
35.7145	688.30
35.7290	642.88
35.7434	586.57
35.7579	576.15
35.7723	564.33
35.7867	583.26
35.8012	603.81
35.8156	675.46
35.8301	649.91
35.8445	609.46
35.8589	662.06
35.8734	726.88
35.8878	841.67
35.9023	1026.09
35.9167	1083.38
35.9311	1330.31
35.9456	2009.05
35.9600	2306.30
35.9745	1898.90
35.9889	1936.93
36.0033	2342.08
36.0178	2642.24
36.0322	2150.77
36.0467	1923.77
36.0611	1741.39
36.0755	1625.43
36.0900	1649.78
36.1044	1531.60
36.1189	1512.66
36.1333	1346.74
36.1477	1175.91
36.1622	1155.37
36.1766	1150.42
36.1911	1045.56
36.2055	1073.09
36.2199	1063.47
36.2344	1068.88
36.2488	1135.91
36.2633	1097.52
36.2777	1074.57
36.2921	1076.44
36.3066	1014.30
36.3210	991.75
36.3355	967.63
36.3499	929.52
36.3643	801.10
36.3788	750.08
36.3932	745.34
36.4077	687.00
36.4221	676.89
36.4365	629.03
36.4510	617.67
36.4654	632.58
36.4799	622.03
36.4943	561.27
36.5087	582.72
36.5232	565.31
36.5376	562.45
36.5521	572.00
36.5665	622.17
36.5809	595.43
36.5954	582.22
36.6098	579.65
36.6243	552.47
36.6387	556.95
36.6531	524.03
36.6676	528.37
36.6820	511.92
36.6965	529.13
36.7109	503.46
36.7253	545.71
36.7398	528.81
36.7542	564.38
36.7687	537.20
36.7831	555.74
36.7975	574.73
36.8120	590.56
36.8264	575.64
36.8409	588.33
36.8553	616.35
36.8697	559.68
36.8842	581.34
36.8986	608.52
36.9131	575.57
36.9275	580.41
36.9419	592.47
36.9564	595.25
36.9708	566.26
36.9853	522.25
36.9997	527.56
37.0141	534.68
37.0286	554.09
37.0430	539.87
37.0575	511.64
37.0719	509.39
37.0863	549.63
37.1008	522.70
37.1152	522.17
37.1297	523.63
37.1441	477.05
37.1585	529.83
37.1730	487.28
37.1874	494.64
37.2019	495.01
37.2163	497.09
37.2307	511.63
37.2452	522.60
37.2596	480.46
37.2741	487.28
37.2885	536.10
37.3029	539.58
37.3174	498.18
37.3318	525.94
37.3463	475.02
37.3607	507.28
37.3751	507.47
37.3896	466.52
37.4040	459.95
37.4185	472.05
37.4329	549.90
37.4473	492.53
37.4618	506.19
37.4762	522.92
37.4907	513.14
37.5051	524.47
37.5195	522.06
37.5340	505.75
37.5484	512.21
37.5629	483.71
37.5773	469.90
37.5917	504.74
37.6062	509.42
37.6206	508.21
37.6351	520.69
37.6495	486.86
37.6639	489.90
37.6784	470.58
37.6928	482.60
37.7073	541.98
37.7217	531.90
37.7361	521.83
37.7506	475.00
37.7650	515.95
37.7795	510.62
37.7939	503.61
37.8083	512.18
37.8228	507.98
37.8372	524.00
37.8517	547.38
37.8661	525.19
37.8805	520.47
37.8950	528.79
37.9094	523.87
37.9239	501.62
37.9383	485.47
37.9528	490.16
37.9672	493.18
37.9816	511.90
37.9961	520.94
38.0105	485.89
38.0250	508.96
38.0394	505.13
38.0538	537.78
38.0683	553.88
38.0827	520.85
38.0972	536.98
38.1116	532.62
38.1260	516.29
38.1405	500.66
38.1549	487.47
38.1694	535.76
38.1838	541.99
38.1982	508.52
38.2127	520.06
38.2271	507.07
38.2416	502.81
38.2560	521.65
38.2704	511.13
38.2849	516.80
38.2993	528.16
38.3138	533.12
38.3282	532.76
38.3426	538.53
38.3571	527.31
38.3715	558.21
38.3860	553.79
38.4004	557.85
38.4148	547.86
38.4293	585.35
38.4437	591.07
38.4582	604.64
38.4726	683.19
38.4870	723.99
38.5015	756.24
38.5159	774.09
38.5304	802.36
38.5448	792.53
38.5592	800.31
38.5737	789.54
38.5881	709.60
38.6026	759.00
38.6170	711.69
38.6314	691.63
38.6459	694.78
38.6603	645.34
38.6748	581.81
38.6892	552.39
38.7036	541.00
38.7181	533.42
38.7325	517.31
38.7470	528.25
38.7614	498.93
38.7758	509.64
38.7903	533.09
38.8047	516.41
38.8192	512.08
38.8336	526.76
38.8480	526.90
38.8625	503.80
38.8769	499.76
38.8914	511.36
38.9058	535.26
38.9202	513.72
38.9347	510.27
38.9491	507.88
38.9636	508.87
38.9780	482.74
38.9924	475.40
39.0069	508.15
39.0213	519.77
39.0358	484.56
39.0502	495.37
39.0646	498.51
39.0791	456.59
39.0935	452.35
39.1080	493.48
39.1224	511.98
39.1368	487.59
39.1513	476.73
39.1657	498.00
39.1802	508.51
39.1946	460.44
39.2090	476.75
39.2235	492.55
39.2379	489.16
39.2524	504.08
39.2668	508.11
39.2812	525.55
39.2957	539.85
39.3101	498.90
39.3246	501.91
39.3390	553.92
39.3534	520.13
39.3679	525.89
39.3823	494.14
39.3968	501.49
39.4112	504.39
39.4256	539.24
39.4401	518.78
39.4545	480.43
39.4690	497.51
39.4834	502.97
39.4978	526.67
39.5123	537.42
39.5267	496.88
39.5412	527.56
39.5556	500.45
39.5700	502.70
39.5845	485.72
39.5989	510.41
39.6134	509.56
39.6278	532.71
39.6422	509.68
39.6567	491.06
39.6711	498.64
39.6856	515.66
39.7000	514.40
39.7144	521.46
39.7289	522.79
39.7433	509.85
39.7578	475.71
39.7722	502.22
39.7866	510.92
39.8011	514.46
39.8155	500.99
39.8300	495.69
39.8444	483.79
39.8588	480.07
39.8733	505.38
39.8877	502.35
39.9022	516.71
39.9166	498.45
39.9310	481.92
39.9455	464.08
39.9599	493.59
39.9744	476.44
39.9888	494.03
40.0032	470.34
40.0177	497.87
40.0321	499.94
40.0466	508.12
40.0610	504.80
40.0754	523.70
40.0899	536.13
40.1043	483.35
40.1188	489.06
40.1332	479.24
40.1476	484.16
40.1621	529.24
40.1765	506.00
40.1910	499.52
40.2054	506.51
40.2198	514.39
40.2343	471.54
40.2487	461.74
40.2632	477.29
40.2776	502.67
40.2920	507.82
40.3065	491.04
40.3209	510.44
40.3354	500.22
40.3498	497.18
40.3642	460.56
40.3787	472.75
40.3931	466.07
40.4076	518.00
40.4220	489.55
40.4364	531.97
40.4509	511.15
40.4653	528.66
40.4798	530.60
40.4942	508.99
40.5086	486.39
40.5231	534.79
40.5375	515.31
40.5520	498.45
40.5664	491.49
40.5808	478.48
40.5953	525.66
40.6097	512.75
40.6242	514.10
40.6386	542.46
40.6530	494.84
40.6675	533.09
40.6819	496.91
40.6964	502.15
40.7108	514.96
40.7252	506.92
40.7397	513.06
40.7541	504.40
40.7686	476.18
40.7830	479.11
40.7974	478.82
40.8119	480.83
40.8263	483.20
40.8408	478.17
40.8552	505.21
40.8696	504.58
40.8841	481.75
40.8985	482.85
40.9130	470.90
40.9274	515.02
40.9418	493.91
40.9563	480.55
40.9707	485.13
40.9852	536.99
40.9996	504.39
41.0140	469.20
41.0285	482.29
41.0429	508.67
41.0574	488.95
41.0718	512.71
41.0862	481.84
41.1007	484.97
41.1151	514.30
41.1296	531.77
41.1440	499.44
41.1584	516.97
41.1729	489.12
41.1873	526.45
41.2018	527.69
41.2162	511.54
41.2306	524.32
41.2451	499.17
41.2595	509.18
41.2740	521.95
41.2884	506.46
41.3028	489.52
41.3173	505.96
41.3317	536.82
41.3462	495.85
41.3606	486.21
41.3750	507.92
41.3895	525.43
41.4039	497.35
41.4184	484.95
41.4328	503.13
41.4472	499.49
41.4617	505.20
41.4761	513.22
41.4906	511.97
41.5050	497.36
41.5194	489.36
41.5339	523.29
41.5483	537.28
41.5628	513.37
41.5772	466.94
41.5916	496.27
41.6061	492.92
41.6205	466.48
41.6350	515.86
41.6494	526.33
41.6639	480.14
41.6783	488.09
41.6927	500.20
41.7072	484.86
41.7216	484.95
41.7361	487.31
41.7505	508.00
41.7649	525.62
41.7794	477.39
41.7938	487.46
41.8083	517.05
41.8227	526.52
41.8371	494.71
41.8516	530.39
41.8660	537.26
41.8805	511.02
41.8949	545.56
41.9093	520.99
41.9238	566.16
41.9382	556.40
41.9527	574.18
41.9671	588.77
41.9815	580.56
41.9960	559.75
42.0104	545.77
42.0249	571.89
42.0393	583.78
42.0537	562.22
42.0682	564.50
42.0826	539.31
42.0971	591.03
42.1115	557.54
42.1259	595.91
42.1404	608.87
42.1548	556.30
42.1693	650.06
42.1837	686.27
42.1981	703.37
42.2126	821.34
42.2270	903.14
42.2415	1031.91
42.2559	1175.05
42.2703	1294.30
42.2848	1460.24
42.2992	1539.87
42.3137	1658.22
42.3281	1642.59
42.3425	1514.76
42.3570	1462.19
42.3714	1407.76
42.3859	1362.47
42.4003	1331.10
42.4147	1327.27
42.4292	1240.18
42.4436	1104.81
42.4581	1034.74
42.4725	939.46
42.4869	820.66
42.5014	750.73
42.5158	678.18
42.5303	643.58
42.5447	633.89
42.5591	591.92
42.5736	575.81
42.5880	550.23
42.6025	552.29
42.6169	574.16
42.6313	582.15
42.6458	557.05
42.6602	553.80
42.6747	557.65
42.6891	530.99
42.7035	529.78
42.7180	539.99
42.7324	543.76
42.7469	529.46
42.7613	506.86
42.7757	511.29
42.7902	520.47
42.8046	532.86
42.8191	519.92
42.8335	481.96
42.8479	509.30
42.8624	543.39
42.8768	566.67
42.8913	511.43
42.9057	507.81
42.9201	511.82
42.9346	530.14
42.9490	471.02
42.9635	526.96
42.9779	514.80
42.9923	500.73
43.0068	497.61
43.0212	522.40
43.0357	523.50
43.0501	525.31
43.0645	505.10
43.0790	516.70
43.0934	528.65
43.1079	511.25
43.1223	502.19
43.1367	524.06
43.1512	509.25
43.1656	516.02
43.1801	537.51
43.1945	528.87
43.2089	513.22
43.2234	490.71
43.2378	534.41
43.2523	536.97
43.2667	502.89
43.2811	517.71
43.2956	512.80
43.3100	529.01
43.3245	484.25
43.3389	533.29
43.3533	523.73
43.3678	496.39
43.3822	530.13
43.3967	544.07
43.4111	514.02
43.4255	549.34
43.4400	519.39
43.4544	516.37
43.4689	493.01
43.4833	522.99
43.4977	527.51
43.5122	507.90
43.5266	512.77
43.5411	519.16
43.5555	516.75
43.5699	494.19
43.5844	510.58
43.5988	505.49
43.6133	531.82
43.6277	516.42
43.6421	555.87
43.6566	539.88
43.6710	505.14
43.6855	537.10
43.6999	551.55
43.7143	497.57
43.7288	499.22
43.7432	505.20
43.7577	527.11
43.7721	464.50
43.7865	496.29
43.8010	487.48
43.8154	514.04
43.8299	532.91
43.8443	533.12
43.8587	532.67
43.8732	547.58
43.8876	564.46
43.9021	532.06
43.9165	522.17
43.9309	521.54
43.9454	519.22
43.9598	537.21
43.9743	526.97
43.9887	576.12
44.0031	585.18
44.0176	634.64
44.0320	582.70
44.0465	696.69
44.0609	652.68
44.0753	650.26
44.0898	637.94
44.1042	631.92
44.1187	603.26
44.1331	592.68
44.1475	594.26
44.1620	590.97
44.1764	627.39
44.1909	580.18
44.2053	572.67
44.2197	574.54
44.2342	571.44
44.2486	584.66
44.2631	574.34
44.2775	543.99
44.2919	563.86
44.3064	569.73
44.3208	517.50
44.3353	544.87
44.3497	515.90
44.3641	566.86
44.3786	559.47
44.3930	558.35
44.4075	559.17
44.4219	570.04
44.4363	574.99
44.4508	606.57
44.4652	592.57
44.4797	578.89
44.4941	592.15
44.5085	595.81
44.5230	566.00
44.5374	575.16
44.5519	611.03
44.5663	585.97
44.5807	556.30
44.5952	543.53
44.6096	569.57
44.6241	584.26
44.6385	571.22
44.6529	589.86
44.6674	579.75
44.6818	582.31
44.6963	588.85
44.7107	685.80
44.7251	756.88
44.7396	749.58
44.7540	814.38
44.7685	884.84
44.7829	909.81
44.7973	868.50
44.8118	834.74
44.8262	879.35
44.8407	783.21
44.8551	741.03
44.8695	759.27
44.8840	728.65
44.8984	770.36
44.9129	694.43
44.9273	713.19
44.9417	726.62
44.9562	629.24
44.9706	584.63
44.9851	517.60
44.9995	552.11
45.0139	529.86
45.0284	518.18
45.0428	543.83
45.0573	534.27
45.0717	526.98
45.0861	555.86
45.1006	565.89
45.1150	527.41
45.1295	514.32
45.1439	491.09
45.1583	523.48
45.1728	513.43
45.1872	510.02
45.2017	478.76
45.2161	516.72
45.2305	517.13
45.2450	534.08
45.2594	530.71
45.2739	531.53
45.2883	495.61
45.3028	472.64
45.3172	475.22
45.3316	528.25
45.3461	518.56
45.3605	501.76
45.3750	498.66
45.3894	499.29
45.4038	475.43
45.4183	506.87
45.4327	514.31
45.4472	494.07
45.4616	494.14
45.4760	510.79
45.4905	531.18
45.5049	480.62
45.5194	486.05
45.5338	497.39
45.5482	474.20
45.5627	506.29
45.5771	496.79
45.5916	503.07
45.6060	505.69
45.6204	500.96
45.6349	527.37
45.6493	495.65
45.6638	507.21
45.6782	491.33
45.6926	520.61
45.7071	515.55
45.7215	540.82
45.7360	511.88
45.7504	516.37
45.7648	495.08
45.7793	503.36
45.7937	505.64
45.8082	511.73
45.8226	479.50
45.8370	497.75
45.8515	481.99
45.8659	523.06
45.8804	491.93
45.8948	519.13
45.9092	539.96
45.9237	527.90
45.9381	504.87
45.9526	484.11
45.9670	502.33
45.9814	525.72
45.9959	522.18
46.0103	496.66
46.0248	501.08
46.0392	485.88
46.0536	485.22
46.0681	518.20
46.0825	496.67
46.0970	476.13
46.1114	465.82
46.1258	481.85
46.1403	504.03
46.1547	517.85
46.1692	525.00
46.1836	501.29
46.1980	487.57
46.2125	490.74
46.2269	504.27
46.2414	509.30
46.2558	492.48
46.2702	504.93
46.2847	525.54
46.2991	496.21
46.3136	505.32
46.3280	492.48
46.3424	497.47
46.3569	523.72
46.3713	506.27
46.3858	472.33
46.4002	487.08
46.4146	500.36
46.4291	517.39
46.4435	490.09
46.4580	491.48
46.4724	504.69
46.4868	504.06
46.5013	492.31
46.5157	482.19
46.5302	505.63
46.5446	487.87
46.5590	516.54
46.5735	515.32
46.5879	474.46
46.6024	479.65
46.6168	505.57
46.6312	480.50
46.6457	472.23
46.6601	513.10
46.6746	520.16
46.6890	489.05
46.7034	488.01
46.7179	524.80
46.7323	537.58
46.7468	508.00
46.7612	486.84
46.7756	521.91
46.7901	509.97
46.8045	475.10
46.8190	511.94
46.8334	507.18
46.8478	518.27
46.8623	520.03
46.8767	489.40
46.8912	483.26
46.9056	490.76
46.9200	489.56
46.9345	522.84
46.9489	513.00
46.9634	498.77
46.9778	510.45
46.9922	549.83
47.0067	521.01
47.0211	498.50
47.0356	525.06
47.0500	540.78
47.0644	542.10
47.0789	527.69
47.0933	515.75
47.1078	492.64
47.1222	482.76
47.1366	512.09
47.1511	484.15
47.1655	512.67
47.1800	524.88
47.1944	508.30
47.2088	507.21
47.2233	516.53
47.2377	498.95
47.2522	511.57
47.2666	536.61
47.2810	538.30
47.2955	518.36
47.3099	523.33
47.3244	518.14
47.3388	498.09
47.3532	492.38
47.3677	491.56
47.3821	483.18
47.3966	507.52
47.4110	502.05
47.4254	494.14
47.4399	483.59
47.4543	478.90
47.4688	501.37
47.4832	557.51
47.4976	537.37
47.5121	506.60
47.5265	487.59
47.5410	490.45
47.5554	512.99
47.5698	500.61
47.5843	480.09
47.5987	501.18
47.6132	501.29
47.6276	511.56
47.6420	495.68
47.6565	517.02
47.6709	511.04
47.6854	498.22
47.6998	514.55
47.7142	521.07
47.7287	470.23
47.7431	480.04
47.7576	516.03
47.7720	492.56
47.7864	486.36
47.8009	481.29
47.8153	495.90
47.8298	515.14
47.8442	499.61
47.8586	537.96
47.8731	541.89
47.8875	504.36
47.9020	531.19
47.9164	494.29
47.9308	518.49
47.9453	491.75
47.9597	477.51
47.9742	511.31
47.9886	497.08
48.0030	503.22
48.0175	511.81
48.0319	499.49
48.0464	513.11
48.0608	515.51
48.0752	509.42
48.0897	537.34
48.1041	518.21
48.1186	505.33
48.1330	535.52
48.1474	511.58
48.1619	519.66
48.1763	509.30
48.1908	498.33
48.2052	503.57
48.2196	527.60
48.2341	495.40
48.2485	496.12
48.2630	472.71
48.2774	501.92
48.2918	503.31
48.3063	504.26
48.3207	512.63
48.3352	556.60
48.3496	483.69
48.3640	479.77
48.3785	512.31
48.3929	518.27
48.4074	507.62
48.4218	529.16
48.4362	518.96
48.4507	499.20
48.4651	489.48
48.4796	503.86
48.4940	499.99
48.5084	473.76
48.5229	516.27
48.5373	503.69
48.5518	517.56
48.5662	496.50
48.5806	547.94
48.5951	555.92
48.6095	529.68
48.6240	488.91
48.6384	505.83
48.6528	544.44
48.6673	511.95
48.6817	471.71
48.6962	487.15
48.7106	556.48
48.7250	531.82
48.7395	492.39
48.7539	549.91
48.7684	522.48
48.7828	558.36
48.7972	544.81
48.8117	501.98
48.8261	529.03
48.8406	519.98
48.8550	506.56
48.8694	569.78
48.8839	536.35
48.8983	568.34
48.9128	541.39
48.9272	539.29
48.9416	519.39
48.9561	554.48
48.9705	589.44
48.9850	605.32
48.9994	545.05
49.0139	582.68
49.0283	572.61
49.0427	570.40
49.0572	573.39
49.0716	648.49
49.0861	663.66
49.1005	635.36
49.1149	689.90
49.1294	747.56
49.1438	740.13
49.1583	754.87
49.1727	825.80
49.1871	864.25
49.2016	964.65
49.2160	973.83
49.2305	1039.10
49.2449	1186.07
49.2593	1295.25
49.2738	1301.08
49.2882	1376.81
49.3027	1506.77
49.3171	1587.42
49.3315	1641.50
49.3460	1666.31
49.3604	1730.08
49.3749	1775.78
49.3893	1766.99
49.4037	1757.70
49.4182	1742.89
49.4326	1685.45
49.4471	1624.12
49.4615	1560.55
49.4759	1582.06
49.4904	1481.58
49.5048	1354.74
49.5193	1357.16
49.5337	1254.20
49.5481	1173.21
49.5626	1110.62
49.5770	1007.14
49.5915	968.97
49.6059	928.27
49.6203	860.67
49.6348	807.04
49.6492	792.26
49.6637	734.03
49.6781	708.48
49.6925	669.98
49.7070	661.14
49.7214	629.38
49.7359	632.13
49.7503	610.32
49.7647	582.77
49.7792	603.97
49.7936	562.84
49.8081	572.91
49.8225	605.70
49.8369	603.37
49.8514	532.83
49.8658	550.64
49.8803	541.07
49.8947	580.64
49.9091	557.49
49.9236	530.32
49.9380	523.37
49.9525	536.48
49.9669	570.51
49.9813	566.45
49.9958	510.97
50.0102	556.45
50.0247	551.62
50.0391	532.01
50.0535	539.68
50.0680	502.34
50.0824	514.47
50.0969	565.01
50.1113	540.15
50.1257	532.76
50.1402	509.33
50.1546	501.19
50.1691	518.46
50.1835	505.90
50.1979	511.08
50.2124	517.36
50.2268	549.56
50.2413	546.87
50.2557	525.98
50.2701	529.93
50.2846	539.02
50.2990	539.89
50.3135	509.63
50.3279	512.85
50.3423	541.76
50.3568	510.74
50.3712	483.65
50.3857	473.92
50.4001	515.37
50.4145	518.80
50.4290	527.50
50.4434	495.67
50.4579	507.76
50.4723	514.24
50.4867	513.68
50.5012	519.72
50.5156	487.11
50.5301	507.94
50.5445	531.05
50.5589	502.79
50.5734	495.39
50.5878	515.52
50.6023	511.27
50.6167	494.16
50.6311	514.57
50.6456	487.73
50.6600	507.97
50.6745	509.42
50.6889	514.61
50.7033	530.45
50.7178	505.42
50.7322	501.87
50.7467	502.59
50.7611	508.01
50.7755	512.65
50.7900	541.49
50.8044	508.38
50.8189	500.26
50.8333	496.26
50.8477	487.52
50.8622	522.15
50.8766	514.42
50.8911	543.28
50.9055	526.72
50.9199	492.93
50.9344	509.01
50.9488	558.68
50.9633	528.65
50.9777	533.45
50.9921	513.84
51.0066	505.93
51.0210	510.42
51.0355	505.73
51.0499	470.06
51.0643	488.44
51.0788	493.57
51.0932	535.45
51.1077	526.80
51.1221	540.22
51.1365	507.70
51.1510	488.60
51.1654	493.05
51.1799	514.11
51.1943	507.39
51.2087	513.33
51.2232	519.50
51.2376	517.92
51.2521	534.96
51.2665	503.75
51.2809	507.41
51.2954	535.15
51.3098	505.79
51.3243	517.53
51.3387	484.20
51.3531	480.46
51.3676	501.79
51.3820	535.63
51.3965	503.56
51.4109	512.49
51.4253	519.20
51.4398	516.12
51.4542	493.19
51.4687	510.75
51.4831	516.55
51.4975	504.32
51.5120	515.40
51.5264	525.22
51.5409	501.82
51.5553	501.04
51.5697	463.34
51.5842	508.20
51.5986	501.49
51.6131	501.19
51.6275	503.04
51.6419	489.91
51.6564	498.23
51.6708	496.73
51.6853	485.80
51.6997	522.71
51.7141	496.37
51.7286	515.86
51.7430	503.03
51.7575	497.75
51.7719	521.98
51.7863	491.94
51.8008	518.10
51.8152	525.61
51.8297	536.88
51.8441	567.29
51.8585	519.18
51.8730	502.24
51.8874	476.01
51.9019	513.64
51.9163	509.97
51.9307	489.46
51.9452	521.31
51.9596	522.52
51.9741	494.90
51.9885	495.04
52.0029	527.87
52.0174	509.66
52.0318	517.71
52.0463	509.14
52.0607	493.94
52.0751	534.86
52.0896	547.48
52.1040	538.64
52.1185	540.58
52.1329	507.92
52.1473	503.10
52.1618	499.62
52.1762	495.50
52.1907	495.20
52.2051	499.51
52.2195	520.66
52.2340	499.27
52.2484	545.95
52.2629	555.55
52.2773	500.58
52.2917	478.64
52.3062	507.60
52.3206	487.02
52.3351	515.04
52.3495	470.25
52.3639	505.25
52.3784	507.08
52.3928	498.89
52.4073	538.61
52.4217	552.42
52.4361	544.24
52.4506	503.29
52.4650	537.11
52.4795	517.45
52.4939	538.31
52.5083	533.48
52.5228	528.57
52.5372	524.27
52.5517	502.23
52.5661	536.39
52.5805	559.02
52.5950	516.93
52.6094	482.40
52.6239	552.82
52.6383	513.61
52.6527	524.88
52.6672	521.50
52.6816	528.98
52.6961	486.73
52.7105	511.71
52.7250	545.36
52.7394	494.00
52.7538	492.85
52.7683	493.56
52.7827	512.16
52.7972	543.00
52.8116	498.65
52.8260	512.33
52.8405	488.89
52.8549	512.81
52.8694	530.01
52.8838	532.49
52.8982	509.87
52.9127	541.31
52.9271	537.08
52.9416	530.77
52.9560	511.30
52.9704	486.60
52.9849	494.59
52.9993	477.65
53.0138	517.80
53.0282	504.64
53.0426	526.78
53.0571	521.02
53.0715	505.27
53.0860	503.98
53.1004	499.21
53.1148	533.18
53.1293	508.93
53.1437	498.29
53.1582	492.98
53.1726	502.97
53.1870	550.88
53.2015	509.55
53.2159	506.75
53.2304	541.69
53.2448	549.81
53.2592	524.49
53.2737	489.47
53.2881	529.36
53.3026	536.57
53.3170	495.31
53.3314	510.66
53.3459	517.47
53.3603	544.80
53.3748	529.77
53.3892	505.49
53.4036	502.02
53.4181	509.35
53.4325	526.79
53.4470	502.08
53.4614	512.62
53.4758	537.37
53.4903	555.05
53.5047	492.31
53.5192	512.80
53.5336	512.64
53.5480	509.19
53.5625	494.42
53.5769	509.42
53.5914	502.52
53.6058	500.60
53.6202	513.03
53.6347	497.77
53.6491	515.02
53.6636	509.59
53.6780	494.30
53.6924	493.10
53.7069	516.40
53.7213	513.31
53.7358	503.34
53.7502	517.90
53.7646	493.90
53.7791	506.24
53.7935	497.58
53.8080	510.97
53.8224	529.42
53.8368	529.73
53.8513	519.95
53.8657	538.32
53.8802	528.31
53.8946	523.63
53.9090	538.39
53.9235	502.93
53.9379	500.14
53.9524	529.42
53.9668	492.95
53.9812	493.18
53.9957	510.34
54.0101	492.38
54.0246	509.43
54.0390	507.54
54.0534	507.94
54.0679	523.73
54.0823	521.33
54.0968	550.31
54.1112	554.60
54.1256	539.47
54.1401	524.39
54.1545	494.48
54.1690	518.86
54.1834	499.05
54.1978	523.22
54.2123	529.46
54.2267	538.91
54.2412	491.20
54.2556	493.45
54.2700	558.65
54.2845	546.92
54.2989	538.32
54.3134	537.96
54.3278	522.30
54.3422	540.37
54.3567	492.63
54.3711	507.71
54.3856	537.57
54.4000	512.27
54.4144	527.21
54.4289	532.91
54.4433	525.61
54.4578	558.56
54.4722	557.65
54.4866	545.44
54.5011	580.58
54.5155	599.55
54.5300	567.07
54.5444	591.71
54.5588	595.88
54.5733	547.83
54.5877	578.90
54.6022	589.01
54.6166	592.05
54.6310	574.02
54.6455	573.98
54.6599	592.12
54.6744	609.57
54.6888	601.59
54.7032	603.02
54.7177	582.08
54.7321	577.74
54.7466	567.44
54.7610	541.40
54.7754	563.36
54.7899	566.20
54.8043	541.51
54.8188	564.97
54.8332	579.57
54.8476	586.52
54.8621	616.32
54.8765	576.54
54.8910	536.74
54.9054	541.12
54.9198	519.70
54.9343	523.98
54.9487	529.05
54.9632	514.78
54.9776	520.74
54.9920	531.26
55.0065	535.89
55.0209	504.19
55.0354	526.27
55.0498	546.05
55.0642	554.63
55.0787	545.91
55.0931	555.35
55.1076	524.83
55.1220	528.08
55.1364	519.59
55.1509	517.65
55.1653	538.48
55.1798	518.37
55.1942	518.80
55.2086	543.87
55.2231	538.68
55.2375	525.55
55.2520	503.07
55.2664	518.90
55.2808	525.65
55.2953	509.63
55.3097	519.39
55.3242	524.65
55.3386	508.61
55.3530	538.29
55.3675	525.88
55.3819	508.01
55.3964	489.03
55.4108	489.59
55.4252	518.45
55.4397	502.35
55.4541	505.59
55.4686	518.96
55.4830	497.88
55.4974	495.76
55.5119	535.96
55.5263	542.92
55.5408	508.55
55.5552	499.89
55.5696	538.08
55.5841	494.62
55.5985	501.62
55.6130	504.91
55.6274	503.20
55.6418	513.74
55.6563	530.06
55.6707	475.28
55.6852	512.49
55.6996	551.00
55.7140	535.35
55.7285	508.05
55.7429	495.09
55.7574	523.60
55.7718	534.67
55.7862	542.76
55.8007	505.43
55.8151	516.93
55.8296	506.75
55.8440	503.19
55.8584	517.84
55.8729	537.25
55.8873	524.63
55.9018	559.27
55.9162	538.28
55.9306	495.27
55.9451	488.55
55.9595	497.07
55.9740	522.04
55.9884	531.49
56.0028	527.34
56.0173	510.08
56.0317	530.66
56.0462	519.60
56.0606	516.76
56.0750	513.33
56.0895	510.07
56.1039	461.02
56.1184	528.65
56.1328	514.27
56.1472	522.35
56.1617	528.08
56.1761	542.32
56.1906	526.15
56.2050	518.44
56.2194	517.21
56.2339	510.70
56.2483	546.03
56.2628	546.88
56.2772	553.11
56.2916	513.70
56.3061	508.81
56.3205	505.37
56.3350	537.99
56.3494	555.85
56.3639	526.38
56.3783	568.82
56.3927	559.75
56.4072	500.26
56.4216	526.70
56.4361	508.06
56.4505	502.59
56.4649	537.74
56.4794	535.41
56.4938	495.81
56.5083	501.76
56.5227	530.58
56.5371	518.67
56.5516	501.67
56.5660	507.98
56.5805	497.77
56.5949	508.83
56.6093	524.86
56.6238	505.54
56.6382	515.65
56.6527	489.62
56.6671	538.25
56.6815	547.64
56.6960	521.99
56.7104	537.98
56.7249	512.42
56.7393	537.44
56.7537	514.69
56.7682	495.25
56.7826	547.75
56.7971	526.52
56.8115	550.38
56.8259	492.17
56.8404	544.42
56.8548	538.58
56.8693	516.33
56.8837	526.94
56.8981	496.35
56.9126	492.12
56.9270	520.42
56.9415	574.77
56.9559	521.63
56.9703	533.23
56.9848	522.80
56.9992	522.16
57.0137	523.04
57.0281	511.31
57.0425	509.56
57.0570	538.88
57.0714	508.72
57.0859	559.10
57.1003	542.11
57.1147	531.74
57.1292	548.61
57.1436	500.78
57.1581	519.85
57.1725	557.60
57.1869	528.85
57.2014	518.76
57.2158	537.94
57.2303	551.87
57.2447	526.57
57.2591	523.88
57.2736	503.94
57.2880	549.07
57.3025	517.66
57.3169	544.45
57.3313	511.71
57.3458	514.42
57.3602	501.15
57.3747	507.62
57.3891	530.69
57.4035	530.07
57.4180	516.17
57.4324	508.46
57.4469	512.79
57.4613	508.23
57.4757	519.34
57.4902	526.85
57.5046	509.70
57.5191	515.39
57.5335	523.94
57.5479	522.70
57.5624	524.81
57.5768	528.33
57.5913	528.12
57.6057	514.95
57.6201	506.96
57.6346	518.33
57.6490	499.11
57.6635	527.75
57.6779	537.81
57.6923	507.96
57.7068	520.90
57.7212	524.11
57.7357	505.64
57.7501	534.34
57.7645	516.89
57.7790	488.13
57.7934	498.40
57.8079	567.53
57.8223	539.96
57.8367	547.19
57.8512	526.55
57.8656	543.58
57.8801	514.69
57.8945	534.29
57.9089	554.31
57.9234	501.04
57.9378	538.56
57.9523	541.59
57.9667	534.38
57.9811	522.48
57.9956	507.65
58.0100	530.73
58.0245	572.20
58.0389	555.98
58.0533	539.91
58.0678	517.96
58.0822	536.19
58.0967	566.60
58.1111	545.75
58.1255	565.62
58.1400	547.70
58.1544	558.00
58.1689	589.69
58.1833	597.60
58.1977	589.82
58.2122	618.90
58.2266	636.87
58.2411	634.73
58.2555	663.04
58.2699	653.69
58.2844	671.10
58.2988	649.48
58.3133	661.14
58.3277	693.05
58.3421	681.01
58.3566	675.27
58.3710	677.16
58.3855	662.88
58.3999	671.97
58.4143	630.21
58.4288	654.91
58.4432	651.00
58.4577	631.00
58.4721	649.81
58.4865	626.21
58.5010	622.68
58.5154	589.02
58.5299	579.02
58.5443	566.23
58.5587	571.35
58.5732	544.85
58.5876	577.25
58.6021	579.62
58.6165	533.18
58.6309	549.46
58.6454	529.94
58.6598	578.35
58.6743	544.18
58.6887	538.00
58.7031	556.08
58.7176	551.16
58.7320	530.53
58.7465	557.00
58.7609	535.70
58.7753	546.44
58.7898	555.90
58.8042	557.94
58.8187	561.87
58.8331	569.06
58.8475	524.92
58.8620	544.03
58.8764	520.18
58.8909	535.96
58.9053	538.33
58.9197	511.12
58.9342	536.79
58.9486	516.22
58.9631	519.89
58.9775	531.63
58.9919	526.70
59.0064	549.51
59.0208	574.71
59.0353	531.68
59.0497	507.83
59.0641	527.97
59.0786	531.84
59.0930	552.10
59.1075	551.58
59.1219	540.98
59.1363	521.05
59.1508	505.00
59.1652	537.36
59.1797	557.68
59.1941	548.18
59.2085	528.57
59.2230	539.79
59.2374	555.64
59.2519	532.37
59.2663	551.50
59.2807	544.09
59.2952	530.83
59.3096	548.32
59.3241	569.54
59.3385	538.34
59.3529	506.77
59.3674	539.86
59.3818	545.74
59.3963	542.36
59.4107	527.93
59.4251	569.16
59.4396	575.05
59.4540	532.31
59.4685	580.37
59.4829	567.47
59.4973	571.89
59.5118	541.97
59.5262	555.35
59.5407	557.05
59.5551	555.58
59.5695	544.72
59.5840	571.25
59.5984	557.85
59.6129	515.19
59.6273	541.02
59.6417	569.10
59.6562	542.23
59.6706	542.48
59.6851	526.81
59.6995	508.35
59.7139	536.28
59.7284	533.46
59.7428	521.43
59.7573	526.34
59.7717	529.06
59.7861	535.49
59.8006	547.03
59.8150	587.78
59.8295	576.26
59.8439	577.91
59.8583	556.15
59.8728	562.44
59.8872	530.76
59.9017	543.60
59.9161	524.88
59.9305	543.38
59.9450	558.68
59.9594	581.70
59.9739	552.77
59.9883	499.19
60.0027	558.54
60.0172	540.76
60.0316	582.24
60.0461	542.34
60.0605	543.82
60.0750	523.43
60.0894	552.89
60.1038	534.87
60.1183	526.58
60.1327	531.69
60.1472	500.51
60.1616	538.95
60.1760	531.69
60.1905	542.58
60.2049	519.63
60.2194	553.85
60.2338	562.50
60.2482	530.66
60.2627	525.15
60.2771	508.66
60.2916	517.61
60.3060	560.28
60.3204	565.36
60.3349	561.99
60.3493	533.22
60.3638	546.48
60.3782	536.36
60.3926	531.85
60.4071	537.72
60.4215	539.36
60.4360	552.30
60.4504	547.84
60.4648	555.70
60.4793	546.02
60.4937	573.47
60.5082	530.11
60.5226	523.64
60.5370	552.55
60.5515	543.48
60.5659	526.87
60.5804	558.29
60.5948	538.12
60.6092	533.54
60.6237	551.83
60.6381	530.89
60.6526	541.92
60.6670	544.49
60.6814	572.93
60.6959	534.98
60.7103	557.49
60.7248	509.39
60.7392	534.81
60.7536	570.00
60.7681	543.09
60.7825	527.17
60.7970	510.74
60.8114	529.67
60.8258	525.30
60.8403	540.98
60.8547	556.02
60.8692	549.40
60.8836	559.72
60.8980	575.79
60.9125	569.31
60.9269	549.91
60.9414	588.02
60.9558	536.54
60.9702	530.47
60.9847	542.20
60.9991	506.96
61.0136	544.17
61.0280	521.35
61.0424	513.84
61.0569	533.57
61.0713	541.38
61.0858	547.92
61.1002	587.40
61.1146	561.75
61.1291	542.87
61.1435	514.02
61.1580	527.04
61.1724	540.92
61.1868	532.59
61.2013	550.44
61.2157	540.05
61.2302	541.64
61.2446	501.11
61.2590	551.88
61.2735	558.39
61.2879	530.17
61.3024	560.75
61.3168	555.67
61.3312	531.30
61.3457	551.41
61.3601	537.58
61.3746	498.03
61.3890	572.14
61.4034	562.97
61.4179	526.75
61.4323	550.45
61.4468	555.61
61.4612	561.67
61.4756	543.27
61.4901	565.12
61.5045	556.00
61.5190	519.67
61.5334	549.22
61.5478	556.92
61.5623	538.47
61.5767	517.87
61.5912	522.05
61.6056	544.53
61.6200	562.45
61.6345	593.72
61.6489	518.59
61.6634	567.79
61.6778	565.73
61.6922	510.60
61.7067	543.34
61.7211	527.79
61.7356	544.11
61.7500	542.84
61.7644	536.03
61.7789	534.13
61.7933	517.98
61.8078	546.00
61.8222	526.65
61.8366	531.48
61.8511	567.89
61.8655	555.85
61.8800	560.24
61.8944	561.71
61.9088	537.77
61.9233	551.58
61.9377	540.95
61.9522	538.73
61.9666	549.07
61.9810	572.10
61.9955	521.41
62.0099	565.36
62.0244	583.38
62.0388	534.39
62.0532	568.53
62.0677	557.08
62.0821	591.58
62.0966	574.05
62.1110	550.65
62.1254	551.75
62.1399	510.77
62.1543	504.68
62.1688	534.01
62.1832	562.53
62.1976	541.45
62.2121	618.59
62.2265	581.27
62.2410	573.83
62.2554	557.73
62.2698	539.05
62.2843	495.82
62.2987	505.89
62.3132	528.20
62.3276	545.90
62.3420	539.80
62.3565	551.93
62.3709	541.76
62.3854	549.49
62.3998	526.79
62.4142	535.98
62.4287	554.42
62.4431	573.97
62.4576	530.36
62.4720	538.06
62.4864	573.59
62.5009	545.23
62.5153	539.85
62.5298	559.98
62.5442	539.67
62.5586	533.99
62.5731	562.08
62.5875	566.21
62.6020	552.84
62.6164	531.26
62.6308	561.12
62.6453	577.05
62.6597	549.28
62.6742	531.16
62.6886	543.69
62.7030	572.66
62.7175	556.19
62.7319	547.43
62.7464	577.61
62.7608	542.48
62.7752	523.58
62.7897	567.92
62.8041	549.49
62.8186	555.22
62.8330	584.38
62.8474	573.90
62.8619	587.74
62.8763	567.31
62.8908	552.22
62.9052	571.72
62.9196	561.46
62.9341	601.51
62.9485	616.68
62.9630	558.48
62.9774	567.93
62.9918	571.07
63.0063	514.52
63.0207	549.10
63.0352	577.03
63.0496	561.95
63.0640	545.46
63.0785	560.54
63.0929	566.15
63.1074	551.06
63.1218	587.97
63.1362	604.19
63.1507	580.15
63.1651	567.32
63.1796	566.94
63.1940	570.62
63.2084	545.13
63.2229	529.93
63.2373	573.23
63.2518	582.50
63.2662	571.47
63.2806	569.99
63.2951	579.03
63.3095	584.75
63.3240	557.03
63.3384	587.79
63.3528	594.56
63.3673	587.56
63.3817	567.26
63.3962	554.71
63.4106	589.89
63.4250	572.21
63.4395	561.76
63.4539	545.10
63.4684	565.60
63.4828	596.32
63.4972	571.97
63.5117	598.41
63.5261	567.52
63.5406	591.70
63.5550	591.81
63.5694	585.36
63.5839	577.29
63.5983	599.85
63.6128	645.22
63.6272	667.99
63.6416	576.15
63.6561	603.10
63.6705	594.01
63.6850	570.54
63.6994	588.20
63.7138	607.98
63.7283	623.01
63.7427	607.12
63.7572	630.13
63.7716	621.05
63.7861	646.22
63.8005	613.85
63.8149	599.73
63.8294	624.38
63.8438	611.56
63.8583	642.70
63.8727	676.54
63.8871	643.21
63.9016	646.05
63.9160	635.59
63.9305	702.54
63.9449	683.41
63.9593	657.01
63.9738	699.32
63.9882	722.08
64.0027	793.08
64.0171	802.80
64.0315	854.46
64.0460	840.59
64.0604	860.21
64.0749	829.62
64.0893	858.35
64.1037	830.79
64.1182	826.85
64.1326	805.81
64.1471	744.26
64.1615	769.85
64.1759	774.29
64.1904	775.87
64.2048	742.49
64.2193	780.59
64.2337	801.98
64.2481	757.96
64.2626	727.28
64.2770	729.75
64.2915	683.56
64.3059	720.26
64.3203	724.92
64.3348	692.37
64.3492	712.59
64.3637	690.70
64.3781	650.72
64.3925	650.38
64.4070	666.74
64.4214	674.20
64.4359	678.44
64.4503	672.02
64.4647	675.61
64.4792	640.76
64.4936	646.09
64.5081	679.98
64.5225	658.71
64.5369	662.23
64.5514	681.35
64.5658	653.58
64.5803	638.25
64.5947	643.07
64.6091	668.30
64.6236	652.34
64.6380	646.49
64.6525	654.07
64.6669	670.51
64.6813	654.13
64.6958	681.65
64.7102	697.47
64.7247	673.05
64.7391	674.21
64.7535	673.08
64.7680	729.99
64.7824	764.98
64.7969	753.73
64.8113	783.06
64.8257	762.64
64.8402	742.62
64.8546	826.02
64.8691	846.63
64.8835	846.50
64.8979	871.26
64.9124	888.39
64.9268	896.62
64.9413	894.98
64.9557	907.54
64.9701	1013.44
64.9846	1108.43
64.9990	1190.90
65.0135	1323.45
65.0279	1592.48
65.0423	1704.40
65.0568	2140.83
65.0712	2795.01
65.0857	3575.86
65.1001	4635.03
65.1145	6420.00
65.1290	8489.04
65.1434	9961.77
65.1579	11390.97
65.1723	11866.33
65.1867	11047.52
65.2012	9844.25
65.2156	8190.32
65.2301	6391.16
65.2445	5196.62
65.2589	4413.75
65.2734	4254.67
65.2878	4427.79
65.3023	5108.46
65.3167	5964.91
65.3311	6785.00
65.3456	6948.39
65.3600	6902.77
65.3745	6360.03
65.3889	5452.15
65.4033	4213.63
65.4178	3326.49
65.4322	2626.85
65.4467	1957.92
65.4611	1658.21
65.4755	1441.14
65.4900	1255.07
65.5044	1143.13
65.5189	1038.25
65.5333	1029.41
65.5477	934.78
65.5622	886.26
65.5766	824.78
65.5911	806.42
65.6055	804.56
65.6199	776.48
65.6344	850.13
65.6488	750.90
65.6633	730.16
65.6777	740.84
65.6921	723.76
65.7066	732.11
65.7210	721.11
65.7355	688.30
65.7499	697.46
65.7643	689.58
65.7788	682.58
65.7932	715.35
65.8077	679.59
65.8221	638.95
65.8365	662.78
65.8510	685.50
65.8654	638.05
65.8799	641.12
65.8943	655.77
65.9087	679.68
65.9232	648.89
65.9376	634.94
65.9521	659.57
65.9665	620.38
65.9809	623.66
65.9954	637.21
66.0098	655.55
66.0243	662.76
66.0387	671.01
66.0531	625.28
66.0676	601.15
66.0820	647.80
66.0965	618.53
66.1109	624.70
66.1253	667.53
66.1398	614.56
66.1542	606.48
66.1687	621.95
66.1831	597.76
66.1975	599.10
66.2120	651.49
66.2264	637.85
66.2409	598.36
66.2553	563.21
66.2697	578.39
66.2842	623.02
66.2986	607.10
66.3131	635.29
66.3275	608.15
66.3419	614.82
66.3564	594.65
66.3708	582.36
66.3853	590.85
66.3997	575.88
66.4141	593.85
66.4286	622.11
66.4430	590.17
66.4575	592.55
66.4719	588.51
66.4863	593.91
66.5008	592.87
66.5152	584.65
66.5297	624.59
66.5441	613.52
66.5585	586.73
66.5730	603.27
66.5874	596.36
66.6019	614.62
66.6163	606.53
66.6307	575.93
66.6452	598.10
66.6596	623.85
66.6741	614.66
66.6885	606.72
66.7029	589.80
66.7174	605.83
66.7318	600.96
66.7463	611.67
66.7607	591.11
66.7751	608.74
66.7896	615.61
66.8040	575.69
66.8185	588.47
66.8329	582.62
66.8473	591.11
66.8618	595.93
66.8762	584.04
66.8907	570.74
66.9051	628.84
66.9195	589.82
66.9340	568.89
66.9484	577.64
66.9629	560.37
66.9773	594.28
66.9917	633.17
67.0062	588.59
67.0206	602.94
67.0351	574.88
67.0495	580.92
67.0639	596.76
67.0784	594.85
67.0928	584.84
67.1073	558.35
67.1217	558.77
67.1361	566.44
67.1506	574.88
67.1650	623.80
67.1795	586.71
67.1939	582.21
67.2083	552.40
67.2228	585.13
67.2372	604.33
67.2517	595.08
67.2661	582.16
67.2805	594.60
67.2950	603.74
67.3094	608.89
67.3239	564.97
67.3383	612.29
67.3527	598.14
67.3672	596.64
67.3816	576.10
67.3961	562.95
67.4105	599.75
67.4250	612.11
67.4394	588.59
67.4538	579.45
67.4683	575.88
67.4827	570.05
67.4972	539.24
67.5116	561.44
67.5260	597.23
67.5405	564.89
67.5549	568.86
67.5694	559.30
67.5838	586.75
67.5982	575.02
67.6127	588.06
67.6271	577.47
67.6416	589.02
67.6560	581.21
67.6704	582.87
67.6849	558.38
67.6993	583.21
67.7138	583.01
67.7282	571.12
67.7426	600.70
67.7571	573.93
67.7715	553.79
67.7860	635.78
67.8004	586.02
67.8148	586.63
67.8293	610.96
67.8437	578.71
67.8582	587.56
67.8726	564.35
67.8870	571.71
67.9015	607.93
67.9159	544.71
67.9304	582.03
67.9448	595.90
67.9592	566.06
67.9737	553.37
67.9881	555.41
68.0026	579.81
68.0170	571.32
68.0314	582.62
68.0459	580.81
68.0603	607.64
68.0748	587.58
68.0892	627.00
68.1036	584.24
68.1181	551.45
68.1325	636.32
68.1470	615.19
68.1614	573.22
68.1758	574.03
68.1903	568.25
68.2047	547.72
68.2192	558.59
68.2336	573.45
68.2480	549.41
68.2625	590.96
68.2769	590.39
68.2914	602.31
68.3058	582.08
68.3202	572.18
68.3347	607.85
68.3491	560.28
68.3636	577.91
68.3780	606.85
68.3924	609.65
68.4069	585.01
68.4213	565.39
68.4358	598.44
68.4502	576.26
68.4646	611.04
68.4791	602.18
68.4935	572.40
68.5080	594.64
68.5224	539.30
68.5368	558.90
68.5513	576.03
68.5657	563.13
68.5802	577.35
68.5946	575.57
68.6090	534.59
68.6235	562.62
68.6379	559.96
68.6524	571.40
68.6668	599.76
68.6812	562.41
68.6957	549.06
68.7101	551.52
68.7246	568.13
68.7390	612.80
68.7534	600.77
68.7679	607.12
68.7823	583.96
68.7968	549.18
68.8112	556.44
68.8256	541.45
68.8401	548.89
68.8545	556.09
68.8690	605.54
68.8834	622.01
68.8978	593.73
68.9123	589.71
68.9267	611.38
68.9412	578.16
68.9556	597.19
68.9700	540.57
68.9845	528.62
68.9989	524.78
69.0134	572.58
69.0278	551.62
69.0422	555.81
69.0567	588.45
69.0711	588.99
69.0856	539.66
69.1000	540.66
69.1144	624.04
69.1289	560.08
69.1433	507.92
69.1578	579.78
69.1722	572.80
69.1866	568.74
69.2011	572.39
69.2155	590.29
69.2300	596.32
69.2444	603.32
69.2588	617.06
69.2733	566.13
69.2877	567.40
69.3022	546.78
69.3166	530.11
69.3310	623.12
69.3455	561.80
69.3599	552.42
69.3744	575.90
69.3888	582.69
69.4032	571.10
69.4177	576.26
69.4321	618.48
69.4466	572.10
69.4610	564.45
69.4754	559.20
69.4899	574.43
69.5043	568.04
69.5188	538.48
69.5332	575.50
69.5476	554.29
69.5621	594.97
69.5765	583.06
69.5910	575.16
69.6054	591.90
69.6198	587.48
69.6343	633.54
69.6487	575.14
69.6632	601.36
69.6776	605.56
69.6920	589.68
69.7065	598.58
69.7209	570.90
69.7354	572.50
69.7498	565.84
69.7642	563.18
69.7787	595.76
69.7931	562.63
69.8076	596.20
69.8220	576.47
69.8364	610.44
69.8509	598.28
69.8653	580.66
69.8798	574.40
69.8942	574.16
69.9086	577.77
69.9231	592.72
69.9375	617.72
69.9520	577.05
69.9664	556.25
69.9808	587.97
69.9953	590.05
70.0097	608.25
70.0242	555.89
70.0386	596.92
70.0530	583.31
70.0675	581.95
70.0819	599.18
70.0964	558.32
70.1108	544.62
70.1252	547.22
70.1397	580.27
70.1541	508.07
70.1686	561.24
70.1830	591.87
70.1974	570.77
70.2119	640.88
70.2263	554.56
70.2408	556.68
70.2552	582.51
70.2696	578.10
70.2841	556.99
70.2985	551.04
70.3130	567.08
70.3274	611.05
70.3418	602.26
70.3563	637.46
70.3707	576.52
70.3852	566.32
70.3996	553.80
70.4140	554.10
70.4285	653.74
70.4429	617.69
70.4574	554.57
70.4718	579.02
70.4862	563.57
70.5007	601.61
70.5151	595.01
70.5296	601.96
70.5440	627.68
70.5584	572.02
70.5729	514.63
70.5873	521.69
70.6018	575.22
70.6162	619.02
70.6306	594.09
70.6451	572.77
70.6595	614.50
70.6740	563.05
70.6884	532.40
70.7028	537.93
70.7173	532.54
70.7317	565.88
70.7462	586.65
70.7606	586.86
70.7750	580.11
70.7895	592.37
70.8039	577.18
70.8184	609.74
70.8328	599.75
70.8472	575.62
70.8617	555.45
70.8761	572.45
70.8906	601.01
70.9050	594.17
70.9194	606.27
70.9339	654.80
70.9483	573.17
70.9628	583.92
70.9772	600.01
70.9916	583.20
71.0061	530.42
71.0205	522.75
71.0350	568.82
71.0494	566.44
71.0638	537.14
71.0783	553.47
71.0927	595.98
71.1072	589.62
71.1216	556.76
71.1361	600.66
71.1505	591.41
71.1649	628.35
71.1794	622.59
71.1938	638.65
71.2083	615.05
71.2227	552.49
71.2371	584.27
71.2516	598.61
71.2660	587.44
71.2805	593.79
71.2949	582.42
71.3093	572.22
71.3238	592.97
71.3382	610.87
71.3527	571.27
71.3671	536.71
71.3815	577.23
71.3960	596.13
71.4104	566.43
71.4249	602.53
71.4393	593.13
71.4537	574.61
71.4682	583.64
71.4826	588.33
71.4971	590.46
71.5115	579.44
71.5259	517.10
71.5404	533.29
71.5548	547.36
71.5693	542.86
71.5837	587.77
71.5981	593.09
71.6126	590.38
71.6270	614.02
71.6415	617.59
71.6559	565.54
71.6703	534.76
71.6848	548.86
71.6992	556.12
71.7137	592.41
71.7281	588.26
71.7425	574.56
71.7570	558.43
71.7714	608.83
71.7859	639.30
71.8003	598.44
71.8147	595.26
71.8292	559.99
71.8436	556.77
71.8581	561.84
71.8725	526.90
71.8869	526.77
71.9014	613.88
71.9158	589.33
71.9303	540.59
71.9447	597.85
71.9591	598.34
71.9736	512.72
71.9880	534.03
72.0025	540.59
72.0169	538.13
72.0313	559.40
72.0458	607.05
72.0602	595.05
72.0747	578.94
72.0891	566.63
72.1035	551.39
72.1180	618.67
72.1324	625.04
72.1469	635.94
72.1613	618.12
72.1757	612.55
72.1902	613.36
72.2046	625.01
72.2191	635.46
72.2335	543.98
72.2479	531.39
72.2624	582.25
72.2768	549.46
72.2913	486.45
72.3057	511.59
72.3201	514.12
72.3346	479.03
72.3490	551.05
72.3635	584.61
72.3779	580.73
72.3923	600.61
72.4068	567.55
72.4212	635.77
72.4357	661.88
72.4501	597.60
72.4645	563.59
72.4790	572.98
72.4934	577.22
72.5079	563.59
72.5223	540.17
72.5367	538.85
72.5512	570.22
72.5656	579.08
72.5801	580.10
72.5945	525.85
72.6089	539.33
72.6234	552.44
72.6378	570.25
72.6523	625.73
72.6667	690.50
72.6811	570.98
72.6956	524.76
72.7100	559.10
72.7245	543.65
72.7389	578.52
72.7533	668.00
72.7678	651.12
72.7822	652.00
72.7967	628.99
72.8111	659.84
72.8255	661.35
72.8400	559.96
72.8544	576.84
72.8689	599.97
72.8833	571.69