2022.09.19 19:37:16
Îáðàçåö: ß÷åéêà LCoV 16-09-2022
Lambda1 = 1.54060
Lambda2 = 1.54439
Lambdam = 1.54186
R = 0.497
2Theta	I

line¹ 0 ;repeat¹ 0
22.1120	577.29
22.1264	584.87
22.1409	529.32
22.1553	582.10
22.1697	513.73
22.1842	547.08
22.1986	542.54
22.2131	483.07
22.2275	608.06
22.2419	613.06
22.2564	638.35
22.2708	664.47
22.2853	674.64
22.2997	515.31
22.3141	554.43
22.3286	580.04
22.3430	561.71
22.3575	597.70
22.3719	599.29
22.3863	648.32
22.4008	608.77
22.4152	534.86
22.4297	622.65
22.4441	662.51
22.4585	595.79
22.4730	633.35
22.4874	647.22
22.5019	587.76
22.5163	587.31
22.5307	589.07
22.5452	536.89
22.5596	629.23
22.5741	612.96
22.5885	612.57
22.6029	590.57
22.6174	700.13
22.6318	598.75
22.6463	574.69
22.6607	639.86
22.6751	644.10
22.6896	624.63
22.7040	576.82
22.7185	595.11
22.7329	573.20
22.7473	545.23
22.7618	560.29
22.7762	545.65
22.7907	582.66
22.8051	492.52
22.8195	611.17
22.8340	596.08
22.8484	506.31
22.8629	572.36
22.8773	631.27
22.8917	642.54
22.9062	529.08
22.9206	531.90
22.9351	592.35
22.9495	585.23
22.9639	572.10
22.9784	615.05
22.9928	634.74
23.0073	565.68
23.0217	633.43
23.0361	554.68
23.0506	600.23
23.0650	621.37
23.0795	487.71
23.0939	476.76
23.1083	522.14
23.1228	494.80
23.1372	557.79
23.1517	578.51
23.1661	589.52
23.1806	535.77
23.1950	555.62
23.2094	479.11
23.2239	526.91
23.2383	597.92
23.2528	641.28
23.2672	533.55
23.2816	542.12
23.2961	547.91
23.3105	550.56
23.3250	550.74
23.3394	563.92
23.3538	556.92
23.3683	567.73
23.3827	534.66
23.3972	558.81
23.4116	578.83
23.4260	559.23
23.4405	615.15
23.4549	560.66
23.4694	507.96
23.4838	600.81
23.4982	550.10
23.5127	539.71
23.5271	467.93
23.5416	530.19
23.5560	584.11
23.5704	624.61
23.5849	595.76
23.5993	590.76
23.6138	588.96
23.6282	583.11
23.6426	560.34
23.6571	575.97
23.6715	562.50
23.6860	538.76
23.7004	591.11
23.7148	535.74
23.7293	559.83
23.7437	525.65
23.7582	582.36
23.7726	519.42
23.7870	578.72
23.8015	525.79
23.8159	569.72
23.8304	597.37
23.8448	560.34
23.8592	570.67
23.8737	610.11
23.8881	530.19
23.9026	531.39
23.9170	593.25
23.9314	546.89
23.9459	575.88
23.9603	553.72
23.9748	546.10
23.9892	607.44
24.0036	522.98
24.0181	579.59
24.0325	589.93
24.0470	582.93
24.0614	570.82
24.0758	554.48
24.0903	596.75
24.1047	555.77
24.1192	577.80
24.1336	588.66
24.1480	542.18
24.1625	555.96
24.1769	614.50
24.1914	593.05
24.2058	570.54
24.2202	626.03
24.2347	630.01
24.2491	594.19
24.2636	607.71
24.2780	587.95
24.2924	602.14
24.3069	553.93
24.3213	580.12
24.3358	549.60
24.3502	580.71
24.3646	527.29
24.3791	557.32
24.3935	568.99
24.4080	537.32
24.4224	576.86
24.4368	526.56
24.4513	498.89
24.4657	519.31
24.4802	546.44
24.4946	528.57
24.5090	559.71
24.5235	575.30
24.5379	540.81
24.5524	592.25
24.5668	622.55
24.5812	561.72
24.5957	556.92
24.6101	613.54
24.6246	547.96
24.6390	570.40
24.6534	515.69
24.6679	541.48
24.6823	605.29
24.6968	587.93
24.7112	496.71
24.7256	548.12
24.7401	572.64
24.7545	535.01
24.7690	545.41
24.7834	502.52
24.7978	518.67
24.8123	566.59
24.8267	560.16
24.8412	544.85
24.8556	500.66
24.8700	572.12
24.8845	558.84
24.8989	586.80
24.9134	585.66
24.9278	589.94
24.9422	534.81
24.9567	524.65
24.9711	574.68
24.9856	535.88
25.0000	569.57
25.0144	532.40
25.0289	564.15
25.0433	551.96
25.0578	531.55
25.0722	566.78
25.0866	611.62
25.1011	514.39
25.1155	524.43
25.1300	563.43
25.1444	517.68
25.1588	538.38
25.1733	546.83
25.1877	530.89
25.2022	507.84
25.2166	527.21
25.2310	518.14
25.2455	550.95
25.2599	545.10
25.2744	517.66
25.2888	515.98
25.3032	546.30
25.3177	593.58
25.3321	568.48
25.3466	593.83
25.3610	547.07
25.3754	496.13
25.3899	513.05
25.4043	521.51
25.4188	560.64
25.4332	560.66
25.4476	502.73
25.4621	577.97
25.4765	564.67
25.4910	559.45
25.5054	544.98
25.5198	537.34
25.5343	587.57
25.5487	566.43
25.5632	536.89
25.5776	550.79
25.5920	525.08
25.6065	547.15
25.6209	537.00
25.6354	516.48
25.6498	513.08
25.6642	529.09
25.6787	569.34
25.6931	532.95
25.7076	564.85
25.7220	507.61
25.7364	468.36
25.7509	518.12
25.7653	490.78
25.7798	510.84
25.7942	530.51
25.8086	565.75
25.8231	551.40
25.8375	531.01
25.8520	573.88
25.8664	559.64
25.8808	567.44
25.8953	554.90
25.9097	549.87
25.9242	590.05
25.9386	565.19
25.9530	542.60
25.9675	527.91
25.9819	538.64
25.9964	550.43
26.0108	546.21
26.0252	507.07
26.0397	543.80
26.0541	565.50
26.0686	537.17
26.0830	518.21
26.0974	498.35
26.1119	561.97
26.1263	576.50
26.1408	528.65
26.1552	530.61
26.1696	518.22
26.1841	474.47
26.1985	494.66
26.2130	528.00
26.2274	516.63
26.2418	531.71
26.2563	521.62
26.2707	506.55
26.2852	503.12
26.2996	506.99
26.3140	541.11
26.3285	519.72
26.3429	527.61
26.3574	530.63
26.3718	531.55
26.3862	488.39
26.4007	515.41
26.4151	539.88
26.4296	537.79
26.4440	494.94
26.4584	508.85
26.4729	542.47
26.4873	541.25
26.5018	517.77
26.5162	529.57
26.5306	556.31
26.5451	543.67
26.5595	513.01
26.5740	553.22
26.5884	554.41
26.6028	552.07
26.6173	568.58
26.6317	569.54
26.6462	518.23
26.6606	521.27
26.6750	553.11
26.6895	557.91
26.7039	502.01
26.7184	528.78
26.7328	545.79
26.7472	542.02
26.7617	524.26
26.7761	519.15
26.7906	530.84
26.8050	534.21
26.8194	526.33
26.8339	511.27
26.8483	519.37
26.8628	506.64
26.8772	524.62
26.8917	529.97
26.9061	539.25
26.9205	538.25
26.9350	529.30
26.9494	497.40
26.9639	506.20
26.9783	512.07
26.9927	526.07
27.0072	540.53
27.0216	525.89
27.0361	516.71
27.0505	546.63
27.0649	524.65
27.0794	514.12
27.0938	526.02
27.1083	526.63
27.1227	531.08
27.1371	501.33
27.1516	513.03
27.1660	523.15
27.1805	514.39
27.1949	529.56
27.2093	543.58
27.2238	553.71
27.2382	573.23
27.2527	558.68
27.2671	533.58
27.2815	535.61
27.2960	549.83
27.3104	537.24
27.3249	520.28
27.3393	470.17
27.3537	501.54
27.3682	499.36
27.3826	510.23
27.3971	531.19
27.4115	559.04
27.4259	563.64
27.4404	554.52
27.4548	525.11
27.4693	531.51
27.4837	520.35
27.4981	497.76
27.5126	526.56
27.5270	524.05
27.5415	523.95
27.5559	514.95
27.5703	528.83
27.5848	534.41
27.5992	504.95
27.6137	496.73
27.6281	505.98
27.6425	523.93
27.6570	506.80
27.6714	518.25
27.6859	510.80
27.7003	523.89
27.7147	528.66
27.7292	509.37
27.7436	504.48
27.7581	498.61
27.7725	508.88
27.7869	540.92
27.8014	534.77
27.8158	521.04
27.8303	491.99
27.8447	522.13
27.8591	548.81
27.8736	557.06
27.8880	540.20
27.9025	548.91
27.9169	500.72
27.9313	489.41
27.9458	500.25
27.9602	500.04
27.9747	501.67
27.9891	505.44
28.0035	532.14
28.0180	531.82
28.0324	525.57
28.0469	489.75
28.0613	525.04
28.0757	507.89
28.0902	516.72
28.1046	531.87
28.1191	557.67
28.1335	527.35
28.1479	517.28
28.1624	533.78
28.1768	537.61
28.1913	501.53
28.2057	520.62
28.2201	515.45
28.2346	530.27
28.2490	527.61
28.2635	534.44
28.2779	537.87
28.2923	547.95
28.3068	539.05
28.3212	512.57
28.3357	508.33
28.3501	491.32
28.3645	530.60
28.3790	507.61
28.3934	513.92
28.4079	508.93
28.4223	553.73
28.4367	566.57
28.4512	497.02
28.4656	484.61
28.4801	529.74
28.4945	557.01
28.5089	528.20
28.5234	505.84
28.5378	505.99
28.5523	526.67
28.5667	471.92
28.5811	514.71
28.5956	509.63
28.6100	542.85
28.6245	497.85
28.6389	540.19
28.6533	495.60
28.6678	478.07
28.6822	493.52
28.6967	493.30
28.7111	505.33
28.7255	526.74
28.7400	525.49
28.7544	485.51
28.7689	488.53
28.7833	508.42
28.7977	509.65
28.8122	514.28
28.8266	498.52
28.8411	490.26
28.8555	490.78
28.8699	500.26
28.8844	507.23
28.8988	507.33
28.9133	504.52
28.9277	527.91
28.9421	497.51
28.9566	527.31
28.9710	523.35
28.9855	552.93
28.9999	488.58
29.0143	506.80
29.0288	561.40
29.0432	539.55
29.0577	554.98
29.0721	510.56
29.0865	461.26
29.1010	495.94
29.1154	524.35
29.1299	532.66
29.1443	464.30
29.1587	507.58
29.1732	497.02
29.1876	507.88
29.2021	492.09
29.2165	490.89
29.2309	521.02
29.2454	509.01
29.2598	514.26
29.2743	511.63
29.2887	515.16
29.3031	507.83
29.3176	500.19
29.3320	492.65
29.3465	515.56
29.3609	518.42
29.3753	488.18
29.3898	491.73
29.4042	487.05
29.4187	542.50
29.4331	547.64
29.4475	506.97
29.4620	541.47
29.4764	522.95
29.4909	511.00
29.5053	531.86
29.5197	496.44
29.5342	536.70
29.5486	536.26
29.5631	517.91
29.5775	539.38
29.5919	525.22
29.6064	524.99
29.6208	524.78
29.6353	524.00
29.6497	516.27
29.6641	493.24
29.6786	498.55
29.6930	512.00
29.7075	512.78
29.7219	496.00
29.7363	493.63
29.7508	510.94
29.7652	510.56
29.7797	521.35
29.7941	490.88
29.8085	510.32
29.8230	521.68
29.8374	531.24
29.8519	538.36
29.8663	539.43
29.8807	505.66
29.8952	518.31
29.9096	498.61
29.9241	481.33
29.9385	468.94
29.9529	512.80
29.9674	491.85
29.9818	511.69
29.9963	510.51
30.0107	526.86
30.0251	524.72
30.0396	519.75
30.0540	472.45
30.0685	485.44
30.0829	528.06
30.0973	496.27
30.1118	521.71
30.1262	538.73
30.1407	480.14
30.1551	481.37
30.1695	497.27
30.1840	496.07
30.1984	513.71
30.2129	517.19
30.2273	544.79
30.2417	519.00
30.2562	484.79
30.2706	482.52
30.2851	488.98
30.2995	513.96
30.3139	515.02
30.3284	492.33
30.3428	516.55
30.3573	521.99
30.3717	531.89
30.3861	484.87
30.4006	511.24
30.4150	533.76
30.4295	539.10
30.4439	498.09
30.4583	488.85
30.4728	547.66
30.4872	519.00
30.5017	545.25
30.5161	505.02
30.5305	507.13
30.5450	511.54
30.5594	520.47
30.5739	524.84
30.5883	531.10
30.6028	536.51
30.6172	543.16
30.6316	522.32
30.6461	559.13
30.6605	524.69
30.6750	564.98
30.6894	552.17
30.7038	581.82
30.7183	629.79
30.7327	649.82
30.7472	659.94
30.7616	692.11
30.7760	722.86
30.7905	707.33
30.8049	700.18
30.8194	729.21
30.8338	706.19
30.8482	690.24
30.8627	717.42
30.8771	674.56
30.8916	638.60
30.9060	621.40
30.9204	573.13
30.9349	586.20
30.9493	568.84
30.9638	546.83
30.9782	530.08
30.9926	559.77
31.0071	542.88
31.0215	541.55
31.0360	530.49
31.0504	520.00
31.0648	513.94
31.0793	513.40
31.0937	544.09
31.1082	579.17
31.1226	571.37
31.1370	527.02
31.1515	509.23
31.1659	512.97
31.1804	527.36
31.1948	523.47
31.2092	547.22
31.2237	540.78
31.2381	520.68
31.2526	517.15
31.2670	491.28
31.2814	543.53
31.2959	538.48
31.3103	530.64
31.3248	501.90
31.3392	483.91
31.3536	541.46
31.3681	536.08
31.3825	512.67
31.3970	479.69
31.4114	493.38
31.4258	526.23
31.4403	501.92
31.4547	474.83
31.4692	484.27
31.4836	489.22
31.4980	513.39
31.5125	505.39
31.5269	492.07
31.5414	510.48
31.5558	513.34
31.5702	538.86
31.5847	488.55
31.5991	509.84
31.6136	519.53
31.6280	502.18
31.6424	527.77
31.6569	507.14
31.6713	485.98
31.6858	488.95
31.7002	507.13
31.7146	482.80
31.7291	480.74
31.7435	501.73
31.7580	473.38
31.7724	510.70
31.7868	491.43
31.8013	499.20
31.8157	515.88
31.8302	502.03
31.8446	518.48
31.8590	538.23
31.8735	509.65
31.8879	510.78
31.9024	532.94
31.9168	506.50
31.9312	514.36
31.9457	525.47
31.9601	477.85
31.9746	508.19
31.9890	535.13
32.0034	502.17
32.0179	501.98
32.0323	460.39
32.0468	474.36
32.0612	509.26
32.0756	497.40
32.0901	499.07
32.1045	502.52
32.1190	538.88
32.1334	533.81
32.1478	511.70
32.1623	487.28
32.1767	522.09
32.1912	488.82
32.2056	507.14
32.2200	513.43
32.2345	470.40
32.2489	515.06
32.2634	502.24
32.2778	524.53
32.2922	498.57
32.3067	536.50
32.3211	500.53
32.3356	501.43
32.3500	517.58
32.3644	530.62
32.3789	510.03
32.3933	461.18
32.4078	510.63
32.4222	564.97
32.4366	539.12
32.4511	487.54
32.4655	481.82
32.4800	510.36
32.4944	476.32
32.5088	514.51
32.5233	481.86
32.5377	505.05
32.5522	523.89
32.5666	502.14
32.5810	519.64
32.5955	487.44
32.6099	508.75
32.6244	483.69
32.6388	477.44
32.6532	504.71
32.6677	493.69
32.6821	503.07
32.6966	520.34
32.7110	504.32
32.7254	520.38
32.7399	465.70
32.7543	459.96
32.7688	486.25
32.7832	514.28
32.7976	504.70
32.8121	543.39
32.8265	523.53
32.8410	509.21
32.8554	509.48
32.8698	459.47
32.8843	474.78
32.8987	524.00
32.9132	492.29
32.9276	505.81
32.9420	523.28
32.9565	502.20
32.9709	480.95
32.9854	486.52
32.9998	496.71
33.0142	524.15
33.0287	476.65
33.0431	473.21
33.0576	501.23
33.0720	476.46
33.0864	513.08
33.1009	506.24
33.1153	486.54
33.1298	512.46
33.1442	486.44
33.1586	506.31
33.1731	484.24
33.1875	522.32
33.2020	497.55
33.2164	514.66
33.2308	503.16
33.2453	471.66
33.2597	508.16
33.2742	502.67
33.2886	511.00
33.3030	498.22
33.3175	530.96
33.3319	500.74
33.3464	483.93
33.3608	488.14
33.3752	479.04
33.3897	487.78
33.4041	495.02
33.4186	502.25
33.4330	540.52
33.4474	527.55
33.4619	528.18
33.4763	536.21
33.4908	492.88
33.5052	480.64
33.5196	507.23
33.5341	542.83
33.5485	544.63
33.5630	537.52
33.5774	535.96
33.5918	539.17
33.6063	520.68
33.6207	488.25
33.6352	511.46
33.6496	512.95
33.6640	518.97
33.6785	501.29
33.6929	493.28
33.7074	512.78
33.7218	539.73
33.7362	531.32
33.7507	545.84
33.7651	513.71
33.7796	495.51
33.7940	498.09
33.8084	476.37
33.8229	514.91
33.8373	491.69
33.8518	486.12
33.8662	507.70
33.8806	522.39
33.8951	484.31
33.9095	532.68
33.9240	506.89
33.9384	493.27
33.9528	485.33
33.9673	488.01
33.9817	506.49
33.9962	509.35
34.0106	495.78
34.0250	516.47
34.0395	521.13
34.0539	538.55
34.0684	512.54
34.0828	521.42
34.0972	536.30
34.1117	498.19
34.1261	499.52
34.1406	492.63
34.1550	494.21
34.1694	501.26
34.1839	501.54
34.1983	496.01
34.2128	516.24
34.2272	501.65
34.2417	534.87
34.2561	530.04
34.2705	544.04
34.2850	476.88
34.2994	510.86
34.3139	553.28
34.3283	526.76
34.3427	497.56
34.3572	511.90
34.3716	511.68
34.3861	504.34
34.4005	514.52
34.4149	505.25
34.4294	528.62
34.4438	465.81
34.4583	470.65
34.4727	525.02
34.4871	501.75
34.5016	498.37
34.5160	506.53
34.5305	516.53
34.5449	494.61
34.5593	524.42
34.5738	540.55
34.5882	510.66
34.6027	504.54
34.6171	509.33
34.6315	518.08
34.6460	510.53
34.6604	474.83
34.6749	509.65
34.6893	498.71
34.7037	514.87
34.7182	506.03
34.7326	478.56
34.7471	521.88
34.7615	505.25
34.7759	538.74
34.7904	506.93
34.8048	483.62
34.8193	506.52
34.8337	487.20
34.8481	509.43
34.8626	524.75
34.8770	520.73
34.8915	484.96
34.9059	484.76
34.9203	481.23
34.9348	493.56
34.9492	488.56
34.9637	486.74
34.9781	496.88
34.9925	496.55
35.0070	471.19
35.0214	522.74
35.0359	543.28
35.0503	524.83
35.0647	533.61
35.0792	488.70
35.0936	486.68
35.1081	496.02
35.1225	523.85
35.1369	500.81
35.1514	509.62
35.1658	500.70
35.1803	505.36
35.1947	488.42
35.2091	511.00
35.2236	528.68
35.2380	504.87
35.2525	530.86
35.2669	520.07
35.2813	506.96
35.2958	510.99
35.3102	511.61
35.3247	522.10
35.3391	506.33
35.3535	498.69
35.3680	504.88
35.3824	505.53
35.3969	516.17
35.4113	539.29
35.4257	558.51
35.4402	550.39
35.4546	513.07
35.4691	537.48
35.4835	529.19
35.4979	519.97
35.5124	545.07
35.5268	539.06
35.5413	528.10
35.5557	529.18
35.5701	512.74
35.5846	510.38
35.5990	549.65
35.6135	541.54
35.6279	493.89
35.6423	513.26
35.6568	538.63
35.6712	567.17
35.6857	565.19
35.7001	610.55
35.7145	668.23
35.7290	672.58
35.7434	586.74
35.7579	568.53
35.7723	556.26
35.7867	615.91
35.8012	670.63
35.8156	669.95
35.8301	636.73
35.8445	659.60
35.8589	621.71
35.8734	712.00
35.8878	842.77
35.9023	1028.93
35.9167	1132.39
35.9311	1409.15
35.9456	2091.71
35.9600	2297.74
35.9745	1875.10
35.9889	1957.54
36.0033	2283.61
36.0178	2449.55
36.0322	2106.77
36.0467	1862.49
36.0611	1667.87
36.0755	1615.98
36.0900	1567.04
36.1044	1506.22
36.1189	1543.23
36.1333	1352.27
36.1477	1187.43
36.1622	1196.43
36.1766	1188.16
36.1911	1061.09
36.2055	1004.39
36.2199	1025.25
36.2344	1035.10
36.2488	1038.04
36.2633	1043.90
36.2777	1029.97
36.2921	1005.57
36.3066	1025.66
36.3210	983.57
36.3355	954.70
36.3499	928.27
36.3643	853.41
36.3788	824.12
36.3932	797.96
36.4077	713.38
36.4221	719.75
36.4365	693.27
36.4510	661.66
36.4654	651.42
36.4799	637.44
36.4943	562.52
36.5087	621.75
36.5232	612.98
36.5376	583.94
36.5521	562.41
36.5665	541.06
36.5809	562.44
36.5954	571.70
36.6098	559.80
36.6243	520.96
36.6387	545.61
36.6531	536.68
36.6676	527.01
36.6820	511.62
36.6965	513.38
36.7109	553.06
36.7253	554.67
36.7398	580.01
36.7542	506.84
36.7687	541.54
36.7831	590.50
36.7975	612.92
36.8120	575.25
36.8264	590.22
36.8409	625.40
36.8553	563.34
36.8697	585.38
36.8842	623.66
36.8986	624.63
36.9131	603.59
36.9275	613.04
36.9419	574.10
36.9564	567.00
36.9708	576.53
36.9853	579.98
36.9997	568.46
37.0141	522.30
37.0286	565.35
37.0430	556.78
37.0575	497.05
37.0719	559.95
37.0863	540.59
37.1008	549.49
37.1152	513.07
37.1297	544.07
37.1441	497.61
37.1585	517.50
37.1730	533.96
37.1874	516.63
37.2019	486.75
37.2163	494.79
37.2307	523.66
37.2452	469.72
37.2596	491.12
37.2741	517.17
37.2885	524.78
37.3029	493.81
37.3174	520.76
37.3318	488.58
37.3463	474.91
37.3607	523.55
37.3751	464.85
37.3896	515.09
37.4040	462.04
37.4185	506.58
37.4329	546.18
37.4473	501.22
37.4618	534.85
37.4762	533.50
37.4907	500.88
37.5051	513.80
37.5195	501.19
37.5340	500.77
37.5484	480.38
37.5629	540.65
37.5773	511.83
37.5917	516.41
37.6062	501.38
37.6206	515.63
37.6351	515.55
37.6495	496.92
37.6639	475.28
37.6784	491.40
37.6928	523.87
37.7073	513.77
37.7217	513.29
37.7361	494.48
37.7506	501.31
37.7650	507.87
37.7795	518.82
37.7939	537.94
37.8083	517.96
37.8228	479.22
37.8372	511.24
37.8517	487.62
37.8661	536.31
37.8805	499.45
37.8950	530.23
37.9094	519.02
37.9239	481.68
37.9383	489.80
37.9528	505.34
37.9672	495.79
37.9816	487.24
37.9961	466.99
38.0105	461.58
38.0250	510.48
38.0394	519.03
38.0538	490.47
38.0683	520.81
38.0827	517.46
38.0972	539.67
38.1116	531.30
38.1260	505.30
38.1405	513.81
38.1549	516.39
38.1694	501.94
38.1838	513.61
38.1982	491.57
38.2127	515.45
38.2271	516.35
38.2416	520.44
38.2560	492.62
38.2704	506.72
38.2849	516.64
38.2993	505.96
38.3138	490.75
38.3282	488.74
38.3426	533.12
38.3571	540.73
38.3715	505.70
38.3860	514.78
38.4004	527.37
38.4148	507.55
38.4293	547.86
38.4437	577.93
38.4582	642.72
38.4726	674.59
38.4870	708.34
38.5015	756.08
38.5159	786.96
38.5304	809.40
38.5448	810.45
38.5592	816.10
38.5737	777.42
38.5881	718.27
38.6026	707.69
38.6170	715.25
38.6314	692.62
38.6459	656.83
38.6603	620.33
38.6748	608.79
38.6892	578.57
38.7036	545.49
38.7181	509.04
38.7325	534.51
38.7470	521.59
38.7614	510.87
38.7758	530.39
38.7903	527.91
38.8047	526.17
38.8192	507.03
38.8336	505.97
38.8480	472.18
38.8625	489.85
38.8769	507.60
38.8914	489.22
38.9058	501.77
38.9202	469.88
38.9347	478.60
38.9491	481.61
38.9636	489.19
38.9780	477.51
38.9924	503.97
39.0069	485.06
39.0213	464.26
39.0358	498.47
39.0502	518.83
39.0646	532.17
39.0791	501.50
39.0935	477.40
39.1080	507.86
39.1224	511.99
39.1368	476.40
39.1513	504.86
39.1657	474.01
39.1802	481.27
39.1946	491.51
39.2090	501.88
39.2235	520.40
39.2379	526.35
39.2524	566.31
39.2668	498.26
39.2812	551.79
39.2957	503.73
39.3101	535.03
39.3246	494.30
39.3390	521.94
39.3534	519.24
39.3679	499.67
39.3823	483.72
39.3968	499.70
39.4112	502.47
39.4256	507.47
39.4401	482.15
39.4545	485.10
39.4690	488.77
39.4834	473.51
39.4978	499.29
39.5123	538.27
39.5267	498.61
39.5412	523.44
39.5556	492.11
39.5700	483.03
39.5845	511.71
39.5989	512.11
39.6134	494.49
39.6278	536.46
39.6422	508.98
39.6567	472.26
39.6711	507.86
39.6856	499.31
39.7000	519.88
39.7144	506.96
39.7289	468.51
39.7433	478.11
39.7578	518.97
39.7722	472.57
39.7866	474.43
39.8011	497.23
39.8155	525.29
39.8300	509.23
39.8444	482.36
39.8588	488.45
39.8733	515.36
39.8877	480.17
39.9022	536.96
39.9166	499.46
39.9310	466.16
39.9455	503.57
39.9599	506.38
39.9744	495.14
39.9888	460.99
40.0032	497.27
40.0177	491.04
40.0321	512.61
40.0466	521.99
40.0610	539.49
40.0754	478.19
40.0899	545.62
40.1043	506.38
40.1188	541.21
40.1332	519.32
40.1476	478.52
40.1621	515.30
40.1765	504.80
40.1910	498.79
40.2054	487.29
40.2198	482.68
40.2343	515.25
40.2487	522.37
40.2632	522.84
40.2776	538.18
40.2920	474.97
40.3065	497.75
40.3209	505.56
40.3354	510.33
40.3498	494.85
40.3642	515.62
40.3787	516.34
40.3931	473.72
40.4076	464.22
40.4220	534.17
40.4364	512.62
40.4509	496.27
40.4653	529.51
40.4798	521.34
40.4942	511.94
40.5086	500.04
40.5231	528.19
40.5375	503.39
40.5520	497.92
40.5664	485.92
40.5808	494.43
40.5953	479.74
40.6097	513.83
40.6242	490.41
40.6386	525.32
40.6530	528.38
40.6675	550.32
40.6819	470.98
40.6964	498.49
40.7108	472.36
40.7252	483.28
40.7397	503.66
40.7541	527.43
40.7686	504.17
40.7830	503.66
40.7974	508.04
40.8119	506.27
40.8263	504.44
40.8408	497.53
40.8552	494.77
40.8696	556.47
40.8841	502.93
40.8985	476.80
40.9130	523.97
40.9274	492.29
40.9418	490.98
40.9563	500.53
40.9707	455.90
40.9852	525.26
40.9996	493.59
41.0140	501.27
41.0285	500.15
41.0429	467.62
41.0574	527.58
41.0718	512.56
41.0862	513.92
41.1007	494.78
41.1151	541.30
41.1296	493.29
41.1440	495.07
41.1584	498.67
41.1729	483.72
41.1873	507.98
41.2018	502.68
41.2162	508.60
41.2306	511.95
41.2451	484.39
41.2595	476.61
41.2740	488.47
41.2884	491.02
41.3028	487.05
41.3173	495.64
41.3317	521.31
41.3462	502.84
41.3606	501.39
41.3750	525.33
41.3895	509.28
41.4039	516.35
41.4184	505.80
41.4328	542.28
41.4472	488.84
41.4617	513.47
41.4761	497.60
41.4906	481.96
41.5050	503.97
41.5194	498.90
41.5339	511.29
41.5483	494.74
41.5628	501.05
41.5772	482.87
41.5916	520.43
41.6061	508.87
41.6205	518.85
41.6350	484.57
41.6494	511.17
41.6639	484.31
41.6783	484.65
41.6927	519.97
41.7072	528.75
41.7216	507.48
41.7361	481.12
41.7505	524.63
41.7649	497.04
41.7794	512.72
41.7938	490.63
41.8083	526.69
41.8227	543.37
41.8371	474.47
41.8516	487.52
41.8660	512.72
41.8805	534.61
41.8949	528.45
41.9093	571.66
41.9238	570.83
41.9382	564.74
41.9527	570.83
41.9671	554.34
41.9815	518.99
41.9960	525.99
42.0104	535.99
42.0249	570.93
42.0393	549.84
42.0537	588.41
42.0682	578.23
42.0826	588.97
42.0971	596.39
42.1115	567.38
42.1259	574.49
42.1404	576.78
42.1548	598.17
42.1693	665.62
42.1837	682.54
42.1981	715.43
42.2126	800.11
42.2270	912.50
42.2415	1027.48
42.2559	1164.79
42.2703	1293.90
42.2848	1472.60
42.2992	1594.47
42.3137	1616.52
42.3281	1639.66
42.3425	1548.47
42.3570	1450.47
42.3714	1401.69
42.3859	1317.11
42.4003	1292.77
42.4147	1315.31
42.4292	1266.40
42.4436	1148.48
42.4581	1055.14
42.4725	961.30
42.4869	823.94
42.5014	735.63
42.5158	692.66
42.5303	644.21
42.5447	611.13
42.5591	614.66
42.5736	569.45
42.5880	585.66
42.6025	569.97
42.6169	551.26
42.6313	546.18
42.6458	563.86
42.6602	551.59
42.6747	522.47
42.6891	525.75
42.7035	564.40
42.7180	543.38
42.7324	493.06
42.7469	499.41
42.7613	507.51
42.7757	526.40
42.7902	536.92
42.8046	523.86
42.8191	514.69
42.8335	497.62
42.8479	505.72
42.8624	525.46
42.8768	531.89
42.8913	517.53
42.9057	517.44
42.9201	516.10
42.9346	512.72
42.9490	519.64
42.9635	493.99
42.9779	508.95
42.9923	506.67
43.0068	496.74
43.0212	532.46
43.0357	494.79
43.0501	482.88
43.0645	487.58
43.0790	508.30
43.0934	520.22
43.1079	486.56
43.1223	493.35
43.1367	487.93
43.1512	493.66
43.1656	523.98
43.1801	526.78
43.1945	512.07
43.2089	532.14
43.2234	548.71
43.2378	574.04
43.2523	513.01
43.2667	472.37
43.2811	513.31
43.2956	515.45
43.3100	512.56
43.3245	545.84
43.3389	530.75
43.3533	487.17
43.3678	538.81
43.3822	539.63
43.3967	519.25
43.4111	517.29
43.4255	536.87
43.4400	518.65
43.4544	506.93
43.4689	514.42
43.4833	513.88
43.4977	484.50
43.5122	509.17
43.5266	523.36
43.5411	504.21
43.5555	487.00
43.5699	510.56
43.5844	490.83
43.5988	503.81
43.6133	522.48
43.6277	516.75
43.6421	473.61
43.6566	530.62
43.6710	524.71
43.6855	527.39
43.6999	509.08
43.7143	526.12
43.7288	554.19
43.7432	544.70
43.7577	554.61
43.7721	531.47
43.7865	516.74
43.8010	534.15
43.8154	522.84
43.8299	490.07
43.8443	510.28
43.8587	544.98
43.8732	483.95
43.8876	501.69
43.9021	523.34
43.9165	501.54
43.9309	535.37
43.9454	535.77
43.9598	534.74
43.9743	566.20
43.9887	573.04
44.0031	598.29
44.0176	568.69
44.0320	636.96
44.0465	621.18
44.0609	650.07
44.0753	626.21
44.0898	613.85
44.1042	609.79
44.1187	643.92
44.1331	655.86
44.1475	592.34
44.1620	578.92
44.1764	563.28
44.1909	593.60
44.2053	608.07
44.2197	567.69
44.2342	540.25
44.2486	562.33
44.2631	581.95
44.2775	547.98
44.2919	517.72
44.3064	520.04
44.3208	571.42
44.3353	555.85
44.3497	520.41
44.3641	548.68
44.3786	520.21
44.3930	535.61
44.4075	540.33
44.4219	600.43
44.4363	614.75
44.4508	585.73
44.4652	592.95
44.4797	591.63
44.4941	588.33
44.5085	583.75
44.5230	572.82
44.5374	604.63
44.5519	557.50
44.5663	553.86
44.5807	601.59
44.5952	569.58
44.6096	557.62
44.6241	559.17
44.6385	552.46
44.6529	570.24
44.6674	564.58
44.6818	589.49
44.6963	604.80
44.7107	677.12
44.7251	705.22
44.7396	743.84
44.7540	799.81
44.7685	830.35
44.7829	940.23
44.7973	874.68
44.8118	837.78
44.8262	843.92
44.8407	785.33
44.8551	727.45
44.8695	700.47
44.8840	682.86
44.8984	756.29
44.9129	757.59
44.9273	724.61
44.9417	638.27
44.9562	619.23
44.9706	576.77
44.9851	541.35
44.9995	533.41
45.0139	513.85
45.0284	497.69
45.0428	562.14
45.0573	510.88
45.0717	517.81
45.0861	520.34
45.1006	520.49
45.1150	507.31
45.1295	494.91
45.1439	509.20
45.1583	533.93
45.1728	529.38
45.1872	533.66
45.2017	510.30
45.2161	535.74
45.2305	516.70
45.2450	514.50
45.2594	497.06
45.2739	516.78
45.2883	539.21
45.3028	513.80
45.3172	531.41
45.3316	514.22
45.3461	509.73
45.3605	512.92
45.3750	500.14
45.3894	520.18
45.4038	500.40
45.4183	512.49
45.4327	525.51
45.4472	518.64
45.4616	506.85
45.4760	487.49
45.4905	493.05
45.5049	477.26
45.5194	512.57
45.5338	482.43
45.5482	530.25
45.5627	521.27
45.5771	503.62
45.5916	498.32
45.6060	505.53
45.6204	504.89
45.6349	503.11
45.6493	518.12
45.6638	517.64
45.6782	529.65
45.6926	542.04
45.7071	503.93
45.7215	525.03
45.7360	512.74
45.7504	548.27
45.7648	514.96
45.7793	497.76
45.7937	495.90
45.8082	516.03
45.8226	503.57
45.8370	488.60
45.8515	511.74
45.8659	505.84
45.8804	490.78
45.8948	503.17
45.9092	531.01
45.9237	466.19
45.9381	477.20
45.9526	506.21
45.9670	518.45
45.9814	491.87
45.9959	513.92
46.0103	477.44
46.0248	480.31
46.0392	484.25
46.0536	528.80
46.0681	499.32
46.0825	496.77
46.0970	536.59
46.1114	463.32
46.1258	514.23
46.1403	476.40
46.1547	504.74
46.1692	533.70
46.1836	524.89
46.1980	500.34
46.2125	515.81
46.2269	514.65
46.2414	526.18
46.2558	519.62
46.2702	531.30
46.2847	508.44
46.2991	505.55
46.3136	518.80
46.3280	544.22
46.3424	534.56
46.3569	503.36
46.3713	506.89
46.3858	513.98
46.4002	505.98
46.4146	481.33
46.4291	533.71
46.4435	481.95
46.4580	493.04
46.4724	548.73
46.4868	504.90
46.5013	503.45
46.5157	528.45
46.5302	495.94
46.5446	493.80
46.5590	499.02
46.5735	510.57
46.5879	501.50
46.6024	512.78
46.6168	512.76
46.6312	521.54
46.6457	504.90
46.6601	500.87
46.6746	511.66
46.6890	488.10
46.7034	507.25
46.7179	519.04
46.7323	460.96
46.7468	469.68
46.7612	483.84
46.7756	505.14
46.7901	526.48
46.8045	512.91
46.8190	509.13
46.8334	503.86
46.8478	506.86
46.8623	503.98
46.8767	493.78
46.8912	507.00
46.9056	516.57
46.9200	488.42
46.9345	507.04
46.9489	522.93
46.9634	534.12
46.9778	542.57
46.9922	536.76
47.0067	502.79
47.0211	512.72
47.0356	525.71
47.0500	535.06
47.0644	536.35
47.0789	502.87
47.0933	532.66
47.1078	544.19
47.1222	539.05
47.1366	517.31
47.1511	509.69
47.1655	542.36
47.1800	531.54
47.1944	501.04
47.2088	525.81
47.2233	511.87
47.2377	513.67
47.2522	502.61
47.2666	521.29
47.2810	486.35
47.2955	511.12
47.3099	492.36
47.3244	511.53
47.3388	517.35
47.3532	497.58
47.3677	487.31
47.3821	483.49
47.3966	501.84
47.4110	517.70
47.4254	536.50
47.4399	529.24
47.4543	467.80
47.4688	515.41
47.4832	519.89
47.4976	467.98
47.5121	470.47
47.5265	484.25
47.5410	529.62
47.5554	514.94
47.5698	506.35
47.5843	519.77
47.5987	529.20
47.6132	493.73
47.6276	501.59
47.6420	523.57
47.6565	505.45
47.6709	500.92
47.6854	461.27
47.6998	498.62
47.7142	522.47
47.7287	486.54
47.7431	492.89
47.7576	480.59
47.7720	506.61
47.7864	502.03
47.8009	502.41
47.8153	516.50
47.8298	499.02
47.8442	502.28
47.8586	499.16
47.8731	498.66
47.8875	484.54
47.9020	516.45
47.9164	504.52
47.9308	517.56
47.9453	504.20
47.9597	482.07
47.9742	531.36
47.9886	526.21
48.0030	508.53
48.0175	451.07
48.0319	496.51
48.0464	477.20
48.0608	515.04
48.0752	500.37
48.0897	503.93
48.1041	513.15
48.1186	494.41
48.1330	527.80
48.1474	491.14
48.1619	509.12
48.1763	501.15
48.1908	543.71
48.2052	536.42
48.2196	520.22
48.2341	524.76
48.2485	510.60
48.2630	522.58
48.2774	504.74
48.2918	505.51
48.3063	504.37
48.3207	514.53
48.3352	528.98
48.3496	532.03
48.3640	521.96
48.3785	520.42
48.3929	486.39
48.4074	540.64
48.4218	490.44
48.4362	547.90
48.4507	508.89
48.4651	494.22
48.4796	525.16
48.4940	518.32
48.5084	523.51
48.5229	518.70
48.5373	523.55
48.5518	515.38
48.5662	530.61
48.5806	489.46
48.5951	513.92
48.6095	517.14
48.6240	509.02
48.6384	510.62
48.6528	498.91
48.6673	504.92
48.6817	498.95
48.6962	544.75
48.7106	548.08
48.7250	514.11
48.7395	524.92
48.7539	511.51
48.7684	495.09
48.7828	517.94
48.7972	518.02
48.8117	519.54
48.8261	547.22
48.8406	510.62
48.8550	540.91
48.8694	544.42
48.8839	545.14
48.8983	551.55
48.9128	562.06
48.9272	568.93
48.9416	577.22
48.9561	579.13
48.9705	522.88
48.9850	548.98
48.9994	583.99
49.0139	536.55
49.0283	590.68
49.0427	595.55
49.0572	593.32
49.0716	683.18
49.0861	706.47
49.1005	701.28
49.1149	715.45
49.1294	734.42
49.1438	775.91
49.1583	803.74
49.1727	828.73
49.1871	896.18
49.2016	943.48
49.2160	1003.12
49.2305	1053.84
49.2449	1140.45
49.2593	1216.60
49.2738	1261.10
49.2882	1388.34
49.3027	1493.30
49.3171	1591.87
49.3315	1686.87
49.3460	1708.93
49.3604	1797.88
49.3749	1693.27
49.3893	1738.11
49.4037	1777.99
49.4182	1694.83
49.4326	1772.66
49.4471	1659.34
49.4615	1579.37
49.4759	1551.12
49.4904	1486.78
49.5048	1374.12
49.5193	1341.49
49.5337	1298.89
49.5481	1199.56
49.5626	1124.61
49.5770	1049.29
49.5915	964.97
49.6059	937.12
49.6203	850.99
49.6348	831.72
49.6492	787.23
49.6637	712.46
49.6781	688.32
49.6925	688.98
49.7070	673.83
49.7214	676.28
49.7359	654.11
49.7503	593.81
49.7647	625.95
49.7792	588.35
49.7936	576.31
49.8081	579.64
49.8225	599.43
49.8369	583.60
49.8514	576.21
49.8658	563.05
49.8803	525.15
49.8947	587.65
49.9091	513.35
49.9236	529.62
49.9380	541.93
49.9525	523.75
49.9669	545.19
49.9813	513.23
49.9958	514.35
50.0102	560.52
50.0247	544.96
50.0391	549.05
50.0535	528.64
50.0680	539.11
50.0824	542.82
50.0969	556.29
50.1113	549.53
50.1257	564.64
50.1402	498.26
50.1546	496.04
50.1691	529.76
50.1835	541.47
50.1979	527.56
50.2124	518.77
50.2268	492.44
50.2413	514.96
50.2557	526.58
50.2701	504.57
50.2846	531.33
50.2990	489.81
50.3135	482.33
50.3279	501.52
50.3423	530.96
50.3568	531.74
50.3712	523.58
50.3857	543.20
50.4001	507.48
50.4145	496.57
50.4290	527.32
50.4434	507.25
50.4579	510.75
50.4723	524.60
50.4867	507.39
50.5012	504.63
50.5156	500.44
50.5301	498.07
50.5445	519.80
50.5589	499.32
50.5734	498.35
50.5878	522.70
50.6023	532.70
50.6167	492.32
50.6311	482.69
50.6456	524.50
50.6600	486.36
50.6745	495.36
50.6889	489.42
50.7033	542.43
50.7178	552.91
50.7322	528.10
50.7467	520.48
50.7611	503.87
50.7755	521.61
50.7900	488.37
50.8044	506.61
50.8189	549.55
50.8333	546.70
50.8477	503.63
50.8622	497.81
50.8766	517.01
50.8911	522.44
50.9055	530.88
50.9199	527.35
50.9344	538.46
50.9488	536.92
50.9633	487.45
50.9777	499.53
50.9921	514.21
51.0066	528.49
51.0210	528.47
51.0355	500.72
51.0499	487.98
51.0643	493.20
51.0788	530.42
51.0932	548.51
51.1077	505.44
51.1221	538.43
51.1365	503.19
51.1510	487.35
51.1654	525.51
51.1799	517.71
51.1943	517.78
51.2087	535.61
51.2232	508.84
51.2376	501.16
51.2521	500.24
51.2665	483.28
51.2809	511.26
51.2954	508.95
51.3098	492.00
51.3243	483.07
51.3387	515.70
51.3531	515.01
51.3676	517.62
51.3820	506.74
51.3965	528.46
51.4109	510.07
51.4253	554.54
51.4398	526.36
51.4542	489.96
51.4687	512.75
51.4831	523.97
51.4975	487.41
51.5120	514.38
51.5264	507.35
51.5409	513.40
51.5553	513.04
51.5697	537.98
51.5842	499.41
51.5986	524.71
51.6131	512.32
51.6275	501.06
51.6419	506.53
51.6564	509.62
51.6708	481.87
51.6853	497.33
51.6997	537.44
51.7141	542.24
51.7286	506.39
51.7430	506.68
51.7575	528.94
51.7719	519.99
51.7863	526.02
51.8008	522.53
51.8152	490.87
51.8297	545.85
51.8441	511.83
51.8585	511.81
51.8730	510.32
51.8874	502.32
51.9019	521.42
51.9163	515.72
51.9307	511.43
51.9452	527.38
51.9596	512.54
51.9741	504.40
51.9885	533.75
52.0029	525.69
52.0174	498.57
52.0318	508.54
52.0463	506.46
52.0607	529.12
52.0751	487.36
52.0896	540.09
52.1040	504.03
52.1185	492.71
52.1329	503.02
52.1473	526.08
52.1618	552.94
52.1762	510.77
52.1907	503.29
52.2051	503.98
52.2195	520.42
52.2340	531.81
52.2484	528.05
52.2629	529.69
52.2773	513.76
52.2917	531.85
52.3062	571.40
52.3206	504.39
52.3351	525.85
52.3495	500.20
52.3639	512.83
52.3784	510.37
52.3928	525.83
52.4073	495.22
52.4217	492.31
52.4361	531.46
52.4506	523.82
52.4650	542.47
52.4795	544.08
52.4939	519.81
52.5083	480.77
52.5228	481.43
52.5372	482.25
52.5517	512.53
52.5661	554.65
52.5805	516.79
52.5950	513.43
52.6094	521.19
52.6239	513.92
52.6383	523.42
52.6527	503.20
52.6672	490.54
52.6816	516.04
52.6961	527.93
52.7105	529.56
52.7250	533.75
52.7394	470.54
52.7538	504.24
52.7683	495.87
52.7827	519.48
52.7972	490.97
52.8116	563.78
52.8260	520.28
52.8405	513.40
52.8549	517.71
52.8694	548.01
52.8838	527.32
52.8982	555.97
52.9127	556.54
52.9271	562.79
52.9416	485.42
52.9560	514.39
52.9704	521.51
52.9849	527.30
52.9993	499.88
53.0138	530.31
53.0282	514.03
53.0426	498.23
53.0571	522.51
53.0715	551.48
53.0860	520.31
53.1004	490.46
53.1148	521.09
53.1293	522.03
53.1437	496.97
53.1582	502.56
53.1726	512.28
53.1870	524.32
53.2015	508.62
53.2159	545.02
53.2304	517.69
53.2448	523.43
53.2592	482.20
53.2737	529.86
53.2881	525.28
53.3026	536.87
53.3170	540.81
53.3314	524.10
53.3459	502.82
53.3603	519.18
53.3748	534.65
53.3892	512.45
53.4036	509.40
53.4181	508.21
53.4325	535.33
53.4470	496.58
53.4614	499.60
53.4758	508.30
53.4903	530.03
53.5047	506.69
53.5192	505.25
53.5336	546.35
53.5480	528.64
53.5625	507.66
53.5769	515.26
53.5914	498.98
53.6058	517.47
53.6202	504.41
53.6347	504.68
53.6491	490.09
53.6636	511.52
53.6780	504.39
53.6924	514.66
53.7069	525.87
53.7213	538.73
53.7358	513.79
53.7502	528.14
53.7646	502.73
53.7791	521.33
53.7935	508.38
53.8080	505.53
53.8224	530.81
53.8368	527.19
53.8513	505.54
53.8657	509.84
53.8802	509.55
53.8946	526.70
53.9090	556.12
53.9235	525.70
53.9379	523.18
53.9524	529.24
53.9668	488.57
53.9812	499.56
53.9957	492.61
54.0101	525.05
54.0246	554.18
54.0390	537.17
54.0534	501.57
54.0679	528.27
54.0823	532.69
54.0968	517.98
54.1112	535.46
54.1256	516.99
54.1401	496.80
54.1545	512.95
54.1690	523.80
54.1834	519.00
54.1978	506.41
54.2123	513.35
54.2267	503.62
54.2412	544.71
54.2556	527.66
54.2700	505.40
54.2845	542.15
54.2989	535.79
54.3134	518.82
54.3278	496.88
54.3422	502.45
54.3567	520.96
54.3711	512.53
54.3856	486.31
54.4000	520.41
54.4144	520.95
54.4289	540.22
54.4433	521.52
54.4578	544.42
54.4722	562.28
54.4866	541.42
54.5011	531.10
54.5155	557.04
54.5300	512.47
54.5444	537.72
54.5588	570.97
54.5733	541.74
54.5877	556.94
54.6022	563.80
54.6166	563.06
54.6310	558.87
54.6455	554.15
54.6599	563.72
54.6744	580.41
54.6888	564.10
54.7032	605.62
54.7177	630.77
54.7321	603.01
54.7466	593.86
54.7610	570.21
54.7754	587.25
54.7899	571.05
54.8043	567.37
54.8188	589.62
54.8332	584.39
54.8476	574.01
54.8621	583.48
54.8765	577.94
54.8910	552.83
54.9054	552.37
54.9198	553.76
54.9343	550.06
54.9487	532.47
54.9632	526.55
54.9776	550.72
54.9920	525.43
55.0065	509.51
55.0209	535.04
55.0354	543.40
55.0498	541.98
55.0642	552.14
55.0787	534.63
55.0931	564.05
55.1076	565.37
55.1220	549.97
55.1364	543.34
55.1509	525.63
55.1653	517.82
55.1798	508.00
55.1942	539.91
55.2086	530.11
55.2231	514.71
55.2375	532.83
55.2520	541.27
55.2664	524.35
55.2808	519.51
55.2953	517.78
55.3097	515.77
55.3242	534.32
55.3386	535.38
55.3530	503.43
55.3675	529.40
55.3819	510.52
55.3964	502.87
55.4108	533.16
55.4252	519.82
55.4397	505.53
55.4541	513.48
55.4686	533.39
55.4830	522.56
55.4974	497.46
55.5119	503.44
55.5263	552.29
55.5408	524.35
55.5552	549.79
55.5696	522.74
55.5841	512.41
55.5985	518.23
55.6130	527.33
55.6274	507.05
55.6418	508.01
55.6563	531.84
55.6707	534.67
55.6852	524.06
55.6996	518.26
55.7140	531.14
55.7285	522.98
55.7429	518.92
55.7574	536.07
55.7718	504.48
55.7862	530.68
55.8007	525.87
55.8151	509.48
55.8296	522.30
55.8440	524.21
55.8584	540.38
55.8729	500.16
55.8873	501.84
55.9018	544.24
55.9162	556.76
55.9306	533.63
55.9451	575.13
55.9595	544.20
55.9740	558.38
55.9884	557.40
56.0028	539.66
56.0173	512.66
56.0317	524.23
56.0462	526.99
56.0606	533.03
56.0750	524.02
56.0895	554.38
56.1039	557.41
56.1184	536.97
56.1328	562.58
56.1472	476.57
56.1617	525.06
56.1761	563.43
56.1906	495.41
56.2050	542.81
56.2194	521.65
56.2339	513.57
56.2483	548.99
56.2628	533.16
56.2772	518.48
56.2916	514.10
56.3061	567.55
56.3205	527.97
56.3350	526.58
56.3494	542.38
56.3639	497.86
56.3783	500.05
56.3927	517.56
56.4072	523.84
56.4216	533.85
56.4361	533.34
56.4505	540.26
56.4649	540.63
56.4794	560.82
56.4938	525.90
56.5083	541.61
56.5227	523.19
56.5371	521.10
56.5516	515.50
56.5660	531.35
56.5805	493.62
56.5949	545.12
56.6093	527.96
56.6238	524.00
56.6382	555.89
56.6527	530.49
56.6671	530.76
56.6815	501.77
56.6960	493.96
56.7104	537.79
56.7249	492.09
56.7393	500.65
56.7537	484.14
56.7682	492.83
56.7826	543.97
56.7971	516.36
56.8115	520.01
56.8259	549.46
56.8404	525.51
56.8548	503.28
56.8693	529.34
56.8837	540.52
56.8981	526.08
56.9126	535.10
56.9270	516.09
56.9415	519.57
56.9559	516.57
56.9703	504.14
56.9848	516.49
56.9992	553.12
57.0137	487.87
57.0281	583.71
57.0425	530.61
57.0570	522.51
57.0714	549.79
57.0859	543.24
57.1003	539.22
57.1147	520.37
57.1292	519.67
57.1436	494.34
57.1581	510.72
57.1725	525.79
57.1869	515.96
57.2014	509.85
57.2158	535.27
57.2303	548.15
57.2447	517.40
57.2591	564.41
57.2736	518.81
57.2880	512.25
57.3025	553.06
57.3169	541.21
57.3313	534.61
57.3458	535.80
57.3602	540.08
57.3747	501.94
57.3891	516.67
57.4035	536.90
57.4180	540.08
57.4324	514.72
57.4469	527.46
57.4613	502.42
57.4757	508.59
57.4902	516.59
57.5046	503.24
57.5191	521.62
57.5335	551.87
57.5479	522.96
57.5624	507.10
57.5768	500.03
57.5913	533.70
57.6057	514.07
57.6201	531.38
57.6346	512.55
57.6490	505.27
57.6635	484.79
57.6779	500.15
57.6923	525.12
57.7068	570.12
57.7212	546.63
57.7357	516.85
57.7501	512.50
57.7645	532.46
57.7790	523.41
57.7934	516.44
57.8079	562.05
57.8223	555.68
57.8367	538.70
57.8512	521.84
57.8656	537.79
57.8801	534.73
57.8945	554.42
57.9089	525.87
57.9234	508.14
57.9378	560.57
57.9523	547.43
57.9667	503.34
57.9811	533.88
57.9956	547.37
58.0100	526.36
58.0245	571.62
58.0389	517.64
58.0533	513.85
58.0678	562.25
58.0822	576.67
58.0967	530.75
58.1111	561.83
58.1255	563.36
58.1400	575.32
58.1544	535.48
58.1689	596.77
58.1833	579.18
58.1977	575.89
58.2122	579.86
58.2266	598.92
58.2411	593.48
58.2555	614.30
58.2699	624.26
58.2844	680.04
58.2988	657.28
58.3133	691.60
58.3277	719.60
58.3421	698.31
58.3566	646.07
58.3710	681.67
58.3855	633.28
58.3999	614.87
58.4143	643.34
58.4288	650.02
58.4432	637.60
58.4577	629.98
58.4721	648.91
58.4865	655.92
58.5010	607.41
58.5154	611.35
58.5299	581.11
58.5443	574.78
58.5587	597.72
58.5732	595.79
58.5876	565.94
58.6021	526.60
58.6165	535.64
58.6309	568.71
58.6454	600.51
58.6598	563.58
58.6743	539.57
58.6887	563.45
58.7031	555.28
58.7176	562.67
58.7320	526.13
58.7465	529.14
58.7609	551.41
58.7753	573.65
58.7898	578.52
58.8042	544.59
58.8187	562.46
58.8331	527.40
58.8475	529.41
58.8620	553.31
58.8764	562.72
58.8909	569.15
58.9053	564.39
58.9197	528.70
58.9342	541.96
58.9486	562.31
58.9631	536.67
58.9775	497.32
58.9919	534.29
59.0064	549.94
59.0208	565.93
59.0353	565.88
59.0497	546.24
59.0641	563.46
59.0786	556.13
59.0930	557.82
59.1075	522.49
59.1219	550.00
59.1363	540.13
59.1508	506.25
59.1652	526.47
59.1797	547.49
59.1941	534.89
59.2085	519.20
59.2230	537.07
59.2374	531.42
59.2519	579.29
59.2663	562.23
59.2807	574.00
59.2952	550.19
59.3096	558.61
59.3241	548.14
59.3385	543.23
59.3529	534.49
59.3674	555.16
59.3818	547.62
59.3963	558.37
59.4107	555.77
59.4251	577.14
59.4396	597.28
59.4540	576.94
59.4685	591.32
59.4829	560.30
59.4973	568.54
59.5118	573.15
59.5262	567.43
59.5407	524.80
59.5551	532.23
59.5695	543.96
59.5840	519.78
59.5984	510.49
59.6129	546.51
59.6273	555.71
59.6417	562.81
59.6562	556.95
59.6706	540.36
59.6851	575.96
59.6995	572.82
59.7139	553.18
59.7284	540.58
59.7428	540.07
59.7573	524.75
59.7717	524.79
59.7861	554.45
59.8006	506.60
59.8150	550.60
59.8295	512.87
59.8439	503.13
59.8583	536.38
59.8728	575.04
59.8872	556.43
59.9017	574.35
59.9161	534.19
59.9305	554.39
59.9450	593.54
59.9594	541.32
59.9739	548.70
59.9883	548.91
60.0027	540.22
60.0172	531.31
60.0316	540.65
60.0461	552.60
60.0605	540.06
60.0750	563.00
60.0894	566.10
60.1038	542.08
60.1183	540.33
60.1327	552.80
60.1472	509.95
60.1616	535.30
60.1760	538.99
60.1905	510.03
60.2049	538.45
60.2194	550.69
60.2338	529.18
60.2482	541.27
60.2627	548.82
60.2771	546.31
60.2916	520.06
60.3060	509.43
60.3204	556.54
60.3349	535.73
60.3493	524.01
60.3638	548.97
60.3782	551.82
60.3926	547.83
60.4071	548.85
60.4215	525.86
60.4360	546.24
60.4504	581.88
60.4648	541.10
60.4793	517.55
60.4937	540.26
60.5082	515.58
60.5226	526.46
60.5370	550.57
60.5515	542.81
60.5659	533.36
60.5804	545.03
60.5948	552.28
60.6092	534.89
60.6237	544.97
60.6381	542.02
60.6526	575.91
60.6670	554.85
60.6814	529.27
60.6959	537.80
60.7103	543.97
60.7248	532.18
60.7392	546.62
60.7536	552.39
60.7681	548.80
60.7825	564.85
60.7970	540.46
60.8114	536.60
60.8258	540.00
60.8403	532.08
60.8547	547.77
60.8692	572.11
60.8836	545.64
60.8980	545.86
60.9125	553.69
60.9269	572.76
60.9414	560.25
60.9558	559.05
60.9702	516.98
60.9847	561.44
60.9991	603.40
61.0136	550.98
61.0280	522.53
61.0424	525.84
61.0569	555.96
61.0713	574.43
61.0858	552.84
61.1002	564.48
61.1146	571.32
61.1291	550.17
61.1435	497.31
61.1580	541.59
61.1724	535.25
61.1868	515.08
61.2013	503.73
61.2157	529.59
61.2302	546.59
61.2446	548.22
61.2590	545.38
61.2735	519.77
61.2879	535.23
61.3024	543.83
61.3168	562.77
61.3312	610.07
61.3457	622.06
61.3601	566.13
61.3746	550.28
61.3890	534.00
61.4034	532.81
61.4179	550.34
61.4323	546.64
61.4468	535.01
61.4612	566.86
61.4756	579.26
61.4901	572.40
61.5045	553.79
61.5190	518.39
61.5334	537.87
61.5478	513.08
61.5623	480.14
61.5767	524.29
61.5912	544.48
61.6056	554.08
61.6200	546.46
61.6345	577.00
61.6489	525.35
61.6634	543.76
61.6778	526.89
61.6922	535.14
61.7067	552.51
61.7211	561.78
61.7356	551.28
61.7500	563.52
61.7644	533.44
61.7789	563.04
61.7933	592.17
61.8078	555.93
61.8222	543.60
61.8366	547.90
61.8511	531.54
61.8655	543.54
61.8800	525.15
61.8944	541.68
61.9088	548.89
61.9233	532.40
61.9377	504.43
61.9522	517.76
61.9666	565.14
61.9810	546.99
61.9955	539.45
62.0099	532.37
62.0244	555.89
62.0388	557.26
62.0532	550.74
62.0677	560.09
62.0821	569.28
62.0966	552.41
62.1110	533.49
62.1254	553.50
62.1399	578.40
62.1543	536.74
62.1688	562.29
62.1832	535.46
62.1976	521.90
62.2121	549.20
62.2265	561.83
62.2410	578.59
62.2554	561.99
62.2698	558.14
62.2843	556.83
62.2987	561.47
62.3132	553.08
62.3276	557.61
62.3420	580.51
62.3565	571.82
62.3709	563.68
62.3854	536.66
62.3998	538.29
62.4142	531.52
62.4287	563.39
62.4431	533.96
62.4576	529.57
62.4720	573.69
62.4864	588.41
62.5009	561.25
62.5153	566.13
62.5298	554.62
62.5442	530.28
62.5586	557.96
62.5731	541.90
62.5875	541.85
62.6020	574.62
62.6164	539.20
62.6308	577.29
62.6453	548.26
62.6597	557.87
62.6742	547.05
62.6886	560.91
62.7030	573.05
62.7175	577.70
62.7319	558.66
62.7464	584.62
62.7608	549.13
62.7752	539.75
62.7897	567.28
62.8041	583.81
62.8186	581.86
62.8330	570.63
62.8474	559.48
62.8619	561.36
62.8763	598.84
62.8908	563.48
62.9052	576.71
62.9196	564.02
62.9341	572.97
62.9485	592.43
62.9630	578.28
62.9774	592.00
62.9918	570.52
63.0063	571.53
63.0207	567.88
63.0352	568.60
63.0496	584.03
63.0640	605.96
63.0785	573.54
63.0929	580.21
63.1074	578.14
63.1218	606.03
63.1362	574.37
63.1507	552.33
63.1651	580.41
63.1796	581.71
63.1940	555.37
63.2084	551.70
63.2229	569.43
63.2373	578.68
63.2518	568.69
63.2662	551.57
63.2806	600.06
63.2951	576.42
63.3095	575.78
63.3240	572.90
63.3384	582.16
63.3528	571.29
63.3673	560.13
63.3817	618.35
63.3962	568.37
63.4106	542.45
63.4250	572.73
63.4395	563.55
63.4539	618.63
63.4684	626.30
63.4828	576.56
63.4972	589.67
63.5117	589.67
63.5261	620.61
63.5406	632.01
63.5550	604.99
63.5694	589.99
63.5839	611.19
63.5983	578.09
63.6128	574.74
63.6272	579.03
63.6416	613.88
63.6561	593.39
63.6705	590.10
63.6850	606.78
63.6994	610.00
63.7138	585.51
63.7283	594.55
63.7427	586.49
63.7572	612.20
63.7716	597.48
63.7861	623.07
63.8005	635.25
63.8149	628.33
63.8294	629.56
63.8438	618.90
63.8583	633.80
63.8727	616.78
63.8871	616.13
63.9016	685.93
63.9160	645.27
63.9305	638.26
63.9449	694.30
63.9593	664.90
63.9738	703.40
63.9882	749.63
64.0027	738.89
64.0171	806.40
64.0315	812.66
64.0460	808.87
64.0604	838.14
64.0749	829.04
64.0893	867.21
64.1037	850.32
64.1182	861.39
64.1326	817.65
64.1471	758.66
64.1615	775.19
64.1759	761.64
64.1904	754.81
64.2048	710.91
64.2193	736.44
64.2337	735.28
64.2481	745.22
64.2626	752.44
64.2770	709.99
64.2915	691.93
64.3059	719.95
64.3203	739.32
64.3348	686.73
64.3492	702.38
64.3637	676.99
64.3781	664.12
64.3925	608.11
64.4070	666.97
64.4214	712.66
64.4359	683.26
64.4503	614.08
64.4647	656.64
64.4792	680.13
64.4936	681.55
64.5081	662.30
64.5225	669.86
64.5369	616.43
64.5514	669.78
64.5658	645.29
64.5803	641.18
64.5947	662.11
64.6091	696.61
64.6236	660.14
64.6380	696.54
64.6525	678.75
64.6669	655.48
64.6813	670.91
64.6958	671.64
64.7102	710.20
64.7247	696.71
64.7391	696.33
64.7535	749.55
64.7680	702.10
64.7824	712.83
64.7969	743.65
64.8113	776.21
64.8257	815.51
64.8402	790.01
64.8546	809.78
64.8691	867.59
64.8835	855.48
64.8979	825.96
64.9124	863.92
64.9268	892.30
64.9413	900.19
64.9557	926.96
64.9701	1021.03
64.9846	1131.20
64.9990	1127.13
65.0135	1297.14
65.0279	1503.47
65.0423	1754.83
65.0568	2211.96
65.0712	2785.84
65.0857	3570.12
65.1001	4748.19
65.1145	6472.39
65.1290	8301.64
65.1434	9922.40
65.1579	11467.71
65.1723	12010.15
65.1867	11209.16
65.2012	9888.55
65.2156	8161.49
65.2301	6546.30
65.2445	5256.17
65.2589	4485.71
65.2734	4191.81
65.2878	4405.50
65.3023	5023.64
65.3167	6051.64
65.3311	6680.39
65.3456	7108.85
65.3600	7105.76
65.3745	6226.28
65.3889	5278.79
65.4033	4368.56
65.4178	3371.97
65.4322	2660.90
65.4467	2066.42
65.4611	1739.07
65.4755	1488.08
65.4900	1295.92
65.5044	1173.56
65.5189	1048.59
65.5333	1009.71
65.5477	923.58
65.5622	896.63
65.5766	859.25
65.5911	820.88
65.6055	831.29
65.6199	804.24
65.6344	774.98
65.6488	751.08
65.6633	786.05
65.6777	743.62
65.6921	685.83
65.7066	727.94
65.7210	710.98
65.7355	675.54
65.7499	698.37
65.7643	650.63
65.7788	685.68
65.7932	664.02
65.8077	674.62
65.8221	684.47
65.8365	671.09
65.8510	683.70
65.8654	670.16
65.8799	650.67
65.8943	643.80
65.9087	693.39
65.9232	627.37
65.9376	641.98
65.9521	638.08
65.9665	627.06
65.9809	617.10
65.9954	606.26
66.0098	603.29
66.0243	609.46
66.0387	613.84
66.0531	622.39
66.0676	655.00
66.0820	650.05
66.0965	606.96
66.1109	640.05
66.1253	609.84
66.1398	611.82
66.1542	600.27
66.1687	620.53
66.1831	625.12
66.1975	615.63
66.2120	651.79
66.2264	651.47
66.2409	632.95
66.2553	607.58
66.2697	581.23
66.2842	607.24
66.2986	618.62
66.3131	630.65
66.3275	619.79
66.3419	658.86
66.3564	651.93
66.3708	601.63
66.3853	576.71
66.3997	587.98
66.4141	611.99
66.4286	636.24
66.4430	605.63
66.4575	587.28
66.4719	588.18
66.4863	567.49
66.5008	616.06
66.5152	633.99
66.5297	638.74
66.5441	593.80
66.5585	577.94
66.5730	590.20
66.5874	593.71
66.6019	564.95
66.6163	566.25
66.6307	598.57
66.6452	591.96
66.6596	566.50
66.6741	577.70
66.6885	589.62
66.7029	638.05
66.7174	620.81
66.7318	599.70
66.7463	598.55
66.7607	577.97
66.7751	574.39
66.7896	585.97
66.8040	595.99
66.8185	577.12
66.8329	573.56
66.8473	592.59
66.8618	654.65
66.8762	617.60
66.8907	580.37
66.9051	585.89
66.9195	586.56
66.9340	613.67
66.9484	622.51
66.9629	579.49
66.9773	607.64
66.9917	575.33
67.0062	596.00
67.0206	591.76
67.0351	604.87
67.0495	575.56
67.0639	549.49
67.0784	577.21
67.0928	613.98
67.1073	599.31
67.1217	549.52
67.1361	560.97
67.1506	552.98
67.1650	597.22
67.1795	609.46
67.1939	563.39
67.2083	568.24
67.2228	618.83
67.2372	603.68
67.2517	566.68
67.2661	550.16
67.2805	579.07
67.2950	569.94
67.3094	594.58
67.3239	564.77
67.3383	576.90
67.3527	567.14
67.3672	579.34
67.3816	596.00
67.3961	594.06
67.4105	591.74
67.4250	571.38
67.4394	583.27
67.4538	557.07
67.4683	571.08
67.4827	585.74
67.4972	583.05
67.5116	557.20
67.5260	573.70
67.5405	599.38
67.5549	589.48
67.5694	606.90
67.5838	602.23
67.5982	613.80
67.6127	600.00
67.6271	586.49
67.6416	580.92
67.6560	561.31
67.6704	576.11
67.6849	549.01
67.6993	587.06
67.7138	586.81
67.7282	555.05
67.7426	593.86
67.7571	573.65
67.7715	562.74
67.7860	602.51
67.8004	600.48
67.8148	612.01
67.8293	581.45
67.8437	579.00
67.8582	576.06
67.8726	547.42
67.8870	544.13
67.9015	558.54
67.9159	565.22
67.9304	530.33
67.9448	588.97
67.9592	572.09
67.9737	561.42
67.9881	609.86
68.0026	559.36
68.0170	566.35
68.0314	610.12
68.0459	549.58
68.0603	606.36
68.0748	610.79
68.0892	569.10
68.1036	578.53
68.1181	609.56
68.1325	585.16
68.1470	565.35
68.1614	546.23
68.1758	582.32
68.1903	590.52
68.2047	533.91
68.2192	574.75
68.2336	656.83
68.2480	573.63
68.2625	576.88
68.2769	555.64
68.2914	573.78
68.3058	555.20
68.3202	566.76
68.3347	588.82
68.3491	583.99
68.3636	588.33
68.3780	617.19
68.3924	569.97
68.4069	592.33
68.4213	569.92
68.4358	581.19
68.4502	596.12
68.4646	600.33
68.4791	590.64
68.4935	608.65
68.5080	570.80
68.5224	558.01
68.5368	608.01
68.5513	550.70
68.5657	586.47
68.5802	550.42
68.5946	550.28
68.6090	569.63
68.6235	567.88
68.6379	577.02
68.6524	587.37
68.6668	586.41
68.6812	586.53
68.6957	592.94
68.7101	602.36
68.7246	620.37
68.7390	587.87
68.7534	616.54
68.7679	540.82
68.7823	601.34
68.7968	571.55
68.8112	565.12
68.8256	568.13
68.8401	524.64
68.8545	569.50
68.8690	589.93
68.8834	557.64
68.8978	577.04
68.9123	593.56
68.9267	552.54
68.9412	627.15
68.9556	563.82
68.9700	545.48
68.9845	578.32
68.9989	574.57
69.0134	549.24
69.0278	555.32
69.0422	561.65
69.0567	560.06
69.0711	572.95
69.0856	542.45
69.1000	625.76
69.1144	554.55
69.1289	581.44
69.1433	561.44
69.1578	608.49
69.1722	581.05
69.1866	602.48
69.2011	588.52
69.2155	587.54
69.2300	591.56
69.2444	594.41
69.2588	582.78
69.2733	626.70
69.2877	571.00
69.3022	530.50
69.3166	561.16
69.3310	589.04
69.3455	591.81
69.3599	573.72
69.3744	579.72
69.3888	528.67
69.4032	566.57
69.4177	546.28
69.4321	561.19
69.4466	567.63
69.4610	560.80
69.4754	614.53
69.4899	565.37
69.5043	548.88
69.5188	575.65
69.5332	610.60
69.5476	591.28
69.5621	576.94
69.5765	555.43
69.5910	546.25
69.6054	552.04
69.6198	563.59
69.6343	557.02
69.6487	640.71
69.6632	612.47
69.6776	608.65
69.6920	551.72
69.7065	581.31
69.7209	589.06
69.7354	550.37
69.7498	608.30
69.7642	615.35
69.7787	620.30
69.7931	566.43
69.8076	560.68
69.8220	579.44
69.8364	604.61
69.8509	563.82
69.8653	570.97
69.8798	604.49
69.8942	597.78
69.9086	545.85
69.9231	630.46
69.9375	606.36
69.9520	557.58
69.9664	583.82
69.9808	557.64
69.9953	547.52
70.0097	568.59
70.0242	575.00
70.0386	586.66
70.0530	584.05
70.0675	520.87
70.0819	544.44
70.0964	578.16
70.1108	602.53
70.1252	610.02
70.1397	566.87
70.1541	555.91
70.1686	686.35
70.1830	635.37
70.1974	510.12
70.2119	600.67
70.2263	569.80
70.2408	608.76
70.2552	572.08
70.2696	578.02
70.2841	534.43
70.2985	579.18
70.3130	536.25
70.3274	558.87
70.3418	570.21
70.3563	636.96
70.3707	619.93
70.3852	615.78
70.3996	543.40
70.4140	509.19
70.4285	640.84
70.4429	590.13
70.4574	555.49
70.4718	558.61
70.4862	541.05
70.5007	558.02
70.5151	566.13
70.5296	574.63
70.5440	587.57
70.5584	586.07
70.5729	574.06
70.5873	535.58
70.6018	526.33
70.6162	537.47
70.6306	600.32
70.6451	581.85
70.6595	600.90
70.6740	569.97
70.6884	582.46
70.7028	586.29
70.7173	592.05
70.7317	573.29
70.7462	617.48
70.7606	645.16
70.7750	640.85
70.7895	570.75
70.8039	544.87
70.8184	579.27
70.8328	598.90
70.8472	601.27
70.8617	572.75
70.8761	558.79
70.8906	564.16
70.9050	607.73
70.9194	592.98
70.9339	573.55
70.9483	558.39
70.9628	599.84
70.9772	575.75
70.9916	541.45
71.0061	533.92
71.0205	544.26
71.0350	523.21
71.0494	525.69
71.0638	581.29
71.0783	577.61
71.0927	588.60
71.1072	579.90
71.1216	558.92
71.1361	574.89
71.1505	586.58
71.1649	565.20
71.1794	563.48
71.1938	597.56
71.2083	562.63
71.2227	498.44
71.2371	544.48
71.2516	548.22
71.2660	573.67
71.2805	559.52
71.2949	559.12
71.3093	561.48
71.3238	574.38
71.3382	570.02
71.3527	543.03
71.3671	594.86
71.3815	567.01
71.3960	538.13
71.4104	557.45
71.4249	635.50
71.4393	575.11
71.4537	518.23
71.4682	561.70
71.4826	568.43
71.4971	563.74
71.5115	578.84
71.5259	598.78
71.5404	611.12
71.5548	547.85
71.5693	562.90
71.5837	624.94
71.5981	560.51
71.6126	510.92
71.6270	539.35
71.6415	573.79
71.6559	622.62
71.6703	657.11
71.6848	575.20
71.6992	587.65
71.7137	566.40
71.7281	570.82
71.7425	616.74
71.7570	600.65
71.7714	613.26
71.7859	593.80
71.8003	595.67
71.8147	596.51
71.8292	553.09
71.8436	545.67
71.8581	557.49
71.8725	550.03
71.8869	466.08
71.9014	584.12
71.9158	652.33
71.9303	558.38
71.9447	546.51
71.9591	579.28
71.9736	599.78
71.9880	597.24
72.0025	519.17
72.0169	579.85
72.0313	726.41
72.0458	645.05
72.0602	578.66
72.0747	485.15
72.0891	520.58
72.1035	586.64
72.1180	514.89
72.1324	592.97
72.1469	641.43
72.1613	571.55
72.1757	515.56
72.1902	524.90
72.2046	625.51
72.2191	631.14
72.2335	552.55
72.2479	578.90
72.2624	601.89
72.2768	591.52
72.2913	584.01
72.3057	623.48
72.3201	598.38
72.3346	527.03
72.3490	518.58
72.3635	583.53
72.3779	594.40
72.3923	552.54
72.4068	533.04
72.4212	594.20
72.4357	612.48
72.4501	563.34
72.4645	572.17
72.4790	560.32
72.4934	542.76
72.5079	588.29
72.5223	556.98
72.5367	573.82
72.5512	591.66
72.5656	585.83
72.5801	491.87
72.5945	454.32
72.6089	496.38
72.6234	522.80
72.6378	522.95
72.6523	565.40
72.6667	515.25
72.6811	514.17
72.6956	554.95
72.7100	560.55
72.7245	542.56
72.7389	602.41
72.7533	605.48
72.7678	633.49
72.7822	637.67
72.7967	638.82
72.8111	594.89
72.8255	577.86
72.8400	485.82
72.8544	489.98
72.8689	615.01
72.8833	628.20

Result vector
22.1120	577.29
22.1264	584.87
22.1409	529.32
22.1553	582.10
22.1697	513.73
22.1842	547.08
22.1986	542.54
22.2131	483.07
22.2275	608.06
22.2419	613.06
22.2564	638.35
22.2708	664.47
22.2853	674.64
22.2997	515.31
22.3141	554.43
22.3286	580.04
22.3430	561.71
22.3575	597.70
22.3719	599.29
22.3863	648.32
22.4008	608.77
22.4152	534.86
22.4297	622.65
22.4441	662.51
22.4585	595.79
22.4730	633.35
22.4874	647.22
22.5019	587.76
22.5163	587.31
22.5307	589.07
22.5452	536.89
22.5596	629.23
22.5741	612.96
22.5885	612.57
22.6029	590.57
22.6174	700.13
22.6318	598.75
22.6463	574.69
22.6607	639.86
22.6751	644.10
22.6896	624.63
22.7040	576.82
22.7185	595.11
22.7329	573.20
22.7473	545.23
22.7618	560.29
22.7762	545.65
22.7907	582.66
22.8051	492.52
22.8195	611.17
22.8340	596.08
22.8484	506.31
22.8629	572.36
22.8773	631.27
22.8917	642.54
22.9062	529.08
22.9206	531.90
22.9351	592.35
22.9495	585.23
22.9639	572.10
22.9784	615.05
22.9928	634.74
23.0073	565.68
23.0217	633.43
23.0361	554.68
23.0506	600.23
23.0650	621.37
23.0795	487.71
23.0939	476.76
23.1083	522.14
23.1228	494.80
23.1372	557.79
23.1517	578.51
23.1661	589.52
23.1806	535.77
23.1950	555.62
23.2094	479.11
23.2239	526.91
23.2383	597.92
23.2528	641.28
23.2672	533.55
23.2816	542.12
23.2961	547.91
23.3105	550.56
23.3250	550.74
23.3394	563.92
23.3538	556.92
23.3683	567.73
23.3827	534.66
23.3972	558.81
23.4116	578.83
23.4260	559.23
23.4405	615.15
23.4549	560.66
23.4694	507.96
23.4838	600.81
23.4982	550.10
23.5127	539.71
23.5271	467.93
23.5416	530.19
23.5560	584.11
23.5704	624.61
23.5849	595.76
23.5993	590.76
23.6138	588.96
23.6282	583.11
23.6426	560.34
23.6571	575.97
23.6715	562.50
23.6860	538.76
23.7004	591.11
23.7148	535.74
23.7293	559.83
23.7437	525.65
23.7582	582.36
23.7726	519.42
23.7870	578.72
23.8015	525.79
23.8159	569.72
23.8304	597.37
23.8448	560.34
23.8592	570.67
23.8737	610.11
23.8881	530.19
23.9026	531.39
23.9170	593.25
23.9314	546.89
23.9459	575.88
23.9603	553.72
23.9748	546.10
23.9892	607.44
24.0036	522.98
24.0181	579.59
24.0325	589.93
24.0470	582.93
24.0614	570.82
24.0758	554.48
24.0903	596.75
24.1047	555.77
24.1192	577.80
24.1336	588.66
24.1480	542.18
24.1625	555.96
24.1769	614.50
24.1914	593.05
24.2058	570.54
24.2202	626.03
24.2347	630.01
24.2491	594.19
24.2636	607.71
24.2780	587.95
24.2924	602.14
24.3069	553.93
24.3213	580.12
24.3358	549.60
24.3502	580.71
24.3646	527.29
24.3791	557.32
24.3935	568.99
24.4080	537.32
24.4224	576.86
24.4368	526.56
24.4513	498.89
24.4657	519.31
24.4802	546.44
24.4946	528.57
24.5090	559.71
24.5235	575.30
24.5379	540.81
24.5524	592.25
24.5668	622.55
24.5812	561.72
24.5957	556.92
24.6101	613.54
24.6246	547.96
24.6390	570.40
24.6534	515.69
24.6679	541.48
24.6823	605.29
24.6968	587.93
24.7112	496.71
24.7256	548.12
24.7401	572.64
24.7545	535.01
24.7690	545.41
24.7834	502.52
24.7978	518.67
24.8123	566.59
24.8267	560.16
24.8412	544.85
24.8556	500.66
24.8700	572.12
24.8845	558.84
24.8989	586.80
24.9134	585.66
24.9278	589.94
24.9422	534.81
24.9567	524.65
24.9711	574.68
24.9856	535.88
25.0000	569.57
25.0144	532.40
25.0289	564.15
25.0433	551.96
25.0578	531.55
25.0722	566.78
25.0866	611.62
25.1011	514.39
25.1155	524.43
25.1300	563.43
25.1444	517.68
25.1588	538.38
25.1733	546.83
25.1877	530.89
25.2022	507.84
25.2166	527.21
25.2310	518.14
25.2455	550.95
25.2599	545.10
25.2744	517.66
25.2888	515.98
25.3032	546.30
25.3177	593.58
25.3321	568.48
25.3466	593.83
25.3610	547.07
25.3754	496.13
25.3899	513.05
25.4043	521.51
25.4188	560.64
25.4332	560.66
25.4476	502.73
25.4621	577.97
25.4765	564.67
25.4910	559.45
25.5054	544.98
25.5198	537.34
25.5343	587.57
25.5487	566.43
25.5632	536.89
25.5776	550.79
25.5920	525.08
25.6065	547.15
25.6209	537.00
25.6354	516.48
25.6498	513.08
25.6642	529.09
25.6787	569.34
25.6931	532.95
25.7076	564.85
25.7220	507.61
25.7364	468.36
25.7509	518.12
25.7653	490.78
25.7798	510.84
25.7942	530.51
25.8086	565.75
25.8231	551.40
25.8375	531.01
25.8520	573.88
25.8664	559.64
25.8808	567.44
25.8953	554.90
25.9097	549.87
25.9242	590.05
25.9386	565.19
25.9530	542.60
25.9675	527.91
25.9819	538.64
25.9964	550.43
26.0108	546.21
26.0252	507.07
26.0397	543.80
26.0541	565.50
26.0686	537.17
26.0830	518.21
26.0974	498.35
26.1119	561.97
26.1263	576.50
26.1408	528.65
26.1552	530.61
26.1696	518.22
26.1841	474.47
26.1985	494.66
26.2130	528.00
26.2274	516.63
26.2418	531.71
26.2563	521.62
26.2707	506.55
26.2852	503.12
26.2996	506.99
26.3140	541.11
26.3285	519.72
26.3429	527.61
26.3574	530.63
26.3718	531.55
26.3862	488.39
26.4007	515.41
26.4151	539.88
26.4296	537.79
26.4440	494.94
26.4584	508.85
26.4729	542.47
26.4873	541.25
26.5018	517.77
26.5162	529.57
26.5306	556.31
26.5451	543.67
26.5595	513.01
26.5740	553.22
26.5884	554.41
26.6028	552.07
26.6173	568.58
26.6317	569.54
26.6462	518.23
26.6606	521.27
26.6750	553.11
26.6895	557.91
26.7039	502.01
26.7184	528.78
26.7328	545.79
26.7472	542.02
26.7617	524.26
26.7761	519.15
26.7906	530.84
26.8050	534.21
26.8194	526.33
26.8339	511.27
26.8483	519.37
26.8628	506.64
26.8772	524.62
26.8917	529.97
26.9061	539.25
26.9205	538.25
26.9350	529.30
26.9494	497.40
26.9639	506.20
26.9783	512.07
26.9927	526.07
27.0072	540.53
27.0216	525.89
27.0361	516.71
27.0505	546.63
27.0649	524.65
27.0794	514.12
27.0938	526.02
27.1083	526.63
27.1227	531.08
27.1371	501.33
27.1516	513.03
27.1660	523.15
27.1805	514.39
27.1949	529.56
27.2093	543.58
27.2238	553.71
27.2382	573.23
27.2527	558.68
27.2671	533.58
27.2815	535.61
27.2960	549.83
27.3104	537.24
27.3249	520.28
27.3393	470.17
27.3537	501.54
27.3682	499.36
27.3826	510.23
27.3971	531.19
27.4115	559.04
27.4259	563.64
27.4404	554.52
27.4548	525.11
27.4693	531.51
27.4837	520.35
27.4981	497.76
27.5126	526.56
27.5270	524.05
27.5415	523.95
27.5559	514.95
27.5703	528.83
27.5848	534.41
27.5992	504.95
27.6137	496.73
27.6281	505.98
27.6425	523.93
27.6570	506.80
27.6714	518.25
27.6859	510.80
27.7003	523.89
27.7147	528.66
27.7292	509.37
27.7436	504.48
27.7581	498.61
27.7725	508.88
27.7869	540.92
27.8014	534.77
27.8158	521.04
27.8303	491.99
27.8447	522.13
27.8591	548.81
27.8736	557.06
27.8880	540.20
27.9025	548.91
27.9169	500.72
27.9313	489.41
27.9458	500.25
27.9602	500.04
27.9747	501.67
27.9891	505.44
28.0035	532.14
28.0180	531.82
28.0324	525.57
28.0469	489.75
28.0613	525.04
28.0757	507.89
28.0902	516.72
28.1046	531.87
28.1191	557.67
28.1335	527.35
28.1479	517.28
28.1624	533.78
28.1768	537.61
28.1913	501.53
28.2057	520.62
28.2201	515.45
28.2346	530.27
28.2490	527.61
28.2635	534.44
28.2779	537.87
28.2923	547.95
28.3068	539.05
28.3212	512.57
28.3357	508.33
28.3501	491.32
28.3645	530.60
28.3790	507.61
28.3934	513.92
28.4079	508.93
28.4223	553.73
28.4367	566.57
28.4512	497.02
28.4656	484.61
28.4801	529.74
28.4945	557.01
28.5089	528.20
28.5234	505.84
28.5378	505.99
28.5523	526.67
28.5667	471.92
28.5811	514.71
28.5956	509.63
28.6100	542.85
28.6245	497.85
28.6389	540.19
28.6533	495.60
28.6678	478.07
28.6822	493.52
28.6967	493.30
28.7111	505.33
28.7255	526.74
28.7400	525.49
28.7544	485.51
28.7689	488.53
28.7833	508.42
28.7977	509.65
28.8122	514.28
28.8266	498.52
28.8411	490.26
28.8555	490.78
28.8699	500.26
28.8844	507.23
28.8988	507.33
28.9133	504.52
28.9277	527.91
28.9421	497.51
28.9566	527.31
28.9710	523.35
28.9855	552.93
28.9999	488.58
29.0143	506.80
29.0288	561.40
29.0432	539.55
29.0577	554.98
29.0721	510.56
29.0865	461.26
29.1010	495.94
29.1154	524.35
29.1299	532.66
29.1443	464.30
29.1587	507.58
29.1732	497.02
29.1876	507.88
29.2021	492.09
29.2165	490.89
29.2309	521.02
29.2454	509.01
29.2598	514.26
29.2743	511.63
29.2887	515.16
29.3031	507.83
29.3176	500.19
29.3320	492.65
29.3465	515.56
29.3609	518.42
29.3753	488.18
29.3898	491.73
29.4042	487.05
29.4187	542.50
29.4331	547.64
29.4475	506.97
29.4620	541.47
29.4764	522.95
29.4909	511.00
29.5053	531.86
29.5197	496.44
29.5342	536.70
29.5486	536.26
29.5631	517.91
29.5775	539.38
29.5919	525.22
29.6064	524.99
29.6208	524.78
29.6353	524.00
29.6497	516.27
29.6641	493.24
29.6786	498.55
29.6930	512.00
29.7075	512.78
29.7219	496.00
29.7363	493.63
29.7508	510.94
29.7652	510.56
29.7797	521.35
29.7941	490.88
29.8085	510.32
29.8230	521.68
29.8374	531.24
29.8519	538.36
29.8663	539.43
29.8807	505.66
29.8952	518.31
29.9096	498.61
29.9241	481.33
29.9385	468.94
29.9529	512.80
29.9674	491.85
29.9818	511.69
29.9963	510.51
30.0107	526.86
30.0251	524.72
30.0396	519.75
30.0540	472.45
30.0685	485.44
30.0829	528.06
30.0973	496.27
30.1118	521.71
30.1262	538.73
30.1407	480.14
30.1551	481.37
30.1695	497.27
30.1840	496.07
30.1984	513.71
30.2129	517.19
30.2273	544.79
30.2417	519.00
30.2562	484.79
30.2706	482.52
30.2851	488.98
30.2995	513.96
30.3139	515.02
30.3284	492.33
30.3428	516.55
30.3573	521.99
30.3717	531.89
30.3861	484.87
30.4006	511.24
30.4150	533.76
30.4295	539.10
30.4439	498.09
30.4583	488.85
30.4728	547.66
30.4872	519.00
30.5017	545.25
30.5161	505.02
30.5305	507.13
30.5450	511.54
30.5594	520.47
30.5739	524.84
30.5883	531.10
30.6028	536.51
30.6172	543.16
30.6316	522.32
30.6461	559.13
30.6605	524.69
30.6750	564.98
30.6894	552.17
30.7038	581.82
30.7183	629.79
30.7327	649.82
30.7472	659.94
30.7616	692.11
30.7760	722.86
30.7905	707.33
30.8049	700.18
30.8194	729.21
30.8338	706.19
30.8482	690.24
30.8627	717.42
30.8771	674.56
30.8916	638.60
30.9060	621.40
30.9204	573.13
30.9349	586.20
30.9493	568.84
30.9638	546.83
30.9782	530.08
30.9926	559.77
31.0071	542.88
31.0215	541.55
31.0360	530.49
31.0504	520.00
31.0648	513.94
31.0793	513.40
31.0937	544.09
31.1082	579.17
31.1226	571.37
31.1370	527.02
31.1515	509.23
31.1659	512.97
31.1804	527.36
31.1948	523.47
31.2092	547.22
31.2237	540.78
31.2381	520.68
31.2526	517.15
31.2670	491.28
31.2814	543.53
31.2959	538.48
31.3103	530.64
31.3248	501.90
31.3392	483.91
31.3536	541.46
31.3681	536.08
31.3825	512.67
31.3970	479.69
31.4114	493.38
31.4258	526.23
31.4403	501.92
31.4547	474.83
31.4692	484.27
31.4836	489.22
31.4980	513.39
31.5125	505.39
31.5269	492.07
31.5414	510.48
31.5558	513.34
31.5702	538.86
31.5847	488.55
31.5991	509.84
31.6136	519.53
31.6280	502.18
31.6424	527.77
31.6569	507.14
31.6713	485.98
31.6858	488.95
31.7002	507.13
31.7146	482.80
31.7291	480.74
31.7435	501.73
31.7580	473.38
31.7724	510.70
31.7868	491.43
31.8013	499.20
31.8157	515.88
31.8302	502.03
31.8446	518.48
31.8590	538.23
31.8735	509.65
31.8879	510.78
31.9024	532.94
31.9168	506.50
31.9312	514.36
31.9457	525.47
31.9601	477.85
31.9746	508.19
31.9890	535.13
32.0034	502.17
32.0179	501.98
32.0323	460.39
32.0468	474.36
32.0612	509.26
32.0756	497.40
32.0901	499.07
32.1045	502.52
32.1190	538.88
32.1334	533.81
32.1478	511.70
32.1623	487.28
32.1767	522.09
32.1912	488.82
32.2056	507.14
32.2200	513.43
32.2345	470.40
32.2489	515.06
32.2634	502.24
32.2778	524.53
32.2922	498.57
32.3067	536.50
32.3211	500.53
32.3356	501.43
32.3500	517.58
32.3644	530.62
32.3789	510.03
32.3933	461.18
32.4078	510.63
32.4222	564.97
32.4366	539.12
32.4511	487.54
32.4655	481.82
32.4800	510.36
32.4944	476.32
32.5088	514.51
32.5233	481.86
32.5377	505.05
32.5522	523.89
32.5666	502.14
32.5810	519.64
32.5955	487.44
32.6099	508.75
32.6244	483.69
32.6388	477.44
32.6532	504.71
32.6677	493.69
32.6821	503.07
32.6966	520.34
32.7110	504.32
32.7254	520.38
32.7399	465.70
32.7543	459.96
32.7688	486.25
32.7832	514.28
32.7976	504.70
32.8121	543.39
32.8265	523.53
32.8410	509.21
32.8554	509.48
32.8698	459.47
32.8843	474.78
32.8987	524.00
32.9132	492.29
32.9276	505.81
32.9420	523.28
32.9565	502.20
32.9709	480.95
32.9854	486.52
32.9998	496.71
33.0142	524.15
33.0287	476.65
33.0431	473.21
33.0576	501.23
33.0720	476.46
33.0864	513.08
33.1009	506.24
33.1153	486.54
33.1298	512.46
33.1442	486.44
33.1586	506.31
33.1731	484.24
33.1875	522.32
33.2020	497.55
33.2164	514.66
33.2308	503.16
33.2453	471.66
33.2597	508.16
33.2742	502.67
33.2886	511.00
33.3030	498.22
33.3175	530.96
33.3319	500.74
33.3464	483.93
33.3608	488.14
33.3752	479.04
33.3897	487.78
33.4041	495.02
33.4186	502.25
33.4330	540.52
33.4474	527.55
33.4619	528.18
33.4763	536.21
33.4908	492.88
33.5052	480.64
33.5196	507.23
33.5341	542.83
33.5485	544.63
33.5630	537.52
33.5774	535.96
33.5918	539.17
33.6063	520.68
33.6207	488.25
33.6352	511.46
33.6496	512.95
33.6640	518.97
33.6785	501.29
33.6929	493.28
33.7074	512.78
33.7218	539.73
33.7362	531.32
33.7507	545.84
33.7651	513.71
33.7796	495.51
33.7940	498.09
33.8084	476.37
33.8229	514.91
33.8373	491.69
33.8518	486.12
33.8662	507.70
33.8806	522.39
33.8951	484.31
33.9095	532.68
33.9240	506.89
33.9384	493.27
33.9528	485.33
33.9673	488.01
33.9817	506.49
33.9962	509.35
34.0106	495.78
34.0250	516.47
34.0395	521.13
34.0539	538.55
34.0684	512.54
34.0828	521.42
34.0972	536.30
34.1117	498.19
34.1261	499.52
34.1406	492.63
34.1550	494.21
34.1694	501.26
34.1839	501.54
34.1983	496.01
34.2128	516.24
34.2272	501.65
34.2417	534.87
34.2561	530.04
34.2705	544.04
34.2850	476.88
34.2994	510.86
34.3139	553.28
34.3283	526.76
34.3427	497.56
34.3572	511.90
34.3716	511.68
34.3861	504.34
34.4005	514.52
34.4149	505.25
34.4294	528.62
34.4438	465.81
34.4583	470.65
34.4727	525.02
34.4871	501.75
34.5016	498.37
34.5160	506.53
34.5305	516.53
34.5449	494.61
34.5593	524.42
34.5738	540.55
34.5882	510.66
34.6027	504.54
34.6171	509.33
34.6315	518.08
34.6460	510.53
34.6604	474.83
34.6749	509.65
34.6893	498.71
34.7037	514.87
34.7182	506.03
34.7326	478.56
34.7471	521.88
34.7615	505.25
34.7759	538.74
34.7904	506.93
34.8048	483.62
34.8193	506.52
34.8337	487.20
34.8481	509.43
34.8626	524.75
34.8770	520.73
34.8915	484.96
34.9059	484.76
34.9203	481.23
34.9348	493.56
34.9492	488.56
34.9637	486.74
34.9781	496.88
34.9925	496.55
35.0070	471.19
35.0214	522.74
35.0359	543.28
35.0503	524.83
35.0647	533.61
35.0792	488.70
35.0936	486.68
35.1081	496.02
35.1225	523.85
35.1369	500.81
35.1514	509.62
35.1658	500.70
35.1803	505.36
35.1947	488.42
35.2091	511.00
35.2236	528.68
35.2380	504.87
35.2525	530.86
35.2669	520.07
35.2813	506.96
35.2958	510.99
35.3102	511.61
35.3247	522.10
35.3391	506.33
35.3535	498.69
35.3680	504.88
35.3824	505.53
35.3969	516.17
35.4113	539.29
35.4257	558.51
35.4402	550.39
35.4546	513.07
35.4691	537.48
35.4835	529.19
35.4979	519.97
35.5124	545.07
35.5268	539.06
35.5413	528.10
35.5557	529.18
35.5701	512.74
35.5846	510.38
35.5990	549.65
35.6135	541.54
35.6279	493.89
35.6423	513.26
35.6568	538.63
35.6712	567.17
35.6857	565.19
35.7001	610.55
35.7145	668.23
35.7290	672.58
35.7434	586.74
35.7579	568.53
35.7723	556.26
35.7867	615.91
35.8012	670.63
35.8156	669.95
35.8301	636.73
35.8445	659.60
35.8589	621.71
35.8734	712.00
35.8878	842.77
35.9023	1028.93
35.9167	1132.39
35.9311	1409.15
35.9456	2091.71
35.9600	2297.74
35.9745	1875.10
35.9889	1957.54
36.0033	2283.61
36.0178	2449.55
36.0322	2106.77
36.0467	1862.49
36.0611	1667.87
36.0755	1615.98
36.0900	1567.04
36.1044	1506.22
36.1189	1543.23
36.1333	1352.27
36.1477	1187.43
36.1622	1196.43
36.1766	1188.16
36.1911	1061.09
36.2055	1004.39
36.2199	1025.25
36.2344	1035.10
36.2488	1038.04
36.2633	1043.90
36.2777	1029.97
36.2921	1005.57
36.3066	1025.66
36.3210	983.57
36.3355	954.70
36.3499	928.27
36.3643	853.41
36.3788	824.12
36.3932	797.96
36.4077	713.38
36.4221	719.75
36.4365	693.27
36.4510	661.66
36.4654	651.42
36.4799	637.44
36.4943	562.52
36.5087	621.75
36.5232	612.98
36.5376	583.94
36.5521	562.41
36.5665	541.06
36.5809	562.44
36.5954	571.70
36.6098	559.80
36.6243	520.96
36.6387	545.61
36.6531	536.68
36.6676	527.01
36.6820	511.62
36.6965	513.38
36.7109	553.06
36.7253	554.67
36.7398	580.01
36.7542	506.84
36.7687	541.54
36.7831	590.50
36.7975	612.92
36.8120	575.25
36.8264	590.22
36.8409	625.40
36.8553	563.34
36.8697	585.38
36.8842	623.66
36.8986	624.63
36.9131	603.59
36.9275	613.04
36.9419	574.10
36.9564	567.00
36.9708	576.53
36.9853	579.98
36.9997	568.46
37.0141	522.30
37.0286	565.35
37.0430	556.78
37.0575	497.05
37.0719	559.95
37.0863	540.59
37.1008	549.49
37.1152	513.07
37.1297	544.07
37.1441	497.61
37.1585	517.50
37.1730	533.96
37.1874	516.63
37.2019	486.75
37.2163	494.79
37.2307	523.66
37.2452	469.72
37.2596	491.12
37.2741	517.17
37.2885	524.78
37.3029	493.81
37.3174	520.76
37.3318	488.58
37.3463	474.91
37.3607	523.55
37.3751	464.85
37.3896	515.09
37.4040	462.04
37.4185	506.58
37.4329	546.18
37.4473	501.22
37.4618	534.85
37.4762	533.50
37.4907	500.88
37.5051	513.80
37.5195	501.19
37.5340	500.77
37.5484	480.38
37.5629	540.65
37.5773	511.83
37.5917	516.41
37.6062	501.38
37.6206	515.63
37.6351	515.55
37.6495	496.92
37.6639	475.28
37.6784	491.40
37.6928	523.87
37.7073	513.77
37.7217	513.29
37.7361	494.48
37.7506	501.31
37.7650	507.87
37.7795	518.82
37.7939	537.94
37.8083	517.96
37.8228	479.22
37.8372	511.24
37.8517	487.62
37.8661	536.31
37.8805	499.45
37.8950	530.23
37.9094	519.02
37.9239	481.68
37.9383	489.80
37.9528	505.34
37.9672	495.79
37.9816	487.24
37.9961	466.99
38.0105	461.58
38.0250	510.48
38.0394	519.03
38.0538	490.47
38.0683	520.81
38.0827	517.46
38.0972	539.67
38.1116	531.30
38.1260	505.30
38.1405	513.81
38.1549	516.39
38.1694	501.94
38.1838	513.61
38.1982	491.57
38.2127	515.45
38.2271	516.35
38.2416	520.44
38.2560	492.62
38.2704	506.72
38.2849	516.64
38.2993	505.96
38.3138	490.75
38.3282	488.74
38.3426	533.12
38.3571	540.73
38.3715	505.70
38.3860	514.78
38.4004	527.37
38.4148	507.55
38.4293	547.86
38.4437	577.93
38.4582	642.72
38.4726	674.59
38.4870	708.34
38.5015	756.08
38.5159	786.96
38.5304	809.40
38.5448	810.45
38.5592	816.10
38.5737	777.42
38.5881	718.27
38.6026	707.69
38.6170	715.25
38.6314	692.62
38.6459	656.83
38.6603	620.33
38.6748	608.79
38.6892	578.57
38.7036	545.49
38.7181	509.04
38.7325	534.51
38.7470	521.59
38.7614	510.87
38.7758	530.39
38.7903	527.91
38.8047	526.17
38.8192	507.03
38.8336	505.97
38.8480	472.18
38.8625	489.85
38.8769	507.60
38.8914	489.22
38.9058	501.77
38.9202	469.88
38.9347	478.60
38.9491	481.61
38.9636	489.19
38.9780	477.51
38.9924	503.97
39.0069	485.06
39.0213	464.26
39.0358	498.47
39.0502	518.83
39.0646	532.17
39.0791	501.50
39.0935	477.40
39.1080	507.86
39.1224	511.99
39.1368	476.40
39.1513	504.86
39.1657	474.01
39.1802	481.27
39.1946	491.51
39.2090	501.88
39.2235	520.40
39.2379	526.35
39.2524	566.31
39.2668	498.26
39.2812	551.79
39.2957	503.73
39.3101	535.03
39.3246	494.30
39.3390	521.94
39.3534	519.24
39.3679	499.67
39.3823	483.72
39.3968	499.70
39.4112	502.47
39.4256	507.47
39.4401	482.15
39.4545	485.10
39.4690	488.77
39.4834	473.51
39.4978	499.29
39.5123	538.27
39.5267	498.61
39.5412	523.44
39.5556	492.11
39.5700	483.03
39.5845	511.71
39.5989	512.11
39.6134	494.49
39.6278	536.46
39.6422	508.98
39.6567	472.26
39.6711	507.86
39.6856	499.31
39.7000	519.88
39.7144	506.96
39.7289	468.51
39.7433	478.11
39.7578	518.97
39.7722	472.57
39.7866	474.43
39.8011	497.23
39.8155	525.29
39.8300	509.23
39.8444	482.36
39.8588	488.45
39.8733	515.36
39.8877	480.17
39.9022	536.96
39.9166	499.46
39.9310	466.16
39.9455	503.57
39.9599	506.38
39.9744	495.14
39.9888	460.99
40.0032	497.27
40.0177	491.04
40.0321	512.61
40.0466	521.99
40.0610	539.49
40.0754	478.19
40.0899	545.62
40.1043	506.38
40.1188	541.21
40.1332	519.32
40.1476	478.52
40.1621	515.30
40.1765	504.80
40.1910	498.79
40.2054	487.29
40.2198	482.68
40.2343	515.25
40.2487	522.37
40.2632	522.84
40.2776	538.18
40.2920	474.97
40.3065	497.75
40.3209	505.56
40.3354	510.33
40.3498	494.85
40.3642	515.62
40.3787	516.34
40.3931	473.72
40.4076	464.22
40.4220	534.17
40.4364	512.62
40.4509	496.27
40.4653	529.51
40.4798	521.34
40.4942	511.94
40.5086	500.04
40.5231	528.19
40.5375	503.39
40.5520	497.92
40.5664	485.92
40.5808	494.43
40.5953	479.74
40.6097	513.83
40.6242	490.41
40.6386	525.32
40.6530	528.38
40.6675	550.32
40.6819	470.98
40.6964	498.49
40.7108	472.36
40.7252	483.28
40.7397	503.66
40.7541	527.43
40.7686	504.17
40.7830	503.66
40.7974	508.04
40.8119	506.27
40.8263	504.44
40.8408	497.53
40.8552	494.77
40.8696	556.47
40.8841	502.93
40.8985	476.80
40.9130	523.97
40.9274	492.29
40.9418	490.98
40.9563	500.53
40.9707	455.90
40.9852	525.26
40.9996	493.59
41.0140	501.27
41.0285	500.15
41.0429	467.62
41.0574	527.58
41.0718	512.56
41.0862	513.92
41.1007	494.78
41.1151	541.30
41.1296	493.29
41.1440	495.07
41.1584	498.67
41.1729	483.72
41.1873	507.98
41.2018	502.68
41.2162	508.60
41.2306	511.95
41.2451	484.39
41.2595	476.61
41.2740	488.47
41.2884	491.02
41.3028	487.05
41.3173	495.64
41.3317	521.31
41.3462	502.84
41.3606	501.39
41.3750	525.33
41.3895	509.28
41.4039	516.35
41.4184	505.80
41.4328	542.28
41.4472	488.84
41.4617	513.47
41.4761	497.60
41.4906	481.96
41.5050	503.97
41.5194	498.90
41.5339	511.29
41.5483	494.74
41.5628	501.05
41.5772	482.87
41.5916	520.43
41.6061	508.87
41.6205	518.85
41.6350	484.57
41.6494	511.17
41.6639	484.31
41.6783	484.65
41.6927	519.97
41.7072	528.75
41.7216	507.48
41.7361	481.12
41.7505	524.63
41.7649	497.04
41.7794	512.72
41.7938	490.63
41.8083	526.69
41.8227	543.37
41.8371	474.47
41.8516	487.52
41.8660	512.72
41.8805	534.61
41.8949	528.45
41.9093	571.66
41.9238	570.83
41.9382	564.74
41.9527	570.83
41.9671	554.34
41.9815	518.99
41.9960	525.99
42.0104	535.99
42.0249	570.93
42.0393	549.84
42.0537	588.41
42.0682	578.23
42.0826	588.97
42.0971	596.39
42.1115	567.38
42.1259	574.49
42.1404	576.78
42.1548	598.17
42.1693	665.62
42.1837	682.54
42.1981	715.43
42.2126	800.11
42.2270	912.50
42.2415	1027.48
42.2559	1164.79
42.2703	1293.90
42.2848	1472.60
42.2992	1594.47
42.3137	1616.52
42.3281	1639.66
42.3425	1548.47
42.3570	1450.47
42.3714	1401.69
42.3859	1317.11
42.4003	1292.77
42.4147	1315.31
42.4292	1266.40
42.4436	1148.48
42.4581	1055.14
42.4725	961.30
42.4869	823.94
42.5014	735.63
42.5158	692.66
42.5303	644.21
42.5447	611.13
42.5591	614.66
42.5736	569.45
42.5880	585.66
42.6025	569.97
42.6169	551.26
42.6313	546.18
42.6458	563.86
42.6602	551.59
42.6747	522.47
42.6891	525.75
42.7035	564.40
42.7180	543.38
42.7324	493.06
42.7469	499.41
42.7613	507.51
42.7757	526.40
42.7902	536.92
42.8046	523.86
42.8191	514.69
42.8335	497.62
42.8479	505.72
42.8624	525.46
42.8768	531.89
42.8913	517.53
42.9057	517.44
42.9201	516.10
42.9346	512.72
42.9490	519.64
42.9635	493.99
42.9779	508.95
42.9923	506.67
43.0068	496.74
43.0212	532.46
43.0357	494.79
43.0501	482.88
43.0645	487.58
43.0790	508.30
43.0934	520.22
43.1079	486.56
43.1223	493.35
43.1367	487.93
43.1512	493.66
43.1656	523.98
43.1801	526.78
43.1945	512.07
43.2089	532.14
43.2234	548.71
43.2378	574.04
43.2523	513.01
43.2667	472.37
43.2811	513.31
43.2956	515.45
43.3100	512.56
43.3245	545.84
43.3389	530.75
43.3533	487.17
43.3678	538.81
43.3822	539.63
43.3967	519.25
43.4111	517.29
43.4255	536.87
43.4400	518.65
43.4544	506.93
43.4689	514.42
43.4833	513.88
43.4977	484.50
43.5122	509.17
43.5266	523.36
43.5411	504.21
43.5555	487.00
43.5699	510.56
43.5844	490.83
43.5988	503.81
43.6133	522.48
43.6277	516.75
43.6421	473.61
43.6566	530.62
43.6710	524.71
43.6855	527.39
43.6999	509.08
43.7143	526.12
43.7288	554.19
43.7432	544.70
43.7577	554.61
43.7721	531.47
43.7865	516.74
43.8010	534.15
43.8154	522.84
43.8299	490.07
43.8443	510.28
43.8587	544.98
43.8732	483.95
43.8876	501.69
43.9021	523.34
43.9165	501.54
43.9309	535.37
43.9454	535.77
43.9598	534.74
43.9743	566.20
43.9887	573.04
44.0031	598.29
44.0176	568.69
44.0320	636.96
44.0465	621.18
44.0609	650.07
44.0753	626.21
44.0898	613.85
44.1042	609.79
44.1187	643.92
44.1331	655.86
44.1475	592.34
44.1620	578.92
44.1764	563.28
44.1909	593.60
44.2053	608.07
44.2197	567.69
44.2342	540.25
44.2486	562.33
44.2631	581.95
44.2775	547.98
44.2919	517.72
44.3064	520.04
44.3208	571.42
44.3353	555.85
44.3497	520.41
44.3641	548.68
44.3786	520.21
44.3930	535.61
44.4075	540.33
44.4219	600.43
44.4363	614.75
44.4508	585.73
44.4652	592.95
44.4797	591.63
44.4941	588.33
44.5085	583.75
44.5230	572.82
44.5374	604.63
44.5519	557.50
44.5663	553.86
44.5807	601.59
44.5952	569.58
44.6096	557.62
44.6241	559.17
44.6385	552.46
44.6529	570.24
44.6674	564.58
44.6818	589.49
44.6963	604.80
44.7107	677.12
44.7251	705.22
44.7396	743.84
44.7540	799.81
44.7685	830.35
44.7829	940.23
44.7973	874.68
44.8118	837.78
44.8262	843.92
44.8407	785.33
44.8551	727.45
44.8695	700.47
44.8840	682.86
44.8984	756.29
44.9129	757.59
44.9273	724.61
44.9417	638.27
44.9562	619.23
44.9706	576.77
44.9851	541.35
44.9995	533.41
45.0139	513.85
45.0284	497.69
45.0428	562.14
45.0573	510.88
45.0717	517.81
45.0861	520.34
45.1006	520.49
45.1150	507.31
45.1295	494.91
45.1439	509.20
45.1583	533.93
45.1728	529.38
45.1872	533.66
45.2017	510.30
45.2161	535.74
45.2305	516.70
45.2450	514.50
45.2594	497.06
45.2739	516.78
45.2883	539.21
45.3028	513.80
45.3172	531.41
45.3316	514.22
45.3461	509.73
45.3605	512.92
45.3750	500.14
45.3894	520.18
45.4038	500.40
45.4183	512.49
45.4327	525.51
45.4472	518.64
45.4616	506.85
45.4760	487.49
45.4905	493.05
45.5049	477.26
45.5194	512.57
45.5338	482.43
45.5482	530.25
45.5627	521.27
45.5771	503.62
45.5916	498.32
45.6060	505.53
45.6204	504.89
45.6349	503.11
45.6493	518.12
45.6638	517.64
45.6782	529.65
45.6926	542.04
45.7071	503.93
45.7215	525.03
45.7360	512.74
45.7504	548.27
45.7648	514.96
45.7793	497.76
45.7937	495.90
45.8082	516.03
45.8226	503.57
45.8370	488.60
45.8515	511.74
45.8659	505.84
45.8804	490.78
45.8948	503.17
45.9092	531.01
45.9237	466.19
45.9381	477.20
45.9526	506.21
45.9670	518.45
45.9814	491.87
45.9959	513.92
46.0103	477.44
46.0248	480.31
46.0392	484.25
46.0536	528.80
46.0681	499.32
46.0825	496.77
46.0970	536.59
46.1114	463.32
46.1258	514.23
46.1403	476.40
46.1547	504.74
46.1692	533.70
46.1836	524.89
46.1980	500.34
46.2125	515.81
46.2269	514.65
46.2414	526.18
46.2558	519.62
46.2702	531.30
46.2847	508.44
46.2991	505.55
46.3136	518.80
46.3280	544.22
46.3424	534.56
46.3569	503.36
46.3713	506.89
46.3858	513.98
46.4002	505.98
46.4146	481.33
46.4291	533.71
46.4435	481.95
46.4580	493.04
46.4724	548.73
46.4868	504.90
46.5013	503.45
46.5157	528.45
46.5302	495.94
46.5446	493.80
46.5590	499.02
46.5735	510.57
46.5879	501.50
46.6024	512.78
46.6168	512.76
46.6312	521.54
46.6457	504.90
46.6601	500.87
46.6746	511.66
46.6890	488.10
46.7034	507.25
46.7179	519.04
46.7323	460.96
46.7468	469.68
46.7612	483.84
46.7756	505.14
46.7901	526.48
46.8045	512.91
46.8190	509.13
46.8334	503.86
46.8478	506.86
46.8623	503.98
46.8767	493.78
46.8912	507.00
46.9056	516.57
46.9200	488.42
46.9345	507.04
46.9489	522.93
46.9634	534.12
46.9778	542.57
46.9922	536.76
47.0067	502.79
47.0211	512.72
47.0356	525.71
47.0500	535.06
47.0644	536.35
47.0789	502.87
47.0933	532.66
47.1078	544.19
47.1222	539.05
47.1366	517.31
47.1511	509.69
47.1655	542.36
47.1800	531.54
47.1944	501.04
47.2088	525.81
47.2233	511.87
47.2377	513.67
47.2522	502.61
47.2666	521.29
47.2810	486.35
47.2955	511.12
47.3099	492.36
47.3244	511.53
47.3388	517.35
47.3532	497.58
47.3677	487.31
47.3821	483.49
47.3966	501.84
47.4110	517.70
47.4254	536.50
47.4399	529.24
47.4543	467.80
47.4688	515.41
47.4832	519.89
47.4976	467.98
47.5121	470.47
47.5265	484.25
47.5410	529.62
47.5554	514.94
47.5698	506.35
47.5843	519.77
47.5987	529.20
47.6132	493.73
47.6276	501.59
47.6420	523.57
47.6565	505.45
47.6709	500.92
47.6854	461.27
47.6998	498.62
47.7142	522.47
47.7287	486.54
47.7431	492.89
47.7576	480.59
47.7720	506.61
47.7864	502.03
47.8009	502.41
47.8153	516.50
47.8298	499.02
47.8442	502.28
47.8586	499.16
47.8731	498.66
47.8875	484.54
47.9020	516.45
47.9164	504.52
47.9308	517.56
47.9453	504.20
47.9597	482.07
47.9742	531.36
47.9886	526.21
48.0030	508.53
48.0175	451.07
48.0319	496.51
48.0464	477.20
48.0608	515.04
48.0752	500.37
48.0897	503.93
48.1041	513.15
48.1186	494.41
48.1330	527.80
48.1474	491.14
48.1619	509.12
48.1763	501.15
48.1908	543.71
48.2052	536.42
48.2196	520.22
48.2341	524.76
48.2485	510.60
48.2630	522.58
48.2774	504.74
48.2918	505.51
48.3063	504.37
48.3207	514.53
48.3352	528.98
48.3496	532.03
48.3640	521.96
48.3785	520.42
48.3929	486.39
48.4074	540.64
48.4218	490.44
48.4362	547.90
48.4507	508.89
48.4651	494.22
48.4796	525.16
48.4940	518.32
48.5084	523.51
48.5229	518.70
48.5373	523.55
48.5518	515.38
48.5662	530.61
48.5806	489.46
48.5951	513.92
48.6095	517.14
48.6240	509.02
48.6384	510.62
48.6528	498.91
48.6673	504.92
48.6817	498.95
48.6962	544.75
48.7106	548.08
48.7250	514.11
48.7395	524.92
48.7539	511.51
48.7684	495.09
48.7828	517.94
48.7972	518.02
48.8117	519.54
48.8261	547.22
48.8406	510.62
48.8550	540.91
48.8694	544.42
48.8839	545.14
48.8983	551.55
48.9128	562.06
48.9272	568.93
48.9416	577.22
48.9561	579.13
48.9705	522.88
48.9850	548.98
48.9994	583.99
49.0139	536.55
49.0283	590.68
49.0427	595.55
49.0572	593.32
49.0716	683.18
49.0861	706.47
49.1005	701.28
49.1149	715.45
49.1294	734.42
49.1438	775.91
49.1583	803.74
49.1727	828.73
49.1871	896.18
49.2016	943.48
49.2160	1003.12
49.2305	1053.84
49.2449	1140.45
49.2593	1216.60
49.2738	1261.10
49.2882	1388.34
49.3027	1493.30
49.3171	1591.87
49.3315	1686.87
49.3460	1708.93
49.3604	1797.88
49.3749	1693.27
49.3893	1738.11
49.4037	1777.99
49.4182	1694.83
49.4326	1772.66
49.4471	1659.34
49.4615	1579.37
49.4759	1551.12
49.4904	1486.78
49.5048	1374.12
49.5193	1341.49
49.5337	1298.89
49.5481	1199.56
49.5626	1124.61
49.5770	1049.29
49.5915	964.97
49.6059	937.12
49.6203	850.99
49.6348	831.72
49.6492	787.23
49.6637	712.46
49.6781	688.32
49.6925	688.98
49.7070	673.83
49.7214	676.28
49.7359	654.11
49.7503	593.81
49.7647	625.95
49.7792	588.35
49.7936	576.31
49.8081	579.64
49.8225	599.43
49.8369	583.60
49.8514	576.21
49.8658	563.05
49.8803	525.15
49.8947	587.65
49.9091	513.35
49.9236	529.62
49.9380	541.93
49.9525	523.75
49.9669	545.19
49.9813	513.23
49.9958	514.35
50.0102	560.52
50.0247	544.96
50.0391	549.05
50.0535	528.64
50.0680	539.11
50.0824	542.82
50.0969	556.29
50.1113	549.53
50.1257	564.64
50.1402	498.26
50.1546	496.04
50.1691	529.76
50.1835	541.47
50.1979	527.56
50.2124	518.77
50.2268	492.44
50.2413	514.96
50.2557	526.58
50.2701	504.57
50.2846	531.33
50.2990	489.81
50.3135	482.33
50.3279	501.52
50.3423	530.96
50.3568	531.74
50.3712	523.58
50.3857	543.20
50.4001	507.48
50.4145	496.57
50.4290	527.32
50.4434	507.25
50.4579	510.75
50.4723	524.60
50.4867	507.39
50.5012	504.63
50.5156	500.44
50.5301	498.07
50.5445	519.80
50.5589	499.32
50.5734	498.35
50.5878	522.70
50.6023	532.70
50.6167	492.32
50.6311	482.69
50.6456	524.50
50.6600	486.36
50.6745	495.36
50.6889	489.42
50.7033	542.43
50.7178	552.91
50.7322	528.10
50.7467	520.48
50.7611	503.87
50.7755	521.61
50.7900	488.37
50.8044	506.61
50.8189	549.55
50.8333	546.70
50.8477	503.63
50.8622	497.81
50.8766	517.01
50.8911	522.44
50.9055	530.88
50.9199	527.35
50.9344	538.46
50.9488	536.92
50.9633	487.45
50.9777	499.53
50.9921	514.21
51.0066	528.49
51.0210	528.47
51.0355	500.72
51.0499	487.98
51.0643	493.20
51.0788	530.42
51.0932	548.51
51.1077	505.44
51.1221	538.43
51.1365	503.19
51.1510	487.35
51.1654	525.51
51.1799	517.71
51.1943	517.78
51.2087	535.61
51.2232	508.84
51.2376	501.16
51.2521	500.24
51.2665	483.28
51.2809	511.26
51.2954	508.95
51.3098	492.00
51.3243	483.07
51.3387	515.70
51.3531	515.01
51.3676	517.62
51.3820	506.74
51.3965	528.46
51.4109	510.07
51.4253	554.54
51.4398	526.36
51.4542	489.96
51.4687	512.75
51.4831	523.97
51.4975	487.41
51.5120	514.38
51.5264	507.35
51.5409	513.40
51.5553	513.04
51.5697	537.98
51.5842	499.41
51.5986	524.71
51.6131	512.32
51.6275	501.06
51.6419	506.53
51.6564	509.62
51.6708	481.87
51.6853	497.33
51.6997	537.44
51.7141	542.24
51.7286	506.39
51.7430	506.68
51.7575	528.94
51.7719	519.99
51.7863	526.02
51.8008	522.53
51.8152	490.87
51.8297	545.85
51.8441	511.83
51.8585	511.81
51.8730	510.32
51.8874	502.32
51.9019	521.42
51.9163	515.72
51.9307	511.43
51.9452	527.38
51.9596	512.54
51.9741	504.40
51.9885	533.75
52.0029	525.69
52.0174	498.57
52.0318	508.54
52.0463	506.46
52.0607	529.12
52.0751	487.36
52.0896	540.09
52.1040	504.03
52.1185	492.71
52.1329	503.02
52.1473	526.08
52.1618	552.94
52.1762	510.77
52.1907	503.29
52.2051	503.98
52.2195	520.42
52.2340	531.81
52.2484	528.05
52.2629	529.69
52.2773	513.76
52.2917	531.85
52.3062	571.40
52.3206	504.39
52.3351	525.85
52.3495	500.20
52.3639	512.83
52.3784	510.37
52.3928	525.83
52.4073	495.22
52.4217	492.31
52.4361	531.46
52.4506	523.82
52.4650	542.47
52.4795	544.08
52.4939	519.81
52.5083	480.77
52.5228	481.43
52.5372	482.25
52.5517	512.53
52.5661	554.65
52.5805	516.79
52.5950	513.43
52.6094	521.19
52.6239	513.92
52.6383	523.42
52.6527	503.20
52.6672	490.54
52.6816	516.04
52.6961	527.93
52.7105	529.56
52.7250	533.75
52.7394	470.54
52.7538	504.24
52.7683	495.87
52.7827	519.48
52.7972	490.97
52.8116	563.78
52.8260	520.28
52.8405	513.40
52.8549	517.71
52.8694	548.01
52.8838	527.32
52.8982	555.97
52.9127	556.54
52.9271	562.79
52.9416	485.42
52.9560	514.39
52.9704	521.51
52.9849	527.30
52.9993	499.88
53.0138	530.31
53.0282	514.03
53.0426	498.23
53.0571	522.51
53.0715	551.48
53.0860	520.31
53.1004	490.46
53.1148	521.09
53.1293	522.03
53.1437	496.97
53.1582	502.56
53.1726	512.28
53.1870	524.32
53.2015	508.62
53.2159	545.02
53.2304	517.69
53.2448	523.43
53.2592	482.20
53.2737	529.86
53.2881	525.28
53.3026	536.87
53.3170	540.81
53.3314	524.10
53.3459	502.82
53.3603	519.18
53.3748	534.65
53.3892	512.45
53.4036	509.40
53.4181	508.21
53.4325	535.33
53.4470	496.58
53.4614	499.60
53.4758	508.30
53.4903	530.03
53.5047	506.69
53.5192	505.25
53.5336	546.35
53.5480	528.64
53.5625	507.66
53.5769	515.26
53.5914	498.98
53.6058	517.47
53.6202	504.41
53.6347	504.68
53.6491	490.09
53.6636	511.52
53.6780	504.39
53.6924	514.66
53.7069	525.87
53.7213	538.73
53.7358	513.79
53.7502	528.14
53.7646	502.73
53.7791	521.33
53.7935	508.38
53.8080	505.53
53.8224	530.81
53.8368	527.19
53.8513	505.54
53.8657	509.84
53.8802	509.55
53.8946	526.70
53.9090	556.12
53.9235	525.70
53.9379	523.18
53.9524	529.24
53.9668	488.57
53.9812	499.56
53.9957	492.61
54.0101	525.05
54.0246	554.18
54.0390	537.17
54.0534	501.57
54.0679	528.27
54.0823	532.69
54.0968	517.98
54.1112	535.46
54.1256	516.99
54.1401	496.80
54.1545	512.95
54.1690	523.80
54.1834	519.00
54.1978	506.41
54.2123	513.35
54.2267	503.62
54.2412	544.71
54.2556	527.66
54.2700	505.40
54.2845	542.15
54.2989	535.79
54.3134	518.82
54.3278	496.88
54.3422	502.45
54.3567	520.96
54.3711	512.53
54.3856	486.31
54.4000	520.41
54.4144	520.95
54.4289	540.22
54.4433	521.52
54.4578	544.42
54.4722	562.28
54.4866	541.42
54.5011	531.10
54.5155	557.04
54.5300	512.47
54.5444	537.72
54.5588	570.97
54.5733	541.74
54.5877	556.94
54.6022	563.80
54.6166	563.06
54.6310	558.87
54.6455	554.15
54.6599	563.72
54.6744	580.41
54.6888	564.10
54.7032	605.62
54.7177	630.77
54.7321	603.01
54.7466	593.86
54.7610	570.21
54.7754	587.25
54.7899	571.05
54.8043	567.37
54.8188	589.62
54.8332	584.39
54.8476	574.01
54.8621	583.48
54.8765	577.94
54.8910	552.83
54.9054	552.37
54.9198	553.76
54.9343	550.06
54.9487	532.47
54.9632	526.55
54.9776	550.72
54.9920	525.43
55.0065	509.51
55.0209	535.04
55.0354	543.40
55.0498	541.98
55.0642	552.14
55.0787	534.63
55.0931	564.05
55.1076	565.37
55.1220	549.97
55.1364	543.34
55.1509	525.63
55.1653	517.82
55.1798	508.00
55.1942	539.91
55.2086	530.11
55.2231	514.71
55.2375	532.83
55.2520	541.27
55.2664	524.35
55.2808	519.51
55.2953	517.78
55.3097	515.77
55.3242	534.32
55.3386	535.38
55.3530	503.43
55.3675	529.40
55.3819	510.52
55.3964	502.87
55.4108	533.16
55.4252	519.82
55.4397	505.53
55.4541	513.48
55.4686	533.39
55.4830	522.56
55.4974	497.46
55.5119	503.44
55.5263	552.29
55.5408	524.35
55.5552	549.79
55.5696	522.74
55.5841	512.41
55.5985	518.23
55.6130	527.33
55.6274	507.05
55.6418	508.01
55.6563	531.84
55.6707	534.67
55.6852	524.06
55.6996	518.26
55.7140	531.14
55.7285	522.98
55.7429	518.92
55.7574	536.07
55.7718	504.48
55.7862	530.68
55.8007	525.87
55.8151	509.48
55.8296	522.30
55.8440	524.21
55.8584	540.38
55.8729	500.16
55.8873	501.84
55.9018	544.24
55.9162	556.76
55.9306	533.63
55.9451	575.13
55.9595	544.20
55.9740	558.38
55.9884	557.40
56.0028	539.66
56.0173	512.66
56.0317	524.23
56.0462	526.99
56.0606	533.03
56.0750	524.02
56.0895	554.38
56.1039	557.41
56.1184	536.97
56.1328	562.58
56.1472	476.57
56.1617	525.06
56.1761	563.43
56.1906	495.41
56.2050	542.81
56.2194	521.65
56.2339	513.57
56.2483	548.99
56.2628	533.16
56.2772	518.48
56.2916	514.10
56.3061	567.55
56.3205	527.97
56.3350	526.58
56.3494	542.38
56.3639	497.86
56.3783	500.05
56.3927	517.56
56.4072	523.84
56.4216	533.85
56.4361	533.34
56.4505	540.26
56.4649	540.63
56.4794	560.82
56.4938	525.90
56.5083	541.61
56.5227	523.19
56.5371	521.10
56.5516	515.50
56.5660	531.35
56.5805	493.62
56.5949	545.12
56.6093	527.96
56.6238	524.00
56.6382	555.89
56.6527	530.49
56.6671	530.76
56.6815	501.77
56.6960	493.96
56.7104	537.79
56.7249	492.09
56.7393	500.65
56.7537	484.14
56.7682	492.83
56.7826	543.97
56.7971	516.36
56.8115	520.01
56.8259	549.46
56.8404	525.51
56.8548	503.28
56.8693	529.34
56.8837	540.52
56.8981	526.08
56.9126	535.10
56.9270	516.09
56.9415	519.57
56.9559	516.57
56.9703	504.14
56.9848	516.49
56.9992	553.12
57.0137	487.87
57.0281	583.71
57.0425	530.61
57.0570	522.51
57.0714	549.79
57.0859	543.24
57.1003	539.22
57.1147	520.37
57.1292	519.67
57.1436	494.34
57.1581	510.72
57.1725	525.79
57.1869	515.96
57.2014	509.85
57.2158	535.27
57.2303	548.15
57.2447	517.40
57.2591	564.41
57.2736	518.81
57.2880	512.25
57.3025	553.06
57.3169	541.21
57.3313	534.61
57.3458	535.80
57.3602	540.08
57.3747	501.94
57.3891	516.67
57.4035	536.90
57.4180	540.08
57.4324	514.72
57.4469	527.46
57.4613	502.42
57.4757	508.59
57.4902	516.59
57.5046	503.24
57.5191	521.62
57.5335	551.87
57.5479	522.96
57.5624	507.10
57.5768	500.03
57.5913	533.70
57.6057	514.07
57.6201	531.38
57.6346	512.55
57.6490	505.27
57.6635	484.79
57.6779	500.15
57.6923	525.12
57.7068	570.12
57.7212	546.63
57.7357	516.85
57.7501	512.50
57.7645	532.46
57.7790	523.41
57.7934	516.44
57.8079	562.05
57.8223	555.68
57.8367	538.70
57.8512	521.84
57.8656	537.79
57.8801	534.73
57.8945	554.42
57.9089	525.87
57.9234	508.14
57.9378	560.57
57.9523	547.43
57.9667	503.34
57.9811	533.88
57.9956	547.37
58.0100	526.36
58.0245	571.62
58.0389	517.64
58.0533	513.85
58.0678	562.25
58.0822	576.67
58.0967	530.75
58.1111	561.83
58.1255	563.36
58.1400	575.32
58.1544	535.48
58.1689	596.77
58.1833	579.18
58.1977	575.89
58.2122	579.86
58.2266	598.92
58.2411	593.48
58.2555	614.30
58.2699	624.26
58.2844	680.04
58.2988	657.28
58.3133	691.60
58.3277	719.60
58.3421	698.31
58.3566	646.07
58.3710	681.67
58.3855	633.28
58.3999	614.87
58.4143	643.34
58.4288	650.02
58.4432	637.60
58.4577	629.98
58.4721	648.91
58.4865	655.92
58.5010	607.41
58.5154	611.35
58.5299	581.11
58.5443	574.78
58.5587	597.72
58.5732	595.79
58.5876	565.94
58.6021	526.60
58.6165	535.64
58.6309	568.71
58.6454	600.51
58.6598	563.58
58.6743	539.57
58.6887	563.45
58.7031	555.28
58.7176	562.67
58.7320	526.13
58.7465	529.14
58.7609	551.41
58.7753	573.65
58.7898	578.52
58.8042	544.59
58.8187	562.46
58.8331	527.40
58.8475	529.41
58.8620	553.31
58.8764	562.72
58.8909	569.15
58.9053	564.39
58.9197	528.70
58.9342	541.96
58.9486	562.31
58.9631	536.67
58.9775	497.32
58.9919	534.29
59.0064	549.94
59.0208	565.93
59.0353	565.88
59.0497	546.24
59.0641	563.46
59.0786	556.13
59.0930	557.82
59.1075	522.49
59.1219	550.00
59.1363	540.13
59.1508	506.25
59.1652	526.47
59.1797	547.49
59.1941	534.89
59.2085	519.20
59.2230	537.07
59.2374	531.42
59.2519	579.29
59.2663	562.23
59.2807	574.00
59.2952	550.19
59.3096	558.61
59.3241	548.14
59.3385	543.23
59.3529	534.49
59.3674	555.16
59.3818	547.62
59.3963	558.37
59.4107	555.77
59.4251	577.14
59.4396	597.28
59.4540	576.94
59.4685	591.32
59.4829	560.30
59.4973	568.54
59.5118	573.15
59.5262	567.43
59.5407	524.80
59.5551	532.23
59.5695	543.96
59.5840	519.78
59.5984	510.49
59.6129	546.51
59.6273	555.71
59.6417	562.81
59.6562	556.95
59.6706	540.36
59.6851	575.96
59.6995	572.82
59.7139	553.18
59.7284	540.58
59.7428	540.07
59.7573	524.75
59.7717	524.79
59.7861	554.45
59.8006	506.60
59.8150	550.60
59.8295	512.87
59.8439	503.13
59.8583	536.38
59.8728	575.04
59.8872	556.43
59.9017	574.35
59.9161	534.19
59.9305	554.39
59.9450	593.54
59.9594	541.32
59.9739	548.70
59.9883	548.91
60.0027	540.22
60.0172	531.31
60.0316	540.65
60.0461	552.60
60.0605	540.06
60.0750	563.00
60.0894	566.10
60.1038	542.08
60.1183	540.33
60.1327	552.80
60.1472	509.95
60.1616	535.30
60.1760	538.99
60.1905	510.03
60.2049	538.45
60.2194	550.69
60.2338	529.18
60.2482	541.27
60.2627	548.82
60.2771	546.31
60.2916	520.06
60.3060	509.43
60.3204	556.54
60.3349	535.73
60.3493	524.01
60.3638	548.97
60.3782	551.82
60.3926	547.83
60.4071	548.85
60.4215	525.86
60.4360	546.24
60.4504	581.88
60.4648	541.10
60.4793	517.55
60.4937	540.26
60.5082	515.58
60.5226	526.46
60.5370	550.57
60.5515	542.81
60.5659	533.36
60.5804	545.03
60.5948	552.28
60.6092	534.89
60.6237	544.97
60.6381	542.02
60.6526	575.91
60.6670	554.85
60.6814	529.27
60.6959	537.80
60.7103	543.97
60.7248	532.18
60.7392	546.62
60.7536	552.39
60.7681	548.80
60.7825	564.85
60.7970	540.46
60.8114	536.60
60.8258	540.00
60.8403	532.08
60.8547	547.77
60.8692	572.11
60.8836	545.64
60.8980	545.86
60.9125	553.69
60.9269	572.76
60.9414	560.25
60.9558	559.05
60.9702	516.98
60.9847	561.44
60.9991	603.40
61.0136	550.98
61.0280	522.53
61.0424	525.84
61.0569	555.96
61.0713	574.43
61.0858	552.84
61.1002	564.48
61.1146	571.32
61.1291	550.17
61.1435	497.31
61.1580	541.59
61.1724	535.25
61.1868	515.08
61.2013	503.73
61.2157	529.59
61.2302	546.59
61.2446	548.22
61.2590	545.38
61.2735	519.77
61.2879	535.23
61.3024	543.83
61.3168	562.77
61.3312	610.07
61.3457	622.06
61.3601	566.13
61.3746	550.28
61.3890	534.00
61.4034	532.81
61.4179	550.34
61.4323	546.64
61.4468	535.01
61.4612	566.86
61.4756	579.26
61.4901	572.40
61.5045	553.79
61.5190	518.39
61.5334	537.87
61.5478	513.08
61.5623	480.14
61.5767	524.29
61.5912	544.48
61.6056	554.08
61.6200	546.46
61.6345	577.00
61.6489	525.35
61.6634	543.76
61.6778	526.89
61.6922	535.14
61.7067	552.51
61.7211	561.78
61.7356	551.28
61.7500	563.52
61.7644	533.44
61.7789	563.04
61.7933	592.17
61.8078	555.93
61.8222	543.60
61.8366	547.90
61.8511	531.54
61.8655	543.54
61.8800	525.15
61.8944	541.68
61.9088	548.89
61.9233	532.40
61.9377	504.43
61.9522	517.76
61.9666	565.14
61.9810	546.99
61.9955	539.45
62.0099	532.37
62.0244	555.89
62.0388	557.26
62.0532	550.74
62.0677	560.09
62.0821	569.28
62.0966	552.41
62.1110	533.49
62.1254	553.50
62.1399	578.40
62.1543	536.74
62.1688	562.29
62.1832	535.46
62.1976	521.90
62.2121	549.20
62.2265	561.83
62.2410	578.59
62.2554	561.99
62.2698	558.14
62.2843	556.83
62.2987	561.47
62.3132	553.08
62.3276	557.61
62.3420	580.51
62.3565	571.82
62.3709	563.68
62.3854	536.66
62.3998	538.29
62.4142	531.52
62.4287	563.39
62.4431	533.96
62.4576	529.57
62.4720	573.69
62.4864	588.41
62.5009	561.25
62.5153	566.13
62.5298	554.62
62.5442	530.28
62.5586	557.96
62.5731	541.90
62.5875	541.85
62.6020	574.62
62.6164	539.20
62.6308	577.29
62.6453	548.26
62.6597	557.87
62.6742	547.05
62.6886	560.91
62.7030	573.05
62.7175	577.70
62.7319	558.66
62.7464	584.62
62.7608	549.13
62.7752	539.75
62.7897	567.28
62.8041	583.81
62.8186	581.86
62.8330	570.63
62.8474	559.48
62.8619	561.36
62.8763	598.84
62.8908	563.48
62.9052	576.71
62.9196	564.02
62.9341	572.97
62.9485	592.43
62.9630	578.28
62.9774	592.00
62.9918	570.52
63.0063	571.53
63.0207	567.88
63.0352	568.60
63.0496	584.03
63.0640	605.96
63.0785	573.54
63.0929	580.21
63.1074	578.14
63.1218	606.03
63.1362	574.37
63.1507	552.33
63.1651	580.41
63.1796	581.71
63.1940	555.37
63.2084	551.70
63.2229	569.43
63.2373	578.68
63.2518	568.69
63.2662	551.57
63.2806	600.06
63.2951	576.42
63.3095	575.78
63.3240	572.90
63.3384	582.16
63.3528	571.29
63.3673	560.13
63.3817	618.35
63.3962	568.37
63.4106	542.45
63.4250	572.73
63.4395	563.55
63.4539	618.63
63.4684	626.30
63.4828	576.56
63.4972	589.67
63.5117	589.67
63.5261	620.61
63.5406	632.01
63.5550	604.99
63.5694	589.99
63.5839	611.19
63.5983	578.09
63.6128	574.74
63.6272	579.03
63.6416	613.88
63.6561	593.39
63.6705	590.10
63.6850	606.78
63.6994	610.00
63.7138	585.51
63.7283	594.55
63.7427	586.49
63.7572	612.20
63.7716	597.48
63.7861	623.07
63.8005	635.25
63.8149	628.33
63.8294	629.56
63.8438	618.90
63.8583	633.80
63.8727	616.78
63.8871	616.13
63.9016	685.93
63.9160	645.27
63.9305	638.26
63.9449	694.30
63.9593	664.90
63.9738	703.40
63.9882	749.63
64.0027	738.89
64.0171	806.40
64.0315	812.66
64.0460	808.87
64.0604	838.14
64.0749	829.04
64.0893	867.21
64.1037	850.32
64.1182	861.39
64.1326	817.65
64.1471	758.66
64.1615	775.19
64.1759	761.64
64.1904	754.81
64.2048	710.91
64.2193	736.44
64.2337	735.28
64.2481	745.22
64.2626	752.44
64.2770	709.99
64.2915	691.93
64.3059	719.95
64.3203	739.32
64.3348	686.73
64.3492	702.38
64.3637	676.99
64.3781	664.12
64.3925	608.11
64.4070	666.97
64.4214	712.66
64.4359	683.26
64.4503	614.08
64.4647	656.64
64.4792	680.13
64.4936	681.55
64.5081	662.30
64.5225	669.86
64.5369	616.43
64.5514	669.78
64.5658	645.29
64.5803	641.18
64.5947	662.11
64.6091	696.61
64.6236	660.14
64.6380	696.54
64.6525	678.75
64.6669	655.48
64.6813	670.91
64.6958	671.64
64.7102	710.20
64.7247	696.71
64.7391	696.33
64.7535	749.55
64.7680	702.10
64.7824	712.83
64.7969	743.65
64.8113	776.21
64.8257	815.51
64.8402	790.01
64.8546	809.78
64.8691	867.59
64.8835	855.48
64.8979	825.96
64.9124	863.92
64.9268	892.30
64.9413	900.19
64.9557	926.96
64.9701	1021.03
64.9846	1131.20
64.9990	1127.13
65.0135	1297.14
65.0279	1503.47
65.0423	1754.83
65.0568	2211.96
65.0712	2785.84
65.0857	3570.12
65.1001	4748.19
65.1145	6472.39
65.1290	8301.64
65.1434	9922.40
65.1579	11467.71
65.1723	12010.15
65.1867	11209.16
65.2012	9888.55
65.2156	8161.49
65.2301	6546.30
65.2445	5256.17
65.2589	4485.71
65.2734	4191.81
65.2878	4405.50
65.3023	5023.64
65.3167	6051.64
65.3311	6680.39
65.3456	7108.85
65.3600	7105.76
65.3745	6226.28
65.3889	5278.79
65.4033	4368.56
65.4178	3371.97
65.4322	2660.90
65.4467	2066.42
65.4611	1739.07
65.4755	1488.08
65.4900	1295.92
65.5044	1173.56
65.5189	1048.59
65.5333	1009.71
65.5477	923.58
65.5622	896.63
65.5766	859.25
65.5911	820.88
65.6055	831.29
65.6199	804.24
65.6344	774.98
65.6488	751.08
65.6633	786.05
65.6777	743.62
65.6921	685.83
65.7066	727.94
65.7210	710.98
65.7355	675.54
65.7499	698.37
65.7643	650.63
65.7788	685.68
65.7932	664.02
65.8077	674.62
65.8221	684.47
65.8365	671.09
65.8510	683.70
65.8654	670.16
65.8799	650.67
65.8943	643.80
65.9087	693.39
65.9232	627.37
65.9376	641.98
65.9521	638.08
65.9665	627.06
65.9809	617.10
65.9954	606.26
66.0098	603.29
66.0243	609.46
66.0387	613.84
66.0531	622.39
66.0676	655.00
66.0820	650.05
66.0965	606.96
66.1109	640.05
66.1253	609.84
66.1398	611.82
66.1542	600.27
66.1687	620.53
66.1831	625.12
66.1975	615.63
66.2120	651.79
66.2264	651.47
66.2409	632.95
66.2553	607.58
66.2697	581.23
66.2842	607.24
66.2986	618.62
66.3131	630.65
66.3275	619.79
66.3419	658.86
66.3564	651.93
66.3708	601.63
66.3853	576.71
66.3997	587.98
66.4141	611.99
66.4286	636.24
66.4430	605.63
66.4575	587.28
66.4719	588.18
66.4863	567.49
66.5008	616.06
66.5152	633.99
66.5297	638.74
66.5441	593.80
66.5585	577.94
66.5730	590.20
66.5874	593.71
66.6019	564.95
66.6163	566.25
66.6307	598.57
66.6452	591.96
66.6596	566.50
66.6741	577.70
66.6885	589.62
66.7029	638.05
66.7174	620.81
66.7318	599.70
66.7463	598.55
66.7607	577.97
66.7751	574.39
66.7896	585.97
66.8040	595.99
66.8185	577.12
66.8329	573.56
66.8473	592.59
66.8618	654.65
66.8762	617.60
66.8907	580.37
66.9051	585.89
66.9195	586.56
66.9340	613.67
66.9484	622.51
66.9629	579.49
66.9773	607.64
66.9917	575.33
67.0062	596.00
67.0206	591.76
67.0351	604.87
67.0495	575.56
67.0639	549.49
67.0784	577.21
67.0928	613.98
67.1073	599.31
67.1217	549.52
67.1361	560.97
67.1506	552.98
67.1650	597.22
67.1795	609.46
67.1939	563.39
67.2083	568.24
67.2228	618.83
67.2372	603.68
67.2517	566.68
67.2661	550.16
67.2805	579.07
67.2950	569.94
67.3094	594.58
67.3239	564.77
67.3383	576.90
67.3527	567.14
67.3672	579.34
67.3816	596.00
67.3961	594.06
67.4105	591.74
67.4250	571.38
67.4394	583.27
67.4538	557.07
67.4683	571.08
67.4827	585.74
67.4972	583.05
67.5116	557.20
67.5260	573.70
67.5405	599.38
67.5549	589.48
67.5694	606.90
67.5838	602.23
67.5982	613.80
67.6127	600.00
67.6271	586.49
67.6416	580.92
67.6560	561.31
67.6704	576.11
67.6849	549.01
67.6993	587.06
67.7138	586.81
67.7282	555.05
67.7426	593.86
67.7571	573.65
67.7715	562.74
67.7860	602.51
67.8004	600.48
67.8148	612.01
67.8293	581.45
67.8437	579.00
67.8582	576.06
67.8726	547.42
67.8870	544.13
67.9015	558.54
67.9159	565.22
67.9304	530.33
67.9448	588.97
67.9592	572.09
67.9737	561.42
67.9881	609.86
68.0026	559.36
68.0170	566.35
68.0314	610.12
68.0459	549.58
68.0603	606.36
68.0748	610.79
68.0892	569.10
68.1036	578.53
68.1181	609.56
68.1325	585.16
68.1470	565.35
68.1614	546.23
68.1758	582.32
68.1903	590.52
68.2047	533.91
68.2192	574.75
68.2336	656.83
68.2480	573.63
68.2625	576.88
68.2769	555.64
68.2914	573.78
68.3058	555.20
68.3202	566.76
68.3347	588.82
68.3491	583.99
68.3636	588.33
68.3780	617.19
68.3924	569.97
68.4069	592.33
68.4213	569.92
68.4358	581.19
68.4502	596.12
68.4646	600.33
68.4791	590.64
68.4935	608.65
68.5080	570.80
68.5224	558.01
68.5368	608.01
68.5513	550.70
68.5657	586.47
68.5802	550.42
68.5946	550.28
68.6090	569.63
68.6235	567.88
68.6379	577.02
68.6524	587.37
68.6668	586.41
68.6812	586.53
68.6957	592.94
68.7101	602.36
68.7246	620.37
68.7390	587.87
68.7534	616.54
68.7679	540.82
68.7823	601.34
68.7968	571.55
68.8112	565.12
68.8256	568.13
68.8401	524.64
68.8545	569.50
68.8690	589.93
68.8834	557.64
68.8978	577.04
68.9123	593.56
68.9267	552.54
68.9412	627.15
68.9556	563.82
68.9700	545.48
68.9845	578.32
68.9989	574.57
69.0134	549.24
69.0278	555.32
69.0422	561.65
69.0567	560.06
69.0711	572.95
69.0856	542.45
69.1000	625.76
69.1144	554.55
69.1289	581.44
69.1433	561.44
69.1578	608.49
69.1722	581.05
69.1866	602.48
69.2011	588.52
69.2155	587.54
69.2300	591.56
69.2444	594.41
69.2588	582.78
69.2733	626.70
69.2877	571.00
69.3022	530.50
69.3166	561.16
69.3310	589.04
69.3455	591.81
69.3599	573.72
69.3744	579.72
69.3888	528.67
69.4032	566.57
69.4177	546.28
69.4321	561.19
69.4466	567.63
69.4610	560.80
69.4754	614.53
69.4899	565.37
69.5043	548.88
69.5188	575.65
69.5332	610.60
69.5476	591.28
69.5621	576.94
69.5765	555.43
69.5910	546.25
69.6054	552.04
69.6198	563.59
69.6343	557.02
69.6487	640.71
69.6632	612.47
69.6776	608.65
69.6920	551.72
69.7065	581.31
69.7209	589.06
69.7354	550.37
69.7498	608.30
69.7642	615.35
69.7787	620.30
69.7931	566.43
69.8076	560.68
69.8220	579.44
69.8364	604.61
69.8509	563.82
69.8653	570.97
69.8798	604.49
69.8942	597.78
69.9086	545.85
69.9231	630.46
69.9375	606.36
69.9520	557.58
69.9664	583.82
69.9808	557.64
69.9953	547.52
70.0097	568.59
70.0242	575.00
70.0386	586.66
70.0530	584.05
70.0675	520.87
70.0819	544.44
70.0964	578.16
70.1108	602.53
70.1252	610.02
70.1397	566.87
70.1541	555.91
70.1686	686.35
70.1830	635.37
70.1974	510.12
70.2119	600.67
70.2263	569.80
70.2408	608.76
70.2552	572.08
70.2696	578.02
70.2841	534.43
70.2985	579.18
70.3130	536.25
70.3274	558.87
70.3418	570.21
70.3563	636.96
70.3707	619.93
70.3852	615.78
70.3996	543.40
70.4140	509.19
70.4285	640.84
70.4429	590.13
70.4574	555.49
70.4718	558.61
70.4862	541.05
70.5007	558.02
70.5151	566.13
70.5296	574.63
70.5440	587.57
70.5584	586.07
70.5729	574.06
70.5873	535.58
70.6018	526.33
70.6162	537.47
70.6306	600.32
70.6451	581.85
70.6595	600.90
70.6740	569.97
70.6884	582.46
70.7028	586.29
70.7173	592.05
70.7317	573.29
70.7462	617.48
70.7606	645.16
70.7750	640.85
70.7895	570.75
70.8039	544.87
70.8184	579.27
70.8328	598.90
70.8472	601.27
70.8617	572.75
70.8761	558.79
70.8906	564.16
70.9050	607.73
70.9194	592.98
70.9339	573.55
70.9483	558.39
70.9628	599.84
70.9772	575.75
70.9916	541.45
71.0061	533.92
71.0205	544.26
71.0350	523.21
71.0494	525.69
71.0638	581.29
71.0783	577.61
71.0927	588.60
71.1072	579.90
71.1216	558.92
71.1361	574.89
71.1505	586.58
71.1649	565.20
71.1794	563.48
71.1938	597.56
71.2083	562.63
71.2227	498.44
71.2371	544.48
71.2516	548.22
71.2660	573.67
71.2805	559.52
71.2949	559.12
71.3093	561.48
71.3238	574.38
71.3382	570.02
71.3527	543.03
71.3671	594.86
71.3815	567.01
71.3960	538.13
71.4104	557.45
71.4249	635.50
71.4393	575.11
71.4537	518.23
71.4682	561.70
71.4826	568.43
71.4971	563.74
71.5115	578.84
71.5259	598.78
71.5404	611.12
71.5548	547.85
71.5693	562.90
71.5837	624.94
71.5981	560.51
71.6126	510.92
71.6270	539.35
71.6415	573.79
71.6559	622.62
71.6703	657.11
71.6848	575.20
71.6992	587.65
71.7137	566.40
71.7281	570.82
71.7425	616.74
71.7570	600.65
71.7714	613.26
71.7859	593.80
71.8003	595.67
71.8147	596.51
71.8292	553.09
71.8436	545.67
71.8581	557.49
71.8725	550.03
71.8869	466.08
71.9014	584.12
71.9158	652.33
71.9303	558.38
71.9447	546.51
71.9591	579.28
71.9736	599.78
71.9880	597.24
72.0025	519.17
72.0169	579.85
72.0313	726.41
72.0458	645.05
72.0602	578.66
72.0747	485.15
72.0891	520.58
72.1035	586.64
72.1180	514.89
72.1324	592.97
72.1469	641.43
72.1613	571.55
72.1757	515.56
72.1902	524.90
72.2046	625.51
72.2191	631.14
72.2335	552.55
72.2479	578.90
72.2624	601.89
72.2768	591.52
72.2913	584.01
72.3057	623.48
72.3201	598.38
72.3346	527.03
72.3490	518.58
72.3635	583.53
72.3779	594.40
72.3923	552.54
72.4068	533.04
72.4212	594.20
72.4357	612.48
72.4501	563.34
72.4645	572.17
72.4790	560.32
72.4934	542.76
72.5079	588.29
72.5223	556.98
72.5367	573.82
72.5512	591.66
72.5656	585.83
72.5801	491.87
72.5945	454.32
72.6089	496.38
72.6234	522.80
72.6378	522.95
72.6523	565.40
72.6667	515.25
72.6811	514.17
72.6956	554.95
72.7100	560.55
72.7245	542.56
72.7389	602.41
72.7533	605.48
72.7678	633.49
72.7822	637.67
72.7967	638.82
72.8111	594.89
72.8255	577.86
72.8400	485.82
72.8544	489.98
72.8689	615.01
72.8833	628.20