2022.09.19 19:37:16
Îáðàçåö: ß÷åéêà LCoV 16-09-2022
Lambda1 = 1.54060
Lambda2 = 1.54439
Lambdam = 1.54186
R = 0.497
2Theta	I

line¹ 0 ;repeat¹ 0
22.1120	510.81
22.1264	596.23
22.1409	573.57
22.1553	564.76
22.1697	556.68
22.1842	586.18
22.1986	623.41
22.2131	614.96
22.2275	630.67
22.2419	563.22
22.2564	604.99
22.2708	612.32
22.2853	654.81
22.2997	624.18
22.3141	608.00
22.3286	569.80
22.3430	629.87
22.3575	588.93
22.3719	600.72
22.3863	535.23
22.4008	581.28
22.4152	685.92
22.4297	725.75
22.4441	634.52
22.4585	580.09
22.4730	552.46
22.4874	558.63
22.5019	556.60
22.5163	602.07
22.5307	540.46
22.5452	600.80
22.5596	571.05
22.5741	517.91
22.5885	509.05
22.6029	494.62
22.6174	637.46
22.6318	577.54
22.6463	585.24
22.6607	650.04
22.6751	552.83
22.6896	540.53
22.7040	620.42
22.7185	558.90
22.7329	563.31
22.7473	646.51
22.7618	590.52
22.7762	552.09
22.7907	559.45
22.8051	560.28
22.8195	536.96
22.8340	641.18
22.8484	620.95
22.8629	572.07
22.8773	539.22
22.8917	569.34
22.9062	562.15
22.9206	553.49
22.9351	573.78
22.9495	520.43
22.9639	523.41
22.9784	477.83
22.9928	431.88
23.0073	581.67
23.0217	634.66
23.0361	562.39
23.0506	566.90
23.0650	638.82
23.0795	581.88
23.0939	520.03
23.1083	529.10
23.1228	589.45
23.1372	603.54
23.1517	547.02
23.1661	557.40
23.1806	548.97
23.1950	571.26
23.2094	495.20
23.2239	531.08
23.2383	553.43
23.2528	565.19
23.2672	551.65
23.2816	656.03
23.2961	557.97
23.3105	596.89
23.3250	604.70
23.3394	526.84
23.3538	547.36
23.3683	482.27
23.3827	543.91
23.3972	490.44
23.4116	558.12
23.4260	574.91
23.4405	529.05
23.4549	535.39
23.4694	518.81
23.4838	489.84
23.4982	495.39
23.5127	528.36
23.5271	534.32
23.5416	525.19
23.5560	540.94
23.5704	556.07
23.5849	574.47
23.5993	550.22
23.6138	564.88
23.6282	486.35
23.6426	513.85
23.6571	533.32
23.6715	507.08
23.6860	579.13
23.7004	553.58
23.7148	573.19
23.7293	598.04
23.7437	514.54
23.7582	600.46
23.7726	510.49
23.7870	620.73
23.8015	539.40
23.8159	493.72
23.8304	605.41
23.8448	527.04
23.8592	519.77
23.8737	518.17
23.8881	515.13
23.9026	567.73
23.9170	580.75
23.9314	536.52
23.9459	589.24
23.9603	568.30
23.9748	542.22
23.9892	559.04
24.0036	535.31
24.0181	556.92
24.0325	569.27
24.0470	601.88
24.0614	599.65
24.0758	498.42
24.0903	561.34
24.1047	566.85
24.1192	559.10
24.1336	513.66
24.1480	531.32
24.1625	594.29
24.1769	649.67
24.1914	557.55
24.2058	578.85
24.2202	563.66
24.2347	600.30
24.2491	571.77
24.2636	530.41
24.2780	608.51
24.2924	588.75
24.3069	551.46
24.3213	583.25
24.3358	555.06
24.3502	571.16
24.3646	514.98
24.3791	571.78
24.3935	550.18
24.4080	570.74
24.4224	553.80
24.4368	531.20
24.4513	506.80
24.4657	495.97
24.4802	502.90
24.4946	571.59
24.5090	518.89
24.5235	568.88
24.5379	566.20
24.5524	525.47
24.5668	536.11
24.5812	538.34
24.5957	535.53
24.6101	571.75
24.6246	554.32
24.6390	572.21
24.6534	580.95
24.6679	531.32
24.6823	572.40
24.6968	531.13
24.7112	604.11
24.7256	513.74
24.7401	547.20
24.7545	632.94
24.7690	566.60
24.7834	577.29
24.7978	564.22
24.8123	490.62
24.8267	526.92
24.8412	558.02
24.8556	547.65
24.8700	521.84
24.8845	570.81
24.8989	598.76
24.9134	515.20
24.9278	565.10
24.9422	558.23
24.9567	556.33
24.9711	535.39
24.9856	549.95
25.0000	544.53
25.0144	591.40
25.0289	598.88
25.0433	565.26
25.0578	537.05
25.0722	567.69
25.0866	544.23
25.1011	533.30
25.1155	522.62
25.1300	565.27
25.1444	543.61
25.1588	577.44
25.1733	571.41
25.1877	531.45
25.2022	505.22
25.2166	544.16
25.2310	513.29
25.2455	503.52
25.2599	502.87
25.2744	512.77
25.2888	509.00
25.3032	558.82
25.3177	540.28
25.3321	531.38
25.3466	560.27
25.3610	565.02
25.3754	542.41
25.3899	548.02
25.4043	539.66
25.4188	547.36
25.4332	529.33
25.4476	567.42
25.4621	556.30
25.4765	554.70
25.4910	537.15
25.5054	546.74
25.5198	562.33
25.5343	582.39
25.5487	542.14
25.5632	565.85
25.5776	553.99
25.5920	598.84
25.6065	579.43
25.6209	574.63
25.6354	538.32
25.6498	540.28
25.6642	527.97
25.6787	520.34
25.6931	541.23
25.7076	463.57
25.7220	542.55
25.7364	565.84
25.7509	587.28
25.7653	570.73
25.7798	586.96
25.7942	575.90
25.8086	576.30
25.8231	567.63
25.8375	512.34
25.8520	543.47
25.8664	519.54
25.8808	560.44
25.8953	558.66
25.9097	543.24
25.9242	549.89
25.9386	530.90
25.9530	531.20
25.9675	505.70
25.9819	528.66
25.9964	534.97
26.0108	540.76
26.0252	528.63
26.0397	527.56
26.0541	530.55
26.0686	551.15
26.0830	554.40
26.0974	477.01
26.1119	532.86
26.1263	576.90
26.1408	546.92
26.1552	554.78
26.1696	546.80
26.1841	528.69
26.1985	535.16
26.2130	533.95
26.2274	548.47
26.2418	530.92
26.2563	503.55
26.2707	540.51
26.2852	530.34
26.2996	541.25
26.3140	568.52
26.3285	536.10
26.3429	513.36
26.3574	511.56
26.3718	550.76
26.3862	551.08
26.4007	515.46
26.4151	515.96
26.4296	582.70
26.4440	528.41
26.4584	522.24
26.4729	584.77
26.4873	540.66
26.5018	554.76
26.5162	553.70
26.5306	545.87
26.5451	556.21
26.5595	520.12
26.5740	515.67
26.5884	532.99
26.6028	560.63
26.6173	547.47
26.6317	525.59
26.6462	536.74
26.6606	542.62
26.6750	528.86
26.6895	539.27
26.7039	539.52
26.7184	543.72
26.7328	535.65
26.7472	548.11
26.7617	561.89
26.7761	521.59
26.7906	526.24
26.8050	511.30
26.8194	516.97
26.8339	529.56
26.8483	531.46
26.8628	566.11
26.8772	552.12
26.8917	531.91
26.9061	520.85
26.9205	504.35
26.9350	509.71
26.9494	529.43
26.9639	546.21
26.9783	531.31
26.9927	522.49
27.0072	529.05
27.0216	547.14
27.0361	558.31
27.0505	558.93
27.0649	501.65
27.0794	493.76
27.0938	518.68
27.1083	532.25
27.1227	537.07
27.1371	537.16
27.1516	518.93
27.1660	548.82
27.1805	535.37
27.1949	519.92
27.2093	497.96
27.2238	520.04
27.2382	543.32
27.2527	509.25
27.2671	500.54
27.2815	529.54
27.2960	495.13
27.3104	496.25
27.3249	515.09
27.3393	507.54
27.3537	504.98
27.3682	522.33
27.3826	551.59
27.3971	523.98
27.4115	540.23
27.4259	542.18
27.4404	539.10
27.4548	522.54
27.4693	492.94
27.4837	493.22
27.4981	522.28
27.5126	515.16
27.5270	546.61
27.5415	511.18
27.5559	481.83
27.5703	530.86
27.5848	520.57
27.5992	546.77
27.6137	509.88
27.6281	532.54
27.6425	502.64
27.6570	516.67
27.6714	526.16
27.6859	517.49
27.7003	534.19
27.7147	518.02
27.7292	500.63
27.7436	527.34
27.7581	548.63
27.7725	509.48
27.7869	523.63
27.8014	516.26
27.8158	515.38
27.8303	541.16
27.8447	531.69
27.8591	552.29
27.8736	528.44
27.8880	492.11
27.9025	536.77
27.9169	533.96
27.9313	496.64
27.9458	493.63
27.9602	542.62
27.9747	518.13
27.9891	539.65
28.0035	534.06
28.0180	517.14
28.0324	503.62
28.0469	511.09
28.0613	530.92
28.0757	538.62
28.0902	505.72
28.1046	528.70
28.1191	527.96
28.1335	519.33
28.1479	461.62
28.1624	486.64
28.1768	527.41
28.1913	495.99
28.2057	523.70
28.2201	530.69
28.2346	502.85
28.2490	533.54
28.2635	501.65
28.2779	539.93
28.2923	482.31
28.3068	476.05
28.3212	544.71
28.3357	516.22
28.3501	498.55
28.3645	520.37
28.3790	478.99
28.3934	477.56
28.4079	483.90
28.4223	531.05
28.4367	528.54
28.4512	506.80
28.4656	530.30
28.4801	489.20
28.4945	506.55
28.5089	511.75
28.5234	509.71
28.5378	551.54
28.5523	553.12
28.5667	535.14
28.5811	515.24
28.5956	536.59
28.6100	519.33
28.6245	523.12
28.6389	510.82
28.6533	506.43
28.6678	495.34
28.6822	476.91
28.6967	497.83
28.7111	516.76
28.7255	512.72
28.7400	513.34
28.7544	498.03
28.7689	480.40
28.7833	477.05
28.7977	510.36
28.8122	510.55
28.8266	545.46
28.8411	502.83
28.8555	502.32
28.8699	519.71
28.8844	471.09
28.8988	486.50
28.9133	512.46
28.9277	507.92
28.9421	517.91
28.9566	516.54
28.9710	493.43
28.9855	506.78
28.9999	495.85
29.0143	548.56
29.0288	518.36
29.0432	530.53
29.0577	478.70
29.0721	509.50
29.0865	519.85
29.1010	546.71
29.1154	520.69
29.1299	497.87
29.1443	491.08
29.1587	518.25
29.1732	521.07
29.1876	496.13
29.2021	507.31
29.2165	500.64
29.2309	501.90
29.2454	500.39
29.2598	454.93
29.2743	521.85
29.2887	526.79
29.3031	536.01
29.3176	523.31
29.3320	549.17
29.3465	512.93
29.3609	537.94
29.3753	503.49
29.3898	491.18
29.4042	491.95
29.4187	473.06
29.4331	524.65
29.4475	488.28
29.4620	499.94
29.4764	513.04
29.4909	512.75
29.5053	524.42
29.5197	502.06
29.5342	516.59
29.5486	503.31
29.5631	524.37
29.5775	505.49
29.5919	510.30
29.6064	488.92
29.6208	496.98
29.6353	497.73
29.6497	516.56
29.6641	504.59
29.6786	510.93
29.6930	503.54
29.7075	503.97
29.7219	514.52
29.7363	520.45
29.7508	516.16
29.7652	496.96
29.7797	486.95
29.7941	481.66
29.8085	474.27
29.8230	531.02
29.8374	515.60
29.8519	513.40
29.8663	508.52
29.8807	517.06
29.8952	526.41
29.9096	484.12
29.9241	486.42
29.9385	527.29
29.9529	529.91
29.9674	459.14
29.9818	439.67
29.9963	488.25
30.0107	489.47
30.0251	521.28
30.0396	511.01
30.0540	484.45
30.0685	511.01
30.0829	539.00
30.0973	541.70
30.1118	487.46
30.1262	493.98
30.1407	504.20
30.1551	497.03
30.1695	473.25
30.1840	508.49
30.1984	533.76
30.2129	512.10
30.2273	535.95
30.2417	543.04
30.2562	503.60
30.2706	516.98
30.2851	506.37
30.2995	480.54
30.3139	505.12
30.3284	519.91
30.3428	517.97
30.3573	530.26
30.3717	516.22
30.3861	521.41
30.4006	496.32
30.4150	509.92
30.4295	557.95
30.4439	534.12
30.4583	543.17
30.4728	566.71
30.4872	565.04
30.5017	562.88
30.5161	596.99
30.5305	632.55
30.5450	655.07
30.5594	720.46
30.5739	736.53
30.5883	718.30
30.6028	756.69
30.6172	746.69
30.6316	715.95
30.6461	705.27
30.6605	702.09
30.6750	636.80
30.6894	614.81
30.7038	609.34
30.7183	584.72
30.7327	548.35
30.7472	570.95
30.7616	519.00
30.7760	526.08
30.7905	527.22
30.8049	527.39
30.8194	543.97
30.8338	559.78
30.8482	517.93
30.8627	538.62
30.8771	495.31
30.8916	498.95
30.9060	514.09
30.9204	492.91
30.9349	497.72
30.9493	496.53
30.9638	451.93
30.9782	482.32
30.9926	477.47
31.0071	488.87
31.0215	523.19
31.0360	522.02
31.0504	532.78
31.0648	519.90
31.0793	524.82
31.0937	537.37
31.1082	496.96
31.1226	485.58
31.1370	512.43
31.1515	504.15
31.1659	503.53
31.1804	509.66
31.1948	529.01
31.2092	530.16
31.2237	542.98
31.2381	505.75
31.2526	522.31
31.2670	524.32
31.2814	543.60
31.2959	537.32
31.3103	558.91
31.3248	552.50
31.3392	518.97
31.3536	531.89
31.3681	526.34
31.3825	524.00
31.3970	537.73
31.4114	492.44
31.4258	528.78
31.4403	535.02
31.4547	509.94
31.4692	512.85
31.4836	494.68
31.4980	489.78
31.5125	503.56
31.5269	508.08
31.5414	496.02
31.5558	505.52
31.5702	483.52
31.5847	529.48
31.5991	511.43
31.6136	476.34
31.6280	500.42
31.6424	479.75
31.6569	470.14
31.6713	496.12
31.6858	465.87
31.7002	474.99
31.7146	525.61
31.7291	502.16
31.7435	504.13
31.7580	485.41
31.7724	495.64
31.7868	486.11
31.8013	521.65
31.8157	521.26
31.8302	478.84
31.8446	504.16
31.8590	501.25
31.8735	558.71
31.8879	516.02
31.9024	489.22
31.9168	489.47
31.9312	542.99
31.9457	480.70
31.9601	496.30
31.9746	481.32
31.9890	483.62
32.0034	508.77
32.0179	513.20
32.0323	514.93
32.0468	519.04
32.0612	489.59
32.0756	510.02
32.0901	497.57
32.1045	517.51
32.1190	517.48
32.1334	498.23
32.1478	499.50
32.1623	511.75
32.1767	497.81
32.1912	494.05
32.2056	501.45
32.2200	492.11
32.2345	488.56
32.2489	507.78
32.2634	478.45
32.2778	494.82
32.2922	511.44
32.3067	501.90
32.3211	499.45
32.3356	492.17
32.3500	499.30
32.3644	465.45
32.3789	489.31
32.3933	494.72
32.4078	524.56
32.4222	498.38
32.4366	504.67
32.4511	521.61
32.4655	525.24
32.4800	514.51
32.4944	530.41
32.5088	492.62
32.5233	510.83
32.5377	497.68
32.5522	488.49
32.5666	503.02
32.5810	503.65
32.5955	497.56
32.6099	496.88
32.6244	461.53
32.6388	517.15
32.6532	497.40
32.6677	478.91
32.6821	504.05
32.6966	500.79
32.7110	553.00
32.7254	507.59
32.7399	489.40
32.7543	510.50
32.7688	495.66
32.7832	524.02
32.7976	530.26
32.8121	535.40
32.8265	502.93
32.8410	533.33
32.8554	512.62
32.8698	481.45
32.8843	492.63
32.8987	513.50
32.9132	520.64
32.9276	499.69
32.9420	514.74
32.9565	472.55
32.9709	472.08
32.9854	483.03
32.9998	491.80
33.0142	481.78
33.0287	500.46
33.0431	497.42
33.0576	476.70
33.0720	494.13
33.0864	523.13
33.1009	488.62
33.1153	516.06
33.1298	532.73
33.1442	507.67
33.1586	518.70
33.1731	570.02
33.1875	506.88
33.2020	514.08
33.2164	511.13
33.2308	497.14
33.2453	520.18
33.2597	520.19
33.2742	512.76
33.2886	488.79
33.3030	480.96
33.3175	470.08
33.3319	487.94
33.3464	448.77
33.3608	520.23
33.3752	513.83
33.3897	469.27
33.4041	485.63
33.4186	521.53
33.4330	524.79
33.4474	502.80
33.4619	471.67
33.4763	533.35
33.4908	502.51
33.5052	517.31
33.5196	495.18
33.5341	468.21
33.5485	487.37
33.5630	530.03
33.5774	503.18
33.5918	506.00
33.6063	518.40
33.6207	538.29
33.6352	489.26
33.6496	482.78
33.6640	508.06
33.6785	488.24
33.6929	503.42
33.7074	468.47
33.7218	492.93
33.7362	514.97
33.7507	525.60
33.7651	501.56
33.7796	510.40
33.7940	504.19
33.8084	498.61
33.8229	526.47
33.8373	505.82
33.8518	485.69
33.8662	513.26
33.8806	487.31
33.8951	474.47
33.9095	509.39
33.9240	496.21
33.9384	517.30
33.9528	519.13
33.9673	523.46
33.9817	515.96
33.9962	487.20
34.0106	498.93
34.0250	469.84
34.0395	490.89
34.0539	513.99
34.0684	526.42
34.0828	501.75
34.0972	526.13
34.1117	523.65
34.1261	537.85
34.1406	499.57
34.1550	495.07
34.1694	479.38
34.1839	499.79
34.1983	519.40
34.2128	515.17
34.2272	491.81
34.2417	508.61
34.2561	509.41
34.2705	492.27
34.2850	504.79
34.2994	507.32
34.3139	482.35
34.3283	485.25
34.3427	505.69
34.3572	529.16
34.3716	481.11
34.3861	502.68
34.4005	497.50
34.4149	496.49
34.4294	510.70
34.4438	508.40
34.4583	510.02
34.4727	503.15
34.4871	500.80
34.5016	490.70
34.5160	487.24
34.5305	507.43
34.5449	484.52
34.5593	508.78
34.5738	498.24
34.5882	500.27
34.6027	495.64
34.6171	498.58
34.6315	516.43
34.6460	513.46
34.6604	490.89
34.6749	474.89
34.6893	481.12
34.7037	525.23
34.7182	504.87
34.7326	499.44
34.7471	507.19
34.7615	489.97
34.7759	512.54
34.7904	523.83
34.8048	503.12
34.8193	499.90
34.8337	520.72
34.8481	484.80
34.8626	527.53
34.8770	536.92
34.8915	513.36
34.9059	519.45
34.9203	497.20
34.9348	504.52
34.9492	519.09
34.9637	510.61
34.9781	501.76
34.9925	525.15
35.0070	512.17
35.0214	517.45
35.0359	514.92
35.0503	510.50
35.0647	522.93
35.0792	488.27
35.0936	491.03
35.1081	523.31
35.1225	534.57
35.1369	525.33
35.1514	505.89
35.1658	495.40
35.1803	512.64
35.1947	519.55
35.2091	516.64
35.2236	523.35
35.2380	528.90
35.2525	489.61
35.2669	520.83
35.2813	552.50
35.2958	508.02
35.3102	510.75
35.3247	491.14
35.3391	505.97
35.3535	477.81
35.3680	494.45
35.3824	475.04
35.3969	506.00
35.4113	492.90
35.4257	520.84
35.4402	550.53
35.4546	534.95
35.4691	516.11
35.4835	542.59
35.4979	547.83
35.5124	514.06
35.5268	513.71
35.5413	505.87
35.5557	545.62
35.5701	531.76
35.5846	520.88
35.5990	531.30
35.6135	529.25
35.6279	536.26
35.6423	530.76
35.6568	541.10
35.6712	568.90
35.6857	609.32
35.7001	701.27
35.7145	749.17
35.7290	705.49
35.7434	650.96
35.7579	594.48
35.7723	557.88
35.7867	601.72
35.8012	653.74
35.8156	641.05
35.8301	640.21
35.8445	626.34
35.8589	697.97
35.8734	776.06
35.8878	920.83
35.9023	1029.34
35.9167	1144.64
35.9311	1303.83
35.9456	1932.27
35.9600	2502.07
35.9745	2338.99
35.9889	2468.91
36.0033	2814.61
36.0178	3017.41
36.0322	2522.86
36.0467	2463.72
36.0611	2272.28
36.0755	2047.56
36.0900	2011.16
36.1044	1771.87
36.1189	1691.57
36.1333	1567.08
36.1477	1238.45
36.1622	1187.73
36.1766	1144.98
36.1911	901.51
36.2055	805.45
36.2199	674.11
36.2344	665.23
36.2488	609.70
36.2633	574.34
36.2777	546.68
36.2921	534.27
36.3066	550.20
36.3210	537.81
36.3355	568.16
36.3499	552.56
36.3643	573.89
36.3788	557.49
36.3932	544.96
36.4077	539.35
36.4221	568.57
36.4365	539.94
36.4510	522.45
36.4654	493.78
36.4799	540.51
36.4943	555.41
36.5087	553.52
36.5232	535.93
36.5376	512.06
36.5521	515.35
36.5665	539.63
36.5809	539.49
36.5954	548.30
36.6098	516.13
36.6243	545.57
36.6387	538.10
36.6531	523.04
36.6676	550.57
36.6820	496.09
36.6965	498.48
36.7109	501.15
36.7253	531.62
36.7398	535.57
36.7542	556.48
36.7687	525.05
36.7831	548.45
36.7975	521.91
36.8120	557.74
36.8264	545.79
36.8409	578.92
36.8553	596.97
36.8697	580.67
36.8842	603.17
36.8986	630.11
36.9131	609.19
36.9275	611.13
36.9419	606.54
36.9564	548.69
36.9708	550.55
36.9853	561.62
36.9997	531.97
37.0141	570.79
37.0286	491.57
37.0430	501.66
37.0575	530.12
37.0719	537.37
37.0863	540.52
37.1008	534.26
37.1152	485.89
37.1297	523.68
37.1441	516.40
37.1585	499.95
37.1730	510.42
37.1874	487.51
37.2019	534.79
37.2163	522.57
37.2307	491.76
37.2452	495.67
37.2596	494.60
37.2741	469.13
37.2885	487.95
37.3029	493.32
37.3174	505.08
37.3318	501.50
37.3463	528.34
37.3607	517.63
37.3751	488.26
37.3896	513.48
37.4040	502.12
37.4185	500.81
37.4329	533.85
37.4473	519.91
37.4618	533.28
37.4762	529.03
37.4907	535.57
37.5051	536.87
37.5195	533.99
37.5340	518.79
37.5484	508.84
37.5629	492.72
37.5773	509.63
37.5917	517.56
37.6062	500.02
37.6206	493.38
37.6351	519.89
37.6495	517.17
37.6639	512.00
37.6784	504.77
37.6928	472.94
37.7073	512.45
37.7217	505.83
37.7361	484.70
37.7506	512.52
37.7650	510.66
37.7795	519.39
37.7939	484.42
37.8083	501.21
37.8228	523.47
37.8372	558.44
37.8517	517.44
37.8661	503.03
37.8805	519.54
37.8950	507.94
37.9094	491.58
37.9239	480.79
37.9383	477.83
37.9528	470.50
37.9672	486.97
37.9816	492.86
37.9961	508.94
38.0105	510.91
38.0250	525.87
38.0394	529.15
38.0538	493.26
38.0683	517.48
38.0827	533.85
38.0972	486.83
38.1116	526.05
38.1260	510.33
38.1405	490.98
38.1549	513.51
38.1694	530.30
38.1838	483.28
38.1982	481.66
38.2127	481.18
38.2271	503.97
38.2416	506.24
38.2560	499.03
38.2704	533.01
38.2849	538.95
38.2993	514.19
38.3138	530.34
38.3282	521.01
38.3426	488.87
38.3571	489.86
38.3715	479.03
38.3860	485.34
38.4004	497.25
38.4148	526.67
38.4293	586.68
38.4437	587.67
38.4582	586.59
38.4726	649.12
38.4870	672.00
38.5015	717.83
38.5159	760.82
38.5304	804.43
38.5448	779.66
38.5592	764.78
38.5737	775.15
38.5881	778.50
38.6026	723.99
38.6170	680.88
38.6314	678.46
38.6459	648.29
38.6603	612.92
38.6748	605.34
38.6892	596.29
38.7036	584.46
38.7181	539.17
38.7325	512.91
38.7470	552.77
38.7614	508.03
38.7758	512.86
38.7903	528.30
38.8047	539.13
38.8192	528.46
38.8336	519.93
38.8480	514.91
38.8625	471.46
38.8769	493.65
38.8914	513.49
38.9058	527.20
38.9202	547.70
38.9347	540.86
38.9491	515.16
38.9636	514.73
38.9780	499.62
38.9924	513.01
39.0069	472.85
39.0213	439.31
39.0358	508.20
39.0502	514.88
39.0646	528.08
39.0791	496.77
39.0935	530.28
39.1080	504.10
39.1224	512.75
39.1368	487.48
39.1513	498.10
39.1657	516.18
39.1802	517.12
39.1946	506.80
39.2090	501.73
39.2235	502.02
39.2379	508.16
39.2524	522.30
39.2668	495.75
39.2812	499.91
39.2957	530.80
39.3101	543.05
39.3246	493.89
39.3390	495.96
39.3534	487.85
39.3679	518.68
39.3823	510.58
39.3968	491.19
39.4112	486.77
39.4256	525.42
39.4401	501.45
39.4545	482.44
39.4690	490.32
39.4834	522.53
39.4978	495.82
39.5123	485.49
39.5267	524.37
39.5412	499.99
39.5556	522.59
39.5700	487.74
39.5845	501.01
39.5989	492.48
39.6134	497.38
39.6278	510.50
39.6422	495.88
39.6567	510.32
39.6711	531.60
39.6856	521.57
39.7000	533.87
39.7144	526.93
39.7289	498.40
39.7433	494.05
39.7578	470.14
39.7722	498.78
39.7866	515.31
39.8011	513.74
39.8155	513.14
39.8300	514.93
39.8444	533.13
39.8588	512.95
39.8733	509.72
39.8877	509.07
39.9022	526.91
39.9166	543.67
39.9310	525.96
39.9455	497.77
39.9599	485.70
39.9744	481.81
39.9888	518.30
40.0032	472.83
40.0177	494.86
40.0321	494.77
40.0466	475.25
40.0610	498.47
40.0754	492.06
40.0899	493.65
40.1043	483.79
40.1188	498.95
40.1332	483.03
40.1476	470.21
40.1621	515.82
40.1765	512.27
40.1910	514.10
40.2054	495.58
40.2198	477.40
40.2343	511.86
40.2487	498.61
40.2632	528.52
40.2776	513.08
40.2920	482.83
40.3065	490.98
40.3209	529.68
40.3354	520.15
40.3498	526.84
40.3642	515.32
40.3787	515.13
40.3931	485.66
40.4076	475.50
40.4220	496.23
40.4364	501.76
40.4509	463.15
40.4653	483.74
40.4798	538.67
40.4942	494.95
40.5086	500.13
40.5231	501.73
40.5375	489.18
40.5520	505.24
40.5664	491.19
40.5808	493.62
40.5953	491.08
40.6097	469.26
40.6242	486.67
40.6386	495.74
40.6530	488.37
40.6675	484.33
40.6819	471.20
40.6964	497.27
40.7108	526.00
40.7252	475.38
40.7397	484.16
40.7541	488.48
40.7686	514.44
40.7830	524.06
40.7974	487.91
40.8119	474.23
40.8263	476.06
40.8408	483.74
40.8552	491.49
40.8696	506.21
40.8841	504.54
40.8985	517.64
40.9130	477.22
40.9274	487.23
40.9418	498.76
40.9563	513.63
40.9707	471.00
40.9852	490.95
40.9996	505.77
41.0140	501.17
41.0285	494.21
41.0429	480.16
41.0574	463.87
41.0718	482.01
41.0862	493.16
41.1007	527.89
41.1151	528.16
41.1296	502.14
41.1440	519.99
41.1584	498.23
41.1729	517.63
41.1873	472.47
41.2018	509.47
41.2162	481.93
41.2306	494.81
41.2451	518.69
41.2595	529.26
41.2740	490.93
41.2884	515.84
41.3028	507.30
41.3173	506.67
41.3317	502.28
41.3462	513.76
41.3606	547.68
41.3750	501.47
41.3895	493.84
41.4039	512.59
41.4184	527.79
41.4328	519.44
41.4472	483.68
41.4617	492.01
41.4761	532.49
41.4906	498.06
41.5050	523.10
41.5194	489.43
41.5339	501.40
41.5483	491.35
41.5628	476.70
41.5772	511.73
41.5916	482.46
41.6061	542.80
41.6205	531.91
41.6350	516.84
41.6494	485.61
41.6639	522.30
41.6783	502.83
41.6927	517.13
41.7072	485.48
41.7216	511.90
41.7361	505.53
41.7505	501.42
41.7649	515.81
41.7794	522.07
41.7938	537.79
41.8083	516.85
41.8227	501.30
41.8371	503.31
41.8516	536.49
41.8660	527.96
41.8805	524.96
41.8949	548.82
41.9093	572.71
41.9238	539.58
41.9382	580.19
41.9527	552.26
41.9671	527.53
41.9815	551.41
41.9960	550.11
42.0104	598.60
42.0249	593.48
42.0393	565.33
42.0537	575.35
42.0682	541.37
42.0826	575.07
42.0971	600.70
42.1115	557.78
42.1259	574.41
42.1404	587.34
42.1548	617.82
42.1693	630.46
42.1837	681.81
42.1981	703.28
42.2126	797.38
42.2270	884.42
42.2415	1076.65
42.2559	1145.03
42.2703	1283.92
42.2848	1439.53
42.2992	1606.41
42.3137	1644.90
42.3281	1578.78
42.3425	1570.69
42.3570	1478.25
42.3714	1416.82
42.3859	1339.17
42.4003	1317.51
42.4147	1290.85
42.4292	1306.29
42.4436	1199.11
42.4581	1088.02
42.4725	973.18
42.4869	845.49
42.5014	750.88
42.5158	670.62
42.5303	692.03
42.5447	635.81
42.5591	583.03
42.5736	580.84
42.5880	583.95
42.6025	581.36
42.6169	504.95
42.6313	550.90
42.6458	566.50
42.6602	548.92
42.6747	521.32
42.6891	507.90
42.7035	577.67
42.7180	538.74
42.7324	543.13
42.7469	512.70
42.7613	504.35
42.7757	515.53
42.7902	490.69
42.8046	509.99
42.8191	532.21
42.8335	500.24
42.8479	515.23
42.8624	520.02
42.8768	529.55
42.8913	508.74
42.9057	506.49
42.9201	500.73
42.9346	504.64
42.9490	496.94
42.9635	516.45
42.9779	517.45
42.9923	534.29
43.0068	531.88
43.0212	531.90
43.0357	507.40
43.0501	495.03
43.0645	498.78
43.0790	521.84
43.0934	521.13
43.1079	487.37
43.1223	529.91
43.1367	494.92
43.1512	507.81
43.1656	554.42
43.1801	526.23
43.1945	514.22
43.2089	520.55
43.2234	514.17
43.2378	531.47
43.2523	506.98
43.2667	535.33
43.2811	536.10
43.2956	495.99
43.3100	529.89
43.3245	509.41
43.3389	531.29
43.3533	547.37
43.3678	509.36
43.3822	500.50
43.3967	523.01
43.4111	506.08
43.4255	507.91
43.4400	510.55
43.4544	505.83
43.4689	523.56
43.4833	535.86
43.4977	523.26
43.5122	519.96
43.5266	546.60
43.5411	542.31
43.5555	520.06
43.5699	534.11
43.5844	543.59
43.5988	547.78
43.6133	537.07
43.6277	502.44
43.6421	549.94
43.6566	530.26
43.6710	572.78
43.6855	541.97
43.6999	545.46
43.7143	595.95
43.7288	590.63
43.7432	598.49
43.7577	677.47
43.7721	642.77
43.7865	679.44
43.8010	694.74
43.8154	673.97
43.8299	658.96
43.8443	609.79
43.8587	596.34
43.8732	582.29
43.8876	610.39
43.9021	611.40
43.9165	594.38
43.9309	561.61
43.9454	536.66
43.9598	553.86
43.9743	520.91
43.9887	558.78
44.0031	509.33
44.0176	507.82
44.0320	549.15
44.0465	539.78
44.0609	520.49
44.0753	522.70
44.0898	527.69
44.1042	510.61
44.1187	485.69
44.1331	551.76
44.1475	510.09
44.1620	511.34
44.1764	522.17
44.1909	516.36
44.2053	518.35
44.2197	549.02
44.2342	524.40
44.2486	520.10
44.2631	515.38
44.2775	559.98
44.2919	499.17
44.3064	516.03
44.3208	567.81
44.3353	573.39
44.3497	554.55
44.3641	547.75
44.3786	541.72
44.3930	536.66
44.4075	538.35
44.4219	557.11
44.4363	565.09
44.4508	540.44
44.4652	598.97
44.4797	605.20
44.4941	593.69
44.5085	540.53
44.5230	573.27
44.5374	564.65
44.5519	568.76
44.5663	551.40
44.5807	592.95
44.5952	608.57
44.6096	584.52
44.6241	603.33
44.6385	561.32
44.6529	575.97
44.6674	566.25
44.6818	595.55
44.6963	611.87
44.7107	647.15
44.7251	705.28
44.7396	736.16
44.7540	800.48
44.7685	859.87
44.7829	884.49
44.7973	855.28
44.8118	854.28
44.8262	857.38
44.8407	814.96
44.8551	755.06
44.8695	737.01
44.8840	790.70
44.8984	718.96
44.9129	727.96
44.9273	740.33
44.9417	657.68
44.9562	641.49
44.9706	581.53
44.9851	552.24
44.9995	538.98
45.0139	556.22
45.0284	493.01
45.0428	534.32
45.0573	514.57
45.0717	528.07
45.0861	554.96
45.1006	539.51
45.1150	506.83
45.1295	555.54
45.1439	511.63
45.1583	520.69
45.1728	514.40
45.1872	513.21
45.2017	521.97
45.2161	488.00
45.2305	497.17
45.2450	522.68
45.2594	523.07
45.2739	518.72
45.2883	555.66
45.3028	481.61
45.3172	501.26
45.3316	506.77
45.3461	506.74
45.3605	499.74
45.3750	495.95
45.3894	509.64
45.4038	505.40
45.4183	532.89
45.4327	520.47
45.4472	468.99
45.4616	495.10
45.4760	492.04
45.4905	494.04
45.5049	504.20
45.5194	481.76
45.5338	488.18
45.5482	502.72
45.5627	517.59
45.5771	507.49
45.5916	494.25
45.6060	519.42
45.6204	502.95
45.6349	526.05
45.6493	494.09
45.6638	510.12
45.6782	540.26
45.6926	505.61
45.7071	546.44
45.7215	525.26
45.7360	508.79
45.7504	537.01
45.7648	509.26
45.7793	528.79
45.7937	488.58
45.8082	532.07
45.8226	505.27
45.8370	504.77
45.8515	508.25
45.8659	523.78
45.8804	509.36
45.8948	529.22
45.9092	534.14
45.9237	486.91
45.9381	479.87
45.9526	515.18
45.9670	468.75
45.9814	465.90
45.9959	465.44
46.0103	495.26
46.0248	512.13
46.0392	505.16
46.0536	490.69
46.0681	493.63
46.0825	488.45
46.0970	522.68
46.1114	484.46
46.1258	498.76
46.1403	535.58
46.1547	488.58
46.1692	482.90
46.1836	527.65
46.1980	490.93
46.2125	479.14
46.2269	484.95
46.2414	498.77
46.2558	491.47
46.2702	505.13
46.2847	520.37
46.2991	480.58
46.3136	464.84
46.3280	464.72
46.3424	481.54
46.3569	515.78
46.3713	497.48
46.3858	498.88
46.4002	505.09
46.4146	506.73
46.4291	532.14
46.4435	497.55
46.4580	481.55
46.4724	503.71
46.4868	509.73
46.5013	498.70
46.5157	474.01
46.5302	508.36
46.5446	516.09
46.5590	496.28
46.5735	500.55
46.5879	490.39
46.6024	511.88
46.6168	540.03
46.6312	502.00
46.6457	531.73
46.6601	534.89
46.6746	511.51
46.6890	480.41
46.7034	499.35
46.7179	520.39
46.7323	497.39
46.7468	483.65
46.7612	473.18
46.7756	490.45
46.7901	502.22
46.8045	482.67
46.8190	495.85
46.8334	529.49
46.8478	511.02
46.8623	526.08
46.8767	524.45
46.8912	483.72
46.9056	486.05
46.9200	515.03
46.9345	503.46
46.9489	510.86
46.9634	509.57
46.9778	519.27
46.9922	514.04
47.0067	502.77
47.0211	538.03
47.0356	511.50
47.0500	483.47
47.0644	504.50
47.0789	501.97
47.0933	519.48
47.1078	521.68
47.1222	518.06
47.1366	519.63
47.1511	501.36
47.1655	527.30
47.1800	515.05
47.1944	510.79
47.2088	521.53
47.2233	500.65
47.2377	525.96
47.2522	565.69
47.2666	499.94
47.2810	517.27
47.2955	513.39
47.3099	509.60
47.3244	521.97
47.3388	524.86
47.3532	497.02
47.3677	493.47
47.3821	513.03
47.3966	535.99
47.4110	506.27
47.4254	509.64
47.4399	492.79
47.4543	483.38
47.4688	527.38
47.4832	510.05
47.4976	534.30
47.5121	530.04
47.5265	538.07
47.5410	498.08
47.5554	520.35
47.5698	526.77
47.5843	470.08
47.5987	474.23
47.6132	512.04
47.6276	513.39
47.6420	489.88
47.6565	512.18
47.6709	524.76
47.6854	548.18
47.6998	544.61
47.7142	527.84
47.7287	498.58
47.7431	508.71
47.7576	526.40
47.7720	557.38
47.7864	538.38
47.8009	495.59
47.8153	502.24
47.8298	496.56
47.8442	492.32
47.8586	514.26
47.8731	514.94
47.8875	507.37
47.9020	479.25
47.9164	461.31
47.9308	487.27
47.9453	507.57
47.9597	533.02
47.9742	503.64
47.9886	536.15
48.0030	489.41
48.0175	516.57
48.0319	535.91
48.0464	537.21
48.0608	540.90
48.0752	499.86
48.0897	520.98
48.1041	514.07
48.1186	567.11
48.1330	517.07
48.1474	498.33
48.1619	465.33
48.1763	491.46
48.1908	502.96
48.2052	481.16
48.2196	490.88
48.2341	520.12
48.2485	529.88
48.2630	508.92
48.2774	487.91
48.2918	504.05
48.3063	500.59
48.3207	528.44
48.3352	490.23
48.3496	498.62
48.3640	484.37
48.3785	493.93
48.3929	491.21
48.4074	486.51
48.4218	554.60
48.4362	557.48
48.4507	511.77
48.4651	531.34
48.4796	509.87
48.4940	510.51
48.5084	515.02
48.5229	514.85
48.5373	505.23
48.5518	474.30
48.5662	547.44
48.5806	503.50
48.5951	511.03
48.6095	543.25
48.6240	495.75
48.6384	494.68
48.6528	516.17
48.6673	504.21
48.6817	508.75
48.6962	500.59
48.7106	541.52
48.7250	532.71
48.7395	532.96
48.7539	533.94
48.7684	495.02
48.7828	497.96
48.7972	507.85
48.8117	513.08
48.8261	517.56
48.8406	517.01
48.8550	500.23
48.8694	507.44
48.8839	539.67
48.8983	571.89
48.9128	565.34
48.9272	521.48
48.9416	575.17
48.9561	556.24
48.9705	554.09
48.9850	563.58
48.9994	596.16
49.0139	590.77
49.0283	586.54
49.0427	599.70
49.0572	541.60
49.0716	609.08
49.0861	665.78
49.1005	695.89
49.1149	731.35
49.1294	709.41
49.1438	734.72
49.1583	764.25
49.1727	816.66
49.1871	820.35
49.2016	904.22
49.2160	1009.38
49.2305	1019.39
49.2449	1114.65
49.2593	1181.82
49.2738	1224.61
49.2882	1307.22
49.3027	1384.87
49.3171	1554.59
49.3315	1627.40
49.3460	1700.15
49.3604	1781.80
49.3749	1700.29
49.3893	1698.91
49.4037	1715.37
49.4182	1653.84
49.4326	1762.49
49.4471	1609.75
49.4615	1592.38
49.4759	1538.00
49.4904	1452.46
49.5048	1408.39
49.5193	1337.15
49.5337	1324.19
49.5481	1197.06
49.5626	1148.34
49.5770	1071.73
49.5915	1005.18
49.6059	913.99
49.6203	867.71
49.6348	818.01
49.6492	760.31
49.6637	727.79
49.6781	727.47
49.6925	694.67
49.7070	698.00
49.7214	641.72
49.7359	621.05
49.7503	632.67
49.7647	593.88
49.7792	646.88
49.7936	594.35
49.8081	586.06
49.8225	568.28
49.8369	571.80
49.8514	568.51
49.8658	600.46
49.8803	542.32
49.8947	551.49
49.9091	537.32
49.9236	524.85
49.9380	518.20
49.9525	517.85
49.9669	544.79
49.9813	543.17
49.9958	540.94
50.0102	506.95
50.0247	524.96
50.0391	497.24
50.0535	515.27
50.0680	566.07
50.0824	512.02
50.0969	533.96
50.1113	565.19
50.1257	552.45
50.1402	506.96
50.1546	475.02
50.1691	561.33
50.1835	537.14
50.1979	515.85
50.2124	522.44
50.2268	493.18
50.2413	518.69
50.2557	523.08
50.2701	550.08
50.2846	545.63
50.2990	511.07
50.3135	499.33
50.3279	489.15
50.3423	492.32
50.3568	504.95
50.3712	515.12
50.3857	488.80
50.4001	498.74
50.4145	520.41
50.4290	538.11
50.4434	470.37
50.4579	494.94
50.4723	565.24
50.4867	532.04
50.5012	489.60
50.5156	508.69
50.5301	524.04
50.5445	503.13
50.5589	493.01
50.5734	483.99
50.5878	485.64
50.6023	531.79
50.6167	520.15
50.6311	500.05
50.6456	512.50
50.6600	481.51
50.6745	527.53
50.6889	539.01
50.7033	547.71
50.7178	514.41
50.7322	486.78
50.7467	490.79
50.7611	477.36
50.7755	504.98
50.7900	496.04
50.8044	518.47
50.8189	517.87
50.8333	517.23
50.8477	527.58
50.8622	535.09
50.8766	492.04
50.8911	505.76
50.9055	534.17
50.9199	494.19
50.9344	487.27
50.9488	476.52
50.9633	494.47
50.9777	513.76
50.9921	488.63
51.0066	480.86
51.0210	498.51
51.0355	541.68
51.0499	498.05
51.0643	487.98
51.0788	520.44
51.0932	525.94
51.1077	527.70
51.1221	527.69
51.1365	516.28
51.1510	488.45
51.1654	504.53
51.1799	537.11
51.1943	494.22
51.2087	488.28
51.2232	470.30
51.2376	485.50
51.2521	488.64
51.2665	525.47
51.2809	531.54
51.2954	521.74
51.3098	485.93
51.3243	483.07
51.3387	497.42
51.3531	548.76
51.3676	514.28
51.3820	503.62
51.3965	478.34
51.4109	479.06
51.4253	500.75
51.4398	522.71
51.4542	508.19
51.4687	535.49
51.4831	536.58
51.4975	530.48
51.5120	496.45
51.5264	519.41
51.5409	511.13
51.5553	534.33
51.5697	535.58
51.5842	537.12
51.5986	489.47
51.6131	492.49
51.6275	513.75
51.6419	477.05
51.6564	546.35
51.6708	503.82
51.6853	506.40
51.6997	539.32
51.7141	537.49
51.7286	500.34
51.7430	483.91
51.7575	534.39
51.7719	471.92
51.7863	499.32
51.8008	502.32
51.8152	484.95
51.8297	546.37
51.8441	515.83
51.8585	535.67
51.8730	522.79
51.8874	511.68
51.9019	517.18
51.9163	514.74
51.9307	509.62
51.9452	474.93
51.9596	519.29
51.9741	553.39
51.9885	538.92
52.0029	495.31
52.0174	512.85
52.0318	496.57
52.0463	468.59
52.0607	506.86
52.0751	464.15
52.0896	515.49
52.1040	537.86
52.1185	532.30
52.1329	498.61
52.1473	509.48
52.1618	526.81
52.1762	518.08
52.1907	531.34
52.2051	525.83
52.2195	522.01
52.2340	482.71
52.2484	522.85
52.2629	504.38
52.2773	554.17
52.2917	529.63
52.3062	510.18
52.3206	530.24
52.3351	526.33
52.3495	480.13
52.3639	488.42
52.3784	503.67
52.3928	499.08
52.4073	518.54
52.4217	560.85
52.4361	521.27
52.4506	514.26
52.4650	516.78
52.4795	516.38
52.4939	494.40
52.5083	524.28
52.5228	529.96
52.5372	524.27
52.5517	493.72
52.5661	510.44
52.5805	522.03
52.5950	501.41
52.6094	500.94
52.6239	487.96
52.6383	496.95
52.6527	493.65
52.6672	499.33
52.6816	492.26
52.6961	495.19
52.7105	530.61
52.7250	495.24
52.7394	523.00
52.7538	504.05
52.7683	511.39
52.7827	491.26
52.7972	484.83
52.8116	561.07
52.8260	492.79
52.8405	510.75
52.8549	518.48
52.8694	516.05
52.8838	517.06
52.8982	538.24
52.9127	518.64
52.9271	493.49
52.9416	529.70
52.9560	510.63
52.9704	514.83
52.9849	494.70
52.9993	493.35
53.0138	458.86
53.0282	500.35
53.0426	537.06
53.0571	496.96
53.0715	525.28
53.0860	559.25
53.1004	506.89
53.1148	486.23
53.1293	517.16
53.1437	530.62
53.1582	473.71
53.1726	502.94
53.1870	488.87
53.2015	535.97
53.2159	511.91
53.2304	528.18
53.2448	526.85
53.2592	502.10
53.2737	522.24
53.2881	512.51
53.3026	517.76
53.3170	511.53
53.3314	498.28
53.3459	511.01
53.3603	505.87
53.3748	515.98
53.3892	523.95
53.4036	477.27
53.4181	499.82
53.4325	531.05
53.4470	505.39
53.4614	487.16
53.4758	532.54
53.4903	529.18
53.5047	531.52
53.5192	528.35
53.5336	539.95
53.5480	509.86
53.5625	527.00
53.5769	525.21
53.5914	513.69
53.6058	539.00
53.6202	519.39
53.6347	518.88
53.6491	527.42
53.6636	521.74
53.6780	512.85
53.6924	507.30
53.7069	471.43
53.7213	501.37
53.7358	504.22
53.7502	544.79
53.7646	524.15
53.7791	529.51
53.7935	526.78
53.8080	505.78
53.8224	506.49
53.8368	514.38
53.8513	544.54
53.8657	524.75
53.8802	501.71
53.8946	534.31
53.9090	549.45
53.9235	536.54
53.9379	507.05
53.9524	486.96
53.9668	474.42
53.9812	496.32
53.9957	518.32
54.0101	528.67
54.0246	505.41
54.0390	506.06
54.0534	505.82
54.0679	527.68
54.0823	532.42
54.0968	540.73
54.1112	545.60
54.1256	532.85
54.1401	514.42
54.1545	498.27
54.1690	525.70
54.1834	532.23
54.1978	552.97
54.2123	576.73
54.2267	555.57
54.2412	560.36
54.2556	599.45
54.2700	625.25
54.2845	632.63
54.2989	594.83
54.3134	647.01
54.3278	621.28
54.3422	599.77
54.3567	619.82
54.3711	619.85
54.3856	568.03
54.4000	558.28
54.4144	561.15
54.4289	603.15
54.4433	538.10
54.4578	583.64
54.4722	599.10
54.4866	601.87
54.5011	563.51
54.5155	551.34
54.5300	592.53
54.5444	572.51
54.5588	538.92
54.5733	505.01
54.5877	515.51
54.6022	515.06
54.6166	508.94
54.6310	517.91
54.6455	504.54
54.6599	509.60
54.6744	530.86
54.6888	538.38
54.7032	543.22
54.7177	568.55
54.7321	508.74
54.7466	520.47
54.7610	523.07
54.7754	516.74
54.7899	512.78
54.8043	512.84
54.8188	505.74
54.8332	516.20
54.8476	501.46
54.8621	518.02
54.8765	540.60
54.8910	521.26
54.9054	509.31
54.9198	497.18
54.9343	515.05
54.9487	490.56
54.9632	493.53
54.9776	485.76
54.9920	488.30
55.0065	516.49
55.0209	538.45
55.0354	534.50
55.0498	519.09
55.0642	503.55
55.0787	539.00
55.0931	538.33
55.1076	499.75
55.1220	502.04
55.1364	509.62
55.1509	482.75
55.1653	561.10
55.1798	551.65
55.1942	545.76
55.2086	514.14
55.2231	519.31
55.2375	500.04
55.2520	541.22
55.2664	497.65
55.2808	511.59
55.2953	509.14
55.3097	495.22
55.3242	508.37
55.3386	543.63
55.3530	513.30
55.3675	521.71
55.3819	480.91
55.3964	519.43
55.4108	519.63
55.4252	531.48
55.4397	488.37
55.4541	503.58
55.4686	556.64
55.4830	551.89
55.4974	523.77
55.5119	557.54
55.5263	536.42
55.5408	550.10
55.5552	534.53
55.5696	518.71
55.5841	554.85
55.5985	543.03
55.6130	531.06
55.6274	552.47
55.6418	533.80
55.6563	518.72
55.6707	540.91
55.6852	488.33
55.6996	508.96
55.7140	493.74
55.7285	506.76
55.7429	532.36
55.7574	532.14
55.7718	500.46
55.7862	528.24
55.8007	532.01
55.8151	556.31
55.8296	543.34
55.8440	513.20
55.8584	543.49
55.8729	527.18
55.8873	524.57
55.9018	515.63
55.9162	500.59
55.9306	525.35
55.9451	507.50
55.9595	492.71
55.9740	528.25
55.9884	563.93
56.0028	567.94
56.0173	517.04
56.0317	526.14
56.0462	481.54
56.0606	531.16
56.0750	520.81
56.0895	514.12
56.1039	479.19
56.1184	529.18
56.1328	518.11
56.1472	497.11
56.1617	491.38
56.1761	551.20
56.1906	520.53
56.2050	547.17
56.2194	545.62
56.2339	517.10
56.2483	527.38
56.2628	502.69
56.2772	512.84
56.2916	517.78
56.3061	502.58
56.3205	507.43
56.3350	574.12
56.3494	502.63
56.3639	505.71
56.3783	503.12
56.3927	523.58
56.4072	489.38
56.4216	507.48
56.4361	522.50
56.4505	483.14
56.4649	524.45
56.4794	540.40
56.4938	547.62
56.5083	550.94
56.5227	536.82
56.5371	526.51
56.5516	491.51
56.5660	525.94
56.5805	516.43
56.5949	509.72
56.6093	527.52
56.6238	505.15
56.6382	503.67
56.6527	539.59
56.6671	541.81
56.6815	532.96
56.6960	543.52
56.7104	530.41
56.7249	535.41
56.7393	522.28
56.7537	526.37
56.7682	496.45
56.7826	518.48
56.7971	532.74
56.8115	493.87
56.8259	488.57
56.8404	497.32
56.8548	532.46
56.8693	516.39
56.8837	531.35
56.8981	492.30
56.9126	497.06
56.9270	514.69
56.9415	526.83
56.9559	538.15
56.9703	485.09
56.9848	522.78
56.9992	539.40
57.0137	498.19
57.0281	514.63
57.0425	478.03
57.0570	530.03
57.0714	515.26
57.0859	550.29
57.1003	522.07
57.1147	473.92
57.1292	516.50
57.1436	478.96
57.1581	514.12
57.1725	513.14
57.1869	507.73
57.2014	503.46
57.2158	531.90
57.2303	504.76
57.2447	498.99
57.2591	495.47
57.2736	523.36
57.2880	538.23
57.3025	559.95
57.3169	510.75
57.3313	548.29
57.3458	546.58
57.3602	534.13
57.3747	514.02
57.3891	530.77
57.4035	495.76
57.4180	525.30
57.4324	548.15
57.4469	526.82
57.4613	531.95
57.4757	572.28
57.4902	542.52
57.5046	517.43
57.5191	538.94
57.5335	549.90
57.5479	588.51
57.5624	547.46
57.5768	512.82
57.5913	490.02
57.6057	515.49
57.6201	494.56
57.6346	542.75
57.6490	524.54
57.6635	525.31
57.6779	519.20
57.6923	540.22
57.7068	560.88
57.7212	567.05
57.7357	548.60
57.7501	530.94
57.7645	567.31
57.7790	586.80
57.7934	554.22
57.8079	572.05
57.8223	584.27
57.8367	620.72
57.8512	629.57
57.8656	654.34
57.8801	677.16
57.8945	717.46
57.9089	676.52
57.9234	708.97
57.9378	746.57
57.9523	691.99
57.9667	674.52
57.9811	672.43
57.9956	658.39
58.0100	639.33
58.0245	687.28
58.0389	670.57
58.0533	668.79
58.0678	678.39
58.0822	681.18
58.0967	682.60
58.1111	652.96
58.1255	652.30
58.1400	613.38
58.1544	632.54
58.1689	590.80
58.1833	574.03
58.1977	570.39
58.2122	545.98
58.2266	549.62
58.2411	580.02
58.2555	568.15
58.2699	566.31
58.2844	565.99
58.2988	555.70
58.3133	546.37
58.3277	568.75
58.3421	572.91
58.3566	568.88
58.3710	551.11
58.3855	556.35
58.3999	551.36
58.4143	543.57
58.4288	550.89
58.4432	533.97
58.4577	527.39
58.4721	559.75
58.4865	563.80
58.5010	528.73
58.5154	525.35
58.5299	529.11
58.5443	525.86
58.5587	508.63
58.5732	516.47
58.5876	548.81
58.6021	535.75
58.6165	516.20
58.6309	539.95
58.6454	531.93
58.6598	513.73
58.6743	512.15
58.6887	532.74
58.7031	538.97
58.7176	526.43
58.7320	551.48
58.7465	541.12
58.7609	520.94
58.7753	542.25
58.7898	524.67
58.8042	533.33
58.8187	564.61
58.8331	519.83
58.8475	515.28
58.8620	549.16
58.8764	531.86
58.8909	512.24
58.9053	565.54
58.9197	538.12
58.9342	521.65
58.9486	524.12
58.9631	525.78
58.9775	539.94
58.9919	549.38
59.0064	535.99
59.0208	537.51
59.0353	516.70
59.0497	526.80
59.0641	540.69
59.0786	546.28
59.0930	536.08
59.1075	533.18
59.1219	530.70
59.1363	511.41
59.1508	512.89
59.1652	531.89
59.1797	532.21
59.1941	518.72
59.2085	559.53
59.2230	541.35
59.2374	552.86
59.2519	548.28
59.2663	533.31
59.2807	572.56
59.2952	521.53
59.3096	541.32
59.3241	598.93
59.3385	571.63
59.3529	584.44
59.3674	578.91
59.3818	583.69
59.3963	579.54
59.4107	567.99
59.4251	573.78
59.4396	545.16
59.4540	546.59
59.4685	561.43
59.4829	568.40
59.4973	536.46
59.5118	580.75
59.5262	576.58
59.5407	590.11
59.5551	569.01
59.5695	537.87
59.5840	518.02
59.5984	544.38
59.6129	525.33
59.6273	508.36
59.6417	529.85
59.6562	549.19
59.6706	546.69
59.6851	568.74
59.6995	555.33
59.7139	535.72
59.7284	518.06
59.7428	519.63
59.7573	534.97
59.7717	527.59
59.7861	555.13
59.8006	550.38
59.8150	529.68
59.8295	568.50
59.8439	542.12
59.8583	565.16
59.8728	550.96
59.8872	550.62
59.9017	547.09
59.9161	571.88
59.9305	540.66
59.9450	558.23
59.9594	507.40
59.9739	540.27
59.9883	527.43
60.0027	515.01
60.0172	561.25
60.0316	528.51
60.0461	505.08
60.0605	515.51
60.0750	535.70
60.0894	571.49
60.1038	528.78
60.1183	542.29
60.1327	538.40
60.1472	498.01
60.1616	504.06
60.1760	513.07
60.1905	508.92
60.2049	532.92
60.2194	510.87
60.2338	533.72
60.2482	546.70
60.2627	496.06
60.2771	555.77
60.2916	570.14
60.3060	526.10
60.3204	547.20
60.3349	556.25
60.3493	563.20
60.3638	547.31
60.3782	521.63
60.3926	522.48
60.4071	538.22
60.4215	536.97
60.4360	507.73
60.4504	520.87
60.4648	531.58
60.4793	574.92
60.4937	549.66
60.5082	544.11
60.5226	525.48
60.5370	521.53
60.5515	556.87
60.5659	556.41
60.5804	509.85
60.5948	517.09
60.6092	568.95
60.6237	509.11
60.6381	507.93
60.6526	503.13
60.6670	525.18
60.6814	521.91
60.6959	512.36
60.7103	498.92
60.7248	539.82
60.7392	596.43
60.7536	569.80
60.7681	501.44
60.7825	583.50
60.7970	565.13
60.8114	530.37
60.8258	513.73
60.8403	553.19
60.8547	513.63
60.8692	565.38
60.8836	579.30
60.8980	564.56
60.9125	559.80
60.9269	538.10
60.9414	522.20
60.9558	538.41
60.9702	525.81
60.9847	573.20
60.9991	544.93
61.0136	554.62
61.0280	539.97
61.0424	524.24
61.0569	575.48
61.0713	570.61
61.0858	545.20
61.1002	563.44
61.1146	546.79
61.1291	566.62
61.1435	512.51
61.1580	493.92
61.1724	534.25
61.1868	526.33
61.2013	531.83
61.2157	568.26
61.2302	533.28
61.2446	565.06
61.2590	546.50
61.2735	525.76
61.2879	549.06
61.3024	521.86
61.3168	542.85
61.3312	553.62
61.3457	586.58
61.3601	551.22
61.3746	514.82
61.3890	533.09
61.4034	518.04
61.4179	545.78
61.4323	592.51
61.4468	561.04
61.4612	548.74
61.4756	563.13
61.4901	532.22
61.5045	530.85
61.5190	547.08
61.5334	560.89
61.5478	521.31
61.5623	512.28
61.5767	506.38
61.5912	534.17
61.6056	570.27
61.6200	560.64
61.6345	529.94
61.6489	539.02
61.6634	530.63
61.6778	551.14
61.6922	544.14
61.7067	521.27
61.7211	566.54
61.7356	538.61
61.7500	566.60
61.7644	542.52
61.7789	583.05
61.7933	565.64
61.8078	578.12
61.8222	557.32
61.8366	531.02
61.8511	538.81
61.8655	546.68
61.8800	553.60
61.8944	565.05
61.9088	542.97
61.9233	553.59
61.9377	535.84
61.9522	522.19
61.9666	532.45
61.9810	545.22
61.9955	591.84
62.0099	560.73
62.0244	591.29
62.0388	571.00
62.0532	581.95
62.0677	546.56
62.0821	556.60
62.0966	587.67
62.1110	584.23
62.1254	562.15
62.1399	506.60
62.1543	516.00
62.1688	535.59
62.1832	539.88
62.1976	543.37
62.2121	562.85
62.2265	559.82
62.2410	549.58
62.2554	577.51
62.2698	540.79
62.2843	547.29
62.2987	536.37
62.3132	513.84
62.3276	529.03
62.3420	570.10
62.3565	543.72
62.3709	567.17
62.3854	554.32
62.3998	549.45
62.4142	545.65
62.4287	569.49
62.4431	560.18
62.4576	543.20
62.4720	558.27
62.4864	579.20
62.5009	576.09
62.5153	551.15
62.5298	561.26
62.5442	574.75
62.5586	541.90
62.5731	553.47
62.5875	584.66
62.6020	565.62
62.6164	547.81
62.6308	550.14
62.6453	545.80
62.6597	553.69
62.6742	548.24
62.6886	531.69
62.7030	567.18
62.7175	578.04
62.7319	546.49
62.7464	545.44
62.7608	586.77
62.7752	568.72
62.7897	521.98
62.8041	548.85
62.8186	592.61
62.8330	600.71
62.8474	549.95
62.8619	574.95
62.8763	588.85
62.8908	551.05
62.9052	585.32
62.9196	572.73
62.9341	580.05
62.9485	581.68
62.9630	602.24
62.9774	611.29
62.9918	570.17
63.0063	571.20
63.0207	576.00
63.0352	585.41
63.0496	560.71
63.0640	553.50
63.0785	547.43
63.0929	567.54
63.1074	560.24
63.1218	568.10
63.1362	531.80
63.1507	577.14
63.1651	606.24
63.1796	565.60
63.1940	576.19
63.2084	596.38
63.2229	600.24
63.2373	600.83
63.2518	563.00
63.2662	567.93
63.2806	582.31
63.2951	564.96
63.3095	572.40
63.3240	605.39
63.3384	597.65
63.3528	595.92
63.3673	619.63
63.3817	583.79
63.3962	569.25
63.4106	611.85
63.4250	627.82
63.4395	622.11
63.4539	607.96
63.4684	633.36
63.4828	662.41
63.4972	681.41
63.5117	693.29
63.5261	746.69
63.5406	767.81
63.5550	777.77
63.5694	852.14
63.5839	922.63
63.5983	1003.49
63.6128	1026.81
63.6272	1005.51
63.6416	948.32
63.6561	919.45
63.6705	900.00
63.6850	834.19
63.6994	803.27
63.7138	820.95
63.7283	808.14
63.7427	789.17
63.7572	782.84
63.7716	799.82
63.7861	828.80
63.8005	791.25
63.8149	762.36
63.8294	763.34
63.8438	787.80
63.8583	761.65
63.8727	702.73
63.8871	684.98
63.9016	670.68
63.9160	657.86
63.9305	699.61
63.9449	685.42
63.9593	672.61
63.9738	599.82
63.9882	621.45
64.0027	619.72
64.0171	598.47
64.0315	628.32
64.0460	643.47
64.0604	630.64
64.0749	591.05
64.0893	562.03
64.1037	587.66
64.1182	602.26
64.1326	569.94
64.1471	585.09
64.1615	587.93
64.1759	572.57
64.1904	621.33
64.2048	595.60
64.2193	613.99
64.2337	592.69
64.2481	582.72
64.2626	586.84
64.2770	579.56
64.2915	554.81
64.3059	564.63
64.3203	596.74
64.3348	622.06
64.3492	606.14
64.3637	618.31
64.3781	601.22
64.3925	604.97
64.4070	590.99
64.4214	604.95
64.4359	618.10
64.4503	637.42
64.4647	688.41
64.4792	621.51
64.4936	608.10
64.5081	622.01
64.5225	633.76
64.5369	623.47
64.5514	633.22
64.5658	614.25
64.5803	646.55
64.5947	654.00
64.6091	618.18
64.6236	618.50
64.6380	618.73
64.6525	627.93
64.6669	653.19
64.6813	628.79
64.6958	641.48
64.7102	681.66
64.7247	681.35
64.7391	712.92
64.7535	680.74
64.7680	692.55
64.7824	706.03
64.7969	700.17
64.8113	692.92
64.8257	786.05
64.8402	841.01
64.8546	777.17
64.8691	817.84
64.8835	803.10
64.8979	829.42
64.9124	914.19
64.9268	894.92
64.9413	938.01
64.9557	920.47
64.9701	1007.65
64.9846	1107.22
64.9990	1169.26
65.0135	1197.84
65.0279	1409.08
65.0423	1692.18
65.0568	2006.48
65.0712	2599.43
65.0857	3216.76
65.1001	4356.41
65.1145	5811.98
65.1290	7758.64
65.1434	9362.46
65.1579	11133.90
65.1723	11908.58
65.1867	11489.20
65.2012	10240.94
65.2156	8671.02
65.2301	6944.48
65.2445	5647.78
65.2589	4636.81
65.2734	4259.68
65.2878	4407.37
65.3023	4869.20
65.3167	5730.91
65.3311	6488.37
65.3456	7100.99
65.3600	7077.22
65.3745	6536.14
65.3889	5700.79
65.4033	4599.18
65.4178	3617.90
65.4322	2778.05
65.4467	2096.77
65.4611	1747.98
65.4755	1501.64
65.4900	1307.88
65.5044	1148.99
65.5189	1025.95
65.5333	1007.32
65.5477	926.12
65.5622	854.97
65.5766	848.35
65.5911	830.46
65.6055	805.09
65.6199	781.69
65.6344	765.60
65.6488	777.89
65.6633	722.70
65.6777	705.55
65.6921	693.47
65.7066	752.44
65.7210	694.07
65.7355	692.84
65.7499	682.06
65.7643	697.83
65.7788	696.78
65.7932	683.58
65.8077	697.80
65.8221	670.11
65.8365	675.81
65.8510	682.49
65.8654	688.13
65.8799	665.54
65.8943	659.17
65.9087	632.66
65.9232	638.47
65.9376	658.25
65.9521	603.97
65.9665	650.48
65.9809	661.57
65.9954	644.84
66.0098	617.57
66.0243	682.62
66.0387	642.42
66.0531	613.52
66.0676	652.72
66.0820	640.17
66.0965	615.60
66.1109	604.62
66.1253	630.59
66.1398	630.45
66.1542	624.67
66.1687	653.10
66.1831	592.34
66.1975	568.47
66.2120	626.99
66.2264	632.05
66.2409	635.43
66.2553	608.67
66.2697	601.46
66.2842	604.23
66.2986	600.68
66.3131	633.91
66.3275	637.41
66.3419	600.06
66.3564	573.66
66.3708	590.88
66.3853	582.11
66.3997	580.99
66.4141	603.97
66.4286	617.11
66.4430	575.71
66.4575	578.94
66.4719	581.29
66.4863	565.04
66.5008	582.26
66.5152	557.30
66.5297	613.01
66.5441	592.80
66.5585	613.76
66.5730	600.32
66.5874	577.33
66.6019	609.91
66.6163	583.06
66.6307	594.72
66.6452	620.42
66.6596	618.20
66.6741	635.32
66.6885	565.05
66.7029	569.63
66.7174	569.97
66.7318	567.62
66.7463	572.54
66.7607	580.18
66.7751	549.32
66.7896	582.15
66.8040	593.95
66.8185	607.45
66.8329	623.66
66.8473	575.93
66.8618	569.68
66.8762	577.15
66.8907	573.96
66.9051	580.72
66.9195	586.38
66.9340	569.96
66.9484	594.43
66.9629	570.69
66.9773	573.43
66.9917	589.26
67.0062	568.11
67.0206	579.90
67.0351	598.59
67.0495	589.56
67.0639	573.24
67.0784	541.01
67.0928	613.60
67.1073	570.57
67.1217	612.35
67.1361	611.73
67.1506	579.84
67.1650	583.01
67.1795	546.22
67.1939	557.71
67.2083	565.24
67.2228	594.39
67.2372	592.45
67.2517	575.95
67.2661	581.40
67.2805	592.30
67.2950	576.49
67.3094	587.38
67.3239	588.09
67.3383	579.96
67.3527	554.91
67.3672	583.23
67.3816	594.08
67.3961	586.21
67.4105	587.59
67.4250	600.17
67.4394	582.08
67.4538	590.61
67.4683	584.72
67.4827	592.56
67.4972	562.45
67.5116	537.22
67.5260	591.04
67.5405	585.68
67.5549	657.14
67.5694	612.78
67.5838	574.92
67.5982	566.35
67.6127	546.94
67.6271	578.90
67.6416	563.13
67.6560	587.87
67.6704	580.25
67.6849	547.34
67.6993	552.59
67.7138	560.86
67.7282	563.22
67.7426	577.74
67.7571	546.78
67.7715	568.88
67.7860	552.14
67.8004	568.58
67.8148	599.82
67.8293	587.44
67.8437	561.12
67.8582	600.14
67.8726	600.84
67.8870	571.08
67.9015	550.88
67.9159	586.91
67.9304	549.67
67.9448	600.70
67.9592	590.11
67.9737	568.18
67.9881	578.11
68.0026	530.62
68.0170	571.57
68.0314	541.51
68.0459	526.22
68.0603	578.34
68.0748	591.80
68.0892	605.09
68.1036	585.53
68.1181	555.52
68.1325	589.32
68.1470	554.51
68.1614	587.49
68.1758	584.54
68.1903	544.22
68.2047	536.24
68.2192	590.61
68.2336	562.34
68.2480	574.98
68.2625	550.03
68.2769	589.57
68.2914	543.49
68.3058	563.79
68.3202	593.69
68.3347	574.25
68.3491	562.21
68.3636	575.50
68.3780	578.91
68.3924	590.62
68.4069	594.26
68.4213	547.93
68.4358	570.14
68.4502	553.25
68.4646	581.48
68.4791	614.04
68.4935	620.09
68.5080	579.59
68.5224	568.97
68.5368	553.46
68.5513	552.25
68.5657	540.69
68.5802	546.93
68.5946	572.91
68.6090	584.11
68.6235	546.70
68.6379	538.74
68.6524	596.50
68.6668	570.64
68.6812	575.65
68.6957	546.53
68.7101	594.76
68.7246	551.60
68.7390	570.92
68.7534	599.65
68.7679	582.17
68.7823	574.89
68.7968	593.38
68.8112	596.67
68.8256	574.43
68.8401	579.93
68.8545	570.46
68.8690	563.55
68.8834	624.93
68.8978	576.32
68.9123	594.52
68.9267	599.32
68.9412	561.41
68.9556	559.78
68.9700	549.11
68.9845	568.78
68.9989	544.51
69.0134	584.82
69.0278	566.28
69.0422	601.11
69.0567	618.37
69.0711	591.25
69.0856	570.52
69.1000	585.69
69.1144	592.65
69.1289	574.69
69.1433	607.58
69.1578	522.65
69.1722	591.97
69.1866	597.23
69.2011	578.44
69.2155	602.38
69.2300	589.32
69.2444	565.65
69.2588	558.98
69.2733	576.03
69.2877	612.89
69.3022	562.39
69.3166	559.60
69.3310	569.92
69.3455	589.14
69.3599	594.67
69.3744	594.98
69.3888	601.31
69.4032	559.93
69.4177	557.48
69.4321	598.57
69.4466	521.51
69.4610	573.81
69.4754	602.04
69.4899	583.42
69.5043	575.13
69.5188	585.16
69.5332	564.96
69.5476	569.85
69.5621	597.65
69.5765	621.50
69.5910	569.55
69.6054	606.13
69.6198	599.52
69.6343	582.12
69.6487	531.53
69.6632	580.48
69.6776	527.07
69.6920	602.18
69.7065	557.69
69.7209	570.81
69.7354	560.63
69.7498	599.12
69.7642	557.18
69.7787	633.96
69.7931	566.85
69.8076	554.64
69.8220	584.92
69.8364	640.49
69.8509	545.66
69.8653	597.44
69.8798	537.44
69.8942	636.67
69.9086	632.77
69.9231	581.16
69.9375	640.10
69.9520	582.43
69.9664	576.83
69.9808	551.59
69.9953	553.05
70.0097	526.90
70.0242	567.09
70.0386	577.93
70.0530	571.81
70.0675	562.77
70.0819	615.72
70.0964	655.90
70.1108	568.22
70.1252	555.00
70.1397	544.33
70.1541	555.14
70.1686	588.94
70.1830	636.22
70.1974	542.19
70.2119	595.35
70.2263	586.85
70.2408	543.99
70.2552	624.46
70.2696	601.30
70.2841	671.71
70.2985	599.74
70.3130	553.94
70.3274	583.36
70.3418	597.49
70.3563	575.69
70.3707	595.71
70.3852	602.74
70.3996	622.15
70.4140	566.32
70.4285	646.13
70.4429	656.11
70.4574	619.34
70.4718	597.73
70.4862	561.04
70.5007	510.54
70.5151	575.96
70.5296	569.69
70.5440	572.66
70.5584	546.54
70.5729	583.55
70.5873	551.65
70.6018	541.36
70.6162	571.36
70.6306	590.82
70.6451	545.80
70.6595	574.94
70.6740	585.65
70.6884	604.55
70.7028	614.06
70.7173	610.42
70.7317	582.29
70.7462	602.77
70.7606	589.15
70.7750	578.79
70.7895	551.49
70.8039	566.40
70.8184	591.79
70.8328	618.11
70.8472	554.09
70.8617	575.52
70.8761	604.00
70.8906	591.29
70.9050	613.93
70.9194	623.71
70.9339	631.52
70.9483	611.17
70.9628	616.56
70.9772	635.40
70.9916	597.80
71.0061	586.30
71.0205	556.65
71.0350	525.47
71.0494	552.36
71.0638	607.88
71.0783	592.80
71.0927	530.65
71.1072	551.02
71.1216	601.00
71.1361	602.55
71.1505	571.07
71.1649	577.69
71.1794	620.73
71.1938	627.77
71.2083	530.66
71.2227	533.54
71.2371	569.35
71.2516	578.39
71.2660	606.26
71.2805	564.68
71.2949	538.75
71.3093	535.90
71.3238	569.99
71.3382	610.55
71.3527	612.66
71.3671	601.19
71.3815	571.59
71.3960	608.32
71.4104	632.81
71.4249	590.05
71.4393	584.14
71.4537	542.47
71.4682	572.57
71.4826	605.86
71.4971	578.73
71.5115	571.75
71.5259	630.51
71.5404	652.05
71.5548	633.78
71.5693	632.65
71.5837	589.51
71.5981	534.51
71.6126	562.08
71.6270	575.50
71.6415	553.62
71.6559	565.28
71.6703	601.63
71.6848	610.03
71.6992	603.19
71.7137	635.21
71.7281	607.43
71.7425	595.83
71.7570	571.37
71.7714	528.86
71.7859	511.97
71.8003	569.54
71.8147	620.84
71.8292	600.16
71.8436	528.92
71.8581	520.14
71.8725	577.28
71.8869	562.07
71.9014	644.41
71.9158	649.60
71.9303	656.80
71.9447	651.05
71.9591	587.38
71.9736	573.41
71.9880	538.86
72.0025	560.36
72.0169	595.68
72.0313	578.27
72.0458	567.17
72.0602	531.27
72.0747	578.40
72.0891	636.00
72.1035	643.49
72.1180	523.60
72.1324	546.35
72.1469	570.92
72.1613	517.58
72.1757	529.63
72.1902	608.87
72.2046	691.06
72.2191	617.24
72.2335	590.34
72.2479	693.92
72.2624	666.80
72.2768	578.63
72.2913	553.87
72.3057	573.72
72.3201	568.34
72.3346	584.57
72.3490	609.93
72.3635	615.03
72.3779	567.40
72.3923	544.57
72.4068	603.37
72.4212	658.23
72.4357	673.91
72.4501	674.16
72.4645	609.22
72.4790	507.37
72.4934	580.89
72.5079	618.96
72.5223	549.95
72.5367	558.91
72.5512	545.07
72.5656	539.51
72.5801	546.34
72.5945	532.32
72.6089	502.49
72.6234	505.18
72.6378	515.07
72.6523	499.25
72.6667	571.46
72.6811	632.08
72.6956	566.83
72.7100	553.34
72.7245	551.91
72.7389	534.84
72.7533	504.45
72.7678	541.91
72.7822	614.57
72.7967	562.72
72.8111	600.64
72.8255	625.79
72.8400	588.05
72.8544	539.76
72.8689	563.59
72.8833	551.84

Result vector
22.1120	510.81
22.1264	596.23
22.1409	573.57
22.1553	564.76
22.1697	556.68
22.1842	586.18
22.1986	623.41
22.2131	614.96
22.2275	630.67
22.2419	563.22
22.2564	604.99
22.2708	612.32
22.2853	654.81
22.2997	624.18
22.3141	608.00
22.3286	569.80
22.3430	629.87
22.3575	588.93
22.3719	600.72
22.3863	535.23
22.4008	581.28
22.4152	685.92
22.4297	725.75
22.4441	634.52
22.4585	580.09
22.4730	552.46
22.4874	558.63
22.5019	556.60
22.5163	602.07
22.5307	540.46
22.5452	600.80
22.5596	571.05
22.5741	517.91
22.5885	509.05
22.6029	494.62
22.6174	637.46
22.6318	577.54
22.6463	585.24
22.6607	650.04
22.6751	552.83
22.6896	540.53
22.7040	620.42
22.7185	558.90
22.7329	563.31
22.7473	646.51
22.7618	590.52
22.7762	552.09
22.7907	559.45
22.8051	560.28
22.8195	536.96
22.8340	641.18
22.8484	620.95
22.8629	572.07
22.8773	539.22
22.8917	569.34
22.9062	562.15
22.9206	553.49
22.9351	573.78
22.9495	520.43
22.9639	523.41
22.9784	477.83
22.9928	431.88
23.0073	581.67
23.0217	634.66
23.0361	562.39
23.0506	566.90
23.0650	638.82
23.0795	581.88
23.0939	520.03
23.1083	529.10
23.1228	589.45
23.1372	603.54
23.1517	547.02
23.1661	557.40
23.1806	548.97
23.1950	571.26
23.2094	495.20
23.2239	531.08
23.2383	553.43
23.2528	565.19
23.2672	551.65
23.2816	656.03
23.2961	557.97
23.3105	596.89
23.3250	604.70
23.3394	526.84
23.3538	547.36
23.3683	482.27
23.3827	543.91
23.3972	490.44
23.4116	558.12
23.4260	574.91
23.4405	529.05
23.4549	535.39
23.4694	518.81
23.4838	489.84
23.4982	495.39
23.5127	528.36
23.5271	534.32
23.5416	525.19
23.5560	540.94
23.5704	556.07
23.5849	574.47
23.5993	550.22
23.6138	564.88
23.6282	486.35
23.6426	513.85
23.6571	533.32
23.6715	507.08
23.6860	579.13
23.7004	553.58
23.7148	573.19
23.7293	598.04
23.7437	514.54
23.7582	600.46
23.7726	510.49
23.7870	620.73
23.8015	539.40
23.8159	493.72
23.8304	605.41
23.8448	527.04
23.8592	519.77
23.8737	518.17
23.8881	515.13
23.9026	567.73
23.9170	580.75
23.9314	536.52
23.9459	589.24
23.9603	568.30
23.9748	542.22
23.9892	559.04
24.0036	535.31
24.0181	556.92
24.0325	569.27
24.0470	601.88
24.0614	599.65
24.0758	498.42
24.0903	561.34
24.1047	566.85
24.1192	559.10
24.1336	513.66
24.1480	531.32
24.1625	594.29
24.1769	649.67
24.1914	557.55
24.2058	578.85
24.2202	563.66
24.2347	600.30
24.2491	571.77
24.2636	530.41
24.2780	608.51
24.2924	588.75
24.3069	551.46
24.3213	583.25
24.3358	555.06
24.3502	571.16
24.3646	514.98
24.3791	571.78
24.3935	550.18
24.4080	570.74
24.4224	553.80
24.4368	531.20
24.4513	506.80
24.4657	495.97
24.4802	502.90
24.4946	571.59
24.5090	518.89
24.5235	568.88
24.5379	566.20
24.5524	525.47
24.5668	536.11
24.5812	538.34
24.5957	535.53
24.6101	571.75
24.6246	554.32
24.6390	572.21
24.6534	580.95
24.6679	531.32
24.6823	572.40
24.6968	531.13
24.7112	604.11
24.7256	513.74
24.7401	547.20
24.7545	632.94
24.7690	566.60
24.7834	577.29
24.7978	564.22
24.8123	490.62
24.8267	526.92
24.8412	558.02
24.8556	547.65
24.8700	521.84
24.8845	570.81
24.8989	598.76
24.9134	515.20
24.9278	565.10
24.9422	558.23
24.9567	556.33
24.9711	535.39
24.9856	549.95
25.0000	544.53
25.0144	591.40
25.0289	598.88
25.0433	565.26
25.0578	537.05
25.0722	567.69
25.0866	544.23
25.1011	533.30
25.1155	522.62
25.1300	565.27
25.1444	543.61
25.1588	577.44
25.1733	571.41
25.1877	531.45
25.2022	505.22
25.2166	544.16
25.2310	513.29
25.2455	503.52
25.2599	502.87
25.2744	512.77
25.2888	509.00
25.3032	558.82
25.3177	540.28
25.3321	531.38
25.3466	560.27
25.3610	565.02
25.3754	542.41
25.3899	548.02
25.4043	539.66
25.4188	547.36
25.4332	529.33
25.4476	567.42
25.4621	556.30
25.4765	554.70
25.4910	537.15
25.5054	546.74
25.5198	562.33
25.5343	582.39
25.5487	542.14
25.5632	565.85
25.5776	553.99
25.5920	598.84
25.6065	579.43
25.6209	574.63
25.6354	538.32
25.6498	540.28
25.6642	527.97
25.6787	520.34
25.6931	541.23
25.7076	463.57
25.7220	542.55
25.7364	565.84
25.7509	587.28
25.7653	570.73
25.7798	586.96
25.7942	575.90
25.8086	576.30
25.8231	567.63
25.8375	512.34
25.8520	543.47
25.8664	519.54
25.8808	560.44
25.8953	558.66
25.9097	543.24
25.9242	549.89
25.9386	530.90
25.9530	531.20
25.9675	505.70
25.9819	528.66
25.9964	534.97
26.0108	540.76
26.0252	528.63
26.0397	527.56
26.0541	530.55
26.0686	551.15
26.0830	554.40
26.0974	477.01
26.1119	532.86
26.1263	576.90
26.1408	546.92
26.1552	554.78
26.1696	546.80
26.1841	528.69
26.1985	535.16
26.2130	533.95
26.2274	548.47
26.2418	530.92
26.2563	503.55
26.2707	540.51
26.2852	530.34
26.2996	541.25
26.3140	568.52
26.3285	536.10
26.3429	513.36
26.3574	511.56
26.3718	550.76
26.3862	551.08
26.4007	515.46
26.4151	515.96
26.4296	582.70
26.4440	528.41
26.4584	522.24
26.4729	584.77
26.4873	540.66
26.5018	554.76
26.5162	553.70
26.5306	545.87
26.5451	556.21
26.5595	520.12
26.5740	515.67
26.5884	532.99
26.6028	560.63
26.6173	547.47
26.6317	525.59
26.6462	536.74
26.6606	542.62
26.6750	528.86
26.6895	539.27
26.7039	539.52
26.7184	543.72
26.7328	535.65
26.7472	548.11
26.7617	561.89
26.7761	521.59
26.7906	526.24
26.8050	511.30
26.8194	516.97
26.8339	529.56
26.8483	531.46
26.8628	566.11
26.8772	552.12
26.8917	531.91
26.9061	520.85
26.9205	504.35
26.9350	509.71
26.9494	529.43
26.9639	546.21
26.9783	531.31
26.9927	522.49
27.0072	529.05
27.0216	547.14
27.0361	558.31
27.0505	558.93
27.0649	501.65
27.0794	493.76
27.0938	518.68
27.1083	532.25
27.1227	537.07
27.1371	537.16
27.1516	518.93
27.1660	548.82
27.1805	535.37
27.1949	519.92
27.2093	497.96
27.2238	520.04
27.2382	543.32
27.2527	509.25
27.2671	500.54
27.2815	529.54
27.2960	495.13
27.3104	496.25
27.3249	515.09
27.3393	507.54
27.3537	504.98
27.3682	522.33
27.3826	551.59
27.3971	523.98
27.4115	540.23
27.4259	542.18
27.4404	539.10
27.4548	522.54
27.4693	492.94
27.4837	493.22
27.4981	522.28
27.5126	515.16
27.5270	546.61
27.5415	511.18
27.5559	481.83
27.5703	530.86
27.5848	520.57
27.5992	546.77
27.6137	509.88
27.6281	532.54
27.6425	502.64
27.6570	516.67
27.6714	526.16
27.6859	517.49
27.7003	534.19
27.7147	518.02
27.7292	500.63
27.7436	527.34
27.7581	548.63
27.7725	509.48
27.7869	523.63
27.8014	516.26
27.8158	515.38
27.8303	541.16
27.8447	531.69
27.8591	552.29
27.8736	528.44
27.8880	492.11
27.9025	536.77
27.9169	533.96
27.9313	496.64
27.9458	493.63
27.9602	542.62
27.9747	518.13
27.9891	539.65
28.0035	534.06
28.0180	517.14
28.0324	503.62
28.0469	511.09
28.0613	530.92
28.0757	538.62
28.0902	505.72
28.1046	528.70
28.1191	527.96
28.1335	519.33
28.1479	461.62
28.1624	486.64
28.1768	527.41
28.1913	495.99
28.2057	523.70
28.2201	530.69
28.2346	502.85
28.2490	533.54
28.2635	501.65
28.2779	539.93
28.2923	482.31
28.3068	476.05
28.3212	544.71
28.3357	516.22
28.3501	498.55
28.3645	520.37
28.3790	478.99
28.3934	477.56
28.4079	483.90
28.4223	531.05
28.4367	528.54
28.4512	506.80
28.4656	530.30
28.4801	489.20
28.4945	506.55
28.5089	511.75
28.5234	509.71
28.5378	551.54
28.5523	553.12
28.5667	535.14
28.5811	515.24
28.5956	536.59
28.6100	519.33
28.6245	523.12
28.6389	510.82
28.6533	506.43
28.6678	495.34
28.6822	476.91
28.6967	497.83
28.7111	516.76
28.7255	512.72
28.7400	513.34
28.7544	498.03
28.7689	480.40
28.7833	477.05
28.7977	510.36
28.8122	510.55
28.8266	545.46
28.8411	502.83
28.8555	502.32
28.8699	519.71
28.8844	471.09
28.8988	486.50
28.9133	512.46
28.9277	507.92
28.9421	517.91
28.9566	516.54
28.9710	493.43
28.9855	506.78
28.9999	495.85
29.0143	548.56
29.0288	518.36
29.0432	530.53
29.0577	478.70
29.0721	509.50
29.0865	519.85
29.1010	546.71
29.1154	520.69
29.1299	497.87
29.1443	491.08
29.1587	518.25
29.1732	521.07
29.1876	496.13
29.2021	507.31
29.2165	500.64
29.2309	501.90
29.2454	500.39
29.2598	454.93
29.2743	521.85
29.2887	526.79
29.3031	536.01
29.3176	523.31
29.3320	549.17
29.3465	512.93
29.3609	537.94
29.3753	503.49
29.3898	491.18
29.4042	491.95
29.4187	473.06
29.4331	524.65
29.4475	488.28
29.4620	499.94
29.4764	513.04
29.4909	512.75
29.5053	524.42
29.5197	502.06
29.5342	516.59
29.5486	503.31
29.5631	524.37
29.5775	505.49
29.5919	510.30
29.6064	488.92
29.6208	496.98
29.6353	497.73
29.6497	516.56
29.6641	504.59
29.6786	510.93
29.6930	503.54
29.7075	503.97
29.7219	514.52
29.7363	520.45
29.7508	516.16
29.7652	496.96
29.7797	486.95
29.7941	481.66
29.8085	474.27
29.8230	531.02
29.8374	515.60
29.8519	513.40
29.8663	508.52
29.8807	517.06
29.8952	526.41
29.9096	484.12
29.9241	486.42
29.9385	527.29
29.9529	529.91
29.9674	459.14
29.9818	439.67
29.9963	488.25
30.0107	489.47
30.0251	521.28
30.0396	511.01
30.0540	484.45
30.0685	511.01
30.0829	539.00
30.0973	541.70
30.1118	487.46
30.1262	493.98
30.1407	504.20
30.1551	497.03
30.1695	473.25
30.1840	508.49
30.1984	533.76
30.2129	512.10
30.2273	535.95
30.2417	543.04
30.2562	503.60
30.2706	516.98
30.2851	506.37
30.2995	480.54
30.3139	505.12
30.3284	519.91
30.3428	517.97
30.3573	530.26
30.3717	516.22
30.3861	521.41
30.4006	496.32
30.4150	509.92
30.4295	557.95
30.4439	534.12
30.4583	543.17
30.4728	566.71
30.4872	565.04
30.5017	562.88
30.5161	596.99
30.5305	632.55
30.5450	655.07
30.5594	720.46
30.5739	736.53
30.5883	718.30
30.6028	756.69
30.6172	746.69
30.6316	715.95
30.6461	705.27
30.6605	702.09
30.6750	636.80
30.6894	614.81
30.7038	609.34
30.7183	584.72
30.7327	548.35
30.7472	570.95
30.7616	519.00
30.7760	526.08
30.7905	527.22
30.8049	527.39
30.8194	543.97
30.8338	559.78
30.8482	517.93
30.8627	538.62
30.8771	495.31
30.8916	498.95
30.9060	514.09
30.9204	492.91
30.9349	497.72
30.9493	496.53
30.9638	451.93
30.9782	482.32
30.9926	477.47
31.0071	488.87
31.0215	523.19
31.0360	522.02
31.0504	532.78
31.0648	519.90
31.0793	524.82
31.0937	537.37
31.1082	496.96
31.1226	485.58
31.1370	512.43
31.1515	504.15
31.1659	503.53
31.1804	509.66
31.1948	529.01
31.2092	530.16
31.2237	542.98
31.2381	505.75
31.2526	522.31
31.2670	524.32
31.2814	543.60
31.2959	537.32
31.3103	558.91
31.3248	552.50
31.3392	518.97
31.3536	531.89
31.3681	526.34
31.3825	524.00
31.3970	537.73
31.4114	492.44
31.4258	528.78
31.4403	535.02
31.4547	509.94
31.4692	512.85
31.4836	494.68
31.4980	489.78
31.5125	503.56
31.5269	508.08
31.5414	496.02
31.5558	505.52
31.5702	483.52
31.5847	529.48
31.5991	511.43
31.6136	476.34
31.6280	500.42
31.6424	479.75
31.6569	470.14
31.6713	496.12
31.6858	465.87
31.7002	474.99
31.7146	525.61
31.7291	502.16
31.7435	504.13
31.7580	485.41
31.7724	495.64
31.7868	486.11
31.8013	521.65
31.8157	521.26
31.8302	478.84
31.8446	504.16
31.8590	501.25
31.8735	558.71
31.8879	516.02
31.9024	489.22
31.9168	489.47
31.9312	542.99
31.9457	480.70
31.9601	496.30
31.9746	481.32
31.9890	483.62
32.0034	508.77
32.0179	513.20
32.0323	514.93
32.0468	519.04
32.0612	489.59
32.0756	510.02
32.0901	497.57
32.1045	517.51
32.1190	517.48
32.1334	498.23
32.1478	499.50
32.1623	511.75
32.1767	497.81
32.1912	494.05
32.2056	501.45
32.2200	492.11
32.2345	488.56
32.2489	507.78
32.2634	478.45
32.2778	494.82
32.2922	511.44
32.3067	501.90
32.3211	499.45
32.3356	492.17
32.3500	499.30
32.3644	465.45
32.3789	489.31
32.3933	494.72
32.4078	524.56
32.4222	498.38
32.4366	504.67
32.4511	521.61
32.4655	525.24
32.4800	514.51
32.4944	530.41
32.5088	492.62
32.5233	510.83
32.5377	497.68
32.5522	488.49
32.5666	503.02
32.5810	503.65
32.5955	497.56
32.6099	496.88
32.6244	461.53
32.6388	517.15
32.6532	497.40
32.6677	478.91
32.6821	504.05
32.6966	500.79
32.7110	553.00
32.7254	507.59
32.7399	489.40
32.7543	510.50
32.7688	495.66
32.7832	524.02
32.7976	530.26
32.8121	535.40
32.8265	502.93
32.8410	533.33
32.8554	512.62
32.8698	481.45
32.8843	492.63
32.8987	513.50
32.9132	520.64
32.9276	499.69
32.9420	514.74
32.9565	472.55
32.9709	472.08
32.9854	483.03
32.9998	491.80
33.0142	481.78
33.0287	500.46
33.0431	497.42
33.0576	476.70
33.0720	494.13
33.0864	523.13
33.1009	488.62
33.1153	516.06
33.1298	532.73
33.1442	507.67
33.1586	518.70
33.1731	570.02
33.1875	506.88
33.2020	514.08
33.2164	511.13
33.2308	497.14
33.2453	520.18
33.2597	520.19
33.2742	512.76
33.2886	488.79
33.3030	480.96
33.3175	470.08
33.3319	487.94
33.3464	448.77
33.3608	520.23
33.3752	513.83
33.3897	469.27
33.4041	485.63
33.4186	521.53
33.4330	524.79
33.4474	502.80
33.4619	471.67
33.4763	533.35
33.4908	502.51
33.5052	517.31
33.5196	495.18
33.5341	468.21
33.5485	487.37
33.5630	530.03
33.5774	503.18
33.5918	506.00
33.6063	518.40
33.6207	538.29
33.6352	489.26
33.6496	482.78
33.6640	508.06
33.6785	488.24
33.6929	503.42
33.7074	468.47
33.7218	492.93
33.7362	514.97
33.7507	525.60
33.7651	501.56
33.7796	510.40
33.7940	504.19
33.8084	498.61
33.8229	526.47
33.8373	505.82
33.8518	485.69
33.8662	513.26
33.8806	487.31
33.8951	474.47
33.9095	509.39
33.9240	496.21
33.9384	517.30
33.9528	519.13
33.9673	523.46
33.9817	515.96
33.9962	487.20
34.0106	498.93
34.0250	469.84
34.0395	490.89
34.0539	513.99
34.0684	526.42
34.0828	501.75
34.0972	526.13
34.1117	523.65
34.1261	537.85
34.1406	499.57
34.1550	495.07
34.1694	479.38
34.1839	499.79
34.1983	519.40
34.2128	515.17
34.2272	491.81
34.2417	508.61
34.2561	509.41
34.2705	492.27
34.2850	504.79
34.2994	507.32
34.3139	482.35
34.3283	485.25
34.3427	505.69
34.3572	529.16
34.3716	481.11
34.3861	502.68
34.4005	497.50
34.4149	496.49
34.4294	510.70
34.4438	508.40
34.4583	510.02
34.4727	503.15
34.4871	500.80
34.5016	490.70
34.5160	487.24
34.5305	507.43
34.5449	484.52
34.5593	508.78
34.5738	498.24
34.5882	500.27
34.6027	495.64
34.6171	498.58
34.6315	516.43
34.6460	513.46
34.6604	490.89
34.6749	474.89
34.6893	481.12
34.7037	525.23
34.7182	504.87
34.7326	499.44
34.7471	507.19
34.7615	489.97
34.7759	512.54
34.7904	523.83
34.8048	503.12
34.8193	499.90
34.8337	520.72
34.8481	484.80
34.8626	527.53
34.8770	536.92
34.8915	513.36
34.9059	519.45
34.9203	497.20
34.9348	504.52
34.9492	519.09
34.9637	510.61
34.9781	501.76
34.9925	525.15
35.0070	512.17
35.0214	517.45
35.0359	514.92
35.0503	510.50
35.0647	522.93
35.0792	488.27
35.0936	491.03
35.1081	523.31
35.1225	534.57
35.1369	525.33
35.1514	505.89
35.1658	495.40
35.1803	512.64
35.1947	519.55
35.2091	516.64
35.2236	523.35
35.2380	528.90
35.2525	489.61
35.2669	520.83
35.2813	552.50
35.2958	508.02
35.3102	510.75
35.3247	491.14
35.3391	505.97
35.3535	477.81
35.3680	494.45
35.3824	475.04
35.3969	506.00
35.4113	492.90
35.4257	520.84
35.4402	550.53
35.4546	534.95
35.4691	516.11
35.4835	542.59
35.4979	547.83
35.5124	514.06
35.5268	513.71
35.5413	505.87
35.5557	545.62
35.5701	531.76
35.5846	520.88
35.5990	531.30
35.6135	529.25
35.6279	536.26
35.6423	530.76
35.6568	541.10
35.6712	568.90
35.6857	609.32
35.7001	701.27
35.7145	749.17
35.7290	705.49
35.7434	650.96
35.7579	594.48
35.7723	557.88
35.7867	601.72
35.8012	653.74
35.8156	641.05
35.8301	640.21
35.8445	626.34
35.8589	697.97
35.8734	776.06
35.8878	920.83
35.9023	1029.34
35.9167	1144.64
35.9311	1303.83
35.9456	1932.27
35.9600	2502.07
35.9745	2338.99
35.9889	2468.91
36.0033	2814.61
36.0178	3017.41
36.0322	2522.86
36.0467	2463.72
36.0611	2272.28
36.0755	2047.56
36.0900	2011.16
36.1044	1771.87
36.1189	1691.57
36.1333	1567.08
36.1477	1238.45
36.1622	1187.73
36.1766	1144.98
36.1911	901.51
36.2055	805.45
36.2199	674.11
36.2344	665.23
36.2488	609.70
36.2633	574.34
36.2777	546.68
36.2921	534.27
36.3066	550.20
36.3210	537.81
36.3355	568.16
36.3499	552.56
36.3643	573.89
36.3788	557.49
36.3932	544.96
36.4077	539.35
36.4221	568.57
36.4365	539.94
36.4510	522.45
36.4654	493.78
36.4799	540.51
36.4943	555.41
36.5087	553.52
36.5232	535.93
36.5376	512.06
36.5521	515.35
36.5665	539.63
36.5809	539.49
36.5954	548.30
36.6098	516.13
36.6243	545.57
36.6387	538.10
36.6531	523.04
36.6676	550.57
36.6820	496.09
36.6965	498.48
36.7109	501.15
36.7253	531.62
36.7398	535.57
36.7542	556.48
36.7687	525.05
36.7831	548.45
36.7975	521.91
36.8120	557.74
36.8264	545.79
36.8409	578.92
36.8553	596.97
36.8697	580.67
36.8842	603.17
36.8986	630.11
36.9131	609.19
36.9275	611.13
36.9419	606.54
36.9564	548.69
36.9708	550.55
36.9853	561.62
36.9997	531.97
37.0141	570.79
37.0286	491.57
37.0430	501.66
37.0575	530.12
37.0719	537.37
37.0863	540.52
37.1008	534.26
37.1152	485.89
37.1297	523.68
37.1441	516.40
37.1585	499.95
37.1730	510.42
37.1874	487.51
37.2019	534.79
37.2163	522.57
37.2307	491.76
37.2452	495.67
37.2596	494.60
37.2741	469.13
37.2885	487.95
37.3029	493.32
37.3174	505.08
37.3318	501.50
37.3463	528.34
37.3607	517.63
37.3751	488.26
37.3896	513.48
37.4040	502.12
37.4185	500.81
37.4329	533.85
37.4473	519.91
37.4618	533.28
37.4762	529.03
37.4907	535.57
37.5051	536.87
37.5195	533.99
37.5340	518.79
37.5484	508.84
37.5629	492.72
37.5773	509.63
37.5917	517.56
37.6062	500.02
37.6206	493.38
37.6351	519.89
37.6495	517.17
37.6639	512.00
37.6784	504.77
37.6928	472.94
37.7073	512.45
37.7217	505.83
37.7361	484.70
37.7506	512.52
37.7650	510.66
37.7795	519.39
37.7939	484.42
37.8083	501.21
37.8228	523.47
37.8372	558.44
37.8517	517.44
37.8661	503.03
37.8805	519.54
37.8950	507.94
37.9094	491.58
37.9239	480.79
37.9383	477.83
37.9528	470.50
37.9672	486.97
37.9816	492.86
37.9961	508.94
38.0105	510.91
38.0250	525.87
38.0394	529.15
38.0538	493.26
38.0683	517.48
38.0827	533.85
38.0972	486.83
38.1116	526.05
38.1260	510.33
38.1405	490.98
38.1549	513.51
38.1694	530.30
38.1838	483.28
38.1982	481.66
38.2127	481.18
38.2271	503.97
38.2416	506.24
38.2560	499.03
38.2704	533.01
38.2849	538.95
38.2993	514.19
38.3138	530.34
38.3282	521.01
38.3426	488.87
38.3571	489.86
38.3715	479.03
38.3860	485.34
38.4004	497.25
38.4148	526.67
38.4293	586.68
38.4437	587.67
38.4582	586.59
38.4726	649.12
38.4870	672.00
38.5015	717.83
38.5159	760.82
38.5304	804.43
38.5448	779.66
38.5592	764.78
38.5737	775.15
38.5881	778.50
38.6026	723.99
38.6170	680.88
38.6314	678.46
38.6459	648.29
38.6603	612.92
38.6748	605.34
38.6892	596.29
38.7036	584.46
38.7181	539.17
38.7325	512.91
38.7470	552.77
38.7614	508.03
38.7758	512.86
38.7903	528.30
38.8047	539.13
38.8192	528.46
38.8336	519.93
38.8480	514.91
38.8625	471.46
38.8769	493.65
38.8914	513.49
38.9058	527.20
38.9202	547.70
38.9347	540.86
38.9491	515.16
38.9636	514.73
38.9780	499.62
38.9924	513.01
39.0069	472.85
39.0213	439.31
39.0358	508.20
39.0502	514.88
39.0646	528.08
39.0791	496.77
39.0935	530.28
39.1080	504.10
39.1224	512.75
39.1368	487.48
39.1513	498.10
39.1657	516.18
39.1802	517.12
39.1946	506.80
39.2090	501.73
39.2235	502.02
39.2379	508.16
39.2524	522.30
39.2668	495.75
39.2812	499.91
39.2957	530.80
39.3101	543.05
39.3246	493.89
39.3390	495.96
39.3534	487.85
39.3679	518.68
39.3823	510.58
39.3968	491.19
39.4112	486.77
39.4256	525.42
39.4401	501.45
39.4545	482.44
39.4690	490.32
39.4834	522.53
39.4978	495.82
39.5123	485.49
39.5267	524.37
39.5412	499.99
39.5556	522.59
39.5700	487.74
39.5845	501.01
39.5989	492.48
39.6134	497.38
39.6278	510.50
39.6422	495.88
39.6567	510.32
39.6711	531.60
39.6856	521.57
39.7000	533.87
39.7144	526.93
39.7289	498.40
39.7433	494.05
39.7578	470.14
39.7722	498.78
39.7866	515.31
39.8011	513.74
39.8155	513.14
39.8300	514.93
39.8444	533.13
39.8588	512.95
39.8733	509.72
39.8877	509.07
39.9022	526.91
39.9166	543.67
39.9310	525.96
39.9455	497.77
39.9599	485.70
39.9744	481.81
39.9888	518.30
40.0032	472.83
40.0177	494.86
40.0321	494.77
40.0466	475.25
40.0610	498.47
40.0754	492.06
40.0899	493.65
40.1043	483.79
40.1188	498.95
40.1332	483.03
40.1476	470.21
40.1621	515.82
40.1765	512.27
40.1910	514.10
40.2054	495.58
40.2198	477.40
40.2343	511.86
40.2487	498.61
40.2632	528.52
40.2776	513.08
40.2920	482.83
40.3065	490.98
40.3209	529.68
40.3354	520.15
40.3498	526.84
40.3642	515.32
40.3787	515.13
40.3931	485.66
40.4076	475.50
40.4220	496.23
40.4364	501.76
40.4509	463.15
40.4653	483.74
40.4798	538.67
40.4942	494.95
40.5086	500.13
40.5231	501.73
40.5375	489.18
40.5520	505.24
40.5664	491.19
40.5808	493.62
40.5953	491.08
40.6097	469.26
40.6242	486.67
40.6386	495.74
40.6530	488.37
40.6675	484.33
40.6819	471.20
40.6964	497.27
40.7108	526.00
40.7252	475.38
40.7397	484.16
40.7541	488.48
40.7686	514.44
40.7830	524.06
40.7974	487.91
40.8119	474.23
40.8263	476.06
40.8408	483.74
40.8552	491.49
40.8696	506.21
40.8841	504.54
40.8985	517.64
40.9130	477.22
40.9274	487.23
40.9418	498.76
40.9563	513.63
40.9707	471.00
40.9852	490.95
40.9996	505.77
41.0140	501.17
41.0285	494.21
41.0429	480.16
41.0574	463.87
41.0718	482.01
41.0862	493.16
41.1007	527.89
41.1151	528.16
41.1296	502.14
41.1440	519.99
41.1584	498.23
41.1729	517.63
41.1873	472.47
41.2018	509.47
41.2162	481.93
41.2306	494.81
41.2451	518.69
41.2595	529.26
41.2740	490.93
41.2884	515.84
41.3028	507.30
41.3173	506.67
41.3317	502.28
41.3462	513.76
41.3606	547.68
41.3750	501.47
41.3895	493.84
41.4039	512.59
41.4184	527.79
41.4328	519.44
41.4472	483.68
41.4617	492.01
41.4761	532.49
41.4906	498.06
41.5050	523.10
41.5194	489.43
41.5339	501.40
41.5483	491.35
41.5628	476.70
41.5772	511.73
41.5916	482.46
41.6061	542.80
41.6205	531.91
41.6350	516.84
41.6494	485.61
41.6639	522.30
41.6783	502.83
41.6927	517.13
41.7072	485.48
41.7216	511.90
41.7361	505.53
41.7505	501.42
41.7649	515.81
41.7794	522.07
41.7938	537.79
41.8083	516.85
41.8227	501.30
41.8371	503.31
41.8516	536.49
41.8660	527.96
41.8805	524.96
41.8949	548.82
41.9093	572.71
41.9238	539.58
41.9382	580.19
41.9527	552.26
41.9671	527.53
41.9815	551.41
41.9960	550.11
42.0104	598.60
42.0249	593.48
42.0393	565.33
42.0537	575.35
42.0682	541.37
42.0826	575.07
42.0971	600.70
42.1115	557.78
42.1259	574.41
42.1404	587.34
42.1548	617.82
42.1693	630.46
42.1837	681.81
42.1981	703.28
42.2126	797.38
42.2270	884.42
42.2415	1076.65
42.2559	1145.03
42.2703	1283.92
42.2848	1439.53
42.2992	1606.41
42.3137	1644.90
42.3281	1578.78
42.3425	1570.69
42.3570	1478.25
42.3714	1416.82
42.3859	1339.17
42.4003	1317.51
42.4147	1290.85
42.4292	1306.29
42.4436	1199.11
42.4581	1088.02
42.4725	973.18
42.4869	845.49
42.5014	750.88
42.5158	670.62
42.5303	692.03
42.5447	635.81
42.5591	583.03
42.5736	580.84
42.5880	583.95
42.6025	581.36
42.6169	504.95
42.6313	550.90
42.6458	566.50
42.6602	548.92
42.6747	521.32
42.6891	507.90
42.7035	577.67
42.7180	538.74
42.7324	543.13
42.7469	512.70
42.7613	504.35
42.7757	515.53
42.7902	490.69
42.8046	509.99
42.8191	532.21
42.8335	500.24
42.8479	515.23
42.8624	520.02
42.8768	529.55
42.8913	508.74
42.9057	506.49
42.9201	500.73
42.9346	504.64
42.9490	496.94
42.9635	516.45
42.9779	517.45
42.9923	534.29
43.0068	531.88
43.0212	531.90
43.0357	507.40
43.0501	495.03
43.0645	498.78
43.0790	521.84
43.0934	521.13
43.1079	487.37
43.1223	529.91
43.1367	494.92
43.1512	507.81
43.1656	554.42
43.1801	526.23
43.1945	514.22
43.2089	520.55
43.2234	514.17
43.2378	531.47
43.2523	506.98
43.2667	535.33
43.2811	536.10
43.2956	495.99
43.3100	529.89
43.3245	509.41
43.3389	531.29
43.3533	547.37
43.3678	509.36
43.3822	500.50
43.3967	523.01
43.4111	506.08
43.4255	507.91
43.4400	510.55
43.4544	505.83
43.4689	523.56
43.4833	535.86
43.4977	523.26
43.5122	519.96
43.5266	546.60
43.5411	542.31
43.5555	520.06
43.5699	534.11
43.5844	543.59
43.5988	547.78
43.6133	537.07
43.6277	502.44
43.6421	549.94
43.6566	530.26
43.6710	572.78
43.6855	541.97
43.6999	545.46
43.7143	595.95
43.7288	590.63
43.7432	598.49
43.7577	677.47
43.7721	642.77
43.7865	679.44
43.8010	694.74
43.8154	673.97
43.8299	658.96
43.8443	609.79
43.8587	596.34
43.8732	582.29
43.8876	610.39
43.9021	611.40
43.9165	594.38
43.9309	561.61
43.9454	536.66
43.9598	553.86
43.9743	520.91
43.9887	558.78
44.0031	509.33
44.0176	507.82
44.0320	549.15
44.0465	539.78
44.0609	520.49
44.0753	522.70
44.0898	527.69
44.1042	510.61
44.1187	485.69
44.1331	551.76
44.1475	510.09
44.1620	511.34
44.1764	522.17
44.1909	516.36
44.2053	518.35
44.2197	549.02
44.2342	524.40
44.2486	520.10
44.2631	515.38
44.2775	559.98
44.2919	499.17
44.3064	516.03
44.3208	567.81
44.3353	573.39
44.3497	554.55
44.3641	547.75
44.3786	541.72
44.3930	536.66
44.4075	538.35
44.4219	557.11
44.4363	565.09
44.4508	540.44
44.4652	598.97
44.4797	605.20
44.4941	593.69
44.5085	540.53
44.5230	573.27
44.5374	564.65
44.5519	568.76
44.5663	551.40
44.5807	592.95
44.5952	608.57
44.6096	584.52
44.6241	603.33
44.6385	561.32
44.6529	575.97
44.6674	566.25
44.6818	595.55
44.6963	611.87
44.7107	647.15
44.7251	705.28
44.7396	736.16
44.7540	800.48
44.7685	859.87
44.7829	884.49
44.7973	855.28
44.8118	854.28
44.8262	857.38
44.8407	814.96
44.8551	755.06
44.8695	737.01
44.8840	790.70
44.8984	718.96
44.9129	727.96
44.9273	740.33
44.9417	657.68
44.9562	641.49
44.9706	581.53
44.9851	552.24
44.9995	538.98
45.0139	556.22
45.0284	493.01
45.0428	534.32
45.0573	514.57
45.0717	528.07
45.0861	554.96
45.1006	539.51
45.1150	506.83
45.1295	555.54
45.1439	511.63
45.1583	520.69
45.1728	514.40
45.1872	513.21
45.2017	521.97
45.2161	488.00
45.2305	497.17
45.2450	522.68
45.2594	523.07
45.2739	518.72
45.2883	555.66
45.3028	481.61
45.3172	501.26
45.3316	506.77
45.3461	506.74
45.3605	499.74
45.3750	495.95
45.3894	509.64
45.4038	505.40
45.4183	532.89
45.4327	520.47
45.4472	468.99
45.4616	495.10
45.4760	492.04
45.4905	494.04
45.5049	504.20
45.5194	481.76
45.5338	488.18
45.5482	502.72
45.5627	517.59
45.5771	507.49
45.5916	494.25
45.6060	519.42
45.6204	502.95
45.6349	526.05
45.6493	494.09
45.6638	510.12
45.6782	540.26
45.6926	505.61
45.7071	546.44
45.7215	525.26
45.7360	508.79
45.7504	537.01
45.7648	509.26
45.7793	528.79
45.7937	488.58
45.8082	532.07
45.8226	505.27
45.8370	504.77
45.8515	508.25
45.8659	523.78
45.8804	509.36
45.8948	529.22
45.9092	534.14
45.9237	486.91
45.9381	479.87
45.9526	515.18
45.9670	468.75
45.9814	465.90
45.9959	465.44
46.0103	495.26
46.0248	512.13
46.0392	505.16
46.0536	490.69
46.0681	493.63
46.0825	488.45
46.0970	522.68
46.1114	484.46
46.1258	498.76
46.1403	535.58
46.1547	488.58
46.1692	482.90
46.1836	527.65
46.1980	490.93
46.2125	479.14
46.2269	484.95
46.2414	498.77
46.2558	491.47
46.2702	505.13
46.2847	520.37
46.2991	480.58
46.3136	464.84
46.3280	464.72
46.3424	481.54
46.3569	515.78
46.3713	497.48
46.3858	498.88
46.4002	505.09
46.4146	506.73
46.4291	532.14
46.4435	497.55
46.4580	481.55
46.4724	503.71
46.4868	509.73
46.5013	498.70
46.5157	474.01
46.5302	508.36
46.5446	516.09
46.5590	496.28
46.5735	500.55
46.5879	490.39
46.6024	511.88
46.6168	540.03
46.6312	502.00
46.6457	531.73
46.6601	534.89
46.6746	511.51
46.6890	480.41
46.7034	499.35
46.7179	520.39
46.7323	497.39
46.7468	483.65
46.7612	473.18
46.7756	490.45
46.7901	502.22
46.8045	482.67
46.8190	495.85
46.8334	529.49
46.8478	511.02
46.8623	526.08
46.8767	524.45
46.8912	483.72
46.9056	486.05
46.9200	515.03
46.9345	503.46
46.9489	510.86
46.9634	509.57
46.9778	519.27
46.9922	514.04
47.0067	502.77
47.0211	538.03
47.0356	511.50
47.0500	483.47
47.0644	504.50
47.0789	501.97
47.0933	519.48
47.1078	521.68
47.1222	518.06
47.1366	519.63
47.1511	501.36
47.1655	527.30
47.1800	515.05
47.1944	510.79
47.2088	521.53
47.2233	500.65
47.2377	525.96
47.2522	565.69
47.2666	499.94
47.2810	517.27
47.2955	513.39
47.3099	509.60
47.3244	521.97
47.3388	524.86
47.3532	497.02
47.3677	493.47
47.3821	513.03
47.3966	535.99
47.4110	506.27
47.4254	509.64
47.4399	492.79
47.4543	483.38
47.4688	527.38
47.4832	510.05
47.4976	534.30
47.5121	530.04
47.5265	538.07
47.5410	498.08
47.5554	520.35
47.5698	526.77
47.5843	470.08
47.5987	474.23
47.6132	512.04
47.6276	513.39
47.6420	489.88
47.6565	512.18
47.6709	524.76
47.6854	548.18
47.6998	544.61
47.7142	527.84
47.7287	498.58
47.7431	508.71
47.7576	526.40
47.7720	557.38
47.7864	538.38
47.8009	495.59
47.8153	502.24
47.8298	496.56
47.8442	492.32
47.8586	514.26
47.8731	514.94
47.8875	507.37
47.9020	479.25
47.9164	461.31
47.9308	487.27
47.9453	507.57
47.9597	533.02
47.9742	503.64
47.9886	536.15
48.0030	489.41
48.0175	516.57
48.0319	535.91
48.0464	537.21
48.0608	540.90
48.0752	499.86
48.0897	520.98
48.1041	514.07
48.1186	567.11
48.1330	517.07
48.1474	498.33
48.1619	465.33
48.1763	491.46
48.1908	502.96
48.2052	481.16
48.2196	490.88
48.2341	520.12
48.2485	529.88
48.2630	508.92
48.2774	487.91
48.2918	504.05
48.3063	500.59
48.3207	528.44
48.3352	490.23
48.3496	498.62
48.3640	484.37
48.3785	493.93
48.3929	491.21
48.4074	486.51
48.4218	554.60
48.4362	557.48
48.4507	511.77
48.4651	531.34
48.4796	509.87
48.4940	510.51
48.5084	515.02
48.5229	514.85
48.5373	505.23
48.5518	474.30
48.5662	547.44
48.5806	503.50
48.5951	511.03
48.6095	543.25
48.6240	495.75
48.6384	494.68
48.6528	516.17
48.6673	504.21
48.6817	508.75
48.6962	500.59
48.7106	541.52
48.7250	532.71
48.7395	532.96
48.7539	533.94
48.7684	495.02
48.7828	497.96
48.7972	507.85
48.8117	513.08
48.8261	517.56
48.8406	517.01
48.8550	500.23
48.8694	507.44
48.8839	539.67
48.8983	571.89
48.9128	565.34
48.9272	521.48
48.9416	575.17
48.9561	556.24
48.9705	554.09
48.9850	563.58
48.9994	596.16
49.0139	590.77
49.0283	586.54
49.0427	599.70
49.0572	541.60
49.0716	609.08
49.0861	665.78
49.1005	695.89
49.1149	731.35
49.1294	709.41
49.1438	734.72
49.1583	764.25
49.1727	816.66
49.1871	820.35
49.2016	904.22
49.2160	1009.38
49.2305	1019.39
49.2449	1114.65
49.2593	1181.82
49.2738	1224.61
49.2882	1307.22
49.3027	1384.87
49.3171	1554.59
49.3315	1627.40
49.3460	1700.15
49.3604	1781.80
49.3749	1700.29
49.3893	1698.91
49.4037	1715.37
49.4182	1653.84
49.4326	1762.49
49.4471	1609.75
49.4615	1592.38
49.4759	1538.00
49.4904	1452.46
49.5048	1408.39
49.5193	1337.15
49.5337	1324.19
49.5481	1197.06
49.5626	1148.34
49.5770	1071.73
49.5915	1005.18
49.6059	913.99
49.6203	867.71
49.6348	818.01
49.6492	760.31
49.6637	727.79
49.6781	727.47
49.6925	694.67
49.7070	698.00
49.7214	641.72
49.7359	621.05
49.7503	632.67
49.7647	593.88
49.7792	646.88
49.7936	594.35
49.8081	586.06
49.8225	568.28
49.8369	571.80
49.8514	568.51
49.8658	600.46
49.8803	542.32
49.8947	551.49
49.9091	537.32
49.9236	524.85
49.9380	518.20
49.9525	517.85
49.9669	544.79
49.9813	543.17
49.9958	540.94
50.0102	506.95
50.0247	524.96
50.0391	497.24
50.0535	515.27
50.0680	566.07
50.0824	512.02
50.0969	533.96
50.1113	565.19
50.1257	552.45
50.1402	506.96
50.1546	475.02
50.1691	561.33
50.1835	537.14
50.1979	515.85
50.2124	522.44
50.2268	493.18
50.2413	518.69
50.2557	523.08
50.2701	550.08
50.2846	545.63
50.2990	511.07
50.3135	499.33
50.3279	489.15
50.3423	492.32
50.3568	504.95
50.3712	515.12
50.3857	488.80
50.4001	498.74
50.4145	520.41
50.4290	538.11
50.4434	470.37
50.4579	494.94
50.4723	565.24
50.4867	532.04
50.5012	489.60
50.5156	508.69
50.5301	524.04
50.5445	503.13
50.5589	493.01
50.5734	483.99
50.5878	485.64
50.6023	531.79
50.6167	520.15
50.6311	500.05
50.6456	512.50
50.6600	481.51
50.6745	527.53
50.6889	539.01
50.7033	547.71
50.7178	514.41
50.7322	486.78
50.7467	490.79
50.7611	477.36
50.7755	504.98
50.7900	496.04
50.8044	518.47
50.8189	517.87
50.8333	517.23
50.8477	527.58
50.8622	535.09
50.8766	492.04
50.8911	505.76
50.9055	534.17
50.9199	494.19
50.9344	487.27
50.9488	476.52
50.9633	494.47
50.9777	513.76
50.9921	488.63
51.0066	480.86
51.0210	498.51
51.0355	541.68
51.0499	498.05
51.0643	487.98
51.0788	520.44
51.0932	525.94
51.1077	527.70
51.1221	527.69
51.1365	516.28
51.1510	488.45
51.1654	504.53
51.1799	537.11
51.1943	494.22
51.2087	488.28
51.2232	470.30
51.2376	485.50
51.2521	488.64
51.2665	525.47
51.2809	531.54
51.2954	521.74
51.3098	485.93
51.3243	483.07
51.3387	497.42
51.3531	548.76
51.3676	514.28
51.3820	503.62
51.3965	478.34
51.4109	479.06
51.4253	500.75
51.4398	522.71
51.4542	508.19
51.4687	535.49
51.4831	536.58
51.4975	530.48
51.5120	496.45
51.5264	519.41
51.5409	511.13
51.5553	534.33
51.5697	535.58
51.5842	537.12
51.5986	489.47
51.6131	492.49
51.6275	513.75
51.6419	477.05
51.6564	546.35
51.6708	503.82
51.6853	506.40
51.6997	539.32
51.7141	537.49
51.7286	500.34
51.7430	483.91
51.7575	534.39
51.7719	471.92
51.7863	499.32
51.8008	502.32
51.8152	484.95
51.8297	546.37
51.8441	515.83
51.8585	535.67
51.8730	522.79
51.8874	511.68
51.9019	517.18
51.9163	514.74
51.9307	509.62
51.9452	474.93
51.9596	519.29
51.9741	553.39
51.9885	538.92
52.0029	495.31
52.0174	512.85
52.0318	496.57
52.0463	468.59
52.0607	506.86
52.0751	464.15
52.0896	515.49
52.1040	537.86
52.1185	532.30
52.1329	498.61
52.1473	509.48
52.1618	526.81
52.1762	518.08
52.1907	531.34
52.2051	525.83
52.2195	522.01
52.2340	482.71
52.2484	522.85
52.2629	504.38
52.2773	554.17
52.2917	529.63
52.3062	510.18
52.3206	530.24
52.3351	526.33
52.3495	480.13
52.3639	488.42
52.3784	503.67
52.3928	499.08
52.4073	518.54
52.4217	560.85
52.4361	521.27
52.4506	514.26
52.4650	516.78
52.4795	516.38
52.4939	494.40
52.5083	524.28
52.5228	529.96
52.5372	524.27
52.5517	493.72
52.5661	510.44
52.5805	522.03
52.5950	501.41
52.6094	500.94
52.6239	487.96
52.6383	496.95
52.6527	493.65
52.6672	499.33
52.6816	492.26
52.6961	495.19
52.7105	530.61
52.7250	495.24
52.7394	523.00
52.7538	504.05
52.7683	511.39
52.7827	491.26
52.7972	484.83
52.8116	561.07
52.8260	492.79
52.8405	510.75
52.8549	518.48
52.8694	516.05
52.8838	517.06
52.8982	538.24
52.9127	518.64
52.9271	493.49
52.9416	529.70
52.9560	510.63
52.9704	514.83
52.9849	494.70
52.9993	493.35
53.0138	458.86
53.0282	500.35
53.0426	537.06
53.0571	496.96
53.0715	525.28
53.0860	559.25
53.1004	506.89
53.1148	486.23
53.1293	517.16
53.1437	530.62
53.1582	473.71
53.1726	502.94
53.1870	488.87
53.2015	535.97
53.2159	511.91
53.2304	528.18
53.2448	526.85
53.2592	502.10
53.2737	522.24
53.2881	512.51
53.3026	517.76
53.3170	511.53
53.3314	498.28
53.3459	511.01
53.3603	505.87
53.3748	515.98
53.3892	523.95
53.4036	477.27
53.4181	499.82
53.4325	531.05
53.4470	505.39
53.4614	487.16
53.4758	532.54
53.4903	529.18
53.5047	531.52
53.5192	528.35
53.5336	539.95
53.5480	509.86
53.5625	527.00
53.5769	525.21
53.5914	513.69
53.6058	539.00
53.6202	519.39
53.6347	518.88
53.6491	527.42
53.6636	521.74
53.6780	512.85
53.6924	507.30
53.7069	471.43
53.7213	501.37
53.7358	504.22
53.7502	544.79
53.7646	524.15
53.7791	529.51
53.7935	526.78
53.8080	505.78
53.8224	506.49
53.8368	514.38
53.8513	544.54
53.8657	524.75
53.8802	501.71
53.8946	534.31
53.9090	549.45
53.9235	536.54
53.9379	507.05
53.9524	486.96
53.9668	474.42
53.9812	496.32
53.9957	518.32
54.0101	528.67
54.0246	505.41
54.0390	506.06
54.0534	505.82
54.0679	527.68
54.0823	532.42
54.0968	540.73
54.1112	545.60
54.1256	532.85
54.1401	514.42
54.1545	498.27
54.1690	525.70
54.1834	532.23
54.1978	552.97
54.2123	576.73
54.2267	555.57
54.2412	560.36
54.2556	599.45
54.2700	625.25
54.2845	632.63
54.2989	594.83
54.3134	647.01
54.3278	621.28
54.3422	599.77
54.3567	619.82
54.3711	619.85
54.3856	568.03
54.4000	558.28
54.4144	561.15
54.4289	603.15
54.4433	538.10
54.4578	583.64
54.4722	599.10
54.4866	601.87
54.5011	563.51
54.5155	551.34
54.5300	592.53
54.5444	572.51
54.5588	538.92
54.5733	505.01
54.5877	515.51
54.6022	515.06
54.6166	508.94
54.6310	517.91
54.6455	504.54
54.6599	509.60
54.6744	530.86
54.6888	538.38
54.7032	543.22
54.7177	568.55
54.7321	508.74
54.7466	520.47
54.7610	523.07
54.7754	516.74
54.7899	512.78
54.8043	512.84
54.8188	505.74
54.8332	516.20
54.8476	501.46
54.8621	518.02
54.8765	540.60
54.8910	521.26
54.9054	509.31
54.9198	497.18
54.9343	515.05
54.9487	490.56
54.9632	493.53
54.9776	485.76
54.9920	488.30
55.0065	516.49
55.0209	538.45
55.0354	534.50
55.0498	519.09
55.0642	503.55
55.0787	539.00
55.0931	538.33
55.1076	499.75
55.1220	502.04
55.1364	509.62
55.1509	482.75
55.1653	561.10
55.1798	551.65
55.1942	545.76
55.2086	514.14
55.2231	519.31
55.2375	500.04
55.2520	541.22
55.2664	497.65
55.2808	511.59
55.2953	509.14
55.3097	495.22
55.3242	508.37
55.3386	543.63
55.3530	513.30
55.3675	521.71
55.3819	480.91
55.3964	519.43
55.4108	519.63
55.4252	531.48
55.4397	488.37
55.4541	503.58
55.4686	556.64
55.4830	551.89
55.4974	523.77
55.5119	557.54
55.5263	536.42
55.5408	550.10
55.5552	534.53
55.5696	518.71
55.5841	554.85
55.5985	543.03
55.6130	531.06
55.6274	552.47
55.6418	533.80
55.6563	518.72
55.6707	540.91
55.6852	488.33
55.6996	508.96
55.7140	493.74
55.7285	506.76
55.7429	532.36
55.7574	532.14
55.7718	500.46
55.7862	528.24
55.8007	532.01
55.8151	556.31
55.8296	543.34
55.8440	513.20
55.8584	543.49
55.8729	527.18
55.8873	524.57
55.9018	515.63
55.9162	500.59
55.9306	525.35
55.9451	507.50
55.9595	492.71
55.9740	528.25
55.9884	563.93
56.0028	567.94
56.0173	517.04
56.0317	526.14
56.0462	481.54
56.0606	531.16
56.0750	520.81
56.0895	514.12
56.1039	479.19
56.1184	529.18
56.1328	518.11
56.1472	497.11
56.1617	491.38
56.1761	551.20
56.1906	520.53
56.2050	547.17
56.2194	545.62
56.2339	517.10
56.2483	527.38
56.2628	502.69
56.2772	512.84
56.2916	517.78
56.3061	502.58
56.3205	507.43
56.3350	574.12
56.3494	502.63
56.3639	505.71
56.3783	503.12
56.3927	523.58
56.4072	489.38
56.4216	507.48
56.4361	522.50
56.4505	483.14
56.4649	524.45
56.4794	540.40
56.4938	547.62
56.5083	550.94
56.5227	536.82
56.5371	526.51
56.5516	491.51
56.5660	525.94
56.5805	516.43
56.5949	509.72
56.6093	527.52
56.6238	505.15
56.6382	503.67
56.6527	539.59
56.6671	541.81
56.6815	532.96
56.6960	543.52
56.7104	530.41
56.7249	535.41
56.7393	522.28
56.7537	526.37
56.7682	496.45
56.7826	518.48
56.7971	532.74
56.8115	493.87
56.8259	488.57
56.8404	497.32
56.8548	532.46
56.8693	516.39
56.8837	531.35
56.8981	492.30
56.9126	497.06
56.9270	514.69
56.9415	526.83
56.9559	538.15
56.9703	485.09
56.9848	522.78
56.9992	539.40
57.0137	498.19
57.0281	514.63
57.0425	478.03
57.0570	530.03
57.0714	515.26
57.0859	550.29
57.1003	522.07
57.1147	473.92
57.1292	516.50
57.1436	478.96
57.1581	514.12
57.1725	513.14
57.1869	507.73
57.2014	503.46
57.2158	531.90
57.2303	504.76
57.2447	498.99
57.2591	495.47
57.2736	523.36
57.2880	538.23
57.3025	559.95
57.3169	510.75
57.3313	548.29
57.3458	546.58
57.3602	534.13
57.3747	514.02
57.3891	530.77
57.4035	495.76
57.4180	525.30
57.4324	548.15
57.4469	526.82
57.4613	531.95
57.4757	572.28
57.4902	542.52
57.5046	517.43
57.5191	538.94
57.5335	549.90
57.5479	588.51
57.5624	547.46
57.5768	512.82
57.5913	490.02
57.6057	515.49
57.6201	494.56
57.6346	542.75
57.6490	524.54
57.6635	525.31
57.6779	519.20
57.6923	540.22
57.7068	560.88
57.7212	567.05
57.7357	548.60
57.7501	530.94
57.7645	567.31
57.7790	586.80
57.7934	554.22
57.8079	572.05
57.8223	584.27
57.8367	620.72
57.8512	629.57
57.8656	654.34
57.8801	677.16
57.8945	717.46
57.9089	676.52
57.9234	708.97
57.9378	746.57
57.9523	691.99
57.9667	674.52
57.9811	672.43
57.9956	658.39
58.0100	639.33
58.0245	687.28
58.0389	670.57
58.0533	668.79
58.0678	678.39
58.0822	681.18
58.0967	682.60
58.1111	652.96
58.1255	652.30
58.1400	613.38
58.1544	632.54
58.1689	590.80
58.1833	574.03
58.1977	570.39
58.2122	545.98
58.2266	549.62
58.2411	580.02
58.2555	568.15
58.2699	566.31
58.2844	565.99
58.2988	555.70
58.3133	546.37
58.3277	568.75
58.3421	572.91
58.3566	568.88
58.3710	551.11
58.3855	556.35
58.3999	551.36
58.4143	543.57
58.4288	550.89
58.4432	533.97
58.4577	527.39
58.4721	559.75
58.4865	563.80
58.5010	528.73
58.5154	525.35
58.5299	529.11
58.5443	525.86
58.5587	508.63
58.5732	516.47
58.5876	548.81
58.6021	535.75
58.6165	516.20
58.6309	539.95
58.6454	531.93
58.6598	513.73
58.6743	512.15
58.6887	532.74
58.7031	538.97
58.7176	526.43
58.7320	551.48
58.7465	541.12
58.7609	520.94
58.7753	542.25
58.7898	524.67
58.8042	533.33
58.8187	564.61
58.8331	519.83
58.8475	515.28
58.8620	549.16
58.8764	531.86
58.8909	512.24
58.9053	565.54
58.9197	538.12
58.9342	521.65
58.9486	524.12
58.9631	525.78
58.9775	539.94
58.9919	549.38
59.0064	535.99
59.0208	537.51
59.0353	516.70
59.0497	526.80
59.0641	540.69
59.0786	546.28
59.0930	536.08
59.1075	533.18
59.1219	530.70
59.1363	511.41
59.1508	512.89
59.1652	531.89
59.1797	532.21
59.1941	518.72
59.2085	559.53
59.2230	541.35
59.2374	552.86
59.2519	548.28
59.2663	533.31
59.2807	572.56
59.2952	521.53
59.3096	541.32
59.3241	598.93
59.3385	571.63
59.3529	584.44
59.3674	578.91
59.3818	583.69
59.3963	579.54
59.4107	567.99
59.4251	573.78
59.4396	545.16
59.4540	546.59
59.4685	561.43
59.4829	568.40
59.4973	536.46
59.5118	580.75
59.5262	576.58
59.5407	590.11
59.5551	569.01
59.5695	537.87
59.5840	518.02
59.5984	544.38
59.6129	525.33
59.6273	508.36
59.6417	529.85
59.6562	549.19
59.6706	546.69
59.6851	568.74
59.6995	555.33
59.7139	535.72
59.7284	518.06
59.7428	519.63
59.7573	534.97
59.7717	527.59
59.7861	555.13
59.8006	550.38
59.8150	529.68
59.8295	568.50
59.8439	542.12
59.8583	565.16
59.8728	550.96
59.8872	550.62
59.9017	547.09
59.9161	571.88
59.9305	540.66
59.9450	558.23
59.9594	507.40
59.9739	540.27
59.9883	527.43
60.0027	515.01
60.0172	561.25
60.0316	528.51
60.0461	505.08
60.0605	515.51
60.0750	535.70
60.0894	571.49
60.1038	528.78
60.1183	542.29
60.1327	538.40
60.1472	498.01
60.1616	504.06
60.1760	513.07
60.1905	508.92
60.2049	532.92
60.2194	510.87
60.2338	533.72
60.2482	546.70
60.2627	496.06
60.2771	555.77
60.2916	570.14
60.3060	526.10
60.3204	547.20
60.3349	556.25
60.3493	563.20
60.3638	547.31
60.3782	521.63
60.3926	522.48
60.4071	538.22
60.4215	536.97
60.4360	507.73
60.4504	520.87
60.4648	531.58
60.4793	574.92
60.4937	549.66
60.5082	544.11
60.5226	525.48
60.5370	521.53
60.5515	556.87
60.5659	556.41
60.5804	509.85
60.5948	517.09
60.6092	568.95
60.6237	509.11
60.6381	507.93
60.6526	503.13
60.6670	525.18
60.6814	521.91
60.6959	512.36
60.7103	498.92
60.7248	539.82
60.7392	596.43
60.7536	569.80
60.7681	501.44
60.7825	583.50
60.7970	565.13
60.8114	530.37
60.8258	513.73
60.8403	553.19
60.8547	513.63
60.8692	565.38
60.8836	579.30
60.8980	564.56
60.9125	559.80
60.9269	538.10
60.9414	522.20
60.9558	538.41
60.9702	525.81
60.9847	573.20
60.9991	544.93
61.0136	554.62
61.0280	539.97
61.0424	524.24
61.0569	575.48
61.0713	570.61
61.0858	545.20
61.1002	563.44
61.1146	546.79
61.1291	566.62
61.1435	512.51
61.1580	493.92
61.1724	534.25
61.1868	526.33
61.2013	531.83
61.2157	568.26
61.2302	533.28
61.2446	565.06
61.2590	546.50
61.2735	525.76
61.2879	549.06
61.3024	521.86
61.3168	542.85
61.3312	553.62
61.3457	586.58
61.3601	551.22
61.3746	514.82
61.3890	533.09
61.4034	518.04
61.4179	545.78
61.4323	592.51
61.4468	561.04
61.4612	548.74
61.4756	563.13
61.4901	532.22
61.5045	530.85
61.5190	547.08
61.5334	560.89
61.5478	521.31
61.5623	512.28
61.5767	506.38
61.5912	534.17
61.6056	570.27
61.6200	560.64
61.6345	529.94
61.6489	539.02
61.6634	530.63
61.6778	551.14
61.6922	544.14
61.7067	521.27
61.7211	566.54
61.7356	538.61
61.7500	566.60
61.7644	542.52
61.7789	583.05
61.7933	565.64
61.8078	578.12
61.8222	557.32
61.8366	531.02
61.8511	538.81
61.8655	546.68
61.8800	553.60
61.8944	565.05
61.9088	542.97
61.9233	553.59
61.9377	535.84
61.9522	522.19
61.9666	532.45
61.9810	545.22
61.9955	591.84
62.0099	560.73
62.0244	591.29
62.0388	571.00
62.0532	581.95
62.0677	546.56
62.0821	556.60
62.0966	587.67
62.1110	584.23
62.1254	562.15
62.1399	506.60
62.1543	516.00
62.1688	535.59
62.1832	539.88
62.1976	543.37
62.2121	562.85
62.2265	559.82
62.2410	549.58
62.2554	577.51
62.2698	540.79
62.2843	547.29
62.2987	536.37
62.3132	513.84
62.3276	529.03
62.3420	570.10
62.3565	543.72
62.3709	567.17
62.3854	554.32
62.3998	549.45
62.4142	545.65
62.4287	569.49
62.4431	560.18
62.4576	543.20
62.4720	558.27
62.4864	579.20
62.5009	576.09
62.5153	551.15
62.5298	561.26
62.5442	574.75
62.5586	541.90
62.5731	553.47
62.5875	584.66
62.6020	565.62
62.6164	547.81
62.6308	550.14
62.6453	545.80
62.6597	553.69
62.6742	548.24
62.6886	531.69
62.7030	567.18
62.7175	578.04
62.7319	546.49
62.7464	545.44
62.7608	586.77
62.7752	568.72
62.7897	521.98
62.8041	548.85
62.8186	592.61
62.8330	600.71
62.8474	549.95
62.8619	574.95
62.8763	588.85
62.8908	551.05
62.9052	585.32
62.9196	572.73
62.9341	580.05
62.9485	581.68
62.9630	602.24
62.9774	611.29
62.9918	570.17
63.0063	571.20
63.0207	576.00
63.0352	585.41
63.0496	560.71
63.0640	553.50
63.0785	547.43
63.0929	567.54
63.1074	560.24
63.1218	568.10
63.1362	531.80
63.1507	577.14
63.1651	606.24
63.1796	565.60
63.1940	576.19
63.2084	596.38
63.2229	600.24
63.2373	600.83
63.2518	563.00
63.2662	567.93
63.2806	582.31
63.2951	564.96
63.3095	572.40
63.3240	605.39
63.3384	597.65
63.3528	595.92
63.3673	619.63
63.3817	583.79
63.3962	569.25
63.4106	611.85
63.4250	627.82
63.4395	622.11
63.4539	607.96
63.4684	633.36
63.4828	662.41
63.4972	681.41
63.5117	693.29
63.5261	746.69
63.5406	767.81
63.5550	777.77
63.5694	852.14
63.5839	922.63
63.5983	1003.49
63.6128	1026.81
63.6272	1005.51
63.6416	948.32
63.6561	919.45
63.6705	900.00
63.6850	834.19
63.6994	803.27
63.7138	820.95
63.7283	808.14
63.7427	789.17
63.7572	782.84
63.7716	799.82
63.7861	828.80
63.8005	791.25
63.8149	762.36
63.8294	763.34
63.8438	787.80
63.8583	761.65
63.8727	702.73
63.8871	684.98
63.9016	670.68
63.9160	657.86
63.9305	699.61
63.9449	685.42
63.9593	672.61
63.9738	599.82
63.9882	621.45
64.0027	619.72
64.0171	598.47
64.0315	628.32
64.0460	643.47
64.0604	630.64
64.0749	591.05
64.0893	562.03
64.1037	587.66
64.1182	602.26
64.1326	569.94
64.1471	585.09
64.1615	587.93
64.1759	572.57
64.1904	621.33
64.2048	595.60
64.2193	613.99
64.2337	592.69
64.2481	582.72
64.2626	586.84
64.2770	579.56
64.2915	554.81
64.3059	564.63
64.3203	596.74
64.3348	622.06
64.3492	606.14
64.3637	618.31
64.3781	601.22
64.3925	604.97
64.4070	590.99
64.4214	604.95
64.4359	618.10
64.4503	637.42
64.4647	688.41
64.4792	621.51
64.4936	608.10
64.5081	622.01
64.5225	633.76
64.5369	623.47
64.5514	633.22
64.5658	614.25
64.5803	646.55
64.5947	654.00
64.6091	618.18
64.6236	618.50
64.6380	618.73
64.6525	627.93
64.6669	653.19
64.6813	628.79
64.6958	641.48
64.7102	681.66
64.7247	681.35
64.7391	712.92
64.7535	680.74
64.7680	692.55
64.7824	706.03
64.7969	700.17
64.8113	692.92
64.8257	786.05
64.8402	841.01
64.8546	777.17
64.8691	817.84
64.8835	803.10
64.8979	829.42
64.9124	914.19
64.9268	894.92
64.9413	938.01
64.9557	920.47
64.9701	1007.65
64.9846	1107.22
64.9990	1169.26
65.0135	1197.84
65.0279	1409.08
65.0423	1692.18
65.0568	2006.48
65.0712	2599.43
65.0857	3216.76
65.1001	4356.41
65.1145	5811.98
65.1290	7758.64
65.1434	9362.46
65.1579	11133.90
65.1723	11908.58
65.1867	11489.20
65.2012	10240.94
65.2156	8671.02
65.2301	6944.48
65.2445	5647.78
65.2589	4636.81
65.2734	4259.68
65.2878	4407.37
65.3023	4869.20
65.3167	5730.91
65.3311	6488.37
65.3456	7100.99
65.3600	7077.22
65.3745	6536.14
65.3889	5700.79
65.4033	4599.18
65.4178	3617.90
65.4322	2778.05
65.4467	2096.77
65.4611	1747.98
65.4755	1501.64
65.4900	1307.88
65.5044	1148.99
65.5189	1025.95
65.5333	1007.32
65.5477	926.12
65.5622	854.97
65.5766	848.35
65.5911	830.46
65.6055	805.09
65.6199	781.69
65.6344	765.60
65.6488	777.89
65.6633	722.70
65.6777	705.55
65.6921	693.47
65.7066	752.44
65.7210	694.07
65.7355	692.84
65.7499	682.06
65.7643	697.83
65.7788	696.78
65.7932	683.58
65.8077	697.80
65.8221	670.11
65.8365	675.81
65.8510	682.49
65.8654	688.13
65.8799	665.54
65.8943	659.17
65.9087	632.66
65.9232	638.47
65.9376	658.25
65.9521	603.97
65.9665	650.48
65.9809	661.57
65.9954	644.84
66.0098	617.57
66.0243	682.62
66.0387	642.42
66.0531	613.52
66.0676	652.72
66.0820	640.17
66.0965	615.60
66.1109	604.62
66.1253	630.59
66.1398	630.45
66.1542	624.67
66.1687	653.10
66.1831	592.34
66.1975	568.47
66.2120	626.99
66.2264	632.05
66.2409	635.43
66.2553	608.67
66.2697	601.46
66.2842	604.23
66.2986	600.68
66.3131	633.91
66.3275	637.41
66.3419	600.06
66.3564	573.66
66.3708	590.88
66.3853	582.11
66.3997	580.99
66.4141	603.97
66.4286	617.11
66.4430	575.71
66.4575	578.94
66.4719	581.29
66.4863	565.04
66.5008	582.26
66.5152	557.30
66.5297	613.01
66.5441	592.80
66.5585	613.76
66.5730	600.32
66.5874	577.33
66.6019	609.91
66.6163	583.06
66.6307	594.72
66.6452	620.42
66.6596	618.20
66.6741	635.32
66.6885	565.05
66.7029	569.63
66.7174	569.97
66.7318	567.62
66.7463	572.54
66.7607	580.18
66.7751	549.32
66.7896	582.15
66.8040	593.95
66.8185	607.45
66.8329	623.66
66.8473	575.93
66.8618	569.68
66.8762	577.15
66.8907	573.96
66.9051	580.72
66.9195	586.38
66.9340	569.96
66.9484	594.43
66.9629	570.69
66.9773	573.43
66.9917	589.26
67.0062	568.11
67.0206	579.90
67.0351	598.59
67.0495	589.56
67.0639	573.24
67.0784	541.01
67.0928	613.60
67.1073	570.57
67.1217	612.35
67.1361	611.73
67.1506	579.84
67.1650	583.01
67.1795	546.22
67.1939	557.71
67.2083	565.24
67.2228	594.39
67.2372	592.45
67.2517	575.95
67.2661	581.40
67.2805	592.30
67.2950	576.49
67.3094	587.38
67.3239	588.09
67.3383	579.96
67.3527	554.91
67.3672	583.23
67.3816	594.08
67.3961	586.21
67.4105	587.59
67.4250	600.17
67.4394	582.08
67.4538	590.61
67.4683	584.72
67.4827	592.56
67.4972	562.45
67.5116	537.22
67.5260	591.04
67.5405	585.68
67.5549	657.14
67.5694	612.78
67.5838	574.92
67.5982	566.35
67.6127	546.94
67.6271	578.90
67.6416	563.13
67.6560	587.87
67.6704	580.25
67.6849	547.34
67.6993	552.59
67.7138	560.86
67.7282	563.22
67.7426	577.74
67.7571	546.78
67.7715	568.88
67.7860	552.14
67.8004	568.58
67.8148	599.82
67.8293	587.44
67.8437	561.12
67.8582	600.14
67.8726	600.84
67.8870	571.08
67.9015	550.88
67.9159	586.91
67.9304	549.67
67.9448	600.70
67.9592	590.11
67.9737	568.18
67.9881	578.11
68.0026	530.62
68.0170	571.57
68.0314	541.51
68.0459	526.22
68.0603	578.34
68.0748	591.80
68.0892	605.09
68.1036	585.53
68.1181	555.52
68.1325	589.32
68.1470	554.51
68.1614	587.49
68.1758	584.54
68.1903	544.22
68.2047	536.24
68.2192	590.61
68.2336	562.34
68.2480	574.98
68.2625	550.03
68.2769	589.57
68.2914	543.49
68.3058	563.79
68.3202	593.69
68.3347	574.25
68.3491	562.21
68.3636	575.50
68.3780	578.91
68.3924	590.62
68.4069	594.26
68.4213	547.93
68.4358	570.14
68.4502	553.25
68.4646	581.48
68.4791	614.04
68.4935	620.09
68.5080	579.59
68.5224	568.97
68.5368	553.46
68.5513	552.25
68.5657	540.69
68.5802	546.93
68.5946	572.91
68.6090	584.11
68.6235	546.70
68.6379	538.74
68.6524	596.50
68.6668	570.64
68.6812	575.65
68.6957	546.53
68.7101	594.76
68.7246	551.60
68.7390	570.92
68.7534	599.65
68.7679	582.17
68.7823	574.89
68.7968	593.38
68.8112	596.67
68.8256	574.43
68.8401	579.93
68.8545	570.46
68.8690	563.55
68.8834	624.93
68.8978	576.32
68.9123	594.52
68.9267	599.32
68.9412	561.41
68.9556	559.78
68.9700	549.11
68.9845	568.78
68.9989	544.51
69.0134	584.82
69.0278	566.28
69.0422	601.11
69.0567	618.37
69.0711	591.25
69.0856	570.52
69.1000	585.69
69.1144	592.65
69.1289	574.69
69.1433	607.58
69.1578	522.65
69.1722	591.97
69.1866	597.23
69.2011	578.44
69.2155	602.38
69.2300	589.32
69.2444	565.65
69.2588	558.98
69.2733	576.03
69.2877	612.89
69.3022	562.39
69.3166	559.60
69.3310	569.92
69.3455	589.14
69.3599	594.67
69.3744	594.98
69.3888	601.31
69.4032	559.93
69.4177	557.48
69.4321	598.57
69.4466	521.51
69.4610	573.81
69.4754	602.04
69.4899	583.42
69.5043	575.13
69.5188	585.16
69.5332	564.96
69.5476	569.85
69.5621	597.65
69.5765	621.50
69.5910	569.55
69.6054	606.13
69.6198	599.52
69.6343	582.12
69.6487	531.53
69.6632	580.48
69.6776	527.07
69.6920	602.18
69.7065	557.69
69.7209	570.81
69.7354	560.63
69.7498	599.12
69.7642	557.18
69.7787	633.96
69.7931	566.85
69.8076	554.64
69.8220	584.92
69.8364	640.49
69.8509	545.66
69.8653	597.44
69.8798	537.44
69.8942	636.67
69.9086	632.77
69.9231	581.16
69.9375	640.10
69.9520	582.43
69.9664	576.83
69.9808	551.59
69.9953	553.05
70.0097	526.90
70.0242	567.09
70.0386	577.93
70.0530	571.81
70.0675	562.77
70.0819	615.72
70.0964	655.90
70.1108	568.22
70.1252	555.00
70.1397	544.33
70.1541	555.14
70.1686	588.94
70.1830	636.22
70.1974	542.19
70.2119	595.35
70.2263	586.85
70.2408	543.99
70.2552	624.46
70.2696	601.30
70.2841	671.71
70.2985	599.74
70.3130	553.94
70.3274	583.36
70.3418	597.49
70.3563	575.69
70.3707	595.71
70.3852	602.74
70.3996	622.15
70.4140	566.32
70.4285	646.13
70.4429	656.11
70.4574	619.34
70.4718	597.73
70.4862	561.04
70.5007	510.54
70.5151	575.96
70.5296	569.69
70.5440	572.66
70.5584	546.54
70.5729	583.55
70.5873	551.65
70.6018	541.36
70.6162	571.36
70.6306	590.82
70.6451	545.80
70.6595	574.94
70.6740	585.65
70.6884	604.55
70.7028	614.06
70.7173	610.42
70.7317	582.29
70.7462	602.77
70.7606	589.15
70.7750	578.79
70.7895	551.49
70.8039	566.40
70.8184	591.79
70.8328	618.11
70.8472	554.09
70.8617	575.52
70.8761	604.00
70.8906	591.29
70.9050	613.93
70.9194	623.71
70.9339	631.52
70.9483	611.17
70.9628	616.56
70.9772	635.40
70.9916	597.80
71.0061	586.30
71.0205	556.65
71.0350	525.47
71.0494	552.36
71.0638	607.88
71.0783	592.80
71.0927	530.65
71.1072	551.02
71.1216	601.00
71.1361	602.55
71.1505	571.07
71.1649	577.69
71.1794	620.73
71.1938	627.77
71.2083	530.66
71.2227	533.54
71.2371	569.35
71.2516	578.39
71.2660	606.26
71.2805	564.68
71.2949	538.75
71.3093	535.90
71.3238	569.99
71.3382	610.55
71.3527	612.66
71.3671	601.19
71.3815	571.59
71.3960	608.32
71.4104	632.81
71.4249	590.05
71.4393	584.14
71.4537	542.47
71.4682	572.57
71.4826	605.86
71.4971	578.73
71.5115	571.75
71.5259	630.51
71.5404	652.05
71.5548	633.78
71.5693	632.65
71.5837	589.51
71.5981	534.51
71.6126	562.08
71.6270	575.50
71.6415	553.62
71.6559	565.28
71.6703	601.63
71.6848	610.03
71.6992	603.19
71.7137	635.21
71.7281	607.43
71.7425	595.83
71.7570	571.37
71.7714	528.86
71.7859	511.97
71.8003	569.54
71.8147	620.84
71.8292	600.16
71.8436	528.92
71.8581	520.14
71.8725	577.28
71.8869	562.07
71.9014	644.41
71.9158	649.60
71.9303	656.80
71.9447	651.05
71.9591	587.38
71.9736	573.41
71.9880	538.86
72.0025	560.36
72.0169	595.68
72.0313	578.27
72.0458	567.17
72.0602	531.27
72.0747	578.40
72.0891	636.00
72.1035	643.49
72.1180	523.60
72.1324	546.35
72.1469	570.92
72.1613	517.58
72.1757	529.63
72.1902	608.87
72.2046	691.06
72.2191	617.24
72.2335	590.34
72.2479	693.92
72.2624	666.80
72.2768	578.63
72.2913	553.87
72.3057	573.72
72.3201	568.34
72.3346	584.57
72.3490	609.93
72.3635	615.03
72.3779	567.40
72.3923	544.57
72.4068	603.37
72.4212	658.23
72.4357	673.91
72.4501	674.16
72.4645	609.22
72.4790	507.37
72.4934	580.89
72.5079	618.96
72.5223	549.95
72.5367	558.91
72.5512	545.07
72.5656	539.51
72.5801	546.34
72.5945	532.32
72.6089	502.49
72.6234	505.18
72.6378	515.07
72.6523	499.25
72.6667	571.46
72.6811	632.08
72.6956	566.83
72.7100	553.34
72.7245	551.91
72.7389	534.84
72.7533	504.45
72.7678	541.91
72.7822	614.57
72.7967	562.72
72.8111	600.64
72.8255	625.79
72.8400	588.05
72.8544	539.76
72.8689	563.59
72.8833	551.84