2022.09.19 19:37:16
Îáðàçåö: ß÷åéêà LCoV 16-09-2022
Lambda1 = 1.54060
Lambda2 = 1.54439
Lambdam = 1.54186
R = 0.497
2Theta	I

line¹ 0 ;repeat¹ 0
22.1120	590.82
22.1264	597.26
22.1409	608.54
22.1553	551.73
22.1697	542.48
22.1842	563.59
22.1986	568.19
22.2131	562.45
22.2275	531.78
22.2419	595.81
22.2564	628.78
22.2708	634.49
22.2853	567.75
22.2997	523.39
22.3141	608.12
22.3286	634.82
22.3430	560.18
22.3575	602.71
22.3719	618.42
22.3863	600.73
22.4008	565.95
22.4152	645.61
22.4297	583.53
22.4441	568.96
22.4585	562.82
22.4730	575.50
22.4874	541.32
22.5019	591.91
22.5163	626.14
22.5307	632.00
22.5452	731.21
22.5596	665.10
22.5741	563.59
22.5885	548.42
22.6029	527.28
22.6174	548.79
22.6318	497.16
22.6463	622.73
22.6607	535.81
22.6751	518.09
22.6896	550.59
22.7040	559.79
22.7185	584.67
22.7329	550.80
22.7473	554.68
22.7618	554.26
22.7762	634.24
22.7907	634.98
22.8051	608.88
22.8195	672.20
22.8340	547.43
22.8484	504.92
22.8629	560.63
22.8773	523.26
22.8917	501.81
22.9062	530.52
22.9206	523.26
22.9351	576.63
22.9495	534.78
22.9639	567.69
22.9784	580.03
22.9928	472.98
23.0073	496.95
23.0217	570.41
23.0361	616.55
23.0506	639.74
23.0650	611.01
23.0795	533.54
23.0939	592.39
23.1083	520.88
23.1228	631.90
23.1372	565.37
23.1517	589.42
23.1661	562.56
23.1806	626.97
23.1950	578.66
23.2094	564.84
23.2239	476.99
23.2383	548.58
23.2528	602.72
23.2672	563.45
23.2816	642.38
23.2961	553.22
23.3105	583.89
23.3250	530.03
23.3394	549.30
23.3538	651.67
23.3683	561.63
23.3827	587.33
23.3972	623.32
23.4116	537.80
23.4260	495.14
23.4405	490.72
23.4549	491.74
23.4694	592.85
23.4838	538.48
23.4982	447.76
23.5127	541.39
23.5271	610.43
23.5416	468.71
23.5560	625.17
23.5704	659.56
23.5849	613.78
23.5993	585.88
23.6138	635.88
23.6282	574.99
23.6426	549.36
23.6571	526.17
23.6715	589.06
23.6860	555.39
23.7004	615.53
23.7148	573.54
23.7293	575.35
23.7437	545.40
23.7582	543.14
23.7726	575.32
23.7870	599.05
23.8015	492.15
23.8159	641.61
23.8304	565.40
23.8448	549.02
23.8592	589.31
23.8737	546.60
23.8881	544.49
23.9026	564.25
23.9170	573.50
23.9314	558.35
23.9459	561.15
23.9603	593.24
23.9748	544.44
23.9892	608.41
24.0036	553.83
24.0181	546.28
24.0325	576.35
24.0470	563.33
24.0614	581.83
24.0758	584.85
24.0903	645.70
24.1047	584.91
24.1192	521.04
24.1336	563.07
24.1480	545.83
24.1625	565.87
24.1769	586.81
24.1914	547.25
24.2058	596.29
24.2202	591.89
24.2347	612.26
24.2491	618.26
24.2636	552.18
24.2780	589.77
24.2924	651.78
24.3069	577.53
24.3213	582.35
24.3358	598.12
24.3502	530.41
24.3646	527.51
24.3791	557.84
24.3935	516.11
24.4080	521.73
24.4224	569.54
24.4368	550.28
24.4513	552.12
24.4657	550.82
24.4802	548.22
24.4946	557.24
24.5090	530.89
24.5235	571.66
24.5379	561.71
24.5524	528.37
24.5668	543.60
24.5812	566.82
24.5957	594.69
24.6101	567.29
24.6246	563.74
24.6390	545.68
24.6534	533.01
24.6679	523.24
24.6823	571.36
24.6968	545.71
24.7112	542.16
24.7256	513.53
24.7401	589.82
24.7545	524.62
24.7690	530.00
24.7834	567.88
24.7978	538.95
24.8123	553.35
24.8267	549.52
24.8412	516.15
24.8556	527.54
24.8700	530.14
24.8845	559.06
24.8989	569.15
24.9134	557.60
24.9278	514.21
24.9422	553.86
24.9567	488.90
24.9711	522.63
24.9856	494.40
25.0000	484.48
25.0144	566.46
25.0289	605.53
25.0433	548.06
25.0578	563.53
25.0722	545.96
25.0866	545.31
25.1011	515.89
25.1155	524.77
25.1300	534.52
25.1444	551.14
25.1588	530.34
25.1733	554.70
25.1877	537.39
25.2022	516.30
25.2166	560.77
25.2310	538.66
25.2455	565.20
25.2599	519.06
25.2744	543.70
25.2888	545.91
25.3032	518.92
25.3177	522.91
25.3321	554.57
25.3466	545.24
25.3610	541.18
25.3754	522.88
25.3899	523.73
25.4043	533.24
25.4188	532.70
25.4332	552.69
25.4476	519.24
25.4621	508.22
25.4765	504.62
25.4910	540.66
25.5054	543.96
25.5198	492.05
25.5343	536.23
25.5487	536.21
25.5632	543.76
25.5776	547.25
25.5920	551.34
25.6065	587.94
25.6209	515.15
25.6354	496.38
25.6498	513.38
25.6642	539.12
25.6787	527.75
25.6931	550.05
25.7076	578.07
25.7220	566.92
25.7364	577.04
25.7509	576.73
25.7653	540.58
25.7798	542.04
25.7942	551.19
25.8086	544.84
25.8231	516.78
25.8375	485.68
25.8520	512.97
25.8664	528.29
25.8808	522.41
25.8953	503.06
25.9097	552.70
25.9242	522.53
25.9386	520.29
25.9530	507.52
25.9675	544.48
25.9819	555.62
25.9964	565.23
26.0108	518.11
26.0252	554.57
26.0397	583.15
26.0541	557.11
26.0686	507.81
26.0830	529.13
26.0974	565.37
26.1119	549.94
26.1263	560.90
26.1408	552.33
26.1552	481.17
26.1696	533.05
26.1841	560.77
26.1985	514.70
26.2130	567.19
26.2274	533.51
26.2418	547.40
26.2563	570.11
26.2707	540.04
26.2852	532.18
26.2996	502.87
26.3140	489.47
26.3285	519.49
26.3429	530.73
26.3574	536.06
26.3718	534.29
26.3862	502.94
26.4007	494.28
26.4151	513.80
26.4296	546.48
26.4440	516.91
26.4584	511.97
26.4729	573.19
26.4873	539.90
26.5018	498.05
26.5162	505.65
26.5306	525.31
26.5451	536.33
26.5595	529.76
26.5740	532.38
26.5884	535.88
26.6028	543.75
26.6173	551.64
26.6317	538.23
26.6462	544.98
26.6606	500.51
26.6750	533.46
26.6895	553.14
26.7039	540.50
26.7184	544.69
26.7328	527.39
26.7472	512.64
26.7617	507.58
26.7761	530.56
26.7906	520.00
26.8050	507.78
26.8194	514.35
26.8339	524.46
26.8483	514.58
26.8628	554.32
26.8772	556.13
26.8917	547.75
26.9061	524.34
26.9205	538.31
26.9350	523.74
26.9494	519.57
26.9639	512.23
26.9783	514.92
26.9927	500.15
27.0072	504.04
27.0216	525.91
27.0361	532.21
27.0505	536.65
27.0649	525.41
27.0794	525.78
27.0938	534.77
27.1083	534.00
27.1227	531.57
27.1371	497.03
27.1516	480.51
27.1660	510.13
27.1805	503.56
27.1949	520.93
27.2093	491.44
27.2238	512.30
27.2382	546.95
27.2527	553.60
27.2671	520.83
27.2815	538.05
27.2960	540.70
27.3104	520.87
27.3249	520.03
27.3393	556.15
27.3537	538.47
27.3682	527.75
27.3826	527.36
27.3971	511.72
27.4115	540.94
27.4259	541.45
27.4404	528.57
27.4548	528.29
27.4693	506.16
27.4837	504.84
27.4981	546.83
27.5126	526.01
27.5270	472.43
27.5415	528.34
27.5559	537.25
27.5703	502.70
27.5848	505.04
27.5992	523.15
27.6137	528.03
27.6281	520.41
27.6425	564.49
27.6570	534.80
27.6714	490.48
27.6859	521.74
27.7003	497.75
27.7147	535.37
27.7292	529.57
27.7436	545.55
27.7581	490.36
27.7725	532.76
27.7869	510.57
27.8014	503.82
27.8158	537.18
27.8303	512.60
27.8447	501.57
27.8591	521.04
27.8736	524.30
27.8880	506.69
27.9025	497.22
27.9169	486.81
27.9313	514.32
27.9458	554.01
27.9602	512.49
27.9747	552.79
27.9891	531.73
28.0035	543.62
28.0180	544.29
28.0324	517.66
28.0469	478.32
28.0613	516.00
28.0757	518.55
28.0902	543.51
28.1046	495.55
28.1191	557.87
28.1335	546.17
28.1479	525.56
28.1624	511.14
28.1768	513.75
28.1913	495.36
28.2057	542.40
28.2201	548.50
28.2346	523.06
28.2490	474.76
28.2635	523.13
28.2779	530.63
28.2923	529.18
28.3068	527.05
28.3212	528.18
28.3357	519.92
28.3501	523.58
28.3645	519.63
28.3790	492.02
28.3934	505.62
28.4079	533.27
28.4223	535.52
28.4367	530.25
28.4512	518.21
28.4656	516.61
28.4801	525.49
28.4945	510.07
28.5089	538.30
28.5234	531.01
28.5378	526.55
28.5523	513.56
28.5667	477.89
28.5811	482.33
28.5956	501.90
28.6100	530.46
28.6245	511.56
28.6389	499.55
28.6533	515.20
28.6678	521.95
28.6822	506.77
28.6967	488.21
28.7111	510.13
28.7255	509.18
28.7400	513.16
28.7544	507.04
28.7689	507.79
28.7833	535.57
28.7977	499.89
28.8122	495.81
28.8266	498.01
28.8411	511.95
28.8555	496.35
28.8699	494.87
28.8844	507.50
28.8988	495.50
28.9133	508.82
28.9277	550.77
28.9421	524.75
28.9566	541.89
28.9710	518.65
28.9855	527.43
28.9999	536.15
29.0143	520.74
29.0288	470.11
29.0432	513.73
29.0577	511.80
29.0721	513.81
29.0865	518.37
29.1010	510.63
29.1154	506.84
29.1299	498.85
29.1443	500.89
29.1587	493.99
29.1732	513.33
29.1876	523.58
29.2021	518.16
29.2165	521.24
29.2309	521.89
29.2454	509.93
29.2598	500.46
29.2743	524.90
29.2887	518.14
29.3031	511.03
29.3176	543.51
29.3320	514.43
29.3465	535.60
29.3609	512.93
29.3753	508.71
29.3898	495.98
29.4042	530.19
29.4187	522.19
29.4331	529.29
29.4475	512.23
29.4620	501.11
29.4764	536.68
29.4909	514.77
29.5053	501.26
29.5197	529.97
29.5342	509.18
29.5486	517.21
29.5631	521.92
29.5775	504.35
29.5919	517.46
29.6064	556.05
29.6208	490.18
29.6353	515.49
29.6497	489.91
29.6641	484.93
29.6786	455.59
29.6930	500.91
29.7075	515.24
29.7219	503.88
29.7363	488.35
29.7508	513.87
29.7652	528.89
29.7797	496.09
29.7941	515.52
29.8085	526.59
29.8230	498.66
29.8374	466.70
29.8519	490.88
29.8663	499.05
29.8807	497.97
29.8952	510.28
29.9096	510.87
29.9241	511.34
29.9385	519.74
29.9529	492.39
29.9674	466.70
29.9818	472.79
29.9963	468.03
30.0107	489.08
30.0251	521.40
30.0396	506.20
30.0540	510.47
30.0685	541.40
30.0829	487.93
30.0973	513.36
30.1118	506.59
30.1262	528.45
30.1407	538.15
30.1551	499.13
30.1695	520.41
30.1840	493.05
30.1984	493.45
30.2129	490.56
30.2273	512.40
30.2417	566.16
30.2562	521.75
30.2706	513.83
30.2851	515.96
30.2995	556.13
30.3139	528.90
30.3284	501.98
30.3428	500.10
30.3573	510.14
30.3717	517.40
30.3861	523.30
30.4006	498.05
30.4150	485.50
30.4295	519.15
30.4439	482.13
30.4583	511.62
30.4728	525.07
30.4872	479.08
30.5017	451.18
30.5161	480.32
30.5305	493.67
30.5450	502.45
30.5594	503.64
30.5739	550.54
30.5883	550.80
30.6028	552.58
30.6172	576.32
30.6316	558.07
30.6461	552.55
30.6605	548.30
30.6750	584.98
30.6894	571.30
30.7038	561.86
30.7183	591.01
30.7327	594.52
30.7472	634.48
30.7616	643.90
30.7760	690.35
30.7905	698.72
30.8049	710.43
30.8194	740.47
30.8338	696.95
30.8482	645.54
30.8627	682.95
30.8771	680.15
30.8916	642.61
30.9060	613.17
30.9204	615.85
30.9349	588.17
30.9493	573.05
30.9638	557.30
30.9782	542.25
30.9926	550.98
31.0071	560.65
31.0215	541.88
31.0360	523.24
31.0504	513.23
31.0648	527.41
31.0793	551.02
31.0937	537.64
31.1082	535.11
31.1226	556.01
31.1370	540.77
31.1515	523.78
31.1659	512.67
31.1804	543.36
31.1948	521.29
31.2092	527.27
31.2237	560.76
31.2381	570.49
31.2526	576.50
31.2670	514.68
31.2814	544.28
31.2959	534.32
31.3103	522.65
31.3248	519.78
31.3392	521.70
31.3536	547.62
31.3681	496.03
31.3825	495.48
31.3970	500.22
31.4114	513.26
31.4258	538.23
31.4403	545.04
31.4547	497.37
31.4692	502.64
31.4836	516.60
31.4980	503.08
31.5125	520.43
31.5269	528.61
31.5414	529.32
31.5558	511.66
31.5702	506.89
31.5847	505.91
31.5991	504.47
31.6136	506.00
31.6280	502.79
31.6424	528.39
31.6569	500.75
31.6713	511.21
31.6858	553.18
31.7002	536.22
31.7146	533.06
31.7291	528.22
31.7435	490.58
31.7580	500.90
31.7724	513.36
31.7868	540.21
31.8013	538.35
31.8157	503.40
31.8302	515.38
31.8446	510.59
31.8590	511.54
31.8735	501.07
31.8879	518.80
31.9024	550.51
31.9168	502.82
31.9312	471.74
31.9457	524.77
31.9601	494.53
31.9746	495.63
31.9890	495.43
32.0034	531.50
32.0179	493.72
32.0323	512.55
32.0468	544.89
32.0612	538.03
32.0756	503.56
32.0901	502.92
32.1045	486.54
32.1190	485.71
32.1334	510.75
32.1478	495.50
32.1623	519.11
32.1767	487.97
32.1912	481.32
32.2056	519.54
32.2200	520.86
32.2345	510.87
32.2489	521.66
32.2634	527.15
32.2778	532.67
32.2922	510.32
32.3067	484.23
32.3211	498.19
32.3356	500.39
32.3500	493.39
32.3644	529.13
32.3789	521.64
32.3933	530.46
32.4078	491.57
32.4222	560.30
32.4366	512.83
32.4511	473.20
32.4655	509.64
32.4800	514.35
32.4944	501.92
32.5088	517.03
32.5233	540.46
32.5377	535.07
32.5522	526.43
32.5666	509.19
32.5810	522.72
32.5955	535.68
32.6099	513.89
32.6244	527.72
32.6388	545.46
32.6532	514.47
32.6677	498.05
32.6821	507.06
32.6966	509.16
32.7110	532.13
32.7254	495.06
32.7399	498.19
32.7543	494.79
32.7688	477.95
32.7832	520.97
32.7976	489.02
32.8121	487.19
32.8265	499.40
32.8410	531.89
32.8554	535.19
32.8698	478.80
32.8843	503.46
32.8987	560.29
32.9132	548.35
32.9276	513.51
32.9420	508.74
32.9565	486.12
32.9709	533.58
32.9854	491.28
32.9998	496.04
33.0142	539.18
33.0287	556.37
33.0431	509.25
33.0576	521.39
33.0720	533.36
33.0864	484.52
33.1009	490.20
33.1153	488.01
33.1298	524.54
33.1442	521.52
33.1586	513.94
33.1731	463.56
33.1875	494.29
33.2020	496.52
33.2164	502.55
33.2308	524.59
33.2453	522.37
33.2597	478.39
33.2742	504.01
33.2886	510.18
33.3030	529.84
33.3175	521.27
33.3319	512.47
33.3464	527.80
33.3608	514.90
33.3752	499.07
33.3897	481.11
33.4041	527.37
33.4186	514.87
33.4330	533.24
33.4474	500.40
33.4619	499.95
33.4763	507.54
33.4908	546.71
33.5052	490.74
33.5196	474.82
33.5341	482.91
33.5485	482.87
33.5630	523.78
33.5774	505.52
33.5918	516.18
33.6063	496.63
33.6207	518.57
33.6352	500.19
33.6496	492.20
33.6640	501.19
33.6785	498.91
33.6929	521.29
33.7074	536.59
33.7218	506.34
33.7362	503.46
33.7507	502.99
33.7651	530.54
33.7796	508.01
33.7940	501.80
33.8084	496.07
33.8229	533.25
33.8373	522.39
33.8518	493.79
33.8662	484.50
33.8806	486.61
33.8951	518.74
33.9095	545.58
33.9240	532.39
33.9384	524.06
33.9528	507.45
33.9673	541.96
33.9817	530.30
33.9962	485.20
34.0106	513.09
34.0250	529.75
34.0395	523.05
34.0539	480.46
34.0684	506.00
34.0828	518.04
34.0972	521.93
34.1117	506.75
34.1261	525.00
34.1406	539.68
34.1550	492.82
34.1694	505.41
34.1839	506.84
34.1983	499.11
34.2128	492.89
34.2272	473.63
34.2417	488.01
34.2561	510.33
34.2705	489.97
34.2850	491.99
34.2994	526.13
34.3139	494.39
34.3283	520.45
34.3427	541.08
34.3572	550.69
34.3716	525.04
34.3861	495.98
34.4005	497.27
34.4149	487.82
34.4294	497.45
34.4438	512.21
34.4583	516.33
34.4727	522.29
34.4871	544.01
34.5016	536.51
34.5160	527.80
34.5305	518.42
34.5449	516.77
34.5593	513.44
34.5738	515.34
34.5882	501.15
34.6027	471.88
34.6171	503.63
34.6315	523.70
34.6460	495.79
34.6604	486.67
34.6749	484.51
34.6893	510.56
34.7037	530.88
34.7182	510.38
34.7326	522.27
34.7471	525.29
34.7615	498.46
34.7759	521.09
34.7904	514.80
34.8048	537.63
34.8193	527.02
34.8337	537.11
34.8481	524.21
34.8626	489.95
34.8770	512.25
34.8915	494.92
34.9059	529.61
34.9203	538.48
34.9348	517.45
34.9492	474.54
34.9637	496.35
34.9781	511.56
34.9925	502.17
35.0070	521.00
35.0214	548.32
35.0359	515.70
35.0503	508.21
35.0647	521.13
35.0792	492.76
35.0936	474.15
35.1081	501.74
35.1225	521.16
35.1369	541.31
35.1514	482.02
35.1658	491.30
35.1803	510.98
35.1947	497.57
35.2091	471.15
35.2236	515.37
35.2380	522.14
35.2525	500.99
35.2669	510.29
35.2813	537.83
35.2958	511.11
35.3102	492.38
35.3247	505.42
35.3391	540.92
35.3535	528.82
35.3680	508.47
35.3824	500.58
35.3969	498.74
35.4113	502.00
35.4257	543.11
35.4402	545.36
35.4546	526.60
35.4691	538.57
35.4835	568.98
35.4979	522.31
35.5124	506.47
35.5268	522.73
35.5413	534.34
35.5557	564.84
35.5701	553.72
35.5846	520.21
35.5990	520.05
35.6135	511.94
35.6279	523.68
35.6423	532.00
35.6568	507.53
35.6712	515.98
35.6857	548.82
35.7001	653.05
35.7145	696.46
35.7290	676.48
35.7434	624.12
35.7579	584.57
35.7723	578.58
35.7867	605.03
35.8012	621.88
35.8156	628.87
35.8301	618.96
35.8445	594.32
35.8589	629.85
35.8734	771.41
35.8878	847.79
35.9023	998.63
35.9167	1089.64
35.9311	1387.95
35.9456	2098.33
35.9600	2305.50
35.9745	1861.66
35.9889	1863.66
36.0033	2293.61
36.0178	2449.52
36.0322	2014.56
36.0467	1865.00
36.0611	1652.99
36.0755	1666.65
36.0900	1568.77
36.1044	1434.74
36.1189	1527.34
36.1333	1277.87
36.1477	1127.08
36.1622	1186.58
36.1766	1185.28
36.1911	998.04
36.2055	983.12
36.2199	996.22
36.2344	1031.43
36.2488	1043.70
36.2633	1049.44
36.2777	1090.30
36.2921	1058.10
36.3066	1052.29
36.3210	960.26
36.3355	976.28
36.3499	944.92
36.3643	859.53
36.3788	861.29
36.3932	799.88
36.4077	702.33
36.4221	724.82
36.4365	682.33
36.4510	651.67
36.4654	644.41
36.4799	643.77
36.4943	651.99
36.5087	586.36
36.5232	568.64
36.5376	575.23
36.5521	565.76
36.5665	566.34
36.5809	547.13
36.5954	538.07
36.6098	531.69
36.6243	528.98
36.6387	576.54
36.6531	540.51
36.6676	566.71
36.6820	559.03
36.6965	520.09
36.7109	556.79
36.7253	556.62
36.7398	531.51
36.7542	543.99
36.7687	541.82
36.7831	595.57
36.7975	598.99
36.8120	563.74
36.8264	572.87
36.8409	563.01
36.8553	606.56
36.8697	604.25
36.8842	567.74
36.8986	588.77
36.9131	598.14
36.9275	584.64
36.9419	594.64
36.9564	578.78
36.9708	549.52
36.9853	539.90
36.9997	566.43
37.0141	555.08
37.0286	568.23
37.0430	600.51
37.0575	517.76
37.0719	519.27
37.0863	526.20
37.1008	534.79
37.1152	496.06
37.1297	518.42
37.1441	494.52
37.1585	480.71
37.1730	525.41
37.1874	537.02
37.2019	520.05
37.2163	506.67
37.2307	507.90
37.2452	515.56
37.2596	499.40
37.2741	512.85
37.2885	486.78
37.3029	488.55
37.3174	534.30
37.3318	538.64
37.3463	502.27
37.3607	506.26
37.3751	512.09
37.3896	507.09
37.4040	484.29
37.4185	515.18
37.4329	518.49
37.4473	496.21
37.4618	532.64
37.4762	581.38
37.4907	554.26
37.5051	522.18
37.5195	490.35
37.5340	523.72
37.5484	493.78
37.5629	493.89
37.5773	481.16
37.5917	502.70
37.6062	497.61
37.6206	485.27
37.6351	519.11
37.6495	480.91
37.6639	448.79
37.6784	499.12
37.6928	514.80
37.7073	474.56
37.7217	498.09
37.7361	480.36
37.7506	495.67
37.7650	504.11
37.7795	519.49
37.7939	516.65
37.8083	509.85
37.8228	501.06
37.8372	499.86
37.8517	521.14
37.8661	552.58
37.8805	522.77
37.8950	511.92
37.9094	536.15
37.9239	499.97
37.9383	468.25
37.9528	508.41
37.9672	495.07
37.9816	500.13
37.9961	512.82
38.0105	518.12
38.0250	534.94
38.0394	529.28
38.0538	527.07
38.0683	555.89
38.0827	506.53
38.0972	515.84
38.1116	515.91
38.1260	540.46
38.1405	498.93
38.1549	506.50
38.1694	526.84
38.1838	502.58
38.1982	501.63
38.2127	516.88
38.2271	503.33
38.2416	504.24
38.2560	506.28
38.2704	454.95
38.2849	498.21
38.2993	492.17
38.3138	508.48
38.3282	548.48
38.3426	544.01
38.3571	503.07
38.3715	508.08
38.3860	554.38
38.4004	539.02
38.4148	554.72
38.4293	584.60
38.4437	581.10
38.4582	602.80
38.4726	643.88
38.4870	716.75
38.5015	745.94
38.5159	734.56
38.5304	792.72
38.5448	801.55
38.5592	819.40
38.5737	783.39
38.5881	719.27
38.6026	730.21
38.6170	736.55
38.6314	707.85
38.6459	648.59
38.6603	601.11
38.6748	571.78
38.6892	595.19
38.7036	597.34
38.7181	572.94
38.7325	535.99
38.7470	525.31
38.7614	514.94
38.7758	517.22
38.7903	510.52
38.8047	509.17
38.8192	519.96
38.8336	515.84
38.8480	496.19
38.8625	515.66
38.8769	512.44
38.8914	518.36
38.9058	554.49
38.9202	500.81
38.9347	523.88
38.9491	570.56
38.9636	521.89
38.9780	495.14
38.9924	516.63
39.0069	492.41
39.0213	488.06
39.0358	486.15
39.0502	475.94
39.0646	527.49
39.0791	525.17
39.0935	512.15
39.1080	503.90
39.1224	494.94
39.1368	495.25
39.1513	459.27
39.1657	492.75
39.1802	518.20
39.1946	514.32
39.2090	487.60
39.2235	515.35
39.2379	494.35
39.2524	509.83
39.2668	512.64
39.2812	517.86
39.2957	527.88
39.3101	530.09
39.3246	543.67
39.3390	518.00
39.3534	509.78
39.3679	509.39
39.3823	504.40
39.3968	507.73
39.4112	511.53
39.4256	494.06
39.4401	484.23
39.4545	481.77
39.4690	478.04
39.4834	495.81
39.4978	463.25
39.5123	472.72
39.5267	512.44
39.5412	517.81
39.5556	501.66
39.5700	487.24
39.5845	500.42
39.5989	517.73
39.6134	483.20
39.6278	510.87
39.6422	519.37
39.6567	515.76
39.6711	491.63
39.6856	504.40
39.7000	525.19
39.7144	489.63
39.7289	497.78
39.7433	512.73
39.7578	494.39
39.7722	498.88
39.7866	520.04
39.8011	476.86
39.8155	528.10
39.8300	530.19
39.8444	488.32
39.8588	511.37
39.8733	490.78
39.8877	517.17
39.9022	534.10
39.9166	535.55
39.9310	500.71
39.9455	468.33
39.9599	499.87
39.9744	501.57
39.9888	528.54
40.0032	516.41
40.0177	491.39
40.0321	483.96
40.0466	505.34
40.0610	501.23
40.0754	464.75
40.0899	496.76
40.1043	457.77
40.1188	477.14
40.1332	499.62
40.1476	476.07
40.1621	532.05
40.1765	518.58
40.1910	485.66
40.2054	470.68
40.2198	482.11
40.2343	506.10
40.2487	525.80
40.2632	490.92
40.2776	519.04
40.2920	515.73
40.3065	494.71
40.3209	472.52
40.3354	494.86
40.3498	536.78
40.3642	492.79
40.3787	501.28
40.3931	477.59
40.4076	489.41
40.4220	469.43
40.4364	483.67
40.4509	479.76
40.4653	483.67
40.4798	480.50
40.4942	504.12
40.5086	502.32
40.5231	539.89
40.5375	486.83
40.5520	514.53
40.5664	483.86
40.5808	497.12
40.5953	493.06
40.6097	468.98
40.6242	461.86
40.6386	489.07
40.6530	486.23
40.6675	503.34
40.6819	521.96
40.6964	503.30
40.7108	520.85
40.7252	497.55
40.7397	487.25
40.7541	511.63
40.7686	502.97
40.7830	538.50
40.7974	487.04
40.8119	501.38
40.8263	533.93
40.8408	494.95
40.8552	537.53
40.8696	516.32
40.8841	480.07
40.8985	541.13
40.9130	502.83
40.9274	487.54
40.9418	476.06
40.9563	474.22
40.9707	534.62
40.9852	522.01
40.9996	499.25
41.0140	480.02
41.0285	490.78
41.0429	487.55
41.0574	466.89
41.0718	535.29
41.0862	507.36
41.1007	502.54
41.1151	515.17
41.1296	484.16
41.1440	472.82
41.1584	497.76
41.1729	488.18
41.1873	477.45
41.2018	469.18
41.2162	506.88
41.2306	479.45
41.2451	512.22
41.2595	465.16
41.2740	468.40
41.2884	503.55
41.3028	469.90
41.3173	493.30
41.3317	520.42
41.3462	486.68
41.3606	489.55
41.3750	502.78
41.3895	517.68
41.4039	497.46
41.4184	498.51
41.4328	520.45
41.4472	516.72
41.4617	519.46
41.4761	517.00
41.4906	517.23
41.5050	500.82
41.5194	509.94
41.5339	474.74
41.5483	508.96
41.5628	484.15
41.5772	527.84
41.5916	506.63
41.6061	485.17
41.6205	479.17
41.6350	526.53
41.6494	513.69
41.6639	469.11
41.6783	494.23
41.6927	499.21
41.7072	510.54
41.7216	530.26
41.7361	509.02
41.7505	494.45
41.7649	490.60
41.7794	499.02
41.7938	522.20
41.8083	509.70
41.8227	482.27
41.8371	514.78
41.8516	531.36
41.8660	513.62
41.8805	538.29
41.8949	586.82
41.9093	548.65
41.9238	542.52
41.9382	564.18
41.9527	550.18
41.9671	545.01
41.9815	559.21
41.9960	545.79
42.0104	585.33
42.0249	586.05
42.0393	570.73
42.0537	566.01
42.0682	598.13
42.0826	565.55
42.0971	544.42
42.1115	545.67
42.1259	593.29
42.1404	575.32
42.1548	609.18
42.1693	653.30
42.1837	685.15
42.1981	722.16
42.2126	823.39
42.2270	878.05
42.2415	1042.03
42.2559	1199.44
42.2703	1339.85
42.2848	1447.20
42.2992	1587.33
42.3137	1627.04
42.3281	1652.31
42.3425	1544.86
42.3570	1408.39
42.3714	1378.73
42.3859	1339.61
42.4003	1286.10
42.4147	1279.68
42.4292	1270.08
42.4436	1116.60
42.4581	1035.81
42.4725	960.93
42.4869	846.96
42.5014	749.77
42.5158	707.00
42.5303	665.71
42.5447	623.53
42.5591	610.93
42.5736	559.45
42.5880	555.02
42.6025	575.50
42.6169	578.95
42.6313	531.33
42.6458	534.46
42.6602	522.82
42.6747	516.09
42.6891	517.72
42.7035	523.54
42.7180	542.76
42.7324	491.43
42.7469	493.03
42.7613	493.95
42.7757	494.95
42.7902	528.41
42.8046	525.34
42.8191	506.97
42.8335	519.79
42.8479	510.04
42.8624	515.40
42.8768	517.74
42.8913	507.93
42.9057	497.11
42.9201	497.49
42.9346	501.94
42.9490	496.72
42.9635	519.90
42.9779	521.85
42.9923	510.45
43.0068	494.91
43.0212	519.79
43.0357	538.21
43.0501	520.64
43.0645	505.38
43.0790	509.27
43.0934	492.71
43.1079	479.24
43.1223	523.13
43.1367	554.36
43.1512	509.93
43.1656	536.55
43.1801	516.31
43.1945	505.88
43.2089	519.54
43.2234	530.36
43.2378	514.50
43.2523	528.82
43.2667	488.71
43.2811	546.14
43.2956	546.79
43.3100	548.35
43.3245	528.83
43.3389	525.46
43.3533	522.68
43.3678	495.96
43.3822	497.41
43.3967	498.86
43.4111	490.78
43.4255	527.10
43.4400	517.36
43.4544	490.64
43.4689	522.31
43.4833	505.26
43.4977	524.54
43.5122	543.44
43.5266	532.10
43.5411	527.18
43.5555	544.13
43.5699	542.71
43.5844	530.96
43.5988	520.18
43.6133	565.37
43.6277	530.79
43.6421	521.53
43.6566	505.55
43.6710	490.58
43.6855	527.37
43.6999	519.32
43.7143	510.25
43.7288	517.00
43.7432	527.90
43.7577	555.75
43.7721	519.65
43.7865	494.74
43.8010	545.69
43.8154	502.46
43.8299	517.15
43.8443	526.41
43.8587	505.93
43.8732	534.05
43.8876	504.01
43.9021	529.58
43.9165	530.65
43.9309	516.88
43.9454	538.40
43.9598	520.82
43.9743	535.00
43.9887	549.72
44.0031	540.12
44.0176	584.64
44.0320	602.89
44.0465	619.99
44.0609	634.51
44.0753	657.82
44.0898	650.29
44.1042	646.47
44.1187	612.55
44.1331	642.72
44.1475	622.90
44.1620	633.33
44.1764	596.51
44.1909	566.19
44.2053	577.55
44.2197	592.46
44.2342	576.70
44.2486	594.20
44.2631	576.39
44.2775	550.36
44.2919	543.91
44.3064	566.30
44.3208	571.53
44.3353	577.39
44.3497	576.32
44.3641	560.38
44.3786	576.93
44.3930	545.39
44.4075	529.67
44.4219	586.95
44.4363	604.36
44.4508	540.72
44.4652	580.95
44.4797	603.37
44.4941	565.46
44.5085	564.29
44.5230	553.43
44.5374	583.48
44.5519	607.47
44.5663	549.70
44.5807	585.36
44.5952	565.22
44.6096	597.74
44.6241	570.95
44.6385	596.66
44.6529	595.41
44.6674	571.17
44.6818	596.24
44.6963	636.63
44.7107	656.07
44.7251	711.43
44.7396	746.93
44.7540	801.29
44.7685	848.41
44.7829	902.53
44.7973	835.65
44.8118	827.67
44.8262	795.11
44.8407	746.69
44.8551	717.22
44.8695	723.97
44.8840	725.87
44.8984	757.96
44.9129	738.56
44.9273	674.62
44.9417	634.94
44.9562	576.93
44.9706	565.64
44.9851	603.43
44.9995	591.43
45.0139	532.11
45.0284	566.47
45.0428	554.69
45.0573	544.91
45.0717	527.63
45.0861	502.52
45.1006	508.15
45.1150	539.18
45.1295	542.67
45.1439	472.29
45.1583	499.13
45.1728	536.44
45.1872	514.38
45.2017	495.17
45.2161	496.42
45.2305	486.88
45.2450	494.90
45.2594	506.37
45.2739	531.13
45.2883	508.25
45.3028	472.77
45.3172	502.72
45.3316	509.16
45.3461	514.52
45.3605	487.02
45.3750	482.04
45.3894	507.04
45.4038	520.63
45.4183	490.96
45.4327	480.65
45.4472	481.02
45.4616	490.75
45.4760	509.86
45.4905	466.89
45.5049	502.05
45.5194	516.36
45.5338	507.82
45.5482	519.54
45.5627	516.85
45.5771	503.35
45.5916	507.60
45.6060	491.43
45.6204	518.79
45.6349	519.63
45.6493	504.91
45.6638	513.37
45.6782	505.98
45.6926	479.85
45.7071	496.02
45.7215	520.49
45.7360	492.96
45.7504	501.28
45.7648	497.93
45.7793	508.40
45.7937	522.37
45.8082	499.46
45.8226	495.65
45.8370	501.98
45.8515	492.57
45.8659	500.10
45.8804	509.75
45.8948	510.91
45.9092	501.90
45.9237	475.63
45.9381	506.61
45.9526	501.39
45.9670	469.94
45.9814	486.63
45.9959	515.07
46.0103	481.38
46.0248	496.70
46.0392	506.76
46.0536	516.35
46.0681	537.36
46.0825	488.28
46.0970	499.01
46.1114	504.95
46.1258	522.30
46.1403	503.57
46.1547	491.68
46.1692	500.50
46.1836	517.30
46.1980	473.45
46.2125	517.49
46.2269	551.22
46.2414	568.14
46.2558	499.72
46.2702	493.03
46.2847	496.06
46.2991	491.07
46.3136	480.72
46.3280	484.19
46.3424	502.20
46.3569	514.98
46.3713	517.28
46.3858	483.78
46.4002	491.61
46.4146	509.82
46.4291	536.32
46.4435	529.76
46.4580	490.76
46.4724	488.99
46.4868	501.97
46.5013	498.92
46.5157	496.60
46.5302	490.39
46.5446	485.40
46.5590	512.30
46.5735	501.56
46.5879	476.04
46.6024	485.56
46.6168	501.06
46.6312	490.01
46.6457	492.19
46.6601	486.01
46.6746	502.94
46.6890	502.45
46.7034	510.71
46.7179	490.43
46.7323	531.00
46.7468	534.12
46.7612	492.83
46.7756	527.82
46.7901	526.03
46.8045	506.28
46.8190	544.15
46.8334	499.99
46.8478	472.03
46.8623	490.63
46.8767	522.26
46.8912	507.80
46.9056	507.07
46.9200	541.89
46.9345	537.10
46.9489	493.66
46.9634	479.88
46.9778	501.79
46.9922	532.40
47.0067	532.58
47.0211	518.27
47.0356	559.33
47.0500	532.05
47.0644	513.68
47.0789	519.45
47.0933	545.63
47.1078	532.16
47.1222	493.17
47.1366	492.00
47.1511	534.77
47.1655	544.76
47.1800	530.64
47.1944	494.64
47.2088	481.51
47.2233	494.36
47.2377	543.67
47.2522	548.01
47.2666	511.06
47.2810	510.86
47.2955	474.51
47.3099	506.47
47.3244	507.28
47.3388	512.58
47.3532	521.81
47.3677	530.29
47.3821	486.08
47.3966	527.23
47.4110	503.07
47.4254	528.38
47.4399	536.99
47.4543	483.88
47.4688	534.48
47.4832	512.35
47.4976	504.65
47.5121	503.40
47.5265	518.10
47.5410	509.82
47.5554	489.83
47.5698	481.46
47.5843	471.48
47.5987	515.82
47.6132	505.70
47.6276	480.22
47.6420	488.28
47.6565	483.45
47.6709	508.93
47.6854	502.75
47.6998	520.40
47.7142	528.23
47.7287	493.77
47.7431	486.84
47.7576	484.63
47.7720	471.60
47.7864	477.18
47.8009	493.89
47.8153	509.60
47.8298	512.68
47.8442	484.28
47.8586	542.96
47.8731	512.60
47.8875	487.26
47.9020	498.47
47.9164	519.35
47.9308	530.28
47.9453	506.52
47.9597	492.09
47.9742	475.57
47.9886	505.95
48.0030	513.94
48.0175	491.96
48.0319	516.89
48.0464	513.71
48.0608	512.21
48.0752	514.90
48.0897	533.04
48.1041	501.96
48.1186	517.31
48.1330	508.78
48.1474	509.86
48.1619	495.85
48.1763	523.26
48.1908	506.61
48.2052	519.24
48.2196	520.48
48.2341	518.30
48.2485	480.10
48.2630	456.98
48.2774	489.42
48.2918	517.92
48.3063	502.91
48.3207	481.04
48.3352	540.76
48.3496	524.50
48.3640	542.26
48.3785	546.56
48.3929	533.21
48.4074	501.56
48.4218	523.15
48.4362	504.18
48.4507	499.40
48.4651	509.16
48.4796	517.28
48.4940	544.68
48.5084	519.44
48.5229	529.54
48.5373	519.43
48.5518	527.83
48.5662	500.81
48.5806	537.17
48.5951	498.65
48.6095	513.17
48.6240	491.12
48.6384	526.65
48.6528	541.34
48.6673	530.98
48.6817	506.84
48.6962	521.07
48.7106	519.33
48.7250	495.70
48.7395	553.45
48.7539	504.44
48.7684	542.57
48.7828	550.69
48.7972	522.26
48.8117	539.67
48.8261	508.57
48.8406	509.32
48.8550	561.46
48.8694	549.78
48.8839	498.29
48.8983	501.94
48.9128	540.84
48.9272	525.75
48.9416	559.15
48.9561	588.17
48.9705	581.46
48.9850	571.22
48.9994	578.23
49.0139	571.84
49.0283	613.11
49.0427	574.69
49.0572	607.72
49.0716	650.16
49.0861	634.90
49.1005	709.30
49.1149	725.01
49.1294	768.29
49.1438	721.89
49.1583	784.74
49.1727	859.30
49.1871	909.19
49.2016	925.33
49.2160	1001.24
49.2305	1071.08
49.2449	1141.94
49.2593	1224.25
49.2738	1316.49
49.2882	1395.47
49.3027	1528.00
49.3171	1659.41
49.3315	1692.73
49.3460	1784.25
49.3604	1720.21
49.3749	1633.62
49.3893	1756.75
49.4037	1722.59
49.4182	1756.60
49.4326	1742.16
49.4471	1593.62
49.4615	1571.11
49.4759	1503.32
49.4904	1451.94
49.5048	1394.88
49.5193	1336.87
49.5337	1244.49
49.5481	1167.07
49.5626	1134.51
49.5770	1041.69
49.5915	1016.48
49.6059	932.87
49.6203	880.61
49.6348	818.03
49.6492	747.90
49.6637	743.42
49.6781	714.10
49.6925	705.97
49.7070	690.49
49.7214	635.22
49.7359	587.38
49.7503	600.31
49.7647	580.59
49.7792	622.47
49.7936	586.33
49.8081	626.95
49.8225	584.96
49.8369	547.49
49.8514	590.60
49.8658	571.31
49.8803	535.03
49.8947	532.54
49.9091	569.78
49.9236	520.59
49.9380	559.80
49.9525	539.75
49.9669	497.91
49.9813	516.33
49.9958	507.17
50.0102	529.25
50.0247	577.14
50.0391	529.99
50.0535	555.71
50.0680	577.18
50.0824	531.52
50.0969	500.61
50.1113	504.62
50.1257	551.58
50.1402	527.88
50.1546	502.18
50.1691	520.53
50.1835	524.30
50.1979	487.99
50.2124	503.71
50.2268	484.78
50.2413	489.73
50.2557	527.19
50.2701	529.75
50.2846	497.63
50.2990	508.29
50.3135	511.90
50.3279	509.36
50.3423	501.95
50.3568	483.99
50.3712	515.32
50.3857	515.52
50.4001	494.98
50.4145	509.87
50.4290	556.58
50.4434	524.59
50.4579	530.39
50.4723	541.38
50.4867	527.36
50.5012	509.72
50.5156	487.02
50.5301	505.88
50.5445	501.91
50.5589	511.14
50.5734	507.31
50.5878	525.16
50.6023	494.64
50.6167	517.23
50.6311	492.78
50.6456	488.07
50.6600	524.62
50.6745	521.74
50.6889	511.65
50.7033	529.55
50.7178	514.52
50.7322	470.69
50.7467	514.04
50.7611	515.76
50.7755	500.30
50.7900	510.65
50.8044	504.91
50.8189	516.06
50.8333	496.38
50.8477	517.69
50.8622	539.87
50.8766	501.02
50.8911	540.73
50.9055	524.53
50.9199	506.93
50.9344	499.74
50.9488	492.47
50.9633	521.85
50.9777	512.02
50.9921	525.40
51.0066	541.15
51.0210	527.42
51.0355	506.99
51.0499	496.09
51.0643	521.22
51.0788	498.51
51.0932	506.57
51.1077	527.04
51.1221	522.91
51.1365	506.65
51.1510	508.63
51.1654	503.76
51.1799	489.77
51.1943	487.86
51.2087	496.68
51.2232	471.97
51.2376	490.10
51.2521	513.56
51.2665	502.56
51.2809	532.20
51.2954	492.80
51.3098	493.71
51.3243	531.47
51.3387	527.48
51.3531	506.41
51.3676	473.58
51.3820	496.76
51.3965	500.05
51.4109	508.17
51.4253	509.35
51.4398	514.82
51.4542	484.89
51.4687	539.67
51.4831	517.61
51.4975	529.60
51.5120	542.82
51.5264	494.45
51.5409	499.33
51.5553	527.99
51.5697	483.50
51.5842	495.03
51.5986	484.55
51.6131	485.47
51.6275	490.04
51.6419	516.14
51.6564	506.77
51.6708	487.26
51.6853	485.20
51.6997	497.59
51.7141	518.26
51.7286	528.34
51.7430	516.45
51.7575	490.03
51.7719	505.60
51.7863	539.23
51.8008	532.64
51.8152	542.51
51.8297	519.16
51.8441	507.58
51.8585	529.39
51.8730	518.03
51.8874	543.47
51.9019	526.01
51.9163	528.11
51.9307	512.57
51.9452	517.23
51.9596	485.09
51.9741	476.01
51.9885	513.73
52.0029	556.14
52.0174	529.36
52.0318	532.01
52.0463	499.92
52.0607	480.91
52.0751	485.78
52.0896	525.48
52.1040	506.51
52.1185	519.35
52.1329	524.27
52.1473	510.87
52.1618	490.45
52.1762	488.64
52.1907	509.84
52.2051	523.36
52.2195	538.41
52.2340	557.81
52.2484	523.18
52.2629	514.36
52.2773	522.72
52.2917	485.53
52.3062	511.37
52.3206	493.82
52.3351	525.79
52.3495	537.34
52.3639	515.05
52.3784	486.16
52.3928	509.00
52.4073	514.16
52.4217	549.48
52.4361	534.46
52.4506	480.38
52.4650	522.45
52.4795	507.94
52.4939	514.15
52.5083	456.84
52.5228	490.60
52.5372	530.56
52.5517	516.18
52.5661	544.46
52.5805	528.27
52.5950	554.00
52.6094	544.71
52.6239	506.93
52.6383	520.73
52.6527	530.64
52.6672	471.77
52.6816	516.99
52.6961	532.67
52.7105	539.77
52.7250	518.27
52.7394	500.68
52.7538	506.85
52.7683	517.08
52.7827	532.88
52.7972	496.32
52.8116	503.90
52.8260	519.07
52.8405	511.47
52.8549	512.22
52.8694	510.08
52.8838	520.40
52.8982	494.08
52.9127	480.19
52.9271	473.72
52.9416	534.56
52.9560	490.33
52.9704	512.04
52.9849	487.34
52.9993	491.53
53.0138	507.65
53.0282	508.24
53.0426	498.07
53.0571	517.72
53.0715	493.76
53.0860	514.70
53.1004	484.13
53.1148	505.25
53.1293	528.89
53.1437	517.65
53.1582	502.34
53.1726	493.06
53.1870	523.58
53.2015	508.23
53.2159	497.24
53.2304	516.29
53.2448	531.26
53.2592	515.46
53.2737	481.21
53.2881	526.19
53.3026	490.93
53.3170	488.83
53.3314	506.80
53.3459	509.66
53.3603	563.71
53.3748	520.52
53.3892	523.04
53.4036	497.56
53.4181	480.73
53.4325	502.79
53.4470	529.60
53.4614	524.36
53.4758	525.75
53.4903	507.68
53.5047	511.18
53.5192	522.99
53.5336	546.99
53.5480	508.83
53.5625	515.44
53.5769	501.64
53.5914	522.44
53.6058	513.79
53.6202	509.96
53.6347	505.71
53.6491	529.31
53.6636	513.64
53.6780	505.34
53.6924	504.18
53.7069	544.18
53.7213	526.91
53.7358	497.53
53.7502	489.27
53.7646	493.18
53.7791	556.73
53.7935	503.04
53.8080	491.51
53.8224	505.40
53.8368	497.54
53.8513	489.36
53.8657	539.73
53.8802	511.60
53.8946	498.96
53.9090	531.45
53.9235	542.99
53.9379	577.77
53.9524	541.14
53.9668	491.56
53.9812	512.98
53.9957	553.15
54.0101	517.00
54.0246	553.07
54.0390	484.37
54.0534	497.51
54.0679	532.91
54.0823	522.25
54.0968	513.39
54.1112	493.60
54.1256	528.86
54.1401	503.88
54.1545	508.33
54.1690	511.69
54.1834	500.53
54.1978	534.89
54.2123	529.49
54.2267	502.73
54.2412	525.24
54.2556	542.33
54.2700	535.73
54.2845	526.75
54.2989	547.49
54.3134	564.87
54.3278	529.29
54.3422	524.78
54.3567	501.68
54.3711	527.05
54.3856	534.18
54.4000	467.73
54.4144	535.90
54.4289	532.60
54.4433	518.10
54.4578	532.45
54.4722	553.32
54.4866	551.82
54.5011	506.28
54.5155	524.91
54.5300	561.52
54.5444	549.18
54.5588	547.52
54.5733	542.60
54.5877	554.03
54.6022	555.54
54.6166	566.78
54.6310	556.03
54.6455	553.70
54.6599	577.01
54.6744	612.58
54.6888	603.29
54.7032	582.95
54.7177	611.26
54.7321	598.24
54.7466	575.93
54.7610	541.11
54.7754	543.75
54.7899	552.59
54.8043	558.49
54.8188	558.31
54.8332	564.16
54.8476	570.69
54.8621	582.99
54.8765	595.36
54.8910	569.15
54.9054	574.56
54.9198	537.70
54.9343	528.78
54.9487	533.84
54.9632	522.76
54.9776	528.98
54.9920	551.79
55.0065	546.84
55.0209	522.67
55.0354	525.03
55.0498	518.18
55.0642	507.28
55.0787	512.50
55.0931	516.36
55.1076	517.44
55.1220	539.74
55.1364	533.10
55.1509	511.03
55.1653	537.87
55.1798	536.89
55.1942	540.80
55.2086	539.41
55.2231	516.29
55.2375	522.39
55.2520	550.50
55.2664	495.19
55.2808	520.07
55.2953	531.98
55.3097	518.90
55.3242	502.82
55.3386	559.44
55.3530	531.97
55.3675	554.73
55.3819	523.47
55.3964	535.16
55.4108	506.26
55.4252	552.85
55.4397	562.51
55.4541	530.34
55.4686	560.86
55.4830	527.20
55.4974	488.88
55.5119	529.13
55.5263	525.85
55.5408	518.53
55.5552	535.42
55.5696	523.49
55.5841	543.35
55.5985	525.57
55.6130	552.98
55.6274	535.58
55.6418	534.09
55.6563	542.64
55.6707	492.81
55.6852	482.61
55.6996	503.09
55.7140	510.39
55.7285	489.34
55.7429	505.96
55.7574	548.85
55.7718	519.21
55.7862	527.46
55.8007	530.61
55.8151	512.93
55.8296	527.08
55.8440	548.37
55.8584	543.04
55.8729	534.97
55.8873	534.01
55.9018	552.78
55.9162	551.65
55.9306	532.98
55.9451	538.39
55.9595	529.59
55.9740	485.29
55.9884	511.97
56.0028	531.10
56.0173	562.10
56.0317	557.40
56.0462	534.40
56.0606	523.76
56.0750	523.84
56.0895	551.61
56.1039	536.57
56.1184	512.79
56.1328	494.62
56.1472	515.04
56.1617	544.41
56.1761	502.84
56.1906	475.08
56.2050	522.62
56.2194	529.92
56.2339	516.22
56.2483	532.30
56.2628	519.47
56.2772	497.80
56.2916	500.24
56.3061	548.28
56.3205	540.67
56.3350	539.66
56.3494	526.30
56.3639	511.86
56.3783	535.54
56.3927	531.77
56.4072	522.76
56.4216	551.07
56.4361	523.12
56.4505	526.68
56.4649	542.68
56.4794	539.78
56.4938	553.60
56.5083	522.63
56.5227	511.96
56.5371	541.15
56.5516	542.09
56.5660	483.31
56.5805	518.67
56.5949	521.71
56.6093	528.48
56.6238	535.22
56.6382	544.93
56.6527	503.94
56.6671	513.47
56.6815	535.33
56.6960	536.51
56.7104	548.57
56.7249	534.26
56.7393	529.31
56.7537	535.10
56.7682	531.41
56.7826	560.63
56.7971	494.53
56.8115	513.84
56.8259	503.25
56.8404	513.34
56.8548	525.74
56.8693	565.03
56.8837	549.98
56.8981	511.64
56.9126	516.25
56.9270	513.95
56.9415	530.89
56.9559	532.27
56.9703	532.07
56.9848	540.96
56.9992	538.52
57.0137	503.29
57.0281	524.12
57.0425	551.98
57.0570	513.69
57.0714	524.45
57.0859	547.21
57.1003	509.18
57.1147	541.80
57.1292	529.55
57.1436	485.41
57.1581	492.43
57.1725	545.54
57.1869	554.36
57.2014	490.29
57.2158	520.40
57.2303	541.31
57.2447	511.66
57.2591	539.68
57.2736	528.69
57.2880	519.65
57.3025	520.69
57.3169	519.33
57.3313	478.50
57.3458	505.50
57.3602	515.43
57.3747	537.25
57.3891	530.63
57.4035	534.76
57.4180	533.00
57.4324	545.20
57.4469	475.44
57.4613	521.86
57.4757	536.00
57.4902	556.16
57.5046	522.65
57.5191	521.36
57.5335	520.03
57.5479	523.95
57.5624	509.96
57.5768	502.55
57.5913	513.27
57.6057	544.05
57.6201	531.94
57.6346	520.74
57.6490	512.50
57.6635	513.38
57.6779	492.26
57.6923	501.12
57.7068	542.35
57.7212	536.97
57.7357	560.42
57.7501	552.47
57.7645	500.70
57.7790	531.17
57.7934	552.52
57.8079	550.45
57.8223	527.76
57.8367	543.93
57.8512	543.06
57.8656	551.35
57.8801	516.22
57.8945	539.60
57.9089	533.75
57.9234	541.02
57.9378	550.21
57.9523	543.60
57.9667	530.86
57.9811	499.71
57.9956	529.29
58.0100	510.20
58.0245	549.45
58.0389	559.65
58.0533	541.87
58.0678	547.69
58.0822	533.19
58.0967	542.65
58.1111	553.43
58.1255	584.94
58.1400	557.15
58.1544	532.85
58.1689	580.02
58.1833	563.00
58.1977	563.31
58.2122	582.39
58.2266	586.93
58.2411	621.43
58.2555	626.10
58.2699	607.37
58.2844	634.45
58.2988	659.52
58.3133	677.66
58.3277	698.00
58.3421	699.52
58.3566	667.44
58.3710	678.93
58.3855	674.99
58.3999	636.90
58.4143	646.94
58.4288	691.59
58.4432	626.26
58.4577	577.78
58.4721	608.31
58.4865	625.09
58.5010	595.62
58.5154	609.79
58.5299	581.04
58.5443	601.78
58.5587	629.48
58.5732	619.09
58.5876	605.22
58.6021	587.80
58.6165	549.75
58.6309	542.21
58.6454	543.47
58.6598	529.03
58.6743	569.85
58.6887	545.55
58.7031	569.68
58.7176	527.65
58.7320	532.25
58.7465	554.97
58.7609	525.11
58.7753	555.94
58.7898	535.44
58.8042	535.89
58.8187	537.75
58.8331	563.62
58.8475	543.60
58.8620	535.25
58.8764	532.00
58.8909	513.15
58.9053	519.69
58.9197	561.13
58.9342	544.84
58.9486	548.90
58.9631	559.41
58.9775	548.37
58.9919	549.58
59.0064	565.70
59.0208	556.77
59.0353	527.54
59.0497	526.92
59.0641	535.95
59.0786	552.92
59.0930	542.71
59.1075	553.73
59.1219	556.47
59.1363	559.77
59.1508	510.46
59.1652	522.62
59.1797	546.62
59.1941	541.79
59.2085	530.04
59.2230	556.81
59.2374	550.02
59.2519	514.77
59.2663	534.89
59.2807	554.09
59.2952	527.57
59.3096	574.91
59.3241	569.96
59.3385	575.07
59.3529	569.22
59.3674	533.58
59.3818	532.67
59.3963	573.51
59.4107	576.79
59.4251	569.49
59.4396	562.05
59.4540	586.06
59.4685	578.89
59.4829	567.23
59.4973	600.17
59.5118	599.14
59.5262	561.57
59.5407	566.27
59.5551	580.72
59.5695	573.12
59.5840	571.39
59.5984	546.03
59.6129	564.48
59.6273	538.46
59.6417	535.44
59.6562	547.53
59.6706	554.92
59.6851	555.71
59.6995	520.30
59.7139	533.84
59.7284	534.27
59.7428	547.44
59.7573	567.05
59.7717	527.40
59.7861	542.74
59.8006	525.15
59.8150	535.23
59.8295	520.64
59.8439	538.47
59.8583	583.40
59.8728	534.15
59.8872	542.82
59.9017	557.78
59.9161	556.63
59.9305	564.45
59.9450	594.04
59.9594	557.54
59.9739	533.24
59.9883	588.31
60.0027	538.20
60.0172	541.28
60.0316	530.40
60.0461	533.86
60.0605	527.95
60.0750	528.69
60.0894	526.61
60.1038	542.25
60.1183	557.83
60.1327	525.90
60.1472	518.49
60.1616	541.57
60.1760	531.35
60.1905	543.94
60.2049	540.14
60.2194	533.43
60.2338	525.14
60.2482	535.43
60.2627	559.33
60.2771	554.91
60.2916	545.11
60.3060	535.17
60.3204	579.91
60.3349	554.38
60.3493	554.93
60.3638	502.30
60.3782	532.82
60.3926	504.17
60.4071	542.74
60.4215	564.48
60.4360	538.86
60.4504	536.35
60.4648	558.00
60.4793	554.23
60.4937	541.73
60.5082	523.52
60.5226	513.22
60.5370	541.24
60.5515	544.64
60.5659	513.49
60.5804	545.82
60.5948	509.49
60.6092	526.33
60.6237	546.64
60.6381	579.55
60.6526	557.79
60.6670	554.60
60.6814	510.22
60.6959	507.59
60.7103	508.91
60.7248	558.64
60.7392	540.40
60.7536	537.11
60.7681	540.91
60.7825	515.22
60.7970	548.08
60.8114	548.80
60.8258	581.21
60.8403	539.23
60.8547	533.96
60.8692	551.40
60.8836	568.19
60.8980	534.32
60.9125	558.33
60.9269	581.69
60.9414	527.48
60.9558	544.40
60.9702	562.15
60.9847	497.87
60.9991	534.33
61.0136	547.43
61.0280	543.91
61.0424	548.49
61.0569	558.50
61.0713	581.18
61.0858	516.90
61.1002	558.78
61.1146	552.33
61.1291	565.30
61.1435	510.69
61.1580	563.16
61.1724	505.96
61.1868	546.93
61.2013	533.69
61.2157	571.20
61.2302	569.98
61.2446	560.77
61.2590	525.71
61.2735	537.31
61.2879	573.47
61.3024	564.98
61.3168	534.95
61.3312	569.31
61.3457	571.58
61.3601	540.01
61.3746	542.07
61.3890	519.02
61.4034	539.59
61.4179	563.67
61.4323	540.36
61.4468	540.43
61.4612	581.33
61.4756	546.55
61.4901	537.88
61.5045	528.46
61.5190	576.08
61.5334	562.96
61.5478	550.50
61.5623	564.48
61.5767	533.48
61.5912	525.29
61.6056	521.22
61.6200	542.23
61.6345	525.91
61.6489	557.17
61.6634	558.19
61.6778	534.18
61.6922	537.95
61.7067	575.18
61.7211	573.43
61.7356	550.67
61.7500	535.42
61.7644	520.24
61.7789	537.88
61.7933	584.45
61.8078	558.38
61.8222	533.77
61.8366	525.52
61.8511	498.53
61.8655	532.73
61.8800	550.79
61.8944	534.57
61.9088	575.67
61.9233	549.51
61.9377	551.54
61.9522	544.09
61.9666	551.28
61.9810	552.47
61.9955	566.45
62.0099	545.64
62.0244	543.00
62.0388	527.19
62.0532	556.21
62.0677	599.21
62.0821	550.11
62.0966	542.99
62.1110	518.96
62.1254	565.17
62.1399	563.54
62.1543	521.01
62.1688	538.86
62.1832	560.19
62.1976	530.78
62.2121	581.49
62.2265	533.58
62.2410	533.00
62.2554	534.18
62.2698	533.00
62.2843	523.93
62.2987	553.58
62.3132	561.34
62.3276	559.59
62.3420	542.41
62.3565	531.65
62.3709	548.62
62.3854	535.42
62.3998	525.37
62.4142	556.85
62.4287	569.11
62.4431	541.90
62.4576	548.00
62.4720	565.19
62.4864	559.36
62.5009	572.57
62.5153	515.55
62.5298	541.60
62.5442	537.50
62.5586	565.16
62.5731	547.99
62.5875	530.64
62.6020	564.52
62.6164	571.29
62.6308	575.43
62.6453	550.98
62.6597	589.29
62.6742	556.70
62.6886	545.23
62.7030	564.38
62.7175	586.35
62.7319	544.71
62.7464	556.11
62.7608	538.82
62.7752	556.86
62.7897	583.44
62.8041	537.90
62.8186	562.82
62.8330	588.22
62.8474	559.78
62.8619	550.69
62.8763	579.71
62.8908	559.27
62.9052	575.90
62.9196	558.88
62.9341	542.33
62.9485	572.73
62.9630	573.84
62.9774	566.78
62.9918	572.81
63.0063	555.91
63.0207	568.50
63.0352	550.01
63.0496	523.29
63.0640	527.98
63.0785	552.99
63.0929	588.65
63.1074	575.09
63.1218	602.92
63.1362	581.84
63.1507	540.77
63.1651	568.54
63.1796	608.33
63.1940	552.18
63.2084	564.82
63.2229	531.46
63.2373	552.97
63.2518	578.95
63.2662	584.03
63.2806	553.93
63.2951	532.48
63.3095	569.27
63.3240	572.16
63.3384	593.69
63.3528	592.85
63.3673	577.36
63.3817	598.08
63.3962	530.06
63.4106	545.64
63.4250	585.50
63.4395	568.62
63.4539	562.17
63.4684	608.49
63.4828	593.22
63.4972	567.93
63.5117	613.57
63.5261	605.86
63.5406	584.05
63.5550	587.29
63.5694	550.35
63.5839	543.62
63.5983	585.67
63.6128	581.90
63.6272	557.72
63.6416	594.64
63.6561	593.99
63.6705	587.71
63.6850	636.23
63.6994	612.20
63.7138	622.19
63.7283	596.09
63.7427	610.85
63.7572	585.08
63.7716	619.87
63.7861	640.99
63.8005	639.79
63.8149	635.56
63.8294	639.44
63.8438	632.72
63.8583	626.84
63.8727	663.51
63.8871	667.21
63.9016	670.59
63.9160	665.09
63.9305	646.59
63.9449	712.53
63.9593	681.97
63.9738	676.35
63.9882	715.23
64.0027	695.49
64.0171	760.79
64.0315	808.34
64.0460	757.86
64.0604	782.54
64.0749	854.65
64.0893	832.26
64.1037	803.72
64.1182	872.31
64.1326	855.67
64.1471	824.81
64.1615	813.52
64.1759	774.55
64.1904	730.71
64.2048	789.32
64.2193	742.48
64.2337	707.96
64.2481	725.62
64.2626	730.31
64.2770	781.31
64.2915	688.81
64.3059	774.73
64.3203	703.07
64.3348	699.21
64.3492	691.95
64.3637	667.07
64.3781	671.01
64.3925	697.60
64.4070	689.79
64.4214	712.78
64.4359	673.15
64.4503	657.27
64.4647	676.80
64.4792	665.88
64.4936	645.81
64.5081	651.83
64.5225	659.80
64.5369	669.50
64.5514	679.39
64.5658	686.14
64.5803	651.08
64.5947	675.93
64.6091	678.56
64.6236	644.95
64.6380	696.28
64.6525	667.28
64.6669	705.31
64.6813	640.99
64.6958	683.51
64.7102	708.48
64.7247	673.93
64.7391	668.30
64.7535	750.95
64.7680	737.45
64.7824	739.74
64.7969	721.18
64.8113	774.85
64.8257	745.28
64.8402	788.61
64.8546	856.12
64.8691	836.87
64.8835	797.36
64.8979	861.75
64.9124	839.10
64.9268	872.04
64.9413	888.88
64.9557	876.73
64.9701	962.04
64.9846	1050.35
64.9990	1239.29
65.0135	1316.04
65.0279	1481.67
65.0423	1788.54
65.0568	2181.75
65.0712	2708.28
65.0857	3603.74
65.1001	4723.80
65.1145	6370.16
65.1290	8314.52
65.1434	9967.77
65.1579	11355.36
65.1723	11834.62
65.1867	11232.26
65.2012	9658.63
65.2156	8210.79
65.2301	6375.01
65.2445	5282.34
65.2589	4457.40
65.2734	4261.07
65.2878	4544.64
65.3023	5177.64
65.3167	6030.66
65.3311	6753.66
65.3456	7112.09
65.3600	6983.40
65.3745	6271.14
65.3889	5282.49
65.4033	4321.72
65.4178	3285.55
65.4322	2614.26
65.4467	2032.70
65.4611	1663.29
65.4755	1403.01
65.4900	1243.92
65.5044	1108.22
65.5189	1055.55
65.5333	1015.56
65.5477	924.77
65.5622	880.63
65.5766	836.45
65.5911	806.47
65.6055	828.07
65.6199	789.24
65.6344	753.34
65.6488	719.07
65.6633	713.49
65.6777	739.15
65.6921	712.20
65.7066	741.29
65.7210	695.60
65.7355	720.63
65.7499	674.43
65.7643	661.86
65.7788	701.56
65.7932	683.68
65.8077	662.93
65.8221	646.89
65.8365	703.33
65.8510	699.86
65.8654	677.26
65.8799	670.03
65.8943	644.49
65.9087	683.40
65.9232	659.68
65.9376	653.93
65.9521	626.88
65.9665	648.59
65.9809	614.53
65.9954	620.86
66.0098	649.46
66.0243	652.89
66.0387	622.75
66.0531	605.11
66.0676	590.14
66.0820	612.44
66.0965	608.97
66.1109	638.96
66.1253	656.07
66.1398	585.68
66.1542	581.77
66.1687	608.70
66.1831	620.14
66.1975	598.71
66.2120	617.08
66.2264	612.52
66.2409	608.94
66.2553	588.97
66.2697	599.81
66.2842	641.87
66.2986	606.00
66.3131	601.41
66.3275	573.80
66.3419	612.22
66.3564	616.12
66.3708	620.48
66.3853	613.92
66.3997	611.09
66.4141	623.83
66.4286	627.56
66.4430	618.27
66.4575	603.04
66.4719	623.80
66.4863	645.93
66.5008	598.47
66.5152	610.53
66.5297	610.86
66.5441	588.51
66.5585	592.31
66.5730	600.58
66.5874	595.87
66.6019	575.60
66.6163	608.97
66.6307	628.81
66.6452	585.28
66.6596	628.22
66.6741	612.35
66.6885	550.66
66.7029	586.72
66.7174	599.20
66.7318	582.32
66.7463	579.96
66.7607	600.47
66.7751	615.19
66.7896	576.85
66.8040	594.34
66.8185	611.11
66.8329	615.50
66.8473	577.38
66.8618	594.96
66.8762	574.01
66.8907	578.89
66.9051	586.13
66.9195	557.21
66.9340	550.34
66.9484	592.18
66.9629	556.71
66.9773	583.91
66.9917	621.92
67.0062	556.27
67.0206	571.41
67.0351	590.34
67.0495	587.81
67.0639	628.37
67.0784	606.13
67.0928	613.80
67.1073	584.63
67.1217	560.80
67.1361	565.41
67.1506	562.99
67.1650	590.00
67.1795	591.17
67.1939	587.62
67.2083	567.20
67.2228	590.78
67.2372	589.06
67.2517	570.16
67.2661	608.00
67.2805	580.31
67.2950	571.26
67.3094	602.43
67.3239	614.02
67.3383	609.77
67.3527	620.82
67.3672	591.94
67.3816	589.25
67.3961	545.80
67.4105	563.78
67.4250	596.71
67.4394	566.09
67.4538	584.28
67.4683	595.65
67.4827	571.08
67.4972	596.27
67.5116	564.10
67.5260	592.98
67.5405	576.02
67.5549	577.43
67.5694	547.83
67.5838	585.07
67.5982	563.20
67.6127	537.07
67.6271	590.39
67.6416	608.30
67.6560	583.24
67.6704	564.46
67.6849	571.16
67.6993	583.31
67.7138	600.68
67.7282	578.52
67.7426	578.53
67.7571	586.53
67.7715	561.59
67.7860	582.27
67.8004	557.48
67.8148	548.30
67.8293	594.65
67.8437	605.44
67.8582	601.48
67.8726	570.17
67.8870	569.69
67.9015	598.80
67.9159	544.47
67.9304	605.70
67.9448	553.18
67.9592	536.80
67.9737	560.16
67.9881	565.75
68.0026	589.24
68.0170	635.25
68.0314	596.32
68.0459	584.01
68.0603	600.84
68.0748	546.14
68.0892	594.78
68.1036	620.03
68.1181	578.82
68.1325	561.30
68.1470	546.48
68.1614	571.61
68.1758	558.13
68.1903	557.62
68.2047	577.03
68.2192	570.61
68.2336	594.62
68.2480	599.92
68.2625	600.75
68.2769	592.74
68.2914	592.09
68.3058	542.76
68.3202	539.68
68.3347	576.75
68.3491	552.38
68.3636	534.27
68.3780	528.35
68.3924	550.73
68.4069	567.95
68.4213	501.76
68.4358	557.63
68.4502	547.13
68.4646	549.60
68.4791	554.71
68.4935	540.35
68.5080	577.99
68.5224	566.32
68.5368	611.87
68.5513	579.29
68.5657	579.06
68.5802	539.54
68.5946	588.72
68.6090	593.03
68.6235	586.33
68.6379	579.33
68.6524	567.38
68.6668	543.48
68.6812	574.33
68.6957	531.53
68.7101	632.21
68.7246	564.49
68.7390	568.03
68.7534	581.22
68.7679	578.63
68.7823	577.51
68.7968	573.19
68.8112	608.71
68.8256	565.69
68.8401	554.76
68.8545	578.76
68.8690	586.97
68.8834	544.98
68.8978	589.28
68.9123	589.47
68.9267	570.62
68.9412	532.70
68.9556	576.06
68.9700	570.38
68.9845	604.29
68.9989	558.69
69.0134	658.65
69.0278	611.25
69.0422	632.67
69.0567	593.94
69.0711	544.83
69.0856	533.14
69.1000	597.01
69.1144	618.51
69.1289	581.89
69.1433	523.97
69.1578	570.92
69.1722	586.75
69.1866	523.82
69.2011	561.27
69.2155	541.08
69.2300	558.40
69.2444	570.44
69.2588	587.15
69.2733	611.78
69.2877	539.78
69.3022	582.19
69.3166	530.85
69.3310	585.00
69.3455	566.89
69.3599	562.32
69.3744	552.73
69.3888	551.91
69.4032	588.66
69.4177	596.06
69.4321	513.71
69.4466	558.41
69.4610	549.61
69.4754	618.71
69.4899	565.67
69.5043	571.68
69.5188	592.71
69.5332	624.19
69.5476	579.49
69.5621	585.51
69.5765	592.14
69.5910	605.74
69.6054	601.21
69.6198	606.30
69.6343	594.70
69.6487	601.97
69.6632	595.13
69.6776	602.48
69.6920	598.42
69.7065	592.75
69.7209	555.59
69.7354	573.24
69.7498	588.16
69.7642	544.53
69.7787	538.92
69.7931	578.41
69.8076	608.80
69.8220	586.96
69.8364	576.45
69.8509	556.34
69.8653	551.13
69.8798	551.67
69.8942	606.70
69.9086	661.74
69.9231	612.45
69.9375	605.04
69.9520	588.98
69.9664	602.83
69.9808	584.88
69.9953	595.98
70.0097	573.25
70.0242	598.84
70.0386	586.87
70.0530	576.14
70.0675	605.93
70.0819	559.52
70.0964	556.10
70.1108	572.24
70.1252	538.98
70.1397	548.15
70.1541	535.05
70.1686	506.68
70.1830	566.67
70.1974	572.75
70.2119	609.06
70.2263	603.01
70.2408	620.84
70.2552	592.64
70.2696	611.84
70.2841	564.33
70.2985	611.13
70.3130	568.45
70.3274	560.43
70.3418	609.81
70.3563	617.61
70.3707	561.96
70.3852	551.57
70.3996	532.58
70.4140	575.24
70.4285	619.49
70.4429	562.99
70.4574	581.48
70.4718	602.48
70.4862	598.86
70.5007	611.41
70.5151	600.90
70.5296	589.72
70.5440	577.55
70.5584	531.71
70.5729	550.47
70.5873	585.57
70.6018	563.55
70.6162	583.32
70.6306	593.58
70.6451	599.13
70.6595	618.03
70.6740	514.84
70.6884	510.58
70.7028	581.54
70.7173	597.22
70.7317	600.20
70.7462	651.64
70.7606	584.59
70.7750	620.22
70.7895	626.68
70.8039	534.27
70.8184	560.83
70.8328	603.14
70.8472	533.46
70.8617	534.57
70.8761	568.43
70.8906	566.51
70.9050	572.22
70.9194	583.38
70.9339	601.63
70.9483	643.57
70.9628	614.48
70.9772	576.51
70.9916	644.91
71.0061	643.42
71.0205	567.42
71.0350	579.03
71.0494	571.56
71.0638	580.63
71.0783	597.15
71.0927	619.37
71.1072	595.30
71.1216	569.23
71.1361	539.48
71.1505	606.29
71.1649	627.55
71.1794	594.98
71.1938	592.75
71.2083	565.04
71.2227	585.19
71.2371	594.27
71.2516	571.36
71.2660	559.15
71.2805	616.09
71.2949	598.41
71.3093	544.26
71.3238	540.52
71.3382	627.74
71.3527	613.66
71.3671	573.19
71.3815	564.61
71.3960	605.95
71.4104	591.62
71.4249	570.86
71.4393	581.32
71.4537	595.94
71.4682	590.39
71.4826	601.34
71.4971	577.55
71.5115	584.45
71.5259	599.91
71.5404	544.42
71.5548	548.22
71.5693	588.47
71.5837	554.15
71.5981	593.31
71.6126	566.80
71.6270	526.57
71.6415	575.24
71.6559	587.18
71.6703	619.45
71.6848	607.90
71.6992	564.09
71.7137	574.90
71.7281	556.91
71.7425	587.32
71.7570	561.06
71.7714	532.85
71.7859	575.66
71.8003	606.92
71.8147	625.68
71.8292	547.32
71.8436	503.43
71.8581	544.34
71.8725	622.13
71.8869	592.70
71.9014	545.90
71.9158	605.11
71.9303	571.73
71.9447	487.29
71.9591	572.36
71.9736	612.59
71.9880	550.48
72.0025	548.79
72.0169	548.78
72.0313	594.74
72.0458	601.49
72.0602	582.43
72.0747	553.29
72.0891	539.31
72.1035	606.93
72.1180	595.30
72.1324	554.51
72.1469	567.51
72.1613	588.08
72.1757	590.87
72.1902	551.98
72.2046	543.04
72.2191	603.37
72.2335	576.59
72.2479	496.52
72.2624	542.73
72.2768	629.23
72.2913	611.19
72.3057	637.87
72.3201	635.82
72.3346	508.10
72.3490	527.72
72.3635	596.37
72.3779	593.79
72.3923	558.13
72.4068	553.88
72.4212	598.67
72.4357	679.14
72.4501	638.35
72.4645	621.92
72.4790	567.59
72.4934	556.16
72.5079	606.19
72.5223	534.66
72.5367	453.66
72.5512	541.37
72.5656	560.49
72.5801	519.22
72.5945	528.54
72.6089	489.01
72.6234	510.75
72.6378	545.61
72.6523	581.92
72.6667	579.76
72.6811	574.92
72.6956	541.49
72.7100	550.28
72.7245	612.11
72.7389	651.29
72.7533	634.20
72.7678	559.99
72.7822	581.43
72.7967	597.50
72.8111	558.05
72.8255	652.41
72.8400	661.71
72.8544	563.45
72.8689	626.61
72.8833	576.69

Result vector
22.1120	590.82
22.1264	597.26
22.1409	608.54
22.1553	551.73
22.1697	542.48
22.1842	563.59
22.1986	568.19
22.2131	562.45
22.2275	531.78
22.2419	595.81
22.2564	628.78
22.2708	634.49
22.2853	567.75
22.2997	523.39
22.3141	608.12
22.3286	634.82
22.3430	560.18
22.3575	602.71
22.3719	618.42
22.3863	600.73
22.4008	565.95
22.4152	645.61
22.4297	583.53
22.4441	568.96
22.4585	562.82
22.4730	575.50
22.4874	541.32
22.5019	591.91
22.5163	626.14
22.5307	632.00
22.5452	731.21
22.5596	665.10
22.5741	563.59
22.5885	548.42
22.6029	527.28
22.6174	548.79
22.6318	497.16
22.6463	622.73
22.6607	535.81
22.6751	518.09
22.6896	550.59
22.7040	559.79
22.7185	584.67
22.7329	550.80
22.7473	554.68
22.7618	554.26
22.7762	634.24
22.7907	634.98
22.8051	608.88
22.8195	672.20
22.8340	547.43
22.8484	504.92
22.8629	560.63
22.8773	523.26
22.8917	501.81
22.9062	530.52
22.9206	523.26
22.9351	576.63
22.9495	534.78
22.9639	567.69
22.9784	580.03
22.9928	472.98
23.0073	496.95
23.0217	570.41
23.0361	616.55
23.0506	639.74
23.0650	611.01
23.0795	533.54
23.0939	592.39
23.1083	520.88
23.1228	631.90
23.1372	565.37
23.1517	589.42
23.1661	562.56
23.1806	626.97
23.1950	578.66
23.2094	564.84
23.2239	476.99
23.2383	548.58
23.2528	602.72
23.2672	563.45
23.2816	642.38
23.2961	553.22
23.3105	583.89
23.3250	530.03
23.3394	549.30
23.3538	651.67
23.3683	561.63
23.3827	587.33
23.3972	623.32
23.4116	537.80
23.4260	495.14
23.4405	490.72
23.4549	491.74
23.4694	592.85
23.4838	538.48
23.4982	447.76
23.5127	541.39
23.5271	610.43
23.5416	468.71
23.5560	625.17
23.5704	659.56
23.5849	613.78
23.5993	585.88
23.6138	635.88
23.6282	574.99
23.6426	549.36
23.6571	526.17
23.6715	589.06
23.6860	555.39
23.7004	615.53
23.7148	573.54
23.7293	575.35
23.7437	545.40
23.7582	543.14
23.7726	575.32
23.7870	599.05
23.8015	492.15
23.8159	641.61
23.8304	565.40
23.8448	549.02
23.8592	589.31
23.8737	546.60
23.8881	544.49
23.9026	564.25
23.9170	573.50
23.9314	558.35
23.9459	561.15
23.9603	593.24
23.9748	544.44
23.9892	608.41
24.0036	553.83
24.0181	546.28
24.0325	576.35
24.0470	563.33
24.0614	581.83
24.0758	584.85
24.0903	645.70
24.1047	584.91
24.1192	521.04
24.1336	563.07
24.1480	545.83
24.1625	565.87
24.1769	586.81
24.1914	547.25
24.2058	596.29
24.2202	591.89
24.2347	612.26
24.2491	618.26
24.2636	552.18
24.2780	589.77
24.2924	651.78
24.3069	577.53
24.3213	582.35
24.3358	598.12
24.3502	530.41
24.3646	527.51
24.3791	557.84
24.3935	516.11
24.4080	521.73
24.4224	569.54
24.4368	550.28
24.4513	552.12
24.4657	550.82
24.4802	548.22
24.4946	557.24
24.5090	530.89
24.5235	571.66
24.5379	561.71
24.5524	528.37
24.5668	543.60
24.5812	566.82
24.5957	594.69
24.6101	567.29
24.6246	563.74
24.6390	545.68
24.6534	533.01
24.6679	523.24
24.6823	571.36
24.6968	545.71
24.7112	542.16
24.7256	513.53
24.7401	589.82
24.7545	524.62
24.7690	530.00
24.7834	567.88
24.7978	538.95
24.8123	553.35
24.8267	549.52
24.8412	516.15
24.8556	527.54
24.8700	530.14
24.8845	559.06
24.8989	569.15
24.9134	557.60
24.9278	514.21
24.9422	553.86
24.9567	488.90
24.9711	522.63
24.9856	494.40
25.0000	484.48
25.0144	566.46
25.0289	605.53
25.0433	548.06
25.0578	563.53
25.0722	545.96
25.0866	545.31
25.1011	515.89
25.1155	524.77
25.1300	534.52
25.1444	551.14
25.1588	530.34
25.1733	554.70
25.1877	537.39
25.2022	516.30
25.2166	560.77
25.2310	538.66
25.2455	565.20
25.2599	519.06
25.2744	543.70
25.2888	545.91
25.3032	518.92
25.3177	522.91
25.3321	554.57
25.3466	545.24
25.3610	541.18
25.3754	522.88
25.3899	523.73
25.4043	533.24
25.4188	532.70
25.4332	552.69
25.4476	519.24
25.4621	508.22
25.4765	504.62
25.4910	540.66
25.5054	543.96
25.5198	492.05
25.5343	536.23
25.5487	536.21
25.5632	543.76
25.5776	547.25
25.5920	551.34
25.6065	587.94
25.6209	515.15
25.6354	496.38
25.6498	513.38
25.6642	539.12
25.6787	527.75
25.6931	550.05
25.7076	578.07
25.7220	566.92
25.7364	577.04
25.7509	576.73
25.7653	540.58
25.7798	542.04
25.7942	551.19
25.8086	544.84
25.8231	516.78
25.8375	485.68
25.8520	512.97
25.8664	528.29
25.8808	522.41
25.8953	503.06
25.9097	552.70
25.9242	522.53
25.9386	520.29
25.9530	507.52
25.9675	544.48
25.9819	555.62
25.9964	565.23
26.0108	518.11
26.0252	554.57
26.0397	583.15
26.0541	557.11
26.0686	507.81
26.0830	529.13
26.0974	565.37
26.1119	549.94
26.1263	560.90
26.1408	552.33
26.1552	481.17
26.1696	533.05
26.1841	560.77
26.1985	514.70
26.2130	567.19
26.2274	533.51
26.2418	547.40
26.2563	570.11
26.2707	540.04
26.2852	532.18
26.2996	502.87
26.3140	489.47
26.3285	519.49
26.3429	530.73
26.3574	536.06
26.3718	534.29
26.3862	502.94
26.4007	494.28
26.4151	513.80
26.4296	546.48
26.4440	516.91
26.4584	511.97
26.4729	573.19
26.4873	539.90
26.5018	498.05
26.5162	505.65
26.5306	525.31
26.5451	536.33
26.5595	529.76
26.5740	532.38
26.5884	535.88
26.6028	543.75
26.6173	551.64
26.6317	538.23
26.6462	544.98
26.6606	500.51
26.6750	533.46
26.6895	553.14
26.7039	540.50
26.7184	544.69
26.7328	527.39
26.7472	512.64
26.7617	507.58
26.7761	530.56
26.7906	520.00
26.8050	507.78
26.8194	514.35
26.8339	524.46
26.8483	514.58
26.8628	554.32
26.8772	556.13
26.8917	547.75
26.9061	524.34
26.9205	538.31
26.9350	523.74
26.9494	519.57
26.9639	512.23
26.9783	514.92
26.9927	500.15
27.0072	504.04
27.0216	525.91
27.0361	532.21
27.0505	536.65
27.0649	525.41
27.0794	525.78
27.0938	534.77
27.1083	534.00
27.1227	531.57
27.1371	497.03
27.1516	480.51
27.1660	510.13
27.1805	503.56
27.1949	520.93
27.2093	491.44
27.2238	512.30
27.2382	546.95
27.2527	553.60
27.2671	520.83
27.2815	538.05
27.2960	540.70
27.3104	520.87
27.3249	520.03
27.3393	556.15
27.3537	538.47
27.3682	527.75
27.3826	527.36
27.3971	511.72
27.4115	540.94
27.4259	541.45
27.4404	528.57
27.4548	528.29
27.4693	506.16
27.4837	504.84
27.4981	546.83
27.5126	526.01
27.5270	472.43
27.5415	528.34
27.5559	537.25
27.5703	502.70
27.5848	505.04
27.5992	523.15
27.6137	528.03
27.6281	520.41
27.6425	564.49
27.6570	534.80
27.6714	490.48
27.6859	521.74
27.7003	497.75
27.7147	535.37
27.7292	529.57
27.7436	545.55
27.7581	490.36
27.7725	532.76
27.7869	510.57
27.8014	503.82
27.8158	537.18
27.8303	512.60
27.8447	501.57
27.8591	521.04
27.8736	524.30
27.8880	506.69
27.9025	497.22
27.9169	486.81
27.9313	514.32
27.9458	554.01
27.9602	512.49
27.9747	552.79
27.9891	531.73
28.0035	543.62
28.0180	544.29
28.0324	517.66
28.0469	478.32
28.0613	516.00
28.0757	518.55
28.0902	543.51
28.1046	495.55
28.1191	557.87
28.1335	546.17
28.1479	525.56
28.1624	511.14
28.1768	513.75
28.1913	495.36
28.2057	542.40
28.2201	548.50
28.2346	523.06
28.2490	474.76
28.2635	523.13
28.2779	530.63
28.2923	529.18
28.3068	527.05
28.3212	528.18
28.3357	519.92
28.3501	523.58
28.3645	519.63
28.3790	492.02
28.3934	505.62
28.4079	533.27
28.4223	535.52
28.4367	530.25
28.4512	518.21
28.4656	516.61
28.4801	525.49
28.4945	510.07
28.5089	538.30
28.5234	531.01
28.5378	526.55
28.5523	513.56
28.5667	477.89
28.5811	482.33
28.5956	501.90
28.6100	530.46
28.6245	511.56
28.6389	499.55
28.6533	515.20
28.6678	521.95
28.6822	506.77
28.6967	488.21
28.7111	510.13
28.7255	509.18
28.7400	513.16
28.7544	507.04
28.7689	507.79
28.7833	535.57
28.7977	499.89
28.8122	495.81
28.8266	498.01
28.8411	511.95
28.8555	496.35
28.8699	494.87
28.8844	507.50
28.8988	495.50
28.9133	508.82
28.9277	550.77
28.9421	524.75
28.9566	541.89
28.9710	518.65
28.9855	527.43
28.9999	536.15
29.0143	520.74
29.0288	470.11
29.0432	513.73
29.0577	511.80
29.0721	513.81
29.0865	518.37
29.1010	510.63
29.1154	506.84
29.1299	498.85
29.1443	500.89
29.1587	493.99
29.1732	513.33
29.1876	523.58
29.2021	518.16
29.2165	521.24
29.2309	521.89
29.2454	509.93
29.2598	500.46
29.2743	524.90
29.2887	518.14
29.3031	511.03
29.3176	543.51
29.3320	514.43
29.3465	535.60
29.3609	512.93
29.3753	508.71
29.3898	495.98
29.4042	530.19
29.4187	522.19
29.4331	529.29
29.4475	512.23
29.4620	501.11
29.4764	536.68
29.4909	514.77
29.5053	501.26
29.5197	529.97
29.5342	509.18
29.5486	517.21
29.5631	521.92
29.5775	504.35
29.5919	517.46
29.6064	556.05
29.6208	490.18
29.6353	515.49
29.6497	489.91
29.6641	484.93
29.6786	455.59
29.6930	500.91
29.7075	515.24
29.7219	503.88
29.7363	488.35
29.7508	513.87
29.7652	528.89
29.7797	496.09
29.7941	515.52
29.8085	526.59
29.8230	498.66
29.8374	466.70
29.8519	490.88
29.8663	499.05
29.8807	497.97
29.8952	510.28
29.9096	510.87
29.9241	511.34
29.9385	519.74
29.9529	492.39
29.9674	466.70
29.9818	472.79
29.9963	468.03
30.0107	489.08
30.0251	521.40
30.0396	506.20
30.0540	510.47
30.0685	541.40
30.0829	487.93
30.0973	513.36
30.1118	506.59
30.1262	528.45
30.1407	538.15
30.1551	499.13
30.1695	520.41
30.1840	493.05
30.1984	493.45
30.2129	490.56
30.2273	512.40
30.2417	566.16
30.2562	521.75
30.2706	513.83
30.2851	515.96
30.2995	556.13
30.3139	528.90
30.3284	501.98
30.3428	500.10
30.3573	510.14
30.3717	517.40
30.3861	523.30
30.4006	498.05
30.4150	485.50
30.4295	519.15
30.4439	482.13
30.4583	511.62
30.4728	525.07
30.4872	479.08
30.5017	451.18
30.5161	480.32
30.5305	493.67
30.5450	502.45
30.5594	503.64
30.5739	550.54
30.5883	550.80
30.6028	552.58
30.6172	576.32
30.6316	558.07
30.6461	552.55
30.6605	548.30
30.6750	584.98
30.6894	571.30
30.7038	561.86
30.7183	591.01
30.7327	594.52
30.7472	634.48
30.7616	643.90
30.7760	690.35
30.7905	698.72
30.8049	710.43
30.8194	740.47
30.8338	696.95
30.8482	645.54
30.8627	682.95
30.8771	680.15
30.8916	642.61
30.9060	613.17
30.9204	615.85
30.9349	588.17
30.9493	573.05
30.9638	557.30
30.9782	542.25
30.9926	550.98
31.0071	560.65
31.0215	541.88
31.0360	523.24
31.0504	513.23
31.0648	527.41
31.0793	551.02
31.0937	537.64
31.1082	535.11
31.1226	556.01
31.1370	540.77
31.1515	523.78
31.1659	512.67
31.1804	543.36
31.1948	521.29
31.2092	527.27
31.2237	560.76
31.2381	570.49
31.2526	576.50
31.2670	514.68
31.2814	544.28
31.2959	534.32
31.3103	522.65
31.3248	519.78
31.3392	521.70
31.3536	547.62
31.3681	496.03
31.3825	495.48
31.3970	500.22
31.4114	513.26
31.4258	538.23
31.4403	545.04
31.4547	497.37
31.4692	502.64
31.4836	516.60
31.4980	503.08
31.5125	520.43
31.5269	528.61
31.5414	529.32
31.5558	511.66
31.5702	506.89
31.5847	505.91
31.5991	504.47
31.6136	506.00
31.6280	502.79
31.6424	528.39
31.6569	500.75
31.6713	511.21
31.6858	553.18
31.7002	536.22
31.7146	533.06
31.7291	528.22
31.7435	490.58
31.7580	500.90
31.7724	513.36
31.7868	540.21
31.8013	538.35
31.8157	503.40
31.8302	515.38
31.8446	510.59
31.8590	511.54
31.8735	501.07
31.8879	518.80
31.9024	550.51
31.9168	502.82
31.9312	471.74
31.9457	524.77
31.9601	494.53
31.9746	495.63
31.9890	495.43
32.0034	531.50
32.0179	493.72
32.0323	512.55
32.0468	544.89
32.0612	538.03
32.0756	503.56
32.0901	502.92
32.1045	486.54
32.1190	485.71
32.1334	510.75
32.1478	495.50
32.1623	519.11
32.1767	487.97
32.1912	481.32
32.2056	519.54
32.2200	520.86
32.2345	510.87
32.2489	521.66
32.2634	527.15
32.2778	532.67
32.2922	510.32
32.3067	484.23
32.3211	498.19
32.3356	500.39
32.3500	493.39
32.3644	529.13
32.3789	521.64
32.3933	530.46
32.4078	491.57
32.4222	560.30
32.4366	512.83
32.4511	473.20
32.4655	509.64
32.4800	514.35
32.4944	501.92
32.5088	517.03
32.5233	540.46
32.5377	535.07
32.5522	526.43
32.5666	509.19
32.5810	522.72
32.5955	535.68
32.6099	513.89
32.6244	527.72
32.6388	545.46
32.6532	514.47
32.6677	498.05
32.6821	507.06
32.6966	509.16
32.7110	532.13
32.7254	495.06
32.7399	498.19
32.7543	494.79
32.7688	477.95
32.7832	520.97
32.7976	489.02
32.8121	487.19
32.8265	499.40
32.8410	531.89
32.8554	535.19
32.8698	478.80
32.8843	503.46
32.8987	560.29
32.9132	548.35
32.9276	513.51
32.9420	508.74
32.9565	486.12
32.9709	533.58
32.9854	491.28
32.9998	496.04
33.0142	539.18
33.0287	556.37
33.0431	509.25
33.0576	521.39
33.0720	533.36
33.0864	484.52
33.1009	490.20
33.1153	488.01
33.1298	524.54
33.1442	521.52
33.1586	513.94
33.1731	463.56
33.1875	494.29
33.2020	496.52
33.2164	502.55
33.2308	524.59
33.2453	522.37
33.2597	478.39
33.2742	504.01
33.2886	510.18
33.3030	529.84
33.3175	521.27
33.3319	512.47
33.3464	527.80
33.3608	514.90
33.3752	499.07
33.3897	481.11
33.4041	527.37
33.4186	514.87
33.4330	533.24
33.4474	500.40
33.4619	499.95
33.4763	507.54
33.4908	546.71
33.5052	490.74
33.5196	474.82
33.5341	482.91
33.5485	482.87
33.5630	523.78
33.5774	505.52
33.5918	516.18
33.6063	496.63
33.6207	518.57
33.6352	500.19
33.6496	492.20
33.6640	501.19
33.6785	498.91
33.6929	521.29
33.7074	536.59
33.7218	506.34
33.7362	503.46
33.7507	502.99
33.7651	530.54
33.7796	508.01
33.7940	501.80
33.8084	496.07
33.8229	533.25
33.8373	522.39
33.8518	493.79
33.8662	484.50
33.8806	486.61
33.8951	518.74
33.9095	545.58
33.9240	532.39
33.9384	524.06
33.9528	507.45
33.9673	541.96
33.9817	530.30
33.9962	485.20
34.0106	513.09
34.0250	529.75
34.0395	523.05
34.0539	480.46
34.0684	506.00
34.0828	518.04
34.0972	521.93
34.1117	506.75
34.1261	525.00
34.1406	539.68
34.1550	492.82
34.1694	505.41
34.1839	506.84
34.1983	499.11
34.2128	492.89
34.2272	473.63
34.2417	488.01
34.2561	510.33
34.2705	489.97
34.2850	491.99
34.2994	526.13
34.3139	494.39
34.3283	520.45
34.3427	541.08
34.3572	550.69
34.3716	525.04
34.3861	495.98
34.4005	497.27
34.4149	487.82
34.4294	497.45
34.4438	512.21
34.4583	516.33
34.4727	522.29
34.4871	544.01
34.5016	536.51
34.5160	527.80
34.5305	518.42
34.5449	516.77
34.5593	513.44
34.5738	515.34
34.5882	501.15
34.6027	471.88
34.6171	503.63
34.6315	523.70
34.6460	495.79
34.6604	486.67
34.6749	484.51
34.6893	510.56
34.7037	530.88
34.7182	510.38
34.7326	522.27
34.7471	525.29
34.7615	498.46
34.7759	521.09
34.7904	514.80
34.8048	537.63
34.8193	527.02
34.8337	537.11
34.8481	524.21
34.8626	489.95
34.8770	512.25
34.8915	494.92
34.9059	529.61
34.9203	538.48
34.9348	517.45
34.9492	474.54
34.9637	496.35
34.9781	511.56
34.9925	502.17
35.0070	521.00
35.0214	548.32
35.0359	515.70
35.0503	508.21
35.0647	521.13
35.0792	492.76
35.0936	474.15
35.1081	501.74
35.1225	521.16
35.1369	541.31
35.1514	482.02
35.1658	491.30
35.1803	510.98
35.1947	497.57
35.2091	471.15
35.2236	515.37
35.2380	522.14
35.2525	500.99
35.2669	510.29
35.2813	537.83
35.2958	511.11
35.3102	492.38
35.3247	505.42
35.3391	540.92
35.3535	528.82
35.3680	508.47
35.3824	500.58
35.3969	498.74
35.4113	502.00
35.4257	543.11
35.4402	545.36
35.4546	526.60
35.4691	538.57
35.4835	568.98
35.4979	522.31
35.5124	506.47
35.5268	522.73
35.5413	534.34
35.5557	564.84
35.5701	553.72
35.5846	520.21
35.5990	520.05
35.6135	511.94
35.6279	523.68
35.6423	532.00
35.6568	507.53
35.6712	515.98
35.6857	548.82
35.7001	653.05
35.7145	696.46
35.7290	676.48
35.7434	624.12
35.7579	584.57
35.7723	578.58
35.7867	605.03
35.8012	621.88
35.8156	628.87
35.8301	618.96
35.8445	594.32
35.8589	629.85
35.8734	771.41
35.8878	847.79
35.9023	998.63
35.9167	1089.64
35.9311	1387.95
35.9456	2098.33
35.9600	2305.50
35.9745	1861.66
35.9889	1863.66
36.0033	2293.61
36.0178	2449.52
36.0322	2014.56
36.0467	1865.00
36.0611	1652.99
36.0755	1666.65
36.0900	1568.77
36.1044	1434.74
36.1189	1527.34
36.1333	1277.87
36.1477	1127.08
36.1622	1186.58
36.1766	1185.28
36.1911	998.04
36.2055	983.12
36.2199	996.22
36.2344	1031.43
36.2488	1043.70
36.2633	1049.44
36.2777	1090.30
36.2921	1058.10
36.3066	1052.29
36.3210	960.26
36.3355	976.28
36.3499	944.92
36.3643	859.53
36.3788	861.29
36.3932	799.88
36.4077	702.33
36.4221	724.82
36.4365	682.33
36.4510	651.67
36.4654	644.41
36.4799	643.77
36.4943	651.99
36.5087	586.36
36.5232	568.64
36.5376	575.23
36.5521	565.76
36.5665	566.34
36.5809	547.13
36.5954	538.07
36.6098	531.69
36.6243	528.98
36.6387	576.54
36.6531	540.51
36.6676	566.71
36.6820	559.03
36.6965	520.09
36.7109	556.79
36.7253	556.62
36.7398	531.51
36.7542	543.99
36.7687	541.82
36.7831	595.57
36.7975	598.99
36.8120	563.74
36.8264	572.87
36.8409	563.01
36.8553	606.56
36.8697	604.25
36.8842	567.74
36.8986	588.77
36.9131	598.14
36.9275	584.64
36.9419	594.64
36.9564	578.78
36.9708	549.52
36.9853	539.90
36.9997	566.43
37.0141	555.08
37.0286	568.23
37.0430	600.51
37.0575	517.76
37.0719	519.27
37.0863	526.20
37.1008	534.79
37.1152	496.06
37.1297	518.42
37.1441	494.52
37.1585	480.71
37.1730	525.41
37.1874	537.02
37.2019	520.05
37.2163	506.67
37.2307	507.90
37.2452	515.56
37.2596	499.40
37.2741	512.85
37.2885	486.78
37.3029	488.55
37.3174	534.30
37.3318	538.64
37.3463	502.27
37.3607	506.26
37.3751	512.09
37.3896	507.09
37.4040	484.29
37.4185	515.18
37.4329	518.49
37.4473	496.21
37.4618	532.64
37.4762	581.38
37.4907	554.26
37.5051	522.18
37.5195	490.35
37.5340	523.72
37.5484	493.78
37.5629	493.89
37.5773	481.16
37.5917	502.70
37.6062	497.61
37.6206	485.27
37.6351	519.11
37.6495	480.91
37.6639	448.79
37.6784	499.12
37.6928	514.80
37.7073	474.56
37.7217	498.09
37.7361	480.36
37.7506	495.67
37.7650	504.11
37.7795	519.49
37.7939	516.65
37.8083	509.85
37.8228	501.06
37.8372	499.86
37.8517	521.14
37.8661	552.58
37.8805	522.77
37.8950	511.92
37.9094	536.15
37.9239	499.97
37.9383	468.25
37.9528	508.41
37.9672	495.07
37.9816	500.13
37.9961	512.82
38.0105	518.12
38.0250	534.94
38.0394	529.28
38.0538	527.07
38.0683	555.89
38.0827	506.53
38.0972	515.84
38.1116	515.91
38.1260	540.46
38.1405	498.93
38.1549	506.50
38.1694	526.84
38.1838	502.58
38.1982	501.63
38.2127	516.88
38.2271	503.33
38.2416	504.24
38.2560	506.28
38.2704	454.95
38.2849	498.21
38.2993	492.17
38.3138	508.48
38.3282	548.48
38.3426	544.01
38.3571	503.07
38.3715	508.08
38.3860	554.38
38.4004	539.02
38.4148	554.72
38.4293	584.60
38.4437	581.10
38.4582	602.80
38.4726	643.88
38.4870	716.75
38.5015	745.94
38.5159	734.56
38.5304	792.72
38.5448	801.55
38.5592	819.40
38.5737	783.39
38.5881	719.27
38.6026	730.21
38.6170	736.55
38.6314	707.85
38.6459	648.59
38.6603	601.11
38.6748	571.78
38.6892	595.19
38.7036	597.34
38.7181	572.94
38.7325	535.99
38.7470	525.31
38.7614	514.94
38.7758	517.22
38.7903	510.52
38.8047	509.17
38.8192	519.96
38.8336	515.84
38.8480	496.19
38.8625	515.66
38.8769	512.44
38.8914	518.36
38.9058	554.49
38.9202	500.81
38.9347	523.88
38.9491	570.56
38.9636	521.89
38.9780	495.14
38.9924	516.63
39.0069	492.41
39.0213	488.06
39.0358	486.15
39.0502	475.94
39.0646	527.49
39.0791	525.17
39.0935	512.15
39.1080	503.90
39.1224	494.94
39.1368	495.25
39.1513	459.27
39.1657	492.75
39.1802	518.20
39.1946	514.32
39.2090	487.60
39.2235	515.35
39.2379	494.35
39.2524	509.83
39.2668	512.64
39.2812	517.86
39.2957	527.88
39.3101	530.09
39.3246	543.67
39.3390	518.00
39.3534	509.78
39.3679	509.39
39.3823	504.40
39.3968	507.73
39.4112	511.53
39.4256	494.06
39.4401	484.23
39.4545	481.77
39.4690	478.04
39.4834	495.81
39.4978	463.25
39.5123	472.72
39.5267	512.44
39.5412	517.81
39.5556	501.66
39.5700	487.24
39.5845	500.42
39.5989	517.73
39.6134	483.20
39.6278	510.87
39.6422	519.37
39.6567	515.76
39.6711	491.63
39.6856	504.40
39.7000	525.19
39.7144	489.63
39.7289	497.78
39.7433	512.73
39.7578	494.39
39.7722	498.88
39.7866	520.04
39.8011	476.86
39.8155	528.10
39.8300	530.19
39.8444	488.32
39.8588	511.37
39.8733	490.78
39.8877	517.17
39.9022	534.10
39.9166	535.55
39.9310	500.71
39.9455	468.33
39.9599	499.87
39.9744	501.57
39.9888	528.54
40.0032	516.41
40.0177	491.39
40.0321	483.96
40.0466	505.34
40.0610	501.23
40.0754	464.75
40.0899	496.76
40.1043	457.77
40.1188	477.14
40.1332	499.62
40.1476	476.07
40.1621	532.05
40.1765	518.58
40.1910	485.66
40.2054	470.68
40.2198	482.11
40.2343	506.10
40.2487	525.80
40.2632	490.92
40.2776	519.04
40.2920	515.73
40.3065	494.71
40.3209	472.52
40.3354	494.86
40.3498	536.78
40.3642	492.79
40.3787	501.28
40.3931	477.59
40.4076	489.41
40.4220	469.43
40.4364	483.67
40.4509	479.76
40.4653	483.67
40.4798	480.50
40.4942	504.12
40.5086	502.32
40.5231	539.89
40.5375	486.83
40.5520	514.53
40.5664	483.86
40.5808	497.12
40.5953	493.06
40.6097	468.98
40.6242	461.86
40.6386	489.07
40.6530	486.23
40.6675	503.34
40.6819	521.96
40.6964	503.30
40.7108	520.85
40.7252	497.55
40.7397	487.25
40.7541	511.63
40.7686	502.97
40.7830	538.50
40.7974	487.04
40.8119	501.38
40.8263	533.93
40.8408	494.95
40.8552	537.53
40.8696	516.32
40.8841	480.07
40.8985	541.13
40.9130	502.83
40.9274	487.54
40.9418	476.06
40.9563	474.22
40.9707	534.62
40.9852	522.01
40.9996	499.25
41.0140	480.02
41.0285	490.78
41.0429	487.55
41.0574	466.89
41.0718	535.29
41.0862	507.36
41.1007	502.54
41.1151	515.17
41.1296	484.16
41.1440	472.82
41.1584	497.76
41.1729	488.18
41.1873	477.45
41.2018	469.18
41.2162	506.88
41.2306	479.45
41.2451	512.22
41.2595	465.16
41.2740	468.40
41.2884	503.55
41.3028	469.90
41.3173	493.30
41.3317	520.42
41.3462	486.68
41.3606	489.55
41.3750	502.78
41.3895	517.68
41.4039	497.46
41.4184	498.51
41.4328	520.45
41.4472	516.72
41.4617	519.46
41.4761	517.00
41.4906	517.23
41.5050	500.82
41.5194	509.94
41.5339	474.74
41.5483	508.96
41.5628	484.15
41.5772	527.84
41.5916	506.63
41.6061	485.17
41.6205	479.17
41.6350	526.53
41.6494	513.69
41.6639	469.11
41.6783	494.23
41.6927	499.21
41.7072	510.54
41.7216	530.26
41.7361	509.02
41.7505	494.45
41.7649	490.60
41.7794	499.02
41.7938	522.20
41.8083	509.70
41.8227	482.27
41.8371	514.78
41.8516	531.36
41.8660	513.62
41.8805	538.29
41.8949	586.82
41.9093	548.65
41.9238	542.52
41.9382	564.18
41.9527	550.18
41.9671	545.01
41.9815	559.21
41.9960	545.79
42.0104	585.33
42.0249	586.05
42.0393	570.73
42.0537	566.01
42.0682	598.13
42.0826	565.55
42.0971	544.42
42.1115	545.67
42.1259	593.29
42.1404	575.32
42.1548	609.18
42.1693	653.30
42.1837	685.15
42.1981	722.16
42.2126	823.39
42.2270	878.05
42.2415	1042.03
42.2559	1199.44
42.2703	1339.85
42.2848	1447.20
42.2992	1587.33
42.3137	1627.04
42.3281	1652.31
42.3425	1544.86
42.3570	1408.39
42.3714	1378.73
42.3859	1339.61
42.4003	1286.10
42.4147	1279.68
42.4292	1270.08
42.4436	1116.60
42.4581	1035.81
42.4725	960.93
42.4869	846.96
42.5014	749.77
42.5158	707.00
42.5303	665.71
42.5447	623.53
42.5591	610.93
42.5736	559.45
42.5880	555.02
42.6025	575.50
42.6169	578.95
42.6313	531.33
42.6458	534.46
42.6602	522.82
42.6747	516.09
42.6891	517.72
42.7035	523.54
42.7180	542.76
42.7324	491.43
42.7469	493.03
42.7613	493.95
42.7757	494.95
42.7902	528.41
42.8046	525.34
42.8191	506.97
42.8335	519.79
42.8479	510.04
42.8624	515.40
42.8768	517.74
42.8913	507.93
42.9057	497.11
42.9201	497.49
42.9346	501.94
42.9490	496.72
42.9635	519.90
42.9779	521.85
42.9923	510.45
43.0068	494.91
43.0212	519.79
43.0357	538.21
43.0501	520.64
43.0645	505.38
43.0790	509.27
43.0934	492.71
43.1079	479.24
43.1223	523.13
43.1367	554.36
43.1512	509.93
43.1656	536.55
43.1801	516.31
43.1945	505.88
43.2089	519.54
43.2234	530.36
43.2378	514.50
43.2523	528.82
43.2667	488.71
43.2811	546.14
43.2956	546.79
43.3100	548.35
43.3245	528.83
43.3389	525.46
43.3533	522.68
43.3678	495.96
43.3822	497.41
43.3967	498.86
43.4111	490.78
43.4255	527.10
43.4400	517.36
43.4544	490.64
43.4689	522.31
43.4833	505.26
43.4977	524.54
43.5122	543.44
43.5266	532.10
43.5411	527.18
43.5555	544.13
43.5699	542.71
43.5844	530.96
43.5988	520.18
43.6133	565.37
43.6277	530.79
43.6421	521.53
43.6566	505.55
43.6710	490.58
43.6855	527.37
43.6999	519.32
43.7143	510.25
43.7288	517.00
43.7432	527.90
43.7577	555.75
43.7721	519.65
43.7865	494.74
43.8010	545.69
43.8154	502.46
43.8299	517.15
43.8443	526.41
43.8587	505.93
43.8732	534.05
43.8876	504.01
43.9021	529.58
43.9165	530.65
43.9309	516.88
43.9454	538.40
43.9598	520.82
43.9743	535.00
43.9887	549.72
44.0031	540.12
44.0176	584.64
44.0320	602.89
44.0465	619.99
44.0609	634.51
44.0753	657.82
44.0898	650.29
44.1042	646.47
44.1187	612.55
44.1331	642.72
44.1475	622.90
44.1620	633.33
44.1764	596.51
44.1909	566.19
44.2053	577.55
44.2197	592.46
44.2342	576.70
44.2486	594.20
44.2631	576.39
44.2775	550.36
44.2919	543.91
44.3064	566.30
44.3208	571.53
44.3353	577.39
44.3497	576.32
44.3641	560.38
44.3786	576.93
44.3930	545.39
44.4075	529.67
44.4219	586.95
44.4363	604.36
44.4508	540.72
44.4652	580.95
44.4797	603.37
44.4941	565.46
44.5085	564.29
44.5230	553.43
44.5374	583.48
44.5519	607.47
44.5663	549.70
44.5807	585.36
44.5952	565.22
44.6096	597.74
44.6241	570.95
44.6385	596.66
44.6529	595.41
44.6674	571.17
44.6818	596.24
44.6963	636.63
44.7107	656.07
44.7251	711.43
44.7396	746.93
44.7540	801.29
44.7685	848.41
44.7829	902.53
44.7973	835.65
44.8118	827.67
44.8262	795.11
44.8407	746.69
44.8551	717.22
44.8695	723.97
44.8840	725.87
44.8984	757.96
44.9129	738.56
44.9273	674.62
44.9417	634.94
44.9562	576.93
44.9706	565.64
44.9851	603.43
44.9995	591.43
45.0139	532.11
45.0284	566.47
45.0428	554.69
45.0573	544.91
45.0717	527.63
45.0861	502.52
45.1006	508.15
45.1150	539.18
45.1295	542.67
45.1439	472.29
45.1583	499.13
45.1728	536.44
45.1872	514.38
45.2017	495.17
45.2161	496.42
45.2305	486.88
45.2450	494.90
45.2594	506.37
45.2739	531.13
45.2883	508.25
45.3028	472.77
45.3172	502.72
45.3316	509.16
45.3461	514.52
45.3605	487.02
45.3750	482.04
45.3894	507.04
45.4038	520.63
45.4183	490.96
45.4327	480.65
45.4472	481.02
45.4616	490.75
45.4760	509.86
45.4905	466.89
45.5049	502.05
45.5194	516.36
45.5338	507.82
45.5482	519.54
45.5627	516.85
45.5771	503.35
45.5916	507.60
45.6060	491.43
45.6204	518.79
45.6349	519.63
45.6493	504.91
45.6638	513.37
45.6782	505.98
45.6926	479.85
45.7071	496.02
45.7215	520.49
45.7360	492.96
45.7504	501.28
45.7648	497.93
45.7793	508.40
45.7937	522.37
45.8082	499.46
45.8226	495.65
45.8370	501.98
45.8515	492.57
45.8659	500.10
45.8804	509.75
45.8948	510.91
45.9092	501.90
45.9237	475.63
45.9381	506.61
45.9526	501.39
45.9670	469.94
45.9814	486.63
45.9959	515.07
46.0103	481.38
46.0248	496.70
46.0392	506.76
46.0536	516.35
46.0681	537.36
46.0825	488.28
46.0970	499.01
46.1114	504.95
46.1258	522.30
46.1403	503.57
46.1547	491.68
46.1692	500.50
46.1836	517.30
46.1980	473.45
46.2125	517.49
46.2269	551.22
46.2414	568.14
46.2558	499.72
46.2702	493.03
46.2847	496.06
46.2991	491.07
46.3136	480.72
46.3280	484.19
46.3424	502.20
46.3569	514.98
46.3713	517.28
46.3858	483.78
46.4002	491.61
46.4146	509.82
46.4291	536.32
46.4435	529.76
46.4580	490.76
46.4724	488.99
46.4868	501.97
46.5013	498.92
46.5157	496.60
46.5302	490.39
46.5446	485.40
46.5590	512.30
46.5735	501.56
46.5879	476.04
46.6024	485.56
46.6168	501.06
46.6312	490.01
46.6457	492.19
46.6601	486.01
46.6746	502.94
46.6890	502.45
46.7034	510.71
46.7179	490.43
46.7323	531.00
46.7468	534.12
46.7612	492.83
46.7756	527.82
46.7901	526.03
46.8045	506.28
46.8190	544.15
46.8334	499.99
46.8478	472.03
46.8623	490.63
46.8767	522.26
46.8912	507.80
46.9056	507.07
46.9200	541.89
46.9345	537.10
46.9489	493.66
46.9634	479.88
46.9778	501.79
46.9922	532.40
47.0067	532.58
47.0211	518.27
47.0356	559.33
47.0500	532.05
47.0644	513.68
47.0789	519.45
47.0933	545.63
47.1078	532.16
47.1222	493.17
47.1366	492.00
47.1511	534.77
47.1655	544.76
47.1800	530.64
47.1944	494.64
47.2088	481.51
47.2233	494.36
47.2377	543.67
47.2522	548.01
47.2666	511.06
47.2810	510.86
47.2955	474.51
47.3099	506.47
47.3244	507.28
47.3388	512.58
47.3532	521.81
47.3677	530.29
47.3821	486.08
47.3966	527.23
47.4110	503.07
47.4254	528.38
47.4399	536.99
47.4543	483.88
47.4688	534.48
47.4832	512.35
47.4976	504.65
47.5121	503.40
47.5265	518.10
47.5410	509.82
47.5554	489.83
47.5698	481.46
47.5843	471.48
47.5987	515.82
47.6132	505.70
47.6276	480.22
47.6420	488.28
47.6565	483.45
47.6709	508.93
47.6854	502.75
47.6998	520.40
47.7142	528.23
47.7287	493.77
47.7431	486.84
47.7576	484.63
47.7720	471.60
47.7864	477.18
47.8009	493.89
47.8153	509.60
47.8298	512.68
47.8442	484.28
47.8586	542.96
47.8731	512.60
47.8875	487.26
47.9020	498.47
47.9164	519.35
47.9308	530.28
47.9453	506.52
47.9597	492.09
47.9742	475.57
47.9886	505.95
48.0030	513.94
48.0175	491.96
48.0319	516.89
48.0464	513.71
48.0608	512.21
48.0752	514.90
48.0897	533.04
48.1041	501.96
48.1186	517.31
48.1330	508.78
48.1474	509.86
48.1619	495.85
48.1763	523.26
48.1908	506.61
48.2052	519.24
48.2196	520.48
48.2341	518.30
48.2485	480.10
48.2630	456.98
48.2774	489.42
48.2918	517.92
48.3063	502.91
48.3207	481.04
48.3352	540.76
48.3496	524.50
48.3640	542.26
48.3785	546.56
48.3929	533.21
48.4074	501.56
48.4218	523.15
48.4362	504.18
48.4507	499.40
48.4651	509.16
48.4796	517.28
48.4940	544.68
48.5084	519.44
48.5229	529.54
48.5373	519.43
48.5518	527.83
48.5662	500.81
48.5806	537.17
48.5951	498.65
48.6095	513.17
48.6240	491.12
48.6384	526.65
48.6528	541.34
48.6673	530.98
48.6817	506.84
48.6962	521.07
48.7106	519.33
48.7250	495.70
48.7395	553.45
48.7539	504.44
48.7684	542.57
48.7828	550.69
48.7972	522.26
48.8117	539.67
48.8261	508.57
48.8406	509.32
48.8550	561.46
48.8694	549.78
48.8839	498.29
48.8983	501.94
48.9128	540.84
48.9272	525.75
48.9416	559.15
48.9561	588.17
48.9705	581.46
48.9850	571.22
48.9994	578.23
49.0139	571.84
49.0283	613.11
49.0427	574.69
49.0572	607.72
49.0716	650.16
49.0861	634.90
49.1005	709.30
49.1149	725.01
49.1294	768.29
49.1438	721.89
49.1583	784.74
49.1727	859.30
49.1871	909.19
49.2016	925.33
49.2160	1001.24
49.2305	1071.08
49.2449	1141.94
49.2593	1224.25
49.2738	1316.49
49.2882	1395.47
49.3027	1528.00
49.3171	1659.41
49.3315	1692.73
49.3460	1784.25
49.3604	1720.21
49.3749	1633.62
49.3893	1756.75
49.4037	1722.59
49.4182	1756.60
49.4326	1742.16
49.4471	1593.62
49.4615	1571.11
49.4759	1503.32
49.4904	1451.94
49.5048	1394.88
49.5193	1336.87
49.5337	1244.49
49.5481	1167.07
49.5626	1134.51
49.5770	1041.69
49.5915	1016.48
49.6059	932.87
49.6203	880.61
49.6348	818.03
49.6492	747.90
49.6637	743.42
49.6781	714.10
49.6925	705.97
49.7070	690.49
49.7214	635.22
49.7359	587.38
49.7503	600.31
49.7647	580.59
49.7792	622.47
49.7936	586.33
49.8081	626.95
49.8225	584.96
49.8369	547.49
49.8514	590.60
49.8658	571.31
49.8803	535.03
49.8947	532.54
49.9091	569.78
49.9236	520.59
49.9380	559.80
49.9525	539.75
49.9669	497.91
49.9813	516.33
49.9958	507.17
50.0102	529.25
50.0247	577.14
50.0391	529.99
50.0535	555.71
50.0680	577.18
50.0824	531.52
50.0969	500.61
50.1113	504.62
50.1257	551.58
50.1402	527.88
50.1546	502.18
50.1691	520.53
50.1835	524.30
50.1979	487.99
50.2124	503.71
50.2268	484.78
50.2413	489.73
50.2557	527.19
50.2701	529.75
50.2846	497.63
50.2990	508.29
50.3135	511.90
50.3279	509.36
50.3423	501.95
50.3568	483.99
50.3712	515.32
50.3857	515.52
50.4001	494.98
50.4145	509.87
50.4290	556.58
50.4434	524.59
50.4579	530.39
50.4723	541.38
50.4867	527.36
50.5012	509.72
50.5156	487.02
50.5301	505.88
50.5445	501.91
50.5589	511.14
50.5734	507.31
50.5878	525.16
50.6023	494.64
50.6167	517.23
50.6311	492.78
50.6456	488.07
50.6600	524.62
50.6745	521.74
50.6889	511.65
50.7033	529.55
50.7178	514.52
50.7322	470.69
50.7467	514.04
50.7611	515.76
50.7755	500.30
50.7900	510.65
50.8044	504.91
50.8189	516.06
50.8333	496.38
50.8477	517.69
50.8622	539.87
50.8766	501.02
50.8911	540.73
50.9055	524.53
50.9199	506.93
50.9344	499.74
50.9488	492.47
50.9633	521.85
50.9777	512.02
50.9921	525.40
51.0066	541.15
51.0210	527.42
51.0355	506.99
51.0499	496.09
51.0643	521.22
51.0788	498.51
51.0932	506.57
51.1077	527.04
51.1221	522.91
51.1365	506.65
51.1510	508.63
51.1654	503.76
51.1799	489.77
51.1943	487.86
51.2087	496.68
51.2232	471.97
51.2376	490.10
51.2521	513.56
51.2665	502.56
51.2809	532.20
51.2954	492.80
51.3098	493.71
51.3243	531.47
51.3387	527.48
51.3531	506.41
51.3676	473.58
51.3820	496.76
51.3965	500.05
51.4109	508.17
51.4253	509.35
51.4398	514.82
51.4542	484.89
51.4687	539.67
51.4831	517.61
51.4975	529.60
51.5120	542.82
51.5264	494.45
51.5409	499.33
51.5553	527.99
51.5697	483.50
51.5842	495.03
51.5986	484.55
51.6131	485.47
51.6275	490.04
51.6419	516.14
51.6564	506.77
51.6708	487.26
51.6853	485.20
51.6997	497.59
51.7141	518.26
51.7286	528.34
51.7430	516.45
51.7575	490.03
51.7719	505.60
51.7863	539.23
51.8008	532.64
51.8152	542.51
51.8297	519.16
51.8441	507.58
51.8585	529.39
51.8730	518.03
51.8874	543.47
51.9019	526.01
51.9163	528.11
51.9307	512.57
51.9452	517.23
51.9596	485.09
51.9741	476.01
51.9885	513.73
52.0029	556.14
52.0174	529.36
52.0318	532.01
52.0463	499.92
52.0607	480.91
52.0751	485.78
52.0896	525.48
52.1040	506.51
52.1185	519.35
52.1329	524.27
52.1473	510.87
52.1618	490.45
52.1762	488.64
52.1907	509.84
52.2051	523.36
52.2195	538.41
52.2340	557.81
52.2484	523.18
52.2629	514.36
52.2773	522.72
52.2917	485.53
52.3062	511.37
52.3206	493.82
52.3351	525.79
52.3495	537.34
52.3639	515.05
52.3784	486.16
52.3928	509.00
52.4073	514.16
52.4217	549.48
52.4361	534.46
52.4506	480.38
52.4650	522.45
52.4795	507.94
52.4939	514.15
52.5083	456.84
52.5228	490.60
52.5372	530.56
52.5517	516.18
52.5661	544.46
52.5805	528.27
52.5950	554.00
52.6094	544.71
52.6239	506.93
52.6383	520.73
52.6527	530.64
52.6672	471.77
52.6816	516.99
52.6961	532.67
52.7105	539.77
52.7250	518.27
52.7394	500.68
52.7538	506.85
52.7683	517.08
52.7827	532.88
52.7972	496.32
52.8116	503.90
52.8260	519.07
52.8405	511.47
52.8549	512.22
52.8694	510.08
52.8838	520.40
52.8982	494.08
52.9127	480.19
52.9271	473.72
52.9416	534.56
52.9560	490.33
52.9704	512.04
52.9849	487.34
52.9993	491.53
53.0138	507.65
53.0282	508.24
53.0426	498.07
53.0571	517.72
53.0715	493.76
53.0860	514.70
53.1004	484.13
53.1148	505.25
53.1293	528.89
53.1437	517.65
53.1582	502.34
53.1726	493.06
53.1870	523.58
53.2015	508.23
53.2159	497.24
53.2304	516.29
53.2448	531.26
53.2592	515.46
53.2737	481.21
53.2881	526.19
53.3026	490.93
53.3170	488.83
53.3314	506.80
53.3459	509.66
53.3603	563.71
53.3748	520.52
53.3892	523.04
53.4036	497.56
53.4181	480.73
53.4325	502.79
53.4470	529.60
53.4614	524.36
53.4758	525.75
53.4903	507.68
53.5047	511.18
53.5192	522.99
53.5336	546.99
53.5480	508.83
53.5625	515.44
53.5769	501.64
53.5914	522.44
53.6058	513.79
53.6202	509.96
53.6347	505.71
53.6491	529.31
53.6636	513.64
53.6780	505.34
53.6924	504.18
53.7069	544.18
53.7213	526.91
53.7358	497.53
53.7502	489.27
53.7646	493.18
53.7791	556.73
53.7935	503.04
53.8080	491.51
53.8224	505.40
53.8368	497.54
53.8513	489.36
53.8657	539.73
53.8802	511.60
53.8946	498.96
53.9090	531.45
53.9235	542.99
53.9379	577.77
53.9524	541.14
53.9668	491.56
53.9812	512.98
53.9957	553.15
54.0101	517.00
54.0246	553.07
54.0390	484.37
54.0534	497.51
54.0679	532.91
54.0823	522.25
54.0968	513.39
54.1112	493.60
54.1256	528.86
54.1401	503.88
54.1545	508.33
54.1690	511.69
54.1834	500.53
54.1978	534.89
54.2123	529.49
54.2267	502.73
54.2412	525.24
54.2556	542.33
54.2700	535.73
54.2845	526.75
54.2989	547.49
54.3134	564.87
54.3278	529.29
54.3422	524.78
54.3567	501.68
54.3711	527.05
54.3856	534.18
54.4000	467.73
54.4144	535.90
54.4289	532.60
54.4433	518.10
54.4578	532.45
54.4722	553.32
54.4866	551.82
54.5011	506.28
54.5155	524.91
54.5300	561.52
54.5444	549.18
54.5588	547.52
54.5733	542.60
54.5877	554.03
54.6022	555.54
54.6166	566.78
54.6310	556.03
54.6455	553.70
54.6599	577.01
54.6744	612.58
54.6888	603.29
54.7032	582.95
54.7177	611.26
54.7321	598.24
54.7466	575.93
54.7610	541.11
54.7754	543.75
54.7899	552.59
54.8043	558.49
54.8188	558.31
54.8332	564.16
54.8476	570.69
54.8621	582.99
54.8765	595.36
54.8910	569.15
54.9054	574.56
54.9198	537.70
54.9343	528.78
54.9487	533.84
54.9632	522.76
54.9776	528.98
54.9920	551.79
55.0065	546.84
55.0209	522.67
55.0354	525.03
55.0498	518.18
55.0642	507.28
55.0787	512.50
55.0931	516.36
55.1076	517.44
55.1220	539.74
55.1364	533.10
55.1509	511.03
55.1653	537.87
55.1798	536.89
55.1942	540.80
55.2086	539.41
55.2231	516.29
55.2375	522.39
55.2520	550.50
55.2664	495.19
55.2808	520.07
55.2953	531.98
55.3097	518.90
55.3242	502.82
55.3386	559.44
55.3530	531.97
55.3675	554.73
55.3819	523.47
55.3964	535.16
55.4108	506.26
55.4252	552.85
55.4397	562.51
55.4541	530.34
55.4686	560.86
55.4830	527.20
55.4974	488.88
55.5119	529.13
55.5263	525.85
55.5408	518.53
55.5552	535.42
55.5696	523.49
55.5841	543.35
55.5985	525.57
55.6130	552.98
55.6274	535.58
55.6418	534.09
55.6563	542.64
55.6707	492.81
55.6852	482.61
55.6996	503.09
55.7140	510.39
55.7285	489.34
55.7429	505.96
55.7574	548.85
55.7718	519.21
55.7862	527.46
55.8007	530.61
55.8151	512.93
55.8296	527.08
55.8440	548.37
55.8584	543.04
55.8729	534.97
55.8873	534.01
55.9018	552.78
55.9162	551.65
55.9306	532.98
55.9451	538.39
55.9595	529.59
55.9740	485.29
55.9884	511.97
56.0028	531.10
56.0173	562.10
56.0317	557.40
56.0462	534.40
56.0606	523.76
56.0750	523.84
56.0895	551.61
56.1039	536.57
56.1184	512.79
56.1328	494.62
56.1472	515.04
56.1617	544.41
56.1761	502.84
56.1906	475.08
56.2050	522.62
56.2194	529.92
56.2339	516.22
56.2483	532.30
56.2628	519.47
56.2772	497.80
56.2916	500.24
56.3061	548.28
56.3205	540.67
56.3350	539.66
56.3494	526.30
56.3639	511.86
56.3783	535.54
56.3927	531.77
56.4072	522.76
56.4216	551.07
56.4361	523.12
56.4505	526.68
56.4649	542.68
56.4794	539.78
56.4938	553.60
56.5083	522.63
56.5227	511.96
56.5371	541.15
56.5516	542.09
56.5660	483.31
56.5805	518.67
56.5949	521.71
56.6093	528.48
56.6238	535.22
56.6382	544.93
56.6527	503.94
56.6671	513.47
56.6815	535.33
56.6960	536.51
56.7104	548.57
56.7249	534.26
56.7393	529.31
56.7537	535.10
56.7682	531.41
56.7826	560.63
56.7971	494.53
56.8115	513.84
56.8259	503.25
56.8404	513.34
56.8548	525.74
56.8693	565.03
56.8837	549.98
56.8981	511.64
56.9126	516.25
56.9270	513.95
56.9415	530.89
56.9559	532.27
56.9703	532.07
56.9848	540.96
56.9992	538.52
57.0137	503.29
57.0281	524.12
57.0425	551.98
57.0570	513.69
57.0714	524.45
57.0859	547.21
57.1003	509.18
57.1147	541.80
57.1292	529.55
57.1436	485.41
57.1581	492.43
57.1725	545.54
57.1869	554.36
57.2014	490.29
57.2158	520.40
57.2303	541.31
57.2447	511.66
57.2591	539.68
57.2736	528.69
57.2880	519.65
57.3025	520.69
57.3169	519.33
57.3313	478.50
57.3458	505.50
57.3602	515.43
57.3747	537.25
57.3891	530.63
57.4035	534.76
57.4180	533.00
57.4324	545.20
57.4469	475.44
57.4613	521.86
57.4757	536.00
57.4902	556.16
57.5046	522.65
57.5191	521.36
57.5335	520.03
57.5479	523.95
57.5624	509.96
57.5768	502.55
57.5913	513.27
57.6057	544.05
57.6201	531.94
57.6346	520.74
57.6490	512.50
57.6635	513.38
57.6779	492.26
57.6923	501.12
57.7068	542.35
57.7212	536.97
57.7357	560.42
57.7501	552.47
57.7645	500.70
57.7790	531.17
57.7934	552.52
57.8079	550.45
57.8223	527.76
57.8367	543.93
57.8512	543.06
57.8656	551.35
57.8801	516.22
57.8945	539.60
57.9089	533.75
57.9234	541.02
57.9378	550.21
57.9523	543.60
57.9667	530.86
57.9811	499.71
57.9956	529.29
58.0100	510.20
58.0245	549.45
58.0389	559.65
58.0533	541.87
58.0678	547.69
58.0822	533.19
58.0967	542.65
58.1111	553.43
58.1255	584.94
58.1400	557.15
58.1544	532.85
58.1689	580.02
58.1833	563.00
58.1977	563.31
58.2122	582.39
58.2266	586.93
58.2411	621.43
58.2555	626.10
58.2699	607.37
58.2844	634.45
58.2988	659.52
58.3133	677.66
58.3277	698.00
58.3421	699.52
58.3566	667.44
58.3710	678.93
58.3855	674.99
58.3999	636.90
58.4143	646.94
58.4288	691.59
58.4432	626.26
58.4577	577.78
58.4721	608.31
58.4865	625.09
58.5010	595.62
58.5154	609.79
58.5299	581.04
58.5443	601.78
58.5587	629.48
58.5732	619.09
58.5876	605.22
58.6021	587.80
58.6165	549.75
58.6309	542.21
58.6454	543.47
58.6598	529.03
58.6743	569.85
58.6887	545.55
58.7031	569.68
58.7176	527.65
58.7320	532.25
58.7465	554.97
58.7609	525.11
58.7753	555.94
58.7898	535.44
58.8042	535.89
58.8187	537.75
58.8331	563.62
58.8475	543.60
58.8620	535.25
58.8764	532.00
58.8909	513.15
58.9053	519.69
58.9197	561.13
58.9342	544.84
58.9486	548.90
58.9631	559.41
58.9775	548.37
58.9919	549.58
59.0064	565.70
59.0208	556.77
59.0353	527.54
59.0497	526.92
59.0641	535.95
59.0786	552.92
59.0930	542.71
59.1075	553.73
59.1219	556.47
59.1363	559.77
59.1508	510.46
59.1652	522.62
59.1797	546.62
59.1941	541.79
59.2085	530.04
59.2230	556.81
59.2374	550.02
59.2519	514.77
59.2663	534.89
59.2807	554.09
59.2952	527.57
59.3096	574.91
59.3241	569.96
59.3385	575.07
59.3529	569.22
59.3674	533.58
59.3818	532.67
59.3963	573.51
59.4107	576.79
59.4251	569.49
59.4396	562.05
59.4540	586.06
59.4685	578.89
59.4829	567.23
59.4973	600.17
59.5118	599.14
59.5262	561.57
59.5407	566.27
59.5551	580.72
59.5695	573.12
59.5840	571.39
59.5984	546.03
59.6129	564.48
59.6273	538.46
59.6417	535.44
59.6562	547.53
59.6706	554.92
59.6851	555.71
59.6995	520.30
59.7139	533.84
59.7284	534.27
59.7428	547.44
59.7573	567.05
59.7717	527.40
59.7861	542.74
59.8006	525.15
59.8150	535.23
59.8295	520.64
59.8439	538.47
59.8583	583.40
59.8728	534.15
59.8872	542.82
59.9017	557.78
59.9161	556.63
59.9305	564.45
59.9450	594.04
59.9594	557.54
59.9739	533.24
59.9883	588.31
60.0027	538.20
60.0172	541.28
60.0316	530.40
60.0461	533.86
60.0605	527.95
60.0750	528.69
60.0894	526.61
60.1038	542.25
60.1183	557.83
60.1327	525.90
60.1472	518.49
60.1616	541.57
60.1760	531.35
60.1905	543.94
60.2049	540.14
60.2194	533.43
60.2338	525.14
60.2482	535.43
60.2627	559.33
60.2771	554.91
60.2916	545.11
60.3060	535.17
60.3204	579.91
60.3349	554.38
60.3493	554.93
60.3638	502.30
60.3782	532.82
60.3926	504.17
60.4071	542.74
60.4215	564.48
60.4360	538.86
60.4504	536.35
60.4648	558.00
60.4793	554.23
60.4937	541.73
60.5082	523.52
60.5226	513.22
60.5370	541.24
60.5515	544.64
60.5659	513.49
60.5804	545.82
60.5948	509.49
60.6092	526.33
60.6237	546.64
60.6381	579.55
60.6526	557.79
60.6670	554.60
60.6814	510.22
60.6959	507.59
60.7103	508.91
60.7248	558.64
60.7392	540.40
60.7536	537.11
60.7681	540.91
60.7825	515.22
60.7970	548.08
60.8114	548.80
60.8258	581.21
60.8403	539.23
60.8547	533.96
60.8692	551.40
60.8836	568.19
60.8980	534.32
60.9125	558.33
60.9269	581.69
60.9414	527.48
60.9558	544.40
60.9702	562.15
60.9847	497.87
60.9991	534.33
61.0136	547.43
61.0280	543.91
61.0424	548.49
61.0569	558.50
61.0713	581.18
61.0858	516.90
61.1002	558.78
61.1146	552.33
61.1291	565.30
61.1435	510.69
61.1580	563.16
61.1724	505.96
61.1868	546.93
61.2013	533.69
61.2157	571.20
61.2302	569.98
61.2446	560.77
61.2590	525.71
61.2735	537.31
61.2879	573.47
61.3024	564.98
61.3168	534.95
61.3312	569.31
61.3457	571.58
61.3601	540.01
61.3746	542.07
61.3890	519.02
61.4034	539.59
61.4179	563.67
61.4323	540.36
61.4468	540.43
61.4612	581.33
61.4756	546.55
61.4901	537.88
61.5045	528.46
61.5190	576.08
61.5334	562.96
61.5478	550.50
61.5623	564.48
61.5767	533.48
61.5912	525.29
61.6056	521.22
61.6200	542.23
61.6345	525.91
61.6489	557.17
61.6634	558.19
61.6778	534.18
61.6922	537.95
61.7067	575.18
61.7211	573.43
61.7356	550.67
61.7500	535.42
61.7644	520.24
61.7789	537.88
61.7933	584.45
61.8078	558.38
61.8222	533.77
61.8366	525.52
61.8511	498.53
61.8655	532.73
61.8800	550.79
61.8944	534.57
61.9088	575.67
61.9233	549.51
61.9377	551.54
61.9522	544.09
61.9666	551.28
61.9810	552.47
61.9955	566.45
62.0099	545.64
62.0244	543.00
62.0388	527.19
62.0532	556.21
62.0677	599.21
62.0821	550.11
62.0966	542.99
62.1110	518.96
62.1254	565.17
62.1399	563.54
62.1543	521.01
62.1688	538.86
62.1832	560.19
62.1976	530.78
62.2121	581.49
62.2265	533.58
62.2410	533.00
62.2554	534.18
62.2698	533.00
62.2843	523.93
62.2987	553.58
62.3132	561.34
62.3276	559.59
62.3420	542.41
62.3565	531.65
62.3709	548.62
62.3854	535.42
62.3998	525.37
62.4142	556.85
62.4287	569.11
62.4431	541.90
62.4576	548.00
62.4720	565.19
62.4864	559.36
62.5009	572.57
62.5153	515.55
62.5298	541.60
62.5442	537.50
62.5586	565.16
62.5731	547.99
62.5875	530.64
62.6020	564.52
62.6164	571.29
62.6308	575.43
62.6453	550.98
62.6597	589.29
62.6742	556.70
62.6886	545.23
62.7030	564.38
62.7175	586.35
62.7319	544.71
62.7464	556.11
62.7608	538.82
62.7752	556.86
62.7897	583.44
62.8041	537.90
62.8186	562.82
62.8330	588.22
62.8474	559.78
62.8619	550.69
62.8763	579.71
62.8908	559.27
62.9052	575.90
62.9196	558.88
62.9341	542.33
62.9485	572.73
62.9630	573.84
62.9774	566.78
62.9918	572.81
63.0063	555.91
63.0207	568.50
63.0352	550.01
63.0496	523.29
63.0640	527.98
63.0785	552.99
63.0929	588.65
63.1074	575.09
63.1218	602.92
63.1362	581.84
63.1507	540.77
63.1651	568.54
63.1796	608.33
63.1940	552.18
63.2084	564.82
63.2229	531.46
63.2373	552.97
63.2518	578.95
63.2662	584.03
63.2806	553.93
63.2951	532.48
63.3095	569.27
63.3240	572.16
63.3384	593.69
63.3528	592.85
63.3673	577.36
63.3817	598.08
63.3962	530.06
63.4106	545.64
63.4250	585.50
63.4395	568.62
63.4539	562.17
63.4684	608.49
63.4828	593.22
63.4972	567.93
63.5117	613.57
63.5261	605.86
63.5406	584.05
63.5550	587.29
63.5694	550.35
63.5839	543.62
63.5983	585.67
63.6128	581.90
63.6272	557.72
63.6416	594.64
63.6561	593.99
63.6705	587.71
63.6850	636.23
63.6994	612.20
63.7138	622.19
63.7283	596.09
63.7427	610.85
63.7572	585.08
63.7716	619.87
63.7861	640.99
63.8005	639.79
63.8149	635.56
63.8294	639.44
63.8438	632.72
63.8583	626.84
63.8727	663.51
63.8871	667.21
63.9016	670.59
63.9160	665.09
63.9305	646.59
63.9449	712.53
63.9593	681.97
63.9738	676.35
63.9882	715.23
64.0027	695.49
64.0171	760.79
64.0315	808.34
64.0460	757.86
64.0604	782.54
64.0749	854.65
64.0893	832.26
64.1037	803.72
64.1182	872.31
64.1326	855.67
64.1471	824.81
64.1615	813.52
64.1759	774.55
64.1904	730.71
64.2048	789.32
64.2193	742.48
64.2337	707.96
64.2481	725.62
64.2626	730.31
64.2770	781.31
64.2915	688.81
64.3059	774.73
64.3203	703.07
64.3348	699.21
64.3492	691.95
64.3637	667.07
64.3781	671.01
64.3925	697.60
64.4070	689.79
64.4214	712.78
64.4359	673.15
64.4503	657.27
64.4647	676.80
64.4792	665.88
64.4936	645.81
64.5081	651.83
64.5225	659.80
64.5369	669.50
64.5514	679.39
64.5658	686.14
64.5803	651.08
64.5947	675.93
64.6091	678.56
64.6236	644.95
64.6380	696.28
64.6525	667.28
64.6669	705.31
64.6813	640.99
64.6958	683.51
64.7102	708.48
64.7247	673.93
64.7391	668.30
64.7535	750.95
64.7680	737.45
64.7824	739.74
64.7969	721.18
64.8113	774.85
64.8257	745.28
64.8402	788.61
64.8546	856.12
64.8691	836.87
64.8835	797.36
64.8979	861.75
64.9124	839.10
64.9268	872.04
64.9413	888.88
64.9557	876.73
64.9701	962.04
64.9846	1050.35
64.9990	1239.29
65.0135	1316.04
65.0279	1481.67
65.0423	1788.54
65.0568	2181.75
65.0712	2708.28
65.0857	3603.74
65.1001	4723.80
65.1145	6370.16
65.1290	8314.52
65.1434	9967.77
65.1579	11355.36
65.1723	11834.62
65.1867	11232.26
65.2012	9658.63
65.2156	8210.79
65.2301	6375.01
65.2445	5282.34
65.2589	4457.40
65.2734	4261.07
65.2878	4544.64
65.3023	5177.64
65.3167	6030.66
65.3311	6753.66
65.3456	7112.09
65.3600	6983.40
65.3745	6271.14
65.3889	5282.49
65.4033	4321.72
65.4178	3285.55
65.4322	2614.26
65.4467	2032.70
65.4611	1663.29
65.4755	1403.01
65.4900	1243.92
65.5044	1108.22
65.5189	1055.55
65.5333	1015.56
65.5477	924.77
65.5622	880.63
65.5766	836.45
65.5911	806.47
65.6055	828.07
65.6199	789.24
65.6344	753.34
65.6488	719.07
65.6633	713.49
65.6777	739.15
65.6921	712.20
65.7066	741.29
65.7210	695.60
65.7355	720.63
65.7499	674.43
65.7643	661.86
65.7788	701.56
65.7932	683.68
65.8077	662.93
65.8221	646.89
65.8365	703.33
65.8510	699.86
65.8654	677.26
65.8799	670.03
65.8943	644.49
65.9087	683.40
65.9232	659.68
65.9376	653.93
65.9521	626.88
65.9665	648.59
65.9809	614.53
65.9954	620.86
66.0098	649.46
66.0243	652.89
66.0387	622.75
66.0531	605.11
66.0676	590.14
66.0820	612.44
66.0965	608.97
66.1109	638.96
66.1253	656.07
66.1398	585.68
66.1542	581.77
66.1687	608.70
66.1831	620.14
66.1975	598.71
66.2120	617.08
66.2264	612.52
66.2409	608.94
66.2553	588.97
66.2697	599.81
66.2842	641.87
66.2986	606.00
66.3131	601.41
66.3275	573.80
66.3419	612.22
66.3564	616.12
66.3708	620.48
66.3853	613.92
66.3997	611.09
66.4141	623.83
66.4286	627.56
66.4430	618.27
66.4575	603.04
66.4719	623.80
66.4863	645.93
66.5008	598.47
66.5152	610.53
66.5297	610.86
66.5441	588.51
66.5585	592.31
66.5730	600.58
66.5874	595.87
66.6019	575.60
66.6163	608.97
66.6307	628.81
66.6452	585.28
66.6596	628.22
66.6741	612.35
66.6885	550.66
66.7029	586.72
66.7174	599.20
66.7318	582.32
66.7463	579.96
66.7607	600.47
66.7751	615.19
66.7896	576.85
66.8040	594.34
66.8185	611.11
66.8329	615.50
66.8473	577.38
66.8618	594.96
66.8762	574.01
66.8907	578.89
66.9051	586.13
66.9195	557.21
66.9340	550.34
66.9484	592.18
66.9629	556.71
66.9773	583.91
66.9917	621.92
67.0062	556.27
67.0206	571.41
67.0351	590.34
67.0495	587.81
67.0639	628.37
67.0784	606.13
67.0928	613.80
67.1073	584.63
67.1217	560.80
67.1361	565.41
67.1506	562.99
67.1650	590.00
67.1795	591.17
67.1939	587.62
67.2083	567.20
67.2228	590.78
67.2372	589.06
67.2517	570.16
67.2661	608.00
67.2805	580.31
67.2950	571.26
67.3094	602.43
67.3239	614.02
67.3383	609.77
67.3527	620.82
67.3672	591.94
67.3816	589.25
67.3961	545.80
67.4105	563.78
67.4250	596.71
67.4394	566.09
67.4538	584.28
67.4683	595.65
67.4827	571.08
67.4972	596.27
67.5116	564.10
67.5260	592.98
67.5405	576.02
67.5549	577.43
67.5694	547.83
67.5838	585.07
67.5982	563.20
67.6127	537.07
67.6271	590.39
67.6416	608.30
67.6560	583.24
67.6704	564.46
67.6849	571.16
67.6993	583.31
67.7138	600.68
67.7282	578.52
67.7426	578.53
67.7571	586.53
67.7715	561.59
67.7860	582.27
67.8004	557.48
67.8148	548.30
67.8293	594.65
67.8437	605.44
67.8582	601.48
67.8726	570.17
67.8870	569.69
67.9015	598.80
67.9159	544.47
67.9304	605.70
67.9448	553.18
67.9592	536.80
67.9737	560.16
67.9881	565.75
68.0026	589.24
68.0170	635.25
68.0314	596.32
68.0459	584.01
68.0603	600.84
68.0748	546.14
68.0892	594.78
68.1036	620.03
68.1181	578.82
68.1325	561.30
68.1470	546.48
68.1614	571.61
68.1758	558.13
68.1903	557.62
68.2047	577.03
68.2192	570.61
68.2336	594.62
68.2480	599.92
68.2625	600.75
68.2769	592.74
68.2914	592.09
68.3058	542.76
68.3202	539.68
68.3347	576.75
68.3491	552.38
68.3636	534.27
68.3780	528.35
68.3924	550.73
68.4069	567.95
68.4213	501.76
68.4358	557.63
68.4502	547.13
68.4646	549.60
68.4791	554.71
68.4935	540.35
68.5080	577.99
68.5224	566.32
68.5368	611.87
68.5513	579.29
68.5657	579.06
68.5802	539.54
68.5946	588.72
68.6090	593.03
68.6235	586.33
68.6379	579.33
68.6524	567.38
68.6668	543.48
68.6812	574.33
68.6957	531.53
68.7101	632.21
68.7246	564.49
68.7390	568.03
68.7534	581.22
68.7679	578.63
68.7823	577.51
68.7968	573.19
68.8112	608.71
68.8256	565.69
68.8401	554.76
68.8545	578.76
68.8690	586.97
68.8834	544.98
68.8978	589.28
68.9123	589.47
68.9267	570.62
68.9412	532.70
68.9556	576.06
68.9700	570.38
68.9845	604.29
68.9989	558.69
69.0134	658.65
69.0278	611.25
69.0422	632.67
69.0567	593.94
69.0711	544.83
69.0856	533.14
69.1000	597.01
69.1144	618.51
69.1289	581.89
69.1433	523.97
69.1578	570.92
69.1722	586.75
69.1866	523.82
69.2011	561.27
69.2155	541.08
69.2300	558.40
69.2444	570.44
69.2588	587.15
69.2733	611.78
69.2877	539.78
69.3022	582.19
69.3166	530.85
69.3310	585.00
69.3455	566.89
69.3599	562.32
69.3744	552.73
69.3888	551.91
69.4032	588.66
69.4177	596.06
69.4321	513.71
69.4466	558.41
69.4610	549.61
69.4754	618.71
69.4899	565.67
69.5043	571.68
69.5188	592.71
69.5332	624.19
69.5476	579.49
69.5621	585.51
69.5765	592.14
69.5910	605.74
69.6054	601.21
69.6198	606.30
69.6343	594.70
69.6487	601.97
69.6632	595.13
69.6776	602.48
69.6920	598.42
69.7065	592.75
69.7209	555.59
69.7354	573.24
69.7498	588.16
69.7642	544.53
69.7787	538.92
69.7931	578.41
69.8076	608.80
69.8220	586.96
69.8364	576.45
69.8509	556.34
69.8653	551.13
69.8798	551.67
69.8942	606.70
69.9086	661.74
69.9231	612.45
69.9375	605.04
69.9520	588.98
69.9664	602.83
69.9808	584.88
69.9953	595.98
70.0097	573.25
70.0242	598.84
70.0386	586.87
70.0530	576.14
70.0675	605.93
70.0819	559.52
70.0964	556.10
70.1108	572.24
70.1252	538.98
70.1397	548.15
70.1541	535.05
70.1686	506.68
70.1830	566.67
70.1974	572.75
70.2119	609.06
70.2263	603.01
70.2408	620.84
70.2552	592.64
70.2696	611.84
70.2841	564.33
70.2985	611.13
70.3130	568.45
70.3274	560.43
70.3418	609.81
70.3563	617.61
70.3707	561.96
70.3852	551.57
70.3996	532.58
70.4140	575.24
70.4285	619.49
70.4429	562.99
70.4574	581.48
70.4718	602.48
70.4862	598.86
70.5007	611.41
70.5151	600.90
70.5296	589.72
70.5440	577.55
70.5584	531.71
70.5729	550.47
70.5873	585.57
70.6018	563.55
70.6162	583.32
70.6306	593.58
70.6451	599.13
70.6595	618.03
70.6740	514.84
70.6884	510.58
70.7028	581.54
70.7173	597.22
70.7317	600.20
70.7462	651.64
70.7606	584.59
70.7750	620.22
70.7895	626.68
70.8039	534.27
70.8184	560.83
70.8328	603.14
70.8472	533.46
70.8617	534.57
70.8761	568.43
70.8906	566.51
70.9050	572.22
70.9194	583.38
70.9339	601.63
70.9483	643.57
70.9628	614.48
70.9772	576.51
70.9916	644.91
71.0061	643.42
71.0205	567.42
71.0350	579.03
71.0494	571.56
71.0638	580.63
71.0783	597.15
71.0927	619.37
71.1072	595.30
71.1216	569.23
71.1361	539.48
71.1505	606.29
71.1649	627.55
71.1794	594.98
71.1938	592.75
71.2083	565.04
71.2227	585.19
71.2371	594.27
71.2516	571.36
71.2660	559.15
71.2805	616.09
71.2949	598.41
71.3093	544.26
71.3238	540.52
71.3382	627.74
71.3527	613.66
71.3671	573.19
71.3815	564.61
71.3960	605.95
71.4104	591.62
71.4249	570.86
71.4393	581.32
71.4537	595.94
71.4682	590.39
71.4826	601.34
71.4971	577.55
71.5115	584.45
71.5259	599.91
71.5404	544.42
71.5548	548.22
71.5693	588.47
71.5837	554.15
71.5981	593.31
71.6126	566.80
71.6270	526.57
71.6415	575.24
71.6559	587.18
71.6703	619.45
71.6848	607.90
71.6992	564.09
71.7137	574.90
71.7281	556.91
71.7425	587.32
71.7570	561.06
71.7714	532.85
71.7859	575.66
71.8003	606.92
71.8147	625.68
71.8292	547.32
71.8436	503.43
71.8581	544.34
71.8725	622.13
71.8869	592.70
71.9014	545.90
71.9158	605.11
71.9303	571.73
71.9447	487.29
71.9591	572.36
71.9736	612.59
71.9880	550.48
72.0025	548.79
72.0169	548.78
72.0313	594.74
72.0458	601.49
72.0602	582.43
72.0747	553.29
72.0891	539.31
72.1035	606.93
72.1180	595.30
72.1324	554.51
72.1469	567.51
72.1613	588.08
72.1757	590.87
72.1902	551.98
72.2046	543.04
72.2191	603.37
72.2335	576.59
72.2479	496.52
72.2624	542.73
72.2768	629.23
72.2913	611.19
72.3057	637.87
72.3201	635.82
72.3346	508.10
72.3490	527.72
72.3635	596.37
72.3779	593.79
72.3923	558.13
72.4068	553.88
72.4212	598.67
72.4357	679.14
72.4501	638.35
72.4645	621.92
72.4790	567.59
72.4934	556.16
72.5079	606.19
72.5223	534.66
72.5367	453.66
72.5512	541.37
72.5656	560.49
72.5801	519.22
72.5945	528.54
72.6089	489.01
72.6234	510.75
72.6378	545.61
72.6523	581.92
72.6667	579.76
72.6811	574.92
72.6956	541.49
72.7100	550.28
72.7245	612.11
72.7389	651.29
72.7533	634.20
72.7678	559.99
72.7822	581.43
72.7967	597.50
72.8111	558.05
72.8255	652.41
72.8400	661.71
72.8544	563.45
72.8689	626.61
72.8833	576.69