2022.09.19 19:37:16
Îáðàçåö: ß÷åéêà LCoV 16-09-2022
Lambda1 = 1.54060
Lambda2 = 1.54439
Lambdam = 1.54186
R = 0.497
2Theta	I

line¹ 0 ;repeat¹ 0
22.1120	584.72
22.1264	675.36
22.1409	562.18
22.1553	523.60
22.1697	606.91
22.1842	606.17
22.1986	588.50
22.2131	600.40
22.2275	556.68
22.2419	519.90
22.2564	568.59
22.2708	578.12
22.2853	517.19
22.2997	500.33
22.3141	498.79
22.3286	546.86
22.3430	651.67
22.3575	581.70
22.3719	658.63
22.3863	637.65
22.4008	710.40
22.4152	661.75
22.4297	650.99
22.4441	575.09
22.4585	588.89
22.4730	623.79
22.4874	595.46
22.5019	555.87
22.5163	621.00
22.5307	661.48
22.5452	602.67
22.5596	606.22
22.5741	573.25
22.5885	564.22
22.6029	635.96
22.6174	719.19
22.6318	616.36
22.6463	507.59
22.6607	537.40
22.6751	594.59
22.6896	561.08
22.7040	597.06
22.7185	598.52
22.7329	535.44
22.7473	588.08
22.7618	549.40
22.7762	477.26
22.7907	626.85
22.8051	631.26
22.8195	617.73
22.8340	559.58
22.8484	584.76
22.8629	517.81
22.8773	582.25
22.8917	567.90
22.9062	556.40
22.9206	553.47
22.9351	606.74
22.9495	576.75
22.9639	526.01
22.9784	543.91
22.9928	464.42
23.0073	495.12
23.0217	605.24
23.0361	609.60
23.0506	601.29
23.0650	558.54
23.0795	540.41
23.0939	604.74
23.1083	507.48
23.1228	526.37
23.1372	583.32
23.1517	533.66
23.1661	533.47
23.1806	605.53
23.1950	528.72
23.2094	507.51
23.2239	605.60
23.2383	626.11
23.2528	622.62
23.2672	615.99
23.2816	567.58
23.2961	584.76
23.3105	513.02
23.3250	522.03
23.3394	630.83
23.3538	581.53
23.3683	561.61
23.3827	619.73
23.3972	527.09
23.4116	499.67
23.4260	508.24
23.4405	575.59
23.4549	558.66
23.4694	584.77
23.4838	517.52
23.4982	539.36
23.5127	571.85
23.5271	607.88
23.5416	552.36
23.5560	532.46
23.5704	588.85
23.5849	552.85
23.5993	543.39
23.6138	612.99
23.6282	490.03
23.6426	511.38
23.6571	575.86
23.6715	516.42
23.6860	501.11
23.7004	538.59
23.7148	547.84
23.7293	530.10
23.7437	555.84
23.7582	578.67
23.7726	555.07
23.7870	563.13
23.8015	550.98
23.8159	508.47
23.8304	595.25
23.8448	515.29
23.8592	534.61
23.8737	527.85
23.8881	540.07
23.9026	588.75
23.9170	579.19
23.9314	517.02
23.9459	555.84
23.9603	549.48
23.9748	556.41
23.9892	562.17
24.0036	541.35
24.0181	567.61
24.0325	512.42
24.0470	559.98
24.0614	553.59
24.0758	588.59
24.0903	635.90
24.1047	617.26
24.1192	548.11
24.1336	585.22
24.1480	551.24
24.1625	558.01
24.1769	567.91
24.1914	563.16
24.2058	572.87
24.2202	586.08
24.2347	555.51
24.2491	579.65
24.2636	557.18
24.2780	575.23
24.2924	594.12
24.3069	605.32
24.3213	541.56
24.3358	489.59
24.3502	512.53
24.3646	576.26
24.3791	547.79
24.3935	536.45
24.4080	584.97
24.4224	569.64
24.4368	509.18
24.4513	499.85
24.4657	543.93
24.4802	551.44
24.4946	602.72
24.5090	617.08
24.5235	553.94
24.5379	556.28
24.5524	594.70
24.5668	577.33
24.5812	556.09
24.5957	554.49
24.6101	581.78
24.6246	582.27
24.6390	547.26
24.6534	592.44
24.6679	525.22
24.6823	481.31
24.6968	543.28
24.7112	545.21
24.7256	517.73
24.7401	556.62
24.7545	543.57
24.7690	532.34
24.7834	546.75
24.7978	508.36
24.8123	498.88
24.8267	499.94
24.8412	572.32
24.8556	573.66
24.8700	551.82
24.8845	546.72
24.8989	554.63
24.9134	590.40
24.9278	534.59
24.9422	543.97
24.9567	515.61
24.9711	542.18
24.9856	605.20
25.0000	489.59
25.0144	493.80
25.0289	521.52
25.0433	565.44
25.0578	516.18
25.0722	526.94
25.0866	570.57
25.1011	543.16
25.1155	554.76
25.1300	565.38
25.1444	559.21
25.1588	524.58
25.1733	563.46
25.1877	569.60
25.2022	533.84
25.2166	572.78
25.2310	542.91
25.2455	526.22
25.2599	513.80
25.2744	561.38
25.2888	558.93
25.3032	541.00
25.3177	543.79
25.3321	560.81
25.3466	553.31
25.3610	558.47
25.3754	564.55
25.3899	541.32
25.4043	495.66
25.4188	527.89
25.4332	545.10
25.4476	534.85
25.4621	523.64
25.4765	541.23
25.4910	521.45
25.5054	516.60
25.5198	543.08
25.5343	547.64
25.5487	586.77
25.5632	544.44
25.5776	579.40
25.5920	555.51
25.6065	516.74
25.6209	532.32
25.6354	546.48
25.6498	560.22
25.6642	540.67
25.6787	535.69
25.6931	548.13
25.7076	556.49
25.7220	548.86
25.7364	554.78
25.7509	543.26
25.7653	561.03
25.7798	575.25
25.7942	563.23
25.8086	545.99
25.8231	528.90
25.8375	535.04
25.8520	550.70
25.8664	547.56
25.8808	522.63
25.8953	574.60
25.9097	520.05
25.9242	544.81
25.9386	591.22
25.9530	547.99
25.9675	534.57
25.9819	533.39
25.9964	464.57
26.0108	516.45
26.0252	568.03
26.0397	520.32
26.0541	541.79
26.0686	546.88
26.0830	531.42
26.0974	544.97
26.1119	533.50
26.1263	552.30
26.1408	555.69
26.1552	522.37
26.1696	530.92
26.1841	532.27
26.1985	557.27
26.2130	546.48
26.2274	522.17
26.2418	521.74
26.2563	545.24
26.2707	548.59
26.2852	558.74
26.2996	527.50
26.3140	505.55
26.3285	530.80
26.3429	531.16
26.3574	552.77
26.3718	532.50
26.3862	543.37
26.4007	532.71
26.4151	540.36
26.4296	539.95
26.4440	520.24
26.4584	505.25
26.4729	542.07
26.4873	517.57
26.5018	525.12
26.5162	529.72
26.5306	531.63
26.5451	531.18
26.5595	539.03
26.5740	528.49
26.5884	517.56
26.6028	528.44
26.6173	553.91
26.6317	583.55
26.6462	540.68
26.6606	540.90
26.6750	555.92
26.6895	537.62
26.7039	537.11
26.7184	550.32
26.7328	529.98
26.7472	510.61
26.7617	537.53
26.7761	519.95
26.7906	529.17
26.8050	510.29
26.8194	502.48
26.8339	518.57
26.8483	522.23
26.8628	561.08
26.8772	502.12
26.8917	505.50
26.9061	515.06
26.9205	536.41
26.9350	550.44
26.9494	506.09
26.9639	481.39
26.9783	528.35
26.9927	542.81
27.0072	493.62
27.0216	501.65
27.0361	495.20
27.0505	549.11
27.0649	549.11
27.0794	514.77
27.0938	539.37
27.1083	536.80
27.1227	501.71
27.1371	490.76
27.1516	510.22
27.1660	500.23
27.1805	491.18
27.1949	486.53
27.2093	523.56
27.2238	525.26
27.2382	509.36
27.2527	534.19
27.2671	504.62
27.2815	508.50
27.2960	494.81
27.3104	514.59
27.3249	539.41
27.3393	564.58
27.3537	519.69
27.3682	510.55
27.3826	517.26
27.3971	525.53
27.4115	512.28
27.4259	540.80
27.4404	541.89
27.4548	533.14
27.4693	528.02
27.4837	560.08
27.4981	512.93
27.5126	510.52
27.5270	525.39
27.5415	517.40
27.5559	514.42
27.5703	494.15
27.5848	543.00
27.5992	499.40
27.6137	506.67
27.6281	554.81
27.6425	533.21
27.6570	536.13
27.6714	517.63
27.6859	531.05
27.7003	515.07
27.7147	530.22
27.7292	512.94
27.7436	541.87
27.7581	514.29
27.7725	515.51
27.7869	505.02
27.8014	518.61
27.8158	523.27
27.8303	502.24
27.8447	523.94
27.8591	525.74
27.8736	513.52
27.8880	522.69
27.9025	547.97
27.9169	548.97
27.9313	503.08
27.9458	520.02
27.9602	554.16
27.9747	511.04
27.9891	501.62
28.0035	491.84
28.0180	517.05
28.0324	529.49
28.0469	550.41
28.0613	521.78
28.0757	497.13
28.0902	500.70
28.1046	516.45
28.1191	519.02
28.1335	513.44
28.1479	506.60
28.1624	496.38
28.1768	523.38
28.1913	533.18
28.2057	497.01
28.2201	536.29
28.2346	549.64
28.2490	528.13
28.2635	513.65
28.2779	508.21
28.2923	530.19
28.3068	505.45
28.3212	522.41
28.3357	537.76
28.3501	514.41
28.3645	487.59
28.3790	493.07
28.3934	515.56
28.4079	500.37
28.4223	530.94
28.4367	480.69
28.4512	481.80
28.4656	517.25
28.4801	548.46
28.4945	533.67
28.5089	499.83
28.5234	528.37
28.5378	527.31
28.5523	482.10
28.5667	514.01
28.5811	532.10
28.5956	520.51
28.6100	518.72
28.6245	519.67
28.6389	532.73
28.6533	531.05
28.6678	492.50
28.6822	482.51
28.6967	494.47
28.7111	513.07
28.7255	524.79
28.7400	484.40
28.7544	510.56
28.7689	515.43
28.7833	525.90
28.7977	501.60
28.8122	544.48
28.8266	530.41
28.8411	531.69
28.8555	503.81
28.8699	490.93
28.8844	477.47
28.8988	474.53
28.9133	487.37
28.9277	561.57
28.9421	525.91
28.9566	520.53
28.9710	527.68
28.9855	530.75
28.9999	475.16
29.0143	472.83
29.0288	504.60
29.0432	468.32
29.0577	512.66
29.0721	529.09
29.0865	517.70
29.1010	530.11
29.1154	494.22
29.1299	510.75
29.1443	507.75
29.1587	518.62
29.1732	500.80
29.1876	520.59
29.2021	507.63
29.2165	491.27
29.2309	492.72
29.2454	530.80
29.2598	528.81
29.2743	515.81
29.2887	469.66
29.3031	519.50
29.3176	515.66
29.3320	524.71
29.3465	530.18
29.3609	535.52
29.3753	492.25
29.3898	479.75
29.4042	500.05
29.4187	516.35
29.4331	508.11
29.4475	487.38
29.4620	498.10
29.4764	523.98
29.4909	526.34
29.5053	486.11
29.5197	502.49
29.5342	533.18
29.5486	524.54
29.5631	509.23
29.5775	483.44
29.5919	522.40
29.6064	522.07
29.6208	512.47
29.6353	513.11
29.6497	491.85
29.6641	489.36
29.6786	462.78
29.6930	458.01
29.7075	490.39
29.7219	507.79
29.7363	483.73
29.7508	491.10
29.7652	522.52
29.7797	519.03
29.7941	524.78
29.8085	523.06
29.8230	542.03
29.8374	501.85
29.8519	525.26
29.8663	529.92
29.8807	513.32
29.8952	520.49
29.9096	511.37
29.9241	480.16
29.9385	530.93
29.9529	495.54
29.9674	520.87
29.9818	514.96
29.9963	486.62
30.0107	510.49
30.0251	511.17
30.0396	518.87
30.0540	520.52
30.0685	507.76
30.0829	544.60
30.0973	482.13
30.1118	481.63
30.1262	529.82
30.1407	519.99
30.1551	507.31
30.1695	520.74
30.1840	503.63
30.1984	488.55
30.2129	516.06
30.2273	506.32
30.2417	513.66
30.2562	508.69
30.2706	482.11
30.2851	513.84
30.2995	514.46
30.3139	501.43
30.3284	483.80
30.3428	535.60
30.3573	500.80
30.3717	484.69
30.3861	526.72
30.4006	531.00
30.4150	504.72
30.4295	514.19
30.4439	481.76
30.4583	449.89
30.4728	507.03
30.4872	516.47
30.5017	521.99
30.5161	501.61
30.5305	523.15
30.5450	494.07
30.5594	520.02
30.5739	535.04
30.5883	522.47
30.6028	537.13
30.6172	507.97
30.6316	515.14
30.6461	532.72
30.6605	548.23
30.6750	531.72
30.6894	544.35
30.7038	539.39
30.7183	560.02
30.7327	586.60
30.7472	613.67
30.7616	669.85
30.7760	669.75
30.7905	669.21
30.8049	678.55
30.8194	697.59
30.8338	680.77
30.8482	681.22
30.8627	655.40
30.8771	675.32
30.8916	651.98
30.9060	587.85
30.9204	614.42
30.9349	645.88
30.9493	612.14
30.9638	574.85
30.9782	572.92
30.9926	560.60
31.0071	560.62
31.0215	555.56
31.0360	513.29
31.0504	548.99
31.0648	581.09
31.0793	534.06
31.0937	501.51
31.1082	484.58
31.1226	481.64
31.1370	490.67
31.1515	490.05
31.1659	507.53
31.1804	497.84
31.1948	519.45
31.2092	466.76
31.2237	507.99
31.2381	496.90
31.2526	531.40
31.2670	469.17
31.2814	524.28
31.2959	539.86
31.3103	519.21
31.3248	532.68
31.3392	567.50
31.3536	528.34
31.3681	534.39
31.3825	545.36
31.3970	526.02
31.4114	507.65
31.4258	508.27
31.4403	523.16
31.4547	503.65
31.4692	516.90
31.4836	530.96
31.4980	488.96
31.5125	490.62
31.5269	504.89
31.5414	488.45
31.5558	519.96
31.5702	518.40
31.5847	483.36
31.5991	505.89
31.6136	523.15
31.6280	527.34
31.6424	531.63
31.6569	518.39
31.6713	507.73
31.6858	476.78
31.7002	485.47
31.7146	486.00
31.7291	483.62
31.7435	478.10
31.7580	488.98
31.7724	494.06
31.7868	520.19
31.8013	483.25
31.8157	495.77
31.8302	520.56
31.8446	520.24
31.8590	542.99
31.8735	536.63
31.8879	516.80
31.9024	521.01
31.9168	496.85
31.9312	477.18
31.9457	512.27
31.9601	495.63
31.9746	495.96
31.9890	541.62
32.0034	496.18
32.0179	479.67
32.0323	507.30
32.0468	499.21
32.0612	535.79
32.0756	519.34
32.0901	511.12
32.1045	478.79
32.1190	522.86
32.1334	520.45
32.1478	482.24
32.1623	507.27
32.1767	501.88
32.1912	509.64
32.2056	542.07
32.2200	533.68
32.2345	505.92
32.2489	512.94
32.2634	501.17
32.2778	520.95
32.2922	509.61
32.3067	508.03
32.3211	521.18
32.3356	507.44
32.3500	511.78
32.3644	535.17
32.3789	501.62
32.3933	514.15
32.4078	487.79
32.4222	511.96
32.4366	497.03
32.4511	517.02
32.4655	543.99
32.4800	530.22
32.4944	486.28
32.5088	486.55
32.5233	519.48
32.5377	521.13
32.5522	547.58
32.5666	496.55
32.5810	516.64
32.5955	501.23
32.6099	521.05
32.6244	539.12
32.6388	526.24
32.6532	500.95
32.6677	525.34
32.6821	525.32
32.6966	517.07
32.7110	505.62
32.7254	516.84
32.7399	504.25
32.7543	500.83
32.7688	491.21
32.7832	470.03
32.7976	465.95
32.8121	478.55
32.8265	520.70
32.8410	500.67
32.8554	512.95
32.8698	488.09
32.8843	517.29
32.8987	521.44
32.9132	506.30
32.9276	501.93
32.9420	498.15
32.9565	454.88
32.9709	501.75
32.9854	462.46
32.9998	503.78
33.0142	536.63
33.0287	535.39
33.0431	485.84
33.0576	505.02
33.0720	503.22
33.0864	508.09
33.1009	516.49
33.1153	524.85
33.1298	513.25
33.1442	471.14
33.1586	499.94
33.1731	535.62
33.1875	489.63
33.2020	490.82
33.2164	499.69
33.2308	547.49
33.2453	482.71
33.2597	493.99
33.2742	467.47
33.2886	492.27
33.3030	486.32
33.3175	499.55
33.3319	497.84
33.3464	515.82
33.3608	476.09
33.3752	490.52
33.3897	488.99
33.4041	479.75
33.4186	519.24
33.4330	525.66
33.4474	482.99
33.4619	469.47
33.4763	475.77
33.4908	503.55
33.5052	503.85
33.5196	479.35
33.5341	517.60
33.5485	521.55
33.5630	511.68
33.5774	536.29
33.5918	531.46
33.6063	500.73
33.6207	477.55
33.6352	508.33
33.6496	506.47
33.6640	463.29
33.6785	496.60
33.6929	482.45
33.7074	546.14
33.7218	552.78
33.7362	487.64
33.7507	504.44
33.7651	515.31
33.7796	523.84
33.7940	503.75
33.8084	488.64
33.8229	507.14
33.8373	492.38
33.8518	480.69
33.8662	500.71
33.8806	489.48
33.8951	506.92
33.9095	512.37
33.9240	496.67
33.9384	515.43
33.9528	532.72
33.9673	513.57
33.9817	506.80
33.9962	489.69
34.0106	524.97
34.0250	540.55
34.0395	521.94
34.0539	554.50
34.0684	539.29
34.0828	498.85
34.0972	544.38
34.1117	544.30
34.1261	515.39
34.1406	506.49
34.1550	481.87
34.1694	522.40
34.1839	514.70
34.1983	464.85
34.2128	530.71
34.2272	506.59
34.2417	501.10
34.2561	522.92
34.2705	491.48
34.2850	511.49
34.2994	509.61
34.3139	520.66
34.3283	500.13
34.3427	501.35
34.3572	496.67
34.3716	507.94
34.3861	498.08
34.4005	502.90
34.4149	509.76
34.4294	543.82
34.4438	505.10
34.4583	516.37
34.4727	544.29
34.4871	517.84
34.5016	478.39
34.5160	483.38
34.5305	493.14
34.5449	502.57
34.5593	481.12
34.5738	499.74
34.5882	481.17
34.6027	509.55
34.6171	498.00
34.6315	515.03
34.6460	503.03
34.6604	507.22
34.6749	541.75
34.6893	519.86
34.7037	503.53
34.7182	495.11
34.7326	512.14
34.7471	519.67
34.7615	522.41
34.7759	520.61
34.7904	530.96
34.8048	511.71
34.8193	520.05
34.8337	509.25
34.8481	477.29
34.8626	509.75
34.8770	525.00
34.8915	535.28
34.9059	515.15
34.9203	505.24
34.9348	533.50
34.9492	506.98
34.9637	524.74
34.9781	514.83
34.9925	518.01
35.0070	544.23
35.0214	525.95
35.0359	495.20
35.0503	491.59
35.0647	519.15
35.0792	526.78
35.0936	511.86
35.1081	487.65
35.1225	510.57
35.1369	529.85
35.1514	492.70
35.1658	496.25
35.1803	522.56
35.1947	509.32
35.2091	528.22
35.2236	526.93
35.2380	501.44
35.2525	522.99
35.2669	524.49
35.2813	519.75
35.2958	540.52
35.3102	559.34
35.3247	528.19
35.3391	498.12
35.3535	527.08
35.3680	531.36
35.3824	498.13
35.3969	472.11
35.4113	499.68
35.4257	523.56
35.4402	539.44
35.4546	538.83
35.4691	573.37
35.4835	522.23
35.4979	516.33
35.5124	510.30
35.5268	531.75
35.5413	515.90
35.5557	547.28
35.5701	524.90
35.5846	516.95
35.5990	502.86
35.6135	507.65
35.6279	488.87
35.6423	532.18
35.6568	554.21
35.6712	540.82
35.6857	547.63
35.7001	639.57
35.7145	671.99
35.7290	662.20
35.7434	582.45
35.7579	546.39
35.7723	594.44
35.7867	612.77
35.8012	689.04
35.8156	649.95
35.8301	628.65
35.8445	600.87
35.8589	657.58
35.8734	709.23
35.8878	848.53
35.9023	983.54
35.9167	1151.45
35.9311	1417.92
35.9456	2136.74
35.9600	2306.79
35.9745	1851.63
35.9889	1844.60
36.0033	2288.97
36.0178	2406.46
36.0322	2009.64
36.0467	1922.83
36.0611	1650.45
36.0755	1640.69
36.0900	1636.93
36.1044	1402.52
36.1189	1432.40
36.1333	1314.61
36.1477	1104.22
36.1622	1103.19
36.1766	1094.95
36.1911	986.74
36.2055	929.55
36.2199	942.93
36.2344	986.51
36.2488	1010.75
36.2633	1021.51
36.2777	1022.27
36.2921	1061.51
36.3066	1056.34
36.3210	1059.55
36.3355	1007.15
36.3499	977.12
36.3643	925.36
36.3788	865.60
36.3932	821.73
36.4077	794.99
36.4221	762.47
36.4365	683.15
36.4510	664.16
36.4654	653.12
36.4799	624.70
36.4943	649.72
36.5087	606.63
36.5232	612.52
36.5376	598.81
36.5521	586.40
36.5665	574.40
36.5809	542.96
36.5954	585.19
36.6098	551.08
36.6243	546.62
36.6387	542.68
36.6531	523.33
36.6676	567.34
36.6820	538.59
36.6965	539.87
36.7109	547.06
36.7253	538.10
36.7398	543.99
36.7542	543.31
36.7687	536.95
36.7831	509.72
36.7975	557.37
36.8120	535.68
36.8264	567.67
36.8409	567.96
36.8553	579.11
36.8697	591.18
36.8842	589.58
36.8986	597.79
36.9131	637.77
36.9275	558.99
36.9419	569.81
36.9564	630.84
36.9708	586.72
36.9853	568.20
36.9997	597.90
37.0141	558.54
37.0286	547.23
37.0430	502.64
37.0575	528.07
37.0719	520.44
37.0863	528.27
37.1008	550.90
37.1152	541.37
37.1297	579.30
37.1441	509.85
37.1585	487.41
37.1730	539.46
37.1874	506.26
37.2019	481.44
37.2163	535.08
37.2307	498.07
37.2452	557.42
37.2596	523.54
37.2741	491.86
37.2885	507.36
37.3029	523.72
37.3174	515.23
37.3318	498.12
37.3463	508.16
37.3607	516.23
37.3751	509.04
37.3896	518.68
37.4040	501.55
37.4185	515.95
37.4329	537.60
37.4473	490.61
37.4618	515.21
37.4762	509.87
37.4907	486.97
37.5051	516.48
37.5195	527.07
37.5340	535.85
37.5484	537.51
37.5629	482.63
37.5773	480.56
37.5917	517.29
37.6062	534.68
37.6206	497.14
37.6351	543.13
37.6495	508.00
37.6639	479.94
37.6784	506.25
37.6928	500.04
37.7073	540.66
37.7217	546.33
37.7361	521.95
37.7506	505.09
37.7650	538.14
37.7795	500.72
37.7939	479.90
37.8083	494.92
37.8228	499.02
37.8372	467.19
37.8517	486.27
37.8661	531.44
37.8805	539.82
37.8950	493.64
37.9094	533.31
37.9239	484.56
37.9383	518.12
37.9528	502.32
37.9672	479.45
37.9816	514.25
37.9961	522.85
38.0105	468.85
38.0250	490.27
38.0394	484.07
38.0538	489.72
38.0683	489.01
38.0827	478.43
38.0972	520.03
38.1116	530.13
38.1260	513.78
38.1405	490.29
38.1549	491.55
38.1694	514.64
38.1838	506.15
38.1982	496.86
38.2127	519.10
38.2271	526.75
38.2416	537.38
38.2560	528.59
38.2704	523.16
38.2849	506.13
38.2993	479.56
38.3138	520.31
38.3282	544.25
38.3426	536.68
38.3571	539.35
38.3715	547.13
38.3860	560.81
38.4004	569.79
38.4148	547.71
38.4293	585.22
38.4437	595.72
38.4582	614.78
38.4726	644.22
38.4870	706.61
38.5015	730.78
38.5159	781.26
38.5304	845.86
38.5448	803.05
38.5592	825.66
38.5737	738.21
38.5881	739.26
38.6026	735.34
38.6170	716.03
38.6314	667.93
38.6459	662.00
38.6603	610.38
38.6748	617.20
38.6892	562.13
38.7036	553.83
38.7181	531.16
38.7325	511.01
38.7470	516.69
38.7614	507.05
38.7758	532.80
38.7903	520.45
38.8047	503.68
38.8192	522.89
38.8336	491.22
38.8480	499.36
38.8625	510.26
38.8769	505.30
38.8914	514.38
38.9058	520.12
38.9202	487.50
38.9347	526.50
38.9491	523.87
38.9636	483.14
38.9780	490.23
38.9924	498.79
39.0069	501.76
39.0213	530.68
39.0358	528.63
39.0502	517.18
39.0646	493.77
39.0791	499.20
39.0935	492.77
39.1080	513.57
39.1224	515.83
39.1368	530.98
39.1513	487.04
39.1657	500.37
39.1802	496.05
39.1946	507.09
39.2090	499.90
39.2235	531.43
39.2379	507.54
39.2524	494.73
39.2668	521.39
39.2812	510.55
39.2957	462.06
39.3101	488.21
39.3246	503.91
39.3390	505.65
39.3534	524.69
39.3679	526.07
39.3823	513.06
39.3968	491.86
39.4112	527.02
39.4256	527.23
39.4401	528.81
39.4545	518.14
39.4690	508.95
39.4834	533.10
39.4978	487.16
39.5123	485.71
39.5267	494.89
39.5412	508.27
39.5556	513.97
39.5700	501.48
39.5845	496.90
39.5989	498.65
39.6134	489.19
39.6278	484.51
39.6422	492.46
39.6567	499.42
39.6711	504.87
39.6856	497.75
39.7000	511.68
39.7144	511.74
39.7289	536.92
39.7433	504.59
39.7578	477.40
39.7722	526.38
39.7866	541.27
39.8011	498.19
39.8155	499.74
39.8300	498.63
39.8444	487.39
39.8588	513.51
39.8733	482.72
39.8877	492.49
39.9022	502.39
39.9166	498.75
39.9310	505.39
39.9455	521.61
39.9599	507.97
39.9744	499.30
39.9888	510.79
40.0032	466.46
40.0177	523.00
40.0321	470.18
40.0466	492.55
40.0610	514.23
40.0754	487.50
40.0899	502.77
40.1043	511.96
40.1188	497.87
40.1332	485.39
40.1476	480.02
40.1621	482.40
40.1765	462.77
40.1910	492.42
40.2054	463.15
40.2198	496.41
40.2343	493.84
40.2487	498.11
40.2632	517.14
40.2776	497.67
40.2920	470.17
40.3065	497.45
40.3209	533.08
40.3354	519.78
40.3498	495.25
40.3642	513.99
40.3787	468.29
40.3931	497.96
40.4076	490.68
40.4220	520.03
40.4364	498.70
40.4509	467.76
40.4653	485.30
40.4798	494.13
40.4942	500.90
40.5086	491.37
40.5231	510.67
40.5375	475.57
40.5520	510.31
40.5664	495.68
40.5808	475.23
40.5953	488.79
40.6097	482.35
40.6242	509.37
40.6386	490.86
40.6530	502.72
40.6675	504.46
40.6819	467.82
40.6964	490.27
40.7108	522.17
40.7252	497.23
40.7397	482.59
40.7541	527.40
40.7686	481.59
40.7830	503.09
40.7974	458.19
40.8119	483.57
40.8263	491.14
40.8408	507.96
40.8552	517.41
40.8696	511.77
40.8841	501.41
40.8985	493.10
40.9130	504.15
40.9274	502.90
40.9418	466.55
40.9563	489.13
40.9707	483.45
40.9852	489.36
40.9996	511.39
41.0140	502.27
41.0285	475.42
41.0429	469.49
41.0574	469.03
41.0718	502.32
41.0862	529.21
41.1007	514.08
41.1151	497.44
41.1296	489.92
41.1440	471.97
41.1584	518.99
41.1729	516.40
41.1873	493.10
41.2018	493.90
41.2162	523.12
41.2306	494.32
41.2451	499.06
41.2595	485.22
41.2740	473.20
41.2884	500.88
41.3028	508.93
41.3173	468.89
41.3317	521.89
41.3462	529.22
41.3606	525.57
41.3750	517.17
41.3895	507.73
41.4039	517.39
41.4184	511.56
41.4328	538.45
41.4472	479.00
41.4617	494.14
41.4761	527.75
41.4906	527.45
41.5050	488.75
41.5194	484.24
41.5339	475.55
41.5483	511.93
41.5628	521.59
41.5772	504.25
41.5916	518.86
41.6061	479.18
41.6205	496.77
41.6350	526.79
41.6494	473.70
41.6639	478.87
41.6783	532.77
41.6927	496.84
41.7072	522.94
41.7216	509.23
41.7361	476.69
41.7505	483.64
41.7649	513.96
41.7794	510.46
41.7938	483.80
41.8083	520.49
41.8227	482.74
41.8371	510.75
41.8516	506.96
41.8660	514.23
41.8805	536.98
41.8949	530.01
41.9093	551.05
41.9238	564.64
41.9382	533.68
41.9527	561.00
41.9671	580.29
41.9815	582.96
41.9960	557.56
42.0104	516.82
42.0249	579.95
42.0393	564.15
42.0537	570.33
42.0682	593.07
42.0826	595.32
42.0971	591.14
42.1115	574.20
42.1259	575.51
42.1404	591.01
42.1548	628.08
42.1693	637.00
42.1837	664.08
42.1981	695.09
42.2126	787.65
42.2270	891.87
42.2415	1046.00
42.2559	1136.35
42.2703	1306.95
42.2848	1459.51
42.2992	1576.33
42.3137	1625.47
42.3281	1560.21
42.3425	1492.99
42.3570	1397.78
42.3714	1401.68
42.3859	1357.58
42.4003	1343.80
42.4147	1311.27
42.4292	1285.51
42.4436	1134.39
42.4581	1042.42
42.4725	979.31
42.4869	828.94
42.5014	738.44
42.5158	700.47
42.5303	633.29
42.5447	647.37
42.5591	630.69
42.5736	607.53
42.5880	588.68
42.6025	601.14
42.6169	562.02
42.6313	528.33
42.6458	527.97
42.6602	526.01
42.6747	538.75
42.6891	512.87
42.7035	514.92
42.7180	514.00
42.7324	496.11
42.7469	504.85
42.7613	466.22
42.7757	505.89
42.7902	546.82
42.8046	547.46
42.8191	525.93
42.8335	515.05
42.8479	479.22
42.8624	479.30
42.8768	514.47
42.8913	511.83
42.9057	516.93
42.9201	510.38
42.9346	530.57
42.9490	492.70
42.9635	489.06
42.9779	486.86
42.9923	485.10
43.0068	513.52
43.0212	530.90
43.0357	497.55
43.0501	505.45
43.0645	514.20
43.0790	510.63
43.0934	484.93
43.1079	527.10
43.1223	529.79
43.1367	547.98
43.1512	510.26
43.1656	515.05
43.1801	542.44
43.1945	505.51
43.2089	513.12
43.2234	523.69
43.2378	513.76
43.2523	486.97
43.2667	523.69
43.2811	543.58
43.2956	547.41
43.3100	539.14
43.3245	546.67
43.3389	544.66
43.3533	528.40
43.3678	507.68
43.3822	521.18
43.3967	532.28
43.4111	525.90
43.4255	550.48
43.4400	523.88
43.4544	482.52
43.4689	526.00
43.4833	521.96
43.4977	518.70
43.5122	513.29
43.5266	541.94
43.5411	537.28
43.5555	490.16
43.5699	518.48
43.5844	515.51
43.5988	509.02
43.6133	543.00
43.6277	540.33
43.6421	530.62
43.6566	525.41
43.6710	521.91
43.6855	503.95
43.6999	502.22
43.7143	526.48
43.7288	507.95
43.7432	502.95
43.7577	517.25
43.7721	492.98
43.7865	546.03
43.8010	534.78
43.8154	558.26
43.8299	549.27
43.8443	551.98
43.8587	545.89
43.8732	536.45
43.8876	533.77
43.9021	510.95
43.9165	513.53
43.9309	502.29
43.9454	539.03
43.9598	525.75
43.9743	541.50
43.9887	574.16
44.0031	570.06
44.0176	608.78
44.0320	566.01
44.0465	602.76
44.0609	642.94
44.0753	636.50
44.0898	675.77
44.1042	647.43
44.1187	658.44
44.1331	627.83
44.1475	585.29
44.1620	565.87
44.1764	560.13
44.1909	567.71
44.2053	585.72
44.2197	607.10
44.2342	610.12
44.2486	582.85
44.2631	524.15
44.2775	522.36
44.2919	563.63
44.3064	584.86
44.3208	511.46
44.3353	545.20
44.3497	557.96
44.3641	544.90
44.3786	594.79
44.3930	504.74
44.4075	545.84
44.4219	554.82
44.4363	557.19
44.4508	551.46
44.4652	570.76
44.4797	577.65
44.4941	610.14
44.5085	595.34
44.5230	582.93
44.5374	610.28
44.5519	556.77
44.5663	578.85
44.5807	590.28
44.5952	572.42
44.6096	575.80
44.6241	551.20
44.6385	568.04
44.6529	562.86
44.6674	556.94
44.6818	608.65
44.6963	634.67
44.7107	698.96
44.7251	700.86
44.7396	747.62
44.7540	792.19
44.7685	868.70
44.7829	875.16
44.7973	871.98
44.8118	872.63
44.8262	833.59
44.8407	788.24
44.8551	787.48
44.8695	786.53
44.8840	750.18
44.8984	750.64
44.9129	719.64
44.9273	658.99
44.9417	644.72
44.9562	618.17
44.9706	566.67
44.9851	546.85
44.9995	485.76
45.0139	513.90
45.0284	538.66
45.0428	556.44
45.0573	558.83
45.0717	526.90
45.0861	532.92
45.1006	503.05
45.1150	521.00
45.1295	513.82
45.1439	486.50
45.1583	482.41
45.1728	500.01
45.1872	495.69
45.2017	501.26
45.2161	498.52
45.2305	514.93
45.2450	541.42
45.2594	518.52
45.2739	501.44
45.2883	515.99
45.3028	480.69
45.3172	517.84
45.3316	464.83
45.3461	448.49
45.3605	494.31
45.3750	481.13
45.3894	477.28
45.4038	489.85
45.4183	484.31
45.4327	553.99
45.4472	499.51
45.4616	527.20
45.4760	492.85
45.4905	491.69
45.5049	517.66
45.5194	492.87
45.5338	465.84
45.5482	495.72
45.5627	518.17
45.5771	535.40
45.5916	514.51
45.6060	499.41
45.6204	510.66
45.6349	528.75
45.6493	489.41
45.6638	463.51
45.6782	481.88
45.6926	469.00
45.7071	513.53
45.7215	505.95
45.7360	504.41
45.7504	524.37
45.7648	501.97
45.7793	501.41
45.7937	497.50
45.8082	503.78
45.8226	490.12
45.8370	506.26
45.8515	515.60
45.8659	515.99
45.8804	484.28
45.8948	513.72
45.9092	512.70
45.9237	539.50
45.9381	514.57
45.9526	514.65
45.9670	511.89
45.9814	484.86
45.9959	520.88
46.0103	480.51
46.0248	507.03
46.0392	487.68
46.0536	483.14
46.0681	489.25
46.0825	486.88
46.0970	478.84
46.1114	469.00
46.1258	507.33
46.1403	478.06
46.1547	497.73
46.1692	521.05
46.1836	512.84
46.1980	492.63
46.2125	518.75
46.2269	480.92
46.2414	477.42
46.2558	500.32
46.2702	525.28
46.2847	491.01
46.2991	521.44
46.3136	527.52
46.3280	535.06
46.3424	538.23
46.3569	526.84
46.3713	500.87
46.3858	481.89
46.4002	482.56
46.4146	491.45
46.4291	513.38
46.4435	511.27
46.4580	481.19
46.4724	498.74
46.4868	501.27
46.5013	528.46
46.5157	515.16
46.5302	531.45
46.5446	501.76
46.5590	516.44
46.5735	500.02
46.5879	501.68
46.6024	476.15
46.6168	479.94
46.6312	504.28
46.6457	506.74
46.6601	515.20
46.6746	484.13
46.6890	467.29
46.7034	497.39
46.7179	507.30
46.7323	503.78
46.7468	495.40
46.7612	463.35
46.7756	499.32
46.7901	535.10
46.8045	509.85
46.8190	500.87
46.8334	518.93
46.8478	509.81
46.8623	540.69
46.8767	531.83
46.8912	500.99
46.9056	526.57
46.9200	521.63
46.9345	509.80
46.9489	532.60
46.9634	529.85
46.9778	478.55
46.9922	502.08
47.0067	519.45
47.0211	500.88
47.0356	511.36
47.0500	495.40
47.0644	490.03
47.0789	495.70
47.0933	529.40
47.1078	510.93
47.1222	512.64
47.1366	480.00
47.1511	503.99
47.1655	529.96
47.1800	530.51
47.1944	523.25
47.2088	502.44
47.2233	473.57
47.2377	525.26
47.2522	523.89
47.2666	501.05
47.2810	475.37
47.2955	477.19
47.3099	481.43
47.3244	492.62
47.3388	516.30
47.3532	501.80
47.3677	471.41
47.3821	488.74
47.3966	476.22
47.4110	463.46
47.4254	511.70
47.4399	506.30
47.4543	475.67
47.4688	501.36
47.4832	519.20
47.4976	509.45
47.5121	508.96
47.5265	502.49
47.5410	512.17
47.5554	479.08
47.5698	478.61
47.5843	484.70
47.5987	488.15
47.6132	497.48
47.6276	530.00
47.6420	541.75
47.6565	534.11
47.6709	504.49
47.6854	463.47
47.6998	488.82
47.7142	517.68
47.7287	484.87
47.7431	497.05
47.7576	487.78
47.7720	497.53
47.7864	499.07
47.8009	522.86
47.8153	507.28
47.8298	495.83
47.8442	458.12
47.8586	501.72
47.8731	536.04
47.8875	497.58
47.9020	534.69
47.9164	517.16
47.9308	474.66
47.9453	495.38
47.9597	498.75
47.9742	492.62
47.9886	507.96
48.0030	460.71
48.0175	504.73
48.0319	524.88
48.0464	512.26
48.0608	493.09
48.0752	516.61
48.0897	493.52
48.1041	493.83
48.1186	527.72
48.1330	508.13
48.1474	469.12
48.1619	489.29
48.1763	540.48
48.1908	519.50
48.2052	482.69
48.2196	501.29
48.2341	499.29
48.2485	510.91
48.2630	499.18
48.2774	537.11
48.2918	530.48
48.3063	491.92
48.3207	509.28
48.3352	544.32
48.3496	509.26
48.3640	499.48
48.3785	485.58
48.3929	468.31
48.4074	489.26
48.4218	525.43
48.4362	504.20
48.4507	480.26
48.4651	512.32
48.4796	526.78
48.4940	519.76
48.5084	501.72
48.5229	519.91
48.5373	520.18
48.5518	480.12
48.5662	500.73
48.5806	500.03
48.5951	501.22
48.6095	537.49
48.6240	509.87
48.6384	533.90
48.6528	495.06
48.6673	507.84
48.6817	520.62
48.6962	523.64
48.7106	536.03
48.7250	542.41
48.7395	498.98
48.7539	525.05
48.7684	520.37
48.7828	541.64
48.7972	550.37
48.8117	537.77
48.8261	536.94
48.8406	548.60
48.8550	561.02
48.8694	585.16
48.8839	535.58
48.8983	542.41
48.9128	545.34
48.9272	519.80
48.9416	567.39
48.9561	570.57
48.9705	569.46
48.9850	559.27
48.9994	553.62
49.0139	567.60
49.0283	592.56
49.0427	605.08
49.0572	602.27
49.0716	612.79
49.0861	657.73
49.1005	651.06
49.1149	707.39
49.1294	770.78
49.1438	768.65
49.1583	775.76
49.1727	860.62
49.1871	866.36
49.2016	919.31
49.2160	997.74
49.2305	1090.93
49.2449	1210.95
49.2593	1246.17
49.2738	1340.79
49.2882	1359.45
49.3027	1479.27
49.3171	1522.32
49.3315	1640.02
49.3460	1675.25
49.3604	1775.91
49.3749	1778.60
49.3893	1755.93
49.4037	1720.89
49.4182	1766.97
49.4326	1780.07
49.4471	1611.35
49.4615	1596.90
49.4759	1522.22
49.4904	1496.26
49.5048	1431.97
49.5193	1364.16
49.5337	1267.50
49.5481	1199.42
49.5626	1190.52
49.5770	1071.87
49.5915	993.48
49.6059	940.69
49.6203	849.64
49.6348	804.58
49.6492	786.94
49.6637	755.66
49.6781	722.74
49.6925	706.17
49.7070	701.73
49.7214	629.05
49.7359	641.85
49.7503	602.15
49.7647	619.72
49.7792	605.19
49.7936	559.25
49.8081	571.74
49.8225	603.83
49.8369	591.73
49.8514	531.28
49.8658	559.07
49.8803	537.69
49.8947	562.26
49.9091	509.98
49.9236	540.08
49.9380	540.44
49.9525	510.32
49.9669	525.12
49.9813	541.63
49.9958	543.50
50.0102	546.88
50.0247	532.74
50.0391	514.16
50.0535	522.38
50.0680	480.86
50.0824	526.50
50.0969	530.05
50.1113	530.87
50.1257	559.41
50.1402	505.12
50.1546	492.40
50.1691	525.12
50.1835	520.06
50.1979	526.59
50.2124	563.61
50.2268	539.11
50.2413	512.62
50.2557	510.40
50.2701	512.32
50.2846	536.94
50.2990	557.57
50.3135	513.32
50.3279	495.72
50.3423	525.13
50.3568	534.76
50.3712	525.63
50.3857	516.68
50.4001	497.07
50.4145	501.12
50.4290	532.53
50.4434	526.51
50.4579	496.42
50.4723	555.34
50.4867	539.23
50.5012	498.08
50.5156	524.43
50.5301	510.34
50.5445	523.02
50.5589	516.21
50.5734	509.34
50.5878	516.17
50.6023	542.85
50.6167	492.04
50.6311	515.58
50.6456	520.09
50.6600	522.44
50.6745	516.71
50.6889	476.83
50.7033	521.63
50.7178	533.85
50.7322	512.17
50.7467	525.13
50.7611	503.78
50.7755	515.00
50.7900	517.00
50.8044	482.35
50.8189	512.92
50.8333	525.62
50.8477	478.33
50.8622	535.79
50.8766	512.63
50.8911	516.69
50.9055	511.33
50.9199	513.37
50.9344	512.42
50.9488	507.22
50.9633	498.28
50.9777	511.47
50.9921	493.26
51.0066	489.63
51.0210	498.18
51.0355	489.28
51.0499	485.85
51.0643	484.17
51.0788	500.31
51.0932	500.44
51.1077	491.07
51.1221	492.01
51.1365	509.95
51.1510	519.28
51.1654	537.77
51.1799	513.93
51.1943	501.08
51.2087	508.24
51.2232	559.03
51.2376	554.08
51.2521	526.62
51.2665	468.79
51.2809	491.61
51.2954	468.76
51.3098	497.00
51.3243	527.12
51.3387	526.76
51.3531	512.47
51.3676	500.35
51.3820	491.59
51.3965	507.24
51.4109	512.31
51.4253	524.82
51.4398	512.56
51.4542	495.98
51.4687	547.89
51.4831	535.52
51.4975	541.84
51.5120	533.07
51.5264	504.38
51.5409	501.46
51.5553	506.25
51.5697	504.47
51.5842	508.34
51.5986	480.62
51.6131	533.29
51.6275	536.76
51.6419	523.42
51.6564	505.30
51.6708	492.50
51.6853	458.76
51.6997	518.44
51.7141	557.67
51.7286	531.24
51.7430	519.22
51.7575	500.86
51.7719	537.60
51.7863	507.21
51.8008	519.85
51.8152	546.84
51.8297	494.67
51.8441	495.35
51.8585	508.97
51.8730	510.23
51.8874	490.83
51.9019	527.78
51.9163	499.12
51.9307	498.30
51.9452	510.65
51.9596	524.03
51.9741	520.14
51.9885	502.48
52.0029	519.33
52.0174	515.60
52.0318	522.04
52.0463	507.69
52.0607	516.53
52.0751	472.29
52.0896	542.95
52.1040	505.75
52.1185	500.10
52.1329	489.36
52.1473	489.69
52.1618	530.69
52.1762	490.43
52.1907	493.51
52.2051	487.15
52.2195	492.03
52.2340	531.09
52.2484	509.58
52.2629	483.44
52.2773	482.86
52.2917	532.68
52.3062	522.81
52.3206	490.01
52.3351	506.54
52.3495	527.04
52.3639	524.38
52.3784	530.31
52.3928	517.59
52.4073	511.61
52.4217	538.65
52.4361	534.46
52.4506	493.27
52.4650	519.43
52.4795	526.04
52.4939	516.45
52.5083	533.12
52.5228	522.97
52.5372	519.92
52.5517	507.55
52.5661	525.21
52.5805	538.26
52.5950	505.73
52.6094	505.13
52.6239	489.93
52.6383	533.79
52.6527	518.31
52.6672	502.39
52.6816	528.07
52.6961	512.41
52.7105	532.60
52.7250	479.45
52.7394	491.91
52.7538	544.01
52.7683	498.78
52.7827	491.58
52.7972	539.81
52.8116	521.53
52.8260	508.27
52.8405	483.90
52.8549	480.42
52.8694	485.03
52.8838	510.14
52.8982	527.29
52.9127	512.88
52.9271	462.45
52.9416	518.57
52.9560	496.39
52.9704	484.79
52.9849	541.06
52.9993	481.74
53.0138	485.40
53.0282	495.75
53.0426	471.21
53.0571	483.65
53.0715	495.28
53.0860	490.46
53.1004	497.96
53.1148	510.83
53.1293	524.32
53.1437	500.52
53.1582	523.23
53.1726	523.50
53.1870	527.08
53.2015	503.40
53.2159	551.92
53.2304	515.09
53.2448	458.37
53.2592	482.03
53.2737	519.59
53.2881	491.66
53.3026	513.82
53.3170	521.48
53.3314	540.08
53.3459	519.77
53.3603	553.08
53.3748	496.57
53.3892	503.26
53.4036	517.76
53.4181	515.21
53.4325	503.09
53.4470	493.49
53.4614	525.67
53.4758	541.35
53.4903	552.94
53.5047	526.83
53.5192	519.72
53.5336	541.79
53.5480	520.09
53.5625	518.02
53.5769	517.85
53.5914	481.14
53.6058	511.81
53.6202	530.21
53.6347	529.01
53.6491	534.62
53.6636	529.17
53.6780	482.15
53.6924	507.23
53.7069	503.27
53.7213	530.05
53.7358	496.33
53.7502	512.26
53.7646	499.50
53.7791	501.64
53.7935	488.89
53.8080	512.09
53.8224	490.92
53.8368	489.40
53.8513	497.90
53.8657	504.48
53.8802	488.62
53.8946	524.95
53.9090	553.82
53.9235	545.50
53.9379	514.50
53.9524	525.47
53.9668	518.69
53.9812	511.93
53.9957	561.81
54.0101	550.86
54.0246	511.72
54.0390	507.14
54.0534	496.57
54.0679	487.58
54.0823	516.94
54.0968	497.38
54.1112	508.32
54.1256	528.70
54.1401	498.64
54.1545	497.21
54.1690	502.01
54.1834	520.67
54.1978	502.47
54.2123	507.62
54.2267	518.71
54.2412	506.23
54.2556	501.56
54.2700	518.46
54.2845	496.45
54.2989	528.81
54.3134	514.14
54.3278	526.27
54.3422	517.12
54.3567	491.17
54.3711	519.17
54.3856	559.84
54.4000	537.50
54.4144	541.90
54.4289	560.42
54.4433	525.89
54.4578	557.77
54.4722	550.62
54.4866	526.21
54.5011	563.28
54.5155	528.20
54.5300	550.01
54.5444	571.48
54.5588	567.37
54.5733	536.20
54.5877	550.30
54.6022	577.11
54.6166	550.62
54.6310	546.48
54.6455	542.83
54.6599	571.55
54.6744	567.73
54.6888	549.68
54.7032	582.33
54.7177	594.64
54.7321	585.23
54.7466	592.71
54.7610	579.68
54.7754	583.85
54.7899	565.37
54.8043	580.82
54.8188	606.77
54.8332	607.73
54.8476	592.32
54.8621	606.02
54.8765	568.75
54.8910	527.86
54.9054	559.79
54.9198	561.72
54.9343	563.74
54.9487	564.11
54.9632	537.44
54.9776	537.05
54.9920	528.82
55.0065	543.13
55.0209	522.08
55.0354	518.59
55.0498	523.00
55.0642	557.11
55.0787	544.66
55.0931	552.05
55.1076	555.25
55.1220	541.84
55.1364	536.00
55.1509	489.29
55.1653	524.79
55.1798	535.22
55.1942	501.23
55.2086	533.16
55.2231	512.94
55.2375	521.41
55.2520	519.18
55.2664	545.19
55.2808	528.14
55.2953	534.62
55.3097	502.46
55.3242	520.02
55.3386	509.68
55.3530	539.67
55.3675	545.02
55.3819	516.26
55.3964	526.17
55.4108	553.44
55.4252	526.84
55.4397	517.06
55.4541	507.14
55.4686	533.14
55.4830	535.14
55.4974	586.63
55.5119	530.57
55.5263	517.28
55.5408	505.63
55.5552	563.16
55.5696	521.31
55.5841	523.28
55.5985	507.77
55.6130	510.83
55.6274	511.43
55.6418	513.39
55.6563	521.60
55.6707	554.59
55.6852	527.81
55.6996	559.00
55.7140	578.07
55.7285	544.02
55.7429	499.93
55.7574	553.66
55.7718	552.29
55.7862	544.72
55.8007	530.65
55.8151	520.00
55.8296	548.70
55.8440	512.85
55.8584	513.91
55.8729	522.36
55.8873	525.72
55.9018	528.90
55.9162	549.92
55.9306	525.47
55.9451	544.67
55.9595	508.08
55.9740	509.61
55.9884	531.16
56.0028	516.37
56.0173	555.27
56.0317	525.42
56.0462	538.26
56.0606	515.64
56.0750	543.32
56.0895	515.29
56.1039	490.67
56.1184	498.80
56.1328	517.25
56.1472	500.70
56.1617	525.75
56.1761	490.93
56.1906	515.10
56.2050	506.95
56.2194	557.82
56.2339	550.01
56.2483	538.61
56.2628	509.98
56.2772	530.75
56.2916	484.37
56.3061	525.39
56.3205	533.04
56.3350	534.55
56.3494	533.63
56.3639	522.03
56.3783	513.02
56.3927	513.20
56.4072	536.00
56.4216	557.61
56.4361	532.17
56.4505	524.97
56.4649	530.92
56.4794	550.87
56.4938	535.99
56.5083	515.36
56.5227	489.43
56.5371	501.81
56.5516	552.75
56.5660	486.00
56.5805	483.19
56.5949	487.80
56.6093	510.74
56.6238	514.82
56.6382	571.88
56.6527	556.06
56.6671	500.08
56.6815	481.95
56.6960	483.74
56.7104	539.42
56.7249	543.42
56.7393	515.65
56.7537	535.19
56.7682	494.57
56.7826	537.06
56.7971	523.70
56.8115	512.89
56.8259	541.59
56.8404	542.19
56.8548	540.61
56.8693	535.48
56.8837	508.08
56.8981	542.80
56.9126	543.50
56.9270	497.20
56.9415	556.08
56.9559	534.89
56.9703	521.13
56.9848	522.03
56.9992	530.48
57.0137	583.08
57.0281	541.24
57.0425	521.51
57.0570	550.80
57.0714	544.32
57.0859	560.04
57.1003	499.15
57.1147	505.97
57.1292	525.40
57.1436	483.96
57.1581	503.37
57.1725	551.39
57.1869	521.11
57.2014	524.29
57.2158	532.03
57.2303	528.89
57.2447	539.97
57.2591	531.27
57.2736	532.43
57.2880	561.14
57.3025	499.28
57.3169	526.97
57.3313	517.20
57.3458	542.97
57.3602	541.25
57.3747	520.68
57.3891	515.64
57.4035	503.80
57.4180	510.89
57.4324	520.45
57.4469	521.40
57.4613	532.08
57.4757	522.17
57.4902	532.79
57.5046	526.09
57.5191	554.37
57.5335	544.60
57.5479	559.31
57.5624	538.36
57.5768	512.19
57.5913	504.94
57.6057	511.16
57.6201	523.36
57.6346	517.74
57.6490	500.76
57.6635	537.95
57.6779	508.89
57.6923	503.82
57.7068	557.73
57.7212	559.31
57.7357	527.67
57.7501	559.05
57.7645	480.76
57.7790	524.25
57.7934	554.22
57.8079	549.19
57.8223	530.91
57.8367	516.69
57.8512	513.16
57.8656	566.58
57.8801	538.76
57.8945	552.47
57.9089	541.63
57.9234	537.89
57.9378	528.69
57.9523	498.14
57.9667	522.37
57.9811	529.90
57.9956	503.30
58.0100	539.12
58.0245	563.24
58.0389	540.54
58.0533	519.15
58.0678	544.63
58.0822	521.86
58.0967	523.99
58.1111	540.73
58.1255	552.66
58.1400	524.82
58.1544	522.79
58.1689	550.36
58.1833	601.83
58.1977	557.86
58.2122	543.92
58.2266	615.94
58.2411	618.08
58.2555	617.03
58.2699	605.64
58.2844	648.63
58.2988	630.89
58.3133	618.17
58.3277	620.19
58.3421	631.73
58.3566	651.46
58.3710	642.12
58.3855	630.89
58.3999	643.18
58.4143	653.21
58.4288	673.45
58.4432	643.28
58.4577	618.96
58.4721	665.45
58.4865	657.37
58.5010	611.16
58.5154	620.05
58.5299	650.08
58.5443	675.57
58.5587	632.78
58.5732	610.91
58.5876	602.89
58.6021	552.63
58.6165	573.48
58.6309	574.20
58.6454	577.10
58.6598	531.47
58.6743	556.90
58.6887	557.36
58.7031	552.19
58.7176	583.75
58.7320	553.50
58.7465	521.73
58.7609	564.95
58.7753	539.27
58.7898	539.12
58.8042	565.96
58.8187	538.11
58.8331	533.99
58.8475	519.13
58.8620	552.19
58.8764	544.73
58.8909	515.81
58.9053	538.32
58.9197	545.67
58.9342	550.51
58.9486	543.26
58.9631	529.07
58.9775	536.48
58.9919	522.43
59.0064	547.18
59.0208	605.15
59.0353	549.56
59.0497	538.12
59.0641	540.51
59.0786	507.22
59.0930	521.28
59.1075	566.68
59.1219	564.05
59.1363	549.48
59.1508	539.28
59.1652	556.84
59.1797	556.37
59.1941	540.37
59.2085	577.28
59.2230	563.94
59.2374	547.98
59.2519	531.82
59.2663	564.45
59.2807	540.80
59.2952	544.82
59.3096	577.74
59.3241	586.96
59.3385	563.72
59.3529	580.67
59.3674	551.10
59.3818	556.15
59.3963	550.17
59.4107	567.10
59.4251	577.12
59.4396	559.13
59.4540	541.76
59.4685	589.66
59.4829	600.06
59.4973	545.81
59.5118	550.30
59.5262	555.31
59.5407	564.25
59.5551	570.89
59.5695	548.38
59.5840	557.36
59.5984	550.51
59.6129	539.65
59.6273	563.15
59.6417	566.01
59.6562	527.10
59.6706	516.60
59.6851	529.51
59.6995	545.84
59.7139	541.10
59.7284	540.19
59.7428	534.91
59.7573	544.48
59.7717	509.96
59.7861	568.68
59.8006	556.37
59.8150	563.11
59.8295	539.01
59.8439	528.70
59.8583	546.18
59.8728	571.97
59.8872	531.90
59.9017	560.42
59.9161	568.26
59.9305	549.45
59.9450	547.47
59.9594	536.50
59.9739	548.30
59.9883	533.48
60.0027	544.65
60.0172	547.03
60.0316	541.91
60.0461	560.09
60.0605	572.61
60.0750	528.26
60.0894	548.45
60.1038	520.19
60.1183	523.26
60.1327	519.75
60.1472	508.53
60.1616	529.95
60.1760	532.10
60.1905	544.20
60.2049	554.11
60.2194	528.44
60.2338	555.33
60.2482	572.93
60.2627	540.68
60.2771	539.34
60.2916	541.03
60.3060	559.12
60.3204	525.60
60.3349	549.18
60.3493	547.57
60.3638	532.20
60.3782	541.30
60.3926	505.71
60.4071	506.58
60.4215	510.20
60.4360	519.13
60.4504	516.17
60.4648	524.58
60.4793	547.95
60.4937	522.75
60.5082	522.76
60.5226	528.99
60.5370	522.54
60.5515	515.72
60.5659	528.57
60.5804	554.34
60.5948	555.21
60.6092	538.73
60.6237	550.65
60.6381	548.72
60.6526	556.27
60.6670	542.90
60.6814	567.58
60.6959	562.32
60.7103	539.44
60.7248	542.41
60.7392	526.35
60.7536	546.62
60.7681	494.03
60.7825	552.47
60.7970	537.34
60.8114	552.41
60.8258	530.54
60.8403	510.57
60.8547	538.67
60.8692	530.09
60.8836	522.02
60.8980	520.56
60.9125	559.29
60.9269	542.69
60.9414	586.93
60.9558	538.41
60.9702	544.49
60.9847	536.37
60.9991	535.03
61.0136	534.56
61.0280	513.95
61.0424	558.18
61.0569	543.14
61.0713	536.93
61.0858	554.73
61.1002	576.29
61.1146	550.01
61.1291	558.27
61.1435	535.58
61.1580	530.83
61.1724	570.74
61.1868	515.98
61.2013	532.35
61.2157	557.99
61.2302	586.25
61.2446	520.54
61.2590	528.93
61.2735	572.38
61.2879	542.66
61.3024	536.97
61.3168	552.41
61.3312	537.20
61.3457	512.15
61.3601	549.80
61.3746	531.13
61.3890	515.00
61.4034	547.84
61.4179	571.04
61.4323	557.56
61.4468	575.39
61.4612	556.74
61.4756	565.66
61.4901	564.80
61.5045	545.28
61.5190	505.76
61.5334	541.04
61.5478	573.45
61.5623	581.67
61.5767	539.93
61.5912	528.76
61.6056	544.66
61.6200	534.96
61.6345	554.71
61.6489	524.60
61.6634	522.00
61.6778	500.64
61.6922	527.03
61.7067	589.37
61.7211	543.95
61.7356	522.07
61.7500	531.36
61.7644	530.80
61.7789	542.40
61.7933	546.22
61.8078	567.03
61.8222	557.89
61.8366	552.47
61.8511	573.09
61.8655	592.42
61.8800	550.08
61.8944	545.79
61.9088	607.49
61.9233	580.28
61.9377	565.65
61.9522	557.98
61.9666	543.74
61.9810	547.04
61.9955	584.60
62.0099	542.12
62.0244	524.34
62.0388	544.32
62.0532	536.33
62.0677	565.70
62.0821	574.15
62.0966	548.97
62.1110	544.04
62.1254	564.85
62.1399	539.51
62.1543	541.23
62.1688	549.52
62.1832	560.71
62.1976	537.29
62.2121	539.37
62.2265	540.97
62.2410	572.25
62.2554	537.52
62.2698	521.83
62.2843	552.87
62.2987	535.76
62.3132	572.55
62.3276	529.05
62.3420	551.26
62.3565	581.27
62.3709	551.22
62.3854	568.00
62.3998	556.50
62.4142	531.49
62.4287	582.67
62.4431	533.81
62.4576	526.96
62.4720	563.13
62.4864	542.33
62.5009	570.50
62.5153	554.40
62.5298	548.85
62.5442	568.96
62.5586	560.59
62.5731	521.99
62.5875	550.73
62.6020	565.12
62.6164	556.85
62.6308	570.32
62.6453	547.75
62.6597	572.05
62.6742	565.26
62.6886	573.84
62.7030	585.43
62.7175	553.73
62.7319	559.59
62.7464	602.72
62.7608	545.54
62.7752	530.34
62.7897	591.13
62.8041	574.01
62.8186	588.63
62.8330	557.58
62.8474	540.05
62.8619	565.65
62.8763	574.16
62.8908	560.85
62.9052	547.05
62.9196	552.55
62.9341	562.69
62.9485	530.91
62.9630	557.62
62.9774	559.22
62.9918	558.03
63.0063	555.84
63.0207	582.50
63.0352	563.79
63.0496	524.62
63.0640	550.42
63.0785	544.03
63.0929	558.06
63.1074	543.79
63.1218	541.12
63.1362	551.74
63.1507	541.48
63.1651	569.46
63.1796	581.56
63.1940	560.50
63.2084	559.54
63.2229	563.06
63.2373	571.80
63.2518	566.62
63.2662	567.50
63.2806	581.77
63.2951	553.65
63.3095	565.72
63.3240	586.51
63.3384	556.27
63.3528	585.49
63.3673	586.85
63.3817	584.56
63.3962	572.89
63.4106	584.09
63.4250	622.60
63.4395	628.38
63.4539	581.93
63.4684	589.97
63.4828	583.81
63.4972	588.06
63.5117	586.50
63.5261	594.67
63.5406	571.29
63.5550	585.20
63.5694	572.08
63.5839	586.82
63.5983	580.25
63.6128	570.02
63.6272	551.75
63.6416	576.92
63.6561	581.44
63.6705	589.66
63.6850	584.19
63.6994	589.70
63.7138	609.38
63.7283	581.19
63.7427	613.91
63.7572	619.14
63.7716	604.36
63.7861	577.63
63.8005	603.51
63.8149	629.62
63.8294	611.84
63.8438	595.74
63.8583	648.90
63.8727	637.10
63.8871	596.71
63.9016	586.13
63.9160	602.45
63.9305	634.46
63.9449	670.60
63.9593	676.49
63.9738	678.88
63.9882	662.37
64.0027	678.79
64.0171	731.13
64.0315	756.44
64.0460	734.06
64.0604	756.56
64.0749	826.48
64.0893	899.21
64.1037	866.79
64.1182	831.43
64.1326	878.83
64.1471	785.35
64.1615	799.21
64.1759	788.50
64.1904	756.94
64.2048	738.75
64.2193	774.07
64.2337	784.64
64.2481	786.96
64.2626	730.99
64.2770	755.20
64.2915	748.94
64.3059	758.63
64.3203	714.59
64.3348	704.83
64.3492	681.64
64.3637	676.20
64.3781	666.43
64.3925	666.51
64.4070	663.58
64.4214	699.55
64.4359	720.32
64.4503	665.43
64.4647	642.97
64.4792	686.00
64.4936	685.02
64.5081	691.49
64.5225	701.56
64.5369	651.95
64.5514	641.13
64.5658	668.57
64.5803	648.84
64.5947	663.32
64.6091	656.23
64.6236	695.12
64.6380	669.47
64.6525	647.11
64.6669	661.13
64.6813	720.45
64.6958	686.68
64.7102	706.91
64.7247	689.45
64.7391	704.26
64.7535	753.16
64.7680	734.87
64.7824	685.88
64.7969	802.66
64.8113	776.59
64.8257	796.54
64.8402	799.31
64.8546	850.11
64.8691	835.07
64.8835	836.91
64.8979	830.35
64.9124	867.04
64.9268	878.36
64.9413	910.97
64.9557	950.04
64.9701	1033.06
64.9846	1051.35
64.9990	1181.00
65.0135	1367.79
65.0279	1488.41
65.0423	1755.80
65.0568	2191.03
65.0712	2746.65
65.0857	3537.59
65.1001	4780.34
65.1145	6483.45
65.1290	8384.33
65.1434	9994.41
65.1579	11474.47
65.1723	11793.82
65.1867	11242.97
65.2012	9772.45
65.2156	8162.58
65.2301	6446.61
65.2445	5204.60
65.2589	4500.24
65.2734	4246.67
65.2878	4543.09
65.3023	5205.42
65.3167	5950.34
65.3311	6727.18
65.3456	7055.74
65.3600	6922.39
65.3745	6419.59
65.3889	5474.88
65.4033	4283.39
65.4178	3319.85
65.4322	2706.35
65.4467	2094.79
65.4611	1734.16
65.4755	1452.61
65.4900	1262.05
65.5044	1128.17
65.5189	1002.56
65.5333	1007.17
65.5477	911.01
65.5622	909.39
65.5766	853.29
65.5911	836.76
65.6055	798.97
65.6199	766.52
65.6344	772.48
65.6488	777.45
65.6633	737.65
65.6777	743.48
65.6921	703.81
65.7066	748.80
65.7210	702.58
65.7355	702.65
65.7499	665.18
65.7643	673.29
65.7788	691.92
65.7932	658.32
65.8077	685.74
65.8221	648.56
65.8365	635.13
65.8510	641.89
65.8654	670.43
65.8799	637.10
65.8943	649.65
65.9087	675.51
65.9232	664.69
65.9376	669.80
65.9521	621.96
65.9665	654.15
65.9809	654.23
65.9954	654.89
66.0098	614.96
66.0243	637.50
66.0387	607.96
66.0531	638.28
66.0676	658.28
66.0820	656.03
66.0965	624.98
66.1109	630.50
66.1253	645.00
66.1398	609.28
66.1542	613.67
66.1687	639.08
66.1831	613.54
66.1975	609.17
66.2120	629.30
66.2264	591.20
66.2409	592.49
66.2553	609.54
66.2697	589.65
66.2842	595.42
66.2986	573.13
66.3131	589.82
66.3275	628.54
66.3419	592.27
66.3564	596.98
66.3708	595.25
66.3853	617.27
66.3997	595.36
66.4141	588.36
66.4286	581.87
66.4430	606.52
66.4575	640.17
66.4719	626.30
66.4863	617.52
66.5008	585.33
66.5152	588.61
66.5297	634.05
66.5441	608.00
66.5585	597.28
66.5730	578.65
66.5874	578.63
66.6019	599.60
66.6163	574.98
66.6307	580.79
66.6452	582.87
66.6596	591.08
66.6741	602.85
66.6885	590.83
66.7029	600.51
66.7174	609.30
66.7318	574.50
66.7463	585.37
66.7607	567.30
66.7751	573.97
66.7896	594.89
66.8040	620.34
66.8185	574.48
66.8329	546.82
66.8473	597.97
66.8618	604.25
66.8762	586.03
66.8907	583.86
66.9051	608.87
66.9195	581.12
66.9340	599.72
66.9484	609.07
66.9629	580.64
66.9773	589.56
66.9917	601.90
67.0062	616.76
67.0206	613.82
67.0351	596.91
67.0495	618.55
67.0639	585.55
67.0784	589.05
67.0928	598.29
67.1073	581.29
67.1217	568.41
67.1361	545.65
67.1506	564.96
67.1650	586.55
67.1795	604.35
67.1939	615.47
67.2083	602.26
67.2228	596.40
67.2372	579.00
67.2517	582.11
67.2661	579.77
67.2805	612.59
67.2950	544.32
67.3094	554.95
67.3239	592.96
67.3383	586.10
67.3527	592.36
67.3672	581.40
67.3816	576.52
67.3961	536.60
67.4105	583.99
67.4250	610.14
67.4394	582.04
67.4538	545.72
67.4683	568.73
67.4827	599.50
67.4972	561.26
67.5116	566.71
67.5260	561.63
67.5405	546.15
67.5549	586.88
67.5694	600.21
67.5838	582.33
67.5982	600.54
67.6127	622.96
67.6271	577.44
67.6416	575.98
67.6560	568.85
67.6704	549.31
67.6849	561.25
67.6993	597.54
67.7138	631.83
67.7282	561.63
67.7426	574.11
67.7571	565.95
67.7715	584.99
67.7860	594.89
67.8004	570.85
67.8148	595.64
67.8293	575.71
67.8437	570.06
67.8582	606.22
67.8726	594.17
67.8870	545.65
67.9015	550.55
67.9159	606.50
67.9304	570.64
67.9448	592.20
67.9592	584.94
67.9737	614.48
67.9881	583.89
68.0026	566.58
68.0170	535.86
68.0314	542.40
68.0459	572.86
68.0603	608.22
68.0748	609.51
68.0892	561.04
68.1036	578.07
68.1181	582.68
68.1325	569.14
68.1470	561.70
68.1614	590.05
68.1758	594.58
68.1903	587.44
68.2047	567.73
68.2192	580.98
68.2336	570.42
68.2480	572.21
68.2625	596.24
68.2769	543.63
68.2914	566.14
68.3058	616.94
68.3202	574.48
68.3347	568.31
68.3491	573.82
68.3636	581.79
68.3780	607.38
68.3924	544.40
68.4069	579.74
68.4213	570.68
68.4358	564.13
68.4502	537.56
68.4646	602.90
68.4791	583.43
68.4935	599.22
68.5080	583.20
68.5224	604.79
68.5368	574.74
68.5513	558.35
68.5657	590.64
68.5802	566.89
68.5946	591.12
68.6090	563.32
68.6235	563.39
68.6379	608.28
68.6524	593.03
68.6668	564.80
68.6812	578.60
68.6957	582.44
68.7101	574.20
68.7246	589.34
68.7390	561.24
68.7534	555.08
68.7679	552.27
68.7823	622.52
68.7968	590.07
68.8112	555.88
68.8256	591.43
68.8401	559.27
68.8545	629.35
68.8690	573.66
68.8834	563.28
68.8978	568.74
68.9123	597.46
68.9267	572.13
68.9412	582.95
68.9556	614.42
68.9700	549.28
68.9845	585.95
68.9989	572.64
69.0134	594.53
69.0278	533.73
69.0422	550.58
69.0567	567.64
69.0711	605.41
69.0856	616.75
69.1000	594.18
69.1144	566.13
69.1289	557.25
69.1433	559.74
69.1578	594.76
69.1722	632.59
69.1866	568.13
69.2011	570.35
69.2155	576.39
69.2300	546.25
69.2444	596.95
69.2588	593.61
69.2733	617.15
69.2877	572.76
69.3022	622.54
69.3166	584.85
69.3310	621.57
69.3455	604.09
69.3599	605.71
69.3744	571.61
69.3888	527.84
69.4032	589.04
69.4177	632.16
69.4321	626.68
69.4466	567.27
69.4610	601.28
69.4754	566.76
69.4899	569.35
69.5043	585.98
69.5188	570.13
69.5332	522.57
69.5476	553.32
69.5621	580.82
69.5765	607.40
69.5910	580.52
69.6054	578.22
69.6198	566.73
69.6343	579.07
69.6487	596.24
69.6632	551.88
69.6776	580.62
69.6920	594.59
69.7065	585.82
69.7209	583.04
69.7354	550.97
69.7498	573.89
69.7642	558.50
69.7787	596.01
69.7931	535.12
69.8076	572.62
69.8220	572.31
69.8364	563.83
69.8509	606.52
69.8653	572.88
69.8798	615.48
69.8942	614.58
69.9086	565.58
69.9231	618.80
69.9375	616.08
69.9520	578.80
69.9664	541.84
69.9808	577.32
69.9953	577.79
70.0097	562.18
70.0242	561.73
70.0386	562.44
70.0530	559.95
70.0675	581.51
70.0819	578.23
70.0964	588.63
70.1108	563.36
70.1252	522.78
70.1397	540.11
70.1541	546.20
70.1686	612.72
70.1830	628.10
70.1974	566.67
70.2119	605.09
70.2263	574.48
70.2408	560.61
70.2552	593.35
70.2696	630.33
70.2841	576.57
70.2985	595.23
70.3130	582.62
70.3274	547.02
70.3418	555.44
70.3563	589.26
70.3707	580.65
70.3852	544.98
70.3996	573.24
70.4140	574.03
70.4285	605.27
70.4429	570.28
70.4574	551.85
70.4718	573.89
70.4862	586.77
70.5007	627.72
70.5151	618.40
70.5296	590.56
70.5440	608.72
70.5584	581.77
70.5729	534.34
70.5873	543.84
70.6018	563.46
70.6162	547.77
70.6306	611.40
70.6451	571.15
70.6595	531.19
70.6740	579.04
70.6884	576.42
70.7028	587.67
70.7173	550.60
70.7317	524.79
70.7462	557.23
70.7606	553.89
70.7750	576.40
70.7895	605.24
70.8039	570.47
70.8184	573.76
70.8328	590.34
70.8472	563.06
70.8617	543.88
70.8761	522.30
70.8906	561.87
70.9050	580.81
70.9194	604.75
70.9339	571.99
70.9483	609.25
70.9628	646.12
70.9772	633.74
70.9916	650.94
71.0061	575.06
71.0205	556.85
71.0350	605.68
71.0494	578.37
71.0638	601.59
71.0783	584.61
71.0927	601.21
71.1072	635.39
71.1216	564.60
71.1361	598.06
71.1505	593.73
71.1649	578.53
71.1794	565.96
71.1938	507.69
71.2083	520.30
71.2227	578.49
71.2371	589.96
71.2516	566.52
71.2660	550.63
71.2805	608.58
71.2949	609.54
71.3093	572.91
71.3238	582.39
71.3382	587.13
71.3527	569.59
71.3671	619.64
71.3815	594.83
71.3960	583.49
71.4104	553.37
71.4249	538.39
71.4393	577.46
71.4537	580.67
71.4682	577.62
71.4826	565.97
71.4971	566.20
71.5115	604.13
71.5259	595.40
71.5404	576.26
71.5548	585.41
71.5693	523.87
71.5837	520.52
71.5981	552.62
71.6126	583.83
71.6270	579.74
71.6415	608.55
71.6559	626.30
71.6703	672.55
71.6848	611.35
71.6992	582.37
71.7137	568.08
71.7281	618.39
71.7425	620.75
71.7570	577.50
71.7714	560.52
71.7859	528.91
71.8003	580.07
71.8147	584.24
71.8292	537.78
71.8436	542.44
71.8581	568.24
71.8725	549.56
71.8869	521.91
71.9014	599.57
71.9158	551.57
71.9303	521.06
71.9447	515.69
71.9591	562.56
71.9736	652.24
71.9880	602.93
72.0025	595.66
72.0169	603.89
72.0313	609.42
72.0458	685.96
72.0602	637.16
72.0747	577.37
72.0891	589.23
72.1035	564.48
72.1180	548.13
72.1324	566.32
72.1469	612.02
72.1613	615.35
72.1757	637.03
72.1902	575.72
72.2046	508.60
72.2191	592.35
72.2335	566.02
72.2479	550.59
72.2624	556.98
72.2768	573.37
72.2913	629.83
72.3057	573.96
72.3201	580.28
72.3346	661.36
72.3490	630.59
72.3635	612.60
72.3779	600.26
72.3923	514.93
72.4068	501.65
72.4212	509.48
72.4357	524.90
72.4501	575.59
72.4645	604.90
72.4790	623.91
72.4934	576.94
72.5079	512.91
72.5223	584.05
72.5367	565.93
72.5512	604.43
72.5656	650.93
72.5801	602.03
72.5945	566.29
72.6089	582.82
72.6234	545.08
72.6378	527.83
72.6523	540.93
72.6667	565.75
72.6811	610.47
72.6956	656.16
72.7100	581.75
72.7245	613.90
72.7389	691.19
72.7533	625.93
72.7678	578.00
72.7822	599.85
72.7967	603.58
72.8111	662.22
72.8255	643.04
72.8400	638.13
72.8544	595.29
72.8689	569.58
72.8833	572.49

Result vector
22.1120	584.72
22.1264	675.36
22.1409	562.18
22.1553	523.60
22.1697	606.91
22.1842	606.17
22.1986	588.50
22.2131	600.40
22.2275	556.68
22.2419	519.90
22.2564	568.59
22.2708	578.12
22.2853	517.19
22.2997	500.33
22.3141	498.79
22.3286	546.86
22.3430	651.67
22.3575	581.70
22.3719	658.63
22.3863	637.65
22.4008	710.40
22.4152	661.75
22.4297	650.99
22.4441	575.09
22.4585	588.89
22.4730	623.79
22.4874	595.46
22.5019	555.87
22.5163	621.00
22.5307	661.48
22.5452	602.67
22.5596	606.22
22.5741	573.25
22.5885	564.22
22.6029	635.96
22.6174	719.19
22.6318	616.36
22.6463	507.59
22.6607	537.40
22.6751	594.59
22.6896	561.08
22.7040	597.06
22.7185	598.52
22.7329	535.44
22.7473	588.08
22.7618	549.40
22.7762	477.26
22.7907	626.85
22.8051	631.26
22.8195	617.73
22.8340	559.58
22.8484	584.76
22.8629	517.81
22.8773	582.25
22.8917	567.90
22.9062	556.40
22.9206	553.47
22.9351	606.74
22.9495	576.75
22.9639	526.01
22.9784	543.91
22.9928	464.42
23.0073	495.12
23.0217	605.24
23.0361	609.60
23.0506	601.29
23.0650	558.54
23.0795	540.41
23.0939	604.74
23.1083	507.48
23.1228	526.37
23.1372	583.32
23.1517	533.66
23.1661	533.47
23.1806	605.53
23.1950	528.72
23.2094	507.51
23.2239	605.60
23.2383	626.11
23.2528	622.62
23.2672	615.99
23.2816	567.58
23.2961	584.76
23.3105	513.02
23.3250	522.03
23.3394	630.83
23.3538	581.53
23.3683	561.61
23.3827	619.73
23.3972	527.09
23.4116	499.67
23.4260	508.24
23.4405	575.59
23.4549	558.66
23.4694	584.77
23.4838	517.52
23.4982	539.36
23.5127	571.85
23.5271	607.88
23.5416	552.36
23.5560	532.46
23.5704	588.85
23.5849	552.85
23.5993	543.39
23.6138	612.99
23.6282	490.03
23.6426	511.38
23.6571	575.86
23.6715	516.42
23.6860	501.11
23.7004	538.59
23.7148	547.84
23.7293	530.10
23.7437	555.84
23.7582	578.67
23.7726	555.07
23.7870	563.13
23.8015	550.98
23.8159	508.47
23.8304	595.25
23.8448	515.29
23.8592	534.61
23.8737	527.85
23.8881	540.07
23.9026	588.75
23.9170	579.19
23.9314	517.02
23.9459	555.84
23.9603	549.48
23.9748	556.41
23.9892	562.17
24.0036	541.35
24.0181	567.61
24.0325	512.42
24.0470	559.98
24.0614	553.59
24.0758	588.59
24.0903	635.90
24.1047	617.26
24.1192	548.11
24.1336	585.22
24.1480	551.24
24.1625	558.01
24.1769	567.91
24.1914	563.16
24.2058	572.87
24.2202	586.08
24.2347	555.51
24.2491	579.65
24.2636	557.18
24.2780	575.23
24.2924	594.12
24.3069	605.32
24.3213	541.56
24.3358	489.59
24.3502	512.53
24.3646	576.26
24.3791	547.79
24.3935	536.45
24.4080	584.97
24.4224	569.64
24.4368	509.18
24.4513	499.85
24.4657	543.93
24.4802	551.44
24.4946	602.72
24.5090	617.08
24.5235	553.94
24.5379	556.28
24.5524	594.70
24.5668	577.33
24.5812	556.09
24.5957	554.49
24.6101	581.78
24.6246	582.27
24.6390	547.26
24.6534	592.44
24.6679	525.22
24.6823	481.31
24.6968	543.28
24.7112	545.21
24.7256	517.73
24.7401	556.62
24.7545	543.57
24.7690	532.34
24.7834	546.75
24.7978	508.36
24.8123	498.88
24.8267	499.94
24.8412	572.32
24.8556	573.66
24.8700	551.82
24.8845	546.72
24.8989	554.63
24.9134	590.40
24.9278	534.59
24.9422	543.97
24.9567	515.61
24.9711	542.18
24.9856	605.20
25.0000	489.59
25.0144	493.80
25.0289	521.52
25.0433	565.44
25.0578	516.18
25.0722	526.94
25.0866	570.57
25.1011	543.16
25.1155	554.76
25.1300	565.38
25.1444	559.21
25.1588	524.58
25.1733	563.46
25.1877	569.60
25.2022	533.84
25.2166	572.78
25.2310	542.91
25.2455	526.22
25.2599	513.80
25.2744	561.38
25.2888	558.93
25.3032	541.00
25.3177	543.79
25.3321	560.81
25.3466	553.31
25.3610	558.47
25.3754	564.55
25.3899	541.32
25.4043	495.66
25.4188	527.89
25.4332	545.10
25.4476	534.85
25.4621	523.64
25.4765	541.23
25.4910	521.45
25.5054	516.60
25.5198	543.08
25.5343	547.64
25.5487	586.77
25.5632	544.44
25.5776	579.40
25.5920	555.51
25.6065	516.74
25.6209	532.32
25.6354	546.48
25.6498	560.22
25.6642	540.67
25.6787	535.69
25.6931	548.13
25.7076	556.49
25.7220	548.86
25.7364	554.78
25.7509	543.26
25.7653	561.03
25.7798	575.25
25.7942	563.23
25.8086	545.99
25.8231	528.90
25.8375	535.04
25.8520	550.70
25.8664	547.56
25.8808	522.63
25.8953	574.60
25.9097	520.05
25.9242	544.81
25.9386	591.22
25.9530	547.99
25.9675	534.57
25.9819	533.39
25.9964	464.57
26.0108	516.45
26.0252	568.03
26.0397	520.32
26.0541	541.79
26.0686	546.88
26.0830	531.42
26.0974	544.97
26.1119	533.50
26.1263	552.30
26.1408	555.69
26.1552	522.37
26.1696	530.92
26.1841	532.27
26.1985	557.27
26.2130	546.48
26.2274	522.17
26.2418	521.74
26.2563	545.24
26.2707	548.59
26.2852	558.74
26.2996	527.50
26.3140	505.55
26.3285	530.80
26.3429	531.16
26.3574	552.77
26.3718	532.50
26.3862	543.37
26.4007	532.71
26.4151	540.36
26.4296	539.95
26.4440	520.24
26.4584	505.25
26.4729	542.07
26.4873	517.57
26.5018	525.12
26.5162	529.72
26.5306	531.63
26.5451	531.18
26.5595	539.03
26.5740	528.49
26.5884	517.56
26.6028	528.44
26.6173	553.91
26.6317	583.55
26.6462	540.68
26.6606	540.90
26.6750	555.92
26.6895	537.62
26.7039	537.11
26.7184	550.32
26.7328	529.98
26.7472	510.61
26.7617	537.53
26.7761	519.95
26.7906	529.17
26.8050	510.29
26.8194	502.48
26.8339	518.57
26.8483	522.23
26.8628	561.08
26.8772	502.12
26.8917	505.50
26.9061	515.06
26.9205	536.41
26.9350	550.44
26.9494	506.09
26.9639	481.39
26.9783	528.35
26.9927	542.81
27.0072	493.62
27.0216	501.65
27.0361	495.20
27.0505	549.11
27.0649	549.11
27.0794	514.77
27.0938	539.37
27.1083	536.80
27.1227	501.71
27.1371	490.76
27.1516	510.22
27.1660	500.23
27.1805	491.18
27.1949	486.53
27.2093	523.56
27.2238	525.26
27.2382	509.36
27.2527	534.19
27.2671	504.62
27.2815	508.50
27.2960	494.81
27.3104	514.59
27.3249	539.41
27.3393	564.58
27.3537	519.69
27.3682	510.55
27.3826	517.26
27.3971	525.53
27.4115	512.28
27.4259	540.80
27.4404	541.89
27.4548	533.14
27.4693	528.02
27.4837	560.08
27.4981	512.93
27.5126	510.52
27.5270	525.39
27.5415	517.40
27.5559	514.42
27.5703	494.15
27.5848	543.00
27.5992	499.40
27.6137	506.67
27.6281	554.81
27.6425	533.21
27.6570	536.13
27.6714	517.63
27.6859	531.05
27.7003	515.07
27.7147	530.22
27.7292	512.94
27.7436	541.87
27.7581	514.29
27.7725	515.51
27.7869	505.02
27.8014	518.61
27.8158	523.27
27.8303	502.24
27.8447	523.94
27.8591	525.74
27.8736	513.52
27.8880	522.69
27.9025	547.97
27.9169	548.97
27.9313	503.08
27.9458	520.02
27.9602	554.16
27.9747	511.04
27.9891	501.62
28.0035	491.84
28.0180	517.05
28.0324	529.49
28.0469	550.41
28.0613	521.78
28.0757	497.13
28.0902	500.70
28.1046	516.45
28.1191	519.02
28.1335	513.44
28.1479	506.60
28.1624	496.38
28.1768	523.38
28.1913	533.18
28.2057	497.01
28.2201	536.29
28.2346	549.64
28.2490	528.13
28.2635	513.65
28.2779	508.21
28.2923	530.19
28.3068	505.45
28.3212	522.41
28.3357	537.76
28.3501	514.41
28.3645	487.59
28.3790	493.07
28.3934	515.56
28.4079	500.37
28.4223	530.94
28.4367	480.69
28.4512	481.80
28.4656	517.25
28.4801	548.46
28.4945	533.67
28.5089	499.83
28.5234	528.37
28.5378	527.31
28.5523	482.10
28.5667	514.01
28.5811	532.10
28.5956	520.51
28.6100	518.72
28.6245	519.67
28.6389	532.73
28.6533	531.05
28.6678	492.50
28.6822	482.51
28.6967	494.47
28.7111	513.07
28.7255	524.79
28.7400	484.40
28.7544	510.56
28.7689	515.43
28.7833	525.90
28.7977	501.60
28.8122	544.48
28.8266	530.41
28.8411	531.69
28.8555	503.81
28.8699	490.93
28.8844	477.47
28.8988	474.53
28.9133	487.37
28.9277	561.57
28.9421	525.91
28.9566	520.53
28.9710	527.68
28.9855	530.75
28.9999	475.16
29.0143	472.83
29.0288	504.60
29.0432	468.32
29.0577	512.66
29.0721	529.09
29.0865	517.70
29.1010	530.11
29.1154	494.22
29.1299	510.75
29.1443	507.75
29.1587	518.62
29.1732	500.80
29.1876	520.59
29.2021	507.63
29.2165	491.27
29.2309	492.72
29.2454	530.80
29.2598	528.81
29.2743	515.81
29.2887	469.66
29.3031	519.50
29.3176	515.66
29.3320	524.71
29.3465	530.18
29.3609	535.52
29.3753	492.25
29.3898	479.75
29.4042	500.05
29.4187	516.35
29.4331	508.11
29.4475	487.38
29.4620	498.10
29.4764	523.98
29.4909	526.34
29.5053	486.11
29.5197	502.49
29.5342	533.18
29.5486	524.54
29.5631	509.23
29.5775	483.44
29.5919	522.40
29.6064	522.07
29.6208	512.47
29.6353	513.11
29.6497	491.85
29.6641	489.36
29.6786	462.78
29.6930	458.01
29.7075	490.39
29.7219	507.79
29.7363	483.73
29.7508	491.10
29.7652	522.52
29.7797	519.03
29.7941	524.78
29.8085	523.06
29.8230	542.03
29.8374	501.85
29.8519	525.26
29.8663	529.92
29.8807	513.32
29.8952	520.49
29.9096	511.37
29.9241	480.16
29.9385	530.93
29.9529	495.54
29.9674	520.87
29.9818	514.96
29.9963	486.62
30.0107	510.49
30.0251	511.17
30.0396	518.87
30.0540	520.52
30.0685	507.76
30.0829	544.60
30.0973	482.13
30.1118	481.63
30.1262	529.82
30.1407	519.99
30.1551	507.31
30.1695	520.74
30.1840	503.63
30.1984	488.55
30.2129	516.06
30.2273	506.32
30.2417	513.66
30.2562	508.69
30.2706	482.11
30.2851	513.84
30.2995	514.46
30.3139	501.43
30.3284	483.80
30.3428	535.60
30.3573	500.80
30.3717	484.69
30.3861	526.72
30.4006	531.00
30.4150	504.72
30.4295	514.19
30.4439	481.76
30.4583	449.89
30.4728	507.03
30.4872	516.47
30.5017	521.99
30.5161	501.61
30.5305	523.15
30.5450	494.07
30.5594	520.02
30.5739	535.04
30.5883	522.47
30.6028	537.13
30.6172	507.97
30.6316	515.14
30.6461	532.72
30.6605	548.23
30.6750	531.72
30.6894	544.35
30.7038	539.39
30.7183	560.02
30.7327	586.60
30.7472	613.67
30.7616	669.85
30.7760	669.75
30.7905	669.21
30.8049	678.55
30.8194	697.59
30.8338	680.77
30.8482	681.22
30.8627	655.40
30.8771	675.32
30.8916	651.98
30.9060	587.85
30.9204	614.42
30.9349	645.88
30.9493	612.14
30.9638	574.85
30.9782	572.92
30.9926	560.60
31.0071	560.62
31.0215	555.56
31.0360	513.29
31.0504	548.99
31.0648	581.09
31.0793	534.06
31.0937	501.51
31.1082	484.58
31.1226	481.64
31.1370	490.67
31.1515	490.05
31.1659	507.53
31.1804	497.84
31.1948	519.45
31.2092	466.76
31.2237	507.99
31.2381	496.90
31.2526	531.40
31.2670	469.17
31.2814	524.28
31.2959	539.86
31.3103	519.21
31.3248	532.68
31.3392	567.50
31.3536	528.34
31.3681	534.39
31.3825	545.36
31.3970	526.02
31.4114	507.65
31.4258	508.27
31.4403	523.16
31.4547	503.65
31.4692	516.90
31.4836	530.96
31.4980	488.96
31.5125	490.62
31.5269	504.89
31.5414	488.45
31.5558	519.96
31.5702	518.40
31.5847	483.36
31.5991	505.89
31.6136	523.15
31.6280	527.34
31.6424	531.63
31.6569	518.39
31.6713	507.73
31.6858	476.78
31.7002	485.47
31.7146	486.00
31.7291	483.62
31.7435	478.10
31.7580	488.98
31.7724	494.06
31.7868	520.19
31.8013	483.25
31.8157	495.77
31.8302	520.56
31.8446	520.24
31.8590	542.99
31.8735	536.63
31.8879	516.80
31.9024	521.01
31.9168	496.85
31.9312	477.18
31.9457	512.27
31.9601	495.63
31.9746	495.96
31.9890	541.62
32.0034	496.18
32.0179	479.67
32.0323	507.30
32.0468	499.21
32.0612	535.79
32.0756	519.34
32.0901	511.12
32.1045	478.79
32.1190	522.86
32.1334	520.45
32.1478	482.24
32.1623	507.27
32.1767	501.88
32.1912	509.64
32.2056	542.07
32.2200	533.68
32.2345	505.92
32.2489	512.94
32.2634	501.17
32.2778	520.95
32.2922	509.61
32.3067	508.03
32.3211	521.18
32.3356	507.44
32.3500	511.78
32.3644	535.17
32.3789	501.62
32.3933	514.15
32.4078	487.79
32.4222	511.96
32.4366	497.03
32.4511	517.02
32.4655	543.99
32.4800	530.22
32.4944	486.28
32.5088	486.55
32.5233	519.48
32.5377	521.13
32.5522	547.58
32.5666	496.55
32.5810	516.64
32.5955	501.23
32.6099	521.05
32.6244	539.12
32.6388	526.24
32.6532	500.95
32.6677	525.34
32.6821	525.32
32.6966	517.07
32.7110	505.62
32.7254	516.84
32.7399	504.25
32.7543	500.83
32.7688	491.21
32.7832	470.03
32.7976	465.95
32.8121	478.55
32.8265	520.70
32.8410	500.67
32.8554	512.95
32.8698	488.09
32.8843	517.29
32.8987	521.44
32.9132	506.30
32.9276	501.93
32.9420	498.15
32.9565	454.88
32.9709	501.75
32.9854	462.46
32.9998	503.78
33.0142	536.63
33.0287	535.39
33.0431	485.84
33.0576	505.02
33.0720	503.22
33.0864	508.09
33.1009	516.49
33.1153	524.85
33.1298	513.25
33.1442	471.14
33.1586	499.94
33.1731	535.62
33.1875	489.63
33.2020	490.82
33.2164	499.69
33.2308	547.49
33.2453	482.71
33.2597	493.99
33.2742	467.47
33.2886	492.27
33.3030	486.32
33.3175	499.55
33.3319	497.84
33.3464	515.82
33.3608	476.09
33.3752	490.52
33.3897	488.99
33.4041	479.75
33.4186	519.24
33.4330	525.66
33.4474	482.99
33.4619	469.47
33.4763	475.77
33.4908	503.55
33.5052	503.85
33.5196	479.35
33.5341	517.60
33.5485	521.55
33.5630	511.68
33.5774	536.29
33.5918	531.46
33.6063	500.73
33.6207	477.55
33.6352	508.33
33.6496	506.47
33.6640	463.29
33.6785	496.60
33.6929	482.45
33.7074	546.14
33.7218	552.78
33.7362	487.64
33.7507	504.44
33.7651	515.31
33.7796	523.84
33.7940	503.75
33.8084	488.64
33.8229	507.14
33.8373	492.38
33.8518	480.69
33.8662	500.71
33.8806	489.48
33.8951	506.92
33.9095	512.37
33.9240	496.67
33.9384	515.43
33.9528	532.72
33.9673	513.57
33.9817	506.80
33.9962	489.69
34.0106	524.97
34.0250	540.55
34.0395	521.94
34.0539	554.50
34.0684	539.29
34.0828	498.85
34.0972	544.38
34.1117	544.30
34.1261	515.39
34.1406	506.49
34.1550	481.87
34.1694	522.40
34.1839	514.70
34.1983	464.85
34.2128	530.71
34.2272	506.59
34.2417	501.10
34.2561	522.92
34.2705	491.48
34.2850	511.49
34.2994	509.61
34.3139	520.66
34.3283	500.13
34.3427	501.35
34.3572	496.67
34.3716	507.94
34.3861	498.08
34.4005	502.90
34.4149	509.76
34.4294	543.82
34.4438	505.10
34.4583	516.37
34.4727	544.29
34.4871	517.84
34.5016	478.39
34.5160	483.38
34.5305	493.14
34.5449	502.57
34.5593	481.12
34.5738	499.74
34.5882	481.17
34.6027	509.55
34.6171	498.00
34.6315	515.03
34.6460	503.03
34.6604	507.22
34.6749	541.75
34.6893	519.86
34.7037	503.53
34.7182	495.11
34.7326	512.14
34.7471	519.67
34.7615	522.41
34.7759	520.61
34.7904	530.96
34.8048	511.71
34.8193	520.05
34.8337	509.25
34.8481	477.29
34.8626	509.75
34.8770	525.00
34.8915	535.28
34.9059	515.15
34.9203	505.24
34.9348	533.50
34.9492	506.98
34.9637	524.74
34.9781	514.83
34.9925	518.01
35.0070	544.23
35.0214	525.95
35.0359	495.20
35.0503	491.59
35.0647	519.15
35.0792	526.78
35.0936	511.86
35.1081	487.65
35.1225	510.57
35.1369	529.85
35.1514	492.70
35.1658	496.25
35.1803	522.56
35.1947	509.32
35.2091	528.22
35.2236	526.93
35.2380	501.44
35.2525	522.99
35.2669	524.49
35.2813	519.75
35.2958	540.52
35.3102	559.34
35.3247	528.19
35.3391	498.12
35.3535	527.08
35.3680	531.36
35.3824	498.13
35.3969	472.11
35.4113	499.68
35.4257	523.56
35.4402	539.44
35.4546	538.83
35.4691	573.37
35.4835	522.23
35.4979	516.33
35.5124	510.30
35.5268	531.75
35.5413	515.90
35.5557	547.28
35.5701	524.90
35.5846	516.95
35.5990	502.86
35.6135	507.65
35.6279	488.87
35.6423	532.18
35.6568	554.21
35.6712	540.82
35.6857	547.63
35.7001	639.57
35.7145	671.99
35.7290	662.20
35.7434	582.45
35.7579	546.39
35.7723	594.44
35.7867	612.77
35.8012	689.04
35.8156	649.95
35.8301	628.65
35.8445	600.87
35.8589	657.58
35.8734	709.23
35.8878	848.53
35.9023	983.54
35.9167	1151.45
35.9311	1417.92
35.9456	2136.74
35.9600	2306.79
35.9745	1851.63
35.9889	1844.60
36.0033	2288.97
36.0178	2406.46
36.0322	2009.64
36.0467	1922.83
36.0611	1650.45
36.0755	1640.69
36.0900	1636.93
36.1044	1402.52
36.1189	1432.40
36.1333	1314.61
36.1477	1104.22
36.1622	1103.19
36.1766	1094.95
36.1911	986.74
36.2055	929.55
36.2199	942.93
36.2344	986.51
36.2488	1010.75
36.2633	1021.51
36.2777	1022.27
36.2921	1061.51
36.3066	1056.34
36.3210	1059.55
36.3355	1007.15
36.3499	977.12
36.3643	925.36
36.3788	865.60
36.3932	821.73
36.4077	794.99
36.4221	762.47
36.4365	683.15
36.4510	664.16
36.4654	653.12
36.4799	624.70
36.4943	649.72
36.5087	606.63
36.5232	612.52
36.5376	598.81
36.5521	586.40
36.5665	574.40
36.5809	542.96
36.5954	585.19
36.6098	551.08
36.6243	546.62
36.6387	542.68
36.6531	523.33
36.6676	567.34
36.6820	538.59
36.6965	539.87
36.7109	547.06
36.7253	538.10
36.7398	543.99
36.7542	543.31
36.7687	536.95
36.7831	509.72
36.7975	557.37
36.8120	535.68
36.8264	567.67
36.8409	567.96
36.8553	579.11
36.8697	591.18
36.8842	589.58
36.8986	597.79
36.9131	637.77
36.9275	558.99
36.9419	569.81
36.9564	630.84
36.9708	586.72
36.9853	568.20
36.9997	597.90
37.0141	558.54
37.0286	547.23
37.0430	502.64
37.0575	528.07
37.0719	520.44
37.0863	528.27
37.1008	550.90
37.1152	541.37
37.1297	579.30
37.1441	509.85
37.1585	487.41
37.1730	539.46
37.1874	506.26
37.2019	481.44
37.2163	535.08
37.2307	498.07
37.2452	557.42
37.2596	523.54
37.2741	491.86
37.2885	507.36
37.3029	523.72
37.3174	515.23
37.3318	498.12
37.3463	508.16
37.3607	516.23
37.3751	509.04
37.3896	518.68
37.4040	501.55
37.4185	515.95
37.4329	537.60
37.4473	490.61
37.4618	515.21
37.4762	509.87
37.4907	486.97
37.5051	516.48
37.5195	527.07
37.5340	535.85
37.5484	537.51
37.5629	482.63
37.5773	480.56
37.5917	517.29
37.6062	534.68
37.6206	497.14
37.6351	543.13
37.6495	508.00
37.6639	479.94
37.6784	506.25
37.6928	500.04
37.7073	540.66
37.7217	546.33
37.7361	521.95
37.7506	505.09
37.7650	538.14
37.7795	500.72
37.7939	479.90
37.8083	494.92
37.8228	499.02
37.8372	467.19
37.8517	486.27
37.8661	531.44
37.8805	539.82
37.8950	493.64
37.9094	533.31
37.9239	484.56
37.9383	518.12
37.9528	502.32
37.9672	479.45
37.9816	514.25
37.9961	522.85
38.0105	468.85
38.0250	490.27
38.0394	484.07
38.0538	489.72
38.0683	489.01
38.0827	478.43
38.0972	520.03
38.1116	530.13
38.1260	513.78
38.1405	490.29
38.1549	491.55
38.1694	514.64
38.1838	506.15
38.1982	496.86
38.2127	519.10
38.2271	526.75
38.2416	537.38
38.2560	528.59
38.2704	523.16
38.2849	506.13
38.2993	479.56
38.3138	520.31
38.3282	544.25
38.3426	536.68
38.3571	539.35
38.3715	547.13
38.3860	560.81
38.4004	569.79
38.4148	547.71
38.4293	585.22
38.4437	595.72
38.4582	614.78
38.4726	644.22
38.4870	706.61
38.5015	730.78
38.5159	781.26
38.5304	845.86
38.5448	803.05
38.5592	825.66
38.5737	738.21
38.5881	739.26
38.6026	735.34
38.6170	716.03
38.6314	667.93
38.6459	662.00
38.6603	610.38
38.6748	617.20
38.6892	562.13
38.7036	553.83
38.7181	531.16
38.7325	511.01
38.7470	516.69
38.7614	507.05
38.7758	532.80
38.7903	520.45
38.8047	503.68
38.8192	522.89
38.8336	491.22
38.8480	499.36
38.8625	510.26
38.8769	505.30
38.8914	514.38
38.9058	520.12
38.9202	487.50
38.9347	526.50
38.9491	523.87
38.9636	483.14
38.9780	490.23
38.9924	498.79
39.0069	501.76
39.0213	530.68
39.0358	528.63
39.0502	517.18
39.0646	493.77
39.0791	499.20
39.0935	492.77
39.1080	513.57
39.1224	515.83
39.1368	530.98
39.1513	487.04
39.1657	500.37
39.1802	496.05
39.1946	507.09
39.2090	499.90
39.2235	531.43
39.2379	507.54
39.2524	494.73
39.2668	521.39
39.2812	510.55
39.2957	462.06
39.3101	488.21
39.3246	503.91
39.3390	505.65
39.3534	524.69
39.3679	526.07
39.3823	513.06
39.3968	491.86
39.4112	527.02
39.4256	527.23
39.4401	528.81
39.4545	518.14
39.4690	508.95
39.4834	533.10
39.4978	487.16
39.5123	485.71
39.5267	494.89
39.5412	508.27
39.5556	513.97
39.5700	501.48
39.5845	496.90
39.5989	498.65
39.6134	489.19
39.6278	484.51
39.6422	492.46
39.6567	499.42
39.6711	504.87
39.6856	497.75
39.7000	511.68
39.7144	511.74
39.7289	536.92
39.7433	504.59
39.7578	477.40
39.7722	526.38
39.7866	541.27
39.8011	498.19
39.8155	499.74
39.8300	498.63
39.8444	487.39
39.8588	513.51
39.8733	482.72
39.8877	492.49
39.9022	502.39
39.9166	498.75
39.9310	505.39
39.9455	521.61
39.9599	507.97
39.9744	499.30
39.9888	510.79
40.0032	466.46
40.0177	523.00
40.0321	470.18
40.0466	492.55
40.0610	514.23
40.0754	487.50
40.0899	502.77
40.1043	511.96
40.1188	497.87
40.1332	485.39
40.1476	480.02
40.1621	482.40
40.1765	462.77
40.1910	492.42
40.2054	463.15
40.2198	496.41
40.2343	493.84
40.2487	498.11
40.2632	517.14
40.2776	497.67
40.2920	470.17
40.3065	497.45
40.3209	533.08
40.3354	519.78
40.3498	495.25
40.3642	513.99
40.3787	468.29
40.3931	497.96
40.4076	490.68
40.4220	520.03
40.4364	498.70
40.4509	467.76
40.4653	485.30
40.4798	494.13
40.4942	500.90
40.5086	491.37
40.5231	510.67
40.5375	475.57
40.5520	510.31
40.5664	495.68
40.5808	475.23
40.5953	488.79
40.6097	482.35
40.6242	509.37
40.6386	490.86
40.6530	502.72
40.6675	504.46
40.6819	467.82
40.6964	490.27
40.7108	522.17
40.7252	497.23
40.7397	482.59
40.7541	527.40
40.7686	481.59
40.7830	503.09
40.7974	458.19
40.8119	483.57
40.8263	491.14
40.8408	507.96
40.8552	517.41
40.8696	511.77
40.8841	501.41
40.8985	493.10
40.9130	504.15
40.9274	502.90
40.9418	466.55
40.9563	489.13
40.9707	483.45
40.9852	489.36
40.9996	511.39
41.0140	502.27
41.0285	475.42
41.0429	469.49
41.0574	469.03
41.0718	502.32
41.0862	529.21
41.1007	514.08
41.1151	497.44
41.1296	489.92
41.1440	471.97
41.1584	518.99
41.1729	516.40
41.1873	493.10
41.2018	493.90
41.2162	523.12
41.2306	494.32
41.2451	499.06
41.2595	485.22
41.2740	473.20
41.2884	500.88
41.3028	508.93
41.3173	468.89
41.3317	521.89
41.3462	529.22
41.3606	525.57
41.3750	517.17
41.3895	507.73
41.4039	517.39
41.4184	511.56
41.4328	538.45
41.4472	479.00
41.4617	494.14
41.4761	527.75
41.4906	527.45
41.5050	488.75
41.5194	484.24
41.5339	475.55
41.5483	511.93
41.5628	521.59
41.5772	504.25
41.5916	518.86
41.6061	479.18
41.6205	496.77
41.6350	526.79
41.6494	473.70
41.6639	478.87
41.6783	532.77
41.6927	496.84
41.7072	522.94
41.7216	509.23
41.7361	476.69
41.7505	483.64
41.7649	513.96
41.7794	510.46
41.7938	483.80
41.8083	520.49
41.8227	482.74
41.8371	510.75
41.8516	506.96
41.8660	514.23
41.8805	536.98
41.8949	530.01
41.9093	551.05
41.9238	564.64
41.9382	533.68
41.9527	561.00
41.9671	580.29
41.9815	582.96
41.9960	557.56
42.0104	516.82
42.0249	579.95
42.0393	564.15
42.0537	570.33
42.0682	593.07
42.0826	595.32
42.0971	591.14
42.1115	574.20
42.1259	575.51
42.1404	591.01
42.1548	628.08
42.1693	637.00
42.1837	664.08
42.1981	695.09
42.2126	787.65
42.2270	891.87
42.2415	1046.00
42.2559	1136.35
42.2703	1306.95
42.2848	1459.51
42.2992	1576.33
42.3137	1625.47
42.3281	1560.21
42.3425	1492.99
42.3570	1397.78
42.3714	1401.68
42.3859	1357.58
42.4003	1343.80
42.4147	1311.27
42.4292	1285.51
42.4436	1134.39
42.4581	1042.42
42.4725	979.31
42.4869	828.94
42.5014	738.44
42.5158	700.47
42.5303	633.29
42.5447	647.37
42.5591	630.69
42.5736	607.53
42.5880	588.68
42.6025	601.14
42.6169	562.02
42.6313	528.33
42.6458	527.97
42.6602	526.01
42.6747	538.75
42.6891	512.87
42.7035	514.92
42.7180	514.00
42.7324	496.11
42.7469	504.85
42.7613	466.22
42.7757	505.89
42.7902	546.82
42.8046	547.46
42.8191	525.93
42.8335	515.05
42.8479	479.22
42.8624	479.30
42.8768	514.47
42.8913	511.83
42.9057	516.93
42.9201	510.38
42.9346	530.57
42.9490	492.70
42.9635	489.06
42.9779	486.86
42.9923	485.10
43.0068	513.52
43.0212	530.90
43.0357	497.55
43.0501	505.45
43.0645	514.20
43.0790	510.63
43.0934	484.93
43.1079	527.10
43.1223	529.79
43.1367	547.98
43.1512	510.26
43.1656	515.05
43.1801	542.44
43.1945	505.51
43.2089	513.12
43.2234	523.69
43.2378	513.76
43.2523	486.97
43.2667	523.69
43.2811	543.58
43.2956	547.41
43.3100	539.14
43.3245	546.67
43.3389	544.66
43.3533	528.40
43.3678	507.68
43.3822	521.18
43.3967	532.28
43.4111	525.90
43.4255	550.48
43.4400	523.88
43.4544	482.52
43.4689	526.00
43.4833	521.96
43.4977	518.70
43.5122	513.29
43.5266	541.94
43.5411	537.28
43.5555	490.16
43.5699	518.48
43.5844	515.51
43.5988	509.02
43.6133	543.00
43.6277	540.33
43.6421	530.62
43.6566	525.41
43.6710	521.91
43.6855	503.95
43.6999	502.22
43.7143	526.48
43.7288	507.95
43.7432	502.95
43.7577	517.25
43.7721	492.98
43.7865	546.03
43.8010	534.78
43.8154	558.26
43.8299	549.27
43.8443	551.98
43.8587	545.89
43.8732	536.45
43.8876	533.77
43.9021	510.95
43.9165	513.53
43.9309	502.29
43.9454	539.03
43.9598	525.75
43.9743	541.50
43.9887	574.16
44.0031	570.06
44.0176	608.78
44.0320	566.01
44.0465	602.76
44.0609	642.94
44.0753	636.50
44.0898	675.77
44.1042	647.43
44.1187	658.44
44.1331	627.83
44.1475	585.29
44.1620	565.87
44.1764	560.13
44.1909	567.71
44.2053	585.72
44.2197	607.10
44.2342	610.12
44.2486	582.85
44.2631	524.15
44.2775	522.36
44.2919	563.63
44.3064	584.86
44.3208	511.46
44.3353	545.20
44.3497	557.96
44.3641	544.90
44.3786	594.79
44.3930	504.74
44.4075	545.84
44.4219	554.82
44.4363	557.19
44.4508	551.46
44.4652	570.76
44.4797	577.65
44.4941	610.14
44.5085	595.34
44.5230	582.93
44.5374	610.28
44.5519	556.77
44.5663	578.85
44.5807	590.28
44.5952	572.42
44.6096	575.80
44.6241	551.20
44.6385	568.04
44.6529	562.86
44.6674	556.94
44.6818	608.65
44.6963	634.67
44.7107	698.96
44.7251	700.86
44.7396	747.62
44.7540	792.19
44.7685	868.70
44.7829	875.16
44.7973	871.98
44.8118	872.63
44.8262	833.59
44.8407	788.24
44.8551	787.48
44.8695	786.53
44.8840	750.18
44.8984	750.64
44.9129	719.64
44.9273	658.99
44.9417	644.72
44.9562	618.17
44.9706	566.67
44.9851	546.85
44.9995	485.76
45.0139	513.90
45.0284	538.66
45.0428	556.44
45.0573	558.83
45.0717	526.90
45.0861	532.92
45.1006	503.05
45.1150	521.00
45.1295	513.82
45.1439	486.50
45.1583	482.41
45.1728	500.01
45.1872	495.69
45.2017	501.26
45.2161	498.52
45.2305	514.93
45.2450	541.42
45.2594	518.52
45.2739	501.44
45.2883	515.99
45.3028	480.69
45.3172	517.84
45.3316	464.83
45.3461	448.49
45.3605	494.31
45.3750	481.13
45.3894	477.28
45.4038	489.85
45.4183	484.31
45.4327	553.99
45.4472	499.51
45.4616	527.20
45.4760	492.85
45.4905	491.69
45.5049	517.66
45.5194	492.87
45.5338	465.84
45.5482	495.72
45.5627	518.17
45.5771	535.40
45.5916	514.51
45.6060	499.41
45.6204	510.66
45.6349	528.75
45.6493	489.41
45.6638	463.51
45.6782	481.88
45.6926	469.00
45.7071	513.53
45.7215	505.95
45.7360	504.41
45.7504	524.37
45.7648	501.97
45.7793	501.41
45.7937	497.50
45.8082	503.78
45.8226	490.12
45.8370	506.26
45.8515	515.60
45.8659	515.99
45.8804	484.28
45.8948	513.72
45.9092	512.70
45.9237	539.50
45.9381	514.57
45.9526	514.65
45.9670	511.89
45.9814	484.86
45.9959	520.88
46.0103	480.51
46.0248	507.03
46.0392	487.68
46.0536	483.14
46.0681	489.25
46.0825	486.88
46.0970	478.84
46.1114	469.00
46.1258	507.33
46.1403	478.06
46.1547	497.73
46.1692	521.05
46.1836	512.84
46.1980	492.63
46.2125	518.75
46.2269	480.92
46.2414	477.42
46.2558	500.32
46.2702	525.28
46.2847	491.01
46.2991	521.44
46.3136	527.52
46.3280	535.06
46.3424	538.23
46.3569	526.84
46.3713	500.87
46.3858	481.89
46.4002	482.56
46.4146	491.45
46.4291	513.38
46.4435	511.27
46.4580	481.19
46.4724	498.74
46.4868	501.27
46.5013	528.46
46.5157	515.16
46.5302	531.45
46.5446	501.76
46.5590	516.44
46.5735	500.02
46.5879	501.68
46.6024	476.15
46.6168	479.94
46.6312	504.28
46.6457	506.74
46.6601	515.20
46.6746	484.13
46.6890	467.29
46.7034	497.39
46.7179	507.30
46.7323	503.78
46.7468	495.40
46.7612	463.35
46.7756	499.32
46.7901	535.10
46.8045	509.85
46.8190	500.87
46.8334	518.93
46.8478	509.81
46.8623	540.69
46.8767	531.83
46.8912	500.99
46.9056	526.57
46.9200	521.63
46.9345	509.80
46.9489	532.60
46.9634	529.85
46.9778	478.55
46.9922	502.08
47.0067	519.45
47.0211	500.88
47.0356	511.36
47.0500	495.40
47.0644	490.03
47.0789	495.70
47.0933	529.40
47.1078	510.93
47.1222	512.64
47.1366	480.00
47.1511	503.99
47.1655	529.96
47.1800	530.51
47.1944	523.25
47.2088	502.44
47.2233	473.57
47.2377	525.26
47.2522	523.89
47.2666	501.05
47.2810	475.37
47.2955	477.19
47.3099	481.43
47.3244	492.62
47.3388	516.30
47.3532	501.80
47.3677	471.41
47.3821	488.74
47.3966	476.22
47.4110	463.46
47.4254	511.70
47.4399	506.30
47.4543	475.67
47.4688	501.36
47.4832	519.20
47.4976	509.45
47.5121	508.96
47.5265	502.49
47.5410	512.17
47.5554	479.08
47.5698	478.61
47.5843	484.70
47.5987	488.15
47.6132	497.48
47.6276	530.00
47.6420	541.75
47.6565	534.11
47.6709	504.49
47.6854	463.47
47.6998	488.82
47.7142	517.68
47.7287	484.87
47.7431	497.05
47.7576	487.78
47.7720	497.53
47.7864	499.07
47.8009	522.86
47.8153	507.28
47.8298	495.83
47.8442	458.12
47.8586	501.72
47.8731	536.04
47.8875	497.58
47.9020	534.69
47.9164	517.16
47.9308	474.66
47.9453	495.38
47.9597	498.75
47.9742	492.62
47.9886	507.96
48.0030	460.71
48.0175	504.73
48.0319	524.88
48.0464	512.26
48.0608	493.09
48.0752	516.61
48.0897	493.52
48.1041	493.83
48.1186	527.72
48.1330	508.13
48.1474	469.12
48.1619	489.29
48.1763	540.48
48.1908	519.50
48.2052	482.69
48.2196	501.29
48.2341	499.29
48.2485	510.91
48.2630	499.18
48.2774	537.11
48.2918	530.48
48.3063	491.92
48.3207	509.28
48.3352	544.32
48.3496	509.26
48.3640	499.48
48.3785	485.58
48.3929	468.31
48.4074	489.26
48.4218	525.43
48.4362	504.20
48.4507	480.26
48.4651	512.32
48.4796	526.78
48.4940	519.76
48.5084	501.72
48.5229	519.91
48.5373	520.18
48.5518	480.12
48.5662	500.73
48.5806	500.03
48.5951	501.22
48.6095	537.49
48.6240	509.87
48.6384	533.90
48.6528	495.06
48.6673	507.84
48.6817	520.62
48.6962	523.64
48.7106	536.03
48.7250	542.41
48.7395	498.98
48.7539	525.05
48.7684	520.37
48.7828	541.64
48.7972	550.37
48.8117	537.77
48.8261	536.94
48.8406	548.60
48.8550	561.02
48.8694	585.16
48.8839	535.58
48.8983	542.41
48.9128	545.34
48.9272	519.80
48.9416	567.39
48.9561	570.57
48.9705	569.46
48.9850	559.27
48.9994	553.62
49.0139	567.60
49.0283	592.56
49.0427	605.08
49.0572	602.27
49.0716	612.79
49.0861	657.73
49.1005	651.06
49.1149	707.39
49.1294	770.78
49.1438	768.65
49.1583	775.76
49.1727	860.62
49.1871	866.36
49.2016	919.31
49.2160	997.74
49.2305	1090.93
49.2449	1210.95
49.2593	1246.17
49.2738	1340.79
49.2882	1359.45
49.3027	1479.27
49.3171	1522.32
49.3315	1640.02
49.3460	1675.25
49.3604	1775.91
49.3749	1778.60
49.3893	1755.93
49.4037	1720.89
49.4182	1766.97
49.4326	1780.07
49.4471	1611.35
49.4615	1596.90
49.4759	1522.22
49.4904	1496.26
49.5048	1431.97
49.5193	1364.16
49.5337	1267.50
49.5481	1199.42
49.5626	1190.52
49.5770	1071.87
49.5915	993.48
49.6059	940.69
49.6203	849.64
49.6348	804.58
49.6492	786.94
49.6637	755.66
49.6781	722.74
49.6925	706.17
49.7070	701.73
49.7214	629.05
49.7359	641.85
49.7503	602.15
49.7647	619.72
49.7792	605.19
49.7936	559.25
49.8081	571.74
49.8225	603.83
49.8369	591.73
49.8514	531.28
49.8658	559.07
49.8803	537.69
49.8947	562.26
49.9091	509.98
49.9236	540.08
49.9380	540.44
49.9525	510.32
49.9669	525.12
49.9813	541.63
49.9958	543.50
50.0102	546.88
50.0247	532.74
50.0391	514.16
50.0535	522.38
50.0680	480.86
50.0824	526.50
50.0969	530.05
50.1113	530.87
50.1257	559.41
50.1402	505.12
50.1546	492.40
50.1691	525.12
50.1835	520.06
50.1979	526.59
50.2124	563.61
50.2268	539.11
50.2413	512.62
50.2557	510.40
50.2701	512.32
50.2846	536.94
50.2990	557.57
50.3135	513.32
50.3279	495.72
50.3423	525.13
50.3568	534.76
50.3712	525.63
50.3857	516.68
50.4001	497.07
50.4145	501.12
50.4290	532.53
50.4434	526.51
50.4579	496.42
50.4723	555.34
50.4867	539.23
50.5012	498.08
50.5156	524.43
50.5301	510.34
50.5445	523.02
50.5589	516.21
50.5734	509.34
50.5878	516.17
50.6023	542.85
50.6167	492.04
50.6311	515.58
50.6456	520.09
50.6600	522.44
50.6745	516.71
50.6889	476.83
50.7033	521.63
50.7178	533.85
50.7322	512.17
50.7467	525.13
50.7611	503.78
50.7755	515.00
50.7900	517.00
50.8044	482.35
50.8189	512.92
50.8333	525.62
50.8477	478.33
50.8622	535.79
50.8766	512.63
50.8911	516.69
50.9055	511.33
50.9199	513.37
50.9344	512.42
50.9488	507.22
50.9633	498.28
50.9777	511.47
50.9921	493.26
51.0066	489.63
51.0210	498.18
51.0355	489.28
51.0499	485.85
51.0643	484.17
51.0788	500.31
51.0932	500.44
51.1077	491.07
51.1221	492.01
51.1365	509.95
51.1510	519.28
51.1654	537.77
51.1799	513.93
51.1943	501.08
51.2087	508.24
51.2232	559.03
51.2376	554.08
51.2521	526.62
51.2665	468.79
51.2809	491.61
51.2954	468.76
51.3098	497.00
51.3243	527.12
51.3387	526.76
51.3531	512.47
51.3676	500.35
51.3820	491.59
51.3965	507.24
51.4109	512.31
51.4253	524.82
51.4398	512.56
51.4542	495.98
51.4687	547.89
51.4831	535.52
51.4975	541.84
51.5120	533.07
51.5264	504.38
51.5409	501.46
51.5553	506.25
51.5697	504.47
51.5842	508.34
51.5986	480.62
51.6131	533.29
51.6275	536.76
51.6419	523.42
51.6564	505.30
51.6708	492.50
51.6853	458.76
51.6997	518.44
51.7141	557.67
51.7286	531.24
51.7430	519.22
51.7575	500.86
51.7719	537.60
51.7863	507.21
51.8008	519.85
51.8152	546.84
51.8297	494.67
51.8441	495.35
51.8585	508.97
51.8730	510.23
51.8874	490.83
51.9019	527.78
51.9163	499.12
51.9307	498.30
51.9452	510.65
51.9596	524.03
51.9741	520.14
51.9885	502.48
52.0029	519.33
52.0174	515.60
52.0318	522.04
52.0463	507.69
52.0607	516.53
52.0751	472.29
52.0896	542.95
52.1040	505.75
52.1185	500.10
52.1329	489.36
52.1473	489.69
52.1618	530.69
52.1762	490.43
52.1907	493.51
52.2051	487.15
52.2195	492.03
52.2340	531.09
52.2484	509.58
52.2629	483.44
52.2773	482.86
52.2917	532.68
52.3062	522.81
52.3206	490.01
52.3351	506.54
52.3495	527.04
52.3639	524.38
52.3784	530.31
52.3928	517.59
52.4073	511.61
52.4217	538.65
52.4361	534.46
52.4506	493.27
52.4650	519.43
52.4795	526.04
52.4939	516.45
52.5083	533.12
52.5228	522.97
52.5372	519.92
52.5517	507.55
52.5661	525.21
52.5805	538.26
52.5950	505.73
52.6094	505.13
52.6239	489.93
52.6383	533.79
52.6527	518.31
52.6672	502.39
52.6816	528.07
52.6961	512.41
52.7105	532.60
52.7250	479.45
52.7394	491.91
52.7538	544.01
52.7683	498.78
52.7827	491.58
52.7972	539.81
52.8116	521.53
52.8260	508.27
52.8405	483.90
52.8549	480.42
52.8694	485.03
52.8838	510.14
52.8982	527.29
52.9127	512.88
52.9271	462.45
52.9416	518.57
52.9560	496.39
52.9704	484.79
52.9849	541.06
52.9993	481.74
53.0138	485.40
53.0282	495.75
53.0426	471.21
53.0571	483.65
53.0715	495.28
53.0860	490.46
53.1004	497.96
53.1148	510.83
53.1293	524.32
53.1437	500.52
53.1582	523.23
53.1726	523.50
53.1870	527.08
53.2015	503.40
53.2159	551.92
53.2304	515.09
53.2448	458.37
53.2592	482.03
53.2737	519.59
53.2881	491.66
53.3026	513.82
53.3170	521.48
53.3314	540.08
53.3459	519.77
53.3603	553.08
53.3748	496.57
53.3892	503.26
53.4036	517.76
53.4181	515.21
53.4325	503.09
53.4470	493.49
53.4614	525.67
53.4758	541.35
53.4903	552.94
53.5047	526.83
53.5192	519.72
53.5336	541.79
53.5480	520.09
53.5625	518.02
53.5769	517.85
53.5914	481.14
53.6058	511.81
53.6202	530.21
53.6347	529.01
53.6491	534.62
53.6636	529.17
53.6780	482.15
53.6924	507.23
53.7069	503.27
53.7213	530.05
53.7358	496.33
53.7502	512.26
53.7646	499.50
53.7791	501.64
53.7935	488.89
53.8080	512.09
53.8224	490.92
53.8368	489.40
53.8513	497.90
53.8657	504.48
53.8802	488.62
53.8946	524.95
53.9090	553.82
53.9235	545.50
53.9379	514.50
53.9524	525.47
53.9668	518.69
53.9812	511.93
53.9957	561.81
54.0101	550.86
54.0246	511.72
54.0390	507.14
54.0534	496.57
54.0679	487.58
54.0823	516.94
54.0968	497.38
54.1112	508.32
54.1256	528.70
54.1401	498.64
54.1545	497.21
54.1690	502.01
54.1834	520.67
54.1978	502.47
54.2123	507.62
54.2267	518.71
54.2412	506.23
54.2556	501.56
54.2700	518.46
54.2845	496.45
54.2989	528.81
54.3134	514.14
54.3278	526.27
54.3422	517.12
54.3567	491.17
54.3711	519.17
54.3856	559.84
54.4000	537.50
54.4144	541.90
54.4289	560.42
54.4433	525.89
54.4578	557.77
54.4722	550.62
54.4866	526.21
54.5011	563.28
54.5155	528.20
54.5300	550.01
54.5444	571.48
54.5588	567.37
54.5733	536.20
54.5877	550.30
54.6022	577.11
54.6166	550.62
54.6310	546.48
54.6455	542.83
54.6599	571.55
54.6744	567.73
54.6888	549.68
54.7032	582.33
54.7177	594.64
54.7321	585.23
54.7466	592.71
54.7610	579.68
54.7754	583.85
54.7899	565.37
54.8043	580.82
54.8188	606.77
54.8332	607.73
54.8476	592.32
54.8621	606.02
54.8765	568.75
54.8910	527.86
54.9054	559.79
54.9198	561.72
54.9343	563.74
54.9487	564.11
54.9632	537.44
54.9776	537.05
54.9920	528.82
55.0065	543.13
55.0209	522.08
55.0354	518.59
55.0498	523.00
55.0642	557.11
55.0787	544.66
55.0931	552.05
55.1076	555.25
55.1220	541.84
55.1364	536.00
55.1509	489.29
55.1653	524.79
55.1798	535.22
55.1942	501.23
55.2086	533.16
55.2231	512.94
55.2375	521.41
55.2520	519.18
55.2664	545.19
55.2808	528.14
55.2953	534.62
55.3097	502.46
55.3242	520.02
55.3386	509.68
55.3530	539.67
55.3675	545.02
55.3819	516.26
55.3964	526.17
55.4108	553.44
55.4252	526.84
55.4397	517.06
55.4541	507.14
55.4686	533.14
55.4830	535.14
55.4974	586.63
55.5119	530.57
55.5263	517.28
55.5408	505.63
55.5552	563.16
55.5696	521.31
55.5841	523.28
55.5985	507.77
55.6130	510.83
55.6274	511.43
55.6418	513.39
55.6563	521.60
55.6707	554.59
55.6852	527.81
55.6996	559.00
55.7140	578.07
55.7285	544.02
55.7429	499.93
55.7574	553.66
55.7718	552.29
55.7862	544.72
55.8007	530.65
55.8151	520.00
55.8296	548.70
55.8440	512.85
55.8584	513.91
55.8729	522.36
55.8873	525.72
55.9018	528.90
55.9162	549.92
55.9306	525.47
55.9451	544.67
55.9595	508.08
55.9740	509.61
55.9884	531.16
56.0028	516.37
56.0173	555.27
56.0317	525.42
56.0462	538.26
56.0606	515.64
56.0750	543.32
56.0895	515.29
56.1039	490.67
56.1184	498.80
56.1328	517.25
56.1472	500.70
56.1617	525.75
56.1761	490.93
56.1906	515.10
56.2050	506.95
56.2194	557.82
56.2339	550.01
56.2483	538.61
56.2628	509.98
56.2772	530.75
56.2916	484.37
56.3061	525.39
56.3205	533.04
56.3350	534.55
56.3494	533.63
56.3639	522.03
56.3783	513.02
56.3927	513.20
56.4072	536.00
56.4216	557.61
56.4361	532.17
56.4505	524.97
56.4649	530.92
56.4794	550.87
56.4938	535.99
56.5083	515.36
56.5227	489.43
56.5371	501.81
56.5516	552.75
56.5660	486.00
56.5805	483.19
56.5949	487.80
56.6093	510.74
56.6238	514.82
56.6382	571.88
56.6527	556.06
56.6671	500.08
56.6815	481.95
56.6960	483.74
56.7104	539.42
56.7249	543.42
56.7393	515.65
56.7537	535.19
56.7682	494.57
56.7826	537.06
56.7971	523.70
56.8115	512.89
56.8259	541.59
56.8404	542.19
56.8548	540.61
56.8693	535.48
56.8837	508.08
56.8981	542.80
56.9126	543.50
56.9270	497.20
56.9415	556.08
56.9559	534.89
56.9703	521.13
56.9848	522.03
56.9992	530.48
57.0137	583.08
57.0281	541.24
57.0425	521.51
57.0570	550.80
57.0714	544.32
57.0859	560.04
57.1003	499.15
57.1147	505.97
57.1292	525.40
57.1436	483.96
57.1581	503.37
57.1725	551.39
57.1869	521.11
57.2014	524.29
57.2158	532.03
57.2303	528.89
57.2447	539.97
57.2591	531.27
57.2736	532.43
57.2880	561.14
57.3025	499.28
57.3169	526.97
57.3313	517.20
57.3458	542.97
57.3602	541.25
57.3747	520.68
57.3891	515.64
57.4035	503.80
57.4180	510.89
57.4324	520.45
57.4469	521.40
57.4613	532.08
57.4757	522.17
57.4902	532.79
57.5046	526.09
57.5191	554.37
57.5335	544.60
57.5479	559.31
57.5624	538.36
57.5768	512.19
57.5913	504.94
57.6057	511.16
57.6201	523.36
57.6346	517.74
57.6490	500.76
57.6635	537.95
57.6779	508.89
57.6923	503.82
57.7068	557.73
57.7212	559.31
57.7357	527.67
57.7501	559.05
57.7645	480.76
57.7790	524.25
57.7934	554.22
57.8079	549.19
57.8223	530.91
57.8367	516.69
57.8512	513.16
57.8656	566.58
57.8801	538.76
57.8945	552.47
57.9089	541.63
57.9234	537.89
57.9378	528.69
57.9523	498.14
57.9667	522.37
57.9811	529.90
57.9956	503.30
58.0100	539.12
58.0245	563.24
58.0389	540.54
58.0533	519.15
58.0678	544.63
58.0822	521.86
58.0967	523.99
58.1111	540.73
58.1255	552.66
58.1400	524.82
58.1544	522.79
58.1689	550.36
58.1833	601.83
58.1977	557.86
58.2122	543.92
58.2266	615.94
58.2411	618.08
58.2555	617.03
58.2699	605.64
58.2844	648.63
58.2988	630.89
58.3133	618.17
58.3277	620.19
58.3421	631.73
58.3566	651.46
58.3710	642.12
58.3855	630.89
58.3999	643.18
58.4143	653.21
58.4288	673.45
58.4432	643.28
58.4577	618.96
58.4721	665.45
58.4865	657.37
58.5010	611.16
58.5154	620.05
58.5299	650.08
58.5443	675.57
58.5587	632.78
58.5732	610.91
58.5876	602.89
58.6021	552.63
58.6165	573.48
58.6309	574.20
58.6454	577.10
58.6598	531.47
58.6743	556.90
58.6887	557.36
58.7031	552.19
58.7176	583.75
58.7320	553.50
58.7465	521.73
58.7609	564.95
58.7753	539.27
58.7898	539.12
58.8042	565.96
58.8187	538.11
58.8331	533.99
58.8475	519.13
58.8620	552.19
58.8764	544.73
58.8909	515.81
58.9053	538.32
58.9197	545.67
58.9342	550.51
58.9486	543.26
58.9631	529.07
58.9775	536.48
58.9919	522.43
59.0064	547.18
59.0208	605.15
59.0353	549.56
59.0497	538.12
59.0641	540.51
59.0786	507.22
59.0930	521.28
59.1075	566.68
59.1219	564.05
59.1363	549.48
59.1508	539.28
59.1652	556.84
59.1797	556.37
59.1941	540.37
59.2085	577.28
59.2230	563.94
59.2374	547.98
59.2519	531.82
59.2663	564.45
59.2807	540.80
59.2952	544.82
59.3096	577.74
59.3241	586.96
59.3385	563.72
59.3529	580.67
59.3674	551.10
59.3818	556.15
59.3963	550.17
59.4107	567.10
59.4251	577.12
59.4396	559.13
59.4540	541.76
59.4685	589.66
59.4829	600.06
59.4973	545.81
59.5118	550.30
59.5262	555.31
59.5407	564.25
59.5551	570.89
59.5695	548.38
59.5840	557.36
59.5984	550.51
59.6129	539.65
59.6273	563.15
59.6417	566.01
59.6562	527.10
59.6706	516.60
59.6851	529.51
59.6995	545.84
59.7139	541.10
59.7284	540.19
59.7428	534.91
59.7573	544.48
59.7717	509.96
59.7861	568.68
59.8006	556.37
59.8150	563.11
59.8295	539.01
59.8439	528.70
59.8583	546.18
59.8728	571.97
59.8872	531.90
59.9017	560.42
59.9161	568.26
59.9305	549.45
59.9450	547.47
59.9594	536.50
59.9739	548.30
59.9883	533.48
60.0027	544.65
60.0172	547.03
60.0316	541.91
60.0461	560.09
60.0605	572.61
60.0750	528.26
60.0894	548.45
60.1038	520.19
60.1183	523.26
60.1327	519.75
60.1472	508.53
60.1616	529.95
60.1760	532.10
60.1905	544.20
60.2049	554.11
60.2194	528.44
60.2338	555.33
60.2482	572.93
60.2627	540.68
60.2771	539.34
60.2916	541.03
60.3060	559.12
60.3204	525.60
60.3349	549.18
60.3493	547.57
60.3638	532.20
60.3782	541.30
60.3926	505.71
60.4071	506.58
60.4215	510.20
60.4360	519.13
60.4504	516.17
60.4648	524.58
60.4793	547.95
60.4937	522.75
60.5082	522.76
60.5226	528.99
60.5370	522.54
60.5515	515.72
60.5659	528.57
60.5804	554.34
60.5948	555.21
60.6092	538.73
60.6237	550.65
60.6381	548.72
60.6526	556.27
60.6670	542.90
60.6814	567.58
60.6959	562.32
60.7103	539.44
60.7248	542.41
60.7392	526.35
60.7536	546.62
60.7681	494.03
60.7825	552.47
60.7970	537.34
60.8114	552.41
60.8258	530.54
60.8403	510.57
60.8547	538.67
60.8692	530.09
60.8836	522.02
60.8980	520.56
60.9125	559.29
60.9269	542.69
60.9414	586.93
60.9558	538.41
60.9702	544.49
60.9847	536.37
60.9991	535.03
61.0136	534.56
61.0280	513.95
61.0424	558.18
61.0569	543.14
61.0713	536.93
61.0858	554.73
61.1002	576.29
61.1146	550.01
61.1291	558.27
61.1435	535.58
61.1580	530.83
61.1724	570.74
61.1868	515.98
61.2013	532.35
61.2157	557.99
61.2302	586.25
61.2446	520.54
61.2590	528.93
61.2735	572.38
61.2879	542.66
61.3024	536.97
61.3168	552.41
61.3312	537.20
61.3457	512.15
61.3601	549.80
61.3746	531.13
61.3890	515.00
61.4034	547.84
61.4179	571.04
61.4323	557.56
61.4468	575.39
61.4612	556.74
61.4756	565.66
61.4901	564.80
61.5045	545.28
61.5190	505.76
61.5334	541.04
61.5478	573.45
61.5623	581.67
61.5767	539.93
61.5912	528.76
61.6056	544.66
61.6200	534.96
61.6345	554.71
61.6489	524.60
61.6634	522.00
61.6778	500.64
61.6922	527.03
61.7067	589.37
61.7211	543.95
61.7356	522.07
61.7500	531.36
61.7644	530.80
61.7789	542.40
61.7933	546.22
61.8078	567.03
61.8222	557.89
61.8366	552.47
61.8511	573.09
61.8655	592.42
61.8800	550.08
61.8944	545.79
61.9088	607.49
61.9233	580.28
61.9377	565.65
61.9522	557.98
61.9666	543.74
61.9810	547.04
61.9955	584.60
62.0099	542.12
62.0244	524.34
62.0388	544.32
62.0532	536.33
62.0677	565.70
62.0821	574.15
62.0966	548.97
62.1110	544.04
62.1254	564.85
62.1399	539.51
62.1543	541.23
62.1688	549.52
62.1832	560.71
62.1976	537.29
62.2121	539.37
62.2265	540.97
62.2410	572.25
62.2554	537.52
62.2698	521.83
62.2843	552.87
62.2987	535.76
62.3132	572.55
62.3276	529.05
62.3420	551.26
62.3565	581.27
62.3709	551.22
62.3854	568.00
62.3998	556.50
62.4142	531.49
62.4287	582.67
62.4431	533.81
62.4576	526.96
62.4720	563.13
62.4864	542.33
62.5009	570.50
62.5153	554.40
62.5298	548.85
62.5442	568.96
62.5586	560.59
62.5731	521.99
62.5875	550.73
62.6020	565.12
62.6164	556.85
62.6308	570.32
62.6453	547.75
62.6597	572.05
62.6742	565.26
62.6886	573.84
62.7030	585.43
62.7175	553.73
62.7319	559.59
62.7464	602.72
62.7608	545.54
62.7752	530.34
62.7897	591.13
62.8041	574.01
62.8186	588.63
62.8330	557.58
62.8474	540.05
62.8619	565.65
62.8763	574.16
62.8908	560.85
62.9052	547.05
62.9196	552.55
62.9341	562.69
62.9485	530.91
62.9630	557.62
62.9774	559.22
62.9918	558.03
63.0063	555.84
63.0207	582.50
63.0352	563.79
63.0496	524.62
63.0640	550.42
63.0785	544.03
63.0929	558.06
63.1074	543.79
63.1218	541.12
63.1362	551.74
63.1507	541.48
63.1651	569.46
63.1796	581.56
63.1940	560.50
63.2084	559.54
63.2229	563.06
63.2373	571.80
63.2518	566.62
63.2662	567.50
63.2806	581.77
63.2951	553.65
63.3095	565.72
63.3240	586.51
63.3384	556.27
63.3528	585.49
63.3673	586.85
63.3817	584.56
63.3962	572.89
63.4106	584.09
63.4250	622.60
63.4395	628.38
63.4539	581.93
63.4684	589.97
63.4828	583.81
63.4972	588.06
63.5117	586.50
63.5261	594.67
63.5406	571.29
63.5550	585.20
63.5694	572.08
63.5839	586.82
63.5983	580.25
63.6128	570.02
63.6272	551.75
63.6416	576.92
63.6561	581.44
63.6705	589.66
63.6850	584.19
63.6994	589.70
63.7138	609.38
63.7283	581.19
63.7427	613.91
63.7572	619.14
63.7716	604.36
63.7861	577.63
63.8005	603.51
63.8149	629.62
63.8294	611.84
63.8438	595.74
63.8583	648.90
63.8727	637.10
63.8871	596.71
63.9016	586.13
63.9160	602.45
63.9305	634.46
63.9449	670.60
63.9593	676.49
63.9738	678.88
63.9882	662.37
64.0027	678.79
64.0171	731.13
64.0315	756.44
64.0460	734.06
64.0604	756.56
64.0749	826.48
64.0893	899.21
64.1037	866.79
64.1182	831.43
64.1326	878.83
64.1471	785.35
64.1615	799.21
64.1759	788.50
64.1904	756.94
64.2048	738.75
64.2193	774.07
64.2337	784.64
64.2481	786.96
64.2626	730.99
64.2770	755.20
64.2915	748.94
64.3059	758.63
64.3203	714.59
64.3348	704.83
64.3492	681.64
64.3637	676.20
64.3781	666.43
64.3925	666.51
64.4070	663.58
64.4214	699.55
64.4359	720.32
64.4503	665.43
64.4647	642.97
64.4792	686.00
64.4936	685.02
64.5081	691.49
64.5225	701.56
64.5369	651.95
64.5514	641.13
64.5658	668.57
64.5803	648.84
64.5947	663.32
64.6091	656.23
64.6236	695.12
64.6380	669.47
64.6525	647.11
64.6669	661.13
64.6813	720.45
64.6958	686.68
64.7102	706.91
64.7247	689.45
64.7391	704.26
64.7535	753.16
64.7680	734.87
64.7824	685.88
64.7969	802.66
64.8113	776.59
64.8257	796.54
64.8402	799.31
64.8546	850.11
64.8691	835.07
64.8835	836.91
64.8979	830.35
64.9124	867.04
64.9268	878.36
64.9413	910.97
64.9557	950.04
64.9701	1033.06
64.9846	1051.35
64.9990	1181.00
65.0135	1367.79
65.0279	1488.41
65.0423	1755.80
65.0568	2191.03
65.0712	2746.65
65.0857	3537.59
65.1001	4780.34
65.1145	6483.45
65.1290	8384.33
65.1434	9994.41
65.1579	11474.47
65.1723	11793.82
65.1867	11242.97
65.2012	9772.45
65.2156	8162.58
65.2301	6446.61
65.2445	5204.60
65.2589	4500.24
65.2734	4246.67
65.2878	4543.09
65.3023	5205.42
65.3167	5950.34
65.3311	6727.18
65.3456	7055.74
65.3600	6922.39
65.3745	6419.59
65.3889	5474.88
65.4033	4283.39
65.4178	3319.85
65.4322	2706.35
65.4467	2094.79
65.4611	1734.16
65.4755	1452.61
65.4900	1262.05
65.5044	1128.17
65.5189	1002.56
65.5333	1007.17
65.5477	911.01
65.5622	909.39
65.5766	853.29
65.5911	836.76
65.6055	798.97
65.6199	766.52
65.6344	772.48
65.6488	777.45
65.6633	737.65
65.6777	743.48
65.6921	703.81
65.7066	748.80
65.7210	702.58
65.7355	702.65
65.7499	665.18
65.7643	673.29
65.7788	691.92
65.7932	658.32
65.8077	685.74
65.8221	648.56
65.8365	635.13
65.8510	641.89
65.8654	670.43
65.8799	637.10
65.8943	649.65
65.9087	675.51
65.9232	664.69
65.9376	669.80
65.9521	621.96
65.9665	654.15
65.9809	654.23
65.9954	654.89
66.0098	614.96
66.0243	637.50
66.0387	607.96
66.0531	638.28
66.0676	658.28
66.0820	656.03
66.0965	624.98
66.1109	630.50
66.1253	645.00
66.1398	609.28
66.1542	613.67
66.1687	639.08
66.1831	613.54
66.1975	609.17
66.2120	629.30
66.2264	591.20
66.2409	592.49
66.2553	609.54
66.2697	589.65
66.2842	595.42
66.2986	573.13
66.3131	589.82
66.3275	628.54
66.3419	592.27
66.3564	596.98
66.3708	595.25
66.3853	617.27
66.3997	595.36
66.4141	588.36
66.4286	581.87
66.4430	606.52
66.4575	640.17
66.4719	626.30
66.4863	617.52
66.5008	585.33
66.5152	588.61
66.5297	634.05
66.5441	608.00
66.5585	597.28
66.5730	578.65
66.5874	578.63
66.6019	599.60
66.6163	574.98
66.6307	580.79
66.6452	582.87
66.6596	591.08
66.6741	602.85
66.6885	590.83
66.7029	600.51
66.7174	609.30
66.7318	574.50
66.7463	585.37
66.7607	567.30
66.7751	573.97
66.7896	594.89
66.8040	620.34
66.8185	574.48
66.8329	546.82
66.8473	597.97
66.8618	604.25
66.8762	586.03
66.8907	583.86
66.9051	608.87
66.9195	581.12
66.9340	599.72
66.9484	609.07
66.9629	580.64
66.9773	589.56
66.9917	601.90
67.0062	616.76
67.0206	613.82
67.0351	596.91
67.0495	618.55
67.0639	585.55
67.0784	589.05
67.0928	598.29
67.1073	581.29
67.1217	568.41
67.1361	545.65
67.1506	564.96
67.1650	586.55
67.1795	604.35
67.1939	615.47
67.2083	602.26
67.2228	596.40
67.2372	579.00
67.2517	582.11
67.2661	579.77
67.2805	612.59
67.2950	544.32
67.3094	554.95
67.3239	592.96
67.3383	586.10
67.3527	592.36
67.3672	581.40
67.3816	576.52
67.3961	536.60
67.4105	583.99
67.4250	610.14
67.4394	582.04
67.4538	545.72
67.4683	568.73
67.4827	599.50
67.4972	561.26
67.5116	566.71
67.5260	561.63
67.5405	546.15
67.5549	586.88
67.5694	600.21
67.5838	582.33
67.5982	600.54
67.6127	622.96
67.6271	577.44
67.6416	575.98
67.6560	568.85
67.6704	549.31
67.6849	561.25
67.6993	597.54
67.7138	631.83
67.7282	561.63
67.7426	574.11
67.7571	565.95
67.7715	584.99
67.7860	594.89
67.8004	570.85
67.8148	595.64
67.8293	575.71
67.8437	570.06
67.8582	606.22
67.8726	594.17
67.8870	545.65
67.9015	550.55
67.9159	606.50
67.9304	570.64
67.9448	592.20
67.9592	584.94
67.9737	614.48
67.9881	583.89
68.0026	566.58
68.0170	535.86
68.0314	542.40
68.0459	572.86
68.0603	608.22
68.0748	609.51
68.0892	561.04
68.1036	578.07
68.1181	582.68
68.1325	569.14
68.1470	561.70
68.1614	590.05
68.1758	594.58
68.1903	587.44
68.2047	567.73
68.2192	580.98
68.2336	570.42
68.2480	572.21
68.2625	596.24
68.2769	543.63
68.2914	566.14
68.3058	616.94
68.3202	574.48
68.3347	568.31
68.3491	573.82
68.3636	581.79
68.3780	607.38
68.3924	544.40
68.4069	579.74
68.4213	570.68
68.4358	564.13
68.4502	537.56
68.4646	602.90
68.4791	583.43
68.4935	599.22
68.5080	583.20
68.5224	604.79
68.5368	574.74
68.5513	558.35
68.5657	590.64
68.5802	566.89
68.5946	591.12
68.6090	563.32
68.6235	563.39
68.6379	608.28
68.6524	593.03
68.6668	564.80
68.6812	578.60
68.6957	582.44
68.7101	574.20
68.7246	589.34
68.7390	561.24
68.7534	555.08
68.7679	552.27
68.7823	622.52
68.7968	590.07
68.8112	555.88
68.8256	591.43
68.8401	559.27
68.8545	629.35
68.8690	573.66
68.8834	563.28
68.8978	568.74
68.9123	597.46
68.9267	572.13
68.9412	582.95
68.9556	614.42
68.9700	549.28
68.9845	585.95
68.9989	572.64
69.0134	594.53
69.0278	533.73
69.0422	550.58
69.0567	567.64
69.0711	605.41
69.0856	616.75
69.1000	594.18
69.1144	566.13
69.1289	557.25
69.1433	559.74
69.1578	594.76
69.1722	632.59
69.1866	568.13
69.2011	570.35
69.2155	576.39
69.2300	546.25
69.2444	596.95
69.2588	593.61
69.2733	617.15
69.2877	572.76
69.3022	622.54
69.3166	584.85
69.3310	621.57
69.3455	604.09
69.3599	605.71
69.3744	571.61
69.3888	527.84
69.4032	589.04
69.4177	632.16
69.4321	626.68
69.4466	567.27
69.4610	601.28
69.4754	566.76
69.4899	569.35
69.5043	585.98
69.5188	570.13
69.5332	522.57
69.5476	553.32
69.5621	580.82
69.5765	607.40
69.5910	580.52
69.6054	578.22
69.6198	566.73
69.6343	579.07
69.6487	596.24
69.6632	551.88
69.6776	580.62
69.6920	594.59
69.7065	585.82
69.7209	583.04
69.7354	550.97
69.7498	573.89
69.7642	558.50
69.7787	596.01
69.7931	535.12
69.8076	572.62
69.8220	572.31
69.8364	563.83
69.8509	606.52
69.8653	572.88
69.8798	615.48
69.8942	614.58
69.9086	565.58
69.9231	618.80
69.9375	616.08
69.9520	578.80
69.9664	541.84
69.9808	577.32
69.9953	577.79
70.0097	562.18
70.0242	561.73
70.0386	562.44
70.0530	559.95
70.0675	581.51
70.0819	578.23
70.0964	588.63
70.1108	563.36
70.1252	522.78
70.1397	540.11
70.1541	546.20
70.1686	612.72
70.1830	628.10
70.1974	566.67
70.2119	605.09
70.2263	574.48
70.2408	560.61
70.2552	593.35
70.2696	630.33
70.2841	576.57
70.2985	595.23
70.3130	582.62
70.3274	547.02
70.3418	555.44
70.3563	589.26
70.3707	580.65
70.3852	544.98
70.3996	573.24
70.4140	574.03
70.4285	605.27
70.4429	570.28
70.4574	551.85
70.4718	573.89
70.4862	586.77
70.5007	627.72
70.5151	618.40
70.5296	590.56
70.5440	608.72
70.5584	581.77
70.5729	534.34
70.5873	543.84
70.6018	563.46
70.6162	547.77
70.6306	611.40
70.6451	571.15
70.6595	531.19
70.6740	579.04
70.6884	576.42
70.7028	587.67
70.7173	550.60
70.7317	524.79
70.7462	557.23
70.7606	553.89
70.7750	576.40
70.7895	605.24
70.8039	570.47
70.8184	573.76
70.8328	590.34
70.8472	563.06
70.8617	543.88
70.8761	522.30
70.8906	561.87
70.9050	580.81
70.9194	604.75
70.9339	571.99
70.9483	609.25
70.9628	646.12
70.9772	633.74
70.9916	650.94
71.0061	575.06
71.0205	556.85
71.0350	605.68
71.0494	578.37
71.0638	601.59
71.0783	584.61
71.0927	601.21
71.1072	635.39
71.1216	564.60
71.1361	598.06
71.1505	593.73
71.1649	578.53
71.1794	565.96
71.1938	507.69
71.2083	520.30
71.2227	578.49
71.2371	589.96
71.2516	566.52
71.2660	550.63
71.2805	608.58
71.2949	609.54
71.3093	572.91
71.3238	582.39
71.3382	587.13
71.3527	569.59
71.3671	619.64
71.3815	594.83
71.3960	583.49
71.4104	553.37
71.4249	538.39
71.4393	577.46
71.4537	580.67
71.4682	577.62
71.4826	565.97
71.4971	566.20
71.5115	604.13
71.5259	595.40
71.5404	576.26
71.5548	585.41
71.5693	523.87
71.5837	520.52
71.5981	552.62
71.6126	583.83
71.6270	579.74
71.6415	608.55
71.6559	626.30
71.6703	672.55
71.6848	611.35
71.6992	582.37
71.7137	568.08
71.7281	618.39
71.7425	620.75
71.7570	577.50
71.7714	560.52
71.7859	528.91
71.8003	580.07
71.8147	584.24
71.8292	537.78
71.8436	542.44
71.8581	568.24
71.8725	549.56
71.8869	521.91
71.9014	599.57
71.9158	551.57
71.9303	521.06
71.9447	515.69
71.9591	562.56
71.9736	652.24
71.9880	602.93
72.0025	595.66
72.0169	603.89
72.0313	609.42
72.0458	685.96
72.0602	637.16
72.0747	577.37
72.0891	589.23
72.1035	564.48
72.1180	548.13
72.1324	566.32
72.1469	612.02
72.1613	615.35
72.1757	637.03
72.1902	575.72
72.2046	508.60
72.2191	592.35
72.2335	566.02
72.2479	550.59
72.2624	556.98
72.2768	573.37
72.2913	629.83
72.3057	573.96
72.3201	580.28
72.3346	661.36
72.3490	630.59
72.3635	612.60
72.3779	600.26
72.3923	514.93
72.4068	501.65
72.4212	509.48
72.4357	524.90
72.4501	575.59
72.4645	604.90
72.4790	623.91
72.4934	576.94
72.5079	512.91
72.5223	584.05
72.5367	565.93
72.5512	604.43
72.5656	650.93
72.5801	602.03
72.5945	566.29
72.6089	582.82
72.6234	545.08
72.6378	527.83
72.6523	540.93
72.6667	565.75
72.6811	610.47
72.6956	656.16
72.7100	581.75
72.7245	613.90
72.7389	691.19
72.7533	625.93
72.7678	578.00
72.7822	599.85
72.7967	603.58
72.8111	662.22
72.8255	643.04
72.8400	638.13
72.8544	595.29
72.8689	569.58
72.8833	572.49