2022.09.19 19:37:16
Îáðàçåö: ß÷åéêà LCoV 16-09-2022
Lambda1 = 1.54060
Lambda2 = 1.54439
Lambdam = 1.54186
R = 0.497
2Theta	I

line¹ 0 ;repeat¹ 0
22.1120	549.88
22.1264	625.13
22.1409	561.95
22.1553	624.16
22.1697	623.43
22.1842	587.38
22.1986	540.99
22.2131	491.51
22.2275	492.28
22.2419	534.47
22.2564	576.24
22.2708	580.49
22.2853	599.18
22.2997	520.26
22.3141	519.52
22.3286	600.56
22.3430	732.58
22.3575	622.58
22.3719	577.43
22.3863	598.45
22.4008	565.91
22.4152	597.71
22.4297	596.19
22.4441	638.35
22.4585	619.96
22.4730	573.94
22.4874	600.36
22.5019	615.43
22.5163	562.78
22.5307	574.05
22.5452	549.23
22.5596	631.75
22.5741	644.65
22.5885	578.38
22.6029	530.91
22.6174	549.07
22.6318	530.02
22.6463	547.04
22.6607	636.50
22.6751	513.08
22.6896	498.83
22.7040	539.42
22.7185	625.35
22.7329	495.67
22.7473	495.51
22.7618	586.77
22.7762	603.85
22.7907	593.54
22.8051	587.10
22.8195	652.68
22.8340	649.95
22.8484	674.39
22.8629	668.27
22.8773	572.12
22.8917	537.74
22.9062	573.66
22.9206	568.02
22.9351	481.50
22.9495	540.65
22.9639	550.28
22.9784	617.06
22.9928	590.45
23.0073	626.17
23.0217	508.31
23.0361	467.29
23.0506	573.17
23.0650	527.68
23.0795	628.48
23.0939	586.64
23.1083	526.18
23.1228	612.70
23.1372	532.10
23.1517	567.66
23.1661	542.79
23.1806	551.32
23.1950	590.67
23.2094	600.49
23.2239	557.72
23.2383	554.00
23.2528	557.33
23.2672	555.07
23.2816	566.87
23.2961	547.32
23.3105	603.08
23.3250	602.18
23.3394	501.37
23.3538	475.41
23.3683	534.25
23.3827	568.31
23.3972	568.68
23.4116	503.03
23.4260	634.60
23.4405	536.56
23.4549	611.95
23.4694	557.23
23.4838	542.67
23.4982	526.79
23.5127	565.33
23.5271	586.11
23.5416	556.02
23.5560	569.90
23.5704	576.02
23.5849	579.77
23.5993	556.19
23.6138	541.84
23.6282	538.45
23.6426	567.24
23.6571	542.71
23.6715	563.55
23.6860	548.26
23.7004	545.16
23.7148	551.66
23.7293	489.59
23.7437	523.95
23.7582	600.31
23.7726	564.99
23.7870	567.82
23.8015	550.69
23.8159	546.76
23.8304	577.52
23.8448	529.06
23.8592	566.00
23.8737	547.19
23.8881	516.65
23.9026	581.71
23.9170	543.55
23.9314	563.13
23.9459	570.87
23.9603	508.29
23.9748	570.18
23.9892	557.36
24.0036	614.45
24.0181	633.24
24.0325	647.30
24.0470	556.85
24.0614	578.34
24.0758	579.19
24.0903	580.36
24.1047	577.44
24.1192	585.83
24.1336	610.82
24.1480	544.11
24.1625	600.45
24.1769	568.18
24.1914	570.37
24.2058	628.54
24.2202	555.85
24.2347	622.71
24.2491	658.40
24.2636	609.44
24.2780	576.32
24.2924	577.73
24.3069	544.16
24.3213	540.30
24.3358	556.32
24.3502	560.25
24.3646	566.78
24.3791	578.54
24.3935	490.51
24.4080	541.85
24.4224	563.47
24.4368	546.84
24.4513	533.93
24.4657	487.15
24.4802	510.16
24.4946	524.60
24.5090	573.47
24.5235	589.80
24.5379	591.50
24.5524	530.42
24.5668	631.55
24.5812	593.00
24.5957	627.15
24.6101	571.13
24.6246	560.18
24.6390	548.41
24.6534	532.83
24.6679	555.64
24.6823	561.16
24.6968	543.62
24.7112	556.96
24.7256	533.99
24.7401	543.06
24.7545	541.09
24.7690	493.87
24.7834	541.07
24.7978	556.33
24.8123	543.50
24.8267	593.70
24.8412	581.69
24.8556	574.96
24.8700	533.09
24.8845	542.75
24.8989	555.89
24.9134	554.89
24.9278	509.17
24.9422	542.29
24.9567	500.90
24.9711	529.98
24.9856	558.98
25.0000	519.72
25.0144	608.58
25.0289	542.31
25.0433	528.29
25.0578	602.72
25.0722	489.05
25.0866	551.41
25.1011	515.48
25.1155	571.22
25.1300	558.08
25.1444	494.84
25.1588	533.53
25.1733	548.08
25.1877	559.14
25.2022	524.46
25.2166	522.02
25.2310	560.54
25.2455	544.25
25.2599	524.06
25.2744	553.67
25.2888	581.45
25.3032	536.32
25.3177	526.06
25.3321	568.11
25.3466	564.55
25.3610	547.20
25.3754	548.57
25.3899	575.11
25.4043	547.20
25.4188	557.98
25.4332	537.64
25.4476	555.64
25.4621	556.80
25.4765	521.76
25.4910	517.45
25.5054	500.72
25.5198	528.10
25.5343	567.83
25.5487	549.83
25.5632	525.52
25.5776	551.79
25.5920	542.20
25.6065	572.03
25.6209	545.15
25.6354	528.44
25.6498	552.94
25.6642	551.35
25.6787	544.70
25.6931	509.01
25.7076	514.58
25.7220	547.40
25.7364	557.63
25.7509	560.74
25.7653	547.03
25.7798	565.50
25.7942	558.75
25.8086	567.04
25.8231	574.68
25.8375	508.67
25.8520	540.26
25.8664	559.48
25.8808	542.78
25.8953	540.57
25.9097	551.23
25.9242	539.07
25.9386	547.33
25.9530	547.84
25.9675	540.95
25.9819	528.43
25.9964	518.33
26.0108	531.15
26.0252	565.61
26.0397	583.79
26.0541	589.80
26.0686	546.70
26.0830	568.88
26.0974	549.03
26.1119	549.27
26.1263	531.23
26.1408	518.06
26.1552	514.76
26.1696	534.51
26.1841	511.10
26.1985	507.63
26.2130	493.10
26.2274	556.13
26.2418	556.47
26.2563	547.99
26.2707	522.06
26.2852	519.84
26.2996	510.19
26.3140	528.74
26.3285	517.90
26.3429	528.35
26.3574	520.35
26.3718	531.57
26.3862	538.58
26.4007	526.78
26.4151	553.98
26.4296	555.57
26.4440	510.93
26.4584	525.81
26.4729	531.16
26.4873	534.93
26.5018	506.08
26.5162	467.84
26.5306	514.83
26.5451	563.82
26.5595	553.13
26.5740	567.55
26.5884	569.84
26.6028	578.55
26.6173	540.20
26.6317	539.21
26.6462	528.26
26.6606	540.78
26.6750	569.13
26.6895	541.96
26.7039	550.46
26.7184	540.08
26.7328	535.62
26.7472	532.09
26.7617	502.94
26.7761	538.05
26.7906	537.02
26.8050	511.89
26.8194	538.95
26.8339	539.66
26.8483	545.47
26.8628	539.60
26.8772	531.63
26.8917	531.33
26.9061	530.99
26.9205	522.07
26.9350	537.79
26.9494	499.84
26.9639	492.00
26.9783	539.84
26.9927	561.08
27.0072	513.12
27.0216	521.29
27.0361	539.90
27.0505	551.20
27.0649	537.80
27.0794	502.55
27.0938	491.46
27.1083	512.60
27.1227	538.20
27.1371	521.91
27.1516	539.54
27.1660	564.30
27.1805	541.81
27.1949	516.05
27.2093	519.20
27.2238	531.84
27.2382	509.56
27.2527	536.94
27.2671	532.06
27.2815	551.91
27.2960	515.98
27.3104	519.28
27.3249	519.61
27.3393	525.25
27.3537	521.97
27.3682	514.59
27.3826	508.40
27.3971	508.32
27.4115	534.72
27.4259	555.75
27.4404	527.59
27.4548	514.52
27.4693	521.58
27.4837	530.65
27.4981	537.84
27.5126	526.51
27.5270	531.89
27.5415	541.63
27.5559	519.91
27.5703	516.34
27.5848	539.53
27.5992	527.80
27.6137	533.68
27.6281	535.34
27.6425	539.04
27.6570	514.75
27.6714	512.06
27.6859	500.60
27.7003	529.80
27.7147	562.32
27.7292	516.53
27.7436	498.41
27.7581	505.39
27.7725	522.07
27.7869	542.59
27.8014	531.78
27.8158	540.84
27.8303	505.25
27.8447	516.03
27.8591	502.65
27.8736	523.25
27.8880	507.13
27.9025	520.98
27.9169	520.66
27.9313	523.84
27.9458	519.80
27.9602	497.30
27.9747	527.66
27.9891	538.04
28.0035	530.97
28.0180	482.32
28.0324	487.32
28.0469	514.64
28.0613	525.05
28.0757	528.39
28.0902	558.44
28.1046	534.35
28.1191	514.63
28.1335	508.43
28.1479	479.82
28.1624	522.20
28.1768	513.50
28.1913	497.64
28.2057	537.64
28.2201	490.99
28.2346	523.72
28.2490	521.92
28.2635	491.61
28.2779	501.34
28.2923	524.10
28.3068	516.67
28.3212	514.01
28.3357	525.99
28.3501	558.36
28.3645	527.28
28.3790	507.49
28.3934	516.29
28.4079	487.64
28.4223	509.59
28.4367	535.46
28.4512	511.82
28.4656	554.93
28.4801	547.51
28.4945	492.14
28.5089	501.20
28.5234	513.89
28.5378	497.22
28.5523	475.66
28.5667	512.48
28.5811	506.97
28.5956	525.54
28.6100	514.91
28.6245	476.62
28.6389	508.66
28.6533	516.77
28.6678	494.49
28.6822	513.89
28.6967	553.94
28.7111	520.00
28.7255	522.40
28.7400	490.71
28.7544	470.30
28.7689	478.97
28.7833	552.19
28.7977	519.56
28.8122	515.71
28.8266	484.86
28.8411	510.44
28.8555	513.94
28.8699	513.29
28.8844	518.33
28.8988	498.42
28.9133	552.51
28.9277	500.12
28.9421	508.53
28.9566	521.01
28.9710	505.99
28.9855	488.87
28.9999	471.23
29.0143	515.53
29.0288	500.81
29.0432	478.39
29.0577	509.01
29.0721	488.68
29.0865	530.68
29.1010	551.81
29.1154	513.29
29.1299	536.60
29.1443	506.00
29.1587	505.31
29.1732	520.10
29.1876	491.71
29.2021	506.23
29.2165	515.58
29.2309	477.23
29.2454	490.17
29.2598	520.37
29.2743	510.36
29.2887	522.75
29.3031	518.00
29.3176	487.42
29.3320	471.47
29.3465	527.08
29.3609	506.20
29.3753	469.08
29.3898	487.01
29.4042	477.77
29.4187	499.92
29.4331	488.73
29.4475	504.97
29.4620	493.27
29.4764	511.57
29.4909	495.22
29.5053	493.53
29.5197	507.57
29.5342	491.91
29.5486	485.91
29.5631	487.14
29.5775	483.88
29.5919	501.94
29.6064	500.97
29.6208	558.06
29.6353	540.90
29.6497	523.13
29.6641	480.72
29.6786	517.99
29.6930	494.01
29.7075	502.22
29.7219	531.57
29.7363	507.43
29.7508	504.50
29.7652	535.72
29.7797	549.81
29.7941	540.80
29.8085	524.09
29.8230	499.04
29.8374	512.15
29.8519	539.13
29.8663	520.34
29.8807	487.27
29.8952	509.82
29.9096	550.17
29.9241	537.65
29.9385	548.15
29.9529	561.51
29.9674	492.25
29.9818	512.17
29.9963	484.71
30.0107	468.47
30.0251	530.47
30.0396	510.96
30.0540	520.24
30.0685	527.49
30.0829	490.89
30.0973	494.67
30.1118	511.77
30.1262	561.28
30.1407	532.41
30.1551	484.30
30.1695	513.35
30.1840	520.62
30.1984	508.84
30.2129	521.01
30.2273	535.82
30.2417	521.88
30.2562	505.57
30.2706	513.27
30.2851	519.44
30.2995	535.79
30.3139	513.49
30.3284	516.46
30.3428	497.34
30.3573	526.12
30.3717	514.15
30.3861	498.21
30.4006	511.19
30.4150	491.28
30.4295	490.35
30.4439	482.77
30.4583	506.66
30.4728	556.91
30.4872	537.94
30.5017	493.75
30.5161	483.46
30.5305	511.82
30.5450	493.14
30.5594	497.08
30.5739	486.55
30.5883	494.42
30.6028	490.54
30.6172	522.77
30.6316	528.72
30.6461	544.45
30.6605	535.66
30.6750	547.73
30.6894	572.84
30.7038	586.61
30.7183	594.47
30.7327	580.64
30.7472	616.79
30.7616	651.11
30.7760	657.35
30.7905	665.70
30.8049	718.95
30.8194	704.79
30.8338	728.71
30.8482	711.87
30.8627	681.72
30.8771	675.08
30.8916	653.51
30.9060	650.58
30.9204	612.41
30.9349	604.54
30.9493	577.48
30.9638	566.33
30.9782	566.02
30.9926	554.80
31.0071	549.88
31.0215	588.36
31.0360	574.41
31.0504	565.43
31.0648	565.10
31.0793	534.75
31.0937	563.81
31.1082	555.06
31.1226	550.67
31.1370	543.54
31.1515	541.27
31.1659	506.07
31.1804	503.14
31.1948	512.22
31.2092	527.59
31.2237	515.48
31.2381	513.84
31.2526	518.01
31.2670	536.84
31.2814	554.82
31.2959	558.13
31.3103	573.41
31.3248	580.50
31.3392	512.65
31.3536	533.23
31.3681	517.38
31.3825	491.76
31.3970	514.75
31.4114	510.05
31.4258	536.31
31.4403	507.37
31.4547	522.15
31.4692	541.86
31.4836	505.65
31.4980	483.34
31.5125	498.41
31.5269	518.01
31.5414	512.66
31.5558	472.94
31.5702	485.88
31.5847	505.56
31.5991	508.04
31.6136	483.74
31.6280	511.97
31.6424	494.75
31.6569	509.82
31.6713	529.07
31.6858	530.68
31.7002	528.74
31.7146	530.33
31.7291	502.82
31.7435	501.93
31.7580	516.35
31.7724	518.23
31.7868	502.99
31.8013	504.77
31.8157	533.00
31.8302	514.39
31.8446	520.99
31.8590	538.59
31.8735	534.76
31.8879	518.62
31.9024	534.69
31.9168	493.38
31.9312	504.71
31.9457	491.96
31.9601	520.73
31.9746	519.53
31.9890	504.49
32.0034	509.70
32.0179	499.89
32.0323	476.29
32.0468	506.35
32.0612	517.76
32.0756	512.57
32.0901	507.19
32.1045	517.37
32.1190	522.93
32.1334	472.36
32.1478	479.99
32.1623	519.57
32.1767	512.23
32.1912	511.82
32.2056	514.26
32.2200	479.65
32.2345	535.85
32.2489	532.77
32.2634	529.46
32.2778	491.97
32.2922	473.94
32.3067	476.72
32.3211	515.86
32.3356	466.81
32.3500	513.45
32.3644	503.87
32.3789	498.96
32.3933	502.53
32.4078	526.21
32.4222	538.74
32.4366	517.73
32.4511	498.22
32.4655	518.24
32.4800	518.27
32.4944	536.98
32.5088	480.88
32.5233	449.53
32.5377	538.84
32.5522	545.55
32.5666	517.54
32.5810	497.70
32.5955	505.53
32.6099	510.74
32.6244	512.76
32.6388	494.65
32.6532	481.82
32.6677	498.12
32.6821	473.33
32.6966	498.75
32.7110	476.46
32.7254	521.61
32.7399	494.64
32.7543	509.61
32.7688	492.08
32.7832	546.26
32.7976	519.76
32.8121	513.18
32.8265	500.59
32.8410	480.89
32.8554	510.96
32.8698	511.44
32.8843	496.70
32.8987	528.07
32.9132	502.63
32.9276	512.02
32.9420	465.96
32.9565	488.32
32.9709	511.52
32.9854	517.38
32.9998	485.57
33.0142	507.95
33.0287	461.41
33.0431	447.95
33.0576	487.33
33.0720	484.68
33.0864	501.00
33.1009	525.40
33.1153	540.68
33.1298	516.80
33.1442	508.89
33.1586	500.07
33.1731	555.52
33.1875	483.70
33.2020	501.80
33.2164	513.88
33.2308	506.47
33.2453	508.08
33.2597	515.45
33.2742	483.84
33.2886	482.34
33.3030	491.98
33.3175	527.27
33.3319	533.38
33.3464	515.11
33.3608	482.47
33.3752	495.90
33.3897	505.80
33.4041	480.85
33.4186	502.86
33.4330	528.66
33.4474	501.76
33.4619	499.76
33.4763	524.43
33.4908	510.97
33.5052	514.21
33.5196	497.26
33.5341	522.47
33.5485	513.82
33.5630	519.57
33.5774	508.79
33.5918	523.03
33.6063	531.69
33.6207	488.63
33.6352	493.67
33.6496	469.08
33.6640	494.50
33.6785	527.71
33.6929	498.79
33.7074	522.19
33.7218	519.84
33.7362	501.05
33.7507	506.36
33.7651	480.51
33.7796	515.06
33.7940	524.45
33.8084	495.17
33.8229	527.43
33.8373	514.34
33.8518	502.26
33.8662	507.51
33.8806	510.44
33.8951	494.44
33.9095	529.75
33.9240	539.76
33.9384	539.64
33.9528	488.86
33.9673	491.57
33.9817	472.61
33.9962	496.64
34.0106	518.92
34.0250	537.00
34.0395	510.47
34.0539	524.98
34.0684	543.81
34.0828	550.38
34.0972	548.90
34.1117	516.59
34.1261	513.43
34.1406	471.14
34.1550	487.65
34.1694	511.38
34.1839	550.46
34.1983	516.40
34.2128	504.43
34.2272	504.35
34.2417	522.52
34.2561	534.59
34.2705	529.01
34.2850	510.29
34.2994	526.78
34.3139	525.36
34.3283	517.61
34.3427	497.67
34.3572	521.44
34.3716	505.39
34.3861	487.15
34.4005	508.39
34.4149	516.78
34.4294	503.20
34.4438	501.51
34.4583	516.00
34.4727	519.34
34.4871	523.81
34.5016	518.68
34.5160	528.23
34.5305	497.79
34.5449	488.79
34.5593	498.20
34.5738	493.26
34.5882	505.30
34.6027	511.34
34.6171	474.97
34.6315	507.59
34.6460	544.62
34.6604	531.63
34.6749	479.46
34.6893	503.90
34.7037	522.27
34.7182	517.57
34.7326	508.15
34.7471	488.53
34.7615	504.04
34.7759	508.31
34.7904	512.32
34.8048	539.40
34.8193	518.22
34.8337	512.28
34.8481	502.17
34.8626	502.26
34.8770	525.91
34.8915	517.09
34.9059	503.89
34.9203	499.94
34.9348	502.50
34.9492	486.67
34.9637	519.23
34.9781	524.77
34.9925	505.43
35.0070	511.53
35.0214	499.45
35.0359	495.30
35.0503	506.16
35.0647	512.31
35.0792	529.69
35.0936	519.95
35.1081	510.49
35.1225	531.70
35.1369	482.14
35.1514	467.29
35.1658	499.27
35.1803	504.42
35.1947	549.52
35.2091	505.42
35.2236	475.40
35.2380	473.36
35.2525	510.95
35.2669	510.65
35.2813	505.82
35.2958	525.19
35.3102	516.92
35.3247	504.56
35.3391	517.80
35.3535	503.96
35.3680	541.38
35.3824	521.78
35.3969	524.92
35.4113	508.41
35.4257	498.72
35.4402	525.02
35.4546	501.78
35.4691	531.43
35.4835	500.94
35.4979	505.48
35.5124	518.55
35.5268	517.89
35.5413	531.90
35.5557	528.64
35.5701	510.09
35.5846	524.98
35.5990	519.47
35.6135	536.23
35.6279	539.79
35.6423	545.52
35.6568	531.15
35.6712	540.06
35.6857	584.71
35.7001	646.84
35.7145	692.75
35.7290	646.15
35.7434	591.12
35.7579	549.53
35.7723	551.00
35.7867	632.07
35.8012	657.41
35.8156	668.76
35.8301	640.67
35.8445	597.21
35.8589	677.37
35.8734	738.16
35.8878	848.20
35.9023	992.58
35.9167	1065.71
35.9311	1382.47
35.9456	2135.62
35.9600	2303.93
35.9745	1829.72
35.9889	1797.40
36.0033	2184.87
36.0178	2292.16
36.0322	2025.41
36.0467	1906.05
36.0611	1625.46
36.0755	1580.73
36.0900	1550.55
36.1044	1394.08
36.1189	1490.00
36.1333	1313.85
36.1477	1044.69
36.1622	1095.33
36.1766	1046.72
36.1911	937.96
36.2055	855.84
36.2199	919.75
36.2344	945.51
36.2488	983.58
36.2633	1030.51
36.2777	1019.66
36.2921	1032.69
36.3066	1028.41
36.3210	1007.97
36.3355	1036.43
36.3499	939.51
36.3643	911.59
36.3788	909.17
36.3932	800.50
36.4077	805.36
36.4221	801.34
36.4365	718.28
36.4510	681.01
36.4654	698.85
36.4799	662.78
36.4943	645.05
36.5087	589.76
36.5232	622.36
36.5376	647.04
36.5521	603.75
36.5665	583.73
36.5809	549.59
36.5954	548.77
36.6098	526.51
36.6243	531.81
36.6387	571.67
36.6531	556.23
36.6676	512.88
36.6820	501.36
36.6965	512.38
36.7109	543.48
36.7253	532.52
36.7398	552.60
36.7542	576.76
36.7687	537.23
36.7831	537.35
36.7975	560.36
36.8120	607.38
36.8264	570.30
36.8409	597.16
36.8553	612.42
36.8697	621.19
36.8842	592.11
36.8986	592.27
36.9131	590.94
36.9275	565.21
36.9419	583.99
36.9564	598.80
36.9708	586.35
36.9853	588.47
36.9997	572.90
37.0141	551.51
37.0286	545.96
37.0430	542.17
37.0575	531.30
37.0719	549.40
37.0863	518.50
37.1008	528.82
37.1152	531.01
37.1297	505.37
37.1441	535.65
37.1585	530.88
37.1730	482.27
37.1874	497.18
37.2019	464.70
37.2163	463.67
37.2307	517.02
37.2452	475.50
37.2596	504.51
37.2741	516.85
37.2885	542.11
37.3029	483.14
37.3174	475.46
37.3318	514.17
37.3463	518.05
37.3607	494.28
37.3751	504.42
37.3896	482.28
37.4040	459.07
37.4185	524.02
37.4329	524.36
37.4473	489.02
37.4618	486.68
37.4762	515.17
37.4907	514.48
37.5051	488.27
37.5195	476.16
37.5340	492.21
37.5484	516.44
37.5629	531.83
37.5773	475.06
37.5917	491.14
37.6062	492.14
37.6206	496.02
37.6351	518.89
37.6495	507.15
37.6639	496.08
37.6784	501.88
37.6928	501.82
37.7073	496.23
37.7217	486.89
37.7361	487.91
37.7506	522.09
37.7650	503.05
37.7795	513.33
37.7939	508.74
37.8083	540.23
37.8228	517.94
37.8372	529.49
37.8517	506.32
37.8661	533.81
37.8805	513.67
37.8950	528.40
37.9094	509.45
37.9239	491.09
37.9383	525.01
37.9528	514.32
37.9672	480.45
37.9816	512.78
37.9961	532.46
38.0105	499.78
38.0250	499.56
38.0394	500.86
38.0538	505.37
38.0683	520.57
38.0827	499.97
38.0972	477.87
38.1116	471.23
38.1260	484.08
38.1405	514.87
38.1549	520.12
38.1694	529.44
38.1838	511.28
38.1982	497.85
38.2127	506.95
38.2271	504.60
38.2416	509.04
38.2560	504.04
38.2704	482.65
38.2849	530.83
38.2993	509.48
38.3138	497.79
38.3282	499.83
38.3426	511.67
38.3571	528.10
38.3715	536.54
38.3860	533.09
38.4004	529.93
38.4148	549.63
38.4293	583.56
38.4437	563.80
38.4582	623.97
38.4726	624.99
38.4870	700.28
38.5015	753.94
38.5159	762.22
38.5304	788.09
38.5448	828.09
38.5592	786.86
38.5737	757.57
38.5881	748.96
38.6026	735.54
38.6170	720.50
38.6314	705.67
38.6459	661.99
38.6603	622.18
38.6748	590.36
38.6892	557.85
38.7036	553.85
38.7181	538.55
38.7325	566.37
38.7470	569.91
38.7614	515.36
38.7758	526.82
38.7903	506.92
38.8047	521.89
38.8192	507.53
38.8336	517.94
38.8480	523.79
38.8625	528.65
38.8769	523.85
38.8914	530.31
38.9058	534.06
38.9202	508.42
38.9347	524.16
38.9491	507.50
38.9636	481.94
38.9780	502.80
38.9924	512.63
39.0069	526.57
39.0213	517.42
39.0358	479.57
39.0502	482.13
39.0646	506.08
39.0791	511.11
39.0935	514.21
39.1080	485.20
39.1224	503.60
39.1368	517.30
39.1513	487.04
39.1657	484.45
39.1802	503.55
39.1946	491.84
39.2090	501.07
39.2235	499.19
39.2379	510.02
39.2524	527.75
39.2668	516.16
39.2812	499.00
39.2957	501.88
39.3101	484.37
39.3246	488.88
39.3390	486.74
39.3534	515.32
39.3679	508.48
39.3823	491.51
39.3968	469.68
39.4112	499.46
39.4256	541.01
39.4401	529.22
39.4545	504.69
39.4690	514.31
39.4834	520.29
39.4978	503.35
39.5123	478.67
39.5267	476.83
39.5412	454.25
39.5556	503.30
39.5700	515.78
39.5845	515.95
39.5989	495.37
39.6134	489.94
39.6278	495.01
39.6422	520.95
39.6567	521.03
39.6711	460.33
39.6856	493.47
39.7000	508.21
39.7144	498.62
39.7289	487.27
39.7433	480.89
39.7578	522.35
39.7722	505.38
39.7866	497.13
39.8011	497.51
39.8155	510.67
39.8300	505.81
39.8444	511.84
39.8588	510.75
39.8733	526.46
39.8877	491.64
39.9022	500.95
39.9166	517.42
39.9310	517.82
39.9455	498.41
39.9599	489.42
39.9744	508.34
39.9888	474.34
40.0032	468.64
40.0177	486.79
40.0321	474.96
40.0466	509.30
40.0610	487.93
40.0754	470.37
40.0899	492.56
40.1043	514.99
40.1188	547.81
40.1332	520.17
40.1476	492.03
40.1621	483.70
40.1765	530.82
40.1910	491.42
40.2054	492.19
40.2198	496.48
40.2343	506.25
40.2487	511.59
40.2632	517.24
40.2776	522.80
40.2920	525.19
40.3065	505.27
40.3209	460.48
40.3354	525.23
40.3498	518.16
40.3642	500.45
40.3787	460.87
40.3931	475.75
40.4076	477.41
40.4220	497.77
40.4364	534.46
40.4509	491.32
40.4653	496.64
40.4798	504.19
40.4942	502.25
40.5086	516.65
40.5231	502.40
40.5375	518.86
40.5520	468.44
40.5664	475.06
40.5808	450.78
40.5953	526.03
40.6097	524.91
40.6242	510.14
40.6386	490.55
40.6530	497.48
40.6675	510.15
40.6819	493.23
40.6964	504.10
40.7108	523.00
40.7252	501.06
40.7397	553.52
40.7541	509.49
40.7686	500.19
40.7830	521.75
40.7974	523.59
40.8119	482.77
40.8263	456.77
40.8408	461.36
40.8552	475.66
40.8696	504.10
40.8841	494.12
40.8985	492.38
40.9130	485.28
40.9274	454.61
40.9418	495.65
40.9563	528.22
40.9707	520.84
40.9852	529.37
40.9996	504.90
41.0140	481.29
41.0285	466.56
41.0429	499.42
41.0574	493.19
41.0718	488.88
41.0862	520.91
41.1007	521.96
41.1151	514.78
41.1296	541.79
41.1440	494.72
41.1584	484.49
41.1729	536.78
41.1873	509.14
41.2018	512.72
41.2162	504.17
41.2306	488.47
41.2451	496.16
41.2595	490.11
41.2740	480.62
41.2884	512.04
41.3028	536.78
41.3173	519.33
41.3317	506.01
41.3462	503.53
41.3606	495.86
41.3750	496.46
41.3895	490.17
41.4039	485.98
41.4184	487.83
41.4328	510.68
41.4472	474.54
41.4617	524.47
41.4761	538.48
41.4906	469.24
41.5050	489.19
41.5194	490.95
41.5339	501.31
41.5483	516.11
41.5628	516.61
41.5772	512.72
41.5916	502.71
41.6061	497.38
41.6205	490.54
41.6350	506.49
41.6494	524.42
41.6639	519.11
41.6783	517.13
41.6927	475.57
41.7072	521.31
41.7216	513.67
41.7361	476.40
41.7505	485.80
41.7649	506.14
41.7794	494.66
41.7938	510.28
41.8083	507.11
41.8227	504.97
41.8371	516.76
41.8516	500.08
41.8660	530.94
41.8805	519.98
41.8949	564.44
41.9093	580.12
41.9238	559.77
41.9382	528.59
41.9527	521.97
41.9671	554.67
41.9815	552.94
41.9960	537.61
42.0104	558.59
42.0249	601.75
42.0393	566.94
42.0537	564.80
42.0682	579.85
42.0826	556.88
42.0971	593.94
42.1115	589.90
42.1259	588.91
42.1404	600.11
42.1548	617.53
42.1693	674.51
42.1837	697.86
42.1981	714.15
42.2126	811.75
42.2270	912.51
42.2415	1062.78
42.2559	1156.25
42.2703	1277.18
42.2848	1437.01
42.2992	1502.65
42.3137	1594.58
42.3281	1629.67
42.3425	1505.45
42.3570	1390.50
42.3714	1321.06
42.3859	1339.76
42.4003	1302.92
42.4147	1226.87
42.4292	1196.80
42.4436	1090.24
42.4581	1027.99
42.4725	930.35
42.4869	804.34
42.5014	738.47
42.5158	725.41
42.5303	645.51
42.5447	605.59
42.5591	602.78
42.5736	551.16
42.5880	548.89
42.6025	569.68
42.6169	535.44
42.6313	533.32
42.6458	555.95
42.6602	551.07
42.6747	542.13
42.6891	561.35
42.7035	547.54
42.7180	521.17
42.7324	539.30
42.7469	541.36
42.7613	542.05
42.7757	545.86
42.7902	509.15
42.8046	512.43
42.8191	496.30
42.8335	505.03
42.8479	490.47
42.8624	524.26
42.8768	526.58
42.8913	523.53
42.9057	544.95
42.9201	534.20
42.9346	533.06
42.9490	511.77
42.9635	535.77
42.9779	534.50
42.9923	497.08
43.0068	489.52
43.0212	511.29
43.0357	509.42
43.0501	484.61
43.0645	505.99
43.0790	554.05
43.0934	572.22
43.1079	509.16
43.1223	510.00
43.1367	506.92
43.1512	518.51
43.1656	565.03
43.1801	514.24
43.1945	515.93
43.2089	555.42
43.2234	572.68
43.2378	564.88
43.2523	556.41
43.2667	524.05
43.2811	522.72
43.2956	524.36
43.3100	515.61
43.3245	516.43
43.3389	533.67
43.3533	500.33
43.3678	479.74
43.3822	518.56
43.3967	507.75
43.4111	511.90
43.4255	526.35
43.4400	508.74
43.4544	534.15
43.4689	520.85
43.4833	517.21
43.4977	515.16
43.5122	507.39
43.5266	541.69
43.5411	542.38
43.5555	535.01
43.5699	527.56
43.5844	508.95
43.5988	525.60
43.6133	520.93
43.6277	514.62
43.6421	520.65
43.6566	531.66
43.6710	530.00
43.6855	486.35
43.6999	508.60
43.7143	544.71
43.7288	543.00
43.7432	522.92
43.7577	506.46
43.7721	524.05
43.7865	561.91
43.8010	544.08
43.8154	563.24
43.8299	504.39
43.8443	519.83
43.8587	516.40
43.8732	551.82
43.8876	536.77
43.9021	518.85
43.9165	512.96
43.9309	531.68
43.9454	529.71
43.9598	520.42
43.9743	510.96
43.9887	532.05
44.0031	555.69
44.0176	577.22
44.0320	569.41
44.0465	589.94
44.0609	612.10
44.0753	577.54
44.0898	625.98
44.1042	604.49
44.1187	629.52
44.1331	613.43
44.1475	568.69
44.1620	571.41
44.1764	588.97
44.1909	595.32
44.2053	596.04
44.2197	608.73
44.2342	606.40
44.2486	572.16
44.2631	574.73
44.2775	577.09
44.2919	540.71
44.3064	541.48
44.3208	551.97
44.3353	565.61
44.3497	542.30
44.3641	511.09
44.3786	545.24
44.3930	522.10
44.4075	543.20
44.4219	559.12
44.4363	594.58
44.4508	537.52
44.4652	585.64
44.4797	575.75
44.4941	578.89
44.5085	575.11
44.5230	588.79
44.5374	571.67
44.5519	587.80
44.5663	560.80
44.5807	543.57
44.5952	552.76
44.6096	584.57
44.6241	588.43
44.6385	601.26
44.6529	603.75
44.6674	610.60
44.6818	609.60
44.6963	602.62
44.7107	722.42
44.7251	732.52
44.7396	759.68
44.7540	762.27
44.7685	810.39
44.7829	864.24
44.7973	846.20
44.8118	891.19
44.8262	798.88
44.8407	783.73
44.8551	731.06
44.8695	772.24
44.8840	743.74
44.8984	763.68
44.9129	701.48
44.9273	708.55
44.9417	673.52
44.9562	631.53
44.9706	594.44
44.9851	545.43
44.9995	532.82
45.0139	555.57
45.0284	503.25
45.0428	476.58
45.0573	504.45
45.0717	531.31
45.0861	517.60
45.1006	532.30
45.1150	540.57
45.1295	527.23
45.1439	515.56
45.1583	473.81
45.1728	511.32
45.1872	526.41
45.2017	511.30
45.2161	519.01
45.2305	499.64
45.2450	481.42
45.2594	510.47
45.2739	514.29
45.2883	517.65
45.3028	535.10
45.3172	480.64
45.3316	488.52
45.3461	496.15
45.3605	505.00
45.3750	472.43
45.3894	483.83
45.4038	503.16
45.4183	528.07
45.4327	548.13
45.4472	503.95
45.4616	513.81
45.4760	518.74
45.4905	490.84
45.5049	462.16
45.5194	488.41
45.5338	522.53
45.5482	500.66
45.5627	505.51
45.5771	532.83
45.5916	527.06
45.6060	499.66
45.6204	487.52
45.6349	524.42
45.6493	520.22
45.6638	512.16
45.6782	488.79
45.6926	522.53
45.7071	540.20
45.7215	495.01
45.7360	495.82
45.7504	529.51
45.7648	504.47
45.7793	540.52
45.7937	527.86
45.8082	540.51
45.8226	522.69
45.8370	526.09
45.8515	508.20
45.8659	535.98
45.8804	504.99
45.8948	494.39
45.9092	525.31
45.9237	528.47
45.9381	521.69
45.9526	506.26
45.9670	501.71
45.9814	506.60
45.9959	529.14
46.0103	504.10
46.0248	534.08
46.0392	520.39
46.0536	516.75
46.0681	504.20
46.0825	529.81
46.0970	532.17
46.1114	516.08
46.1258	515.97
46.1403	518.51
46.1547	521.47
46.1692	493.57
46.1836	481.02
46.1980	486.39
46.2125	499.98
46.2269	509.15
46.2414	503.33
46.2558	479.90
46.2702	490.17
46.2847	512.53
46.2991	501.91
46.3136	521.86
46.3280	528.95
46.3424	500.14
46.3569	508.34
46.3713	505.03
46.3858	504.18
46.4002	526.89
46.4146	496.12
46.4291	515.94
46.4435	504.06
46.4580	492.67
46.4724	484.54
46.4868	465.91
46.5013	470.38
46.5157	487.30
46.5302	507.17
46.5446	525.93
46.5590	503.11
46.5735	504.41
46.5879	512.22
46.6024	510.53
46.6168	516.17
46.6312	483.23
46.6457	503.00
46.6601	493.72
46.6746	540.96
46.6890	521.46
46.7034	522.79
46.7179	502.51
46.7323	482.34
46.7468	509.34
46.7612	491.33
46.7756	489.19
46.7901	489.79
46.8045	511.91
46.8190	530.26
46.8334	510.08
46.8478	525.76
46.8623	505.07
46.8767	496.02
46.8912	464.03
46.9056	469.63
46.9200	480.72
46.9345	468.64
46.9489	475.84
46.9634	513.58
46.9778	533.76
46.9922	530.18
47.0067	513.31
47.0211	537.02
47.0356	527.53
47.0500	498.99
47.0644	504.96
47.0789	488.75
47.0933	533.13
47.1078	532.75
47.1222	533.14
47.1366	536.37
47.1511	518.14
47.1655	533.31
47.1800	508.39
47.1944	539.78
47.2088	500.23
47.2233	487.90
47.2377	500.31
47.2522	514.57
47.2666	490.20
47.2810	488.18
47.2955	474.51
47.3099	482.37
47.3244	500.39
47.3388	509.85
47.3532	506.94
47.3677	504.36
47.3821	499.50
47.3966	488.09
47.4110	522.80
47.4254	544.85
47.4399	550.12
47.4543	503.00
47.4688	519.75
47.4832	510.82
47.4976	517.01
47.5121	494.57
47.5265	497.75
47.5410	510.53
47.5554	513.99
47.5698	503.68
47.5843	506.33
47.5987	514.92
47.6132	507.87
47.6276	496.57
47.6420	536.19
47.6565	506.34
47.6709	462.20
47.6854	508.32
47.6998	513.30
47.7142	536.84
47.7287	473.87
47.7431	482.22
47.7576	489.32
47.7720	504.81
47.7864	543.32
47.8009	493.48
47.8153	505.20
47.8298	487.60
47.8442	478.41
47.8586	527.77
47.8731	530.51
47.8875	518.28
47.9020	513.13
47.9164	505.72
47.9308	488.34
47.9453	519.02
47.9597	505.52
47.9742	500.91
47.9886	492.80
48.0030	524.68
48.0175	507.43
48.0319	508.35
48.0464	516.36
48.0608	511.68
48.0752	510.77
48.0897	526.31
48.1041	508.62
48.1186	490.12
48.1330	520.26
48.1474	484.14
48.1619	498.08
48.1763	528.19
48.1908	522.80
48.2052	530.00
48.2196	517.94
48.2341	485.15
48.2485	502.17
48.2630	465.39
48.2774	513.52
48.2918	518.00
48.3063	515.85
48.3207	502.32
48.3352	553.32
48.3496	523.22
48.3640	514.80
48.3785	516.76
48.3929	497.29
48.4074	516.36
48.4218	520.80
48.4362	518.88
48.4507	481.98
48.4651	508.50
48.4796	499.09
48.4940	506.43
48.5084	496.63
48.5229	551.60
48.5373	522.69
48.5518	525.25
48.5662	484.19
48.5806	493.54
48.5951	509.78
48.6095	518.19
48.6240	534.80
48.6384	533.50
48.6528	534.56
48.6673	522.67
48.6817	514.16
48.6962	519.78
48.7106	541.31
48.7250	534.80
48.7395	506.32
48.7539	528.01
48.7684	494.32
48.7828	535.80
48.7972	532.38
48.8117	514.51
48.8261	538.50
48.8406	510.39
48.8550	536.77
48.8694	549.72
48.8839	564.97
48.8983	538.52
48.9128	542.58
48.9272	547.93
48.9416	567.39
48.9561	546.81
48.9705	542.79
48.9850	547.92
48.9994	552.24
49.0139	610.40
49.0283	659.33
49.0427	583.86
49.0572	626.01
49.0716	630.85
49.0861	672.55
49.1005	649.17
49.1149	677.41
49.1294	712.99
49.1438	737.39
49.1583	779.42
49.1727	845.10
49.1871	911.88
49.2016	922.71
49.2160	994.98
49.2305	1070.40
49.2449	1172.10
49.2593	1238.14
49.2738	1289.33
49.2882	1420.72
49.3027	1491.93
49.3171	1580.07
49.3315	1691.99
49.3460	1718.21
49.3604	1789.40
49.3749	1722.18
49.3893	1760.74
49.4037	1682.27
49.4182	1707.41
49.4326	1686.97
49.4471	1624.65
49.4615	1546.21
49.4759	1520.16
49.4904	1481.85
49.5048	1374.88
49.5193	1303.44
49.5337	1245.38
49.5481	1162.07
49.5626	1131.02
49.5770	1046.23
49.5915	908.56
49.6059	914.69
49.6203	845.83
49.6348	825.53
49.6492	797.79
49.6637	714.50
49.6781	681.40
49.6925	690.70
49.7070	687.44
49.7214	683.39
49.7359	634.93
49.7503	621.41
49.7647	577.18
49.7792	602.89
49.7936	575.07
49.8081	575.80
49.8225	600.80
49.8369	576.16
49.8514	553.37
49.8658	575.67
49.8803	569.82
49.8947	586.38
49.9091	574.60
49.9236	537.53
49.9380	506.13
49.9525	510.25
49.9669	486.34
49.9813	515.79
49.9958	539.33
50.0102	552.79
50.0247	563.09
50.0391	523.60
50.0535	494.70
50.0680	539.77
50.0824	524.14
50.0969	560.41
50.1113	526.86
50.1257	524.09
50.1402	502.58
50.1546	525.53
50.1691	499.81
50.1835	511.65
50.1979	497.54
50.2124	525.67
50.2268	529.56
50.2413	529.41
50.2557	481.24
50.2701	533.94
50.2846	541.53
50.2990	552.72
50.3135	522.31
50.3279	487.55
50.3423	474.75
50.3568	490.57
50.3712	489.41
50.3857	532.49
50.4001	478.24
50.4145	478.34
50.4290	510.09
50.4434	511.15
50.4579	513.98
50.4723	542.20
50.4867	522.30
50.5012	510.25
50.5156	510.97
50.5301	511.90
50.5445	536.96
50.5589	529.87
50.5734	513.76
50.5878	499.94
50.6023	495.97
50.6167	514.97
50.6311	509.03
50.6456	504.71
50.6600	465.85
50.6745	514.97
50.6889	517.28
50.7033	518.44
50.7178	530.48
50.7322	504.19
50.7467	523.76
50.7611	485.15
50.7755	506.37
50.7900	505.17
50.8044	474.64
50.8189	487.35
50.8333	521.45
50.8477	498.29
50.8622	512.52
50.8766	529.75
50.8911	533.94
50.9055	574.35
50.9199	536.43
50.9344	511.87
50.9488	503.62
50.9633	518.61
50.9777	493.84
50.9921	514.23
51.0066	541.38
51.0210	539.05
51.0355	499.05
51.0499	499.06
51.0643	508.49
51.0788	516.81
51.0932	519.61
51.1077	514.50
51.1221	529.66
51.1365	522.03
51.1510	475.53
51.1654	499.34
51.1799	537.71
51.1943	503.86
51.2087	508.73
51.2232	483.91
51.2376	545.84
51.2521	538.81
51.2665	507.94
51.2809	515.81
51.2954	516.47
51.3098	525.37
51.3243	541.25
51.3387	509.53
51.3531	516.05
51.3676	540.04
51.3820	520.08
51.3965	497.04
51.4109	490.63
51.4253	512.32
51.4398	515.47
51.4542	496.34
51.4687	526.97
51.4831	515.55
51.4975	516.34
51.5120	504.50
51.5264	498.71
51.5409	572.82
51.5553	529.20
51.5697	519.60
51.5842	489.36
51.5986	491.76
51.6131	512.86
51.6275	518.92
51.6419	497.91
51.6564	508.14
51.6708	508.74
51.6853	497.66
51.6997	507.35
51.7141	568.74
51.7286	500.86
51.7430	506.71
51.7575	491.46
51.7719	490.25
51.7863	514.83
51.8008	508.03
51.8152	517.60
51.8297	520.85
51.8441	499.80
51.8585	483.53
51.8730	508.09
51.8874	504.06
51.9019	546.40
51.9163	529.98
51.9307	523.17
51.9452	525.73
51.9596	494.82
51.9741	495.20
51.9885	513.12
52.0029	515.54
52.0174	497.14
52.0318	494.87
52.0463	506.80
52.0607	508.45
52.0751	523.29
52.0896	490.71
52.1040	515.39
52.1185	499.75
52.1329	532.98
52.1473	511.90
52.1618	546.36
52.1762	504.33
52.1907	483.18
52.2051	505.88
52.2195	510.01
52.2340	507.19
52.2484	532.30
52.2629	518.51
52.2773	481.60
52.2917	499.23
52.3062	496.50
52.3206	490.34
52.3351	558.71
52.3495	511.42
52.3639	535.04
52.3784	495.29
52.3928	468.40
52.4073	513.75
52.4217	550.96
52.4361	523.42
52.4506	512.43
52.4650	523.41
52.4795	519.33
52.4939	491.89
52.5083	499.98
52.5228	513.49
52.5372	525.48
52.5517	519.83
52.5661	523.88
52.5805	477.89
52.5950	512.35
52.6094	492.83
52.6239	499.97
52.6383	493.16
52.6527	512.52
52.6672	495.80
52.6816	512.89
52.6961	509.59
52.7105	550.22
52.7250	507.91
52.7394	488.77
52.7538	515.95
52.7683	497.99
52.7827	521.02
52.7972	489.00
52.8116	510.29
52.8260	492.98
52.8405	539.73
52.8549	504.15
52.8694	532.12
52.8838	525.32
52.8982	496.78
52.9127	535.72
52.9271	485.42
52.9416	518.74
52.9560	482.46
52.9704	555.75
52.9849	519.43
52.9993	493.94
53.0138	496.84
53.0282	510.05
53.0426	518.81
53.0571	540.07
53.0715	531.58
53.0860	575.65
53.1004	515.09
53.1148	542.96
53.1293	532.86
53.1437	520.55
53.1582	489.79
53.1726	518.40
53.1870	478.48
53.2015	499.80
53.2159	528.06
53.2304	494.20
53.2448	499.22
53.2592	522.06
53.2737	514.88
53.2881	510.38
53.3026	514.76
53.3170	497.50
53.3314	482.16
53.3459	523.40
53.3603	500.66
53.3748	500.54
53.3892	507.60
53.4036	519.81
53.4181	515.35
53.4325	528.06
53.4470	511.27
53.4614	505.65
53.4758	538.16
53.4903	546.72
53.5047	524.52
53.5192	497.28
53.5336	536.64
53.5480	537.42
53.5625	522.38
53.5769	505.58
53.5914	498.00
53.6058	511.57
53.6202	502.88
53.6347	538.57
53.6491	528.51
53.6636	525.83
53.6780	465.53
53.6924	506.80
53.7069	517.69
53.7213	518.51
53.7358	528.06
53.7502	521.48
53.7646	503.22
53.7791	516.56
53.7935	520.27
53.8080	550.57
53.8224	557.14
53.8368	520.28
53.8513	515.52
53.8657	528.22
53.8802	533.56
53.8946	539.46
53.9090	514.71
53.9235	532.76
53.9379	520.33
53.9524	529.41
53.9668	504.87
53.9812	478.30
53.9957	510.39
54.0101	521.04
54.0246	527.79
54.0390	501.95
54.0534	498.14
54.0679	525.08
54.0823	553.06
54.0968	525.60
54.1112	508.95
54.1256	515.48
54.1401	488.78
54.1545	505.10
54.1690	522.43
54.1834	531.09
54.1978	519.26
54.2123	505.74
54.2267	532.37
54.2412	547.57
54.2556	505.01
54.2700	516.61
54.2845	541.38
54.2989	484.56
54.3134	498.97
54.3278	574.12
54.3422	558.83
54.3567	520.16
54.3711	530.86
54.3856	504.66
54.4000	518.92
54.4144	524.37
54.4289	533.47
54.4433	534.94
54.4578	519.51
54.4722	557.82
54.4866	531.69
54.5011	496.24
54.5155	514.11
54.5300	504.35
54.5444	538.21
54.5588	559.86
54.5733	538.58
54.5877	548.13
54.6022	559.18
54.6166	546.85
54.6310	554.51
54.6455	557.82
54.6599	547.98
54.6744	547.98
54.6888	556.35
54.7032	575.70
54.7177	588.33
54.7321	569.45
54.7466	578.29
54.7610	568.12
54.7754	588.77
54.7899	611.23
54.8043	581.48
54.8188	579.64
54.8332	568.54
54.8476	558.47
54.8621	596.31
54.8765	619.98
54.8910	588.06
54.9054	606.86
54.9198	586.57
54.9343	597.42
54.9487	549.47
54.9632	552.84
54.9776	538.93
54.9920	553.19
55.0065	547.66
55.0209	537.53
55.0354	569.39
55.0498	559.50
55.0642	544.45
55.0787	538.25
55.0931	553.10
55.1076	522.02
55.1220	531.41
55.1364	535.23
55.1509	529.65
55.1653	509.01
55.1798	529.07
55.1942	531.29
55.2086	537.99
55.2231	537.46
55.2375	527.79
55.2520	538.00
55.2664	551.64
55.2808	513.32
55.2953	499.23
55.3097	509.62
55.3242	525.40
55.3386	525.78
55.3530	519.47
55.3675	539.66
55.3819	499.54
55.3964	505.81
55.4108	518.84
55.4252	528.51
55.4397	533.15
55.4541	516.44
55.4686	534.00
55.4830	516.13
55.4974	550.87
55.5119	535.73
55.5263	553.11
55.5408	547.32
55.5552	540.28
55.5696	508.25
55.5841	520.10
55.5985	530.01
55.6130	527.42
55.6274	533.15
55.6418	521.78
55.6563	534.71
55.6707	523.43
55.6852	508.69
55.6996	540.61
55.7140	526.97
55.7285	506.86
55.7429	543.61
55.7574	505.36
55.7718	524.90
55.7862	539.01
55.8007	530.46
55.8151	502.30
55.8296	511.42
55.8440	533.84
55.8584	513.22
55.8729	544.41
55.8873	530.45
55.9018	525.79
55.9162	507.13
55.9306	513.75
55.9451	516.19
55.9595	503.76
55.9740	474.42
55.9884	500.92
56.0028	479.85
56.0173	532.90
56.0317	518.40
56.0462	512.97
56.0606	504.04
56.0750	508.54
56.0895	526.30
56.1039	493.19
56.1184	549.09
56.1328	550.05
56.1472	541.66
56.1617	555.82
56.1761	529.70
56.1906	498.50
56.2050	509.52
56.2194	502.28
56.2339	513.03
56.2483	493.46
56.2628	484.74
56.2772	547.98
56.2916	482.27
56.3061	509.33
56.3205	522.89
56.3350	549.07
56.3494	571.74
56.3639	506.30
56.3783	533.87
56.3927	519.26
56.4072	497.88
56.4216	528.63
56.4361	521.21
56.4505	521.40
56.4649	509.89
56.4794	533.60
56.4938	532.99
56.5083	511.22
56.5227	507.56
56.5371	528.01
56.5516	534.28
56.5660	534.02
56.5805	493.57
56.5949	494.17
56.6093	532.51
56.6238	505.48
56.6382	537.41
56.6527	509.19
56.6671	509.69
56.6815	554.82
56.6960	466.38
56.7104	507.03
56.7249	522.90
56.7393	509.01
56.7537	548.61
56.7682	517.36
56.7826	531.35
56.7971	506.31
56.8115	492.11
56.8259	515.97
56.8404	553.94
56.8548	512.26
56.8693	515.54
56.8837	488.88
56.8981	509.34
56.9126	538.13
56.9270	518.67
56.9415	486.58
56.9559	512.84
56.9703	541.74
56.9848	541.78
56.9992	537.71
57.0137	537.09
57.0281	534.78
57.0425	533.96
57.0570	565.74
57.0714	521.69
57.0859	513.77
57.1003	545.62
57.1147	535.36
57.1292	534.84
57.1436	508.66
57.1581	537.40
57.1725	548.05
57.1869	507.41
57.2014	509.94
57.2158	494.14
57.2303	523.92
57.2447	536.03
57.2591	497.45
57.2736	524.48
57.2880	501.65
57.3025	521.20
57.3169	482.61
57.3313	509.53
57.3458	527.40
57.3602	506.22
57.3747	533.48
57.3891	508.08
57.4035	477.36
57.4180	527.66
57.4324	566.90
57.4469	519.57
57.4613	512.96
57.4757	514.84
57.4902	529.55
57.5046	510.21
57.5191	501.11
57.5335	528.20
57.5479	543.13
57.5624	524.65
57.5768	506.35
57.5913	536.76
57.6057	532.92
57.6201	535.83
57.6346	522.07
57.6490	521.94
57.6635	516.48
57.6779	504.06
57.6923	506.28
57.7068	540.51
57.7212	538.43
57.7357	534.55
57.7501	520.16
57.7645	555.00
57.7790	536.96
57.7934	579.15
57.8079	557.53
57.8223	525.48
57.8367	560.23
57.8512	516.16
57.8656	534.53
57.8801	515.68
57.8945	551.09
57.9089	533.43
57.9234	536.51
57.9378	560.62
57.9523	538.69
57.9667	498.31
57.9811	532.73
57.9956	578.70
58.0100	590.34
58.0245	573.06
58.0389	551.39
58.0533	534.86
58.0678	546.43
58.0822	560.91
58.0967	539.09
58.1111	554.15
58.1255	603.71
58.1400	570.68
58.1544	525.66
58.1689	553.01
58.1833	568.00
58.1977	563.60
58.2122	573.40
58.2266	580.86
58.2411	617.51
58.2555	626.60
58.2699	613.42
58.2844	615.20
58.2988	578.93
58.3133	627.93
58.3277	636.81
58.3421	663.05
58.3566	652.71
58.3710	643.32
58.3855	637.13
58.3999	658.86
58.4143	641.90
58.4288	669.82
58.4432	655.25
58.4577	645.01
58.4721	673.22
58.4865	637.97
58.5010	618.58
58.5154	629.32
58.5299	634.84
58.5443	631.52
58.5587	609.52
58.5732	613.33
58.5876	605.06
58.6021	583.81
58.6165	600.09
58.6309	594.40
58.6454	592.26
58.6598	548.83
58.6743	569.69
58.6887	554.66
58.7031	528.59
58.7176	569.98
58.7320	559.24
58.7465	532.49
58.7609	504.99
58.7753	539.29
58.7898	547.54
58.8042	557.80
58.8187	544.85
58.8331	518.33
58.8475	530.74
58.8620	554.63
58.8764	564.22
58.8909	551.07
58.9053	578.73
58.9197	556.25
58.9342	555.63
58.9486	559.20
58.9631	555.59
58.9775	579.48
58.9919	529.58
59.0064	516.43
59.0208	523.21
59.0353	506.42
59.0497	533.16
59.0641	556.29
59.0786	562.71
59.0930	569.18
59.1075	516.27
59.1219	530.30
59.1363	541.48
59.1508	484.90
59.1652	544.73
59.1797	575.42
59.1941	558.35
59.2085	556.72
59.2230	564.34
59.2374	531.25
59.2519	534.68
59.2663	568.19
59.2807	575.33
59.2952	529.75
59.3096	524.67
59.3241	542.98
59.3385	557.62
59.3529	581.88
59.3674	591.58
59.3818	587.75
59.3963	548.10
59.4107	549.22
59.4251	600.46
59.4396	549.78
59.4540	538.86
59.4685	547.40
59.4829	552.70
59.4973	593.29
59.5118	569.96
59.5262	544.65
59.5407	555.57
59.5551	562.65
59.5695	568.96
59.5840	546.16
59.5984	548.14
59.6129	556.55
59.6273	528.70
59.6417	518.69
59.6562	553.87
59.6706	552.30
59.6851	552.27
59.6995	536.50
59.7139	539.69
59.7284	528.02
59.7428	524.40
59.7573	534.04
59.7717	549.85
59.7861	555.01
59.8006	546.66
59.8150	558.30
59.8295	536.95
59.8439	502.89
59.8583	560.65
59.8728	540.75
59.8872	530.31
59.9017	545.30
59.9161	486.11
59.9305	501.27
59.9450	545.75
59.9594	532.39
59.9739	544.86
59.9883	573.89
60.0027	574.17
60.0172	535.30
60.0316	538.85
60.0461	537.83
60.0605	574.66
60.0750	544.18
60.0894	523.29
60.1038	531.76
60.1183	552.70
60.1327	539.63
60.1472	520.66
60.1616	524.24
60.1760	520.20
60.1905	532.64
60.2049	535.65
60.2194	539.88
60.2338	524.29
60.2482	533.96
60.2627	559.53
60.2771	539.59
60.2916	558.38
60.3060	523.21
60.3204	537.05
60.3349	546.03
60.3493	537.65
60.3638	543.17
60.3782	518.05
60.3926	544.36
60.4071	535.24
60.4215	546.49
60.4360	572.46
60.4504	540.56
60.4648	554.96
60.4793	553.24
60.4937	577.47
60.5082	571.14
60.5226	541.21
60.5370	544.42
60.5515	514.61
60.5659	566.12
60.5804	508.93
60.5948	524.71
60.6092	542.99
60.6237	531.69
60.6381	542.93
60.6526	553.76
60.6670	514.56
60.6814	504.47
60.6959	555.19
60.7103	531.80
60.7248	529.57
60.7392	526.01
60.7536	538.63
60.7681	503.33
60.7825	561.37
60.7970	527.13
60.8114	552.40
60.8258	537.20
60.8403	553.05
60.8547	528.69
60.8692	546.34
60.8836	560.31
60.8980	559.41
60.9125	543.46
60.9269	538.16
60.9414	568.26
60.9558	560.49
60.9702	516.54
60.9847	536.40
60.9991	550.62
61.0136	526.99
61.0280	581.47
61.0424	560.89
61.0569	527.04
61.0713	547.28
61.0858	544.26
61.1002	535.77
61.1146	527.49
61.1291	598.22
61.1435	547.04
61.1580	570.59
61.1724	526.63
61.1868	539.74
61.2013	521.29
61.2157	542.26
61.2302	541.98
61.2446	509.45
61.2590	560.36
61.2735	545.54
61.2879	556.42
61.3024	541.45
61.3168	583.51
61.3312	607.68
61.3457	581.42
61.3601	542.76
61.3746	544.35
61.3890	529.60
61.4034	530.99
61.4179	552.50
61.4323	596.34
61.4468	549.09
61.4612	510.10
61.4756	572.87
61.4901	517.41
61.5045	538.07
61.5190	505.99
61.5334	555.63
61.5478	530.67
61.5623	541.10
61.5767	550.13
61.5912	562.18
61.6056	532.81
61.6200	498.54
61.6345	562.65
61.6489	570.41
61.6634	568.10
61.6778	507.48
61.6922	510.76
61.7067	546.46
61.7211	545.97
61.7356	551.88
61.7500	531.09
61.7644	527.35
61.7789	558.47
61.7933	578.55
61.8078	570.31
61.8222	555.44
61.8366	555.31
61.8511	546.91
61.8655	568.90
61.8800	555.17
61.8944	573.38
61.9088	583.42
61.9233	552.93
61.9377	533.93
61.9522	554.47
61.9666	562.18
61.9810	546.31
61.9955	531.65
62.0099	526.41
62.0244	552.14
62.0388	586.96
62.0532	579.20
62.0677	535.95
62.0821	573.82
62.0966	567.24
62.1110	578.29
62.1254	566.86
62.1399	564.80
62.1543	538.06
62.1688	553.80
62.1832	537.06
62.1976	524.61
62.2121	550.42
62.2265	553.45
62.2410	557.42
62.2554	555.05
62.2698	540.46
62.2843	568.57
62.2987	549.74
62.3132	596.76
62.3276	611.15
62.3420	565.25
62.3565	533.88
62.3709	525.16
62.3854	532.99
62.3998	534.69
62.4142	584.10
62.4287	609.94
62.4431	556.12
62.4576	555.74
62.4720	601.26
62.4864	562.51
62.5009	543.40
62.5153	575.23
62.5298	564.98
62.5442	555.77
62.5586	534.42
62.5731	523.92
62.5875	548.97
62.6020	534.89
62.6164	563.62
62.6308	537.76
62.6453	532.11
62.6597	561.78
62.6742	563.51
62.6886	515.13
62.7030	563.76
62.7175	572.66
62.7319	565.49
62.7464	586.92
62.7608	562.39
62.7752	553.43
62.7897	537.58
62.8041	539.62
62.8186	561.91
62.8330	556.84
62.8474	526.06
62.8619	541.15
62.8763	536.56
62.8908	567.89
62.9052	619.83
62.9196	574.07
62.9341	585.90
62.9485	613.18
62.9630	553.18
62.9774	527.18
62.9918	531.91
63.0063	531.14
63.0207	545.69
63.0352	567.40
63.0496	541.94
63.0640	558.50
63.0785	575.34
63.0929	552.47
63.1074	576.33
63.1218	575.42
63.1362	553.71
63.1507	548.86
63.1651	584.66
63.1796	581.59
63.1940	567.01
63.2084	570.13
63.2229	576.58
63.2373	568.54
63.2518	578.15
63.2662	567.78
63.2806	568.15
63.2951	546.31
63.3095	568.90
63.3240	594.05
63.3384	587.03
63.3528	554.92
63.3673	585.01
63.3817	579.22
63.3962	587.32
63.4106	603.52
63.4250	579.95
63.4395	584.60
63.4539	558.14
63.4684	577.66
63.4828	584.09
63.4972	594.30
63.5117	562.53
63.5261	572.14
63.5406	577.28
63.5550	591.80
63.5694	597.05
63.5839	571.04
63.5983	587.10
63.6128	603.45
63.6272	594.04
63.6416	599.33
63.6561	625.39
63.6705	601.67
63.6850	566.94
63.6994	578.05
63.7138	592.67
63.7283	587.70
63.7427	583.85
63.7572	594.19
63.7716	595.79
63.7861	596.11
63.8005	613.59
63.8149	620.77
63.8294	622.91
63.8438	618.31
63.8583	647.83
63.8727	630.98
63.8871	606.24
63.9016	654.93
63.9160	645.22
63.9305	670.51
63.9449	695.87
63.9593	672.57
63.9738	676.83
63.9882	649.12
64.0027	648.37
64.0171	737.98
64.0315	726.21
64.0460	736.92
64.0604	760.59
64.0749	775.65
64.0893	779.84
64.1037	821.11
64.1182	843.02
64.1326	812.50
64.1471	739.42
64.1615	783.71
64.1759	831.83
64.1904	750.38
64.2048	751.50
64.2193	785.94
64.2337	769.15
64.2481	776.66
64.2626	774.42
64.2770	750.76
64.2915	741.65
64.3059	791.04
64.3203	729.39
64.3348	743.14
64.3492	722.28
64.3637	768.09
64.3781	676.29
64.3925	682.35
64.4070	705.67
64.4214	689.88
64.4359	690.73
64.4503	623.18
64.4647	679.86
64.4792	678.99
64.4936	668.69
64.5081	669.01
64.5225	655.02
64.5369	652.25
64.5514	629.27
64.5658	660.85
64.5803	655.44
64.5947	657.55
64.6091	702.26
64.6236	691.29
64.6380	721.54
64.6525	670.47
64.6669	675.26
64.6813	668.49
64.6958	674.39
64.7102	719.00
64.7247	703.13
64.7391	671.15
64.7535	709.11
64.7680	712.61
64.7824	747.53
64.7969	693.60
64.8113	709.10
64.8257	807.44
64.8402	823.75
64.8546	839.33
64.8691	852.82
64.8835	858.97
64.8979	862.54
64.9124	834.17
64.9268	901.20
64.9413	920.71
64.9557	880.54
64.9701	998.69
64.9846	1056.55
64.9990	1148.51
65.0135	1305.77
65.0279	1447.18
65.0423	1727.47
65.0568	2092.49
65.0712	2698.00
65.0857	3721.83
65.1001	4841.71
65.1145	6551.24
65.1290	8373.04
65.1434	10057.61
65.1579	11402.23
65.1723	11892.35
65.1867	11289.52
65.2012	9666.94
65.2156	8193.51
65.2301	6336.61
65.2445	5234.71
65.2589	4415.89
65.2734	4173.79
65.2878	4537.86
65.3023	5137.42
65.3167	5990.31
65.3311	6678.31
65.3456	6986.94
65.3600	6997.35
65.3745	6300.49
65.3889	5530.21
65.4033	4235.51
65.4178	3365.02
65.4322	2661.99
65.4467	2014.38
65.4611	1632.99
65.4755	1455.38
65.4900	1290.01
65.5044	1111.35
65.5189	1017.52
65.5333	974.01
65.5477	911.63
65.5622	924.96
65.5766	888.98
65.5911	821.12
65.6055	777.89
65.6199	800.01
65.6344	762.61
65.6488	720.25
65.6633	711.59
65.6777	732.84
65.6921	695.67
65.7066	741.89
65.7210	702.59
65.7355	673.25
65.7499	669.81
65.7643	667.67
65.7788	683.78
65.7932	684.09
65.8077	670.01
65.8221	663.88
65.8365	675.91
65.8510	648.91
65.8654	676.57
65.8799	663.33
65.8943	640.70
65.9087	697.70
65.9232	645.68
65.9376	617.29
65.9521	646.03
65.9665	650.03
65.9809	629.72
65.9954	649.47
66.0098	665.61
66.0243	676.30
66.0387	669.30
66.0531	603.61
66.0676	613.46
66.0820	655.37
66.0965	626.84
66.1109	595.34
66.1253	616.76
66.1398	623.10
66.1542	592.22
66.1687	639.57
66.1831	613.14
66.1975	602.49
66.2120	598.62
66.2264	594.10
66.2409	607.10
66.2553	635.76
66.2697	611.86
66.2842	634.91
66.2986	633.98
66.3131	606.64
66.3275	595.43
66.3419	618.50
66.3564	589.84
66.3708	617.81
66.3853	632.57
66.3997	584.38
66.4141	590.10
66.4286	619.43
66.4430	613.14
66.4575	616.85
66.4719	659.82
66.4863	634.53
66.5008	625.43
66.5152	603.69
66.5297	599.95
66.5441	612.17
66.5585	611.47
66.5730	573.83
66.5874	594.88
66.6019	633.99
66.6163	607.58
66.6307	594.98
66.6452	575.67
66.6596	589.46
66.6741	574.28
66.6885	562.70
66.7029	580.91
66.7174	626.30
66.7318	594.65
66.7463	586.49
66.7607	574.40
66.7751	604.91
66.7896	596.05
66.8040	584.03
66.8185	602.78
66.8329	576.49
66.8473	572.65
66.8618	608.09
66.8762	595.85
66.8907	568.99
66.9051	594.27
66.9195	582.01
66.9340	614.56
66.9484	624.55
66.9629	558.96
66.9773	592.05
66.9917	601.55
67.0062	559.13
67.0206	577.69
67.0351	569.64
67.0495	568.12
67.0639	598.22
67.0784	579.29
67.0928	585.81
67.1073	607.29
67.1217	596.37
67.1361	577.39
67.1506	556.49
67.1650	574.46
67.1795	579.10
67.1939	545.08
67.2083	559.01
67.2228	591.48
67.2372	589.32
67.2517	601.61
67.2661	564.27
67.2805	609.56
67.2950	607.25
67.3094	579.45
67.3239	611.90
67.3383	597.14
67.3527	586.46
67.3672	587.66
67.3816	571.30
67.3961	595.08
67.4105	589.38
67.4250	573.88
67.4394	569.79
67.4538	577.86
67.4683	594.93
67.4827	580.11
67.4972	589.48
67.5116	562.00
67.5260	561.50
67.5405	592.47
67.5549	601.62
67.5694	591.72
67.5838	567.89
67.5982	579.35
67.6127	599.55
67.6271	595.06
67.6416	610.55
67.6560	570.88
67.6704	551.43
67.6849	580.04
67.6993	581.51
67.7138	604.38
67.7282	548.85
67.7426	519.29
67.7571	566.15
67.7715	571.21
67.7860	570.14
67.8004	549.85
67.8148	568.52
67.8293	546.39
67.8437	550.54
67.8582	588.28
67.8726	612.53
67.8870	581.40
67.9015	578.26
67.9159	582.05
67.9304	625.27
67.9448	582.18
67.9592	550.89
67.9737	594.05
67.9881	556.74
68.0026	583.79
68.0170	568.28
68.0314	579.17
68.0459	575.33
68.0603	564.31
68.0748	564.37
68.0892	620.79
68.1036	617.46
68.1181	601.63
68.1325	583.07
68.1470	586.81
68.1614	542.74
68.1758	580.29
68.1903	606.31
68.2047	587.24
68.2192	619.72
68.2336	549.46
68.2480	562.40
68.2625	586.87
68.2769	617.95
68.2914	595.55
68.3058	567.48
68.3202	589.53
68.3347	621.07
68.3491	595.62
68.3636	564.90
68.3780	584.58
68.3924	530.84
68.4069	525.52
68.4213	554.43
68.4358	580.00
68.4502	550.37
68.4646	587.28
68.4791	625.59
68.4935	572.15
68.5080	545.83
68.5224	547.34
68.5368	563.45
68.5513	541.03
68.5657	509.20
68.5802	560.13
68.5946	595.27
68.6090	573.42
68.6235	623.34
68.6379	600.32
68.6524	597.87
68.6668	591.07
68.6812	559.81
68.6957	548.40
68.7101	566.29
68.7246	618.18
68.7390	604.89
68.7534	582.41
68.7679	624.61
68.7823	582.63
68.7968	566.79
68.8112	602.44
68.8256	552.65
68.8401	510.62
68.8545	546.40
68.8690	576.82
68.8834	582.77
68.8978	553.97
68.9123	588.92
68.9267	577.59
68.9412	598.97
68.9556	566.66
68.9700	561.22
68.9845	578.67
68.9989	533.06
69.0134	571.54
69.0278	563.30
69.0422	561.13
69.0567	573.71
69.0711	526.12
69.0856	578.17
69.1000	557.13
69.1144	595.98
69.1289	625.98
69.1433	589.91
69.1578	573.43
69.1722	537.87
69.1866	616.37
69.2011	562.96
69.2155	589.05
69.2300	558.28
69.2444	566.02
69.2588	556.92
69.2733	578.19
69.2877	559.02
69.3022	590.38
69.3166	582.12
69.3310	563.07
69.3455	599.90
69.3599	589.96
69.3744	535.92
69.3888	589.20
69.4032	581.32
69.4177	535.53
69.4321	563.72
69.4466	553.98
69.4610	584.24
69.4754	576.54
69.4899	588.64
69.5043	591.05
69.5188	611.77
69.5332	634.89
69.5476	604.41
69.5621	543.51
69.5765	564.82
69.5910	554.18
69.6054	560.85
69.6198	554.37
69.6343	608.79
69.6487	583.15
69.6632	529.99
69.6776	603.40
69.6920	566.32
69.7065	576.85
69.7209	572.33
69.7354	531.74
69.7498	576.44
69.7642	555.78
69.7787	571.69
69.7931	602.34
69.8076	593.78
69.8220	563.21
69.8364	556.61
69.8509	565.08
69.8653	589.06
69.8798	582.77
69.8942	609.19
69.9086	557.48
69.9231	598.86
69.9375	552.58
69.9520	512.34
69.9664	500.19
69.9808	552.78
69.9953	614.75
70.0097	559.45
70.0242	577.25
70.0386	529.33
70.0530	545.05
70.0675	556.55
70.0819	571.89
70.0964	609.61
70.1108	628.77
70.1252	609.70
70.1397	579.66
70.1541	599.94
70.1686	586.41
70.1830	599.22
70.1974	545.10
70.2119	624.67
70.2263	610.72
70.2408	583.78
70.2552	532.57
70.2696	530.72
70.2841	561.33
70.2985	530.98
70.3130	565.19
70.3274	557.77
70.3418	585.24
70.3563	595.21
70.3707	578.27
70.3852	596.33
70.3996	569.47
70.4140	524.37
70.4285	621.70
70.4429	576.60
70.4574	575.76
70.4718	605.41
70.4862	565.07
70.5007	545.42
70.5151	545.01
70.5296	597.06
70.5440	583.82
70.5584	562.35
70.5729	574.41
70.5873	616.60
70.6018	588.29
70.6162	557.89
70.6306	580.13
70.6451	590.42
70.6595	577.97
70.6740	567.17
70.6884	628.07
70.7028	600.64
70.7173	597.24
70.7317	558.42
70.7462	599.92
70.7606	590.59
70.7750	634.94
70.7895	588.74
70.8039	624.76
70.8184	592.84
70.8328	601.30
70.8472	592.50
70.8617	588.74
70.8761	551.84
70.8906	571.04
70.9050	607.18
70.9194	596.52
70.9339	628.68
70.9483	607.74
70.9628	565.54
70.9772	565.45
70.9916	553.24
71.0061	555.54
71.0205	563.98
71.0350	582.26
71.0494	588.45
71.0638	577.89
71.0783	609.67
71.0927	609.08
71.1072	606.30
71.1216	588.96
71.1361	626.87
71.1505	580.29
71.1649	548.58
71.1794	539.42
71.1938	585.30
71.2083	600.59
71.2227	534.76
71.2371	567.02
71.2516	598.09
71.2660	606.14
71.2805	583.93
71.2949	570.21
71.3093	580.06
71.3238	567.65
71.3382	620.00
71.3527	598.34
71.3671	558.47
71.3815	562.16
71.3960	601.84
71.4104	551.80
71.4249	588.99
71.4393	629.68
71.4537	590.67
71.4682	624.58
71.4826	597.91
71.4971	583.71
71.5115	545.68
71.5259	542.25
71.5404	526.64
71.5548	597.58
71.5693	636.52
71.5837	540.33
71.5981	548.29
71.6126	583.11
71.6270	604.44
71.6415	594.71
71.6559	581.69
71.6703	575.77
71.6848	594.42
71.6992	587.41
71.7137	576.14
71.7281	606.99
71.7425	589.19
71.7570	584.63
71.7714	645.39
71.7859	597.13
71.8003	519.68
71.8147	590.79
71.8292	606.16
71.8436	596.89
71.8581	606.89
71.8725	562.40
71.8869	557.96
71.9014	603.41
71.9158	592.58
71.9303	548.07
71.9447	592.70
71.9591	635.87
71.9736	573.12
71.9880	558.87
72.0025	614.50
72.0169	584.94
72.0313	598.10
72.0458	600.55
72.0602	618.52
72.0747	594.41
72.0891	512.91
72.1035	529.27
72.1180	529.25
72.1324	484.00
72.1469	518.83
72.1613	529.86
72.1757	586.59
72.1902	543.31
72.2046	543.10
72.2191	526.18
72.2335	466.68
72.2479	513.94
72.2624	496.17
72.2768	594.32
72.2913	585.60
72.3057	568.59
72.3201	556.19
72.3346	593.70
72.3490	556.51
72.3635	474.64
72.3779	485.02
72.3923	538.52
72.4068	566.23
72.4212	591.30
72.4357	581.63
72.4501	590.74
72.4645	617.22
72.4790	553.74
72.4934	536.56
72.5079	573.81
72.5223	528.46
72.5367	526.48
72.5512	609.79
72.5656	587.10
72.5801	529.09
72.5945	526.75
72.6089	560.71
72.6234	615.35
72.6378	638.70
72.6523	586.46
72.6667	518.45
72.6811	580.50
72.6956	562.68
72.7100	586.59
72.7245	588.93
72.7389	601.69
72.7533	606.00
72.7678	618.07
72.7822	636.89
72.7967	618.96
72.8111	625.58
72.8255	568.49
72.8400	547.22
72.8544	598.92
72.8689	631.45
72.8833	637.91

Result vector
22.1120	549.88
22.1264	625.13
22.1409	561.95
22.1553	624.16
22.1697	623.43
22.1842	587.38
22.1986	540.99
22.2131	491.51
22.2275	492.28
22.2419	534.47
22.2564	576.24
22.2708	580.49
22.2853	599.18
22.2997	520.26
22.3141	519.52
22.3286	600.56
22.3430	732.58
22.3575	622.58
22.3719	577.43
22.3863	598.45
22.4008	565.91
22.4152	597.71
22.4297	596.19
22.4441	638.35
22.4585	619.96
22.4730	573.94
22.4874	600.36
22.5019	615.43
22.5163	562.78
22.5307	574.05
22.5452	549.23
22.5596	631.75
22.5741	644.65
22.5885	578.38
22.6029	530.91
22.6174	549.07
22.6318	530.02
22.6463	547.04
22.6607	636.50
22.6751	513.08
22.6896	498.83
22.7040	539.42
22.7185	625.35
22.7329	495.67
22.7473	495.51
22.7618	586.77
22.7762	603.85
22.7907	593.54
22.8051	587.10
22.8195	652.68
22.8340	649.95
22.8484	674.39
22.8629	668.27
22.8773	572.12
22.8917	537.74
22.9062	573.66
22.9206	568.02
22.9351	481.50
22.9495	540.65
22.9639	550.28
22.9784	617.06
22.9928	590.45
23.0073	626.17
23.0217	508.31
23.0361	467.29
23.0506	573.17
23.0650	527.68
23.0795	628.48
23.0939	586.64
23.1083	526.18
23.1228	612.70
23.1372	532.10
23.1517	567.66
23.1661	542.79
23.1806	551.32
23.1950	590.67
23.2094	600.49
23.2239	557.72
23.2383	554.00
23.2528	557.33
23.2672	555.07
23.2816	566.87
23.2961	547.32
23.3105	603.08
23.3250	602.18
23.3394	501.37
23.3538	475.41
23.3683	534.25
23.3827	568.31
23.3972	568.68
23.4116	503.03
23.4260	634.60
23.4405	536.56
23.4549	611.95
23.4694	557.23
23.4838	542.67
23.4982	526.79
23.5127	565.33
23.5271	586.11
23.5416	556.02
23.5560	569.90
23.5704	576.02
23.5849	579.77
23.5993	556.19
23.6138	541.84
23.6282	538.45
23.6426	567.24
23.6571	542.71
23.6715	563.55
23.6860	548.26
23.7004	545.16
23.7148	551.66
23.7293	489.59
23.7437	523.95
23.7582	600.31
23.7726	564.99
23.7870	567.82
23.8015	550.69
23.8159	546.76
23.8304	577.52
23.8448	529.06
23.8592	566.00
23.8737	547.19
23.8881	516.65
23.9026	581.71
23.9170	543.55
23.9314	563.13
23.9459	570.87
23.9603	508.29
23.9748	570.18
23.9892	557.36
24.0036	614.45
24.0181	633.24
24.0325	647.30
24.0470	556.85
24.0614	578.34
24.0758	579.19
24.0903	580.36
24.1047	577.44
24.1192	585.83
24.1336	610.82
24.1480	544.11
24.1625	600.45
24.1769	568.18
24.1914	570.37
24.2058	628.54
24.2202	555.85
24.2347	622.71
24.2491	658.40
24.2636	609.44
24.2780	576.32
24.2924	577.73
24.3069	544.16
24.3213	540.30
24.3358	556.32
24.3502	560.25
24.3646	566.78
24.3791	578.54
24.3935	490.51
24.4080	541.85
24.4224	563.47
24.4368	546.84
24.4513	533.93
24.4657	487.15
24.4802	510.16
24.4946	524.60
24.5090	573.47
24.5235	589.80
24.5379	591.50
24.5524	530.42
24.5668	631.55
24.5812	593.00
24.5957	627.15
24.6101	571.13
24.6246	560.18
24.6390	548.41
24.6534	532.83
24.6679	555.64
24.6823	561.16
24.6968	543.62
24.7112	556.96
24.7256	533.99
24.7401	543.06
24.7545	541.09
24.7690	493.87
24.7834	541.07
24.7978	556.33
24.8123	543.50
24.8267	593.70
24.8412	581.69
24.8556	574.96
24.8700	533.09
24.8845	542.75
24.8989	555.89
24.9134	554.89
24.9278	509.17
24.9422	542.29
24.9567	500.90
24.9711	529.98
24.9856	558.98
25.0000	519.72
25.0144	608.58
25.0289	542.31
25.0433	528.29
25.0578	602.72
25.0722	489.05
25.0866	551.41
25.1011	515.48
25.1155	571.22
25.1300	558.08
25.1444	494.84
25.1588	533.53
25.1733	548.08
25.1877	559.14
25.2022	524.46
25.2166	522.02
25.2310	560.54
25.2455	544.25
25.2599	524.06
25.2744	553.67
25.2888	581.45
25.3032	536.32
25.3177	526.06
25.3321	568.11
25.3466	564.55
25.3610	547.20
25.3754	548.57
25.3899	575.11
25.4043	547.20
25.4188	557.98
25.4332	537.64
25.4476	555.64
25.4621	556.80
25.4765	521.76
25.4910	517.45
25.5054	500.72
25.5198	528.10
25.5343	567.83
25.5487	549.83
25.5632	525.52
25.5776	551.79
25.5920	542.20
25.6065	572.03
25.6209	545.15
25.6354	528.44
25.6498	552.94
25.6642	551.35
25.6787	544.70
25.6931	509.01
25.7076	514.58
25.7220	547.40
25.7364	557.63
25.7509	560.74
25.7653	547.03
25.7798	565.50
25.7942	558.75
25.8086	567.04
25.8231	574.68
25.8375	508.67
25.8520	540.26
25.8664	559.48
25.8808	542.78
25.8953	540.57
25.9097	551.23
25.9242	539.07
25.9386	547.33
25.9530	547.84
25.9675	540.95
25.9819	528.43
25.9964	518.33
26.0108	531.15
26.0252	565.61
26.0397	583.79
26.0541	589.80
26.0686	546.70
26.0830	568.88
26.0974	549.03
26.1119	549.27
26.1263	531.23
26.1408	518.06
26.1552	514.76
26.1696	534.51
26.1841	511.10
26.1985	507.63
26.2130	493.10
26.2274	556.13
26.2418	556.47
26.2563	547.99
26.2707	522.06
26.2852	519.84
26.2996	510.19
26.3140	528.74
26.3285	517.90
26.3429	528.35
26.3574	520.35
26.3718	531.57
26.3862	538.58
26.4007	526.78
26.4151	553.98
26.4296	555.57
26.4440	510.93
26.4584	525.81
26.4729	531.16
26.4873	534.93
26.5018	506.08
26.5162	467.84
26.5306	514.83
26.5451	563.82
26.5595	553.13
26.5740	567.55
26.5884	569.84
26.6028	578.55
26.6173	540.20
26.6317	539.21
26.6462	528.26
26.6606	540.78
26.6750	569.13
26.6895	541.96
26.7039	550.46
26.7184	540.08
26.7328	535.62
26.7472	532.09
26.7617	502.94
26.7761	538.05
26.7906	537.02
26.8050	511.89
26.8194	538.95
26.8339	539.66
26.8483	545.47
26.8628	539.60
26.8772	531.63
26.8917	531.33
26.9061	530.99
26.9205	522.07
26.9350	537.79
26.9494	499.84
26.9639	492.00
26.9783	539.84
26.9927	561.08
27.0072	513.12
27.0216	521.29
27.0361	539.90
27.0505	551.20
27.0649	537.80
27.0794	502.55
27.0938	491.46
27.1083	512.60
27.1227	538.20
27.1371	521.91
27.1516	539.54
27.1660	564.30
27.1805	541.81
27.1949	516.05
27.2093	519.20
27.2238	531.84
27.2382	509.56
27.2527	536.94
27.2671	532.06
27.2815	551.91
27.2960	515.98
27.3104	519.28
27.3249	519.61
27.3393	525.25
27.3537	521.97
27.3682	514.59
27.3826	508.40
27.3971	508.32
27.4115	534.72
27.4259	555.75
27.4404	527.59
27.4548	514.52
27.4693	521.58
27.4837	530.65
27.4981	537.84
27.5126	526.51
27.5270	531.89
27.5415	541.63
27.5559	519.91
27.5703	516.34
27.5848	539.53
27.5992	527.80
27.6137	533.68
27.6281	535.34
27.6425	539.04
27.6570	514.75
27.6714	512.06
27.6859	500.60
27.7003	529.80
27.7147	562.32
27.7292	516.53
27.7436	498.41
27.7581	505.39
27.7725	522.07
27.7869	542.59
27.8014	531.78
27.8158	540.84
27.8303	505.25
27.8447	516.03
27.8591	502.65
27.8736	523.25
27.8880	507.13
27.9025	520.98
27.9169	520.66
27.9313	523.84
27.9458	519.80
27.9602	497.30
27.9747	527.66
27.9891	538.04
28.0035	530.97
28.0180	482.32
28.0324	487.32
28.0469	514.64
28.0613	525.05
28.0757	528.39
28.0902	558.44
28.1046	534.35
28.1191	514.63
28.1335	508.43
28.1479	479.82
28.1624	522.20
28.1768	513.50
28.1913	497.64
28.2057	537.64
28.2201	490.99
28.2346	523.72
28.2490	521.92
28.2635	491.61
28.2779	501.34
28.2923	524.10
28.3068	516.67
28.3212	514.01
28.3357	525.99
28.3501	558.36
28.3645	527.28
28.3790	507.49
28.3934	516.29
28.4079	487.64
28.4223	509.59
28.4367	535.46
28.4512	511.82
28.4656	554.93
28.4801	547.51
28.4945	492.14
28.5089	501.20
28.5234	513.89
28.5378	497.22
28.5523	475.66
28.5667	512.48
28.5811	506.97
28.5956	525.54
28.6100	514.91
28.6245	476.62
28.6389	508.66
28.6533	516.77
28.6678	494.49
28.6822	513.89
28.6967	553.94
28.7111	520.00
28.7255	522.40
28.7400	490.71
28.7544	470.30
28.7689	478.97
28.7833	552.19
28.7977	519.56
28.8122	515.71
28.8266	484.86
28.8411	510.44
28.8555	513.94
28.8699	513.29
28.8844	518.33
28.8988	498.42
28.9133	552.51
28.9277	500.12
28.9421	508.53
28.9566	521.01
28.9710	505.99
28.9855	488.87
28.9999	471.23
29.0143	515.53
29.0288	500.81
29.0432	478.39
29.0577	509.01
29.0721	488.68
29.0865	530.68
29.1010	551.81
29.1154	513.29
29.1299	536.60
29.1443	506.00
29.1587	505.31
29.1732	520.10
29.1876	491.71
29.2021	506.23
29.2165	515.58
29.2309	477.23
29.2454	490.17
29.2598	520.37
29.2743	510.36
29.2887	522.75
29.3031	518.00
29.3176	487.42
29.3320	471.47
29.3465	527.08
29.3609	506.20
29.3753	469.08
29.3898	487.01
29.4042	477.77
29.4187	499.92
29.4331	488.73
29.4475	504.97
29.4620	493.27
29.4764	511.57
29.4909	495.22
29.5053	493.53
29.5197	507.57
29.5342	491.91
29.5486	485.91
29.5631	487.14
29.5775	483.88
29.5919	501.94
29.6064	500.97
29.6208	558.06
29.6353	540.90
29.6497	523.13
29.6641	480.72
29.6786	517.99
29.6930	494.01
29.7075	502.22
29.7219	531.57
29.7363	507.43
29.7508	504.50
29.7652	535.72
29.7797	549.81
29.7941	540.80
29.8085	524.09
29.8230	499.04
29.8374	512.15
29.8519	539.13
29.8663	520.34
29.8807	487.27
29.8952	509.82
29.9096	550.17
29.9241	537.65
29.9385	548.15
29.9529	561.51
29.9674	492.25
29.9818	512.17
29.9963	484.71
30.0107	468.47
30.0251	530.47
30.0396	510.96
30.0540	520.24
30.0685	527.49
30.0829	490.89
30.0973	494.67
30.1118	511.77
30.1262	561.28
30.1407	532.41
30.1551	484.30
30.1695	513.35
30.1840	520.62
30.1984	508.84
30.2129	521.01
30.2273	535.82
30.2417	521.88
30.2562	505.57
30.2706	513.27
30.2851	519.44
30.2995	535.79
30.3139	513.49
30.3284	516.46
30.3428	497.34
30.3573	526.12
30.3717	514.15
30.3861	498.21
30.4006	511.19
30.4150	491.28
30.4295	490.35
30.4439	482.77
30.4583	506.66
30.4728	556.91
30.4872	537.94
30.5017	493.75
30.5161	483.46
30.5305	511.82
30.5450	493.14
30.5594	497.08
30.5739	486.55
30.5883	494.42
30.6028	490.54
30.6172	522.77
30.6316	528.72
30.6461	544.45
30.6605	535.66
30.6750	547.73
30.6894	572.84
30.7038	586.61
30.7183	594.47
30.7327	580.64
30.7472	616.79
30.7616	651.11
30.7760	657.35
30.7905	665.70
30.8049	718.95
30.8194	704.79
30.8338	728.71
30.8482	711.87
30.8627	681.72
30.8771	675.08
30.8916	653.51
30.9060	650.58
30.9204	612.41
30.9349	604.54
30.9493	577.48
30.9638	566.33
30.9782	566.02
30.9926	554.80
31.0071	549.88
31.0215	588.36
31.0360	574.41
31.0504	565.43
31.0648	565.10
31.0793	534.75
31.0937	563.81
31.1082	555.06
31.1226	550.67
31.1370	543.54
31.1515	541.27
31.1659	506.07
31.1804	503.14
31.1948	512.22
31.2092	527.59
31.2237	515.48
31.2381	513.84
31.2526	518.01
31.2670	536.84
31.2814	554.82
31.2959	558.13
31.3103	573.41
31.3248	580.50
31.3392	512.65
31.3536	533.23
31.3681	517.38
31.3825	491.76
31.3970	514.75
31.4114	510.05
31.4258	536.31
31.4403	507.37
31.4547	522.15
31.4692	541.86
31.4836	505.65
31.4980	483.34
31.5125	498.41
31.5269	518.01
31.5414	512.66
31.5558	472.94
31.5702	485.88
31.5847	505.56
31.5991	508.04
31.6136	483.74
31.6280	511.97
31.6424	494.75
31.6569	509.82
31.6713	529.07
31.6858	530.68
31.7002	528.74
31.7146	530.33
31.7291	502.82
31.7435	501.93
31.7580	516.35
31.7724	518.23
31.7868	502.99
31.8013	504.77
31.8157	533.00
31.8302	514.39
31.8446	520.99
31.8590	538.59
31.8735	534.76
31.8879	518.62
31.9024	534.69
31.9168	493.38
31.9312	504.71
31.9457	491.96
31.9601	520.73
31.9746	519.53
31.9890	504.49
32.0034	509.70
32.0179	499.89
32.0323	476.29
32.0468	506.35
32.0612	517.76
32.0756	512.57
32.0901	507.19
32.1045	517.37
32.1190	522.93
32.1334	472.36
32.1478	479.99
32.1623	519.57
32.1767	512.23
32.1912	511.82
32.2056	514.26
32.2200	479.65
32.2345	535.85
32.2489	532.77
32.2634	529.46
32.2778	491.97
32.2922	473.94
32.3067	476.72
32.3211	515.86
32.3356	466.81
32.3500	513.45
32.3644	503.87
32.3789	498.96
32.3933	502.53
32.4078	526.21
32.4222	538.74
32.4366	517.73
32.4511	498.22
32.4655	518.24
32.4800	518.27
32.4944	536.98
32.5088	480.88
32.5233	449.53
32.5377	538.84
32.5522	545.55
32.5666	517.54
32.5810	497.70
32.5955	505.53
32.6099	510.74
32.6244	512.76
32.6388	494.65
32.6532	481.82
32.6677	498.12
32.6821	473.33
32.6966	498.75
32.7110	476.46
32.7254	521.61
32.7399	494.64
32.7543	509.61
32.7688	492.08
32.7832	546.26
32.7976	519.76
32.8121	513.18
32.8265	500.59
32.8410	480.89
32.8554	510.96
32.8698	511.44
32.8843	496.70
32.8987	528.07
32.9132	502.63
32.9276	512.02
32.9420	465.96
32.9565	488.32
32.9709	511.52
32.9854	517.38
32.9998	485.57
33.0142	507.95
33.0287	461.41
33.0431	447.95
33.0576	487.33
33.0720	484.68
33.0864	501.00
33.1009	525.40
33.1153	540.68
33.1298	516.80
33.1442	508.89
33.1586	500.07
33.1731	555.52
33.1875	483.70
33.2020	501.80
33.2164	513.88
33.2308	506.47
33.2453	508.08
33.2597	515.45
33.2742	483.84
33.2886	482.34
33.3030	491.98
33.3175	527.27
33.3319	533.38
33.3464	515.11
33.3608	482.47
33.3752	495.90
33.3897	505.80
33.4041	480.85
33.4186	502.86
33.4330	528.66
33.4474	501.76
33.4619	499.76
33.4763	524.43
33.4908	510.97
33.5052	514.21
33.5196	497.26
33.5341	522.47
33.5485	513.82
33.5630	519.57
33.5774	508.79
33.5918	523.03
33.6063	531.69
33.6207	488.63
33.6352	493.67
33.6496	469.08
33.6640	494.50
33.6785	527.71
33.6929	498.79
33.7074	522.19
33.7218	519.84
33.7362	501.05
33.7507	506.36
33.7651	480.51
33.7796	515.06
33.7940	524.45
33.8084	495.17
33.8229	527.43
33.8373	514.34
33.8518	502.26
33.8662	507.51
33.8806	510.44
33.8951	494.44
33.9095	529.75
33.9240	539.76
33.9384	539.64
33.9528	488.86
33.9673	491.57
33.9817	472.61
33.9962	496.64
34.0106	518.92
34.0250	537.00
34.0395	510.47
34.0539	524.98
34.0684	543.81
34.0828	550.38
34.0972	548.90
34.1117	516.59
34.1261	513.43
34.1406	471.14
34.1550	487.65
34.1694	511.38
34.1839	550.46
34.1983	516.40
34.2128	504.43
34.2272	504.35
34.2417	522.52
34.2561	534.59
34.2705	529.01
34.2850	510.29
34.2994	526.78
34.3139	525.36
34.3283	517.61
34.3427	497.67
34.3572	521.44
34.3716	505.39
34.3861	487.15
34.4005	508.39
34.4149	516.78
34.4294	503.20
34.4438	501.51
34.4583	516.00
34.4727	519.34
34.4871	523.81
34.5016	518.68
34.5160	528.23
34.5305	497.79
34.5449	488.79
34.5593	498.20
34.5738	493.26
34.5882	505.30
34.6027	511.34
34.6171	474.97
34.6315	507.59
34.6460	544.62
34.6604	531.63
34.6749	479.46
34.6893	503.90
34.7037	522.27
34.7182	517.57
34.7326	508.15
34.7471	488.53
34.7615	504.04
34.7759	508.31
34.7904	512.32
34.8048	539.40
34.8193	518.22
34.8337	512.28
34.8481	502.17
34.8626	502.26
34.8770	525.91
34.8915	517.09
34.9059	503.89
34.9203	499.94
34.9348	502.50
34.9492	486.67
34.9637	519.23
34.9781	524.77
34.9925	505.43
35.0070	511.53
35.0214	499.45
35.0359	495.30
35.0503	506.16
35.0647	512.31
35.0792	529.69
35.0936	519.95
35.1081	510.49
35.1225	531.70
35.1369	482.14
35.1514	467.29
35.1658	499.27
35.1803	504.42
35.1947	549.52
35.2091	505.42
35.2236	475.40
35.2380	473.36
35.2525	510.95
35.2669	510.65
35.2813	505.82
35.2958	525.19
35.3102	516.92
35.3247	504.56
35.3391	517.80
35.3535	503.96
35.3680	541.38
35.3824	521.78
35.3969	524.92
35.4113	508.41
35.4257	498.72
35.4402	525.02
35.4546	501.78
35.4691	531.43
35.4835	500.94
35.4979	505.48
35.5124	518.55
35.5268	517.89
35.5413	531.90
35.5557	528.64
35.5701	510.09
35.5846	524.98
35.5990	519.47
35.6135	536.23
35.6279	539.79
35.6423	545.52
35.6568	531.15
35.6712	540.06
35.6857	584.71
35.7001	646.84
35.7145	692.75
35.7290	646.15
35.7434	591.12
35.7579	549.53
35.7723	551.00
35.7867	632.07
35.8012	657.41
35.8156	668.76
35.8301	640.67
35.8445	597.21
35.8589	677.37
35.8734	738.16
35.8878	848.20
35.9023	992.58
35.9167	1065.71
35.9311	1382.47
35.9456	2135.62
35.9600	2303.93
35.9745	1829.72
35.9889	1797.40
36.0033	2184.87
36.0178	2292.16
36.0322	2025.41
36.0467	1906.05
36.0611	1625.46
36.0755	1580.73
36.0900	1550.55
36.1044	1394.08
36.1189	1490.00
36.1333	1313.85
36.1477	1044.69
36.1622	1095.33
36.1766	1046.72
36.1911	937.96
36.2055	855.84
36.2199	919.75
36.2344	945.51
36.2488	983.58
36.2633	1030.51
36.2777	1019.66
36.2921	1032.69
36.3066	1028.41
36.3210	1007.97
36.3355	1036.43
36.3499	939.51
36.3643	911.59
36.3788	909.17
36.3932	800.50
36.4077	805.36
36.4221	801.34
36.4365	718.28
36.4510	681.01
36.4654	698.85
36.4799	662.78
36.4943	645.05
36.5087	589.76
36.5232	622.36
36.5376	647.04
36.5521	603.75
36.5665	583.73
36.5809	549.59
36.5954	548.77
36.6098	526.51
36.6243	531.81
36.6387	571.67
36.6531	556.23
36.6676	512.88
36.6820	501.36
36.6965	512.38
36.7109	543.48
36.7253	532.52
36.7398	552.60
36.7542	576.76
36.7687	537.23
36.7831	537.35
36.7975	560.36
36.8120	607.38
36.8264	570.30
36.8409	597.16
36.8553	612.42
36.8697	621.19
36.8842	592.11
36.8986	592.27
36.9131	590.94
36.9275	565.21
36.9419	583.99
36.9564	598.80
36.9708	586.35
36.9853	588.47
36.9997	572.90
37.0141	551.51
37.0286	545.96
37.0430	542.17
37.0575	531.30
37.0719	549.40
37.0863	518.50
37.1008	528.82
37.1152	531.01
37.1297	505.37
37.1441	535.65
37.1585	530.88
37.1730	482.27
37.1874	497.18
37.2019	464.70
37.2163	463.67
37.2307	517.02
37.2452	475.50
37.2596	504.51
37.2741	516.85
37.2885	542.11
37.3029	483.14
37.3174	475.46
37.3318	514.17
37.3463	518.05
37.3607	494.28
37.3751	504.42
37.3896	482.28
37.4040	459.07
37.4185	524.02
37.4329	524.36
37.4473	489.02
37.4618	486.68
37.4762	515.17
37.4907	514.48
37.5051	488.27
37.5195	476.16
37.5340	492.21
37.5484	516.44
37.5629	531.83
37.5773	475.06
37.5917	491.14
37.6062	492.14
37.6206	496.02
37.6351	518.89
37.6495	507.15
37.6639	496.08
37.6784	501.88
37.6928	501.82
37.7073	496.23
37.7217	486.89
37.7361	487.91
37.7506	522.09
37.7650	503.05
37.7795	513.33
37.7939	508.74
37.8083	540.23
37.8228	517.94
37.8372	529.49
37.8517	506.32
37.8661	533.81
37.8805	513.67
37.8950	528.40
37.9094	509.45
37.9239	491.09
37.9383	525.01
37.9528	514.32
37.9672	480.45
37.9816	512.78
37.9961	532.46
38.0105	499.78
38.0250	499.56
38.0394	500.86
38.0538	505.37
38.0683	520.57
38.0827	499.97
38.0972	477.87
38.1116	471.23
38.1260	484.08
38.1405	514.87
38.1549	520.12
38.1694	529.44
38.1838	511.28
38.1982	497.85
38.2127	506.95
38.2271	504.60
38.2416	509.04
38.2560	504.04
38.2704	482.65
38.2849	530.83
38.2993	509.48
38.3138	497.79
38.3282	499.83
38.3426	511.67
38.3571	528.10
38.3715	536.54
38.3860	533.09
38.4004	529.93
38.4148	549.63
38.4293	583.56
38.4437	563.80
38.4582	623.97
38.4726	624.99
38.4870	700.28
38.5015	753.94
38.5159	762.22
38.5304	788.09
38.5448	828.09
38.5592	786.86
38.5737	757.57
38.5881	748.96
38.6026	735.54
38.6170	720.50
38.6314	705.67
38.6459	661.99
38.6603	622.18
38.6748	590.36
38.6892	557.85
38.7036	553.85
38.7181	538.55
38.7325	566.37
38.7470	569.91
38.7614	515.36
38.7758	526.82
38.7903	506.92
38.8047	521.89
38.8192	507.53
38.8336	517.94
38.8480	523.79
38.8625	528.65
38.8769	523.85
38.8914	530.31
38.9058	534.06
38.9202	508.42
38.9347	524.16
38.9491	507.50
38.9636	481.94
38.9780	502.80
38.9924	512.63
39.0069	526.57
39.0213	517.42
39.0358	479.57
39.0502	482.13
39.0646	506.08
39.0791	511.11
39.0935	514.21
39.1080	485.20
39.1224	503.60
39.1368	517.30
39.1513	487.04
39.1657	484.45
39.1802	503.55
39.1946	491.84
39.2090	501.07
39.2235	499.19
39.2379	510.02
39.2524	527.75
39.2668	516.16
39.2812	499.00
39.2957	501.88
39.3101	484.37
39.3246	488.88
39.3390	486.74
39.3534	515.32
39.3679	508.48
39.3823	491.51
39.3968	469.68
39.4112	499.46
39.4256	541.01
39.4401	529.22
39.4545	504.69
39.4690	514.31
39.4834	520.29
39.4978	503.35
39.5123	478.67
39.5267	476.83
39.5412	454.25
39.5556	503.30
39.5700	515.78
39.5845	515.95
39.5989	495.37
39.6134	489.94
39.6278	495.01
39.6422	520.95
39.6567	521.03
39.6711	460.33
39.6856	493.47
39.7000	508.21
39.7144	498.62
39.7289	487.27
39.7433	480.89
39.7578	522.35
39.7722	505.38
39.7866	497.13
39.8011	497.51
39.8155	510.67
39.8300	505.81
39.8444	511.84
39.8588	510.75
39.8733	526.46
39.8877	491.64
39.9022	500.95
39.9166	517.42
39.9310	517.82
39.9455	498.41
39.9599	489.42
39.9744	508.34
39.9888	474.34
40.0032	468.64
40.0177	486.79
40.0321	474.96
40.0466	509.30
40.0610	487.93
40.0754	470.37
40.0899	492.56
40.1043	514.99
40.1188	547.81
40.1332	520.17
40.1476	492.03
40.1621	483.70
40.1765	530.82
40.1910	491.42
40.2054	492.19
40.2198	496.48
40.2343	506.25
40.2487	511.59
40.2632	517.24
40.2776	522.80
40.2920	525.19
40.3065	505.27
40.3209	460.48
40.3354	525.23
40.3498	518.16
40.3642	500.45
40.3787	460.87
40.3931	475.75
40.4076	477.41
40.4220	497.77
40.4364	534.46
40.4509	491.32
40.4653	496.64
40.4798	504.19
40.4942	502.25
40.5086	516.65
40.5231	502.40
40.5375	518.86
40.5520	468.44
40.5664	475.06
40.5808	450.78
40.5953	526.03
40.6097	524.91
40.6242	510.14
40.6386	490.55
40.6530	497.48
40.6675	510.15
40.6819	493.23
40.6964	504.10
40.7108	523.00
40.7252	501.06
40.7397	553.52
40.7541	509.49
40.7686	500.19
40.7830	521.75
40.7974	523.59
40.8119	482.77
40.8263	456.77
40.8408	461.36
40.8552	475.66
40.8696	504.10
40.8841	494.12
40.8985	492.38
40.9130	485.28
40.9274	454.61
40.9418	495.65
40.9563	528.22
40.9707	520.84
40.9852	529.37
40.9996	504.90
41.0140	481.29
41.0285	466.56
41.0429	499.42
41.0574	493.19
41.0718	488.88
41.0862	520.91
41.1007	521.96
41.1151	514.78
41.1296	541.79
41.1440	494.72
41.1584	484.49
41.1729	536.78
41.1873	509.14
41.2018	512.72
41.2162	504.17
41.2306	488.47
41.2451	496.16
41.2595	490.11
41.2740	480.62
41.2884	512.04
41.3028	536.78
41.3173	519.33
41.3317	506.01
41.3462	503.53
41.3606	495.86
41.3750	496.46
41.3895	490.17
41.4039	485.98
41.4184	487.83
41.4328	510.68
41.4472	474.54
41.4617	524.47
41.4761	538.48
41.4906	469.24
41.5050	489.19
41.5194	490.95
41.5339	501.31
41.5483	516.11
41.5628	516.61
41.5772	512.72
41.5916	502.71
41.6061	497.38
41.6205	490.54
41.6350	506.49
41.6494	524.42
41.6639	519.11
41.6783	517.13
41.6927	475.57
41.7072	521.31
41.7216	513.67
41.7361	476.40
41.7505	485.80
41.7649	506.14
41.7794	494.66
41.7938	510.28
41.8083	507.11
41.8227	504.97
41.8371	516.76
41.8516	500.08
41.8660	530.94
41.8805	519.98
41.8949	564.44
41.9093	580.12
41.9238	559.77
41.9382	528.59
41.9527	521.97
41.9671	554.67
41.9815	552.94
41.9960	537.61
42.0104	558.59
42.0249	601.75
42.0393	566.94
42.0537	564.80
42.0682	579.85
42.0826	556.88
42.0971	593.94
42.1115	589.90
42.1259	588.91
42.1404	600.11
42.1548	617.53
42.1693	674.51
42.1837	697.86
42.1981	714.15
42.2126	811.75
42.2270	912.51
42.2415	1062.78
42.2559	1156.25
42.2703	1277.18
42.2848	1437.01
42.2992	1502.65
42.3137	1594.58
42.3281	1629.67
42.3425	1505.45
42.3570	1390.50
42.3714	1321.06
42.3859	1339.76
42.4003	1302.92
42.4147	1226.87
42.4292	1196.80
42.4436	1090.24
42.4581	1027.99
42.4725	930.35
42.4869	804.34
42.5014	738.47
42.5158	725.41
42.5303	645.51
42.5447	605.59
42.5591	602.78
42.5736	551.16
42.5880	548.89
42.6025	569.68
42.6169	535.44
42.6313	533.32
42.6458	555.95
42.6602	551.07
42.6747	542.13
42.6891	561.35
42.7035	547.54
42.7180	521.17
42.7324	539.30
42.7469	541.36
42.7613	542.05
42.7757	545.86
42.7902	509.15
42.8046	512.43
42.8191	496.30
42.8335	505.03
42.8479	490.47
42.8624	524.26
42.8768	526.58
42.8913	523.53
42.9057	544.95
42.9201	534.20
42.9346	533.06
42.9490	511.77
42.9635	535.77
42.9779	534.50
42.9923	497.08
43.0068	489.52
43.0212	511.29
43.0357	509.42
43.0501	484.61
43.0645	505.99
43.0790	554.05
43.0934	572.22
43.1079	509.16
43.1223	510.00
43.1367	506.92
43.1512	518.51
43.1656	565.03
43.1801	514.24
43.1945	515.93
43.2089	555.42
43.2234	572.68
43.2378	564.88
43.2523	556.41
43.2667	524.05
43.2811	522.72
43.2956	524.36
43.3100	515.61
43.3245	516.43
43.3389	533.67
43.3533	500.33
43.3678	479.74
43.3822	518.56
43.3967	507.75
43.4111	511.90
43.4255	526.35
43.4400	508.74
43.4544	534.15
43.4689	520.85
43.4833	517.21
43.4977	515.16
43.5122	507.39
43.5266	541.69
43.5411	542.38
43.5555	535.01
43.5699	527.56
43.5844	508.95
43.5988	525.60
43.6133	520.93
43.6277	514.62
43.6421	520.65
43.6566	531.66
43.6710	530.00
43.6855	486.35
43.6999	508.60
43.7143	544.71
43.7288	543.00
43.7432	522.92
43.7577	506.46
43.7721	524.05
43.7865	561.91
43.8010	544.08
43.8154	563.24
43.8299	504.39
43.8443	519.83
43.8587	516.40
43.8732	551.82
43.8876	536.77
43.9021	518.85
43.9165	512.96
43.9309	531.68
43.9454	529.71
43.9598	520.42
43.9743	510.96
43.9887	532.05
44.0031	555.69
44.0176	577.22
44.0320	569.41
44.0465	589.94
44.0609	612.10
44.0753	577.54
44.0898	625.98
44.1042	604.49
44.1187	629.52
44.1331	613.43
44.1475	568.69
44.1620	571.41
44.1764	588.97
44.1909	595.32
44.2053	596.04
44.2197	608.73
44.2342	606.40
44.2486	572.16
44.2631	574.73
44.2775	577.09
44.2919	540.71
44.3064	541.48
44.3208	551.97
44.3353	565.61
44.3497	542.30
44.3641	511.09
44.3786	545.24
44.3930	522.10
44.4075	543.20
44.4219	559.12
44.4363	594.58
44.4508	537.52
44.4652	585.64
44.4797	575.75
44.4941	578.89
44.5085	575.11
44.5230	588.79
44.5374	571.67
44.5519	587.80
44.5663	560.80
44.5807	543.57
44.5952	552.76
44.6096	584.57
44.6241	588.43
44.6385	601.26
44.6529	603.75
44.6674	610.60
44.6818	609.60
44.6963	602.62
44.7107	722.42
44.7251	732.52
44.7396	759.68
44.7540	762.27
44.7685	810.39
44.7829	864.24
44.7973	846.20
44.8118	891.19
44.8262	798.88
44.8407	783.73
44.8551	731.06
44.8695	772.24
44.8840	743.74
44.8984	763.68
44.9129	701.48
44.9273	708.55
44.9417	673.52
44.9562	631.53
44.9706	594.44
44.9851	545.43
44.9995	532.82
45.0139	555.57
45.0284	503.25
45.0428	476.58
45.0573	504.45
45.0717	531.31
45.0861	517.60
45.1006	532.30
45.1150	540.57
45.1295	527.23
45.1439	515.56
45.1583	473.81
45.1728	511.32
45.1872	526.41
45.2017	511.30
45.2161	519.01
45.2305	499.64
45.2450	481.42
45.2594	510.47
45.2739	514.29
45.2883	517.65
45.3028	535.10
45.3172	480.64
45.3316	488.52
45.3461	496.15
45.3605	505.00
45.3750	472.43
45.3894	483.83
45.4038	503.16
45.4183	528.07
45.4327	548.13
45.4472	503.95
45.4616	513.81
45.4760	518.74
45.4905	490.84
45.5049	462.16
45.5194	488.41
45.5338	522.53
45.5482	500.66
45.5627	505.51
45.5771	532.83
45.5916	527.06
45.6060	499.66
45.6204	487.52
45.6349	524.42
45.6493	520.22
45.6638	512.16
45.6782	488.79
45.6926	522.53
45.7071	540.20
45.7215	495.01
45.7360	495.82
45.7504	529.51
45.7648	504.47
45.7793	540.52
45.7937	527.86
45.8082	540.51
45.8226	522.69
45.8370	526.09
45.8515	508.20
45.8659	535.98
45.8804	504.99
45.8948	494.39
45.9092	525.31
45.9237	528.47
45.9381	521.69
45.9526	506.26
45.9670	501.71
45.9814	506.60
45.9959	529.14
46.0103	504.10
46.0248	534.08
46.0392	520.39
46.0536	516.75
46.0681	504.20
46.0825	529.81
46.0970	532.17
46.1114	516.08
46.1258	515.97
46.1403	518.51
46.1547	521.47
46.1692	493.57
46.1836	481.02
46.1980	486.39
46.2125	499.98
46.2269	509.15
46.2414	503.33
46.2558	479.90
46.2702	490.17
46.2847	512.53
46.2991	501.91
46.3136	521.86
46.3280	528.95
46.3424	500.14
46.3569	508.34
46.3713	505.03
46.3858	504.18
46.4002	526.89
46.4146	496.12
46.4291	515.94
46.4435	504.06
46.4580	492.67
46.4724	484.54
46.4868	465.91
46.5013	470.38
46.5157	487.30
46.5302	507.17
46.5446	525.93
46.5590	503.11
46.5735	504.41
46.5879	512.22
46.6024	510.53
46.6168	516.17
46.6312	483.23
46.6457	503.00
46.6601	493.72
46.6746	540.96
46.6890	521.46
46.7034	522.79
46.7179	502.51
46.7323	482.34
46.7468	509.34
46.7612	491.33
46.7756	489.19
46.7901	489.79
46.8045	511.91
46.8190	530.26
46.8334	510.08
46.8478	525.76
46.8623	505.07
46.8767	496.02
46.8912	464.03
46.9056	469.63
46.9200	480.72
46.9345	468.64
46.9489	475.84
46.9634	513.58
46.9778	533.76
46.9922	530.18
47.0067	513.31
47.0211	537.02
47.0356	527.53
47.0500	498.99
47.0644	504.96
47.0789	488.75
47.0933	533.13
47.1078	532.75
47.1222	533.14
47.1366	536.37
47.1511	518.14
47.1655	533.31
47.1800	508.39
47.1944	539.78
47.2088	500.23
47.2233	487.90
47.2377	500.31
47.2522	514.57
47.2666	490.20
47.2810	488.18
47.2955	474.51
47.3099	482.37
47.3244	500.39
47.3388	509.85
47.3532	506.94
47.3677	504.36
47.3821	499.50
47.3966	488.09
47.4110	522.80
47.4254	544.85
47.4399	550.12
47.4543	503.00
47.4688	519.75
47.4832	510.82
47.4976	517.01
47.5121	494.57
47.5265	497.75
47.5410	510.53
47.5554	513.99
47.5698	503.68
47.5843	506.33
47.5987	514.92
47.6132	507.87
47.6276	496.57
47.6420	536.19
47.6565	506.34
47.6709	462.20
47.6854	508.32
47.6998	513.30
47.7142	536.84
47.7287	473.87
47.7431	482.22
47.7576	489.32
47.7720	504.81
47.7864	543.32
47.8009	493.48
47.8153	505.20
47.8298	487.60
47.8442	478.41
47.8586	527.77
47.8731	530.51
47.8875	518.28
47.9020	513.13
47.9164	505.72
47.9308	488.34
47.9453	519.02
47.9597	505.52
47.9742	500.91
47.9886	492.80
48.0030	524.68
48.0175	507.43
48.0319	508.35
48.0464	516.36
48.0608	511.68
48.0752	510.77
48.0897	526.31
48.1041	508.62
48.1186	490.12
48.1330	520.26
48.1474	484.14
48.1619	498.08
48.1763	528.19
48.1908	522.80
48.2052	530.00
48.2196	517.94
48.2341	485.15
48.2485	502.17
48.2630	465.39
48.2774	513.52
48.2918	518.00
48.3063	515.85
48.3207	502.32
48.3352	553.32
48.3496	523.22
48.3640	514.80
48.3785	516.76
48.3929	497.29
48.4074	516.36
48.4218	520.80
48.4362	518.88
48.4507	481.98
48.4651	508.50
48.4796	499.09
48.4940	506.43
48.5084	496.63
48.5229	551.60
48.5373	522.69
48.5518	525.25
48.5662	484.19
48.5806	493.54
48.5951	509.78
48.6095	518.19
48.6240	534.80
48.6384	533.50
48.6528	534.56
48.6673	522.67
48.6817	514.16
48.6962	519.78
48.7106	541.31
48.7250	534.80
48.7395	506.32
48.7539	528.01
48.7684	494.32
48.7828	535.80
48.7972	532.38
48.8117	514.51
48.8261	538.50
48.8406	510.39
48.8550	536.77
48.8694	549.72
48.8839	564.97
48.8983	538.52
48.9128	542.58
48.9272	547.93
48.9416	567.39
48.9561	546.81
48.9705	542.79
48.9850	547.92
48.9994	552.24
49.0139	610.40
49.0283	659.33
49.0427	583.86
49.0572	626.01
49.0716	630.85
49.0861	672.55
49.1005	649.17
49.1149	677.41
49.1294	712.99
49.1438	737.39
49.1583	779.42
49.1727	845.10
49.1871	911.88
49.2016	922.71
49.2160	994.98
49.2305	1070.40
49.2449	1172.10
49.2593	1238.14
49.2738	1289.33
49.2882	1420.72
49.3027	1491.93
49.3171	1580.07
49.3315	1691.99
49.3460	1718.21
49.3604	1789.40
49.3749	1722.18
49.3893	1760.74
49.4037	1682.27
49.4182	1707.41
49.4326	1686.97
49.4471	1624.65
49.4615	1546.21
49.4759	1520.16
49.4904	1481.85
49.5048	1374.88
49.5193	1303.44
49.5337	1245.38
49.5481	1162.07
49.5626	1131.02
49.5770	1046.23
49.5915	908.56
49.6059	914.69
49.6203	845.83
49.6348	825.53
49.6492	797.79
49.6637	714.50
49.6781	681.40
49.6925	690.70
49.7070	687.44
49.7214	683.39
49.7359	634.93
49.7503	621.41
49.7647	577.18
49.7792	602.89
49.7936	575.07
49.8081	575.80
49.8225	600.80
49.8369	576.16
49.8514	553.37
49.8658	575.67
49.8803	569.82
49.8947	586.38
49.9091	574.60
49.9236	537.53
49.9380	506.13
49.9525	510.25
49.9669	486.34
49.9813	515.79
49.9958	539.33
50.0102	552.79
50.0247	563.09
50.0391	523.60
50.0535	494.70
50.0680	539.77
50.0824	524.14
50.0969	560.41
50.1113	526.86
50.1257	524.09
50.1402	502.58
50.1546	525.53
50.1691	499.81
50.1835	511.65
50.1979	497.54
50.2124	525.67
50.2268	529.56
50.2413	529.41
50.2557	481.24
50.2701	533.94
50.2846	541.53
50.2990	552.72
50.3135	522.31
50.3279	487.55
50.3423	474.75
50.3568	490.57
50.3712	489.41
50.3857	532.49
50.4001	478.24
50.4145	478.34
50.4290	510.09
50.4434	511.15
50.4579	513.98
50.4723	542.20
50.4867	522.30
50.5012	510.25
50.5156	510.97
50.5301	511.90
50.5445	536.96
50.5589	529.87
50.5734	513.76
50.5878	499.94
50.6023	495.97
50.6167	514.97
50.6311	509.03
50.6456	504.71
50.6600	465.85
50.6745	514.97
50.6889	517.28
50.7033	518.44
50.7178	530.48
50.7322	504.19
50.7467	523.76
50.7611	485.15
50.7755	506.37
50.7900	505.17
50.8044	474.64
50.8189	487.35
50.8333	521.45
50.8477	498.29
50.8622	512.52
50.8766	529.75
50.8911	533.94
50.9055	574.35
50.9199	536.43
50.9344	511.87
50.9488	503.62
50.9633	518.61
50.9777	493.84
50.9921	514.23
51.0066	541.38
51.0210	539.05
51.0355	499.05
51.0499	499.06
51.0643	508.49
51.0788	516.81
51.0932	519.61
51.1077	514.50
51.1221	529.66
51.1365	522.03
51.1510	475.53
51.1654	499.34
51.1799	537.71
51.1943	503.86
51.2087	508.73
51.2232	483.91
51.2376	545.84
51.2521	538.81
51.2665	507.94
51.2809	515.81
51.2954	516.47
51.3098	525.37
51.3243	541.25
51.3387	509.53
51.3531	516.05
51.3676	540.04
51.3820	520.08
51.3965	497.04
51.4109	490.63
51.4253	512.32
51.4398	515.47
51.4542	496.34
51.4687	526.97
51.4831	515.55
51.4975	516.34
51.5120	504.50
51.5264	498.71
51.5409	572.82
51.5553	529.20
51.5697	519.60
51.5842	489.36
51.5986	491.76
51.6131	512.86
51.6275	518.92
51.6419	497.91
51.6564	508.14
51.6708	508.74
51.6853	497.66
51.6997	507.35
51.7141	568.74
51.7286	500.86
51.7430	506.71
51.7575	491.46
51.7719	490.25
51.7863	514.83
51.8008	508.03
51.8152	517.60
51.8297	520.85
51.8441	499.80
51.8585	483.53
51.8730	508.09
51.8874	504.06
51.9019	546.40
51.9163	529.98
51.9307	523.17
51.9452	525.73
51.9596	494.82
51.9741	495.20
51.9885	513.12
52.0029	515.54
52.0174	497.14
52.0318	494.87
52.0463	506.80
52.0607	508.45
52.0751	523.29
52.0896	490.71
52.1040	515.39
52.1185	499.75
52.1329	532.98
52.1473	511.90
52.1618	546.36
52.1762	504.33
52.1907	483.18
52.2051	505.88
52.2195	510.01
52.2340	507.19
52.2484	532.30
52.2629	518.51
52.2773	481.60
52.2917	499.23
52.3062	496.50
52.3206	490.34
52.3351	558.71
52.3495	511.42
52.3639	535.04
52.3784	495.29
52.3928	468.40
52.4073	513.75
52.4217	550.96
52.4361	523.42
52.4506	512.43
52.4650	523.41
52.4795	519.33
52.4939	491.89
52.5083	499.98
52.5228	513.49
52.5372	525.48
52.5517	519.83
52.5661	523.88
52.5805	477.89
52.5950	512.35
52.6094	492.83
52.6239	499.97
52.6383	493.16
52.6527	512.52
52.6672	495.80
52.6816	512.89
52.6961	509.59
52.7105	550.22
52.7250	507.91
52.7394	488.77
52.7538	515.95
52.7683	497.99
52.7827	521.02
52.7972	489.00
52.8116	510.29
52.8260	492.98
52.8405	539.73
52.8549	504.15
52.8694	532.12
52.8838	525.32
52.8982	496.78
52.9127	535.72
52.9271	485.42
52.9416	518.74
52.9560	482.46
52.9704	555.75
52.9849	519.43
52.9993	493.94
53.0138	496.84
53.0282	510.05
53.0426	518.81
53.0571	540.07
53.0715	531.58
53.0860	575.65
53.1004	515.09
53.1148	542.96
53.1293	532.86
53.1437	520.55
53.1582	489.79
53.1726	518.40
53.1870	478.48
53.2015	499.80
53.2159	528.06
53.2304	494.20
53.2448	499.22
53.2592	522.06
53.2737	514.88
53.2881	510.38
53.3026	514.76
53.3170	497.50
53.3314	482.16
53.3459	523.40
53.3603	500.66
53.3748	500.54
53.3892	507.60
53.4036	519.81
53.4181	515.35
53.4325	528.06
53.4470	511.27
53.4614	505.65
53.4758	538.16
53.4903	546.72
53.5047	524.52
53.5192	497.28
53.5336	536.64
53.5480	537.42
53.5625	522.38
53.5769	505.58
53.5914	498.00
53.6058	511.57
53.6202	502.88
53.6347	538.57
53.6491	528.51
53.6636	525.83
53.6780	465.53
53.6924	506.80
53.7069	517.69
53.7213	518.51
53.7358	528.06
53.7502	521.48
53.7646	503.22
53.7791	516.56
53.7935	520.27
53.8080	550.57
53.8224	557.14
53.8368	520.28
53.8513	515.52
53.8657	528.22
53.8802	533.56
53.8946	539.46
53.9090	514.71
53.9235	532.76
53.9379	520.33
53.9524	529.41
53.9668	504.87
53.9812	478.30
53.9957	510.39
54.0101	521.04
54.0246	527.79
54.0390	501.95
54.0534	498.14
54.0679	525.08
54.0823	553.06
54.0968	525.60
54.1112	508.95
54.1256	515.48
54.1401	488.78
54.1545	505.10
54.1690	522.43
54.1834	531.09
54.1978	519.26
54.2123	505.74
54.2267	532.37
54.2412	547.57
54.2556	505.01
54.2700	516.61
54.2845	541.38
54.2989	484.56
54.3134	498.97
54.3278	574.12
54.3422	558.83
54.3567	520.16
54.3711	530.86
54.3856	504.66
54.4000	518.92
54.4144	524.37
54.4289	533.47
54.4433	534.94
54.4578	519.51
54.4722	557.82
54.4866	531.69
54.5011	496.24
54.5155	514.11
54.5300	504.35
54.5444	538.21
54.5588	559.86
54.5733	538.58
54.5877	548.13
54.6022	559.18
54.6166	546.85
54.6310	554.51
54.6455	557.82
54.6599	547.98
54.6744	547.98
54.6888	556.35
54.7032	575.70
54.7177	588.33
54.7321	569.45
54.7466	578.29
54.7610	568.12
54.7754	588.77
54.7899	611.23
54.8043	581.48
54.8188	579.64
54.8332	568.54
54.8476	558.47
54.8621	596.31
54.8765	619.98
54.8910	588.06
54.9054	606.86
54.9198	586.57
54.9343	597.42
54.9487	549.47
54.9632	552.84
54.9776	538.93
54.9920	553.19
55.0065	547.66
55.0209	537.53
55.0354	569.39
55.0498	559.50
55.0642	544.45
55.0787	538.25
55.0931	553.10
55.1076	522.02
55.1220	531.41
55.1364	535.23
55.1509	529.65
55.1653	509.01
55.1798	529.07
55.1942	531.29
55.2086	537.99
55.2231	537.46
55.2375	527.79
55.2520	538.00
55.2664	551.64
55.2808	513.32
55.2953	499.23
55.3097	509.62
55.3242	525.40
55.3386	525.78
55.3530	519.47
55.3675	539.66
55.3819	499.54
55.3964	505.81
55.4108	518.84
55.4252	528.51
55.4397	533.15
55.4541	516.44
55.4686	534.00
55.4830	516.13
55.4974	550.87
55.5119	535.73
55.5263	553.11
55.5408	547.32
55.5552	540.28
55.5696	508.25
55.5841	520.10
55.5985	530.01
55.6130	527.42
55.6274	533.15
55.6418	521.78
55.6563	534.71
55.6707	523.43
55.6852	508.69
55.6996	540.61
55.7140	526.97
55.7285	506.86
55.7429	543.61
55.7574	505.36
55.7718	524.90
55.7862	539.01
55.8007	530.46
55.8151	502.30
55.8296	511.42
55.8440	533.84
55.8584	513.22
55.8729	544.41
55.8873	530.45
55.9018	525.79
55.9162	507.13
55.9306	513.75
55.9451	516.19
55.9595	503.76
55.9740	474.42
55.9884	500.92
56.0028	479.85
56.0173	532.90
56.0317	518.40
56.0462	512.97
56.0606	504.04
56.0750	508.54
56.0895	526.30
56.1039	493.19
56.1184	549.09
56.1328	550.05
56.1472	541.66
56.1617	555.82
56.1761	529.70
56.1906	498.50
56.2050	509.52
56.2194	502.28
56.2339	513.03
56.2483	493.46
56.2628	484.74
56.2772	547.98
56.2916	482.27
56.3061	509.33
56.3205	522.89
56.3350	549.07
56.3494	571.74
56.3639	506.30
56.3783	533.87
56.3927	519.26
56.4072	497.88
56.4216	528.63
56.4361	521.21
56.4505	521.40
56.4649	509.89
56.4794	533.60
56.4938	532.99
56.5083	511.22
56.5227	507.56
56.5371	528.01
56.5516	534.28
56.5660	534.02
56.5805	493.57
56.5949	494.17
56.6093	532.51
56.6238	505.48
56.6382	537.41
56.6527	509.19
56.6671	509.69
56.6815	554.82
56.6960	466.38
56.7104	507.03
56.7249	522.90
56.7393	509.01
56.7537	548.61
56.7682	517.36
56.7826	531.35
56.7971	506.31
56.8115	492.11
56.8259	515.97
56.8404	553.94
56.8548	512.26
56.8693	515.54
56.8837	488.88
56.8981	509.34
56.9126	538.13
56.9270	518.67
56.9415	486.58
56.9559	512.84
56.9703	541.74
56.9848	541.78
56.9992	537.71
57.0137	537.09
57.0281	534.78
57.0425	533.96
57.0570	565.74
57.0714	521.69
57.0859	513.77
57.1003	545.62
57.1147	535.36
57.1292	534.84
57.1436	508.66
57.1581	537.40
57.1725	548.05
57.1869	507.41
57.2014	509.94
57.2158	494.14
57.2303	523.92
57.2447	536.03
57.2591	497.45
57.2736	524.48
57.2880	501.65
57.3025	521.20
57.3169	482.61
57.3313	509.53
57.3458	527.40
57.3602	506.22
57.3747	533.48
57.3891	508.08
57.4035	477.36
57.4180	527.66
57.4324	566.90
57.4469	519.57
57.4613	512.96
57.4757	514.84
57.4902	529.55
57.5046	510.21
57.5191	501.11
57.5335	528.20
57.5479	543.13
57.5624	524.65
57.5768	506.35
57.5913	536.76
57.6057	532.92
57.6201	535.83
57.6346	522.07
57.6490	521.94
57.6635	516.48
57.6779	504.06
57.6923	506.28
57.7068	540.51
57.7212	538.43
57.7357	534.55
57.7501	520.16
57.7645	555.00
57.7790	536.96
57.7934	579.15
57.8079	557.53
57.8223	525.48
57.8367	560.23
57.8512	516.16
57.8656	534.53
57.8801	515.68
57.8945	551.09
57.9089	533.43
57.9234	536.51
57.9378	560.62
57.9523	538.69
57.9667	498.31
57.9811	532.73
57.9956	578.70
58.0100	590.34
58.0245	573.06
58.0389	551.39
58.0533	534.86
58.0678	546.43
58.0822	560.91
58.0967	539.09
58.1111	554.15
58.1255	603.71
58.1400	570.68
58.1544	525.66
58.1689	553.01
58.1833	568.00
58.1977	563.60
58.2122	573.40
58.2266	580.86
58.2411	617.51
58.2555	626.60
58.2699	613.42
58.2844	615.20
58.2988	578.93
58.3133	627.93
58.3277	636.81
58.3421	663.05
58.3566	652.71
58.3710	643.32
58.3855	637.13
58.3999	658.86
58.4143	641.90
58.4288	669.82
58.4432	655.25
58.4577	645.01
58.4721	673.22
58.4865	637.97
58.5010	618.58
58.5154	629.32
58.5299	634.84
58.5443	631.52
58.5587	609.52
58.5732	613.33
58.5876	605.06
58.6021	583.81
58.6165	600.09
58.6309	594.40
58.6454	592.26
58.6598	548.83
58.6743	569.69
58.6887	554.66
58.7031	528.59
58.7176	569.98
58.7320	559.24
58.7465	532.49
58.7609	504.99
58.7753	539.29
58.7898	547.54
58.8042	557.80
58.8187	544.85
58.8331	518.33
58.8475	530.74
58.8620	554.63
58.8764	564.22
58.8909	551.07
58.9053	578.73
58.9197	556.25
58.9342	555.63
58.9486	559.20
58.9631	555.59
58.9775	579.48
58.9919	529.58
59.0064	516.43
59.0208	523.21
59.0353	506.42
59.0497	533.16
59.0641	556.29
59.0786	562.71
59.0930	569.18
59.1075	516.27
59.1219	530.30
59.1363	541.48
59.1508	484.90
59.1652	544.73
59.1797	575.42
59.1941	558.35
59.2085	556.72
59.2230	564.34
59.2374	531.25
59.2519	534.68
59.2663	568.19
59.2807	575.33
59.2952	529.75
59.3096	524.67
59.3241	542.98
59.3385	557.62
59.3529	581.88
59.3674	591.58
59.3818	587.75
59.3963	548.10
59.4107	549.22
59.4251	600.46
59.4396	549.78
59.4540	538.86
59.4685	547.40
59.4829	552.70
59.4973	593.29
59.5118	569.96
59.5262	544.65
59.5407	555.57
59.5551	562.65
59.5695	568.96
59.5840	546.16
59.5984	548.14
59.6129	556.55
59.6273	528.70
59.6417	518.69
59.6562	553.87
59.6706	552.30
59.6851	552.27
59.6995	536.50
59.7139	539.69
59.7284	528.02
59.7428	524.40
59.7573	534.04
59.7717	549.85
59.7861	555.01
59.8006	546.66
59.8150	558.30
59.8295	536.95
59.8439	502.89
59.8583	560.65
59.8728	540.75
59.8872	530.31
59.9017	545.30
59.9161	486.11
59.9305	501.27
59.9450	545.75
59.9594	532.39
59.9739	544.86
59.9883	573.89
60.0027	574.17
60.0172	535.30
60.0316	538.85
60.0461	537.83
60.0605	574.66
60.0750	544.18
60.0894	523.29
60.1038	531.76
60.1183	552.70
60.1327	539.63
60.1472	520.66
60.1616	524.24
60.1760	520.20
60.1905	532.64
60.2049	535.65
60.2194	539.88
60.2338	524.29
60.2482	533.96
60.2627	559.53
60.2771	539.59
60.2916	558.38
60.3060	523.21
60.3204	537.05
60.3349	546.03
60.3493	537.65
60.3638	543.17
60.3782	518.05
60.3926	544.36
60.4071	535.24
60.4215	546.49
60.4360	572.46
60.4504	540.56
60.4648	554.96
60.4793	553.24
60.4937	577.47
60.5082	571.14
60.5226	541.21
60.5370	544.42
60.5515	514.61
60.5659	566.12
60.5804	508.93
60.5948	524.71
60.6092	542.99
60.6237	531.69
60.6381	542.93
60.6526	553.76
60.6670	514.56
60.6814	504.47
60.6959	555.19
60.7103	531.80
60.7248	529.57
60.7392	526.01
60.7536	538.63
60.7681	503.33
60.7825	561.37
60.7970	527.13
60.8114	552.40
60.8258	537.20
60.8403	553.05
60.8547	528.69
60.8692	546.34
60.8836	560.31
60.8980	559.41
60.9125	543.46
60.9269	538.16
60.9414	568.26
60.9558	560.49
60.9702	516.54
60.9847	536.40
60.9991	550.62
61.0136	526.99
61.0280	581.47
61.0424	560.89
61.0569	527.04
61.0713	547.28
61.0858	544.26
61.1002	535.77
61.1146	527.49
61.1291	598.22
61.1435	547.04
61.1580	570.59
61.1724	526.63
61.1868	539.74
61.2013	521.29
61.2157	542.26
61.2302	541.98
61.2446	509.45
61.2590	560.36
61.2735	545.54
61.2879	556.42
61.3024	541.45
61.3168	583.51
61.3312	607.68
61.3457	581.42
61.3601	542.76
61.3746	544.35
61.3890	529.60
61.4034	530.99
61.4179	552.50
61.4323	596.34
61.4468	549.09
61.4612	510.10
61.4756	572.87
61.4901	517.41
61.5045	538.07
61.5190	505.99
61.5334	555.63
61.5478	530.67
61.5623	541.10
61.5767	550.13
61.5912	562.18
61.6056	532.81
61.6200	498.54
61.6345	562.65
61.6489	570.41
61.6634	568.10
61.6778	507.48
61.6922	510.76
61.7067	546.46
61.7211	545.97
61.7356	551.88
61.7500	531.09
61.7644	527.35
61.7789	558.47
61.7933	578.55
61.8078	570.31
61.8222	555.44
61.8366	555.31
61.8511	546.91
61.8655	568.90
61.8800	555.17
61.8944	573.38
61.9088	583.42
61.9233	552.93
61.9377	533.93
61.9522	554.47
61.9666	562.18
61.9810	546.31
61.9955	531.65
62.0099	526.41
62.0244	552.14
62.0388	586.96
62.0532	579.20
62.0677	535.95
62.0821	573.82
62.0966	567.24
62.1110	578.29
62.1254	566.86
62.1399	564.80
62.1543	538.06
62.1688	553.80
62.1832	537.06
62.1976	524.61
62.2121	550.42
62.2265	553.45
62.2410	557.42
62.2554	555.05
62.2698	540.46
62.2843	568.57
62.2987	549.74
62.3132	596.76
62.3276	611.15
62.3420	565.25
62.3565	533.88
62.3709	525.16
62.3854	532.99
62.3998	534.69
62.4142	584.10
62.4287	609.94
62.4431	556.12
62.4576	555.74
62.4720	601.26
62.4864	562.51
62.5009	543.40
62.5153	575.23
62.5298	564.98
62.5442	555.77
62.5586	534.42
62.5731	523.92
62.5875	548.97
62.6020	534.89
62.6164	563.62
62.6308	537.76
62.6453	532.11
62.6597	561.78
62.6742	563.51
62.6886	515.13
62.7030	563.76
62.7175	572.66
62.7319	565.49
62.7464	586.92
62.7608	562.39
62.7752	553.43
62.7897	537.58
62.8041	539.62
62.8186	561.91
62.8330	556.84
62.8474	526.06
62.8619	541.15
62.8763	536.56
62.8908	567.89
62.9052	619.83
62.9196	574.07
62.9341	585.90
62.9485	613.18
62.9630	553.18
62.9774	527.18
62.9918	531.91
63.0063	531.14
63.0207	545.69
63.0352	567.40
63.0496	541.94
63.0640	558.50
63.0785	575.34
63.0929	552.47
63.1074	576.33
63.1218	575.42
63.1362	553.71
63.1507	548.86
63.1651	584.66
63.1796	581.59
63.1940	567.01
63.2084	570.13
63.2229	576.58
63.2373	568.54
63.2518	578.15
63.2662	567.78
63.2806	568.15
63.2951	546.31
63.3095	568.90
63.3240	594.05
63.3384	587.03
63.3528	554.92
63.3673	585.01
63.3817	579.22
63.3962	587.32
63.4106	603.52
63.4250	579.95
63.4395	584.60
63.4539	558.14
63.4684	577.66
63.4828	584.09
63.4972	594.30
63.5117	562.53
63.5261	572.14
63.5406	577.28
63.5550	591.80
63.5694	597.05
63.5839	571.04
63.5983	587.10
63.6128	603.45
63.6272	594.04
63.6416	599.33
63.6561	625.39
63.6705	601.67
63.6850	566.94
63.6994	578.05
63.7138	592.67
63.7283	587.70
63.7427	583.85
63.7572	594.19
63.7716	595.79
63.7861	596.11
63.8005	613.59
63.8149	620.77
63.8294	622.91
63.8438	618.31
63.8583	647.83
63.8727	630.98
63.8871	606.24
63.9016	654.93
63.9160	645.22
63.9305	670.51
63.9449	695.87
63.9593	672.57
63.9738	676.83
63.9882	649.12
64.0027	648.37
64.0171	737.98
64.0315	726.21
64.0460	736.92
64.0604	760.59
64.0749	775.65
64.0893	779.84
64.1037	821.11
64.1182	843.02
64.1326	812.50
64.1471	739.42
64.1615	783.71
64.1759	831.83
64.1904	750.38
64.2048	751.50
64.2193	785.94
64.2337	769.15
64.2481	776.66
64.2626	774.42
64.2770	750.76
64.2915	741.65
64.3059	791.04
64.3203	729.39
64.3348	743.14
64.3492	722.28
64.3637	768.09
64.3781	676.29
64.3925	682.35
64.4070	705.67
64.4214	689.88
64.4359	690.73
64.4503	623.18
64.4647	679.86
64.4792	678.99
64.4936	668.69
64.5081	669.01
64.5225	655.02
64.5369	652.25
64.5514	629.27
64.5658	660.85
64.5803	655.44
64.5947	657.55
64.6091	702.26
64.6236	691.29
64.6380	721.54
64.6525	670.47
64.6669	675.26
64.6813	668.49
64.6958	674.39
64.7102	719.00
64.7247	703.13
64.7391	671.15
64.7535	709.11
64.7680	712.61
64.7824	747.53
64.7969	693.60
64.8113	709.10
64.8257	807.44
64.8402	823.75
64.8546	839.33
64.8691	852.82
64.8835	858.97
64.8979	862.54
64.9124	834.17
64.9268	901.20
64.9413	920.71
64.9557	880.54
64.9701	998.69
64.9846	1056.55
64.9990	1148.51
65.0135	1305.77
65.0279	1447.18
65.0423	1727.47
65.0568	2092.49
65.0712	2698.00
65.0857	3721.83
65.1001	4841.71
65.1145	6551.24
65.1290	8373.04
65.1434	10057.61
65.1579	11402.23
65.1723	11892.35
65.1867	11289.52
65.2012	9666.94
65.2156	8193.51
65.2301	6336.61
65.2445	5234.71
65.2589	4415.89
65.2734	4173.79
65.2878	4537.86
65.3023	5137.42
65.3167	5990.31
65.3311	6678.31
65.3456	6986.94
65.3600	6997.35
65.3745	6300.49
65.3889	5530.21
65.4033	4235.51
65.4178	3365.02
65.4322	2661.99
65.4467	2014.38
65.4611	1632.99
65.4755	1455.38
65.4900	1290.01
65.5044	1111.35
65.5189	1017.52
65.5333	974.01
65.5477	911.63
65.5622	924.96
65.5766	888.98
65.5911	821.12
65.6055	777.89
65.6199	800.01
65.6344	762.61
65.6488	720.25
65.6633	711.59
65.6777	732.84
65.6921	695.67
65.7066	741.89
65.7210	702.59
65.7355	673.25
65.7499	669.81
65.7643	667.67
65.7788	683.78
65.7932	684.09
65.8077	670.01
65.8221	663.88
65.8365	675.91
65.8510	648.91
65.8654	676.57
65.8799	663.33
65.8943	640.70
65.9087	697.70
65.9232	645.68
65.9376	617.29
65.9521	646.03
65.9665	650.03
65.9809	629.72
65.9954	649.47
66.0098	665.61
66.0243	676.30
66.0387	669.30
66.0531	603.61
66.0676	613.46
66.0820	655.37
66.0965	626.84
66.1109	595.34
66.1253	616.76
66.1398	623.10
66.1542	592.22
66.1687	639.57
66.1831	613.14
66.1975	602.49
66.2120	598.62
66.2264	594.10
66.2409	607.10
66.2553	635.76
66.2697	611.86
66.2842	634.91
66.2986	633.98
66.3131	606.64
66.3275	595.43
66.3419	618.50
66.3564	589.84
66.3708	617.81
66.3853	632.57
66.3997	584.38
66.4141	590.10
66.4286	619.43
66.4430	613.14
66.4575	616.85
66.4719	659.82
66.4863	634.53
66.5008	625.43
66.5152	603.69
66.5297	599.95
66.5441	612.17
66.5585	611.47
66.5730	573.83
66.5874	594.88
66.6019	633.99
66.6163	607.58
66.6307	594.98
66.6452	575.67
66.6596	589.46
66.6741	574.28
66.6885	562.70
66.7029	580.91
66.7174	626.30
66.7318	594.65
66.7463	586.49
66.7607	574.40
66.7751	604.91
66.7896	596.05
66.8040	584.03
66.8185	602.78
66.8329	576.49
66.8473	572.65
66.8618	608.09
66.8762	595.85
66.8907	568.99
66.9051	594.27
66.9195	582.01
66.9340	614.56
66.9484	624.55
66.9629	558.96
66.9773	592.05
66.9917	601.55
67.0062	559.13
67.0206	577.69
67.0351	569.64
67.0495	568.12
67.0639	598.22
67.0784	579.29
67.0928	585.81
67.1073	607.29
67.1217	596.37
67.1361	577.39
67.1506	556.49
67.1650	574.46
67.1795	579.10
67.1939	545.08
67.2083	559.01
67.2228	591.48
67.2372	589.32
67.2517	601.61
67.2661	564.27
67.2805	609.56
67.2950	607.25
67.3094	579.45
67.3239	611.90
67.3383	597.14
67.3527	586.46
67.3672	587.66
67.3816	571.30
67.3961	595.08
67.4105	589.38
67.4250	573.88
67.4394	569.79
67.4538	577.86
67.4683	594.93
67.4827	580.11
67.4972	589.48
67.5116	562.00
67.5260	561.50
67.5405	592.47
67.5549	601.62
67.5694	591.72
67.5838	567.89
67.5982	579.35
67.6127	599.55
67.6271	595.06
67.6416	610.55
67.6560	570.88
67.6704	551.43
67.6849	580.04
67.6993	581.51
67.7138	604.38
67.7282	548.85
67.7426	519.29
67.7571	566.15
67.7715	571.21
67.7860	570.14
67.8004	549.85
67.8148	568.52
67.8293	546.39
67.8437	550.54
67.8582	588.28
67.8726	612.53
67.8870	581.40
67.9015	578.26
67.9159	582.05
67.9304	625.27
67.9448	582.18
67.9592	550.89
67.9737	594.05
67.9881	556.74
68.0026	583.79
68.0170	568.28
68.0314	579.17
68.0459	575.33
68.0603	564.31
68.0748	564.37
68.0892	620.79
68.1036	617.46
68.1181	601.63
68.1325	583.07
68.1470	586.81
68.1614	542.74
68.1758	580.29
68.1903	606.31
68.2047	587.24
68.2192	619.72
68.2336	549.46
68.2480	562.40
68.2625	586.87
68.2769	617.95
68.2914	595.55
68.3058	567.48
68.3202	589.53
68.3347	621.07
68.3491	595.62
68.3636	564.90
68.3780	584.58
68.3924	530.84
68.4069	525.52
68.4213	554.43
68.4358	580.00
68.4502	550.37
68.4646	587.28
68.4791	625.59
68.4935	572.15
68.5080	545.83
68.5224	547.34
68.5368	563.45
68.5513	541.03
68.5657	509.20
68.5802	560.13
68.5946	595.27
68.6090	573.42
68.6235	623.34
68.6379	600.32
68.6524	597.87
68.6668	591.07
68.6812	559.81
68.6957	548.40
68.7101	566.29
68.7246	618.18
68.7390	604.89
68.7534	582.41
68.7679	624.61
68.7823	582.63
68.7968	566.79
68.8112	602.44
68.8256	552.65
68.8401	510.62
68.8545	546.40
68.8690	576.82
68.8834	582.77
68.8978	553.97
68.9123	588.92
68.9267	577.59
68.9412	598.97
68.9556	566.66
68.9700	561.22
68.9845	578.67
68.9989	533.06
69.0134	571.54
69.0278	563.30
69.0422	561.13
69.0567	573.71
69.0711	526.12
69.0856	578.17
69.1000	557.13
69.1144	595.98
69.1289	625.98
69.1433	589.91
69.1578	573.43
69.1722	537.87
69.1866	616.37
69.2011	562.96
69.2155	589.05
69.2300	558.28
69.2444	566.02
69.2588	556.92
69.2733	578.19
69.2877	559.02
69.3022	590.38
69.3166	582.12
69.3310	563.07
69.3455	599.90
69.3599	589.96
69.3744	535.92
69.3888	589.20
69.4032	581.32
69.4177	535.53
69.4321	563.72
69.4466	553.98
69.4610	584.24
69.4754	576.54
69.4899	588.64
69.5043	591.05
69.5188	611.77
69.5332	634.89
69.5476	604.41
69.5621	543.51
69.5765	564.82
69.5910	554.18
69.6054	560.85
69.6198	554.37
69.6343	608.79
69.6487	583.15
69.6632	529.99
69.6776	603.40
69.6920	566.32
69.7065	576.85
69.7209	572.33
69.7354	531.74
69.7498	576.44
69.7642	555.78
69.7787	571.69
69.7931	602.34
69.8076	593.78
69.8220	563.21
69.8364	556.61
69.8509	565.08
69.8653	589.06
69.8798	582.77
69.8942	609.19
69.9086	557.48
69.9231	598.86
69.9375	552.58
69.9520	512.34
69.9664	500.19
69.9808	552.78
69.9953	614.75
70.0097	559.45
70.0242	577.25
70.0386	529.33
70.0530	545.05
70.0675	556.55
70.0819	571.89
70.0964	609.61
70.1108	628.77
70.1252	609.70
70.1397	579.66
70.1541	599.94
70.1686	586.41
70.1830	599.22
70.1974	545.10
70.2119	624.67
70.2263	610.72
70.2408	583.78
70.2552	532.57
70.2696	530.72
70.2841	561.33
70.2985	530.98
70.3130	565.19
70.3274	557.77
70.3418	585.24
70.3563	595.21
70.3707	578.27
70.3852	596.33
70.3996	569.47
70.4140	524.37
70.4285	621.70
70.4429	576.60
70.4574	575.76
70.4718	605.41
70.4862	565.07
70.5007	545.42
70.5151	545.01
70.5296	597.06
70.5440	583.82
70.5584	562.35
70.5729	574.41
70.5873	616.60
70.6018	588.29
70.6162	557.89
70.6306	580.13
70.6451	590.42
70.6595	577.97
70.6740	567.17
70.6884	628.07
70.7028	600.64
70.7173	597.24
70.7317	558.42
70.7462	599.92
70.7606	590.59
70.7750	634.94
70.7895	588.74
70.8039	624.76
70.8184	592.84
70.8328	601.30
70.8472	592.50
70.8617	588.74
70.8761	551.84
70.8906	571.04
70.9050	607.18
70.9194	596.52
70.9339	628.68
70.9483	607.74
70.9628	565.54
70.9772	565.45
70.9916	553.24
71.0061	555.54
71.0205	563.98
71.0350	582.26
71.0494	588.45
71.0638	577.89
71.0783	609.67
71.0927	609.08
71.1072	606.30
71.1216	588.96
71.1361	626.87
71.1505	580.29
71.1649	548.58
71.1794	539.42
71.1938	585.30
71.2083	600.59
71.2227	534.76
71.2371	567.02
71.2516	598.09
71.2660	606.14
71.2805	583.93
71.2949	570.21
71.3093	580.06
71.3238	567.65
71.3382	620.00
71.3527	598.34
71.3671	558.47
71.3815	562.16
71.3960	601.84
71.4104	551.80
71.4249	588.99
71.4393	629.68
71.4537	590.67
71.4682	624.58
71.4826	597.91
71.4971	583.71
71.5115	545.68
71.5259	542.25
71.5404	526.64
71.5548	597.58
71.5693	636.52
71.5837	540.33
71.5981	548.29
71.6126	583.11
71.6270	604.44
71.6415	594.71
71.6559	581.69
71.6703	575.77
71.6848	594.42
71.6992	587.41
71.7137	576.14
71.7281	606.99
71.7425	589.19
71.7570	584.63
71.7714	645.39
71.7859	597.13
71.8003	519.68
71.8147	590.79
71.8292	606.16
71.8436	596.89
71.8581	606.89
71.8725	562.40
71.8869	557.96
71.9014	603.41
71.9158	592.58
71.9303	548.07
71.9447	592.70
71.9591	635.87
71.9736	573.12
71.9880	558.87
72.0025	614.50
72.0169	584.94
72.0313	598.10
72.0458	600.55
72.0602	618.52
72.0747	594.41
72.0891	512.91
72.1035	529.27
72.1180	529.25
72.1324	484.00
72.1469	518.83
72.1613	529.86
72.1757	586.59
72.1902	543.31
72.2046	543.10
72.2191	526.18
72.2335	466.68
72.2479	513.94
72.2624	496.17
72.2768	594.32
72.2913	585.60
72.3057	568.59
72.3201	556.19
72.3346	593.70
72.3490	556.51
72.3635	474.64
72.3779	485.02
72.3923	538.52
72.4068	566.23
72.4212	591.30
72.4357	581.63
72.4501	590.74
72.4645	617.22
72.4790	553.74
72.4934	536.56
72.5079	573.81
72.5223	528.46
72.5367	526.48
72.5512	609.79
72.5656	587.10
72.5801	529.09
72.5945	526.75
72.6089	560.71
72.6234	615.35
72.6378	638.70
72.6523	586.46
72.6667	518.45
72.6811	580.50
72.6956	562.68
72.7100	586.59
72.7245	588.93
72.7389	601.69
72.7533	606.00
72.7678	618.07
72.7822	636.89
72.7967	618.96
72.8111	625.58
72.8255	568.49
72.8400	547.22
72.8544	598.92
72.8689	631.45
72.8833	637.91