2022.09.19 19:37:16
Îáðàçåö: ß÷åéêà LCoV 16-09-2022
Lambda1 = 1.54060
Lambda2 = 1.54439
Lambdam = 1.54186
R = 0.497
2Theta	I

line¹ 0 ;repeat¹ 0
22.1120	524.34
22.1264	582.71
22.1409	590.12
22.1553	567.36
22.1697	598.89
22.1842	558.63
22.1986	558.19
22.2131	641.42
22.2275	608.43
22.2419	513.00
22.2564	563.59
22.2708	583.57
22.2853	626.06
22.2997	592.35
22.3141	587.73
22.3286	556.64
22.3430	538.37
22.3575	629.93
22.3719	616.83
22.3863	542.47
22.4008	506.48
22.4152	577.07
22.4297	706.20
22.4441	628.00
22.4585	555.15
22.4730	554.40
22.4874	545.91
22.5019	592.35
22.5163	599.98
22.5307	637.88
22.5452	684.36
22.5596	691.97
22.5741	700.96
22.5885	667.11
22.6029	641.36
22.6174	564.81
22.6318	540.01
22.6463	522.66
22.6607	555.81
22.6751	504.08
22.6896	524.24
22.7040	655.73
22.7185	551.87
22.7329	530.37
22.7473	504.22
22.7618	485.07
22.7762	556.83
22.7907	577.33
22.8051	515.02
22.8195	560.77
22.8340	550.35
22.8484	513.51
22.8629	588.22
22.8773	602.13
22.8917	484.54
22.9062	529.09
22.9206	599.53
22.9351	578.14
22.9495	510.29
22.9639	532.08
22.9784	513.15
22.9928	544.69
23.0073	568.08
23.0217	543.55
23.0361	529.27
23.0506	531.22
23.0650	590.97
23.0795	575.61
23.0939	555.62
23.1083	585.17
23.1228	554.11
23.1372	572.59
23.1517	581.36
23.1661	558.36
23.1806	645.10
23.1950	514.30
23.2094	614.14
23.2239	493.80
23.2383	654.73
23.2528	588.14
23.2672	480.27
23.2816	580.82
23.2961	512.87
23.3105	575.95
23.3250	508.68
23.3394	549.98
23.3538	605.49
23.3683	583.22
23.3827	561.26
23.3972	589.38
23.4116	553.48
23.4260	592.93
23.4405	515.32
23.4549	561.34
23.4694	577.27
23.4838	496.93
23.4982	562.66
23.5127	563.21
23.5271	563.31
23.5416	520.53
23.5560	539.61
23.5704	546.75
23.5849	532.10
23.5993	505.43
23.6138	569.14
23.6282	580.00
23.6426	499.61
23.6571	595.80
23.6715	549.87
23.6860	532.89
23.7004	562.94
23.7148	564.03
23.7293	593.02
23.7437	575.63
23.7582	562.48
23.7726	550.54
23.7870	611.12
23.8015	521.02
23.8159	557.87
23.8304	602.31
23.8448	574.81
23.8592	627.64
23.8737	599.98
23.8881	520.02
23.9026	569.27
23.9170	527.87
23.9314	536.16
23.9459	564.02
23.9603	509.41
23.9748	523.87
23.9892	594.29
24.0036	547.75
24.0181	581.46
24.0325	641.31
24.0470	547.95
24.0614	577.43
24.0758	561.06
24.0903	561.51
24.1047	608.22
24.1192	550.14
24.1336	582.23
24.1480	600.26
24.1625	587.61
24.1769	549.57
24.1914	595.19
24.2058	557.98
24.2202	633.78
24.2347	604.11
24.2491	618.07
24.2636	590.22
24.2780	555.03
24.2924	585.97
24.3069	599.01
24.3213	568.94
24.3358	547.33
24.3502	545.71
24.3646	540.74
24.3791	578.29
24.3935	580.17
24.4080	517.33
24.4224	524.65
24.4368	492.89
24.4513	533.77
24.4657	593.88
24.4802	581.87
24.4946	509.89
24.5090	521.97
24.5235	566.48
24.5379	525.08
24.5524	572.74
24.5668	602.63
24.5812	517.38
24.5957	575.85
24.6101	547.91
24.6246	529.05
24.6390	543.18
24.6534	565.73
24.6679	532.54
24.6823	562.21
24.6968	548.80
24.7112	519.17
24.7256	537.77
24.7401	565.16
24.7545	585.29
24.7690	547.73
24.7834	562.18
24.7978	545.61
24.8123	569.12
24.8267	514.52
24.8412	515.41
24.8556	565.20
24.8700	550.83
24.8845	565.10
24.8989	583.81
24.9134	484.60
24.9278	517.85
24.9422	504.01
24.9567	579.35
24.9711	552.96
24.9856	514.10
25.0000	537.39
25.0144	552.75
25.0289	548.71
25.0433	577.71
25.0578	592.88
25.0722	544.97
25.0866	597.64
25.1011	511.52
25.1155	542.48
25.1300	579.95
25.1444	545.86
25.1588	522.24
25.1733	566.24
25.1877	526.96
25.2022	511.98
25.2166	522.36
25.2310	529.86
25.2455	571.04
25.2599	547.56
25.2744	536.94
25.2888	513.09
25.3032	579.28
25.3177	571.27
25.3321	559.17
25.3466	577.50
25.3610	562.99
25.3754	520.85
25.3899	513.67
25.4043	526.85
25.4188	537.40
25.4332	538.62
25.4476	540.03
25.4621	582.36
25.4765	579.38
25.4910	539.60
25.5054	525.88
25.5198	510.06
25.5343	542.77
25.5487	545.44
25.5632	518.29
25.5776	561.78
25.5920	548.01
25.6065	509.87
25.6209	543.35
25.6354	486.72
25.6498	481.06
25.6642	511.35
25.6787	537.39
25.6931	497.66
25.7076	546.11
25.7220	553.02
25.7364	565.42
25.7509	537.78
25.7653	541.89
25.7798	612.66
25.7942	551.48
25.8086	591.97
25.8231	576.10
25.8375	543.17
25.8520	509.48
25.8664	518.41
25.8808	557.51
25.8953	553.23
25.9097	558.49
25.9242	505.27
25.9386	523.84
25.9530	526.21
25.9675	537.99
25.9819	515.42
25.9964	526.58
26.0108	531.29
26.0252	561.77
26.0397	535.10
26.0541	510.47
26.0686	526.73
26.0830	501.93
26.0974	528.86
26.1119	518.24
26.1263	535.85
26.1408	551.07
26.1552	535.21
26.1696	523.03
26.1841	541.24
26.1985	529.15
26.2130	555.34
26.2274	577.54
26.2418	578.78
26.2563	552.98
26.2707	527.84
26.2852	548.32
26.2996	529.03
26.3140	529.82
26.3285	524.62
26.3429	509.31
26.3574	509.34
26.3718	518.36
26.3862	529.04
26.4007	544.45
26.4151	541.44
26.4296	521.10
26.4440	497.38
26.4584	541.26
26.4729	557.45
26.4873	517.13
26.5018	504.37
26.5162	509.00
26.5306	504.16
26.5451	537.09
26.5595	527.03
26.5740	542.13
26.5884	547.40
26.6028	575.36
26.6173	542.86
26.6317	540.05
26.6462	503.11
26.6606	516.68
26.6750	521.62
26.6895	534.75
26.7039	512.85
26.7184	509.79
26.7328	517.92
26.7472	529.53
26.7617	548.01
26.7761	526.14
26.7906	537.70
26.8050	507.56
26.8194	530.83
26.8339	555.48
26.8483	557.64
26.8628	550.53
26.8772	559.98
26.8917	539.07
26.9061	529.16
26.9205	541.29
26.9350	550.75
26.9494	501.09
26.9639	487.21
26.9783	502.69
26.9927	539.72
27.0072	533.49
27.0216	531.54
27.0361	510.66
27.0505	516.40
27.0649	538.39
27.0794	546.77
27.0938	526.78
27.1083	509.79
27.1227	564.07
27.1371	536.36
27.1516	506.75
27.1660	514.73
27.1805	511.50
27.1949	523.75
27.2093	571.51
27.2238	558.89
27.2382	538.21
27.2527	507.34
27.2671	493.55
27.2815	485.70
27.2960	541.98
27.3104	517.79
27.3249	501.31
27.3393	518.29
27.3537	515.12
27.3682	524.73
27.3826	530.30
27.3971	521.93
27.4115	516.15
27.4259	547.18
27.4404	505.37
27.4548	513.90
27.4693	529.98
27.4837	522.55
27.4981	532.17
27.5126	529.48
27.5270	528.59
27.5415	545.23
27.5559	530.67
27.5703	542.63
27.5848	527.85
27.5992	517.20
27.6137	523.97
27.6281	548.22
27.6425	538.71
27.6570	515.63
27.6714	551.35
27.6859	500.72
27.7003	499.05
27.7147	485.09
27.7292	522.07
27.7436	533.86
27.7581	528.96
27.7725	524.65
27.7869	535.47
27.8014	523.11
27.8158	510.43
27.8303	533.42
27.8447	492.92
27.8591	487.02
27.8736	529.39
27.8880	518.95
27.9025	527.78
27.9169	513.64
27.9313	480.63
27.9458	527.24
27.9602	501.98
27.9747	496.47
27.9891	549.98
28.0035	528.94
28.0180	527.86
28.0324	475.26
28.0469	495.68
28.0613	542.18
28.0757	536.05
28.0902	513.62
28.1046	541.12
28.1191	531.39
28.1335	506.95
28.1479	530.59
28.1624	515.93
28.1768	506.37
28.1913	529.84
28.2057	503.84
28.2201	512.94
28.2346	546.12
28.2490	527.67
28.2635	500.26
28.2779	487.24
28.2923	511.24
28.3068	523.93
28.3212	532.62
28.3357	491.23
28.3501	517.42
28.3645	531.49
28.3790	524.48
28.3934	489.09
28.4079	491.56
28.4223	509.70
28.4367	534.93
28.4512	528.93
28.4656	511.94
28.4801	510.91
28.4945	495.42
28.5089	498.62
28.5234	513.52
28.5378	539.75
28.5523	526.73
28.5667	532.93
28.5811	534.74
28.5956	503.86
28.6100	513.41
28.6245	503.35
28.6389	529.03
28.6533	530.12
28.6678	528.40
28.6822	511.10
28.6967	536.32
28.7111	563.15
28.7255	521.07
28.7400	513.59
28.7544	503.18
28.7689	502.04
28.7833	536.90
28.7977	528.63
28.8122	507.51
28.8266	551.33
28.8411	514.71
28.8555	524.31
28.8699	540.57
28.8844	549.56
28.8988	535.19
28.9133	504.42
28.9277	512.30
28.9421	526.52
28.9566	527.15
28.9710	566.49
28.9855	527.74
28.9999	491.50
29.0143	558.47
29.0288	513.32
29.0432	503.33
29.0577	536.46
29.0721	536.41
29.0865	540.98
29.1010	527.02
29.1154	559.09
29.1299	517.81
29.1443	492.32
29.1587	497.66
29.1732	535.63
29.1876	495.45
29.2021	488.24
29.2165	490.02
29.2309	505.37
29.2454	490.54
29.2598	512.02
29.2743	538.03
29.2887	523.41
29.3031	496.56
29.3176	494.97
29.3320	541.01
29.3465	518.54
29.3609	518.81
29.3753	488.35
29.3898	465.25
29.4042	500.95
29.4187	510.76
29.4331	505.19
29.4475	486.95
29.4620	505.25
29.4764	496.91
29.4909	507.17
29.5053	526.68
29.5197	472.99
29.5342	533.74
29.5486	529.67
29.5631	487.15
29.5775	492.15
29.5919	539.33
29.6064	531.56
29.6208	498.83
29.6353	487.33
29.6497	521.03
29.6641	520.64
29.6786	492.26
29.6930	487.45
29.7075	539.30
29.7219	537.27
29.7363	515.87
29.7508	507.27
29.7652	478.18
29.7797	529.95
29.7941	537.33
29.8085	511.38
29.8230	530.25
29.8374	511.19
29.8519	507.77
29.8663	523.23
29.8807	504.05
29.8952	502.61
29.9096	513.80
29.9241	526.67
29.9385	511.72
29.9529	486.30
29.9674	462.67
29.9818	518.33
29.9963	514.03
30.0107	509.79
30.0251	536.47
30.0396	498.95
30.0540	498.39
30.0685	529.89
30.0829	507.62
30.0973	484.52
30.1118	481.65
30.1262	523.17
30.1407	513.08
30.1551	539.69
30.1695	548.68
30.1840	541.09
30.1984	511.39
30.2129	513.32
30.2273	525.11
30.2417	520.76
30.2562	510.22
30.2706	536.44
30.2851	508.50
30.2995	532.06
30.3139	493.54
30.3284	492.99
30.3428	504.06
30.3573	502.93
30.3717	521.73
30.3861	493.11
30.4006	477.18
30.4150	499.26
30.4295	478.30
30.4439	473.59
30.4583	522.42
30.4728	509.07
30.4872	494.09
30.5017	529.25
30.5161	528.41
30.5305	493.93
30.5450	475.89
30.5594	511.78
30.5739	499.71
30.5883	509.38
30.6028	511.60
30.6172	528.73
30.6316	549.48
30.6461	561.33
30.6605	552.64
30.6750	510.82
30.6894	512.05
30.7038	534.95
30.7183	553.91
30.7327	581.30
30.7472	604.63
30.7616	627.66
30.7760	645.61
30.7905	678.00
30.8049	630.42
30.8194	668.60
30.8338	691.59
30.8482	736.30
30.8627	715.37
30.8771	647.07
30.8916	641.13
30.9060	666.78
30.9204	644.73
30.9349	620.57
30.9493	620.90
30.9638	575.75
30.9782	591.70
30.9926	606.58
31.0071	573.60
31.0215	545.37
31.0360	554.39
31.0504	521.91
31.0648	512.98
31.0793	517.37
31.0937	528.41
31.1082	522.79
31.1226	517.71
31.1370	537.12
31.1515	506.25
31.1659	524.04
31.1804	519.68
31.1948	516.67
31.2092	534.19
31.2237	509.76
31.2381	516.00
31.2526	514.26
31.2670	525.64
31.2814	556.67
31.2959	519.23
31.3103	505.67
31.3248	555.69
31.3392	565.91
31.3536	516.94
31.3681	512.34
31.3825	517.13
31.3970	531.45
31.4114	502.29
31.4258	545.48
31.4403	525.95
31.4547	523.86
31.4692	524.89
31.4836	513.56
31.4980	540.59
31.5125	530.78
31.5269	546.12
31.5414	514.84
31.5558	509.71
31.5702	485.68
31.5847	495.09
31.5991	499.43
31.6136	484.24
31.6280	493.17
31.6424	510.63
31.6569	519.98
31.6713	510.80
31.6858	540.78
31.7002	506.63
31.7146	519.77
31.7291	520.74
31.7435	498.57
31.7580	511.93
31.7724	513.73
31.7868	503.17
31.8013	496.76
31.8157	523.59
31.8302	530.96
31.8446	500.62
31.8590	513.79
31.8735	498.77
31.8879	512.81
31.9024	530.57
31.9168	505.38
31.9312	510.24
31.9457	503.16
31.9601	513.83
31.9746	539.68
31.9890	558.43
32.0034	512.55
32.0179	519.82
32.0323	493.05
32.0468	485.93
32.0612	539.67
32.0756	500.42
32.0901	522.69
32.1045	500.13
32.1190	509.13
32.1334	492.91
32.1478	531.03
32.1623	558.83
32.1767	483.20
32.1912	503.30
32.2056	492.84
32.2200	482.08
32.2345	510.92
32.2489	497.16
32.2634	506.80
32.2778	493.13
32.2922	513.46
32.3067	507.99
32.3211	527.27
32.3356	527.41
32.3500	519.71
32.3644	503.05
32.3789	522.68
32.3933	467.36
32.4078	481.83
32.4222	527.52
32.4366	509.94
32.4511	527.74
32.4655	515.03
32.4800	482.65
32.4944	523.34
32.5088	520.68
32.5233	510.08
32.5377	511.17
32.5522	503.72
32.5666	539.44
32.5810	553.57
32.5955	505.20
32.6099	497.00
32.6244	492.76
32.6388	523.56
32.6532	521.92
32.6677	495.00
32.6821	471.27
32.6966	515.05
32.7110	527.77
32.7254	477.76
32.7399	462.36
32.7543	511.25
32.7688	526.57
32.7832	529.36
32.7976	509.70
32.8121	550.02
32.8265	512.49
32.8410	490.65
32.8554	474.46
32.8698	494.67
32.8843	470.68
32.8987	533.90
32.9132	494.47
32.9276	508.18
32.9420	469.29
32.9565	494.12
32.9709	467.58
32.9854	489.23
32.9998	482.30
33.0142	505.98
33.0287	489.48
33.0431	502.52
33.0576	484.70
33.0720	487.33
33.0864	507.85
33.1009	541.99
33.1153	517.62
33.1298	516.05
33.1442	514.75
33.1586	487.80
33.1731	499.91
33.1875	480.68
33.2020	513.41
33.2164	512.26
33.2308	507.47
33.2453	507.63
33.2597	501.65
33.2742	458.11
33.2886	481.59
33.3030	528.87
33.3175	503.77
33.3319	512.69
33.3464	532.32
33.3608	505.73
33.3752	534.28
33.3897	511.90
33.4041	523.68
33.4186	484.32
33.4330	500.29
33.4474	499.72
33.4619	483.06
33.4763	477.71
33.4908	518.79
33.5052	496.67
33.5196	562.11
33.5341	527.24
33.5485	512.70
33.5630	502.40
33.5774	491.51
33.5918	502.11
33.6063	519.49
33.6207	505.39
33.6352	498.60
33.6496	508.23
33.6640	501.43
33.6785	510.18
33.6929	503.90
33.7074	539.48
33.7218	530.15
33.7362	505.81
33.7507	532.84
33.7651	502.60
33.7796	495.40
33.7940	507.40
33.8084	549.47
33.8229	535.09
33.8373	495.68
33.8518	480.71
33.8662	511.21
33.8806	524.62
33.8951	529.19
33.9095	561.66
33.9240	499.91
33.9384	510.67
33.9528	499.21
33.9673	530.75
33.9817	488.22
33.9962	478.88
34.0106	487.12
34.0250	513.03
34.0395	467.75
34.0539	518.75
34.0684	538.68
34.0828	509.54
34.0972	515.59
34.1117	487.14
34.1261	478.56
34.1406	502.40
34.1550	479.30
34.1694	492.53
34.1839	511.39
34.1983	476.72
34.2128	525.50
34.2272	498.12
34.2417	510.64
34.2561	533.80
34.2705	531.78
34.2850	504.34
34.2994	497.30
34.3139	520.85
34.3283	523.72
34.3427	529.33
34.3572	479.92
34.3716	500.80
34.3861	519.73
34.4005	523.84
34.4149	501.94
34.4294	518.23
34.4438	522.57
34.4583	530.71
34.4727	504.48
34.4871	515.17
34.5016	488.59
34.5160	497.71
34.5305	520.85
34.5449	500.80
34.5593	509.25
34.5738	501.08
34.5882	497.26
34.6027	524.50
34.6171	514.25
34.6315	508.91
34.6460	507.36
34.6604	517.36
34.6749	514.28
34.6893	507.09
34.7037	529.37
34.7182	523.67
34.7326	527.10
34.7471	515.11
34.7615	524.90
34.7759	491.94
34.7904	494.49
34.8048	528.42
34.8193	523.81
34.8337	492.74
34.8481	499.49
34.8626	513.64
34.8770	513.93
34.8915	512.41
34.9059	523.92
34.9203	502.75
34.9348	486.91
34.9492	491.50
34.9637	502.57
34.9781	510.65
34.9925	488.15
35.0070	471.18
35.0214	507.66
35.0359	508.05
35.0503	523.91
35.0647	549.86
35.0792	549.47
35.0936	516.74
35.1081	509.17
35.1225	535.39
35.1369	499.65
35.1514	493.70
35.1658	520.48
35.1803	488.97
35.1947	474.04
35.2091	508.00
35.2236	490.17
35.2380	549.95
35.2525	509.25
35.2669	492.81
35.2813	498.53
35.2958	482.50
35.3102	497.93
35.3247	497.50
35.3391	526.67
35.3535	522.34
35.3680	522.15
35.3824	542.02
35.3969	509.42
35.4113	516.55
35.4257	536.98
35.4402	516.13
35.4546	538.08
35.4691	519.41
35.4835	543.13
35.4979	515.93
35.5124	517.13
35.5268	543.58
35.5413	530.89
35.5557	513.12
35.5701	549.81
35.5846	520.14
35.5990	511.89
35.6135	508.48
35.6279	537.95
35.6423	529.52
35.6568	527.36
35.6712	526.38
35.6857	592.79
35.7001	663.87
35.7145	676.49
35.7290	625.75
35.7434	571.65
35.7579	539.97
35.7723	586.47
35.7867	628.91
35.8012	634.11
35.8156	630.70
35.8301	643.17
35.8445	667.77
35.8589	667.97
35.8734	748.94
35.8878	846.92
35.9023	1029.47
35.9167	1108.64
35.9311	1401.74
35.9456	2210.58
35.9600	2351.50
35.9745	1871.48
35.9889	1794.10
36.0033	2209.40
36.0178	2288.82
36.0322	1953.66
36.0467	1847.93
36.0611	1700.23
36.0755	1628.10
36.0900	1602.79
36.1044	1335.12
36.1189	1389.44
36.1333	1196.50
36.1477	1095.86
36.1622	1078.67
36.1766	1078.96
36.1911	933.80
36.2055	868.16
36.2199	871.46
36.2344	890.80
36.2488	925.18
36.2633	923.69
36.2777	983.72
36.2921	1022.22
36.3066	1035.77
36.3210	1050.50
36.3355	1018.58
36.3499	1031.05
36.3643	956.68
36.3788	900.14
36.3932	882.83
36.4077	805.56
36.4221	856.84
36.4365	777.20
36.4510	707.56
36.4654	665.33
36.4799	666.42
36.4943	633.50
36.5087	611.53
36.5232	604.50
36.5376	574.38
36.5521	611.40
36.5665	588.95
36.5809	556.43
36.5954	600.29
36.6098	542.57
36.6243	523.10
36.6387	554.21
36.6531	525.37
36.6676	539.64
36.6820	546.84
36.6965	509.11
36.7109	537.19
36.7253	528.40
36.7398	530.33
36.7542	565.54
36.7687	570.72
36.7831	561.44
36.7975	573.19
36.8120	584.64
36.8264	581.02
36.8409	596.85
36.8553	595.11
36.8697	598.07
36.8842	619.57
36.8986	609.07
36.9131	568.40
36.9275	591.25
36.9419	579.29
36.9564	535.94
36.9708	527.15
36.9853	536.28
36.9997	569.26
37.0141	530.25
37.0286	576.83
37.0430	554.63
37.0575	531.52
37.0719	546.83
37.0863	532.45
37.1008	480.27
37.1152	527.25
37.1297	554.86
37.1441	494.94
37.1585	524.53
37.1730	530.01
37.1874	558.98
37.2019	500.72
37.2163	492.13
37.2307	498.85
37.2452	511.47
37.2596	464.05
37.2741	500.21
37.2885	508.01
37.3029	507.89
37.3174	523.01
37.3318	514.66
37.3463	524.24
37.3607	540.86
37.3751	526.01
37.3896	500.52
37.4040	506.13
37.4185	481.98
37.4329	506.26
37.4473	515.36
37.4618	520.09
37.4762	525.37
37.4907	510.04
37.5051	498.37
37.5195	512.59
37.5340	524.06
37.5484	508.20
37.5629	524.46
37.5773	487.84
37.5917	502.00
37.6062	505.90
37.6206	505.37
37.6351	502.69
37.6495	494.76
37.6639	464.92
37.6784	532.12
37.6928	495.56
37.7073	500.11
37.7217	500.70
37.7361	498.39
37.7506	502.78
37.7650	492.20
37.7795	479.88
37.7939	492.54
37.8083	470.50
37.8228	518.36
37.8372	501.53
37.8517	535.81
37.8661	527.99
37.8805	491.98
37.8950	488.65
37.9094	523.38
37.9239	525.16
37.9383	535.74
37.9528	502.70
37.9672	486.39
37.9816	511.39
37.9961	516.50
38.0105	490.83
38.0250	501.95
38.0394	497.17
38.0538	509.15
38.0683	516.41
38.0827	515.54
38.0972	506.10
38.1116	509.73
38.1260	499.25
38.1405	489.86
38.1549	486.68
38.1694	499.84
38.1838	533.28
38.1982	512.57
38.2127	500.75
38.2271	527.76
38.2416	533.08
38.2560	522.08
38.2704	527.21
38.2849	533.31
38.2993	514.68
38.3138	518.84
38.3282	507.09
38.3426	531.63
38.3571	520.79
38.3715	530.14
38.3860	524.10
38.4004	509.78
38.4148	536.73
38.4293	623.83
38.4437	589.82
38.4582	575.45
38.4726	648.91
38.4870	698.71
38.5015	765.63
38.5159	783.81
38.5304	773.25
38.5448	779.58
38.5592	781.05
38.5737	748.74
38.5881	712.36
38.6026	696.28
38.6170	663.87
38.6314	690.30
38.6459	677.58
38.6603	636.58
38.6748	579.67
38.6892	599.22
38.7036	615.71
38.7181	552.06
38.7325	506.42
38.7470	516.94
38.7614	528.20
38.7758	514.50
38.7903	522.19
38.8047	504.80
38.8192	515.97
38.8336	484.94
38.8480	511.55
38.8625	517.60
38.8769	520.33
38.8914	493.48
38.9058	503.18
38.9202	521.36
38.9347	509.15
38.9491	509.87
38.9636	507.36
38.9780	504.83
38.9924	474.51
39.0069	503.10
39.0213	504.53
39.0358	467.82
39.0502	483.83
39.0646	502.12
39.0791	515.61
39.0935	547.82
39.1080	486.36
39.1224	479.06
39.1368	503.84
39.1513	511.68
39.1657	527.38
39.1802	529.16
39.1946	520.81
39.2090	499.26
39.2235	530.05
39.2379	507.32
39.2524	498.49
39.2668	544.12
39.2812	540.12
39.2957	499.14
39.3101	491.86
39.3246	482.45
39.3390	514.02
39.3534	504.74
39.3679	538.99
39.3823	495.48
39.3968	512.86
39.4112	528.96
39.4256	527.69
39.4401	522.16
39.4545	535.39
39.4690	529.88
39.4834	501.66
39.4978	484.68
39.5123	492.22
39.5267	528.93
39.5412	519.45
39.5556	491.82
39.5700	497.13
39.5845	504.00
39.5989	511.70
39.6134	505.12
39.6278	473.68
39.6422	481.36
39.6567	501.39
39.6711	508.74
39.6856	484.84
39.7000	492.26
39.7144	504.29
39.7289	514.77
39.7433	497.37
39.7578	524.51
39.7722	501.12
39.7866	490.59
39.8011	486.90
39.8155	509.29
39.8300	526.46
39.8444	504.83
39.8588	534.11
39.8733	503.45
39.8877	482.75
39.9022	497.58
39.9166	503.61
39.9310	461.51
39.9455	453.23
39.9599	515.69
39.9744	452.51
39.9888	462.74
40.0032	503.48
40.0177	535.52
40.0321	542.97
40.0466	503.15
40.0610	484.69
40.0754	517.16
40.0899	496.14
40.1043	455.05
40.1188	521.22
40.1332	483.78
40.1476	489.97
40.1621	515.59
40.1765	513.38
40.1910	446.53
40.2054	493.11
40.2198	464.66
40.2343	509.97
40.2487	487.98
40.2632	510.26
40.2776	506.28
40.2920	486.83
40.3065	504.86
40.3209	505.42
40.3354	485.19
40.3498	467.58
40.3642	461.31
40.3787	471.48
40.3931	470.49
40.4076	495.14
40.4220	506.27
40.4364	516.76
40.4509	460.84
40.4653	458.48
40.4798	477.88
40.4942	509.61
40.5086	516.75
40.5231	518.70
40.5375	507.52
40.5520	476.37
40.5664	484.92
40.5808	473.27
40.5953	459.66
40.6097	458.90
40.6242	494.32
40.6386	532.73
40.6530	498.74
40.6675	514.83
40.6819	504.28
40.6964	516.84
40.7108	503.88
40.7252	494.82
40.7397	467.19
40.7541	483.17
40.7686	508.43
40.7830	515.01
40.7974	517.66
40.8119	499.61
40.8263	515.57
40.8408	502.17
40.8552	490.11
40.8696	496.77
40.8841	485.92
40.8985	560.95
40.9130	491.69
40.9274	466.59
40.9418	528.21
40.9563	499.60
40.9707	488.28
40.9852	533.47
40.9996	491.71
41.0140	507.95
41.0285	522.73
41.0429	526.08
41.0574	496.77
41.0718	488.74
41.0862	509.74
41.1007	469.53
41.1151	519.60
41.1296	491.90
41.1440	466.39
41.1584	481.87
41.1729	495.96
41.1873	514.13
41.2018	461.27
41.2162	515.14
41.2306	521.25
41.2451	505.83
41.2595	485.98
41.2740	499.01
41.2884	466.93
41.3028	489.86
41.3173	509.75
41.3317	516.29
41.3462	486.31
41.3606	463.70
41.3750	502.83
41.3895	512.33
41.4039	502.92
41.4184	513.67
41.4328	519.97
41.4472	504.37
41.4617	490.75
41.4761	532.34
41.4906	503.34
41.5050	487.14
41.5194	530.43
41.5339	515.54
41.5483	509.32
41.5628	512.88
41.5772	494.03
41.5916	498.94
41.6061	516.40
41.6205	489.33
41.6350	526.39
41.6494	485.28
41.6639	469.34
41.6783	499.32
41.6927	492.19
41.7072	510.45
41.7216	509.72
41.7361	506.25
41.7505	512.06
41.7649	527.09
41.7794	505.32
41.7938	472.44
41.8083	483.02
41.8227	493.46
41.8371	483.96
41.8516	499.23
41.8660	523.62
41.8805	537.26
41.8949	513.81
41.9093	567.25
41.9238	534.93
41.9382	547.97
41.9527	544.82
41.9671	545.42
41.9815	575.23
41.9960	534.86
42.0104	551.59
42.0249	598.67
42.0393	570.85
42.0537	534.32
42.0682	570.59
42.0826	561.96
42.0971	555.08
42.1115	566.37
42.1259	606.47
42.1404	597.33
42.1548	584.21
42.1693	636.11
42.1837	671.56
42.1981	743.27
42.2126	822.84
42.2270	918.27
42.2415	999.01
42.2559	1188.90
42.2703	1324.05
42.2848	1439.13
42.2992	1558.92
42.3137	1547.28
42.3281	1548.84
42.3425	1504.10
42.3570	1423.77
42.3714	1361.57
42.3859	1339.18
42.4003	1291.34
42.4147	1317.03
42.4292	1235.60
42.4436	1102.80
42.4581	1007.24
42.4725	916.97
42.4869	817.70
42.5014	744.96
42.5158	661.99
42.5303	634.73
42.5447	623.47
42.5591	607.48
42.5736	598.63
42.5880	579.82
42.6025	578.36
42.6169	563.92
42.6313	551.65
42.6458	557.61
42.6602	553.65
42.6747	541.51
42.6891	536.48
42.7035	584.48
42.7180	528.37
42.7324	503.32
42.7469	494.50
42.7613	485.57
42.7757	509.43
42.7902	565.39
42.8046	513.83
42.8191	531.44
42.8335	546.36
42.8479	520.15
42.8624	502.86
42.8768	520.66
42.8913	525.34
42.9057	530.34
42.9201	507.79
42.9346	476.05
42.9490	505.53
42.9635	522.05
42.9779	511.63
42.9923	521.94
43.0068	510.55
43.0212	544.92
43.0357	530.14
43.0501	504.02
43.0645	520.65
43.0790	539.42
43.0934	493.92
43.1079	480.46
43.1223	493.87
43.1367	491.53
43.1512	508.26
43.1656	504.91
43.1801	483.10
43.1945	504.09
43.2089	528.32
43.2234	543.26
43.2378	521.38
43.2523	519.62
43.2667	514.22
43.2811	533.41
43.2956	520.27
43.3100	524.46
43.3245	545.34
43.3389	549.02
43.3533	560.18
43.3678	520.81
43.3822	514.03
43.3967	529.90
43.4111	546.06
43.4255	507.30
43.4400	494.53
43.4544	506.73
43.4689	498.36
43.4833	512.58
43.4977	517.99
43.5122	476.74
43.5266	503.20
43.5411	489.00
43.5555	504.33
43.5699	509.49
43.5844	519.14
43.5988	516.16
43.6133	525.44
43.6277	508.05
43.6421	528.27
43.6566	524.80
43.6710	506.02
43.6855	480.36
43.6999	479.90
43.7143	523.28
43.7288	522.61
43.7432	558.18
43.7577	494.64
43.7721	501.33
43.7865	514.55
43.8010	497.20
43.8154	542.31
43.8299	533.97
43.8443	526.30
43.8587	542.99
43.8732	516.71
43.8876	509.66
43.9021	519.34
43.9165	545.37
43.9309	528.36
43.9454	526.96
43.9598	555.61
43.9743	500.15
43.9887	508.76
44.0031	510.42
44.0176	569.58
44.0320	529.01
44.0465	600.40
44.0609	602.18
44.0753	604.57
44.0898	636.21
44.1042	652.32
44.1187	613.96
44.1331	649.96
44.1475	638.04
44.1620	665.67
44.1764	603.68
44.1909	595.25
44.2053	608.87
44.2197	618.05
44.2342	601.90
44.2486	596.56
44.2631	576.92
44.2775	611.88
44.2919	577.80
44.3064	564.22
44.3208	588.88
44.3353	559.35
44.3497	560.98
44.3641	554.80
44.3786	547.79
44.3930	536.60
44.4075	553.11
44.4219	582.49
44.4363	572.98
44.4508	577.05
44.4652	612.59
44.4797	598.03
44.4941	584.60
44.5085	556.43
44.5230	582.92
44.5374	579.62
44.5519	603.82
44.5663	579.49
44.5807	563.83
44.5952	605.33
44.6096	576.08
44.6241	621.80
44.6385	580.66
44.6529	567.66
44.6674	582.81
44.6818	590.77
44.6963	613.12
44.7107	660.51
44.7251	710.56
44.7396	736.64
44.7540	822.51
44.7685	883.10
44.7829	874.51
44.7973	866.11
44.8118	871.63
44.8262	855.80
44.8407	806.90
44.8551	788.53
44.8695	739.94
44.8840	736.99
44.8984	763.53
44.9129	711.39
44.9273	670.08
44.9417	667.61
44.9562	620.13
44.9706	577.98
44.9851	591.87
44.9995	548.06
45.0139	532.44
45.0284	569.77
45.0428	547.05
45.0573	544.28
45.0717	527.52
45.0861	486.68
45.1006	506.56
45.1150	472.35
45.1295	494.53
45.1439	486.49
45.1583	522.02
45.1728	541.25
45.1872	506.03
45.2017	515.16
45.2161	509.55
45.2305	478.94
45.2450	493.38
45.2594	499.27
45.2739	542.01
45.2883	519.48
45.3028	511.23
45.3172	482.13
45.3316	492.40
45.3461	495.16
45.3605	500.01
45.3750	550.56
45.3894	509.29
45.4038	516.76
45.4183	519.92
45.4327	526.04
45.4472	516.93
45.4616	514.75
45.4760	542.86
45.4905	494.80
45.5049	488.95
45.5194	514.90
45.5338	524.12
45.5482	515.70
45.5627	505.12
45.5771	505.77
45.5916	542.51
45.6060	519.43
45.6204	510.16
45.6349	508.33
45.6493	510.00
45.6638	513.63
45.6782	499.22
45.6926	483.39
45.7071	523.16
45.7215	485.44
45.7360	500.38
45.7504	528.55
45.7648	484.31
45.7793	502.09
45.7937	534.45
45.8082	507.24
45.8226	514.07
45.8370	532.86
45.8515	487.06
45.8659	515.34
45.8804	529.03
45.8948	538.30
45.9092	528.96
45.9237	472.70
45.9381	533.95
45.9526	535.40
45.9670	495.80
45.9814	493.25
45.9959	489.73
46.0103	483.69
46.0248	491.33
46.0392	509.73
46.0536	532.68
46.0681	492.95
46.0825	475.21
46.0970	512.41
46.1114	512.37
46.1258	519.17
46.1403	507.77
46.1547	523.77
46.1692	483.71
46.1836	520.77
46.1980	512.51
46.2125	516.04
46.2269	503.25
46.2414	504.88
46.2558	518.00
46.2702	527.86
46.2847	492.91
46.2991	505.54
46.3136	482.91
46.3280	529.82
46.3424	500.50
46.3569	520.39
46.3713	508.53
46.3858	472.70
46.4002	479.08
46.4146	483.82
46.4291	500.42
46.4435	500.07
46.4580	505.52
46.4724	512.58
46.4868	512.29
46.5013	529.93
46.5157	515.16
46.5302	511.70
46.5446	512.17
46.5590	484.07
46.5735	487.58
46.5879	495.16
46.6024	500.36
46.6168	533.95
46.6312	477.23
46.6457	509.06
46.6601	502.97
46.6746	494.84
46.6890	493.98
46.7034	539.68
46.7179	540.68
46.7323	495.44
46.7468	518.06
46.7612	482.28
46.7756	501.16
46.7901	490.90
46.8045	514.19
46.8190	501.75
46.8334	526.52
46.8478	534.15
46.8623	548.45
46.8767	536.32
46.8912	505.13
46.9056	511.87
46.9200	503.34
46.9345	519.34
46.9489	495.16
46.9634	475.02
46.9778	489.21
46.9922	484.14
47.0067	504.42
47.0211	521.13
47.0356	508.00
47.0500	503.06
47.0644	504.53
47.0789	508.16
47.0933	550.31
47.1078	513.96
47.1222	508.88
47.1366	523.28
47.1511	495.71
47.1655	496.37
47.1800	499.39
47.1944	478.11
47.2088	483.06
47.2233	511.24
47.2377	514.16
47.2522	495.82
47.2666	501.38
47.2810	543.54
47.2955	504.77
47.3099	536.09
47.3244	533.49
47.3388	513.76
47.3532	520.41
47.3677	491.38
47.3821	509.37
47.3966	516.66
47.4110	493.19
47.4254	511.45
47.4399	495.24
47.4543	514.02
47.4688	522.96
47.4832	502.45
47.4976	483.13
47.5121	511.64
47.5265	496.63
47.5410	498.23
47.5554	490.16
47.5698	455.75
47.5843	483.96
47.5987	506.92
47.6132	537.16
47.6276	508.61
47.6420	507.11
47.6565	492.79
47.6709	492.12
47.6854	474.62
47.6998	523.11
47.7142	553.02
47.7287	476.80
47.7431	454.97
47.7576	485.06
47.7720	517.33
47.7864	524.60
47.8009	495.59
47.8153	508.74
47.8298	516.79
47.8442	481.38
47.8586	512.91
47.8731	492.83
47.8875	497.69
47.9020	526.57
47.9164	508.19
47.9308	494.12
47.9453	478.05
47.9597	516.78
47.9742	532.33
47.9886	521.10
48.0030	523.33
48.0175	529.61
48.0319	482.19
48.0464	480.41
48.0608	477.47
48.0752	485.28
48.0897	515.37
48.1041	510.94
48.1186	521.84
48.1330	532.74
48.1474	519.28
48.1619	505.58
48.1763	512.64
48.1908	517.53
48.2052	532.39
48.2196	514.32
48.2341	509.49
48.2485	494.90
48.2630	507.90
48.2774	497.18
48.2918	499.36
48.3063	479.82
48.3207	524.87
48.3352	498.68
48.3496	497.90
48.3640	518.14
48.3785	547.96
48.3929	521.79
48.4074	529.57
48.4218	495.51
48.4362	493.88
48.4507	490.22
48.4651	547.66
48.4796	543.04
48.4940	510.79
48.5084	521.67
48.5229	519.09
48.5373	537.83
48.5518	545.42
48.5662	553.46
48.5806	488.27
48.5951	503.06
48.6095	487.03
48.6240	506.14
48.6384	545.68
48.6528	558.78
48.6673	514.58
48.6817	541.43
48.6962	511.80
48.7106	530.61
48.7250	508.29
48.7395	501.87
48.7539	515.22
48.7684	529.70
48.7828	557.84
48.7972	527.22
48.8117	539.48
48.8261	533.22
48.8406	520.36
48.8550	510.60
48.8694	516.51
48.8839	559.45
48.8983	592.59
48.9128	586.77
48.9272	554.95
48.9416	562.67
48.9561	547.98
48.9705	569.57
48.9850	598.25
48.9994	588.99
49.0139	608.04
49.0283	621.73
49.0427	597.05
49.0572	609.06
49.0716	609.12
49.0861	652.47
49.1005	722.18
49.1149	706.53
49.1294	755.45
49.1438	735.47
49.1583	777.21
49.1727	806.70
49.1871	930.95
49.2016	952.70
49.2160	1026.61
49.2305	1081.71
49.2449	1171.07
49.2593	1221.78
49.2738	1331.16
49.2882	1449.91
49.3027	1527.99
49.3171	1566.10
49.3315	1610.52
49.3460	1742.15
49.3604	1765.18
49.3749	1780.85
49.3893	1768.50
49.4037	1724.40
49.4182	1732.65
49.4326	1736.78
49.4471	1673.91
49.4615	1657.65
49.4759	1546.57
49.4904	1527.96
49.5048	1439.00
49.5193	1324.38
49.5337	1233.16
49.5481	1193.18
49.5626	1127.26
49.5770	1010.06
49.5915	964.63
49.6059	900.92
49.6203	891.20
49.6348	828.16
49.6492	753.10
49.6637	710.68
49.6781	703.79
49.6925	671.05
49.7070	668.25
49.7214	629.81
49.7359	620.10
49.7503	627.23
49.7647	618.25
49.7792	611.68
49.7936	573.80
49.8081	550.76
49.8225	553.53
49.8369	528.33
49.8514	568.23
49.8658	565.80
49.8803	575.96
49.8947	550.18
49.9091	539.31
49.9236	534.38
49.9380	527.51
49.9525	537.97
49.9669	506.14
49.9813	492.35
49.9958	543.92
50.0102	532.25
50.0247	546.14
50.0391	584.16
50.0535	519.22
50.0680	519.17
50.0824	523.01
50.0969	519.01
50.1113	517.11
50.1257	527.62
50.1402	504.20
50.1546	494.27
50.1691	520.73
50.1835	527.16
50.1979	523.31
50.2124	488.51
50.2268	498.66
50.2413	516.48
50.2557	496.38
50.2701	514.31
50.2846	519.41
50.2990	527.31
50.3135	538.26
50.3279	526.61
50.3423	521.63
50.3568	501.93
50.3712	509.94
50.3857	498.18
50.4001	509.87
50.4145	502.12
50.4290	542.74
50.4434	511.41
50.4579	533.92
50.4723	549.64
50.4867	506.09
50.5012	497.30
50.5156	478.52
50.5301	527.72
50.5445	518.66
50.5589	499.45
50.5734	515.25
50.5878	515.74
50.6023	499.83
50.6167	544.18
50.6311	514.39
50.6456	499.28
50.6600	500.00
50.6745	504.68
50.6889	475.69
50.7033	527.45
50.7178	514.24
50.7322	486.30
50.7467	518.94
50.7611	518.12
50.7755	547.84
50.7900	570.84
50.8044	527.68
50.8189	507.39
50.8333	504.96
50.8477	494.75
50.8622	525.24
50.8766	530.93
50.8911	523.56
50.9055	521.54
50.9199	504.16
50.9344	532.38
50.9488	526.48
50.9633	492.68
50.9777	494.20
50.9921	508.56
51.0066	474.00
51.0210	527.73
51.0355	545.88
51.0499	529.00
51.0643	530.65
51.0788	538.82
51.0932	510.23
51.1077	474.51
51.1221	504.67
51.1365	489.17
51.1510	485.41
51.1654	505.03
51.1799	502.35
51.1943	493.74
51.2087	527.47
51.2232	536.68
51.2376	547.70
51.2521	492.44
51.2665	480.94
51.2809	496.32
51.2954	528.62
51.3098	529.20
51.3243	504.98
51.3387	503.52
51.3531	530.13
51.3676	546.50
51.3820	507.14
51.3965	473.65
51.4109	482.74
51.4253	545.50
51.4398	553.90
51.4542	514.87
51.4687	547.11
51.4831	524.31
51.4975	490.67
51.5120	532.49
51.5264	513.91
51.5409	511.46
51.5553	516.91
51.5697	500.67
51.5842	516.93
51.5986	513.99
51.6131	535.41
51.6275	513.45
51.6419	513.34
51.6564	514.71
51.6708	531.38
51.6853	501.04
51.6997	525.06
51.7141	516.25
51.7286	518.64
51.7430	509.58
51.7575	500.12
51.7719	507.85
51.7863	522.30
51.8008	539.57
51.8152	522.54
51.8297	517.58
51.8441	507.48
51.8585	502.08
51.8730	506.77
51.8874	517.93
51.9019	496.96
51.9163	523.14
51.9307	554.83
51.9452	511.27
51.9596	471.92
51.9741	516.73
51.9885	538.05
52.0029	532.56
52.0174	487.14
52.0318	517.75
52.0463	517.66
52.0607	530.13
52.0751	483.99
52.0896	506.83
52.1040	527.86
52.1185	480.51
52.1329	513.01
52.1473	511.92
52.1618	503.25
52.1762	515.91
52.1907	498.59
52.2051	527.69
52.2195	499.00
52.2340	522.94
52.2484	501.68
52.2629	526.98
52.2773	507.04
52.2917	481.26
52.3062	500.44
52.3206	484.50
52.3351	536.06
52.3495	531.33
52.3639	558.76
52.3784	559.82
52.3928	525.41
52.4073	497.91
52.4217	502.39
52.4361	508.47
52.4506	517.42
52.4650	515.36
52.4795	534.30
52.4939	521.18
52.5083	524.23
52.5228	510.81
52.5372	528.86
52.5517	526.38
52.5661	479.66
52.5805	484.26
52.5950	506.29
52.6094	487.16
52.6239	525.58
52.6383	555.26
52.6527	490.47
52.6672	474.08
52.6816	490.61
52.6961	504.30
52.7105	522.29
52.7250	517.02
52.7394	506.65
52.7538	518.55
52.7683	514.71
52.7827	518.05
52.7972	522.65
52.8116	481.86
52.8260	504.45
52.8405	518.53
52.8549	494.88
52.8694	514.06
52.8838	509.03
52.8982	537.04
52.9127	538.14
52.9271	514.11
52.9416	521.76
52.9560	487.99
52.9704	466.58
52.9849	477.12
52.9993	517.70
53.0138	514.88
53.0282	550.30
53.0426	521.47
53.0571	544.83
53.0715	503.14
53.0860	544.18
53.1004	490.12
53.1148	507.56
53.1293	506.35
53.1437	487.25
53.1582	521.48
53.1726	503.83
53.1870	533.83
53.2015	520.90
53.2159	501.23
53.2304	476.64
53.2448	467.96
53.2592	492.27
53.2737	507.58
53.2881	519.98
53.3026	528.63
53.3170	538.28
53.3314	529.72
53.3459	518.13
53.3603	480.59
53.3748	515.94
53.3892	515.88
53.4036	528.35
53.4181	507.53
53.4325	538.78
53.4470	517.86
53.4614	508.33
53.4758	519.21
53.4903	541.38
53.5047	521.83
53.5192	504.35
53.5336	500.76
53.5480	505.39
53.5625	519.95
53.5769	499.61
53.5914	488.93
53.6058	545.19
53.6202	496.51
53.6347	524.19
53.6491	523.24
53.6636	502.31
53.6780	520.35
53.6924	494.99
53.7069	534.46
53.7213	508.42
53.7358	521.70
53.7502	526.78
53.7646	506.44
53.7791	529.43
53.7935	492.00
53.8080	507.43
53.8224	511.13
53.8368	504.90
53.8513	510.32
53.8657	566.06
53.8802	552.26
53.8946	535.71
53.9090	518.82
53.9235	509.42
53.9379	512.51
53.9524	509.64
53.9668	516.86
53.9812	515.25
53.9957	515.60
54.0101	538.66
54.0246	537.63
54.0390	500.84
54.0534	482.92
54.0679	511.56
54.0823	544.26
54.0968	555.58
54.1112	529.31
54.1256	524.14
54.1401	505.05
54.1545	508.28
54.1690	503.25
54.1834	502.64
54.1978	500.07
54.2123	537.07
54.2267	511.03
54.2412	533.83
54.2556	511.79
54.2700	513.36
54.2845	505.93
54.2989	513.89
54.3134	510.50
54.3278	521.08
54.3422	512.79
54.3567	530.56
54.3711	525.25
54.3856	492.87
54.4000	522.81
54.4144	555.55
54.4289	530.63
54.4433	520.33
54.4578	533.87
54.4722	574.72
54.4866	527.37
54.5011	532.18
54.5155	563.62
54.5300	533.95
54.5444	570.35
54.5588	573.94
54.5733	525.01
54.5877	555.34
54.6022	556.99
54.6166	550.72
54.6310	554.32
54.6455	564.99
54.6599	568.32
54.6744	555.35
54.6888	542.78
54.7032	585.37
54.7177	591.62
54.7321	569.58
54.7466	586.34
54.7610	598.91
54.7754	594.51
54.7899	583.52
54.8043	585.90
54.8188	604.55
54.8332	631.42
54.8476	589.79
54.8621	583.99
54.8765	583.88
54.8910	537.66
54.9054	597.23
54.9198	577.91
54.9343	570.08
54.9487	594.62
54.9632	574.72
54.9776	536.10
54.9920	514.94
55.0065	532.86
55.0209	549.25
55.0354	549.36
55.0498	527.52
55.0642	512.01
55.0787	542.34
55.0931	568.12
55.1076	556.48
55.1220	512.54
55.1364	531.74
55.1509	545.14
55.1653	549.41
55.1798	532.88
55.1942	495.87
55.2086	522.96
55.2231	518.50
55.2375	540.73
55.2520	528.60
55.2664	522.67
55.2808	526.19
55.2953	529.80
55.3097	488.16
55.3242	522.12
55.3386	577.96
55.3530	527.84
55.3675	544.39
55.3819	531.08
55.3964	525.22
55.4108	503.64
55.4252	527.70
55.4397	535.80
55.4541	518.85
55.4686	525.30
55.4830	539.90
55.4974	505.08
55.5119	534.04
55.5263	528.55
55.5408	499.57
55.5552	517.40
55.5696	531.87
55.5841	542.48
55.5985	520.13
55.6130	560.67
55.6274	508.12
55.6418	505.54
55.6563	517.53
55.6707	509.65
55.6852	552.58
55.6996	542.76
55.7140	552.32
55.7285	549.55
55.7429	512.17
55.7574	536.28
55.7718	521.02
55.7862	542.83
55.8007	521.49
55.8151	536.09
55.8296	501.76
55.8440	503.70
55.8584	507.64
55.8729	533.89
55.8873	519.57
55.9018	517.25
55.9162	502.70
55.9306	530.14
55.9451	555.56
55.9595	504.35
55.9740	499.59
55.9884	508.57
56.0028	569.88
56.0173	527.73
56.0317	515.74
56.0462	497.38
56.0606	502.32
56.0750	522.15
56.0895	524.21
56.1039	540.21
56.1184	510.19
56.1328	531.76
56.1472	510.33
56.1617	532.31
56.1761	507.73
56.1906	506.70
56.2050	536.85
56.2194	513.55
56.2339	508.33
56.2483	507.39
56.2628	538.14
56.2772	544.28
56.2916	535.78
56.3061	555.39
56.3205	537.49
56.3350	522.90
56.3494	543.84
56.3639	536.77
56.3783	515.84
56.3927	482.62
56.4072	500.15
56.4216	508.69
56.4361	543.08
56.4505	521.63
56.4649	547.31
56.4794	578.83
56.4938	527.47
56.5083	531.07
56.5227	491.78
56.5371	494.60
56.5516	522.05
56.5660	510.81
56.5805	488.20
56.5949	542.68
56.6093	532.88
56.6238	552.02
56.6382	532.74
56.6527	546.46
56.6671	557.77
56.6815	511.65
56.6960	502.65
56.7104	529.44
56.7249	510.23
56.7393	503.32
56.7537	525.27
56.7682	524.38
56.7826	516.19
56.7971	527.15
56.8115	501.35
56.8259	520.57
56.8404	481.06
56.8548	504.31
56.8693	518.14
56.8837	534.01
56.8981	518.81
56.9126	563.56
56.9270	511.94
56.9415	507.19
56.9559	545.38
56.9703	559.62
56.9848	516.57
56.9992	513.21
57.0137	509.91
57.0281	558.46
57.0425	529.66
57.0570	491.19
57.0714	535.01
57.0859	543.29
57.1003	511.00
57.1147	549.76
57.1292	556.72
57.1436	501.60
57.1581	473.62
57.1725	498.39
57.1869	517.09
57.2014	529.87
57.2158	549.35
57.2303	532.46
57.2447	537.12
57.2591	530.77
57.2736	528.51
57.2880	527.30
57.3025	526.80
57.3169	522.97
57.3313	540.04
57.3458	505.21
57.3602	518.82
57.3747	506.42
57.3891	525.12
57.4035	526.18
57.4180	506.58
57.4324	507.06
57.4469	551.57
57.4613	543.62
57.4757	558.13
57.4902	581.66
57.5046	531.41
57.5191	499.32
57.5335	510.36
57.5479	514.10
57.5624	497.97
57.5768	533.48
57.5913	562.72
57.6057	535.32
57.6201	505.75
57.6346	564.57
57.6490	534.26
57.6635	521.03
57.6779	530.13
57.6923	522.08
57.7068	574.21
57.7212	555.81
57.7357	517.66
57.7501	541.00
57.7645	502.50
57.7790	545.70
57.7934	535.75
57.8079	518.64
57.8223	533.20
57.8367	547.84
57.8512	529.70
57.8656	544.16
57.8801	530.03
57.8945	555.42
57.9089	510.49
57.9234	510.32
57.9378	569.37
57.9523	536.49
57.9667	535.94
57.9811	531.87
57.9956	531.78
58.0100	544.43
58.0245	543.66
58.0389	533.46
58.0533	528.49
58.0678	579.37
58.0822	562.58
58.0967	542.70
58.1111	540.52
58.1255	566.14
58.1400	555.13
58.1544	535.70
58.1689	581.90
58.1833	560.45
58.1977	540.59
58.2122	556.57
58.2266	575.05
58.2411	617.86
58.2555	592.43
58.2699	581.27
58.2844	588.38
58.2988	611.14
58.3133	617.16
58.3277	630.42
58.3421	664.91
58.3566	650.74
58.3710	669.04
58.3855	658.50
58.3999	677.37
58.4143	657.16
58.4288	692.60
58.4432	638.87
58.4577	625.35
58.4721	685.12
58.4865	655.60
58.5010	631.12
58.5154	637.23
58.5299	620.67
58.5443	639.53
58.5587	647.16
58.5732	622.19
58.5876	611.23
58.6021	609.82
58.6165	585.47
58.6309	551.57
58.6454	605.84
58.6598	611.33
58.6743	574.38
58.6887	538.83
58.7031	565.55
58.7176	550.89
58.7320	590.39
58.7465	554.39
58.7609	565.26
58.7753	531.31
58.7898	588.10
58.8042	574.84
58.8187	552.84
58.8331	531.93
58.8475	536.78
58.8620	566.62
58.8764	539.55
58.8909	552.15
58.9053	557.56
58.9197	545.53
58.9342	547.24
58.9486	551.71
58.9631	524.49
58.9775	541.06
58.9919	525.77
59.0064	550.95
59.0208	550.83
59.0353	523.92
59.0497	504.90
59.0641	533.61
59.0786	542.74
59.0930	562.41
59.1075	576.80
59.1219	555.81
59.1363	544.04
59.1508	541.36
59.1652	547.11
59.1797	546.79
59.1941	498.44
59.2085	563.73
59.2230	560.90
59.2374	543.07
59.2519	573.34
59.2663	541.69
59.2807	549.61
59.2952	547.71
59.3096	558.03
59.3241	586.70
59.3385	618.51
59.3529	592.71
59.3674	564.82
59.3818	606.14
59.3963	566.53
59.4107	582.36
59.4251	572.28
59.4396	540.01
59.4540	573.57
59.4685	583.42
59.4829	562.91
59.4973	592.98
59.5118	552.19
59.5262	566.28
59.5407	558.70
59.5551	557.21
59.5695	552.40
59.5840	573.05
59.5984	533.64
59.6129	540.97
59.6273	545.40
59.6417	529.69
59.6562	565.42
59.6706	545.12
59.6851	529.08
59.6995	553.27
59.7139	525.52
59.7284	507.28
59.7428	554.17
59.7573	518.54
59.7717	516.02
59.7861	537.14
59.8006	528.18
59.8150	559.08
59.8295	553.85
59.8439	532.28
59.8583	560.74
59.8728	545.43
59.8872	509.26
59.9017	563.89
59.9161	527.97
59.9305	515.17
59.9450	521.90
59.9594	532.47
59.9739	510.49
59.9883	531.91
60.0027	503.49
60.0172	505.12
60.0316	550.57
60.0461	559.90
60.0605	564.71
60.0750	595.25
60.0894	522.96
60.1038	549.61
60.1183	556.03
60.1327	529.88
60.1472	537.51
60.1616	496.13
60.1760	556.66
60.1905	539.10
60.2049	556.24
60.2194	579.69
60.2338	555.43
60.2482	539.53
60.2627	515.77
60.2771	541.13
60.2916	533.02
60.3060	531.48
60.3204	550.55
60.3349	550.87
60.3493	517.36
60.3638	519.47
60.3782	538.44
60.3926	526.57
60.4071	486.94
60.4215	540.10
60.4360	554.57
60.4504	524.47
60.4648	587.63
60.4793	569.77
60.4937	541.86
60.5082	567.27
60.5226	531.10
60.5370	518.91
60.5515	528.53
60.5659	520.39
60.5804	553.77
60.5948	539.92
60.6092	542.95
60.6237	543.92
60.6381	526.95
60.6526	541.61
60.6670	570.51
60.6814	526.57
60.6959	543.28
60.7103	583.19
60.7248	562.31
60.7392	567.29
60.7536	519.45
60.7681	520.17
60.7825	526.97
60.7970	531.27
60.8114	526.44
60.8258	573.38
60.8403	572.51
60.8547	546.75
60.8692	532.86
60.8836	528.84
60.8980	544.39
60.9125	545.48
60.9269	524.25
60.9414	563.91
60.9558	515.88
60.9702	534.93
60.9847	560.75
60.9991	524.82
61.0136	546.75
61.0280	562.93
61.0424	552.76
61.0569	572.28
61.0713	592.91
61.0858	596.09
61.1002	518.45
61.1146	545.21
61.1291	563.35
61.1435	513.56
61.1580	515.88
61.1724	544.93
61.1868	544.77
61.2013	530.55
61.2157	501.36
61.2302	519.35
61.2446	526.65
61.2590	555.24
61.2735	557.14
61.2879	550.98
61.3024	518.42
61.3168	553.44
61.3312	554.40
61.3457	584.92
61.3601	544.06
61.3746	536.99
61.3890	517.25
61.4034	576.81
61.4179	560.32
61.4323	553.84
61.4468	518.48
61.4612	538.27
61.4756	569.62
61.4901	550.06
61.5045	551.95
61.5190	555.13
61.5334	542.39
61.5478	537.71
61.5623	564.18
61.5767	519.73
61.5912	523.21
61.6056	563.37
61.6200	565.59
61.6345	541.71
61.6489	555.28
61.6634	543.30
61.6778	552.09
61.6922	567.47
61.7067	573.91
61.7211	543.45
61.7356	514.56
61.7500	551.86
61.7644	534.63
61.7789	578.31
61.7933	543.41
61.8078	588.64
61.8222	604.61
61.8366	556.30
61.8511	554.85
61.8655	568.50
61.8800	557.90
61.8944	537.49
61.9088	588.49
61.9233	572.58
61.9377	565.24
61.9522	534.31
61.9666	551.14
61.9810	578.82
61.9955	549.55
62.0099	542.28
62.0244	566.82
62.0388	511.05
62.0532	578.68
62.0677	555.47
62.0821	530.02
62.0966	520.48
62.1110	556.58
62.1254	567.95
62.1399	564.67
62.1543	538.97
62.1688	561.44
62.1832	520.77
62.1976	542.94
62.2121	596.78
62.2265	546.41
62.2410	556.56
62.2554	543.85
62.2698	578.01
62.2843	528.38
62.2987	552.44
62.3132	568.46
62.3276	552.97
62.3420	576.87
62.3565	558.95
62.3709	525.82
62.3854	536.22
62.3998	551.23
62.4142	562.71
62.4287	580.57
62.4431	531.55
62.4576	542.72
62.4720	538.72
62.4864	571.31
62.5009	603.39
62.5153	588.36
62.5298	579.04
62.5442	561.53
62.5586	556.48
62.5731	512.21
62.5875	510.49
62.6020	565.77
62.6164	583.67
62.6308	581.02
62.6453	573.14
62.6597	556.31
62.6742	540.96
62.6886	562.62
62.7030	586.77
62.7175	582.76
62.7319	544.28
62.7464	566.52
62.7608	553.29
62.7752	537.34
62.7897	558.99
62.8041	572.86
62.8186	574.50
62.8330	584.14
62.8474	574.44
62.8619	559.57
62.8763	587.63
62.8908	575.82
62.9052	559.22
62.9196	541.58
62.9341	554.74
62.9485	541.00
62.9630	555.47
62.9774	600.99
62.9918	584.92
63.0063	557.99
63.0207	575.27
63.0352	575.94
63.0496	552.90
63.0640	572.03
63.0785	596.86
63.0929	605.76
63.1074	587.74
63.1218	587.63
63.1362	550.23
63.1507	539.87
63.1651	571.80
63.1796	578.65
63.1940	585.05
63.2084	562.00
63.2229	595.64
63.2373	569.79
63.2518	580.16
63.2662	559.33
63.2806	585.62
63.2951	614.46
63.3095	547.41
63.3240	559.67
63.3384	630.27
63.3528	577.84
63.3673	578.75
63.3817	559.59
63.3962	551.74
63.4106	577.89
63.4250	584.33
63.4395	558.09
63.4539	572.51
63.4684	577.99
63.4828	572.78
63.4972	581.85
63.5117	581.78
63.5261	575.62
63.5406	570.53
63.5550	579.86
63.5694	583.15
63.5839	630.84
63.5983	607.10
63.6128	578.48
63.6272	589.10
63.6416	602.29
63.6561	605.32
63.6705	612.43
63.6850	585.18
63.6994	591.98
63.7138	609.35
63.7283	568.46
63.7427	573.61
63.7572	581.51
63.7716	609.91
63.7861	597.74
63.8005	578.40
63.8149	604.20
63.8294	610.98
63.8438	584.66
63.8583	596.95
63.8727	623.05
63.8871	601.28
63.9016	645.75
63.9160	634.20
63.9305	664.01
63.9449	629.00
63.9593	647.73
63.9738	667.17
63.9882	641.56
64.0027	666.91
64.0171	695.75
64.0315	692.59
64.0460	712.75
64.0604	741.31
64.0749	782.96
64.0893	819.78
64.1037	766.23
64.1182	815.07
64.1326	796.15
64.1471	806.46
64.1615	807.04
64.1759	819.55
64.1904	790.33
64.2048	776.22
64.2193	800.00
64.2337	750.37
64.2481	749.22
64.2626	799.04
64.2770	794.91
64.2915	781.17
64.3059	734.87
64.3203	769.18
64.3348	776.62
64.3492	746.60
64.3637	725.83
64.3781	738.12
64.3925	734.19
64.4070	718.43
64.4214	701.25
64.4359	676.06
64.4503	703.38
64.4647	697.82
64.4792	664.00
64.4936	606.98
64.5081	651.34
64.5225	644.79
64.5369	712.96
64.5514	668.63
64.5658	674.72
64.5803	637.45
64.5947	692.45
64.6091	664.39
64.6236	657.01
64.6380	664.49
64.6525	639.08
64.6669	664.94
64.6813	688.63
64.6958	701.43
64.7102	731.89
64.7247	700.22
64.7391	686.09
64.7535	676.31
64.7680	651.86
64.7824	741.37
64.7969	749.07
64.8113	792.67
64.8257	784.84
64.8402	759.23
64.8546	837.13
64.8691	857.61
64.8835	793.42
64.8979	913.61
64.9124	928.85
64.9268	915.81
64.9413	975.00
64.9557	996.21
64.9701	1017.77
64.9846	1098.20
64.9990	1237.67
65.0135	1367.37
65.0279	1512.68
65.0423	1704.03
65.0568	2194.78
65.0712	2788.14
65.0857	3728.97
65.1001	4717.25
65.1145	6436.09
65.1290	8448.76
65.1434	9980.49
65.1579	11422.53
65.1723	11804.59
65.1867	11172.91
65.2012	9913.50
65.2156	8143.52
65.2301	6325.96
65.2445	5155.13
65.2589	4400.56
65.2734	4166.17
65.2878	4443.38
65.3023	5058.31
65.3167	5956.95
65.3311	6689.86
65.3456	7129.13
65.3600	7001.58
65.3745	6411.18
65.3889	5279.50
65.4033	4219.50
65.4178	3277.89
65.4322	2630.72
65.4467	1995.38
65.4611	1705.69
65.4755	1467.89
65.4900	1247.89
65.5044	1124.65
65.5189	1019.05
65.5333	999.97
65.5477	956.46
65.5622	857.07
65.5766	849.25
65.5911	821.64
65.6055	767.45
65.6199	740.94
65.6344	778.27
65.6488	758.02
65.6633	738.56
65.6777	700.79
65.6921	706.41
65.7066	701.67
65.7210	683.09
65.7355	662.19
65.7499	719.56
65.7643	690.02
65.7788	685.24
65.7932	670.29
65.8077	684.76
65.8221	676.78
65.8365	662.52
65.8510	669.60
65.8654	666.79
65.8799	597.37
65.8943	644.11
65.9087	658.12
65.9232	620.10
65.9376	655.52
65.9521	630.97
65.9665	607.95
65.9809	586.03
65.9954	597.91
66.0098	615.63
66.0243	623.13
66.0387	619.55
66.0531	665.82
66.0676	653.30
66.0820	623.11
66.0965	641.08
66.1109	594.60
66.1253	635.99
66.1398	625.10
66.1542	624.71
66.1687	624.12
66.1831	586.80
66.1975	593.47
66.2120	621.46
66.2264	603.66
66.2409	624.25
66.2553	581.66
66.2697	593.28
66.2842	621.57
66.2986	629.95
66.3131	630.17
66.3275	640.28
66.3419	635.03
66.3564	592.38
66.3708	570.79
66.3853	558.35
66.3997	605.60
66.4141	600.61
66.4286	616.73
66.4430	557.76
66.4575	587.58
66.4719	624.52
66.4863	635.22
66.5008	627.91
66.5152	583.73
66.5297	559.66
66.5441	580.89
66.5585	583.66
66.5730	593.89
66.5874	585.24
66.6019	634.69
66.6163	616.78
66.6307	625.85
66.6452	596.22
66.6596	557.29
66.6741	573.49
66.6885	594.13
66.7029	603.96
66.7174	592.33
66.7318	599.33
66.7463	618.48
66.7607	601.51
66.7751	606.21
66.7896	599.13
66.8040	579.50
66.8185	572.88
66.8329	571.88
66.8473	548.50
66.8618	647.16
66.8762	605.02
66.8907	607.58
66.9051	609.18
66.9195	567.00
66.9340	590.11
66.9484	564.65
66.9629	551.36
66.9773	580.91
66.9917	597.44
67.0062	554.47
67.0206	559.65
67.0351	562.76
67.0495	590.03
67.0639	573.43
67.0784	565.93
67.0928	562.21
67.1073	580.47
67.1217	611.34
67.1361	588.75
67.1506	548.11
67.1650	587.07
67.1795	559.99
67.1939	569.20
67.2083	556.86
67.2228	579.06
67.2372	590.16
67.2517	589.27
67.2661	563.31
67.2805	568.88
67.2950	549.36
67.3094	569.31
67.3239	582.01
67.3383	594.51
67.3527	593.18
67.3672	592.89
67.3816	586.18
67.3961	579.70
67.4105	596.79
67.4250	573.49
67.4394	586.83
67.4538	574.69
67.4683	573.90
67.4827	583.16
67.4972	590.96
67.5116	590.26
67.5260	588.39
67.5405	579.20
67.5549	565.84
67.5694	574.81
67.5838	596.93
67.5982	606.50
67.6127	577.47
67.6271	555.27
67.6416	566.98
67.6560	587.09
67.6704	584.41
67.6849	574.26
67.6993	605.48
67.7138	573.84
67.7282	552.96
67.7426	568.54
67.7571	549.79
67.7715	584.50
67.7860	575.71
67.8004	584.99
67.8148	598.55
67.8293	609.65
67.8437	561.37
67.8582	539.98
67.8726	571.78
67.8870	559.57
67.9015	607.70
67.9159	582.31
67.9304	576.88
67.9448	605.99
67.9592	533.55
67.9737	558.77
67.9881	596.13
68.0026	572.65
68.0170	592.03
68.0314	597.72
68.0459	554.73
68.0603	564.78
68.0748	572.44
68.0892	598.16
68.1036	579.29
68.1181	603.32
68.1325	585.77
68.1470	551.64
68.1614	570.14
68.1758	589.19
68.1903	602.56
68.2047	565.40
68.2192	537.84
68.2336	548.33
68.2480	561.69
68.2625	583.43
68.2769	558.59
68.2914	556.59
68.3058	598.49
68.3202	581.24
68.3347	598.03
68.3491	565.54
68.3636	611.82
68.3780	583.58
68.3924	601.41
68.4069	558.34
68.4213	581.08
68.4358	545.63
68.4502	546.01
68.4646	572.33
68.4791	552.86
68.4935	587.33
68.5080	538.44
68.5224	585.62
68.5368	597.11
68.5513	574.37
68.5657	565.40
68.5802	569.52
68.5946	575.06
68.6090	553.17
68.6235	534.23
68.6379	563.26
68.6524	552.85
68.6668	589.06
68.6812	613.31
68.6957	600.21
68.7101	613.75
68.7246	556.44
68.7390	606.89
68.7534	569.56
68.7679	596.20
68.7823	607.31
68.7968	576.80
68.8112	569.90
68.8256	553.82
68.8401	562.78
68.8545	601.36
68.8690	569.59
68.8834	571.68
68.8978	612.31
68.9123	575.24
68.9267	601.24
68.9412	560.25
68.9556	576.64
68.9700	592.54
68.9845	535.41
68.9989	555.59
69.0134	604.36
69.0278	618.01
69.0422	560.91
69.0567	592.51
69.0711	575.19
69.0856	588.32
69.1000	592.77
69.1144	577.82
69.1289	591.59
69.1433	534.44
69.1578	581.01
69.1722	554.38
69.1866	577.03
69.2011	583.28
69.2155	530.97
69.2300	606.80
69.2444	589.82
69.2588	566.15
69.2733	580.49
69.2877	567.71
69.3022	597.45
69.3166	627.67
69.3310	652.71
69.3455	593.59
69.3599	567.37
69.3744	600.69
69.3888	540.57
69.4032	571.94
69.4177	602.28
69.4321	653.96
69.4466	628.08
69.4610	615.87
69.4754	596.19
69.4899	602.07
69.5043	563.97
69.5188	593.21
69.5332	506.75
69.5476	555.86
69.5621	573.14
69.5765	585.75
69.5910	520.20
69.6054	554.68
69.6198	567.17
69.6343	581.71
69.6487	551.54
69.6632	615.10
69.6776	587.34
69.6920	587.35
69.7065	649.24
69.7209	611.46
69.7354	576.66
69.7498	519.53
69.7642	551.16
69.7787	579.59
69.7931	629.00
69.8076	599.37
69.8220	603.69
69.8364	582.08
69.8509	575.36
69.8653	575.55
69.8798	607.24
69.8942	592.47
69.9086	543.57
69.9231	552.49
69.9375	620.89
69.9520	583.25
69.9664	597.72
69.9808	557.84
69.9953	533.71
70.0097	602.43
70.0242	631.33
70.0386	576.13
70.0530	524.70
70.0675	580.45
70.0819	601.52
70.0964	571.77
70.1108	575.04
70.1252	596.67
70.1397	561.85
70.1541	573.30
70.1686	567.85
70.1830	616.13
70.1974	552.63
70.2119	577.96
70.2263	516.88
70.2408	551.18
70.2552	597.75
70.2696	561.23
70.2841	531.29
70.2985	596.65
70.3130	536.37
70.3274	538.18
70.3418	607.27
70.3563	617.14
70.3707	555.91
70.3852	571.79
70.3996	587.38
70.4140	628.56
70.4285	610.45
70.4429	590.03
70.4574	583.76
70.4718	564.13
70.4862	570.43
70.5007	609.28
70.5151	559.15
70.5296	527.22
70.5440	622.33
70.5584	577.10
70.5729	580.06
70.5873	613.78
70.6018	607.21
70.6162	551.51
70.6306	602.11
70.6451	605.07
70.6595	581.06
70.6740	620.18
70.6884	602.97
70.7028	602.44
70.7173	538.27
70.7317	531.78
70.7462	564.23
70.7606	567.84
70.7750	629.28
70.7895	565.11
70.8039	583.27
70.8184	585.13
70.8328	569.20
70.8472	575.66
70.8617	646.08
70.8761	599.05
70.8906	594.57
70.9050	570.43
70.9194	605.72
70.9339	625.52
70.9483	622.34
70.9628	628.12
70.9772	607.31
70.9916	650.12
71.0061	592.55
71.0205	551.11
71.0350	560.08
71.0494	520.37
71.0638	571.32
71.0783	613.86
71.0927	610.70
71.1072	599.15
71.1216	593.66
71.1361	595.63
71.1505	606.86
71.1649	605.82
71.1794	592.78
71.1938	567.31
71.2083	581.93
71.2227	568.30
71.2371	590.49
71.2516	620.14
71.2660	616.31
71.2805	589.52
71.2949	572.61
71.3093	535.23
71.3238	524.96
71.3382	552.60
71.3527	603.31
71.3671	612.36
71.3815	629.58
71.3960	599.65
71.4104	549.37
71.4249	627.03
71.4393	638.32
71.4537	617.07
71.4682	634.86
71.4826	585.16
71.4971	602.03
71.5115	560.80
71.5259	575.93
71.5404	616.70
71.5548	561.50
71.5693	577.64
71.5837	584.22
71.5981	570.51
71.6126	577.78
71.6270	544.70
71.6415	592.64
71.6559	610.74
71.6703	614.37
71.6848	598.33
71.6992	593.74
71.7137	623.22
71.7281	641.60
71.7425	615.56
71.7570	644.12
71.7714	614.57
71.7859	619.17
71.8003	616.75
71.8147	553.73
71.8292	589.84
71.8436	651.37
71.8581	585.29
71.8725	532.95
71.8869	562.89
71.9014	633.77
71.9158	605.60
71.9303	612.85
71.9447	582.21
71.9591	581.11
71.9736	589.68
71.9880	540.59
72.0025	538.12
72.0169	547.14
72.0313	627.46
72.0458	683.70
72.0602	617.20
72.0747	578.40
72.0891	618.94
72.1035	600.80
72.1180	521.27
72.1324	538.46
72.1469	536.01
72.1613	583.82
72.1757	570.12
72.1902	532.95
72.2046	563.14
72.2191	584.20
72.2335	525.80
72.2479	505.92
72.2624	608.07
72.2768	633.59
72.2913	584.03
72.3057	518.58
72.3201	530.82
72.3346	564.95
72.3490	622.43
72.3635	652.28
72.3779	576.84
72.3923	529.82
72.4068	517.86
72.4212	530.13
72.4357	535.10
72.4501	566.19
72.4645	624.17
72.4790	664.53
72.4934	604.24
72.5079	536.96
72.5223	551.44
72.5367	545.53
72.5512	526.46
72.5656	567.70
72.5801	551.39
72.5945	543.27
72.6089	492.60
72.6234	532.68
72.6378	560.35
72.6523	559.83
72.6667	554.77
72.6811	578.34
72.6956	541.49
72.7100	561.96
72.7245	591.81
72.7389	584.98
72.7533	603.11
72.7678	576.92
72.7822	643.03
72.7967	670.92
72.8111	659.46
72.8255	595.75
72.8400	599.38
72.8544	609.60
72.8689	626.04
72.8833	598.15

Result vector
22.1120	524.34
22.1264	582.71
22.1409	590.12
22.1553	567.36
22.1697	598.89
22.1842	558.63
22.1986	558.19
22.2131	641.42
22.2275	608.43
22.2419	513.00
22.2564	563.59
22.2708	583.57
22.2853	626.06
22.2997	592.35
22.3141	587.73
22.3286	556.64
22.3430	538.37
22.3575	629.93
22.3719	616.83
22.3863	542.47
22.4008	506.48
22.4152	577.07
22.4297	706.20
22.4441	628.00
22.4585	555.15
22.4730	554.40
22.4874	545.91
22.5019	592.35
22.5163	599.98
22.5307	637.88
22.5452	684.36
22.5596	691.97
22.5741	700.96
22.5885	667.11
22.6029	641.36
22.6174	564.81
22.6318	540.01
22.6463	522.66
22.6607	555.81
22.6751	504.08
22.6896	524.24
22.7040	655.73
22.7185	551.87
22.7329	530.37
22.7473	504.22
22.7618	485.07
22.7762	556.83
22.7907	577.33
22.8051	515.02
22.8195	560.77
22.8340	550.35
22.8484	513.51
22.8629	588.22
22.8773	602.13
22.8917	484.54
22.9062	529.09
22.9206	599.53
22.9351	578.14
22.9495	510.29
22.9639	532.08
22.9784	513.15
22.9928	544.69
23.0073	568.08
23.0217	543.55
23.0361	529.27
23.0506	531.22
23.0650	590.97
23.0795	575.61
23.0939	555.62
23.1083	585.17
23.1228	554.11
23.1372	572.59
23.1517	581.36
23.1661	558.36
23.1806	645.10
23.1950	514.30
23.2094	614.14
23.2239	493.80
23.2383	654.73
23.2528	588.14
23.2672	480.27
23.2816	580.82
23.2961	512.87
23.3105	575.95
23.3250	508.68
23.3394	549.98
23.3538	605.49
23.3683	583.22
23.3827	561.26
23.3972	589.38
23.4116	553.48
23.4260	592.93
23.4405	515.32
23.4549	561.34
23.4694	577.27
23.4838	496.93
23.4982	562.66
23.5127	563.21
23.5271	563.31
23.5416	520.53
23.5560	539.61
23.5704	546.75
23.5849	532.10
23.5993	505.43
23.6138	569.14
23.6282	580.00
23.6426	499.61
23.6571	595.80
23.6715	549.87
23.6860	532.89
23.7004	562.94
23.7148	564.03
23.7293	593.02
23.7437	575.63
23.7582	562.48
23.7726	550.54
23.7870	611.12
23.8015	521.02
23.8159	557.87
23.8304	602.31
23.8448	574.81
23.8592	627.64
23.8737	599.98
23.8881	520.02
23.9026	569.27
23.9170	527.87
23.9314	536.16
23.9459	564.02
23.9603	509.41
23.9748	523.87
23.9892	594.29
24.0036	547.75
24.0181	581.46
24.0325	641.31
24.0470	547.95
24.0614	577.43
24.0758	561.06
24.0903	561.51
24.1047	608.22
24.1192	550.14
24.1336	582.23
24.1480	600.26
24.1625	587.61
24.1769	549.57
24.1914	595.19
24.2058	557.98
24.2202	633.78
24.2347	604.11
24.2491	618.07
24.2636	590.22
24.2780	555.03
24.2924	585.97
24.3069	599.01
24.3213	568.94
24.3358	547.33
24.3502	545.71
24.3646	540.74
24.3791	578.29
24.3935	580.17
24.4080	517.33
24.4224	524.65
24.4368	492.89
24.4513	533.77
24.4657	593.88
24.4802	581.87
24.4946	509.89
24.5090	521.97
24.5235	566.48
24.5379	525.08
24.5524	572.74
24.5668	602.63
24.5812	517.38
24.5957	575.85
24.6101	547.91
24.6246	529.05
24.6390	543.18
24.6534	565.73
24.6679	532.54
24.6823	562.21
24.6968	548.80
24.7112	519.17
24.7256	537.77
24.7401	565.16
24.7545	585.29
24.7690	547.73
24.7834	562.18
24.7978	545.61
24.8123	569.12
24.8267	514.52
24.8412	515.41
24.8556	565.20
24.8700	550.83
24.8845	565.10
24.8989	583.81
24.9134	484.60
24.9278	517.85
24.9422	504.01
24.9567	579.35
24.9711	552.96
24.9856	514.10
25.0000	537.39
25.0144	552.75
25.0289	548.71
25.0433	577.71
25.0578	592.88
25.0722	544.97
25.0866	597.64
25.1011	511.52
25.1155	542.48
25.1300	579.95
25.1444	545.86
25.1588	522.24
25.1733	566.24
25.1877	526.96
25.2022	511.98
25.2166	522.36
25.2310	529.86
25.2455	571.04
25.2599	547.56
25.2744	536.94
25.2888	513.09
25.3032	579.28
25.3177	571.27
25.3321	559.17
25.3466	577.50
25.3610	562.99
25.3754	520.85
25.3899	513.67
25.4043	526.85
25.4188	537.40
25.4332	538.62
25.4476	540.03
25.4621	582.36
25.4765	579.38
25.4910	539.60
25.5054	525.88
25.5198	510.06
25.5343	542.77
25.5487	545.44
25.5632	518.29
25.5776	561.78
25.5920	548.01
25.6065	509.87
25.6209	543.35
25.6354	486.72
25.6498	481.06
25.6642	511.35
25.6787	537.39
25.6931	497.66
25.7076	546.11
25.7220	553.02
25.7364	565.42
25.7509	537.78
25.7653	541.89
25.7798	612.66
25.7942	551.48
25.8086	591.97
25.8231	576.10
25.8375	543.17
25.8520	509.48
25.8664	518.41
25.8808	557.51
25.8953	553.23
25.9097	558.49
25.9242	505.27
25.9386	523.84
25.9530	526.21
25.9675	537.99
25.9819	515.42
25.9964	526.58
26.0108	531.29
26.0252	561.77
26.0397	535.10
26.0541	510.47
26.0686	526.73
26.0830	501.93
26.0974	528.86
26.1119	518.24
26.1263	535.85
26.1408	551.07
26.1552	535.21
26.1696	523.03
26.1841	541.24
26.1985	529.15
26.2130	555.34
26.2274	577.54
26.2418	578.78
26.2563	552.98
26.2707	527.84
26.2852	548.32
26.2996	529.03
26.3140	529.82
26.3285	524.62
26.3429	509.31
26.3574	509.34
26.3718	518.36
26.3862	529.04
26.4007	544.45
26.4151	541.44
26.4296	521.10
26.4440	497.38
26.4584	541.26
26.4729	557.45
26.4873	517.13
26.5018	504.37
26.5162	509.00
26.5306	504.16
26.5451	537.09
26.5595	527.03
26.5740	542.13
26.5884	547.40
26.6028	575.36
26.6173	542.86
26.6317	540.05
26.6462	503.11
26.6606	516.68
26.6750	521.62
26.6895	534.75
26.7039	512.85
26.7184	509.79
26.7328	517.92
26.7472	529.53
26.7617	548.01
26.7761	526.14
26.7906	537.70
26.8050	507.56
26.8194	530.83
26.8339	555.48
26.8483	557.64
26.8628	550.53
26.8772	559.98
26.8917	539.07
26.9061	529.16
26.9205	541.29
26.9350	550.75
26.9494	501.09
26.9639	487.21
26.9783	502.69
26.9927	539.72
27.0072	533.49
27.0216	531.54
27.0361	510.66
27.0505	516.40
27.0649	538.39
27.0794	546.77
27.0938	526.78
27.1083	509.79
27.1227	564.07
27.1371	536.36
27.1516	506.75
27.1660	514.73
27.1805	511.50
27.1949	523.75
27.2093	571.51
27.2238	558.89
27.2382	538.21
27.2527	507.34
27.2671	493.55
27.2815	485.70
27.2960	541.98
27.3104	517.79
27.3249	501.31
27.3393	518.29
27.3537	515.12
27.3682	524.73
27.3826	530.30
27.3971	521.93
27.4115	516.15
27.4259	547.18
27.4404	505.37
27.4548	513.90
27.4693	529.98
27.4837	522.55
27.4981	532.17
27.5126	529.48
27.5270	528.59
27.5415	545.23
27.5559	530.67
27.5703	542.63
27.5848	527.85
27.5992	517.20
27.6137	523.97
27.6281	548.22
27.6425	538.71
27.6570	515.63
27.6714	551.35
27.6859	500.72
27.7003	499.05
27.7147	485.09
27.7292	522.07
27.7436	533.86
27.7581	528.96
27.7725	524.65
27.7869	535.47
27.8014	523.11
27.8158	510.43
27.8303	533.42
27.8447	492.92
27.8591	487.02
27.8736	529.39
27.8880	518.95
27.9025	527.78
27.9169	513.64
27.9313	480.63
27.9458	527.24
27.9602	501.98
27.9747	496.47
27.9891	549.98
28.0035	528.94
28.0180	527.86
28.0324	475.26
28.0469	495.68
28.0613	542.18
28.0757	536.05
28.0902	513.62
28.1046	541.12
28.1191	531.39
28.1335	506.95
28.1479	530.59
28.1624	515.93
28.1768	506.37
28.1913	529.84
28.2057	503.84
28.2201	512.94
28.2346	546.12
28.2490	527.67
28.2635	500.26
28.2779	487.24
28.2923	511.24
28.3068	523.93
28.3212	532.62
28.3357	491.23
28.3501	517.42
28.3645	531.49
28.3790	524.48
28.3934	489.09
28.4079	491.56
28.4223	509.70
28.4367	534.93
28.4512	528.93
28.4656	511.94
28.4801	510.91
28.4945	495.42
28.5089	498.62
28.5234	513.52
28.5378	539.75
28.5523	526.73
28.5667	532.93
28.5811	534.74
28.5956	503.86
28.6100	513.41
28.6245	503.35
28.6389	529.03
28.6533	530.12
28.6678	528.40
28.6822	511.10
28.6967	536.32
28.7111	563.15
28.7255	521.07
28.7400	513.59
28.7544	503.18
28.7689	502.04
28.7833	536.90
28.7977	528.63
28.8122	507.51
28.8266	551.33
28.8411	514.71
28.8555	524.31
28.8699	540.57
28.8844	549.56
28.8988	535.19
28.9133	504.42
28.9277	512.30
28.9421	526.52
28.9566	527.15
28.9710	566.49
28.9855	527.74
28.9999	491.50
29.0143	558.47
29.0288	513.32
29.0432	503.33
29.0577	536.46
29.0721	536.41
29.0865	540.98
29.1010	527.02
29.1154	559.09
29.1299	517.81
29.1443	492.32
29.1587	497.66
29.1732	535.63
29.1876	495.45
29.2021	488.24
29.2165	490.02
29.2309	505.37
29.2454	490.54
29.2598	512.02
29.2743	538.03
29.2887	523.41
29.3031	496.56
29.3176	494.97
29.3320	541.01
29.3465	518.54
29.3609	518.81
29.3753	488.35
29.3898	465.25
29.4042	500.95
29.4187	510.76
29.4331	505.19
29.4475	486.95
29.4620	505.25
29.4764	496.91
29.4909	507.17
29.5053	526.68
29.5197	472.99
29.5342	533.74
29.5486	529.67
29.5631	487.15
29.5775	492.15
29.5919	539.33
29.6064	531.56
29.6208	498.83
29.6353	487.33
29.6497	521.03
29.6641	520.64
29.6786	492.26
29.6930	487.45
29.7075	539.30
29.7219	537.27
29.7363	515.87
29.7508	507.27
29.7652	478.18
29.7797	529.95
29.7941	537.33
29.8085	511.38
29.8230	530.25
29.8374	511.19
29.8519	507.77
29.8663	523.23
29.8807	504.05
29.8952	502.61
29.9096	513.80
29.9241	526.67
29.9385	511.72
29.9529	486.30
29.9674	462.67
29.9818	518.33
29.9963	514.03
30.0107	509.79
30.0251	536.47
30.0396	498.95
30.0540	498.39
30.0685	529.89
30.0829	507.62
30.0973	484.52
30.1118	481.65
30.1262	523.17
30.1407	513.08
30.1551	539.69
30.1695	548.68
30.1840	541.09
30.1984	511.39
30.2129	513.32
30.2273	525.11
30.2417	520.76
30.2562	510.22
30.2706	536.44
30.2851	508.50
30.2995	532.06
30.3139	493.54
30.3284	492.99
30.3428	504.06
30.3573	502.93
30.3717	521.73
30.3861	493.11
30.4006	477.18
30.4150	499.26
30.4295	478.30
30.4439	473.59
30.4583	522.42
30.4728	509.07
30.4872	494.09
30.5017	529.25
30.5161	528.41
30.5305	493.93
30.5450	475.89
30.5594	511.78
30.5739	499.71
30.5883	509.38
30.6028	511.60
30.6172	528.73
30.6316	549.48
30.6461	561.33
30.6605	552.64
30.6750	510.82
30.6894	512.05
30.7038	534.95
30.7183	553.91
30.7327	581.30
30.7472	604.63
30.7616	627.66
30.7760	645.61
30.7905	678.00
30.8049	630.42
30.8194	668.60
30.8338	691.59
30.8482	736.30
30.8627	715.37
30.8771	647.07
30.8916	641.13
30.9060	666.78
30.9204	644.73
30.9349	620.57
30.9493	620.90
30.9638	575.75
30.9782	591.70
30.9926	606.58
31.0071	573.60
31.0215	545.37
31.0360	554.39
31.0504	521.91
31.0648	512.98
31.0793	517.37
31.0937	528.41
31.1082	522.79
31.1226	517.71
31.1370	537.12
31.1515	506.25
31.1659	524.04
31.1804	519.68
31.1948	516.67
31.2092	534.19
31.2237	509.76
31.2381	516.00
31.2526	514.26
31.2670	525.64
31.2814	556.67
31.2959	519.23
31.3103	505.67
31.3248	555.69
31.3392	565.91
31.3536	516.94
31.3681	512.34
31.3825	517.13
31.3970	531.45
31.4114	502.29
31.4258	545.48
31.4403	525.95
31.4547	523.86
31.4692	524.89
31.4836	513.56
31.4980	540.59
31.5125	530.78
31.5269	546.12
31.5414	514.84
31.5558	509.71
31.5702	485.68
31.5847	495.09
31.5991	499.43
31.6136	484.24
31.6280	493.17
31.6424	510.63
31.6569	519.98
31.6713	510.80
31.6858	540.78
31.7002	506.63
31.7146	519.77
31.7291	520.74
31.7435	498.57
31.7580	511.93
31.7724	513.73
31.7868	503.17
31.8013	496.76
31.8157	523.59
31.8302	530.96
31.8446	500.62
31.8590	513.79
31.8735	498.77
31.8879	512.81
31.9024	530.57
31.9168	505.38
31.9312	510.24
31.9457	503.16
31.9601	513.83
31.9746	539.68
31.9890	558.43
32.0034	512.55
32.0179	519.82
32.0323	493.05
32.0468	485.93
32.0612	539.67
32.0756	500.42
32.0901	522.69
32.1045	500.13
32.1190	509.13
32.1334	492.91
32.1478	531.03
32.1623	558.83
32.1767	483.20
32.1912	503.30
32.2056	492.84
32.2200	482.08
32.2345	510.92
32.2489	497.16
32.2634	506.80
32.2778	493.13
32.2922	513.46
32.3067	507.99
32.3211	527.27
32.3356	527.41
32.3500	519.71
32.3644	503.05
32.3789	522.68
32.3933	467.36
32.4078	481.83
32.4222	527.52
32.4366	509.94
32.4511	527.74
32.4655	515.03
32.4800	482.65
32.4944	523.34
32.5088	520.68
32.5233	510.08
32.5377	511.17
32.5522	503.72
32.5666	539.44
32.5810	553.57
32.5955	505.20
32.6099	497.00
32.6244	492.76
32.6388	523.56
32.6532	521.92
32.6677	495.00
32.6821	471.27
32.6966	515.05
32.7110	527.77
32.7254	477.76
32.7399	462.36
32.7543	511.25
32.7688	526.57
32.7832	529.36
32.7976	509.70
32.8121	550.02
32.8265	512.49
32.8410	490.65
32.8554	474.46
32.8698	494.67
32.8843	470.68
32.8987	533.90
32.9132	494.47
32.9276	508.18
32.9420	469.29
32.9565	494.12
32.9709	467.58
32.9854	489.23
32.9998	482.30
33.0142	505.98
33.0287	489.48
33.0431	502.52
33.0576	484.70
33.0720	487.33
33.0864	507.85
33.1009	541.99
33.1153	517.62
33.1298	516.05
33.1442	514.75
33.1586	487.80
33.1731	499.91
33.1875	480.68
33.2020	513.41
33.2164	512.26
33.2308	507.47
33.2453	507.63
33.2597	501.65
33.2742	458.11
33.2886	481.59
33.3030	528.87
33.3175	503.77
33.3319	512.69
33.3464	532.32
33.3608	505.73
33.3752	534.28
33.3897	511.90
33.4041	523.68
33.4186	484.32
33.4330	500.29
33.4474	499.72
33.4619	483.06
33.4763	477.71
33.4908	518.79
33.5052	496.67
33.5196	562.11
33.5341	527.24
33.5485	512.70
33.5630	502.40
33.5774	491.51
33.5918	502.11
33.6063	519.49
33.6207	505.39
33.6352	498.60
33.6496	508.23
33.6640	501.43
33.6785	510.18
33.6929	503.90
33.7074	539.48
33.7218	530.15
33.7362	505.81
33.7507	532.84
33.7651	502.60
33.7796	495.40
33.7940	507.40
33.8084	549.47
33.8229	535.09
33.8373	495.68
33.8518	480.71
33.8662	511.21
33.8806	524.62
33.8951	529.19
33.9095	561.66
33.9240	499.91
33.9384	510.67
33.9528	499.21
33.9673	530.75
33.9817	488.22
33.9962	478.88
34.0106	487.12
34.0250	513.03
34.0395	467.75
34.0539	518.75
34.0684	538.68
34.0828	509.54
34.0972	515.59
34.1117	487.14
34.1261	478.56
34.1406	502.40
34.1550	479.30
34.1694	492.53
34.1839	511.39
34.1983	476.72
34.2128	525.50
34.2272	498.12
34.2417	510.64
34.2561	533.80
34.2705	531.78
34.2850	504.34
34.2994	497.30
34.3139	520.85
34.3283	523.72
34.3427	529.33
34.3572	479.92
34.3716	500.80
34.3861	519.73
34.4005	523.84
34.4149	501.94
34.4294	518.23
34.4438	522.57
34.4583	530.71
34.4727	504.48
34.4871	515.17
34.5016	488.59
34.5160	497.71
34.5305	520.85
34.5449	500.80
34.5593	509.25
34.5738	501.08
34.5882	497.26
34.6027	524.50
34.6171	514.25
34.6315	508.91
34.6460	507.36
34.6604	517.36
34.6749	514.28
34.6893	507.09
34.7037	529.37
34.7182	523.67
34.7326	527.10
34.7471	515.11
34.7615	524.90
34.7759	491.94
34.7904	494.49
34.8048	528.42
34.8193	523.81
34.8337	492.74
34.8481	499.49
34.8626	513.64
34.8770	513.93
34.8915	512.41
34.9059	523.92
34.9203	502.75
34.9348	486.91
34.9492	491.50
34.9637	502.57
34.9781	510.65
34.9925	488.15
35.0070	471.18
35.0214	507.66
35.0359	508.05
35.0503	523.91
35.0647	549.86
35.0792	549.47
35.0936	516.74
35.1081	509.17
35.1225	535.39
35.1369	499.65
35.1514	493.70
35.1658	520.48
35.1803	488.97
35.1947	474.04
35.2091	508.00
35.2236	490.17
35.2380	549.95
35.2525	509.25
35.2669	492.81
35.2813	498.53
35.2958	482.50
35.3102	497.93
35.3247	497.50
35.3391	526.67
35.3535	522.34
35.3680	522.15
35.3824	542.02
35.3969	509.42
35.4113	516.55
35.4257	536.98
35.4402	516.13
35.4546	538.08
35.4691	519.41
35.4835	543.13
35.4979	515.93
35.5124	517.13
35.5268	543.58
35.5413	530.89
35.5557	513.12
35.5701	549.81
35.5846	520.14
35.5990	511.89
35.6135	508.48
35.6279	537.95
35.6423	529.52
35.6568	527.36
35.6712	526.38
35.6857	592.79
35.7001	663.87
35.7145	676.49
35.7290	625.75
35.7434	571.65
35.7579	539.97
35.7723	586.47
35.7867	628.91
35.8012	634.11
35.8156	630.70
35.8301	643.17
35.8445	667.77
35.8589	667.97
35.8734	748.94
35.8878	846.92
35.9023	1029.47
35.9167	1108.64
35.9311	1401.74
35.9456	2210.58
35.9600	2351.50
35.9745	1871.48
35.9889	1794.10
36.0033	2209.40
36.0178	2288.82
36.0322	1953.66
36.0467	1847.93
36.0611	1700.23
36.0755	1628.10
36.0900	1602.79
36.1044	1335.12
36.1189	1389.44
36.1333	1196.50
36.1477	1095.86
36.1622	1078.67
36.1766	1078.96
36.1911	933.80
36.2055	868.16
36.2199	871.46
36.2344	890.80
36.2488	925.18
36.2633	923.69
36.2777	983.72
36.2921	1022.22
36.3066	1035.77
36.3210	1050.50
36.3355	1018.58
36.3499	1031.05
36.3643	956.68
36.3788	900.14
36.3932	882.83
36.4077	805.56
36.4221	856.84
36.4365	777.20
36.4510	707.56
36.4654	665.33
36.4799	666.42
36.4943	633.50
36.5087	611.53
36.5232	604.50
36.5376	574.38
36.5521	611.40
36.5665	588.95
36.5809	556.43
36.5954	600.29
36.6098	542.57
36.6243	523.10
36.6387	554.21
36.6531	525.37
36.6676	539.64
36.6820	546.84
36.6965	509.11
36.7109	537.19
36.7253	528.40
36.7398	530.33
36.7542	565.54
36.7687	570.72
36.7831	561.44
36.7975	573.19
36.8120	584.64
36.8264	581.02
36.8409	596.85
36.8553	595.11
36.8697	598.07
36.8842	619.57
36.8986	609.07
36.9131	568.40
36.9275	591.25
36.9419	579.29
36.9564	535.94
36.9708	527.15
36.9853	536.28
36.9997	569.26
37.0141	530.25
37.0286	576.83
37.0430	554.63
37.0575	531.52
37.0719	546.83
37.0863	532.45
37.1008	480.27
37.1152	527.25
37.1297	554.86
37.1441	494.94
37.1585	524.53
37.1730	530.01
37.1874	558.98
37.2019	500.72
37.2163	492.13
37.2307	498.85
37.2452	511.47
37.2596	464.05
37.2741	500.21
37.2885	508.01
37.3029	507.89
37.3174	523.01
37.3318	514.66
37.3463	524.24
37.3607	540.86
37.3751	526.01
37.3896	500.52
37.4040	506.13
37.4185	481.98
37.4329	506.26
37.4473	515.36
37.4618	520.09
37.4762	525.37
37.4907	510.04
37.5051	498.37
37.5195	512.59
37.5340	524.06
37.5484	508.20
37.5629	524.46
37.5773	487.84
37.5917	502.00
37.6062	505.90
37.6206	505.37
37.6351	502.69
37.6495	494.76
37.6639	464.92
37.6784	532.12
37.6928	495.56
37.7073	500.11
37.7217	500.70
37.7361	498.39
37.7506	502.78
37.7650	492.20
37.7795	479.88
37.7939	492.54
37.8083	470.50
37.8228	518.36
37.8372	501.53
37.8517	535.81
37.8661	527.99
37.8805	491.98
37.8950	488.65
37.9094	523.38
37.9239	525.16
37.9383	535.74
37.9528	502.70
37.9672	486.39
37.9816	511.39
37.9961	516.50
38.0105	490.83
38.0250	501.95
38.0394	497.17
38.0538	509.15
38.0683	516.41
38.0827	515.54
38.0972	506.10
38.1116	509.73
38.1260	499.25
38.1405	489.86
38.1549	486.68
38.1694	499.84
38.1838	533.28
38.1982	512.57
38.2127	500.75
38.2271	527.76
38.2416	533.08
38.2560	522.08
38.2704	527.21
38.2849	533.31
38.2993	514.68
38.3138	518.84
38.3282	507.09
38.3426	531.63
38.3571	520.79
38.3715	530.14
38.3860	524.10
38.4004	509.78
38.4148	536.73
38.4293	623.83
38.4437	589.82
38.4582	575.45
38.4726	648.91
38.4870	698.71
38.5015	765.63
38.5159	783.81
38.5304	773.25
38.5448	779.58
38.5592	781.05
38.5737	748.74
38.5881	712.36
38.6026	696.28
38.6170	663.87
38.6314	690.30
38.6459	677.58
38.6603	636.58
38.6748	579.67
38.6892	599.22
38.7036	615.71
38.7181	552.06
38.7325	506.42
38.7470	516.94
38.7614	528.20
38.7758	514.50
38.7903	522.19
38.8047	504.80
38.8192	515.97
38.8336	484.94
38.8480	511.55
38.8625	517.60
38.8769	520.33
38.8914	493.48
38.9058	503.18
38.9202	521.36
38.9347	509.15
38.9491	509.87
38.9636	507.36
38.9780	504.83
38.9924	474.51
39.0069	503.10
39.0213	504.53
39.0358	467.82
39.0502	483.83
39.0646	502.12
39.0791	515.61
39.0935	547.82
39.1080	486.36
39.1224	479.06
39.1368	503.84
39.1513	511.68
39.1657	527.38
39.1802	529.16
39.1946	520.81
39.2090	499.26
39.2235	530.05
39.2379	507.32
39.2524	498.49
39.2668	544.12
39.2812	540.12
39.2957	499.14
39.3101	491.86
39.3246	482.45
39.3390	514.02
39.3534	504.74
39.3679	538.99
39.3823	495.48
39.3968	512.86
39.4112	528.96
39.4256	527.69
39.4401	522.16
39.4545	535.39
39.4690	529.88
39.4834	501.66
39.4978	484.68
39.5123	492.22
39.5267	528.93
39.5412	519.45
39.5556	491.82
39.5700	497.13
39.5845	504.00
39.5989	511.70
39.6134	505.12
39.6278	473.68
39.6422	481.36
39.6567	501.39
39.6711	508.74
39.6856	484.84
39.7000	492.26
39.7144	504.29
39.7289	514.77
39.7433	497.37
39.7578	524.51
39.7722	501.12
39.7866	490.59
39.8011	486.90
39.8155	509.29
39.8300	526.46
39.8444	504.83
39.8588	534.11
39.8733	503.45
39.8877	482.75
39.9022	497.58
39.9166	503.61
39.9310	461.51
39.9455	453.23
39.9599	515.69
39.9744	452.51
39.9888	462.74
40.0032	503.48
40.0177	535.52
40.0321	542.97
40.0466	503.15
40.0610	484.69
40.0754	517.16
40.0899	496.14
40.1043	455.05
40.1188	521.22
40.1332	483.78
40.1476	489.97
40.1621	515.59
40.1765	513.38
40.1910	446.53
40.2054	493.11
40.2198	464.66
40.2343	509.97
40.2487	487.98
40.2632	510.26
40.2776	506.28
40.2920	486.83
40.3065	504.86
40.3209	505.42
40.3354	485.19
40.3498	467.58
40.3642	461.31
40.3787	471.48
40.3931	470.49
40.4076	495.14
40.4220	506.27
40.4364	516.76
40.4509	460.84
40.4653	458.48
40.4798	477.88
40.4942	509.61
40.5086	516.75
40.5231	518.70
40.5375	507.52
40.5520	476.37
40.5664	484.92
40.5808	473.27
40.5953	459.66
40.6097	458.90
40.6242	494.32
40.6386	532.73
40.6530	498.74
40.6675	514.83
40.6819	504.28
40.6964	516.84
40.7108	503.88
40.7252	494.82
40.7397	467.19
40.7541	483.17
40.7686	508.43
40.7830	515.01
40.7974	517.66
40.8119	499.61
40.8263	515.57
40.8408	502.17
40.8552	490.11
40.8696	496.77
40.8841	485.92
40.8985	560.95
40.9130	491.69
40.9274	466.59
40.9418	528.21
40.9563	499.60
40.9707	488.28
40.9852	533.47
40.9996	491.71
41.0140	507.95
41.0285	522.73
41.0429	526.08
41.0574	496.77
41.0718	488.74
41.0862	509.74
41.1007	469.53
41.1151	519.60
41.1296	491.90
41.1440	466.39
41.1584	481.87
41.1729	495.96
41.1873	514.13
41.2018	461.27
41.2162	515.14
41.2306	521.25
41.2451	505.83
41.2595	485.98
41.2740	499.01
41.2884	466.93
41.3028	489.86
41.3173	509.75
41.3317	516.29
41.3462	486.31
41.3606	463.70
41.3750	502.83
41.3895	512.33
41.4039	502.92
41.4184	513.67
41.4328	519.97
41.4472	504.37
41.4617	490.75
41.4761	532.34
41.4906	503.34
41.5050	487.14
41.5194	530.43
41.5339	515.54
41.5483	509.32
41.5628	512.88
41.5772	494.03
41.5916	498.94
41.6061	516.40
41.6205	489.33
41.6350	526.39
41.6494	485.28
41.6639	469.34
41.6783	499.32
41.6927	492.19
41.7072	510.45
41.7216	509.72
41.7361	506.25
41.7505	512.06
41.7649	527.09
41.7794	505.32
41.7938	472.44
41.8083	483.02
41.8227	493.46
41.8371	483.96
41.8516	499.23
41.8660	523.62
41.8805	537.26
41.8949	513.81
41.9093	567.25
41.9238	534.93
41.9382	547.97
41.9527	544.82
41.9671	545.42
41.9815	575.23
41.9960	534.86
42.0104	551.59
42.0249	598.67
42.0393	570.85
42.0537	534.32
42.0682	570.59
42.0826	561.96
42.0971	555.08
42.1115	566.37
42.1259	606.47
42.1404	597.33
42.1548	584.21
42.1693	636.11
42.1837	671.56
42.1981	743.27
42.2126	822.84
42.2270	918.27
42.2415	999.01
42.2559	1188.90
42.2703	1324.05
42.2848	1439.13
42.2992	1558.92
42.3137	1547.28
42.3281	1548.84
42.3425	1504.10
42.3570	1423.77
42.3714	1361.57
42.3859	1339.18
42.4003	1291.34
42.4147	1317.03
42.4292	1235.60
42.4436	1102.80
42.4581	1007.24
42.4725	916.97
42.4869	817.70
42.5014	744.96
42.5158	661.99
42.5303	634.73
42.5447	623.47
42.5591	607.48
42.5736	598.63
42.5880	579.82
42.6025	578.36
42.6169	563.92
42.6313	551.65
42.6458	557.61
42.6602	553.65
42.6747	541.51
42.6891	536.48
42.7035	584.48
42.7180	528.37
42.7324	503.32
42.7469	494.50
42.7613	485.57
42.7757	509.43
42.7902	565.39
42.8046	513.83
42.8191	531.44
42.8335	546.36
42.8479	520.15
42.8624	502.86
42.8768	520.66
42.8913	525.34
42.9057	530.34
42.9201	507.79
42.9346	476.05
42.9490	505.53
42.9635	522.05
42.9779	511.63
42.9923	521.94
43.0068	510.55
43.0212	544.92
43.0357	530.14
43.0501	504.02
43.0645	520.65
43.0790	539.42
43.0934	493.92
43.1079	480.46
43.1223	493.87
43.1367	491.53
43.1512	508.26
43.1656	504.91
43.1801	483.10
43.1945	504.09
43.2089	528.32
43.2234	543.26
43.2378	521.38
43.2523	519.62
43.2667	514.22
43.2811	533.41
43.2956	520.27
43.3100	524.46
43.3245	545.34
43.3389	549.02
43.3533	560.18
43.3678	520.81
43.3822	514.03
43.3967	529.90
43.4111	546.06
43.4255	507.30
43.4400	494.53
43.4544	506.73
43.4689	498.36
43.4833	512.58
43.4977	517.99
43.5122	476.74
43.5266	503.20
43.5411	489.00
43.5555	504.33
43.5699	509.49
43.5844	519.14
43.5988	516.16
43.6133	525.44
43.6277	508.05
43.6421	528.27
43.6566	524.80
43.6710	506.02
43.6855	480.36
43.6999	479.90
43.7143	523.28
43.7288	522.61
43.7432	558.18
43.7577	494.64
43.7721	501.33
43.7865	514.55
43.8010	497.20
43.8154	542.31
43.8299	533.97
43.8443	526.30
43.8587	542.99
43.8732	516.71
43.8876	509.66
43.9021	519.34
43.9165	545.37
43.9309	528.36
43.9454	526.96
43.9598	555.61
43.9743	500.15
43.9887	508.76
44.0031	510.42
44.0176	569.58
44.0320	529.01
44.0465	600.40
44.0609	602.18
44.0753	604.57
44.0898	636.21
44.1042	652.32
44.1187	613.96
44.1331	649.96
44.1475	638.04
44.1620	665.67
44.1764	603.68
44.1909	595.25
44.2053	608.87
44.2197	618.05
44.2342	601.90
44.2486	596.56
44.2631	576.92
44.2775	611.88
44.2919	577.80
44.3064	564.22
44.3208	588.88
44.3353	559.35
44.3497	560.98
44.3641	554.80
44.3786	547.79
44.3930	536.60
44.4075	553.11
44.4219	582.49
44.4363	572.98
44.4508	577.05
44.4652	612.59
44.4797	598.03
44.4941	584.60
44.5085	556.43
44.5230	582.92
44.5374	579.62
44.5519	603.82
44.5663	579.49
44.5807	563.83
44.5952	605.33
44.6096	576.08
44.6241	621.80
44.6385	580.66
44.6529	567.66
44.6674	582.81
44.6818	590.77
44.6963	613.12
44.7107	660.51
44.7251	710.56
44.7396	736.64
44.7540	822.51
44.7685	883.10
44.7829	874.51
44.7973	866.11
44.8118	871.63
44.8262	855.80
44.8407	806.90
44.8551	788.53
44.8695	739.94
44.8840	736.99
44.8984	763.53
44.9129	711.39
44.9273	670.08
44.9417	667.61
44.9562	620.13
44.9706	577.98
44.9851	591.87
44.9995	548.06
45.0139	532.44
45.0284	569.77
45.0428	547.05
45.0573	544.28
45.0717	527.52
45.0861	486.68
45.1006	506.56
45.1150	472.35
45.1295	494.53
45.1439	486.49
45.1583	522.02
45.1728	541.25
45.1872	506.03
45.2017	515.16
45.2161	509.55
45.2305	478.94
45.2450	493.38
45.2594	499.27
45.2739	542.01
45.2883	519.48
45.3028	511.23
45.3172	482.13
45.3316	492.40
45.3461	495.16
45.3605	500.01
45.3750	550.56
45.3894	509.29
45.4038	516.76
45.4183	519.92
45.4327	526.04
45.4472	516.93
45.4616	514.75
45.4760	542.86
45.4905	494.80
45.5049	488.95
45.5194	514.90
45.5338	524.12
45.5482	515.70
45.5627	505.12
45.5771	505.77
45.5916	542.51
45.6060	519.43
45.6204	510.16
45.6349	508.33
45.6493	510.00
45.6638	513.63
45.6782	499.22
45.6926	483.39
45.7071	523.16
45.7215	485.44
45.7360	500.38
45.7504	528.55
45.7648	484.31
45.7793	502.09
45.7937	534.45
45.8082	507.24
45.8226	514.07
45.8370	532.86
45.8515	487.06
45.8659	515.34
45.8804	529.03
45.8948	538.30
45.9092	528.96
45.9237	472.70
45.9381	533.95
45.9526	535.40
45.9670	495.80
45.9814	493.25
45.9959	489.73
46.0103	483.69
46.0248	491.33
46.0392	509.73
46.0536	532.68
46.0681	492.95
46.0825	475.21
46.0970	512.41
46.1114	512.37
46.1258	519.17
46.1403	507.77
46.1547	523.77
46.1692	483.71
46.1836	520.77
46.1980	512.51
46.2125	516.04
46.2269	503.25
46.2414	504.88
46.2558	518.00
46.2702	527.86
46.2847	492.91
46.2991	505.54
46.3136	482.91
46.3280	529.82
46.3424	500.50
46.3569	520.39
46.3713	508.53
46.3858	472.70
46.4002	479.08
46.4146	483.82
46.4291	500.42
46.4435	500.07
46.4580	505.52
46.4724	512.58
46.4868	512.29
46.5013	529.93
46.5157	515.16
46.5302	511.70
46.5446	512.17
46.5590	484.07
46.5735	487.58
46.5879	495.16
46.6024	500.36
46.6168	533.95
46.6312	477.23
46.6457	509.06
46.6601	502.97
46.6746	494.84
46.6890	493.98
46.7034	539.68
46.7179	540.68
46.7323	495.44
46.7468	518.06
46.7612	482.28
46.7756	501.16
46.7901	490.90
46.8045	514.19
46.8190	501.75
46.8334	526.52
46.8478	534.15
46.8623	548.45
46.8767	536.32
46.8912	505.13
46.9056	511.87
46.9200	503.34
46.9345	519.34
46.9489	495.16
46.9634	475.02
46.9778	489.21
46.9922	484.14
47.0067	504.42
47.0211	521.13
47.0356	508.00
47.0500	503.06
47.0644	504.53
47.0789	508.16
47.0933	550.31
47.1078	513.96
47.1222	508.88
47.1366	523.28
47.1511	495.71
47.1655	496.37
47.1800	499.39
47.1944	478.11
47.2088	483.06
47.2233	511.24
47.2377	514.16
47.2522	495.82
47.2666	501.38
47.2810	543.54
47.2955	504.77
47.3099	536.09
47.3244	533.49
47.3388	513.76
47.3532	520.41
47.3677	491.38
47.3821	509.37
47.3966	516.66
47.4110	493.19
47.4254	511.45
47.4399	495.24
47.4543	514.02
47.4688	522.96
47.4832	502.45
47.4976	483.13
47.5121	511.64
47.5265	496.63
47.5410	498.23
47.5554	490.16
47.5698	455.75
47.5843	483.96
47.5987	506.92
47.6132	537.16
47.6276	508.61
47.6420	507.11
47.6565	492.79
47.6709	492.12
47.6854	474.62
47.6998	523.11
47.7142	553.02
47.7287	476.80
47.7431	454.97
47.7576	485.06
47.7720	517.33
47.7864	524.60
47.8009	495.59
47.8153	508.74
47.8298	516.79
47.8442	481.38
47.8586	512.91
47.8731	492.83
47.8875	497.69
47.9020	526.57
47.9164	508.19
47.9308	494.12
47.9453	478.05
47.9597	516.78
47.9742	532.33
47.9886	521.10
48.0030	523.33
48.0175	529.61
48.0319	482.19
48.0464	480.41
48.0608	477.47
48.0752	485.28
48.0897	515.37
48.1041	510.94
48.1186	521.84
48.1330	532.74
48.1474	519.28
48.1619	505.58
48.1763	512.64
48.1908	517.53
48.2052	532.39
48.2196	514.32
48.2341	509.49
48.2485	494.90
48.2630	507.90
48.2774	497.18
48.2918	499.36
48.3063	479.82
48.3207	524.87
48.3352	498.68
48.3496	497.90
48.3640	518.14
48.3785	547.96
48.3929	521.79
48.4074	529.57
48.4218	495.51
48.4362	493.88
48.4507	490.22
48.4651	547.66
48.4796	543.04
48.4940	510.79
48.5084	521.67
48.5229	519.09
48.5373	537.83
48.5518	545.42
48.5662	553.46
48.5806	488.27
48.5951	503.06
48.6095	487.03
48.6240	506.14
48.6384	545.68
48.6528	558.78
48.6673	514.58
48.6817	541.43
48.6962	511.80
48.7106	530.61
48.7250	508.29
48.7395	501.87
48.7539	515.22
48.7684	529.70
48.7828	557.84
48.7972	527.22
48.8117	539.48
48.8261	533.22
48.8406	520.36
48.8550	510.60
48.8694	516.51
48.8839	559.45
48.8983	592.59
48.9128	586.77
48.9272	554.95
48.9416	562.67
48.9561	547.98
48.9705	569.57
48.9850	598.25
48.9994	588.99
49.0139	608.04
49.0283	621.73
49.0427	597.05
49.0572	609.06
49.0716	609.12
49.0861	652.47
49.1005	722.18
49.1149	706.53
49.1294	755.45
49.1438	735.47
49.1583	777.21
49.1727	806.70
49.1871	930.95
49.2016	952.70
49.2160	1026.61
49.2305	1081.71
49.2449	1171.07
49.2593	1221.78
49.2738	1331.16
49.2882	1449.91
49.3027	1527.99
49.3171	1566.10
49.3315	1610.52
49.3460	1742.15
49.3604	1765.18
49.3749	1780.85
49.3893	1768.50
49.4037	1724.40
49.4182	1732.65
49.4326	1736.78
49.4471	1673.91
49.4615	1657.65
49.4759	1546.57
49.4904	1527.96
49.5048	1439.00
49.5193	1324.38
49.5337	1233.16
49.5481	1193.18
49.5626	1127.26
49.5770	1010.06
49.5915	964.63
49.6059	900.92
49.6203	891.20
49.6348	828.16
49.6492	753.10
49.6637	710.68
49.6781	703.79
49.6925	671.05
49.7070	668.25
49.7214	629.81
49.7359	620.10
49.7503	627.23
49.7647	618.25
49.7792	611.68
49.7936	573.80
49.8081	550.76
49.8225	553.53
49.8369	528.33
49.8514	568.23
49.8658	565.80
49.8803	575.96
49.8947	550.18
49.9091	539.31
49.9236	534.38
49.9380	527.51
49.9525	537.97
49.9669	506.14
49.9813	492.35
49.9958	543.92
50.0102	532.25
50.0247	546.14
50.0391	584.16
50.0535	519.22
50.0680	519.17
50.0824	523.01
50.0969	519.01
50.1113	517.11
50.1257	527.62
50.1402	504.20
50.1546	494.27
50.1691	520.73
50.1835	527.16
50.1979	523.31
50.2124	488.51
50.2268	498.66
50.2413	516.48
50.2557	496.38
50.2701	514.31
50.2846	519.41
50.2990	527.31
50.3135	538.26
50.3279	526.61
50.3423	521.63
50.3568	501.93
50.3712	509.94
50.3857	498.18
50.4001	509.87
50.4145	502.12
50.4290	542.74
50.4434	511.41
50.4579	533.92
50.4723	549.64
50.4867	506.09
50.5012	497.30
50.5156	478.52
50.5301	527.72
50.5445	518.66
50.5589	499.45
50.5734	515.25
50.5878	515.74
50.6023	499.83
50.6167	544.18
50.6311	514.39
50.6456	499.28
50.6600	500.00
50.6745	504.68
50.6889	475.69
50.7033	527.45
50.7178	514.24
50.7322	486.30
50.7467	518.94
50.7611	518.12
50.7755	547.84
50.7900	570.84
50.8044	527.68
50.8189	507.39
50.8333	504.96
50.8477	494.75
50.8622	525.24
50.8766	530.93
50.8911	523.56
50.9055	521.54
50.9199	504.16
50.9344	532.38
50.9488	526.48
50.9633	492.68
50.9777	494.20
50.9921	508.56
51.0066	474.00
51.0210	527.73
51.0355	545.88
51.0499	529.00
51.0643	530.65
51.0788	538.82
51.0932	510.23
51.1077	474.51
51.1221	504.67
51.1365	489.17
51.1510	485.41
51.1654	505.03
51.1799	502.35
51.1943	493.74
51.2087	527.47
51.2232	536.68
51.2376	547.70
51.2521	492.44
51.2665	480.94
51.2809	496.32
51.2954	528.62
51.3098	529.20
51.3243	504.98
51.3387	503.52
51.3531	530.13
51.3676	546.50
51.3820	507.14
51.3965	473.65
51.4109	482.74
51.4253	545.50
51.4398	553.90
51.4542	514.87
51.4687	547.11
51.4831	524.31
51.4975	490.67
51.5120	532.49
51.5264	513.91
51.5409	511.46
51.5553	516.91
51.5697	500.67
51.5842	516.93
51.5986	513.99
51.6131	535.41
51.6275	513.45
51.6419	513.34
51.6564	514.71
51.6708	531.38
51.6853	501.04
51.6997	525.06
51.7141	516.25
51.7286	518.64
51.7430	509.58
51.7575	500.12
51.7719	507.85
51.7863	522.30
51.8008	539.57
51.8152	522.54
51.8297	517.58
51.8441	507.48
51.8585	502.08
51.8730	506.77
51.8874	517.93
51.9019	496.96
51.9163	523.14
51.9307	554.83
51.9452	511.27
51.9596	471.92
51.9741	516.73
51.9885	538.05
52.0029	532.56
52.0174	487.14
52.0318	517.75
52.0463	517.66
52.0607	530.13
52.0751	483.99
52.0896	506.83
52.1040	527.86
52.1185	480.51
52.1329	513.01
52.1473	511.92
52.1618	503.25
52.1762	515.91
52.1907	498.59
52.2051	527.69
52.2195	499.00
52.2340	522.94
52.2484	501.68
52.2629	526.98
52.2773	507.04
52.2917	481.26
52.3062	500.44
52.3206	484.50
52.3351	536.06
52.3495	531.33
52.3639	558.76
52.3784	559.82
52.3928	525.41
52.4073	497.91
52.4217	502.39
52.4361	508.47
52.4506	517.42
52.4650	515.36
52.4795	534.30
52.4939	521.18
52.5083	524.23
52.5228	510.81
52.5372	528.86
52.5517	526.38
52.5661	479.66
52.5805	484.26
52.5950	506.29
52.6094	487.16
52.6239	525.58
52.6383	555.26
52.6527	490.47
52.6672	474.08
52.6816	490.61
52.6961	504.30
52.7105	522.29
52.7250	517.02
52.7394	506.65
52.7538	518.55
52.7683	514.71
52.7827	518.05
52.7972	522.65
52.8116	481.86
52.8260	504.45
52.8405	518.53
52.8549	494.88
52.8694	514.06
52.8838	509.03
52.8982	537.04
52.9127	538.14
52.9271	514.11
52.9416	521.76
52.9560	487.99
52.9704	466.58
52.9849	477.12
52.9993	517.70
53.0138	514.88
53.0282	550.30
53.0426	521.47
53.0571	544.83
53.0715	503.14
53.0860	544.18
53.1004	490.12
53.1148	507.56
53.1293	506.35
53.1437	487.25
53.1582	521.48
53.1726	503.83
53.1870	533.83
53.2015	520.90
53.2159	501.23
53.2304	476.64
53.2448	467.96
53.2592	492.27
53.2737	507.58
53.2881	519.98
53.3026	528.63
53.3170	538.28
53.3314	529.72
53.3459	518.13
53.3603	480.59
53.3748	515.94
53.3892	515.88
53.4036	528.35
53.4181	507.53
53.4325	538.78
53.4470	517.86
53.4614	508.33
53.4758	519.21
53.4903	541.38
53.5047	521.83
53.5192	504.35
53.5336	500.76
53.5480	505.39
53.5625	519.95
53.5769	499.61
53.5914	488.93
53.6058	545.19
53.6202	496.51
53.6347	524.19
53.6491	523.24
53.6636	502.31
53.6780	520.35
53.6924	494.99
53.7069	534.46
53.7213	508.42
53.7358	521.70
53.7502	526.78
53.7646	506.44
53.7791	529.43
53.7935	492.00
53.8080	507.43
53.8224	511.13
53.8368	504.90
53.8513	510.32
53.8657	566.06
53.8802	552.26
53.8946	535.71
53.9090	518.82
53.9235	509.42
53.9379	512.51
53.9524	509.64
53.9668	516.86
53.9812	515.25
53.9957	515.60
54.0101	538.66
54.0246	537.63
54.0390	500.84
54.0534	482.92
54.0679	511.56
54.0823	544.26
54.0968	555.58
54.1112	529.31
54.1256	524.14
54.1401	505.05
54.1545	508.28
54.1690	503.25
54.1834	502.64
54.1978	500.07
54.2123	537.07
54.2267	511.03
54.2412	533.83
54.2556	511.79
54.2700	513.36
54.2845	505.93
54.2989	513.89
54.3134	510.50
54.3278	521.08
54.3422	512.79
54.3567	530.56
54.3711	525.25
54.3856	492.87
54.4000	522.81
54.4144	555.55
54.4289	530.63
54.4433	520.33
54.4578	533.87
54.4722	574.72
54.4866	527.37
54.5011	532.18
54.5155	563.62
54.5300	533.95
54.5444	570.35
54.5588	573.94
54.5733	525.01
54.5877	555.34
54.6022	556.99
54.6166	550.72
54.6310	554.32
54.6455	564.99
54.6599	568.32
54.6744	555.35
54.6888	542.78
54.7032	585.37
54.7177	591.62
54.7321	569.58
54.7466	586.34
54.7610	598.91
54.7754	594.51
54.7899	583.52
54.8043	585.90
54.8188	604.55
54.8332	631.42
54.8476	589.79
54.8621	583.99
54.8765	583.88
54.8910	537.66
54.9054	597.23
54.9198	577.91
54.9343	570.08
54.9487	594.62
54.9632	574.72
54.9776	536.10
54.9920	514.94
55.0065	532.86
55.0209	549.25
55.0354	549.36
55.0498	527.52
55.0642	512.01
55.0787	542.34
55.0931	568.12
55.1076	556.48
55.1220	512.54
55.1364	531.74
55.1509	545.14
55.1653	549.41
55.1798	532.88
55.1942	495.87
55.2086	522.96
55.2231	518.50
55.2375	540.73
55.2520	528.60
55.2664	522.67
55.2808	526.19
55.2953	529.80
55.3097	488.16
55.3242	522.12
55.3386	577.96
55.3530	527.84
55.3675	544.39
55.3819	531.08
55.3964	525.22
55.4108	503.64
55.4252	527.70
55.4397	535.80
55.4541	518.85
55.4686	525.30
55.4830	539.90
55.4974	505.08
55.5119	534.04
55.5263	528.55
55.5408	499.57
55.5552	517.40
55.5696	531.87
55.5841	542.48
55.5985	520.13
55.6130	560.67
55.6274	508.12
55.6418	505.54
55.6563	517.53
55.6707	509.65
55.6852	552.58
55.6996	542.76
55.7140	552.32
55.7285	549.55
55.7429	512.17
55.7574	536.28
55.7718	521.02
55.7862	542.83
55.8007	521.49
55.8151	536.09
55.8296	501.76
55.8440	503.70
55.8584	507.64
55.8729	533.89
55.8873	519.57
55.9018	517.25
55.9162	502.70
55.9306	530.14
55.9451	555.56
55.9595	504.35
55.9740	499.59
55.9884	508.57
56.0028	569.88
56.0173	527.73
56.0317	515.74
56.0462	497.38
56.0606	502.32
56.0750	522.15
56.0895	524.21
56.1039	540.21
56.1184	510.19
56.1328	531.76
56.1472	510.33
56.1617	532.31
56.1761	507.73
56.1906	506.70
56.2050	536.85
56.2194	513.55
56.2339	508.33
56.2483	507.39
56.2628	538.14
56.2772	544.28
56.2916	535.78
56.3061	555.39
56.3205	537.49
56.3350	522.90
56.3494	543.84
56.3639	536.77
56.3783	515.84
56.3927	482.62
56.4072	500.15
56.4216	508.69
56.4361	543.08
56.4505	521.63
56.4649	547.31
56.4794	578.83
56.4938	527.47
56.5083	531.07
56.5227	491.78
56.5371	494.60
56.5516	522.05
56.5660	510.81
56.5805	488.20
56.5949	542.68
56.6093	532.88
56.6238	552.02
56.6382	532.74
56.6527	546.46
56.6671	557.77
56.6815	511.65
56.6960	502.65
56.7104	529.44
56.7249	510.23
56.7393	503.32
56.7537	525.27
56.7682	524.38
56.7826	516.19
56.7971	527.15
56.8115	501.35
56.8259	520.57
56.8404	481.06
56.8548	504.31
56.8693	518.14
56.8837	534.01
56.8981	518.81
56.9126	563.56
56.9270	511.94
56.9415	507.19
56.9559	545.38
56.9703	559.62
56.9848	516.57
56.9992	513.21
57.0137	509.91
57.0281	558.46
57.0425	529.66
57.0570	491.19
57.0714	535.01
57.0859	543.29
57.1003	511.00
57.1147	549.76
57.1292	556.72
57.1436	501.60
57.1581	473.62
57.1725	498.39
57.1869	517.09
57.2014	529.87
57.2158	549.35
57.2303	532.46
57.2447	537.12
57.2591	530.77
57.2736	528.51
57.2880	527.30
57.3025	526.80
57.3169	522.97
57.3313	540.04
57.3458	505.21
57.3602	518.82
57.3747	506.42
57.3891	525.12
57.4035	526.18
57.4180	506.58
57.4324	507.06
57.4469	551.57
57.4613	543.62
57.4757	558.13
57.4902	581.66
57.5046	531.41
57.5191	499.32
57.5335	510.36
57.5479	514.10
57.5624	497.97
57.5768	533.48
57.5913	562.72
57.6057	535.32
57.6201	505.75
57.6346	564.57
57.6490	534.26
57.6635	521.03
57.6779	530.13
57.6923	522.08
57.7068	574.21
57.7212	555.81
57.7357	517.66
57.7501	541.00
57.7645	502.50
57.7790	545.70
57.7934	535.75
57.8079	518.64
57.8223	533.20
57.8367	547.84
57.8512	529.70
57.8656	544.16
57.8801	530.03
57.8945	555.42
57.9089	510.49
57.9234	510.32
57.9378	569.37
57.9523	536.49
57.9667	535.94
57.9811	531.87
57.9956	531.78
58.0100	544.43
58.0245	543.66
58.0389	533.46
58.0533	528.49
58.0678	579.37
58.0822	562.58
58.0967	542.70
58.1111	540.52
58.1255	566.14
58.1400	555.13
58.1544	535.70
58.1689	581.90
58.1833	560.45
58.1977	540.59
58.2122	556.57
58.2266	575.05
58.2411	617.86
58.2555	592.43
58.2699	581.27
58.2844	588.38
58.2988	611.14
58.3133	617.16
58.3277	630.42
58.3421	664.91
58.3566	650.74
58.3710	669.04
58.3855	658.50
58.3999	677.37
58.4143	657.16
58.4288	692.60
58.4432	638.87
58.4577	625.35
58.4721	685.12
58.4865	655.60
58.5010	631.12
58.5154	637.23
58.5299	620.67
58.5443	639.53
58.5587	647.16
58.5732	622.19
58.5876	611.23
58.6021	609.82
58.6165	585.47
58.6309	551.57
58.6454	605.84
58.6598	611.33
58.6743	574.38
58.6887	538.83
58.7031	565.55
58.7176	550.89
58.7320	590.39
58.7465	554.39
58.7609	565.26
58.7753	531.31
58.7898	588.10
58.8042	574.84
58.8187	552.84
58.8331	531.93
58.8475	536.78
58.8620	566.62
58.8764	539.55
58.8909	552.15
58.9053	557.56
58.9197	545.53
58.9342	547.24
58.9486	551.71
58.9631	524.49
58.9775	541.06
58.9919	525.77
59.0064	550.95
59.0208	550.83
59.0353	523.92
59.0497	504.90
59.0641	533.61
59.0786	542.74
59.0930	562.41
59.1075	576.80
59.1219	555.81
59.1363	544.04
59.1508	541.36
59.1652	547.11
59.1797	546.79
59.1941	498.44
59.2085	563.73
59.2230	560.90
59.2374	543.07
59.2519	573.34
59.2663	541.69
59.2807	549.61
59.2952	547.71
59.3096	558.03
59.3241	586.70
59.3385	618.51
59.3529	592.71
59.3674	564.82
59.3818	606.14
59.3963	566.53
59.4107	582.36
59.4251	572.28
59.4396	540.01
59.4540	573.57
59.4685	583.42
59.4829	562.91
59.4973	592.98
59.5118	552.19
59.5262	566.28
59.5407	558.70
59.5551	557.21
59.5695	552.40
59.5840	573.05
59.5984	533.64
59.6129	540.97
59.6273	545.40
59.6417	529.69
59.6562	565.42
59.6706	545.12
59.6851	529.08
59.6995	553.27
59.7139	525.52
59.7284	507.28
59.7428	554.17
59.7573	518.54
59.7717	516.02
59.7861	537.14
59.8006	528.18
59.8150	559.08
59.8295	553.85
59.8439	532.28
59.8583	560.74
59.8728	545.43
59.8872	509.26
59.9017	563.89
59.9161	527.97
59.9305	515.17
59.9450	521.90
59.9594	532.47
59.9739	510.49
59.9883	531.91
60.0027	503.49
60.0172	505.12
60.0316	550.57
60.0461	559.90
60.0605	564.71
60.0750	595.25
60.0894	522.96
60.1038	549.61
60.1183	556.03
60.1327	529.88
60.1472	537.51
60.1616	496.13
60.1760	556.66
60.1905	539.10
60.2049	556.24
60.2194	579.69
60.2338	555.43
60.2482	539.53
60.2627	515.77
60.2771	541.13
60.2916	533.02
60.3060	531.48
60.3204	550.55
60.3349	550.87
60.3493	517.36
60.3638	519.47
60.3782	538.44
60.3926	526.57
60.4071	486.94
60.4215	540.10
60.4360	554.57
60.4504	524.47
60.4648	587.63
60.4793	569.77
60.4937	541.86
60.5082	567.27
60.5226	531.10
60.5370	518.91
60.5515	528.53
60.5659	520.39
60.5804	553.77
60.5948	539.92
60.6092	542.95
60.6237	543.92
60.6381	526.95
60.6526	541.61
60.6670	570.51
60.6814	526.57
60.6959	543.28
60.7103	583.19
60.7248	562.31
60.7392	567.29
60.7536	519.45
60.7681	520.17
60.7825	526.97
60.7970	531.27
60.8114	526.44
60.8258	573.38
60.8403	572.51
60.8547	546.75
60.8692	532.86
60.8836	528.84
60.8980	544.39
60.9125	545.48
60.9269	524.25
60.9414	563.91
60.9558	515.88
60.9702	534.93
60.9847	560.75
60.9991	524.82
61.0136	546.75
61.0280	562.93
61.0424	552.76
61.0569	572.28
61.0713	592.91
61.0858	596.09
61.1002	518.45
61.1146	545.21
61.1291	563.35
61.1435	513.56
61.1580	515.88
61.1724	544.93
61.1868	544.77
61.2013	530.55
61.2157	501.36
61.2302	519.35
61.2446	526.65
61.2590	555.24
61.2735	557.14
61.2879	550.98
61.3024	518.42
61.3168	553.44
61.3312	554.40
61.3457	584.92
61.3601	544.06
61.3746	536.99
61.3890	517.25
61.4034	576.81
61.4179	560.32
61.4323	553.84
61.4468	518.48
61.4612	538.27
61.4756	569.62
61.4901	550.06
61.5045	551.95
61.5190	555.13
61.5334	542.39
61.5478	537.71
61.5623	564.18
61.5767	519.73
61.5912	523.21
61.6056	563.37
61.6200	565.59
61.6345	541.71
61.6489	555.28
61.6634	543.30
61.6778	552.09
61.6922	567.47
61.7067	573.91
61.7211	543.45
61.7356	514.56
61.7500	551.86
61.7644	534.63
61.7789	578.31
61.7933	543.41
61.8078	588.64
61.8222	604.61
61.8366	556.30
61.8511	554.85
61.8655	568.50
61.8800	557.90
61.8944	537.49
61.9088	588.49
61.9233	572.58
61.9377	565.24
61.9522	534.31
61.9666	551.14
61.9810	578.82
61.9955	549.55
62.0099	542.28
62.0244	566.82
62.0388	511.05
62.0532	578.68
62.0677	555.47
62.0821	530.02
62.0966	520.48
62.1110	556.58
62.1254	567.95
62.1399	564.67
62.1543	538.97
62.1688	561.44
62.1832	520.77
62.1976	542.94
62.2121	596.78
62.2265	546.41
62.2410	556.56
62.2554	543.85
62.2698	578.01
62.2843	528.38
62.2987	552.44
62.3132	568.46
62.3276	552.97
62.3420	576.87
62.3565	558.95
62.3709	525.82
62.3854	536.22
62.3998	551.23
62.4142	562.71
62.4287	580.57
62.4431	531.55
62.4576	542.72
62.4720	538.72
62.4864	571.31
62.5009	603.39
62.5153	588.36
62.5298	579.04
62.5442	561.53
62.5586	556.48
62.5731	512.21
62.5875	510.49
62.6020	565.77
62.6164	583.67
62.6308	581.02
62.6453	573.14
62.6597	556.31
62.6742	540.96
62.6886	562.62
62.7030	586.77
62.7175	582.76
62.7319	544.28
62.7464	566.52
62.7608	553.29
62.7752	537.34
62.7897	558.99
62.8041	572.86
62.8186	574.50
62.8330	584.14
62.8474	574.44
62.8619	559.57
62.8763	587.63
62.8908	575.82
62.9052	559.22
62.9196	541.58
62.9341	554.74
62.9485	541.00
62.9630	555.47
62.9774	600.99
62.9918	584.92
63.0063	557.99
63.0207	575.27
63.0352	575.94
63.0496	552.90
63.0640	572.03
63.0785	596.86
63.0929	605.76
63.1074	587.74
63.1218	587.63
63.1362	550.23
63.1507	539.87
63.1651	571.80
63.1796	578.65
63.1940	585.05
63.2084	562.00
63.2229	595.64
63.2373	569.79
63.2518	580.16
63.2662	559.33
63.2806	585.62
63.2951	614.46
63.3095	547.41
63.3240	559.67
63.3384	630.27
63.3528	577.84
63.3673	578.75
63.3817	559.59
63.3962	551.74
63.4106	577.89
63.4250	584.33
63.4395	558.09
63.4539	572.51
63.4684	577.99
63.4828	572.78
63.4972	581.85
63.5117	581.78
63.5261	575.62
63.5406	570.53
63.5550	579.86
63.5694	583.15
63.5839	630.84
63.5983	607.10
63.6128	578.48
63.6272	589.10
63.6416	602.29
63.6561	605.32
63.6705	612.43
63.6850	585.18
63.6994	591.98
63.7138	609.35
63.7283	568.46
63.7427	573.61
63.7572	581.51
63.7716	609.91
63.7861	597.74
63.8005	578.40
63.8149	604.20
63.8294	610.98
63.8438	584.66
63.8583	596.95
63.8727	623.05
63.8871	601.28
63.9016	645.75
63.9160	634.20
63.9305	664.01
63.9449	629.00
63.9593	647.73
63.9738	667.17
63.9882	641.56
64.0027	666.91
64.0171	695.75
64.0315	692.59
64.0460	712.75
64.0604	741.31
64.0749	782.96
64.0893	819.78
64.1037	766.23
64.1182	815.07
64.1326	796.15
64.1471	806.46
64.1615	807.04
64.1759	819.55
64.1904	790.33
64.2048	776.22
64.2193	800.00
64.2337	750.37
64.2481	749.22
64.2626	799.04
64.2770	794.91
64.2915	781.17
64.3059	734.87
64.3203	769.18
64.3348	776.62
64.3492	746.60
64.3637	725.83
64.3781	738.12
64.3925	734.19
64.4070	718.43
64.4214	701.25
64.4359	676.06
64.4503	703.38
64.4647	697.82
64.4792	664.00
64.4936	606.98
64.5081	651.34
64.5225	644.79
64.5369	712.96
64.5514	668.63
64.5658	674.72
64.5803	637.45
64.5947	692.45
64.6091	664.39
64.6236	657.01
64.6380	664.49
64.6525	639.08
64.6669	664.94
64.6813	688.63
64.6958	701.43
64.7102	731.89
64.7247	700.22
64.7391	686.09
64.7535	676.31
64.7680	651.86
64.7824	741.37
64.7969	749.07
64.8113	792.67
64.8257	784.84
64.8402	759.23
64.8546	837.13
64.8691	857.61
64.8835	793.42
64.8979	913.61
64.9124	928.85
64.9268	915.81
64.9413	975.00
64.9557	996.21
64.9701	1017.77
64.9846	1098.20
64.9990	1237.67
65.0135	1367.37
65.0279	1512.68
65.0423	1704.03
65.0568	2194.78
65.0712	2788.14
65.0857	3728.97
65.1001	4717.25
65.1145	6436.09
65.1290	8448.76
65.1434	9980.49
65.1579	11422.53
65.1723	11804.59
65.1867	11172.91
65.2012	9913.50
65.2156	8143.52
65.2301	6325.96
65.2445	5155.13
65.2589	4400.56
65.2734	4166.17
65.2878	4443.38
65.3023	5058.31
65.3167	5956.95
65.3311	6689.86
65.3456	7129.13
65.3600	7001.58
65.3745	6411.18
65.3889	5279.50
65.4033	4219.50
65.4178	3277.89
65.4322	2630.72
65.4467	1995.38
65.4611	1705.69
65.4755	1467.89
65.4900	1247.89
65.5044	1124.65
65.5189	1019.05
65.5333	999.97
65.5477	956.46
65.5622	857.07
65.5766	849.25
65.5911	821.64
65.6055	767.45
65.6199	740.94
65.6344	778.27
65.6488	758.02
65.6633	738.56
65.6777	700.79
65.6921	706.41
65.7066	701.67
65.7210	683.09
65.7355	662.19
65.7499	719.56
65.7643	690.02
65.7788	685.24
65.7932	670.29
65.8077	684.76
65.8221	676.78
65.8365	662.52
65.8510	669.60
65.8654	666.79
65.8799	597.37
65.8943	644.11
65.9087	658.12
65.9232	620.10
65.9376	655.52
65.9521	630.97
65.9665	607.95
65.9809	586.03
65.9954	597.91
66.0098	615.63
66.0243	623.13
66.0387	619.55
66.0531	665.82
66.0676	653.30
66.0820	623.11
66.0965	641.08
66.1109	594.60
66.1253	635.99
66.1398	625.10
66.1542	624.71
66.1687	624.12
66.1831	586.80
66.1975	593.47
66.2120	621.46
66.2264	603.66
66.2409	624.25
66.2553	581.66
66.2697	593.28
66.2842	621.57
66.2986	629.95
66.3131	630.17
66.3275	640.28
66.3419	635.03
66.3564	592.38
66.3708	570.79
66.3853	558.35
66.3997	605.60
66.4141	600.61
66.4286	616.73
66.4430	557.76
66.4575	587.58
66.4719	624.52
66.4863	635.22
66.5008	627.91
66.5152	583.73
66.5297	559.66
66.5441	580.89
66.5585	583.66
66.5730	593.89
66.5874	585.24
66.6019	634.69
66.6163	616.78
66.6307	625.85
66.6452	596.22
66.6596	557.29
66.6741	573.49
66.6885	594.13
66.7029	603.96
66.7174	592.33
66.7318	599.33
66.7463	618.48
66.7607	601.51
66.7751	606.21
66.7896	599.13
66.8040	579.50
66.8185	572.88
66.8329	571.88
66.8473	548.50
66.8618	647.16
66.8762	605.02
66.8907	607.58
66.9051	609.18
66.9195	567.00
66.9340	590.11
66.9484	564.65
66.9629	551.36
66.9773	580.91
66.9917	597.44
67.0062	554.47
67.0206	559.65
67.0351	562.76
67.0495	590.03
67.0639	573.43
67.0784	565.93
67.0928	562.21
67.1073	580.47
67.1217	611.34
67.1361	588.75
67.1506	548.11
67.1650	587.07
67.1795	559.99
67.1939	569.20
67.2083	556.86
67.2228	579.06
67.2372	590.16
67.2517	589.27
67.2661	563.31
67.2805	568.88
67.2950	549.36
67.3094	569.31
67.3239	582.01
67.3383	594.51
67.3527	593.18
67.3672	592.89
67.3816	586.18
67.3961	579.70
67.4105	596.79
67.4250	573.49
67.4394	586.83
67.4538	574.69
67.4683	573.90
67.4827	583.16
67.4972	590.96
67.5116	590.26
67.5260	588.39
67.5405	579.20
67.5549	565.84
67.5694	574.81
67.5838	596.93
67.5982	606.50
67.6127	577.47
67.6271	555.27
67.6416	566.98
67.6560	587.09
67.6704	584.41
67.6849	574.26
67.6993	605.48
67.7138	573.84
67.7282	552.96
67.7426	568.54
67.7571	549.79
67.7715	584.50
67.7860	575.71
67.8004	584.99
67.8148	598.55
67.8293	609.65
67.8437	561.37
67.8582	539.98
67.8726	571.78
67.8870	559.57
67.9015	607.70
67.9159	582.31
67.9304	576.88
67.9448	605.99
67.9592	533.55
67.9737	558.77
67.9881	596.13
68.0026	572.65
68.0170	592.03
68.0314	597.72
68.0459	554.73
68.0603	564.78
68.0748	572.44
68.0892	598.16
68.1036	579.29
68.1181	603.32
68.1325	585.77
68.1470	551.64
68.1614	570.14
68.1758	589.19
68.1903	602.56
68.2047	565.40
68.2192	537.84
68.2336	548.33
68.2480	561.69
68.2625	583.43
68.2769	558.59
68.2914	556.59
68.3058	598.49
68.3202	581.24
68.3347	598.03
68.3491	565.54
68.3636	611.82
68.3780	583.58
68.3924	601.41
68.4069	558.34
68.4213	581.08
68.4358	545.63
68.4502	546.01
68.4646	572.33
68.4791	552.86
68.4935	587.33
68.5080	538.44
68.5224	585.62
68.5368	597.11
68.5513	574.37
68.5657	565.40
68.5802	569.52
68.5946	575.06
68.6090	553.17
68.6235	534.23
68.6379	563.26
68.6524	552.85
68.6668	589.06
68.6812	613.31
68.6957	600.21
68.7101	613.75
68.7246	556.44
68.7390	606.89
68.7534	569.56
68.7679	596.20
68.7823	607.31
68.7968	576.80
68.8112	569.90
68.8256	553.82
68.8401	562.78
68.8545	601.36
68.8690	569.59
68.8834	571.68
68.8978	612.31
68.9123	575.24
68.9267	601.24
68.9412	560.25
68.9556	576.64
68.9700	592.54
68.9845	535.41
68.9989	555.59
69.0134	604.36
69.0278	618.01
69.0422	560.91
69.0567	592.51
69.0711	575.19
69.0856	588.32
69.1000	592.77
69.1144	577.82
69.1289	591.59
69.1433	534.44
69.1578	581.01
69.1722	554.38
69.1866	577.03
69.2011	583.28
69.2155	530.97
69.2300	606.80
69.2444	589.82
69.2588	566.15
69.2733	580.49
69.2877	567.71
69.3022	597.45
69.3166	627.67
69.3310	652.71
69.3455	593.59
69.3599	567.37
69.3744	600.69
69.3888	540.57
69.4032	571.94
69.4177	602.28
69.4321	653.96
69.4466	628.08
69.4610	615.87
69.4754	596.19
69.4899	602.07
69.5043	563.97
69.5188	593.21
69.5332	506.75
69.5476	555.86
69.5621	573.14
69.5765	585.75
69.5910	520.20
69.6054	554.68
69.6198	567.17
69.6343	581.71
69.6487	551.54
69.6632	615.10
69.6776	587.34
69.6920	587.35
69.7065	649.24
69.7209	611.46
69.7354	576.66
69.7498	519.53
69.7642	551.16
69.7787	579.59
69.7931	629.00
69.8076	599.37
69.8220	603.69
69.8364	582.08
69.8509	575.36
69.8653	575.55
69.8798	607.24
69.8942	592.47
69.9086	543.57
69.9231	552.49
69.9375	620.89
69.9520	583.25
69.9664	597.72
69.9808	557.84
69.9953	533.71
70.0097	602.43
70.0242	631.33
70.0386	576.13
70.0530	524.70
70.0675	580.45
70.0819	601.52
70.0964	571.77
70.1108	575.04
70.1252	596.67
70.1397	561.85
70.1541	573.30
70.1686	567.85
70.1830	616.13
70.1974	552.63
70.2119	577.96
70.2263	516.88
70.2408	551.18
70.2552	597.75
70.2696	561.23
70.2841	531.29
70.2985	596.65
70.3130	536.37
70.3274	538.18
70.3418	607.27
70.3563	617.14
70.3707	555.91
70.3852	571.79
70.3996	587.38
70.4140	628.56
70.4285	610.45
70.4429	590.03
70.4574	583.76
70.4718	564.13
70.4862	570.43
70.5007	609.28
70.5151	559.15
70.5296	527.22
70.5440	622.33
70.5584	577.10
70.5729	580.06
70.5873	613.78
70.6018	607.21
70.6162	551.51
70.6306	602.11
70.6451	605.07
70.6595	581.06
70.6740	620.18
70.6884	602.97
70.7028	602.44
70.7173	538.27
70.7317	531.78
70.7462	564.23
70.7606	567.84
70.7750	629.28
70.7895	565.11
70.8039	583.27
70.8184	585.13
70.8328	569.20
70.8472	575.66
70.8617	646.08
70.8761	599.05
70.8906	594.57
70.9050	570.43
70.9194	605.72
70.9339	625.52
70.9483	622.34
70.9628	628.12
70.9772	607.31
70.9916	650.12
71.0061	592.55
71.0205	551.11
71.0350	560.08
71.0494	520.37
71.0638	571.32
71.0783	613.86
71.0927	610.70
71.1072	599.15
71.1216	593.66
71.1361	595.63
71.1505	606.86
71.1649	605.82
71.1794	592.78
71.1938	567.31
71.2083	581.93
71.2227	568.30
71.2371	590.49
71.2516	620.14
71.2660	616.31
71.2805	589.52
71.2949	572.61
71.3093	535.23
71.3238	524.96
71.3382	552.60
71.3527	603.31
71.3671	612.36
71.3815	629.58
71.3960	599.65
71.4104	549.37
71.4249	627.03
71.4393	638.32
71.4537	617.07
71.4682	634.86
71.4826	585.16
71.4971	602.03
71.5115	560.80
71.5259	575.93
71.5404	616.70
71.5548	561.50
71.5693	577.64
71.5837	584.22
71.5981	570.51
71.6126	577.78
71.6270	544.70
71.6415	592.64
71.6559	610.74
71.6703	614.37
71.6848	598.33
71.6992	593.74
71.7137	623.22
71.7281	641.60
71.7425	615.56
71.7570	644.12
71.7714	614.57
71.7859	619.17
71.8003	616.75
71.8147	553.73
71.8292	589.84
71.8436	651.37
71.8581	585.29
71.8725	532.95
71.8869	562.89
71.9014	633.77
71.9158	605.60
71.9303	612.85
71.9447	582.21
71.9591	581.11
71.9736	589.68
71.9880	540.59
72.0025	538.12
72.0169	547.14
72.0313	627.46
72.0458	683.70
72.0602	617.20
72.0747	578.40
72.0891	618.94
72.1035	600.80
72.1180	521.27
72.1324	538.46
72.1469	536.01
72.1613	583.82
72.1757	570.12
72.1902	532.95
72.2046	563.14
72.2191	584.20
72.2335	525.80
72.2479	505.92
72.2624	608.07
72.2768	633.59
72.2913	584.03
72.3057	518.58
72.3201	530.82
72.3346	564.95
72.3490	622.43
72.3635	652.28
72.3779	576.84
72.3923	529.82
72.4068	517.86
72.4212	530.13
72.4357	535.10
72.4501	566.19
72.4645	624.17
72.4790	664.53
72.4934	604.24
72.5079	536.96
72.5223	551.44
72.5367	545.53
72.5512	526.46
72.5656	567.70
72.5801	551.39
72.5945	543.27
72.6089	492.60
72.6234	532.68
72.6378	560.35
72.6523	559.83
72.6667	554.77
72.6811	578.34
72.6956	541.49
72.7100	561.96
72.7245	591.81
72.7389	584.98
72.7533	603.11
72.7678	576.92
72.7822	643.03
72.7967	670.92
72.8111	659.46
72.8255	595.75
72.8400	599.38
72.8544	609.60
72.8689	626.04
72.8833	598.15