2022.09.19 19:37:16
Îáðàçåö: ß÷åéêà LCoV 16-09-2022
Lambda1 = 1.54060
Lambda2 = 1.54439
Lambdam = 1.54186
R = 0.497
2Theta	I

line¹ 0 ;repeat¹ 0
22.1120	542.09
22.1264	664.21
22.1409	572.51
22.1553	563.41
22.1697	651.88
22.1842	540.22
22.1986	532.53
22.2131	548.64
22.2275	561.69
22.2419	630.26
22.2564	509.12
22.2708	477.37
22.2853	525.22
22.2997	513.83
22.3141	575.03
22.3286	536.44
22.3430	623.84
22.3575	634.02
22.3719	533.35
22.3863	557.00
22.4008	490.80
22.4152	590.45
22.4297	624.93
22.4441	597.71
22.4585	550.19
22.4730	517.89
22.4874	659.83
22.5019	634.21
22.5163	572.04
22.5307	577.32
22.5452	622.97
22.5596	645.63
22.5741	666.56
22.5885	693.40
22.6029	623.21
22.6174	561.19
22.6318	489.48
22.6463	477.48
22.6607	529.98
22.6751	449.09
22.6896	615.29
22.7040	714.61
22.7185	690.53
22.7329	603.65
22.7473	604.41
22.7618	634.88
22.7762	606.11
22.7907	679.66
22.8051	634.07
22.8195	628.10
22.8340	590.79
22.8484	562.06
22.8629	530.42
22.8773	535.07
22.8917	613.82
22.9062	546.34
22.9206	552.13
22.9351	523.30
22.9495	530.62
22.9639	521.60
22.9784	585.18
22.9928	570.99
23.0073	568.63
23.0217	626.28
23.0361	559.87
23.0506	612.04
23.0650	523.57
23.0795	541.78
23.0939	654.24
23.1083	567.38
23.1228	542.89
23.1372	561.09
23.1517	562.64
23.1661	566.85
23.1806	565.28
23.1950	525.88
23.2094	479.47
23.2239	550.36
23.2383	492.34
23.2528	516.71
23.2672	520.84
23.2816	627.42
23.2961	553.29
23.3105	557.74
23.3250	485.67
23.3394	531.18
23.3538	529.05
23.3683	580.02
23.3827	557.42
23.3972	557.64
23.4116	541.37
23.4260	616.91
23.4405	486.90
23.4549	510.73
23.4694	476.39
23.4838	535.97
23.4982	551.22
23.5127	581.03
23.5271	498.09
23.5416	517.17
23.5560	524.63
23.5704	569.01
23.5849	545.62
23.5993	485.15
23.6138	539.47
23.6282	579.56
23.6426	591.17
23.6571	549.13
23.6715	521.26
23.6860	525.32
23.7004	587.65
23.7148	623.95
23.7293	539.50
23.7437	544.00
23.7582	558.58
23.7726	591.39
23.7870	588.85
23.8015	552.54
23.8159	535.31
23.8304	517.09
23.8448	483.92
23.8592	545.75
23.8737	529.81
23.8881	545.41
23.9026	564.71
23.9170	533.41
23.9314	528.74
23.9459	548.99
23.9603	531.32
23.9748	539.10
23.9892	596.98
24.0036	482.14
24.0181	515.53
24.0325	551.98
24.0470	509.02
24.0614	544.31
24.0758	539.21
24.0903	570.57
24.1047	607.72
24.1192	559.94
24.1336	585.05
24.1480	589.10
24.1625	616.13
24.1769	555.57
24.1914	591.33
24.2058	561.66
24.2202	540.94
24.2347	609.08
24.2491	570.30
24.2636	579.37
24.2780	529.55
24.2924	595.54
24.3069	605.02
24.3213	512.71
24.3358	587.18
24.3502	585.84
24.3646	532.76
24.3791	522.85
24.3935	556.81
24.4080	571.02
24.4224	534.65
24.4368	512.61
24.4513	569.23
24.4657	575.08
24.4802	576.62
24.4946	535.75
24.5090	578.77
24.5235	499.16
24.5379	533.42
24.5524	576.86
24.5668	582.89
24.5812	584.75
24.5957	542.85
24.6101	563.59
24.6246	548.89
24.6390	544.86
24.6534	488.94
24.6679	558.56
24.6823	528.83
24.6968	541.59
24.7112	583.74
24.7256	584.27
24.7401	544.63
24.7545	498.50
24.7690	534.22
24.7834	527.51
24.7978	515.02
24.8123	538.47
24.8267	519.99
24.8412	534.17
24.8556	559.67
24.8700	558.39
24.8845	526.08
24.8989	542.03
24.9134	580.58
24.9278	522.20
24.9422	545.10
24.9567	518.65
24.9711	548.20
24.9856	546.01
25.0000	543.35
25.0144	545.17
25.0289	550.36
25.0433	572.03
25.0578	576.98
25.0722	538.13
25.0866	613.30
25.1011	565.39
25.1155	517.86
25.1300	575.78
25.1444	547.18
25.1588	521.19
25.1733	558.45
25.1877	580.04
25.2022	514.98
25.2166	555.50
25.2310	578.90
25.2455	544.72
25.2599	560.70
25.2744	540.43
25.2888	556.05
25.3032	543.43
25.3177	530.50
25.3321	604.73
25.3466	535.52
25.3610	570.40
25.3754	538.21
25.3899	508.14
25.4043	546.04
25.4188	497.71
25.4332	516.12
25.4476	513.17
25.4621	505.92
25.4765	565.94
25.4910	549.32
25.5054	549.57
25.5198	530.62
25.5343	566.47
25.5487	533.34
25.5632	529.33
25.5776	596.30
25.5920	592.05
25.6065	540.43
25.6209	503.88
25.6354	546.10
25.6498	549.24
25.6642	570.39
25.6787	528.38
25.6931	511.83
25.7076	507.33
25.7220	510.08
25.7364	593.20
25.7509	616.09
25.7653	568.44
25.7798	572.40
25.7942	553.60
25.8086	558.81
25.8231	554.79
25.8375	530.83
25.8520	530.39
25.8664	541.30
25.8808	530.82
25.8953	576.80
25.9097	537.52
25.9242	555.88
25.9386	545.45
25.9530	538.89
25.9675	514.40
25.9819	485.42
25.9964	498.78
26.0108	515.37
26.0252	531.36
26.0397	555.81
26.0541	554.98
26.0686	523.30
26.0830	538.45
26.0974	497.02
26.1119	528.54
26.1263	548.60
26.1408	530.62
26.1552	553.77
26.1696	585.63
26.1841	536.82
26.1985	537.95
26.2130	555.32
26.2274	521.48
26.2418	555.48
26.2563	512.33
26.2707	521.62
26.2852	515.10
26.2996	524.32
26.3140	554.52
26.3285	548.86
26.3429	532.59
26.3574	508.31
26.3718	512.57
26.3862	496.36
26.4007	492.00
26.4151	503.24
26.4296	513.11
26.4440	524.71
26.4584	523.53
26.4729	527.96
26.4873	524.95
26.5018	527.62
26.5162	510.33
26.5306	523.83
26.5451	562.26
26.5595	542.33
26.5740	499.29
26.5884	514.60
26.6028	549.99
26.6173	515.36
26.6317	527.17
26.6462	527.79
26.6606	533.43
26.6750	526.33
26.6895	528.78
26.7039	556.99
26.7184	539.72
26.7328	519.76
26.7472	539.99
26.7617	547.83
26.7761	527.71
26.7906	484.58
26.8050	517.03
26.8194	513.12
26.8339	513.15
26.8483	525.62
26.8628	548.58
26.8772	538.56
26.8917	528.54
26.9061	540.00
26.9205	526.96
26.9350	505.24
26.9494	508.32
26.9639	510.07
26.9783	525.17
26.9927	528.85
27.0072	518.93
27.0216	529.64
27.0361	518.06
27.0505	508.44
27.0649	510.61
27.0794	546.88
27.0938	506.74
27.1083	509.33
27.1227	490.55
27.1371	484.92
27.1516	496.29
27.1660	517.41
27.1805	525.58
27.1949	537.34
27.2093	554.77
27.2238	532.05
27.2382	521.80
27.2527	521.34
27.2671	513.13
27.2815	521.18
27.2960	536.14
27.3104	530.61
27.3249	532.58
27.3393	507.98
27.3537	524.86
27.3682	535.81
27.3826	530.52
27.3971	535.58
27.4115	516.01
27.4259	523.11
27.4404	541.14
27.4548	530.67
27.4693	499.67
27.4837	505.22
27.4981	485.09
27.5126	502.02
27.5270	502.24
27.5415	513.00
27.5559	531.72
27.5703	510.72
27.5848	514.28
27.5992	533.84
27.6137	533.86
27.6281	511.60
27.6425	512.45
27.6570	511.26
27.6714	521.19
27.6859	526.81
27.7003	526.54
27.7147	533.67
27.7292	492.34
27.7436	498.92
27.7581	490.96
27.7725	546.01
27.7869	523.23
27.8014	515.78
27.8158	558.21
27.8303	553.76
27.8447	532.68
27.8591	541.29
27.8736	555.14
27.8880	535.30
27.9025	552.68
27.9169	477.74
27.9313	503.12
27.9458	473.86
27.9602	524.31
27.9747	545.72
27.9891	500.79
28.0035	512.44
28.0180	499.13
28.0324	536.69
28.0469	516.32
28.0613	503.29
28.0757	523.56
28.0902	553.67
28.1046	484.71
28.1191	535.55
28.1335	507.86
28.1479	510.70
28.1624	518.21
28.1768	543.74
28.1913	520.36
28.2057	483.73
28.2201	483.30
28.2346	528.01
28.2490	521.62
28.2635	484.27
28.2779	509.00
28.2923	491.26
28.3068	515.83
28.3212	535.01
28.3357	534.91
28.3501	552.73
28.3645	524.99
28.3790	504.48
28.3934	520.36
28.4079	495.72
28.4223	531.37
28.4367	546.04
28.4512	524.06
28.4656	527.90
28.4801	506.28
28.4945	537.72
28.5089	507.13
28.5234	510.14
28.5378	515.71
28.5523	517.11
28.5667	527.70
28.5811	529.38
28.5956	509.89
28.6100	501.39
28.6245	523.21
28.6389	516.90
28.6533	506.06
28.6678	486.20
28.6822	503.05
28.6967	524.03
28.7111	544.80
28.7255	531.00
28.7400	513.23
28.7544	520.91
28.7689	516.18
28.7833	527.62
28.7977	512.26
28.8122	518.12
28.8266	496.85
28.8411	504.59
28.8555	547.15
28.8699	524.44
28.8844	519.90
28.8988	499.83
28.9133	465.27
28.9277	469.61
28.9421	520.54
28.9566	463.34
28.9710	515.04
28.9855	551.84
28.9999	502.06
29.0143	468.12
29.0288	483.09
29.0432	527.78
29.0577	490.65
29.0721	529.07
29.0865	510.36
29.1010	528.73
29.1154	494.43
29.1299	562.61
29.1443	539.33
29.1587	507.97
29.1732	505.07
29.1876	514.20
29.2021	491.10
29.2165	507.43
29.2309	514.05
29.2454	513.32
29.2598	509.64
29.2743	559.94
29.2887	476.90
29.3031	486.76
29.3176	483.64
29.3320	497.21
29.3465	474.29
29.3609	517.60
29.3753	475.70
29.3898	516.86
29.4042	504.93
29.4187	518.86
29.4331	546.22
29.4475	505.04
29.4620	485.91
29.4764	524.47
29.4909	544.04
29.5053	509.00
29.5197	497.24
29.5342	519.50
29.5486	487.15
29.5631	474.00
29.5775	485.09
29.5919	527.52
29.6064	514.67
29.6208	520.99
29.6353	512.73
29.6497	501.31
29.6641	500.44
29.6786	493.60
29.6930	501.42
29.7075	509.00
29.7219	526.69
29.7363	499.22
29.7508	509.41
29.7652	513.36
29.7797	538.27
29.7941	516.74
29.8085	499.24
29.8230	517.86
29.8374	502.46
29.8519	520.26
29.8663	495.52
29.8807	484.38
29.8952	538.84
29.9096	523.01
29.9241	496.49
29.9385	480.15
29.9529	502.86
29.9674	507.78
29.9818	503.64
29.9963	502.73
30.0107	500.43
30.0251	529.90
30.0396	492.12
30.0540	479.53
30.0685	505.75
30.0829	496.46
30.0973	518.39
30.1118	517.34
30.1262	513.53
30.1407	511.90
30.1551	511.01
30.1695	507.56
30.1840	489.06
30.1984	498.12
30.2129	513.45
30.2273	522.50
30.2417	515.19
30.2562	520.60
30.2706	520.04
30.2851	511.90
30.2995	531.09
30.3139	508.43
30.3284	521.38
30.3428	510.93
30.3573	477.03
30.3717	474.76
30.3861	502.23
30.4006	502.55
30.4150	504.07
30.4295	546.62
30.4439	529.56
30.4583	527.39
30.4728	572.85
30.4872	565.89
30.5017	545.21
30.5161	536.23
30.5305	544.15
30.5450	519.65
30.5594	515.35
30.5739	519.94
30.5883	501.96
30.6028	516.07
30.6172	531.91
30.6316	536.99
30.6461	538.35
30.6605	544.43
30.6750	546.45
30.6894	548.72
30.7038	533.01
30.7183	550.06
30.7327	562.00
30.7472	593.51
30.7616	620.67
30.7760	648.69
30.7905	670.77
30.8049	711.24
30.8194	716.29
30.8338	690.19
30.8482	735.96
30.8627	726.08
30.8771	680.61
30.8916	679.46
30.9060	682.44
30.9204	647.09
30.9349	620.95
30.9493	595.80
30.9638	594.91
30.9782	585.22
30.9926	589.46
31.0071	539.26
31.0215	508.90
31.0360	492.35
31.0504	528.40
31.0648	530.32
31.0793	521.70
31.0937	537.66
31.1082	525.55
31.1226	529.73
31.1370	521.37
31.1515	516.87
31.1659	525.73
31.1804	528.81
31.1948	542.94
31.2092	567.08
31.2237	494.98
31.2381	513.84
31.2526	527.68
31.2670	514.62
31.2814	541.64
31.2959	537.07
31.3103	548.35
31.3248	544.91
31.3392	534.68
31.3536	506.31
31.3681	507.09
31.3825	516.38
31.3970	519.15
31.4114	537.51
31.4258	566.00
31.4403	524.95
31.4547	526.84
31.4692	492.45
31.4836	515.27
31.4980	507.70
31.5125	497.11
31.5269	491.13
31.5414	496.02
31.5558	492.26
31.5702	513.44
31.5847	484.13
31.5991	510.09
31.6136	486.96
31.6280	509.98
31.6424	521.30
31.6569	513.63
31.6713	508.66
31.6858	476.19
31.7002	492.23
31.7146	532.28
31.7291	517.27
31.7435	484.99
31.7580	478.97
31.7724	493.58
31.7868	544.15
31.8013	493.97
31.8157	537.75
31.8302	525.26
31.8446	505.68
31.8590	503.08
31.8735	518.37
31.8879	525.79
31.9024	533.37
31.9168	537.90
31.9312	533.87
31.9457	514.12
31.9601	484.02
31.9746	503.65
31.9890	488.78
32.0034	511.96
32.0179	521.25
32.0323	511.88
32.0468	525.65
32.0612	521.84
32.0756	495.11
32.0901	518.21
32.1045	512.12
32.1190	519.95
32.1334	499.92
32.1478	499.40
32.1623	518.55
32.1767	503.92
32.1912	468.29
32.2056	502.36
32.2200	481.98
32.2345	483.52
32.2489	505.15
32.2634	515.98
32.2778	496.96
32.2922	515.50
32.3067	488.63
32.3211	485.92
32.3356	508.74
32.3500	515.14
32.3644	533.81
32.3789	537.17
32.3933	521.90
32.4078	512.64
32.4222	530.25
32.4366	543.68
32.4511	497.81
32.4655	503.08
32.4800	502.39
32.4944	512.94
32.5088	494.20
32.5233	514.92
32.5377	528.16
32.5522	493.10
32.5666	501.56
32.5810	500.77
32.5955	478.80
32.6099	541.77
32.6244	515.85
32.6388	496.22
32.6532	508.03
32.6677	492.59
32.6821	482.10
32.6966	488.62
32.7110	506.12
32.7254	516.03
32.7399	525.68
32.7543	509.77
32.7688	491.14
32.7832	529.19
32.7976	523.53
32.8121	503.48
32.8265	487.28
32.8410	533.27
32.8554	522.56
32.8698	518.14
32.8843	470.70
32.8987	506.62
32.9132	492.06
32.9276	480.51
32.9420	510.14
32.9565	476.34
32.9709	517.57
32.9854	519.48
32.9998	461.49
33.0142	483.94
33.0287	508.78
33.0431	472.54
33.0576	512.07
33.0720	504.15
33.0864	532.71
33.1009	521.78
33.1153	523.79
33.1298	546.83
33.1442	521.63
33.1586	510.25
33.1731	510.23
33.1875	518.28
33.2020	496.26
33.2164	526.44
33.2308	541.92
33.2453	508.94
33.2597	509.57
33.2742	530.14
33.2886	494.74
33.3030	537.53
33.3175	524.37
33.3319	493.07
33.3464	495.48
33.3608	491.47
33.3752	479.93
33.3897	506.04
33.4041	502.83
33.4186	515.78
33.4330	507.09
33.4474	502.30
33.4619	519.01
33.4763	516.33
33.4908	520.66
33.5052	501.28
33.5196	493.99
33.5341	485.78
33.5485	494.61
33.5630	485.13
33.5774	478.94
33.5918	479.95
33.6063	519.83
33.6207	507.41
33.6352	479.44
33.6496	538.84
33.6640	509.70
33.6785	483.90
33.6929	489.58
33.7074	516.36
33.7218	502.73
33.7362	512.82
33.7507	548.98
33.7651	509.78
33.7796	489.56
33.7940	517.75
33.8084	520.16
33.8229	523.38
33.8373	507.86
33.8518	528.98
33.8662	500.35
33.8806	510.90
33.8951	504.09
33.9095	517.60
33.9240	542.62
33.9384	533.21
33.9528	496.80
33.9673	443.85
33.9817	491.30
33.9962	524.80
34.0106	488.53
34.0250	525.91
34.0395	513.39
34.0539	491.59
34.0684	516.31
34.0828	548.09
34.0972	512.50
34.1117	515.71
34.1261	517.60
34.1406	530.78
34.1550	510.35
34.1694	509.47
34.1839	504.58
34.1983	519.92
34.2128	507.82
34.2272	481.28
34.2417	476.72
34.2561	507.95
34.2705	538.73
34.2850	502.48
34.2994	527.45
34.3139	497.78
34.3283	499.41
34.3427	491.46
34.3572	513.96
34.3716	508.25
34.3861	491.76
34.4005	487.54
34.4149	482.80
34.4294	565.39
34.4438	522.95
34.4583	499.79
34.4727	537.57
34.4871	525.43
34.5016	486.04
34.5160	508.40
34.5305	518.85
34.5449	524.67
34.5593	468.00
34.5738	482.33
34.5882	515.83
34.6027	514.85
34.6171	517.41
34.6315	496.66
34.6460	504.06
34.6604	500.82
34.6749	483.14
34.6893	514.44
34.7037	493.30
34.7182	495.29
34.7326	522.41
34.7471	539.39
34.7615	527.78
34.7759	523.35
34.7904	531.51
34.8048	521.67
34.8193	491.71
34.8337	520.40
34.8481	542.08
34.8626	537.52
34.8770	511.58
34.8915	496.47
34.9059	521.21
34.9203	508.19
34.9348	517.48
34.9492	493.77
34.9637	469.44
34.9781	495.21
34.9925	514.39
35.0070	524.25
35.0214	532.40
35.0359	494.68
35.0503	505.71
35.0647	503.26
35.0792	484.77
35.0936	509.98
35.1081	523.67
35.1225	526.27
35.1369	526.20
35.1514	484.06
35.1658	495.70
35.1803	498.86
35.1947	484.31
35.2091	484.36
35.2236	522.84
35.2380	519.32
35.2525	509.69
35.2669	511.29
35.2813	519.82
35.2958	503.74
35.3102	525.16
35.3247	490.41
35.3391	498.99
35.3535	527.83
35.3680	493.80
35.3824	522.32
35.3969	504.29
35.4113	522.52
35.4257	548.30
35.4402	512.03
35.4546	524.86
35.4691	533.95
35.4835	516.49
35.4979	516.52
35.5124	549.84
35.5268	539.66
35.5413	517.71
35.5557	538.38
35.5701	525.09
35.5846	524.49
35.5990	497.19
35.6135	517.05
35.6279	510.92
35.6423	542.05
35.6568	578.32
35.6712	544.98
35.6857	547.37
35.7001	614.55
35.7145	686.44
35.7290	644.17
35.7434	588.89
35.7579	566.21
35.7723	568.19
35.7867	604.10
35.8012	623.21
35.8156	647.15
35.8301	640.05
35.8445	592.51
35.8589	605.06
35.8734	712.47
35.8878	863.69
35.9023	1001.76
35.9167	1117.68
35.9311	1430.40
35.9456	2171.63
35.9600	2311.23
35.9745	1853.36
35.9889	1847.13
36.0033	2258.55
36.0178	2274.14
36.0322	1923.14
36.0467	1728.27
36.0611	1609.83
36.0755	1627.82
36.0900	1547.49
36.1044	1367.94
36.1189	1406.95
36.1333	1233.48
36.1477	1060.48
36.1622	1076.85
36.1766	1056.51
36.1911	904.79
36.2055	880.96
36.2199	876.53
36.2344	904.63
36.2488	898.69
36.2633	936.74
36.2777	971.70
36.2921	1014.98
36.3066	1043.84
36.3210	1053.35
36.3355	1053.12
36.3499	982.72
36.3643	957.59
36.3788	931.65
36.3932	924.41
36.4077	891.84
36.4221	829.03
36.4365	820.81
36.4510	786.20
36.4654	738.28
36.4799	668.75
36.4943	651.56
36.5087	647.66
36.5232	603.93
36.5376	565.55
36.5521	599.46
36.5665	586.72
36.5809	544.61
36.5954	566.67
36.6098	592.67
36.6243	525.70
36.6387	562.24
36.6531	562.46
36.6676	520.45
36.6820	534.88
36.6965	567.78
36.7109	579.93
36.7253	532.46
36.7398	550.24
36.7542	562.79
36.7687	535.12
36.7831	539.98
36.7975	546.75
36.8120	594.72
36.8264	614.48
36.8409	606.77
36.8553	579.30
36.8697	616.49
36.8842	574.15
36.8986	604.20
36.9131	575.64
36.9275	590.18
36.9419	575.94
36.9564	545.92
36.9708	566.14
36.9853	577.59
36.9997	568.80
37.0141	562.41
37.0286	496.62
37.0430	513.70
37.0575	555.87
37.0719	512.00
37.0863	548.09
37.1008	538.69
37.1152	524.00
37.1297	514.75
37.1441	486.77
37.1585	486.31
37.1730	488.55
37.1874	487.65
37.2019	497.01
37.2163	539.20
37.2307	532.27
37.2452	526.58
37.2596	503.21
37.2741	504.75
37.2885	481.23
37.3029	502.81
37.3174	518.22
37.3318	518.27
37.3463	519.42
37.3607	504.76
37.3751	514.96
37.3896	550.14
37.4040	498.19
37.4185	514.58
37.4329	505.96
37.4473	482.15
37.4618	501.60
37.4762	507.79
37.4907	512.96
37.5051	507.63
37.5195	491.12
37.5340	498.03
37.5484	498.56
37.5629	511.35
37.5773	502.68
37.5917	481.38
37.6062	521.82
37.6206	489.37
37.6351	471.46
37.6495	466.18
37.6639	488.21
37.6784	530.55
37.6928	517.61
37.7073	512.39
37.7217	502.50
37.7361	489.44
37.7506	532.20
37.7650	518.67
37.7795	486.49
37.7939	492.34
37.8083	486.30
37.8228	529.42
37.8372	501.03
37.8517	517.02
37.8661	518.38
37.8805	500.75
37.8950	506.67
37.9094	507.99
37.9239	492.36
37.9383	525.29
37.9528	517.10
37.9672	514.44
37.9816	479.99
37.9961	514.94
38.0105	505.55
38.0250	525.50
38.0394	487.28
38.0538	513.13
38.0683	525.57
38.0827	486.17
38.0972	532.08
38.1116	470.18
38.1260	497.95
38.1405	481.14
38.1549	462.53
38.1694	512.87
38.1838	502.87
38.1982	495.10
38.2127	499.13
38.2271	495.28
38.2416	512.86
38.2560	522.65
38.2704	523.37
38.2849	537.66
38.2993	522.93
38.3138	504.88
38.3282	534.79
38.3426	536.19
38.3571	502.49
38.3715	491.56
38.3860	519.60
38.4004	553.92
38.4148	555.82
38.4293	599.57
38.4437	603.99
38.4582	629.44
38.4726	661.88
38.4870	725.25
38.5015	717.16
38.5159	722.41
38.5304	818.81
38.5448	833.67
38.5592	767.92
38.5737	744.85
38.5881	728.48
38.6026	692.92
38.6170	665.08
38.6314	686.90
38.6459	698.01
38.6603	667.95
38.6748	592.87
38.6892	566.41
38.7036	571.23
38.7181	529.87
38.7325	505.13
38.7470	524.33
38.7614	503.37
38.7758	498.77
38.7903	522.89
38.8047	501.97
38.8192	484.22
38.8336	483.90
38.8480	467.83
38.8625	532.82
38.8769	506.65
38.8914	509.34
38.9058	513.93
38.9202	495.90
38.9347	511.43
38.9491	526.60
38.9636	527.02
38.9780	517.46
38.9924	509.83
39.0069	502.33
39.0213	516.33
39.0358	509.96
39.0502	544.38
39.0646	516.02
39.0791	501.34
39.0935	535.94
39.1080	518.97
39.1224	507.28
39.1368	453.23
39.1513	464.20
39.1657	518.67
39.1802	540.25
39.1946	512.68
39.2090	463.33
39.2235	503.38
39.2379	491.07
39.2524	494.00
39.2668	497.44
39.2812	510.43
39.2957	512.67
39.3101	486.56
39.3246	506.61
39.3390	530.72
39.3534	501.67
39.3679	509.19
39.3823	531.08
39.3968	500.37
39.4112	521.23
39.4256	560.98
39.4401	505.64
39.4545	501.14
39.4690	521.48
39.4834	485.28
39.4978	480.40
39.5123	524.34
39.5267	503.05
39.5412	468.52
39.5556	489.85
39.5700	482.70
39.5845	507.91
39.5989	491.93
39.6134	508.19
39.6278	520.23
39.6422	498.64
39.6567	477.11
39.6711	503.64
39.6856	500.57
39.7000	528.83
39.7144	526.01
39.7289	504.72
39.7433	482.20
39.7578	489.45
39.7722	502.35
39.7866	517.24
39.8011	484.36
39.8155	482.28
39.8300	541.00
39.8444	525.93
39.8588	531.65
39.8733	526.04
39.8877	525.94
39.9022	483.23
39.9166	513.13
39.9310	524.45
39.9455	542.60
39.9599	509.59
39.9744	533.98
39.9888	522.93
40.0032	533.86
40.0177	484.97
40.0321	497.33
40.0466	485.69
40.0610	512.04
40.0754	461.78
40.0899	509.91
40.1043	460.18
40.1188	487.48
40.1332	484.13
40.1476	473.48
40.1621	480.68
40.1765	451.23
40.1910	498.47
40.2054	521.67
40.2198	520.79
40.2343	486.10
40.2487	500.85
40.2632	477.13
40.2776	502.61
40.2920	468.53
40.3065	455.09
40.3209	507.81
40.3354	505.96
40.3498	481.93
40.3642	493.28
40.3787	507.46
40.3931	493.42
40.4076	511.35
40.4220	518.89
40.4364	500.21
40.4509	485.70
40.4653	494.10
40.4798	507.08
40.4942	464.68
40.5086	482.56
40.5231	467.65
40.5375	502.96
40.5520	526.00
40.5664	483.21
40.5808	503.01
40.5953	514.35
40.6097	512.37
40.6242	501.70
40.6386	509.34
40.6530	502.53
40.6675	489.19
40.6819	493.70
40.6964	506.57
40.7108	513.78
40.7252	518.43
40.7397	478.45
40.7541	495.56
40.7686	503.22
40.7830	474.97
40.7974	508.49
40.8119	479.53
40.8263	494.26
40.8408	482.11
40.8552	455.18
40.8696	485.72
40.8841	530.42
40.8985	515.64
40.9130	472.19
40.9274	470.03
40.9418	493.62
40.9563	495.05
40.9707	518.45
40.9852	526.69
40.9996	546.02
41.0140	500.64
41.0285	518.46
41.0429	491.63
41.0574	504.12
41.0718	499.16
41.0862	519.72
41.1007	490.39
41.1151	505.78
41.1296	503.97
41.1440	477.00
41.1584	486.63
41.1729	522.86
41.1873	527.26
41.2018	511.92
41.2162	508.99
41.2306	511.52
41.2451	464.06
41.2595	490.34
41.2740	503.94
41.2884	491.96
41.3028	483.90
41.3173	501.68
41.3317	523.85
41.3462	502.35
41.3606	506.59
41.3750	493.73
41.3895	498.21
41.4039	449.57
41.4184	480.00
41.4328	492.66
41.4472	477.79
41.4617	504.75
41.4761	528.09
41.4906	521.69
41.5050	515.31
41.5194	508.85
41.5339	520.92
41.5483	494.26
41.5628	462.60
41.5772	483.10
41.5916	480.19
41.6061	496.57
41.6205	502.52
41.6350	515.47
41.6494	488.55
41.6639	484.91
41.6783	517.56
41.6927	523.24
41.7072	517.52
41.7216	518.85
41.7361	522.37
41.7505	517.79
41.7649	537.11
41.7794	526.78
41.7938	523.48
41.8083	502.60
41.8227	501.01
41.8371	484.25
41.8516	495.89
41.8660	563.75
41.8805	525.31
41.8949	524.46
41.9093	565.23
41.9238	558.40
41.9382	576.79
41.9527	539.48
41.9671	541.85
41.9815	564.11
41.9960	607.65
42.0104	571.69
42.0249	592.48
42.0393	540.67
42.0537	561.50
42.0682	566.53
42.0826	543.75
42.0971	538.18
42.1115	572.55
42.1259	603.27
42.1404	590.78
42.1548	593.18
42.1693	635.36
42.1837	712.55
42.1981	737.75
42.2126	807.26
42.2270	885.69
42.2415	991.71
42.2559	1130.09
42.2703	1274.15
42.2848	1473.58
42.2992	1541.52
42.3137	1553.64
42.3281	1518.04
42.3425	1490.71
42.3570	1460.70
42.3714	1390.53
42.3859	1329.64
42.4003	1268.17
42.4147	1252.09
42.4292	1275.90
42.4436	1131.66
42.4581	1039.65
42.4725	980.39
42.4869	850.07
42.5014	806.46
42.5158	706.65
42.5303	631.56
42.5447	625.61
42.5591	618.87
42.5736	594.17
42.5880	580.00
42.6025	559.02
42.6169	566.97
42.6313	544.21
42.6458	547.16
42.6602	525.44
42.6747	532.66
42.6891	536.72
42.7035	559.86
42.7180	502.16
42.7324	505.95
42.7469	524.84
42.7613	512.55
42.7757	503.49
42.7902	500.38
42.8046	522.17
42.8191	547.21
42.8335	510.95
42.8479	533.09
42.8624	540.10
42.8768	533.53
42.8913	513.89
42.9057	502.32
42.9201	525.98
42.9346	551.02
42.9490	546.17
42.9635	523.13
42.9779	507.74
42.9923	505.98
43.0068	491.41
43.0212	508.07
43.0357	521.66
43.0501	499.62
43.0645	506.73
43.0790	511.17
43.0934	512.91
43.1079	519.49
43.1223	537.44
43.1367	507.11
43.1512	484.78
43.1656	509.07
43.1801	506.65
43.1945	492.17
43.2089	520.41
43.2234	528.90
43.2378	532.09
43.2523	525.48
43.2667	531.57
43.2811	520.67
43.2956	525.12
43.3100	543.60
43.3245	550.33
43.3389	546.13
43.3533	526.86
43.3678	534.89
43.3822	515.31
43.3967	491.46
43.4111	496.86
43.4255	542.05
43.4400	534.03
43.4544	510.34
43.4689	514.85
43.4833	492.77
43.4977	489.39
43.5122	508.19
43.5266	520.82
43.5411	530.90
43.5555	500.45
43.5699	524.93
43.5844	489.92
43.5988	509.95
43.6133	532.75
43.6277	516.68
43.6421	518.64
43.6566	521.58
43.6710	506.57
43.6855	518.82
43.6999	523.11
43.7143	516.33
43.7288	517.64
43.7432	509.69
43.7577	515.39
43.7721	526.03
43.7865	524.85
43.8010	478.20
43.8154	517.26
43.8299	521.86
43.8443	531.57
43.8587	526.71
43.8732	536.63
43.8876	494.01
43.9021	548.59
43.9165	559.19
43.9309	544.36
43.9454	537.94
43.9598	514.92
43.9743	536.97
43.9887	502.83
44.0031	518.37
44.0176	579.70
44.0320	581.82
44.0465	532.72
44.0609	562.11
44.0753	581.01
44.0898	623.78
44.1042	631.06
44.1187	632.13
44.1331	592.92
44.1475	589.42
44.1620	621.77
44.1764	651.82
44.1909	639.58
44.2053	623.51
44.2197	587.07
44.2342	613.88
44.2486	621.36
44.2631	601.37
44.2775	539.96
44.2919	559.22
44.3064	582.95
44.3208	557.38
44.3353	536.15
44.3497	559.76
44.3641	534.40
44.3786	522.18
44.3930	519.52
44.4075	586.34
44.4219	569.57
44.4363	576.22
44.4508	553.24
44.4652	598.69
44.4797	611.18
44.4941	579.88
44.5085	611.15
44.5230	584.06
44.5374	577.37
44.5519	563.73
44.5663	597.86
44.5807	543.30
44.5952	565.75
44.6096	546.38
44.6241	550.94
44.6385	579.63
44.6529	591.36
44.6674	592.58
44.6818	627.75
44.6963	628.02
44.7107	640.05
44.7251	696.36
44.7396	789.55
44.7540	833.04
44.7685	817.48
44.7829	873.64
44.7973	903.30
44.8118	914.24
44.8262	821.49
44.8407	770.39
44.8551	750.09
44.8695	719.20
44.8840	697.74
44.8984	701.17
44.9129	704.06
44.9273	690.32
44.9417	665.41
44.9562	626.23
44.9706	561.16
44.9851	558.59
44.9995	557.64
45.0139	534.06
45.0284	549.13
45.0428	561.30
45.0573	565.35
45.0717	533.81
45.0861	535.12
45.1006	551.84
45.1150	527.50
45.1295	533.58
45.1439	494.97
45.1583	494.39
45.1728	501.67
45.1872	493.91
45.2017	477.30
45.2161	522.36
45.2305	524.81
45.2450	509.08
45.2594	514.49
45.2739	517.13
45.2883	512.75
45.3028	473.29
45.3172	510.39
45.3316	551.10
45.3461	503.71
45.3605	500.18
45.3750	506.59
45.3894	499.26
45.4038	511.00
45.4183	550.01
45.4327	496.89
45.4472	485.03
45.4616	517.41
45.4760	530.12
45.4905	517.34
45.5049	505.45
45.5194	482.83
45.5338	522.44
45.5482	482.32
45.5627	513.74
45.5771	525.91
45.5916	510.26
45.6060	524.56
45.6204	521.82
45.6349	513.07
45.6493	487.80
45.6638	510.65
45.6782	516.87
45.6926	519.54
45.7071	533.13
45.7215	524.50
45.7360	516.79
45.7504	520.49
45.7648	496.51
45.7793	498.25
45.7937	489.80
45.8082	498.33
45.8226	526.34
45.8370	530.53
45.8515	503.27
45.8659	477.32
45.8804	489.22
45.8948	504.41
45.9092	520.48
45.9237	484.31
45.9381	482.73
45.9526	499.06
45.9670	497.11
45.9814	489.73
45.9959	462.79
46.0103	468.72
46.0248	526.39
46.0392	557.35
46.0536	496.74
46.0681	506.63
46.0825	493.18
46.0970	534.23
46.1114	495.63
46.1258	470.99
46.1403	505.68
46.1547	483.89
46.1692	508.28
46.1836	510.52
46.1980	482.58
46.2125	510.21
46.2269	514.01
46.2414	510.81
46.2558	497.83
46.2702	498.36
46.2847	493.98
46.2991	472.09
46.3136	503.65
46.3280	519.06
46.3424	529.52
46.3569	517.44
46.3713	522.84
46.3858	496.68
46.4002	507.95
46.4146	496.56
46.4291	513.32
46.4435	516.33
46.4580	484.89
46.4724	487.62
46.4868	519.88
46.5013	518.99
46.5157	544.81
46.5302	535.25
46.5446	495.28
46.5590	508.75
46.5735	519.11
46.5879	504.39
46.6024	513.14
46.6168	487.82
46.6312	497.03
46.6457	485.60
46.6601	482.42
46.6746	471.55
46.6890	494.26
46.7034	532.58
46.7179	507.35
46.7323	494.07
46.7468	491.07
46.7612	496.74
46.7756	500.40
46.7901	490.85
46.8045	487.82
46.8190	523.94
46.8334	530.06
46.8478	507.67
46.8623	523.30
46.8767	493.66
46.8912	481.74
46.9056	521.40
46.9200	533.65
46.9345	502.95
46.9489	491.67
46.9634	530.37
46.9778	524.89
46.9922	509.29
47.0067	506.98
47.0211	516.41
47.0356	545.62
47.0500	537.65
47.0644	517.25
47.0789	499.36
47.0933	518.12
47.1078	524.97
47.1222	509.89
47.1366	490.25
47.1511	482.97
47.1655	550.69
47.1800	511.98
47.1944	504.42
47.2088	515.31
47.2233	509.17
47.2377	480.82
47.2522	538.20
47.2666	516.31
47.2810	496.71
47.2955	511.40
47.3099	509.41
47.3244	489.35
47.3388	531.30
47.3532	514.12
47.3677	505.15
47.3821	484.60
47.3966	460.22
47.4110	511.04
47.4254	519.01
47.4399	501.62
47.4543	501.96
47.4688	482.18
47.4832	452.76
47.4976	476.13
47.5121	508.98
47.5265	501.47
47.5410	497.59
47.5554	513.77
47.5698	518.18
47.5843	520.17
47.5987	517.56
47.6132	499.21
47.6276	501.63
47.6420	514.66
47.6565	539.89
47.6709	512.22
47.6854	498.10
47.6998	484.97
47.7142	506.62
47.7287	494.42
47.7431	479.45
47.7576	490.97
47.7720	490.55
47.7864	481.21
47.8009	513.14
47.8153	508.02
47.8298	510.05
47.8442	516.89
47.8586	497.08
47.8731	499.78
47.8875	517.39
47.9020	503.75
47.9164	517.58
47.9308	486.53
47.9453	494.35
47.9597	522.50
47.9742	526.65
47.9886	551.12
48.0030	526.72
48.0175	504.81
48.0319	485.24
48.0464	500.17
48.0608	500.94
48.0752	440.56
48.0897	491.00
48.1041	485.32
48.1186	514.66
48.1330	515.15
48.1474	467.35
48.1619	492.31
48.1763	525.23
48.1908	522.11
48.2052	499.75
48.2196	506.75
48.2341	525.21
48.2485	498.90
48.2630	502.86
48.2774	543.96
48.2918	526.33
48.3063	502.11
48.3207	508.55
48.3352	514.43
48.3496	499.73
48.3640	504.35
48.3785	515.81
48.3929	519.30
48.4074	490.65
48.4218	512.57
48.4362	549.50
48.4507	544.40
48.4651	537.42
48.4796	496.63
48.4940	500.88
48.5084	516.56
48.5229	551.52
48.5373	520.23
48.5518	507.53
48.5662	533.86
48.5806	530.69
48.5951	518.29
48.6095	511.10
48.6240	519.40
48.6384	559.17
48.6528	530.95
48.6673	510.30
48.6817	496.42
48.6962	506.43
48.7106	525.60
48.7250	512.12
48.7395	502.04
48.7539	493.00
48.7684	528.33
48.7828	550.78
48.7972	525.13
48.8117	518.93
48.8261	540.01
48.8406	567.97
48.8550	537.50
48.8694	537.76
48.8839	562.65
48.8983	540.45
48.9128	542.45
48.9272	526.12
48.9416	595.79
48.9561	557.11
48.9705	558.18
48.9850	521.92
48.9994	553.43
49.0139	598.02
49.0283	576.42
49.0427	595.40
49.0572	573.00
49.0716	626.88
49.0861	704.67
49.1005	648.47
49.1149	714.82
49.1294	759.84
49.1438	745.48
49.1583	784.54
49.1727	834.26
49.1871	902.28
49.2016	950.65
49.2160	1040.69
49.2305	1076.88
49.2449	1124.52
49.2593	1194.41
49.2738	1308.09
49.2882	1439.55
49.3027	1514.39
49.3171	1600.76
49.3315	1681.30
49.3460	1733.24
49.3604	1698.64
49.3749	1752.61
49.3893	1740.68
49.4037	1650.71
49.4182	1738.30
49.4326	1728.51
49.4471	1598.23
49.4615	1593.12
49.4759	1542.39
49.4904	1526.29
49.5048	1393.63
49.5193	1313.17
49.5337	1260.63
49.5481	1148.62
49.5626	1122.72
49.5770	1033.16
49.5915	947.94
49.6059	914.31
49.6203	857.34
49.6348	807.48
49.6492	784.94
49.6637	770.79
49.6781	706.92
49.6925	682.79
49.7070	692.25
49.7214	650.69
49.7359	627.38
49.7503	609.87
49.7647	624.47
49.7792	574.49
49.7936	567.49
49.8081	567.73
49.8225	549.16
49.8369	567.28
49.8514	569.98
49.8658	553.80
49.8803	570.65
49.8947	607.00
49.9091	563.13
49.9236	571.11
49.9380	548.80
49.9525	570.14
49.9669	509.13
49.9813	538.95
49.9958	557.86
50.0102	507.34
50.0247	536.22
50.0391	542.94
50.0535	529.35
50.0680	534.27
50.0824	554.20
50.0969	548.20
50.1113	526.42
50.1257	542.80
50.1402	480.13
50.1546	508.93
50.1691	505.93
50.1835	516.42
50.1979	499.01
50.2124	508.31
50.2268	515.14
50.2413	485.29
50.2557	500.64
50.2701	501.11
50.2846	476.35
50.2990	517.14
50.3135	512.65
50.3279	504.55
50.3423	539.93
50.3568	522.91
50.3712	496.76
50.3857	499.61
50.4001	505.28
50.4145	495.47
50.4290	533.91
50.4434	522.54
50.4579	549.64
50.4723	548.18
50.4867	518.15
50.5012	514.16
50.5156	514.67
50.5301	527.07
50.5445	519.61
50.5589	536.00
50.5734	520.87
50.5878	490.74
50.6023	514.45
50.6167	482.02
50.6311	514.66
50.6456	566.12
50.6600	525.99
50.6745	493.80
50.6889	515.25
50.7033	524.99
50.7178	524.84
50.7322	480.96
50.7467	529.77
50.7611	512.75
50.7755	523.72
50.7900	546.34
50.8044	536.91
50.8189	532.63
50.8333	528.44
50.8477	531.93
50.8622	524.90
50.8766	521.58
50.8911	532.33
50.9055	524.42
50.9199	496.12
50.9344	514.16
50.9488	524.41
50.9633	514.15
50.9777	540.47
50.9921	519.50
51.0066	513.46
51.0210	516.40
51.0355	535.90
51.0499	512.08
51.0643	515.02
51.0788	527.07
51.0932	520.27
51.1077	517.07
51.1221	510.87
51.1365	520.33
51.1510	496.92
51.1654	527.85
51.1799	504.48
51.1943	491.92
51.2087	520.37
51.2232	513.05
51.2376	535.82
51.2521	528.62
51.2665	527.48
51.2809	504.06
51.2954	510.98
51.3098	517.89
51.3243	506.78
51.3387	531.69
51.3531	515.53
51.3676	492.51
51.3820	519.51
51.3965	508.15
51.4109	520.31
51.4253	548.01
51.4398	520.93
51.4542	514.92
51.4687	495.31
51.4831	503.16
51.4975	505.31
51.5120	531.52
51.5264	531.35
51.5409	508.95
51.5553	489.17
51.5697	496.01
51.5842	517.52
51.5986	509.48
51.6131	516.83
51.6275	487.23
51.6419	523.88
51.6564	536.75
51.6708	505.35
51.6853	469.88
51.6997	522.88
51.7141	535.31
51.7286	490.83
51.7430	485.08
51.7575	487.11
51.7719	472.56
51.7863	527.78
51.8008	500.59
51.8152	532.71
51.8297	530.45
51.8441	492.65
51.8585	512.68
51.8730	500.53
51.8874	505.36
51.9019	533.00
51.9163	530.15
51.9307	494.02
51.9452	526.38
51.9596	509.00
51.9741	511.18
51.9885	483.52
52.0029	565.41
52.0174	506.69
52.0318	529.93
52.0463	518.25
52.0607	517.28
52.0751	510.07
52.0896	549.96
52.1040	520.25
52.1185	540.29
52.1329	509.72
52.1473	477.70
52.1618	495.06
52.1762	523.78
52.1907	513.06
52.2051	477.47
52.2195	502.05
52.2340	505.95
52.2484	539.29
52.2629	469.76
52.2773	493.58
52.2917	490.33
52.3062	515.95
52.3206	527.66
52.3351	525.90
52.3495	484.37
52.3639	527.38
52.3784	518.44
52.3928	497.37
52.4073	518.28
52.4217	530.51
52.4361	547.84
52.4506	514.46
52.4650	515.44
52.4795	513.49
52.4939	526.63
52.5083	502.49
52.5228	487.41
52.5372	500.34
52.5517	531.62
52.5661	547.22
52.5805	519.21
52.5950	520.11
52.6094	478.94
52.6239	527.71
52.6383	500.92
52.6527	532.43
52.6672	509.02
52.6816	526.45
52.6961	507.58
52.7105	542.49
52.7250	536.24
52.7394	503.89
52.7538	511.42
52.7683	528.03
52.7827	520.33
52.7972	542.41
52.8116	525.07
52.8260	476.79
52.8405	477.23
52.8549	493.65
52.8694	542.91
52.8838	505.60
52.8982	539.62
52.9127	552.53
52.9271	512.46
52.9416	566.05
52.9560	492.72
52.9704	553.40
52.9849	535.04
52.9993	502.14
53.0138	528.33
53.0282	494.47
53.0426	499.72
53.0571	516.80
53.0715	534.03
53.0860	529.81
53.1004	496.65
53.1148	527.00
53.1293	534.69
53.1437	508.47
53.1582	520.30
53.1726	495.91
53.1870	500.51
53.2015	514.13
53.2159	507.29
53.2304	532.15
53.2448	525.18
53.2592	513.32
53.2737	516.02
53.2881	518.38
53.3026	493.75
53.3170	498.12
53.3314	497.28
53.3459	532.93
53.3603	487.46
53.3748	489.19
53.3892	520.07
53.4036	513.49
53.4181	512.26
53.4325	525.36
53.4470	498.66
53.4614	523.39
53.4758	502.57
53.4903	508.13
53.5047	492.40
53.5192	480.36
53.5336	485.10
53.5480	502.16
53.5625	534.88
53.5769	516.64
53.5914	471.15
53.6058	534.49
53.6202	536.31
53.6347	512.60
53.6491	538.63
53.6636	507.90
53.6780	494.01
53.6924	519.40
53.7069	547.77
53.7213	529.26
53.7358	522.13
53.7502	523.58
53.7646	501.55
53.7791	520.58
53.7935	497.96
53.8080	495.21
53.8224	512.24
53.8368	516.24
53.8513	502.74
53.8657	500.09
53.8802	486.74
53.8946	536.08
53.9090	549.55
53.9235	528.81
53.9379	543.89
53.9524	524.77
53.9668	510.12
53.9812	525.96
53.9957	531.29
54.0101	547.38
54.0246	512.34
54.0390	481.84
54.0534	526.65
54.0679	525.29
54.0823	499.56
54.0968	475.36
54.1112	524.61
54.1256	531.82
54.1401	490.90
54.1545	499.23
54.1690	525.84
54.1834	517.50
54.1978	490.85
54.2123	547.27
54.2267	507.30
54.2412	537.80
54.2556	501.08
54.2700	511.13
54.2845	536.53
54.2989	540.55
54.3134	553.73
54.3278	537.63
54.3422	561.11
54.3567	560.30
54.3711	530.23
54.3856	502.18
54.4000	520.96
54.4144	521.17
54.4289	539.29
54.4433	528.82
54.4578	496.48
54.4722	546.16
54.4866	567.18
54.5011	548.57
54.5155	529.07
54.5300	513.55
54.5444	558.82
54.5588	563.91
54.5733	545.00
54.5877	550.53
54.6022	546.55
54.6166	552.47
54.6310	565.75
54.6455	579.25
54.6599	574.15
54.6744	573.97
54.6888	572.12
54.7032	582.04
54.7177	558.07
54.7321	592.07
54.7466	596.46
54.7610	545.09
54.7754	570.26
54.7899	597.45
54.8043	605.57
54.8188	560.93
54.8332	551.23
54.8476	593.41
54.8621	625.09
54.8765	574.27
54.8910	561.26
54.9054	592.67
54.9198	559.12
54.9343	566.73
54.9487	526.32
54.9632	536.62
54.9776	555.35
54.9920	571.00
55.0065	533.46
55.0209	537.76
55.0354	518.51
55.0498	544.59
55.0642	575.35
55.0787	520.26
55.0931	529.97
55.1076	540.35
55.1220	535.16
55.1364	509.33
55.1509	509.63
55.1653	555.62
55.1798	556.95
55.1942	523.51
55.2086	536.41
55.2231	539.63
55.2375	533.06
55.2520	513.15
55.2664	513.87
55.2808	538.63
55.2953	536.00
55.3097	519.13
55.3242	549.05
55.3386	541.28
55.3530	523.41
55.3675	554.88
55.3819	542.50
55.3964	515.37
55.4108	508.73
55.4252	530.57
55.4397	511.63
55.4541	498.46
55.4686	468.84
55.4830	519.84
55.4974	495.57
55.5119	534.94
55.5263	527.85
55.5408	545.85
55.5552	553.00
55.5696	538.39
55.5841	511.06
55.5985	535.63
55.6130	522.40
55.6274	508.45
55.6418	489.74
55.6563	538.38
55.6707	524.43
55.6852	508.09
55.6996	509.27
55.7140	530.68
55.7285	511.07
55.7429	540.32
55.7574	479.52
55.7718	501.61
55.7862	513.39
55.8007	530.54
55.8151	533.47
55.8296	533.93
55.8440	523.96
55.8584	546.10
55.8729	508.05
55.8873	516.05
55.9018	529.08
55.9162	485.84
55.9306	519.55
55.9451	543.58
55.9595	521.71
55.9740	536.00
55.9884	517.11
56.0028	535.85
56.0173	514.38
56.0317	521.67
56.0462	496.70
56.0606	507.66
56.0750	499.50
56.0895	520.95
56.1039	528.58
56.1184	556.00
56.1328	523.00
56.1472	506.27
56.1617	531.93
56.1761	513.61
56.1906	532.98
56.2050	489.98
56.2194	538.68
56.2339	534.84
56.2483	545.40
56.2628	552.51
56.2772	551.88
56.2916	509.84
56.3061	524.32
56.3205	504.52
56.3350	488.18
56.3494	539.34
56.3639	525.34
56.3783	492.42
56.3927	529.41
56.4072	474.99
56.4216	514.28
56.4361	512.10
56.4505	491.32
56.4649	523.05
56.4794	510.74
56.4938	538.86
56.5083	511.40
56.5227	495.32
56.5371	512.20
56.5516	517.60
56.5660	520.13
56.5805	529.32
56.5949	503.45
56.6093	500.82
56.6238	512.87
56.6382	494.29
56.6527	494.98
56.6671	516.29
56.6815	496.32
56.6960	501.90
56.7104	544.95
56.7249	531.47
56.7393	513.27
56.7537	570.34
56.7682	512.47
56.7826	512.47
56.7971	538.87
56.8115	537.81
56.8259	508.19
56.8404	471.70
56.8548	505.75
56.8693	510.92
56.8837	499.56
56.8981	529.25
56.9126	527.96
56.9270	537.21
56.9415	544.99
56.9559	490.48
56.9703	481.30
56.9848	493.78
56.9992	504.02
57.0137	508.07
57.0281	560.25
57.0425	544.25
57.0570	540.41
57.0714	561.47
57.0859	520.74
57.1003	532.03
57.1147	523.49
57.1292	570.34
57.1436	540.29
57.1581	527.74
57.1725	539.57
57.1869	534.00
57.2014	501.53
57.2158	539.11
57.2303	549.38
57.2447	549.75
57.2591	512.58
57.2736	523.30
57.2880	526.80
57.3025	515.12
57.3169	527.07
57.3313	542.74
57.3458	507.13
57.3602	524.17
57.3747	497.08
57.3891	538.59
57.4035	561.89
57.4180	546.23
57.4324	512.02
57.4469	538.06
57.4613	534.03
57.4757	532.03
57.4902	516.94
57.5046	517.81
57.5191	481.84
57.5335	512.65
57.5479	537.04
57.5624	543.94
57.5768	499.95
57.5913	537.04
57.6057	552.68
57.6201	504.30
57.6346	539.69
57.6490	526.43
57.6635	525.15
57.6779	511.88
57.6923	554.55
57.7068	574.65
57.7212	545.49
57.7357	514.03
57.7501	532.47
57.7645	505.09
57.7790	526.82
57.7934	520.20
57.8079	568.10
57.8223	573.42
57.8367	556.67
57.8512	504.71
57.8656	552.12
57.8801	523.04
57.8945	524.53
57.9089	545.93
57.9234	515.99
57.9378	536.51
57.9523	545.78
57.9667	524.51
57.9811	536.78
57.9956	498.58
58.0100	536.12
58.0245	547.44
58.0389	535.26
58.0533	533.09
58.0678	566.08
58.0822	539.10
58.0967	549.43
58.1111	562.56
58.1255	547.53
58.1400	534.29
58.1544	525.22
58.1689	530.01
58.1833	551.64
58.1977	536.16
58.2122	535.85
58.2266	574.52
58.2411	579.35
58.2555	560.21
58.2699	565.71
58.2844	588.01
58.2988	566.78
58.3133	610.87
58.3277	632.79
58.3421	626.59
58.3566	615.97
58.3710	662.74
58.3855	683.16
58.3999	654.18
58.4143	652.42
58.4288	657.43
58.4432	657.95
58.4577	612.35
58.4721	634.92
58.4865	682.77
58.5010	635.05
58.5154	616.88
58.5299	629.52
58.5443	588.69
58.5587	626.59
58.5732	630.90
58.5876	631.14
58.6021	583.23
58.6165	569.06
58.6309	590.28
58.6454	608.73
58.6598	594.49
58.6743	596.18
58.6887	530.27
58.7031	545.14
58.7176	568.74
58.7320	552.28
58.7465	553.12
58.7609	567.48
58.7753	578.47
58.7898	550.86
58.8042	553.81
58.8187	555.72
58.8331	544.64
58.8475	521.57
58.8620	524.13
58.8764	534.36
58.8909	535.53
58.9053	579.83
58.9197	530.68
58.9342	527.32
58.9486	516.39
58.9631	529.88
58.9775	551.53
58.9919	561.56
59.0064	548.88
59.0208	560.38
59.0353	520.28
59.0497	543.67
59.0641	541.23
59.0786	509.63
59.0930	561.74
59.1075	550.14
59.1219	561.22
59.1363	527.96
59.1508	493.07
59.1652	548.01
59.1797	539.11
59.1941	532.34
59.2085	562.11
59.2230	572.02
59.2374	561.51
59.2519	574.95
59.2663	540.98
59.2807	513.40
59.2952	548.89
59.3096	558.60
59.3241	534.92
59.3385	555.45
59.3529	579.33
59.3674	550.51
59.3818	560.19
59.3963	554.76
59.4107	571.11
59.4251	593.28
59.4396	537.37
59.4540	569.94
59.4685	592.12
59.4829	545.76
59.4973	542.82
59.5118	543.53
59.5262	530.68
59.5407	574.98
59.5551	546.44
59.5695	536.92
59.5840	541.24
59.5984	507.65
59.6129	528.54
59.6273	531.03
59.6417	537.25
59.6562	554.62
59.6706	554.50
59.6851	552.73
59.6995	544.91
59.7139	549.84
59.7284	536.18
59.7428	575.01
59.7573	563.79
59.7717	520.75
59.7861	549.51
59.8006	556.37
59.8150	529.48
59.8295	518.65
59.8439	539.22
59.8583	547.09
59.8728	586.53
59.8872	546.23
59.9017	547.02
59.9161	581.77
59.9305	539.13
59.9450	536.77
59.9594	573.28
59.9739	517.66
59.9883	528.12
60.0027	548.07
60.0172	556.23
60.0316	522.02
60.0461	510.17
60.0605	531.05
60.0750	564.69
60.0894	555.06
60.1038	539.76
60.1183	535.68
60.1327	561.22
60.1472	526.59
60.1616	524.80
60.1760	542.28
60.1905	553.18
60.2049	556.91
60.2194	532.20
60.2338	526.42
60.2482	506.85
60.2627	563.42
60.2771	565.52
60.2916	568.59
60.3060	510.09
60.3204	509.81
60.3349	567.27
60.3493	546.61
60.3638	553.81
60.3782	552.95
60.3926	534.62
60.4071	517.94
60.4215	565.90
60.4360	545.10
60.4504	556.17
60.4648	577.56
60.4793	547.44
60.4937	507.98
60.5082	531.78
60.5226	553.84
60.5370	553.79
60.5515	574.20
60.5659	574.67
60.5804	534.34
60.5948	518.82
60.6092	555.55
60.6237	538.76
60.6381	555.24
60.6526	493.24
60.6670	506.06
60.6814	513.78
60.6959	512.89
60.7103	550.75
60.7248	562.01
60.7392	516.20
60.7536	530.87
60.7681	535.62
60.7825	530.44
60.7970	540.78
60.8114	536.39
60.8258	573.93
60.8403	548.86
60.8547	533.95
60.8692	496.90
60.8836	507.06
60.8980	569.38
60.9125	561.36
60.9269	524.50
60.9414	547.48
60.9558	520.76
60.9702	557.72
60.9847	538.19
60.9991	511.56
61.0136	566.69
61.0280	511.56
61.0424	505.22
61.0569	522.39
61.0713	548.43
61.0858	561.09
61.1002	534.87
61.1146	559.26
61.1291	560.98
61.1435	554.66
61.1580	533.11
61.1724	590.27
61.1868	579.98
61.2013	524.11
61.2157	543.24
61.2302	504.22
61.2446	532.30
61.2590	521.57
61.2735	539.13
61.2879	560.46
61.3024	521.44
61.3168	527.91
61.3312	503.08
61.3457	547.36
61.3601	570.05
61.3746	572.09
61.3890	554.86
61.4034	537.63
61.4179	559.74
61.4323	562.06
61.4468	548.86
61.4612	558.47
61.4756	556.24
61.4901	542.55
61.5045	525.91
61.5190	548.01
61.5334	522.41
61.5478	569.88
61.5623	535.71
61.5767	525.29
61.5912	556.89
61.6056	540.45
61.6200	569.00
61.6345	565.91
61.6489	596.94
61.6634	554.19
61.6778	546.09
61.6922	553.13
61.7067	549.07
61.7211	534.51
61.7356	532.26
61.7500	549.09
61.7644	526.91
61.7789	532.04
61.7933	549.97
61.8078	548.93
61.8222	590.97
61.8366	564.23
61.8511	519.79
61.8655	551.30
61.8800	559.24
61.8944	580.13
61.9088	533.92
61.9233	543.88
61.9377	537.48
61.9522	524.21
61.9666	534.41
61.9810	538.71
61.9955	582.17
62.0099	525.46
62.0244	540.37
62.0388	559.83
62.0532	572.93
62.0677	526.45
62.0821	558.31
62.0966	573.24
62.1110	574.73
62.1254	565.66
62.1399	544.08
62.1543	529.73
62.1688	522.49
62.1832	556.20
62.1976	537.76
62.2121	536.53
62.2265	554.49
62.2410	558.46
62.2554	553.81
62.2698	556.93
62.2843	560.46
62.2987	550.62
62.3132	565.83
62.3276	561.97
62.3420	571.40
62.3565	524.94
62.3709	541.45
62.3854	553.95
62.3998	561.78
62.4142	554.15
62.4287	585.06
62.4431	543.83
62.4576	563.25
62.4720	578.87
62.4864	532.31
62.5009	532.91
62.5153	546.76
62.5298	576.70
62.5442	567.22
62.5586	572.71
62.5731	550.30
62.5875	544.40
62.6020	525.68
62.6164	545.83
62.6308	573.97
62.6453	599.41
62.6597	564.98
62.6742	544.36
62.6886	535.88
62.7030	561.57
62.7175	568.69
62.7319	555.95
62.7464	537.98
62.7608	541.19
62.7752	567.40
62.7897	557.72
62.8041	551.98
62.8186	557.65
62.8330	577.72
62.8474	578.55
62.8619	564.22
62.8763	540.73
62.8908	542.31
62.9052	549.52
62.9196	551.80
62.9341	581.18
62.9485	568.55
62.9630	571.07
62.9774	575.38
62.9918	572.70
63.0063	578.78
63.0207	568.87
63.0352	544.54
63.0496	573.18
63.0640	577.34
63.0785	551.51
63.0929	606.84
63.1074	587.45
63.1218	565.47
63.1362	605.10
63.1507	535.39
63.1651	562.32
63.1796	538.91
63.1940	531.59
63.2084	568.04
63.2229	552.32
63.2373	554.57
63.2518	567.97
63.2662	551.07
63.2806	579.31
63.2951	559.74
63.3095	559.53
63.3240	565.87
63.3384	571.42
63.3528	581.12
63.3673	573.56
63.3817	575.89
63.3962	550.94
63.4106	603.91
63.4250	591.71
63.4395	590.00
63.4539	592.90
63.4684	590.57
63.4828	583.42
63.4972	568.34
63.5117	584.82
63.5261	559.23
63.5406	580.64
63.5550	562.64
63.5694	590.14
63.5839	558.75
63.5983	577.33
63.6128	599.88
63.6272	608.12
63.6416	613.48
63.6561	568.67
63.6705	579.65
63.6850	592.92
63.6994	578.78
63.7138	617.41
63.7283	591.93
63.7427	566.63
63.7572	572.45
63.7716	572.05
63.7861	601.56
63.8005	586.31
63.8149	580.02
63.8294	596.87
63.8438	622.10
63.8583	681.29
63.8727	644.35
63.8871	602.35
63.9016	642.27
63.9160	638.22
63.9305	659.20
63.9449	656.39
63.9593	633.28
63.9738	632.74
63.9882	653.80
64.0027	654.04
64.0171	659.33
64.0315	697.72
64.0460	711.48
64.0604	752.48
64.0749	732.88
64.0893	764.52
64.1037	826.99
64.1182	855.64
64.1326	790.29
64.1471	754.73
64.1615	798.25
64.1759	775.53
64.1904	761.80
64.2048	788.28
64.2193	843.84
64.2337	819.89
64.2481	762.06
64.2626	735.40
64.2770	745.39
64.2915	774.66
64.3059	754.83
64.3203	749.70
64.3348	737.80
64.3492	705.13
64.3637	744.23
64.3781	728.55
64.3925	693.91
64.4070	701.06
64.4214	694.34
64.4359	719.90
64.4503	691.66
64.4647	698.26
64.4792	712.93
64.4936	727.74
64.5081	688.21
64.5225	652.95
64.5369	728.10
64.5514	695.67
64.5658	677.34
64.5803	621.04
64.5947	669.22
64.6091	638.27
64.6236	664.87
64.6380	685.60
64.6525	678.38
64.6669	686.33
64.6813	716.48
64.6958	690.54
64.7102	753.61
64.7247	718.91
64.7391	662.37
64.7535	710.86
64.7680	716.75
64.7824	727.83
64.7969	765.67
64.8113	742.32
64.8257	817.81
64.8402	805.18
64.8546	843.37
64.8691	869.55
64.8835	802.07
64.8979	854.74
64.9124	914.85
64.9268	943.63
64.9413	882.05
64.9557	912.70
64.9701	1003.55
64.9846	1056.72
64.9990	1137.60
65.0135	1320.39
65.0279	1541.07
65.0423	1766.01
65.0568	2145.31
65.0712	2802.42
65.0857	3684.97
65.1001	4905.77
65.1145	6537.34
65.1290	8640.18
65.1434	10090.01
65.1579	11447.02
65.1723	11921.34
65.1867	11306.78
65.2012	9741.00
65.2156	8054.29
65.2301	6423.42
65.2445	5121.43
65.2589	4454.00
65.2734	4247.78
65.2878	4507.52
65.3023	5172.88
65.3167	6097.53
65.3311	6818.83
65.3456	7123.72
65.3600	7034.39
65.3745	6325.80
65.3889	5291.22
65.4033	4190.81
65.4178	3296.72
65.4322	2629.35
65.4467	1969.56
65.4611	1615.88
65.4755	1430.17
65.4900	1289.02
65.5044	1124.28
65.5189	1066.66
65.5333	996.00
65.5477	924.60
65.5622	907.77
65.5766	847.70
65.5911	855.27
65.6055	824.36
65.6199	790.98
65.6344	767.13
65.6488	783.85
65.6633	745.95
65.6777	720.08
65.6921	718.92
65.7066	735.33
65.7210	691.91
65.7355	684.24
65.7499	688.81
65.7643	675.37
65.7788	683.02
65.7932	686.85
65.8077	689.18
65.8221	690.77
65.8365	636.87
65.8510	622.16
65.8654	646.71
65.8799	656.46
65.8943	630.32
65.9087	644.03
65.9232	665.98
65.9376	653.36
65.9521	622.08
65.9665	608.30
65.9809	650.78
65.9954	659.54
66.0098	645.61
66.0243	657.43
66.0387	613.55
66.0531	588.64
66.0676	617.47
66.0820	648.78
66.0965	642.59
66.1109	619.74
66.1253	620.12
66.1398	628.27
66.1542	609.94
66.1687	648.37
66.1831	628.26
66.1975	599.85
66.2120	644.09
66.2264	613.65
66.2409	609.62
66.2553	628.85
66.2697	624.05
66.2842	629.18
66.2986	587.43
66.3131	600.89
66.3275	592.09
66.3419	635.39
66.3564	581.96
66.3708	580.56
66.3853	600.62
66.3997	582.21
66.4141	616.20
66.4286	647.41
66.4430	580.11
66.4575	572.39
66.4719	545.20
66.4863	588.56
66.5008	620.21
66.5152	573.81
66.5297	582.67
66.5441	587.20
66.5585	571.63
66.5730	575.86
66.5874	606.42
66.6019	605.01
66.6163	587.21
66.6307	611.66
66.6452	603.88
66.6596	612.11
66.6741	571.00
66.6885	576.83
66.7029	583.61
66.7174	602.25
66.7318	635.00
66.7463	620.18
66.7607	558.51
66.7751	589.81
66.7896	629.49
66.8040	593.90
66.8185	578.84
66.8329	586.68
66.8473	599.06
66.8618	612.49
66.8762	583.85
66.8907	577.78
66.9051	614.13
66.9195	599.63
66.9340	598.38
66.9484	592.77
66.9629	582.53
66.9773	579.25
66.9917	615.19
67.0062	596.66
67.0206	594.20
67.0351	602.28
67.0495	592.74
67.0639	590.06
67.0784	616.52
67.0928	589.27
67.1073	556.25
67.1217	548.79
67.1361	602.01
67.1506	604.55
67.1650	607.85
67.1795	556.37
67.1939	562.39
67.2083	582.30
67.2228	572.74
67.2372	584.69
67.2517	617.98
67.2661	575.94
67.2805	614.84
67.2950	586.41
67.3094	590.80
67.3239	580.28
67.3383	597.83
67.3527	595.87
67.3672	571.72
67.3816	580.89
67.3961	540.33
67.4105	585.28
67.4250	638.25
67.4394	622.24
67.4538	606.96
67.4683	579.33
67.4827	578.49
67.4972	574.74
67.5116	548.98
67.5260	589.86
67.5405	597.31
67.5549	589.82
67.5694	573.14
67.5838	566.21
67.5982	596.57
67.6127	587.76
67.6271	583.19
67.6416	590.69
67.6560	570.66
67.6704	590.18
67.6849	567.68
67.6993	601.00
67.7138	600.06
67.7282	536.94
67.7426	593.69
67.7571	579.72
67.7715	558.29
67.7860	568.49
67.8004	571.30
67.8148	583.46
67.8293	581.19
67.8437	569.48
67.8582	581.80
67.8726	605.71
67.8870	611.65
67.9015	602.64
67.9159	577.76
67.9304	602.48
67.9448	570.20
67.9592	566.87
67.9737	593.26
67.9881	573.03
68.0026	589.63
68.0170	615.17
68.0314	622.86
68.0459	577.93
68.0603	572.36
68.0748	553.78
68.0892	592.55
68.1036	553.07
68.1181	575.16
68.1325	629.13
68.1470	586.63
68.1614	588.69
68.1758	598.15
68.1903	579.62
68.2047	547.51
68.2192	587.56
68.2336	568.91
68.2480	560.93
68.2625	530.92
68.2769	533.20
68.2914	543.38
68.3058	544.34
68.3202	553.76
68.3347	585.29
68.3491	584.12
68.3636	626.62
68.3780	593.84
68.3924	581.54
68.4069	599.30
68.4213	565.04
68.4358	543.68
68.4502	585.69
68.4646	617.06
68.4791	606.93
68.4935	571.08
68.5080	544.48
68.5224	578.95
68.5368	610.91
68.5513	581.83
68.5657	575.29
68.5802	578.12
68.5946	538.10
68.6090	616.48
68.6235	578.98
68.6379	614.03
68.6524	551.11
68.6668	547.51
68.6812	611.66
68.6957	566.85
68.7101	593.40
68.7246	594.74
68.7390	596.39
68.7534	567.97
68.7679	571.12
68.7823	580.30
68.7968	568.24
68.8112	599.96
68.8256	583.48
68.8401	600.26
68.8545	588.61
68.8690	566.67
68.8834	587.48
68.8978	554.69
68.9123	584.66
68.9267	594.68
68.9412	550.66
68.9556	578.19
68.9700	570.81
68.9845	537.52
68.9989	611.23
69.0134	571.60
69.0278	572.80
69.0422	590.50
69.0567	562.98
69.0711	565.81
69.0856	595.76
69.1000	601.74
69.1144	575.13
69.1289	621.03
69.1433	564.52
69.1578	573.17
69.1722	595.12
69.1866	557.30
69.2011	565.72
69.2155	603.02
69.2300	512.05
69.2444	591.94
69.2588	594.26
69.2733	601.33
69.2877	575.98
69.3022	602.33
69.3166	581.30
69.3310	594.23
69.3455	597.91
69.3599	596.43
69.3744	611.40
69.3888	574.11
69.4032	559.58
69.4177	535.37
69.4321	571.25
69.4466	617.02
69.4610	610.17
69.4754	638.44
69.4899	583.86
69.5043	544.92
69.5188	554.33
69.5332	590.28
69.5476	628.71
69.5621	575.82
69.5765	557.26
69.5910	578.77
69.6054	592.60
69.6198	631.86
69.6343	634.82
69.6487	587.34
69.6632	554.20
69.6776	578.77
69.6920	581.85
69.7065	577.35
69.7209	621.63
69.7354	583.00
69.7498	564.43
69.7642	610.18
69.7787	576.47
69.7931	596.28
69.8076	556.47
69.8220	568.56
69.8364	632.73
69.8509	597.30
69.8653	573.91
69.8798	608.54
69.8942	594.10
69.9086	615.89
69.9231	564.50
69.9375	612.84
69.9520	619.86
69.9664	572.27
69.9808	549.71
69.9953	548.58
70.0097	502.45
70.0242	519.19
70.0386	559.98
70.0530	569.38
70.0675	594.88
70.0819	583.71
70.0964	618.19
70.1108	612.39
70.1252	575.66
70.1397	507.78
70.1541	506.41
70.1686	576.95
70.1830	567.97
70.1974	549.97
70.2119	551.81
70.2263	548.48
70.2408	630.58
70.2552	567.72
70.2696	633.27
70.2841	553.63
70.2985	508.74
70.3130	540.50
70.3274	551.13
70.3418	569.42
70.3563	558.66
70.3707	552.54
70.3852	544.56
70.3996	509.70
70.4140	555.07
70.4285	593.65
70.4429	575.22
70.4574	589.06
70.4718	600.40
70.4862	610.02
70.5007	548.09
70.5151	534.67
70.5296	569.91
70.5440	595.42
70.5584	586.64
70.5729	582.14
70.5873	560.11
70.6018	539.44
70.6162	597.36
70.6306	611.47
70.6451	594.65
70.6595	607.67
70.6740	502.98
70.6884	532.58
70.7028	570.73
70.7173	583.61
70.7317	566.21
70.7462	574.58
70.7606	568.00
70.7750	557.33
70.7895	558.73
70.8039	612.64
70.8184	613.60
70.8328	606.70
70.8472	554.44
70.8617	500.10
70.8761	575.69
70.8906	559.67
70.9050	533.70
70.9194	578.54
70.9339	567.17
70.9483	602.19
70.9628	613.68
70.9772	599.87
70.9916	595.84
71.0061	613.42
71.0205	596.49
71.0350	549.86
71.0494	537.03
71.0638	556.57
71.0783	603.88
71.0927	664.95
71.1072	631.41
71.1216	574.89
71.1361	544.70
71.1505	547.76
71.1649	612.26
71.1794	622.14
71.1938	605.66
71.2083	557.64
71.2227	568.92
71.2371	586.61
71.2516	593.81
71.2660	586.04
71.2805	616.77
71.2949	595.81
71.3093	552.83
71.3238	540.26
71.3382	602.38
71.3527	581.58
71.3671	522.74
71.3815	534.84
71.3960	573.57
71.4104	589.14
71.4249	603.51
71.4393	569.68
71.4537	569.77
71.4682	584.54
71.4826	529.72
71.4971	525.14
71.5115	556.77
71.5259	524.69
71.5404	533.84
71.5548	611.00
71.5693	586.48
71.5837	559.16
71.5981	572.11
71.6126	600.06
71.6270	586.85
71.6415	613.31
71.6559	593.78
71.6703	596.20
71.6848	616.63
71.6992	626.83
71.7137	559.51
71.7281	552.27
71.7425	546.68
71.7570	545.59
71.7714	599.94
71.7859	599.97
71.8003	580.34
71.8147	606.85
71.8292	599.55
71.8436	564.68
71.8581	542.56
71.8725	600.95
71.8869	595.74
71.9014	645.14
71.9158	621.33
71.9303	571.84
71.9447	614.93
71.9591	644.75
71.9736	575.70
71.9880	513.44
72.0025	520.07
72.0169	546.34
72.0313	573.36
72.0458	599.79
72.0602	606.16
72.0747	588.66
72.0891	607.04
72.1035	623.15
72.1180	495.48
72.1324	530.01
72.1469	564.84
72.1613	534.84
72.1757	551.70
72.1902	613.57
72.2046	626.29
72.2191	562.15
72.2335	573.63
72.2479	556.06
72.2624	548.48
72.2768	630.22
72.2913	591.16
72.3057	590.48
72.3201	597.29
72.3346	522.67
72.3490	567.64
72.3635	574.45
72.3779	573.65
72.3923	606.95
72.4068	596.02
72.4212	647.27
72.4357	659.27
72.4501	619.25
72.4645	633.42
72.4790	574.40
72.4934	504.58
72.5079	554.66
72.5223	606.22
72.5367	548.01
72.5512	615.74
72.5656	635.82
72.5801	584.96
72.5945	526.57
72.6089	585.51
72.6234	689.93
72.6378	609.80
72.6523	538.60
72.6667	616.04
72.6811	609.64
72.6956	556.38
72.7100	607.99
72.7245	554.25
72.7389	561.62
72.7533	557.29
72.7678	513.10
72.7822	532.69
72.7967	586.12
72.8111	660.50
72.8255	649.21
72.8400	630.92
72.8544	655.15
72.8689	663.37
72.8833	663.51

Result vector
22.1120	542.09
22.1264	664.21
22.1409	572.51
22.1553	563.41
22.1697	651.88
22.1842	540.22
22.1986	532.53
22.2131	548.64
22.2275	561.69
22.2419	630.26
22.2564	509.12
22.2708	477.37
22.2853	525.22
22.2997	513.83
22.3141	575.03
22.3286	536.44
22.3430	623.84
22.3575	634.02
22.3719	533.35
22.3863	557.00
22.4008	490.80
22.4152	590.45
22.4297	624.93
22.4441	597.71
22.4585	550.19
22.4730	517.89
22.4874	659.83
22.5019	634.21
22.5163	572.04
22.5307	577.32
22.5452	622.97
22.5596	645.63
22.5741	666.56
22.5885	693.40
22.6029	623.21
22.6174	561.19
22.6318	489.48
22.6463	477.48
22.6607	529.98
22.6751	449.09
22.6896	615.29
22.7040	714.61
22.7185	690.53
22.7329	603.65
22.7473	604.41
22.7618	634.88
22.7762	606.11
22.7907	679.66
22.8051	634.07
22.8195	628.10
22.8340	590.79
22.8484	562.06
22.8629	530.42
22.8773	535.07
22.8917	613.82
22.9062	546.34
22.9206	552.13
22.9351	523.30
22.9495	530.62
22.9639	521.60
22.9784	585.18
22.9928	570.99
23.0073	568.63
23.0217	626.28
23.0361	559.87
23.0506	612.04
23.0650	523.57
23.0795	541.78
23.0939	654.24
23.1083	567.38
23.1228	542.89
23.1372	561.09
23.1517	562.64
23.1661	566.85
23.1806	565.28
23.1950	525.88
23.2094	479.47
23.2239	550.36
23.2383	492.34
23.2528	516.71
23.2672	520.84
23.2816	627.42
23.2961	553.29
23.3105	557.74
23.3250	485.67
23.3394	531.18
23.3538	529.05
23.3683	580.02
23.3827	557.42
23.3972	557.64
23.4116	541.37
23.4260	616.91
23.4405	486.90
23.4549	510.73
23.4694	476.39
23.4838	535.97
23.4982	551.22
23.5127	581.03
23.5271	498.09
23.5416	517.17
23.5560	524.63
23.5704	569.01
23.5849	545.62
23.5993	485.15
23.6138	539.47
23.6282	579.56
23.6426	591.17
23.6571	549.13
23.6715	521.26
23.6860	525.32
23.7004	587.65
23.7148	623.95
23.7293	539.50
23.7437	544.00
23.7582	558.58
23.7726	591.39
23.7870	588.85
23.8015	552.54
23.8159	535.31
23.8304	517.09
23.8448	483.92
23.8592	545.75
23.8737	529.81
23.8881	545.41
23.9026	564.71
23.9170	533.41
23.9314	528.74
23.9459	548.99
23.9603	531.32
23.9748	539.10
23.9892	596.98
24.0036	482.14
24.0181	515.53
24.0325	551.98
24.0470	509.02
24.0614	544.31
24.0758	539.21
24.0903	570.57
24.1047	607.72
24.1192	559.94
24.1336	585.05
24.1480	589.10
24.1625	616.13
24.1769	555.57
24.1914	591.33
24.2058	561.66
24.2202	540.94
24.2347	609.08
24.2491	570.30
24.2636	579.37
24.2780	529.55
24.2924	595.54
24.3069	605.02
24.3213	512.71
24.3358	587.18
24.3502	585.84
24.3646	532.76
24.3791	522.85
24.3935	556.81
24.4080	571.02
24.4224	534.65
24.4368	512.61
24.4513	569.23
24.4657	575.08
24.4802	576.62
24.4946	535.75
24.5090	578.77
24.5235	499.16
24.5379	533.42
24.5524	576.86
24.5668	582.89
24.5812	584.75
24.5957	542.85
24.6101	563.59
24.6246	548.89
24.6390	544.86
24.6534	488.94
24.6679	558.56
24.6823	528.83
24.6968	541.59
24.7112	583.74
24.7256	584.27
24.7401	544.63
24.7545	498.50
24.7690	534.22
24.7834	527.51
24.7978	515.02
24.8123	538.47
24.8267	519.99
24.8412	534.17
24.8556	559.67
24.8700	558.39
24.8845	526.08
24.8989	542.03
24.9134	580.58
24.9278	522.20
24.9422	545.10
24.9567	518.65
24.9711	548.20
24.9856	546.01
25.0000	543.35
25.0144	545.17
25.0289	550.36
25.0433	572.03
25.0578	576.98
25.0722	538.13
25.0866	613.30
25.1011	565.39
25.1155	517.86
25.1300	575.78
25.1444	547.18
25.1588	521.19
25.1733	558.45
25.1877	580.04
25.2022	514.98
25.2166	555.50
25.2310	578.90
25.2455	544.72
25.2599	560.70
25.2744	540.43
25.2888	556.05
25.3032	543.43
25.3177	530.50
25.3321	604.73
25.3466	535.52
25.3610	570.40
25.3754	538.21
25.3899	508.14
25.4043	546.04
25.4188	497.71
25.4332	516.12
25.4476	513.17
25.4621	505.92
25.4765	565.94
25.4910	549.32
25.5054	549.57
25.5198	530.62
25.5343	566.47
25.5487	533.34
25.5632	529.33
25.5776	596.30
25.5920	592.05
25.6065	540.43
25.6209	503.88
25.6354	546.10
25.6498	549.24
25.6642	570.39
25.6787	528.38
25.6931	511.83
25.7076	507.33
25.7220	510.08
25.7364	593.20
25.7509	616.09
25.7653	568.44
25.7798	572.40
25.7942	553.60
25.8086	558.81
25.8231	554.79
25.8375	530.83
25.8520	530.39
25.8664	541.30
25.8808	530.82
25.8953	576.80
25.9097	537.52
25.9242	555.88
25.9386	545.45
25.9530	538.89
25.9675	514.40
25.9819	485.42
25.9964	498.78
26.0108	515.37
26.0252	531.36
26.0397	555.81
26.0541	554.98
26.0686	523.30
26.0830	538.45
26.0974	497.02
26.1119	528.54
26.1263	548.60
26.1408	530.62
26.1552	553.77
26.1696	585.63
26.1841	536.82
26.1985	537.95
26.2130	555.32
26.2274	521.48
26.2418	555.48
26.2563	512.33
26.2707	521.62
26.2852	515.10
26.2996	524.32
26.3140	554.52
26.3285	548.86
26.3429	532.59
26.3574	508.31
26.3718	512.57
26.3862	496.36
26.4007	492.00
26.4151	503.24
26.4296	513.11
26.4440	524.71
26.4584	523.53
26.4729	527.96
26.4873	524.95
26.5018	527.62
26.5162	510.33
26.5306	523.83
26.5451	562.26
26.5595	542.33
26.5740	499.29
26.5884	514.60
26.6028	549.99
26.6173	515.36
26.6317	527.17
26.6462	527.79
26.6606	533.43
26.6750	526.33
26.6895	528.78
26.7039	556.99
26.7184	539.72
26.7328	519.76
26.7472	539.99
26.7617	547.83
26.7761	527.71
26.7906	484.58
26.8050	517.03
26.8194	513.12
26.8339	513.15
26.8483	525.62
26.8628	548.58
26.8772	538.56
26.8917	528.54
26.9061	540.00
26.9205	526.96
26.9350	505.24
26.9494	508.32
26.9639	510.07
26.9783	525.17
26.9927	528.85
27.0072	518.93
27.0216	529.64
27.0361	518.06
27.0505	508.44
27.0649	510.61
27.0794	546.88
27.0938	506.74
27.1083	509.33
27.1227	490.55
27.1371	484.92
27.1516	496.29
27.1660	517.41
27.1805	525.58
27.1949	537.34
27.2093	554.77
27.2238	532.05
27.2382	521.80
27.2527	521.34
27.2671	513.13
27.2815	521.18
27.2960	536.14
27.3104	530.61
27.3249	532.58
27.3393	507.98
27.3537	524.86
27.3682	535.81
27.3826	530.52
27.3971	535.58
27.4115	516.01
27.4259	523.11
27.4404	541.14
27.4548	530.67
27.4693	499.67
27.4837	505.22
27.4981	485.09
27.5126	502.02
27.5270	502.24
27.5415	513.00
27.5559	531.72
27.5703	510.72
27.5848	514.28
27.5992	533.84
27.6137	533.86
27.6281	511.60
27.6425	512.45
27.6570	511.26
27.6714	521.19
27.6859	526.81
27.7003	526.54
27.7147	533.67
27.7292	492.34
27.7436	498.92
27.7581	490.96
27.7725	546.01
27.7869	523.23
27.8014	515.78
27.8158	558.21
27.8303	553.76
27.8447	532.68
27.8591	541.29
27.8736	555.14
27.8880	535.30
27.9025	552.68
27.9169	477.74
27.9313	503.12
27.9458	473.86
27.9602	524.31
27.9747	545.72
27.9891	500.79
28.0035	512.44
28.0180	499.13
28.0324	536.69
28.0469	516.32
28.0613	503.29
28.0757	523.56
28.0902	553.67
28.1046	484.71
28.1191	535.55
28.1335	507.86
28.1479	510.70
28.1624	518.21
28.1768	543.74
28.1913	520.36
28.2057	483.73
28.2201	483.30
28.2346	528.01
28.2490	521.62
28.2635	484.27
28.2779	509.00
28.2923	491.26
28.3068	515.83
28.3212	535.01
28.3357	534.91
28.3501	552.73
28.3645	524.99
28.3790	504.48
28.3934	520.36
28.4079	495.72
28.4223	531.37
28.4367	546.04
28.4512	524.06
28.4656	527.90
28.4801	506.28
28.4945	537.72
28.5089	507.13
28.5234	510.14
28.5378	515.71
28.5523	517.11
28.5667	527.70
28.5811	529.38
28.5956	509.89
28.6100	501.39
28.6245	523.21
28.6389	516.90
28.6533	506.06
28.6678	486.20
28.6822	503.05
28.6967	524.03
28.7111	544.80
28.7255	531.00
28.7400	513.23
28.7544	520.91
28.7689	516.18
28.7833	527.62
28.7977	512.26
28.8122	518.12
28.8266	496.85
28.8411	504.59
28.8555	547.15
28.8699	524.44
28.8844	519.90
28.8988	499.83
28.9133	465.27
28.9277	469.61
28.9421	520.54
28.9566	463.34
28.9710	515.04
28.9855	551.84
28.9999	502.06
29.0143	468.12
29.0288	483.09
29.0432	527.78
29.0577	490.65
29.0721	529.07
29.0865	510.36
29.1010	528.73
29.1154	494.43
29.1299	562.61
29.1443	539.33
29.1587	507.97
29.1732	505.07
29.1876	514.20
29.2021	491.10
29.2165	507.43
29.2309	514.05
29.2454	513.32
29.2598	509.64
29.2743	559.94
29.2887	476.90
29.3031	486.76
29.3176	483.64
29.3320	497.21
29.3465	474.29
29.3609	517.60
29.3753	475.70
29.3898	516.86
29.4042	504.93
29.4187	518.86
29.4331	546.22
29.4475	505.04
29.4620	485.91
29.4764	524.47
29.4909	544.04
29.5053	509.00
29.5197	497.24
29.5342	519.50
29.5486	487.15
29.5631	474.00
29.5775	485.09
29.5919	527.52
29.6064	514.67
29.6208	520.99
29.6353	512.73
29.6497	501.31
29.6641	500.44
29.6786	493.60
29.6930	501.42
29.7075	509.00
29.7219	526.69
29.7363	499.22
29.7508	509.41
29.7652	513.36
29.7797	538.27
29.7941	516.74
29.8085	499.24
29.8230	517.86
29.8374	502.46
29.8519	520.26
29.8663	495.52
29.8807	484.38
29.8952	538.84
29.9096	523.01
29.9241	496.49
29.9385	480.15
29.9529	502.86
29.9674	507.78
29.9818	503.64
29.9963	502.73
30.0107	500.43
30.0251	529.90
30.0396	492.12
30.0540	479.53
30.0685	505.75
30.0829	496.46
30.0973	518.39
30.1118	517.34
30.1262	513.53
30.1407	511.90
30.1551	511.01
30.1695	507.56
30.1840	489.06
30.1984	498.12
30.2129	513.45
30.2273	522.50
30.2417	515.19
30.2562	520.60
30.2706	520.04
30.2851	511.90
30.2995	531.09
30.3139	508.43
30.3284	521.38
30.3428	510.93
30.3573	477.03
30.3717	474.76
30.3861	502.23
30.4006	502.55
30.4150	504.07
30.4295	546.62
30.4439	529.56
30.4583	527.39
30.4728	572.85
30.4872	565.89
30.5017	545.21
30.5161	536.23
30.5305	544.15
30.5450	519.65
30.5594	515.35
30.5739	519.94
30.5883	501.96
30.6028	516.07
30.6172	531.91
30.6316	536.99
30.6461	538.35
30.6605	544.43
30.6750	546.45
30.6894	548.72
30.7038	533.01
30.7183	550.06
30.7327	562.00
30.7472	593.51
30.7616	620.67
30.7760	648.69
30.7905	670.77
30.8049	711.24
30.8194	716.29
30.8338	690.19
30.8482	735.96
30.8627	726.08
30.8771	680.61
30.8916	679.46
30.9060	682.44
30.9204	647.09
30.9349	620.95
30.9493	595.80
30.9638	594.91
30.9782	585.22
30.9926	589.46
31.0071	539.26
31.0215	508.90
31.0360	492.35
31.0504	528.40
31.0648	530.32
31.0793	521.70
31.0937	537.66
31.1082	525.55
31.1226	529.73
31.1370	521.37
31.1515	516.87
31.1659	525.73
31.1804	528.81
31.1948	542.94
31.2092	567.08
31.2237	494.98
31.2381	513.84
31.2526	527.68
31.2670	514.62
31.2814	541.64
31.2959	537.07
31.3103	548.35
31.3248	544.91
31.3392	534.68
31.3536	506.31
31.3681	507.09
31.3825	516.38
31.3970	519.15
31.4114	537.51
31.4258	566.00
31.4403	524.95
31.4547	526.84
31.4692	492.45
31.4836	515.27
31.4980	507.70
31.5125	497.11
31.5269	491.13
31.5414	496.02
31.5558	492.26
31.5702	513.44
31.5847	484.13
31.5991	510.09
31.6136	486.96
31.6280	509.98
31.6424	521.30
31.6569	513.63
31.6713	508.66
31.6858	476.19
31.7002	492.23
31.7146	532.28
31.7291	517.27
31.7435	484.99
31.7580	478.97
31.7724	493.58
31.7868	544.15
31.8013	493.97
31.8157	537.75
31.8302	525.26
31.8446	505.68
31.8590	503.08
31.8735	518.37
31.8879	525.79
31.9024	533.37
31.9168	537.90
31.9312	533.87
31.9457	514.12
31.9601	484.02
31.9746	503.65
31.9890	488.78
32.0034	511.96
32.0179	521.25
32.0323	511.88
32.0468	525.65
32.0612	521.84
32.0756	495.11
32.0901	518.21
32.1045	512.12
32.1190	519.95
32.1334	499.92
32.1478	499.40
32.1623	518.55
32.1767	503.92
32.1912	468.29
32.2056	502.36
32.2200	481.98
32.2345	483.52
32.2489	505.15
32.2634	515.98
32.2778	496.96
32.2922	515.50
32.3067	488.63
32.3211	485.92
32.3356	508.74
32.3500	515.14
32.3644	533.81
32.3789	537.17
32.3933	521.90
32.4078	512.64
32.4222	530.25
32.4366	543.68
32.4511	497.81
32.4655	503.08
32.4800	502.39
32.4944	512.94
32.5088	494.20
32.5233	514.92
32.5377	528.16
32.5522	493.10
32.5666	501.56
32.5810	500.77
32.5955	478.80
32.6099	541.77
32.6244	515.85
32.6388	496.22
32.6532	508.03
32.6677	492.59
32.6821	482.10
32.6966	488.62
32.7110	506.12
32.7254	516.03
32.7399	525.68
32.7543	509.77
32.7688	491.14
32.7832	529.19
32.7976	523.53
32.8121	503.48
32.8265	487.28
32.8410	533.27
32.8554	522.56
32.8698	518.14
32.8843	470.70
32.8987	506.62
32.9132	492.06
32.9276	480.51
32.9420	510.14
32.9565	476.34
32.9709	517.57
32.9854	519.48
32.9998	461.49
33.0142	483.94
33.0287	508.78
33.0431	472.54
33.0576	512.07
33.0720	504.15
33.0864	532.71
33.1009	521.78
33.1153	523.79
33.1298	546.83
33.1442	521.63
33.1586	510.25
33.1731	510.23
33.1875	518.28
33.2020	496.26
33.2164	526.44
33.2308	541.92
33.2453	508.94
33.2597	509.57
33.2742	530.14
33.2886	494.74
33.3030	537.53
33.3175	524.37
33.3319	493.07
33.3464	495.48
33.3608	491.47
33.3752	479.93
33.3897	506.04
33.4041	502.83
33.4186	515.78
33.4330	507.09
33.4474	502.30
33.4619	519.01
33.4763	516.33
33.4908	520.66
33.5052	501.28
33.5196	493.99
33.5341	485.78
33.5485	494.61
33.5630	485.13
33.5774	478.94
33.5918	479.95
33.6063	519.83
33.6207	507.41
33.6352	479.44
33.6496	538.84
33.6640	509.70
33.6785	483.90
33.6929	489.58
33.7074	516.36
33.7218	502.73
33.7362	512.82
33.7507	548.98
33.7651	509.78
33.7796	489.56
33.7940	517.75
33.8084	520.16
33.8229	523.38
33.8373	507.86
33.8518	528.98
33.8662	500.35
33.8806	510.90
33.8951	504.09
33.9095	517.60
33.9240	542.62
33.9384	533.21
33.9528	496.80
33.9673	443.85
33.9817	491.30
33.9962	524.80
34.0106	488.53
34.0250	525.91
34.0395	513.39
34.0539	491.59
34.0684	516.31
34.0828	548.09
34.0972	512.50
34.1117	515.71
34.1261	517.60
34.1406	530.78
34.1550	510.35
34.1694	509.47
34.1839	504.58
34.1983	519.92
34.2128	507.82
34.2272	481.28
34.2417	476.72
34.2561	507.95
34.2705	538.73
34.2850	502.48
34.2994	527.45
34.3139	497.78
34.3283	499.41
34.3427	491.46
34.3572	513.96
34.3716	508.25
34.3861	491.76
34.4005	487.54
34.4149	482.80
34.4294	565.39
34.4438	522.95
34.4583	499.79
34.4727	537.57
34.4871	525.43
34.5016	486.04
34.5160	508.40
34.5305	518.85
34.5449	524.67
34.5593	468.00
34.5738	482.33
34.5882	515.83
34.6027	514.85
34.6171	517.41
34.6315	496.66
34.6460	504.06
34.6604	500.82
34.6749	483.14
34.6893	514.44
34.7037	493.30
34.7182	495.29
34.7326	522.41
34.7471	539.39
34.7615	527.78
34.7759	523.35
34.7904	531.51
34.8048	521.67
34.8193	491.71
34.8337	520.40
34.8481	542.08
34.8626	537.52
34.8770	511.58
34.8915	496.47
34.9059	521.21
34.9203	508.19
34.9348	517.48
34.9492	493.77
34.9637	469.44
34.9781	495.21
34.9925	514.39
35.0070	524.25
35.0214	532.40
35.0359	494.68
35.0503	505.71
35.0647	503.26
35.0792	484.77
35.0936	509.98
35.1081	523.67
35.1225	526.27
35.1369	526.20
35.1514	484.06
35.1658	495.70
35.1803	498.86
35.1947	484.31
35.2091	484.36
35.2236	522.84
35.2380	519.32
35.2525	509.69
35.2669	511.29
35.2813	519.82
35.2958	503.74
35.3102	525.16
35.3247	490.41
35.3391	498.99
35.3535	527.83
35.3680	493.80
35.3824	522.32
35.3969	504.29
35.4113	522.52
35.4257	548.30
35.4402	512.03
35.4546	524.86
35.4691	533.95
35.4835	516.49
35.4979	516.52
35.5124	549.84
35.5268	539.66
35.5413	517.71
35.5557	538.38
35.5701	525.09
35.5846	524.49
35.5990	497.19
35.6135	517.05
35.6279	510.92
35.6423	542.05
35.6568	578.32
35.6712	544.98
35.6857	547.37
35.7001	614.55
35.7145	686.44
35.7290	644.17
35.7434	588.89
35.7579	566.21
35.7723	568.19
35.7867	604.10
35.8012	623.21
35.8156	647.15
35.8301	640.05
35.8445	592.51
35.8589	605.06
35.8734	712.47
35.8878	863.69
35.9023	1001.76
35.9167	1117.68
35.9311	1430.40
35.9456	2171.63
35.9600	2311.23
35.9745	1853.36
35.9889	1847.13
36.0033	2258.55
36.0178	2274.14
36.0322	1923.14
36.0467	1728.27
36.0611	1609.83
36.0755	1627.82
36.0900	1547.49
36.1044	1367.94
36.1189	1406.95
36.1333	1233.48
36.1477	1060.48
36.1622	1076.85
36.1766	1056.51
36.1911	904.79
36.2055	880.96
36.2199	876.53
36.2344	904.63
36.2488	898.69
36.2633	936.74
36.2777	971.70
36.2921	1014.98
36.3066	1043.84
36.3210	1053.35
36.3355	1053.12
36.3499	982.72
36.3643	957.59
36.3788	931.65
36.3932	924.41
36.4077	891.84
36.4221	829.03
36.4365	820.81
36.4510	786.20
36.4654	738.28
36.4799	668.75
36.4943	651.56
36.5087	647.66
36.5232	603.93
36.5376	565.55
36.5521	599.46
36.5665	586.72
36.5809	544.61
36.5954	566.67
36.6098	592.67
36.6243	525.70
36.6387	562.24
36.6531	562.46
36.6676	520.45
36.6820	534.88
36.6965	567.78
36.7109	579.93
36.7253	532.46
36.7398	550.24
36.7542	562.79
36.7687	535.12
36.7831	539.98
36.7975	546.75
36.8120	594.72
36.8264	614.48
36.8409	606.77
36.8553	579.30
36.8697	616.49
36.8842	574.15
36.8986	604.20
36.9131	575.64
36.9275	590.18
36.9419	575.94
36.9564	545.92
36.9708	566.14
36.9853	577.59
36.9997	568.80
37.0141	562.41
37.0286	496.62
37.0430	513.70
37.0575	555.87
37.0719	512.00
37.0863	548.09
37.1008	538.69
37.1152	524.00
37.1297	514.75
37.1441	486.77
37.1585	486.31
37.1730	488.55
37.1874	487.65
37.2019	497.01
37.2163	539.20
37.2307	532.27
37.2452	526.58
37.2596	503.21
37.2741	504.75
37.2885	481.23
37.3029	502.81
37.3174	518.22
37.3318	518.27
37.3463	519.42
37.3607	504.76
37.3751	514.96
37.3896	550.14
37.4040	498.19
37.4185	514.58
37.4329	505.96
37.4473	482.15
37.4618	501.60
37.4762	507.79
37.4907	512.96
37.5051	507.63
37.5195	491.12
37.5340	498.03
37.5484	498.56
37.5629	511.35
37.5773	502.68
37.5917	481.38
37.6062	521.82
37.6206	489.37
37.6351	471.46
37.6495	466.18
37.6639	488.21
37.6784	530.55
37.6928	517.61
37.7073	512.39
37.7217	502.50
37.7361	489.44
37.7506	532.20
37.7650	518.67
37.7795	486.49
37.7939	492.34
37.8083	486.30
37.8228	529.42
37.8372	501.03
37.8517	517.02
37.8661	518.38
37.8805	500.75
37.8950	506.67
37.9094	507.99
37.9239	492.36
37.9383	525.29
37.9528	517.10
37.9672	514.44
37.9816	479.99
37.9961	514.94
38.0105	505.55
38.0250	525.50
38.0394	487.28
38.0538	513.13
38.0683	525.57
38.0827	486.17
38.0972	532.08
38.1116	470.18
38.1260	497.95
38.1405	481.14
38.1549	462.53
38.1694	512.87
38.1838	502.87
38.1982	495.10
38.2127	499.13
38.2271	495.28
38.2416	512.86
38.2560	522.65
38.2704	523.37
38.2849	537.66
38.2993	522.93
38.3138	504.88
38.3282	534.79
38.3426	536.19
38.3571	502.49
38.3715	491.56
38.3860	519.60
38.4004	553.92
38.4148	555.82
38.4293	599.57
38.4437	603.99
38.4582	629.44
38.4726	661.88
38.4870	725.25
38.5015	717.16
38.5159	722.41
38.5304	818.81
38.5448	833.67
38.5592	767.92
38.5737	744.85
38.5881	728.48
38.6026	692.92
38.6170	665.08
38.6314	686.90
38.6459	698.01
38.6603	667.95
38.6748	592.87
38.6892	566.41
38.7036	571.23
38.7181	529.87
38.7325	505.13
38.7470	524.33
38.7614	503.37
38.7758	498.77
38.7903	522.89
38.8047	501.97
38.8192	484.22
38.8336	483.90
38.8480	467.83
38.8625	532.82
38.8769	506.65
38.8914	509.34
38.9058	513.93
38.9202	495.90
38.9347	511.43
38.9491	526.60
38.9636	527.02
38.9780	517.46
38.9924	509.83
39.0069	502.33
39.0213	516.33
39.0358	509.96
39.0502	544.38
39.0646	516.02
39.0791	501.34
39.0935	535.94
39.1080	518.97
39.1224	507.28
39.1368	453.23
39.1513	464.20
39.1657	518.67
39.1802	540.25
39.1946	512.68
39.2090	463.33
39.2235	503.38
39.2379	491.07
39.2524	494.00
39.2668	497.44
39.2812	510.43
39.2957	512.67
39.3101	486.56
39.3246	506.61
39.3390	530.72
39.3534	501.67
39.3679	509.19
39.3823	531.08
39.3968	500.37
39.4112	521.23
39.4256	560.98
39.4401	505.64
39.4545	501.14
39.4690	521.48
39.4834	485.28
39.4978	480.40
39.5123	524.34
39.5267	503.05
39.5412	468.52
39.5556	489.85
39.5700	482.70
39.5845	507.91
39.5989	491.93
39.6134	508.19
39.6278	520.23
39.6422	498.64
39.6567	477.11
39.6711	503.64
39.6856	500.57
39.7000	528.83
39.7144	526.01
39.7289	504.72
39.7433	482.20
39.7578	489.45
39.7722	502.35
39.7866	517.24
39.8011	484.36
39.8155	482.28
39.8300	541.00
39.8444	525.93
39.8588	531.65
39.8733	526.04
39.8877	525.94
39.9022	483.23
39.9166	513.13
39.9310	524.45
39.9455	542.60
39.9599	509.59
39.9744	533.98
39.9888	522.93
40.0032	533.86
40.0177	484.97
40.0321	497.33
40.0466	485.69
40.0610	512.04
40.0754	461.78
40.0899	509.91
40.1043	460.18
40.1188	487.48
40.1332	484.13
40.1476	473.48
40.1621	480.68
40.1765	451.23
40.1910	498.47
40.2054	521.67
40.2198	520.79
40.2343	486.10
40.2487	500.85
40.2632	477.13
40.2776	502.61
40.2920	468.53
40.3065	455.09
40.3209	507.81
40.3354	505.96
40.3498	481.93
40.3642	493.28
40.3787	507.46
40.3931	493.42
40.4076	511.35
40.4220	518.89
40.4364	500.21
40.4509	485.70
40.4653	494.10
40.4798	507.08
40.4942	464.68
40.5086	482.56
40.5231	467.65
40.5375	502.96
40.5520	526.00
40.5664	483.21
40.5808	503.01
40.5953	514.35
40.6097	512.37
40.6242	501.70
40.6386	509.34
40.6530	502.53
40.6675	489.19
40.6819	493.70
40.6964	506.57
40.7108	513.78
40.7252	518.43
40.7397	478.45
40.7541	495.56
40.7686	503.22
40.7830	474.97
40.7974	508.49
40.8119	479.53
40.8263	494.26
40.8408	482.11
40.8552	455.18
40.8696	485.72
40.8841	530.42
40.8985	515.64
40.9130	472.19
40.9274	470.03
40.9418	493.62
40.9563	495.05
40.9707	518.45
40.9852	526.69
40.9996	546.02
41.0140	500.64
41.0285	518.46
41.0429	491.63
41.0574	504.12
41.0718	499.16
41.0862	519.72
41.1007	490.39
41.1151	505.78
41.1296	503.97
41.1440	477.00
41.1584	486.63
41.1729	522.86
41.1873	527.26
41.2018	511.92
41.2162	508.99
41.2306	511.52
41.2451	464.06
41.2595	490.34
41.2740	503.94
41.2884	491.96
41.3028	483.90
41.3173	501.68
41.3317	523.85
41.3462	502.35
41.3606	506.59
41.3750	493.73
41.3895	498.21
41.4039	449.57
41.4184	480.00
41.4328	492.66
41.4472	477.79
41.4617	504.75
41.4761	528.09
41.4906	521.69
41.5050	515.31
41.5194	508.85
41.5339	520.92
41.5483	494.26
41.5628	462.60
41.5772	483.10
41.5916	480.19
41.6061	496.57
41.6205	502.52
41.6350	515.47
41.6494	488.55
41.6639	484.91
41.6783	517.56
41.6927	523.24
41.7072	517.52
41.7216	518.85
41.7361	522.37
41.7505	517.79
41.7649	537.11
41.7794	526.78
41.7938	523.48
41.8083	502.60
41.8227	501.01
41.8371	484.25
41.8516	495.89
41.8660	563.75
41.8805	525.31
41.8949	524.46
41.9093	565.23
41.9238	558.40
41.9382	576.79
41.9527	539.48
41.9671	541.85
41.9815	564.11
41.9960	607.65
42.0104	571.69
42.0249	592.48
42.0393	540.67
42.0537	561.50
42.0682	566.53
42.0826	543.75
42.0971	538.18
42.1115	572.55
42.1259	603.27
42.1404	590.78
42.1548	593.18
42.1693	635.36
42.1837	712.55
42.1981	737.75
42.2126	807.26
42.2270	885.69
42.2415	991.71
42.2559	1130.09
42.2703	1274.15
42.2848	1473.58
42.2992	1541.52
42.3137	1553.64
42.3281	1518.04
42.3425	1490.71
42.3570	1460.70
42.3714	1390.53
42.3859	1329.64
42.4003	1268.17
42.4147	1252.09
42.4292	1275.90
42.4436	1131.66
42.4581	1039.65
42.4725	980.39
42.4869	850.07
42.5014	806.46
42.5158	706.65
42.5303	631.56
42.5447	625.61
42.5591	618.87
42.5736	594.17
42.5880	580.00
42.6025	559.02
42.6169	566.97
42.6313	544.21
42.6458	547.16
42.6602	525.44
42.6747	532.66
42.6891	536.72
42.7035	559.86
42.7180	502.16
42.7324	505.95
42.7469	524.84
42.7613	512.55
42.7757	503.49
42.7902	500.38
42.8046	522.17
42.8191	547.21
42.8335	510.95
42.8479	533.09
42.8624	540.10
42.8768	533.53
42.8913	513.89
42.9057	502.32
42.9201	525.98
42.9346	551.02
42.9490	546.17
42.9635	523.13
42.9779	507.74
42.9923	505.98
43.0068	491.41
43.0212	508.07
43.0357	521.66
43.0501	499.62
43.0645	506.73
43.0790	511.17
43.0934	512.91
43.1079	519.49
43.1223	537.44
43.1367	507.11
43.1512	484.78
43.1656	509.07
43.1801	506.65
43.1945	492.17
43.2089	520.41
43.2234	528.90
43.2378	532.09
43.2523	525.48
43.2667	531.57
43.2811	520.67
43.2956	525.12
43.3100	543.60
43.3245	550.33
43.3389	546.13
43.3533	526.86
43.3678	534.89
43.3822	515.31
43.3967	491.46
43.4111	496.86
43.4255	542.05
43.4400	534.03
43.4544	510.34
43.4689	514.85
43.4833	492.77
43.4977	489.39
43.5122	508.19
43.5266	520.82
43.5411	530.90
43.5555	500.45
43.5699	524.93
43.5844	489.92
43.5988	509.95
43.6133	532.75
43.6277	516.68
43.6421	518.64
43.6566	521.58
43.6710	506.57
43.6855	518.82
43.6999	523.11
43.7143	516.33
43.7288	517.64
43.7432	509.69
43.7577	515.39
43.7721	526.03
43.7865	524.85
43.8010	478.20
43.8154	517.26
43.8299	521.86
43.8443	531.57
43.8587	526.71
43.8732	536.63
43.8876	494.01
43.9021	548.59
43.9165	559.19
43.9309	544.36
43.9454	537.94
43.9598	514.92
43.9743	536.97
43.9887	502.83
44.0031	518.37
44.0176	579.70
44.0320	581.82
44.0465	532.72
44.0609	562.11
44.0753	581.01
44.0898	623.78
44.1042	631.06
44.1187	632.13
44.1331	592.92
44.1475	589.42
44.1620	621.77
44.1764	651.82
44.1909	639.58
44.2053	623.51
44.2197	587.07
44.2342	613.88
44.2486	621.36
44.2631	601.37
44.2775	539.96
44.2919	559.22
44.3064	582.95
44.3208	557.38
44.3353	536.15
44.3497	559.76
44.3641	534.40
44.3786	522.18
44.3930	519.52
44.4075	586.34
44.4219	569.57
44.4363	576.22
44.4508	553.24
44.4652	598.69
44.4797	611.18
44.4941	579.88
44.5085	611.15
44.5230	584.06
44.5374	577.37
44.5519	563.73
44.5663	597.86
44.5807	543.30
44.5952	565.75
44.6096	546.38
44.6241	550.94
44.6385	579.63
44.6529	591.36
44.6674	592.58
44.6818	627.75
44.6963	628.02
44.7107	640.05
44.7251	696.36
44.7396	789.55
44.7540	833.04
44.7685	817.48
44.7829	873.64
44.7973	903.30
44.8118	914.24
44.8262	821.49
44.8407	770.39
44.8551	750.09
44.8695	719.20
44.8840	697.74
44.8984	701.17
44.9129	704.06
44.9273	690.32
44.9417	665.41
44.9562	626.23
44.9706	561.16
44.9851	558.59
44.9995	557.64
45.0139	534.06
45.0284	549.13
45.0428	561.30
45.0573	565.35
45.0717	533.81
45.0861	535.12
45.1006	551.84
45.1150	527.50
45.1295	533.58
45.1439	494.97
45.1583	494.39
45.1728	501.67
45.1872	493.91
45.2017	477.30
45.2161	522.36
45.2305	524.81
45.2450	509.08
45.2594	514.49
45.2739	517.13
45.2883	512.75
45.3028	473.29
45.3172	510.39
45.3316	551.10
45.3461	503.71
45.3605	500.18
45.3750	506.59
45.3894	499.26
45.4038	511.00
45.4183	550.01
45.4327	496.89
45.4472	485.03
45.4616	517.41
45.4760	530.12
45.4905	517.34
45.5049	505.45
45.5194	482.83
45.5338	522.44
45.5482	482.32
45.5627	513.74
45.5771	525.91
45.5916	510.26
45.6060	524.56
45.6204	521.82
45.6349	513.07
45.6493	487.80
45.6638	510.65
45.6782	516.87
45.6926	519.54
45.7071	533.13
45.7215	524.50
45.7360	516.79
45.7504	520.49
45.7648	496.51
45.7793	498.25
45.7937	489.80
45.8082	498.33
45.8226	526.34
45.8370	530.53
45.8515	503.27
45.8659	477.32
45.8804	489.22
45.8948	504.41
45.9092	520.48
45.9237	484.31
45.9381	482.73
45.9526	499.06
45.9670	497.11
45.9814	489.73
45.9959	462.79
46.0103	468.72
46.0248	526.39
46.0392	557.35
46.0536	496.74
46.0681	506.63
46.0825	493.18
46.0970	534.23
46.1114	495.63
46.1258	470.99
46.1403	505.68
46.1547	483.89
46.1692	508.28
46.1836	510.52
46.1980	482.58
46.2125	510.21
46.2269	514.01
46.2414	510.81
46.2558	497.83
46.2702	498.36
46.2847	493.98
46.2991	472.09
46.3136	503.65
46.3280	519.06
46.3424	529.52
46.3569	517.44
46.3713	522.84
46.3858	496.68
46.4002	507.95
46.4146	496.56
46.4291	513.32
46.4435	516.33
46.4580	484.89
46.4724	487.62
46.4868	519.88
46.5013	518.99
46.5157	544.81
46.5302	535.25
46.5446	495.28
46.5590	508.75
46.5735	519.11
46.5879	504.39
46.6024	513.14
46.6168	487.82
46.6312	497.03
46.6457	485.60
46.6601	482.42
46.6746	471.55
46.6890	494.26
46.7034	532.58
46.7179	507.35
46.7323	494.07
46.7468	491.07
46.7612	496.74
46.7756	500.40
46.7901	490.85
46.8045	487.82
46.8190	523.94
46.8334	530.06
46.8478	507.67
46.8623	523.30
46.8767	493.66
46.8912	481.74
46.9056	521.40
46.9200	533.65
46.9345	502.95
46.9489	491.67
46.9634	530.37
46.9778	524.89
46.9922	509.29
47.0067	506.98
47.0211	516.41
47.0356	545.62
47.0500	537.65
47.0644	517.25
47.0789	499.36
47.0933	518.12
47.1078	524.97
47.1222	509.89
47.1366	490.25
47.1511	482.97
47.1655	550.69
47.1800	511.98
47.1944	504.42
47.2088	515.31
47.2233	509.17
47.2377	480.82
47.2522	538.20
47.2666	516.31
47.2810	496.71
47.2955	511.40
47.3099	509.41
47.3244	489.35
47.3388	531.30
47.3532	514.12
47.3677	505.15
47.3821	484.60
47.3966	460.22
47.4110	511.04
47.4254	519.01
47.4399	501.62
47.4543	501.96
47.4688	482.18
47.4832	452.76
47.4976	476.13
47.5121	508.98
47.5265	501.47
47.5410	497.59
47.5554	513.77
47.5698	518.18
47.5843	520.17
47.5987	517.56
47.6132	499.21
47.6276	501.63
47.6420	514.66
47.6565	539.89
47.6709	512.22
47.6854	498.10
47.6998	484.97
47.7142	506.62
47.7287	494.42
47.7431	479.45
47.7576	490.97
47.7720	490.55
47.7864	481.21
47.8009	513.14
47.8153	508.02
47.8298	510.05
47.8442	516.89
47.8586	497.08
47.8731	499.78
47.8875	517.39
47.9020	503.75
47.9164	517.58
47.9308	486.53
47.9453	494.35
47.9597	522.50
47.9742	526.65
47.9886	551.12
48.0030	526.72
48.0175	504.81
48.0319	485.24
48.0464	500.17
48.0608	500.94
48.0752	440.56
48.0897	491.00
48.1041	485.32
48.1186	514.66
48.1330	515.15
48.1474	467.35
48.1619	492.31
48.1763	525.23
48.1908	522.11
48.2052	499.75
48.2196	506.75
48.2341	525.21
48.2485	498.90
48.2630	502.86
48.2774	543.96
48.2918	526.33
48.3063	502.11
48.3207	508.55
48.3352	514.43
48.3496	499.73
48.3640	504.35
48.3785	515.81
48.3929	519.30
48.4074	490.65
48.4218	512.57
48.4362	549.50
48.4507	544.40
48.4651	537.42
48.4796	496.63
48.4940	500.88
48.5084	516.56
48.5229	551.52
48.5373	520.23
48.5518	507.53
48.5662	533.86
48.5806	530.69
48.5951	518.29
48.6095	511.10
48.6240	519.40
48.6384	559.17
48.6528	530.95
48.6673	510.30
48.6817	496.42
48.6962	506.43
48.7106	525.60
48.7250	512.12
48.7395	502.04
48.7539	493.00
48.7684	528.33
48.7828	550.78
48.7972	525.13
48.8117	518.93
48.8261	540.01
48.8406	567.97
48.8550	537.50
48.8694	537.76
48.8839	562.65
48.8983	540.45
48.9128	542.45
48.9272	526.12
48.9416	595.79
48.9561	557.11
48.9705	558.18
48.9850	521.92
48.9994	553.43
49.0139	598.02
49.0283	576.42
49.0427	595.40
49.0572	573.00
49.0716	626.88
49.0861	704.67
49.1005	648.47
49.1149	714.82
49.1294	759.84
49.1438	745.48
49.1583	784.54
49.1727	834.26
49.1871	902.28
49.2016	950.65
49.2160	1040.69
49.2305	1076.88
49.2449	1124.52
49.2593	1194.41
49.2738	1308.09
49.2882	1439.55
49.3027	1514.39
49.3171	1600.76
49.3315	1681.30
49.3460	1733.24
49.3604	1698.64
49.3749	1752.61
49.3893	1740.68
49.4037	1650.71
49.4182	1738.30
49.4326	1728.51
49.4471	1598.23
49.4615	1593.12
49.4759	1542.39
49.4904	1526.29
49.5048	1393.63
49.5193	1313.17
49.5337	1260.63
49.5481	1148.62
49.5626	1122.72
49.5770	1033.16
49.5915	947.94
49.6059	914.31
49.6203	857.34
49.6348	807.48
49.6492	784.94
49.6637	770.79
49.6781	706.92
49.6925	682.79
49.7070	692.25
49.7214	650.69
49.7359	627.38
49.7503	609.87
49.7647	624.47
49.7792	574.49
49.7936	567.49
49.8081	567.73
49.8225	549.16
49.8369	567.28
49.8514	569.98
49.8658	553.80
49.8803	570.65
49.8947	607.00
49.9091	563.13
49.9236	571.11
49.9380	548.80
49.9525	570.14
49.9669	509.13
49.9813	538.95
49.9958	557.86
50.0102	507.34
50.0247	536.22
50.0391	542.94
50.0535	529.35
50.0680	534.27
50.0824	554.20
50.0969	548.20
50.1113	526.42
50.1257	542.80
50.1402	480.13
50.1546	508.93
50.1691	505.93
50.1835	516.42
50.1979	499.01
50.2124	508.31
50.2268	515.14
50.2413	485.29
50.2557	500.64
50.2701	501.11
50.2846	476.35
50.2990	517.14
50.3135	512.65
50.3279	504.55
50.3423	539.93
50.3568	522.91
50.3712	496.76
50.3857	499.61
50.4001	505.28
50.4145	495.47
50.4290	533.91
50.4434	522.54
50.4579	549.64
50.4723	548.18
50.4867	518.15
50.5012	514.16
50.5156	514.67
50.5301	527.07
50.5445	519.61
50.5589	536.00
50.5734	520.87
50.5878	490.74
50.6023	514.45
50.6167	482.02
50.6311	514.66
50.6456	566.12
50.6600	525.99
50.6745	493.80
50.6889	515.25
50.7033	524.99
50.7178	524.84
50.7322	480.96
50.7467	529.77
50.7611	512.75
50.7755	523.72
50.7900	546.34
50.8044	536.91
50.8189	532.63
50.8333	528.44
50.8477	531.93
50.8622	524.90
50.8766	521.58
50.8911	532.33
50.9055	524.42
50.9199	496.12
50.9344	514.16
50.9488	524.41
50.9633	514.15
50.9777	540.47
50.9921	519.50
51.0066	513.46
51.0210	516.40
51.0355	535.90
51.0499	512.08
51.0643	515.02
51.0788	527.07
51.0932	520.27
51.1077	517.07
51.1221	510.87
51.1365	520.33
51.1510	496.92
51.1654	527.85
51.1799	504.48
51.1943	491.92
51.2087	520.37
51.2232	513.05
51.2376	535.82
51.2521	528.62
51.2665	527.48
51.2809	504.06
51.2954	510.98
51.3098	517.89
51.3243	506.78
51.3387	531.69
51.3531	515.53
51.3676	492.51
51.3820	519.51
51.3965	508.15
51.4109	520.31
51.4253	548.01
51.4398	520.93
51.4542	514.92
51.4687	495.31
51.4831	503.16
51.4975	505.31
51.5120	531.52
51.5264	531.35
51.5409	508.95
51.5553	489.17
51.5697	496.01
51.5842	517.52
51.5986	509.48
51.6131	516.83
51.6275	487.23
51.6419	523.88
51.6564	536.75
51.6708	505.35
51.6853	469.88
51.6997	522.88
51.7141	535.31
51.7286	490.83
51.7430	485.08
51.7575	487.11
51.7719	472.56
51.7863	527.78
51.8008	500.59
51.8152	532.71
51.8297	530.45
51.8441	492.65
51.8585	512.68
51.8730	500.53
51.8874	505.36
51.9019	533.00
51.9163	530.15
51.9307	494.02
51.9452	526.38
51.9596	509.00
51.9741	511.18
51.9885	483.52
52.0029	565.41
52.0174	506.69
52.0318	529.93
52.0463	518.25
52.0607	517.28
52.0751	510.07
52.0896	549.96
52.1040	520.25
52.1185	540.29
52.1329	509.72
52.1473	477.70
52.1618	495.06
52.1762	523.78
52.1907	513.06
52.2051	477.47
52.2195	502.05
52.2340	505.95
52.2484	539.29
52.2629	469.76
52.2773	493.58
52.2917	490.33
52.3062	515.95
52.3206	527.66
52.3351	525.90
52.3495	484.37
52.3639	527.38
52.3784	518.44
52.3928	497.37
52.4073	518.28
52.4217	530.51
52.4361	547.84
52.4506	514.46
52.4650	515.44
52.4795	513.49
52.4939	526.63
52.5083	502.49
52.5228	487.41
52.5372	500.34
52.5517	531.62
52.5661	547.22
52.5805	519.21
52.5950	520.11
52.6094	478.94
52.6239	527.71
52.6383	500.92
52.6527	532.43
52.6672	509.02
52.6816	526.45
52.6961	507.58
52.7105	542.49
52.7250	536.24
52.7394	503.89
52.7538	511.42
52.7683	528.03
52.7827	520.33
52.7972	542.41
52.8116	525.07
52.8260	476.79
52.8405	477.23
52.8549	493.65
52.8694	542.91
52.8838	505.60
52.8982	539.62
52.9127	552.53
52.9271	512.46
52.9416	566.05
52.9560	492.72
52.9704	553.40
52.9849	535.04
52.9993	502.14
53.0138	528.33
53.0282	494.47
53.0426	499.72
53.0571	516.80
53.0715	534.03
53.0860	529.81
53.1004	496.65
53.1148	527.00
53.1293	534.69
53.1437	508.47
53.1582	520.30
53.1726	495.91
53.1870	500.51
53.2015	514.13
53.2159	507.29
53.2304	532.15
53.2448	525.18
53.2592	513.32
53.2737	516.02
53.2881	518.38
53.3026	493.75
53.3170	498.12
53.3314	497.28
53.3459	532.93
53.3603	487.46
53.3748	489.19
53.3892	520.07
53.4036	513.49
53.4181	512.26
53.4325	525.36
53.4470	498.66
53.4614	523.39
53.4758	502.57
53.4903	508.13
53.5047	492.40
53.5192	480.36
53.5336	485.10
53.5480	502.16
53.5625	534.88
53.5769	516.64
53.5914	471.15
53.6058	534.49
53.6202	536.31
53.6347	512.60
53.6491	538.63
53.6636	507.90
53.6780	494.01
53.6924	519.40
53.7069	547.77
53.7213	529.26
53.7358	522.13
53.7502	523.58
53.7646	501.55
53.7791	520.58
53.7935	497.96
53.8080	495.21
53.8224	512.24
53.8368	516.24
53.8513	502.74
53.8657	500.09
53.8802	486.74
53.8946	536.08
53.9090	549.55
53.9235	528.81
53.9379	543.89
53.9524	524.77
53.9668	510.12
53.9812	525.96
53.9957	531.29
54.0101	547.38
54.0246	512.34
54.0390	481.84
54.0534	526.65
54.0679	525.29
54.0823	499.56
54.0968	475.36
54.1112	524.61
54.1256	531.82
54.1401	490.90
54.1545	499.23
54.1690	525.84
54.1834	517.50
54.1978	490.85
54.2123	547.27
54.2267	507.30
54.2412	537.80
54.2556	501.08
54.2700	511.13
54.2845	536.53
54.2989	540.55
54.3134	553.73
54.3278	537.63
54.3422	561.11
54.3567	560.30
54.3711	530.23
54.3856	502.18
54.4000	520.96
54.4144	521.17
54.4289	539.29
54.4433	528.82
54.4578	496.48
54.4722	546.16
54.4866	567.18
54.5011	548.57
54.5155	529.07
54.5300	513.55
54.5444	558.82
54.5588	563.91
54.5733	545.00
54.5877	550.53
54.6022	546.55
54.6166	552.47
54.6310	565.75
54.6455	579.25
54.6599	574.15
54.6744	573.97
54.6888	572.12
54.7032	582.04
54.7177	558.07
54.7321	592.07
54.7466	596.46
54.7610	545.09
54.7754	570.26
54.7899	597.45
54.8043	605.57
54.8188	560.93
54.8332	551.23
54.8476	593.41
54.8621	625.09
54.8765	574.27
54.8910	561.26
54.9054	592.67
54.9198	559.12
54.9343	566.73
54.9487	526.32
54.9632	536.62
54.9776	555.35
54.9920	571.00
55.0065	533.46
55.0209	537.76
55.0354	518.51
55.0498	544.59
55.0642	575.35
55.0787	520.26
55.0931	529.97
55.1076	540.35
55.1220	535.16
55.1364	509.33
55.1509	509.63
55.1653	555.62
55.1798	556.95
55.1942	523.51
55.2086	536.41
55.2231	539.63
55.2375	533.06
55.2520	513.15
55.2664	513.87
55.2808	538.63
55.2953	536.00
55.3097	519.13
55.3242	549.05
55.3386	541.28
55.3530	523.41
55.3675	554.88
55.3819	542.50
55.3964	515.37
55.4108	508.73
55.4252	530.57
55.4397	511.63
55.4541	498.46
55.4686	468.84
55.4830	519.84
55.4974	495.57
55.5119	534.94
55.5263	527.85
55.5408	545.85
55.5552	553.00
55.5696	538.39
55.5841	511.06
55.5985	535.63
55.6130	522.40
55.6274	508.45
55.6418	489.74
55.6563	538.38
55.6707	524.43
55.6852	508.09
55.6996	509.27
55.7140	530.68
55.7285	511.07
55.7429	540.32
55.7574	479.52
55.7718	501.61
55.7862	513.39
55.8007	530.54
55.8151	533.47
55.8296	533.93
55.8440	523.96
55.8584	546.10
55.8729	508.05
55.8873	516.05
55.9018	529.08
55.9162	485.84
55.9306	519.55
55.9451	543.58
55.9595	521.71
55.9740	536.00
55.9884	517.11
56.0028	535.85
56.0173	514.38
56.0317	521.67
56.0462	496.70
56.0606	507.66
56.0750	499.50
56.0895	520.95
56.1039	528.58
56.1184	556.00
56.1328	523.00
56.1472	506.27
56.1617	531.93
56.1761	513.61
56.1906	532.98
56.2050	489.98
56.2194	538.68
56.2339	534.84
56.2483	545.40
56.2628	552.51
56.2772	551.88
56.2916	509.84
56.3061	524.32
56.3205	504.52
56.3350	488.18
56.3494	539.34
56.3639	525.34
56.3783	492.42
56.3927	529.41
56.4072	474.99
56.4216	514.28
56.4361	512.10
56.4505	491.32
56.4649	523.05
56.4794	510.74
56.4938	538.86
56.5083	511.40
56.5227	495.32
56.5371	512.20
56.5516	517.60
56.5660	520.13
56.5805	529.32
56.5949	503.45
56.6093	500.82
56.6238	512.87
56.6382	494.29
56.6527	494.98
56.6671	516.29
56.6815	496.32
56.6960	501.90
56.7104	544.95
56.7249	531.47
56.7393	513.27
56.7537	570.34
56.7682	512.47
56.7826	512.47
56.7971	538.87
56.8115	537.81
56.8259	508.19
56.8404	471.70
56.8548	505.75
56.8693	510.92
56.8837	499.56
56.8981	529.25
56.9126	527.96
56.9270	537.21
56.9415	544.99
56.9559	490.48
56.9703	481.30
56.9848	493.78
56.9992	504.02
57.0137	508.07
57.0281	560.25
57.0425	544.25
57.0570	540.41
57.0714	561.47
57.0859	520.74
57.1003	532.03
57.1147	523.49
57.1292	570.34
57.1436	540.29
57.1581	527.74
57.1725	539.57
57.1869	534.00
57.2014	501.53
57.2158	539.11
57.2303	549.38
57.2447	549.75
57.2591	512.58
57.2736	523.30
57.2880	526.80
57.3025	515.12
57.3169	527.07
57.3313	542.74
57.3458	507.13
57.3602	524.17
57.3747	497.08
57.3891	538.59
57.4035	561.89
57.4180	546.23
57.4324	512.02
57.4469	538.06
57.4613	534.03
57.4757	532.03
57.4902	516.94
57.5046	517.81
57.5191	481.84
57.5335	512.65
57.5479	537.04
57.5624	543.94
57.5768	499.95
57.5913	537.04
57.6057	552.68
57.6201	504.30
57.6346	539.69
57.6490	526.43
57.6635	525.15
57.6779	511.88
57.6923	554.55
57.7068	574.65
57.7212	545.49
57.7357	514.03
57.7501	532.47
57.7645	505.09
57.7790	526.82
57.7934	520.20
57.8079	568.10
57.8223	573.42
57.8367	556.67
57.8512	504.71
57.8656	552.12
57.8801	523.04
57.8945	524.53
57.9089	545.93
57.9234	515.99
57.9378	536.51
57.9523	545.78
57.9667	524.51
57.9811	536.78
57.9956	498.58
58.0100	536.12
58.0245	547.44
58.0389	535.26
58.0533	533.09
58.0678	566.08
58.0822	539.10
58.0967	549.43
58.1111	562.56
58.1255	547.53
58.1400	534.29
58.1544	525.22
58.1689	530.01
58.1833	551.64
58.1977	536.16
58.2122	535.85
58.2266	574.52
58.2411	579.35
58.2555	560.21
58.2699	565.71
58.2844	588.01
58.2988	566.78
58.3133	610.87
58.3277	632.79
58.3421	626.59
58.3566	615.97
58.3710	662.74
58.3855	683.16
58.3999	654.18
58.4143	652.42
58.4288	657.43
58.4432	657.95
58.4577	612.35
58.4721	634.92
58.4865	682.77
58.5010	635.05
58.5154	616.88
58.5299	629.52
58.5443	588.69
58.5587	626.59
58.5732	630.90
58.5876	631.14
58.6021	583.23
58.6165	569.06
58.6309	590.28
58.6454	608.73
58.6598	594.49
58.6743	596.18
58.6887	530.27
58.7031	545.14
58.7176	568.74
58.7320	552.28
58.7465	553.12
58.7609	567.48
58.7753	578.47
58.7898	550.86
58.8042	553.81
58.8187	555.72
58.8331	544.64
58.8475	521.57
58.8620	524.13
58.8764	534.36
58.8909	535.53
58.9053	579.83
58.9197	530.68
58.9342	527.32
58.9486	516.39
58.9631	529.88
58.9775	551.53
58.9919	561.56
59.0064	548.88
59.0208	560.38
59.0353	520.28
59.0497	543.67
59.0641	541.23
59.0786	509.63
59.0930	561.74
59.1075	550.14
59.1219	561.22
59.1363	527.96
59.1508	493.07
59.1652	548.01
59.1797	539.11
59.1941	532.34
59.2085	562.11
59.2230	572.02
59.2374	561.51
59.2519	574.95
59.2663	540.98
59.2807	513.40
59.2952	548.89
59.3096	558.60
59.3241	534.92
59.3385	555.45
59.3529	579.33
59.3674	550.51
59.3818	560.19
59.3963	554.76
59.4107	571.11
59.4251	593.28
59.4396	537.37
59.4540	569.94
59.4685	592.12
59.4829	545.76
59.4973	542.82
59.5118	543.53
59.5262	530.68
59.5407	574.98
59.5551	546.44
59.5695	536.92
59.5840	541.24
59.5984	507.65
59.6129	528.54
59.6273	531.03
59.6417	537.25
59.6562	554.62
59.6706	554.50
59.6851	552.73
59.6995	544.91
59.7139	549.84
59.7284	536.18
59.7428	575.01
59.7573	563.79
59.7717	520.75
59.7861	549.51
59.8006	556.37
59.8150	529.48
59.8295	518.65
59.8439	539.22
59.8583	547.09
59.8728	586.53
59.8872	546.23
59.9017	547.02
59.9161	581.77
59.9305	539.13
59.9450	536.77
59.9594	573.28
59.9739	517.66
59.9883	528.12
60.0027	548.07
60.0172	556.23
60.0316	522.02
60.0461	510.17
60.0605	531.05
60.0750	564.69
60.0894	555.06
60.1038	539.76
60.1183	535.68
60.1327	561.22
60.1472	526.59
60.1616	524.80
60.1760	542.28
60.1905	553.18
60.2049	556.91
60.2194	532.20
60.2338	526.42
60.2482	506.85
60.2627	563.42
60.2771	565.52
60.2916	568.59
60.3060	510.09
60.3204	509.81
60.3349	567.27
60.3493	546.61
60.3638	553.81
60.3782	552.95
60.3926	534.62
60.4071	517.94
60.4215	565.90
60.4360	545.10
60.4504	556.17
60.4648	577.56
60.4793	547.44
60.4937	507.98
60.5082	531.78
60.5226	553.84
60.5370	553.79
60.5515	574.20
60.5659	574.67
60.5804	534.34
60.5948	518.82
60.6092	555.55
60.6237	538.76
60.6381	555.24
60.6526	493.24
60.6670	506.06
60.6814	513.78
60.6959	512.89
60.7103	550.75
60.7248	562.01
60.7392	516.20
60.7536	530.87
60.7681	535.62
60.7825	530.44
60.7970	540.78
60.8114	536.39
60.8258	573.93
60.8403	548.86
60.8547	533.95
60.8692	496.90
60.8836	507.06
60.8980	569.38
60.9125	561.36
60.9269	524.50
60.9414	547.48
60.9558	520.76
60.9702	557.72
60.9847	538.19
60.9991	511.56
61.0136	566.69
61.0280	511.56
61.0424	505.22
61.0569	522.39
61.0713	548.43
61.0858	561.09
61.1002	534.87
61.1146	559.26
61.1291	560.98
61.1435	554.66
61.1580	533.11
61.1724	590.27
61.1868	579.98
61.2013	524.11
61.2157	543.24
61.2302	504.22
61.2446	532.30
61.2590	521.57
61.2735	539.13
61.2879	560.46
61.3024	521.44
61.3168	527.91
61.3312	503.08
61.3457	547.36
61.3601	570.05
61.3746	572.09
61.3890	554.86
61.4034	537.63
61.4179	559.74
61.4323	562.06
61.4468	548.86
61.4612	558.47
61.4756	556.24
61.4901	542.55
61.5045	525.91
61.5190	548.01
61.5334	522.41
61.5478	569.88
61.5623	535.71
61.5767	525.29
61.5912	556.89
61.6056	540.45
61.6200	569.00
61.6345	565.91
61.6489	596.94
61.6634	554.19
61.6778	546.09
61.6922	553.13
61.7067	549.07
61.7211	534.51
61.7356	532.26
61.7500	549.09
61.7644	526.91
61.7789	532.04
61.7933	549.97
61.8078	548.93
61.8222	590.97
61.8366	564.23
61.8511	519.79
61.8655	551.30
61.8800	559.24
61.8944	580.13
61.9088	533.92
61.9233	543.88
61.9377	537.48
61.9522	524.21
61.9666	534.41
61.9810	538.71
61.9955	582.17
62.0099	525.46
62.0244	540.37
62.0388	559.83
62.0532	572.93
62.0677	526.45
62.0821	558.31
62.0966	573.24
62.1110	574.73
62.1254	565.66
62.1399	544.08
62.1543	529.73
62.1688	522.49
62.1832	556.20
62.1976	537.76
62.2121	536.53
62.2265	554.49
62.2410	558.46
62.2554	553.81
62.2698	556.93
62.2843	560.46
62.2987	550.62
62.3132	565.83
62.3276	561.97
62.3420	571.40
62.3565	524.94
62.3709	541.45
62.3854	553.95
62.3998	561.78
62.4142	554.15
62.4287	585.06
62.4431	543.83
62.4576	563.25
62.4720	578.87
62.4864	532.31
62.5009	532.91
62.5153	546.76
62.5298	576.70
62.5442	567.22
62.5586	572.71
62.5731	550.30
62.5875	544.40
62.6020	525.68
62.6164	545.83
62.6308	573.97
62.6453	599.41
62.6597	564.98
62.6742	544.36
62.6886	535.88
62.7030	561.57
62.7175	568.69
62.7319	555.95
62.7464	537.98
62.7608	541.19
62.7752	567.40
62.7897	557.72
62.8041	551.98
62.8186	557.65
62.8330	577.72
62.8474	578.55
62.8619	564.22
62.8763	540.73
62.8908	542.31
62.9052	549.52
62.9196	551.80
62.9341	581.18
62.9485	568.55
62.9630	571.07
62.9774	575.38
62.9918	572.70
63.0063	578.78
63.0207	568.87
63.0352	544.54
63.0496	573.18
63.0640	577.34
63.0785	551.51
63.0929	606.84
63.1074	587.45
63.1218	565.47
63.1362	605.10
63.1507	535.39
63.1651	562.32
63.1796	538.91
63.1940	531.59
63.2084	568.04
63.2229	552.32
63.2373	554.57
63.2518	567.97
63.2662	551.07
63.2806	579.31
63.2951	559.74
63.3095	559.53
63.3240	565.87
63.3384	571.42
63.3528	581.12
63.3673	573.56
63.3817	575.89
63.3962	550.94
63.4106	603.91
63.4250	591.71
63.4395	590.00
63.4539	592.90
63.4684	590.57
63.4828	583.42
63.4972	568.34
63.5117	584.82
63.5261	559.23
63.5406	580.64
63.5550	562.64
63.5694	590.14
63.5839	558.75
63.5983	577.33
63.6128	599.88
63.6272	608.12
63.6416	613.48
63.6561	568.67
63.6705	579.65
63.6850	592.92
63.6994	578.78
63.7138	617.41
63.7283	591.93
63.7427	566.63
63.7572	572.45
63.7716	572.05
63.7861	601.56
63.8005	586.31
63.8149	580.02
63.8294	596.87
63.8438	622.10
63.8583	681.29
63.8727	644.35
63.8871	602.35
63.9016	642.27
63.9160	638.22
63.9305	659.20
63.9449	656.39
63.9593	633.28
63.9738	632.74
63.9882	653.80
64.0027	654.04
64.0171	659.33
64.0315	697.72
64.0460	711.48
64.0604	752.48
64.0749	732.88
64.0893	764.52
64.1037	826.99
64.1182	855.64
64.1326	790.29
64.1471	754.73
64.1615	798.25
64.1759	775.53
64.1904	761.80
64.2048	788.28
64.2193	843.84
64.2337	819.89
64.2481	762.06
64.2626	735.40
64.2770	745.39
64.2915	774.66
64.3059	754.83
64.3203	749.70
64.3348	737.80
64.3492	705.13
64.3637	744.23
64.3781	728.55
64.3925	693.91
64.4070	701.06
64.4214	694.34
64.4359	719.90
64.4503	691.66
64.4647	698.26
64.4792	712.93
64.4936	727.74
64.5081	688.21
64.5225	652.95
64.5369	728.10
64.5514	695.67
64.5658	677.34
64.5803	621.04
64.5947	669.22
64.6091	638.27
64.6236	664.87
64.6380	685.60
64.6525	678.38
64.6669	686.33
64.6813	716.48
64.6958	690.54
64.7102	753.61
64.7247	718.91
64.7391	662.37
64.7535	710.86
64.7680	716.75
64.7824	727.83
64.7969	765.67
64.8113	742.32
64.8257	817.81
64.8402	805.18
64.8546	843.37
64.8691	869.55
64.8835	802.07
64.8979	854.74
64.9124	914.85
64.9268	943.63
64.9413	882.05
64.9557	912.70
64.9701	1003.55
64.9846	1056.72
64.9990	1137.60
65.0135	1320.39
65.0279	1541.07
65.0423	1766.01
65.0568	2145.31
65.0712	2802.42
65.0857	3684.97
65.1001	4905.77
65.1145	6537.34
65.1290	8640.18
65.1434	10090.01
65.1579	11447.02
65.1723	11921.34
65.1867	11306.78
65.2012	9741.00
65.2156	8054.29
65.2301	6423.42
65.2445	5121.43
65.2589	4454.00
65.2734	4247.78
65.2878	4507.52
65.3023	5172.88
65.3167	6097.53
65.3311	6818.83
65.3456	7123.72
65.3600	7034.39
65.3745	6325.80
65.3889	5291.22
65.4033	4190.81
65.4178	3296.72
65.4322	2629.35
65.4467	1969.56
65.4611	1615.88
65.4755	1430.17
65.4900	1289.02
65.5044	1124.28
65.5189	1066.66
65.5333	996.00
65.5477	924.60
65.5622	907.77
65.5766	847.70
65.5911	855.27
65.6055	824.36
65.6199	790.98
65.6344	767.13
65.6488	783.85
65.6633	745.95
65.6777	720.08
65.6921	718.92
65.7066	735.33
65.7210	691.91
65.7355	684.24
65.7499	688.81
65.7643	675.37
65.7788	683.02
65.7932	686.85
65.8077	689.18
65.8221	690.77
65.8365	636.87
65.8510	622.16
65.8654	646.71
65.8799	656.46
65.8943	630.32
65.9087	644.03
65.9232	665.98
65.9376	653.36
65.9521	622.08
65.9665	608.30
65.9809	650.78
65.9954	659.54
66.0098	645.61
66.0243	657.43
66.0387	613.55
66.0531	588.64
66.0676	617.47
66.0820	648.78
66.0965	642.59
66.1109	619.74
66.1253	620.12
66.1398	628.27
66.1542	609.94
66.1687	648.37
66.1831	628.26
66.1975	599.85
66.2120	644.09
66.2264	613.65
66.2409	609.62
66.2553	628.85
66.2697	624.05
66.2842	629.18
66.2986	587.43
66.3131	600.89
66.3275	592.09
66.3419	635.39
66.3564	581.96
66.3708	580.56
66.3853	600.62
66.3997	582.21
66.4141	616.20
66.4286	647.41
66.4430	580.11
66.4575	572.39
66.4719	545.20
66.4863	588.56
66.5008	620.21
66.5152	573.81
66.5297	582.67
66.5441	587.20
66.5585	571.63
66.5730	575.86
66.5874	606.42
66.6019	605.01
66.6163	587.21
66.6307	611.66
66.6452	603.88
66.6596	612.11
66.6741	571.00
66.6885	576.83
66.7029	583.61
66.7174	602.25
66.7318	635.00
66.7463	620.18
66.7607	558.51
66.7751	589.81
66.7896	629.49
66.8040	593.90
66.8185	578.84
66.8329	586.68
66.8473	599.06
66.8618	612.49
66.8762	583.85
66.8907	577.78
66.9051	614.13
66.9195	599.63
66.9340	598.38
66.9484	592.77
66.9629	582.53
66.9773	579.25
66.9917	615.19
67.0062	596.66
67.0206	594.20
67.0351	602.28
67.0495	592.74
67.0639	590.06
67.0784	616.52
67.0928	589.27
67.1073	556.25
67.1217	548.79
67.1361	602.01
67.1506	604.55
67.1650	607.85
67.1795	556.37
67.1939	562.39
67.2083	582.30
67.2228	572.74
67.2372	584.69
67.2517	617.98
67.2661	575.94
67.2805	614.84
67.2950	586.41
67.3094	590.80
67.3239	580.28
67.3383	597.83
67.3527	595.87
67.3672	571.72
67.3816	580.89
67.3961	540.33
67.4105	585.28
67.4250	638.25
67.4394	622.24
67.4538	606.96
67.4683	579.33
67.4827	578.49
67.4972	574.74
67.5116	548.98
67.5260	589.86
67.5405	597.31
67.5549	589.82
67.5694	573.14
67.5838	566.21
67.5982	596.57
67.6127	587.76
67.6271	583.19
67.6416	590.69
67.6560	570.66
67.6704	590.18
67.6849	567.68
67.6993	601.00
67.7138	600.06
67.7282	536.94
67.7426	593.69
67.7571	579.72
67.7715	558.29
67.7860	568.49
67.8004	571.30
67.8148	583.46
67.8293	581.19
67.8437	569.48
67.8582	581.80
67.8726	605.71
67.8870	611.65
67.9015	602.64
67.9159	577.76
67.9304	602.48
67.9448	570.20
67.9592	566.87
67.9737	593.26
67.9881	573.03
68.0026	589.63
68.0170	615.17
68.0314	622.86
68.0459	577.93
68.0603	572.36
68.0748	553.78
68.0892	592.55
68.1036	553.07
68.1181	575.16
68.1325	629.13
68.1470	586.63
68.1614	588.69
68.1758	598.15
68.1903	579.62
68.2047	547.51
68.2192	587.56
68.2336	568.91
68.2480	560.93
68.2625	530.92
68.2769	533.20
68.2914	543.38
68.3058	544.34
68.3202	553.76
68.3347	585.29
68.3491	584.12
68.3636	626.62
68.3780	593.84
68.3924	581.54
68.4069	599.30
68.4213	565.04
68.4358	543.68
68.4502	585.69
68.4646	617.06
68.4791	606.93
68.4935	571.08
68.5080	544.48
68.5224	578.95
68.5368	610.91
68.5513	581.83
68.5657	575.29
68.5802	578.12
68.5946	538.10
68.6090	616.48
68.6235	578.98
68.6379	614.03
68.6524	551.11
68.6668	547.51
68.6812	611.66
68.6957	566.85
68.7101	593.40
68.7246	594.74
68.7390	596.39
68.7534	567.97
68.7679	571.12
68.7823	580.30
68.7968	568.24
68.8112	599.96
68.8256	583.48
68.8401	600.26
68.8545	588.61
68.8690	566.67
68.8834	587.48
68.8978	554.69
68.9123	584.66
68.9267	594.68
68.9412	550.66
68.9556	578.19
68.9700	570.81
68.9845	537.52
68.9989	611.23
69.0134	571.60
69.0278	572.80
69.0422	590.50
69.0567	562.98
69.0711	565.81
69.0856	595.76
69.1000	601.74
69.1144	575.13
69.1289	621.03
69.1433	564.52
69.1578	573.17
69.1722	595.12
69.1866	557.30
69.2011	565.72
69.2155	603.02
69.2300	512.05
69.2444	591.94
69.2588	594.26
69.2733	601.33
69.2877	575.98
69.3022	602.33
69.3166	581.30
69.3310	594.23
69.3455	597.91
69.3599	596.43
69.3744	611.40
69.3888	574.11
69.4032	559.58
69.4177	535.37
69.4321	571.25
69.4466	617.02
69.4610	610.17
69.4754	638.44
69.4899	583.86
69.5043	544.92
69.5188	554.33
69.5332	590.28
69.5476	628.71
69.5621	575.82
69.5765	557.26
69.5910	578.77
69.6054	592.60
69.6198	631.86
69.6343	634.82
69.6487	587.34
69.6632	554.20
69.6776	578.77
69.6920	581.85
69.7065	577.35
69.7209	621.63
69.7354	583.00
69.7498	564.43
69.7642	610.18
69.7787	576.47
69.7931	596.28
69.8076	556.47
69.8220	568.56
69.8364	632.73
69.8509	597.30
69.8653	573.91
69.8798	608.54
69.8942	594.10
69.9086	615.89
69.9231	564.50
69.9375	612.84
69.9520	619.86
69.9664	572.27
69.9808	549.71
69.9953	548.58
70.0097	502.45
70.0242	519.19
70.0386	559.98
70.0530	569.38
70.0675	594.88
70.0819	583.71
70.0964	618.19
70.1108	612.39
70.1252	575.66
70.1397	507.78
70.1541	506.41
70.1686	576.95
70.1830	567.97
70.1974	549.97
70.2119	551.81
70.2263	548.48
70.2408	630.58
70.2552	567.72
70.2696	633.27
70.2841	553.63
70.2985	508.74
70.3130	540.50
70.3274	551.13
70.3418	569.42
70.3563	558.66
70.3707	552.54
70.3852	544.56
70.3996	509.70
70.4140	555.07
70.4285	593.65
70.4429	575.22
70.4574	589.06
70.4718	600.40
70.4862	610.02
70.5007	548.09
70.5151	534.67
70.5296	569.91
70.5440	595.42
70.5584	586.64
70.5729	582.14
70.5873	560.11
70.6018	539.44
70.6162	597.36
70.6306	611.47
70.6451	594.65
70.6595	607.67
70.6740	502.98
70.6884	532.58
70.7028	570.73
70.7173	583.61
70.7317	566.21
70.7462	574.58
70.7606	568.00
70.7750	557.33
70.7895	558.73
70.8039	612.64
70.8184	613.60
70.8328	606.70
70.8472	554.44
70.8617	500.10
70.8761	575.69
70.8906	559.67
70.9050	533.70
70.9194	578.54
70.9339	567.17
70.9483	602.19
70.9628	613.68
70.9772	599.87
70.9916	595.84
71.0061	613.42
71.0205	596.49
71.0350	549.86
71.0494	537.03
71.0638	556.57
71.0783	603.88
71.0927	664.95
71.1072	631.41
71.1216	574.89
71.1361	544.70
71.1505	547.76
71.1649	612.26
71.1794	622.14
71.1938	605.66
71.2083	557.64
71.2227	568.92
71.2371	586.61
71.2516	593.81
71.2660	586.04
71.2805	616.77
71.2949	595.81
71.3093	552.83
71.3238	540.26
71.3382	602.38
71.3527	581.58
71.3671	522.74
71.3815	534.84
71.3960	573.57
71.4104	589.14
71.4249	603.51
71.4393	569.68
71.4537	569.77
71.4682	584.54
71.4826	529.72
71.4971	525.14
71.5115	556.77
71.5259	524.69
71.5404	533.84
71.5548	611.00
71.5693	586.48
71.5837	559.16
71.5981	572.11
71.6126	600.06
71.6270	586.85
71.6415	613.31
71.6559	593.78
71.6703	596.20
71.6848	616.63
71.6992	626.83
71.7137	559.51
71.7281	552.27
71.7425	546.68
71.7570	545.59
71.7714	599.94
71.7859	599.97
71.8003	580.34
71.8147	606.85
71.8292	599.55
71.8436	564.68
71.8581	542.56
71.8725	600.95
71.8869	595.74
71.9014	645.14
71.9158	621.33
71.9303	571.84
71.9447	614.93
71.9591	644.75
71.9736	575.70
71.9880	513.44
72.0025	520.07
72.0169	546.34
72.0313	573.36
72.0458	599.79
72.0602	606.16
72.0747	588.66
72.0891	607.04
72.1035	623.15
72.1180	495.48
72.1324	530.01
72.1469	564.84
72.1613	534.84
72.1757	551.70
72.1902	613.57
72.2046	626.29
72.2191	562.15
72.2335	573.63
72.2479	556.06
72.2624	548.48
72.2768	630.22
72.2913	591.16
72.3057	590.48
72.3201	597.29
72.3346	522.67
72.3490	567.64
72.3635	574.45
72.3779	573.65
72.3923	606.95
72.4068	596.02
72.4212	647.27
72.4357	659.27
72.4501	619.25
72.4645	633.42
72.4790	574.40
72.4934	504.58
72.5079	554.66
72.5223	606.22
72.5367	548.01
72.5512	615.74
72.5656	635.82
72.5801	584.96
72.5945	526.57
72.6089	585.51
72.6234	689.93
72.6378	609.80
72.6523	538.60
72.6667	616.04
72.6811	609.64
72.6956	556.38
72.7100	607.99
72.7245	554.25
72.7389	561.62
72.7533	557.29
72.7678	513.10
72.7822	532.69
72.7967	586.12
72.8111	660.50
72.8255	649.21
72.8400	630.92
72.8544	655.15
72.8689	663.37
72.8833	663.51