2022.09.19 19:37:16
Îáðàçåö: ß÷åéêà LCoV 16-09-2022
Lambda1 = 1.54060
Lambda2 = 1.54439
Lambdam = 1.54186
R = 0.497
2Theta	I

line¹ 0 ;repeat¹ 0
22.1120	572.72
22.1264	592.00
22.1409	555.26
22.1553	517.13
22.1697	588.06
22.1842	663.26
22.1986	669.04
22.2131	619.19
22.2275	578.15
22.2419	524.87
22.2564	539.84
22.2708	580.10
22.2853	597.30
22.2997	594.34
22.3141	634.02
22.3286	527.21
22.3430	560.12
22.3575	537.91
22.3719	537.12
22.3863	530.27
22.4008	594.67
22.4152	658.70
22.4297	730.37
22.4441	698.16
22.4585	612.66
22.4730	631.82
22.4874	623.11
22.5019	529.81
22.5163	572.75
22.5307	592.00
22.5452	576.62
22.5596	594.53
22.5741	612.85
22.5885	568.46
22.6029	599.61
22.6174	581.17
22.6318	535.70
22.6463	603.17
22.6607	636.32
22.6751	590.59
22.6896	560.35
22.7040	552.77
22.7185	594.90
22.7329	542.56
22.7473	483.64
22.7618	558.53
22.7762	610.60
22.7907	563.59
22.8051	569.47
22.8195	589.52
22.8340	568.88
22.8484	515.12
22.8629	606.69
22.8773	602.44
22.8917	612.46
22.9062	577.96
22.9206	508.93
22.9351	527.69
22.9495	520.31
22.9639	580.61
22.9784	607.17
22.9928	540.34
23.0073	610.14
23.0217	678.37
23.0361	540.96
23.0506	547.63
23.0650	651.03
23.0795	556.73
23.0939	526.63
23.1083	570.25
23.1228	564.17
23.1372	538.67
23.1517	541.02
23.1661	608.03
23.1806	619.47
23.1950	556.05
23.2094	498.10
23.2239	579.50
23.2383	596.21
23.2528	635.61
23.2672	524.19
23.2816	558.55
23.2961	589.77
23.3105	585.69
23.3250	535.51
23.3394	599.65
23.3538	584.30
23.3683	520.07
23.3827	502.36
23.3972	519.46
23.4116	535.62
23.4260	579.84
23.4405	517.85
23.4549	559.50
23.4694	559.63
23.4838	575.64
23.4982	490.79
23.5127	499.97
23.5271	556.18
23.5416	608.17
23.5560	528.72
23.5704	519.01
23.5849	553.45
23.5993	560.89
23.6138	532.99
23.6282	577.60
23.6426	500.44
23.6571	589.36
23.6715	569.96
23.6860	525.50
23.7004	548.19
23.7148	571.04
23.7293	510.69
23.7437	531.62
23.7582	504.77
23.7726	599.91
23.7870	561.62
23.8015	537.31
23.8159	574.21
23.8304	612.89
23.8448	622.02
23.8592	561.45
23.8737	609.91
23.8881	564.53
23.9026	625.80
23.9170	522.17
23.9314	568.10
23.9459	599.67
23.9603	553.15
23.9748	561.48
23.9892	563.62
24.0036	527.25
24.0181	567.71
24.0325	553.53
24.0470	571.52
24.0614	529.79
24.0758	559.80
24.0903	585.97
24.1047	548.16
24.1192	582.76
24.1336	613.78
24.1480	544.08
24.1625	551.48
24.1769	599.80
24.1914	600.79
24.2058	579.30
24.2202	570.58
24.2347	630.15
24.2491	580.82
24.2636	586.29
24.2780	615.41
24.2924	584.33
24.3069	591.22
24.3213	583.30
24.3358	580.03
24.3502	586.62
24.3646	548.46
24.3791	524.55
24.3935	553.21
24.4080	553.12
24.4224	580.18
24.4368	562.62
24.4513	555.79
24.4657	522.83
24.4802	545.66
24.4946	531.28
24.5090	558.92
24.5235	556.88
24.5379	555.56
24.5524	594.82
24.5668	536.22
24.5812	542.03
24.5957	512.08
24.6101	559.00
24.6246	583.07
24.6390	527.92
24.6534	544.86
24.6679	509.60
24.6823	554.51
24.6968	542.04
24.7112	548.29
24.7256	537.39
24.7401	529.34
24.7545	557.09
24.7690	605.02
24.7834	576.42
24.7978	579.91
24.8123	502.03
24.8267	539.49
24.8412	565.95
24.8556	566.62
24.8700	556.73
24.8845	514.91
24.8989	572.07
24.9134	558.53
24.9278	569.37
24.9422	515.26
24.9567	522.23
24.9711	484.14
24.9856	524.40
25.0000	523.95
25.0144	567.85
25.0289	526.21
25.0433	546.83
25.0578	600.76
25.0722	516.45
25.0866	565.37
25.1011	508.46
25.1155	592.01
25.1300	542.80
25.1444	527.74
25.1588	574.34
25.1733	560.79
25.1877	567.18
25.2022	562.19
25.2166	537.57
25.2310	547.56
25.2455	560.13
25.2599	572.51
25.2744	514.44
25.2888	539.76
25.3032	504.28
25.3177	529.66
25.3321	561.93
25.3466	553.88
25.3610	509.59
25.3754	532.23
25.3899	524.96
25.4043	542.07
25.4188	540.27
25.4332	512.99
25.4476	578.06
25.4621	538.25
25.4765	568.37
25.4910	570.04
25.5054	540.76
25.5198	531.53
25.5343	523.12
25.5487	584.40
25.5632	595.23
25.5776	565.08
25.5920	537.99
25.6065	547.73
25.6209	522.00
25.6354	536.54
25.6498	561.34
25.6642	526.50
25.6787	448.19
25.6931	500.79
25.7076	543.37
25.7220	547.72
25.7364	552.23
25.7509	573.94
25.7653	557.50
25.7798	533.47
25.7942	565.70
25.8086	529.14
25.8231	541.25
25.8375	556.35
25.8520	537.72
25.8664	543.34
25.8808	514.65
25.8953	531.82
25.9097	565.51
25.9242	549.67
25.9386	529.95
25.9530	519.48
25.9675	483.41
25.9819	506.54
25.9964	555.38
26.0108	572.28
26.0252	556.08
26.0397	515.96
26.0541	540.76
26.0686	551.88
26.0830	530.98
26.0974	501.74
26.1119	550.47
26.1263	591.13
26.1408	547.53
26.1552	507.96
26.1696	533.25
26.1841	534.65
26.1985	506.19
26.2130	524.67
26.2274	583.01
26.2418	535.99
26.2563	538.10
26.2707	528.48
26.2852	560.04
26.2996	523.57
26.3140	555.28
26.3285	541.62
26.3429	555.63
26.3574	557.51
26.3718	526.66
26.3862	532.96
26.4007	504.02
26.4151	532.92
26.4296	565.16
26.4440	508.93
26.4584	508.89
26.4729	532.13
26.4873	574.15
26.5018	555.22
26.5162	535.00
26.5306	546.01
26.5451	554.40
26.5595	542.36
26.5740	544.77
26.5884	555.77
26.6028	561.03
26.6173	527.36
26.6317	512.07
26.6462	526.88
26.6606	552.66
26.6750	540.33
26.6895	551.68
26.7039	532.10
26.7184	561.70
26.7328	550.67
26.7472	530.55
26.7617	519.64
26.7761	511.34
26.7906	514.73
26.8050	500.66
26.8194	528.38
26.8339	564.93
26.8483	563.78
26.8628	533.88
26.8772	545.13
26.8917	557.11
26.9061	537.37
26.9205	544.71
26.9350	502.54
26.9494	502.01
26.9639	517.59
26.9783	498.88
26.9927	515.76
27.0072	535.51
27.0216	546.14
27.0361	536.03
27.0505	518.48
27.0649	536.00
27.0794	506.44
27.0938	495.65
27.1083	536.60
27.1227	551.11
27.1371	522.73
27.1516	501.30
27.1660	516.95
27.1805	505.50
27.1949	493.56
27.2093	515.24
27.2238	514.08
27.2382	525.78
27.2527	520.73
27.2671	532.26
27.2815	539.83
27.2960	540.20
27.3104	518.82
27.3249	510.65
27.3393	529.71
27.3537	522.87
27.3682	479.74
27.3826	507.02
27.3971	497.45
27.4115	521.26
27.4259	560.81
27.4404	556.10
27.4548	524.43
27.4693	534.50
27.4837	533.16
27.4981	538.71
27.5126	509.25
27.5270	480.24
27.5415	518.36
27.5559	518.09
27.5703	533.51
27.5848	531.50
27.5992	552.23
27.6137	491.33
27.6281	510.91
27.6425	544.03
27.6570	531.56
27.6714	492.11
27.6859	520.65
27.7003	531.53
27.7147	523.55
27.7292	521.84
27.7436	516.47
27.7581	491.46
27.7725	515.60
27.7869	490.53
27.8014	499.25
27.8158	505.40
27.8303	518.90
27.8447	461.45
27.8591	518.17
27.8736	531.45
27.8880	526.74
27.9025	541.82
27.9169	529.48
27.9313	542.22
27.9458	546.50
27.9602	508.21
27.9747	511.79
27.9891	521.45
28.0035	529.59
28.0180	532.82
28.0324	516.78
28.0469	536.04
28.0613	540.71
28.0757	526.02
28.0902	504.57
28.1046	509.43
28.1191	513.82
28.1335	519.63
28.1479	503.34
28.1624	527.31
28.1768	499.95
28.1913	482.18
28.2057	459.00
28.2201	518.76
28.2346	567.78
28.2490	506.12
28.2635	522.85
28.2779	524.35
28.2923	514.53
28.3068	506.63
28.3212	503.28
28.3357	495.53
28.3501	496.36
28.3645	531.62
28.3790	492.65
28.3934	508.62
28.4079	543.27
28.4223	517.74
28.4367	507.26
28.4512	502.43
28.4656	541.77
28.4801	532.11
28.4945	523.70
28.5089	519.17
28.5234	495.66
28.5378	512.21
28.5523	528.50
28.5667	513.89
28.5811	529.64
28.5956	529.21
28.6100	499.06
28.6245	498.44
28.6389	496.54
28.6533	530.94
28.6678	515.60
28.6822	478.34
28.6967	505.11
28.7111	514.83
28.7255	483.46
28.7400	493.70
28.7544	489.55
28.7689	501.58
28.7833	504.06
28.7977	482.38
28.8122	466.99
28.8266	511.75
28.8411	488.18
28.8555	504.44
28.8699	510.53
28.8844	530.80
28.8988	493.42
28.9133	512.63
28.9277	483.51
28.9421	542.49
28.9566	469.69
28.9710	486.54
28.9855	491.50
28.9999	506.12
29.0143	545.63
29.0288	523.16
29.0432	509.40
29.0577	522.61
29.0721	505.81
29.0865	511.71
29.1010	549.50
29.1154	569.46
29.1299	516.32
29.1443	504.28
29.1587	520.55
29.1732	540.27
29.1876	487.18
29.2021	504.90
29.2165	494.81
29.2309	467.66
29.2454	488.08
29.2598	502.57
29.2743	522.11
29.2887	534.60
29.3031	471.91
29.3176	453.15
29.3320	485.00
29.3465	492.75
29.3609	484.00
29.3753	519.72
29.3898	476.84
29.4042	475.53
29.4187	473.67
29.4331	523.13
29.4475	503.57
29.4620	496.64
29.4764	519.21
29.4909	523.98
29.5053	501.90
29.5197	527.97
29.5342	529.54
29.5486	540.31
29.5631	500.29
29.5775	491.81
29.5919	492.78
29.6064	509.20
29.6208	481.81
29.6353	509.89
29.6497	495.58
29.6641	502.10
29.6786	533.61
29.6930	528.70
29.7075	507.25
29.7219	521.70
29.7363	493.12
29.7508	514.58
29.7652	497.87
29.7797	518.55
29.7941	521.42
29.8085	522.55
29.8230	479.00
29.8374	521.69
29.8519	502.55
29.8663	524.29
29.8807	518.55
29.8952	523.60
29.9096	505.07
29.9241	528.00
29.9385	481.45
29.9529	501.68
29.9674	504.18
29.9818	534.80
29.9963	533.57
30.0107	500.01
30.0251	527.03
30.0396	501.22
30.0540	521.26
30.0685	551.63
30.0829	533.90
30.0973	487.13
30.1118	491.97
30.1262	522.31
30.1407	515.68
30.1551	482.57
30.1695	513.97
30.1840	540.28
30.1984	518.28
30.2129	535.72
30.2273	511.15
30.2417	520.74
30.2562	527.97
30.2706	502.52
30.2851	521.50
30.2995	505.89
30.3139	502.11
30.3284	488.43
30.3428	494.79
30.3573	521.26
30.3717	505.68
30.3861	515.46
30.4006	496.86
30.4150	511.88
30.4295	534.92
30.4439	477.95
30.4583	508.88
30.4728	525.95
30.4872	511.09
30.5017	531.79
30.5161	505.32
30.5305	534.96
30.5450	545.01
30.5594	552.00
30.5739	531.35
30.5883	540.75
30.6028	558.30
30.6172	538.79
30.6316	516.84
30.6461	534.19
30.6605	523.45
30.6750	534.78
30.6894	546.21
30.7038	549.29
30.7183	582.92
30.7327	578.98
30.7472	575.40
30.7616	573.30
30.7760	620.06
30.7905	630.51
30.8049	644.36
30.8194	692.53
30.8338	658.13
30.8482	662.87
30.8627	677.71
30.8771	680.25
30.8916	668.92
30.9060	694.85
30.9204	655.33
30.9349	651.82
30.9493	633.81
30.9638	606.47
30.9782	563.60
30.9926	533.82
31.0071	565.19
31.0215	561.28
31.0360	535.11
31.0504	539.90
31.0648	529.74
31.0793	495.54
31.0937	510.19
31.1082	531.95
31.1226	554.63
31.1370	526.95
31.1515	499.14
31.1659	525.27
31.1804	523.17
31.1948	485.40
31.2092	511.66
31.2237	543.55
31.2381	525.53
31.2526	526.74
31.2670	528.92
31.2814	524.95
31.2959	511.71
31.3103	581.23
31.3248	541.48
31.3392	521.17
31.3536	523.50
31.3681	540.26
31.3825	513.65
31.3970	517.30
31.4114	539.39
31.4258	542.02
31.4403	514.67
31.4547	510.39
31.4692	517.09
31.4836	522.49
31.4980	554.10
31.5125	516.13
31.5269	490.97
31.5414	518.79
31.5558	532.65
31.5702	510.28
31.5847	518.00
31.5991	509.04
31.6136	506.41
31.6280	492.53
31.6424	523.41
31.6569	495.27
31.6713	512.25
31.6858	478.87
31.7002	510.88
31.7146	477.33
31.7291	472.71
31.7435	477.24
31.7580	496.97
31.7724	478.58
31.7868	512.53
31.8013	483.47
31.8157	515.55
31.8302	514.48
31.8446	505.88
31.8590	525.09
31.8735	481.89
31.8879	513.43
31.9024	546.08
31.9168	509.84
31.9312	492.97
31.9457	523.26
31.9601	520.81
31.9746	481.64
31.9890	495.22
32.0034	493.11
32.0179	509.46
32.0323	486.64
32.0468	521.65
32.0612	485.59
32.0756	508.00
32.0901	516.45
32.1045	498.79
32.1190	485.46
32.1334	512.57
32.1478	494.43
32.1623	516.66
32.1767	510.35
32.1912	492.48
32.2056	509.91
32.2200	502.50
32.2345	519.22
32.2489	492.54
32.2634	489.33
32.2778	529.15
32.2922	513.01
32.3067	506.33
32.3211	476.26
32.3356	495.28
32.3500	493.96
32.3644	484.28
32.3789	548.13
32.3933	508.29
32.4078	495.12
32.4222	498.34
32.4366	545.64
32.4511	548.31
32.4655	512.93
32.4800	487.66
32.4944	510.49
32.5088	532.41
32.5233	516.89
32.5377	544.20
32.5522	520.54
32.5666	471.98
32.5810	521.55
32.5955	512.76
32.6099	503.85
32.6244	512.16
32.6388	534.88
32.6532	487.56
32.6677	470.64
32.6821	503.10
32.6966	501.79
32.7110	491.09
32.7254	514.79
32.7399	510.00
32.7543	495.67
32.7688	525.53
32.7832	550.69
32.7976	516.72
32.8121	495.30
32.8265	480.90
32.8410	516.58
32.8554	515.34
32.8698	540.31
32.8843	500.90
32.8987	525.95
32.9132	474.54
32.9276	471.01
32.9420	501.68
32.9565	486.82
32.9709	507.68
32.9854	511.42
32.9998	490.35
33.0142	512.50
33.0287	542.98
33.0431	523.35
33.0576	508.44
33.0720	508.94
33.0864	495.28
33.1009	496.92
33.1153	515.90
33.1298	523.71
33.1442	489.67
33.1586	491.49
33.1731	484.48
33.1875	504.12
33.2020	484.58
33.2164	496.09
33.2308	532.07
33.2453	501.36
33.2597	510.02
33.2742	518.84
33.2886	528.10
33.3030	516.17
33.3175	487.77
33.3319	497.39
33.3464	499.00
33.3608	480.30
33.3752	468.09
33.3897	507.13
33.4041	551.53
33.4186	529.61
33.4330	495.22
33.4474	522.60
33.4619	529.95
33.4763	489.60
33.4908	506.62
33.5052	527.72
33.5196	502.43
33.5341	493.71
33.5485	512.59
33.5630	514.80
33.5774	504.92
33.5918	515.32
33.6063	492.77
33.6207	481.63
33.6352	508.40
33.6496	520.45
33.6640	503.94
33.6785	503.59
33.6929	489.56
33.7074	514.93
33.7218	497.49
33.7362	522.01
33.7507	507.09
33.7651	501.28
33.7796	501.36
33.7940	467.65
33.8084	504.05
33.8229	504.38
33.8373	514.25
33.8518	489.34
33.8662	511.36
33.8806	488.94
33.8951	509.17
33.9095	531.25
33.9240	489.78
33.9384	489.04
33.9528	484.39
33.9673	501.45
33.9817	514.48
33.9962	510.51
34.0106	521.35
34.0250	540.78
34.0395	502.19
34.0539	528.07
34.0684	509.72
34.0828	517.79
34.0972	511.82
34.1117	490.51
34.1261	514.66
34.1406	503.71
34.1550	504.19
34.1694	501.38
34.1839	541.42
34.1983	481.41
34.2128	475.86
34.2272	486.97
34.2417	491.12
34.2561	488.23
34.2705	514.40
34.2850	536.66
34.2994	509.95
34.3139	497.77
34.3283	492.91
34.3427	539.00
34.3572	530.17
34.3716	485.17
34.3861	520.75
34.4005	499.73
34.4149	496.16
34.4294	539.17
34.4438	482.85
34.4583	500.40
34.4727	538.86
34.4871	519.59
34.5016	484.24
34.5160	479.49
34.5305	501.41
34.5449	507.11
34.5593	508.21
34.5738	500.86
34.5882	502.42
34.6027	510.19
34.6171	545.87
34.6315	529.46
34.6460	474.08
34.6604	506.50
34.6749	531.36
34.6893	492.49
34.7037	481.47
34.7182	504.63
34.7326	515.03
34.7471	492.32
34.7615	515.14
34.7759	514.87
34.7904	539.68
34.8048	520.71
34.8193	514.57
34.8337	519.95
34.8481	501.96
34.8626	510.73
34.8770	505.27
34.8915	515.42
34.9059	504.35
34.9203	486.38
34.9348	475.45
34.9492	491.28
34.9637	490.08
34.9781	497.62
34.9925	525.82
35.0070	493.03
35.0214	490.38
35.0359	511.32
35.0503	534.29
35.0647	549.33
35.0792	504.20
35.0936	510.64
35.1081	544.74
35.1225	547.53
35.1369	512.70
35.1514	491.99
35.1658	510.56
35.1803	492.73
35.1947	470.32
35.2091	514.42
35.2236	498.59
35.2380	528.51
35.2525	508.15
35.2669	502.25
35.2813	526.08
35.2958	508.33
35.3102	497.54
35.3247	499.54
35.3391	497.95
35.3535	478.25
35.3680	486.91
35.3824	492.95
35.3969	465.81
35.4113	484.66
35.4257	542.08
35.4402	541.74
35.4546	506.22
35.4691	525.13
35.4835	538.08
35.4979	545.03
35.5124	562.37
35.5268	543.77
35.5413	573.66
35.5557	540.16
35.5701	538.33
35.5846	514.05
35.5990	532.60
35.6135	525.27
35.6279	525.03
35.6423	525.22
35.6568	527.76
35.6712	544.06
35.6857	561.39
35.7001	633.60
35.7145	705.22
35.7290	638.23
35.7434	586.90
35.7579	544.66
35.7723	570.37
35.7867	620.27
35.8012	667.82
35.8156	639.74
35.8301	616.36
35.8445	613.01
35.8589	620.93
35.8734	732.10
35.8878	800.17
35.9023	989.81
35.9167	1080.89
35.9311	1401.95
35.9456	2152.96
35.9600	2393.31
35.9745	1848.09
35.9889	1820.88
36.0033	2208.84
36.0178	2288.23
36.0322	2017.44
36.0467	1836.40
36.0611	1607.85
36.0755	1604.30
36.0900	1545.12
36.1044	1340.08
36.1189	1310.58
36.1333	1181.41
36.1477	1041.76
36.1622	1060.95
36.1766	1069.88
36.1911	954.38
36.2055	905.67
36.2199	851.09
36.2344	813.89
36.2488	835.36
36.2633	901.82
36.2777	957.92
36.2921	968.51
36.3066	977.63
36.3210	1022.20
36.3355	1042.95
36.3499	1060.20
36.3643	1036.96
36.3788	968.05
36.3932	900.35
36.4077	852.73
36.4221	839.31
36.4365	822.66
36.4510	791.89
36.4654	762.83
36.4799	709.17
36.4943	699.27
36.5087	623.65
36.5232	591.00
36.5376	568.18
36.5521	579.69
36.5665	592.13
36.5809	602.90
36.5954	568.85
36.6098	613.41
36.6243	560.80
36.6387	551.19
36.6531	546.73
36.6676	539.55
36.6820	544.87
36.6965	530.90
36.7109	558.91
36.7253	560.11
36.7398	543.58
36.7542	525.07
36.7687	557.64
36.7831	567.53
36.7975	584.22
36.8120	556.20
36.8264	538.60
36.8409	610.21
36.8553	600.94
36.8697	588.67
36.8842	571.71
36.8986	612.97
36.9131	631.20
36.9275	592.38
36.9419	558.92
36.9564	553.36
36.9708	576.40
36.9853	568.79
36.9997	601.05
37.0141	526.08
37.0286	551.95
37.0430	574.51
37.0575	539.10
37.0719	525.77
37.0863	511.63
37.1008	498.51
37.1152	517.89
37.1297	525.72
37.1441	486.59
37.1585	480.62
37.1730	510.89
37.1874	496.72
37.2019	497.49
37.2163	546.75
37.2307	529.35
37.2452	529.83
37.2596	515.46
37.2741	496.70
37.2885	484.29
37.3029	482.70
37.3174	466.46
37.3318	500.38
37.3463	486.49
37.3607	528.92
37.3751	536.62
37.3896	478.17
37.4040	495.49
37.4185	511.41
37.4329	512.31
37.4473	493.41
37.4618	492.78
37.4762	493.49
37.4907	534.68
37.5051	481.21
37.5195	485.20
37.5340	497.55
37.5484	518.02
37.5629	521.53
37.5773	471.46
37.5917	523.00
37.6062	510.07
37.6206	489.09
37.6351	511.75
37.6495	501.44
37.6639	491.81
37.6784	484.53
37.6928	502.70
37.7073	505.79
37.7217	504.01
37.7361	482.47
37.7506	485.09
37.7650	482.49
37.7795	492.32
37.7939	510.03
37.8083	510.62
37.8228	519.14
37.8372	523.68
37.8517	484.57
37.8661	503.69
37.8805	528.78
37.8950	510.83
37.9094	537.91
37.9239	509.56
37.9383	554.96
37.9528	519.54
37.9672	509.30
37.9816	500.89
37.9961	486.94
38.0105	494.81
38.0250	513.13
38.0394	542.56
38.0538	520.63
38.0683	539.45
38.0827	516.30
38.0972	514.01
38.1116	508.91
38.1260	497.97
38.1405	520.81
38.1549	506.77
38.1694	533.07
38.1838	540.92
38.1982	509.07
38.2127	496.05
38.2271	492.67
38.2416	501.97
38.2560	509.93
38.2704	478.43
38.2849	505.17
38.2993	507.42
38.3138	530.99
38.3282	541.12
38.3426	504.84
38.3571	508.27
38.3715	492.95
38.3860	564.41
38.4004	558.74
38.4148	558.97
38.4293	566.53
38.4437	590.84
38.4582	581.63
38.4726	666.60
38.4870	755.80
38.5015	781.57
38.5159	747.58
38.5304	795.39
38.5448	818.00
38.5592	803.22
38.5737	772.61
38.5881	755.42
38.6026	712.66
38.6170	732.33
38.6314	729.55
38.6459	689.92
38.6603	647.12
38.6748	589.55
38.6892	566.56
38.7036	533.77
38.7181	536.54
38.7325	505.45
38.7470	526.40
38.7614	484.81
38.7758	499.59
38.7903	516.67
38.8047	547.26
38.8192	507.49
38.8336	499.86
38.8480	539.93
38.8625	534.81
38.8769	503.82
38.8914	495.04
38.9058	523.11
38.9202	538.56
38.9347	520.73
38.9491	517.85
38.9636	508.83
38.9780	505.65
38.9924	502.07
39.0069	515.47
39.0213	505.42
39.0358	484.91
39.0502	474.25
39.0646	481.41
39.0791	504.08
39.0935	511.62
39.1080	509.09
39.1224	516.57
39.1368	478.04
39.1513	445.90
39.1657	478.26
39.1802	502.77
39.1946	490.07
39.2090	495.19
39.2235	498.27
39.2379	502.45
39.2524	544.19
39.2668	526.98
39.2812	502.85
39.2957	495.96
39.3101	490.78
39.3246	501.49
39.3390	523.73
39.3534	497.76
39.3679	502.56
39.3823	517.14
39.3968	502.76
39.4112	476.86
39.4256	496.40
39.4401	491.15
39.4545	516.75
39.4690	504.92
39.4834	481.78
39.4978	486.40
39.5123	510.27
39.5267	516.92
39.5412	478.46
39.5556	490.85
39.5700	513.10
39.5845	482.17
39.5989	475.26
39.6134	488.15
39.6278	500.21
39.6422	479.64
39.6567	499.88
39.6711	504.64
39.6856	480.86
39.7000	486.07
39.7144	503.59
39.7289	489.15
39.7433	508.64
39.7578	484.78
39.7722	472.26
39.7866	498.35
39.8011	508.77
39.8155	519.88
39.8300	525.36
39.8444	522.95
39.8588	522.18
39.8733	512.74
39.8877	493.20
39.9022	527.01
39.9166	480.12
39.9310	500.93
39.9455	510.26
39.9599	460.54
39.9744	480.29
39.9888	524.16
40.0032	483.51
40.0177	493.47
40.0321	487.65
40.0466	488.56
40.0610	501.88
40.0754	491.65
40.0899	520.24
40.1043	490.02
40.1188	506.40
40.1332	512.45
40.1476	473.01
40.1621	515.77
40.1765	509.56
40.1910	506.53
40.2054	510.17
40.2198	512.61
40.2343	482.23
40.2487	509.10
40.2632	503.15
40.2776	469.92
40.2920	508.39
40.3065	513.05
40.3209	513.78
40.3354	507.10
40.3498	493.81
40.3642	515.83
40.3787	511.02
40.3931	499.86
40.4076	471.86
40.4220	507.03
40.4364	511.60
40.4509	487.96
40.4653	531.77
40.4798	492.47
40.4942	509.11
40.5086	490.23
40.5231	469.55
40.5375	506.38
40.5520	499.74
40.5664	511.99
40.5808	474.95
40.5953	526.39
40.6097	507.38
40.6242	502.72
40.6386	509.72
40.6530	528.30
40.6675	523.89
40.6819	471.06
40.6964	494.59
40.7108	507.33
40.7252	514.65
40.7397	494.30
40.7541	502.44
40.7686	469.93
40.7830	516.91
40.7974	479.61
40.8119	506.75
40.8263	499.81
40.8408	511.44
40.8552	509.61
40.8696	482.58
40.8841	496.86
40.8985	473.91
40.9130	479.82
40.9274	477.99
40.9418	489.36
40.9563	480.35
40.9707	498.62
40.9852	504.46
40.9996	480.68
41.0140	502.04
41.0285	505.07
41.0429	488.46
41.0574	518.09
41.0718	495.65
41.0862	516.12
41.1007	504.47
41.1151	514.51
41.1296	474.93
41.1440	498.40
41.1584	492.66
41.1729	468.68
41.1873	499.68
41.2018	453.06
41.2162	488.18
41.2306	525.87
41.2451	505.31
41.2595	510.52
41.2740	497.64
41.2884	493.67
41.3028	547.21
41.3173	496.24
41.3317	522.69
41.3462	524.05
41.3606	508.53
41.3750	469.73
41.3895	494.37
41.4039	472.09
41.4184	488.85
41.4328	502.11
41.4472	523.88
41.4617	530.48
41.4761	522.33
41.4906	474.38
41.5050	491.07
41.5194	500.75
41.5339	496.72
41.5483	499.38
41.5628	488.69
41.5772	486.79
41.5916	518.88
41.6061	472.60
41.6205	507.65
41.6350	521.61
41.6494	540.25
41.6639	532.57
41.6783	467.60
41.6927	453.42
41.7072	515.01
41.7216	520.11
41.7361	523.86
41.7505	490.91
41.7649	459.34
41.7794	478.06
41.7938	494.91
41.8083	504.24
41.8227	513.27
41.8371	500.75
41.8516	523.82
41.8660	502.79
41.8805	509.65
41.8949	541.95
41.9093	559.71
41.9238	552.15
41.9382	583.57
41.9527	580.51
41.9671	590.47
41.9815	567.75
41.9960	565.90
42.0104	537.73
42.0249	591.35
42.0393	566.69
42.0537	570.58
42.0682	545.51
42.0826	540.25
42.0971	550.55
42.1115	542.76
42.1259	563.62
42.1404	553.98
42.1548	619.11
42.1693	638.46
42.1837	700.09
42.1981	756.62
42.2126	866.20
42.2270	931.08
42.2415	1060.62
42.2559	1106.57
42.2703	1220.75
42.2848	1398.98
42.2992	1531.50
42.3137	1643.26
42.3281	1582.46
42.3425	1490.72
42.3570	1422.17
42.3714	1397.22
42.3859	1276.14
42.4003	1276.82
42.4147	1273.29
42.4292	1219.13
42.4436	1101.20
42.4581	1016.93
42.4725	948.30
42.4869	831.85
42.5014	733.72
42.5158	691.45
42.5303	671.88
42.5447	629.14
42.5591	631.55
42.5736	593.15
42.5880	589.18
42.6025	597.02
42.6169	543.04
42.6313	552.84
42.6458	556.50
42.6602	540.34
42.6747	514.70
42.6891	518.69
42.7035	520.80
42.7180	542.54
42.7324	518.51
42.7469	541.95
42.7613	537.81
42.7757	549.41
42.7902	533.15
42.8046	494.96
42.8191	516.03
42.8335	524.59
42.8479	513.75
42.8624	522.41
42.8768	493.82
42.8913	499.81
42.9057	543.61
42.9201	496.51
42.9346	519.33
42.9490	520.38
42.9635	504.80
42.9779	533.52
42.9923	536.14
43.0068	526.30
43.0212	521.06
43.0357	503.75
43.0501	502.78
43.0645	509.19
43.0790	498.57
43.0934	513.11
43.1079	502.31
43.1223	503.40
43.1367	511.80
43.1512	518.46
43.1656	513.97
43.1801	522.13
43.1945	542.36
43.2089	509.57
43.2234	527.19
43.2378	522.83
43.2523	522.57
43.2667	487.91
43.2811	541.71
43.2956	509.47
43.3100	502.42
43.3245	515.80
43.3389	529.49
43.3533	523.21
43.3678	542.93
43.3822	543.77
43.3967	510.26
43.4111	495.78
43.4255	521.49
43.4400	540.58
43.4544	503.59
43.4689	527.76
43.4833	504.00
43.4977	473.93
43.5122	478.94
43.5266	490.56
43.5411	506.13
43.5555	525.24
43.5699	516.24
43.5844	485.84
43.5988	502.84
43.6133	529.23
43.6277	525.17
43.6421	535.97
43.6566	521.61
43.6710	543.03
43.6855	540.86
43.6999	506.14
43.7143	510.22
43.7288	508.59
43.7432	518.50
43.7577	522.17
43.7721	552.85
43.7865	563.92
43.8010	555.57
43.8154	523.12
43.8299	504.86
43.8443	536.93
43.8587	523.75
43.8732	519.47
43.8876	512.41
43.9021	536.99
43.9165	519.44
43.9309	526.17
43.9454	570.21
43.9598	524.28
43.9743	519.92
43.9887	525.12
44.0031	512.91
44.0176	544.52
44.0320	545.83
44.0465	568.85
44.0609	576.90
44.0753	559.63
44.0898	595.67
44.1042	593.76
44.1187	618.28
44.1331	662.19
44.1475	610.32
44.1620	652.93
44.1764	595.21
44.1909	607.31
44.2053	634.95
44.2197	605.50
44.2342	595.54
44.2486	618.06
44.2631	630.75
44.2775	644.17
44.2919	573.44
44.3064	599.81
44.3208	593.16
44.3353	610.45
44.3497	567.80
44.3641	569.38
44.3786	568.72
44.3930	561.25
44.4075	576.90
44.4219	571.31
44.4363	600.67
44.4508	592.05
44.4652	561.71
44.4797	564.11
44.4941	599.87
44.5085	585.54
44.5230	578.69
44.5374	565.02
44.5519	566.72
44.5663	579.69
44.5807	526.57
44.5952	570.39
44.6096	576.50
44.6241	579.76
44.6385	556.45
44.6529	586.75
44.6674	599.49
44.6818	624.70
44.6963	598.60
44.7107	666.37
44.7251	706.92
44.7396	768.14
44.7540	812.53
44.7685	824.81
44.7829	878.43
44.7973	870.19
44.8118	873.78
44.8262	826.19
44.8407	747.02
44.8551	715.77
44.8695	695.57
44.8840	728.93
44.8984	734.29
44.9129	732.62
44.9273	674.81
44.9417	644.01
44.9562	593.39
44.9706	561.49
44.9851	551.54
44.9995	561.89
45.0139	557.33
45.0284	535.79
45.0428	528.23
45.0573	524.39
45.0717	503.87
45.0861	526.17
45.1006	501.84
45.1150	513.69
45.1295	517.16
45.1439	506.84
45.1583	478.41
45.1728	494.97
45.1872	510.76
45.2017	499.52
45.2161	497.93
45.2305	483.36
45.2450	526.07
45.2594	495.50
45.2739	534.27
45.2883	499.59
45.3028	504.50
45.3172	527.10
45.3316	581.40
45.3461	537.82
45.3605	489.00
45.3750	514.03
45.3894	503.91
45.4038	534.06
45.4183	508.39
45.4327	524.68
45.4472	473.37
45.4616	483.50
45.4760	521.69
45.4905	521.04
45.5049	508.70
45.5194	464.58
45.5338	503.95
45.5482	487.24
45.5627	496.09
45.5771	479.98
45.5916	492.94
45.6060	504.42
45.6204	532.64
45.6349	544.07
45.6493	506.78
45.6638	504.84
45.6782	492.34
45.6926	491.68
45.7071	522.61
45.7215	479.92
45.7360	515.01
45.7504	563.13
45.7648	522.01
45.7793	477.50
45.7937	503.70
45.8082	505.22
45.8226	521.17
45.8370	500.37
45.8515	480.96
45.8659	480.48
45.8804	525.56
45.8948	503.72
45.9092	489.65
45.9237	494.59
45.9381	517.61
45.9526	509.94
45.9670	473.99
45.9814	500.75
45.9959	503.50
46.0103	497.70
46.0248	498.74
46.0392	489.47
46.0536	479.49
46.0681	470.13
46.0825	500.00
46.0970	506.05
46.1114	489.48
46.1258	497.68
46.1403	481.75
46.1547	470.50
46.1692	509.38
46.1836	497.48
46.1980	446.59
46.2125	504.87
46.2269	512.57
46.2414	502.95
46.2558	488.02
46.2702	467.53
46.2847	487.41
46.2991	479.94
46.3136	467.84
46.3280	489.62
46.3424	499.65
46.3569	501.43
46.3713	500.07
46.3858	495.82
46.4002	497.89
46.4146	487.89
46.4291	518.57
46.4435	493.98
46.4580	507.83
46.4724	499.86
46.4868	524.45
46.5013	517.53
46.5157	500.18
46.5302	475.42
46.5446	490.14
46.5590	519.50
46.5735	476.14
46.5879	496.57
46.6024	510.74
46.6168	488.98
46.6312	493.72
46.6457	496.51
46.6601	506.71
46.6746	480.44
46.6890	489.68
46.7034	500.56
46.7179	469.20
46.7323	494.91
46.7468	516.95
46.7612	510.01
46.7756	521.14
46.7901	520.83
46.8045	501.84
46.8190	500.93
46.8334	504.27
46.8478	538.10
46.8623	500.72
46.8767	523.31
46.8912	481.08
46.9056	499.24
46.9200	527.84
46.9345	504.22
46.9489	535.69
46.9634	521.81
46.9778	535.47
46.9922	514.97
47.0067	535.55
47.0211	534.30
47.0356	528.72
47.0500	529.24
47.0644	512.26
47.0789	473.88
47.0933	512.82
47.1078	483.48
47.1222	563.42
47.1366	516.77
47.1511	505.84
47.1655	493.10
47.1800	497.35
47.1944	508.32
47.2088	499.34
47.2233	524.70
47.2377	504.17
47.2522	506.60
47.2666	518.35
47.2810	518.90
47.2955	493.27
47.3099	520.03
47.3244	515.05
47.3388	484.91
47.3532	491.13
47.3677	491.82
47.3821	508.96
47.3966	535.21
47.4110	520.04
47.4254	535.51
47.4399	502.03
47.4543	516.43
47.4688	482.65
47.4832	473.07
47.4976	490.22
47.5121	507.74
47.5265	476.88
47.5410	491.89
47.5554	498.75
47.5698	492.85
47.5843	505.44
47.5987	502.43
47.6132	511.51
47.6276	518.58
47.6420	513.72
47.6565	515.31
47.6709	511.97
47.6854	493.48
47.6998	485.78
47.7142	508.16
47.7287	491.56
47.7431	513.77
47.7576	516.53
47.7720	494.40
47.7864	499.02
47.8009	522.21
47.8153	541.00
47.8298	529.99
47.8442	512.23
47.8586	488.50
47.8731	515.51
47.8875	499.28
47.9020	530.62
47.9164	487.71
47.9308	461.89
47.9453	463.68
47.9597	492.34
47.9742	507.44
47.9886	511.04
48.0030	484.33
48.0175	525.77
48.0319	477.08
48.0464	505.89
48.0608	519.37
48.0752	494.53
48.0897	498.23
48.1041	487.10
48.1186	495.90
48.1330	483.83
48.1474	491.66
48.1619	486.86
48.1763	497.66
48.1908	542.95
48.2052	508.47
48.2196	527.73
48.2341	509.07
48.2485	506.57
48.2630	480.33
48.2774	509.76
48.2918	512.34
48.3063	477.36
48.3207	508.28
48.3352	506.38
48.3496	516.85
48.3640	539.75
48.3785	502.60
48.3929	496.62
48.4074	464.23
48.4218	478.34
48.4362	508.61
48.4507	528.54
48.4651	539.50
48.4796	549.25
48.4940	508.65
48.5084	486.57
48.5229	498.11
48.5373	513.02
48.5518	521.21
48.5662	501.30
48.5806	495.90
48.5951	511.24
48.6095	499.13
48.6240	523.07
48.6384	564.62
48.6528	502.07
48.6673	516.13
48.6817	508.74
48.6962	501.93
48.7106	587.57
48.7250	526.35
48.7395	528.59
48.7539	510.93
48.7684	537.24
48.7828	536.23
48.7972	532.65
48.8117	523.94
48.8261	525.77
48.8406	524.50
48.8550	564.08
48.8694	532.87
48.8839	501.87
48.8983	563.54
48.9128	559.95
48.9272	549.40
48.9416	549.32
48.9561	550.39
48.9705	593.41
48.9850	587.49
48.9994	613.78
49.0139	561.85
49.0283	561.79
49.0427	626.71
49.0572	608.84
49.0716	614.03
49.0861	672.17
49.1005	649.48
49.1149	689.43
49.1294	720.70
49.1438	700.65
49.1583	772.02
49.1727	849.50
49.1871	880.04
49.2016	955.93
49.2160	1009.68
49.2305	1111.91
49.2449	1188.82
49.2593	1227.82
49.2738	1275.06
49.2882	1365.15
49.3027	1505.03
49.3171	1644.87
49.3315	1691.80
49.3460	1626.65
49.3604	1719.70
49.3749	1702.51
49.3893	1697.06
49.4037	1708.73
49.4182	1685.07
49.4326	1677.19
49.4471	1638.85
49.4615	1594.31
49.4759	1518.36
49.4904	1426.38
49.5048	1406.45
49.5193	1331.09
49.5337	1296.04
49.5481	1163.07
49.5626	1084.32
49.5770	1119.59
49.5915	986.55
49.6059	929.50
49.6203	828.66
49.6348	821.01
49.6492	759.66
49.6637	730.60
49.6781	703.90
49.6925	677.31
49.7070	677.09
49.7214	662.82
49.7359	644.15
49.7503	632.00
49.7647	612.61
49.7792	586.92
49.7936	578.65
49.8081	585.60
49.8225	572.59
49.8369	588.06
49.8514	594.21
49.8658	546.07
49.8803	574.58
49.8947	557.38
49.9091	529.80
49.9236	552.69
49.9380	560.52
49.9525	536.41
49.9669	564.87
49.9813	550.70
49.9958	544.10
50.0102	524.19
50.0247	526.00
50.0391	540.10
50.0535	520.45
50.0680	515.40
50.0824	512.98
50.0969	537.10
50.1113	541.70
50.1257	551.45
50.1402	514.86
50.1546	515.20
50.1691	505.25
50.1835	518.90
50.1979	490.34
50.2124	513.33
50.2268	516.81
50.2413	533.49
50.2557	529.08
50.2701	517.47
50.2846	513.09
50.2990	485.06
50.3135	515.76
50.3279	499.30
50.3423	526.79
50.3568	544.59
50.3712	499.96
50.3857	479.90
50.4001	494.75
50.4145	496.68
50.4290	515.13
50.4434	506.60
50.4579	517.82
50.4723	517.89
50.4867	521.15
50.5012	483.33
50.5156	499.33
50.5301	508.93
50.5445	510.85
50.5589	497.10
50.5734	520.05
50.5878	505.46
50.6023	550.27
50.6167	529.50
50.6311	529.13
50.6456	523.24
50.6600	521.79
50.6745	511.33
50.6889	505.29
50.7033	527.99
50.7178	496.50
50.7322	500.58
50.7467	533.86
50.7611	532.10
50.7755	517.32
50.7900	511.95
50.8044	522.49
50.8189	497.82
50.8333	512.63
50.8477	526.20
50.8622	522.21
50.8766	542.93
50.8911	522.01
50.9055	500.46
50.9199	521.60
50.9344	542.92
50.9488	519.17
50.9633	506.55
50.9777	521.50
50.9921	500.77
51.0066	476.16
51.0210	501.75
51.0355	520.48
51.0499	518.80
51.0643	501.30
51.0788	502.87
51.0932	502.74
51.1077	531.14
51.1221	519.15
51.1365	503.56
51.1510	500.64
51.1654	508.94
51.1799	486.50
51.1943	472.53
51.2087	496.49
51.2232	498.61
51.2376	479.44
51.2521	510.04
51.2665	499.25
51.2809	499.45
51.2954	486.34
51.3098	510.90
51.3243	483.72
51.3387	492.72
51.3531	501.04
51.3676	516.99
51.3820	486.97
51.3965	467.92
51.4109	496.33
51.4253	525.80
51.4398	500.21
51.4542	509.89
51.4687	524.73
51.4831	526.80
51.4975	516.48
51.5120	490.04
51.5264	498.54
51.5409	524.53
51.5553	532.14
51.5697	492.01
51.5842	508.73
51.5986	489.68
51.6131	494.04
51.6275	511.02
51.6419	530.22
51.6564	526.39
51.6708	542.25
51.6853	487.40
51.6997	490.34
51.7141	519.03
51.7286	531.02
51.7430	517.43
51.7575	514.43
51.7719	504.59
51.7863	508.98
51.8008	525.02
51.8152	533.64
51.8297	534.45
51.8441	500.61
51.8585	539.99
51.8730	520.10
51.8874	507.17
51.9019	504.08
51.9163	485.69
51.9307	496.34
51.9452	515.07
51.9596	513.19
51.9741	562.43
51.9885	499.77
52.0029	499.96
52.0174	527.55
52.0318	550.62
52.0463	548.29
52.0607	521.45
52.0751	499.46
52.0896	516.20
52.1040	499.46
52.1185	476.56
52.1329	477.99
52.1473	481.40
52.1618	494.73
52.1762	485.79
52.1907	467.18
52.2051	521.92
52.2195	533.70
52.2340	503.06
52.2484	498.52
52.2629	503.46
52.2773	523.06
52.2917	524.25
52.3062	524.80
52.3206	521.46
52.3351	535.64
52.3495	517.29
52.3639	498.29
52.3784	524.24
52.3928	494.42
52.4073	495.71
52.4217	484.76
52.4361	541.21
52.4506	519.28
52.4650	513.62
52.4795	543.49
52.4939	506.73
52.5083	515.73
52.5228	513.88
52.5372	512.56
52.5517	522.09
52.5661	528.79
52.5805	532.07
52.5950	544.70
52.6094	474.04
52.6239	517.50
52.6383	548.37
52.6527	510.59
52.6672	520.91
52.6816	521.46
52.6961	518.25
52.7105	526.50
52.7250	496.51
52.7394	492.06
52.7538	504.34
52.7683	518.56
52.7827	528.85
52.7972	502.83
52.8116	495.81
52.8260	486.82
52.8405	488.83
52.8549	547.40
52.8694	558.37
52.8838	527.12
52.8982	552.28
52.9127	517.58
52.9271	544.74
52.9416	529.62
52.9560	519.73
52.9704	509.52
52.9849	499.28
52.9993	478.37
53.0138	516.40
53.0282	532.34
53.0426	509.04
53.0571	520.80
53.0715	506.78
53.0860	545.74
53.1004	525.91
53.1148	483.48
53.1293	474.80
53.1437	512.16
53.1582	488.95
53.1726	497.97
53.1870	507.88
53.2015	519.71
53.2159	537.67
53.2304	528.01
53.2448	516.38
53.2592	544.26
53.2737	546.55
53.2881	478.16
53.3026	491.75
53.3170	518.10
53.3314	495.82
53.3459	482.32
53.3603	505.11
53.3748	520.26
53.3892	496.30
53.4036	497.17
53.4181	498.13
53.4325	555.49
53.4470	518.55
53.4614	515.98
53.4758	508.73
53.4903	539.95
53.5047	522.34
53.5192	521.87
53.5336	567.05
53.5480	539.73
53.5625	504.08
53.5769	495.38
53.5914	475.67
53.6058	507.42
53.6202	519.17
53.6347	551.60
53.6491	524.76
53.6636	516.07
53.6780	498.75
53.6924	518.69
53.7069	526.58
53.7213	504.42
53.7358	505.44
53.7502	511.81
53.7646	518.72
53.7791	526.26
53.7935	549.86
53.8080	526.96
53.8224	492.65
53.8368	553.96
53.8513	530.63
53.8657	495.14
53.8802	494.91
53.8946	495.52
53.9090	526.16
53.9235	511.29
53.9379	523.42
53.9524	535.34
53.9668	509.49
53.9812	483.06
53.9957	491.74
54.0101	532.44
54.0246	536.50
54.0390	525.25
54.0534	475.05
54.0679	520.29
54.0823	525.74
54.0968	505.21
54.1112	534.18
54.1256	550.37
54.1401	524.68
54.1545	512.78
54.1690	538.05
54.1834	522.44
54.1978	511.44
54.2123	510.24
54.2267	510.71
54.2412	492.41
54.2556	509.65
54.2700	510.08
54.2845	492.88
54.2989	522.42
54.3134	546.18
54.3278	567.03
54.3422	553.29
54.3567	521.28
54.3711	529.88
54.3856	510.09
54.4000	509.50
54.4144	538.54
54.4289	537.72
54.4433	512.24
54.4578	508.18
54.4722	539.39
54.4866	537.40
54.5011	489.13
54.5155	506.19
54.5300	525.44
54.5444	518.99
54.5588	563.19
54.5733	542.74
54.5877	535.11
54.6022	522.60
54.6166	543.46
54.6310	544.56
54.6455	564.61
54.6599	551.64
54.6744	521.97
54.6888	532.95
54.7032	580.89
54.7177	585.27
54.7321	566.07
54.7466	601.78
54.7610	554.30
54.7754	550.41
54.7899	608.43
54.8043	600.85
54.8188	605.89
54.8332	592.47
54.8476	583.72
54.8621	610.08
54.8765	582.23
54.8910	579.17
54.9054	580.95
54.9198	538.55
54.9343	541.92
54.9487	583.01
54.9632	561.65
54.9776	556.28
54.9920	571.72
55.0065	609.33
55.0209	600.66
55.0354	575.41
55.0498	552.67
55.0642	547.98
55.0787	545.46
55.0931	548.46
55.1076	518.31
55.1220	518.84
55.1364	523.88
55.1509	509.68
55.1653	542.67
55.1798	560.43
55.1942	544.07
55.2086	545.76
55.2231	517.47
55.2375	496.52
55.2520	523.07
55.2664	552.01
55.2808	547.27
55.2953	525.35
55.3097	550.40
55.3242	553.34
55.3386	532.28
55.3530	536.40
55.3675	514.43
55.3819	537.25
55.3964	541.55
55.4108	516.25
55.4252	517.70
55.4397	493.38
55.4541	509.99
55.4686	540.82
55.4830	550.43
55.4974	513.47
55.5119	527.99
55.5263	555.94
55.5408	512.09
55.5552	503.09
55.5696	523.86
55.5841	551.89
55.5985	562.92
55.6130	524.61
55.6274	503.63
55.6418	524.58
55.6563	535.91
55.6707	506.94
55.6852	535.34
55.6996	562.99
55.7140	571.68
55.7285	525.08
55.7429	553.53
55.7574	556.81
55.7718	568.03
55.7862	507.52
55.8007	520.94
55.8151	524.22
55.8296	533.72
55.8440	531.82
55.8584	565.83
55.8729	520.16
55.8873	503.11
55.9018	519.94
55.9162	518.80
55.9306	512.00
55.9451	524.92
55.9595	537.40
55.9740	523.20
55.9884	519.63
56.0028	523.19
56.0173	524.04
56.0317	500.39
56.0462	499.86
56.0606	513.96
56.0750	528.24
56.0895	518.97
56.1039	501.13
56.1184	568.12
56.1328	513.55
56.1472	491.81
56.1617	548.83
56.1761	531.76
56.1906	515.01
56.2050	521.62
56.2194	505.32
56.2339	502.71
56.2483	509.34
56.2628	521.79
56.2772	546.78
56.2916	530.09
56.3061	513.50
56.3205	525.56
56.3350	561.83
56.3494	525.85
56.3639	501.75
56.3783	524.01
56.3927	523.48
56.4072	508.09
56.4216	522.93
56.4361	548.90
56.4505	508.11
56.4649	518.20
56.4794	512.01
56.4938	504.10
56.5083	501.49
56.5227	512.15
56.5371	526.77
56.5516	517.34
56.5660	526.21
56.5805	536.13
56.5949	528.94
56.6093	496.74
56.6238	501.70
56.6382	541.27
56.6527	527.47
56.6671	516.79
56.6815	472.71
56.6960	497.53
56.7104	497.52
56.7249	513.05
56.7393	548.57
56.7537	510.09
56.7682	514.29
56.7826	546.26
56.7971	532.62
56.8115	528.96
56.8259	525.87
56.8404	534.53
56.8548	524.76
56.8693	535.15
56.8837	526.89
56.8981	499.48
56.9126	501.58
56.9270	548.51
56.9415	540.56
56.9559	521.58
56.9703	501.05
56.9848	541.57
56.9992	550.94
57.0137	511.55
57.0281	549.19
57.0425	543.81
57.0570	529.50
57.0714	553.12
57.0859	533.35
57.1003	496.72
57.1147	542.53
57.1292	571.67
57.1436	522.00
57.1581	502.48
57.1725	532.93
57.1869	514.03
57.2014	508.80
57.2158	552.66
57.2303	508.38
57.2447	534.07
57.2591	513.45
57.2736	501.76
57.2880	536.15
57.3025	545.97
57.3169	527.81
57.3313	502.19
57.3458	506.56
57.3602	528.60
57.3747	517.15
57.3891	516.17
57.4035	549.45
57.4180	506.26
57.4324	521.95
57.4469	518.92
57.4613	554.48
57.4757	567.31
57.4902	518.66
57.5046	547.70
57.5191	541.80
57.5335	533.57
57.5479	526.96
57.5624	514.25
57.5768	521.08
57.5913	534.77
57.6057	549.09
57.6201	552.44
57.6346	549.89
57.6490	540.34
57.6635	545.57
57.6779	515.33
57.6923	526.18
57.7068	573.99
57.7212	544.69
57.7357	556.06
57.7501	547.29
57.7645	513.35
57.7790	533.58
57.7934	529.50
57.8079	495.00
57.8223	539.32
57.8367	514.03
57.8512	511.24
57.8656	539.30
57.8801	546.18
57.8945	532.42
57.9089	504.22
57.9234	528.13
57.9378	546.98
57.9523	524.64
57.9667	565.67
57.9811	597.07
57.9956	549.85
58.0100	547.84
58.0245	571.49
58.0389	524.43
58.0533	541.52
58.0678	556.04
58.0822	567.60
58.0967	580.08
58.1111	540.85
58.1255	578.90
58.1400	554.40
58.1544	544.82
58.1689	585.88
58.1833	546.07
58.1977	583.20
58.2122	545.41
58.2266	583.62
58.2411	622.85
58.2555	593.83
58.2699	554.07
58.2844	563.26
58.2988	581.13
58.3133	607.63
58.3277	636.89
58.3421	633.08
58.3566	623.48
58.3710	633.37
58.3855	633.80
58.3999	673.22
58.4143	637.64
58.4288	666.17
58.4432	644.05
58.4577	679.57
58.4721	664.50
58.4865	649.22
58.5010	649.29
58.5154	636.62
58.5299	611.64
58.5443	652.32
58.5587	611.92
58.5732	615.88
58.5876	602.72
58.6021	593.37
58.6165	608.11
58.6309	615.33
58.6454	589.59
58.6598	575.38
58.6743	575.96
58.6887	601.64
58.7031	605.80
58.7176	597.14
58.7320	572.64
58.7465	573.10
58.7609	540.60
58.7753	539.73
58.7898	547.99
58.8042	560.19
58.8187	552.66
58.8331	542.25
58.8475	566.31
58.8620	573.86
58.8764	557.98
58.8909	545.55
58.9053	562.50
58.9197	540.07
58.9342	535.53
58.9486	533.68
58.9631	537.52
58.9775	568.44
58.9919	550.22
59.0064	512.90
59.0208	525.16
59.0353	526.38
59.0497	541.34
59.0641	557.74
59.0786	562.15
59.0930	589.26
59.1075	571.74
59.1219	545.82
59.1363	531.57
59.1508	537.11
59.1652	595.77
59.1797	567.15
59.1941	519.60
59.2085	522.72
59.2230	530.00
59.2374	558.84
59.2519	526.56
59.2663	523.69
59.2807	551.17
59.2952	577.60
59.3096	562.72
59.3241	593.97
59.3385	604.67
59.3529	598.62
59.3674	580.41
59.3818	556.18
59.3963	539.98
59.4107	558.13
59.4251	592.80
59.4396	537.75
59.4540	536.14
59.4685	577.40
59.4829	612.24
59.4973	558.34
59.5118	560.72
59.5262	534.29
59.5407	515.43
59.5551	540.63
59.5695	541.01
59.5840	564.71
59.5984	564.83
59.6129	534.86
59.6273	569.05
59.6417	536.27
59.6562	539.46
59.6706	527.39
59.6851	515.42
59.6995	521.49
59.7139	553.63
59.7284	530.72
59.7428	541.37
59.7573	542.66
59.7717	535.37
59.7861	507.44
59.8006	530.18
59.8150	539.08
59.8295	543.85
59.8439	554.39
59.8583	569.67
59.8728	547.23
59.8872	538.79
59.9017	551.64
59.9161	525.81
59.9305	541.62
59.9450	558.54
59.9594	533.21
59.9739	533.64
59.9883	545.94
60.0027	555.51
60.0172	548.45
60.0316	583.64
60.0461	532.27
60.0605	573.57
60.0750	539.77
60.0894	534.83
60.1038	527.66
60.1183	533.63
60.1327	562.49
60.1472	550.99
60.1616	550.94
60.1760	553.01
60.1905	553.62
60.2049	518.45
60.2194	510.48
60.2338	529.56
60.2482	559.26
60.2627	507.85
60.2771	543.07
60.2916	524.55
60.3060	565.25
60.3204	548.53
60.3349	517.29
60.3493	530.21
60.3638	531.25
60.3782	535.88
60.3926	563.65
60.4071	529.38
60.4215	561.73
60.4360	579.42
60.4504	524.69
60.4648	538.88
60.4793	566.78
60.4937	546.44
60.5082	554.21
60.5226	532.59
60.5370	524.88
60.5515	557.06
60.5659	516.03
60.5804	554.40
60.5948	566.88
60.6092	565.08
60.6237	556.04
60.6381	555.86
60.6526	509.77
60.6670	511.19
60.6814	531.38
60.6959	536.06
60.7103	523.72
60.7248	540.02
60.7392	536.55
60.7536	526.99
60.7681	549.49
60.7825	536.10
60.7970	530.29
60.8114	530.56
60.8258	536.08
60.8403	545.41
60.8547	542.98
60.8692	521.12
60.8836	519.35
60.8980	559.25
60.9125	566.18
60.9269	544.50
60.9414	556.89
60.9558	573.83
60.9702	550.57
60.9847	532.36
60.9991	556.92
61.0136	539.72
61.0280	558.53
61.0424	565.29
61.0569	470.27
61.0713	520.18
61.0858	556.28
61.1002	570.41
61.1146	552.99
61.1291	550.95
61.1435	548.41
61.1580	565.79
61.1724	555.44
61.1868	529.51
61.2013	512.24
61.2157	557.07
61.2302	542.69
61.2446	535.06
61.2590	543.78
61.2735	559.96
61.2879	528.07
61.3024	549.05
61.3168	565.55
61.3312	552.67
61.3457	520.01
61.3601	566.88
61.3746	501.72
61.3890	529.16
61.4034	537.27
61.4179	533.44
61.4323	587.88
61.4468	539.96
61.4612	552.40
61.4756	561.08
61.4901	551.06
61.5045	521.63
61.5190	556.44
61.5334	545.99
61.5478	571.37
61.5623	576.89
61.5767	580.85
61.5912	566.77
61.6056	592.73
61.6200	568.23
61.6345	562.94
61.6489	574.43
61.6634	529.40
61.6778	541.32
61.6922	546.04
61.7067	579.25
61.7211	554.93
61.7356	541.55
61.7500	540.73
61.7644	542.64
61.7789	581.18
61.7933	555.01
61.8078	566.32
61.8222	555.24
61.8366	564.41
61.8511	531.62
61.8655	586.96
61.8800	551.38
61.8944	553.26
61.9088	521.66
61.9233	543.25
61.9377	555.51
61.9522	538.48
61.9666	532.79
61.9810	530.22
61.9955	532.25
62.0099	546.94
62.0244	546.04
62.0388	550.42
62.0532	548.56
62.0677	570.77
62.0821	575.39
62.0966	568.92
62.1110	547.68
62.1254	545.78
62.1399	561.25
62.1543	555.80
62.1688	548.19
62.1832	572.65
62.1976	547.19
62.2121	538.81
62.2265	546.35
62.2410	564.99
62.2554	583.47
62.2698	563.59
62.2843	533.80
62.2987	569.33
62.3132	598.26
62.3276	522.18
62.3420	562.66
62.3565	570.15
62.3709	552.22
62.3854	552.99
62.3998	556.03
62.4142	560.66
62.4287	609.64
62.4431	600.77
62.4576	569.99
62.4720	572.74
62.4864	548.73
62.5009	565.25
62.5153	543.38
62.5298	536.35
62.5442	510.07
62.5586	532.17
62.5731	525.70
62.5875	567.88
62.6020	565.78
62.6164	565.56
62.6308	566.99
62.6453	559.83
62.6597	596.04
62.6742	565.91
62.6886	537.10
62.7030	554.01
62.7175	557.36
62.7319	505.61
62.7464	545.85
62.7608	584.40
62.7752	566.34
62.7897	534.40
62.8041	550.91
62.8186	532.31
62.8330	566.64
62.8474	580.16
62.8619	559.81
62.8763	544.31
62.8908	541.75
62.9052	592.00
62.9196	575.81
62.9341	585.20
62.9485	572.36
62.9630	566.21
62.9774	576.53
62.9918	570.04
63.0063	559.01
63.0207	587.86
63.0352	593.64
63.0496	601.99
63.0640	605.39
63.0785	561.37
63.0929	575.09
63.1074	558.31
63.1218	559.59
63.1362	587.92
63.1507	540.55
63.1651	552.42
63.1796	567.95
63.1940	570.55
63.2084	610.89
63.2229	589.29
63.2373	571.68
63.2518	589.71
63.2662	561.74
63.2806	576.05
63.2951	587.78
63.3095	582.69
63.3240	619.34
63.3384	584.87
63.3528	593.74
63.3673	603.43
63.3817	599.72
63.3962	579.11
63.4106	598.98
63.4250	572.18
63.4395	554.20
63.4539	556.91
63.4684	553.07
63.4828	588.39
63.4972	574.91
63.5117	558.80
63.5261	573.20
63.5406	611.32
63.5550	605.11
63.5694	571.80
63.5839	578.77
63.5983	570.77
63.6128	596.10
63.6272	590.58
63.6416	580.00
63.6561	574.27
63.6705	568.35
63.6850	575.52
63.6994	590.01
63.7138	604.00
63.7283	588.06
63.7427	586.04
63.7572	579.47
63.7716	598.60
63.7861	617.70
63.8005	575.19
63.8149	598.01
63.8294	646.74
63.8438	609.49
63.8583	605.45
63.8727	619.02
63.8871	600.79
63.9016	675.23
63.9160	592.98
63.9305	637.36
63.9449	621.40
63.9593	619.73
63.9738	661.94
63.9882	619.23
64.0027	626.10
64.0171	675.51
64.0315	652.00
64.0460	668.44
64.0604	655.00
64.0749	780.30
64.0893	772.78
64.1037	758.86
64.1182	760.88
64.1326	788.59
64.1471	745.47
64.1615	781.63
64.1759	759.82
64.1904	765.51
64.2048	743.59
64.2193	812.85
64.2337	817.14
64.2481	791.64
64.2626	766.05
64.2770	806.38
64.2915	767.85
64.3059	728.25
64.3203	746.10
64.3348	760.77
64.3492	770.87
64.3637	747.76
64.3781	773.12
64.3925	733.90
64.4070	727.38
64.4214	740.36
64.4359	743.27
64.4503	714.76
64.4647	739.32
64.4792	715.12
64.4936	709.09
64.5081	688.75
64.5225	667.12
64.5369	704.92
64.5514	700.71
64.5658	697.73
64.5803	681.73
64.5947	677.50
64.6091	697.94
64.6236	620.11
64.6380	667.58
64.6525	703.69
64.6669	640.81
64.6813	656.43
64.6958	684.85
64.7102	759.30
64.7247	700.44
64.7391	720.91
64.7535	735.10
64.7680	699.34
64.7824	759.67
64.7969	726.70
64.8113	770.97
64.8257	773.40
64.8402	799.13
64.8546	835.62
64.8691	907.03
64.8835	839.22
64.8979	830.68
64.9124	920.55
64.9268	881.84
64.9413	922.26
64.9557	967.95
64.9701	996.15
64.9846	1101.30
64.9990	1191.68
65.0135	1354.82
65.0279	1488.87
65.0423	1802.88
65.0568	2231.69
65.0712	2799.16
65.0857	3671.25
65.1001	4919.71
65.1145	6566.08
65.1290	8364.43
65.1434	10000.41
65.1579	11487.76
65.1723	11814.18
65.1867	11300.23
65.2012	9852.05
65.2156	8072.70
65.2301	6297.38
65.2445	5289.48
65.2589	4409.70
65.2734	4243.73
65.2878	4498.83
65.3023	5219.08
65.3167	5968.46
65.3311	6707.39
65.3456	7079.58
65.3600	6960.83
65.3745	6248.02
65.3889	5319.58
65.4033	4253.81
65.4178	3320.10
65.4322	2596.92
65.4467	2001.36
65.4611	1734.87
65.4755	1471.61
65.4900	1311.05
65.5044	1104.57
65.5189	1028.27
65.5333	989.60
65.5477	931.93
65.5622	882.47
65.5766	845.30
65.5911	831.33
65.6055	829.95
65.6199	798.37
65.6344	792.45
65.6488	730.00
65.6633	703.87
65.6777	727.07
65.6921	757.18
65.7066	757.48
65.7210	743.91
65.7355	666.69
65.7499	725.42
65.7643	674.57
65.7788	697.44
65.7932	705.51
65.8077	703.81
65.8221	660.14
65.8365	685.94
65.8510	659.36
65.8654	637.04
65.8799	610.43
65.8943	624.69
65.9087	666.96
65.9232	666.97
65.9376	609.39
65.9521	594.09
65.9665	629.75
65.9809	648.74
65.9954	638.28
66.0098	611.38
66.0243	642.80
66.0387	648.32
66.0531	647.09
66.0676	632.26
66.0820	645.16
66.0965	628.26
66.1109	634.74
66.1253	653.07
66.1398	645.37
66.1542	629.37
66.1687	638.80
66.1831	615.57
66.1975	608.73
66.2120	625.91
66.2264	615.18
66.2409	619.86
66.2553	615.98
66.2697	589.88
66.2842	619.29
66.2986	609.06
66.3131	628.95
66.3275	620.38
66.3419	604.71
66.3564	580.80
66.3708	611.74
66.3853	594.69
66.3997	560.39
66.4141	574.60
66.4286	611.73
66.4430	574.00
66.4575	574.91
66.4719	591.04
66.4863	589.26
66.5008	596.13
66.5152	606.37
66.5297	606.23
66.5441	582.48
66.5585	582.21
66.5730	594.26
66.5874	586.97
66.6019	598.24
66.6163	586.17
66.6307	592.85
66.6452	588.11
66.6596	581.58
66.6741	561.40
66.6885	530.56
66.7029	620.88
66.7174	613.85
66.7318	572.81
66.7463	624.31
66.7607	589.67
66.7751	579.83
66.7896	582.33
66.8040	569.58
66.8185	577.88
66.8329	569.12
66.8473	576.08
66.8618	583.45
66.8762	587.03
66.8907	573.60
66.9051	568.69
66.9195	600.30
66.9340	613.63
66.9484	601.53
66.9629	565.13
66.9773	568.87
66.9917	582.99
67.0062	557.56
67.0206	587.11
67.0351	614.46
67.0495	559.65
67.0639	574.33
67.0784	618.08
67.0928	628.81
67.1073	600.48
67.1217	597.73
67.1361	601.64
67.1506	565.01
67.1650	598.26
67.1795	588.71
67.1939	564.78
67.2083	571.49
67.2228	578.19
67.2372	555.43
67.2517	566.32
67.2661	566.97
67.2805	613.25
67.2950	606.95
67.3094	569.41
67.3239	568.95
67.3383	576.84
67.3527	579.87
67.3672	565.41
67.3816	544.34
67.3961	593.31
67.4105	583.78
67.4250	611.36
67.4394	554.55
67.4538	568.62
67.4683	639.21
67.4827	637.81
67.4972	584.36
67.5116	557.57
67.5260	573.79
67.5405	598.37
67.5549	577.33
67.5694	581.71
67.5838	597.36
67.5982	565.18
67.6127	571.80
67.6271	555.56
67.6416	569.97
67.6560	572.47
67.6704	568.24
67.6849	585.15
67.6993	615.27
67.7138	647.73
67.7282	581.14
67.7426	576.16
67.7571	561.55
67.7715	561.41
67.7860	554.35
67.8004	541.68
67.8148	557.12
67.8293	536.35
67.8437	559.28
67.8582	566.89
67.8726	594.60
67.8870	571.74
67.9015	612.72
67.9159	610.22
67.9304	598.61
67.9448	588.59
67.9592	561.08
67.9737	559.61
67.9881	624.50
68.0026	594.16
68.0170	593.54
68.0314	574.76
68.0459	558.61
68.0603	584.58
68.0748	609.53
68.0892	592.30
68.1036	586.87
68.1181	571.53
68.1325	595.33
68.1470	563.81
68.1614	559.74
68.1758	562.87
68.1903	548.35
68.2047	572.96
68.2192	622.50
68.2336	571.95
68.2480	563.96
68.2625	572.29
68.2769	593.46
68.2914	591.87
68.3058	537.70
68.3202	553.91
68.3347	583.36
68.3491	568.57
68.3636	580.29
68.3780	569.37
68.3924	573.29
68.4069	568.47
68.4213	590.46
68.4358	536.28
68.4502	576.21
68.4646	576.42
68.4791	567.92
68.4935	564.30
68.5080	554.69
68.5224	579.88
68.5368	571.02
68.5513	579.50
68.5657	607.89
68.5802	573.05
68.5946	569.41
68.6090	577.71
68.6235	608.63
68.6379	567.51
68.6524	549.23
68.6668	571.87
68.6812	589.07
68.6957	575.45
68.7101	603.30
68.7246	577.16
68.7390	550.60
68.7534	585.58
68.7679	518.61
68.7823	545.34
68.7968	543.28
68.8112	568.45
68.8256	531.98
68.8401	573.49
68.8545	604.14
68.8690	575.11
68.8834	572.95
68.8978	592.75
68.9123	588.18
68.9267	548.46
68.9412	567.04
68.9556	543.94
68.9700	565.63
68.9845	575.01
68.9989	567.35
69.0134	552.63
69.0278	541.21
69.0422	582.45
69.0567	484.03
69.0711	610.62
69.0856	546.67
69.1000	569.02
69.1144	582.86
69.1289	522.42
69.1433	537.14
69.1578	604.46
69.1722	539.00
69.1866	553.18
69.2011	571.94
69.2155	548.00
69.2300	545.90
69.2444	576.65
69.2588	576.61
69.2733	576.51
69.2877	577.33
69.3022	594.39
69.3166	553.60
69.3310	588.39
69.3455	596.55
69.3599	551.51
69.3744	576.92
69.3888	584.95
69.4032	560.71
69.4177	521.55
69.4321	621.99
69.4466	558.43
69.4610	564.78
69.4754	598.01
69.4899	606.35
69.5043	624.65
69.5188	565.15
69.5332	610.71
69.5476	599.31
69.5621	575.15
69.5765	582.91
69.5910	555.76
69.6054	589.20
69.6198	557.53
69.6343	604.17
69.6487	575.02
69.6632	557.21
69.6776	570.43
69.6920	574.06
69.7065	638.22
69.7209	581.24
69.7354	533.76
69.7498	563.94
69.7642	565.30
69.7787	563.05
69.7931	611.49
69.8076	553.97
69.8220	581.49
69.8364	548.68
69.8509	587.32
69.8653	577.30
69.8798	563.59
69.8942	578.05
69.9086	540.92
69.9231	563.36
69.9375	549.82
69.9520	584.26
69.9664	615.24
69.9808	585.37
69.9953	658.58
70.0097	617.12
70.0242	509.00
70.0386	595.34
70.0530	591.68
70.0675	580.04
70.0819	609.94
70.0964	576.73
70.1108	595.72
70.1252	580.43
70.1397	552.32
70.1541	547.99
70.1686	619.81
70.1830	600.39
70.1974	607.32
70.2119	565.35
70.2263	608.59
70.2408	594.58
70.2552	603.40
70.2696	566.04
70.2841	564.17
70.2985	585.75
70.3130	637.24
70.3274	594.24
70.3418	595.31
70.3563	580.87
70.3707	609.37
70.3852	553.44
70.3996	572.93
70.4140	560.94
70.4285	581.69
70.4429	588.89
70.4574	586.00
70.4718	547.16
70.4862	568.67
70.5007	598.11
70.5151	605.55
70.5296	571.61
70.5440	539.71
70.5584	561.78
70.5729	560.39
70.5873	541.63
70.6018	592.02
70.6162	587.06
70.6306	570.23
70.6451	606.69
70.6595	566.24
70.6740	580.58
70.6884	601.04
70.7028	629.82
70.7173	611.84
70.7317	583.60
70.7462	598.10
70.7606	535.16
70.7750	557.97
70.7895	571.04
70.8039	606.43
70.8184	604.46
70.8328	616.72
70.8472	597.52
70.8617	552.94
70.8761	575.09
70.8906	590.07
70.9050	554.71
70.9194	568.22
70.9339	589.83
70.9483	605.21
70.9628	588.57
70.9772	564.12
70.9916	608.58
71.0061	566.34
71.0205	574.14
71.0350	610.97
71.0494	551.48
71.0638	537.37
71.0783	540.79
71.0927	633.15
71.1072	622.88
71.1216	642.61
71.1361	565.37
71.1505	520.16
71.1649	585.35
71.1794	621.34
71.1938	619.89
71.2083	587.42
71.2227	546.83
71.2371	593.37
71.2516	577.45
71.2660	592.92
71.2805	555.06
71.2949	525.07
71.3093	594.82
71.3238	604.22
71.3382	572.91
71.3527	559.79
71.3671	555.63
71.3815	573.17
71.3960	566.37
71.4104	588.12
71.4249	637.26
71.4393	614.31
71.4537	593.96
71.4682	633.20
71.4826	588.68
71.4971	562.05
71.5115	608.84
71.5259	576.32
71.5404	555.51
71.5548	565.00
71.5693	599.88
71.5837	566.96
71.5981	546.60
71.6126	585.53
71.6270	608.54
71.6415	607.15
71.6559	569.30
71.6703	567.78
71.6848	561.78
71.6992	595.32
71.7137	598.03
71.7281	566.76
71.7425	558.82
71.7570	567.05
71.7714	583.38
71.7859	599.71
71.8003	574.47
71.8147	557.27
71.8292	600.78
71.8436	593.72
71.8581	561.92
71.8725	603.14
71.8869	551.08
71.9014	527.18
71.9158	581.85
71.9303	575.64
71.9447	531.40
71.9591	539.16
71.9736	585.01
71.9880	546.17
72.0025	519.27
72.0169	582.48
72.0313	631.65
72.0458	664.75
72.0602	635.91
72.0747	603.31
72.0891	587.95
72.1035	567.61
72.1180	564.96
72.1324	632.29
72.1469	580.26
72.1613	537.04
72.1757	531.65
72.1902	623.19
72.2046	622.88
72.2191	524.29
72.2335	503.22
72.2479	545.21
72.2624	611.13
72.2768	576.08
72.2913	536.03
72.3057	567.23
72.3201	614.54
72.3346	561.25
72.3490	627.18
72.3635	592.09
72.3779	550.65
72.3923	567.43
72.4068	568.11
72.4212	658.50
72.4357	634.70
72.4501	546.34
72.4645	579.21
72.4790	598.69
72.4934	574.25
72.5079	614.50
72.5223	626.64
72.5367	576.83
72.5512	580.55
72.5656	676.65
72.5801	672.30
72.5945	604.74
72.6089	585.52
72.6234	599.35
72.6378	579.24
72.6523	502.14
72.6667	522.04
72.6811	600.08
72.6956	543.65
72.7100	503.75
72.7245	547.05
72.7389	652.74
72.7533	688.67
72.7678	680.06
72.7822	676.95
72.7967	651.33
72.8111	664.56
72.8255	608.96
72.8400	604.73
72.8544	642.36
72.8689	621.58
72.8833	660.31

Result vector
22.1120	572.72
22.1264	592.00
22.1409	555.26
22.1553	517.13
22.1697	588.06
22.1842	663.26
22.1986	669.04
22.2131	619.19
22.2275	578.15
22.2419	524.87
22.2564	539.84
22.2708	580.10
22.2853	597.30
22.2997	594.34
22.3141	634.02
22.3286	527.21
22.3430	560.12
22.3575	537.91
22.3719	537.12
22.3863	530.27
22.4008	594.67
22.4152	658.70
22.4297	730.37
22.4441	698.16
22.4585	612.66
22.4730	631.82
22.4874	623.11
22.5019	529.81
22.5163	572.75
22.5307	592.00
22.5452	576.62
22.5596	594.53
22.5741	612.85
22.5885	568.46
22.6029	599.61
22.6174	581.17
22.6318	535.70
22.6463	603.17
22.6607	636.32
22.6751	590.59
22.6896	560.35
22.7040	552.77
22.7185	594.90
22.7329	542.56
22.7473	483.64
22.7618	558.53
22.7762	610.60
22.7907	563.59
22.8051	569.47
22.8195	589.52
22.8340	568.88
22.8484	515.12
22.8629	606.69
22.8773	602.44
22.8917	612.46
22.9062	577.96
22.9206	508.93
22.9351	527.69
22.9495	520.31
22.9639	580.61
22.9784	607.17
22.9928	540.34
23.0073	610.14
23.0217	678.37
23.0361	540.96
23.0506	547.63
23.0650	651.03
23.0795	556.73
23.0939	526.63
23.1083	570.25
23.1228	564.17
23.1372	538.67
23.1517	541.02
23.1661	608.03
23.1806	619.47
23.1950	556.05
23.2094	498.10
23.2239	579.50
23.2383	596.21
23.2528	635.61
23.2672	524.19
23.2816	558.55
23.2961	589.77
23.3105	585.69
23.3250	535.51
23.3394	599.65
23.3538	584.30
23.3683	520.07
23.3827	502.36
23.3972	519.46
23.4116	535.62
23.4260	579.84
23.4405	517.85
23.4549	559.50
23.4694	559.63
23.4838	575.64
23.4982	490.79
23.5127	499.97
23.5271	556.18
23.5416	608.17
23.5560	528.72
23.5704	519.01
23.5849	553.45
23.5993	560.89
23.6138	532.99
23.6282	577.60
23.6426	500.44
23.6571	589.36
23.6715	569.96
23.6860	525.50
23.7004	548.19
23.7148	571.04
23.7293	510.69
23.7437	531.62
23.7582	504.77
23.7726	599.91
23.7870	561.62
23.8015	537.31
23.8159	574.21
23.8304	612.89
23.8448	622.02
23.8592	561.45
23.8737	609.91
23.8881	564.53
23.9026	625.80
23.9170	522.17
23.9314	568.10
23.9459	599.67
23.9603	553.15
23.9748	561.48
23.9892	563.62
24.0036	527.25
24.0181	567.71
24.0325	553.53
24.0470	571.52
24.0614	529.79
24.0758	559.80
24.0903	585.97
24.1047	548.16
24.1192	582.76
24.1336	613.78
24.1480	544.08
24.1625	551.48
24.1769	599.80
24.1914	600.79
24.2058	579.30
24.2202	570.58
24.2347	630.15
24.2491	580.82
24.2636	586.29
24.2780	615.41
24.2924	584.33
24.3069	591.22
24.3213	583.30
24.3358	580.03
24.3502	586.62
24.3646	548.46
24.3791	524.55
24.3935	553.21
24.4080	553.12
24.4224	580.18
24.4368	562.62
24.4513	555.79
24.4657	522.83
24.4802	545.66
24.4946	531.28
24.5090	558.92
24.5235	556.88
24.5379	555.56
24.5524	594.82
24.5668	536.22
24.5812	542.03
24.5957	512.08
24.6101	559.00
24.6246	583.07
24.6390	527.92
24.6534	544.86
24.6679	509.60
24.6823	554.51
24.6968	542.04
24.7112	548.29
24.7256	537.39
24.7401	529.34
24.7545	557.09
24.7690	605.02
24.7834	576.42
24.7978	579.91
24.8123	502.03
24.8267	539.49
24.8412	565.95
24.8556	566.62
24.8700	556.73
24.8845	514.91
24.8989	572.07
24.9134	558.53
24.9278	569.37
24.9422	515.26
24.9567	522.23
24.9711	484.14
24.9856	524.40
25.0000	523.95
25.0144	567.85
25.0289	526.21
25.0433	546.83
25.0578	600.76
25.0722	516.45
25.0866	565.37
25.1011	508.46
25.1155	592.01
25.1300	542.80
25.1444	527.74
25.1588	574.34
25.1733	560.79
25.1877	567.18
25.2022	562.19
25.2166	537.57
25.2310	547.56
25.2455	560.13
25.2599	572.51
25.2744	514.44
25.2888	539.76
25.3032	504.28
25.3177	529.66
25.3321	561.93
25.3466	553.88
25.3610	509.59
25.3754	532.23
25.3899	524.96
25.4043	542.07
25.4188	540.27
25.4332	512.99
25.4476	578.06
25.4621	538.25
25.4765	568.37
25.4910	570.04
25.5054	540.76
25.5198	531.53
25.5343	523.12
25.5487	584.40
25.5632	595.23
25.5776	565.08
25.5920	537.99
25.6065	547.73
25.6209	522.00
25.6354	536.54
25.6498	561.34
25.6642	526.50
25.6787	448.19
25.6931	500.79
25.7076	543.37
25.7220	547.72
25.7364	552.23
25.7509	573.94
25.7653	557.50
25.7798	533.47
25.7942	565.70
25.8086	529.14
25.8231	541.25
25.8375	556.35
25.8520	537.72
25.8664	543.34
25.8808	514.65
25.8953	531.82
25.9097	565.51
25.9242	549.67
25.9386	529.95
25.9530	519.48
25.9675	483.41
25.9819	506.54
25.9964	555.38
26.0108	572.28
26.0252	556.08
26.0397	515.96
26.0541	540.76
26.0686	551.88
26.0830	530.98
26.0974	501.74
26.1119	550.47
26.1263	591.13
26.1408	547.53
26.1552	507.96
26.1696	533.25
26.1841	534.65
26.1985	506.19
26.2130	524.67
26.2274	583.01
26.2418	535.99
26.2563	538.10
26.2707	528.48
26.2852	560.04
26.2996	523.57
26.3140	555.28
26.3285	541.62
26.3429	555.63
26.3574	557.51
26.3718	526.66
26.3862	532.96
26.4007	504.02
26.4151	532.92
26.4296	565.16
26.4440	508.93
26.4584	508.89
26.4729	532.13
26.4873	574.15
26.5018	555.22
26.5162	535.00
26.5306	546.01
26.5451	554.40
26.5595	542.36
26.5740	544.77
26.5884	555.77
26.6028	561.03
26.6173	527.36
26.6317	512.07
26.6462	526.88
26.6606	552.66
26.6750	540.33
26.6895	551.68
26.7039	532.10
26.7184	561.70
26.7328	550.67
26.7472	530.55
26.7617	519.64
26.7761	511.34
26.7906	514.73
26.8050	500.66
26.8194	528.38
26.8339	564.93
26.8483	563.78
26.8628	533.88
26.8772	545.13
26.8917	557.11
26.9061	537.37
26.9205	544.71
26.9350	502.54
26.9494	502.01
26.9639	517.59
26.9783	498.88
26.9927	515.76
27.0072	535.51
27.0216	546.14
27.0361	536.03
27.0505	518.48
27.0649	536.00
27.0794	506.44
27.0938	495.65
27.1083	536.60
27.1227	551.11
27.1371	522.73
27.1516	501.30
27.1660	516.95
27.1805	505.50
27.1949	493.56
27.2093	515.24
27.2238	514.08
27.2382	525.78
27.2527	520.73
27.2671	532.26
27.2815	539.83
27.2960	540.20
27.3104	518.82
27.3249	510.65
27.3393	529.71
27.3537	522.87
27.3682	479.74
27.3826	507.02
27.3971	497.45
27.4115	521.26
27.4259	560.81
27.4404	556.10
27.4548	524.43
27.4693	534.50
27.4837	533.16
27.4981	538.71
27.5126	509.25
27.5270	480.24
27.5415	518.36
27.5559	518.09
27.5703	533.51
27.5848	531.50
27.5992	552.23
27.6137	491.33
27.6281	510.91
27.6425	544.03
27.6570	531.56
27.6714	492.11
27.6859	520.65
27.7003	531.53
27.7147	523.55
27.7292	521.84
27.7436	516.47
27.7581	491.46
27.7725	515.60
27.7869	490.53
27.8014	499.25
27.8158	505.40
27.8303	518.90
27.8447	461.45
27.8591	518.17
27.8736	531.45
27.8880	526.74
27.9025	541.82
27.9169	529.48
27.9313	542.22
27.9458	546.50
27.9602	508.21
27.9747	511.79
27.9891	521.45
28.0035	529.59
28.0180	532.82
28.0324	516.78
28.0469	536.04
28.0613	540.71
28.0757	526.02
28.0902	504.57
28.1046	509.43
28.1191	513.82
28.1335	519.63
28.1479	503.34
28.1624	527.31
28.1768	499.95
28.1913	482.18
28.2057	459.00
28.2201	518.76
28.2346	567.78
28.2490	506.12
28.2635	522.85
28.2779	524.35
28.2923	514.53
28.3068	506.63
28.3212	503.28
28.3357	495.53
28.3501	496.36
28.3645	531.62
28.3790	492.65
28.3934	508.62
28.4079	543.27
28.4223	517.74
28.4367	507.26
28.4512	502.43
28.4656	541.77
28.4801	532.11
28.4945	523.70
28.5089	519.17
28.5234	495.66
28.5378	512.21
28.5523	528.50
28.5667	513.89
28.5811	529.64
28.5956	529.21
28.6100	499.06
28.6245	498.44
28.6389	496.54
28.6533	530.94
28.6678	515.60
28.6822	478.34
28.6967	505.11
28.7111	514.83
28.7255	483.46
28.7400	493.70
28.7544	489.55
28.7689	501.58
28.7833	504.06
28.7977	482.38
28.8122	466.99
28.8266	511.75
28.8411	488.18
28.8555	504.44
28.8699	510.53
28.8844	530.80
28.8988	493.42
28.9133	512.63
28.9277	483.51
28.9421	542.49
28.9566	469.69
28.9710	486.54
28.9855	491.50
28.9999	506.12
29.0143	545.63
29.0288	523.16
29.0432	509.40
29.0577	522.61
29.0721	505.81
29.0865	511.71
29.1010	549.50
29.1154	569.46
29.1299	516.32
29.1443	504.28
29.1587	520.55
29.1732	540.27
29.1876	487.18
29.2021	504.90
29.2165	494.81
29.2309	467.66
29.2454	488.08
29.2598	502.57
29.2743	522.11
29.2887	534.60
29.3031	471.91
29.3176	453.15
29.3320	485.00
29.3465	492.75
29.3609	484.00
29.3753	519.72
29.3898	476.84
29.4042	475.53
29.4187	473.67
29.4331	523.13
29.4475	503.57
29.4620	496.64
29.4764	519.21
29.4909	523.98
29.5053	501.90
29.5197	527.97
29.5342	529.54
29.5486	540.31
29.5631	500.29
29.5775	491.81
29.5919	492.78
29.6064	509.20
29.6208	481.81
29.6353	509.89
29.6497	495.58
29.6641	502.10
29.6786	533.61
29.6930	528.70
29.7075	507.25
29.7219	521.70
29.7363	493.12
29.7508	514.58
29.7652	497.87
29.7797	518.55
29.7941	521.42
29.8085	522.55
29.8230	479.00
29.8374	521.69
29.8519	502.55
29.8663	524.29
29.8807	518.55
29.8952	523.60
29.9096	505.07
29.9241	528.00
29.9385	481.45
29.9529	501.68
29.9674	504.18
29.9818	534.80
29.9963	533.57
30.0107	500.01
30.0251	527.03
30.0396	501.22
30.0540	521.26
30.0685	551.63
30.0829	533.90
30.0973	487.13
30.1118	491.97
30.1262	522.31
30.1407	515.68
30.1551	482.57
30.1695	513.97
30.1840	540.28
30.1984	518.28
30.2129	535.72
30.2273	511.15
30.2417	520.74
30.2562	527.97
30.2706	502.52
30.2851	521.50
30.2995	505.89
30.3139	502.11
30.3284	488.43
30.3428	494.79
30.3573	521.26
30.3717	505.68
30.3861	515.46
30.4006	496.86
30.4150	511.88
30.4295	534.92
30.4439	477.95
30.4583	508.88
30.4728	525.95
30.4872	511.09
30.5017	531.79
30.5161	505.32
30.5305	534.96
30.5450	545.01
30.5594	552.00
30.5739	531.35
30.5883	540.75
30.6028	558.30
30.6172	538.79
30.6316	516.84
30.6461	534.19
30.6605	523.45
30.6750	534.78
30.6894	546.21
30.7038	549.29
30.7183	582.92
30.7327	578.98
30.7472	575.40
30.7616	573.30
30.7760	620.06
30.7905	630.51
30.8049	644.36
30.8194	692.53
30.8338	658.13
30.8482	662.87
30.8627	677.71
30.8771	680.25
30.8916	668.92
30.9060	694.85
30.9204	655.33
30.9349	651.82
30.9493	633.81
30.9638	606.47
30.9782	563.60
30.9926	533.82
31.0071	565.19
31.0215	561.28
31.0360	535.11
31.0504	539.90
31.0648	529.74
31.0793	495.54
31.0937	510.19
31.1082	531.95
31.1226	554.63
31.1370	526.95
31.1515	499.14
31.1659	525.27
31.1804	523.17
31.1948	485.40
31.2092	511.66
31.2237	543.55
31.2381	525.53
31.2526	526.74
31.2670	528.92
31.2814	524.95
31.2959	511.71
31.3103	581.23
31.3248	541.48
31.3392	521.17
31.3536	523.50
31.3681	540.26
31.3825	513.65
31.3970	517.30
31.4114	539.39
31.4258	542.02
31.4403	514.67
31.4547	510.39
31.4692	517.09
31.4836	522.49
31.4980	554.10
31.5125	516.13
31.5269	490.97
31.5414	518.79
31.5558	532.65
31.5702	510.28
31.5847	518.00
31.5991	509.04
31.6136	506.41
31.6280	492.53
31.6424	523.41
31.6569	495.27
31.6713	512.25
31.6858	478.87
31.7002	510.88
31.7146	477.33
31.7291	472.71
31.7435	477.24
31.7580	496.97
31.7724	478.58
31.7868	512.53
31.8013	483.47
31.8157	515.55
31.8302	514.48
31.8446	505.88
31.8590	525.09
31.8735	481.89
31.8879	513.43
31.9024	546.08
31.9168	509.84
31.9312	492.97
31.9457	523.26
31.9601	520.81
31.9746	481.64
31.9890	495.22
32.0034	493.11
32.0179	509.46
32.0323	486.64
32.0468	521.65
32.0612	485.59
32.0756	508.00
32.0901	516.45
32.1045	498.79
32.1190	485.46
32.1334	512.57
32.1478	494.43
32.1623	516.66
32.1767	510.35
32.1912	492.48
32.2056	509.91
32.2200	502.50
32.2345	519.22
32.2489	492.54
32.2634	489.33
32.2778	529.15
32.2922	513.01
32.3067	506.33
32.3211	476.26
32.3356	495.28
32.3500	493.96
32.3644	484.28
32.3789	548.13
32.3933	508.29
32.4078	495.12
32.4222	498.34
32.4366	545.64
32.4511	548.31
32.4655	512.93
32.4800	487.66
32.4944	510.49
32.5088	532.41
32.5233	516.89
32.5377	544.20
32.5522	520.54
32.5666	471.98
32.5810	521.55
32.5955	512.76
32.6099	503.85
32.6244	512.16
32.6388	534.88
32.6532	487.56
32.6677	470.64
32.6821	503.10
32.6966	501.79
32.7110	491.09
32.7254	514.79
32.7399	510.00
32.7543	495.67
32.7688	525.53
32.7832	550.69
32.7976	516.72
32.8121	495.30
32.8265	480.90
32.8410	516.58
32.8554	515.34
32.8698	540.31
32.8843	500.90
32.8987	525.95
32.9132	474.54
32.9276	471.01
32.9420	501.68
32.9565	486.82
32.9709	507.68
32.9854	511.42
32.9998	490.35
33.0142	512.50
33.0287	542.98
33.0431	523.35
33.0576	508.44
33.0720	508.94
33.0864	495.28
33.1009	496.92
33.1153	515.90
33.1298	523.71
33.1442	489.67
33.1586	491.49
33.1731	484.48
33.1875	504.12
33.2020	484.58
33.2164	496.09
33.2308	532.07
33.2453	501.36
33.2597	510.02
33.2742	518.84
33.2886	528.10
33.3030	516.17
33.3175	487.77
33.3319	497.39
33.3464	499.00
33.3608	480.30
33.3752	468.09
33.3897	507.13
33.4041	551.53
33.4186	529.61
33.4330	495.22
33.4474	522.60
33.4619	529.95
33.4763	489.60
33.4908	506.62
33.5052	527.72
33.5196	502.43
33.5341	493.71
33.5485	512.59
33.5630	514.80
33.5774	504.92
33.5918	515.32
33.6063	492.77
33.6207	481.63
33.6352	508.40
33.6496	520.45
33.6640	503.94
33.6785	503.59
33.6929	489.56
33.7074	514.93
33.7218	497.49
33.7362	522.01
33.7507	507.09
33.7651	501.28
33.7796	501.36
33.7940	467.65
33.8084	504.05
33.8229	504.38
33.8373	514.25
33.8518	489.34
33.8662	511.36
33.8806	488.94
33.8951	509.17
33.9095	531.25
33.9240	489.78
33.9384	489.04
33.9528	484.39
33.9673	501.45
33.9817	514.48
33.9962	510.51
34.0106	521.35
34.0250	540.78
34.0395	502.19
34.0539	528.07
34.0684	509.72
34.0828	517.79
34.0972	511.82
34.1117	490.51
34.1261	514.66
34.1406	503.71
34.1550	504.19
34.1694	501.38
34.1839	541.42
34.1983	481.41
34.2128	475.86
34.2272	486.97
34.2417	491.12
34.2561	488.23
34.2705	514.40
34.2850	536.66
34.2994	509.95
34.3139	497.77
34.3283	492.91
34.3427	539.00
34.3572	530.17
34.3716	485.17
34.3861	520.75
34.4005	499.73
34.4149	496.16
34.4294	539.17
34.4438	482.85
34.4583	500.40
34.4727	538.86
34.4871	519.59
34.5016	484.24
34.5160	479.49
34.5305	501.41
34.5449	507.11
34.5593	508.21
34.5738	500.86
34.5882	502.42
34.6027	510.19
34.6171	545.87
34.6315	529.46
34.6460	474.08
34.6604	506.50
34.6749	531.36
34.6893	492.49
34.7037	481.47
34.7182	504.63
34.7326	515.03
34.7471	492.32
34.7615	515.14
34.7759	514.87
34.7904	539.68
34.8048	520.71
34.8193	514.57
34.8337	519.95
34.8481	501.96
34.8626	510.73
34.8770	505.27
34.8915	515.42
34.9059	504.35
34.9203	486.38
34.9348	475.45
34.9492	491.28
34.9637	490.08
34.9781	497.62
34.9925	525.82
35.0070	493.03
35.0214	490.38
35.0359	511.32
35.0503	534.29
35.0647	549.33
35.0792	504.20
35.0936	510.64
35.1081	544.74
35.1225	547.53
35.1369	512.70
35.1514	491.99
35.1658	510.56
35.1803	492.73
35.1947	470.32
35.2091	514.42
35.2236	498.59
35.2380	528.51
35.2525	508.15
35.2669	502.25
35.2813	526.08
35.2958	508.33
35.3102	497.54
35.3247	499.54
35.3391	497.95
35.3535	478.25
35.3680	486.91
35.3824	492.95
35.3969	465.81
35.4113	484.66
35.4257	542.08
35.4402	541.74
35.4546	506.22
35.4691	525.13
35.4835	538.08
35.4979	545.03
35.5124	562.37
35.5268	543.77
35.5413	573.66
35.5557	540.16
35.5701	538.33
35.5846	514.05
35.5990	532.60
35.6135	525.27
35.6279	525.03
35.6423	525.22
35.6568	527.76
35.6712	544.06
35.6857	561.39
35.7001	633.60
35.7145	705.22
35.7290	638.23
35.7434	586.90
35.7579	544.66
35.7723	570.37
35.7867	620.27
35.8012	667.82
35.8156	639.74
35.8301	616.36
35.8445	613.01
35.8589	620.93
35.8734	732.10
35.8878	800.17
35.9023	989.81
35.9167	1080.89
35.9311	1401.95
35.9456	2152.96
35.9600	2393.31
35.9745	1848.09
35.9889	1820.88
36.0033	2208.84
36.0178	2288.23
36.0322	2017.44
36.0467	1836.40
36.0611	1607.85
36.0755	1604.30
36.0900	1545.12
36.1044	1340.08
36.1189	1310.58
36.1333	1181.41
36.1477	1041.76
36.1622	1060.95
36.1766	1069.88
36.1911	954.38
36.2055	905.67
36.2199	851.09
36.2344	813.89
36.2488	835.36
36.2633	901.82
36.2777	957.92
36.2921	968.51
36.3066	977.63
36.3210	1022.20
36.3355	1042.95
36.3499	1060.20
36.3643	1036.96
36.3788	968.05
36.3932	900.35
36.4077	852.73
36.4221	839.31
36.4365	822.66
36.4510	791.89
36.4654	762.83
36.4799	709.17
36.4943	699.27
36.5087	623.65
36.5232	591.00
36.5376	568.18
36.5521	579.69
36.5665	592.13
36.5809	602.90
36.5954	568.85
36.6098	613.41
36.6243	560.80
36.6387	551.19
36.6531	546.73
36.6676	539.55
36.6820	544.87
36.6965	530.90
36.7109	558.91
36.7253	560.11
36.7398	543.58
36.7542	525.07
36.7687	557.64
36.7831	567.53
36.7975	584.22
36.8120	556.20
36.8264	538.60
36.8409	610.21
36.8553	600.94
36.8697	588.67
36.8842	571.71
36.8986	612.97
36.9131	631.20
36.9275	592.38
36.9419	558.92
36.9564	553.36
36.9708	576.40
36.9853	568.79
36.9997	601.05
37.0141	526.08
37.0286	551.95
37.0430	574.51
37.0575	539.10
37.0719	525.77
37.0863	511.63
37.1008	498.51
37.1152	517.89
37.1297	525.72
37.1441	486.59
37.1585	480.62
37.1730	510.89
37.1874	496.72
37.2019	497.49
37.2163	546.75
37.2307	529.35
37.2452	529.83
37.2596	515.46
37.2741	496.70
37.2885	484.29
37.3029	482.70
37.3174	466.46
37.3318	500.38
37.3463	486.49
37.3607	528.92
37.3751	536.62
37.3896	478.17
37.4040	495.49
37.4185	511.41
37.4329	512.31
37.4473	493.41
37.4618	492.78
37.4762	493.49
37.4907	534.68
37.5051	481.21
37.5195	485.20
37.5340	497.55
37.5484	518.02
37.5629	521.53
37.5773	471.46
37.5917	523.00
37.6062	510.07
37.6206	489.09
37.6351	511.75
37.6495	501.44
37.6639	491.81
37.6784	484.53
37.6928	502.70
37.7073	505.79
37.7217	504.01
37.7361	482.47
37.7506	485.09
37.7650	482.49
37.7795	492.32
37.7939	510.03
37.8083	510.62
37.8228	519.14
37.8372	523.68
37.8517	484.57
37.8661	503.69
37.8805	528.78
37.8950	510.83
37.9094	537.91
37.9239	509.56
37.9383	554.96
37.9528	519.54
37.9672	509.30
37.9816	500.89
37.9961	486.94
38.0105	494.81
38.0250	513.13
38.0394	542.56
38.0538	520.63
38.0683	539.45
38.0827	516.30
38.0972	514.01
38.1116	508.91
38.1260	497.97
38.1405	520.81
38.1549	506.77
38.1694	533.07
38.1838	540.92
38.1982	509.07
38.2127	496.05
38.2271	492.67
38.2416	501.97
38.2560	509.93
38.2704	478.43
38.2849	505.17
38.2993	507.42
38.3138	530.99
38.3282	541.12
38.3426	504.84
38.3571	508.27
38.3715	492.95
38.3860	564.41
38.4004	558.74
38.4148	558.97
38.4293	566.53
38.4437	590.84
38.4582	581.63
38.4726	666.60
38.4870	755.80
38.5015	781.57
38.5159	747.58
38.5304	795.39
38.5448	818.00
38.5592	803.22
38.5737	772.61
38.5881	755.42
38.6026	712.66
38.6170	732.33
38.6314	729.55
38.6459	689.92
38.6603	647.12
38.6748	589.55
38.6892	566.56
38.7036	533.77
38.7181	536.54
38.7325	505.45
38.7470	526.40
38.7614	484.81
38.7758	499.59
38.7903	516.67
38.8047	547.26
38.8192	507.49
38.8336	499.86
38.8480	539.93
38.8625	534.81
38.8769	503.82
38.8914	495.04
38.9058	523.11
38.9202	538.56
38.9347	520.73
38.9491	517.85
38.9636	508.83
38.9780	505.65
38.9924	502.07
39.0069	515.47
39.0213	505.42
39.0358	484.91
39.0502	474.25
39.0646	481.41
39.0791	504.08
39.0935	511.62
39.1080	509.09
39.1224	516.57
39.1368	478.04
39.1513	445.90
39.1657	478.26
39.1802	502.77
39.1946	490.07
39.2090	495.19
39.2235	498.27
39.2379	502.45
39.2524	544.19
39.2668	526.98
39.2812	502.85
39.2957	495.96
39.3101	490.78
39.3246	501.49
39.3390	523.73
39.3534	497.76
39.3679	502.56
39.3823	517.14
39.3968	502.76
39.4112	476.86
39.4256	496.40
39.4401	491.15
39.4545	516.75
39.4690	504.92
39.4834	481.78
39.4978	486.40
39.5123	510.27
39.5267	516.92
39.5412	478.46
39.5556	490.85
39.5700	513.10
39.5845	482.17
39.5989	475.26
39.6134	488.15
39.6278	500.21
39.6422	479.64
39.6567	499.88
39.6711	504.64
39.6856	480.86
39.7000	486.07
39.7144	503.59
39.7289	489.15
39.7433	508.64
39.7578	484.78
39.7722	472.26
39.7866	498.35
39.8011	508.77
39.8155	519.88
39.8300	525.36
39.8444	522.95
39.8588	522.18
39.8733	512.74
39.8877	493.20
39.9022	527.01
39.9166	480.12
39.9310	500.93
39.9455	510.26
39.9599	460.54
39.9744	480.29
39.9888	524.16
40.0032	483.51
40.0177	493.47
40.0321	487.65
40.0466	488.56
40.0610	501.88
40.0754	491.65
40.0899	520.24
40.1043	490.02
40.1188	506.40
40.1332	512.45
40.1476	473.01
40.1621	515.77
40.1765	509.56
40.1910	506.53
40.2054	510.17
40.2198	512.61
40.2343	482.23
40.2487	509.10
40.2632	503.15
40.2776	469.92
40.2920	508.39
40.3065	513.05
40.3209	513.78
40.3354	507.10
40.3498	493.81
40.3642	515.83
40.3787	511.02
40.3931	499.86
40.4076	471.86
40.4220	507.03
40.4364	511.60
40.4509	487.96
40.4653	531.77
40.4798	492.47
40.4942	509.11
40.5086	490.23
40.5231	469.55
40.5375	506.38
40.5520	499.74
40.5664	511.99
40.5808	474.95
40.5953	526.39
40.6097	507.38
40.6242	502.72
40.6386	509.72
40.6530	528.30
40.6675	523.89
40.6819	471.06
40.6964	494.59
40.7108	507.33
40.7252	514.65
40.7397	494.30
40.7541	502.44
40.7686	469.93
40.7830	516.91
40.7974	479.61
40.8119	506.75
40.8263	499.81
40.8408	511.44
40.8552	509.61
40.8696	482.58
40.8841	496.86
40.8985	473.91
40.9130	479.82
40.9274	477.99
40.9418	489.36
40.9563	480.35
40.9707	498.62
40.9852	504.46
40.9996	480.68
41.0140	502.04
41.0285	505.07
41.0429	488.46
41.0574	518.09
41.0718	495.65
41.0862	516.12
41.1007	504.47
41.1151	514.51
41.1296	474.93
41.1440	498.40
41.1584	492.66
41.1729	468.68
41.1873	499.68
41.2018	453.06
41.2162	488.18
41.2306	525.87
41.2451	505.31
41.2595	510.52
41.2740	497.64
41.2884	493.67
41.3028	547.21
41.3173	496.24
41.3317	522.69
41.3462	524.05
41.3606	508.53
41.3750	469.73
41.3895	494.37
41.4039	472.09
41.4184	488.85
41.4328	502.11
41.4472	523.88
41.4617	530.48
41.4761	522.33
41.4906	474.38
41.5050	491.07
41.5194	500.75
41.5339	496.72
41.5483	499.38
41.5628	488.69
41.5772	486.79
41.5916	518.88
41.6061	472.60
41.6205	507.65
41.6350	521.61
41.6494	540.25
41.6639	532.57
41.6783	467.60
41.6927	453.42
41.7072	515.01
41.7216	520.11
41.7361	523.86
41.7505	490.91
41.7649	459.34
41.7794	478.06
41.7938	494.91
41.8083	504.24
41.8227	513.27
41.8371	500.75
41.8516	523.82
41.8660	502.79
41.8805	509.65
41.8949	541.95
41.9093	559.71
41.9238	552.15
41.9382	583.57
41.9527	580.51
41.9671	590.47
41.9815	567.75
41.9960	565.90
42.0104	537.73
42.0249	591.35
42.0393	566.69
42.0537	570.58
42.0682	545.51
42.0826	540.25
42.0971	550.55
42.1115	542.76
42.1259	563.62
42.1404	553.98
42.1548	619.11
42.1693	638.46
42.1837	700.09
42.1981	756.62
42.2126	866.20
42.2270	931.08
42.2415	1060.62
42.2559	1106.57
42.2703	1220.75
42.2848	1398.98
42.2992	1531.50
42.3137	1643.26
42.3281	1582.46
42.3425	1490.72
42.3570	1422.17
42.3714	1397.22
42.3859	1276.14
42.4003	1276.82
42.4147	1273.29
42.4292	1219.13
42.4436	1101.20
42.4581	1016.93
42.4725	948.30
42.4869	831.85
42.5014	733.72
42.5158	691.45
42.5303	671.88
42.5447	629.14
42.5591	631.55
42.5736	593.15
42.5880	589.18
42.6025	597.02
42.6169	543.04
42.6313	552.84
42.6458	556.50
42.6602	540.34
42.6747	514.70
42.6891	518.69
42.7035	520.80
42.7180	542.54
42.7324	518.51
42.7469	541.95
42.7613	537.81
42.7757	549.41
42.7902	533.15
42.8046	494.96
42.8191	516.03
42.8335	524.59
42.8479	513.75
42.8624	522.41
42.8768	493.82
42.8913	499.81
42.9057	543.61
42.9201	496.51
42.9346	519.33
42.9490	520.38
42.9635	504.80
42.9779	533.52
42.9923	536.14
43.0068	526.30
43.0212	521.06
43.0357	503.75
43.0501	502.78
43.0645	509.19
43.0790	498.57
43.0934	513.11
43.1079	502.31
43.1223	503.40
43.1367	511.80
43.1512	518.46
43.1656	513.97
43.1801	522.13
43.1945	542.36
43.2089	509.57
43.2234	527.19
43.2378	522.83
43.2523	522.57
43.2667	487.91
43.2811	541.71
43.2956	509.47
43.3100	502.42
43.3245	515.80
43.3389	529.49
43.3533	523.21
43.3678	542.93
43.3822	543.77
43.3967	510.26
43.4111	495.78
43.4255	521.49
43.4400	540.58
43.4544	503.59
43.4689	527.76
43.4833	504.00
43.4977	473.93
43.5122	478.94
43.5266	490.56
43.5411	506.13
43.5555	525.24
43.5699	516.24
43.5844	485.84
43.5988	502.84
43.6133	529.23
43.6277	525.17
43.6421	535.97
43.6566	521.61
43.6710	543.03
43.6855	540.86
43.6999	506.14
43.7143	510.22
43.7288	508.59
43.7432	518.50
43.7577	522.17
43.7721	552.85
43.7865	563.92
43.8010	555.57
43.8154	523.12
43.8299	504.86
43.8443	536.93
43.8587	523.75
43.8732	519.47
43.8876	512.41
43.9021	536.99
43.9165	519.44
43.9309	526.17
43.9454	570.21
43.9598	524.28
43.9743	519.92
43.9887	525.12
44.0031	512.91
44.0176	544.52
44.0320	545.83
44.0465	568.85
44.0609	576.90
44.0753	559.63
44.0898	595.67
44.1042	593.76
44.1187	618.28
44.1331	662.19
44.1475	610.32
44.1620	652.93
44.1764	595.21
44.1909	607.31
44.2053	634.95
44.2197	605.50
44.2342	595.54
44.2486	618.06
44.2631	630.75
44.2775	644.17
44.2919	573.44
44.3064	599.81
44.3208	593.16
44.3353	610.45
44.3497	567.80
44.3641	569.38
44.3786	568.72
44.3930	561.25
44.4075	576.90
44.4219	571.31
44.4363	600.67
44.4508	592.05
44.4652	561.71
44.4797	564.11
44.4941	599.87
44.5085	585.54
44.5230	578.69
44.5374	565.02
44.5519	566.72
44.5663	579.69
44.5807	526.57
44.5952	570.39
44.6096	576.50
44.6241	579.76
44.6385	556.45
44.6529	586.75
44.6674	599.49
44.6818	624.70
44.6963	598.60
44.7107	666.37
44.7251	706.92
44.7396	768.14
44.7540	812.53
44.7685	824.81
44.7829	878.43
44.7973	870.19
44.8118	873.78
44.8262	826.19
44.8407	747.02
44.8551	715.77
44.8695	695.57
44.8840	728.93
44.8984	734.29
44.9129	732.62
44.9273	674.81
44.9417	644.01
44.9562	593.39
44.9706	561.49
44.9851	551.54
44.9995	561.89
45.0139	557.33
45.0284	535.79
45.0428	528.23
45.0573	524.39
45.0717	503.87
45.0861	526.17
45.1006	501.84
45.1150	513.69
45.1295	517.16
45.1439	506.84
45.1583	478.41
45.1728	494.97
45.1872	510.76
45.2017	499.52
45.2161	497.93
45.2305	483.36
45.2450	526.07
45.2594	495.50
45.2739	534.27
45.2883	499.59
45.3028	504.50
45.3172	527.10
45.3316	581.40
45.3461	537.82
45.3605	489.00
45.3750	514.03
45.3894	503.91
45.4038	534.06
45.4183	508.39
45.4327	524.68
45.4472	473.37
45.4616	483.50
45.4760	521.69
45.4905	521.04
45.5049	508.70
45.5194	464.58
45.5338	503.95
45.5482	487.24
45.5627	496.09
45.5771	479.98
45.5916	492.94
45.6060	504.42
45.6204	532.64
45.6349	544.07
45.6493	506.78
45.6638	504.84
45.6782	492.34
45.6926	491.68
45.7071	522.61
45.7215	479.92
45.7360	515.01
45.7504	563.13
45.7648	522.01
45.7793	477.50
45.7937	503.70
45.8082	505.22
45.8226	521.17
45.8370	500.37
45.8515	480.96
45.8659	480.48
45.8804	525.56
45.8948	503.72
45.9092	489.65
45.9237	494.59
45.9381	517.61
45.9526	509.94
45.9670	473.99
45.9814	500.75
45.9959	503.50
46.0103	497.70
46.0248	498.74
46.0392	489.47
46.0536	479.49
46.0681	470.13
46.0825	500.00
46.0970	506.05
46.1114	489.48
46.1258	497.68
46.1403	481.75
46.1547	470.50
46.1692	509.38
46.1836	497.48
46.1980	446.59
46.2125	504.87
46.2269	512.57
46.2414	502.95
46.2558	488.02
46.2702	467.53
46.2847	487.41
46.2991	479.94
46.3136	467.84
46.3280	489.62
46.3424	499.65
46.3569	501.43
46.3713	500.07
46.3858	495.82
46.4002	497.89
46.4146	487.89
46.4291	518.57
46.4435	493.98
46.4580	507.83
46.4724	499.86
46.4868	524.45
46.5013	517.53
46.5157	500.18
46.5302	475.42
46.5446	490.14
46.5590	519.50
46.5735	476.14
46.5879	496.57
46.6024	510.74
46.6168	488.98
46.6312	493.72
46.6457	496.51
46.6601	506.71
46.6746	480.44
46.6890	489.68
46.7034	500.56
46.7179	469.20
46.7323	494.91
46.7468	516.95
46.7612	510.01
46.7756	521.14
46.7901	520.83
46.8045	501.84
46.8190	500.93
46.8334	504.27
46.8478	538.10
46.8623	500.72
46.8767	523.31
46.8912	481.08
46.9056	499.24
46.9200	527.84
46.9345	504.22
46.9489	535.69
46.9634	521.81
46.9778	535.47
46.9922	514.97
47.0067	535.55
47.0211	534.30
47.0356	528.72
47.0500	529.24
47.0644	512.26
47.0789	473.88
47.0933	512.82
47.1078	483.48
47.1222	563.42
47.1366	516.77
47.1511	505.84
47.1655	493.10
47.1800	497.35
47.1944	508.32
47.2088	499.34
47.2233	524.70
47.2377	504.17
47.2522	506.60
47.2666	518.35
47.2810	518.90
47.2955	493.27
47.3099	520.03
47.3244	515.05
47.3388	484.91
47.3532	491.13
47.3677	491.82
47.3821	508.96
47.3966	535.21
47.4110	520.04
47.4254	535.51
47.4399	502.03
47.4543	516.43
47.4688	482.65
47.4832	473.07
47.4976	490.22
47.5121	507.74
47.5265	476.88
47.5410	491.89
47.5554	498.75
47.5698	492.85
47.5843	505.44
47.5987	502.43
47.6132	511.51
47.6276	518.58
47.6420	513.72
47.6565	515.31
47.6709	511.97
47.6854	493.48
47.6998	485.78
47.7142	508.16
47.7287	491.56
47.7431	513.77
47.7576	516.53
47.7720	494.40
47.7864	499.02
47.8009	522.21
47.8153	541.00
47.8298	529.99
47.8442	512.23
47.8586	488.50
47.8731	515.51
47.8875	499.28
47.9020	530.62
47.9164	487.71
47.9308	461.89
47.9453	463.68
47.9597	492.34
47.9742	507.44
47.9886	511.04
48.0030	484.33
48.0175	525.77
48.0319	477.08
48.0464	505.89
48.0608	519.37
48.0752	494.53
48.0897	498.23
48.1041	487.10
48.1186	495.90
48.1330	483.83
48.1474	491.66
48.1619	486.86
48.1763	497.66
48.1908	542.95
48.2052	508.47
48.2196	527.73
48.2341	509.07
48.2485	506.57
48.2630	480.33
48.2774	509.76
48.2918	512.34
48.3063	477.36
48.3207	508.28
48.3352	506.38
48.3496	516.85
48.3640	539.75
48.3785	502.60
48.3929	496.62
48.4074	464.23
48.4218	478.34
48.4362	508.61
48.4507	528.54
48.4651	539.50
48.4796	549.25
48.4940	508.65
48.5084	486.57
48.5229	498.11
48.5373	513.02
48.5518	521.21
48.5662	501.30
48.5806	495.90
48.5951	511.24
48.6095	499.13
48.6240	523.07
48.6384	564.62
48.6528	502.07
48.6673	516.13
48.6817	508.74
48.6962	501.93
48.7106	587.57
48.7250	526.35
48.7395	528.59
48.7539	510.93
48.7684	537.24
48.7828	536.23
48.7972	532.65
48.8117	523.94
48.8261	525.77
48.8406	524.50
48.8550	564.08
48.8694	532.87
48.8839	501.87
48.8983	563.54
48.9128	559.95
48.9272	549.40
48.9416	549.32
48.9561	550.39
48.9705	593.41
48.9850	587.49
48.9994	613.78
49.0139	561.85
49.0283	561.79
49.0427	626.71
49.0572	608.84
49.0716	614.03
49.0861	672.17
49.1005	649.48
49.1149	689.43
49.1294	720.70
49.1438	700.65
49.1583	772.02
49.1727	849.50
49.1871	880.04
49.2016	955.93
49.2160	1009.68
49.2305	1111.91
49.2449	1188.82
49.2593	1227.82
49.2738	1275.06
49.2882	1365.15
49.3027	1505.03
49.3171	1644.87
49.3315	1691.80
49.3460	1626.65
49.3604	1719.70
49.3749	1702.51
49.3893	1697.06
49.4037	1708.73
49.4182	1685.07
49.4326	1677.19
49.4471	1638.85
49.4615	1594.31
49.4759	1518.36
49.4904	1426.38
49.5048	1406.45
49.5193	1331.09
49.5337	1296.04
49.5481	1163.07
49.5626	1084.32
49.5770	1119.59
49.5915	986.55
49.6059	929.50
49.6203	828.66
49.6348	821.01
49.6492	759.66
49.6637	730.60
49.6781	703.90
49.6925	677.31
49.7070	677.09
49.7214	662.82
49.7359	644.15
49.7503	632.00
49.7647	612.61
49.7792	586.92
49.7936	578.65
49.8081	585.60
49.8225	572.59
49.8369	588.06
49.8514	594.21
49.8658	546.07
49.8803	574.58
49.8947	557.38
49.9091	529.80
49.9236	552.69
49.9380	560.52
49.9525	536.41
49.9669	564.87
49.9813	550.70
49.9958	544.10
50.0102	524.19
50.0247	526.00
50.0391	540.10
50.0535	520.45
50.0680	515.40
50.0824	512.98
50.0969	537.10
50.1113	541.70
50.1257	551.45
50.1402	514.86
50.1546	515.20
50.1691	505.25
50.1835	518.90
50.1979	490.34
50.2124	513.33
50.2268	516.81
50.2413	533.49
50.2557	529.08
50.2701	517.47
50.2846	513.09
50.2990	485.06
50.3135	515.76
50.3279	499.30
50.3423	526.79
50.3568	544.59
50.3712	499.96
50.3857	479.90
50.4001	494.75
50.4145	496.68
50.4290	515.13
50.4434	506.60
50.4579	517.82
50.4723	517.89
50.4867	521.15
50.5012	483.33
50.5156	499.33
50.5301	508.93
50.5445	510.85
50.5589	497.10
50.5734	520.05
50.5878	505.46
50.6023	550.27
50.6167	529.50
50.6311	529.13
50.6456	523.24
50.6600	521.79
50.6745	511.33
50.6889	505.29
50.7033	527.99
50.7178	496.50
50.7322	500.58
50.7467	533.86
50.7611	532.10
50.7755	517.32
50.7900	511.95
50.8044	522.49
50.8189	497.82
50.8333	512.63
50.8477	526.20
50.8622	522.21
50.8766	542.93
50.8911	522.01
50.9055	500.46
50.9199	521.60
50.9344	542.92
50.9488	519.17
50.9633	506.55
50.9777	521.50
50.9921	500.77
51.0066	476.16
51.0210	501.75
51.0355	520.48
51.0499	518.80
51.0643	501.30
51.0788	502.87
51.0932	502.74
51.1077	531.14
51.1221	519.15
51.1365	503.56
51.1510	500.64
51.1654	508.94
51.1799	486.50
51.1943	472.53
51.2087	496.49
51.2232	498.61
51.2376	479.44
51.2521	510.04
51.2665	499.25
51.2809	499.45
51.2954	486.34
51.3098	510.90
51.3243	483.72
51.3387	492.72
51.3531	501.04
51.3676	516.99
51.3820	486.97
51.3965	467.92
51.4109	496.33
51.4253	525.80
51.4398	500.21
51.4542	509.89
51.4687	524.73
51.4831	526.80
51.4975	516.48
51.5120	490.04
51.5264	498.54
51.5409	524.53
51.5553	532.14
51.5697	492.01
51.5842	508.73
51.5986	489.68
51.6131	494.04
51.6275	511.02
51.6419	530.22
51.6564	526.39
51.6708	542.25
51.6853	487.40
51.6997	490.34
51.7141	519.03
51.7286	531.02
51.7430	517.43
51.7575	514.43
51.7719	504.59
51.7863	508.98
51.8008	525.02
51.8152	533.64
51.8297	534.45
51.8441	500.61
51.8585	539.99
51.8730	520.10
51.8874	507.17
51.9019	504.08
51.9163	485.69
51.9307	496.34
51.9452	515.07
51.9596	513.19
51.9741	562.43
51.9885	499.77
52.0029	499.96
52.0174	527.55
52.0318	550.62
52.0463	548.29
52.0607	521.45
52.0751	499.46
52.0896	516.20
52.1040	499.46
52.1185	476.56
52.1329	477.99
52.1473	481.40
52.1618	494.73
52.1762	485.79
52.1907	467.18
52.2051	521.92
52.2195	533.70
52.2340	503.06
52.2484	498.52
52.2629	503.46
52.2773	523.06
52.2917	524.25
52.3062	524.80
52.3206	521.46
52.3351	535.64
52.3495	517.29
52.3639	498.29
52.3784	524.24
52.3928	494.42
52.4073	495.71
52.4217	484.76
52.4361	541.21
52.4506	519.28
52.4650	513.62
52.4795	543.49
52.4939	506.73
52.5083	515.73
52.5228	513.88
52.5372	512.56
52.5517	522.09
52.5661	528.79
52.5805	532.07
52.5950	544.70
52.6094	474.04
52.6239	517.50
52.6383	548.37
52.6527	510.59
52.6672	520.91
52.6816	521.46
52.6961	518.25
52.7105	526.50
52.7250	496.51
52.7394	492.06
52.7538	504.34
52.7683	518.56
52.7827	528.85
52.7972	502.83
52.8116	495.81
52.8260	486.82
52.8405	488.83
52.8549	547.40
52.8694	558.37
52.8838	527.12
52.8982	552.28
52.9127	517.58
52.9271	544.74
52.9416	529.62
52.9560	519.73
52.9704	509.52
52.9849	499.28
52.9993	478.37
53.0138	516.40
53.0282	532.34
53.0426	509.04
53.0571	520.80
53.0715	506.78
53.0860	545.74
53.1004	525.91
53.1148	483.48
53.1293	474.80
53.1437	512.16
53.1582	488.95
53.1726	497.97
53.1870	507.88
53.2015	519.71
53.2159	537.67
53.2304	528.01
53.2448	516.38
53.2592	544.26
53.2737	546.55
53.2881	478.16
53.3026	491.75
53.3170	518.10
53.3314	495.82
53.3459	482.32
53.3603	505.11
53.3748	520.26
53.3892	496.30
53.4036	497.17
53.4181	498.13
53.4325	555.49
53.4470	518.55
53.4614	515.98
53.4758	508.73
53.4903	539.95
53.5047	522.34
53.5192	521.87
53.5336	567.05
53.5480	539.73
53.5625	504.08
53.5769	495.38
53.5914	475.67
53.6058	507.42
53.6202	519.17
53.6347	551.60
53.6491	524.76
53.6636	516.07
53.6780	498.75
53.6924	518.69
53.7069	526.58
53.7213	504.42
53.7358	505.44
53.7502	511.81
53.7646	518.72
53.7791	526.26
53.7935	549.86
53.8080	526.96
53.8224	492.65
53.8368	553.96
53.8513	530.63
53.8657	495.14
53.8802	494.91
53.8946	495.52
53.9090	526.16
53.9235	511.29
53.9379	523.42
53.9524	535.34
53.9668	509.49
53.9812	483.06
53.9957	491.74
54.0101	532.44
54.0246	536.50
54.0390	525.25
54.0534	475.05
54.0679	520.29
54.0823	525.74
54.0968	505.21
54.1112	534.18
54.1256	550.37
54.1401	524.68
54.1545	512.78
54.1690	538.05
54.1834	522.44
54.1978	511.44
54.2123	510.24
54.2267	510.71
54.2412	492.41
54.2556	509.65
54.2700	510.08
54.2845	492.88
54.2989	522.42
54.3134	546.18
54.3278	567.03
54.3422	553.29
54.3567	521.28
54.3711	529.88
54.3856	510.09
54.4000	509.50
54.4144	538.54
54.4289	537.72
54.4433	512.24
54.4578	508.18
54.4722	539.39
54.4866	537.40
54.5011	489.13
54.5155	506.19
54.5300	525.44
54.5444	518.99
54.5588	563.19
54.5733	542.74
54.5877	535.11
54.6022	522.60
54.6166	543.46
54.6310	544.56
54.6455	564.61
54.6599	551.64
54.6744	521.97
54.6888	532.95
54.7032	580.89
54.7177	585.27
54.7321	566.07
54.7466	601.78
54.7610	554.30
54.7754	550.41
54.7899	608.43
54.8043	600.85
54.8188	605.89
54.8332	592.47
54.8476	583.72
54.8621	610.08
54.8765	582.23
54.8910	579.17
54.9054	580.95
54.9198	538.55
54.9343	541.92
54.9487	583.01
54.9632	561.65
54.9776	556.28
54.9920	571.72
55.0065	609.33
55.0209	600.66
55.0354	575.41
55.0498	552.67
55.0642	547.98
55.0787	545.46
55.0931	548.46
55.1076	518.31
55.1220	518.84
55.1364	523.88
55.1509	509.68
55.1653	542.67
55.1798	560.43
55.1942	544.07
55.2086	545.76
55.2231	517.47
55.2375	496.52
55.2520	523.07
55.2664	552.01
55.2808	547.27
55.2953	525.35
55.3097	550.40
55.3242	553.34
55.3386	532.28
55.3530	536.40
55.3675	514.43
55.3819	537.25
55.3964	541.55
55.4108	516.25
55.4252	517.70
55.4397	493.38
55.4541	509.99
55.4686	540.82
55.4830	550.43
55.4974	513.47
55.5119	527.99
55.5263	555.94
55.5408	512.09
55.5552	503.09
55.5696	523.86
55.5841	551.89
55.5985	562.92
55.6130	524.61
55.6274	503.63
55.6418	524.58
55.6563	535.91
55.6707	506.94
55.6852	535.34
55.6996	562.99
55.7140	571.68
55.7285	525.08
55.7429	553.53
55.7574	556.81
55.7718	568.03
55.7862	507.52
55.8007	520.94
55.8151	524.22
55.8296	533.72
55.8440	531.82
55.8584	565.83
55.8729	520.16
55.8873	503.11
55.9018	519.94
55.9162	518.80
55.9306	512.00
55.9451	524.92
55.9595	537.40
55.9740	523.20
55.9884	519.63
56.0028	523.19
56.0173	524.04
56.0317	500.39
56.0462	499.86
56.0606	513.96
56.0750	528.24
56.0895	518.97
56.1039	501.13
56.1184	568.12
56.1328	513.55
56.1472	491.81
56.1617	548.83
56.1761	531.76
56.1906	515.01
56.2050	521.62
56.2194	505.32
56.2339	502.71
56.2483	509.34
56.2628	521.79
56.2772	546.78
56.2916	530.09
56.3061	513.50
56.3205	525.56
56.3350	561.83
56.3494	525.85
56.3639	501.75
56.3783	524.01
56.3927	523.48
56.4072	508.09
56.4216	522.93
56.4361	548.90
56.4505	508.11
56.4649	518.20
56.4794	512.01
56.4938	504.10
56.5083	501.49
56.5227	512.15
56.5371	526.77
56.5516	517.34
56.5660	526.21
56.5805	536.13
56.5949	528.94
56.6093	496.74
56.6238	501.70
56.6382	541.27
56.6527	527.47
56.6671	516.79
56.6815	472.71
56.6960	497.53
56.7104	497.52
56.7249	513.05
56.7393	548.57
56.7537	510.09
56.7682	514.29
56.7826	546.26
56.7971	532.62
56.8115	528.96
56.8259	525.87
56.8404	534.53
56.8548	524.76
56.8693	535.15
56.8837	526.89
56.8981	499.48
56.9126	501.58
56.9270	548.51
56.9415	540.56
56.9559	521.58
56.9703	501.05
56.9848	541.57
56.9992	550.94
57.0137	511.55
57.0281	549.19
57.0425	543.81
57.0570	529.50
57.0714	553.12
57.0859	533.35
57.1003	496.72
57.1147	542.53
57.1292	571.67
57.1436	522.00
57.1581	502.48
57.1725	532.93
57.1869	514.03
57.2014	508.80
57.2158	552.66
57.2303	508.38
57.2447	534.07
57.2591	513.45
57.2736	501.76
57.2880	536.15
57.3025	545.97
57.3169	527.81
57.3313	502.19
57.3458	506.56
57.3602	528.60
57.3747	517.15
57.3891	516.17
57.4035	549.45
57.4180	506.26
57.4324	521.95
57.4469	518.92
57.4613	554.48
57.4757	567.31
57.4902	518.66
57.5046	547.70
57.5191	541.80
57.5335	533.57
57.5479	526.96
57.5624	514.25
57.5768	521.08
57.5913	534.77
57.6057	549.09
57.6201	552.44
57.6346	549.89
57.6490	540.34
57.6635	545.57
57.6779	515.33
57.6923	526.18
57.7068	573.99
57.7212	544.69
57.7357	556.06
57.7501	547.29
57.7645	513.35
57.7790	533.58
57.7934	529.50
57.8079	495.00
57.8223	539.32
57.8367	514.03
57.8512	511.24
57.8656	539.30
57.8801	546.18
57.8945	532.42
57.9089	504.22
57.9234	528.13
57.9378	546.98
57.9523	524.64
57.9667	565.67
57.9811	597.07
57.9956	549.85
58.0100	547.84
58.0245	571.49
58.0389	524.43
58.0533	541.52
58.0678	556.04
58.0822	567.60
58.0967	580.08
58.1111	540.85
58.1255	578.90
58.1400	554.40
58.1544	544.82
58.1689	585.88
58.1833	546.07
58.1977	583.20
58.2122	545.41
58.2266	583.62
58.2411	622.85
58.2555	593.83
58.2699	554.07
58.2844	563.26
58.2988	581.13
58.3133	607.63
58.3277	636.89
58.3421	633.08
58.3566	623.48
58.3710	633.37
58.3855	633.80
58.3999	673.22
58.4143	637.64
58.4288	666.17
58.4432	644.05
58.4577	679.57
58.4721	664.50
58.4865	649.22
58.5010	649.29
58.5154	636.62
58.5299	611.64
58.5443	652.32
58.5587	611.92
58.5732	615.88
58.5876	602.72
58.6021	593.37
58.6165	608.11
58.6309	615.33
58.6454	589.59
58.6598	575.38
58.6743	575.96
58.6887	601.64
58.7031	605.80
58.7176	597.14
58.7320	572.64
58.7465	573.10
58.7609	540.60
58.7753	539.73
58.7898	547.99
58.8042	560.19
58.8187	552.66
58.8331	542.25
58.8475	566.31
58.8620	573.86
58.8764	557.98
58.8909	545.55
58.9053	562.50
58.9197	540.07
58.9342	535.53
58.9486	533.68
58.9631	537.52
58.9775	568.44
58.9919	550.22
59.0064	512.90
59.0208	525.16
59.0353	526.38
59.0497	541.34
59.0641	557.74
59.0786	562.15
59.0930	589.26
59.1075	571.74
59.1219	545.82
59.1363	531.57
59.1508	537.11
59.1652	595.77
59.1797	567.15
59.1941	519.60
59.2085	522.72
59.2230	530.00
59.2374	558.84
59.2519	526.56
59.2663	523.69
59.2807	551.17
59.2952	577.60
59.3096	562.72
59.3241	593.97
59.3385	604.67
59.3529	598.62
59.3674	580.41
59.3818	556.18
59.3963	539.98
59.4107	558.13
59.4251	592.80
59.4396	537.75
59.4540	536.14
59.4685	577.40
59.4829	612.24
59.4973	558.34
59.5118	560.72
59.5262	534.29
59.5407	515.43
59.5551	540.63
59.5695	541.01
59.5840	564.71
59.5984	564.83
59.6129	534.86
59.6273	569.05
59.6417	536.27
59.6562	539.46
59.6706	527.39
59.6851	515.42
59.6995	521.49
59.7139	553.63
59.7284	530.72
59.7428	541.37
59.7573	542.66
59.7717	535.37
59.7861	507.44
59.8006	530.18
59.8150	539.08
59.8295	543.85
59.8439	554.39
59.8583	569.67
59.8728	547.23
59.8872	538.79
59.9017	551.64
59.9161	525.81
59.9305	541.62
59.9450	558.54
59.9594	533.21
59.9739	533.64
59.9883	545.94
60.0027	555.51
60.0172	548.45
60.0316	583.64
60.0461	532.27
60.0605	573.57
60.0750	539.77
60.0894	534.83
60.1038	527.66
60.1183	533.63
60.1327	562.49
60.1472	550.99
60.1616	550.94
60.1760	553.01
60.1905	553.62
60.2049	518.45
60.2194	510.48
60.2338	529.56
60.2482	559.26
60.2627	507.85
60.2771	543.07
60.2916	524.55
60.3060	565.25
60.3204	548.53
60.3349	517.29
60.3493	530.21
60.3638	531.25
60.3782	535.88
60.3926	563.65
60.4071	529.38
60.4215	561.73
60.4360	579.42
60.4504	524.69
60.4648	538.88
60.4793	566.78
60.4937	546.44
60.5082	554.21
60.5226	532.59
60.5370	524.88
60.5515	557.06
60.5659	516.03
60.5804	554.40
60.5948	566.88
60.6092	565.08
60.6237	556.04
60.6381	555.86
60.6526	509.77
60.6670	511.19
60.6814	531.38
60.6959	536.06
60.7103	523.72
60.7248	540.02
60.7392	536.55
60.7536	526.99
60.7681	549.49
60.7825	536.10
60.7970	530.29
60.8114	530.56
60.8258	536.08
60.8403	545.41
60.8547	542.98
60.8692	521.12
60.8836	519.35
60.8980	559.25
60.9125	566.18
60.9269	544.50
60.9414	556.89
60.9558	573.83
60.9702	550.57
60.9847	532.36
60.9991	556.92
61.0136	539.72
61.0280	558.53
61.0424	565.29
61.0569	470.27
61.0713	520.18
61.0858	556.28
61.1002	570.41
61.1146	552.99
61.1291	550.95
61.1435	548.41
61.1580	565.79
61.1724	555.44
61.1868	529.51
61.2013	512.24
61.2157	557.07
61.2302	542.69
61.2446	535.06
61.2590	543.78
61.2735	559.96
61.2879	528.07
61.3024	549.05
61.3168	565.55
61.3312	552.67
61.3457	520.01
61.3601	566.88
61.3746	501.72
61.3890	529.16
61.4034	537.27
61.4179	533.44
61.4323	587.88
61.4468	539.96
61.4612	552.40
61.4756	561.08
61.4901	551.06
61.5045	521.63
61.5190	556.44
61.5334	545.99
61.5478	571.37
61.5623	576.89
61.5767	580.85
61.5912	566.77
61.6056	592.73
61.6200	568.23
61.6345	562.94
61.6489	574.43
61.6634	529.40
61.6778	541.32
61.6922	546.04
61.7067	579.25
61.7211	554.93
61.7356	541.55
61.7500	540.73
61.7644	542.64
61.7789	581.18
61.7933	555.01
61.8078	566.32
61.8222	555.24
61.8366	564.41
61.8511	531.62
61.8655	586.96
61.8800	551.38
61.8944	553.26
61.9088	521.66
61.9233	543.25
61.9377	555.51
61.9522	538.48
61.9666	532.79
61.9810	530.22
61.9955	532.25
62.0099	546.94
62.0244	546.04
62.0388	550.42
62.0532	548.56
62.0677	570.77
62.0821	575.39
62.0966	568.92
62.1110	547.68
62.1254	545.78
62.1399	561.25
62.1543	555.80
62.1688	548.19
62.1832	572.65
62.1976	547.19
62.2121	538.81
62.2265	546.35
62.2410	564.99
62.2554	583.47
62.2698	563.59
62.2843	533.80
62.2987	569.33
62.3132	598.26
62.3276	522.18
62.3420	562.66
62.3565	570.15
62.3709	552.22
62.3854	552.99
62.3998	556.03
62.4142	560.66
62.4287	609.64
62.4431	600.77
62.4576	569.99
62.4720	572.74
62.4864	548.73
62.5009	565.25
62.5153	543.38
62.5298	536.35
62.5442	510.07
62.5586	532.17
62.5731	525.70
62.5875	567.88
62.6020	565.78
62.6164	565.56
62.6308	566.99
62.6453	559.83
62.6597	596.04
62.6742	565.91
62.6886	537.10
62.7030	554.01
62.7175	557.36
62.7319	505.61
62.7464	545.85
62.7608	584.40
62.7752	566.34
62.7897	534.40
62.8041	550.91
62.8186	532.31
62.8330	566.64
62.8474	580.16
62.8619	559.81
62.8763	544.31
62.8908	541.75
62.9052	592.00
62.9196	575.81
62.9341	585.20
62.9485	572.36
62.9630	566.21
62.9774	576.53
62.9918	570.04
63.0063	559.01
63.0207	587.86
63.0352	593.64
63.0496	601.99
63.0640	605.39
63.0785	561.37
63.0929	575.09
63.1074	558.31
63.1218	559.59
63.1362	587.92
63.1507	540.55
63.1651	552.42
63.1796	567.95
63.1940	570.55
63.2084	610.89
63.2229	589.29
63.2373	571.68
63.2518	589.71
63.2662	561.74
63.2806	576.05
63.2951	587.78
63.3095	582.69
63.3240	619.34
63.3384	584.87
63.3528	593.74
63.3673	603.43
63.3817	599.72
63.3962	579.11
63.4106	598.98
63.4250	572.18
63.4395	554.20
63.4539	556.91
63.4684	553.07
63.4828	588.39
63.4972	574.91
63.5117	558.80
63.5261	573.20
63.5406	611.32
63.5550	605.11
63.5694	571.80
63.5839	578.77
63.5983	570.77
63.6128	596.10
63.6272	590.58
63.6416	580.00
63.6561	574.27
63.6705	568.35
63.6850	575.52
63.6994	590.01
63.7138	604.00
63.7283	588.06
63.7427	586.04
63.7572	579.47
63.7716	598.60
63.7861	617.70
63.8005	575.19
63.8149	598.01
63.8294	646.74
63.8438	609.49
63.8583	605.45
63.8727	619.02
63.8871	600.79
63.9016	675.23
63.9160	592.98
63.9305	637.36
63.9449	621.40
63.9593	619.73
63.9738	661.94
63.9882	619.23
64.0027	626.10
64.0171	675.51
64.0315	652.00
64.0460	668.44
64.0604	655.00
64.0749	780.30
64.0893	772.78
64.1037	758.86
64.1182	760.88
64.1326	788.59
64.1471	745.47
64.1615	781.63
64.1759	759.82
64.1904	765.51
64.2048	743.59
64.2193	812.85
64.2337	817.14
64.2481	791.64
64.2626	766.05
64.2770	806.38
64.2915	767.85
64.3059	728.25
64.3203	746.10
64.3348	760.77
64.3492	770.87
64.3637	747.76
64.3781	773.12
64.3925	733.90
64.4070	727.38
64.4214	740.36
64.4359	743.27
64.4503	714.76
64.4647	739.32
64.4792	715.12
64.4936	709.09
64.5081	688.75
64.5225	667.12
64.5369	704.92
64.5514	700.71
64.5658	697.73
64.5803	681.73
64.5947	677.50
64.6091	697.94
64.6236	620.11
64.6380	667.58
64.6525	703.69
64.6669	640.81
64.6813	656.43
64.6958	684.85
64.7102	759.30
64.7247	700.44
64.7391	720.91
64.7535	735.10
64.7680	699.34
64.7824	759.67
64.7969	726.70
64.8113	770.97
64.8257	773.40
64.8402	799.13
64.8546	835.62
64.8691	907.03
64.8835	839.22
64.8979	830.68
64.9124	920.55
64.9268	881.84
64.9413	922.26
64.9557	967.95
64.9701	996.15
64.9846	1101.30
64.9990	1191.68
65.0135	1354.82
65.0279	1488.87
65.0423	1802.88
65.0568	2231.69
65.0712	2799.16
65.0857	3671.25
65.1001	4919.71
65.1145	6566.08
65.1290	8364.43
65.1434	10000.41
65.1579	11487.76
65.1723	11814.18
65.1867	11300.23
65.2012	9852.05
65.2156	8072.70
65.2301	6297.38
65.2445	5289.48
65.2589	4409.70
65.2734	4243.73
65.2878	4498.83
65.3023	5219.08
65.3167	5968.46
65.3311	6707.39
65.3456	7079.58
65.3600	6960.83
65.3745	6248.02
65.3889	5319.58
65.4033	4253.81
65.4178	3320.10
65.4322	2596.92
65.4467	2001.36
65.4611	1734.87
65.4755	1471.61
65.4900	1311.05
65.5044	1104.57
65.5189	1028.27
65.5333	989.60
65.5477	931.93
65.5622	882.47
65.5766	845.30
65.5911	831.33
65.6055	829.95
65.6199	798.37
65.6344	792.45
65.6488	730.00
65.6633	703.87
65.6777	727.07
65.6921	757.18
65.7066	757.48
65.7210	743.91
65.7355	666.69
65.7499	725.42
65.7643	674.57
65.7788	697.44
65.7932	705.51
65.8077	703.81
65.8221	660.14
65.8365	685.94
65.8510	659.36
65.8654	637.04
65.8799	610.43
65.8943	624.69
65.9087	666.96
65.9232	666.97
65.9376	609.39
65.9521	594.09
65.9665	629.75
65.9809	648.74
65.9954	638.28
66.0098	611.38
66.0243	642.80
66.0387	648.32
66.0531	647.09
66.0676	632.26
66.0820	645.16
66.0965	628.26
66.1109	634.74
66.1253	653.07
66.1398	645.37
66.1542	629.37
66.1687	638.80
66.1831	615.57
66.1975	608.73
66.2120	625.91
66.2264	615.18
66.2409	619.86
66.2553	615.98
66.2697	589.88
66.2842	619.29
66.2986	609.06
66.3131	628.95
66.3275	620.38
66.3419	604.71
66.3564	580.80
66.3708	611.74
66.3853	594.69
66.3997	560.39
66.4141	574.60
66.4286	611.73
66.4430	574.00
66.4575	574.91
66.4719	591.04
66.4863	589.26
66.5008	596.13
66.5152	606.37
66.5297	606.23
66.5441	582.48
66.5585	582.21
66.5730	594.26
66.5874	586.97
66.6019	598.24
66.6163	586.17
66.6307	592.85
66.6452	588.11
66.6596	581.58
66.6741	561.40
66.6885	530.56
66.7029	620.88
66.7174	613.85
66.7318	572.81
66.7463	624.31
66.7607	589.67
66.7751	579.83
66.7896	582.33
66.8040	569.58
66.8185	577.88
66.8329	569.12
66.8473	576.08
66.8618	583.45
66.8762	587.03
66.8907	573.60
66.9051	568.69
66.9195	600.30
66.9340	613.63
66.9484	601.53
66.9629	565.13
66.9773	568.87
66.9917	582.99
67.0062	557.56
67.0206	587.11
67.0351	614.46
67.0495	559.65
67.0639	574.33
67.0784	618.08
67.0928	628.81
67.1073	600.48
67.1217	597.73
67.1361	601.64
67.1506	565.01
67.1650	598.26
67.1795	588.71
67.1939	564.78
67.2083	571.49
67.2228	578.19
67.2372	555.43
67.2517	566.32
67.2661	566.97
67.2805	613.25
67.2950	606.95
67.3094	569.41
67.3239	568.95
67.3383	576.84
67.3527	579.87
67.3672	565.41
67.3816	544.34
67.3961	593.31
67.4105	583.78
67.4250	611.36
67.4394	554.55
67.4538	568.62
67.4683	639.21
67.4827	637.81
67.4972	584.36
67.5116	557.57
67.5260	573.79
67.5405	598.37
67.5549	577.33
67.5694	581.71
67.5838	597.36
67.5982	565.18
67.6127	571.80
67.6271	555.56
67.6416	569.97
67.6560	572.47
67.6704	568.24
67.6849	585.15
67.6993	615.27
67.7138	647.73
67.7282	581.14
67.7426	576.16
67.7571	561.55
67.7715	561.41
67.7860	554.35
67.8004	541.68
67.8148	557.12
67.8293	536.35
67.8437	559.28
67.8582	566.89
67.8726	594.60
67.8870	571.74
67.9015	612.72
67.9159	610.22
67.9304	598.61
67.9448	588.59
67.9592	561.08
67.9737	559.61
67.9881	624.50
68.0026	594.16
68.0170	593.54
68.0314	574.76
68.0459	558.61
68.0603	584.58
68.0748	609.53
68.0892	592.30
68.1036	586.87
68.1181	571.53
68.1325	595.33
68.1470	563.81
68.1614	559.74
68.1758	562.87
68.1903	548.35
68.2047	572.96
68.2192	622.50
68.2336	571.95
68.2480	563.96
68.2625	572.29
68.2769	593.46
68.2914	591.87
68.3058	537.70
68.3202	553.91
68.3347	583.36
68.3491	568.57
68.3636	580.29
68.3780	569.37
68.3924	573.29
68.4069	568.47
68.4213	590.46
68.4358	536.28
68.4502	576.21
68.4646	576.42
68.4791	567.92
68.4935	564.30
68.5080	554.69
68.5224	579.88
68.5368	571.02
68.5513	579.50
68.5657	607.89
68.5802	573.05
68.5946	569.41
68.6090	577.71
68.6235	608.63
68.6379	567.51
68.6524	549.23
68.6668	571.87
68.6812	589.07
68.6957	575.45
68.7101	603.30
68.7246	577.16
68.7390	550.60
68.7534	585.58
68.7679	518.61
68.7823	545.34
68.7968	543.28
68.8112	568.45
68.8256	531.98
68.8401	573.49
68.8545	604.14
68.8690	575.11
68.8834	572.95
68.8978	592.75
68.9123	588.18
68.9267	548.46
68.9412	567.04
68.9556	543.94
68.9700	565.63
68.9845	575.01
68.9989	567.35
69.0134	552.63
69.0278	541.21
69.0422	582.45
69.0567	484.03
69.0711	610.62
69.0856	546.67
69.1000	569.02
69.1144	582.86
69.1289	522.42
69.1433	537.14
69.1578	604.46
69.1722	539.00
69.1866	553.18
69.2011	571.94
69.2155	548.00
69.2300	545.90
69.2444	576.65
69.2588	576.61
69.2733	576.51
69.2877	577.33
69.3022	594.39
69.3166	553.60
69.3310	588.39
69.3455	596.55
69.3599	551.51
69.3744	576.92
69.3888	584.95
69.4032	560.71
69.4177	521.55
69.4321	621.99
69.4466	558.43
69.4610	564.78
69.4754	598.01
69.4899	606.35
69.5043	624.65
69.5188	565.15
69.5332	610.71
69.5476	599.31
69.5621	575.15
69.5765	582.91
69.5910	555.76
69.6054	589.20
69.6198	557.53
69.6343	604.17
69.6487	575.02
69.6632	557.21
69.6776	570.43
69.6920	574.06
69.7065	638.22
69.7209	581.24
69.7354	533.76
69.7498	563.94
69.7642	565.30
69.7787	563.05
69.7931	611.49
69.8076	553.97
69.8220	581.49
69.8364	548.68
69.8509	587.32
69.8653	577.30
69.8798	563.59
69.8942	578.05
69.9086	540.92
69.9231	563.36
69.9375	549.82
69.9520	584.26
69.9664	615.24
69.9808	585.37
69.9953	658.58
70.0097	617.12
70.0242	509.00
70.0386	595.34
70.0530	591.68
70.0675	580.04
70.0819	609.94
70.0964	576.73
70.1108	595.72
70.1252	580.43
70.1397	552.32
70.1541	547.99
70.1686	619.81
70.1830	600.39
70.1974	607.32
70.2119	565.35
70.2263	608.59
70.2408	594.58
70.2552	603.40
70.2696	566.04
70.2841	564.17
70.2985	585.75
70.3130	637.24
70.3274	594.24
70.3418	595.31
70.3563	580.87
70.3707	609.37
70.3852	553.44
70.3996	572.93
70.4140	560.94
70.4285	581.69
70.4429	588.89
70.4574	586.00
70.4718	547.16
70.4862	568.67
70.5007	598.11
70.5151	605.55
70.5296	571.61
70.5440	539.71
70.5584	561.78
70.5729	560.39
70.5873	541.63
70.6018	592.02
70.6162	587.06
70.6306	570.23
70.6451	606.69
70.6595	566.24
70.6740	580.58
70.6884	601.04
70.7028	629.82
70.7173	611.84
70.7317	583.60
70.7462	598.10
70.7606	535.16
70.7750	557.97
70.7895	571.04
70.8039	606.43
70.8184	604.46
70.8328	616.72
70.8472	597.52
70.8617	552.94
70.8761	575.09
70.8906	590.07
70.9050	554.71
70.9194	568.22
70.9339	589.83
70.9483	605.21
70.9628	588.57
70.9772	564.12
70.9916	608.58
71.0061	566.34
71.0205	574.14
71.0350	610.97
71.0494	551.48
71.0638	537.37
71.0783	540.79
71.0927	633.15
71.1072	622.88
71.1216	642.61
71.1361	565.37
71.1505	520.16
71.1649	585.35
71.1794	621.34
71.1938	619.89
71.2083	587.42
71.2227	546.83
71.2371	593.37
71.2516	577.45
71.2660	592.92
71.2805	555.06
71.2949	525.07
71.3093	594.82
71.3238	604.22
71.3382	572.91
71.3527	559.79
71.3671	555.63
71.3815	573.17
71.3960	566.37
71.4104	588.12
71.4249	637.26
71.4393	614.31
71.4537	593.96
71.4682	633.20
71.4826	588.68
71.4971	562.05
71.5115	608.84
71.5259	576.32
71.5404	555.51
71.5548	565.00
71.5693	599.88
71.5837	566.96
71.5981	546.60
71.6126	585.53
71.6270	608.54
71.6415	607.15
71.6559	569.30
71.6703	567.78
71.6848	561.78
71.6992	595.32
71.7137	598.03
71.7281	566.76
71.7425	558.82
71.7570	567.05
71.7714	583.38
71.7859	599.71
71.8003	574.47
71.8147	557.27
71.8292	600.78
71.8436	593.72
71.8581	561.92
71.8725	603.14
71.8869	551.08
71.9014	527.18
71.9158	581.85
71.9303	575.64
71.9447	531.40
71.9591	539.16
71.9736	585.01
71.9880	546.17
72.0025	519.27
72.0169	582.48
72.0313	631.65
72.0458	664.75
72.0602	635.91
72.0747	603.31
72.0891	587.95
72.1035	567.61
72.1180	564.96
72.1324	632.29
72.1469	580.26
72.1613	537.04
72.1757	531.65
72.1902	623.19
72.2046	622.88
72.2191	524.29
72.2335	503.22
72.2479	545.21
72.2624	611.13
72.2768	576.08
72.2913	536.03
72.3057	567.23
72.3201	614.54
72.3346	561.25
72.3490	627.18
72.3635	592.09
72.3779	550.65
72.3923	567.43
72.4068	568.11
72.4212	658.50
72.4357	634.70
72.4501	546.34
72.4645	579.21
72.4790	598.69
72.4934	574.25
72.5079	614.50
72.5223	626.64
72.5367	576.83
72.5512	580.55
72.5656	676.65
72.5801	672.30
72.5945	604.74
72.6089	585.52
72.6234	599.35
72.6378	579.24
72.6523	502.14
72.6667	522.04
72.6811	600.08
72.6956	543.65
72.7100	503.75
72.7245	547.05
72.7389	652.74
72.7533	688.67
72.7678	680.06
72.7822	676.95
72.7967	651.33
72.8111	664.56
72.8255	608.96
72.8400	604.73
72.8544	642.36
72.8689	621.58
72.8833	660.31