2022.09.19 19:37:16
Îáðàçåö: ß÷åéêà LCoV 16-09-2022
Lambda1 = 1.54060
Lambda2 = 1.54439
Lambdam = 1.54186
R = 0.497
2Theta	I

line¹ 0 ;repeat¹ 0
22.1120	557.84
22.1264	565.46
22.1409	591.17
22.1553	587.04
22.1697	537.53
22.1842	542.86
22.1986	574.72
22.2131	608.43
22.2275	720.00
22.2419	679.41
22.2564	710.33
22.2708	544.45
22.2853	585.06
22.2997	605.44
22.3141	655.94
22.3286	611.14
22.3430	607.66
22.3575	605.04
22.3719	627.94
22.3863	547.48
22.4008	577.85
22.4152	639.05
22.4297	530.65
22.4441	626.08
22.4585	556.67
22.4730	629.54
22.4874	624.16
22.5019	598.98
22.5163	528.98
22.5307	580.15
22.5452	535.68
22.5596	539.55
22.5741	625.01
22.5885	612.95
22.6029	638.35
22.6174	626.26
22.6318	571.21
22.6463	498.27
22.6607	478.12
22.6751	536.59
22.6896	545.86
22.7040	520.80
22.7185	567.22
22.7329	611.97
22.7473	561.92
22.7618	558.36
22.7762	596.31
22.7907	554.89
22.8051	533.12
22.8195	518.02
22.8340	582.21
22.8484	592.65
22.8629	643.93
22.8773	559.05
22.8917	499.03
22.9062	605.28
22.9206	557.89
22.9351	510.37
22.9495	509.10
22.9639	497.02
22.9784	581.04
22.9928	546.34
23.0073	547.74
23.0217	577.22
23.0361	662.56
23.0506	649.74
23.0650	517.14
23.0795	477.15
23.0939	581.13
23.1083	616.01
23.1228	564.43
23.1372	570.70
23.1517	539.86
23.1661	617.85
23.1806	573.49
23.1950	515.67
23.2094	482.78
23.2239	570.32
23.2383	525.03
23.2528	591.16
23.2672	562.83
23.2816	569.24
23.2961	497.12
23.3105	498.52
23.3250	517.48
23.3394	572.52
23.3538	533.83
23.3683	584.46
23.3827	590.45
23.3972	538.29
23.4116	543.29
23.4260	567.08
23.4405	446.91
23.4549	489.48
23.4694	570.78
23.4838	644.91
23.4982	493.85
23.5127	525.04
23.5271	554.25
23.5416	536.92
23.5560	587.59
23.5704	595.74
23.5849	622.34
23.5993	570.29
23.6138	580.23
23.6282	592.00
23.6426	560.60
23.6571	556.74
23.6715	584.15
23.6860	553.23
23.7004	558.86
23.7148	548.26
23.7293	547.89
23.7437	578.84
23.7582	575.52
23.7726	616.85
23.7870	545.37
23.8015	542.15
23.8159	564.38
23.8304	534.94
23.8448	577.88
23.8592	533.70
23.8737	540.72
23.8881	535.58
23.9026	567.27
23.9170	539.26
23.9314	534.09
23.9459	554.19
23.9603	568.82
23.9748	608.75
23.9892	536.28
24.0036	516.44
24.0181	568.98
24.0325	566.18
24.0470	559.84
24.0614	587.12
24.0758	542.12
24.0903	605.47
24.1047	564.82
24.1192	542.41
24.1336	589.87
24.1480	504.33
24.1625	533.13
24.1769	545.15
24.1914	616.36
24.2058	586.48
24.2202	624.02
24.2347	533.28
24.2491	623.51
24.2636	586.91
24.2780	619.10
24.2924	511.30
24.3069	578.97
24.3213	590.60
24.3358	603.78
24.3502	536.30
24.3646	560.65
24.3791	574.04
24.3935	529.44
24.4080	544.52
24.4224	541.79
24.4368	506.64
24.4513	550.76
24.4657	594.22
24.4802	574.66
24.4946	507.93
24.5090	548.70
24.5235	541.68
24.5379	567.60
24.5524	531.97
24.5668	557.98
24.5812	542.52
24.5957	590.31
24.6101	549.21
24.6246	562.79
24.6390	551.59
24.6534	567.99
24.6679	518.41
24.6823	567.07
24.6968	498.56
24.7112	576.31
24.7256	576.22
24.7401	584.88
24.7545	570.60
24.7690	554.27
24.7834	549.00
24.7978	600.28
24.8123	591.85
24.8267	514.08
24.8412	563.92
24.8556	643.79
24.8700	591.03
24.8845	537.56
24.8989	534.75
24.9134	510.23
24.9278	545.84
24.9422	529.96
24.9567	573.15
24.9711	552.13
24.9856	539.62
25.0000	546.25
25.0144	524.45
25.0289	581.21
25.0433	563.13
25.0578	532.96
25.0722	510.87
25.0866	549.56
25.1011	560.99
25.1155	570.19
25.1300	577.80
25.1444	549.47
25.1588	524.44
25.1733	560.59
25.1877	548.07
25.2022	516.04
25.2166	506.86
25.2310	538.15
25.2455	536.23
25.2599	534.93
25.2744	545.79
25.2888	561.13
25.3032	538.79
25.3177	537.38
25.3321	568.79
25.3466	502.34
25.3610	500.07
25.3754	546.15
25.3899	518.55
25.4043	491.07
25.4188	531.26
25.4332	512.82
25.4476	524.72
25.4621	536.79
25.4765	542.47
25.4910	563.86
25.5054	554.22
25.5198	537.29
25.5343	557.58
25.5487	552.10
25.5632	586.33
25.5776	551.02
25.5920	526.04
25.6065	541.68
25.6209	529.23
25.6354	521.06
25.6498	529.27
25.6642	522.60
25.6787	504.54
25.6931	543.27
25.7076	547.95
25.7220	531.96
25.7364	532.38
25.7509	515.58
25.7653	545.82
25.7798	572.58
25.7942	558.07
25.8086	540.44
25.8231	542.22
25.8375	518.60
25.8520	560.42
25.8664	583.13
25.8808	547.09
25.8953	557.07
25.9097	507.56
25.9242	520.02
25.9386	513.71
25.9530	543.40
25.9675	542.77
25.9819	513.39
25.9964	539.23
26.0108	552.83
26.0252	533.29
26.0397	541.06
26.0541	530.41
26.0686	497.38
26.0830	575.63
26.0974	549.08
26.1119	564.15
26.1263	549.17
26.1408	491.25
26.1552	486.95
26.1696	533.17
26.1841	531.02
26.1985	541.97
26.2130	534.33
26.2274	557.11
26.2418	537.07
26.2563	533.28
26.2707	551.65
26.2852	553.56
26.2996	538.64
26.3140	534.50
26.3285	539.19
26.3429	509.46
26.3574	536.53
26.3718	557.76
26.3862	546.69
26.4007	548.53
26.4151	516.17
26.4296	517.31
26.4440	563.52
26.4584	557.45
26.4729	547.33
26.4873	561.45
26.5018	525.23
26.5162	514.36
26.5306	523.47
26.5451	515.89
26.5595	531.97
26.5740	522.05
26.5884	521.99
26.6028	514.06
26.6173	492.03
26.6317	485.90
26.6462	515.28
26.6606	526.10
26.6750	541.57
26.6895	540.80
26.7039	565.08
26.7184	545.23
26.7328	532.33
26.7472	526.89
26.7617	534.15
26.7761	548.41
26.7906	512.04
26.8050	500.89
26.8194	502.65
26.8339	528.14
26.8483	540.51
26.8628	532.53
26.8772	517.51
26.8917	537.28
26.9061	544.81
26.9205	543.86
26.9350	539.95
26.9494	531.02
26.9639	488.70
26.9783	501.68
26.9927	549.53
27.0072	551.67
27.0216	519.73
27.0361	478.28
27.0505	460.18
27.0649	543.32
27.0794	559.75
27.0938	531.01
27.1083	510.92
27.1227	527.22
27.1371	530.33
27.1516	491.64
27.1660	504.63
27.1805	520.88
27.1949	514.52
27.2093	531.03
27.2238	528.86
27.2382	519.95
27.2527	519.17
27.2671	503.64
27.2815	530.77
27.2960	486.13
27.3104	519.11
27.3249	487.41
27.3393	509.40
27.3537	515.76
27.3682	512.26
27.3826	551.97
27.3971	534.55
27.4115	523.30
27.4259	552.85
27.4404	564.57
27.4548	549.47
27.4693	513.87
27.4837	496.75
27.4981	535.24
27.5126	537.43
27.5270	565.71
27.5415	534.61
27.5559	542.97
27.5703	547.71
27.5848	498.56
27.5992	513.63
27.6137	498.58
27.6281	522.02
27.6425	529.42
27.6570	520.02
27.6714	510.99
27.6859	523.10
27.7003	530.98
27.7147	543.49
27.7292	510.09
27.7436	514.05
27.7581	498.62
27.7725	531.06
27.7869	526.81
27.8014	507.15
27.8158	534.11
27.8303	536.03
27.8447	512.42
27.8591	515.06
27.8736	482.67
27.8880	522.68
27.9025	532.70
27.9169	516.76
27.9313	563.03
27.9458	542.41
27.9602	487.77
27.9747	475.02
27.9891	531.56
28.0035	488.21
28.0180	499.42
28.0324	535.25
28.0469	511.46
28.0613	502.06
28.0757	494.16
28.0902	525.74
28.1046	475.68
28.1191	525.58
28.1335	534.25
28.1479	504.95
28.1624	533.04
28.1768	565.90
28.1913	501.97
28.2057	518.56
28.2201	538.61
28.2346	524.13
28.2490	542.39
28.2635	531.91
28.2779	524.46
28.2923	524.46
28.3068	515.95
28.3212	556.14
28.3357	526.08
28.3501	531.16
28.3645	521.05
28.3790	514.81
28.3934	515.32
28.4079	547.20
28.4223	530.24
28.4367	516.93
28.4512	478.02
28.4656	536.88
28.4801	501.06
28.4945	501.46
28.5089	490.53
28.5234	481.44
28.5378	510.74
28.5523	526.17
28.5667	508.32
28.5811	481.32
28.5956	523.49
28.6100	552.39
28.6245	506.94
28.6389	530.54
28.6533	520.15
28.6678	512.59
28.6822	504.59
28.6967	515.40
28.7111	520.74
28.7255	488.34
28.7400	503.59
28.7544	545.51
28.7689	529.59
28.7833	521.96
28.7977	522.73
28.8122	512.74
28.8266	510.43
28.8411	484.02
28.8555	478.90
28.8699	496.71
28.8844	522.52
28.8988	519.94
28.9133	514.69
28.9277	478.41
28.9421	530.29
28.9566	519.58
28.9710	495.17
28.9855	546.01
28.9999	480.10
29.0143	506.21
29.0288	511.93
29.0432	497.63
29.0577	477.43
29.0721	524.21
29.0865	524.24
29.1010	522.39
29.1154	519.43
29.1299	536.31
29.1443	521.70
29.1587	515.64
29.1732	508.89
29.1876	522.52
29.2021	520.61
29.2165	504.46
29.2309	496.21
29.2454	526.81
29.2598	526.70
29.2743	481.75
29.2887	480.56
29.3031	500.28
29.3176	483.10
29.3320	510.99
29.3465	517.29
29.3609	538.23
29.3753	491.40
29.3898	490.63
29.4042	501.50
29.4187	528.13
29.4331	524.95
29.4475	502.73
29.4620	514.78
29.4764	519.22
29.4909	540.29
29.5053	483.30
29.5197	486.88
29.5342	475.48
29.5486	502.88
29.5631	517.01
29.5775	520.80
29.5919	513.61
29.6064	502.64
29.6208	507.72
29.6353	507.23
29.6497	509.17
29.6641	523.82
29.6786	514.53
29.6930	501.34
29.7075	506.33
29.7219	504.03
29.7363	517.34
29.7508	498.41
29.7652	485.71
29.7797	509.58
29.7941	505.78
29.8085	510.41
29.8230	558.81
29.8374	531.33
29.8519	532.64
29.8663	511.03
29.8807	526.83
29.8952	519.14
29.9096	523.80
29.9241	502.76
29.9385	513.49
29.9529	503.99
29.9674	502.76
29.9818	517.03
29.9963	505.42
30.0107	515.48
30.0251	538.60
30.0396	541.05
30.0540	456.66
30.0685	502.50
30.0829	516.12
30.0973	515.40
30.1118	507.74
30.1262	531.04
30.1407	505.78
30.1551	490.17
30.1695	523.22
30.1840	517.86
30.1984	493.45
30.2129	506.14
30.2273	506.90
30.2417	488.18
30.2562	504.48
30.2706	506.05
30.2851	525.05
30.2995	513.68
30.3139	527.25
30.3284	491.34
30.3428	501.30
30.3573	525.51
30.3717	511.23
30.3861	485.92
30.4006	505.96
30.4150	511.86
30.4295	500.99
30.4439	461.37
30.4583	515.41
30.4728	515.68
30.4872	537.95
30.5017	526.99
30.5161	494.12
30.5305	504.14
30.5450	526.59
30.5594	518.69
30.5739	500.88
30.5883	464.90
30.6028	526.12
30.6172	529.22
30.6316	519.00
30.6461	533.08
30.6605	519.57
30.6750	515.50
30.6894	532.75
30.7038	557.72
30.7183	550.72
30.7327	579.88
30.7472	631.07
30.7616	599.78
30.7760	607.16
30.7905	639.14
30.8049	640.24
30.8194	678.53
30.8338	712.00
30.8482	724.31
30.8627	713.05
30.8771	702.92
30.8916	692.82
30.9060	708.45
30.9204	628.58
30.9349	654.04
30.9493	637.94
30.9638	604.37
30.9782	572.36
30.9926	580.51
31.0071	553.94
31.0215	598.30
31.0360	562.77
31.0504	540.04
31.0648	558.31
31.0793	553.63
31.0937	534.12
31.1082	530.77
31.1226	537.96
31.1370	500.40
31.1515	487.58
31.1659	525.16
31.1804	531.56
31.1948	548.21
31.2092	506.15
31.2237	510.06
31.2381	516.51
31.2526	516.10
31.2670	530.29
31.2814	522.91
31.2959	527.81
31.3103	534.80
31.3248	531.23
31.3392	531.52
31.3536	519.65
31.3681	506.55
31.3825	519.54
31.3970	529.29
31.4114	525.39
31.4258	509.22
31.4403	513.98
31.4547	516.73
31.4692	522.66
31.4836	516.69
31.4980	485.33
31.5125	524.59
31.5269	534.83
31.5414	497.36
31.5558	520.43
31.5702	525.57
31.5847	524.50
31.5991	512.84
31.6136	506.90
31.6280	483.54
31.6424	473.22
31.6569	488.63
31.6713	514.28
31.6858	496.25
31.7002	504.68
31.7146	484.85
31.7291	495.30
31.7435	477.67
31.7580	484.40
31.7724	510.28
31.7868	504.49
31.8013	482.15
31.8157	495.43
31.8302	503.85
31.8446	501.92
31.8590	500.83
31.8735	496.74
31.8879	508.95
31.9024	508.99
31.9168	519.00
31.9312	549.71
31.9457	547.68
31.9601	517.97
31.9746	508.20
31.9890	540.79
32.0034	507.07
32.0179	517.12
32.0323	527.58
32.0468	478.10
32.0612	478.84
32.0756	493.59
32.0901	496.42
32.1045	512.04
32.1190	496.93
32.1334	523.17
32.1478	491.07
32.1623	529.04
32.1767	497.62
32.1912	482.36
32.2056	490.99
32.2200	496.60
32.2345	491.05
32.2489	547.91
32.2634	495.69
32.2778	541.28
32.2922	539.43
32.3067	524.41
32.3211	514.01
32.3356	527.95
32.3500	489.95
32.3644	490.53
32.3789	547.91
32.3933	509.68
32.4078	511.70
32.4222	511.16
32.4366	520.67
32.4511	507.55
32.4655	486.47
32.4800	508.02
32.4944	472.32
32.5088	481.30
32.5233	500.96
32.5377	537.40
32.5522	493.42
32.5666	506.25
32.5810	499.57
32.5955	533.06
32.6099	489.27
32.6244	489.19
32.6388	543.13
32.6532	537.13
32.6677	522.83
32.6821	508.24
32.6966	514.38
32.7110	486.54
32.7254	489.70
32.7399	525.23
32.7543	507.54
32.7688	526.29
32.7832	526.43
32.7976	513.78
32.8121	543.07
32.8265	518.17
32.8410	532.94
32.8554	530.52
32.8698	496.84
32.8843	479.94
32.8987	520.14
32.9132	534.27
32.9276	506.08
32.9420	512.00
32.9565	490.00
32.9709	527.17
32.9854	532.41
32.9998	544.30
33.0142	532.71
33.0287	526.53
33.0431	479.51
33.0576	529.30
33.0720	489.85
33.0864	539.95
33.1009	505.08
33.1153	511.93
33.1298	489.50
33.1442	502.83
33.1586	509.47
33.1731	540.88
33.1875	490.35
33.2020	484.47
33.2164	499.75
33.2308	497.38
33.2453	494.84
33.2597	510.88
33.2742	498.77
33.2886	485.43
33.3030	485.24
33.3175	502.71
33.3319	529.03
33.3464	535.34
33.3608	507.93
33.3752	460.88
33.3897	478.54
33.4041	497.31
33.4186	494.86
33.4330	523.17
33.4474	518.90
33.4619	522.16
33.4763	499.74
33.4908	493.79
33.5052	516.84
33.5196	502.61
33.5341	507.13
33.5485	501.89
33.5630	525.52
33.5774	483.58
33.5918	505.08
33.6063	492.75
33.6207	466.50
33.6352	496.13
33.6496	496.61
33.6640	442.70
33.6785	489.36
33.6929	501.74
33.7074	515.99
33.7218	503.11
33.7362	488.30
33.7507	525.63
33.7651	490.34
33.7796	478.66
33.7940	507.13
33.8084	509.27
33.8229	496.33
33.8373	498.73
33.8518	493.38
33.8662	504.17
33.8806	490.51
33.8951	480.59
33.9095	490.30
33.9240	485.25
33.9384	491.89
33.9528	468.49
33.9673	487.59
33.9817	549.21
33.9962	515.29
34.0106	455.69
34.0250	508.26
34.0395	485.35
34.0539	520.46
34.0684	517.27
34.0828	518.03
34.0972	503.56
34.1117	498.52
34.1261	522.54
34.1406	500.71
34.1550	507.26
34.1694	498.53
34.1839	502.36
34.1983	495.26
34.2128	510.43
34.2272	518.94
34.2417	518.02
34.2561	484.00
34.2705	498.29
34.2850	514.12
34.2994	509.83
34.3139	493.89
34.3283	500.28
34.3427	527.08
34.3572	488.10
34.3716	501.62
34.3861	505.82
34.4005	499.25
34.4149	507.06
34.4294	530.56
34.4438	480.05
34.4583	498.09
34.4727	523.50
34.4871	502.12
34.5016	540.98
34.5160	520.97
34.5305	529.56
34.5449	507.13
34.5593	526.11
34.5738	519.97
34.5882	520.83
34.6027	535.21
34.6171	528.67
34.6315	531.09
34.6460	484.27
34.6604	502.92
34.6749	480.36
34.6893	504.70
34.7037	526.71
34.7182	537.79
34.7326	517.25
34.7471	499.51
34.7615	478.06
34.7759	525.32
34.7904	500.23
34.8048	502.54
34.8193	511.11
34.8337	502.52
34.8481	515.49
34.8626	507.09
34.8770	479.22
34.8915	499.87
34.9059	554.94
34.9203	507.95
34.9348	515.12
34.9492	505.21
34.9637	502.36
34.9781	540.04
34.9925	539.89
35.0070	512.15
35.0214	517.64
35.0359	515.77
35.0503	513.22
35.0647	530.44
35.0792	529.59
35.0936	527.53
35.1081	505.74
35.1225	494.25
35.1369	527.58
35.1514	513.13
35.1658	523.31
35.1803	533.82
35.1947	509.70
35.2091	523.52
35.2236	493.01
35.2380	529.66
35.2525	503.42
35.2669	504.60
35.2813	523.31
35.2958	507.43
35.3102	506.91
35.3247	488.84
35.3391	510.04
35.3535	510.91
35.3680	522.29
35.3824	523.74
35.3969	498.98
35.4113	510.24
35.4257	538.65
35.4402	514.23
35.4546	511.00
35.4691	560.76
35.4835	551.64
35.4979	530.01
35.5124	528.65
35.5268	546.17
35.5413	527.31
35.5557	530.79
35.5701	489.80
35.5846	524.65
35.5990	540.18
35.6135	526.42
35.6279	527.60
35.6423	503.56
35.6568	513.34
35.6712	533.27
35.6857	539.00
35.7001	636.00
35.7145	702.76
35.7290	668.08
35.7434	585.92
35.7579	571.48
35.7723	560.02
35.7867	607.15
35.8012	611.85
35.8156	597.81
35.8301	596.58
35.8445	613.25
35.8589	659.32
35.8734	727.87
35.8878	862.70
35.9023	969.42
35.9167	1073.81
35.9311	1413.42
35.9456	2094.16
35.9600	2260.57
35.9745	1816.70
35.9889	1814.28
36.0033	2214.54
36.0178	2352.44
36.0322	1990.70
36.0467	1894.70
36.0611	1649.22
36.0755	1564.18
36.0900	1558.83
36.1044	1338.65
36.1189	1336.52
36.1333	1170.03
36.1477	1048.66
36.1622	1049.89
36.1766	1010.41
36.1911	942.68
36.2055	867.06
36.2199	826.00
36.2344	812.07
36.2488	855.06
36.2633	850.17
36.2777	928.27
36.2921	937.70
36.3066	1022.45
36.3210	1022.37
36.3355	1016.21
36.3499	1039.62
36.3643	971.61
36.3788	978.20
36.3932	926.05
36.4077	862.04
36.4221	897.34
36.4365	856.37
36.4510	791.37
36.4654	760.57
36.4799	732.14
36.4943	720.63
36.5087	671.18
36.5232	628.98
36.5376	646.78
36.5521	634.78
36.5665	618.75
36.5809	576.23
36.5954	565.81
36.6098	562.68
36.6243	559.24
36.6387	549.54
36.6531	546.37
36.6676	556.12
36.6820	525.38
36.6965	522.54
36.7109	558.20
36.7253	538.75
36.7398	555.14
36.7542	555.37
36.7687	544.00
36.7831	559.69
36.7975	568.14
36.8120	581.90
36.8264	582.00
36.8409	587.25
36.8553	582.04
36.8697	584.96
36.8842	590.68
36.8986	618.27
36.9131	623.06
36.9275	564.46
36.9419	574.90
36.9564	611.34
36.9708	523.29
36.9853	561.25
36.9997	564.59
37.0141	544.66
37.0286	522.48
37.0430	558.77
37.0575	521.90
37.0719	527.59
37.0863	554.11
37.1008	543.18
37.1152	530.75
37.1297	502.77
37.1441	488.49
37.1585	527.43
37.1730	540.45
37.1874	505.99
37.2019	535.18
37.2163	545.66
37.2307	497.07
37.2452	496.42
37.2596	508.41
37.2741	513.63
37.2885	492.63
37.3029	523.19
37.3174	487.02
37.3318	518.84
37.3463	504.10
37.3607	503.04
37.3751	507.92
37.3896	471.66
37.4040	484.25
37.4185	535.97
37.4329	545.22
37.4473	515.65
37.4618	510.24
37.4762	502.73
37.4907	487.82
37.5051	484.53
37.5195	485.55
37.5340	479.11
37.5484	512.85
37.5629	490.51
37.5773	507.64
37.5917	492.39
37.6062	490.51
37.6206	503.52
37.6351	515.15
37.6495	508.40
37.6639	488.25
37.6784	506.35
37.6928	482.90
37.7073	514.47
37.7217	509.14
37.7361	501.62
37.7506	506.80
37.7650	495.18
37.7795	509.64
37.7939	491.91
37.8083	529.80
37.8228	527.08
37.8372	488.94
37.8517	484.59
37.8661	526.54
37.8805	484.77
37.8950	504.27
37.9094	499.29
37.9239	491.13
37.9383	540.09
37.9528	517.62
37.9672	479.35
37.9816	512.09
37.9961	530.36
38.0105	505.48
38.0250	517.92
38.0394	492.14
38.0538	509.90
38.0683	535.34
38.0827	500.22
38.0972	488.47
38.1116	516.72
38.1260	523.42
38.1405	528.06
38.1549	494.07
38.1694	518.34
38.1838	499.71
38.1982	492.77
38.2127	496.93
38.2271	483.19
38.2416	506.60
38.2560	516.35
38.2704	510.79
38.2849	522.07
38.2993	508.32
38.3138	505.37
38.3282	523.74
38.3426	491.35
38.3571	523.02
38.3715	515.51
38.3860	478.57
38.4004	530.99
38.4148	556.01
38.4293	612.03
38.4437	558.24
38.4582	599.40
38.4726	656.47
38.4870	693.99
38.5015	738.15
38.5159	770.85
38.5304	817.06
38.5448	781.00
38.5592	799.46
38.5737	792.92
38.5881	745.56
38.6026	701.50
38.6170	691.26
38.6314	720.91
38.6459	692.44
38.6603	652.56
38.6748	634.16
38.6892	581.49
38.7036	582.30
38.7181	568.23
38.7325	546.49
38.7470	549.62
38.7614	494.95
38.7758	494.09
38.7903	502.87
38.8047	508.03
38.8192	513.26
38.8336	534.88
38.8480	492.71
38.8625	539.21
38.8769	530.80
38.8914	520.38
38.9058	530.40
38.9202	500.02
38.9347	533.20
38.9491	515.51
38.9636	483.23
38.9780	477.48
38.9924	538.71
39.0069	536.45
39.0213	507.09
39.0358	486.55
39.0502	464.57
39.0646	480.49
39.0791	490.55
39.0935	495.21
39.1080	488.27
39.1224	494.82
39.1368	500.02
39.1513	463.08
39.1657	504.07
39.1802	504.67
39.1946	494.65
39.2090	486.93
39.2235	480.38
39.2379	493.23
39.2524	511.67
39.2668	523.65
39.2812	519.28
39.2957	508.29
39.3101	511.44
39.3246	531.65
39.3390	522.86
39.3534	513.78
39.3679	501.10
39.3823	506.36
39.3968	482.53
39.4112	505.37
39.4256	526.80
39.4401	518.79
39.4545	522.24
39.4690	511.19
39.4834	502.04
39.4978	501.82
39.5123	510.14
39.5267	505.32
39.5412	496.15
39.5556	467.66
39.5700	500.11
39.5845	516.27
39.5989	510.96
39.6134	487.95
39.6278	506.82
39.6422	504.24
39.6567	539.12
39.6711	501.49
39.6856	507.70
39.7000	520.91
39.7144	513.70
39.7289	512.56
39.7433	531.37
39.7578	510.86
39.7722	474.43
39.7866	506.26
39.8011	512.26
39.8155	482.69
39.8300	510.77
39.8444	487.05
39.8588	484.16
39.8733	527.23
39.8877	528.67
39.9022	502.70
39.9166	526.92
39.9310	500.08
39.9455	507.70
39.9599	484.45
39.9744	527.85
39.9888	500.42
40.0032	482.10
40.0177	490.03
40.0321	506.32
40.0466	496.49
40.0610	487.03
40.0754	492.26
40.0899	513.76
40.1043	532.64
40.1188	490.88
40.1332	514.00
40.1476	472.63
40.1621	478.44
40.1765	482.39
40.1910	483.48
40.2054	519.01
40.2198	529.22
40.2343	489.96
40.2487	501.08
40.2632	503.56
40.2776	505.49
40.2920	493.96
40.3065	491.05
40.3209	492.09
40.3354	498.89
40.3498	509.89
40.3642	497.74
40.3787	482.26
40.3931	487.79
40.4076	490.17
40.4220	489.98
40.4364	500.90
40.4509	465.48
40.4653	469.61
40.4798	449.95
40.4942	497.17
40.5086	491.00
40.5231	496.01
40.5375	504.36
40.5520	481.91
40.5664	508.90
40.5808	505.63
40.5953	496.66
40.6097	486.86
40.6242	510.95
40.6386	512.53
40.6530	517.99
40.6675	486.18
40.6819	486.99
40.6964	472.41
40.7108	533.15
40.7252	505.42
40.7397	464.04
40.7541	445.10
40.7686	498.27
40.7830	532.23
40.7974	498.53
40.8119	488.20
40.8263	523.48
40.8408	493.51
40.8552	515.41
40.8696	507.49
40.8841	543.61
40.8985	534.77
40.9130	509.08
40.9274	482.82
40.9418	494.85
40.9563	517.64
40.9707	485.37
40.9852	500.98
40.9996	474.40
41.0140	502.25
41.0285	486.34
41.0429	488.66
41.0574	494.51
41.0718	517.31
41.0862	500.68
41.1007	504.26
41.1151	508.51
41.1296	496.68
41.1440	485.62
41.1584	455.18
41.1729	465.74
41.1873	523.67
41.2018	507.04
41.2162	471.40
41.2306	451.36
41.2451	500.92
41.2595	514.17
41.2740	523.21
41.2884	522.07
41.3028	536.01
41.3173	524.72
41.3317	494.17
41.3462	510.85
41.3606	471.75
41.3750	498.16
41.3895	482.19
41.4039	478.04
41.4184	503.46
41.4328	501.90
41.4472	530.72
41.4617	481.76
41.4761	515.51
41.4906	509.71
41.5050	482.58
41.5194	478.51
41.5339	486.24
41.5483	493.00
41.5628	511.93
41.5772	531.64
41.5916	521.81
41.6061	506.92
41.6205	495.25
41.6350	476.14
41.6494	512.86
41.6639	510.16
41.6783	486.78
41.6927	511.36
41.7072	553.22
41.7216	528.09
41.7361	515.78
41.7505	509.95
41.7649	521.56
41.7794	524.27
41.7938	497.11
41.8083	511.13
41.8227	537.76
41.8371	534.40
41.8516	538.03
41.8660	522.01
41.8805	563.44
41.8949	575.60
41.9093	544.68
41.9238	554.47
41.9382	585.14
41.9527	563.13
41.9671	599.29
41.9815	559.33
41.9960	555.28
42.0104	551.64
42.0249	556.73
42.0393	554.20
42.0537	563.24
42.0682	575.01
42.0826	579.12
42.0971	577.21
42.1115	587.75
42.1259	599.19
42.1404	580.80
42.1548	647.90
42.1693	660.31
42.1837	703.65
42.1981	706.91
42.2126	815.99
42.2270	891.38
42.2415	1000.78
42.2559	1118.78
42.2703	1298.94
42.2848	1456.83
42.2992	1537.06
42.3137	1638.87
42.3281	1588.22
42.3425	1512.90
42.3570	1401.87
42.3714	1378.62
42.3859	1388.43
42.4003	1346.89
42.4147	1298.07
42.4292	1228.21
42.4436	1090.77
42.4581	996.95
42.4725	925.21
42.4869	790.25
42.5014	725.26
42.5158	687.68
42.5303	623.40
42.5447	632.68
42.5591	604.81
42.5736	587.48
42.5880	591.22
42.6025	563.38
42.6169	550.42
42.6313	541.82
42.6458	552.61
42.6602	556.53
42.6747	543.27
42.6891	539.62
42.7035	494.80
42.7180	508.36
42.7324	523.10
42.7469	527.69
42.7613	521.48
42.7757	558.80
42.7902	514.91
42.8046	519.37
42.8191	521.39
42.8335	521.79
42.8479	491.85
42.8624	541.18
42.8768	524.54
42.8913	493.14
42.9057	506.17
42.9201	499.65
42.9346	520.68
42.9490	513.38
42.9635	490.04
42.9779	505.67
42.9923	505.03
43.0068	504.27
43.0212	532.74
43.0357	510.78
43.0501	499.62
43.0645	526.99
43.0790	526.04
43.0934	506.02
43.1079	506.78
43.1223	536.19
43.1367	499.68
43.1512	452.75
43.1656	543.63
43.1801	518.89
43.1945	534.91
43.2089	506.24
43.2234	537.75
43.2378	530.32
43.2523	543.93
43.2667	554.67
43.2811	498.67
43.2956	519.61
43.3100	498.69
43.3245	505.19
43.3389	498.65
43.3533	496.83
43.3678	522.48
43.3822	526.81
43.3967	519.21
43.4111	505.66
43.4255	546.51
43.4400	510.54
43.4544	503.43
43.4689	537.51
43.4833	547.85
43.4977	526.30
43.5122	535.12
43.5266	525.73
43.5411	506.58
43.5555	512.33
43.5699	511.54
43.5844	497.05
43.5988	535.47
43.6133	516.87
43.6277	528.10
43.6421	514.67
43.6566	575.21
43.6710	509.63
43.6855	505.77
43.6999	534.58
43.7143	521.58
43.7288	508.05
43.7432	528.69
43.7577	507.74
43.7721	503.90
43.7865	520.14
43.8010	513.18
43.8154	529.47
43.8299	503.46
43.8443	499.69
43.8587	507.44
43.8732	534.68
43.8876	514.85
43.9021	521.33
43.9165	561.10
43.9309	508.69
43.9454	518.29
43.9598	502.93
43.9743	503.12
43.9887	559.01
44.0031	531.98
44.0176	544.14
44.0320	555.96
44.0465	551.50
44.0609	556.04
44.0753	552.21
44.0898	604.64
44.1042	573.11
44.1187	568.21
44.1331	619.19
44.1475	604.83
44.1620	646.23
44.1764	644.83
44.1909	604.16
44.2053	595.19
44.2197	596.92
44.2342	576.84
44.2486	600.73
44.2631	604.11
44.2775	611.68
44.2919	610.03
44.3064	566.10
44.3208	580.06
44.3353	563.61
44.3497	563.50
44.3641	542.78
44.3786	522.44
44.3930	561.34
44.4075	588.81
44.4219	580.34
44.4363	585.61
44.4508	602.90
44.4652	561.46
44.4797	563.71
44.4941	588.93
44.5085	566.09
44.5230	583.67
44.5374	549.91
44.5519	570.16
44.5663	569.44
44.5807	580.97
44.5952	591.34
44.6096	607.13
44.6241	575.78
44.6385	552.82
44.6529	561.03
44.6674	615.31
44.6818	639.88
44.6963	651.82
44.7107	711.07
44.7251	700.86
44.7396	762.18
44.7540	822.26
44.7685	842.14
44.7829	860.44
44.7973	855.16
44.8118	857.93
44.8262	819.16
44.8407	787.65
44.8551	692.31
44.8695	703.68
44.8840	710.39
44.8984	826.93
44.9129	744.89
44.9273	649.42
44.9417	620.88
44.9562	583.53
44.9706	601.60
44.9851	571.06
44.9995	514.52
45.0139	522.21
45.0284	540.17
45.0428	496.95
45.0573	536.33
45.0717	519.15
45.0861	535.77
45.1006	548.51
45.1150	551.19
45.1295	490.21
45.1439	483.85
45.1583	514.84
45.1728	527.87
45.1872	493.80
45.2017	480.49
45.2161	531.92
45.2305	490.18
45.2450	506.60
45.2594	464.83
45.2739	515.32
45.2883	497.96
45.3028	496.12
45.3172	483.17
45.3316	486.08
45.3461	522.79
45.3605	494.37
45.3750	516.30
45.3894	490.55
45.4038	491.27
45.4183	490.57
45.4327	524.18
45.4472	521.63
45.4616	508.64
45.4760	519.31
45.4905	521.32
45.5049	506.74
45.5194	511.12
45.5338	523.77
45.5482	505.08
45.5627	500.47
45.5771	509.43
45.5916	525.61
45.6060	484.45
45.6204	473.33
45.6349	516.98
45.6493	528.21
45.6638	529.09
45.6782	469.86
45.6926	518.01
45.7071	548.47
45.7215	500.38
45.7360	509.54
45.7504	502.29
45.7648	490.48
45.7793	520.71
45.7937	533.97
45.8082	535.11
45.8226	491.17
45.8370	504.57
45.8515	526.13
45.8659	508.37
45.8804	512.62
45.8948	508.27
45.9092	497.15
45.9237	484.96
45.9381	486.81
45.9526	493.33
45.9670	487.14
45.9814	491.49
45.9959	489.07
46.0103	496.41
46.0248	500.93
46.0392	493.49
46.0536	527.82
46.0681	513.85
46.0825	502.45
46.0970	512.39
46.1114	512.92
46.1258	543.97
46.1403	509.42
46.1547	514.21
46.1692	513.13
46.1836	491.31
46.1980	452.63
46.2125	501.15
46.2269	491.06
46.2414	518.19
46.2558	503.23
46.2702	512.99
46.2847	517.33
46.2991	493.47
46.3136	512.71
46.3280	510.28
46.3424	496.37
46.3569	493.84
46.3713	497.71
46.3858	467.37
46.4002	507.16
46.4146	515.05
46.4291	495.14
46.4435	460.76
46.4580	499.24
46.4724	504.05
46.4868	519.56
46.5013	518.48
46.5157	523.31
46.5302	507.39
46.5446	497.84
46.5590	509.60
46.5735	478.91
46.5879	499.35
46.6024	523.27
46.6168	531.09
46.6312	505.29
46.6457	491.26
46.6601	518.29
46.6746	503.43
46.6890	522.58
46.7034	494.38
46.7179	478.57
46.7323	489.18
46.7468	490.45
46.7612	499.25
46.7756	529.10
46.7901	497.28
46.8045	480.13
46.8190	484.42
46.8334	468.82
46.8478	512.41
46.8623	524.15
46.8767	512.01
46.8912	506.06
46.9056	516.50
46.9200	505.76
46.9345	517.25
46.9489	520.21
46.9634	504.91
46.9778	492.51
46.9922	503.20
47.0067	537.40
47.0211	538.17
47.0356	496.97
47.0500	524.81
47.0644	516.12
47.0789	514.41
47.0933	516.02
47.1078	522.35
47.1222	533.61
47.1366	512.70
47.1511	530.07
47.1655	528.82
47.1800	527.22
47.1944	499.62
47.2088	497.46
47.2233	512.30
47.2377	510.95
47.2522	490.03
47.2666	501.53
47.2810	527.14
47.2955	496.56
47.3099	498.87
47.3244	510.42
47.3388	532.53
47.3532	529.36
47.3677	497.55
47.3821	489.99
47.3966	465.00
47.4110	501.60
47.4254	549.21
47.4399	509.45
47.4543	486.80
47.4688	523.81
47.4832	513.08
47.4976	485.94
47.5121	500.77
47.5265	514.78
47.5410	532.03
47.5554	489.49
47.5698	469.34
47.5843	494.98
47.5987	522.62
47.6132	524.30
47.6276	522.46
47.6420	535.15
47.6565	526.89
47.6709	546.09
47.6854	511.64
47.6998	497.66
47.7142	507.85
47.7287	504.33
47.7431	503.07
47.7576	485.40
47.7720	529.41
47.7864	525.42
47.8009	490.72
47.8153	512.59
47.8298	511.31
47.8442	526.24
47.8586	507.35
47.8731	477.89
47.8875	463.79
47.9020	526.84
47.9164	499.87
47.9308	500.48
47.9453	467.42
47.9597	496.58
47.9742	510.58
47.9886	506.94
48.0030	475.43
48.0175	474.06
48.0319	504.99
48.0464	490.70
48.0608	524.94
48.0752	499.78
48.0897	491.03
48.1041	493.43
48.1186	503.38
48.1330	527.95
48.1474	487.68
48.1619	520.13
48.1763	529.19
48.1908	519.46
48.2052	525.73
48.2196	507.23
48.2341	497.97
48.2485	515.70
48.2630	480.90
48.2774	489.82
48.2918	505.77
48.3063	493.21
48.3207	539.89
48.3352	543.29
48.3496	530.41
48.3640	549.02
48.3785	516.14
48.3929	503.71
48.4074	524.14
48.4218	508.88
48.4362	522.81
48.4507	533.54
48.4651	513.93
48.4796	495.09
48.4940	538.13
48.5084	545.58
48.5229	528.33
48.5373	523.92
48.5518	506.58
48.5662	499.22
48.5806	504.89
48.5951	528.91
48.6095	539.51
48.6240	556.03
48.6384	561.70
48.6528	533.84
48.6673	498.13
48.6817	486.03
48.6962	513.82
48.7106	518.73
48.7250	494.52
48.7395	500.57
48.7539	537.45
48.7684	521.48
48.7828	530.08
48.7972	533.59
48.8117	555.34
48.8261	529.50
48.8406	525.80
48.8550	539.52
48.8694	557.44
48.8839	541.00
48.8983	550.31
48.9128	590.46
48.9272	529.04
48.9416	566.09
48.9561	593.05
48.9705	579.66
48.9850	579.12
48.9994	569.18
49.0139	650.25
49.0283	611.31
49.0427	620.87
49.0572	632.62
49.0716	687.93
49.0861	696.27
49.1005	726.78
49.1149	699.47
49.1294	730.96
49.1438	748.81
49.1583	811.05
49.1727	853.97
49.1871	869.36
49.2016	912.20
49.2160	991.22
49.2305	1061.59
49.2449	1213.62
49.2593	1255.66
49.2738	1304.20
49.2882	1426.84
49.3027	1510.56
49.3171	1666.63
49.3315	1715.23
49.3460	1705.96
49.3604	1755.72
49.3749	1758.63
49.3893	1721.84
49.4037	1717.30
49.4182	1793.06
49.4326	1775.31
49.4471	1620.76
49.4615	1607.67
49.4759	1510.39
49.4904	1408.52
49.5048	1350.87
49.5193	1305.38
49.5337	1323.68
49.5481	1216.74
49.5626	1110.76
49.5770	1055.58
49.5915	964.51
49.6059	918.03
49.6203	882.73
49.6348	860.33
49.6492	777.33
49.6637	728.34
49.6781	700.33
49.6925	681.91
49.7070	692.15
49.7214	646.75
49.7359	646.99
49.7503	656.48
49.7647	591.00
49.7792	594.67
49.7936	636.58
49.8081	605.73
49.8225	564.34
49.8369	541.19
49.8514	585.05
49.8658	557.23
49.8803	528.63
49.8947	539.28
49.9091	564.36
49.9236	533.49
49.9380	532.63
49.9525	531.33
49.9669	561.55
49.9813	531.03
49.9958	533.38
50.0102	533.74
50.0247	540.90
50.0391	555.96
50.0535	529.03
50.0680	539.72
50.0824	550.06
50.0969	524.56
50.1113	538.51
50.1257	585.66
50.1402	546.19
50.1546	507.48
50.1691	490.92
50.1835	503.71
50.1979	507.88
50.2124	544.05
50.2268	527.89
50.2413	502.79
50.2557	521.84
50.2701	510.20
50.2846	528.49
50.2990	490.68
50.3135	510.50
50.3279	514.99
50.3423	536.16
50.3568	536.92
50.3712	528.51
50.3857	512.71
50.4001	494.44
50.4145	492.08
50.4290	508.13
50.4434	530.34
50.4579	488.24
50.4723	479.93
50.4867	532.62
50.5012	490.29
50.5156	537.93
50.5301	519.72
50.5445	510.54
50.5589	518.29
50.5734	495.31
50.5878	511.75
50.6023	504.89
50.6167	528.99
50.6311	526.13
50.6456	517.75
50.6600	538.11
50.6745	505.61
50.6889	475.90
50.7033	510.32
50.7178	515.45
50.7322	497.29
50.7467	507.44
50.7611	477.68
50.7755	512.91
50.7900	486.40
50.8044	489.71
50.8189	514.74
50.8333	508.79
50.8477	500.65
50.8622	513.65
50.8766	516.25
50.8911	517.93
50.9055	499.08
50.9199	499.48
50.9344	522.02
50.9488	508.07
50.9633	464.34
50.9777	485.53
50.9921	513.93
51.0066	466.85
51.0210	507.38
51.0355	538.73
51.0499	490.16
51.0643	509.13
51.0788	515.52
51.0932	521.51
51.1077	515.49
51.1221	506.34
51.1365	520.97
51.1510	514.84
51.1654	527.81
51.1799	520.20
51.1943	502.85
51.2087	492.62
51.2232	496.70
51.2376	521.10
51.2521	510.86
51.2665	507.01
51.2809	502.31
51.2954	484.48
51.3098	478.87
51.3243	484.81
51.3387	516.33
51.3531	509.33
51.3676	528.41
51.3820	498.97
51.3965	496.71
51.4109	501.22
51.4253	541.36
51.4398	511.92
51.4542	500.21
51.4687	520.87
51.4831	521.10
51.4975	487.62
51.5120	509.12
51.5264	519.38
51.5409	515.62
51.5553	550.07
51.5697	509.27
51.5842	522.93
51.5986	520.17
51.6131	546.71
51.6275	496.39
51.6419	513.18
51.6564	514.27
51.6708	508.46
51.6853	495.77
51.6997	496.91
51.7141	536.45
51.7286	515.34
51.7430	528.00
51.7575	509.23
51.7719	521.39
51.7863	524.73
51.8008	511.25
51.8152	515.58
51.8297	534.38
51.8441	527.25
51.8585	506.94
51.8730	529.51
51.8874	520.68
51.9019	536.08
51.9163	532.22
51.9307	514.72
51.9452	514.69
51.9596	535.93
51.9741	512.99
51.9885	531.71
52.0029	521.05
52.0174	526.49
52.0318	479.19
52.0463	505.73
52.0607	492.47
52.0751	518.45
52.0896	518.55
52.1040	457.71
52.1185	533.70
52.1329	524.48
52.1473	475.64
52.1618	468.29
52.1762	524.67
52.1907	534.28
52.2051	510.81
52.2195	532.92
52.2340	510.71
52.2484	490.46
52.2629	512.93
52.2773	496.04
52.2917	508.48
52.3062	516.23
52.3206	515.26
52.3351	492.31
52.3495	508.96
52.3639	516.79
52.3784	518.31
52.3928	505.82
52.4073	543.25
52.4217	526.26
52.4361	487.81
52.4506	491.63
52.4650	504.08
52.4795	529.85
52.4939	506.53
52.5083	507.45
52.5228	504.27
52.5372	515.81
52.5517	527.28
52.5661	525.14
52.5805	490.34
52.5950	505.54
52.6094	482.53
52.6239	499.80
52.6383	526.63
52.6527	497.04
52.6672	499.15
52.6816	508.63
52.6961	528.47
52.7105	524.85
52.7250	502.32
52.7394	497.71
52.7538	517.01
52.7683	481.65
52.7827	518.11
52.7972	515.07
52.8116	524.09
52.8260	503.39
52.8405	499.32
52.8549	498.11
52.8694	522.21
52.8838	499.42
52.8982	477.47
52.9127	467.38
52.9271	512.20
52.9416	562.68
52.9560	521.26
52.9704	484.81
52.9849	503.56
52.9993	525.11
53.0138	507.93
53.0282	508.47
53.0426	544.38
53.0571	585.27
53.0715	537.84
53.0860	513.23
53.1004	487.39
53.1148	558.76
53.1293	526.80
53.1437	520.24
53.1582	526.39
53.1726	531.22
53.1870	488.60
53.2015	498.90
53.2159	501.23
53.2304	502.49
53.2448	521.25
53.2592	516.83
53.2737	509.63
53.2881	523.27
53.3026	505.04
53.3170	520.78
53.3314	561.20
53.3459	512.17
53.3603	547.46
53.3748	511.39
53.3892	493.69
53.4036	524.55
53.4181	510.73
53.4325	529.99
53.4470	530.01
53.4614	533.61
53.4758	553.50
53.4903	509.94
53.5047	502.57
53.5192	479.92
53.5336	505.16
53.5480	512.77
53.5625	523.09
53.5769	539.08
53.5914	556.19
53.6058	528.27
53.6202	508.94
53.6347	522.98
53.6491	526.58
53.6636	529.60
53.6780	512.76
53.6924	474.69
53.7069	496.25
53.7213	502.07
53.7358	534.54
53.7502	516.87
53.7646	497.54
53.7791	504.51
53.7935	468.01
53.8080	541.79
53.8224	502.95
53.8368	553.39
53.8513	535.19
53.8657	533.41
53.8802	482.81
53.8946	522.27
53.9090	531.59
53.9235	503.02
53.9379	536.06
53.9524	522.22
53.9668	532.52
53.9812	526.79
53.9957	514.06
54.0101	500.19
54.0246	551.09
54.0390	526.19
54.0534	499.01
54.0679	521.63
54.0823	547.30
54.0968	536.91
54.1112	543.33
54.1256	543.69
54.1401	529.35
54.1545	482.44
54.1690	494.79
54.1834	491.61
54.1978	488.16
54.2123	530.94
54.2267	513.03
54.2412	530.40
54.2556	527.77
54.2700	524.02
54.2845	546.90
54.2989	501.13
54.3134	532.61
54.3278	534.36
54.3422	533.59
54.3567	529.76
54.3711	537.68
54.3856	517.52
54.4000	514.41
54.4144	534.06
54.4289	525.73
54.4433	480.69
54.4578	470.89
54.4722	528.93
54.4866	544.85
54.5011	527.61
54.5155	553.61
54.5300	556.24
54.5444	526.61
54.5588	523.24
54.5733	524.50
54.5877	527.76
54.6022	558.48
54.6166	539.39
54.6310	534.97
54.6455	542.19
54.6599	552.50
54.6744	552.41
54.6888	552.25
54.7032	547.67
54.7177	570.66
54.7321	576.24
54.7466	571.32
54.7610	575.00
54.7754	582.27
54.7899	585.97
54.8043	617.20
54.8188	597.59
54.8332	572.40
54.8476	573.82
54.8621	582.76
54.8765	592.81
54.8910	547.80
54.9054	577.91
54.9198	566.01
54.9343	566.50
54.9487	556.57
54.9632	537.48
54.9776	587.89
54.9920	577.80
55.0065	568.27
55.0209	572.71
55.0354	581.18
55.0498	585.21
55.0642	520.74
55.0787	521.90
55.0931	546.10
55.1076	506.36
55.1220	518.16
55.1364	530.42
55.1509	530.93
55.1653	540.01
55.1798	544.05
55.1942	534.36
55.2086	535.48
55.2231	557.10
55.2375	532.67
55.2520	490.53
55.2664	511.61
55.2808	534.77
55.2953	509.72
55.3097	515.34
55.3242	507.82
55.3386	530.79
55.3530	505.09
55.3675	507.78
55.3819	516.48
55.3964	479.75
55.4108	501.15
55.4252	555.95
55.4397	538.04
55.4541	515.10
55.4686	548.89
55.4830	530.24
55.4974	504.59
55.5119	520.61
55.5263	543.74
55.5408	519.18
55.5552	528.38
55.5696	510.29
55.5841	532.02
55.5985	515.66
55.6130	523.30
55.6274	545.61
55.6418	521.85
55.6563	538.31
55.6707	525.87
55.6852	514.26
55.6996	547.29
55.7140	545.67
55.7285	547.85
55.7429	539.14
55.7574	532.96
55.7718	531.58
55.7862	541.61
55.8007	505.33
55.8151	547.56
55.8296	540.37
55.8440	564.39
55.8584	573.68
55.8729	557.55
55.8873	520.25
55.9018	521.20
55.9162	526.21
55.9306	521.24
55.9451	497.10
55.9595	530.46
55.9740	519.76
55.9884	540.87
56.0028	507.63
56.0173	491.02
56.0317	538.52
56.0462	524.76
56.0606	510.32
56.0750	535.12
56.0895	526.52
56.1039	528.71
56.1184	498.80
56.1328	532.83
56.1472	513.15
56.1617	520.45
56.1761	520.00
56.1906	514.16
56.2050	496.87
56.2194	495.28
56.2339	471.32
56.2483	526.74
56.2628	496.97
56.2772	526.95
56.2916	511.82
56.3061	522.21
56.3205	507.45
56.3350	518.02
56.3494	515.27
56.3639	538.06
56.3783	520.30
56.3927	552.75
56.4072	515.08
56.4216	528.09
56.4361	506.19
56.4505	485.48
56.4649	520.50
56.4794	514.90
56.4938	523.13
56.5083	525.47
56.5227	475.36
56.5371	523.51
56.5516	542.54
56.5660	524.41
56.5805	548.17
56.5949	550.36
56.6093	554.05
56.6238	508.42
56.6382	539.59
56.6527	562.68
56.6671	535.89
56.6815	532.77
56.6960	528.48
56.7104	543.55
56.7249	562.13
56.7393	524.69
56.7537	497.44
56.7682	519.99
56.7826	533.19
56.7971	505.89
56.8115	524.05
56.8259	531.84
56.8404	500.75
56.8548	537.88
56.8693	547.97
56.8837	546.18
56.8981	581.97
56.9126	506.66
56.9270	532.27
56.9415	556.34
56.9559	540.20
56.9703	561.76
56.9848	542.22
56.9992	540.78
57.0137	560.81
57.0281	526.82
57.0425	516.63
57.0570	507.71
57.0714	520.63
57.0859	522.16
57.1003	530.55
57.1147	520.46
57.1292	549.86
57.1436	514.08
57.1581	483.94
57.1725	512.55
57.1869	502.89
57.2014	513.78
57.2158	499.81
57.2303	471.82
57.2447	487.60
57.2591	507.12
57.2736	506.11
57.2880	531.57
57.3025	523.88
57.3169	526.14
57.3313	505.12
57.3458	505.45
57.3602	519.62
57.3747	520.11
57.3891	508.73
57.4035	512.82
57.4180	526.25
57.4324	537.80
57.4469	560.33
57.4613	540.15
57.4757	578.14
57.4902	521.43
57.5046	517.24
57.5191	518.76
57.5335	550.34
57.5479	529.38
57.5624	535.76
57.5768	530.51
57.5913	515.57
57.6057	529.80
57.6201	525.64
57.6346	512.78
57.6490	521.59
57.6635	542.14
57.6779	540.81
57.6923	537.46
57.7068	587.48
57.7212	534.42
57.7357	514.35
57.7501	553.48
57.7645	528.98
57.7790	530.77
57.7934	540.38
57.8079	523.49
57.8223	515.68
57.8367	556.82
57.8512	561.33
57.8656	546.74
57.8801	559.10
57.8945	545.61
57.9089	485.51
57.9234	505.26
57.9378	567.78
57.9523	534.55
57.9667	508.21
57.9811	516.76
57.9956	541.12
58.0100	529.94
58.0245	497.38
58.0389	533.93
58.0533	543.92
58.0678	538.92
58.0822	555.79
58.0967	534.10
58.1111	534.48
58.1255	566.73
58.1400	509.63
58.1544	517.57
58.1689	562.89
58.1833	550.03
58.1977	535.21
58.2122	560.86
58.2266	552.03
58.2411	572.85
58.2555	564.56
58.2699	565.90
58.2844	592.59
58.2988	582.65
58.3133	605.36
58.3277	630.15
58.3421	619.28
58.3566	607.73
58.3710	645.04
58.3855	636.73
58.3999	636.72
58.4143	637.30
58.4288	672.79
58.4432	619.60
58.4577	652.36
58.4721	636.57
58.4865	657.06
58.5010	665.00
58.5154	666.87
58.5299	672.71
58.5443	683.61
58.5587	662.18
58.5732	621.34
58.5876	624.84
58.6021	628.19
58.6165	590.12
58.6309	589.91
58.6454	585.57
58.6598	578.51
58.6743	589.34
58.6887	603.78
58.7031	579.25
58.7176	551.30
58.7320	544.06
58.7465	600.48
58.7609	558.35
58.7753	527.56
58.7898	562.08
58.8042	550.09
58.8187	586.43
58.8331	547.94
58.8475	567.76
58.8620	563.53
58.8764	523.70
58.8909	552.16
58.9053	565.13
58.9197	533.12
58.9342	554.14
58.9486	573.05
58.9631	560.89
58.9775	545.16
58.9919	532.95
59.0064	527.16
59.0208	546.68
59.0353	527.60
59.0497	502.29
59.0641	558.91
59.0786	557.15
59.0930	521.92
59.1075	522.28
59.1219	549.81
59.1363	521.66
59.1508	511.34
59.1652	544.22
59.1797	534.52
59.1941	543.78
59.2085	561.41
59.2230	575.81
59.2374	566.01
59.2519	596.16
59.2663	559.73
59.2807	546.42
59.2952	555.74
59.3096	568.35
59.3241	556.96
59.3385	530.58
59.3529	559.48
59.3674	549.03
59.3818	562.83
59.3963	568.22
59.4107	533.51
59.4251	541.99
59.4396	581.20
59.4540	540.59
59.4685	568.82
59.4829	566.06
59.4973	558.86
59.5118	553.84
59.5262	550.04
59.5407	573.03
59.5551	547.18
59.5695	542.10
59.5840	525.27
59.5984	536.55
59.6129	519.22
59.6273	518.05
59.6417	544.53
59.6562	539.57
59.6706	542.84
59.6851	511.13
59.6995	570.70
59.7139	530.48
59.7284	513.38
59.7428	539.74
59.7573	584.45
59.7717	552.07
59.7861	548.68
59.8006	551.93
59.8150	523.88
59.8295	515.57
59.8439	534.18
59.8583	518.65
59.8728	554.51
59.8872	526.84
59.9017	558.68
59.9161	560.88
59.9305	536.17
59.9450	548.39
59.9594	511.15
59.9739	525.08
59.9883	579.28
60.0027	541.52
60.0172	542.96
60.0316	543.49
60.0461	523.94
60.0605	544.34
60.0750	516.85
60.0894	555.26
60.1038	562.32
60.1183	538.17
60.1327	559.70
60.1472	515.69
60.1616	531.72
60.1760	535.50
60.1905	535.02
60.2049	537.52
60.2194	528.94
60.2338	505.99
60.2482	539.42
60.2627	507.87
60.2771	558.25
60.2916	525.48
60.3060	515.71
60.3204	527.05
60.3349	540.71
60.3493	519.53
60.3638	531.40
60.3782	520.10
60.3926	515.81
60.4071	521.41
60.4215	528.75
60.4360	551.50
60.4504	532.63
60.4648	550.29
60.4793	566.17
60.4937	579.12
60.5082	559.41
60.5226	501.76
60.5370	565.10
60.5515	572.21
60.5659	564.99
60.5804	529.77
60.5948	552.14
60.6092	538.30
60.6237	532.52
60.6381	548.61
60.6526	524.35
60.6670	530.58
60.6814	499.60
60.6959	532.23
60.7103	527.74
60.7248	514.24
60.7392	515.12
60.7536	527.23
60.7681	514.11
60.7825	530.85
60.7970	544.11
60.8114	535.84
60.8258	502.71
60.8403	529.28
60.8547	555.55
60.8692	528.05
60.8836	547.62
60.8980	549.90
60.9125	525.95
60.9269	540.08
60.9414	547.80
60.9558	541.49
60.9702	548.83
60.9847	529.24
60.9991	538.59
61.0136	535.14
61.0280	561.85
61.0424	525.60
61.0569	520.54
61.0713	505.99
61.0858	543.60
61.1002	506.95
61.1146	569.19
61.1291	551.01
61.1435	523.84
61.1580	542.03
61.1724	551.97
61.1868	527.09
61.2013	505.68
61.2157	533.45
61.2302	558.20
61.2446	539.81
61.2590	562.51
61.2735	538.76
61.2879	545.89
61.3024	553.31
61.3168	567.12
61.3312	558.25
61.3457	563.14
61.3601	527.57
61.3746	531.17
61.3890	532.53
61.4034	522.99
61.4179	544.25
61.4323	571.41
61.4468	555.41
61.4612	571.18
61.4756	550.81
61.4901	561.78
61.5045	552.78
61.5190	550.29
61.5334	525.66
61.5478	515.04
61.5623	557.59
61.5767	555.29
61.5912	528.38
61.6056	520.98
61.6200	514.44
61.6345	524.33
61.6489	566.43
61.6634	549.16
61.6778	534.95
61.6922	516.98
61.7067	569.06
61.7211	550.43
61.7356	542.10
61.7500	541.10
61.7644	518.76
61.7789	558.04
61.7933	560.15
61.8078	584.20
61.8222	551.10
61.8366	526.09
61.8511	520.47
61.8655	541.67
61.8800	533.64
61.8944	527.46
61.9088	530.24
61.9233	555.21
61.9377	544.19
61.9522	524.63
61.9666	568.79
61.9810	586.49
61.9955	547.98
62.0099	522.83
62.0244	545.71
62.0388	563.26
62.0532	564.48
62.0677	551.79
62.0821	574.35
62.0966	560.06
62.1110	526.23
62.1254	546.35
62.1399	552.99
62.1543	550.95
62.1688	550.61
62.1832	531.45
62.1976	559.82
62.2121	565.81
62.2265	531.99
62.2410	550.83
62.2554	549.35
62.2698	544.44
62.2843	558.96
62.2987	524.84
62.3132	574.36
62.3276	568.88
62.3420	546.00
62.3565	548.98
62.3709	562.67
62.3854	528.01
62.3998	542.91
62.4142	520.66
62.4287	554.33
62.4431	529.28
62.4576	540.73
62.4720	544.60
62.4864	560.01
62.5009	587.24
62.5153	541.44
62.5298	537.56
62.5442	585.54
62.5586	563.78
62.5731	537.98
62.5875	554.74
62.6020	574.99
62.6164	575.93
62.6308	560.71
62.6453	555.10
62.6597	555.92
62.6742	550.88
62.6886	552.87
62.7030	550.16
62.7175	566.03
62.7319	557.38
62.7464	524.84
62.7608	531.26
62.7752	552.08
62.7897	564.13
62.8041	547.90
62.8186	559.52
62.8330	549.56
62.8474	541.71
62.8619	554.54
62.8763	589.89
62.8908	585.48
62.9052	578.93
62.9196	562.61
62.9341	565.55
62.9485	533.77
62.9630	568.48
62.9774	564.98
62.9918	571.86
63.0063	567.22
63.0207	539.94
63.0352	536.16
63.0496	567.63
63.0640	585.44
63.0785	560.77
63.0929	575.62
63.1074	568.25
63.1218	583.12
63.1362	556.31
63.1507	548.75
63.1651	552.18
63.1796	596.00
63.1940	576.10
63.2084	580.67
63.2229	579.96
63.2373	573.27
63.2518	582.26
63.2662	546.06
63.2806	584.98
63.2951	555.32
63.3095	571.97
63.3240	622.29
63.3384	644.90
63.3528	584.60
63.3673	578.68
63.3817	562.66
63.3962	551.31
63.4106	583.96
63.4250	572.44
63.4395	597.71
63.4539	616.70
63.4684	625.25
63.4828	570.17
63.4972	547.05
63.5117	565.89
63.5261	592.53
63.5406	587.72
63.5550	628.11
63.5694	589.22
63.5839	558.49
63.5983	573.40
63.6128	599.56
63.6272	591.68
63.6416	586.86
63.6561	565.59
63.6705	552.64
63.6850	540.90
63.6994	588.09
63.7138	620.40
63.7283	567.78
63.7427	560.66
63.7572	566.57
63.7716	627.98
63.7861	628.76
63.8005	596.19
63.8149	612.01
63.8294	613.87
63.8438	593.37
63.8583	596.45
63.8727	626.44
63.8871	608.95
63.9016	627.80
63.9160	569.45
63.9305	632.14
63.9449	628.49
63.9593	609.72
63.9738	611.96
63.9882	651.06
64.0027	619.15
64.0171	669.93
64.0315	705.85
64.0460	700.67
64.0604	689.90
64.0749	732.92
64.0893	766.90
64.1037	775.98
64.1182	754.83
64.1326	796.16
64.1471	789.61
64.1615	766.48
64.1759	787.04
64.1904	768.25
64.2048	743.28
64.2193	745.17
64.2337	770.90
64.2481	776.87
64.2626	785.24
64.2770	810.00
64.2915	801.65
64.3059	797.87
64.3203	751.20
64.3348	775.84
64.3492	752.79
64.3637	759.55
64.3781	717.93
64.3925	684.35
64.4070	723.79
64.4214	769.68
64.4359	731.54
64.4503	715.10
64.4647	725.56
64.4792	731.06
64.4936	699.42
64.5081	707.32
64.5225	673.31
64.5369	682.55
64.5514	709.88
64.5658	689.08
64.5803	693.19
64.5947	694.30
64.6091	711.00
64.6236	660.99
64.6380	682.25
64.6525	709.42
64.6669	674.69
64.6813	704.23
64.6958	672.99
64.7102	728.60
64.7247	732.88
64.7391	694.65
64.7535	759.32
64.7680	717.89
64.7824	710.47
64.7969	746.94
64.8113	753.20
64.8257	772.77
64.8402	814.25
64.8546	862.72
64.8691	864.40
64.8835	847.73
64.8979	848.05
64.9124	864.55
64.9268	845.23
64.9413	982.77
64.9557	949.65
64.9701	960.71
64.9846	1050.49
64.9990	1218.81
65.0135	1297.28
65.0279	1498.69
65.0423	1816.81
65.0568	2169.95
65.0712	2795.92
65.0857	3728.63
65.1001	4916.45
65.1145	6564.64
65.1290	8503.60
65.1434	10012.42
65.1579	11484.71
65.1723	12057.76
65.1867	11153.25
65.2012	9824.67
65.2156	8191.81
65.2301	6414.35
65.2445	5227.89
65.2589	4423.86
65.2734	4243.48
65.2878	4485.53
65.3023	5160.37
65.3167	5910.48
65.3311	6772.11
65.3456	7145.08
65.3600	7014.14
65.3745	6285.01
65.3889	5230.16
65.4033	4207.69
65.4178	3326.14
65.4322	2694.72
65.4467	2027.51
65.4611	1647.00
65.4755	1424.09
65.4900	1248.22
65.5044	1161.98
65.5189	1013.67
65.5333	947.15
65.5477	925.70
65.5622	902.99
65.5766	867.05
65.5911	857.57
65.6055	785.97
65.6199	787.05
65.6344	765.95
65.6488	760.78
65.6633	740.98
65.6777	716.55
65.6921	713.00
65.7066	732.91
65.7210	741.47
65.7355	629.24
65.7499	684.02
65.7643	670.05
65.7788	707.67
65.7932	693.48
65.8077	682.83
65.8221	652.52
65.8365	669.85
65.8510	627.04
65.8654	631.61
65.8799	651.88
65.8943	671.25
65.9087	665.38
65.9232	653.30
65.9376	647.27
65.9521	621.99
65.9665	635.50
65.9809	624.03
65.9954	632.59
66.0098	607.36
66.0243	620.31
66.0387	607.71
66.0531	607.08
66.0676	622.75
66.0820	615.73
66.0965	639.56
66.1109	684.66
66.1253	677.26
66.1398	635.71
66.1542	614.45
66.1687	623.95
66.1831	632.63
66.1975	598.53
66.2120	617.35
66.2264	587.82
66.2409	605.80
66.2553	635.49
66.2697	628.53
66.2842	609.73
66.2986	605.56
66.3131	644.10
66.3275	645.40
66.3419	643.54
66.3564	640.93
66.3708	598.75
66.3853	570.68
66.3997	577.61
66.4141	588.13
66.4286	609.48
66.4430	592.86
66.4575	611.26
66.4719	617.41
66.4863	608.60
66.5008	595.24
66.5152	608.30
66.5297	615.81
66.5441	584.78
66.5585	580.89
66.5730	609.29
66.5874	575.37
66.6019	572.40
66.6163	583.45
66.6307	599.86
66.6452	594.13
66.6596	594.68
66.6741	589.22
66.6885	600.59
66.7029	572.50
66.7174	575.07
66.7318	583.83
66.7463	584.45
66.7607	588.73
66.7751	590.60
66.7896	590.00
66.8040	566.49
66.8185	602.04
66.8329	572.81
66.8473	608.44
66.8618	628.46
66.8762	584.49
66.8907	580.18
66.9051	618.33
66.9195	635.66
66.9340	609.41
66.9484	568.37
66.9629	578.70
66.9773	577.40
66.9917	601.82
67.0062	565.95
67.0206	577.84
67.0351	592.93
67.0495	580.85
67.0639	590.65
67.0784	599.21
67.0928	627.81
67.1073	596.27
67.1217	626.95
67.1361	599.55
67.1506	593.40
67.1650	582.13
67.1795	546.18
67.1939	572.85
67.2083	575.62
67.2228	585.67
67.2372	594.56
67.2517	584.36
67.2661	588.35
67.2805	617.18
67.2950	595.18
67.3094	582.27
67.3239	580.06
67.3383	587.63
67.3527	577.54
67.3672	562.94
67.3816	583.05
67.3961	588.70
67.4105	574.32
67.4250	610.99
67.4394	575.69
67.4538	566.82
67.4683	565.76
67.4827	591.41
67.4972	549.96
67.5116	538.07
67.5260	561.71
67.5405	606.63
67.5549	607.64
67.5694	566.70
67.5838	587.85
67.5982	573.24
67.6127	564.55
67.6271	543.22
67.6416	587.01
67.6560	571.92
67.6704	551.54
67.6849	562.49
67.6993	584.10
67.7138	609.55
67.7282	603.65
67.7426	593.82
67.7571	598.56
67.7715	590.44
67.7860	573.83
67.8004	540.76
67.8148	584.70
67.8293	561.58
67.8437	566.59
67.8582	575.18
67.8726	583.61
67.8870	556.83
67.9015	586.67
67.9159	592.96
67.9304	583.78
67.9448	586.72
67.9592	563.98
67.9737	599.44
67.9881	600.43
68.0026	547.12
68.0170	574.01
68.0314	575.82
68.0459	561.52
68.0603	552.31
68.0748	595.37
68.0892	571.06
68.1036	534.94
68.1181	607.93
68.1325	554.82
68.1470	595.89
68.1614	611.55
68.1758	587.47
68.1903	557.72
68.2047	524.82
68.2192	584.66
68.2336	568.86
68.2480	582.94
68.2625	558.75
68.2769	566.06
68.2914	587.68
68.3058	545.49
68.3202	551.37
68.3347	614.74
68.3491	586.67
68.3636	565.75
68.3780	566.66
68.3924	578.99
68.4069	558.16
68.4213	567.60
68.4358	584.12
68.4502	574.78
68.4646	576.81
68.4791	580.59
68.4935	592.36
68.5080	535.27
68.5224	634.21
68.5368	641.92
68.5513	575.33
68.5657	586.77
68.5802	550.82
68.5946	582.70
68.6090	549.41
68.6235	522.56
68.6379	574.17
68.6524	580.23
68.6668	598.06
68.6812	564.08
68.6957	549.45
68.7101	576.78
68.7246	586.44
68.7390	585.83
68.7534	596.86
68.7679	561.73
68.7823	554.44
68.7968	568.45
68.8112	546.14
68.8256	563.13
68.8401	608.45
68.8545	599.75
68.8690	567.21
68.8834	562.95
68.8978	595.24
68.9123	625.09
68.9267	570.36
68.9412	603.37
68.9556	521.50
68.9700	526.11
68.9845	558.38
68.9989	583.22
69.0134	555.90
69.0278	597.80
69.0422	591.67
69.0567	566.82
69.0711	591.46
69.0856	560.28
69.1000	549.96
69.1144	592.49
69.1289	588.99
69.1433	509.65
69.1578	529.60
69.1722	565.53
69.1866	592.42
69.2011	597.01
69.2155	619.38
69.2300	539.12
69.2444	597.75
69.2588	571.91
69.2733	578.35
69.2877	577.09
69.3022	560.22
69.3166	590.50
69.3310	584.50
69.3455	554.31
69.3599	585.81
69.3744	613.22
69.3888	554.51
69.4032	570.55
69.4177	593.09
69.4321	594.16
69.4466	604.29
69.4610	572.05
69.4754	578.27
69.4899	587.42
69.5043	544.68
69.5188	560.94
69.5332	615.33
69.5476	616.75
69.5621	585.28
69.5765	596.42
69.5910	589.05
69.6054	622.30
69.6198	580.79
69.6343	548.46
69.6487	592.17
69.6632	610.38
69.6776	568.78
69.6920	560.02
69.7065	560.27
69.7209	574.24
69.7354	561.18
69.7498	568.38
69.7642	584.30
69.7787	567.25
69.7931	557.58
69.8076	587.82
69.8220	592.45
69.8364	597.25
69.8509	588.36
69.8653	555.10
69.8798	588.71
69.8942	584.68
69.9086	563.12
69.9231	597.20
69.9375	598.35
69.9520	550.23
69.9664	529.10
69.9808	590.13
69.9953	614.98
70.0097	569.44
70.0242	586.09
70.0386	576.72
70.0530	597.14
70.0675	561.74
70.0819	564.72
70.0964	592.80
70.1108	583.14
70.1252	569.23
70.1397	550.81
70.1541	565.02
70.1686	600.81
70.1830	604.36
70.1974	590.09
70.2119	585.79
70.2263	572.68
70.2408	569.88
70.2552	572.86
70.2696	577.61
70.2841	570.51
70.2985	558.75
70.3130	588.85
70.3274	596.48
70.3418	600.78
70.3563	620.50
70.3707	602.68
70.3852	579.66
70.3996	591.13
70.4140	532.62
70.4285	647.71
70.4429	609.92
70.4574	680.26
70.4718	583.38
70.4862	553.13
70.5007	563.96
70.5151	594.94
70.5296	559.04
70.5440	523.70
70.5584	592.14
70.5729	566.31
70.5873	547.44
70.6018	530.91
70.6162	546.25
70.6306	564.71
70.6451	621.50
70.6595	616.80
70.6740	549.12
70.6884	551.59
70.7028	576.16
70.7173	595.52
70.7317	585.64
70.7462	580.72
70.7606	617.78
70.7750	676.77
70.7895	601.29
70.8039	611.04
70.8184	594.13
70.8328	625.12
70.8472	601.25
70.8617	613.51
70.8761	641.99
70.8906	558.06
70.9050	584.83
70.9194	566.71
70.9339	559.24
70.9483	585.81
70.9628	598.27
70.9772	614.52
70.9916	601.92
71.0061	566.56
71.0205	580.28
71.0350	532.11
71.0494	515.51
71.0638	517.32
71.0783	536.57
71.0927	584.82
71.1072	584.69
71.1216	545.42
71.1361	532.40
71.1505	580.77
71.1649	635.36
71.1794	620.03
71.1938	556.76
71.2083	584.98
71.2227	558.56
71.2371	544.47
71.2516	558.36
71.2660	567.38
71.2805	564.98
71.2949	584.65
71.3093	573.98
71.3238	583.39
71.3382	590.62
71.3527	564.35
71.3671	543.63
71.3815	542.29
71.3960	595.88
71.4104	605.56
71.4249	668.18
71.4393	651.30
71.4537	571.84
71.4682	545.65
71.4826	530.11
71.4971	547.30
71.5115	538.65
71.5259	561.94
71.5404	608.95
71.5548	586.40
71.5693	570.80
71.5837	571.18
71.5981	579.97
71.6126	569.64
71.6270	532.41
71.6415	545.68
71.6559	546.81
71.6703	536.92
71.6848	566.38
71.6992	584.34
71.7137	621.71
71.7281	579.88
71.7425	557.68
71.7570	543.53
71.7714	590.18
71.7859	567.96
71.8003	576.04
71.8147	593.95
71.8292	642.13
71.8436	649.54
71.8581	650.73
71.8725	604.38
71.8869	571.21
71.9014	638.35
71.9158	615.84
71.9303	536.68
71.9447	503.94
71.9591	556.27
71.9736	574.30
71.9880	536.34
72.0025	482.26
72.0169	525.75
72.0313	560.35
72.0458	552.84
72.0602	576.68
72.0747	549.98
72.0891	510.08
72.1035	535.49
72.1180	544.81
72.1324	563.90
72.1469	615.94
72.1613	627.78
72.1757	618.69
72.1902	600.92
72.2046	559.24
72.2191	533.88
72.2335	535.80
72.2479	576.88
72.2624	625.02
72.2768	586.18
72.2913	557.45
72.3057	542.96
72.3201	596.17
72.3346	631.56
72.3490	521.67
72.3635	453.62
72.3779	496.22
72.3923	554.00
72.4068	553.32
72.4212	540.62
72.4357	582.42
72.4501	555.99
72.4645	621.82
72.4790	597.77
72.4934	528.69
72.5079	610.03
72.5223	576.19
72.5367	528.82
72.5512	648.30
72.5656	654.65
72.5801	541.29
72.5945	521.36
72.6089	568.44
72.6234	604.02
72.6378	632.78
72.6523	614.83
72.6667	547.25
72.6811	567.70
72.6956	592.90
72.7100	560.53
72.7245	619.12
72.7389	589.10
72.7533	516.69
72.7678	589.69
72.7822	621.59
72.7967	584.65
72.8111	605.98
72.8255	592.35
72.8400	585.31
72.8544	549.28
72.8689	532.97
72.8833	570.64

Result vector
22.1120	557.84
22.1264	565.46
22.1409	591.17
22.1553	587.04
22.1697	537.53
22.1842	542.86
22.1986	574.72
22.2131	608.43
22.2275	720.00
22.2419	679.41
22.2564	710.33
22.2708	544.45
22.2853	585.06
22.2997	605.44
22.3141	655.94
22.3286	611.14
22.3430	607.66
22.3575	605.04
22.3719	627.94
22.3863	547.48
22.4008	577.85
22.4152	639.05
22.4297	530.65
22.4441	626.08
22.4585	556.67
22.4730	629.54
22.4874	624.16
22.5019	598.98
22.5163	528.98
22.5307	580.15
22.5452	535.68
22.5596	539.55
22.5741	625.01
22.5885	612.95
22.6029	638.35
22.6174	626.26
22.6318	571.21
22.6463	498.27
22.6607	478.12
22.6751	536.59
22.6896	545.86
22.7040	520.80
22.7185	567.22
22.7329	611.97
22.7473	561.92
22.7618	558.36
22.7762	596.31
22.7907	554.89
22.8051	533.12
22.8195	518.02
22.8340	582.21
22.8484	592.65
22.8629	643.93
22.8773	559.05
22.8917	499.03
22.9062	605.28
22.9206	557.89
22.9351	510.37
22.9495	509.10
22.9639	497.02
22.9784	581.04
22.9928	546.34
23.0073	547.74
23.0217	577.22
23.0361	662.56
23.0506	649.74
23.0650	517.14
23.0795	477.15
23.0939	581.13
23.1083	616.01
23.1228	564.43
23.1372	570.70
23.1517	539.86
23.1661	617.85
23.1806	573.49
23.1950	515.67
23.2094	482.78
23.2239	570.32
23.2383	525.03
23.2528	591.16
23.2672	562.83
23.2816	569.24
23.2961	497.12
23.3105	498.52
23.3250	517.48
23.3394	572.52
23.3538	533.83
23.3683	584.46
23.3827	590.45
23.3972	538.29
23.4116	543.29
23.4260	567.08
23.4405	446.91
23.4549	489.48
23.4694	570.78
23.4838	644.91
23.4982	493.85
23.5127	525.04
23.5271	554.25
23.5416	536.92
23.5560	587.59
23.5704	595.74
23.5849	622.34
23.5993	570.29
23.6138	580.23
23.6282	592.00
23.6426	560.60
23.6571	556.74
23.6715	584.15
23.6860	553.23
23.7004	558.86
23.7148	548.26
23.7293	547.89
23.7437	578.84
23.7582	575.52
23.7726	616.85
23.7870	545.37
23.8015	542.15
23.8159	564.38
23.8304	534.94
23.8448	577.88
23.8592	533.70
23.8737	540.72
23.8881	535.58
23.9026	567.27
23.9170	539.26
23.9314	534.09
23.9459	554.19
23.9603	568.82
23.9748	608.75
23.9892	536.28
24.0036	516.44
24.0181	568.98
24.0325	566.18
24.0470	559.84
24.0614	587.12
24.0758	542.12
24.0903	605.47
24.1047	564.82
24.1192	542.41
24.1336	589.87
24.1480	504.33
24.1625	533.13
24.1769	545.15
24.1914	616.36
24.2058	586.48
24.2202	624.02
24.2347	533.28
24.2491	623.51
24.2636	586.91
24.2780	619.10
24.2924	511.30
24.3069	578.97
24.3213	590.60
24.3358	603.78
24.3502	536.30
24.3646	560.65
24.3791	574.04
24.3935	529.44
24.4080	544.52
24.4224	541.79
24.4368	506.64
24.4513	550.76
24.4657	594.22
24.4802	574.66
24.4946	507.93
24.5090	548.70
24.5235	541.68
24.5379	567.60
24.5524	531.97
24.5668	557.98
24.5812	542.52
24.5957	590.31
24.6101	549.21
24.6246	562.79
24.6390	551.59
24.6534	567.99
24.6679	518.41
24.6823	567.07
24.6968	498.56
24.7112	576.31
24.7256	576.22
24.7401	584.88
24.7545	570.60
24.7690	554.27
24.7834	549.00
24.7978	600.28
24.8123	591.85
24.8267	514.08
24.8412	563.92
24.8556	643.79
24.8700	591.03
24.8845	537.56
24.8989	534.75
24.9134	510.23
24.9278	545.84
24.9422	529.96
24.9567	573.15
24.9711	552.13
24.9856	539.62
25.0000	546.25
25.0144	524.45
25.0289	581.21
25.0433	563.13
25.0578	532.96
25.0722	510.87
25.0866	549.56
25.1011	560.99
25.1155	570.19
25.1300	577.80
25.1444	549.47
25.1588	524.44
25.1733	560.59
25.1877	548.07
25.2022	516.04
25.2166	506.86
25.2310	538.15
25.2455	536.23
25.2599	534.93
25.2744	545.79
25.2888	561.13
25.3032	538.79
25.3177	537.38
25.3321	568.79
25.3466	502.34
25.3610	500.07
25.3754	546.15
25.3899	518.55
25.4043	491.07
25.4188	531.26
25.4332	512.82
25.4476	524.72
25.4621	536.79
25.4765	542.47
25.4910	563.86
25.5054	554.22
25.5198	537.29
25.5343	557.58
25.5487	552.10
25.5632	586.33
25.5776	551.02
25.5920	526.04
25.6065	541.68
25.6209	529.23
25.6354	521.06
25.6498	529.27
25.6642	522.60
25.6787	504.54
25.6931	543.27
25.7076	547.95
25.7220	531.96
25.7364	532.38
25.7509	515.58
25.7653	545.82
25.7798	572.58
25.7942	558.07
25.8086	540.44
25.8231	542.22
25.8375	518.60
25.8520	560.42
25.8664	583.13
25.8808	547.09
25.8953	557.07
25.9097	507.56
25.9242	520.02
25.9386	513.71
25.9530	543.40
25.9675	542.77
25.9819	513.39
25.9964	539.23
26.0108	552.83
26.0252	533.29
26.0397	541.06
26.0541	530.41
26.0686	497.38
26.0830	575.63
26.0974	549.08
26.1119	564.15
26.1263	549.17
26.1408	491.25
26.1552	486.95
26.1696	533.17
26.1841	531.02
26.1985	541.97
26.2130	534.33
26.2274	557.11
26.2418	537.07
26.2563	533.28
26.2707	551.65
26.2852	553.56
26.2996	538.64
26.3140	534.50
26.3285	539.19
26.3429	509.46
26.3574	536.53
26.3718	557.76
26.3862	546.69
26.4007	548.53
26.4151	516.17
26.4296	517.31
26.4440	563.52
26.4584	557.45
26.4729	547.33
26.4873	561.45
26.5018	525.23
26.5162	514.36
26.5306	523.47
26.5451	515.89
26.5595	531.97
26.5740	522.05
26.5884	521.99
26.6028	514.06
26.6173	492.03
26.6317	485.90
26.6462	515.28
26.6606	526.10
26.6750	541.57
26.6895	540.80
26.7039	565.08
26.7184	545.23
26.7328	532.33
26.7472	526.89
26.7617	534.15
26.7761	548.41
26.7906	512.04
26.8050	500.89
26.8194	502.65
26.8339	528.14
26.8483	540.51
26.8628	532.53
26.8772	517.51
26.8917	537.28
26.9061	544.81
26.9205	543.86
26.9350	539.95
26.9494	531.02
26.9639	488.70
26.9783	501.68
26.9927	549.53
27.0072	551.67
27.0216	519.73
27.0361	478.28
27.0505	460.18
27.0649	543.32
27.0794	559.75
27.0938	531.01
27.1083	510.92
27.1227	527.22
27.1371	530.33
27.1516	491.64
27.1660	504.63
27.1805	520.88
27.1949	514.52
27.2093	531.03
27.2238	528.86
27.2382	519.95
27.2527	519.17
27.2671	503.64
27.2815	530.77
27.2960	486.13
27.3104	519.11
27.3249	487.41
27.3393	509.40
27.3537	515.76
27.3682	512.26
27.3826	551.97
27.3971	534.55
27.4115	523.30
27.4259	552.85
27.4404	564.57
27.4548	549.47
27.4693	513.87
27.4837	496.75
27.4981	535.24
27.5126	537.43
27.5270	565.71
27.5415	534.61
27.5559	542.97
27.5703	547.71
27.5848	498.56
27.5992	513.63
27.6137	498.58
27.6281	522.02
27.6425	529.42
27.6570	520.02
27.6714	510.99
27.6859	523.10
27.7003	530.98
27.7147	543.49
27.7292	510.09
27.7436	514.05
27.7581	498.62
27.7725	531.06
27.7869	526.81
27.8014	507.15
27.8158	534.11
27.8303	536.03
27.8447	512.42
27.8591	515.06
27.8736	482.67
27.8880	522.68
27.9025	532.70
27.9169	516.76
27.9313	563.03
27.9458	542.41
27.9602	487.77
27.9747	475.02
27.9891	531.56
28.0035	488.21
28.0180	499.42
28.0324	535.25
28.0469	511.46
28.0613	502.06
28.0757	494.16
28.0902	525.74
28.1046	475.68
28.1191	525.58
28.1335	534.25
28.1479	504.95
28.1624	533.04
28.1768	565.90
28.1913	501.97
28.2057	518.56
28.2201	538.61
28.2346	524.13
28.2490	542.39
28.2635	531.91
28.2779	524.46
28.2923	524.46
28.3068	515.95
28.3212	556.14
28.3357	526.08
28.3501	531.16
28.3645	521.05
28.3790	514.81
28.3934	515.32
28.4079	547.20
28.4223	530.24
28.4367	516.93
28.4512	478.02
28.4656	536.88
28.4801	501.06
28.4945	501.46
28.5089	490.53
28.5234	481.44
28.5378	510.74
28.5523	526.17
28.5667	508.32
28.5811	481.32
28.5956	523.49
28.6100	552.39
28.6245	506.94
28.6389	530.54
28.6533	520.15
28.6678	512.59
28.6822	504.59
28.6967	515.40
28.7111	520.74
28.7255	488.34
28.7400	503.59
28.7544	545.51
28.7689	529.59
28.7833	521.96
28.7977	522.73
28.8122	512.74
28.8266	510.43
28.8411	484.02
28.8555	478.90
28.8699	496.71
28.8844	522.52
28.8988	519.94
28.9133	514.69
28.9277	478.41
28.9421	530.29
28.9566	519.58
28.9710	495.17
28.9855	546.01
28.9999	480.10
29.0143	506.21
29.0288	511.93
29.0432	497.63
29.0577	477.43
29.0721	524.21
29.0865	524.24
29.1010	522.39
29.1154	519.43
29.1299	536.31
29.1443	521.70
29.1587	515.64
29.1732	508.89
29.1876	522.52
29.2021	520.61
29.2165	504.46
29.2309	496.21
29.2454	526.81
29.2598	526.70
29.2743	481.75
29.2887	480.56
29.3031	500.28
29.3176	483.10
29.3320	510.99
29.3465	517.29
29.3609	538.23
29.3753	491.40
29.3898	490.63
29.4042	501.50
29.4187	528.13
29.4331	524.95
29.4475	502.73
29.4620	514.78
29.4764	519.22
29.4909	540.29
29.5053	483.30
29.5197	486.88
29.5342	475.48
29.5486	502.88
29.5631	517.01
29.5775	520.80
29.5919	513.61
29.6064	502.64
29.6208	507.72
29.6353	507.23
29.6497	509.17
29.6641	523.82
29.6786	514.53
29.6930	501.34
29.7075	506.33
29.7219	504.03
29.7363	517.34
29.7508	498.41
29.7652	485.71
29.7797	509.58
29.7941	505.78
29.8085	510.41
29.8230	558.81
29.8374	531.33
29.8519	532.64
29.8663	511.03
29.8807	526.83
29.8952	519.14
29.9096	523.80
29.9241	502.76
29.9385	513.49
29.9529	503.99
29.9674	502.76
29.9818	517.03
29.9963	505.42
30.0107	515.48
30.0251	538.60
30.0396	541.05
30.0540	456.66
30.0685	502.50
30.0829	516.12
30.0973	515.40
30.1118	507.74
30.1262	531.04
30.1407	505.78
30.1551	490.17
30.1695	523.22
30.1840	517.86
30.1984	493.45
30.2129	506.14
30.2273	506.90
30.2417	488.18
30.2562	504.48
30.2706	506.05
30.2851	525.05
30.2995	513.68
30.3139	527.25
30.3284	491.34
30.3428	501.30
30.3573	525.51
30.3717	511.23
30.3861	485.92
30.4006	505.96
30.4150	511.86
30.4295	500.99
30.4439	461.37
30.4583	515.41
30.4728	515.68
30.4872	537.95
30.5017	526.99
30.5161	494.12
30.5305	504.14
30.5450	526.59
30.5594	518.69
30.5739	500.88
30.5883	464.90
30.6028	526.12
30.6172	529.22
30.6316	519.00
30.6461	533.08
30.6605	519.57
30.6750	515.50
30.6894	532.75
30.7038	557.72
30.7183	550.72
30.7327	579.88
30.7472	631.07
30.7616	599.78
30.7760	607.16
30.7905	639.14
30.8049	640.24
30.8194	678.53
30.8338	712.00
30.8482	724.31
30.8627	713.05
30.8771	702.92
30.8916	692.82
30.9060	708.45
30.9204	628.58
30.9349	654.04
30.9493	637.94
30.9638	604.37
30.9782	572.36
30.9926	580.51
31.0071	553.94
31.0215	598.30
31.0360	562.77
31.0504	540.04
31.0648	558.31
31.0793	553.63
31.0937	534.12
31.1082	530.77
31.1226	537.96
31.1370	500.40
31.1515	487.58
31.1659	525.16
31.1804	531.56
31.1948	548.21
31.2092	506.15
31.2237	510.06
31.2381	516.51
31.2526	516.10
31.2670	530.29
31.2814	522.91
31.2959	527.81
31.3103	534.80
31.3248	531.23
31.3392	531.52
31.3536	519.65
31.3681	506.55
31.3825	519.54
31.3970	529.29
31.4114	525.39
31.4258	509.22
31.4403	513.98
31.4547	516.73
31.4692	522.66
31.4836	516.69
31.4980	485.33
31.5125	524.59
31.5269	534.83
31.5414	497.36
31.5558	520.43
31.5702	525.57
31.5847	524.50
31.5991	512.84
31.6136	506.90
31.6280	483.54
31.6424	473.22
31.6569	488.63
31.6713	514.28
31.6858	496.25
31.7002	504.68
31.7146	484.85
31.7291	495.30
31.7435	477.67
31.7580	484.40
31.7724	510.28
31.7868	504.49
31.8013	482.15
31.8157	495.43
31.8302	503.85
31.8446	501.92
31.8590	500.83
31.8735	496.74
31.8879	508.95
31.9024	508.99
31.9168	519.00
31.9312	549.71
31.9457	547.68
31.9601	517.97
31.9746	508.20
31.9890	540.79
32.0034	507.07
32.0179	517.12
32.0323	527.58
32.0468	478.10
32.0612	478.84
32.0756	493.59
32.0901	496.42
32.1045	512.04
32.1190	496.93
32.1334	523.17
32.1478	491.07
32.1623	529.04
32.1767	497.62
32.1912	482.36
32.2056	490.99
32.2200	496.60
32.2345	491.05
32.2489	547.91
32.2634	495.69
32.2778	541.28
32.2922	539.43
32.3067	524.41
32.3211	514.01
32.3356	527.95
32.3500	489.95
32.3644	490.53
32.3789	547.91
32.3933	509.68
32.4078	511.70
32.4222	511.16
32.4366	520.67
32.4511	507.55
32.4655	486.47
32.4800	508.02
32.4944	472.32
32.5088	481.30
32.5233	500.96
32.5377	537.40
32.5522	493.42
32.5666	506.25
32.5810	499.57
32.5955	533.06
32.6099	489.27
32.6244	489.19
32.6388	543.13
32.6532	537.13
32.6677	522.83
32.6821	508.24
32.6966	514.38
32.7110	486.54
32.7254	489.70
32.7399	525.23
32.7543	507.54
32.7688	526.29
32.7832	526.43
32.7976	513.78
32.8121	543.07
32.8265	518.17
32.8410	532.94
32.8554	530.52
32.8698	496.84
32.8843	479.94
32.8987	520.14
32.9132	534.27
32.9276	506.08
32.9420	512.00
32.9565	490.00
32.9709	527.17
32.9854	532.41
32.9998	544.30
33.0142	532.71
33.0287	526.53
33.0431	479.51
33.0576	529.30
33.0720	489.85
33.0864	539.95
33.1009	505.08
33.1153	511.93
33.1298	489.50
33.1442	502.83
33.1586	509.47
33.1731	540.88
33.1875	490.35
33.2020	484.47
33.2164	499.75
33.2308	497.38
33.2453	494.84
33.2597	510.88
33.2742	498.77
33.2886	485.43
33.3030	485.24
33.3175	502.71
33.3319	529.03
33.3464	535.34
33.3608	507.93
33.3752	460.88
33.3897	478.54
33.4041	497.31
33.4186	494.86
33.4330	523.17
33.4474	518.90
33.4619	522.16
33.4763	499.74
33.4908	493.79
33.5052	516.84
33.5196	502.61
33.5341	507.13
33.5485	501.89
33.5630	525.52
33.5774	483.58
33.5918	505.08
33.6063	492.75
33.6207	466.50
33.6352	496.13
33.6496	496.61
33.6640	442.70
33.6785	489.36
33.6929	501.74
33.7074	515.99
33.7218	503.11
33.7362	488.30
33.7507	525.63
33.7651	490.34
33.7796	478.66
33.7940	507.13
33.8084	509.27
33.8229	496.33
33.8373	498.73
33.8518	493.38
33.8662	504.17
33.8806	490.51
33.8951	480.59
33.9095	490.30
33.9240	485.25
33.9384	491.89
33.9528	468.49
33.9673	487.59
33.9817	549.21
33.9962	515.29
34.0106	455.69
34.0250	508.26
34.0395	485.35
34.0539	520.46
34.0684	517.27
34.0828	518.03
34.0972	503.56
34.1117	498.52
34.1261	522.54
34.1406	500.71
34.1550	507.26
34.1694	498.53
34.1839	502.36
34.1983	495.26
34.2128	510.43
34.2272	518.94
34.2417	518.02
34.2561	484.00
34.2705	498.29
34.2850	514.12
34.2994	509.83
34.3139	493.89
34.3283	500.28
34.3427	527.08
34.3572	488.10
34.3716	501.62
34.3861	505.82
34.4005	499.25
34.4149	507.06
34.4294	530.56
34.4438	480.05
34.4583	498.09
34.4727	523.50
34.4871	502.12
34.5016	540.98
34.5160	520.97
34.5305	529.56
34.5449	507.13
34.5593	526.11
34.5738	519.97
34.5882	520.83
34.6027	535.21
34.6171	528.67
34.6315	531.09
34.6460	484.27
34.6604	502.92
34.6749	480.36
34.6893	504.70
34.7037	526.71
34.7182	537.79
34.7326	517.25
34.7471	499.51
34.7615	478.06
34.7759	525.32
34.7904	500.23
34.8048	502.54
34.8193	511.11
34.8337	502.52
34.8481	515.49
34.8626	507.09
34.8770	479.22
34.8915	499.87
34.9059	554.94
34.9203	507.95
34.9348	515.12
34.9492	505.21
34.9637	502.36
34.9781	540.04
34.9925	539.89
35.0070	512.15
35.0214	517.64
35.0359	515.77
35.0503	513.22
35.0647	530.44
35.0792	529.59
35.0936	527.53
35.1081	505.74
35.1225	494.25
35.1369	527.58
35.1514	513.13
35.1658	523.31
35.1803	533.82
35.1947	509.70
35.2091	523.52
35.2236	493.01
35.2380	529.66
35.2525	503.42
35.2669	504.60
35.2813	523.31
35.2958	507.43
35.3102	506.91
35.3247	488.84
35.3391	510.04
35.3535	510.91
35.3680	522.29
35.3824	523.74
35.3969	498.98
35.4113	510.24
35.4257	538.65
35.4402	514.23
35.4546	511.00
35.4691	560.76
35.4835	551.64
35.4979	530.01
35.5124	528.65
35.5268	546.17
35.5413	527.31
35.5557	530.79
35.5701	489.80
35.5846	524.65
35.5990	540.18
35.6135	526.42
35.6279	527.60
35.6423	503.56
35.6568	513.34
35.6712	533.27
35.6857	539.00
35.7001	636.00
35.7145	702.76
35.7290	668.08
35.7434	585.92
35.7579	571.48
35.7723	560.02
35.7867	607.15
35.8012	611.85
35.8156	597.81
35.8301	596.58
35.8445	613.25
35.8589	659.32
35.8734	727.87
35.8878	862.70
35.9023	969.42
35.9167	1073.81
35.9311	1413.42
35.9456	2094.16
35.9600	2260.57
35.9745	1816.70
35.9889	1814.28
36.0033	2214.54
36.0178	2352.44
36.0322	1990.70
36.0467	1894.70
36.0611	1649.22
36.0755	1564.18
36.0900	1558.83
36.1044	1338.65
36.1189	1336.52
36.1333	1170.03
36.1477	1048.66
36.1622	1049.89
36.1766	1010.41
36.1911	942.68
36.2055	867.06
36.2199	826.00
36.2344	812.07
36.2488	855.06
36.2633	850.17
36.2777	928.27
36.2921	937.70
36.3066	1022.45
36.3210	1022.37
36.3355	1016.21
36.3499	1039.62
36.3643	971.61
36.3788	978.20
36.3932	926.05
36.4077	862.04
36.4221	897.34
36.4365	856.37
36.4510	791.37
36.4654	760.57
36.4799	732.14
36.4943	720.63
36.5087	671.18
36.5232	628.98
36.5376	646.78
36.5521	634.78
36.5665	618.75
36.5809	576.23
36.5954	565.81
36.6098	562.68
36.6243	559.24
36.6387	549.54
36.6531	546.37
36.6676	556.12
36.6820	525.38
36.6965	522.54
36.7109	558.20
36.7253	538.75
36.7398	555.14
36.7542	555.37
36.7687	544.00
36.7831	559.69
36.7975	568.14
36.8120	581.90
36.8264	582.00
36.8409	587.25
36.8553	582.04
36.8697	584.96
36.8842	590.68
36.8986	618.27
36.9131	623.06
36.9275	564.46
36.9419	574.90
36.9564	611.34
36.9708	523.29
36.9853	561.25
36.9997	564.59
37.0141	544.66
37.0286	522.48
37.0430	558.77
37.0575	521.90
37.0719	527.59
37.0863	554.11
37.1008	543.18
37.1152	530.75
37.1297	502.77
37.1441	488.49
37.1585	527.43
37.1730	540.45
37.1874	505.99
37.2019	535.18
37.2163	545.66
37.2307	497.07
37.2452	496.42
37.2596	508.41
37.2741	513.63
37.2885	492.63
37.3029	523.19
37.3174	487.02
37.3318	518.84
37.3463	504.10
37.3607	503.04
37.3751	507.92
37.3896	471.66
37.4040	484.25
37.4185	535.97
37.4329	545.22
37.4473	515.65
37.4618	510.24
37.4762	502.73
37.4907	487.82
37.5051	484.53
37.5195	485.55
37.5340	479.11
37.5484	512.85
37.5629	490.51
37.5773	507.64
37.5917	492.39
37.6062	490.51
37.6206	503.52
37.6351	515.15
37.6495	508.40
37.6639	488.25
37.6784	506.35
37.6928	482.90
37.7073	514.47
37.7217	509.14
37.7361	501.62
37.7506	506.80
37.7650	495.18
37.7795	509.64
37.7939	491.91
37.8083	529.80
37.8228	527.08
37.8372	488.94
37.8517	484.59
37.8661	526.54
37.8805	484.77
37.8950	504.27
37.9094	499.29
37.9239	491.13
37.9383	540.09
37.9528	517.62
37.9672	479.35
37.9816	512.09
37.9961	530.36
38.0105	505.48
38.0250	517.92
38.0394	492.14
38.0538	509.90
38.0683	535.34
38.0827	500.22
38.0972	488.47
38.1116	516.72
38.1260	523.42
38.1405	528.06
38.1549	494.07
38.1694	518.34
38.1838	499.71
38.1982	492.77
38.2127	496.93
38.2271	483.19
38.2416	506.60
38.2560	516.35
38.2704	510.79
38.2849	522.07
38.2993	508.32
38.3138	505.37
38.3282	523.74
38.3426	491.35
38.3571	523.02
38.3715	515.51
38.3860	478.57
38.4004	530.99
38.4148	556.01
38.4293	612.03
38.4437	558.24
38.4582	599.40
38.4726	656.47
38.4870	693.99
38.5015	738.15
38.5159	770.85
38.5304	817.06
38.5448	781.00
38.5592	799.46
38.5737	792.92
38.5881	745.56
38.6026	701.50
38.6170	691.26
38.6314	720.91
38.6459	692.44
38.6603	652.56
38.6748	634.16
38.6892	581.49
38.7036	582.30
38.7181	568.23
38.7325	546.49
38.7470	549.62
38.7614	494.95
38.7758	494.09
38.7903	502.87
38.8047	508.03
38.8192	513.26
38.8336	534.88
38.8480	492.71
38.8625	539.21
38.8769	530.80
38.8914	520.38
38.9058	530.40
38.9202	500.02
38.9347	533.20
38.9491	515.51
38.9636	483.23
38.9780	477.48
38.9924	538.71
39.0069	536.45
39.0213	507.09
39.0358	486.55
39.0502	464.57
39.0646	480.49
39.0791	490.55
39.0935	495.21
39.1080	488.27
39.1224	494.82
39.1368	500.02
39.1513	463.08
39.1657	504.07
39.1802	504.67
39.1946	494.65
39.2090	486.93
39.2235	480.38
39.2379	493.23
39.2524	511.67
39.2668	523.65
39.2812	519.28
39.2957	508.29
39.3101	511.44
39.3246	531.65
39.3390	522.86
39.3534	513.78
39.3679	501.10
39.3823	506.36
39.3968	482.53
39.4112	505.37
39.4256	526.80
39.4401	518.79
39.4545	522.24
39.4690	511.19
39.4834	502.04
39.4978	501.82
39.5123	510.14
39.5267	505.32
39.5412	496.15
39.5556	467.66
39.5700	500.11
39.5845	516.27
39.5989	510.96
39.6134	487.95
39.6278	506.82
39.6422	504.24
39.6567	539.12
39.6711	501.49
39.6856	507.70
39.7000	520.91
39.7144	513.70
39.7289	512.56
39.7433	531.37
39.7578	510.86
39.7722	474.43
39.7866	506.26
39.8011	512.26
39.8155	482.69
39.8300	510.77
39.8444	487.05
39.8588	484.16
39.8733	527.23
39.8877	528.67
39.9022	502.70
39.9166	526.92
39.9310	500.08
39.9455	507.70
39.9599	484.45
39.9744	527.85
39.9888	500.42
40.0032	482.10
40.0177	490.03
40.0321	506.32
40.0466	496.49
40.0610	487.03
40.0754	492.26
40.0899	513.76
40.1043	532.64
40.1188	490.88
40.1332	514.00
40.1476	472.63
40.1621	478.44
40.1765	482.39
40.1910	483.48
40.2054	519.01
40.2198	529.22
40.2343	489.96
40.2487	501.08
40.2632	503.56
40.2776	505.49
40.2920	493.96
40.3065	491.05
40.3209	492.09
40.3354	498.89
40.3498	509.89
40.3642	497.74
40.3787	482.26
40.3931	487.79
40.4076	490.17
40.4220	489.98
40.4364	500.90
40.4509	465.48
40.4653	469.61
40.4798	449.95
40.4942	497.17
40.5086	491.00
40.5231	496.01
40.5375	504.36
40.5520	481.91
40.5664	508.90
40.5808	505.63
40.5953	496.66
40.6097	486.86
40.6242	510.95
40.6386	512.53
40.6530	517.99
40.6675	486.18
40.6819	486.99
40.6964	472.41
40.7108	533.15
40.7252	505.42
40.7397	464.04
40.7541	445.10
40.7686	498.27
40.7830	532.23
40.7974	498.53
40.8119	488.20
40.8263	523.48
40.8408	493.51
40.8552	515.41
40.8696	507.49
40.8841	543.61
40.8985	534.77
40.9130	509.08
40.9274	482.82
40.9418	494.85
40.9563	517.64
40.9707	485.37
40.9852	500.98
40.9996	474.40
41.0140	502.25
41.0285	486.34
41.0429	488.66
41.0574	494.51
41.0718	517.31
41.0862	500.68
41.1007	504.26
41.1151	508.51
41.1296	496.68
41.1440	485.62
41.1584	455.18
41.1729	465.74
41.1873	523.67
41.2018	507.04
41.2162	471.40
41.2306	451.36
41.2451	500.92
41.2595	514.17
41.2740	523.21
41.2884	522.07
41.3028	536.01
41.3173	524.72
41.3317	494.17
41.3462	510.85
41.3606	471.75
41.3750	498.16
41.3895	482.19
41.4039	478.04
41.4184	503.46
41.4328	501.90
41.4472	530.72
41.4617	481.76
41.4761	515.51
41.4906	509.71
41.5050	482.58
41.5194	478.51
41.5339	486.24
41.5483	493.00
41.5628	511.93
41.5772	531.64
41.5916	521.81
41.6061	506.92
41.6205	495.25
41.6350	476.14
41.6494	512.86
41.6639	510.16
41.6783	486.78
41.6927	511.36
41.7072	553.22
41.7216	528.09
41.7361	515.78
41.7505	509.95
41.7649	521.56
41.7794	524.27
41.7938	497.11
41.8083	511.13
41.8227	537.76
41.8371	534.40
41.8516	538.03
41.8660	522.01
41.8805	563.44
41.8949	575.60
41.9093	544.68
41.9238	554.47
41.9382	585.14
41.9527	563.13
41.9671	599.29
41.9815	559.33
41.9960	555.28
42.0104	551.64
42.0249	556.73
42.0393	554.20
42.0537	563.24
42.0682	575.01
42.0826	579.12
42.0971	577.21
42.1115	587.75
42.1259	599.19
42.1404	580.80
42.1548	647.90
42.1693	660.31
42.1837	703.65
42.1981	706.91
42.2126	815.99
42.2270	891.38
42.2415	1000.78
42.2559	1118.78
42.2703	1298.94
42.2848	1456.83
42.2992	1537.06
42.3137	1638.87
42.3281	1588.22
42.3425	1512.90
42.3570	1401.87
42.3714	1378.62
42.3859	1388.43
42.4003	1346.89
42.4147	1298.07
42.4292	1228.21
42.4436	1090.77
42.4581	996.95
42.4725	925.21
42.4869	790.25
42.5014	725.26
42.5158	687.68
42.5303	623.40
42.5447	632.68
42.5591	604.81
42.5736	587.48
42.5880	591.22
42.6025	563.38
42.6169	550.42
42.6313	541.82
42.6458	552.61
42.6602	556.53
42.6747	543.27
42.6891	539.62
42.7035	494.80
42.7180	508.36
42.7324	523.10
42.7469	527.69
42.7613	521.48
42.7757	558.80
42.7902	514.91
42.8046	519.37
42.8191	521.39
42.8335	521.79
42.8479	491.85
42.8624	541.18
42.8768	524.54
42.8913	493.14
42.9057	506.17
42.9201	499.65
42.9346	520.68
42.9490	513.38
42.9635	490.04
42.9779	505.67
42.9923	505.03
43.0068	504.27
43.0212	532.74
43.0357	510.78
43.0501	499.62
43.0645	526.99
43.0790	526.04
43.0934	506.02
43.1079	506.78
43.1223	536.19
43.1367	499.68
43.1512	452.75
43.1656	543.63
43.1801	518.89
43.1945	534.91
43.2089	506.24
43.2234	537.75
43.2378	530.32
43.2523	543.93
43.2667	554.67
43.2811	498.67
43.2956	519.61
43.3100	498.69
43.3245	505.19
43.3389	498.65
43.3533	496.83
43.3678	522.48
43.3822	526.81
43.3967	519.21
43.4111	505.66
43.4255	546.51
43.4400	510.54
43.4544	503.43
43.4689	537.51
43.4833	547.85
43.4977	526.30
43.5122	535.12
43.5266	525.73
43.5411	506.58
43.5555	512.33
43.5699	511.54
43.5844	497.05
43.5988	535.47
43.6133	516.87
43.6277	528.10
43.6421	514.67
43.6566	575.21
43.6710	509.63
43.6855	505.77
43.6999	534.58
43.7143	521.58
43.7288	508.05
43.7432	528.69
43.7577	507.74
43.7721	503.90
43.7865	520.14
43.8010	513.18
43.8154	529.47
43.8299	503.46
43.8443	499.69
43.8587	507.44
43.8732	534.68
43.8876	514.85
43.9021	521.33
43.9165	561.10
43.9309	508.69
43.9454	518.29
43.9598	502.93
43.9743	503.12
43.9887	559.01
44.0031	531.98
44.0176	544.14
44.0320	555.96
44.0465	551.50
44.0609	556.04
44.0753	552.21
44.0898	604.64
44.1042	573.11
44.1187	568.21
44.1331	619.19
44.1475	604.83
44.1620	646.23
44.1764	644.83
44.1909	604.16
44.2053	595.19
44.2197	596.92
44.2342	576.84
44.2486	600.73
44.2631	604.11
44.2775	611.68
44.2919	610.03
44.3064	566.10
44.3208	580.06
44.3353	563.61
44.3497	563.50
44.3641	542.78
44.3786	522.44
44.3930	561.34
44.4075	588.81
44.4219	580.34
44.4363	585.61
44.4508	602.90
44.4652	561.46
44.4797	563.71
44.4941	588.93
44.5085	566.09
44.5230	583.67
44.5374	549.91
44.5519	570.16
44.5663	569.44
44.5807	580.97
44.5952	591.34
44.6096	607.13
44.6241	575.78
44.6385	552.82
44.6529	561.03
44.6674	615.31
44.6818	639.88
44.6963	651.82
44.7107	711.07
44.7251	700.86
44.7396	762.18
44.7540	822.26
44.7685	842.14
44.7829	860.44
44.7973	855.16
44.8118	857.93
44.8262	819.16
44.8407	787.65
44.8551	692.31
44.8695	703.68
44.8840	710.39
44.8984	826.93
44.9129	744.89
44.9273	649.42
44.9417	620.88
44.9562	583.53
44.9706	601.60
44.9851	571.06
44.9995	514.52
45.0139	522.21
45.0284	540.17
45.0428	496.95
45.0573	536.33
45.0717	519.15
45.0861	535.77
45.1006	548.51
45.1150	551.19
45.1295	490.21
45.1439	483.85
45.1583	514.84
45.1728	527.87
45.1872	493.80
45.2017	480.49
45.2161	531.92
45.2305	490.18
45.2450	506.60
45.2594	464.83
45.2739	515.32
45.2883	497.96
45.3028	496.12
45.3172	483.17
45.3316	486.08
45.3461	522.79
45.3605	494.37
45.3750	516.30
45.3894	490.55
45.4038	491.27
45.4183	490.57
45.4327	524.18
45.4472	521.63
45.4616	508.64
45.4760	519.31
45.4905	521.32
45.5049	506.74
45.5194	511.12
45.5338	523.77
45.5482	505.08
45.5627	500.47
45.5771	509.43
45.5916	525.61
45.6060	484.45
45.6204	473.33
45.6349	516.98
45.6493	528.21
45.6638	529.09
45.6782	469.86
45.6926	518.01
45.7071	548.47
45.7215	500.38
45.7360	509.54
45.7504	502.29
45.7648	490.48
45.7793	520.71
45.7937	533.97
45.8082	535.11
45.8226	491.17
45.8370	504.57
45.8515	526.13
45.8659	508.37
45.8804	512.62
45.8948	508.27
45.9092	497.15
45.9237	484.96
45.9381	486.81
45.9526	493.33
45.9670	487.14
45.9814	491.49
45.9959	489.07
46.0103	496.41
46.0248	500.93
46.0392	493.49
46.0536	527.82
46.0681	513.85
46.0825	502.45
46.0970	512.39
46.1114	512.92
46.1258	543.97
46.1403	509.42
46.1547	514.21
46.1692	513.13
46.1836	491.31
46.1980	452.63
46.2125	501.15
46.2269	491.06
46.2414	518.19
46.2558	503.23
46.2702	512.99
46.2847	517.33
46.2991	493.47
46.3136	512.71
46.3280	510.28
46.3424	496.37
46.3569	493.84
46.3713	497.71
46.3858	467.37
46.4002	507.16
46.4146	515.05
46.4291	495.14
46.4435	460.76
46.4580	499.24
46.4724	504.05
46.4868	519.56
46.5013	518.48
46.5157	523.31
46.5302	507.39
46.5446	497.84
46.5590	509.60
46.5735	478.91
46.5879	499.35
46.6024	523.27
46.6168	531.09
46.6312	505.29
46.6457	491.26
46.6601	518.29
46.6746	503.43
46.6890	522.58
46.7034	494.38
46.7179	478.57
46.7323	489.18
46.7468	490.45
46.7612	499.25
46.7756	529.10
46.7901	497.28
46.8045	480.13
46.8190	484.42
46.8334	468.82
46.8478	512.41
46.8623	524.15
46.8767	512.01
46.8912	506.06
46.9056	516.50
46.9200	505.76
46.9345	517.25
46.9489	520.21
46.9634	504.91
46.9778	492.51
46.9922	503.20
47.0067	537.40
47.0211	538.17
47.0356	496.97
47.0500	524.81
47.0644	516.12
47.0789	514.41
47.0933	516.02
47.1078	522.35
47.1222	533.61
47.1366	512.70
47.1511	530.07
47.1655	528.82
47.1800	527.22
47.1944	499.62
47.2088	497.46
47.2233	512.30
47.2377	510.95
47.2522	490.03
47.2666	501.53
47.2810	527.14
47.2955	496.56
47.3099	498.87
47.3244	510.42
47.3388	532.53
47.3532	529.36
47.3677	497.55
47.3821	489.99
47.3966	465.00
47.4110	501.60
47.4254	549.21
47.4399	509.45
47.4543	486.80
47.4688	523.81
47.4832	513.08
47.4976	485.94
47.5121	500.77
47.5265	514.78
47.5410	532.03
47.5554	489.49
47.5698	469.34
47.5843	494.98
47.5987	522.62
47.6132	524.30
47.6276	522.46
47.6420	535.15
47.6565	526.89
47.6709	546.09
47.6854	511.64
47.6998	497.66
47.7142	507.85
47.7287	504.33
47.7431	503.07
47.7576	485.40
47.7720	529.41
47.7864	525.42
47.8009	490.72
47.8153	512.59
47.8298	511.31
47.8442	526.24
47.8586	507.35
47.8731	477.89
47.8875	463.79
47.9020	526.84
47.9164	499.87
47.9308	500.48
47.9453	467.42
47.9597	496.58
47.9742	510.58
47.9886	506.94
48.0030	475.43
48.0175	474.06
48.0319	504.99
48.0464	490.70
48.0608	524.94
48.0752	499.78
48.0897	491.03
48.1041	493.43
48.1186	503.38
48.1330	527.95
48.1474	487.68
48.1619	520.13
48.1763	529.19
48.1908	519.46
48.2052	525.73
48.2196	507.23
48.2341	497.97
48.2485	515.70
48.2630	480.90
48.2774	489.82
48.2918	505.77
48.3063	493.21
48.3207	539.89
48.3352	543.29
48.3496	530.41
48.3640	549.02
48.3785	516.14
48.3929	503.71
48.4074	524.14
48.4218	508.88
48.4362	522.81
48.4507	533.54
48.4651	513.93
48.4796	495.09
48.4940	538.13
48.5084	545.58
48.5229	528.33
48.5373	523.92
48.5518	506.58
48.5662	499.22
48.5806	504.89
48.5951	528.91
48.6095	539.51
48.6240	556.03
48.6384	561.70
48.6528	533.84
48.6673	498.13
48.6817	486.03
48.6962	513.82
48.7106	518.73
48.7250	494.52
48.7395	500.57
48.7539	537.45
48.7684	521.48
48.7828	530.08
48.7972	533.59
48.8117	555.34
48.8261	529.50
48.8406	525.80
48.8550	539.52
48.8694	557.44
48.8839	541.00
48.8983	550.31
48.9128	590.46
48.9272	529.04
48.9416	566.09
48.9561	593.05
48.9705	579.66
48.9850	579.12
48.9994	569.18
49.0139	650.25
49.0283	611.31
49.0427	620.87
49.0572	632.62
49.0716	687.93
49.0861	696.27
49.1005	726.78
49.1149	699.47
49.1294	730.96
49.1438	748.81
49.1583	811.05
49.1727	853.97
49.1871	869.36
49.2016	912.20
49.2160	991.22
49.2305	1061.59
49.2449	1213.62
49.2593	1255.66
49.2738	1304.20
49.2882	1426.84
49.3027	1510.56
49.3171	1666.63
49.3315	1715.23
49.3460	1705.96
49.3604	1755.72
49.3749	1758.63
49.3893	1721.84
49.4037	1717.30
49.4182	1793.06
49.4326	1775.31
49.4471	1620.76
49.4615	1607.67
49.4759	1510.39
49.4904	1408.52
49.5048	1350.87
49.5193	1305.38
49.5337	1323.68
49.5481	1216.74
49.5626	1110.76
49.5770	1055.58
49.5915	964.51
49.6059	918.03
49.6203	882.73
49.6348	860.33
49.6492	777.33
49.6637	728.34
49.6781	700.33
49.6925	681.91
49.7070	692.15
49.7214	646.75
49.7359	646.99
49.7503	656.48
49.7647	591.00
49.7792	594.67
49.7936	636.58
49.8081	605.73
49.8225	564.34
49.8369	541.19
49.8514	585.05
49.8658	557.23
49.8803	528.63
49.8947	539.28
49.9091	564.36
49.9236	533.49
49.9380	532.63
49.9525	531.33
49.9669	561.55
49.9813	531.03
49.9958	533.38
50.0102	533.74
50.0247	540.90
50.0391	555.96
50.0535	529.03
50.0680	539.72
50.0824	550.06
50.0969	524.56
50.1113	538.51
50.1257	585.66
50.1402	546.19
50.1546	507.48
50.1691	490.92
50.1835	503.71
50.1979	507.88
50.2124	544.05
50.2268	527.89
50.2413	502.79
50.2557	521.84
50.2701	510.20
50.2846	528.49
50.2990	490.68
50.3135	510.50
50.3279	514.99
50.3423	536.16
50.3568	536.92
50.3712	528.51
50.3857	512.71
50.4001	494.44
50.4145	492.08
50.4290	508.13
50.4434	530.34
50.4579	488.24
50.4723	479.93
50.4867	532.62
50.5012	490.29
50.5156	537.93
50.5301	519.72
50.5445	510.54
50.5589	518.29
50.5734	495.31
50.5878	511.75
50.6023	504.89
50.6167	528.99
50.6311	526.13
50.6456	517.75
50.6600	538.11
50.6745	505.61
50.6889	475.90
50.7033	510.32
50.7178	515.45
50.7322	497.29
50.7467	507.44
50.7611	477.68
50.7755	512.91
50.7900	486.40
50.8044	489.71
50.8189	514.74
50.8333	508.79
50.8477	500.65
50.8622	513.65
50.8766	516.25
50.8911	517.93
50.9055	499.08
50.9199	499.48
50.9344	522.02
50.9488	508.07
50.9633	464.34
50.9777	485.53
50.9921	513.93
51.0066	466.85
51.0210	507.38
51.0355	538.73
51.0499	490.16
51.0643	509.13
51.0788	515.52
51.0932	521.51
51.1077	515.49
51.1221	506.34
51.1365	520.97
51.1510	514.84
51.1654	527.81
51.1799	520.20
51.1943	502.85
51.2087	492.62
51.2232	496.70
51.2376	521.10
51.2521	510.86
51.2665	507.01
51.2809	502.31
51.2954	484.48
51.3098	478.87
51.3243	484.81
51.3387	516.33
51.3531	509.33
51.3676	528.41
51.3820	498.97
51.3965	496.71
51.4109	501.22
51.4253	541.36
51.4398	511.92
51.4542	500.21
51.4687	520.87
51.4831	521.10
51.4975	487.62
51.5120	509.12
51.5264	519.38
51.5409	515.62
51.5553	550.07
51.5697	509.27
51.5842	522.93
51.5986	520.17
51.6131	546.71
51.6275	496.39
51.6419	513.18
51.6564	514.27
51.6708	508.46
51.6853	495.77
51.6997	496.91
51.7141	536.45
51.7286	515.34
51.7430	528.00
51.7575	509.23
51.7719	521.39
51.7863	524.73
51.8008	511.25
51.8152	515.58
51.8297	534.38
51.8441	527.25
51.8585	506.94
51.8730	529.51
51.8874	520.68
51.9019	536.08
51.9163	532.22
51.9307	514.72
51.9452	514.69
51.9596	535.93
51.9741	512.99
51.9885	531.71
52.0029	521.05
52.0174	526.49
52.0318	479.19
52.0463	505.73
52.0607	492.47
52.0751	518.45
52.0896	518.55
52.1040	457.71
52.1185	533.70
52.1329	524.48
52.1473	475.64
52.1618	468.29
52.1762	524.67
52.1907	534.28
52.2051	510.81
52.2195	532.92
52.2340	510.71
52.2484	490.46
52.2629	512.93
52.2773	496.04
52.2917	508.48
52.3062	516.23
52.3206	515.26
52.3351	492.31
52.3495	508.96
52.3639	516.79
52.3784	518.31
52.3928	505.82
52.4073	543.25
52.4217	526.26
52.4361	487.81
52.4506	491.63
52.4650	504.08
52.4795	529.85
52.4939	506.53
52.5083	507.45
52.5228	504.27
52.5372	515.81
52.5517	527.28
52.5661	525.14
52.5805	490.34
52.5950	505.54
52.6094	482.53
52.6239	499.80
52.6383	526.63
52.6527	497.04
52.6672	499.15
52.6816	508.63
52.6961	528.47
52.7105	524.85
52.7250	502.32
52.7394	497.71
52.7538	517.01
52.7683	481.65
52.7827	518.11
52.7972	515.07
52.8116	524.09
52.8260	503.39
52.8405	499.32
52.8549	498.11
52.8694	522.21
52.8838	499.42
52.8982	477.47
52.9127	467.38
52.9271	512.20
52.9416	562.68
52.9560	521.26
52.9704	484.81
52.9849	503.56
52.9993	525.11
53.0138	507.93
53.0282	508.47
53.0426	544.38
53.0571	585.27
53.0715	537.84
53.0860	513.23
53.1004	487.39
53.1148	558.76
53.1293	526.80
53.1437	520.24
53.1582	526.39
53.1726	531.22
53.1870	488.60
53.2015	498.90
53.2159	501.23
53.2304	502.49
53.2448	521.25
53.2592	516.83
53.2737	509.63
53.2881	523.27
53.3026	505.04
53.3170	520.78
53.3314	561.20
53.3459	512.17
53.3603	547.46
53.3748	511.39
53.3892	493.69
53.4036	524.55
53.4181	510.73
53.4325	529.99
53.4470	530.01
53.4614	533.61
53.4758	553.50
53.4903	509.94
53.5047	502.57
53.5192	479.92
53.5336	505.16
53.5480	512.77
53.5625	523.09
53.5769	539.08
53.5914	556.19
53.6058	528.27
53.6202	508.94
53.6347	522.98
53.6491	526.58
53.6636	529.60
53.6780	512.76
53.6924	474.69
53.7069	496.25
53.7213	502.07
53.7358	534.54
53.7502	516.87
53.7646	497.54
53.7791	504.51
53.7935	468.01
53.8080	541.79
53.8224	502.95
53.8368	553.39
53.8513	535.19
53.8657	533.41
53.8802	482.81
53.8946	522.27
53.9090	531.59
53.9235	503.02
53.9379	536.06
53.9524	522.22
53.9668	532.52
53.9812	526.79
53.9957	514.06
54.0101	500.19
54.0246	551.09
54.0390	526.19
54.0534	499.01
54.0679	521.63
54.0823	547.30
54.0968	536.91
54.1112	543.33
54.1256	543.69
54.1401	529.35
54.1545	482.44
54.1690	494.79
54.1834	491.61
54.1978	488.16
54.2123	530.94
54.2267	513.03
54.2412	530.40
54.2556	527.77
54.2700	524.02
54.2845	546.90
54.2989	501.13
54.3134	532.61
54.3278	534.36
54.3422	533.59
54.3567	529.76
54.3711	537.68
54.3856	517.52
54.4000	514.41
54.4144	534.06
54.4289	525.73
54.4433	480.69
54.4578	470.89
54.4722	528.93
54.4866	544.85
54.5011	527.61
54.5155	553.61
54.5300	556.24
54.5444	526.61
54.5588	523.24
54.5733	524.50
54.5877	527.76
54.6022	558.48
54.6166	539.39
54.6310	534.97
54.6455	542.19
54.6599	552.50
54.6744	552.41
54.6888	552.25
54.7032	547.67
54.7177	570.66
54.7321	576.24
54.7466	571.32
54.7610	575.00
54.7754	582.27
54.7899	585.97
54.8043	617.20
54.8188	597.59
54.8332	572.40
54.8476	573.82
54.8621	582.76
54.8765	592.81
54.8910	547.80
54.9054	577.91
54.9198	566.01
54.9343	566.50
54.9487	556.57
54.9632	537.48
54.9776	587.89
54.9920	577.80
55.0065	568.27
55.0209	572.71
55.0354	581.18
55.0498	585.21
55.0642	520.74
55.0787	521.90
55.0931	546.10
55.1076	506.36
55.1220	518.16
55.1364	530.42
55.1509	530.93
55.1653	540.01
55.1798	544.05
55.1942	534.36
55.2086	535.48
55.2231	557.10
55.2375	532.67
55.2520	490.53
55.2664	511.61
55.2808	534.77
55.2953	509.72
55.3097	515.34
55.3242	507.82
55.3386	530.79
55.3530	505.09
55.3675	507.78
55.3819	516.48
55.3964	479.75
55.4108	501.15
55.4252	555.95
55.4397	538.04
55.4541	515.10
55.4686	548.89
55.4830	530.24
55.4974	504.59
55.5119	520.61
55.5263	543.74
55.5408	519.18
55.5552	528.38
55.5696	510.29
55.5841	532.02
55.5985	515.66
55.6130	523.30
55.6274	545.61
55.6418	521.85
55.6563	538.31
55.6707	525.87
55.6852	514.26
55.6996	547.29
55.7140	545.67
55.7285	547.85
55.7429	539.14
55.7574	532.96
55.7718	531.58
55.7862	541.61
55.8007	505.33
55.8151	547.56
55.8296	540.37
55.8440	564.39
55.8584	573.68
55.8729	557.55
55.8873	520.25
55.9018	521.20
55.9162	526.21
55.9306	521.24
55.9451	497.10
55.9595	530.46
55.9740	519.76
55.9884	540.87
56.0028	507.63
56.0173	491.02
56.0317	538.52
56.0462	524.76
56.0606	510.32
56.0750	535.12
56.0895	526.52
56.1039	528.71
56.1184	498.80
56.1328	532.83
56.1472	513.15
56.1617	520.45
56.1761	520.00
56.1906	514.16
56.2050	496.87
56.2194	495.28
56.2339	471.32
56.2483	526.74
56.2628	496.97
56.2772	526.95
56.2916	511.82
56.3061	522.21
56.3205	507.45
56.3350	518.02
56.3494	515.27
56.3639	538.06
56.3783	520.30
56.3927	552.75
56.4072	515.08
56.4216	528.09
56.4361	506.19
56.4505	485.48
56.4649	520.50
56.4794	514.90
56.4938	523.13
56.5083	525.47
56.5227	475.36
56.5371	523.51
56.5516	542.54
56.5660	524.41
56.5805	548.17
56.5949	550.36
56.6093	554.05
56.6238	508.42
56.6382	539.59
56.6527	562.68
56.6671	535.89
56.6815	532.77
56.6960	528.48
56.7104	543.55
56.7249	562.13
56.7393	524.69
56.7537	497.44
56.7682	519.99
56.7826	533.19
56.7971	505.89
56.8115	524.05
56.8259	531.84
56.8404	500.75
56.8548	537.88
56.8693	547.97
56.8837	546.18
56.8981	581.97
56.9126	506.66
56.9270	532.27
56.9415	556.34
56.9559	540.20
56.9703	561.76
56.9848	542.22
56.9992	540.78
57.0137	560.81
57.0281	526.82
57.0425	516.63
57.0570	507.71
57.0714	520.63
57.0859	522.16
57.1003	530.55
57.1147	520.46
57.1292	549.86
57.1436	514.08
57.1581	483.94
57.1725	512.55
57.1869	502.89
57.2014	513.78
57.2158	499.81
57.2303	471.82
57.2447	487.60
57.2591	507.12
57.2736	506.11
57.2880	531.57
57.3025	523.88
57.3169	526.14
57.3313	505.12
57.3458	505.45
57.3602	519.62
57.3747	520.11
57.3891	508.73
57.4035	512.82
57.4180	526.25
57.4324	537.80
57.4469	560.33
57.4613	540.15
57.4757	578.14
57.4902	521.43
57.5046	517.24
57.5191	518.76
57.5335	550.34
57.5479	529.38
57.5624	535.76
57.5768	530.51
57.5913	515.57
57.6057	529.80
57.6201	525.64
57.6346	512.78
57.6490	521.59
57.6635	542.14
57.6779	540.81
57.6923	537.46
57.7068	587.48
57.7212	534.42
57.7357	514.35
57.7501	553.48
57.7645	528.98
57.7790	530.77
57.7934	540.38
57.8079	523.49
57.8223	515.68
57.8367	556.82
57.8512	561.33
57.8656	546.74
57.8801	559.10
57.8945	545.61
57.9089	485.51
57.9234	505.26
57.9378	567.78
57.9523	534.55
57.9667	508.21
57.9811	516.76
57.9956	541.12
58.0100	529.94
58.0245	497.38
58.0389	533.93
58.0533	543.92
58.0678	538.92
58.0822	555.79
58.0967	534.10
58.1111	534.48
58.1255	566.73
58.1400	509.63
58.1544	517.57
58.1689	562.89
58.1833	550.03
58.1977	535.21
58.2122	560.86
58.2266	552.03
58.2411	572.85
58.2555	564.56
58.2699	565.90
58.2844	592.59
58.2988	582.65
58.3133	605.36
58.3277	630.15
58.3421	619.28
58.3566	607.73
58.3710	645.04
58.3855	636.73
58.3999	636.72
58.4143	637.30
58.4288	672.79
58.4432	619.60
58.4577	652.36
58.4721	636.57
58.4865	657.06
58.5010	665.00
58.5154	666.87
58.5299	672.71
58.5443	683.61
58.5587	662.18
58.5732	621.34
58.5876	624.84
58.6021	628.19
58.6165	590.12
58.6309	589.91
58.6454	585.57
58.6598	578.51
58.6743	589.34
58.6887	603.78
58.7031	579.25
58.7176	551.30
58.7320	544.06
58.7465	600.48
58.7609	558.35
58.7753	527.56
58.7898	562.08
58.8042	550.09
58.8187	586.43
58.8331	547.94
58.8475	567.76
58.8620	563.53
58.8764	523.70
58.8909	552.16
58.9053	565.13
58.9197	533.12
58.9342	554.14
58.9486	573.05
58.9631	560.89
58.9775	545.16
58.9919	532.95
59.0064	527.16
59.0208	546.68
59.0353	527.60
59.0497	502.29
59.0641	558.91
59.0786	557.15
59.0930	521.92
59.1075	522.28
59.1219	549.81
59.1363	521.66
59.1508	511.34
59.1652	544.22
59.1797	534.52
59.1941	543.78
59.2085	561.41
59.2230	575.81
59.2374	566.01
59.2519	596.16
59.2663	559.73
59.2807	546.42
59.2952	555.74
59.3096	568.35
59.3241	556.96
59.3385	530.58
59.3529	559.48
59.3674	549.03
59.3818	562.83
59.3963	568.22
59.4107	533.51
59.4251	541.99
59.4396	581.20
59.4540	540.59
59.4685	568.82
59.4829	566.06
59.4973	558.86
59.5118	553.84
59.5262	550.04
59.5407	573.03
59.5551	547.18
59.5695	542.10
59.5840	525.27
59.5984	536.55
59.6129	519.22
59.6273	518.05
59.6417	544.53
59.6562	539.57
59.6706	542.84
59.6851	511.13
59.6995	570.70
59.7139	530.48
59.7284	513.38
59.7428	539.74
59.7573	584.45
59.7717	552.07
59.7861	548.68
59.8006	551.93
59.8150	523.88
59.8295	515.57
59.8439	534.18
59.8583	518.65
59.8728	554.51
59.8872	526.84
59.9017	558.68
59.9161	560.88
59.9305	536.17
59.9450	548.39
59.9594	511.15
59.9739	525.08
59.9883	579.28
60.0027	541.52
60.0172	542.96
60.0316	543.49
60.0461	523.94
60.0605	544.34
60.0750	516.85
60.0894	555.26
60.1038	562.32
60.1183	538.17
60.1327	559.70
60.1472	515.69
60.1616	531.72
60.1760	535.50
60.1905	535.02
60.2049	537.52
60.2194	528.94
60.2338	505.99
60.2482	539.42
60.2627	507.87
60.2771	558.25
60.2916	525.48
60.3060	515.71
60.3204	527.05
60.3349	540.71
60.3493	519.53
60.3638	531.40
60.3782	520.10
60.3926	515.81
60.4071	521.41
60.4215	528.75
60.4360	551.50
60.4504	532.63
60.4648	550.29
60.4793	566.17
60.4937	579.12
60.5082	559.41
60.5226	501.76
60.5370	565.10
60.5515	572.21
60.5659	564.99
60.5804	529.77
60.5948	552.14
60.6092	538.30
60.6237	532.52
60.6381	548.61
60.6526	524.35
60.6670	530.58
60.6814	499.60
60.6959	532.23
60.7103	527.74
60.7248	514.24
60.7392	515.12
60.7536	527.23
60.7681	514.11
60.7825	530.85
60.7970	544.11
60.8114	535.84
60.8258	502.71
60.8403	529.28
60.8547	555.55
60.8692	528.05
60.8836	547.62
60.8980	549.90
60.9125	525.95
60.9269	540.08
60.9414	547.80
60.9558	541.49
60.9702	548.83
60.9847	529.24
60.9991	538.59
61.0136	535.14
61.0280	561.85
61.0424	525.60
61.0569	520.54
61.0713	505.99
61.0858	543.60
61.1002	506.95
61.1146	569.19
61.1291	551.01
61.1435	523.84
61.1580	542.03
61.1724	551.97
61.1868	527.09
61.2013	505.68
61.2157	533.45
61.2302	558.20
61.2446	539.81
61.2590	562.51
61.2735	538.76
61.2879	545.89
61.3024	553.31
61.3168	567.12
61.3312	558.25
61.3457	563.14
61.3601	527.57
61.3746	531.17
61.3890	532.53
61.4034	522.99
61.4179	544.25
61.4323	571.41
61.4468	555.41
61.4612	571.18
61.4756	550.81
61.4901	561.78
61.5045	552.78
61.5190	550.29
61.5334	525.66
61.5478	515.04
61.5623	557.59
61.5767	555.29
61.5912	528.38
61.6056	520.98
61.6200	514.44
61.6345	524.33
61.6489	566.43
61.6634	549.16
61.6778	534.95
61.6922	516.98
61.7067	569.06
61.7211	550.43
61.7356	542.10
61.7500	541.10
61.7644	518.76
61.7789	558.04
61.7933	560.15
61.8078	584.20
61.8222	551.10
61.8366	526.09
61.8511	520.47
61.8655	541.67
61.8800	533.64
61.8944	527.46
61.9088	530.24
61.9233	555.21
61.9377	544.19
61.9522	524.63
61.9666	568.79
61.9810	586.49
61.9955	547.98
62.0099	522.83
62.0244	545.71
62.0388	563.26
62.0532	564.48
62.0677	551.79
62.0821	574.35
62.0966	560.06
62.1110	526.23
62.1254	546.35
62.1399	552.99
62.1543	550.95
62.1688	550.61
62.1832	531.45
62.1976	559.82
62.2121	565.81
62.2265	531.99
62.2410	550.83
62.2554	549.35
62.2698	544.44
62.2843	558.96
62.2987	524.84
62.3132	574.36
62.3276	568.88
62.3420	546.00
62.3565	548.98
62.3709	562.67
62.3854	528.01
62.3998	542.91
62.4142	520.66
62.4287	554.33
62.4431	529.28
62.4576	540.73
62.4720	544.60
62.4864	560.01
62.5009	587.24
62.5153	541.44
62.5298	537.56
62.5442	585.54
62.5586	563.78
62.5731	537.98
62.5875	554.74
62.6020	574.99
62.6164	575.93
62.6308	560.71
62.6453	555.10
62.6597	555.92
62.6742	550.88
62.6886	552.87
62.7030	550.16
62.7175	566.03
62.7319	557.38
62.7464	524.84
62.7608	531.26
62.7752	552.08
62.7897	564.13
62.8041	547.90
62.8186	559.52
62.8330	549.56
62.8474	541.71
62.8619	554.54
62.8763	589.89
62.8908	585.48
62.9052	578.93
62.9196	562.61
62.9341	565.55
62.9485	533.77
62.9630	568.48
62.9774	564.98
62.9918	571.86
63.0063	567.22
63.0207	539.94
63.0352	536.16
63.0496	567.63
63.0640	585.44
63.0785	560.77
63.0929	575.62
63.1074	568.25
63.1218	583.12
63.1362	556.31
63.1507	548.75
63.1651	552.18
63.1796	596.00
63.1940	576.10
63.2084	580.67
63.2229	579.96
63.2373	573.27
63.2518	582.26
63.2662	546.06
63.2806	584.98
63.2951	555.32
63.3095	571.97
63.3240	622.29
63.3384	644.90
63.3528	584.60
63.3673	578.68
63.3817	562.66
63.3962	551.31
63.4106	583.96
63.4250	572.44
63.4395	597.71
63.4539	616.70
63.4684	625.25
63.4828	570.17
63.4972	547.05
63.5117	565.89
63.5261	592.53
63.5406	587.72
63.5550	628.11
63.5694	589.22
63.5839	558.49
63.5983	573.40
63.6128	599.56
63.6272	591.68
63.6416	586.86
63.6561	565.59
63.6705	552.64
63.6850	540.90
63.6994	588.09
63.7138	620.40
63.7283	567.78
63.7427	560.66
63.7572	566.57
63.7716	627.98
63.7861	628.76
63.8005	596.19
63.8149	612.01
63.8294	613.87
63.8438	593.37
63.8583	596.45
63.8727	626.44
63.8871	608.95
63.9016	627.80
63.9160	569.45
63.9305	632.14
63.9449	628.49
63.9593	609.72
63.9738	611.96
63.9882	651.06
64.0027	619.15
64.0171	669.93
64.0315	705.85
64.0460	700.67
64.0604	689.90
64.0749	732.92
64.0893	766.90
64.1037	775.98
64.1182	754.83
64.1326	796.16
64.1471	789.61
64.1615	766.48
64.1759	787.04
64.1904	768.25
64.2048	743.28
64.2193	745.17
64.2337	770.90
64.2481	776.87
64.2626	785.24
64.2770	810.00
64.2915	801.65
64.3059	797.87
64.3203	751.20
64.3348	775.84
64.3492	752.79
64.3637	759.55
64.3781	717.93
64.3925	684.35
64.4070	723.79
64.4214	769.68
64.4359	731.54
64.4503	715.10
64.4647	725.56
64.4792	731.06
64.4936	699.42
64.5081	707.32
64.5225	673.31
64.5369	682.55
64.5514	709.88
64.5658	689.08
64.5803	693.19
64.5947	694.30
64.6091	711.00
64.6236	660.99
64.6380	682.25
64.6525	709.42
64.6669	674.69
64.6813	704.23
64.6958	672.99
64.7102	728.60
64.7247	732.88
64.7391	694.65
64.7535	759.32
64.7680	717.89
64.7824	710.47
64.7969	746.94
64.8113	753.20
64.8257	772.77
64.8402	814.25
64.8546	862.72
64.8691	864.40
64.8835	847.73
64.8979	848.05
64.9124	864.55
64.9268	845.23
64.9413	982.77
64.9557	949.65
64.9701	960.71
64.9846	1050.49
64.9990	1218.81
65.0135	1297.28
65.0279	1498.69
65.0423	1816.81
65.0568	2169.95
65.0712	2795.92
65.0857	3728.63
65.1001	4916.45
65.1145	6564.64
65.1290	8503.60
65.1434	10012.42
65.1579	11484.71
65.1723	12057.76
65.1867	11153.25
65.2012	9824.67
65.2156	8191.81
65.2301	6414.35
65.2445	5227.89
65.2589	4423.86
65.2734	4243.48
65.2878	4485.53
65.3023	5160.37
65.3167	5910.48
65.3311	6772.11
65.3456	7145.08
65.3600	7014.14
65.3745	6285.01
65.3889	5230.16
65.4033	4207.69
65.4178	3326.14
65.4322	2694.72
65.4467	2027.51
65.4611	1647.00
65.4755	1424.09
65.4900	1248.22
65.5044	1161.98
65.5189	1013.67
65.5333	947.15
65.5477	925.70
65.5622	902.99
65.5766	867.05
65.5911	857.57
65.6055	785.97
65.6199	787.05
65.6344	765.95
65.6488	760.78
65.6633	740.98
65.6777	716.55
65.6921	713.00
65.7066	732.91
65.7210	741.47
65.7355	629.24
65.7499	684.02
65.7643	670.05
65.7788	707.67
65.7932	693.48
65.8077	682.83
65.8221	652.52
65.8365	669.85
65.8510	627.04
65.8654	631.61
65.8799	651.88
65.8943	671.25
65.9087	665.38
65.9232	653.30
65.9376	647.27
65.9521	621.99
65.9665	635.50
65.9809	624.03
65.9954	632.59
66.0098	607.36
66.0243	620.31
66.0387	607.71
66.0531	607.08
66.0676	622.75
66.0820	615.73
66.0965	639.56
66.1109	684.66
66.1253	677.26
66.1398	635.71
66.1542	614.45
66.1687	623.95
66.1831	632.63
66.1975	598.53
66.2120	617.35
66.2264	587.82
66.2409	605.80
66.2553	635.49
66.2697	628.53
66.2842	609.73
66.2986	605.56
66.3131	644.10
66.3275	645.40
66.3419	643.54
66.3564	640.93
66.3708	598.75
66.3853	570.68
66.3997	577.61
66.4141	588.13
66.4286	609.48
66.4430	592.86
66.4575	611.26
66.4719	617.41
66.4863	608.60
66.5008	595.24
66.5152	608.30
66.5297	615.81
66.5441	584.78
66.5585	580.89
66.5730	609.29
66.5874	575.37
66.6019	572.40
66.6163	583.45
66.6307	599.86
66.6452	594.13
66.6596	594.68
66.6741	589.22
66.6885	600.59
66.7029	572.50
66.7174	575.07
66.7318	583.83
66.7463	584.45
66.7607	588.73
66.7751	590.60
66.7896	590.00
66.8040	566.49
66.8185	602.04
66.8329	572.81
66.8473	608.44
66.8618	628.46
66.8762	584.49
66.8907	580.18
66.9051	618.33
66.9195	635.66
66.9340	609.41
66.9484	568.37
66.9629	578.70
66.9773	577.40
66.9917	601.82
67.0062	565.95
67.0206	577.84
67.0351	592.93
67.0495	580.85
67.0639	590.65
67.0784	599.21
67.0928	627.81
67.1073	596.27
67.1217	626.95
67.1361	599.55
67.1506	593.40
67.1650	582.13
67.1795	546.18
67.1939	572.85
67.2083	575.62
67.2228	585.67
67.2372	594.56
67.2517	584.36
67.2661	588.35
67.2805	617.18
67.2950	595.18
67.3094	582.27
67.3239	580.06
67.3383	587.63
67.3527	577.54
67.3672	562.94
67.3816	583.05
67.3961	588.70
67.4105	574.32
67.4250	610.99
67.4394	575.69
67.4538	566.82
67.4683	565.76
67.4827	591.41
67.4972	549.96
67.5116	538.07
67.5260	561.71
67.5405	606.63
67.5549	607.64
67.5694	566.70
67.5838	587.85
67.5982	573.24
67.6127	564.55
67.6271	543.22
67.6416	587.01
67.6560	571.92
67.6704	551.54
67.6849	562.49
67.6993	584.10
67.7138	609.55
67.7282	603.65
67.7426	593.82
67.7571	598.56
67.7715	590.44
67.7860	573.83
67.8004	540.76
67.8148	584.70
67.8293	561.58
67.8437	566.59
67.8582	575.18
67.8726	583.61
67.8870	556.83
67.9015	586.67
67.9159	592.96
67.9304	583.78
67.9448	586.72
67.9592	563.98
67.9737	599.44
67.9881	600.43
68.0026	547.12
68.0170	574.01
68.0314	575.82
68.0459	561.52
68.0603	552.31
68.0748	595.37
68.0892	571.06
68.1036	534.94
68.1181	607.93
68.1325	554.82
68.1470	595.89
68.1614	611.55
68.1758	587.47
68.1903	557.72
68.2047	524.82
68.2192	584.66
68.2336	568.86
68.2480	582.94
68.2625	558.75
68.2769	566.06
68.2914	587.68
68.3058	545.49
68.3202	551.37
68.3347	614.74
68.3491	586.67
68.3636	565.75
68.3780	566.66
68.3924	578.99
68.4069	558.16
68.4213	567.60
68.4358	584.12
68.4502	574.78
68.4646	576.81
68.4791	580.59
68.4935	592.36
68.5080	535.27
68.5224	634.21
68.5368	641.92
68.5513	575.33
68.5657	586.77
68.5802	550.82
68.5946	582.70
68.6090	549.41
68.6235	522.56
68.6379	574.17
68.6524	580.23
68.6668	598.06
68.6812	564.08
68.6957	549.45
68.7101	576.78
68.7246	586.44
68.7390	585.83
68.7534	596.86
68.7679	561.73
68.7823	554.44
68.7968	568.45
68.8112	546.14
68.8256	563.13
68.8401	608.45
68.8545	599.75
68.8690	567.21
68.8834	562.95
68.8978	595.24
68.9123	625.09
68.9267	570.36
68.9412	603.37
68.9556	521.50
68.9700	526.11
68.9845	558.38
68.9989	583.22
69.0134	555.90
69.0278	597.80
69.0422	591.67
69.0567	566.82
69.0711	591.46
69.0856	560.28
69.1000	549.96
69.1144	592.49
69.1289	588.99
69.1433	509.65
69.1578	529.60
69.1722	565.53
69.1866	592.42
69.2011	597.01
69.2155	619.38
69.2300	539.12
69.2444	597.75
69.2588	571.91
69.2733	578.35
69.2877	577.09
69.3022	560.22
69.3166	590.50
69.3310	584.50
69.3455	554.31
69.3599	585.81
69.3744	613.22
69.3888	554.51
69.4032	570.55
69.4177	593.09
69.4321	594.16
69.4466	604.29
69.4610	572.05
69.4754	578.27
69.4899	587.42
69.5043	544.68
69.5188	560.94
69.5332	615.33
69.5476	616.75
69.5621	585.28
69.5765	596.42
69.5910	589.05
69.6054	622.30
69.6198	580.79
69.6343	548.46
69.6487	592.17
69.6632	610.38
69.6776	568.78
69.6920	560.02
69.7065	560.27
69.7209	574.24
69.7354	561.18
69.7498	568.38
69.7642	584.30
69.7787	567.25
69.7931	557.58
69.8076	587.82
69.8220	592.45
69.8364	597.25
69.8509	588.36
69.8653	555.10
69.8798	588.71
69.8942	584.68
69.9086	563.12
69.9231	597.20
69.9375	598.35
69.9520	550.23
69.9664	529.10
69.9808	590.13
69.9953	614.98
70.0097	569.44
70.0242	586.09
70.0386	576.72
70.0530	597.14
70.0675	561.74
70.0819	564.72
70.0964	592.80
70.1108	583.14
70.1252	569.23
70.1397	550.81
70.1541	565.02
70.1686	600.81
70.1830	604.36
70.1974	590.09
70.2119	585.79
70.2263	572.68
70.2408	569.88
70.2552	572.86
70.2696	577.61
70.2841	570.51
70.2985	558.75
70.3130	588.85
70.3274	596.48
70.3418	600.78
70.3563	620.50
70.3707	602.68
70.3852	579.66
70.3996	591.13
70.4140	532.62
70.4285	647.71
70.4429	609.92
70.4574	680.26
70.4718	583.38
70.4862	553.13
70.5007	563.96
70.5151	594.94
70.5296	559.04
70.5440	523.70
70.5584	592.14
70.5729	566.31
70.5873	547.44
70.6018	530.91
70.6162	546.25
70.6306	564.71
70.6451	621.50
70.6595	616.80
70.6740	549.12
70.6884	551.59
70.7028	576.16
70.7173	595.52
70.7317	585.64
70.7462	580.72
70.7606	617.78
70.7750	676.77
70.7895	601.29
70.8039	611.04
70.8184	594.13
70.8328	625.12
70.8472	601.25
70.8617	613.51
70.8761	641.99
70.8906	558.06
70.9050	584.83
70.9194	566.71
70.9339	559.24
70.9483	585.81
70.9628	598.27
70.9772	614.52
70.9916	601.92
71.0061	566.56
71.0205	580.28
71.0350	532.11
71.0494	515.51
71.0638	517.32
71.0783	536.57
71.0927	584.82
71.1072	584.69
71.1216	545.42
71.1361	532.40
71.1505	580.77
71.1649	635.36
71.1794	620.03
71.1938	556.76
71.2083	584.98
71.2227	558.56
71.2371	544.47
71.2516	558.36
71.2660	567.38
71.2805	564.98
71.2949	584.65
71.3093	573.98
71.3238	583.39
71.3382	590.62
71.3527	564.35
71.3671	543.63
71.3815	542.29
71.3960	595.88
71.4104	605.56
71.4249	668.18
71.4393	651.30
71.4537	571.84
71.4682	545.65
71.4826	530.11
71.4971	547.30
71.5115	538.65
71.5259	561.94
71.5404	608.95
71.5548	586.40
71.5693	570.80
71.5837	571.18
71.5981	579.97
71.6126	569.64
71.6270	532.41
71.6415	545.68
71.6559	546.81
71.6703	536.92
71.6848	566.38
71.6992	584.34
71.7137	621.71
71.7281	579.88
71.7425	557.68
71.7570	543.53
71.7714	590.18
71.7859	567.96
71.8003	576.04
71.8147	593.95
71.8292	642.13
71.8436	649.54
71.8581	650.73
71.8725	604.38
71.8869	571.21
71.9014	638.35
71.9158	615.84
71.9303	536.68
71.9447	503.94
71.9591	556.27
71.9736	574.30
71.9880	536.34
72.0025	482.26
72.0169	525.75
72.0313	560.35
72.0458	552.84
72.0602	576.68
72.0747	549.98
72.0891	510.08
72.1035	535.49
72.1180	544.81
72.1324	563.90
72.1469	615.94
72.1613	627.78
72.1757	618.69
72.1902	600.92
72.2046	559.24
72.2191	533.88
72.2335	535.80
72.2479	576.88
72.2624	625.02
72.2768	586.18
72.2913	557.45
72.3057	542.96
72.3201	596.17
72.3346	631.56
72.3490	521.67
72.3635	453.62
72.3779	496.22
72.3923	554.00
72.4068	553.32
72.4212	540.62
72.4357	582.42
72.4501	555.99
72.4645	621.82
72.4790	597.77
72.4934	528.69
72.5079	610.03
72.5223	576.19
72.5367	528.82
72.5512	648.30
72.5656	654.65
72.5801	541.29
72.5945	521.36
72.6089	568.44
72.6234	604.02
72.6378	632.78
72.6523	614.83
72.6667	547.25
72.6811	567.70
72.6956	592.90
72.7100	560.53
72.7245	619.12
72.7389	589.10
72.7533	516.69
72.7678	589.69
72.7822	621.59
72.7967	584.65
72.8111	605.98
72.8255	592.35
72.8400	585.31
72.8544	549.28
72.8689	532.97
72.8833	570.64