2022.09.19 19:37:16
Îáðàçåö: ß÷åéêà LCoV 16-09-2022
Lambda1 = 1.54060
Lambda2 = 1.54439
Lambdam = 1.54186
R = 0.497
2Theta	I

line¹ 0 ;repeat¹ 0
22.1120	603.33
22.1264	611.76
22.1409	506.08
22.1553	498.44
22.1697	506.38
22.1842	569.76
22.1986	550.91
22.2131	619.19
22.2275	575.08
22.2419	510.30
22.2564	538.34
22.2708	617.63
22.2853	566.22
22.2997	545.31
22.3141	673.60
22.3286	596.44
22.3430	491.97
22.3575	560.52
22.3719	562.85
22.3863	595.42
22.4008	623.82
22.4152	657.11
22.4297	587.35
22.4441	597.71
22.4585	676.71
22.4730	581.63
22.4874	564.33
22.5019	585.87
22.5163	549.04
22.5307	537.54
22.5452	532.13
22.5596	548.19
22.5741	573.90
22.5885	579.01
22.6029	580.56
22.6174	607.82
22.6318	543.82
22.6463	655.88
22.6607	656.32
22.6751	605.10
22.6896	553.40
22.7040	468.23
22.7185	555.50
22.7329	575.78
22.7473	507.38
22.7618	516.79
22.7762	579.37
22.7907	603.08
22.8051	659.39
22.8195	563.15
22.8340	525.26
22.8484	594.96
22.8629	540.64
22.8773	552.05
22.8917	540.61
22.9062	576.54
22.9206	608.24
22.9351	527.69
22.9495	491.85
22.9639	461.33
22.9784	522.94
22.9928	568.42
23.0073	539.44
23.0217	656.27
23.0361	604.67
23.0506	633.66
23.0650	547.72
23.0795	556.21
23.0939	583.01
23.1083	611.20
23.1228	574.55
23.1372	546.47
23.1517	573.04
23.1661	589.67
23.1806	619.46
23.1950	543.83
23.2094	594.84
23.2239	600.84
23.2383	561.34
23.2528	519.81
23.2672	610.19
23.2816	511.28
23.2961	498.58
23.3105	492.18
23.3250	574.02
23.3394	508.54
23.3538	584.57
23.3683	541.06
23.3827	486.87
23.3972	479.77
23.4116	527.94
23.4260	529.17
23.4405	529.63
23.4549	500.83
23.4694	590.43
23.4838	541.66
23.4982	528.73
23.5127	527.66
23.5271	525.91
23.5416	543.01
23.5560	589.07
23.5704	514.29
23.5849	555.34
23.5993	600.82
23.6138	616.16
23.6282	591.53
23.6426	516.97
23.6571	500.32
23.6715	547.36
23.6860	504.75
23.7004	549.69
23.7148	506.28
23.7293	582.61
23.7437	587.66
23.7582	548.78
23.7726	551.82
23.7870	499.13
23.8015	564.97
23.8159	597.08
23.8304	519.73
23.8448	577.34
23.8592	587.60
23.8737	558.88
23.8881	546.61
23.9026	629.18
23.9170	587.28
23.9314	584.53
23.9459	537.29
23.9603	562.54
23.9748	574.26
23.9892	557.27
24.0036	515.82
24.0181	502.40
24.0325	491.21
24.0470	603.74
24.0614	544.58
24.0758	569.16
24.0903	581.97
24.1047	495.87
24.1192	548.67
24.1336	599.97
24.1480	567.47
24.1625	610.40
24.1769	523.05
24.1914	576.02
24.2058	567.39
24.2202	630.48
24.2347	627.73
24.2491	530.54
24.2636	572.52
24.2780	566.31
24.2924	554.05
24.3069	533.79
24.3213	614.58
24.3358	557.10
24.3502	565.23
24.3646	518.65
24.3791	565.79
24.3935	556.65
24.4080	585.51
24.4224	560.01
24.4368	525.36
24.4513	534.61
24.4657	550.80
24.4802	535.81
24.4946	558.94
24.5090	516.73
24.5235	544.05
24.5379	519.54
24.5524	565.50
24.5668	607.84
24.5812	615.34
24.5957	593.30
24.6101	562.35
24.6246	507.57
24.6390	571.06
24.6534	575.44
24.6679	533.12
24.6823	553.67
24.6968	523.94
24.7112	610.69
24.7256	534.10
24.7401	499.79
24.7545	574.84
24.7690	500.62
24.7834	549.33
24.7978	514.69
24.8123	536.07
24.8267	585.80
24.8412	531.69
24.8556	551.32
24.8700	574.97
24.8845	566.97
24.8989	544.51
24.9134	476.87
24.9278	532.99
24.9422	577.28
24.9567	530.63
24.9711	479.13
24.9856	535.23
25.0000	557.23
25.0144	516.23
25.0289	514.74
25.0433	567.79
25.0578	560.34
25.0722	559.86
25.0866	515.07
25.1011	530.48
25.1155	579.55
25.1300	616.36
25.1444	532.48
25.1588	538.20
25.1733	554.41
25.1877	524.20
25.2022	505.91
25.2166	534.97
25.2310	545.31
25.2455	532.75
25.2599	554.90
25.2744	579.29
25.2888	585.32
25.3032	559.09
25.3177	541.65
25.3321	558.67
25.3466	554.37
25.3610	544.58
25.3754	554.64
25.3899	535.87
25.4043	517.20
25.4188	554.75
25.4332	605.91
25.4476	532.34
25.4621	552.46
25.4765	556.31
25.4910	545.67
25.5054	520.33
25.5198	523.20
25.5343	550.92
25.5487	527.67
25.5632	530.77
25.5776	540.07
25.5920	553.87
25.6065	560.94
25.6209	534.07
25.6354	540.36
25.6498	527.98
25.6642	542.69
25.6787	535.91
25.6931	504.60
25.7076	516.73
25.7220	551.61
25.7364	554.43
25.7509	558.38
25.7653	508.07
25.7798	555.32
25.7942	563.26
25.8086	532.94
25.8231	539.12
25.8375	515.79
25.8520	548.16
25.8664	550.66
25.8808	545.35
25.8953	578.77
25.9097	538.83
25.9242	482.68
25.9386	532.01
25.9530	513.96
25.9675	524.05
25.9819	538.57
25.9964	528.06
26.0108	540.64
26.0252	526.84
26.0397	548.92
26.0541	551.84
26.0686	595.25
26.0830	561.89
26.0974	569.79
26.1119	542.17
26.1263	557.20
26.1408	544.60
26.1552	514.44
26.1696	534.41
26.1841	553.92
26.1985	499.80
26.2130	500.94
26.2274	521.03
26.2418	530.58
26.2563	537.66
26.2707	526.84
26.2852	541.97
26.2996	564.38
26.3140	542.10
26.3285	532.16
26.3429	533.43
26.3574	541.39
26.3718	538.33
26.3862	538.31
26.4007	531.28
26.4151	536.99
26.4296	552.54
26.4440	546.16
26.4584	521.32
26.4729	567.58
26.4873	561.36
26.5018	519.55
26.5162	529.20
26.5306	568.81
26.5451	550.10
26.5595	562.69
26.5740	525.90
26.5884	533.02
26.6028	555.13
26.6173	547.55
26.6317	531.62
26.6462	539.93
26.6606	542.48
26.6750	518.47
26.6895	514.21
26.7039	522.59
26.7184	530.15
26.7328	546.16
26.7472	514.10
26.7617	525.69
26.7761	554.87
26.7906	559.22
26.8050	566.77
26.8194	523.98
26.8339	536.52
26.8483	539.57
26.8628	550.32
26.8772	508.07
26.8917	512.77
26.9061	533.09
26.9205	537.55
26.9350	531.39
26.9494	520.87
26.9639	523.54
26.9783	515.72
26.9927	523.98
27.0072	543.73
27.0216	535.32
27.0361	541.28
27.0505	550.69
27.0649	534.94
27.0794	515.75
27.0938	529.97
27.1083	512.88
27.1227	500.53
27.1371	511.17
27.1516	498.82
27.1660	512.50
27.1805	531.81
27.1949	547.56
27.2093	513.55
27.2238	529.28
27.2382	543.70
27.2527	534.40
27.2671	522.43
27.2815	561.03
27.2960	530.14
27.3104	514.67
27.3249	522.32
27.3393	516.69
27.3537	490.09
27.3682	524.03
27.3826	524.07
27.3971	509.64
27.4115	535.80
27.4259	518.33
27.4404	535.12
27.4548	540.83
27.4693	539.08
27.4837	540.24
27.4981	556.26
27.5126	551.05
27.5270	524.86
27.5415	504.30
27.5559	490.59
27.5703	505.04
27.5848	513.28
27.5992	506.67
27.6137	508.88
27.6281	504.64
27.6425	516.62
27.6570	555.31
27.6714	548.65
27.6859	510.91
27.7003	533.71
27.7147	539.52
27.7292	515.46
27.7436	516.55
27.7581	541.90
27.7725	539.49
27.7869	535.25
27.8014	516.59
27.8158	533.31
27.8303	507.96
27.8447	558.07
27.8591	512.50
27.8736	539.56
27.8880	560.24
27.9025	526.88
27.9169	528.43
27.9313	518.26
27.9458	520.88
27.9602	517.53
27.9747	552.93
27.9891	513.41
28.0035	529.67
28.0180	590.24
28.0324	556.29
28.0469	553.64
28.0613	535.14
28.0757	508.98
28.0902	508.21
28.1046	502.33
28.1191	523.78
28.1335	527.64
28.1479	535.70
28.1624	535.58
28.1768	533.64
28.1913	500.70
28.2057	530.45
28.2201	515.43
28.2346	508.69
28.2490	524.73
28.2635	522.32
28.2779	530.91
28.2923	509.30
28.3068	505.04
28.3212	515.47
28.3357	504.90
28.3501	490.37
28.3645	505.55
28.3790	511.11
28.3934	515.13
28.4079	496.38
28.4223	484.68
28.4367	499.20
28.4512	515.51
28.4656	495.11
28.4801	520.92
28.4945	503.26
28.5089	519.82
28.5234	499.68
28.5378	515.09
28.5523	470.09
28.5667	525.35
28.5811	490.33
28.5956	476.26
28.6100	516.61
28.6245	530.24
28.6389	505.18
28.6533	471.71
28.6678	504.57
28.6822	511.03
28.6967	520.95
28.7111	551.01
28.7255	532.93
28.7400	533.90
28.7544	540.66
28.7689	489.27
28.7833	517.38
28.7977	508.16
28.8122	480.43
28.8266	539.11
28.8411	498.64
28.8555	524.78
28.8699	501.93
28.8844	503.90
28.8988	516.70
28.9133	550.39
28.9277	519.76
28.9421	538.48
28.9566	512.11
28.9710	502.37
28.9855	483.61
28.9999	520.47
29.0143	490.82
29.0288	518.54
29.0432	505.85
29.0577	506.87
29.0721	524.04
29.0865	573.04
29.1010	526.54
29.1154	547.21
29.1299	489.30
29.1443	506.59
29.1587	492.57
29.1732	509.81
29.1876	522.19
29.2021	475.87
29.2165	526.16
29.2309	509.67
29.2454	527.78
29.2598	522.60
29.2743	517.74
29.2887	502.44
29.3031	481.31
29.3176	524.81
29.3320	534.19
29.3465	496.72
29.3609	491.47
29.3753	516.13
29.3898	503.56
29.4042	501.84
29.4187	512.72
29.4331	524.36
29.4475	506.34
29.4620	499.44
29.4764	496.06
29.4909	471.46
29.5053	500.01
29.5197	525.60
29.5342	503.51
29.5486	541.79
29.5631	508.81
29.5775	502.20
29.5919	495.54
29.6064	519.24
29.6208	515.57
29.6353	547.88
29.6497	506.09
29.6641	494.16
29.6786	527.04
29.6930	521.97
29.7075	498.84
29.7219	510.61
29.7363	504.97
29.7508	490.51
29.7652	503.28
29.7797	496.93
29.7941	518.71
29.8085	532.71
29.8230	527.44
29.8374	527.18
29.8519	512.13
29.8663	496.78
29.8807	517.74
29.8952	512.17
29.9096	494.35
29.9241	520.68
29.9385	490.28
29.9529	471.54
29.9674	534.51
29.9818	504.23
29.9963	489.64
30.0107	513.44
30.0251	516.65
30.0396	539.53
30.0540	546.17
30.0685	561.04
30.0829	542.58
30.0973	524.45
30.1118	502.51
30.1262	530.93
30.1407	504.51
30.1551	520.39
30.1695	537.59
30.1840	521.28
30.1984	505.15
30.2129	504.12
30.2273	482.76
30.2417	496.55
30.2562	500.48
30.2706	474.26
30.2851	518.19
30.2995	498.13
30.3139	507.66
30.3284	515.24
30.3428	485.30
30.3573	492.24
30.3717	518.28
30.3861	487.36
30.4006	511.73
30.4150	502.84
30.4295	509.08
30.4439	521.12
30.4583	524.84
30.4728	499.44
30.4872	533.07
30.5017	520.86
30.5161	518.20
30.5305	506.50
30.5450	515.11
30.5594	511.86
30.5739	524.75
30.5883	516.22
30.6028	508.55
30.6172	546.44
30.6316	548.84
30.6461	499.90
30.6605	514.93
30.6750	531.94
30.6894	550.24
30.7038	552.19
30.7183	533.02
30.7327	563.69
30.7472	586.64
30.7616	584.23
30.7760	602.10
30.7905	633.86
30.8049	657.25
30.8194	669.67
30.8338	715.57
30.8482	718.97
30.8627	697.33
30.8771	696.55
30.8916	691.58
30.9060	674.93
30.9204	644.17
30.9349	617.49
30.9493	644.17
30.9638	593.65
30.9782	605.18
30.9926	598.60
31.0071	617.24
31.0215	617.49
31.0360	566.59
31.0504	567.46
31.0648	535.84
31.0793	529.86
31.0937	589.60
31.1082	537.66
31.1226	575.30
31.1370	573.66
31.1515	527.82
31.1659	542.74
31.1804	560.45
31.1948	516.77
31.2092	514.48
31.2237	526.17
31.2381	550.10
31.2526	555.44
31.2670	547.17
31.2814	541.08
31.2959	510.65
31.3103	494.72
31.3248	542.53
31.3392	556.11
31.3536	523.82
31.3681	525.39
31.3825	510.51
31.3970	502.73
31.4114	480.17
31.4258	545.66
31.4403	525.27
31.4547	522.25
31.4692	527.76
31.4836	506.89
31.4980	513.72
31.5125	510.17
31.5269	476.88
31.5414	486.79
31.5558	500.84
31.5702	487.81
31.5847	498.60
31.5991	506.69
31.6136	475.48
31.6280	477.05
31.6424	529.93
31.6569	552.07
31.6713	522.52
31.6858	507.13
31.7002	496.27
31.7146	469.62
31.7291	479.55
31.7435	506.34
31.7580	507.75
31.7724	497.33
31.7868	506.01
31.8013	501.67
31.8157	518.89
31.8302	527.68
31.8446	541.53
31.8590	531.15
31.8735	518.71
31.8879	492.90
31.9024	481.14
31.9168	503.94
31.9312	472.74
31.9457	507.90
31.9601	533.74
31.9746	487.49
31.9890	485.43
32.0034	505.45
32.0179	515.70
32.0323	494.73
32.0468	506.19
32.0612	524.00
32.0756	510.73
32.0901	530.20
32.1045	513.61
32.1190	520.83
32.1334	514.60
32.1478	476.29
32.1623	499.58
32.1767	509.58
32.1912	494.73
32.2056	512.00
32.2200	488.89
32.2345	495.56
32.2489	522.47
32.2634	513.57
32.2778	522.15
32.2922	546.26
32.3067	498.00
32.3211	534.96
32.3356	507.25
32.3500	488.53
32.3644	468.40
32.3789	492.49
32.3933	511.70
32.4078	505.25
32.4222	518.05
32.4366	515.47
32.4511	486.85
32.4655	500.09
32.4800	496.72
32.4944	461.80
32.5088	476.87
32.5233	527.46
32.5377	499.89
32.5522	506.41
32.5666	531.57
32.5810	512.71
32.5955	508.83
32.6099	475.03
32.6244	469.91
32.6388	514.47
32.6532	522.12
32.6677	486.89
32.6821	474.69
32.6966	518.55
32.7110	545.70
32.7254	492.53
32.7399	517.83
32.7543	489.34
32.7688	483.46
32.7832	523.64
32.7976	504.46
32.8121	486.41
32.8265	506.55
32.8410	483.91
32.8554	515.45
32.8698	504.32
32.8843	498.29
32.8987	505.14
32.9132	548.94
32.9276	487.17
32.9420	496.69
32.9565	500.08
32.9709	506.21
32.9854	512.95
32.9998	529.20
33.0142	510.49
33.0287	500.90
33.0431	541.51
33.0576	501.24
33.0720	488.18
33.0864	464.33
33.1009	476.90
33.1153	497.72
33.1298	519.95
33.1442	466.57
33.1586	468.05
33.1731	507.41
33.1875	501.41
33.2020	491.50
33.2164	491.16
33.2308	498.10
33.2453	511.69
33.2597	470.46
33.2742	491.84
33.2886	468.56
33.3030	507.96
33.3175	508.48
33.3319	504.24
33.3464	509.06
33.3608	510.28
33.3752	487.73
33.3897	492.51
33.4041	493.37
33.4186	522.83
33.4330	537.44
33.4474	492.61
33.4619	496.54
33.4763	522.56
33.4908	519.16
33.5052	525.90
33.5196	510.68
33.5341	523.48
33.5485	491.85
33.5630	507.31
33.5774	460.32
33.5918	486.93
33.6063	490.12
33.6207	518.28
33.6352	524.33
33.6496	533.36
33.6640	525.19
33.6785	510.87
33.6929	514.97
33.7074	529.84
33.7218	491.01
33.7362	517.66
33.7507	528.76
33.7651	478.08
33.7796	554.40
33.7940	533.38
33.8084	537.84
33.8229	531.36
33.8373	497.41
33.8518	491.50
33.8662	516.14
33.8806	488.10
33.8951	497.87
33.9095	512.81
33.9240	482.94
33.9384	514.18
33.9528	490.69
33.9673	504.45
33.9817	526.08
33.9962	508.38
34.0106	512.21
34.0250	534.50
34.0395	536.57
34.0539	508.34
34.0684	501.07
34.0828	490.06
34.0972	533.05
34.1117	525.50
34.1261	496.11
34.1406	489.88
34.1550	490.18
34.1694	531.30
34.1839	509.72
34.1983	500.48
34.2128	512.34
34.2272	503.45
34.2417	468.38
34.2561	476.79
34.2705	514.65
34.2850	507.43
34.2994	507.00
34.3139	515.57
34.3283	528.02
34.3427	533.62
34.3572	532.94
34.3716	508.49
34.3861	500.35
34.4005	488.53
34.4149	497.51
34.4294	498.71
34.4438	499.59
34.4583	500.44
34.4727	511.60
34.4871	516.56
34.5016	529.07
34.5160	477.18
34.5305	462.54
34.5449	483.46
34.5593	502.57
34.5738	501.02
34.5882	499.18
34.6027	494.13
34.6171	502.01
34.6315	524.12
34.6460	496.03
34.6604	486.51
34.6749	525.42
34.6893	511.76
34.7037	512.75
34.7182	521.05
34.7326	524.18
34.7471	525.55
34.7615	502.79
34.7759	514.02
34.7904	514.32
34.8048	525.89
34.8193	519.05
34.8337	511.83
34.8481	509.27
34.8626	534.52
34.8770	509.24
34.8915	508.98
34.9059	519.65
34.9203	497.68
34.9348	579.57
34.9492	531.25
34.9637	480.41
34.9781	518.73
34.9925	529.34
35.0070	529.20
35.0214	537.16
35.0359	539.37
35.0503	540.96
35.0647	549.31
35.0792	522.19
35.0936	510.67
35.1081	508.98
35.1225	527.76
35.1369	513.05
35.1514	507.32
35.1658	505.75
35.1803	516.67
35.1947	489.09
35.2091	528.12
35.2236	516.75
35.2380	510.04
35.2525	504.59
35.2669	479.29
35.2813	486.54
35.2958	520.27
35.3102	505.78
35.3247	548.98
35.3391	533.51
35.3535	517.74
35.3680	524.95
35.3824	477.51
35.3969	494.50
35.4113	525.45
35.4257	516.60
35.4402	536.07
35.4546	517.94
35.4691	531.39
35.4835	529.54
35.4979	522.56
35.5124	525.82
35.5268	549.01
35.5413	532.35
35.5557	516.07
35.5701	528.65
35.5846	511.92
35.5990	517.58
35.6135	514.49
35.6279	517.05
35.6423	530.06
35.6568	524.07
35.6712	539.30
35.6857	587.58
35.7001	659.55
35.7145	688.73
35.7290	641.16
35.7434	578.89
35.7579	571.17
35.7723	567.45
35.7867	586.23
35.8012	619.44
35.8156	669.69
35.8301	613.86
35.8445	599.40
35.8589	627.07
35.8734	728.98
35.8878	806.19
35.9023	944.21
35.9167	1106.94
35.9311	1443.84
35.9456	2335.50
35.9600	2329.35
35.9745	1713.75
35.9889	1800.33
36.0033	2148.74
36.0178	2230.79
36.0322	1975.09
36.0467	1818.45
36.0611	1588.39
36.0755	1587.15
36.0900	1581.08
36.1044	1364.67
36.1189	1298.99
36.1333	1195.97
36.1477	1065.69
36.1622	1057.77
36.1766	1058.18
36.1911	910.28
36.2055	872.83
36.2199	785.85
36.2344	846.32
36.2488	794.04
36.2633	749.76
36.2777	808.65
36.2921	907.12
36.3066	935.99
36.3210	989.58
36.3355	1033.61
36.3499	1018.14
36.3643	1011.65
36.3788	947.20
36.3932	977.91
36.4077	911.85
36.4221	928.61
36.4365	871.54
36.4510	807.58
36.4654	812.84
36.4799	738.58
36.4943	744.91
36.5087	682.31
36.5232	671.62
36.5376	652.51
36.5521	646.38
36.5665	598.27
36.5809	576.69
36.5954	590.00
36.6098	575.90
36.6243	543.96
36.6387	597.13
36.6531	557.75
36.6676	557.89
36.6820	556.04
36.6965	537.16
36.7109	557.93
36.7253	556.17
36.7398	526.09
36.7542	558.66
36.7687	528.13
36.7831	552.34
36.7975	579.30
36.8120	580.37
36.8264	581.13
36.8409	588.49
36.8553	598.79
36.8697	612.42
36.8842	592.41
36.8986	603.95
36.9131	614.08
36.9275	563.81
36.9419	557.78
36.9564	548.57
36.9708	550.57
36.9853	534.49
36.9997	551.84
37.0141	571.61
37.0286	542.38
37.0430	559.24
37.0575	505.50
37.0719	536.21
37.0863	526.05
37.1008	501.26
37.1152	511.74
37.1297	488.62
37.1441	489.46
37.1585	497.90
37.1730	520.18
37.1874	491.78
37.2019	499.00
37.2163	520.67
37.2307	515.49
37.2452	511.75
37.2596	545.04
37.2741	501.96
37.2885	486.88
37.3029	499.21
37.3174	507.94
37.3318	518.55
37.3463	519.06
37.3607	503.38
37.3751	461.98
37.3896	470.30
37.4040	491.12
37.4185	478.76
37.4329	500.11
37.4473	498.31
37.4618	516.76
37.4762	518.47
37.4907	507.27
37.5051	498.45
37.5195	500.11
37.5340	538.83
37.5484	512.88
37.5629	509.31
37.5773	482.41
37.5917	520.12
37.6062	509.31
37.6206	517.96
37.6351	524.20
37.6495	531.10
37.6639	511.24
37.6784	498.11
37.6928	498.29
37.7073	532.97
37.7217	490.28
37.7361	477.67
37.7506	478.14
37.7650	466.33
37.7795	534.77
37.7939	524.92
37.8083	483.50
37.8228	537.90
37.8372	499.55
37.8517	497.20
37.8661	507.82
37.8805	537.16
37.8950	500.07
37.9094	535.44
37.9239	526.43
37.9383	494.08
37.9528	533.23
37.9672	531.94
37.9816	498.67
37.9961	514.87
38.0105	473.52
38.0250	502.97
38.0394	536.48
38.0538	522.39
38.0683	516.96
38.0827	500.80
38.0972	491.37
38.1116	503.80
38.1260	502.81
38.1405	494.72
38.1549	480.88
38.1694	457.81
38.1838	507.48
38.1982	485.32
38.2127	485.13
38.2271	463.05
38.2416	490.71
38.2560	501.74
38.2704	507.10
38.2849	536.91
38.2993	515.64
38.3138	552.16
38.3282	550.99
38.3426	518.91
38.3571	512.31
38.3715	524.76
38.3860	530.95
38.4004	551.04
38.4148	536.34
38.4293	591.68
38.4437	609.49
38.4582	585.43
38.4726	673.21
38.4870	682.37
38.5015	725.30
38.5159	769.46
38.5304	773.85
38.5448	813.06
38.5592	767.19
38.5737	761.24
38.5881	720.01
38.6026	707.95
38.6170	691.24
38.6314	681.21
38.6459	665.77
38.6603	617.06
38.6748	587.88
38.6892	542.05
38.7036	568.96
38.7181	586.86
38.7325	535.07
38.7470	522.80
38.7614	484.04
38.7758	515.68
38.7903	512.10
38.8047	531.70
38.8192	538.81
38.8336	502.30
38.8480	489.74
38.8625	510.07
38.8769	496.98
38.8914	507.20
38.9058	554.13
38.9202	516.64
38.9347	516.95
38.9491	493.32
38.9636	457.39
38.9780	493.05
38.9924	524.26
39.0069	504.23
39.0213	513.70
39.0358	495.01
39.0502	474.87
39.0646	508.68
39.0791	495.46
39.0935	481.73
39.1080	492.23
39.1224	520.28
39.1368	516.59
39.1513	468.88
39.1657	503.26
39.1802	504.33
39.1946	485.81
39.2090	497.05
39.2235	503.34
39.2379	497.59
39.2524	499.09
39.2668	479.84
39.2812	508.48
39.2957	479.92
39.3101	472.45
39.3246	512.75
39.3390	495.86
39.3534	474.56
39.3679	498.34
39.3823	501.46
39.3968	498.86
39.4112	469.27
39.4256	494.55
39.4401	503.39
39.4545	490.19
39.4690	497.53
39.4834	525.31
39.4978	496.76
39.5123	484.09
39.5267	514.55
39.5412	526.93
39.5556	481.27
39.5700	459.72
39.5845	531.83
39.5989	514.18
39.6134	481.17
39.6278	494.72
39.6422	502.09
39.6567	500.08
39.6711	494.09
39.6856	499.27
39.7000	491.01
39.7144	502.96
39.7289	473.97
39.7433	537.59
39.7578	490.10
39.7722	491.31
39.7866	508.95
39.8011	488.35
39.8155	480.94
39.8300	495.88
39.8444	500.79
39.8588	489.83
39.8733	517.18
39.8877	469.29
39.9022	512.51
39.9166	488.13
39.9310	501.20
39.9455	530.87
39.9599	500.62
39.9744	524.11
39.9888	517.26
40.0032	514.12
40.0177	499.01
40.0321	511.50
40.0466	503.53
40.0610	521.93
40.0754	524.68
40.0899	541.02
40.1043	504.98
40.1188	498.76
40.1332	494.43
40.1476	496.22
40.1621	457.69
40.1765	512.36
40.1910	478.65
40.2054	487.71
40.2198	479.28
40.2343	484.02
40.2487	523.33
40.2632	513.31
40.2776	509.17
40.2920	506.59
40.3065	498.95
40.3209	484.96
40.3354	510.22
40.3498	511.68
40.3642	505.11
40.3787	476.99
40.3931	473.32
40.4076	455.35
40.4220	498.23
40.4364	515.88
40.4509	512.95
40.4653	495.49
40.4798	514.65
40.4942	492.88
40.5086	487.68
40.5231	509.69
40.5375	521.52
40.5520	483.04
40.5664	475.64
40.5808	482.01
40.5953	498.53
40.6097	504.93
40.6242	483.29
40.6386	521.58
40.6530	492.67
40.6675	493.41
40.6819	471.94
40.6964	495.31
40.7108	513.92
40.7252	497.39
40.7397	504.61
40.7541	511.73
40.7686	444.12
40.7830	466.47
40.7974	471.12
40.8119	528.39
40.8263	505.62
40.8408	502.51
40.8552	492.01
40.8696	517.41
40.8841	497.49
40.8985	475.67
40.9130	477.52
40.9274	485.92
40.9418	515.38
40.9563	476.90
40.9707	494.18
40.9852	486.98
40.9996	470.57
41.0140	487.34
41.0285	489.29
41.0429	525.52
41.0574	463.35
41.0718	532.86
41.0862	496.92
41.1007	490.57
41.1151	504.08
41.1296	520.00
41.1440	491.01
41.1584	504.93
41.1729	525.94
41.1873	482.30
41.2018	496.10
41.2162	515.02
41.2306	463.37
41.2451	480.56
41.2595	528.80
41.2740	533.16
41.2884	497.15
41.3028	483.67
41.3173	488.52
41.3317	502.14
41.3462	524.99
41.3606	532.35
41.3750	532.39
41.3895	473.55
41.4039	479.11
41.4184	488.18
41.4328	460.22
41.4472	486.98
41.4617	485.79
41.4761	478.01
41.4906	489.01
41.5050	465.57
41.5194	463.31
41.5339	488.02
41.5483	528.66
41.5628	478.67
41.5772	457.55
41.5916	483.31
41.6061	479.01
41.6205	507.05
41.6350	507.36
41.6494	506.78
41.6639	493.95
41.6783	485.04
41.6927	493.78
41.7072	507.96
41.7216	504.50
41.7361	495.57
41.7505	517.96
41.7649	468.56
41.7794	539.35
41.7938	556.22
41.8083	499.22
41.8227	512.91
41.8371	525.19
41.8516	515.81
41.8660	531.23
41.8805	552.10
41.8949	546.60
41.9093	568.46
41.9238	561.68
41.9382	582.90
41.9527	543.52
41.9671	522.33
41.9815	574.44
41.9960	576.62
42.0104	578.03
42.0249	554.84
42.0393	605.70
42.0537	597.70
42.0682	604.61
42.0826	554.75
42.0971	566.93
42.1115	573.45
42.1259	592.84
42.1404	563.28
42.1548	577.61
42.1693	604.73
42.1837	671.73
42.1981	774.52
42.2126	857.19
42.2270	922.92
42.2415	1017.47
42.2559	1195.50
42.2703	1317.92
42.2848	1420.87
42.2992	1573.44
42.3137	1615.63
42.3281	1578.79
42.3425	1507.28
42.3570	1411.96
42.3714	1330.26
42.3859	1334.77
42.4003	1269.96
42.4147	1296.87
42.4292	1281.26
42.4436	1137.54
42.4581	1029.54
42.4725	926.47
42.4869	803.62
42.5014	710.81
42.5158	710.02
42.5303	694.12
42.5447	655.06
42.5591	603.51
42.5736	589.39
42.5880	598.59
42.6025	588.76
42.6169	568.51
42.6313	556.47
42.6458	519.45
42.6602	513.73
42.6747	525.80
42.6891	537.18
42.7035	539.09
42.7180	518.44
42.7324	531.05
42.7469	537.39
42.7613	530.09
42.7757	526.43
42.7902	520.06
42.8046	518.37
42.8191	554.20
42.8335	523.16
42.8479	508.87
42.8624	534.22
42.8768	519.14
42.8913	504.34
42.9057	526.23
42.9201	517.01
42.9346	520.59
42.9490	537.88
42.9635	508.11
42.9779	505.74
42.9923	506.91
43.0068	486.95
43.0212	518.32
43.0357	512.24
43.0501	496.85
43.0645	489.06
43.0790	510.17
43.0934	531.28
43.1079	511.01
43.1223	512.46
43.1367	522.28
43.1512	483.80
43.1656	515.30
43.1801	520.14
43.1945	523.62
43.2089	530.98
43.2234	504.38
43.2378	523.68
43.2523	524.79
43.2667	485.46
43.2811	518.36
43.2956	532.96
43.3100	532.17
43.3245	515.22
43.3389	527.36
43.3533	520.92
43.3678	512.14
43.3822	518.05
43.3967	512.38
43.4111	490.34
43.4255	505.17
43.4400	509.76
43.4544	511.64
43.4689	509.78
43.4833	533.38
43.4977	479.79
43.5122	476.33
43.5266	507.47
43.5411	545.78
43.5555	501.57
43.5699	473.76
43.5844	494.20
43.5988	529.73
43.6133	558.06
43.6277	499.54
43.6421	566.02
43.6566	515.46
43.6710	498.65
43.6855	535.45
43.6999	560.38
43.7143	525.86
43.7288	546.05
43.7432	505.49
43.7577	522.65
43.7721	509.19
43.7865	541.75
43.8010	510.11
43.8154	525.02
43.8299	523.13
43.8443	501.64
43.8587	514.14
43.8732	516.21
43.8876	502.03
43.9021	525.33
43.9165	495.20
43.9309	495.63
43.9454	500.69
43.9598	495.35
43.9743	509.56
43.9887	513.33
44.0031	516.44
44.0176	513.48
44.0320	523.91
44.0465	503.67
44.0609	502.63
44.0753	545.39
44.0898	606.76
44.1042	608.14
44.1187	609.01
44.1331	585.87
44.1475	601.11
44.1620	635.19
44.1764	638.47
44.1909	618.29
44.2053	607.65
44.2197	628.28
44.2342	633.48
44.2486	599.33
44.2631	604.76
44.2775	584.02
44.2919	591.68
44.3064	636.85
44.3208	575.24
44.3353	597.40
44.3497	603.31
44.3641	564.16
44.3786	541.14
44.3930	534.82
44.4075	576.19
44.4219	563.21
44.4363	605.13
44.4508	569.03
44.4652	582.43
44.4797	563.14
44.4941	573.89
44.5085	593.11
44.5230	539.16
44.5374	567.10
44.5519	558.25
44.5663	602.54
44.5807	548.44
44.5952	569.21
44.6096	570.19
44.6241	591.27
44.6385	630.04
44.6529	602.32
44.6674	575.16
44.6818	598.42
44.6963	617.55
44.7107	693.46
44.7251	652.76
44.7396	738.49
44.7540	820.13
44.7685	803.73
44.7829	885.32
44.7973	888.15
44.8118	883.94
44.8262	763.82
44.8407	759.85
44.8551	716.47
44.8695	748.81
44.8840	721.72
44.8984	751.63
44.9129	699.25
44.9273	688.46
44.9417	628.73
44.9562	593.03
44.9706	551.40
44.9851	500.98
44.9995	566.40
45.0139	537.59
45.0284	546.69
45.0428	539.81
45.0573	516.36
45.0717	533.06
45.0861	538.54
45.1006	525.84
45.1150	534.62
45.1295	505.36
45.1439	497.88
45.1583	490.50
45.1728	512.45
45.1872	536.25
45.2017	469.11
45.2161	498.20
45.2305	511.44
45.2450	523.19
45.2594	540.40
45.2739	488.53
45.2883	512.66
45.3028	520.93
45.3172	516.81
45.3316	514.09
45.3461	528.24
45.3605	507.88
45.3750	499.77
45.3894	459.43
45.4038	454.53
45.4183	494.89
45.4327	491.67
45.4472	493.87
45.4616	486.43
45.4760	510.77
45.4905	496.89
45.5049	503.76
45.5194	507.88
45.5338	500.66
45.5482	517.62
45.5627	519.39
45.5771	513.19
45.5916	515.95
45.6060	475.80
45.6204	491.96
45.6349	488.70
45.6493	503.40
45.6638	505.93
45.6782	494.75
45.6926	513.66
45.7071	518.57
45.7215	508.31
45.7360	561.31
45.7504	512.08
45.7648	488.29
45.7793	492.73
45.7937	522.05
45.8082	537.05
45.8226	523.05
45.8370	487.64
45.8515	516.18
45.8659	524.82
45.8804	523.32
45.8948	505.07
45.9092	528.32
45.9237	520.32
45.9381	478.17
45.9526	509.49
45.9670	535.82
45.9814	523.49
45.9959	502.63
46.0103	511.16
46.0248	510.55
46.0392	502.34
46.0536	498.56
46.0681	529.08
46.0825	521.59
46.0970	529.82
46.1114	502.58
46.1258	500.31
46.1403	487.38
46.1547	501.35
46.1692	508.75
46.1836	477.77
46.1980	481.37
46.2125	514.67
46.2269	482.87
46.2414	491.97
46.2558	501.60
46.2702	516.62
46.2847	540.62
46.2991	511.73
46.3136	458.86
46.3280	505.36
46.3424	528.15
46.3569	489.52
46.3713	491.44
46.3858	485.36
46.4002	535.45
46.4146	547.53
46.4291	532.26
46.4435	517.81
46.4580	492.84
46.4724	501.21
46.4868	497.52
46.5013	501.53
46.5157	487.80
46.5302	470.22
46.5446	492.10
46.5590	527.85
46.5735	506.84
46.5879	522.44
46.6024	527.83
46.6168	458.55
46.6312	474.77
46.6457	481.91
46.6601	481.14
46.6746	481.27
46.6890	495.18
46.7034	515.96
46.7179	493.90
46.7323	498.78
46.7468	514.81
46.7612	517.58
46.7756	499.57
46.7901	493.73
46.8045	495.26
46.8190	495.62
46.8334	539.28
46.8478	528.53
46.8623	519.23
46.8767	521.21
46.8912	534.56
46.9056	510.17
46.9200	464.43
46.9345	520.75
46.9489	517.10
46.9634	462.27
46.9778	494.49
46.9922	518.81
47.0067	489.36
47.0211	523.82
47.0356	511.50
47.0500	517.21
47.0644	520.76
47.0789	499.85
47.0933	516.11
47.1078	494.41
47.1222	503.81
47.1366	540.46
47.1511	521.04
47.1655	524.76
47.1800	521.17
47.1944	496.23
47.2088	502.53
47.2233	516.85
47.2377	499.82
47.2522	486.01
47.2666	471.92
47.2810	520.77
47.2955	525.67
47.3099	493.84
47.3244	499.55
47.3388	494.90
47.3532	474.89
47.3677	484.19
47.3821	493.20
47.3966	484.81
47.4110	489.86
47.4254	506.87
47.4399	507.96
47.4543	493.32
47.4688	502.55
47.4832	469.53
47.4976	475.07
47.5121	495.30
47.5265	509.26
47.5410	527.05
47.5554	517.62
47.5698	512.84
47.5843	496.66
47.5987	494.93
47.6132	518.12
47.6276	512.23
47.6420	543.32
47.6565	526.06
47.6709	520.97
47.6854	487.49
47.6998	487.25
47.7142	488.02
47.7287	471.46
47.7431	482.75
47.7576	496.84
47.7720	507.12
47.7864	499.71
47.8009	482.79
47.8153	513.31
47.8298	490.04
47.8442	503.16
47.8586	526.73
47.8731	515.24
47.8875	497.90
47.9020	506.02
47.9164	481.78
47.9308	491.30
47.9453	492.76
47.9597	477.19
47.9742	484.55
47.9886	497.75
48.0030	475.15
48.0175	471.00
48.0319	511.94
48.0464	556.67
48.0608	467.48
48.0752	510.82
48.0897	534.24
48.1041	515.13
48.1186	504.34
48.1330	511.69
48.1474	483.82
48.1619	490.71
48.1763	531.02
48.1908	518.71
48.2052	511.49
48.2196	523.73
48.2341	532.57
48.2485	514.74
48.2630	491.21
48.2774	496.24
48.2918	521.46
48.3063	484.02
48.3207	502.95
48.3352	505.55
48.3496	499.53
48.3640	494.97
48.3785	496.35
48.3929	481.49
48.4074	501.36
48.4218	487.04
48.4362	494.44
48.4507	518.22
48.4651	546.01
48.4796	496.22
48.4940	502.54
48.5084	501.99
48.5229	511.23
48.5373	514.23
48.5518	488.47
48.5662	537.10
48.5806	498.12
48.5951	525.15
48.6095	555.17
48.6240	522.41
48.6384	564.08
48.6528	524.74
48.6673	498.39
48.6817	540.83
48.6962	527.89
48.7106	522.17
48.7250	497.97
48.7395	513.38
48.7539	509.15
48.7684	486.53
48.7828	518.12
48.7972	491.96
48.8117	521.15
48.8261	554.79
48.8406	551.77
48.8550	562.73
48.8694	509.67
48.8839	544.32
48.8983	573.72
48.9128	561.34
48.9272	534.27
48.9416	538.06
48.9561	561.76
48.9705	539.08
48.9850	565.62
48.9994	573.70
49.0139	558.11
49.0283	575.30
49.0427	620.17
49.0572	608.58
49.0716	644.08
49.0861	678.14
49.1005	695.11
49.1149	706.42
49.1294	749.82
49.1438	749.09
49.1583	799.08
49.1727	814.46
49.1871	900.81
49.2016	904.87
49.2160	1000.41
49.2305	1106.71
49.2449	1197.52
49.2593	1209.03
49.2738	1352.87
49.2882	1396.83
49.3027	1510.45
49.3171	1583.73
49.3315	1683.62
49.3460	1663.91
49.3604	1801.35
49.3749	1779.53
49.3893	1738.61
49.4037	1736.67
49.4182	1705.58
49.4326	1643.69
49.4471	1623.81
49.4615	1623.71
49.4759	1572.74
49.4904	1458.82
49.5048	1381.12
49.5193	1330.44
49.5337	1235.36
49.5481	1190.76
49.5626	1102.11
49.5770	1002.01
49.5915	1025.27
49.6059	934.49
49.6203	840.34
49.6348	802.57
49.6492	768.50
49.6637	719.79
49.6781	704.05
49.6925	686.84
49.7070	678.17
49.7214	653.21
49.7359	626.41
49.7503	625.46
49.7647	611.03
49.7792	619.62
49.7936	599.96
49.8081	589.62
49.8225	585.14
49.8369	555.94
49.8514	547.25
49.8658	560.76
49.8803	594.22
49.8947	589.33
49.9091	619.53
49.9236	584.38
49.9380	574.92
49.9525	540.32
49.9669	551.15
49.9813	542.28
49.9958	530.16
50.0102	539.33
50.0247	540.48
50.0391	511.74
50.0535	502.31
50.0680	539.71
50.0824	591.32
50.0969	528.28
50.1113	531.60
50.1257	529.66
50.1402	523.91
50.1546	509.31
50.1691	524.15
50.1835	483.71
50.1979	459.66
50.2124	519.95
50.2268	513.71
50.2413	502.56
50.2557	496.01
50.2701	522.84
50.2846	508.01
50.2990	502.66
50.3135	494.80
50.3279	526.40
50.3423	507.62
50.3568	492.97
50.3712	499.33
50.3857	504.56
50.4001	512.72
50.4145	539.63
50.4290	535.09
50.4434	492.43
50.4579	527.10
50.4723	509.77
50.4867	541.37
50.5012	516.53
50.5156	519.45
50.5301	508.45
50.5445	523.03
50.5589	532.53
50.5734	536.75
50.5878	497.75
50.6023	505.08
50.6167	518.28
50.6311	501.93
50.6456	526.28
50.6600	536.45
50.6745	544.02
50.6889	527.27
50.7033	545.80
50.7178	491.56
50.7322	513.35
50.7467	524.74
50.7611	526.15
50.7755	492.27
50.7900	502.38
50.8044	516.27
50.8189	517.81
50.8333	524.10
50.8477	504.43
50.8622	510.84
50.8766	547.03
50.8911	513.45
50.9055	514.61
50.9199	489.11
50.9344	465.60
50.9488	484.85
50.9633	475.69
50.9777	495.31
50.9921	515.24
51.0066	525.97
51.0210	516.26
51.0355	526.49
51.0499	506.77
51.0643	496.49
51.0788	504.64
51.0932	510.47
51.1077	514.73
51.1221	495.38
51.1365	508.55
51.1510	518.93
51.1654	514.18
51.1799	502.71
51.1943	529.36
51.2087	495.29
51.2232	514.12
51.2376	504.90
51.2521	484.90
51.2665	490.89
51.2809	510.52
51.2954	487.42
51.3098	518.78
51.3243	542.57
51.3387	513.60
51.3531	514.08
51.3676	530.17
51.3820	521.55
51.3965	497.91
51.4109	504.44
51.4253	536.65
51.4398	480.09
51.4542	446.93
51.4687	478.65
51.4831	518.93
51.4975	498.13
51.5120	489.42
51.5264	473.95
51.5409	510.21
51.5553	547.43
51.5697	509.51
51.5842	490.53
51.5986	515.68
51.6131	516.89
51.6275	514.36
51.6419	540.55
51.6564	524.07
51.6708	486.23
51.6853	519.51
51.6997	495.89
51.7141	488.62
51.7286	509.73
51.7430	522.67
51.7575	503.67
51.7719	504.48
51.7863	520.47
51.8008	506.16
51.8152	498.86
51.8297	513.19
51.8441	501.47
51.8585	496.36
51.8730	513.12
51.8874	487.87
51.9019	497.66
51.9163	502.34
51.9307	524.68
51.9452	513.83
51.9596	537.30
51.9741	524.79
51.9885	528.21
52.0029	482.04
52.0174	473.45
52.0318	493.42
52.0463	480.21
52.0607	514.70
52.0751	522.79
52.0896	557.03
52.1040	537.42
52.1185	521.49
52.1329	487.36
52.1473	485.91
52.1618	505.49
52.1762	511.38
52.1907	500.73
52.2051	536.36
52.2195	539.00
52.2340	507.98
52.2484	494.25
52.2629	529.96
52.2773	523.78
52.2917	501.17
52.3062	497.29
52.3206	488.34
52.3351	518.06
52.3495	511.12
52.3639	518.01
52.3784	520.78
52.3928	492.42
52.4073	494.97
52.4217	517.48
52.4361	536.34
52.4506	527.22
52.4650	539.03
52.4795	510.74
52.4939	527.34
52.5083	494.35
52.5228	489.65
52.5372	537.54
52.5517	552.26
52.5661	514.67
52.5805	518.50
52.5950	511.50
52.6094	509.99
52.6239	516.12
52.6383	516.45
52.6527	520.92
52.6672	530.06
52.6816	527.59
52.6961	514.15
52.7105	481.02
52.7250	518.44
52.7394	479.89
52.7538	504.06
52.7683	513.07
52.7827	493.33
52.7972	514.30
52.8116	518.21
52.8260	534.04
52.8405	512.48
52.8549	505.23
52.8694	518.36
52.8838	512.83
52.8982	511.20
52.9127	506.47
52.9271	491.58
52.9416	525.43
52.9560	483.03
52.9704	506.89
52.9849	518.40
52.9993	504.91
53.0138	541.87
53.0282	540.32
53.0426	523.84
53.0571	547.53
53.0715	552.32
53.0860	532.17
53.1004	497.19
53.1148	539.86
53.1293	509.71
53.1437	489.52
53.1582	458.33
53.1726	511.93
53.1870	535.92
53.2015	524.01
53.2159	492.52
53.2304	511.66
53.2448	504.66
53.2592	505.34
53.2737	511.74
53.2881	518.30
53.3026	499.41
53.3170	477.95
53.3314	521.58
53.3459	517.17
53.3603	497.38
53.3748	489.78
53.3892	486.74
53.4036	559.78
53.4181	545.78
53.4325	502.07
53.4470	514.27
53.4614	538.88
53.4758	504.50
53.4903	519.16
53.5047	516.25
53.5192	504.29
53.5336	532.72
53.5480	523.88
53.5625	524.49
53.5769	528.54
53.5914	554.51
53.6058	527.85
53.6202	533.65
53.6347	527.06
53.6491	502.23
53.6636	534.23
53.6780	524.11
53.6924	497.27
53.7069	527.13
53.7213	530.79
53.7358	518.42
53.7502	496.88
53.7646	529.74
53.7791	534.73
53.7935	516.14
53.8080	539.70
53.8224	542.64
53.8368	520.40
53.8513	512.42
53.8657	511.33
53.8802	531.22
53.8946	513.17
53.9090	525.76
53.9235	494.71
53.9379	487.01
53.9524	490.22
53.9668	551.90
53.9812	543.10
53.9957	517.35
54.0101	514.91
54.0246	532.43
54.0390	507.49
54.0534	492.97
54.0679	514.86
54.0823	520.81
54.0968	523.62
54.1112	518.23
54.1256	509.75
54.1401	512.92
54.1545	483.58
54.1690	517.37
54.1834	511.01
54.1978	509.25
54.2123	534.36
54.2267	513.54
54.2412	523.42
54.2556	521.23
54.2700	486.21
54.2845	523.84
54.2989	505.06
54.3134	514.65
54.3278	544.91
54.3422	540.33
54.3567	524.73
54.3711	495.59
54.3856	512.28
54.4000	526.21
54.4144	494.64
54.4289	512.33
54.4433	529.03
54.4578	528.09
54.4722	514.08
54.4866	501.51
54.5011	496.61
54.5155	519.32
54.5300	529.53
54.5444	532.24
54.5588	538.23
54.5733	527.41
54.5877	552.58
54.6022	527.19
54.6166	534.98
54.6310	543.46
54.6455	532.13
54.6599	530.72
54.6744	553.17
54.6888	557.41
54.7032	571.85
54.7177	563.90
54.7321	568.97
54.7466	557.04
54.7610	580.27
54.7754	586.72
54.7899	579.32
54.8043	598.50
54.8188	589.62
54.8332	566.47
54.8476	549.32
54.8621	586.81
54.8765	583.28
54.8910	588.29
54.9054	579.75
54.9198	579.15
54.9343	596.19
54.9487	573.77
54.9632	522.30
54.9776	532.92
54.9920	572.46
55.0065	570.75
55.0209	561.98
55.0354	557.02
55.0498	538.08
55.0642	581.72
55.0787	595.48
55.0931	587.29
55.1076	548.03
55.1220	548.07
55.1364	517.26
55.1509	506.68
55.1653	536.20
55.1798	533.63
55.1942	524.57
55.2086	535.06
55.2231	534.93
55.2375	525.70
55.2520	536.18
55.2664	520.95
55.2808	529.84
55.2953	519.12
55.3097	528.19
55.3242	525.86
55.3386	521.82
55.3530	534.68
55.3675	507.66
55.3819	522.77
55.3964	501.52
55.4108	530.88
55.4252	565.10
55.4397	532.85
55.4541	527.62
55.4686	528.93
55.4830	539.12
55.4974	507.90
55.5119	503.25
55.5263	521.41
55.5408	543.55
55.5552	522.94
55.5696	518.42
55.5841	548.33
55.5985	556.23
55.6130	533.24
55.6274	527.52
55.6418	542.87
55.6563	553.33
55.6707	532.48
55.6852	532.47
55.6996	540.60
55.7140	529.18
55.7285	524.87
55.7429	532.12
55.7574	538.12
55.7718	509.00
55.7862	518.05
55.8007	497.83
55.8151	547.24
55.8296	550.03
55.8440	538.08
55.8584	557.19
55.8729	519.25
55.8873	540.17
55.9018	559.28
55.9162	550.49
55.9306	541.43
55.9451	506.08
55.9595	526.37
55.9740	572.04
55.9884	509.77
56.0028	498.57
56.0173	521.21
56.0317	539.11
56.0462	524.23
56.0606	542.98
56.0750	555.58
56.0895	519.22
56.1039	508.83
56.1184	575.00
56.1328	513.15
56.1472	493.28
56.1617	499.91
56.1761	564.60
56.1906	525.04
56.2050	499.02
56.2194	518.74
56.2339	535.48
56.2483	531.54
56.2628	512.09
56.2772	528.08
56.2916	494.10
56.3061	522.37
56.3205	533.36
56.3350	531.90
56.3494	503.09
56.3639	516.24
56.3783	515.10
56.3927	515.02
56.4072	541.17
56.4216	546.34
56.4361	517.34
56.4505	488.95
56.4649	510.46
56.4794	515.82
56.4938	511.79
56.5083	529.97
56.5227	503.35
56.5371	541.60
56.5516	560.89
56.5660	537.72
56.5805	518.83
56.5949	513.94
56.6093	559.99
56.6238	506.38
56.6382	519.10
56.6527	537.20
56.6671	497.93
56.6815	482.39
56.6960	548.45
56.7104	550.29
56.7249	515.37
56.7393	521.85
56.7537	537.07
56.7682	500.28
56.7826	543.90
56.7971	518.06
56.8115	522.34
56.8259	526.92
56.8404	517.72
56.8548	540.00
56.8693	521.54
56.8837	546.61
56.8981	524.30
56.9126	546.61
56.9270	539.38
56.9415	521.89
56.9559	530.91
56.9703	514.51
56.9848	501.77
56.9992	524.49
57.0137	538.35
57.0281	508.91
57.0425	524.84
57.0570	527.73
57.0714	518.88
57.0859	557.78
57.1003	547.08
57.1147	534.14
57.1292	535.03
57.1436	538.80
57.1581	504.53
57.1725	515.79
57.1869	540.04
57.2014	505.45
57.2158	535.00
57.2303	526.18
57.2447	558.10
57.2591	501.60
57.2736	527.79
57.2880	538.76
57.3025	534.02
57.3169	538.53
57.3313	521.42
57.3458	557.84
57.3602	538.76
57.3747	506.50
57.3891	523.72
57.4035	510.95
57.4180	547.88
57.4324	533.29
57.4469	514.40
57.4613	494.93
57.4757	515.77
57.4902	563.75
57.5046	544.56
57.5191	555.69
57.5335	538.62
57.5479	568.88
57.5624	564.85
57.5768	562.40
57.5913	535.37
57.6057	531.97
57.6201	529.30
57.6346	510.01
57.6490	499.68
57.6635	505.98
57.6779	525.04
57.6923	497.89
57.7068	521.95
57.7212	534.47
57.7357	496.02
57.7501	517.12
57.7645	524.45
57.7790	518.64
57.7934	529.18
57.8079	518.23
57.8223	523.98
57.8367	534.80
57.8512	542.44
57.8656	546.07
57.8801	525.87
57.8945	549.35
57.9089	535.89
57.9234	545.33
57.9378	582.21
57.9523	544.60
57.9667	525.01
57.9811	556.49
57.9956	550.37
58.0100	555.56
58.0245	533.40
58.0389	556.21
58.0533	520.80
58.0678	510.24
58.0822	524.01
58.0967	520.86
58.1111	525.27
58.1255	547.56
58.1400	542.59
58.1544	548.94
58.1689	570.40
58.1833	536.99
58.1977	544.90
58.2122	558.22
58.2266	543.55
58.2411	575.60
58.2555	570.41
58.2699	552.79
58.2844	552.98
58.2988	561.28
58.3133	582.09
58.3277	605.01
58.3421	602.52
58.3566	622.33
58.3710	602.65
58.3855	637.32
58.3999	625.29
58.4143	620.81
58.4288	624.23
58.4432	621.23
58.4577	625.64
58.4721	671.94
58.4865	656.77
58.5010	629.49
58.5154	633.49
58.5299	618.37
58.5443	643.81
58.5587	654.77
58.5732	595.89
58.5876	611.27
58.6021	635.93
58.6165	636.22
58.6309	638.43
58.6454	623.39
58.6598	593.16
58.6743	552.07
58.6887	537.39
58.7031	600.44
58.7176	611.92
58.7320	579.78
58.7465	580.18
58.7609	554.00
58.7753	552.47
58.7898	566.61
58.8042	550.19
58.8187	609.32
58.8331	556.54
58.8475	537.50
58.8620	563.16
58.8764	554.09
58.8909	535.05
58.9053	577.14
58.9197	548.24
58.9342	526.83
58.9486	539.12
58.9631	554.26
58.9775	532.84
58.9919	522.96
59.0064	544.32
59.0208	557.41
59.0353	572.26
59.0497	537.86
59.0641	553.71
59.0786	571.55
59.0930	569.62
59.1075	532.91
59.1219	571.53
59.1363	564.48
59.1508	503.13
59.1652	540.50
59.1797	539.49
59.1941	527.30
59.2085	563.78
59.2230	537.78
59.2374	516.92
59.2519	531.25
59.2663	539.47
59.2807	605.19
59.2952	578.98
59.3096	539.49
59.3241	543.05
59.3385	559.40
59.3529	580.38
59.3674	552.73
59.3818	530.63
59.3963	516.56
59.4107	534.49
59.4251	547.16
59.4396	533.35
59.4540	553.02
59.4685	596.04
59.4829	564.22
59.4973	571.60
59.5118	552.14
59.5262	539.94
59.5407	531.44
59.5551	563.34
59.5695	523.72
59.5840	553.64
59.5984	547.65
59.6129	529.73
59.6273	553.08
59.6417	549.83
59.6562	549.64
59.6706	526.46
59.6851	503.96
59.6995	537.44
59.7139	558.24
59.7284	509.93
59.7428	543.45
59.7573	548.65
59.7717	537.41
59.7861	545.92
59.8006	590.80
59.8150	574.35
59.8295	531.44
59.8439	518.91
59.8583	534.69
59.8728	565.16
59.8872	569.20
59.9017	569.67
59.9161	539.16
59.9305	551.70
59.9450	583.29
59.9594	543.78
59.9739	603.55
59.9883	544.98
60.0027	511.60
60.0172	549.43
60.0316	520.27
60.0461	541.48
60.0605	535.30
60.0750	502.10
60.0894	519.81
60.1038	518.62
60.1183	529.08
60.1327	560.84
60.1472	504.20
60.1616	524.77
60.1760	551.32
60.1905	536.38
60.2049	533.72
60.2194	566.89
60.2338	535.18
60.2482	513.25
60.2627	521.15
60.2771	550.89
60.2916	540.65
60.3060	542.58
60.3204	524.81
60.3349	551.50
60.3493	544.56
60.3638	565.48
60.3782	533.61
60.3926	532.06
60.4071	539.65
60.4215	554.12
60.4360	527.66
60.4504	512.14
60.4648	540.26
60.4793	500.73
60.4937	516.41
60.5082	501.51
60.5226	509.83
60.5370	539.31
60.5515	537.50
60.5659	521.91
60.5804	522.94
60.5948	546.99
60.6092	548.72
60.6237	492.61
60.6381	529.96
60.6526	571.21
60.6670	537.58
60.6814	553.11
60.6959	543.72
60.7103	599.67
60.7248	522.50
60.7392	546.38
60.7536	538.78
60.7681	498.59
60.7825	554.83
60.7970	534.43
60.8114	511.31
60.8258	533.71
60.8403	555.81
60.8547	542.08
60.8692	527.97
60.8836	528.74
60.8980	529.95
60.9125	577.00
60.9269	532.98
60.9414	550.75
60.9558	532.48
60.9702	537.00
60.9847	598.38
60.9991	540.53
61.0136	519.33
61.0280	534.02
61.0424	531.37
61.0569	522.63
61.0713	546.30
61.0858	541.04
61.1002	557.03
61.1146	553.13
61.1291	540.92
61.1435	556.54
61.1580	487.81
61.1724	506.27
61.1868	554.06
61.2013	536.86
61.2157	547.38
61.2302	575.37
61.2446	563.45
61.2590	561.35
61.2735	520.25
61.2879	560.07
61.3024	557.74
61.3168	493.98
61.3312	537.83
61.3457	550.02
61.3601	547.88
61.3746	547.30
61.3890	541.06
61.4034	544.70
61.4179	543.19
61.4323	543.86
61.4468	516.89
61.4612	551.89
61.4756	562.16
61.4901	555.07
61.5045	545.92
61.5190	520.42
61.5334	563.85
61.5478	540.59
61.5623	528.02
61.5767	546.70
61.5912	565.13
61.6056	546.02
61.6200	553.44
61.6345	563.48
61.6489	554.12
61.6634	554.98
61.6778	529.84
61.6922	544.08
61.7067	586.61
61.7211	542.49
61.7356	545.86
61.7500	533.59
61.7644	529.76
61.7789	562.60
61.7933	552.91
61.8078	549.43
61.8222	516.78
61.8366	523.78
61.8511	552.98
61.8655	540.37
61.8800	538.21
61.8944	572.36
61.9088	567.31
61.9233	612.50
61.9377	566.01
61.9522	552.50
61.9666	594.68
61.9810	539.24
61.9955	525.03
62.0099	534.07
62.0244	545.62
62.0388	562.03
62.0532	555.77
62.0677	540.68
62.0821	580.30
62.0966	569.44
62.1110	571.00
62.1254	579.32
62.1399	546.47
62.1543	522.27
62.1688	567.30
62.1832	579.78
62.1976	557.08
62.2121	567.53
62.2265	576.43
62.2410	545.23
62.2554	554.06
62.2698	581.69
62.2843	549.29
62.2987	529.84
62.3132	544.15
62.3276	543.87
62.3420	572.84
62.3565	559.92
62.3709	560.96
62.3854	520.11
62.3998	556.16
62.4142	579.07
62.4287	566.33
62.4431	550.99
62.4576	556.68
62.4720	543.46
62.4864	523.79
62.5009	537.26
62.5153	573.91
62.5298	558.57
62.5442	547.33
62.5586	537.75
62.5731	561.93
62.5875	567.22
62.6020	561.84
62.6164	545.10
62.6308	555.67
62.6453	566.38
62.6597	556.39
62.6742	556.34
62.6886	559.81
62.7030	560.27
62.7175	537.30
62.7319	550.62
62.7464	562.05
62.7608	568.13
62.7752	573.78
62.7897	567.00
62.8041	552.02
62.8186	570.95
62.8330	555.91
62.8474	551.00
62.8619	578.53
62.8763	575.04
62.8908	566.38
62.9052	584.53
62.9196	590.05
62.9341	592.68
62.9485	585.40
62.9630	550.63
62.9774	542.26
62.9918	541.83
63.0063	583.87
63.0207	586.41
63.0352	571.43
63.0496	550.84
63.0640	582.10
63.0785	564.97
63.0929	589.85
63.1074	566.88
63.1218	560.45
63.1362	585.99
63.1507	532.01
63.1651	581.09
63.1796	582.82
63.1940	576.01
63.2084	567.32
63.2229	536.62
63.2373	575.05
63.2518	558.12
63.2662	523.51
63.2806	584.13
63.2951	566.90
63.3095	579.75
63.3240	550.50
63.3384	582.35
63.3528	545.82
63.3673	586.04
63.3817	592.25
63.3962	590.49
63.4106	597.99
63.4250	624.48
63.4395	550.57
63.4539	554.36
63.4684	605.17
63.4828	584.78
63.4972	596.52
63.5117	593.34
63.5261	612.45
63.5406	552.65
63.5550	568.85
63.5694	556.44
63.5839	578.93
63.5983	599.67
63.6128	589.80
63.6272	554.74
63.6416	597.18
63.6561	633.60
63.6705	606.53
63.6850	588.20
63.6994	591.79
63.7138	623.74
63.7283	595.19
63.7427	583.69
63.7572	592.01
63.7716	607.12
63.7861	600.13
63.8005	589.92
63.8149	576.86
63.8294	604.72
63.8438	628.73
63.8583	661.88
63.8727	615.79
63.8871	560.93
63.9016	675.59
63.9160	656.85
63.9305	638.27
63.9449	600.95
63.9593	634.33
63.9738	639.90
63.9882	648.94
64.0027	661.19
64.0171	620.52
64.0315	683.32
64.0460	674.84
64.0604	683.94
64.0749	702.22
64.0893	778.30
64.1037	723.91
64.1182	755.29
64.1326	772.03
64.1471	769.48
64.1615	751.04
64.1759	768.93
64.1904	781.14
64.2048	751.05
64.2193	787.76
64.2337	805.26
64.2481	791.26
64.2626	785.83
64.2770	821.70
64.2915	748.87
64.3059	748.17
64.3203	719.71
64.3348	721.82
64.3492	729.43
64.3637	742.77
64.3781	739.52
64.3925	750.52
64.4070	675.79
64.4214	673.98
64.4359	718.16
64.4503	751.42
64.4647	721.68
64.4792	748.68
64.4936	747.00
64.5081	699.34
64.5225	684.44
64.5369	718.56
64.5514	696.50
64.5658	657.47
64.5803	678.49
64.5947	671.88
64.6091	655.98
64.6236	680.21
64.6380	698.84
64.6525	696.08
64.6669	676.44
64.6813	731.00
64.6958	730.10
64.7102	720.04
64.7247	690.34
64.7391	721.19
64.7535	688.28
64.7680	697.79
64.7824	735.12
64.7969	737.90
64.8113	752.17
64.8257	775.83
64.8402	783.81
64.8546	842.76
64.8691	855.64
64.8835	826.57
64.8979	820.78
64.9124	886.81
64.9268	888.44
64.9413	989.54
64.9557	958.61
64.9701	1017.38
64.9846	1072.61
64.9990	1149.27
65.0135	1281.55
65.0279	1504.88
65.0423	1768.68
65.0568	2200.55
65.0712	2786.59
65.0857	3650.16
65.1001	4778.30
65.1145	6497.15
65.1290	8526.86
65.1434	10173.28
65.1579	11282.66
65.1723	11945.18
65.1867	11277.19
65.2012	9935.62
65.2156	8198.13
65.2301	6350.80
65.2445	5219.65
65.2589	4418.46
65.2734	4249.40
65.2878	4498.11
65.3023	5067.86
65.3167	6011.28
65.3311	6824.20
65.3456	7129.97
65.3600	6956.15
65.3745	6314.27
65.3889	5294.13
65.4033	4218.54
65.4178	3325.14
65.4322	2621.78
65.4467	2073.06
65.4611	1697.66
65.4755	1443.12
65.4900	1261.58
65.5044	1106.08
65.5189	1065.86
65.5333	1000.47
65.5477	929.92
65.5622	890.32
65.5766	796.40
65.5911	794.02
65.6055	857.93
65.6199	791.74
65.6344	766.16
65.6488	743.52
65.6633	730.92
65.6777	758.19
65.6921	751.81
65.7066	750.57
65.7210	685.26
65.7355	677.17
65.7499	703.48
65.7643	687.78
65.7788	687.11
65.7932	625.12
65.8077	647.66
65.8221	632.64
65.8365	651.22
65.8510	701.69
65.8654	683.96
65.8799	648.19
65.8943	617.65
65.9087	634.89
65.9232	628.66
65.9376	656.96
65.9521	641.52
65.9665	603.78
65.9809	628.01
65.9954	657.68
66.0098	632.29
66.0243	600.43
66.0387	601.66
66.0531	626.44
66.0676	661.34
66.0820	640.01
66.0965	652.14
66.1109	638.02
66.1253	667.37
66.1398	613.72
66.1542	618.93
66.1687	630.61
66.1831	604.09
66.1975	629.89
66.2120	620.46
66.2264	589.90
66.2409	598.88
66.2553	625.55
66.2697	572.33
66.2842	602.54
66.2986	598.65
66.3131	610.89
66.3275	640.59
66.3419	663.77
66.3564	626.72
66.3708	603.46
66.3853	629.10
66.3997	617.53
66.4141	590.93
66.4286	621.37
66.4430	614.15
66.4575	585.32
66.4719	620.89
66.4863	606.38
66.5008	600.52
66.5152	596.93
66.5297	614.69
66.5441	622.33
66.5585	622.88
66.5730	588.43
66.5874	571.63
66.6019	557.68
66.6163	611.85
66.6307	625.14
66.6452	624.34
66.6596	593.46
66.6741	585.63
66.6885	566.26
66.7029	616.96
66.7174	608.51
66.7318	588.86
66.7463	602.02
66.7607	571.68
66.7751	598.98
66.7896	632.41
66.8040	605.09
66.8185	588.50
66.8329	563.85
66.8473	593.04
66.8618	623.22
66.8762	565.74
66.8907	564.79
66.9051	616.31
66.9195	634.39
66.9340	608.22
66.9484	589.74
66.9629	578.25
66.9773	567.87
66.9917	539.83
67.0062	536.13
67.0206	578.96
67.0351	556.48
67.0495	573.49
67.0639	616.46
67.0784	597.79
67.0928	591.91
67.1073	562.09
67.1217	576.20
67.1361	604.48
67.1506	607.83
67.1650	598.67
67.1795	562.80
67.1939	548.40
67.2083	564.82
67.2228	561.12
67.2372	584.41
67.2517	578.84
67.2661	597.35
67.2805	615.95
67.2950	630.53
67.3094	619.94
67.3239	562.12
67.3383	560.66
67.3527	569.52
67.3672	542.51
67.3816	549.84
67.3961	543.19
67.4105	562.70
67.4250	610.41
67.4394	579.11
67.4538	566.69
67.4683	607.75
67.4827	604.43
67.4972	586.75
67.5116	586.21
67.5260	591.80
67.5405	630.31
67.5549	597.29
67.5694	560.67
67.5838	609.11
67.5982	571.55
67.6127	553.36
67.6271	557.00
67.6416	572.93
67.6560	577.94
67.6704	571.02
67.6849	586.68
67.6993	553.97
67.7138	587.94
67.7282	556.06
67.7426	573.29
67.7571	573.24
67.7715	537.37
67.7860	597.67
67.8004	572.73
67.8148	573.29
67.8293	587.92
67.8437	576.08
67.8582	555.76
67.8726	588.40
67.8870	536.74
67.9015	549.33
67.9159	573.76
67.9304	574.22
67.9448	603.14
67.9592	603.15
67.9737	600.63
67.9881	570.33
68.0026	570.88
68.0170	615.57
68.0314	624.73
68.0459	583.95
68.0603	574.36
68.0748	589.74
68.0892	617.38
68.1036	594.63
68.1181	573.59
68.1325	579.83
68.1470	566.65
68.1614	590.36
68.1758	549.24
68.1903	559.44
68.2047	561.82
68.2192	541.78
68.2336	591.19
68.2480	583.70
68.2625	558.04
68.2769	591.94
68.2914	565.80
68.3058	587.64
68.3202	620.51
68.3347	564.58
68.3491	577.87
68.3636	542.44
68.3780	589.94
68.3924	588.35
68.4069	597.39
68.4213	582.56
68.4358	603.12
68.4502	581.91
68.4646	594.02
68.4791	608.81
68.4935	579.69
68.5080	569.37
68.5224	550.53
68.5368	595.73
68.5513	543.56
68.5657	533.76
68.5802	578.85
68.5946	556.96
68.6090	628.95
68.6235	598.66
68.6379	591.62
68.6524	565.71
68.6668	549.59
68.6812	578.15
68.6957	572.08
68.7101	614.34
68.7246	596.04
68.7390	556.49
68.7534	614.23
68.7679	578.51
68.7823	578.30
68.7968	577.66
68.8112	584.68
68.8256	576.05
68.8401	577.82
68.8545	573.54
68.8690	583.78
68.8834	605.06
68.8978	570.76
68.9123	630.77
68.9267	550.81
68.9412	592.81
68.9556	586.45
68.9700	559.64
68.9845	504.30
68.9989	592.93
69.0134	594.31
69.0278	590.25
69.0422	616.02
69.0567	552.15
69.0711	562.39
69.0856	630.07
69.1000	531.41
69.1144	600.20
69.1289	628.80
69.1433	561.75
69.1578	574.01
69.1722	568.63
69.1866	580.01
69.2011	570.34
69.2155	616.87
69.2300	580.20
69.2444	575.76
69.2588	615.21
69.2733	604.50
69.2877	607.67
69.3022	546.78
69.3166	563.48
69.3310	578.86
69.3455	608.31
69.3599	575.60
69.3744	566.32
69.3888	591.74
69.4032	637.12
69.4177	592.60
69.4321	585.98
69.4466	525.38
69.4610	613.27
69.4754	604.22
69.4899	545.35
69.5043	581.69
69.5188	599.73
69.5332	618.58
69.5476	551.37
69.5621	597.19
69.5765	588.80
69.5910	557.67
69.6054	568.24
69.6198	553.84
69.6343	587.04
69.6487	582.57
69.6632	618.87
69.6776	574.41
69.6920	559.82
69.7065	589.57
69.7209	608.35
69.7354	544.08
69.7498	570.85
69.7642	579.68
69.7787	602.20
69.7931	565.04
69.8076	603.15
69.8220	587.19
69.8364	616.42
69.8509	571.86
69.8653	600.76
69.8798	570.65
69.8942	599.32
69.9086	595.43
69.9231	583.16
69.9375	599.30
69.9520	512.45
69.9664	531.86
69.9808	562.08
69.9953	561.19
70.0097	585.60
70.0242	564.81
70.0386	574.76
70.0530	575.08
70.0675	539.13
70.0819	594.40
70.0964	573.74
70.1108	589.71
70.1252	589.23
70.1397	621.84
70.1541	577.10
70.1686	618.24
70.1830	638.01
70.1974	582.41
70.2119	576.40
70.2263	549.78
70.2408	601.96
70.2552	636.41
70.2696	574.17
70.2841	549.68
70.2985	561.72
70.3130	581.70
70.3274	585.38
70.3418	552.11
70.3563	581.74
70.3707	628.40
70.3852	600.47
70.3996	605.82
70.4140	592.97
70.4285	650.99
70.4429	609.87
70.4574	567.30
70.4718	606.01
70.4862	601.91
70.5007	592.26
70.5151	582.93
70.5296	576.72
70.5440	562.34
70.5584	565.73
70.5729	582.45
70.5873	601.80
70.6018	597.30
70.6162	515.88
70.6306	555.77
70.6451	594.56
70.6595	556.07
70.6740	561.39
70.6884	525.91
70.7028	626.70
70.7173	628.35
70.7317	587.71
70.7462	562.49
70.7606	548.24
70.7750	615.42
70.7895	615.43
70.8039	591.23
70.8184	555.96
70.8328	546.26
70.8472	571.50
70.8617	601.35
70.8761	590.28
70.8906	569.74
70.9050	592.79
70.9194	578.37
70.9339	641.89
70.9483	657.57
70.9628	590.91
70.9772	562.48
70.9916	553.56
71.0061	534.09
71.0205	555.16
71.0350	553.11
71.0494	568.72
71.0638	633.47
71.0783	603.36
71.0927	571.22
71.1072	589.54
71.1216	591.89
71.1361	615.10
71.1505	563.01
71.1649	546.24
71.1794	574.96
71.1938	558.94
71.2083	559.89
71.2227	545.79
71.2371	595.32
71.2516	569.89
71.2660	556.26
71.2805	559.31
71.2949	538.27
71.3093	535.78
71.3238	567.27
71.3382	572.67
71.3527	586.67
71.3671	556.97
71.3815	528.17
71.3960	575.53
71.4104	641.01
71.4249	623.15
71.4393	570.90
71.4537	521.02
71.4682	580.05
71.4826	572.37
71.4971	528.44
71.5115	542.29
71.5259	554.75
71.5404	552.13
71.5548	600.34
71.5693	566.19
71.5837	527.34
71.5981	588.78
71.6126	615.01
71.6270	632.59
71.6415	649.70
71.6559	585.10
71.6703	594.22
71.6848	606.71
71.6992	604.66
71.7137	581.24
71.7281	509.46
71.7425	595.84
71.7570	597.24
71.7714	560.09
71.7859	600.06
71.8003	654.25
71.8147	593.28
71.8292	594.29
71.8436	627.35
71.8581	612.72
71.8725	544.16
71.8869	556.72
71.9014	690.11
71.9158	637.58
71.9303	549.38
71.9447	528.31
71.9591	512.48
71.9736	535.12
71.9880	606.32
72.0025	612.07
72.0169	585.81
72.0313	588.10
72.0458	592.63
72.0602	552.69
72.0747	577.70
72.0891	584.64
72.1035	621.10
72.1180	645.37
72.1324	659.23
72.1469	574.58
72.1613	501.82
72.1757	560.01
72.1902	631.66
72.2046	607.14
72.2191	532.43
72.2335	512.76
72.2479	572.62
72.2624	602.44
72.2768	578.05
72.2913	534.05
72.3057	507.46
72.3201	503.35
72.3346	518.63
72.3490	564.61
72.3635	567.30
72.3779	552.51
72.3923	551.94
72.4068	588.39
72.4212	571.97
72.4357	587.64
72.4501	547.94
72.4645	573.13
72.4790	634.03
72.4934	555.27
72.5079	562.96
72.5223	592.14
72.5367	547.01
72.5512	536.50
72.5656	557.46
72.5801	549.05
72.5945	532.85
72.6089	510.39
72.6234	550.30
72.6378	542.54
72.6523	600.08
72.6667	569.34
72.6811	538.99
72.6956	508.59
72.7100	529.09
72.7245	559.45
72.7389	603.85
72.7533	561.78
72.7678	523.71
72.7822	595.27
72.7967	638.15
72.8111	632.81
72.8255	593.62
72.8400	488.39
72.8544	555.22
72.8689	635.86
72.8833	589.94

Result vector
22.1120	603.33
22.1264	611.76
22.1409	506.08
22.1553	498.44
22.1697	506.38
22.1842	569.76
22.1986	550.91
22.2131	619.19
22.2275	575.08
22.2419	510.30
22.2564	538.34
22.2708	617.63
22.2853	566.22
22.2997	545.31
22.3141	673.60
22.3286	596.44
22.3430	491.97
22.3575	560.52
22.3719	562.85
22.3863	595.42
22.4008	623.82
22.4152	657.11
22.4297	587.35
22.4441	597.71
22.4585	676.71
22.4730	581.63
22.4874	564.33
22.5019	585.87
22.5163	549.04
22.5307	537.54
22.5452	532.13
22.5596	548.19
22.5741	573.90
22.5885	579.01
22.6029	580.56
22.6174	607.82
22.6318	543.82
22.6463	655.88
22.6607	656.32
22.6751	605.10
22.6896	553.40
22.7040	468.23
22.7185	555.50
22.7329	575.78
22.7473	507.38
22.7618	516.79
22.7762	579.37
22.7907	603.08
22.8051	659.39
22.8195	563.15
22.8340	525.26
22.8484	594.96
22.8629	540.64
22.8773	552.05
22.8917	540.61
22.9062	576.54
22.9206	608.24
22.9351	527.69
22.9495	491.85
22.9639	461.33
22.9784	522.94
22.9928	568.42
23.0073	539.44
23.0217	656.27
23.0361	604.67
23.0506	633.66
23.0650	547.72
23.0795	556.21
23.0939	583.01
23.1083	611.20
23.1228	574.55
23.1372	546.47
23.1517	573.04
23.1661	589.67
23.1806	619.46
23.1950	543.83
23.2094	594.84
23.2239	600.84
23.2383	561.34
23.2528	519.81
23.2672	610.19
23.2816	511.28
23.2961	498.58
23.3105	492.18
23.3250	574.02
23.3394	508.54
23.3538	584.57
23.3683	541.06
23.3827	486.87
23.3972	479.77
23.4116	527.94
23.4260	529.17
23.4405	529.63
23.4549	500.83
23.4694	590.43
23.4838	541.66
23.4982	528.73
23.5127	527.66
23.5271	525.91
23.5416	543.01
23.5560	589.07
23.5704	514.29
23.5849	555.34
23.5993	600.82
23.6138	616.16
23.6282	591.53
23.6426	516.97
23.6571	500.32
23.6715	547.36
23.6860	504.75
23.7004	549.69
23.7148	506.28
23.7293	582.61
23.7437	587.66
23.7582	548.78
23.7726	551.82
23.7870	499.13
23.8015	564.97
23.8159	597.08
23.8304	519.73
23.8448	577.34
23.8592	587.60
23.8737	558.88
23.8881	546.61
23.9026	629.18
23.9170	587.28
23.9314	584.53
23.9459	537.29
23.9603	562.54
23.9748	574.26
23.9892	557.27
24.0036	515.82
24.0181	502.40
24.0325	491.21
24.0470	603.74
24.0614	544.58
24.0758	569.16
24.0903	581.97
24.1047	495.87
24.1192	548.67
24.1336	599.97
24.1480	567.47
24.1625	610.40
24.1769	523.05
24.1914	576.02
24.2058	567.39
24.2202	630.48
24.2347	627.73
24.2491	530.54
24.2636	572.52
24.2780	566.31
24.2924	554.05
24.3069	533.79
24.3213	614.58
24.3358	557.10
24.3502	565.23
24.3646	518.65
24.3791	565.79
24.3935	556.65
24.4080	585.51
24.4224	560.01
24.4368	525.36
24.4513	534.61
24.4657	550.80
24.4802	535.81
24.4946	558.94
24.5090	516.73
24.5235	544.05
24.5379	519.54
24.5524	565.50
24.5668	607.84
24.5812	615.34
24.5957	593.30
24.6101	562.35
24.6246	507.57
24.6390	571.06
24.6534	575.44
24.6679	533.12
24.6823	553.67
24.6968	523.94
24.7112	610.69
24.7256	534.10
24.7401	499.79
24.7545	574.84
24.7690	500.62
24.7834	549.33
24.7978	514.69
24.8123	536.07
24.8267	585.80
24.8412	531.69
24.8556	551.32
24.8700	574.97
24.8845	566.97
24.8989	544.51
24.9134	476.87
24.9278	532.99
24.9422	577.28
24.9567	530.63
24.9711	479.13
24.9856	535.23
25.0000	557.23
25.0144	516.23
25.0289	514.74
25.0433	567.79
25.0578	560.34
25.0722	559.86
25.0866	515.07
25.1011	530.48
25.1155	579.55
25.1300	616.36
25.1444	532.48
25.1588	538.20
25.1733	554.41
25.1877	524.20
25.2022	505.91
25.2166	534.97
25.2310	545.31
25.2455	532.75
25.2599	554.90
25.2744	579.29
25.2888	585.32
25.3032	559.09
25.3177	541.65
25.3321	558.67
25.3466	554.37
25.3610	544.58
25.3754	554.64
25.3899	535.87
25.4043	517.20
25.4188	554.75
25.4332	605.91
25.4476	532.34
25.4621	552.46
25.4765	556.31
25.4910	545.67
25.5054	520.33
25.5198	523.20
25.5343	550.92
25.5487	527.67
25.5632	530.77
25.5776	540.07
25.5920	553.87
25.6065	560.94
25.6209	534.07
25.6354	540.36
25.6498	527.98
25.6642	542.69
25.6787	535.91
25.6931	504.60
25.7076	516.73
25.7220	551.61
25.7364	554.43
25.7509	558.38
25.7653	508.07
25.7798	555.32
25.7942	563.26
25.8086	532.94
25.8231	539.12
25.8375	515.79
25.8520	548.16
25.8664	550.66
25.8808	545.35
25.8953	578.77
25.9097	538.83
25.9242	482.68
25.9386	532.01
25.9530	513.96
25.9675	524.05
25.9819	538.57
25.9964	528.06
26.0108	540.64
26.0252	526.84
26.0397	548.92
26.0541	551.84
26.0686	595.25
26.0830	561.89
26.0974	569.79
26.1119	542.17
26.1263	557.20
26.1408	544.60
26.1552	514.44
26.1696	534.41
26.1841	553.92
26.1985	499.80
26.2130	500.94
26.2274	521.03
26.2418	530.58
26.2563	537.66
26.2707	526.84
26.2852	541.97
26.2996	564.38
26.3140	542.10
26.3285	532.16
26.3429	533.43
26.3574	541.39
26.3718	538.33
26.3862	538.31
26.4007	531.28
26.4151	536.99
26.4296	552.54
26.4440	546.16
26.4584	521.32
26.4729	567.58
26.4873	561.36
26.5018	519.55
26.5162	529.20
26.5306	568.81
26.5451	550.10
26.5595	562.69
26.5740	525.90
26.5884	533.02
26.6028	555.13
26.6173	547.55
26.6317	531.62
26.6462	539.93
26.6606	542.48
26.6750	518.47
26.6895	514.21
26.7039	522.59
26.7184	530.15
26.7328	546.16
26.7472	514.10
26.7617	525.69
26.7761	554.87
26.7906	559.22
26.8050	566.77
26.8194	523.98
26.8339	536.52
26.8483	539.57
26.8628	550.32
26.8772	508.07
26.8917	512.77
26.9061	533.09
26.9205	537.55
26.9350	531.39
26.9494	520.87
26.9639	523.54
26.9783	515.72
26.9927	523.98
27.0072	543.73
27.0216	535.32
27.0361	541.28
27.0505	550.69
27.0649	534.94
27.0794	515.75
27.0938	529.97
27.1083	512.88
27.1227	500.53
27.1371	511.17
27.1516	498.82
27.1660	512.50
27.1805	531.81
27.1949	547.56
27.2093	513.55
27.2238	529.28
27.2382	543.70
27.2527	534.40
27.2671	522.43
27.2815	561.03
27.2960	530.14
27.3104	514.67
27.3249	522.32
27.3393	516.69
27.3537	490.09
27.3682	524.03
27.3826	524.07
27.3971	509.64
27.4115	535.80
27.4259	518.33
27.4404	535.12
27.4548	540.83
27.4693	539.08
27.4837	540.24
27.4981	556.26
27.5126	551.05
27.5270	524.86
27.5415	504.30
27.5559	490.59
27.5703	505.04
27.5848	513.28
27.5992	506.67
27.6137	508.88
27.6281	504.64
27.6425	516.62
27.6570	555.31
27.6714	548.65
27.6859	510.91
27.7003	533.71
27.7147	539.52
27.7292	515.46
27.7436	516.55
27.7581	541.90
27.7725	539.49
27.7869	535.25
27.8014	516.59
27.8158	533.31
27.8303	507.96
27.8447	558.07
27.8591	512.50
27.8736	539.56
27.8880	560.24
27.9025	526.88
27.9169	528.43
27.9313	518.26
27.9458	520.88
27.9602	517.53
27.9747	552.93
27.9891	513.41
28.0035	529.67
28.0180	590.24
28.0324	556.29
28.0469	553.64
28.0613	535.14
28.0757	508.98
28.0902	508.21
28.1046	502.33
28.1191	523.78
28.1335	527.64
28.1479	535.70
28.1624	535.58
28.1768	533.64
28.1913	500.70
28.2057	530.45
28.2201	515.43
28.2346	508.69
28.2490	524.73
28.2635	522.32
28.2779	530.91
28.2923	509.30
28.3068	505.04
28.3212	515.47
28.3357	504.90
28.3501	490.37
28.3645	505.55
28.3790	511.11
28.3934	515.13
28.4079	496.38
28.4223	484.68
28.4367	499.20
28.4512	515.51
28.4656	495.11
28.4801	520.92
28.4945	503.26
28.5089	519.82
28.5234	499.68
28.5378	515.09
28.5523	470.09
28.5667	525.35
28.5811	490.33
28.5956	476.26
28.6100	516.61
28.6245	530.24
28.6389	505.18
28.6533	471.71
28.6678	504.57
28.6822	511.03
28.6967	520.95
28.7111	551.01
28.7255	532.93
28.7400	533.90
28.7544	540.66
28.7689	489.27
28.7833	517.38
28.7977	508.16
28.8122	480.43
28.8266	539.11
28.8411	498.64
28.8555	524.78
28.8699	501.93
28.8844	503.90
28.8988	516.70
28.9133	550.39
28.9277	519.76
28.9421	538.48
28.9566	512.11
28.9710	502.37
28.9855	483.61
28.9999	520.47
29.0143	490.82
29.0288	518.54
29.0432	505.85
29.0577	506.87
29.0721	524.04
29.0865	573.04
29.1010	526.54
29.1154	547.21
29.1299	489.30
29.1443	506.59
29.1587	492.57
29.1732	509.81
29.1876	522.19
29.2021	475.87
29.2165	526.16
29.2309	509.67
29.2454	527.78
29.2598	522.60
29.2743	517.74
29.2887	502.44
29.3031	481.31
29.3176	524.81
29.3320	534.19
29.3465	496.72
29.3609	491.47
29.3753	516.13
29.3898	503.56
29.4042	501.84
29.4187	512.72
29.4331	524.36
29.4475	506.34
29.4620	499.44
29.4764	496.06
29.4909	471.46
29.5053	500.01
29.5197	525.60
29.5342	503.51
29.5486	541.79
29.5631	508.81
29.5775	502.20
29.5919	495.54
29.6064	519.24
29.6208	515.57
29.6353	547.88
29.6497	506.09
29.6641	494.16
29.6786	527.04
29.6930	521.97
29.7075	498.84
29.7219	510.61
29.7363	504.97
29.7508	490.51
29.7652	503.28
29.7797	496.93
29.7941	518.71
29.8085	532.71
29.8230	527.44
29.8374	527.18
29.8519	512.13
29.8663	496.78
29.8807	517.74
29.8952	512.17
29.9096	494.35
29.9241	520.68
29.9385	490.28
29.9529	471.54
29.9674	534.51
29.9818	504.23
29.9963	489.64
30.0107	513.44
30.0251	516.65
30.0396	539.53
30.0540	546.17
30.0685	561.04
30.0829	542.58
30.0973	524.45
30.1118	502.51
30.1262	530.93
30.1407	504.51
30.1551	520.39
30.1695	537.59
30.1840	521.28
30.1984	505.15
30.2129	504.12
30.2273	482.76
30.2417	496.55
30.2562	500.48
30.2706	474.26
30.2851	518.19
30.2995	498.13
30.3139	507.66
30.3284	515.24
30.3428	485.30
30.3573	492.24
30.3717	518.28
30.3861	487.36
30.4006	511.73
30.4150	502.84
30.4295	509.08
30.4439	521.12
30.4583	524.84
30.4728	499.44
30.4872	533.07
30.5017	520.86
30.5161	518.20
30.5305	506.50
30.5450	515.11
30.5594	511.86
30.5739	524.75
30.5883	516.22
30.6028	508.55
30.6172	546.44
30.6316	548.84
30.6461	499.90
30.6605	514.93
30.6750	531.94
30.6894	550.24
30.7038	552.19
30.7183	533.02
30.7327	563.69
30.7472	586.64
30.7616	584.23
30.7760	602.10
30.7905	633.86
30.8049	657.25
30.8194	669.67
30.8338	715.57
30.8482	718.97
30.8627	697.33
30.8771	696.55
30.8916	691.58
30.9060	674.93
30.9204	644.17
30.9349	617.49
30.9493	644.17
30.9638	593.65
30.9782	605.18
30.9926	598.60
31.0071	617.24
31.0215	617.49
31.0360	566.59
31.0504	567.46
31.0648	535.84
31.0793	529.86
31.0937	589.60
31.1082	537.66
31.1226	575.30
31.1370	573.66
31.1515	527.82
31.1659	542.74
31.1804	560.45
31.1948	516.77
31.2092	514.48
31.2237	526.17
31.2381	550.10
31.2526	555.44
31.2670	547.17
31.2814	541.08
31.2959	510.65
31.3103	494.72
31.3248	542.53
31.3392	556.11
31.3536	523.82
31.3681	525.39
31.3825	510.51
31.3970	502.73
31.4114	480.17
31.4258	545.66
31.4403	525.27
31.4547	522.25
31.4692	527.76
31.4836	506.89
31.4980	513.72
31.5125	510.17
31.5269	476.88
31.5414	486.79
31.5558	500.84
31.5702	487.81
31.5847	498.60
31.5991	506.69
31.6136	475.48
31.6280	477.05
31.6424	529.93
31.6569	552.07
31.6713	522.52
31.6858	507.13
31.7002	496.27
31.7146	469.62
31.7291	479.55
31.7435	506.34
31.7580	507.75
31.7724	497.33
31.7868	506.01
31.8013	501.67
31.8157	518.89
31.8302	527.68
31.8446	541.53
31.8590	531.15
31.8735	518.71
31.8879	492.90
31.9024	481.14
31.9168	503.94
31.9312	472.74
31.9457	507.90
31.9601	533.74
31.9746	487.49
31.9890	485.43
32.0034	505.45
32.0179	515.70
32.0323	494.73
32.0468	506.19
32.0612	524.00
32.0756	510.73
32.0901	530.20
32.1045	513.61
32.1190	520.83
32.1334	514.60
32.1478	476.29
32.1623	499.58
32.1767	509.58
32.1912	494.73
32.2056	512.00
32.2200	488.89
32.2345	495.56
32.2489	522.47
32.2634	513.57
32.2778	522.15
32.2922	546.26
32.3067	498.00
32.3211	534.96
32.3356	507.25
32.3500	488.53
32.3644	468.40
32.3789	492.49
32.3933	511.70
32.4078	505.25
32.4222	518.05
32.4366	515.47
32.4511	486.85
32.4655	500.09
32.4800	496.72
32.4944	461.80
32.5088	476.87
32.5233	527.46
32.5377	499.89
32.5522	506.41
32.5666	531.57
32.5810	512.71
32.5955	508.83
32.6099	475.03
32.6244	469.91
32.6388	514.47
32.6532	522.12
32.6677	486.89
32.6821	474.69
32.6966	518.55
32.7110	545.70
32.7254	492.53
32.7399	517.83
32.7543	489.34
32.7688	483.46
32.7832	523.64
32.7976	504.46
32.8121	486.41
32.8265	506.55
32.8410	483.91
32.8554	515.45
32.8698	504.32
32.8843	498.29
32.8987	505.14
32.9132	548.94
32.9276	487.17
32.9420	496.69
32.9565	500.08
32.9709	506.21
32.9854	512.95
32.9998	529.20
33.0142	510.49
33.0287	500.90
33.0431	541.51
33.0576	501.24
33.0720	488.18
33.0864	464.33
33.1009	476.90
33.1153	497.72
33.1298	519.95
33.1442	466.57
33.1586	468.05
33.1731	507.41
33.1875	501.41
33.2020	491.50
33.2164	491.16
33.2308	498.10
33.2453	511.69
33.2597	470.46
33.2742	491.84
33.2886	468.56
33.3030	507.96
33.3175	508.48
33.3319	504.24
33.3464	509.06
33.3608	510.28
33.3752	487.73
33.3897	492.51
33.4041	493.37
33.4186	522.83
33.4330	537.44
33.4474	492.61
33.4619	496.54
33.4763	522.56
33.4908	519.16
33.5052	525.90
33.5196	510.68
33.5341	523.48
33.5485	491.85
33.5630	507.31
33.5774	460.32
33.5918	486.93
33.6063	490.12
33.6207	518.28
33.6352	524.33
33.6496	533.36
33.6640	525.19
33.6785	510.87
33.6929	514.97
33.7074	529.84
33.7218	491.01
33.7362	517.66
33.7507	528.76
33.7651	478.08
33.7796	554.40
33.7940	533.38
33.8084	537.84
33.8229	531.36
33.8373	497.41
33.8518	491.50
33.8662	516.14
33.8806	488.10
33.8951	497.87
33.9095	512.81
33.9240	482.94
33.9384	514.18
33.9528	490.69
33.9673	504.45
33.9817	526.08
33.9962	508.38
34.0106	512.21
34.0250	534.50
34.0395	536.57
34.0539	508.34
34.0684	501.07
34.0828	490.06
34.0972	533.05
34.1117	525.50
34.1261	496.11
34.1406	489.88
34.1550	490.18
34.1694	531.30
34.1839	509.72
34.1983	500.48
34.2128	512.34
34.2272	503.45
34.2417	468.38
34.2561	476.79
34.2705	514.65
34.2850	507.43
34.2994	507.00
34.3139	515.57
34.3283	528.02
34.3427	533.62
34.3572	532.94
34.3716	508.49
34.3861	500.35
34.4005	488.53
34.4149	497.51
34.4294	498.71
34.4438	499.59
34.4583	500.44
34.4727	511.60
34.4871	516.56
34.5016	529.07
34.5160	477.18
34.5305	462.54
34.5449	483.46
34.5593	502.57
34.5738	501.02
34.5882	499.18
34.6027	494.13
34.6171	502.01
34.6315	524.12
34.6460	496.03
34.6604	486.51
34.6749	525.42
34.6893	511.76
34.7037	512.75
34.7182	521.05
34.7326	524.18
34.7471	525.55
34.7615	502.79
34.7759	514.02
34.7904	514.32
34.8048	525.89
34.8193	519.05
34.8337	511.83
34.8481	509.27
34.8626	534.52
34.8770	509.24
34.8915	508.98
34.9059	519.65
34.9203	497.68
34.9348	579.57
34.9492	531.25
34.9637	480.41
34.9781	518.73
34.9925	529.34
35.0070	529.20
35.0214	537.16
35.0359	539.37
35.0503	540.96
35.0647	549.31
35.0792	522.19
35.0936	510.67
35.1081	508.98
35.1225	527.76
35.1369	513.05
35.1514	507.32
35.1658	505.75
35.1803	516.67
35.1947	489.09
35.2091	528.12
35.2236	516.75
35.2380	510.04
35.2525	504.59
35.2669	479.29
35.2813	486.54
35.2958	520.27
35.3102	505.78
35.3247	548.98
35.3391	533.51
35.3535	517.74
35.3680	524.95
35.3824	477.51
35.3969	494.50
35.4113	525.45
35.4257	516.60
35.4402	536.07
35.4546	517.94
35.4691	531.39
35.4835	529.54
35.4979	522.56
35.5124	525.82
35.5268	549.01
35.5413	532.35
35.5557	516.07
35.5701	528.65
35.5846	511.92
35.5990	517.58
35.6135	514.49
35.6279	517.05
35.6423	530.06
35.6568	524.07
35.6712	539.30
35.6857	587.58
35.7001	659.55
35.7145	688.73
35.7290	641.16
35.7434	578.89
35.7579	571.17
35.7723	567.45
35.7867	586.23
35.8012	619.44
35.8156	669.69
35.8301	613.86
35.8445	599.40
35.8589	627.07
35.8734	728.98
35.8878	806.19
35.9023	944.21
35.9167	1106.94
35.9311	1443.84
35.9456	2335.50
35.9600	2329.35
35.9745	1713.75
35.9889	1800.33
36.0033	2148.74
36.0178	2230.79
36.0322	1975.09
36.0467	1818.45
36.0611	1588.39
36.0755	1587.15
36.0900	1581.08
36.1044	1364.67
36.1189	1298.99
36.1333	1195.97
36.1477	1065.69
36.1622	1057.77
36.1766	1058.18
36.1911	910.28
36.2055	872.83
36.2199	785.85
36.2344	846.32
36.2488	794.04
36.2633	749.76
36.2777	808.65
36.2921	907.12
36.3066	935.99
36.3210	989.58
36.3355	1033.61
36.3499	1018.14
36.3643	1011.65
36.3788	947.20
36.3932	977.91
36.4077	911.85
36.4221	928.61
36.4365	871.54
36.4510	807.58
36.4654	812.84
36.4799	738.58
36.4943	744.91
36.5087	682.31
36.5232	671.62
36.5376	652.51
36.5521	646.38
36.5665	598.27
36.5809	576.69
36.5954	590.00
36.6098	575.90
36.6243	543.96
36.6387	597.13
36.6531	557.75
36.6676	557.89
36.6820	556.04
36.6965	537.16
36.7109	557.93
36.7253	556.17
36.7398	526.09
36.7542	558.66
36.7687	528.13
36.7831	552.34
36.7975	579.30
36.8120	580.37
36.8264	581.13
36.8409	588.49
36.8553	598.79
36.8697	612.42
36.8842	592.41
36.8986	603.95
36.9131	614.08
36.9275	563.81
36.9419	557.78
36.9564	548.57
36.9708	550.57
36.9853	534.49
36.9997	551.84
37.0141	571.61
37.0286	542.38
37.0430	559.24
37.0575	505.50
37.0719	536.21
37.0863	526.05
37.1008	501.26
37.1152	511.74
37.1297	488.62
37.1441	489.46
37.1585	497.90
37.1730	520.18
37.1874	491.78
37.2019	499.00
37.2163	520.67
37.2307	515.49
37.2452	511.75
37.2596	545.04
37.2741	501.96
37.2885	486.88
37.3029	499.21
37.3174	507.94
37.3318	518.55
37.3463	519.06
37.3607	503.38
37.3751	461.98
37.3896	470.30
37.4040	491.12
37.4185	478.76
37.4329	500.11
37.4473	498.31
37.4618	516.76
37.4762	518.47
37.4907	507.27
37.5051	498.45
37.5195	500.11
37.5340	538.83
37.5484	512.88
37.5629	509.31
37.5773	482.41
37.5917	520.12
37.6062	509.31
37.6206	517.96
37.6351	524.20
37.6495	531.10
37.6639	511.24
37.6784	498.11
37.6928	498.29
37.7073	532.97
37.7217	490.28
37.7361	477.67
37.7506	478.14
37.7650	466.33
37.7795	534.77
37.7939	524.92
37.8083	483.50
37.8228	537.90
37.8372	499.55
37.8517	497.20
37.8661	507.82
37.8805	537.16
37.8950	500.07
37.9094	535.44
37.9239	526.43
37.9383	494.08
37.9528	533.23
37.9672	531.94
37.9816	498.67
37.9961	514.87
38.0105	473.52
38.0250	502.97
38.0394	536.48
38.0538	522.39
38.0683	516.96
38.0827	500.80
38.0972	491.37
38.1116	503.80
38.1260	502.81
38.1405	494.72
38.1549	480.88
38.1694	457.81
38.1838	507.48
38.1982	485.32
38.2127	485.13
38.2271	463.05
38.2416	490.71
38.2560	501.74
38.2704	507.10
38.2849	536.91
38.2993	515.64
38.3138	552.16
38.3282	550.99
38.3426	518.91
38.3571	512.31
38.3715	524.76
38.3860	530.95
38.4004	551.04
38.4148	536.34
38.4293	591.68
38.4437	609.49
38.4582	585.43
38.4726	673.21
38.4870	682.37
38.5015	725.30
38.5159	769.46
38.5304	773.85
38.5448	813.06
38.5592	767.19
38.5737	761.24
38.5881	720.01
38.6026	707.95
38.6170	691.24
38.6314	681.21
38.6459	665.77
38.6603	617.06
38.6748	587.88
38.6892	542.05
38.7036	568.96
38.7181	586.86
38.7325	535.07
38.7470	522.80
38.7614	484.04
38.7758	515.68
38.7903	512.10
38.8047	531.70
38.8192	538.81
38.8336	502.30
38.8480	489.74
38.8625	510.07
38.8769	496.98
38.8914	507.20
38.9058	554.13
38.9202	516.64
38.9347	516.95
38.9491	493.32
38.9636	457.39
38.9780	493.05
38.9924	524.26
39.0069	504.23
39.0213	513.70
39.0358	495.01
39.0502	474.87
39.0646	508.68
39.0791	495.46
39.0935	481.73
39.1080	492.23
39.1224	520.28
39.1368	516.59
39.1513	468.88
39.1657	503.26
39.1802	504.33
39.1946	485.81
39.2090	497.05
39.2235	503.34
39.2379	497.59
39.2524	499.09
39.2668	479.84
39.2812	508.48
39.2957	479.92
39.3101	472.45
39.3246	512.75
39.3390	495.86
39.3534	474.56
39.3679	498.34
39.3823	501.46
39.3968	498.86
39.4112	469.27
39.4256	494.55
39.4401	503.39
39.4545	490.19
39.4690	497.53
39.4834	525.31
39.4978	496.76
39.5123	484.09
39.5267	514.55
39.5412	526.93
39.5556	481.27
39.5700	459.72
39.5845	531.83
39.5989	514.18
39.6134	481.17
39.6278	494.72
39.6422	502.09
39.6567	500.08
39.6711	494.09
39.6856	499.27
39.7000	491.01
39.7144	502.96
39.7289	473.97
39.7433	537.59
39.7578	490.10
39.7722	491.31
39.7866	508.95
39.8011	488.35
39.8155	480.94
39.8300	495.88
39.8444	500.79
39.8588	489.83
39.8733	517.18
39.8877	469.29
39.9022	512.51
39.9166	488.13
39.9310	501.20
39.9455	530.87
39.9599	500.62
39.9744	524.11
39.9888	517.26
40.0032	514.12
40.0177	499.01
40.0321	511.50
40.0466	503.53
40.0610	521.93
40.0754	524.68
40.0899	541.02
40.1043	504.98
40.1188	498.76
40.1332	494.43
40.1476	496.22
40.1621	457.69
40.1765	512.36
40.1910	478.65
40.2054	487.71
40.2198	479.28
40.2343	484.02
40.2487	523.33
40.2632	513.31
40.2776	509.17
40.2920	506.59
40.3065	498.95
40.3209	484.96
40.3354	510.22
40.3498	511.68
40.3642	505.11
40.3787	476.99
40.3931	473.32
40.4076	455.35
40.4220	498.23
40.4364	515.88
40.4509	512.95
40.4653	495.49
40.4798	514.65
40.4942	492.88
40.5086	487.68
40.5231	509.69
40.5375	521.52
40.5520	483.04
40.5664	475.64
40.5808	482.01
40.5953	498.53
40.6097	504.93
40.6242	483.29
40.6386	521.58
40.6530	492.67
40.6675	493.41
40.6819	471.94
40.6964	495.31
40.7108	513.92
40.7252	497.39
40.7397	504.61
40.7541	511.73
40.7686	444.12
40.7830	466.47
40.7974	471.12
40.8119	528.39
40.8263	505.62
40.8408	502.51
40.8552	492.01
40.8696	517.41
40.8841	497.49
40.8985	475.67
40.9130	477.52
40.9274	485.92
40.9418	515.38
40.9563	476.90
40.9707	494.18
40.9852	486.98
40.9996	470.57
41.0140	487.34
41.0285	489.29
41.0429	525.52
41.0574	463.35
41.0718	532.86
41.0862	496.92
41.1007	490.57
41.1151	504.08
41.1296	520.00
41.1440	491.01
41.1584	504.93
41.1729	525.94
41.1873	482.30
41.2018	496.10
41.2162	515.02
41.2306	463.37
41.2451	480.56
41.2595	528.80
41.2740	533.16
41.2884	497.15
41.3028	483.67
41.3173	488.52
41.3317	502.14
41.3462	524.99
41.3606	532.35
41.3750	532.39
41.3895	473.55
41.4039	479.11
41.4184	488.18
41.4328	460.22
41.4472	486.98
41.4617	485.79
41.4761	478.01
41.4906	489.01
41.5050	465.57
41.5194	463.31
41.5339	488.02
41.5483	528.66
41.5628	478.67
41.5772	457.55
41.5916	483.31
41.6061	479.01
41.6205	507.05
41.6350	507.36
41.6494	506.78
41.6639	493.95
41.6783	485.04
41.6927	493.78
41.7072	507.96
41.7216	504.50
41.7361	495.57
41.7505	517.96
41.7649	468.56
41.7794	539.35
41.7938	556.22
41.8083	499.22
41.8227	512.91
41.8371	525.19
41.8516	515.81
41.8660	531.23
41.8805	552.10
41.8949	546.60
41.9093	568.46
41.9238	561.68
41.9382	582.90
41.9527	543.52
41.9671	522.33
41.9815	574.44
41.9960	576.62
42.0104	578.03
42.0249	554.84
42.0393	605.70
42.0537	597.70
42.0682	604.61
42.0826	554.75
42.0971	566.93
42.1115	573.45
42.1259	592.84
42.1404	563.28
42.1548	577.61
42.1693	604.73
42.1837	671.73
42.1981	774.52
42.2126	857.19
42.2270	922.92
42.2415	1017.47
42.2559	1195.50
42.2703	1317.92
42.2848	1420.87
42.2992	1573.44
42.3137	1615.63
42.3281	1578.79
42.3425	1507.28
42.3570	1411.96
42.3714	1330.26
42.3859	1334.77
42.4003	1269.96
42.4147	1296.87
42.4292	1281.26
42.4436	1137.54
42.4581	1029.54
42.4725	926.47
42.4869	803.62
42.5014	710.81
42.5158	710.02
42.5303	694.12
42.5447	655.06
42.5591	603.51
42.5736	589.39
42.5880	598.59
42.6025	588.76
42.6169	568.51
42.6313	556.47
42.6458	519.45
42.6602	513.73
42.6747	525.80
42.6891	537.18
42.7035	539.09
42.7180	518.44
42.7324	531.05
42.7469	537.39
42.7613	530.09
42.7757	526.43
42.7902	520.06
42.8046	518.37
42.8191	554.20
42.8335	523.16
42.8479	508.87
42.8624	534.22
42.8768	519.14
42.8913	504.34
42.9057	526.23
42.9201	517.01
42.9346	520.59
42.9490	537.88
42.9635	508.11
42.9779	505.74
42.9923	506.91
43.0068	486.95
43.0212	518.32
43.0357	512.24
43.0501	496.85
43.0645	489.06
43.0790	510.17
43.0934	531.28
43.1079	511.01
43.1223	512.46
43.1367	522.28
43.1512	483.80
43.1656	515.30
43.1801	520.14
43.1945	523.62
43.2089	530.98
43.2234	504.38
43.2378	523.68
43.2523	524.79
43.2667	485.46
43.2811	518.36
43.2956	532.96
43.3100	532.17
43.3245	515.22
43.3389	527.36
43.3533	520.92
43.3678	512.14
43.3822	518.05
43.3967	512.38
43.4111	490.34
43.4255	505.17
43.4400	509.76
43.4544	511.64
43.4689	509.78
43.4833	533.38
43.4977	479.79
43.5122	476.33
43.5266	507.47
43.5411	545.78
43.5555	501.57
43.5699	473.76
43.5844	494.20
43.5988	529.73
43.6133	558.06
43.6277	499.54
43.6421	566.02
43.6566	515.46
43.6710	498.65
43.6855	535.45
43.6999	560.38
43.7143	525.86
43.7288	546.05
43.7432	505.49
43.7577	522.65
43.7721	509.19
43.7865	541.75
43.8010	510.11
43.8154	525.02
43.8299	523.13
43.8443	501.64
43.8587	514.14
43.8732	516.21
43.8876	502.03
43.9021	525.33
43.9165	495.20
43.9309	495.63
43.9454	500.69
43.9598	495.35
43.9743	509.56
43.9887	513.33
44.0031	516.44
44.0176	513.48
44.0320	523.91
44.0465	503.67
44.0609	502.63
44.0753	545.39
44.0898	606.76
44.1042	608.14
44.1187	609.01
44.1331	585.87
44.1475	601.11
44.1620	635.19
44.1764	638.47
44.1909	618.29
44.2053	607.65
44.2197	628.28
44.2342	633.48
44.2486	599.33
44.2631	604.76
44.2775	584.02
44.2919	591.68
44.3064	636.85
44.3208	575.24
44.3353	597.40
44.3497	603.31
44.3641	564.16
44.3786	541.14
44.3930	534.82
44.4075	576.19
44.4219	563.21
44.4363	605.13
44.4508	569.03
44.4652	582.43
44.4797	563.14
44.4941	573.89
44.5085	593.11
44.5230	539.16
44.5374	567.10
44.5519	558.25
44.5663	602.54
44.5807	548.44
44.5952	569.21
44.6096	570.19
44.6241	591.27
44.6385	630.04
44.6529	602.32
44.6674	575.16
44.6818	598.42
44.6963	617.55
44.7107	693.46
44.7251	652.76
44.7396	738.49
44.7540	820.13
44.7685	803.73
44.7829	885.32
44.7973	888.15
44.8118	883.94
44.8262	763.82
44.8407	759.85
44.8551	716.47
44.8695	748.81
44.8840	721.72
44.8984	751.63
44.9129	699.25
44.9273	688.46
44.9417	628.73
44.9562	593.03
44.9706	551.40
44.9851	500.98
44.9995	566.40
45.0139	537.59
45.0284	546.69
45.0428	539.81
45.0573	516.36
45.0717	533.06
45.0861	538.54
45.1006	525.84
45.1150	534.62
45.1295	505.36
45.1439	497.88
45.1583	490.50
45.1728	512.45
45.1872	536.25
45.2017	469.11
45.2161	498.20
45.2305	511.44
45.2450	523.19
45.2594	540.40
45.2739	488.53
45.2883	512.66
45.3028	520.93
45.3172	516.81
45.3316	514.09
45.3461	528.24
45.3605	507.88
45.3750	499.77
45.3894	459.43
45.4038	454.53
45.4183	494.89
45.4327	491.67
45.4472	493.87
45.4616	486.43
45.4760	510.77
45.4905	496.89
45.5049	503.76
45.5194	507.88
45.5338	500.66
45.5482	517.62
45.5627	519.39
45.5771	513.19
45.5916	515.95
45.6060	475.80
45.6204	491.96
45.6349	488.70
45.6493	503.40
45.6638	505.93
45.6782	494.75
45.6926	513.66
45.7071	518.57
45.7215	508.31
45.7360	561.31
45.7504	512.08
45.7648	488.29
45.7793	492.73
45.7937	522.05
45.8082	537.05
45.8226	523.05
45.8370	487.64
45.8515	516.18
45.8659	524.82
45.8804	523.32
45.8948	505.07
45.9092	528.32
45.9237	520.32
45.9381	478.17
45.9526	509.49
45.9670	535.82
45.9814	523.49
45.9959	502.63
46.0103	511.16
46.0248	510.55
46.0392	502.34
46.0536	498.56
46.0681	529.08
46.0825	521.59
46.0970	529.82
46.1114	502.58
46.1258	500.31
46.1403	487.38
46.1547	501.35
46.1692	508.75
46.1836	477.77
46.1980	481.37
46.2125	514.67
46.2269	482.87
46.2414	491.97
46.2558	501.60
46.2702	516.62
46.2847	540.62
46.2991	511.73
46.3136	458.86
46.3280	505.36
46.3424	528.15
46.3569	489.52
46.3713	491.44
46.3858	485.36
46.4002	535.45
46.4146	547.53
46.4291	532.26
46.4435	517.81
46.4580	492.84
46.4724	501.21
46.4868	497.52
46.5013	501.53
46.5157	487.80
46.5302	470.22
46.5446	492.10
46.5590	527.85
46.5735	506.84
46.5879	522.44
46.6024	527.83
46.6168	458.55
46.6312	474.77
46.6457	481.91
46.6601	481.14
46.6746	481.27
46.6890	495.18
46.7034	515.96
46.7179	493.90
46.7323	498.78
46.7468	514.81
46.7612	517.58
46.7756	499.57
46.7901	493.73
46.8045	495.26
46.8190	495.62
46.8334	539.28
46.8478	528.53
46.8623	519.23
46.8767	521.21
46.8912	534.56
46.9056	510.17
46.9200	464.43
46.9345	520.75
46.9489	517.10
46.9634	462.27
46.9778	494.49
46.9922	518.81
47.0067	489.36
47.0211	523.82
47.0356	511.50
47.0500	517.21
47.0644	520.76
47.0789	499.85
47.0933	516.11
47.1078	494.41
47.1222	503.81
47.1366	540.46
47.1511	521.04
47.1655	524.76
47.1800	521.17
47.1944	496.23
47.2088	502.53
47.2233	516.85
47.2377	499.82
47.2522	486.01
47.2666	471.92
47.2810	520.77
47.2955	525.67
47.3099	493.84
47.3244	499.55
47.3388	494.90
47.3532	474.89
47.3677	484.19
47.3821	493.20
47.3966	484.81
47.4110	489.86
47.4254	506.87
47.4399	507.96
47.4543	493.32
47.4688	502.55
47.4832	469.53
47.4976	475.07
47.5121	495.30
47.5265	509.26
47.5410	527.05
47.5554	517.62
47.5698	512.84
47.5843	496.66
47.5987	494.93
47.6132	518.12
47.6276	512.23
47.6420	543.32
47.6565	526.06
47.6709	520.97
47.6854	487.49
47.6998	487.25
47.7142	488.02
47.7287	471.46
47.7431	482.75
47.7576	496.84
47.7720	507.12
47.7864	499.71
47.8009	482.79
47.8153	513.31
47.8298	490.04
47.8442	503.16
47.8586	526.73
47.8731	515.24
47.8875	497.90
47.9020	506.02
47.9164	481.78
47.9308	491.30
47.9453	492.76
47.9597	477.19
47.9742	484.55
47.9886	497.75
48.0030	475.15
48.0175	471.00
48.0319	511.94
48.0464	556.67
48.0608	467.48
48.0752	510.82
48.0897	534.24
48.1041	515.13
48.1186	504.34
48.1330	511.69
48.1474	483.82
48.1619	490.71
48.1763	531.02
48.1908	518.71
48.2052	511.49
48.2196	523.73
48.2341	532.57
48.2485	514.74
48.2630	491.21
48.2774	496.24
48.2918	521.46
48.3063	484.02
48.3207	502.95
48.3352	505.55
48.3496	499.53
48.3640	494.97
48.3785	496.35
48.3929	481.49
48.4074	501.36
48.4218	487.04
48.4362	494.44
48.4507	518.22
48.4651	546.01
48.4796	496.22
48.4940	502.54
48.5084	501.99
48.5229	511.23
48.5373	514.23
48.5518	488.47
48.5662	537.10
48.5806	498.12
48.5951	525.15
48.6095	555.17
48.6240	522.41
48.6384	564.08
48.6528	524.74
48.6673	498.39
48.6817	540.83
48.6962	527.89
48.7106	522.17
48.7250	497.97
48.7395	513.38
48.7539	509.15
48.7684	486.53
48.7828	518.12
48.7972	491.96
48.8117	521.15
48.8261	554.79
48.8406	551.77
48.8550	562.73
48.8694	509.67
48.8839	544.32
48.8983	573.72
48.9128	561.34
48.9272	534.27
48.9416	538.06
48.9561	561.76
48.9705	539.08
48.9850	565.62
48.9994	573.70
49.0139	558.11
49.0283	575.30
49.0427	620.17
49.0572	608.58
49.0716	644.08
49.0861	678.14
49.1005	695.11
49.1149	706.42
49.1294	749.82
49.1438	749.09
49.1583	799.08
49.1727	814.46
49.1871	900.81
49.2016	904.87
49.2160	1000.41
49.2305	1106.71
49.2449	1197.52
49.2593	1209.03
49.2738	1352.87
49.2882	1396.83
49.3027	1510.45
49.3171	1583.73
49.3315	1683.62
49.3460	1663.91
49.3604	1801.35
49.3749	1779.53
49.3893	1738.61
49.4037	1736.67
49.4182	1705.58
49.4326	1643.69
49.4471	1623.81
49.4615	1623.71
49.4759	1572.74
49.4904	1458.82
49.5048	1381.12
49.5193	1330.44
49.5337	1235.36
49.5481	1190.76
49.5626	1102.11
49.5770	1002.01
49.5915	1025.27
49.6059	934.49
49.6203	840.34
49.6348	802.57
49.6492	768.50
49.6637	719.79
49.6781	704.05
49.6925	686.84
49.7070	678.17
49.7214	653.21
49.7359	626.41
49.7503	625.46
49.7647	611.03
49.7792	619.62
49.7936	599.96
49.8081	589.62
49.8225	585.14
49.8369	555.94
49.8514	547.25
49.8658	560.76
49.8803	594.22
49.8947	589.33
49.9091	619.53
49.9236	584.38
49.9380	574.92
49.9525	540.32
49.9669	551.15
49.9813	542.28
49.9958	530.16
50.0102	539.33
50.0247	540.48
50.0391	511.74
50.0535	502.31
50.0680	539.71
50.0824	591.32
50.0969	528.28
50.1113	531.60
50.1257	529.66
50.1402	523.91
50.1546	509.31
50.1691	524.15
50.1835	483.71
50.1979	459.66
50.2124	519.95
50.2268	513.71
50.2413	502.56
50.2557	496.01
50.2701	522.84
50.2846	508.01
50.2990	502.66
50.3135	494.80
50.3279	526.40
50.3423	507.62
50.3568	492.97
50.3712	499.33
50.3857	504.56
50.4001	512.72
50.4145	539.63
50.4290	535.09
50.4434	492.43
50.4579	527.10
50.4723	509.77
50.4867	541.37
50.5012	516.53
50.5156	519.45
50.5301	508.45
50.5445	523.03
50.5589	532.53
50.5734	536.75
50.5878	497.75
50.6023	505.08
50.6167	518.28
50.6311	501.93
50.6456	526.28
50.6600	536.45
50.6745	544.02
50.6889	527.27
50.7033	545.80
50.7178	491.56
50.7322	513.35
50.7467	524.74
50.7611	526.15
50.7755	492.27
50.7900	502.38
50.8044	516.27
50.8189	517.81
50.8333	524.10
50.8477	504.43
50.8622	510.84
50.8766	547.03
50.8911	513.45
50.9055	514.61
50.9199	489.11
50.9344	465.60
50.9488	484.85
50.9633	475.69
50.9777	495.31
50.9921	515.24
51.0066	525.97
51.0210	516.26
51.0355	526.49
51.0499	506.77
51.0643	496.49
51.0788	504.64
51.0932	510.47
51.1077	514.73
51.1221	495.38
51.1365	508.55
51.1510	518.93
51.1654	514.18
51.1799	502.71
51.1943	529.36
51.2087	495.29
51.2232	514.12
51.2376	504.90
51.2521	484.90
51.2665	490.89
51.2809	510.52
51.2954	487.42
51.3098	518.78
51.3243	542.57
51.3387	513.60
51.3531	514.08
51.3676	530.17
51.3820	521.55
51.3965	497.91
51.4109	504.44
51.4253	536.65
51.4398	480.09
51.4542	446.93
51.4687	478.65
51.4831	518.93
51.4975	498.13
51.5120	489.42
51.5264	473.95
51.5409	510.21
51.5553	547.43
51.5697	509.51
51.5842	490.53
51.5986	515.68
51.6131	516.89
51.6275	514.36
51.6419	540.55
51.6564	524.07
51.6708	486.23
51.6853	519.51
51.6997	495.89
51.7141	488.62
51.7286	509.73
51.7430	522.67
51.7575	503.67
51.7719	504.48
51.7863	520.47
51.8008	506.16
51.8152	498.86
51.8297	513.19
51.8441	501.47
51.8585	496.36
51.8730	513.12
51.8874	487.87
51.9019	497.66
51.9163	502.34
51.9307	524.68
51.9452	513.83
51.9596	537.30
51.9741	524.79
51.9885	528.21
52.0029	482.04
52.0174	473.45
52.0318	493.42
52.0463	480.21
52.0607	514.70
52.0751	522.79
52.0896	557.03
52.1040	537.42
52.1185	521.49
52.1329	487.36
52.1473	485.91
52.1618	505.49
52.1762	511.38
52.1907	500.73
52.2051	536.36
52.2195	539.00
52.2340	507.98
52.2484	494.25
52.2629	529.96
52.2773	523.78
52.2917	501.17
52.3062	497.29
52.3206	488.34
52.3351	518.06
52.3495	511.12
52.3639	518.01
52.3784	520.78
52.3928	492.42
52.4073	494.97
52.4217	517.48
52.4361	536.34
52.4506	527.22
52.4650	539.03
52.4795	510.74
52.4939	527.34
52.5083	494.35
52.5228	489.65
52.5372	537.54
52.5517	552.26
52.5661	514.67
52.5805	518.50
52.5950	511.50
52.6094	509.99
52.6239	516.12
52.6383	516.45
52.6527	520.92
52.6672	530.06
52.6816	527.59
52.6961	514.15
52.7105	481.02
52.7250	518.44
52.7394	479.89
52.7538	504.06
52.7683	513.07
52.7827	493.33
52.7972	514.30
52.8116	518.21
52.8260	534.04
52.8405	512.48
52.8549	505.23
52.8694	518.36
52.8838	512.83
52.8982	511.20
52.9127	506.47
52.9271	491.58
52.9416	525.43
52.9560	483.03
52.9704	506.89
52.9849	518.40
52.9993	504.91
53.0138	541.87
53.0282	540.32
53.0426	523.84
53.0571	547.53
53.0715	552.32
53.0860	532.17
53.1004	497.19
53.1148	539.86
53.1293	509.71
53.1437	489.52
53.1582	458.33
53.1726	511.93
53.1870	535.92
53.2015	524.01
53.2159	492.52
53.2304	511.66
53.2448	504.66
53.2592	505.34
53.2737	511.74
53.2881	518.30
53.3026	499.41
53.3170	477.95
53.3314	521.58
53.3459	517.17
53.3603	497.38
53.3748	489.78
53.3892	486.74
53.4036	559.78
53.4181	545.78
53.4325	502.07
53.4470	514.27
53.4614	538.88
53.4758	504.50
53.4903	519.16
53.5047	516.25
53.5192	504.29
53.5336	532.72
53.5480	523.88
53.5625	524.49
53.5769	528.54
53.5914	554.51
53.6058	527.85
53.6202	533.65
53.6347	527.06
53.6491	502.23
53.6636	534.23
53.6780	524.11
53.6924	497.27
53.7069	527.13
53.7213	530.79
53.7358	518.42
53.7502	496.88
53.7646	529.74
53.7791	534.73
53.7935	516.14
53.8080	539.70
53.8224	542.64
53.8368	520.40
53.8513	512.42
53.8657	511.33
53.8802	531.22
53.8946	513.17
53.9090	525.76
53.9235	494.71
53.9379	487.01
53.9524	490.22
53.9668	551.90
53.9812	543.10
53.9957	517.35
54.0101	514.91
54.0246	532.43
54.0390	507.49
54.0534	492.97
54.0679	514.86
54.0823	520.81
54.0968	523.62
54.1112	518.23
54.1256	509.75
54.1401	512.92
54.1545	483.58
54.1690	517.37
54.1834	511.01
54.1978	509.25
54.2123	534.36
54.2267	513.54
54.2412	523.42
54.2556	521.23
54.2700	486.21
54.2845	523.84
54.2989	505.06
54.3134	514.65
54.3278	544.91
54.3422	540.33
54.3567	524.73
54.3711	495.59
54.3856	512.28
54.4000	526.21
54.4144	494.64
54.4289	512.33
54.4433	529.03
54.4578	528.09
54.4722	514.08
54.4866	501.51
54.5011	496.61
54.5155	519.32
54.5300	529.53
54.5444	532.24
54.5588	538.23
54.5733	527.41
54.5877	552.58
54.6022	527.19
54.6166	534.98
54.6310	543.46
54.6455	532.13
54.6599	530.72
54.6744	553.17
54.6888	557.41
54.7032	571.85
54.7177	563.90
54.7321	568.97
54.7466	557.04
54.7610	580.27
54.7754	586.72
54.7899	579.32
54.8043	598.50
54.8188	589.62
54.8332	566.47
54.8476	549.32
54.8621	586.81
54.8765	583.28
54.8910	588.29
54.9054	579.75
54.9198	579.15
54.9343	596.19
54.9487	573.77
54.9632	522.30
54.9776	532.92
54.9920	572.46
55.0065	570.75
55.0209	561.98
55.0354	557.02
55.0498	538.08
55.0642	581.72
55.0787	595.48
55.0931	587.29
55.1076	548.03
55.1220	548.07
55.1364	517.26
55.1509	506.68
55.1653	536.20
55.1798	533.63
55.1942	524.57
55.2086	535.06
55.2231	534.93
55.2375	525.70
55.2520	536.18
55.2664	520.95
55.2808	529.84
55.2953	519.12
55.3097	528.19
55.3242	525.86
55.3386	521.82
55.3530	534.68
55.3675	507.66
55.3819	522.77
55.3964	501.52
55.4108	530.88
55.4252	565.10
55.4397	532.85
55.4541	527.62
55.4686	528.93
55.4830	539.12
55.4974	507.90
55.5119	503.25
55.5263	521.41
55.5408	543.55
55.5552	522.94
55.5696	518.42
55.5841	548.33
55.5985	556.23
55.6130	533.24
55.6274	527.52
55.6418	542.87
55.6563	553.33
55.6707	532.48
55.6852	532.47
55.6996	540.60
55.7140	529.18
55.7285	524.87
55.7429	532.12
55.7574	538.12
55.7718	509.00
55.7862	518.05
55.8007	497.83
55.8151	547.24
55.8296	550.03
55.8440	538.08
55.8584	557.19
55.8729	519.25
55.8873	540.17
55.9018	559.28
55.9162	550.49
55.9306	541.43
55.9451	506.08
55.9595	526.37
55.9740	572.04
55.9884	509.77
56.0028	498.57
56.0173	521.21
56.0317	539.11
56.0462	524.23
56.0606	542.98
56.0750	555.58
56.0895	519.22
56.1039	508.83
56.1184	575.00
56.1328	513.15
56.1472	493.28
56.1617	499.91
56.1761	564.60
56.1906	525.04
56.2050	499.02
56.2194	518.74
56.2339	535.48
56.2483	531.54
56.2628	512.09
56.2772	528.08
56.2916	494.10
56.3061	522.37
56.3205	533.36
56.3350	531.90
56.3494	503.09
56.3639	516.24
56.3783	515.10
56.3927	515.02
56.4072	541.17
56.4216	546.34
56.4361	517.34
56.4505	488.95
56.4649	510.46
56.4794	515.82
56.4938	511.79
56.5083	529.97
56.5227	503.35
56.5371	541.60
56.5516	560.89
56.5660	537.72
56.5805	518.83
56.5949	513.94
56.6093	559.99
56.6238	506.38
56.6382	519.10
56.6527	537.20
56.6671	497.93
56.6815	482.39
56.6960	548.45
56.7104	550.29
56.7249	515.37
56.7393	521.85
56.7537	537.07
56.7682	500.28
56.7826	543.90
56.7971	518.06
56.8115	522.34
56.8259	526.92
56.8404	517.72
56.8548	540.00
56.8693	521.54
56.8837	546.61
56.8981	524.30
56.9126	546.61
56.9270	539.38
56.9415	521.89
56.9559	530.91
56.9703	514.51
56.9848	501.77
56.9992	524.49
57.0137	538.35
57.0281	508.91
57.0425	524.84
57.0570	527.73
57.0714	518.88
57.0859	557.78
57.1003	547.08
57.1147	534.14
57.1292	535.03
57.1436	538.80
57.1581	504.53
57.1725	515.79
57.1869	540.04
57.2014	505.45
57.2158	535.00
57.2303	526.18
57.2447	558.10
57.2591	501.60
57.2736	527.79
57.2880	538.76
57.3025	534.02
57.3169	538.53
57.3313	521.42
57.3458	557.84
57.3602	538.76
57.3747	506.50
57.3891	523.72
57.4035	510.95
57.4180	547.88
57.4324	533.29
57.4469	514.40
57.4613	494.93
57.4757	515.77
57.4902	563.75
57.5046	544.56
57.5191	555.69
57.5335	538.62
57.5479	568.88
57.5624	564.85
57.5768	562.40
57.5913	535.37
57.6057	531.97
57.6201	529.30
57.6346	510.01
57.6490	499.68
57.6635	505.98
57.6779	525.04
57.6923	497.89
57.7068	521.95
57.7212	534.47
57.7357	496.02
57.7501	517.12
57.7645	524.45
57.7790	518.64
57.7934	529.18
57.8079	518.23
57.8223	523.98
57.8367	534.80
57.8512	542.44
57.8656	546.07
57.8801	525.87
57.8945	549.35
57.9089	535.89
57.9234	545.33
57.9378	582.21
57.9523	544.60
57.9667	525.01
57.9811	556.49
57.9956	550.37
58.0100	555.56
58.0245	533.40
58.0389	556.21
58.0533	520.80
58.0678	510.24
58.0822	524.01
58.0967	520.86
58.1111	525.27
58.1255	547.56
58.1400	542.59
58.1544	548.94
58.1689	570.40
58.1833	536.99
58.1977	544.90
58.2122	558.22
58.2266	543.55
58.2411	575.60
58.2555	570.41
58.2699	552.79
58.2844	552.98
58.2988	561.28
58.3133	582.09
58.3277	605.01
58.3421	602.52
58.3566	622.33
58.3710	602.65
58.3855	637.32
58.3999	625.29
58.4143	620.81
58.4288	624.23
58.4432	621.23
58.4577	625.64
58.4721	671.94
58.4865	656.77
58.5010	629.49
58.5154	633.49
58.5299	618.37
58.5443	643.81
58.5587	654.77
58.5732	595.89
58.5876	611.27
58.6021	635.93
58.6165	636.22
58.6309	638.43
58.6454	623.39
58.6598	593.16
58.6743	552.07
58.6887	537.39
58.7031	600.44
58.7176	611.92
58.7320	579.78
58.7465	580.18
58.7609	554.00
58.7753	552.47
58.7898	566.61
58.8042	550.19
58.8187	609.32
58.8331	556.54
58.8475	537.50
58.8620	563.16
58.8764	554.09
58.8909	535.05
58.9053	577.14
58.9197	548.24
58.9342	526.83
58.9486	539.12
58.9631	554.26
58.9775	532.84
58.9919	522.96
59.0064	544.32
59.0208	557.41
59.0353	572.26
59.0497	537.86
59.0641	553.71
59.0786	571.55
59.0930	569.62
59.1075	532.91
59.1219	571.53
59.1363	564.48
59.1508	503.13
59.1652	540.50
59.1797	539.49
59.1941	527.30
59.2085	563.78
59.2230	537.78
59.2374	516.92
59.2519	531.25
59.2663	539.47
59.2807	605.19
59.2952	578.98
59.3096	539.49
59.3241	543.05
59.3385	559.40
59.3529	580.38
59.3674	552.73
59.3818	530.63
59.3963	516.56
59.4107	534.49
59.4251	547.16
59.4396	533.35
59.4540	553.02
59.4685	596.04
59.4829	564.22
59.4973	571.60
59.5118	552.14
59.5262	539.94
59.5407	531.44
59.5551	563.34
59.5695	523.72
59.5840	553.64
59.5984	547.65
59.6129	529.73
59.6273	553.08
59.6417	549.83
59.6562	549.64
59.6706	526.46
59.6851	503.96
59.6995	537.44
59.7139	558.24
59.7284	509.93
59.7428	543.45
59.7573	548.65
59.7717	537.41
59.7861	545.92
59.8006	590.80
59.8150	574.35
59.8295	531.44
59.8439	518.91
59.8583	534.69
59.8728	565.16
59.8872	569.20
59.9017	569.67
59.9161	539.16
59.9305	551.70
59.9450	583.29
59.9594	543.78
59.9739	603.55
59.9883	544.98
60.0027	511.60
60.0172	549.43
60.0316	520.27
60.0461	541.48
60.0605	535.30
60.0750	502.10
60.0894	519.81
60.1038	518.62
60.1183	529.08
60.1327	560.84
60.1472	504.20
60.1616	524.77
60.1760	551.32
60.1905	536.38
60.2049	533.72
60.2194	566.89
60.2338	535.18
60.2482	513.25
60.2627	521.15
60.2771	550.89
60.2916	540.65
60.3060	542.58
60.3204	524.81
60.3349	551.50
60.3493	544.56
60.3638	565.48
60.3782	533.61
60.3926	532.06
60.4071	539.65
60.4215	554.12
60.4360	527.66
60.4504	512.14
60.4648	540.26
60.4793	500.73
60.4937	516.41
60.5082	501.51
60.5226	509.83
60.5370	539.31
60.5515	537.50
60.5659	521.91
60.5804	522.94
60.5948	546.99
60.6092	548.72
60.6237	492.61
60.6381	529.96
60.6526	571.21
60.6670	537.58
60.6814	553.11
60.6959	543.72
60.7103	599.67
60.7248	522.50
60.7392	546.38
60.7536	538.78
60.7681	498.59
60.7825	554.83
60.7970	534.43
60.8114	511.31
60.8258	533.71
60.8403	555.81
60.8547	542.08
60.8692	527.97
60.8836	528.74
60.8980	529.95
60.9125	577.00
60.9269	532.98
60.9414	550.75
60.9558	532.48
60.9702	537.00
60.9847	598.38
60.9991	540.53
61.0136	519.33
61.0280	534.02
61.0424	531.37
61.0569	522.63
61.0713	546.30
61.0858	541.04
61.1002	557.03
61.1146	553.13
61.1291	540.92
61.1435	556.54
61.1580	487.81
61.1724	506.27
61.1868	554.06
61.2013	536.86
61.2157	547.38
61.2302	575.37
61.2446	563.45
61.2590	561.35
61.2735	520.25
61.2879	560.07
61.3024	557.74
61.3168	493.98
61.3312	537.83
61.3457	550.02
61.3601	547.88
61.3746	547.30
61.3890	541.06
61.4034	544.70
61.4179	543.19
61.4323	543.86
61.4468	516.89
61.4612	551.89
61.4756	562.16
61.4901	555.07
61.5045	545.92
61.5190	520.42
61.5334	563.85
61.5478	540.59
61.5623	528.02
61.5767	546.70
61.5912	565.13
61.6056	546.02
61.6200	553.44
61.6345	563.48
61.6489	554.12
61.6634	554.98
61.6778	529.84
61.6922	544.08
61.7067	586.61
61.7211	542.49
61.7356	545.86
61.7500	533.59
61.7644	529.76
61.7789	562.60
61.7933	552.91
61.8078	549.43
61.8222	516.78
61.8366	523.78
61.8511	552.98
61.8655	540.37
61.8800	538.21
61.8944	572.36
61.9088	567.31
61.9233	612.50
61.9377	566.01
61.9522	552.50
61.9666	594.68
61.9810	539.24
61.9955	525.03
62.0099	534.07
62.0244	545.62
62.0388	562.03
62.0532	555.77
62.0677	540.68
62.0821	580.30
62.0966	569.44
62.1110	571.00
62.1254	579.32
62.1399	546.47
62.1543	522.27
62.1688	567.30
62.1832	579.78
62.1976	557.08
62.2121	567.53
62.2265	576.43
62.2410	545.23
62.2554	554.06
62.2698	581.69
62.2843	549.29
62.2987	529.84
62.3132	544.15
62.3276	543.87
62.3420	572.84
62.3565	559.92
62.3709	560.96
62.3854	520.11
62.3998	556.16
62.4142	579.07
62.4287	566.33
62.4431	550.99
62.4576	556.68
62.4720	543.46
62.4864	523.79
62.5009	537.26
62.5153	573.91
62.5298	558.57
62.5442	547.33
62.5586	537.75
62.5731	561.93
62.5875	567.22
62.6020	561.84
62.6164	545.10
62.6308	555.67
62.6453	566.38
62.6597	556.39
62.6742	556.34
62.6886	559.81
62.7030	560.27
62.7175	537.30
62.7319	550.62
62.7464	562.05
62.7608	568.13
62.7752	573.78
62.7897	567.00
62.8041	552.02
62.8186	570.95
62.8330	555.91
62.8474	551.00
62.8619	578.53
62.8763	575.04
62.8908	566.38
62.9052	584.53
62.9196	590.05
62.9341	592.68
62.9485	585.40
62.9630	550.63
62.9774	542.26
62.9918	541.83
63.0063	583.87
63.0207	586.41
63.0352	571.43
63.0496	550.84
63.0640	582.10
63.0785	564.97
63.0929	589.85
63.1074	566.88
63.1218	560.45
63.1362	585.99
63.1507	532.01
63.1651	581.09
63.1796	582.82
63.1940	576.01
63.2084	567.32
63.2229	536.62
63.2373	575.05
63.2518	558.12
63.2662	523.51
63.2806	584.13
63.2951	566.90
63.3095	579.75
63.3240	550.50
63.3384	582.35
63.3528	545.82
63.3673	586.04
63.3817	592.25
63.3962	590.49
63.4106	597.99
63.4250	624.48
63.4395	550.57
63.4539	554.36
63.4684	605.17
63.4828	584.78
63.4972	596.52
63.5117	593.34
63.5261	612.45
63.5406	552.65
63.5550	568.85
63.5694	556.44
63.5839	578.93
63.5983	599.67
63.6128	589.80
63.6272	554.74
63.6416	597.18
63.6561	633.60
63.6705	606.53
63.6850	588.20
63.6994	591.79
63.7138	623.74
63.7283	595.19
63.7427	583.69
63.7572	592.01
63.7716	607.12
63.7861	600.13
63.8005	589.92
63.8149	576.86
63.8294	604.72
63.8438	628.73
63.8583	661.88
63.8727	615.79
63.8871	560.93
63.9016	675.59
63.9160	656.85
63.9305	638.27
63.9449	600.95
63.9593	634.33
63.9738	639.90
63.9882	648.94
64.0027	661.19
64.0171	620.52
64.0315	683.32
64.0460	674.84
64.0604	683.94
64.0749	702.22
64.0893	778.30
64.1037	723.91
64.1182	755.29
64.1326	772.03
64.1471	769.48
64.1615	751.04
64.1759	768.93
64.1904	781.14
64.2048	751.05
64.2193	787.76
64.2337	805.26
64.2481	791.26
64.2626	785.83
64.2770	821.70
64.2915	748.87
64.3059	748.17
64.3203	719.71
64.3348	721.82
64.3492	729.43
64.3637	742.77
64.3781	739.52
64.3925	750.52
64.4070	675.79
64.4214	673.98
64.4359	718.16
64.4503	751.42
64.4647	721.68
64.4792	748.68
64.4936	747.00
64.5081	699.34
64.5225	684.44
64.5369	718.56
64.5514	696.50
64.5658	657.47
64.5803	678.49
64.5947	671.88
64.6091	655.98
64.6236	680.21
64.6380	698.84
64.6525	696.08
64.6669	676.44
64.6813	731.00
64.6958	730.10
64.7102	720.04
64.7247	690.34
64.7391	721.19
64.7535	688.28
64.7680	697.79
64.7824	735.12
64.7969	737.90
64.8113	752.17
64.8257	775.83
64.8402	783.81
64.8546	842.76
64.8691	855.64
64.8835	826.57
64.8979	820.78
64.9124	886.81
64.9268	888.44
64.9413	989.54
64.9557	958.61
64.9701	1017.38
64.9846	1072.61
64.9990	1149.27
65.0135	1281.55
65.0279	1504.88
65.0423	1768.68
65.0568	2200.55
65.0712	2786.59
65.0857	3650.16
65.1001	4778.30
65.1145	6497.15
65.1290	8526.86
65.1434	10173.28
65.1579	11282.66
65.1723	11945.18
65.1867	11277.19
65.2012	9935.62
65.2156	8198.13
65.2301	6350.80
65.2445	5219.65
65.2589	4418.46
65.2734	4249.40
65.2878	4498.11
65.3023	5067.86
65.3167	6011.28
65.3311	6824.20
65.3456	7129.97
65.3600	6956.15
65.3745	6314.27
65.3889	5294.13
65.4033	4218.54
65.4178	3325.14
65.4322	2621.78
65.4467	2073.06
65.4611	1697.66
65.4755	1443.12
65.4900	1261.58
65.5044	1106.08
65.5189	1065.86
65.5333	1000.47
65.5477	929.92
65.5622	890.32
65.5766	796.40
65.5911	794.02
65.6055	857.93
65.6199	791.74
65.6344	766.16
65.6488	743.52
65.6633	730.92
65.6777	758.19
65.6921	751.81
65.7066	750.57
65.7210	685.26
65.7355	677.17
65.7499	703.48
65.7643	687.78
65.7788	687.11
65.7932	625.12
65.8077	647.66
65.8221	632.64
65.8365	651.22
65.8510	701.69
65.8654	683.96
65.8799	648.19
65.8943	617.65
65.9087	634.89
65.9232	628.66
65.9376	656.96
65.9521	641.52
65.9665	603.78
65.9809	628.01
65.9954	657.68
66.0098	632.29
66.0243	600.43
66.0387	601.66
66.0531	626.44
66.0676	661.34
66.0820	640.01
66.0965	652.14
66.1109	638.02
66.1253	667.37
66.1398	613.72
66.1542	618.93
66.1687	630.61
66.1831	604.09
66.1975	629.89
66.2120	620.46
66.2264	589.90
66.2409	598.88
66.2553	625.55
66.2697	572.33
66.2842	602.54
66.2986	598.65
66.3131	610.89
66.3275	640.59
66.3419	663.77
66.3564	626.72
66.3708	603.46
66.3853	629.10
66.3997	617.53
66.4141	590.93
66.4286	621.37
66.4430	614.15
66.4575	585.32
66.4719	620.89
66.4863	606.38
66.5008	600.52
66.5152	596.93
66.5297	614.69
66.5441	622.33
66.5585	622.88
66.5730	588.43
66.5874	571.63
66.6019	557.68
66.6163	611.85
66.6307	625.14
66.6452	624.34
66.6596	593.46
66.6741	585.63
66.6885	566.26
66.7029	616.96
66.7174	608.51
66.7318	588.86
66.7463	602.02
66.7607	571.68
66.7751	598.98
66.7896	632.41
66.8040	605.09
66.8185	588.50
66.8329	563.85
66.8473	593.04
66.8618	623.22
66.8762	565.74
66.8907	564.79
66.9051	616.31
66.9195	634.39
66.9340	608.22
66.9484	589.74
66.9629	578.25
66.9773	567.87
66.9917	539.83
67.0062	536.13
67.0206	578.96
67.0351	556.48
67.0495	573.49
67.0639	616.46
67.0784	597.79
67.0928	591.91
67.1073	562.09
67.1217	576.20
67.1361	604.48
67.1506	607.83
67.1650	598.67
67.1795	562.80
67.1939	548.40
67.2083	564.82
67.2228	561.12
67.2372	584.41
67.2517	578.84
67.2661	597.35
67.2805	615.95
67.2950	630.53
67.3094	619.94
67.3239	562.12
67.3383	560.66
67.3527	569.52
67.3672	542.51
67.3816	549.84
67.3961	543.19
67.4105	562.70
67.4250	610.41
67.4394	579.11
67.4538	566.69
67.4683	607.75
67.4827	604.43
67.4972	586.75
67.5116	586.21
67.5260	591.80
67.5405	630.31
67.5549	597.29
67.5694	560.67
67.5838	609.11
67.5982	571.55
67.6127	553.36
67.6271	557.00
67.6416	572.93
67.6560	577.94
67.6704	571.02
67.6849	586.68
67.6993	553.97
67.7138	587.94
67.7282	556.06
67.7426	573.29
67.7571	573.24
67.7715	537.37
67.7860	597.67
67.8004	572.73
67.8148	573.29
67.8293	587.92
67.8437	576.08
67.8582	555.76
67.8726	588.40
67.8870	536.74
67.9015	549.33
67.9159	573.76
67.9304	574.22
67.9448	603.14
67.9592	603.15
67.9737	600.63
67.9881	570.33
68.0026	570.88
68.0170	615.57
68.0314	624.73
68.0459	583.95
68.0603	574.36
68.0748	589.74
68.0892	617.38
68.1036	594.63
68.1181	573.59
68.1325	579.83
68.1470	566.65
68.1614	590.36
68.1758	549.24
68.1903	559.44
68.2047	561.82
68.2192	541.78
68.2336	591.19
68.2480	583.70
68.2625	558.04
68.2769	591.94
68.2914	565.80
68.3058	587.64
68.3202	620.51
68.3347	564.58
68.3491	577.87
68.3636	542.44
68.3780	589.94
68.3924	588.35
68.4069	597.39
68.4213	582.56
68.4358	603.12
68.4502	581.91
68.4646	594.02
68.4791	608.81
68.4935	579.69
68.5080	569.37
68.5224	550.53
68.5368	595.73
68.5513	543.56
68.5657	533.76
68.5802	578.85
68.5946	556.96
68.6090	628.95
68.6235	598.66
68.6379	591.62
68.6524	565.71
68.6668	549.59
68.6812	578.15
68.6957	572.08
68.7101	614.34
68.7246	596.04
68.7390	556.49
68.7534	614.23
68.7679	578.51
68.7823	578.30
68.7968	577.66
68.8112	584.68
68.8256	576.05
68.8401	577.82
68.8545	573.54
68.8690	583.78
68.8834	605.06
68.8978	570.76
68.9123	630.77
68.9267	550.81
68.9412	592.81
68.9556	586.45
68.9700	559.64
68.9845	504.30
68.9989	592.93
69.0134	594.31
69.0278	590.25
69.0422	616.02
69.0567	552.15
69.0711	562.39
69.0856	630.07
69.1000	531.41
69.1144	600.20
69.1289	628.80
69.1433	561.75
69.1578	574.01
69.1722	568.63
69.1866	580.01
69.2011	570.34
69.2155	616.87
69.2300	580.20
69.2444	575.76
69.2588	615.21
69.2733	604.50
69.2877	607.67
69.3022	546.78
69.3166	563.48
69.3310	578.86
69.3455	608.31
69.3599	575.60
69.3744	566.32
69.3888	591.74
69.4032	637.12
69.4177	592.60
69.4321	585.98
69.4466	525.38
69.4610	613.27
69.4754	604.22
69.4899	545.35
69.5043	581.69
69.5188	599.73
69.5332	618.58
69.5476	551.37
69.5621	597.19
69.5765	588.80
69.5910	557.67
69.6054	568.24
69.6198	553.84
69.6343	587.04
69.6487	582.57
69.6632	618.87
69.6776	574.41
69.6920	559.82
69.7065	589.57
69.7209	608.35
69.7354	544.08
69.7498	570.85
69.7642	579.68
69.7787	602.20
69.7931	565.04
69.8076	603.15
69.8220	587.19
69.8364	616.42
69.8509	571.86
69.8653	600.76
69.8798	570.65
69.8942	599.32
69.9086	595.43
69.9231	583.16
69.9375	599.30
69.9520	512.45
69.9664	531.86
69.9808	562.08
69.9953	561.19
70.0097	585.60
70.0242	564.81
70.0386	574.76
70.0530	575.08
70.0675	539.13
70.0819	594.40
70.0964	573.74
70.1108	589.71
70.1252	589.23
70.1397	621.84
70.1541	577.10
70.1686	618.24
70.1830	638.01
70.1974	582.41
70.2119	576.40
70.2263	549.78
70.2408	601.96
70.2552	636.41
70.2696	574.17
70.2841	549.68
70.2985	561.72
70.3130	581.70
70.3274	585.38
70.3418	552.11
70.3563	581.74
70.3707	628.40
70.3852	600.47
70.3996	605.82
70.4140	592.97
70.4285	650.99
70.4429	609.87
70.4574	567.30
70.4718	606.01
70.4862	601.91
70.5007	592.26
70.5151	582.93
70.5296	576.72
70.5440	562.34
70.5584	565.73
70.5729	582.45
70.5873	601.80
70.6018	597.30
70.6162	515.88
70.6306	555.77
70.6451	594.56
70.6595	556.07
70.6740	561.39
70.6884	525.91
70.7028	626.70
70.7173	628.35
70.7317	587.71
70.7462	562.49
70.7606	548.24
70.7750	615.42
70.7895	615.43
70.8039	591.23
70.8184	555.96
70.8328	546.26
70.8472	571.50
70.8617	601.35
70.8761	590.28
70.8906	569.74
70.9050	592.79
70.9194	578.37
70.9339	641.89
70.9483	657.57
70.9628	590.91
70.9772	562.48
70.9916	553.56
71.0061	534.09
71.0205	555.16
71.0350	553.11
71.0494	568.72
71.0638	633.47
71.0783	603.36
71.0927	571.22
71.1072	589.54
71.1216	591.89
71.1361	615.10
71.1505	563.01
71.1649	546.24
71.1794	574.96
71.1938	558.94
71.2083	559.89
71.2227	545.79
71.2371	595.32
71.2516	569.89
71.2660	556.26
71.2805	559.31
71.2949	538.27
71.3093	535.78
71.3238	567.27
71.3382	572.67
71.3527	586.67
71.3671	556.97
71.3815	528.17
71.3960	575.53
71.4104	641.01
71.4249	623.15
71.4393	570.90
71.4537	521.02
71.4682	580.05
71.4826	572.37
71.4971	528.44
71.5115	542.29
71.5259	554.75
71.5404	552.13
71.5548	600.34
71.5693	566.19
71.5837	527.34
71.5981	588.78
71.6126	615.01
71.6270	632.59
71.6415	649.70
71.6559	585.10
71.6703	594.22
71.6848	606.71
71.6992	604.66
71.7137	581.24
71.7281	509.46
71.7425	595.84
71.7570	597.24
71.7714	560.09
71.7859	600.06
71.8003	654.25
71.8147	593.28
71.8292	594.29
71.8436	627.35
71.8581	612.72
71.8725	544.16
71.8869	556.72
71.9014	690.11
71.9158	637.58
71.9303	549.38
71.9447	528.31
71.9591	512.48
71.9736	535.12
71.9880	606.32
72.0025	612.07
72.0169	585.81
72.0313	588.10
72.0458	592.63
72.0602	552.69
72.0747	577.70
72.0891	584.64
72.1035	621.10
72.1180	645.37
72.1324	659.23
72.1469	574.58
72.1613	501.82
72.1757	560.01
72.1902	631.66
72.2046	607.14
72.2191	532.43
72.2335	512.76
72.2479	572.62
72.2624	602.44
72.2768	578.05
72.2913	534.05
72.3057	507.46
72.3201	503.35
72.3346	518.63
72.3490	564.61
72.3635	567.30
72.3779	552.51
72.3923	551.94
72.4068	588.39
72.4212	571.97
72.4357	587.64
72.4501	547.94
72.4645	573.13
72.4790	634.03
72.4934	555.27
72.5079	562.96
72.5223	592.14
72.5367	547.01
72.5512	536.50
72.5656	557.46
72.5801	549.05
72.5945	532.85
72.6089	510.39
72.6234	550.30
72.6378	542.54
72.6523	600.08
72.6667	569.34
72.6811	538.99
72.6956	508.59
72.7100	529.09
72.7245	559.45
72.7389	603.85
72.7533	561.78
72.7678	523.71
72.7822	595.27
72.7967	638.15
72.8111	632.81
72.8255	593.62
72.8400	488.39
72.8544	555.22
72.8689	635.86
72.8833	589.94