2022.09.19 19:37:16
Îáðàçåö: ß÷åéêà LCoV 16-09-2022
Lambda1 = 1.54060
Lambda2 = 1.54439
Lambdam = 1.54186
R = 0.497
2Theta	I

line¹ 0 ;repeat¹ 0
22.1120	664.06
22.1264	646.46
22.1409	567.70
22.1553	456.48
22.1697	560.90
22.1842	580.06
22.1986	588.15
22.2131	522.95
22.2275	536.77
22.2419	598.07
22.2564	565.55
22.2708	654.46
22.2853	647.13
22.2997	583.12
22.3141	562.45
22.3286	596.62
22.3430	683.28
22.3575	706.85
22.3719	574.35
22.3863	576.19
22.4008	547.95
22.4152	669.40
22.4297	625.69
22.4441	550.56
22.4585	532.12
22.4730	657.92
22.4874	611.18
22.5019	565.84
22.5163	614.53
22.5307	619.70
22.5452	546.00
22.5596	553.42
22.5741	598.31
22.5885	553.04
22.6029	579.62
22.6174	543.58
22.6318	629.58
22.6463	604.53
22.6607	544.31
22.6751	527.09
22.6896	607.56
22.7040	659.63
22.7185	620.46
22.7329	561.90
22.7473	555.43
22.7618	580.33
22.7762	554.19
22.7907	603.28
22.8051	540.71
22.8195	551.98
22.8340	514.39
22.8484	452.87
22.8629	492.13
22.8773	584.91
22.8917	529.27
22.9062	672.86
22.9206	639.79
22.9351	619.82
22.9495	540.65
22.9639	526.17
22.9784	536.25
22.9928	530.74
23.0073	524.16
23.0217	605.08
23.0361	607.38
23.0506	562.96
23.0650	596.04
23.0795	558.18
23.0939	618.93
23.1083	562.54
23.1228	520.71
23.1372	508.20
23.1517	536.75
23.1661	534.29
23.1806	659.44
23.1950	552.51
23.2094	573.25
23.2239	564.07
23.2383	528.35
23.2528	551.69
23.2672	496.06
23.2816	589.94
23.2961	569.76
23.3105	605.84
23.3250	577.70
23.3394	568.70
23.3538	587.59
23.3683	551.85
23.3827	495.59
23.3972	452.50
23.4116	485.48
23.4260	569.67
23.4405	524.35
23.4549	599.88
23.4694	566.05
23.4838	518.79
23.4982	567.06
23.5127	616.81
23.5271	560.56
23.5416	581.38
23.5560	645.17
23.5704	604.51
23.5849	560.27
23.5993	575.00
23.6138	538.62
23.6282	544.03
23.6426	549.30
23.6571	553.51
23.6715	523.08
23.6860	514.20
23.7004	564.46
23.7148	639.48
23.7293	606.07
23.7437	507.25
23.7582	523.04
23.7726	492.18
23.7870	571.57
23.8015	524.19
23.8159	490.53
23.8304	615.25
23.8448	571.30
23.8592	530.22
23.8737	507.00
23.8881	539.03
23.9026	682.81
23.9170	579.66
23.9314	558.51
23.9459	582.52
23.9603	566.60
23.9748	607.78
23.9892	584.48
24.0036	567.35
24.0181	554.86
24.0325	531.76
24.0470	513.37
24.0614	549.13
24.0758	536.62
24.0903	576.12
24.1047	564.79
24.1192	574.42
24.1336	588.02
24.1480	551.39
24.1625	545.38
24.1769	582.08
24.1914	523.54
24.2058	555.47
24.2202	594.40
24.2347	675.66
24.2491	605.00
24.2636	541.42
24.2780	599.19
24.2924	575.31
24.3069	585.18
24.3213	550.32
24.3358	588.24
24.3502	530.40
24.3646	530.38
24.3791	569.47
24.3935	570.51
24.4080	551.88
24.4224	592.75
24.4368	594.83
24.4513	564.61
24.4657	568.76
24.4802	626.22
24.4946	567.87
24.5090	540.17
24.5235	523.01
24.5379	492.23
24.5524	530.41
24.5668	541.10
24.5812	572.85
24.5957	592.11
24.6101	592.08
24.6246	524.50
24.6390	550.41
24.6534	563.78
24.6679	543.37
24.6823	533.04
24.6968	546.01
24.7112	537.20
24.7256	518.96
24.7401	536.17
24.7545	507.52
24.7690	573.05
24.7834	528.59
24.7978	525.36
24.8123	581.90
24.8267	493.91
24.8412	501.65
24.8556	588.13
24.8700	521.16
24.8845	550.56
24.8989	560.05
24.9134	592.02
24.9278	524.70
24.9422	495.13
24.9567	550.07
24.9711	557.24
24.9856	603.25
25.0000	548.52
25.0144	582.54
25.0289	556.46
25.0433	538.95
25.0578	549.76
25.0722	564.93
25.0866	549.11
25.1011	533.54
25.1155	561.60
25.1300	593.42
25.1444	514.16
25.1588	567.85
25.1733	530.85
25.1877	516.40
25.2022	536.03
25.2166	543.50
25.2310	545.66
25.2455	560.79
25.2599	560.27
25.2744	565.64
25.2888	519.86
25.3032	563.55
25.3177	561.95
25.3321	551.67
25.3466	519.26
25.3610	538.01
25.3754	516.59
25.3899	507.37
25.4043	498.94
25.4188	596.09
25.4332	576.90
25.4476	518.22
25.4621	567.91
25.4765	565.25
25.4910	506.97
25.5054	529.90
25.5198	546.60
25.5343	565.17
25.5487	531.06
25.5632	560.08
25.5776	520.73
25.5920	556.45
25.6065	509.65
25.6209	501.84
25.6354	524.48
25.6498	560.60
25.6642	522.16
25.6787	535.21
25.6931	554.57
25.7076	572.33
25.7220	514.92
25.7364	517.19
25.7509	522.60
25.7653	546.84
25.7798	570.09
25.7942	556.61
25.8086	544.22
25.8231	545.25
25.8375	605.47
25.8520	563.60
25.8664	555.81
25.8808	526.88
25.8953	537.25
25.9097	579.87
25.9242	555.87
25.9386	530.62
25.9530	530.38
25.9675	553.13
25.9819	529.67
25.9964	528.00
26.0108	537.56
26.0252	530.77
26.0397	524.93
26.0541	524.63
26.0686	559.78
26.0830	566.99
26.0974	545.21
26.1119	549.86
26.1263	526.21
26.1408	514.65
26.1552	524.24
26.1696	546.30
26.1841	532.65
26.1985	503.32
26.2130	510.90
26.2274	550.05
26.2418	515.91
26.2563	532.05
26.2707	520.05
26.2852	533.58
26.2996	541.44
26.3140	532.04
26.3285	574.06
26.3429	564.35
26.3574	536.49
26.3718	528.04
26.3862	531.23
26.4007	503.08
26.4151	508.44
26.4296	538.80
26.4440	528.71
26.4584	511.56
26.4729	542.94
26.4873	532.21
26.5018	541.65
26.5162	543.72
26.5306	554.49
26.5451	534.83
26.5595	556.01
26.5740	553.48
26.5884	566.16
26.6028	551.10
26.6173	518.56
26.6317	511.99
26.6462	526.46
26.6606	553.95
26.6750	560.42
26.6895	570.04
26.7039	549.99
26.7184	536.74
26.7328	498.29
26.7472	495.65
26.7617	482.78
26.7761	523.80
26.7906	555.28
26.8050	532.73
26.8194	513.16
26.8339	541.83
26.8483	558.95
26.8628	562.54
26.8772	528.94
26.8917	524.69
26.9061	549.28
26.9205	539.92
26.9350	543.34
26.9494	542.18
26.9639	529.87
26.9783	506.15
26.9927	495.93
27.0072	531.31
27.0216	522.20
27.0361	578.33
27.0505	560.24
27.0649	544.17
27.0794	519.87
27.0938	507.00
27.1083	505.17
27.1227	537.71
27.1371	523.81
27.1516	512.75
27.1660	520.26
27.1805	508.21
27.1949	501.34
27.2093	500.22
27.2238	538.09
27.2382	497.67
27.2527	522.50
27.2671	519.11
27.2815	527.21
27.2960	514.56
27.3104	553.34
27.3249	508.14
27.3393	532.58
27.3537	542.79
27.3682	505.06
27.3826	473.92
27.3971	499.82
27.4115	533.27
27.4259	541.72
27.4404	510.42
27.4548	514.69
27.4693	540.53
27.4837	524.75
27.4981	519.09
27.5126	553.63
27.5270	528.67
27.5415	528.25
27.5559	531.83
27.5703	493.85
27.5848	504.50
27.5992	544.64
27.6137	511.13
27.6281	517.43
27.6425	542.64
27.6570	548.58
27.6714	553.09
27.6859	514.97
27.7003	525.02
27.7147	484.11
27.7292	518.99
27.7436	533.95
27.7581	502.25
27.7725	521.56
27.7869	517.51
27.8014	514.49
27.8158	558.44
27.8303	530.86
27.8447	530.81
27.8591	558.57
27.8736	541.05
27.8880	515.19
27.9025	562.65
27.9169	513.23
27.9313	506.32
27.9458	502.96
27.9602	517.21
27.9747	508.21
27.9891	508.03
28.0035	488.85
28.0180	509.08
28.0324	524.83
28.0469	493.55
28.0613	492.39
28.0757	502.14
28.0902	490.39
28.1046	477.34
28.1191	540.61
28.1335	533.78
28.1479	488.29
28.1624	497.56
28.1768	506.90
28.1913	517.92
28.2057	528.80
28.2201	510.62
28.2346	507.74
28.2490	489.36
28.2635	499.98
28.2779	497.55
28.2923	501.98
28.3068	519.17
28.3212	497.94
28.3357	501.35
28.3501	519.31
28.3645	512.77
28.3790	511.98
28.3934	503.96
28.4079	544.33
28.4223	519.44
28.4367	508.72
28.4512	487.10
28.4656	543.39
28.4801	510.89
28.4945	514.92
28.5089	480.65
28.5234	527.45
28.5378	519.01
28.5523	527.45
28.5667	508.39
28.5811	497.64
28.5956	516.38
28.6100	523.03
28.6245	527.79
28.6389	508.46
28.6533	510.32
28.6678	519.09
28.6822	526.45
28.6967	498.58
28.7111	543.76
28.7255	494.98
28.7400	536.35
28.7544	512.85
28.7689	499.28
28.7833	494.79
28.7977	543.62
28.8122	551.84
28.8266	516.37
28.8411	524.17
28.8555	518.91
28.8699	521.98
28.8844	507.45
28.8988	500.86
28.9133	517.22
28.9277	525.63
28.9421	488.61
28.9566	513.86
28.9710	493.65
28.9855	484.99
28.9999	506.11
29.0143	519.13
29.0288	561.01
29.0432	487.90
29.0577	473.46
29.0721	519.86
29.0865	567.88
29.1010	490.44
29.1154	527.71
29.1299	511.59
29.1443	499.95
29.1587	525.46
29.1732	526.71
29.1876	496.15
29.2021	498.06
29.2165	518.73
29.2309	499.58
29.2454	529.25
29.2598	495.56
29.2743	516.69
29.2887	555.70
29.3031	515.41
29.3176	520.40
29.3320	530.61
29.3465	533.14
29.3609	525.97
29.3753	542.38
29.3898	493.13
29.4042	518.03
29.4187	506.22
29.4331	536.71
29.4475	508.12
29.4620	506.01
29.4764	541.97
29.4909	518.42
29.5053	521.88
29.5197	503.90
29.5342	514.90
29.5486	507.96
29.5631	497.59
29.5775	500.00
29.5919	514.19
29.6064	508.67
29.6208	476.87
29.6353	535.09
29.6497	503.07
29.6641	509.86
29.6786	560.35
29.6930	502.77
29.7075	470.36
29.7219	476.66
29.7363	496.33
29.7508	499.08
29.7652	528.93
29.7797	491.46
29.7941	475.76
29.8085	505.29
29.8230	531.37
29.8374	507.51
29.8519	529.77
29.8663	521.77
29.8807	516.45
29.8952	529.54
29.9096	526.76
29.9241	518.63
29.9385	542.86
29.9529	514.15
29.9674	510.60
29.9818	492.87
29.9963	517.14
30.0107	514.65
30.0251	489.65
30.0396	489.61
30.0540	520.31
30.0685	495.27
30.0829	515.73
30.0973	519.22
30.1118	516.32
30.1262	498.33
30.1407	510.86
30.1551	494.75
30.1695	521.26
30.1840	515.61
30.1984	525.25
30.2129	508.23
30.2273	533.80
30.2417	511.80
30.2562	509.09
30.2706	502.98
30.2851	515.41
30.2995	517.54
30.3139	513.35
30.3284	534.78
30.3428	528.52
30.3573	493.16
30.3717	487.49
30.3861	513.62
30.4006	499.71
30.4150	528.50
30.4295	495.72
30.4439	532.89
30.4583	516.48
30.4728	500.73
30.4872	541.15
30.5017	535.48
30.5161	519.65
30.5305	519.27
30.5450	519.93
30.5594	480.93
30.5739	501.33
30.5883	525.66
30.6028	522.24
30.6172	503.05
30.6316	534.93
30.6461	548.18
30.6605	555.15
30.6750	532.66
30.6894	562.42
30.7038	520.51
30.7183	535.83
30.7327	558.41
30.7472	568.80
30.7616	578.36
30.7760	588.57
30.7905	661.09
30.8049	633.90
30.8194	613.42
30.8338	654.49
30.8482	679.64
30.8627	712.13
30.8771	698.62
30.8916	708.40
30.9060	723.50
30.9204	744.80
30.9349	666.34
30.9493	620.13
30.9638	643.95
30.9782	619.62
30.9926	568.55
31.0071	547.42
31.0215	566.32
31.0360	549.63
31.0504	547.90
31.0648	522.66
31.0793	522.18
31.0937	531.32
31.1082	516.96
31.1226	532.75
31.1370	517.46
31.1515	480.48
31.1659	510.88
31.1804	510.81
31.1948	502.73
31.2092	510.72
31.2237	527.14
31.2381	545.05
31.2526	512.57
31.2670	550.04
31.2814	539.02
31.2959	545.21
31.3103	540.41
31.3248	538.69
31.3392	532.69
31.3536	525.58
31.3681	539.38
31.3825	530.75
31.3970	515.86
31.4114	506.96
31.4258	549.78
31.4403	531.44
31.4547	495.86
31.4692	521.58
31.4836	509.72
31.4980	521.76
31.5125	501.42
31.5269	522.79
31.5414	483.39
31.5558	477.85
31.5702	475.60
31.5847	522.60
31.5991	513.94
31.6136	483.00
31.6280	501.96
31.6424	508.95
31.6569	499.91
31.6713	544.67
31.6858	501.46
31.7002	501.57
31.7146	487.55
31.7291	501.29
31.7435	528.28
31.7580	521.80
31.7724	487.15
31.7868	493.88
31.8013	503.82
31.8157	492.01
31.8302	513.96
31.8446	540.93
31.8590	542.66
31.8735	521.00
31.8879	521.88
31.9024	552.27
31.9168	485.66
31.9312	473.86
31.9457	562.24
31.9601	474.16
31.9746	466.41
31.9890	504.51
32.0034	498.75
32.0179	481.30
32.0323	503.26
32.0468	511.27
32.0612	501.26
32.0756	514.59
32.0901	493.57
32.1045	504.60
32.1190	519.31
32.1334	530.83
32.1478	503.10
32.1623	527.25
32.1767	478.38
32.1912	498.82
32.2056	499.99
32.2200	518.06
32.2345	478.81
32.2489	526.37
32.2634	489.46
32.2778	514.55
32.2922	511.07
32.3067	524.06
32.3211	478.31
32.3356	510.50
32.3500	524.13
32.3644	506.92
32.3789	472.37
32.3933	499.29
32.4078	491.89
32.4222	541.26
32.4366	526.32
32.4511	477.70
32.4655	506.91
32.4800	515.02
32.4944	487.53
32.5088	461.76
32.5233	468.63
32.5377	521.48
32.5522	527.21
32.5666	501.72
32.5810	513.76
32.5955	534.35
32.6099	546.77
32.6244	494.30
32.6388	492.54
32.6532	534.06
32.6677	503.59
32.6821	513.84
32.6966	509.51
32.7110	515.93
32.7254	475.35
32.7399	491.16
32.7543	513.17
32.7688	530.49
32.7832	516.80
32.7976	551.12
32.8121	519.93
32.8265	518.27
32.8410	522.74
32.8554	531.36
32.8698	525.02
32.8843	488.58
32.8987	521.19
32.9132	501.31
32.9276	541.24
32.9420	514.94
32.9565	517.74
32.9709	511.09
32.9854	489.51
32.9998	506.80
33.0142	527.13
33.0287	493.61
33.0431	482.17
33.0576	478.72
33.0720	520.86
33.0864	542.54
33.1009	543.00
33.1153	500.54
33.1298	529.94
33.1442	500.91
33.1586	471.47
33.1731	504.73
33.1875	484.97
33.2020	486.57
33.2164	504.79
33.2308	511.81
33.2453	491.61
33.2597	472.38
33.2742	525.99
33.2886	503.88
33.3030	504.44
33.3175	487.96
33.3319	512.42
33.3464	514.47
33.3608	487.55
33.3752	486.09
33.3897	502.27
33.4041	482.74
33.4186	512.47
33.4330	549.54
33.4474	497.12
33.4619	509.46
33.4763	548.36
33.4908	462.35
33.5052	484.67
33.5196	492.74
33.5341	498.70
33.5485	505.32
33.5630	533.39
33.5774	488.01
33.5918	529.37
33.6063	525.50
33.6207	500.07
33.6352	497.54
33.6496	503.30
33.6640	535.52
33.6785	522.75
33.6929	467.30
33.7074	487.12
33.7218	527.96
33.7362	505.86
33.7507	509.97
33.7651	518.34
33.7796	505.68
33.7940	467.75
33.8084	489.72
33.8229	531.49
33.8373	522.16
33.8518	500.76
33.8662	523.90
33.8806	475.88
33.8951	537.11
33.9095	540.03
33.9240	516.91
33.9384	494.64
33.9528	477.35
33.9673	481.78
33.9817	493.47
33.9962	468.44
34.0106	450.20
34.0250	488.02
34.0395	525.55
34.0539	529.47
34.0684	544.50
34.0828	502.39
34.0972	489.00
34.1117	518.00
34.1261	508.50
34.1406	540.01
34.1550	521.16
34.1694	520.04
34.1839	537.99
34.1983	511.69
34.2128	517.48
34.2272	508.37
34.2417	509.08
34.2561	524.30
34.2705	543.16
34.2850	509.10
34.2994	481.56
34.3139	497.68
34.3283	501.60
34.3427	495.91
34.3572	511.47
34.3716	533.28
34.3861	513.74
34.4005	468.85
34.4149	493.42
34.4294	532.02
34.4438	502.76
34.4583	473.24
34.4727	513.87
34.4871	548.90
34.5016	513.35
34.5160	518.54
34.5305	515.90
34.5449	495.15
34.5593	546.32
34.5738	519.97
34.5882	520.66
34.6027	504.50
34.6171	518.21
34.6315	491.46
34.6460	493.39
34.6604	474.27
34.6749	531.36
34.6893	520.07
34.7037	523.80
34.7182	476.58
34.7326	494.19
34.7471	522.63
34.7615	516.68
34.7759	495.79
34.7904	507.74
34.8048	503.52
34.8193	526.45
34.8337	514.04
34.8481	488.36
34.8626	501.41
34.8770	493.56
34.8915	473.65
34.9059	546.59
34.9203	531.53
34.9348	541.03
34.9492	508.19
34.9637	499.46
34.9781	527.60
34.9925	509.13
35.0070	484.67
35.0214	516.13
35.0359	492.39
35.0503	489.55
35.0647	510.52
35.0792	532.43
35.0936	518.35
35.1081	509.11
35.1225	518.55
35.1369	493.52
35.1514	478.00
35.1658	509.01
35.1803	503.15
35.1947	486.74
35.2091	504.19
35.2236	530.41
35.2380	499.76
35.2525	525.96
35.2669	487.58
35.2813	508.12
35.2958	505.82
35.3102	512.88
35.3247	521.34
35.3391	517.05
35.3535	530.76
35.3680	502.13
35.3824	487.56
35.3969	467.27
35.4113	501.91
35.4257	499.24
35.4402	504.09
35.4546	541.21
35.4691	515.68
35.4835	493.24
35.4979	521.55
35.5124	497.39
35.5268	520.51
35.5413	515.48
35.5557	536.82
35.5701	539.62
35.5846	522.99
35.5990	490.00
35.6135	518.02
35.6279	521.98
35.6423	568.25
35.6568	530.63
35.6712	508.63
35.6857	558.84
35.7001	630.82
35.7145	709.02
35.7290	709.76
35.7434	609.22
35.7579	562.79
35.7723	548.15
35.7867	598.26
35.8012	647.00
35.8156	667.34
35.8301	621.06
35.8445	627.99
35.8589	663.32
35.8734	699.73
35.8878	862.90
35.9023	1042.93
35.9167	1134.89
35.9311	1440.83
35.9456	2255.90
35.9600	2326.48
35.9745	1807.97
35.9889	1804.42
36.0033	2264.43
36.0178	2291.31
36.0322	1994.29
36.0467	1887.54
36.0611	1613.46
36.0755	1578.82
36.0900	1494.71
36.1044	1360.82
36.1189	1299.99
36.1333	1210.34
36.1477	1045.58
36.1622	1026.11
36.1766	960.63
36.1911	927.76
36.2055	823.58
36.2199	785.84
36.2344	825.72
36.2488	840.22
36.2633	828.38
36.2777	841.11
36.2921	908.58
36.3066	925.58
36.3210	944.76
36.3355	1007.49
36.3499	1003.45
36.3643	975.43
36.3788	990.52
36.3932	948.86
36.4077	935.17
36.4221	973.70
36.4365	868.24
36.4510	833.43
36.4654	812.53
36.4799	775.44
36.4943	745.90
36.5087	690.97
36.5232	663.17
36.5376	649.97
36.5521	631.23
36.5665	615.99
36.5809	609.73
36.5954	609.36
36.6098	584.87
36.6243	569.51
36.6387	537.76
36.6531	528.49
36.6676	546.73
36.6820	547.48
36.6965	547.44
36.7109	569.89
36.7253	535.59
36.7398	551.02
36.7542	551.48
36.7687	559.57
36.7831	582.40
36.7975	576.50
36.8120	564.32
36.8264	561.75
36.8409	608.67
36.8553	596.85
36.8697	615.01
36.8842	589.52
36.8986	633.26
36.9131	647.78
36.9275	614.04
36.9419	556.94
36.9564	548.50
36.9708	571.27
36.9853	559.89
36.9997	552.21
37.0141	578.02
37.0286	526.21
37.0430	511.70
37.0575	516.80
37.0719	516.66
37.0863	514.87
37.1008	526.83
37.1152	527.77
37.1297	511.35
37.1441	530.24
37.1585	502.05
37.1730	495.53
37.1874	489.04
37.2019	492.62
37.2163	517.87
37.2307	501.87
37.2452	508.50
37.2596	512.22
37.2741	528.48
37.2885	520.49
37.3029	496.36
37.3174	481.27
37.3318	472.48
37.3463	474.89
37.3607	503.36
37.3751	507.65
37.3896	505.25
37.4040	508.97
37.4185	525.52
37.4329	507.26
37.4473	492.69
37.4618	507.14
37.4762	512.73
37.4907	489.32
37.5051	511.39
37.5195	498.80
37.5340	503.45
37.5484	513.90
37.5629	487.75
37.5773	506.14
37.5917	502.59
37.6062	477.75
37.6206	483.15
37.6351	478.84
37.6495	500.26
37.6639	511.80
37.6784	513.34
37.6928	512.12
37.7073	515.47
37.7217	481.99
37.7361	505.18
37.7506	494.91
37.7650	509.11
37.7795	509.32
37.7939	497.55
37.8083	522.94
37.8228	480.21
37.8372	519.73
37.8517	539.46
37.8661	518.08
37.8805	489.71
37.8950	517.25
37.9094	513.78
37.9239	574.67
37.9383	529.69
37.9528	505.25
37.9672	495.48
37.9816	512.17
37.9961	483.93
38.0105	467.56
38.0250	495.31
38.0394	503.83
38.0538	535.62
38.0683	519.52
38.0827	522.88
38.0972	543.91
38.1116	502.67
38.1260	527.87
38.1405	502.23
38.1549	460.18
38.1694	510.83
38.1838	517.49
38.1982	504.87
38.2127	493.14
38.2271	479.47
38.2416	495.62
38.2560	507.32
38.2704	496.11
38.2849	525.00
38.2993	476.46
38.3138	496.44
38.3282	515.15
38.3426	516.83
38.3571	498.55
38.3715	534.05
38.3860	504.51
38.4004	521.83
38.4148	555.53
38.4293	601.86
38.4437	591.37
38.4582	632.22
38.4726	680.27
38.4870	716.88
38.5015	770.38
38.5159	787.49
38.5304	800.34
38.5448	788.05
38.5592	816.79
38.5737	755.80
38.5881	763.72
38.6026	766.80
38.6170	694.88
38.6314	659.32
38.6459	658.37
38.6603	638.41
38.6748	603.76
38.6892	552.35
38.7036	555.13
38.7181	550.71
38.7325	539.32
38.7470	512.50
38.7614	496.52
38.7758	522.30
38.7903	537.85
38.8047	539.31
38.8192	531.15
38.8336	520.17
38.8480	522.28
38.8625	543.68
38.8769	526.48
38.8914	508.21
38.9058	542.11
38.9202	475.24
38.9347	479.72
38.9491	500.27
38.9636	502.36
38.9780	491.82
38.9924	481.24
39.0069	487.98
39.0213	515.80
39.0358	504.50
39.0502	495.72
39.0646	518.62
39.0791	536.00
39.0935	506.13
39.1080	487.57
39.1224	513.26
39.1368	503.42
39.1513	492.89
39.1657	519.48
39.1802	535.68
39.1946	513.29
39.2090	501.11
39.2235	503.94
39.2379	507.61
39.2524	509.01
39.2668	494.74
39.2812	525.53
39.2957	513.26
39.3101	517.18
39.3246	519.41
39.3390	552.04
39.3534	503.22
39.3679	494.60
39.3823	525.31
39.3968	491.17
39.4112	502.36
39.4256	519.56
39.4401	507.38
39.4545	517.66
39.4690	480.21
39.4834	484.95
39.4978	515.22
39.5123	501.61
39.5267	478.48
39.5412	520.91
39.5556	492.03
39.5700	501.29
39.5845	489.12
39.5989	489.31
39.6134	497.69
39.6278	496.61
39.6422	509.96
39.6567	480.85
39.6711	476.15
39.6856	506.64
39.7000	491.47
39.7144	504.04
39.7289	492.98
39.7433	497.30
39.7578	490.03
39.7722	512.90
39.7866	498.57
39.8011	501.26
39.8155	504.54
39.8300	478.21
39.8444	493.38
39.8588	523.90
39.8733	526.97
39.8877	472.13
39.9022	499.57
39.9166	520.74
39.9310	499.86
39.9455	532.12
39.9599	500.44
39.9744	448.68
39.9888	529.67
40.0032	492.04
40.0177	474.97
40.0321	502.42
40.0466	496.22
40.0610	504.55
40.0754	506.12
40.0899	528.37
40.1043	455.28
40.1188	502.98
40.1332	511.27
40.1476	457.54
40.1621	494.57
40.1765	478.47
40.1910	454.51
40.2054	503.24
40.2198	557.53
40.2343	502.56
40.2487	512.91
40.2632	505.02
40.2776	509.72
40.2920	467.38
40.3065	487.25
40.3209	513.98
40.3354	485.71
40.3498	484.06
40.3642	495.81
40.3787	496.57
40.3931	503.64
40.4076	470.22
40.4220	467.84
40.4364	521.34
40.4509	472.34
40.4653	484.77
40.4798	482.18
40.4942	467.86
40.5086	473.22
40.5231	484.73
40.5375	521.71
40.5520	505.69
40.5664	504.64
40.5808	484.37
40.5953	514.29
40.6097	470.38
40.6242	507.37
40.6386	499.25
40.6530	505.56
40.6675	499.85
40.6819	497.54
40.6964	492.69
40.7108	521.29
40.7252	522.29
40.7397	508.57
40.7541	490.08
40.7686	507.46
40.7830	542.47
40.7974	497.29
40.8119	467.36
40.8263	516.64
40.8408	492.90
40.8552	489.67
40.8696	484.69
40.8841	484.82
40.8985	511.34
40.9130	514.76
40.9274	550.90
40.9418	523.38
40.9563	467.97
40.9707	480.02
40.9852	472.27
40.9996	451.84
41.0140	474.29
41.0285	504.87
41.0429	514.82
41.0574	541.78
41.0718	495.81
41.0862	490.30
41.1007	527.24
41.1151	507.01
41.1296	491.66
41.1440	488.20
41.1584	487.69
41.1729	531.35
41.1873	487.98
41.2018	524.40
41.2162	491.58
41.2306	470.97
41.2451	486.85
41.2595	489.84
41.2740	500.09
41.2884	496.64
41.3028	492.18
41.3173	487.80
41.3317	494.76
41.3462	538.43
41.3606	518.74
41.3750	519.90
41.3895	498.77
41.4039	501.88
41.4184	503.93
41.4328	509.01
41.4472	510.11
41.4617	485.28
41.4761	519.83
41.4906	494.54
41.5050	503.38
41.5194	497.44
41.5339	485.13
41.5483	497.18
41.5628	506.84
41.5772	469.22
41.5916	530.46
41.6061	516.57
41.6205	493.70
41.6350	520.68
41.6494	484.63
41.6639	495.74
41.6783	483.59
41.6927	489.39
41.7072	519.23
41.7216	519.60
41.7361	523.17
41.7505	535.30
41.7649	497.35
41.7794	496.11
41.7938	501.09
41.8083	509.77
41.8227	499.05
41.8371	498.55
41.8516	519.95
41.8660	501.36
41.8805	512.55
41.8949	525.48
41.9093	550.84
41.9238	544.08
41.9382	564.87
41.9527	555.08
41.9671	544.03
41.9815	599.56
41.9960	557.59
42.0104	571.36
42.0249	548.76
42.0393	536.37
42.0537	577.52
42.0682	612.85
42.0826	632.14
42.0971	604.17
42.1115	629.61
42.1259	594.38
42.1404	592.79
42.1548	609.39
42.1693	686.46
42.1837	710.25
42.1981	717.84
42.2126	797.23
42.2270	916.93
42.2415	1042.60
42.2559	1179.38
42.2703	1305.91
42.2848	1427.58
42.2992	1537.31
42.3137	1621.26
42.3281	1603.66
42.3425	1503.12
42.3570	1421.05
42.3714	1368.09
42.3859	1353.67
42.4003	1349.52
42.4147	1285.10
42.4292	1268.61
42.4436	1111.66
42.4581	998.25
42.4725	929.78
42.4869	828.89
42.5014	757.63
42.5158	704.95
42.5303	676.27
42.5447	632.90
42.5591	594.88
42.5736	587.52
42.5880	576.94
42.6025	579.03
42.6169	560.96
42.6313	550.64
42.6458	552.29
42.6602	540.19
42.6747	534.93
42.6891	580.78
42.7035	570.71
42.7180	537.35
42.7324	506.50
42.7469	518.04
42.7613	495.20
42.7757	539.86
42.7902	548.91
42.8046	509.98
42.8191	509.56
42.8335	521.94
42.8479	495.16
42.8624	543.19
42.8768	515.02
42.8913	498.81
42.9057	554.96
42.9201	557.77
42.9346	552.77
42.9490	517.00
42.9635	501.37
42.9779	525.62
42.9923	496.21
43.0068	470.83
43.0212	516.80
43.0357	534.98
43.0501	520.59
43.0645	509.25
43.0790	490.10
43.0934	509.16
43.1079	533.59
43.1223	517.85
43.1367	501.98
43.1512	516.20
43.1656	545.98
43.1801	501.20
43.1945	501.12
43.2089	555.54
43.2234	533.10
43.2378	508.79
43.2523	492.32
43.2667	498.52
43.2811	543.96
43.2956	494.03
43.3100	533.03
43.3245	519.73
43.3389	513.08
43.3533	524.92
43.3678	512.28
43.3822	489.64
43.3967	499.12
43.4111	538.86
43.4255	514.73
43.4400	520.00
43.4544	527.78
43.4689	534.61
43.4833	528.55
43.4977	508.06
43.5122	526.15
43.5266	485.85
43.5411	554.69
43.5555	519.82
43.5699	504.51
43.5844	491.42
43.5988	506.91
43.6133	506.78
43.6277	511.39
43.6421	502.45
43.6566	535.69
43.6710	496.79
43.6855	508.79
43.6999	537.35
43.7143	505.32
43.7288	534.18
43.7432	517.90
43.7577	529.55
43.7721	515.18
43.7865	514.13
43.8010	510.16
43.8154	527.44
43.8299	525.54
43.8443	513.01
43.8587	532.74
43.8732	531.13
43.8876	508.68
43.9021	517.51
43.9165	499.32
43.9309	498.28
43.9454	477.91
43.9598	503.85
43.9743	515.05
43.9887	523.74
44.0031	526.45
44.0176	547.37
44.0320	542.47
44.0465	549.86
44.0609	561.99
44.0753	534.91
44.0898	555.29
44.1042	584.34
44.1187	561.44
44.1331	602.66
44.1475	601.96
44.1620	627.72
44.1764	645.90
44.1909	626.87
44.2053	614.26
44.2197	609.70
44.2342	620.09
44.2486	631.07
44.2631	602.46
44.2775	602.12
44.2919	600.28
44.3064	598.67
44.3208	595.14
44.3353	587.89
44.3497	551.71
44.3641	576.85
44.3786	571.87
44.3930	559.04
44.4075	550.23
44.4219	586.89
44.4363	596.54
44.4508	590.70
44.4652	614.53
44.4797	583.31
44.4941	579.75
44.5085	581.33
44.5230	585.47
44.5374	586.04
44.5519	569.29
44.5663	577.32
44.5807	560.67
44.5952	565.96
44.6096	557.99
44.6241	568.41
44.6385	546.87
44.6529	541.40
44.6674	576.52
44.6818	606.55
44.6963	594.40
44.7107	654.61
44.7251	686.94
44.7396	773.72
44.7540	845.48
44.7685	870.97
44.7829	897.64
44.7973	871.23
44.8118	870.88
44.8262	773.27
44.8407	746.05
44.8551	750.28
44.8695	716.94
44.8840	753.46
44.8984	747.25
44.9129	712.30
44.9273	718.65
44.9417	680.43
44.9562	580.85
44.9706	552.65
44.9851	528.96
44.9995	540.66
45.0139	512.69
45.0284	549.76
45.0428	526.32
45.0573	495.30
45.0717	518.36
45.0861	514.09
45.1006	518.14
45.1150	525.93
45.1295	539.03
45.1439	494.89
45.1583	505.50
45.1728	532.18
45.1872	520.05
45.2017	513.95
45.2161	527.67
45.2305	530.86
45.2450	529.12
45.2594	500.36
45.2739	536.60
45.2883	543.69
45.3028	540.69
45.3172	503.43
45.3316	513.98
45.3461	493.27
45.3605	556.10
45.3750	520.01
45.3894	495.78
45.4038	513.34
45.4183	522.14
45.4327	530.45
45.4472	514.23
45.4616	484.91
45.4760	524.34
45.4905	532.91
45.5049	487.38
45.5194	530.49
45.5338	498.46
45.5482	507.60
45.5627	517.00
45.5771	517.70
45.5916	533.23
45.6060	535.38
45.6204	499.18
45.6349	517.98
45.6493	520.09
45.6638	516.74
45.6782	511.02
45.6926	531.67
45.7071	535.83
45.7215	483.19
45.7360	478.57
45.7504	514.44
45.7648	490.41
45.7793	508.76
45.7937	521.80
45.8082	484.19
45.8226	509.88
45.8370	523.90
45.8515	527.18
45.8659	538.66
45.8804	496.03
45.8948	501.56
45.9092	538.25
45.9237	501.37
45.9381	507.03
45.9526	508.47
45.9670	539.10
45.9814	526.28
45.9959	494.37
46.0103	477.10
46.0248	529.64
46.0392	552.46
46.0536	486.44
46.0681	510.94
46.0825	511.09
46.0970	493.72
46.1114	473.06
46.1258	511.02
46.1403	489.70
46.1547	460.80
46.1692	470.83
46.1836	492.46
46.1980	471.39
46.2125	496.57
46.2269	489.72
46.2414	516.37
46.2558	504.76
46.2702	522.63
46.2847	472.01
46.2991	496.29
46.3136	520.98
46.3280	495.13
46.3424	481.92
46.3569	457.43
46.3713	515.84
46.3858	494.66
46.4002	494.10
46.4146	512.49
46.4291	489.83
46.4435	498.30
46.4580	495.63
46.4724	514.58
46.4868	511.91
46.5013	513.61
46.5157	499.92
46.5302	505.73
46.5446	500.56
46.5590	503.46
46.5735	514.31
46.5879	516.85
46.6024	497.48
46.6168	492.44
46.6312	499.50
46.6457	505.06
46.6601	501.35
46.6746	503.56
46.6890	509.71
46.7034	489.16
46.7179	467.37
46.7323	502.19
46.7468	490.04
46.7612	474.41
46.7756	498.06
46.7901	500.53
46.8045	522.76
46.8190	515.44
46.8334	499.51
46.8478	525.78
46.8623	523.86
46.8767	507.64
46.8912	491.54
46.9056	507.12
46.9200	536.50
46.9345	526.89
46.9489	503.83
46.9634	457.02
46.9778	468.21
46.9922	516.69
47.0067	528.07
47.0211	516.92
47.0356	515.85
47.0500	569.00
47.0644	540.03
47.0789	491.51
47.0933	468.86
47.1078	512.32
47.1222	534.45
47.1366	515.22
47.1511	520.16
47.1655	525.26
47.1800	537.90
47.1944	507.45
47.2088	524.35
47.2233	497.77
47.2377	516.31
47.2522	516.79
47.2666	498.22
47.2810	496.24
47.2955	506.90
47.3099	537.80
47.3244	514.93
47.3388	507.18
47.3532	489.56
47.3677	479.10
47.3821	511.75
47.3966	504.98
47.4110	480.55
47.4254	515.01
47.4399	514.54
47.4543	495.90
47.4688	515.57
47.4832	548.37
47.4976	530.69
47.5121	483.56
47.5265	511.89
47.5410	508.46
47.5554	511.75
47.5698	499.56
47.5843	504.52
47.5987	535.78
47.6132	508.97
47.6276	491.95
47.6420	492.36
47.6565	501.51
47.6709	488.15
47.6854	493.88
47.6998	469.84
47.7142	522.97
47.7287	485.79
47.7431	493.31
47.7576	474.89
47.7720	497.86
47.7864	506.50
47.8009	497.70
47.8153	509.99
47.8298	514.56
47.8442	512.52
47.8586	491.53
47.8731	501.59
47.8875	488.25
47.9020	505.48
47.9164	509.58
47.9308	517.77
47.9453	517.59
47.9597	488.29
47.9742	501.79
47.9886	512.12
48.0030	464.07
48.0175	544.38
48.0319	504.08
48.0464	498.00
48.0608	552.46
48.0752	547.58
48.0897	524.52
48.1041	536.33
48.1186	519.15
48.1330	497.42
48.1474	496.42
48.1619	514.15
48.1763	497.60
48.1908	507.67
48.2052	493.10
48.2196	507.66
48.2341	512.14
48.2485	495.88
48.2630	497.58
48.2774	516.01
48.2918	536.41
48.3063	522.53
48.3207	514.83
48.3352	526.26
48.3496	517.82
48.3640	524.12
48.3785	535.66
48.3929	510.23
48.4074	490.60
48.4218	522.04
48.4362	518.83
48.4507	525.91
48.4651	512.44
48.4796	501.61
48.4940	507.87
48.5084	503.74
48.5229	508.32
48.5373	527.83
48.5518	505.34
48.5662	549.88
48.5806	488.72
48.5951	524.76
48.6095	544.76
48.6240	522.77
48.6384	530.89
48.6528	533.91
48.6673	509.48
48.6817	490.91
48.6962	515.62
48.7106	535.41
48.7250	518.98
48.7395	540.84
48.7539	539.01
48.7684	527.72
48.7828	551.83
48.7972	486.61
48.8117	490.61
48.8261	548.90
48.8406	570.36
48.8550	522.09
48.8694	529.69
48.8839	529.56
48.8983	541.69
48.9128	533.78
48.9272	563.64
48.9416	538.43
48.9561	503.25
48.9705	563.49
48.9850	601.27
48.9994	591.29
49.0139	607.08
49.0283	619.08
49.0427	638.49
49.0572	606.93
49.0716	648.21
49.0861	644.27
49.1005	702.22
49.1149	712.28
49.1294	759.25
49.1438	722.17
49.1583	791.23
49.1727	858.07
49.1871	869.68
49.2016	923.68
49.2160	1036.70
49.2305	1092.86
49.2449	1176.13
49.2593	1246.15
49.2738	1360.12
49.2882	1380.40
49.3027	1479.70
49.3171	1560.01
49.3315	1749.67
49.3460	1720.09
49.3604	1808.30
49.3749	1761.66
49.3893	1700.11
49.4037	1716.33
49.4182	1663.62
49.4326	1689.03
49.4471	1590.93
49.4615	1633.36
49.4759	1591.27
49.4904	1471.98
49.5048	1395.49
49.5193	1331.72
49.5337	1269.36
49.5481	1187.26
49.5626	1146.64
49.5770	1048.34
49.5915	968.78
49.6059	951.59
49.6203	881.23
49.6348	843.69
49.6492	781.41
49.6637	762.81
49.6781	736.56
49.6925	701.79
49.7070	692.78
49.7214	639.98
49.7359	614.82
49.7503	653.55
49.7647	609.59
49.7792	582.94
49.7936	568.37
49.8081	608.70
49.8225	591.00
49.8369	574.67
49.8514	567.83
49.8658	569.84
49.8803	570.01
49.8947	570.32
49.9091	556.79
49.9236	558.61
49.9380	534.08
49.9525	536.19
49.9669	512.85
49.9813	532.66
49.9958	526.31
50.0102	535.11
50.0247	521.38
50.0391	543.30
50.0535	530.95
50.0680	547.16
50.0824	542.66
50.0969	530.93
50.1113	526.20
50.1257	551.95
50.1402	501.54
50.1546	509.80
50.1691	542.53
50.1835	540.69
50.1979	486.52
50.2124	512.20
50.2268	509.74
50.2413	524.99
50.2557	504.11
50.2701	527.40
50.2846	495.71
50.2990	508.09
50.3135	526.22
50.3279	495.63
50.3423	511.43
50.3568	511.80
50.3712	508.21
50.3857	489.57
50.4001	523.49
50.4145	528.64
50.4290	542.94
50.4434	488.39
50.4579	488.29
50.4723	520.77
50.4867	520.40
50.5012	474.90
50.5156	488.62
50.5301	477.53
50.5445	521.53
50.5589	486.81
50.5734	514.99
50.5878	490.25
50.6023	510.07
50.6167	526.44
50.6311	484.21
50.6456	511.47
50.6600	542.93
50.6745	506.01
50.6889	492.09
50.7033	551.00
50.7178	533.04
50.7322	524.48
50.7467	504.70
50.7611	509.53
50.7755	491.47
50.7900	478.55
50.8044	519.76
50.8189	512.36
50.8333	505.58
50.8477	512.21
50.8622	488.50
50.8766	530.11
50.8911	507.17
50.9055	509.49
50.9199	500.23
50.9344	483.22
50.9488	496.54
50.9633	493.64
50.9777	488.02
50.9921	504.25
51.0066	474.84
51.0210	480.77
51.0355	494.52
51.0499	490.61
51.0643	506.80
51.0788	502.10
51.0932	512.13
51.1077	504.41
51.1221	496.46
51.1365	502.15
51.1510	467.72
51.1654	478.79
51.1799	471.98
51.1943	496.38
51.2087	527.05
51.2232	517.38
51.2376	524.09
51.2521	568.88
51.2665	513.58
51.2809	543.72
51.2954	511.45
51.3098	502.12
51.3243	504.88
51.3387	541.87
51.3531	488.93
51.3676	503.65
51.3820	498.70
51.3965	483.66
51.4109	507.21
51.4253	515.22
51.4398	506.26
51.4542	498.35
51.4687	564.33
51.4831	516.43
51.4975	508.31
51.5120	509.58
51.5264	513.35
51.5409	496.42
51.5553	512.16
51.5697	499.66
51.5842	503.41
51.5986	486.30
51.6131	511.23
51.6275	508.74
51.6419	502.11
51.6564	486.33
51.6708	495.38
51.6853	480.07
51.6997	506.53
51.7141	529.22
51.7286	519.09
51.7430	530.51
51.7575	510.60
51.7719	518.90
51.7863	532.74
51.8008	516.32
51.8152	535.26
51.8297	527.40
51.8441	510.04
51.8585	512.31
51.8730	511.83
51.8874	516.72
51.9019	521.27
51.9163	513.82
51.9307	513.57
51.9452	512.50
51.9596	489.15
51.9741	503.75
51.9885	502.33
52.0029	514.69
52.0174	511.52
52.0318	520.92
52.0463	511.97
52.0607	532.53
52.0751	473.75
52.0896	515.55
52.1040	514.08
52.1185	504.36
52.1329	534.52
52.1473	464.37
52.1618	495.33
52.1762	519.51
52.1907	504.38
52.2051	514.07
52.2195	522.46
52.2340	545.69
52.2484	520.08
52.2629	516.68
52.2773	499.23
52.2917	518.77
52.3062	503.24
52.3206	504.66
52.3351	539.68
52.3495	533.03
52.3639	518.51
52.3784	471.18
52.3928	481.09
52.4073	511.91
52.4217	521.18
52.4361	494.83
52.4506	488.13
52.4650	523.31
52.4795	519.76
52.4939	535.65
52.5083	512.73
52.5228	513.02
52.5372	504.13
52.5517	497.32
52.5661	512.43
52.5805	520.74
52.5950	511.52
52.6094	502.11
52.6239	500.15
52.6383	467.35
52.6527	515.63
52.6672	525.73
52.6816	511.78
52.6961	497.09
52.7105	525.69
52.7250	490.61
52.7394	531.12
52.7538	509.41
52.7683	521.71
52.7827	499.23
52.7972	506.50
52.8116	510.98
52.8260	524.57
52.8405	533.27
52.8549	510.76
52.8694	516.95
52.8838	505.10
52.8982	534.80
52.9127	485.34
52.9271	498.58
52.9416	478.62
52.9560	490.41
52.9704	516.24
52.9849	467.66
52.9993	522.30
53.0138	525.23
53.0282	525.77
53.0426	539.78
53.0571	526.41
53.0715	519.49
53.0860	545.44
53.1004	530.27
53.1148	521.53
53.1293	559.72
53.1437	533.00
53.1582	510.84
53.1726	506.92
53.1870	528.11
53.2015	481.60
53.2159	476.86
53.2304	532.87
53.2448	537.77
53.2592	504.26
53.2737	486.78
53.2881	527.81
53.3026	529.22
53.3170	525.49
53.3314	515.86
53.3459	513.68
53.3603	495.30
53.3748	534.36
53.3892	482.93
53.4036	507.27
53.4181	502.64
53.4325	536.69
53.4470	471.24
53.4614	529.39
53.4758	540.15
53.4903	517.81
53.5047	518.79
53.5192	516.41
53.5336	515.76
53.5480	514.69
53.5625	506.17
53.5769	509.95
53.5914	500.99
53.6058	515.93
53.6202	494.72
53.6347	512.67
53.6491	519.31
53.6636	507.64
53.6780	489.08
53.6924	494.58
53.7069	560.67
53.7213	515.47
53.7358	496.64
53.7502	531.72
53.7646	498.00
53.7791	540.43
53.7935	492.62
53.8080	534.16
53.8224	517.31
53.8368	511.99
53.8513	518.89
53.8657	534.44
53.8802	521.24
53.8946	551.33
53.9090	507.56
53.9235	516.80
53.9379	490.38
53.9524	484.33
53.9668	487.42
53.9812	501.53
53.9957	507.29
54.0101	506.87
54.0246	510.13
54.0390	524.96
54.0534	496.24
54.0679	513.18
54.0823	503.70
54.0968	520.75
54.1112	516.70
54.1256	551.75
54.1401	513.79
54.1545	501.24
54.1690	528.59
54.1834	492.79
54.1978	513.79
54.2123	527.03
54.2267	553.12
54.2412	543.79
54.2556	528.96
54.2700	507.25
54.2845	542.76
54.2989	539.25
54.3134	533.02
54.3278	512.31
54.3422	517.16
54.3567	517.29
54.3711	525.24
54.3856	538.21
54.4000	528.34
54.4144	521.28
54.4289	536.18
54.4433	489.32
54.4578	484.29
54.4722	510.39
54.4866	520.01
54.5011	533.76
54.5155	530.88
54.5300	536.38
54.5444	524.88
54.5588	506.43
54.5733	518.33
54.5877	519.39
54.6022	510.45
54.6166	479.57
54.6310	551.34
54.6455	586.54
54.6599	547.90
54.6744	534.87
54.6888	537.59
54.7032	547.92
54.7177	555.87
54.7321	552.90
54.7466	571.07
54.7610	575.06
54.7754	583.25
54.7899	581.43
54.8043	619.29
54.8188	603.48
54.8332	574.52
54.8476	567.10
54.8621	582.10
54.8765	601.39
54.8910	572.88
54.9054	571.77
54.9198	557.53
54.9343	591.61
54.9487	594.75
54.9632	590.65
54.9776	576.46
54.9920	568.75
55.0065	560.20
55.0209	573.84
55.0354	577.83
55.0498	546.18
55.0642	548.56
55.0787	523.20
55.0931	536.36
55.1076	514.97
55.1220	531.96
55.1364	548.17
55.1509	515.31
55.1653	523.58
55.1798	543.71
55.1942	543.96
55.2086	523.57
55.2231	517.65
55.2375	537.27
55.2520	531.47
55.2664	528.60
55.2808	513.96
55.2953	505.82
55.3097	487.53
55.3242	486.09
55.3386	517.52
55.3530	523.48
55.3675	528.23
55.3819	534.71
55.3964	528.25
55.4108	534.10
55.4252	549.24
55.4397	544.83
55.4541	502.62
55.4686	522.16
55.4830	528.22
55.4974	541.62
55.5119	528.42
55.5263	530.75
55.5408	526.18
55.5552	529.32
55.5696	512.63
55.5841	513.16
55.5985	542.13
55.6130	526.89
55.6274	477.69
55.6418	500.37
55.6563	537.65
55.6707	532.09
55.6852	496.84
55.6996	518.08
55.7140	519.52
55.7285	532.51
55.7429	499.58
55.7574	507.10
55.7718	533.89
55.7862	520.18
55.8007	515.35
55.8151	544.17
55.8296	526.00
55.8440	519.50
55.8584	509.89
55.8729	479.81
55.8873	490.31
55.9018	559.86
55.9162	541.41
55.9306	535.87
55.9451	545.50
55.9595	497.74
55.9740	520.72
55.9884	514.25
56.0028	497.14
56.0173	523.84
56.0317	528.82
56.0462	528.14
56.0606	505.68
56.0750	541.63
56.0895	515.28
56.1039	529.96
56.1184	528.69
56.1328	535.73
56.1472	463.83
56.1617	531.27
56.1761	533.73
56.1906	502.19
56.2050	503.19
56.2194	525.52
56.2339	523.97
56.2483	528.85
56.2628	518.64
56.2772	523.03
56.2916	532.89
56.3061	495.56
56.3205	523.73
56.3350	547.03
56.3494	534.67
56.3639	515.84
56.3783	546.61
56.3927	514.18
56.4072	524.51
56.4216	525.53
56.4361	573.41
56.4505	549.33
56.4649	531.78
56.4794	543.32
56.4938	514.82
56.5083	535.22
56.5227	497.70
56.5371	522.23
56.5516	532.19
56.5660	514.73
56.5805	505.35
56.5949	529.26
56.6093	526.36
56.6238	507.61
56.6382	537.99
56.6527	515.24
56.6671	505.12
56.6815	508.40
56.6960	455.63
56.7104	501.91
56.7249	533.70
56.7393	521.41
56.7537	539.08
56.7682	503.71
56.7826	498.92
56.7971	497.80
56.8115	494.68
56.8259	558.04
56.8404	513.33
56.8548	504.44
56.8693	512.31
56.8837	495.62
56.8981	526.01
56.9126	533.90
56.9270	522.93
56.9415	566.26
56.9559	500.53
56.9703	502.01
56.9848	512.80
56.9992	514.54
57.0137	521.52
57.0281	510.28
57.0425	566.45
57.0570	529.80
57.0714	521.83
57.0859	528.31
57.1003	493.60
57.1147	545.76
57.1292	587.58
57.1436	538.16
57.1581	531.91
57.1725	547.53
57.1869	543.81
57.2014	520.47
57.2158	514.76
57.2303	523.73
57.2447	529.23
57.2591	488.37
57.2736	537.34
57.2880	533.59
57.3025	559.93
57.3169	528.91
57.3313	511.52
57.3458	530.87
57.3602	518.82
57.3747	526.42
57.3891	548.12
57.4035	503.63
57.4180	505.60
57.4324	521.44
57.4469	493.99
57.4613	511.71
57.4757	510.71
57.4902	489.55
57.5046	501.49
57.5191	514.81
57.5335	516.76
57.5479	516.49
57.5624	543.61
57.5768	533.72
57.5913	515.18
57.6057	524.78
57.6201	537.54
57.6346	512.45
57.6490	505.43
57.6635	522.26
57.6779	540.58
57.6923	501.37
57.7068	520.96
57.7212	516.81
57.7357	501.77
57.7501	533.51
57.7645	525.05
57.7790	552.00
57.7934	540.25
57.8079	545.01
57.8223	506.90
57.8367	516.02
57.8512	505.95
57.8656	575.05
57.8801	558.39
57.8945	569.91
57.9089	528.63
57.9234	534.80
57.9378	533.57
57.9523	535.04
57.9667	553.91
57.9811	569.06
57.9956	589.11
58.0100	579.58
58.0245	543.59
58.0389	525.18
58.0533	548.46
58.0678	513.83
58.0822	539.03
58.0967	506.37
58.1111	535.29
58.1255	531.89
58.1400	526.91
58.1544	534.33
58.1689	560.20
58.1833	543.01
58.1977	534.77
58.2122	547.47
58.2266	553.45
58.2411	581.31
58.2555	555.60
58.2699	528.32
58.2844	559.33
58.2988	532.28
58.3133	570.76
58.3277	587.22
58.3421	587.53
58.3566	591.91
58.3710	610.03
58.3855	614.96
58.3999	634.11
58.4143	601.21
58.4288	651.88
58.4432	612.66
58.4577	633.60
58.4721	671.83
58.4865	667.23
58.5010	633.16
58.5154	627.10
58.5299	620.33
58.5443	608.24
58.5587	636.67
58.5732	629.42
58.5876	624.72
58.6021	618.25
58.6165	605.91
58.6309	640.61
58.6454	607.20
58.6598	631.31
58.6743	582.25
58.6887	563.78
58.7031	583.34
58.7176	596.05
58.7320	582.28
58.7465	576.16
58.7609	539.25
58.7753	545.57
58.7898	605.79
58.8042	574.44
58.8187	564.65
58.8331	576.99
58.8475	535.74
58.8620	561.89
58.8764	569.32
58.8909	564.55
58.9053	539.28
58.9197	548.69
58.9342	570.73
58.9486	549.16
58.9631	533.69
58.9775	547.11
58.9919	530.91
59.0064	528.77
59.0208	536.59
59.0353	521.28
59.0497	521.16
59.0641	512.61
59.0786	524.99
59.0930	559.69
59.1075	554.07
59.1219	555.80
59.1363	521.59
59.1508	514.52
59.1652	554.13
59.1797	556.67
59.1941	530.49
59.2085	520.73
59.2230	533.68
59.2374	550.65
59.2519	545.85
59.2663	520.28
59.2807	537.61
59.2952	563.35
59.3096	593.30
59.3241	592.21
59.3385	566.64
59.3529	575.00
59.3674	542.94
59.3818	574.89
59.3963	558.57
59.4107	549.52
59.4251	562.23
59.4396	541.59
59.4540	562.34
59.4685	585.92
59.4829	586.51
59.4973	564.58
59.5118	532.08
59.5262	553.48
59.5407	564.05
59.5551	562.04
59.5695	551.48
59.5840	545.28
59.5984	558.42
59.6129	541.89
59.6273	557.12
59.6417	545.52
59.6562	530.88
59.6706	571.67
59.6851	571.77
59.6995	575.08
59.7139	575.30
59.7284	519.95
59.7428	536.56
59.7573	526.82
59.7717	544.57
59.7861	522.08
59.8006	527.92
59.8150	528.06
59.8295	568.14
59.8439	537.33
59.8583	547.64
59.8728	577.01
59.8872	578.18
59.9017	595.70
59.9161	540.37
59.9305	532.81
59.9450	537.19
59.9594	538.30
59.9739	529.39
59.9883	552.38
60.0027	541.09
60.0172	527.64
60.0316	550.10
60.0461	559.27
60.0605	544.49
60.0750	580.83
60.0894	563.52
60.1038	519.55
60.1183	541.69
60.1327	524.70
60.1472	524.96
60.1616	540.30
60.1760	564.11
60.1905	539.81
60.2049	538.46
60.2194	568.63
60.2338	513.68
60.2482	527.72
60.2627	528.42
60.2771	529.89
60.2916	570.14
60.3060	549.39
60.3204	534.91
60.3349	540.18
60.3493	537.81
60.3638	561.71
60.3782	508.99
60.3926	505.76
60.4071	540.93
60.4215	548.29
60.4360	550.37
60.4504	556.55
60.4648	524.14
60.4793	557.96
60.4937	548.12
60.5082	580.14
60.5226	520.40
60.5370	533.75
60.5515	552.86
60.5659	525.36
60.5804	510.84
60.5948	543.46
60.6092	538.74
60.6237	546.93
60.6381	559.74
60.6526	521.97
60.6670	529.15
60.6814	515.97
60.6959	543.21
60.7103	548.77
60.7248	553.95
60.7392	536.73
60.7536	531.69
60.7681	503.26
60.7825	552.83
60.7970	545.98
60.8114	567.07
60.8258	538.29
60.8403	536.54
60.8547	525.44
60.8692	546.86
60.8836	514.44
60.8980	547.68
60.9125	551.66
60.9269	518.77
60.9414	548.76
60.9558	517.87
60.9702	502.24
60.9847	498.33
60.9991	552.98
61.0136	548.19
61.0280	525.17
61.0424	504.41
61.0569	564.15
61.0713	548.83
61.0858	567.63
61.1002	557.52
61.1146	532.22
61.1291	572.23
61.1435	563.95
61.1580	534.78
61.1724	540.70
61.1868	505.47
61.2013	511.51
61.2157	533.70
61.2302	541.13
61.2446	576.98
61.2590	523.67
61.2735	548.06
61.2879	560.62
61.3024	539.91
61.3168	550.97
61.3312	577.04
61.3457	569.41
61.3601	552.79
61.3746	537.75
61.3890	533.17
61.4034	551.53
61.4179	520.54
61.4323	538.55
61.4468	513.11
61.4612	554.07
61.4756	540.21
61.4901	512.97
61.5045	507.73
61.5190	538.00
61.5334	539.70
61.5478	581.21
61.5623	507.64
61.5767	558.19
61.5912	541.30
61.6056	513.03
61.6200	512.00
61.6345	569.20
61.6489	584.08
61.6634	585.56
61.6778	576.24
61.6922	560.59
61.7067	537.19
61.7211	536.43
61.7356	542.65
61.7500	534.79
61.7644	540.06
61.7789	525.79
61.7933	547.48
61.8078	515.21
61.8222	539.88
61.8366	548.46
61.8511	543.59
61.8655	578.59
61.8800	541.11
61.8944	552.99
61.9088	572.51
61.9233	550.59
61.9377	576.04
61.9522	522.42
61.9666	556.46
61.9810	528.73
61.9955	536.64
62.0099	564.99
62.0244	561.36
62.0388	553.94
62.0532	607.26
62.0677	561.63
62.0821	596.69
62.0966	587.86
62.1110	558.37
62.1254	577.44
62.1399	491.25
62.1543	516.13
62.1688	530.17
62.1832	517.58
62.1976	544.77
62.2121	559.62
62.2265	536.90
62.2410	573.82
62.2554	553.58
62.2698	532.06
62.2843	563.90
62.2987	591.42
62.3132	598.29
62.3276	578.56
62.3420	568.01
62.3565	558.50
62.3709	564.96
62.3854	558.17
62.3998	545.53
62.4142	561.84
62.4287	594.17
62.4431	573.69
62.4576	552.54
62.4720	528.14
62.4864	527.12
62.5009	534.75
62.5153	530.94
62.5298	551.96
62.5442	557.17
62.5586	549.66
62.5731	559.31
62.5875	523.01
62.6020	523.95
62.6164	538.97
62.6308	524.20
62.6453	540.13
62.6597	557.78
62.6742	550.20
62.6886	539.65
62.7030	558.26
62.7175	573.20
62.7319	571.71
62.7464	569.35
62.7608	546.43
62.7752	536.15
62.7897	567.09
62.8041	580.45
62.8186	559.24
62.8330	579.73
62.8474	553.83
62.8619	587.47
62.8763	566.06
62.8908	562.31
62.9052	560.20
62.9196	565.39
62.9341	565.97
62.9485	543.74
62.9630	557.91
62.9774	557.70
62.9918	603.54
63.0063	600.32
63.0207	586.37
63.0352	590.38
63.0496	579.29
63.0640	564.19
63.0785	540.72
63.0929	568.83
63.1074	593.30
63.1218	581.33
63.1362	583.61
63.1507	553.89
63.1651	543.03
63.1796	530.53
63.1940	538.26
63.2084	559.30
63.2229	585.19
63.2373	570.38
63.2518	556.01
63.2662	577.58
63.2806	584.74
63.2951	540.63
63.3095	610.88
63.3240	575.38
63.3384	574.01
63.3528	578.60
63.3673	552.29
63.3817	588.66
63.3962	565.28
63.4106	569.54
63.4250	577.52
63.4395	564.66
63.4539	586.91
63.4684	606.22
63.4828	565.17
63.4972	549.67
63.5117	576.71
63.5261	597.68
63.5406	594.99
63.5550	579.50
63.5694	563.27
63.5839	585.32
63.5983	583.48
63.6128	584.22
63.6272	607.81
63.6416	602.00
63.6561	620.27
63.6705	580.89
63.6850	556.50
63.6994	575.61
63.7138	613.34
63.7283	597.10
63.7427	573.09
63.7572	594.75
63.7716	580.60
63.7861	603.05
63.8005	578.00
63.8149	583.44
63.8294	639.05
63.8438	583.96
63.8583	584.30
63.8727	587.08
63.8871	562.19
63.9016	618.14
63.9160	644.54
63.9305	624.48
63.9449	591.72
63.9593	528.72
63.9738	609.28
63.9882	617.32
64.0027	649.93
64.0171	652.96
64.0315	657.77
64.0460	662.23
64.0604	667.66
64.0749	703.74
64.0893	691.91
64.1037	674.16
64.1182	706.32
64.1326	753.06
64.1471	742.46
64.1615	742.91
64.1759	794.23
64.1904	761.87
64.2048	779.93
64.2193	799.72
64.2337	779.65
64.2481	805.06
64.2626	767.66
64.2770	770.33
64.2915	749.06
64.3059	763.35
64.3203	766.59
64.3348	796.57
64.3492	782.04
64.3637	791.71
64.3781	745.35
64.3925	730.20
64.4070	706.44
64.4214	735.55
64.4359	725.98
64.4503	681.72
64.4647	715.59
64.4792	719.17
64.4936	712.90
64.5081	696.76
64.5225	666.59
64.5369	736.30
64.5514	678.66
64.5658	674.05
64.5803	714.76
64.5947	689.71
64.6091	680.17
64.6236	663.38
64.6380	708.05
64.6525	657.87
64.6669	682.84
64.6813	645.44
64.6958	659.13
64.7102	733.77
64.7247	695.00
64.7391	695.48
64.7535	701.71
64.7680	698.89
64.7824	743.34
64.7969	745.30
64.8113	759.82
64.8257	786.02
64.8402	808.08
64.8546	844.49
64.8691	845.82
64.8835	823.59
64.8979	841.99
64.9124	861.41
64.9268	874.38
64.9413	928.09
64.9557	956.60
64.9701	1012.51
64.9846	1104.72
64.9990	1163.26
65.0135	1279.03
65.0279	1514.14
65.0423	1842.23
65.0568	2246.21
65.0712	2740.13
65.0857	3767.63
65.1001	4887.35
65.1145	6605.13
65.1290	8546.66
65.1434	9946.67
65.1579	11445.39
65.1723	11998.01
65.1867	11375.95
65.2012	9777.64
65.2156	7902.86
65.2301	6320.35
65.2445	5058.68
65.2589	4363.53
65.2734	4255.64
65.2878	4463.18
65.3023	5131.66
65.3167	5880.50
65.3311	6743.27
65.3456	7035.73
65.3600	6958.70
65.3745	6206.30
65.3889	5281.20
65.4033	4258.30
65.4178	3355.55
65.4322	2624.18
65.4467	2026.22
65.4611	1696.34
65.4755	1481.48
65.4900	1272.93
65.5044	1148.10
65.5189	1029.22
65.5333	953.57
65.5477	922.13
65.5622	927.97
65.5766	872.42
65.5911	837.52
65.6055	821.00
65.6199	747.49
65.6344	732.25
65.6488	706.07
65.6633	748.98
65.6777	708.28
65.6921	698.80
65.7066	731.09
65.7210	708.41
65.7355	672.00
65.7499	692.04
65.7643	668.59
65.7788	683.73
65.7932	649.57
65.8077	674.86
65.8221	673.27
65.8365	634.10
65.8510	655.09
65.8654	684.49
65.8799	613.13
65.8943	658.01
65.9087	661.97
65.9232	629.81
65.9376	630.21
65.9521	625.40
65.9665	639.25
65.9809	586.04
65.9954	616.11
66.0098	633.81
66.0243	603.74
66.0387	630.10
66.0531	646.61
66.0676	620.43
66.0820	660.92
66.0965	634.52
66.1109	628.74
66.1253	628.99
66.1398	601.88
66.1542	626.10
66.1687	659.20
66.1831	634.25
66.1975	600.22
66.2120	644.42
66.2264	618.73
66.2409	638.84
66.2553	625.23
66.2697	592.69
66.2842	602.57
66.2986	630.52
66.3131	631.22
66.3275	621.90
66.3419	619.03
66.3564	606.77
66.3708	593.05
66.3853	552.67
66.3997	591.51
66.4141	608.40
66.4286	628.11
66.4430	601.92
66.4575	577.92
66.4719	604.29
66.4863	593.40
66.5008	577.07
66.5152	601.55
66.5297	589.60
66.5441	569.88
66.5585	585.71
66.5730	554.09
66.5874	563.03
66.6019	572.27
66.6163	575.91
66.6307	574.65
66.6452	583.98
66.6596	577.99
66.6741	580.44
66.6885	582.64
66.7029	610.94
66.7174	592.51
66.7318	545.67
66.7463	569.22
66.7607	567.75
66.7751	597.54
66.7896	629.64
66.8040	580.00
66.8185	586.88
66.8329	588.98
66.8473	573.64
66.8618	569.97
66.8762	563.74
66.8907	573.13
66.9051	608.98
66.9195	596.43
66.9340	568.73
66.9484	595.52
66.9629	595.05
66.9773	586.98
66.9917	586.03
67.0062	560.36
67.0206	576.80
67.0351	589.81
67.0495	581.26
67.0639	578.20
67.0784	579.49
67.0928	590.91
67.1073	599.19
67.1217	625.61
67.1361	595.25
67.1506	569.71
67.1650	589.12
67.1795	578.05
67.1939	582.83
67.2083	568.85
67.2228	583.50
67.2372	608.16
67.2517	604.64
67.2661	589.49
67.2805	588.52
67.2950	557.47
67.3094	572.15
67.3239	592.34
67.3383	602.63
67.3527	528.11
67.3672	540.23
67.3816	578.68
67.3961	566.93
67.4105	578.90
67.4250	595.61
67.4394	578.21
67.4538	579.20
67.4683	609.02
67.4827	607.18
67.4972	572.57
67.5116	567.06
67.5260	589.29
67.5405	557.78
67.5549	583.27
67.5694	568.60
67.5838	578.88
67.5982	575.96
67.6127	582.49
67.6271	567.74
67.6416	587.57
67.6560	585.92
67.6704	550.95
67.6849	565.59
67.6993	585.47
67.7138	556.36
67.7282	564.23
67.7426	590.39
67.7571	565.75
67.7715	551.47
67.7860	586.36
67.8004	564.62
67.8148	592.76
67.8293	579.02
67.8437	563.81
67.8582	593.19
67.8726	569.63
67.8870	559.79
67.9015	590.49
67.9159	546.19
67.9304	559.10
67.9448	574.19
67.9592	601.30
67.9737	595.35
67.9881	580.51
68.0026	558.30
68.0170	596.57
68.0314	589.91
68.0459	553.26
68.0603	566.58
68.0748	582.89
68.0892	607.91
68.1036	559.24
68.1181	569.18
68.1325	558.80
68.1470	571.35
68.1614	572.64
68.1758	563.13
68.1903	549.71
68.2047	571.64
68.2192	540.09
68.2336	597.51
68.2480	561.90
68.2625	560.98
68.2769	587.81
68.2914	569.58
68.3058	597.83
68.3202	571.29
68.3347	609.70
68.3491	633.93
68.3636	581.52
68.3780	557.91
68.3924	579.56
68.4069	525.00
68.4213	565.18
68.4358	513.27
68.4502	579.07
68.4646	572.05
68.4791	579.03
68.4935	547.77
68.5080	604.46
68.5224	547.73
68.5368	578.19
68.5513	614.28
68.5657	577.77
68.5802	538.09
68.5946	563.61
68.6090	576.08
68.6235	606.00
68.6379	565.96
68.6524	578.67
68.6668	567.04
68.6812	578.71
68.6957	560.41
68.7101	556.47
68.7246	574.36
68.7390	550.72
68.7534	577.18
68.7679	539.22
68.7823	571.06
68.7968	578.87
68.8112	588.51
68.8256	562.40
68.8401	564.28
68.8545	558.56
68.8690	604.87
68.8834	572.29
68.8978	597.17
68.9123	578.55
68.9267	563.34
68.9412	606.97
68.9556	563.23
68.9700	557.19
68.9845	536.20
68.9989	508.90
69.0134	543.42
69.0278	525.83
69.0422	564.52
69.0567	585.27
69.0711	621.62
69.0856	502.50
69.1000	577.58
69.1144	541.27
69.1289	593.68
69.1433	523.03
69.1578	573.64
69.1722	625.45
69.1866	614.12
69.2011	587.54
69.2155	614.78
69.2300	588.75
69.2444	609.71
69.2588	594.55
69.2733	544.61
69.2877	568.12
69.3022	576.00
69.3166	564.00
69.3310	636.26
69.3455	608.65
69.3599	584.17
69.3744	607.35
69.3888	551.86
69.4032	590.96
69.4177	634.41
69.4321	569.82
69.4466	519.33
69.4610	610.50
69.4754	586.98
69.4899	569.94
69.5043	564.88
69.5188	553.13
69.5332	596.45
69.5476	535.79
69.5621	576.50
69.5765	540.42
69.5910	548.23
69.6054	567.61
69.6198	505.44
69.6343	570.01
69.6487	585.15
69.6632	600.49
69.6776	570.64
69.6920	597.16
69.7065	600.16
69.7209	602.45
69.7354	574.24
69.7498	592.69
69.7642	557.33
69.7787	571.37
69.7931	604.98
69.8076	577.78
69.8220	531.63
69.8364	589.40
69.8509	607.30
69.8653	585.90
69.8798	627.67
69.8942	616.70
69.9086	553.40
69.9231	538.40
69.9375	602.50
69.9520	574.39
69.9664	559.47
69.9808	567.15
69.9953	580.01
70.0097	597.49
70.0242	594.42
70.0386	595.02
70.0530	618.63
70.0675	601.96
70.0819	603.14
70.0964	567.92
70.1108	580.68
70.1252	618.21
70.1397	611.40
70.1541	554.57
70.1686	587.76
70.1830	600.52
70.1974	579.29
70.2119	617.73
70.2263	554.88
70.2408	573.61
70.2552	622.07
70.2696	548.93
70.2841	599.68
70.2985	606.22
70.3130	588.67
70.3274	644.74
70.3418	607.11
70.3563	598.91
70.3707	594.33
70.3852	599.91
70.3996	603.72
70.4140	622.97
70.4285	618.45
70.4429	611.57
70.4574	588.03
70.4718	548.37
70.4862	549.38
70.5007	604.81
70.5151	583.17
70.5296	533.63
70.5440	544.38
70.5584	615.45
70.5729	562.85
70.5873	522.75
70.6018	543.80
70.6162	542.53
70.6306	559.52
70.6451	598.28
70.6595	547.76
70.6740	556.31
70.6884	547.44
70.7028	581.62
70.7173	621.42
70.7317	592.59
70.7462	578.23
70.7606	551.37
70.7750	609.54
70.7895	587.88
70.8039	512.12
70.8184	605.73
70.8328	591.12
70.8472	597.80
70.8617	670.77
70.8761	645.04
70.8906	535.56
70.9050	594.25
70.9194	578.18
70.9339	578.38
70.9483	595.01
70.9628	610.38
70.9772	595.46
70.9916	568.22
71.0061	606.85
71.0205	585.91
71.0350	573.79
71.0494	595.78
71.0638	631.48
71.0783	650.85
71.0927	600.20
71.1072	594.30
71.1216	564.86
71.1361	551.17
71.1505	565.50
71.1649	579.03
71.1794	590.22
71.1938	582.00
71.2083	560.00
71.2227	533.82
71.2371	539.67
71.2516	577.57
71.2660	530.54
71.2805	564.89
71.2949	583.80
71.3093	586.99
71.3238	550.55
71.3382	579.68
71.3527	582.61
71.3671	618.55
71.3815	583.20
71.3960	552.25
71.4104	564.69
71.4249	552.71
71.4393	597.95
71.4537	575.80
71.4682	564.71
71.4826	532.57
71.4971	541.73
71.5115	562.31
71.5259	567.88
71.5404	573.80
71.5548	585.50
71.5693	586.05
71.5837	551.33
71.5981	521.48
71.6126	513.61
71.6270	566.38
71.6415	600.38
71.6559	559.32
71.6703	577.75
71.6848	592.69
71.6992	564.61
71.7137	538.64
71.7281	574.68
71.7425	559.57
71.7570	529.69
71.7714	597.05
71.7859	598.22
71.8003	590.69
71.8147	613.29
71.8292	588.76
71.8436	611.35
71.8581	586.50
71.8725	572.05
71.8869	566.32
71.9014	611.11
71.9158	657.07
71.9303	566.85
71.9447	608.41
71.9591	605.01
71.9736	513.42
71.9880	530.00
72.0025	566.87
72.0169	570.98
72.0313	588.21
72.0458	617.71
72.0602	604.97
72.0747	574.06
72.0891	645.26
72.1035	616.51
72.1180	483.34
72.1324	520.63
72.1469	579.67
72.1613	568.06
72.1757	614.96
72.1902	607.09
72.2046	556.39
72.2191	529.56
72.2335	546.77
72.2479	606.24
72.2624	578.58
72.2768	563.43
72.2913	584.81
72.3057	564.97
72.3201	567.97
72.3346	581.54
72.3490	586.95
72.3635	560.52
72.3779	564.31
72.3923	545.31
72.4068	596.87
72.4212	644.88
72.4357	611.69
72.4501	586.35
72.4645	557.60
72.4790	547.63
72.4934	550.81
72.5079	524.18
72.5223	505.01
72.5367	539.92
72.5512	559.79
72.5656	477.64
72.5801	479.71
72.5945	564.30
72.6089	556.04
72.6234	575.82
72.6378	511.48
72.6523	496.01
72.6667	532.67
72.6811	567.35
72.6956	600.43
72.7100	592.17
72.7245	533.04
72.7389	529.99
72.7533	563.93
72.7678	537.93
72.7822	586.21
72.7967	570.81
72.8111	658.98
72.8255	689.04
72.8400	582.75
72.8544	591.98
72.8689	624.02
72.8833	588.94

Result vector
22.1120	664.06
22.1264	646.46
22.1409	567.70
22.1553	456.48
22.1697	560.90
22.1842	580.06
22.1986	588.15
22.2131	522.95
22.2275	536.77
22.2419	598.07
22.2564	565.55
22.2708	654.46
22.2853	647.13
22.2997	583.12
22.3141	562.45
22.3286	596.62
22.3430	683.28
22.3575	706.85
22.3719	574.35
22.3863	576.19
22.4008	547.95
22.4152	669.40
22.4297	625.69
22.4441	550.56
22.4585	532.12
22.4730	657.92
22.4874	611.18
22.5019	565.84
22.5163	614.53
22.5307	619.70
22.5452	546.00
22.5596	553.42
22.5741	598.31
22.5885	553.04
22.6029	579.62
22.6174	543.58
22.6318	629.58
22.6463	604.53
22.6607	544.31
22.6751	527.09
22.6896	607.56
22.7040	659.63
22.7185	620.46
22.7329	561.90
22.7473	555.43
22.7618	580.33
22.7762	554.19
22.7907	603.28
22.8051	540.71
22.8195	551.98
22.8340	514.39
22.8484	452.87
22.8629	492.13
22.8773	584.91
22.8917	529.27
22.9062	672.86
22.9206	639.79
22.9351	619.82
22.9495	540.65
22.9639	526.17
22.9784	536.25
22.9928	530.74
23.0073	524.16
23.0217	605.08
23.0361	607.38
23.0506	562.96
23.0650	596.04
23.0795	558.18
23.0939	618.93
23.1083	562.54
23.1228	520.71
23.1372	508.20
23.1517	536.75
23.1661	534.29
23.1806	659.44
23.1950	552.51
23.2094	573.25
23.2239	564.07
23.2383	528.35
23.2528	551.69
23.2672	496.06
23.2816	589.94
23.2961	569.76
23.3105	605.84
23.3250	577.70
23.3394	568.70
23.3538	587.59
23.3683	551.85
23.3827	495.59
23.3972	452.50
23.4116	485.48
23.4260	569.67
23.4405	524.35
23.4549	599.88
23.4694	566.05
23.4838	518.79
23.4982	567.06
23.5127	616.81
23.5271	560.56
23.5416	581.38
23.5560	645.17
23.5704	604.51
23.5849	560.27
23.5993	575.00
23.6138	538.62
23.6282	544.03
23.6426	549.30
23.6571	553.51
23.6715	523.08
23.6860	514.20
23.7004	564.46
23.7148	639.48
23.7293	606.07
23.7437	507.25
23.7582	523.04
23.7726	492.18
23.7870	571.57
23.8015	524.19
23.8159	490.53
23.8304	615.25
23.8448	571.30
23.8592	530.22
23.8737	507.00
23.8881	539.03
23.9026	682.81
23.9170	579.66
23.9314	558.51
23.9459	582.52
23.9603	566.60
23.9748	607.78
23.9892	584.48
24.0036	567.35
24.0181	554.86
24.0325	531.76
24.0470	513.37
24.0614	549.13
24.0758	536.62
24.0903	576.12
24.1047	564.79
24.1192	574.42
24.1336	588.02
24.1480	551.39
24.1625	545.38
24.1769	582.08
24.1914	523.54
24.2058	555.47
24.2202	594.40
24.2347	675.66
24.2491	605.00
24.2636	541.42
24.2780	599.19
24.2924	575.31
24.3069	585.18
24.3213	550.32
24.3358	588.24
24.3502	530.40
24.3646	530.38
24.3791	569.47
24.3935	570.51
24.4080	551.88
24.4224	592.75
24.4368	594.83
24.4513	564.61
24.4657	568.76
24.4802	626.22
24.4946	567.87
24.5090	540.17
24.5235	523.01
24.5379	492.23
24.5524	530.41
24.5668	541.10
24.5812	572.85
24.5957	592.11
24.6101	592.08
24.6246	524.50
24.6390	550.41
24.6534	563.78
24.6679	543.37
24.6823	533.04
24.6968	546.01
24.7112	537.20
24.7256	518.96
24.7401	536.17
24.7545	507.52
24.7690	573.05
24.7834	528.59
24.7978	525.36
24.8123	581.90
24.8267	493.91
24.8412	501.65
24.8556	588.13
24.8700	521.16
24.8845	550.56
24.8989	560.05
24.9134	592.02
24.9278	524.70
24.9422	495.13
24.9567	550.07
24.9711	557.24
24.9856	603.25
25.0000	548.52
25.0144	582.54
25.0289	556.46
25.0433	538.95
25.0578	549.76
25.0722	564.93
25.0866	549.11
25.1011	533.54
25.1155	561.60
25.1300	593.42
25.1444	514.16
25.1588	567.85
25.1733	530.85
25.1877	516.40
25.2022	536.03
25.2166	543.50
25.2310	545.66
25.2455	560.79
25.2599	560.27
25.2744	565.64
25.2888	519.86
25.3032	563.55
25.3177	561.95
25.3321	551.67
25.3466	519.26
25.3610	538.01
25.3754	516.59
25.3899	507.37
25.4043	498.94
25.4188	596.09
25.4332	576.90
25.4476	518.22
25.4621	567.91
25.4765	565.25
25.4910	506.97
25.5054	529.90
25.5198	546.60
25.5343	565.17
25.5487	531.06
25.5632	560.08
25.5776	520.73
25.5920	556.45
25.6065	509.65
25.6209	501.84
25.6354	524.48
25.6498	560.60
25.6642	522.16
25.6787	535.21
25.6931	554.57
25.7076	572.33
25.7220	514.92
25.7364	517.19
25.7509	522.60
25.7653	546.84
25.7798	570.09
25.7942	556.61
25.8086	544.22
25.8231	545.25
25.8375	605.47
25.8520	563.60
25.8664	555.81
25.8808	526.88
25.8953	537.25
25.9097	579.87
25.9242	555.87
25.9386	530.62
25.9530	530.38
25.9675	553.13
25.9819	529.67
25.9964	528.00
26.0108	537.56
26.0252	530.77
26.0397	524.93
26.0541	524.63
26.0686	559.78
26.0830	566.99
26.0974	545.21
26.1119	549.86
26.1263	526.21
26.1408	514.65
26.1552	524.24
26.1696	546.30
26.1841	532.65
26.1985	503.32
26.2130	510.90
26.2274	550.05
26.2418	515.91
26.2563	532.05
26.2707	520.05
26.2852	533.58
26.2996	541.44
26.3140	532.04
26.3285	574.06
26.3429	564.35
26.3574	536.49
26.3718	528.04
26.3862	531.23
26.4007	503.08
26.4151	508.44
26.4296	538.80
26.4440	528.71
26.4584	511.56
26.4729	542.94
26.4873	532.21
26.5018	541.65
26.5162	543.72
26.5306	554.49
26.5451	534.83
26.5595	556.01
26.5740	553.48
26.5884	566.16
26.6028	551.10
26.6173	518.56
26.6317	511.99
26.6462	526.46
26.6606	553.95
26.6750	560.42
26.6895	570.04
26.7039	549.99
26.7184	536.74
26.7328	498.29
26.7472	495.65
26.7617	482.78
26.7761	523.80
26.7906	555.28
26.8050	532.73
26.8194	513.16
26.8339	541.83
26.8483	558.95
26.8628	562.54
26.8772	528.94
26.8917	524.69
26.9061	549.28
26.9205	539.92
26.9350	543.34
26.9494	542.18
26.9639	529.87
26.9783	506.15
26.9927	495.93
27.0072	531.31
27.0216	522.20
27.0361	578.33
27.0505	560.24
27.0649	544.17
27.0794	519.87
27.0938	507.00
27.1083	505.17
27.1227	537.71
27.1371	523.81
27.1516	512.75
27.1660	520.26
27.1805	508.21
27.1949	501.34
27.2093	500.22
27.2238	538.09
27.2382	497.67
27.2527	522.50
27.2671	519.11
27.2815	527.21
27.2960	514.56
27.3104	553.34
27.3249	508.14
27.3393	532.58
27.3537	542.79
27.3682	505.06
27.3826	473.92
27.3971	499.82
27.4115	533.27
27.4259	541.72
27.4404	510.42
27.4548	514.69
27.4693	540.53
27.4837	524.75
27.4981	519.09
27.5126	553.63
27.5270	528.67
27.5415	528.25
27.5559	531.83
27.5703	493.85
27.5848	504.50
27.5992	544.64
27.6137	511.13
27.6281	517.43
27.6425	542.64
27.6570	548.58
27.6714	553.09
27.6859	514.97
27.7003	525.02
27.7147	484.11
27.7292	518.99
27.7436	533.95
27.7581	502.25
27.7725	521.56
27.7869	517.51
27.8014	514.49
27.8158	558.44
27.8303	530.86
27.8447	530.81
27.8591	558.57
27.8736	541.05
27.8880	515.19
27.9025	562.65
27.9169	513.23
27.9313	506.32
27.9458	502.96
27.9602	517.21
27.9747	508.21
27.9891	508.03
28.0035	488.85
28.0180	509.08
28.0324	524.83
28.0469	493.55
28.0613	492.39
28.0757	502.14
28.0902	490.39
28.1046	477.34
28.1191	540.61
28.1335	533.78
28.1479	488.29
28.1624	497.56
28.1768	506.90
28.1913	517.92
28.2057	528.80
28.2201	510.62
28.2346	507.74
28.2490	489.36
28.2635	499.98
28.2779	497.55
28.2923	501.98
28.3068	519.17
28.3212	497.94
28.3357	501.35
28.3501	519.31
28.3645	512.77
28.3790	511.98
28.3934	503.96
28.4079	544.33
28.4223	519.44
28.4367	508.72
28.4512	487.10
28.4656	543.39
28.4801	510.89
28.4945	514.92
28.5089	480.65
28.5234	527.45
28.5378	519.01
28.5523	527.45
28.5667	508.39
28.5811	497.64
28.5956	516.38
28.6100	523.03
28.6245	527.79
28.6389	508.46
28.6533	510.32
28.6678	519.09
28.6822	526.45
28.6967	498.58
28.7111	543.76
28.7255	494.98
28.7400	536.35
28.7544	512.85
28.7689	499.28
28.7833	494.79
28.7977	543.62
28.8122	551.84
28.8266	516.37
28.8411	524.17
28.8555	518.91
28.8699	521.98
28.8844	507.45
28.8988	500.86
28.9133	517.22
28.9277	525.63
28.9421	488.61
28.9566	513.86
28.9710	493.65
28.9855	484.99
28.9999	506.11
29.0143	519.13
29.0288	561.01
29.0432	487.90
29.0577	473.46
29.0721	519.86
29.0865	567.88
29.1010	490.44
29.1154	527.71
29.1299	511.59
29.1443	499.95
29.1587	525.46
29.1732	526.71
29.1876	496.15
29.2021	498.06
29.2165	518.73
29.2309	499.58
29.2454	529.25
29.2598	495.56
29.2743	516.69
29.2887	555.70
29.3031	515.41
29.3176	520.40
29.3320	530.61
29.3465	533.14
29.3609	525.97
29.3753	542.38
29.3898	493.13
29.4042	518.03
29.4187	506.22
29.4331	536.71
29.4475	508.12
29.4620	506.01
29.4764	541.97
29.4909	518.42
29.5053	521.88
29.5197	503.90
29.5342	514.90
29.5486	507.96
29.5631	497.59
29.5775	500.00
29.5919	514.19
29.6064	508.67
29.6208	476.87
29.6353	535.09
29.6497	503.07
29.6641	509.86
29.6786	560.35
29.6930	502.77
29.7075	470.36
29.7219	476.66
29.7363	496.33
29.7508	499.08
29.7652	528.93
29.7797	491.46
29.7941	475.76
29.8085	505.29
29.8230	531.37
29.8374	507.51
29.8519	529.77
29.8663	521.77
29.8807	516.45
29.8952	529.54
29.9096	526.76
29.9241	518.63
29.9385	542.86
29.9529	514.15
29.9674	510.60
29.9818	492.87
29.9963	517.14
30.0107	514.65
30.0251	489.65
30.0396	489.61
30.0540	520.31
30.0685	495.27
30.0829	515.73
30.0973	519.22
30.1118	516.32
30.1262	498.33
30.1407	510.86
30.1551	494.75
30.1695	521.26
30.1840	515.61
30.1984	525.25
30.2129	508.23
30.2273	533.80
30.2417	511.80
30.2562	509.09
30.2706	502.98
30.2851	515.41
30.2995	517.54
30.3139	513.35
30.3284	534.78
30.3428	528.52
30.3573	493.16
30.3717	487.49
30.3861	513.62
30.4006	499.71
30.4150	528.50
30.4295	495.72
30.4439	532.89
30.4583	516.48
30.4728	500.73
30.4872	541.15
30.5017	535.48
30.5161	519.65
30.5305	519.27
30.5450	519.93
30.5594	480.93
30.5739	501.33
30.5883	525.66
30.6028	522.24
30.6172	503.05
30.6316	534.93
30.6461	548.18
30.6605	555.15
30.6750	532.66
30.6894	562.42
30.7038	520.51
30.7183	535.83
30.7327	558.41
30.7472	568.80
30.7616	578.36
30.7760	588.57
30.7905	661.09
30.8049	633.90
30.8194	613.42
30.8338	654.49
30.8482	679.64
30.8627	712.13
30.8771	698.62
30.8916	708.40
30.9060	723.50
30.9204	744.80
30.9349	666.34
30.9493	620.13
30.9638	643.95
30.9782	619.62
30.9926	568.55
31.0071	547.42
31.0215	566.32
31.0360	549.63
31.0504	547.90
31.0648	522.66
31.0793	522.18
31.0937	531.32
31.1082	516.96
31.1226	532.75
31.1370	517.46
31.1515	480.48
31.1659	510.88
31.1804	510.81
31.1948	502.73
31.2092	510.72
31.2237	527.14
31.2381	545.05
31.2526	512.57
31.2670	550.04
31.2814	539.02
31.2959	545.21
31.3103	540.41
31.3248	538.69
31.3392	532.69
31.3536	525.58
31.3681	539.38
31.3825	530.75
31.3970	515.86
31.4114	506.96
31.4258	549.78
31.4403	531.44
31.4547	495.86
31.4692	521.58
31.4836	509.72
31.4980	521.76
31.5125	501.42
31.5269	522.79
31.5414	483.39
31.5558	477.85
31.5702	475.60
31.5847	522.60
31.5991	513.94
31.6136	483.00
31.6280	501.96
31.6424	508.95
31.6569	499.91
31.6713	544.67
31.6858	501.46
31.7002	501.57
31.7146	487.55
31.7291	501.29
31.7435	528.28
31.7580	521.80
31.7724	487.15
31.7868	493.88
31.8013	503.82
31.8157	492.01
31.8302	513.96
31.8446	540.93
31.8590	542.66
31.8735	521.00
31.8879	521.88
31.9024	552.27
31.9168	485.66
31.9312	473.86
31.9457	562.24
31.9601	474.16
31.9746	466.41
31.9890	504.51
32.0034	498.75
32.0179	481.30
32.0323	503.26
32.0468	511.27
32.0612	501.26
32.0756	514.59
32.0901	493.57
32.1045	504.60
32.1190	519.31
32.1334	530.83
32.1478	503.10
32.1623	527.25
32.1767	478.38
32.1912	498.82
32.2056	499.99
32.2200	518.06
32.2345	478.81
32.2489	526.37
32.2634	489.46
32.2778	514.55
32.2922	511.07
32.3067	524.06
32.3211	478.31
32.3356	510.50
32.3500	524.13
32.3644	506.92
32.3789	472.37
32.3933	499.29
32.4078	491.89
32.4222	541.26
32.4366	526.32
32.4511	477.70
32.4655	506.91
32.4800	515.02
32.4944	487.53
32.5088	461.76
32.5233	468.63
32.5377	521.48
32.5522	527.21
32.5666	501.72
32.5810	513.76
32.5955	534.35
32.6099	546.77
32.6244	494.30
32.6388	492.54
32.6532	534.06
32.6677	503.59
32.6821	513.84
32.6966	509.51
32.7110	515.93
32.7254	475.35
32.7399	491.16
32.7543	513.17
32.7688	530.49
32.7832	516.80
32.7976	551.12
32.8121	519.93
32.8265	518.27
32.8410	522.74
32.8554	531.36
32.8698	525.02
32.8843	488.58
32.8987	521.19
32.9132	501.31
32.9276	541.24
32.9420	514.94
32.9565	517.74
32.9709	511.09
32.9854	489.51
32.9998	506.80
33.0142	527.13
33.0287	493.61
33.0431	482.17
33.0576	478.72
33.0720	520.86
33.0864	542.54
33.1009	543.00
33.1153	500.54
33.1298	529.94
33.1442	500.91
33.1586	471.47
33.1731	504.73
33.1875	484.97
33.2020	486.57
33.2164	504.79
33.2308	511.81
33.2453	491.61
33.2597	472.38
33.2742	525.99
33.2886	503.88
33.3030	504.44
33.3175	487.96
33.3319	512.42
33.3464	514.47
33.3608	487.55
33.3752	486.09
33.3897	502.27
33.4041	482.74
33.4186	512.47
33.4330	549.54
33.4474	497.12
33.4619	509.46
33.4763	548.36
33.4908	462.35
33.5052	484.67
33.5196	492.74
33.5341	498.70
33.5485	505.32
33.5630	533.39
33.5774	488.01
33.5918	529.37
33.6063	525.50
33.6207	500.07
33.6352	497.54
33.6496	503.30
33.6640	535.52
33.6785	522.75
33.6929	467.30
33.7074	487.12
33.7218	527.96
33.7362	505.86
33.7507	509.97
33.7651	518.34
33.7796	505.68
33.7940	467.75
33.8084	489.72
33.8229	531.49
33.8373	522.16
33.8518	500.76
33.8662	523.90
33.8806	475.88
33.8951	537.11
33.9095	540.03
33.9240	516.91
33.9384	494.64
33.9528	477.35
33.9673	481.78
33.9817	493.47
33.9962	468.44
34.0106	450.20
34.0250	488.02
34.0395	525.55
34.0539	529.47
34.0684	544.50
34.0828	502.39
34.0972	489.00
34.1117	518.00
34.1261	508.50
34.1406	540.01
34.1550	521.16
34.1694	520.04
34.1839	537.99
34.1983	511.69
34.2128	517.48
34.2272	508.37
34.2417	509.08
34.2561	524.30
34.2705	543.16
34.2850	509.10
34.2994	481.56
34.3139	497.68
34.3283	501.60
34.3427	495.91
34.3572	511.47
34.3716	533.28
34.3861	513.74
34.4005	468.85
34.4149	493.42
34.4294	532.02
34.4438	502.76
34.4583	473.24
34.4727	513.87
34.4871	548.90
34.5016	513.35
34.5160	518.54
34.5305	515.90
34.5449	495.15
34.5593	546.32
34.5738	519.97
34.5882	520.66
34.6027	504.50
34.6171	518.21
34.6315	491.46
34.6460	493.39
34.6604	474.27
34.6749	531.36
34.6893	520.07
34.7037	523.80
34.7182	476.58
34.7326	494.19
34.7471	522.63
34.7615	516.68
34.7759	495.79
34.7904	507.74
34.8048	503.52
34.8193	526.45
34.8337	514.04
34.8481	488.36
34.8626	501.41
34.8770	493.56
34.8915	473.65
34.9059	546.59
34.9203	531.53
34.9348	541.03
34.9492	508.19
34.9637	499.46
34.9781	527.60
34.9925	509.13
35.0070	484.67
35.0214	516.13
35.0359	492.39
35.0503	489.55
35.0647	510.52
35.0792	532.43
35.0936	518.35
35.1081	509.11
35.1225	518.55
35.1369	493.52
35.1514	478.00
35.1658	509.01
35.1803	503.15
35.1947	486.74
35.2091	504.19
35.2236	530.41
35.2380	499.76
35.2525	525.96
35.2669	487.58
35.2813	508.12
35.2958	505.82
35.3102	512.88
35.3247	521.34
35.3391	517.05
35.3535	530.76
35.3680	502.13
35.3824	487.56
35.3969	467.27
35.4113	501.91
35.4257	499.24
35.4402	504.09
35.4546	541.21
35.4691	515.68
35.4835	493.24
35.4979	521.55
35.5124	497.39
35.5268	520.51
35.5413	515.48
35.5557	536.82
35.5701	539.62
35.5846	522.99
35.5990	490.00
35.6135	518.02
35.6279	521.98
35.6423	568.25
35.6568	530.63
35.6712	508.63
35.6857	558.84
35.7001	630.82
35.7145	709.02
35.7290	709.76
35.7434	609.22
35.7579	562.79
35.7723	548.15
35.7867	598.26
35.8012	647.00
35.8156	667.34
35.8301	621.06
35.8445	627.99
35.8589	663.32
35.8734	699.73
35.8878	862.90
35.9023	1042.93
35.9167	1134.89
35.9311	1440.83
35.9456	2255.90
35.9600	2326.48
35.9745	1807.97
35.9889	1804.42
36.0033	2264.43
36.0178	2291.31
36.0322	1994.29
36.0467	1887.54
36.0611	1613.46
36.0755	1578.82
36.0900	1494.71
36.1044	1360.82
36.1189	1299.99
36.1333	1210.34
36.1477	1045.58
36.1622	1026.11
36.1766	960.63
36.1911	927.76
36.2055	823.58
36.2199	785.84
36.2344	825.72
36.2488	840.22
36.2633	828.38
36.2777	841.11
36.2921	908.58
36.3066	925.58
36.3210	944.76
36.3355	1007.49
36.3499	1003.45
36.3643	975.43
36.3788	990.52
36.3932	948.86
36.4077	935.17
36.4221	973.70
36.4365	868.24
36.4510	833.43
36.4654	812.53
36.4799	775.44
36.4943	745.90
36.5087	690.97
36.5232	663.17
36.5376	649.97
36.5521	631.23
36.5665	615.99
36.5809	609.73
36.5954	609.36
36.6098	584.87
36.6243	569.51
36.6387	537.76
36.6531	528.49
36.6676	546.73
36.6820	547.48
36.6965	547.44
36.7109	569.89
36.7253	535.59
36.7398	551.02
36.7542	551.48
36.7687	559.57
36.7831	582.40
36.7975	576.50
36.8120	564.32
36.8264	561.75
36.8409	608.67
36.8553	596.85
36.8697	615.01
36.8842	589.52
36.8986	633.26
36.9131	647.78
36.9275	614.04
36.9419	556.94
36.9564	548.50
36.9708	571.27
36.9853	559.89
36.9997	552.21
37.0141	578.02
37.0286	526.21
37.0430	511.70
37.0575	516.80
37.0719	516.66
37.0863	514.87
37.1008	526.83
37.1152	527.77
37.1297	511.35
37.1441	530.24
37.1585	502.05
37.1730	495.53
37.1874	489.04
37.2019	492.62
37.2163	517.87
37.2307	501.87
37.2452	508.50
37.2596	512.22
37.2741	528.48
37.2885	520.49
37.3029	496.36
37.3174	481.27
37.3318	472.48
37.3463	474.89
37.3607	503.36
37.3751	507.65
37.3896	505.25
37.4040	508.97
37.4185	525.52
37.4329	507.26
37.4473	492.69
37.4618	507.14
37.4762	512.73
37.4907	489.32
37.5051	511.39
37.5195	498.80
37.5340	503.45
37.5484	513.90
37.5629	487.75
37.5773	506.14
37.5917	502.59
37.6062	477.75
37.6206	483.15
37.6351	478.84
37.6495	500.26
37.6639	511.80
37.6784	513.34
37.6928	512.12
37.7073	515.47
37.7217	481.99
37.7361	505.18
37.7506	494.91
37.7650	509.11
37.7795	509.32
37.7939	497.55
37.8083	522.94
37.8228	480.21
37.8372	519.73
37.8517	539.46
37.8661	518.08
37.8805	489.71
37.8950	517.25
37.9094	513.78
37.9239	574.67
37.9383	529.69
37.9528	505.25
37.9672	495.48
37.9816	512.17
37.9961	483.93
38.0105	467.56
38.0250	495.31
38.0394	503.83
38.0538	535.62
38.0683	519.52
38.0827	522.88
38.0972	543.91
38.1116	502.67
38.1260	527.87
38.1405	502.23
38.1549	460.18
38.1694	510.83
38.1838	517.49
38.1982	504.87
38.2127	493.14
38.2271	479.47
38.2416	495.62
38.2560	507.32
38.2704	496.11
38.2849	525.00
38.2993	476.46
38.3138	496.44
38.3282	515.15
38.3426	516.83
38.3571	498.55
38.3715	534.05
38.3860	504.51
38.4004	521.83
38.4148	555.53
38.4293	601.86
38.4437	591.37
38.4582	632.22
38.4726	680.27
38.4870	716.88
38.5015	770.38
38.5159	787.49
38.5304	800.34
38.5448	788.05
38.5592	816.79
38.5737	755.80
38.5881	763.72
38.6026	766.80
38.6170	694.88
38.6314	659.32
38.6459	658.37
38.6603	638.41
38.6748	603.76
38.6892	552.35
38.7036	555.13
38.7181	550.71
38.7325	539.32
38.7470	512.50
38.7614	496.52
38.7758	522.30
38.7903	537.85
38.8047	539.31
38.8192	531.15
38.8336	520.17
38.8480	522.28
38.8625	543.68
38.8769	526.48
38.8914	508.21
38.9058	542.11
38.9202	475.24
38.9347	479.72
38.9491	500.27
38.9636	502.36
38.9780	491.82
38.9924	481.24
39.0069	487.98
39.0213	515.80
39.0358	504.50
39.0502	495.72
39.0646	518.62
39.0791	536.00
39.0935	506.13
39.1080	487.57
39.1224	513.26
39.1368	503.42
39.1513	492.89
39.1657	519.48
39.1802	535.68
39.1946	513.29
39.2090	501.11
39.2235	503.94
39.2379	507.61
39.2524	509.01
39.2668	494.74
39.2812	525.53
39.2957	513.26
39.3101	517.18
39.3246	519.41
39.3390	552.04
39.3534	503.22
39.3679	494.60
39.3823	525.31
39.3968	491.17
39.4112	502.36
39.4256	519.56
39.4401	507.38
39.4545	517.66
39.4690	480.21
39.4834	484.95
39.4978	515.22
39.5123	501.61
39.5267	478.48
39.5412	520.91
39.5556	492.03
39.5700	501.29
39.5845	489.12
39.5989	489.31
39.6134	497.69
39.6278	496.61
39.6422	509.96
39.6567	480.85
39.6711	476.15
39.6856	506.64
39.7000	491.47
39.7144	504.04
39.7289	492.98
39.7433	497.30
39.7578	490.03
39.7722	512.90
39.7866	498.57
39.8011	501.26
39.8155	504.54
39.8300	478.21
39.8444	493.38
39.8588	523.90
39.8733	526.97
39.8877	472.13
39.9022	499.57
39.9166	520.74
39.9310	499.86
39.9455	532.12
39.9599	500.44
39.9744	448.68
39.9888	529.67
40.0032	492.04
40.0177	474.97
40.0321	502.42
40.0466	496.22
40.0610	504.55
40.0754	506.12
40.0899	528.37
40.1043	455.28
40.1188	502.98
40.1332	511.27
40.1476	457.54
40.1621	494.57
40.1765	478.47
40.1910	454.51
40.2054	503.24
40.2198	557.53
40.2343	502.56
40.2487	512.91
40.2632	505.02
40.2776	509.72
40.2920	467.38
40.3065	487.25
40.3209	513.98
40.3354	485.71
40.3498	484.06
40.3642	495.81
40.3787	496.57
40.3931	503.64
40.4076	470.22
40.4220	467.84
40.4364	521.34
40.4509	472.34
40.4653	484.77
40.4798	482.18
40.4942	467.86
40.5086	473.22
40.5231	484.73
40.5375	521.71
40.5520	505.69
40.5664	504.64
40.5808	484.37
40.5953	514.29
40.6097	470.38
40.6242	507.37
40.6386	499.25
40.6530	505.56
40.6675	499.85
40.6819	497.54
40.6964	492.69
40.7108	521.29
40.7252	522.29
40.7397	508.57
40.7541	490.08
40.7686	507.46
40.7830	542.47
40.7974	497.29
40.8119	467.36
40.8263	516.64
40.8408	492.90
40.8552	489.67
40.8696	484.69
40.8841	484.82
40.8985	511.34
40.9130	514.76
40.9274	550.90
40.9418	523.38
40.9563	467.97
40.9707	480.02
40.9852	472.27
40.9996	451.84
41.0140	474.29
41.0285	504.87
41.0429	514.82
41.0574	541.78
41.0718	495.81
41.0862	490.30
41.1007	527.24
41.1151	507.01
41.1296	491.66
41.1440	488.20
41.1584	487.69
41.1729	531.35
41.1873	487.98
41.2018	524.40
41.2162	491.58
41.2306	470.97
41.2451	486.85
41.2595	489.84
41.2740	500.09
41.2884	496.64
41.3028	492.18
41.3173	487.80
41.3317	494.76
41.3462	538.43
41.3606	518.74
41.3750	519.90
41.3895	498.77
41.4039	501.88
41.4184	503.93
41.4328	509.01
41.4472	510.11
41.4617	485.28
41.4761	519.83
41.4906	494.54
41.5050	503.38
41.5194	497.44
41.5339	485.13
41.5483	497.18
41.5628	506.84
41.5772	469.22
41.5916	530.46
41.6061	516.57
41.6205	493.70
41.6350	520.68
41.6494	484.63
41.6639	495.74
41.6783	483.59
41.6927	489.39
41.7072	519.23
41.7216	519.60
41.7361	523.17
41.7505	535.30
41.7649	497.35
41.7794	496.11
41.7938	501.09
41.8083	509.77
41.8227	499.05
41.8371	498.55
41.8516	519.95
41.8660	501.36
41.8805	512.55
41.8949	525.48
41.9093	550.84
41.9238	544.08
41.9382	564.87
41.9527	555.08
41.9671	544.03
41.9815	599.56
41.9960	557.59
42.0104	571.36
42.0249	548.76
42.0393	536.37
42.0537	577.52
42.0682	612.85
42.0826	632.14
42.0971	604.17
42.1115	629.61
42.1259	594.38
42.1404	592.79
42.1548	609.39
42.1693	686.46
42.1837	710.25
42.1981	717.84
42.2126	797.23
42.2270	916.93
42.2415	1042.60
42.2559	1179.38
42.2703	1305.91
42.2848	1427.58
42.2992	1537.31
42.3137	1621.26
42.3281	1603.66
42.3425	1503.12
42.3570	1421.05
42.3714	1368.09
42.3859	1353.67
42.4003	1349.52
42.4147	1285.10
42.4292	1268.61
42.4436	1111.66
42.4581	998.25
42.4725	929.78
42.4869	828.89
42.5014	757.63
42.5158	704.95
42.5303	676.27
42.5447	632.90
42.5591	594.88
42.5736	587.52
42.5880	576.94
42.6025	579.03
42.6169	560.96
42.6313	550.64
42.6458	552.29
42.6602	540.19
42.6747	534.93
42.6891	580.78
42.7035	570.71
42.7180	537.35
42.7324	506.50
42.7469	518.04
42.7613	495.20
42.7757	539.86
42.7902	548.91
42.8046	509.98
42.8191	509.56
42.8335	521.94
42.8479	495.16
42.8624	543.19
42.8768	515.02
42.8913	498.81
42.9057	554.96
42.9201	557.77
42.9346	552.77
42.9490	517.00
42.9635	501.37
42.9779	525.62
42.9923	496.21
43.0068	470.83
43.0212	516.80
43.0357	534.98
43.0501	520.59
43.0645	509.25
43.0790	490.10
43.0934	509.16
43.1079	533.59
43.1223	517.85
43.1367	501.98
43.1512	516.20
43.1656	545.98
43.1801	501.20
43.1945	501.12
43.2089	555.54
43.2234	533.10
43.2378	508.79
43.2523	492.32
43.2667	498.52
43.2811	543.96
43.2956	494.03
43.3100	533.03
43.3245	519.73
43.3389	513.08
43.3533	524.92
43.3678	512.28
43.3822	489.64
43.3967	499.12
43.4111	538.86
43.4255	514.73
43.4400	520.00
43.4544	527.78
43.4689	534.61
43.4833	528.55
43.4977	508.06
43.5122	526.15
43.5266	485.85
43.5411	554.69
43.5555	519.82
43.5699	504.51
43.5844	491.42
43.5988	506.91
43.6133	506.78
43.6277	511.39
43.6421	502.45
43.6566	535.69
43.6710	496.79
43.6855	508.79
43.6999	537.35
43.7143	505.32
43.7288	534.18
43.7432	517.90
43.7577	529.55
43.7721	515.18
43.7865	514.13
43.8010	510.16
43.8154	527.44
43.8299	525.54
43.8443	513.01
43.8587	532.74
43.8732	531.13
43.8876	508.68
43.9021	517.51
43.9165	499.32
43.9309	498.28
43.9454	477.91
43.9598	503.85
43.9743	515.05
43.9887	523.74
44.0031	526.45
44.0176	547.37
44.0320	542.47
44.0465	549.86
44.0609	561.99
44.0753	534.91
44.0898	555.29
44.1042	584.34
44.1187	561.44
44.1331	602.66
44.1475	601.96
44.1620	627.72
44.1764	645.90
44.1909	626.87
44.2053	614.26
44.2197	609.70
44.2342	620.09
44.2486	631.07
44.2631	602.46
44.2775	602.12
44.2919	600.28
44.3064	598.67
44.3208	595.14
44.3353	587.89
44.3497	551.71
44.3641	576.85
44.3786	571.87
44.3930	559.04
44.4075	550.23
44.4219	586.89
44.4363	596.54
44.4508	590.70
44.4652	614.53
44.4797	583.31
44.4941	579.75
44.5085	581.33
44.5230	585.47
44.5374	586.04
44.5519	569.29
44.5663	577.32
44.5807	560.67
44.5952	565.96
44.6096	557.99
44.6241	568.41
44.6385	546.87
44.6529	541.40
44.6674	576.52
44.6818	606.55
44.6963	594.40
44.7107	654.61
44.7251	686.94
44.7396	773.72
44.7540	845.48
44.7685	870.97
44.7829	897.64
44.7973	871.23
44.8118	870.88
44.8262	773.27
44.8407	746.05
44.8551	750.28
44.8695	716.94
44.8840	753.46
44.8984	747.25
44.9129	712.30
44.9273	718.65
44.9417	680.43
44.9562	580.85
44.9706	552.65
44.9851	528.96
44.9995	540.66
45.0139	512.69
45.0284	549.76
45.0428	526.32
45.0573	495.30
45.0717	518.36
45.0861	514.09
45.1006	518.14
45.1150	525.93
45.1295	539.03
45.1439	494.89
45.1583	505.50
45.1728	532.18
45.1872	520.05
45.2017	513.95
45.2161	527.67
45.2305	530.86
45.2450	529.12
45.2594	500.36
45.2739	536.60
45.2883	543.69
45.3028	540.69
45.3172	503.43
45.3316	513.98
45.3461	493.27
45.3605	556.10
45.3750	520.01
45.3894	495.78
45.4038	513.34
45.4183	522.14
45.4327	530.45
45.4472	514.23
45.4616	484.91
45.4760	524.34
45.4905	532.91
45.5049	487.38
45.5194	530.49
45.5338	498.46
45.5482	507.60
45.5627	517.00
45.5771	517.70
45.5916	533.23
45.6060	535.38
45.6204	499.18
45.6349	517.98
45.6493	520.09
45.6638	516.74
45.6782	511.02
45.6926	531.67
45.7071	535.83
45.7215	483.19
45.7360	478.57
45.7504	514.44
45.7648	490.41
45.7793	508.76
45.7937	521.80
45.8082	484.19
45.8226	509.88
45.8370	523.90
45.8515	527.18
45.8659	538.66
45.8804	496.03
45.8948	501.56
45.9092	538.25
45.9237	501.37
45.9381	507.03
45.9526	508.47
45.9670	539.10
45.9814	526.28
45.9959	494.37
46.0103	477.10
46.0248	529.64
46.0392	552.46
46.0536	486.44
46.0681	510.94
46.0825	511.09
46.0970	493.72
46.1114	473.06
46.1258	511.02
46.1403	489.70
46.1547	460.80
46.1692	470.83
46.1836	492.46
46.1980	471.39
46.2125	496.57
46.2269	489.72
46.2414	516.37
46.2558	504.76
46.2702	522.63
46.2847	472.01
46.2991	496.29
46.3136	520.98
46.3280	495.13
46.3424	481.92
46.3569	457.43
46.3713	515.84
46.3858	494.66
46.4002	494.10
46.4146	512.49
46.4291	489.83
46.4435	498.30
46.4580	495.63
46.4724	514.58
46.4868	511.91
46.5013	513.61
46.5157	499.92
46.5302	505.73
46.5446	500.56
46.5590	503.46
46.5735	514.31
46.5879	516.85
46.6024	497.48
46.6168	492.44
46.6312	499.50
46.6457	505.06
46.6601	501.35
46.6746	503.56
46.6890	509.71
46.7034	489.16
46.7179	467.37
46.7323	502.19
46.7468	490.04
46.7612	474.41
46.7756	498.06
46.7901	500.53
46.8045	522.76
46.8190	515.44
46.8334	499.51
46.8478	525.78
46.8623	523.86
46.8767	507.64
46.8912	491.54
46.9056	507.12
46.9200	536.50
46.9345	526.89
46.9489	503.83
46.9634	457.02
46.9778	468.21
46.9922	516.69
47.0067	528.07
47.0211	516.92
47.0356	515.85
47.0500	569.00
47.0644	540.03
47.0789	491.51
47.0933	468.86
47.1078	512.32
47.1222	534.45
47.1366	515.22
47.1511	520.16
47.1655	525.26
47.1800	537.90
47.1944	507.45
47.2088	524.35
47.2233	497.77
47.2377	516.31
47.2522	516.79
47.2666	498.22
47.2810	496.24
47.2955	506.90
47.3099	537.80
47.3244	514.93
47.3388	507.18
47.3532	489.56
47.3677	479.10
47.3821	511.75
47.3966	504.98
47.4110	480.55
47.4254	515.01
47.4399	514.54
47.4543	495.90
47.4688	515.57
47.4832	548.37
47.4976	530.69
47.5121	483.56
47.5265	511.89
47.5410	508.46
47.5554	511.75
47.5698	499.56
47.5843	504.52
47.5987	535.78
47.6132	508.97
47.6276	491.95
47.6420	492.36
47.6565	501.51
47.6709	488.15
47.6854	493.88
47.6998	469.84
47.7142	522.97
47.7287	485.79
47.7431	493.31
47.7576	474.89
47.7720	497.86
47.7864	506.50
47.8009	497.70
47.8153	509.99
47.8298	514.56
47.8442	512.52
47.8586	491.53
47.8731	501.59
47.8875	488.25
47.9020	505.48
47.9164	509.58
47.9308	517.77
47.9453	517.59
47.9597	488.29
47.9742	501.79
47.9886	512.12
48.0030	464.07
48.0175	544.38
48.0319	504.08
48.0464	498.00
48.0608	552.46
48.0752	547.58
48.0897	524.52
48.1041	536.33
48.1186	519.15
48.1330	497.42
48.1474	496.42
48.1619	514.15
48.1763	497.60
48.1908	507.67
48.2052	493.10
48.2196	507.66
48.2341	512.14
48.2485	495.88
48.2630	497.58
48.2774	516.01
48.2918	536.41
48.3063	522.53
48.3207	514.83
48.3352	526.26
48.3496	517.82
48.3640	524.12
48.3785	535.66
48.3929	510.23
48.4074	490.60
48.4218	522.04
48.4362	518.83
48.4507	525.91
48.4651	512.44
48.4796	501.61
48.4940	507.87
48.5084	503.74
48.5229	508.32
48.5373	527.83
48.5518	505.34
48.5662	549.88
48.5806	488.72
48.5951	524.76
48.6095	544.76
48.6240	522.77
48.6384	530.89
48.6528	533.91
48.6673	509.48
48.6817	490.91
48.6962	515.62
48.7106	535.41
48.7250	518.98
48.7395	540.84
48.7539	539.01
48.7684	527.72
48.7828	551.83
48.7972	486.61
48.8117	490.61
48.8261	548.90
48.8406	570.36
48.8550	522.09
48.8694	529.69
48.8839	529.56
48.8983	541.69
48.9128	533.78
48.9272	563.64
48.9416	538.43
48.9561	503.25
48.9705	563.49
48.9850	601.27
48.9994	591.29
49.0139	607.08
49.0283	619.08
49.0427	638.49
49.0572	606.93
49.0716	648.21
49.0861	644.27
49.1005	702.22
49.1149	712.28
49.1294	759.25
49.1438	722.17
49.1583	791.23
49.1727	858.07
49.1871	869.68
49.2016	923.68
49.2160	1036.70
49.2305	1092.86
49.2449	1176.13
49.2593	1246.15
49.2738	1360.12
49.2882	1380.40
49.3027	1479.70
49.3171	1560.01
49.3315	1749.67
49.3460	1720.09
49.3604	1808.30
49.3749	1761.66
49.3893	1700.11
49.4037	1716.33
49.4182	1663.62
49.4326	1689.03
49.4471	1590.93
49.4615	1633.36
49.4759	1591.27
49.4904	1471.98
49.5048	1395.49
49.5193	1331.72
49.5337	1269.36
49.5481	1187.26
49.5626	1146.64
49.5770	1048.34
49.5915	968.78
49.6059	951.59
49.6203	881.23
49.6348	843.69
49.6492	781.41
49.6637	762.81
49.6781	736.56
49.6925	701.79
49.7070	692.78
49.7214	639.98
49.7359	614.82
49.7503	653.55
49.7647	609.59
49.7792	582.94
49.7936	568.37
49.8081	608.70
49.8225	591.00
49.8369	574.67
49.8514	567.83
49.8658	569.84
49.8803	570.01
49.8947	570.32
49.9091	556.79
49.9236	558.61
49.9380	534.08
49.9525	536.19
49.9669	512.85
49.9813	532.66
49.9958	526.31
50.0102	535.11
50.0247	521.38
50.0391	543.30
50.0535	530.95
50.0680	547.16
50.0824	542.66
50.0969	530.93
50.1113	526.20
50.1257	551.95
50.1402	501.54
50.1546	509.80
50.1691	542.53
50.1835	540.69
50.1979	486.52
50.2124	512.20
50.2268	509.74
50.2413	524.99
50.2557	504.11
50.2701	527.40
50.2846	495.71
50.2990	508.09
50.3135	526.22
50.3279	495.63
50.3423	511.43
50.3568	511.80
50.3712	508.21
50.3857	489.57
50.4001	523.49
50.4145	528.64
50.4290	542.94
50.4434	488.39
50.4579	488.29
50.4723	520.77
50.4867	520.40
50.5012	474.90
50.5156	488.62
50.5301	477.53
50.5445	521.53
50.5589	486.81
50.5734	514.99
50.5878	490.25
50.6023	510.07
50.6167	526.44
50.6311	484.21
50.6456	511.47
50.6600	542.93
50.6745	506.01
50.6889	492.09
50.7033	551.00
50.7178	533.04
50.7322	524.48
50.7467	504.70
50.7611	509.53
50.7755	491.47
50.7900	478.55
50.8044	519.76
50.8189	512.36
50.8333	505.58
50.8477	512.21
50.8622	488.50
50.8766	530.11
50.8911	507.17
50.9055	509.49
50.9199	500.23
50.9344	483.22
50.9488	496.54
50.9633	493.64
50.9777	488.02
50.9921	504.25
51.0066	474.84
51.0210	480.77
51.0355	494.52
51.0499	490.61
51.0643	506.80
51.0788	502.10
51.0932	512.13
51.1077	504.41
51.1221	496.46
51.1365	502.15
51.1510	467.72
51.1654	478.79
51.1799	471.98
51.1943	496.38
51.2087	527.05
51.2232	517.38
51.2376	524.09
51.2521	568.88
51.2665	513.58
51.2809	543.72
51.2954	511.45
51.3098	502.12
51.3243	504.88
51.3387	541.87
51.3531	488.93
51.3676	503.65
51.3820	498.70
51.3965	483.66
51.4109	507.21
51.4253	515.22
51.4398	506.26
51.4542	498.35
51.4687	564.33
51.4831	516.43
51.4975	508.31
51.5120	509.58
51.5264	513.35
51.5409	496.42
51.5553	512.16
51.5697	499.66
51.5842	503.41
51.5986	486.30
51.6131	511.23
51.6275	508.74
51.6419	502.11
51.6564	486.33
51.6708	495.38
51.6853	480.07
51.6997	506.53
51.7141	529.22
51.7286	519.09
51.7430	530.51
51.7575	510.60
51.7719	518.90
51.7863	532.74
51.8008	516.32
51.8152	535.26
51.8297	527.40
51.8441	510.04
51.8585	512.31
51.8730	511.83
51.8874	516.72
51.9019	521.27
51.9163	513.82
51.9307	513.57
51.9452	512.50
51.9596	489.15
51.9741	503.75
51.9885	502.33
52.0029	514.69
52.0174	511.52
52.0318	520.92
52.0463	511.97
52.0607	532.53
52.0751	473.75
52.0896	515.55
52.1040	514.08
52.1185	504.36
52.1329	534.52
52.1473	464.37
52.1618	495.33
52.1762	519.51
52.1907	504.38
52.2051	514.07
52.2195	522.46
52.2340	545.69
52.2484	520.08
52.2629	516.68
52.2773	499.23
52.2917	518.77
52.3062	503.24
52.3206	504.66
52.3351	539.68
52.3495	533.03
52.3639	518.51
52.3784	471.18
52.3928	481.09
52.4073	511.91
52.4217	521.18
52.4361	494.83
52.4506	488.13
52.4650	523.31
52.4795	519.76
52.4939	535.65
52.5083	512.73
52.5228	513.02
52.5372	504.13
52.5517	497.32
52.5661	512.43
52.5805	520.74
52.5950	511.52
52.6094	502.11
52.6239	500.15
52.6383	467.35
52.6527	515.63
52.6672	525.73
52.6816	511.78
52.6961	497.09
52.7105	525.69
52.7250	490.61
52.7394	531.12
52.7538	509.41
52.7683	521.71
52.7827	499.23
52.7972	506.50
52.8116	510.98
52.8260	524.57
52.8405	533.27
52.8549	510.76
52.8694	516.95
52.8838	505.10
52.8982	534.80
52.9127	485.34
52.9271	498.58
52.9416	478.62
52.9560	490.41
52.9704	516.24
52.9849	467.66
52.9993	522.30
53.0138	525.23
53.0282	525.77
53.0426	539.78
53.0571	526.41
53.0715	519.49
53.0860	545.44
53.1004	530.27
53.1148	521.53
53.1293	559.72
53.1437	533.00
53.1582	510.84
53.1726	506.92
53.1870	528.11
53.2015	481.60
53.2159	476.86
53.2304	532.87
53.2448	537.77
53.2592	504.26
53.2737	486.78
53.2881	527.81
53.3026	529.22
53.3170	525.49
53.3314	515.86
53.3459	513.68
53.3603	495.30
53.3748	534.36
53.3892	482.93
53.4036	507.27
53.4181	502.64
53.4325	536.69
53.4470	471.24
53.4614	529.39
53.4758	540.15
53.4903	517.81
53.5047	518.79
53.5192	516.41
53.5336	515.76
53.5480	514.69
53.5625	506.17
53.5769	509.95
53.5914	500.99
53.6058	515.93
53.6202	494.72
53.6347	512.67
53.6491	519.31
53.6636	507.64
53.6780	489.08
53.6924	494.58
53.7069	560.67
53.7213	515.47
53.7358	496.64
53.7502	531.72
53.7646	498.00
53.7791	540.43
53.7935	492.62
53.8080	534.16
53.8224	517.31
53.8368	511.99
53.8513	518.89
53.8657	534.44
53.8802	521.24
53.8946	551.33
53.9090	507.56
53.9235	516.80
53.9379	490.38
53.9524	484.33
53.9668	487.42
53.9812	501.53
53.9957	507.29
54.0101	506.87
54.0246	510.13
54.0390	524.96
54.0534	496.24
54.0679	513.18
54.0823	503.70
54.0968	520.75
54.1112	516.70
54.1256	551.75
54.1401	513.79
54.1545	501.24
54.1690	528.59
54.1834	492.79
54.1978	513.79
54.2123	527.03
54.2267	553.12
54.2412	543.79
54.2556	528.96
54.2700	507.25
54.2845	542.76
54.2989	539.25
54.3134	533.02
54.3278	512.31
54.3422	517.16
54.3567	517.29
54.3711	525.24
54.3856	538.21
54.4000	528.34
54.4144	521.28
54.4289	536.18
54.4433	489.32
54.4578	484.29
54.4722	510.39
54.4866	520.01
54.5011	533.76
54.5155	530.88
54.5300	536.38
54.5444	524.88
54.5588	506.43
54.5733	518.33
54.5877	519.39
54.6022	510.45
54.6166	479.57
54.6310	551.34
54.6455	586.54
54.6599	547.90
54.6744	534.87
54.6888	537.59
54.7032	547.92
54.7177	555.87
54.7321	552.90
54.7466	571.07
54.7610	575.06
54.7754	583.25
54.7899	581.43
54.8043	619.29
54.8188	603.48
54.8332	574.52
54.8476	567.10
54.8621	582.10
54.8765	601.39
54.8910	572.88
54.9054	571.77
54.9198	557.53
54.9343	591.61
54.9487	594.75
54.9632	590.65
54.9776	576.46
54.9920	568.75
55.0065	560.20
55.0209	573.84
55.0354	577.83
55.0498	546.18
55.0642	548.56
55.0787	523.20
55.0931	536.36
55.1076	514.97
55.1220	531.96
55.1364	548.17
55.1509	515.31
55.1653	523.58
55.1798	543.71
55.1942	543.96
55.2086	523.57
55.2231	517.65
55.2375	537.27
55.2520	531.47
55.2664	528.60
55.2808	513.96
55.2953	505.82
55.3097	487.53
55.3242	486.09
55.3386	517.52
55.3530	523.48
55.3675	528.23
55.3819	534.71
55.3964	528.25
55.4108	534.10
55.4252	549.24
55.4397	544.83
55.4541	502.62
55.4686	522.16
55.4830	528.22
55.4974	541.62
55.5119	528.42
55.5263	530.75
55.5408	526.18
55.5552	529.32
55.5696	512.63
55.5841	513.16
55.5985	542.13
55.6130	526.89
55.6274	477.69
55.6418	500.37
55.6563	537.65
55.6707	532.09
55.6852	496.84
55.6996	518.08
55.7140	519.52
55.7285	532.51
55.7429	499.58
55.7574	507.10
55.7718	533.89
55.7862	520.18
55.8007	515.35
55.8151	544.17
55.8296	526.00
55.8440	519.50
55.8584	509.89
55.8729	479.81
55.8873	490.31
55.9018	559.86
55.9162	541.41
55.9306	535.87
55.9451	545.50
55.9595	497.74
55.9740	520.72
55.9884	514.25
56.0028	497.14
56.0173	523.84
56.0317	528.82
56.0462	528.14
56.0606	505.68
56.0750	541.63
56.0895	515.28
56.1039	529.96
56.1184	528.69
56.1328	535.73
56.1472	463.83
56.1617	531.27
56.1761	533.73
56.1906	502.19
56.2050	503.19
56.2194	525.52
56.2339	523.97
56.2483	528.85
56.2628	518.64
56.2772	523.03
56.2916	532.89
56.3061	495.56
56.3205	523.73
56.3350	547.03
56.3494	534.67
56.3639	515.84
56.3783	546.61
56.3927	514.18
56.4072	524.51
56.4216	525.53
56.4361	573.41
56.4505	549.33
56.4649	531.78
56.4794	543.32
56.4938	514.82
56.5083	535.22
56.5227	497.70
56.5371	522.23
56.5516	532.19
56.5660	514.73
56.5805	505.35
56.5949	529.26
56.6093	526.36
56.6238	507.61
56.6382	537.99
56.6527	515.24
56.6671	505.12
56.6815	508.40
56.6960	455.63
56.7104	501.91
56.7249	533.70
56.7393	521.41
56.7537	539.08
56.7682	503.71
56.7826	498.92
56.7971	497.80
56.8115	494.68
56.8259	558.04
56.8404	513.33
56.8548	504.44
56.8693	512.31
56.8837	495.62
56.8981	526.01
56.9126	533.90
56.9270	522.93
56.9415	566.26
56.9559	500.53
56.9703	502.01
56.9848	512.80
56.9992	514.54
57.0137	521.52
57.0281	510.28
57.0425	566.45
57.0570	529.80
57.0714	521.83
57.0859	528.31
57.1003	493.60
57.1147	545.76
57.1292	587.58
57.1436	538.16
57.1581	531.91
57.1725	547.53
57.1869	543.81
57.2014	520.47
57.2158	514.76
57.2303	523.73
57.2447	529.23
57.2591	488.37
57.2736	537.34
57.2880	533.59
57.3025	559.93
57.3169	528.91
57.3313	511.52
57.3458	530.87
57.3602	518.82
57.3747	526.42
57.3891	548.12
57.4035	503.63
57.4180	505.60
57.4324	521.44
57.4469	493.99
57.4613	511.71
57.4757	510.71
57.4902	489.55
57.5046	501.49
57.5191	514.81
57.5335	516.76
57.5479	516.49
57.5624	543.61
57.5768	533.72
57.5913	515.18
57.6057	524.78
57.6201	537.54
57.6346	512.45
57.6490	505.43
57.6635	522.26
57.6779	540.58
57.6923	501.37
57.7068	520.96
57.7212	516.81
57.7357	501.77
57.7501	533.51
57.7645	525.05
57.7790	552.00
57.7934	540.25
57.8079	545.01
57.8223	506.90
57.8367	516.02
57.8512	505.95
57.8656	575.05
57.8801	558.39
57.8945	569.91
57.9089	528.63
57.9234	534.80
57.9378	533.57
57.9523	535.04
57.9667	553.91
57.9811	569.06
57.9956	589.11
58.0100	579.58
58.0245	543.59
58.0389	525.18
58.0533	548.46
58.0678	513.83
58.0822	539.03
58.0967	506.37
58.1111	535.29
58.1255	531.89
58.1400	526.91
58.1544	534.33
58.1689	560.20
58.1833	543.01
58.1977	534.77
58.2122	547.47
58.2266	553.45
58.2411	581.31
58.2555	555.60
58.2699	528.32
58.2844	559.33
58.2988	532.28
58.3133	570.76
58.3277	587.22
58.3421	587.53
58.3566	591.91
58.3710	610.03
58.3855	614.96
58.3999	634.11
58.4143	601.21
58.4288	651.88
58.4432	612.66
58.4577	633.60
58.4721	671.83
58.4865	667.23
58.5010	633.16
58.5154	627.10
58.5299	620.33
58.5443	608.24
58.5587	636.67
58.5732	629.42
58.5876	624.72
58.6021	618.25
58.6165	605.91
58.6309	640.61
58.6454	607.20
58.6598	631.31
58.6743	582.25
58.6887	563.78
58.7031	583.34
58.7176	596.05
58.7320	582.28
58.7465	576.16
58.7609	539.25
58.7753	545.57
58.7898	605.79
58.8042	574.44
58.8187	564.65
58.8331	576.99
58.8475	535.74
58.8620	561.89
58.8764	569.32
58.8909	564.55
58.9053	539.28
58.9197	548.69
58.9342	570.73
58.9486	549.16
58.9631	533.69
58.9775	547.11
58.9919	530.91
59.0064	528.77
59.0208	536.59
59.0353	521.28
59.0497	521.16
59.0641	512.61
59.0786	524.99
59.0930	559.69
59.1075	554.07
59.1219	555.80
59.1363	521.59
59.1508	514.52
59.1652	554.13
59.1797	556.67
59.1941	530.49
59.2085	520.73
59.2230	533.68
59.2374	550.65
59.2519	545.85
59.2663	520.28
59.2807	537.61
59.2952	563.35
59.3096	593.30
59.3241	592.21
59.3385	566.64
59.3529	575.00
59.3674	542.94
59.3818	574.89
59.3963	558.57
59.4107	549.52
59.4251	562.23
59.4396	541.59
59.4540	562.34
59.4685	585.92
59.4829	586.51
59.4973	564.58
59.5118	532.08
59.5262	553.48
59.5407	564.05
59.5551	562.04
59.5695	551.48
59.5840	545.28
59.5984	558.42
59.6129	541.89
59.6273	557.12
59.6417	545.52
59.6562	530.88
59.6706	571.67
59.6851	571.77
59.6995	575.08
59.7139	575.30
59.7284	519.95
59.7428	536.56
59.7573	526.82
59.7717	544.57
59.7861	522.08
59.8006	527.92
59.8150	528.06
59.8295	568.14
59.8439	537.33
59.8583	547.64
59.8728	577.01
59.8872	578.18
59.9017	595.70
59.9161	540.37
59.9305	532.81
59.9450	537.19
59.9594	538.30
59.9739	529.39
59.9883	552.38
60.0027	541.09
60.0172	527.64
60.0316	550.10
60.0461	559.27
60.0605	544.49
60.0750	580.83
60.0894	563.52
60.1038	519.55
60.1183	541.69
60.1327	524.70
60.1472	524.96
60.1616	540.30
60.1760	564.11
60.1905	539.81
60.2049	538.46
60.2194	568.63
60.2338	513.68
60.2482	527.72
60.2627	528.42
60.2771	529.89
60.2916	570.14
60.3060	549.39
60.3204	534.91
60.3349	540.18
60.3493	537.81
60.3638	561.71
60.3782	508.99
60.3926	505.76
60.4071	540.93
60.4215	548.29
60.4360	550.37
60.4504	556.55
60.4648	524.14
60.4793	557.96
60.4937	548.12
60.5082	580.14
60.5226	520.40
60.5370	533.75
60.5515	552.86
60.5659	525.36
60.5804	510.84
60.5948	543.46
60.6092	538.74
60.6237	546.93
60.6381	559.74
60.6526	521.97
60.6670	529.15
60.6814	515.97
60.6959	543.21
60.7103	548.77
60.7248	553.95
60.7392	536.73
60.7536	531.69
60.7681	503.26
60.7825	552.83
60.7970	545.98
60.8114	567.07
60.8258	538.29
60.8403	536.54
60.8547	525.44
60.8692	546.86
60.8836	514.44
60.8980	547.68
60.9125	551.66
60.9269	518.77
60.9414	548.76
60.9558	517.87
60.9702	502.24
60.9847	498.33
60.9991	552.98
61.0136	548.19
61.0280	525.17
61.0424	504.41
61.0569	564.15
61.0713	548.83
61.0858	567.63
61.1002	557.52
61.1146	532.22
61.1291	572.23
61.1435	563.95
61.1580	534.78
61.1724	540.70
61.1868	505.47
61.2013	511.51
61.2157	533.70
61.2302	541.13
61.2446	576.98
61.2590	523.67
61.2735	548.06
61.2879	560.62
61.3024	539.91
61.3168	550.97
61.3312	577.04
61.3457	569.41
61.3601	552.79
61.3746	537.75
61.3890	533.17
61.4034	551.53
61.4179	520.54
61.4323	538.55
61.4468	513.11
61.4612	554.07
61.4756	540.21
61.4901	512.97
61.5045	507.73
61.5190	538.00
61.5334	539.70
61.5478	581.21
61.5623	507.64
61.5767	558.19
61.5912	541.30
61.6056	513.03
61.6200	512.00
61.6345	569.20
61.6489	584.08
61.6634	585.56
61.6778	576.24
61.6922	560.59
61.7067	537.19
61.7211	536.43
61.7356	542.65
61.7500	534.79
61.7644	540.06
61.7789	525.79
61.7933	547.48
61.8078	515.21
61.8222	539.88
61.8366	548.46
61.8511	543.59
61.8655	578.59
61.8800	541.11
61.8944	552.99
61.9088	572.51
61.9233	550.59
61.9377	576.04
61.9522	522.42
61.9666	556.46
61.9810	528.73
61.9955	536.64
62.0099	564.99
62.0244	561.36
62.0388	553.94
62.0532	607.26
62.0677	561.63
62.0821	596.69
62.0966	587.86
62.1110	558.37
62.1254	577.44
62.1399	491.25
62.1543	516.13
62.1688	530.17
62.1832	517.58
62.1976	544.77
62.2121	559.62
62.2265	536.90
62.2410	573.82
62.2554	553.58
62.2698	532.06
62.2843	563.90
62.2987	591.42
62.3132	598.29
62.3276	578.56
62.3420	568.01
62.3565	558.50
62.3709	564.96
62.3854	558.17
62.3998	545.53
62.4142	561.84
62.4287	594.17
62.4431	573.69
62.4576	552.54
62.4720	528.14
62.4864	527.12
62.5009	534.75
62.5153	530.94
62.5298	551.96
62.5442	557.17
62.5586	549.66
62.5731	559.31
62.5875	523.01
62.6020	523.95
62.6164	538.97
62.6308	524.20
62.6453	540.13
62.6597	557.78
62.6742	550.20
62.6886	539.65
62.7030	558.26
62.7175	573.20
62.7319	571.71
62.7464	569.35
62.7608	546.43
62.7752	536.15
62.7897	567.09
62.8041	580.45
62.8186	559.24
62.8330	579.73
62.8474	553.83
62.8619	587.47
62.8763	566.06
62.8908	562.31
62.9052	560.20
62.9196	565.39
62.9341	565.97
62.9485	543.74
62.9630	557.91
62.9774	557.70
62.9918	603.54
63.0063	600.32
63.0207	586.37
63.0352	590.38
63.0496	579.29
63.0640	564.19
63.0785	540.72
63.0929	568.83
63.1074	593.30
63.1218	581.33
63.1362	583.61
63.1507	553.89
63.1651	543.03
63.1796	530.53
63.1940	538.26
63.2084	559.30
63.2229	585.19
63.2373	570.38
63.2518	556.01
63.2662	577.58
63.2806	584.74
63.2951	540.63
63.3095	610.88
63.3240	575.38
63.3384	574.01
63.3528	578.60
63.3673	552.29
63.3817	588.66
63.3962	565.28
63.4106	569.54
63.4250	577.52
63.4395	564.66
63.4539	586.91
63.4684	606.22
63.4828	565.17
63.4972	549.67
63.5117	576.71
63.5261	597.68
63.5406	594.99
63.5550	579.50
63.5694	563.27
63.5839	585.32
63.5983	583.48
63.6128	584.22
63.6272	607.81
63.6416	602.00
63.6561	620.27
63.6705	580.89
63.6850	556.50
63.6994	575.61
63.7138	613.34
63.7283	597.10
63.7427	573.09
63.7572	594.75
63.7716	580.60
63.7861	603.05
63.8005	578.00
63.8149	583.44
63.8294	639.05
63.8438	583.96
63.8583	584.30
63.8727	587.08
63.8871	562.19
63.9016	618.14
63.9160	644.54
63.9305	624.48
63.9449	591.72
63.9593	528.72
63.9738	609.28
63.9882	617.32
64.0027	649.93
64.0171	652.96
64.0315	657.77
64.0460	662.23
64.0604	667.66
64.0749	703.74
64.0893	691.91
64.1037	674.16
64.1182	706.32
64.1326	753.06
64.1471	742.46
64.1615	742.91
64.1759	794.23
64.1904	761.87
64.2048	779.93
64.2193	799.72
64.2337	779.65
64.2481	805.06
64.2626	767.66
64.2770	770.33
64.2915	749.06
64.3059	763.35
64.3203	766.59
64.3348	796.57
64.3492	782.04
64.3637	791.71
64.3781	745.35
64.3925	730.20
64.4070	706.44
64.4214	735.55
64.4359	725.98
64.4503	681.72
64.4647	715.59
64.4792	719.17
64.4936	712.90
64.5081	696.76
64.5225	666.59
64.5369	736.30
64.5514	678.66
64.5658	674.05
64.5803	714.76
64.5947	689.71
64.6091	680.17
64.6236	663.38
64.6380	708.05
64.6525	657.87
64.6669	682.84
64.6813	645.44
64.6958	659.13
64.7102	733.77
64.7247	695.00
64.7391	695.48
64.7535	701.71
64.7680	698.89
64.7824	743.34
64.7969	745.30
64.8113	759.82
64.8257	786.02
64.8402	808.08
64.8546	844.49
64.8691	845.82
64.8835	823.59
64.8979	841.99
64.9124	861.41
64.9268	874.38
64.9413	928.09
64.9557	956.60
64.9701	1012.51
64.9846	1104.72
64.9990	1163.26
65.0135	1279.03
65.0279	1514.14
65.0423	1842.23
65.0568	2246.21
65.0712	2740.13
65.0857	3767.63
65.1001	4887.35
65.1145	6605.13
65.1290	8546.66
65.1434	9946.67
65.1579	11445.39
65.1723	11998.01
65.1867	11375.95
65.2012	9777.64
65.2156	7902.86
65.2301	6320.35
65.2445	5058.68
65.2589	4363.53
65.2734	4255.64
65.2878	4463.18
65.3023	5131.66
65.3167	5880.50
65.3311	6743.27
65.3456	7035.73
65.3600	6958.70
65.3745	6206.30
65.3889	5281.20
65.4033	4258.30
65.4178	3355.55
65.4322	2624.18
65.4467	2026.22
65.4611	1696.34
65.4755	1481.48
65.4900	1272.93
65.5044	1148.10
65.5189	1029.22
65.5333	953.57
65.5477	922.13
65.5622	927.97
65.5766	872.42
65.5911	837.52
65.6055	821.00
65.6199	747.49
65.6344	732.25
65.6488	706.07
65.6633	748.98
65.6777	708.28
65.6921	698.80
65.7066	731.09
65.7210	708.41
65.7355	672.00
65.7499	692.04
65.7643	668.59
65.7788	683.73
65.7932	649.57
65.8077	674.86
65.8221	673.27
65.8365	634.10
65.8510	655.09
65.8654	684.49
65.8799	613.13
65.8943	658.01
65.9087	661.97
65.9232	629.81
65.9376	630.21
65.9521	625.40
65.9665	639.25
65.9809	586.04
65.9954	616.11
66.0098	633.81
66.0243	603.74
66.0387	630.10
66.0531	646.61
66.0676	620.43
66.0820	660.92
66.0965	634.52
66.1109	628.74
66.1253	628.99
66.1398	601.88
66.1542	626.10
66.1687	659.20
66.1831	634.25
66.1975	600.22
66.2120	644.42
66.2264	618.73
66.2409	638.84
66.2553	625.23
66.2697	592.69
66.2842	602.57
66.2986	630.52
66.3131	631.22
66.3275	621.90
66.3419	619.03
66.3564	606.77
66.3708	593.05
66.3853	552.67
66.3997	591.51
66.4141	608.40
66.4286	628.11
66.4430	601.92
66.4575	577.92
66.4719	604.29
66.4863	593.40
66.5008	577.07
66.5152	601.55
66.5297	589.60
66.5441	569.88
66.5585	585.71
66.5730	554.09
66.5874	563.03
66.6019	572.27
66.6163	575.91
66.6307	574.65
66.6452	583.98
66.6596	577.99
66.6741	580.44
66.6885	582.64
66.7029	610.94
66.7174	592.51
66.7318	545.67
66.7463	569.22
66.7607	567.75
66.7751	597.54
66.7896	629.64
66.8040	580.00
66.8185	586.88
66.8329	588.98
66.8473	573.64
66.8618	569.97
66.8762	563.74
66.8907	573.13
66.9051	608.98
66.9195	596.43
66.9340	568.73
66.9484	595.52
66.9629	595.05
66.9773	586.98
66.9917	586.03
67.0062	560.36
67.0206	576.80
67.0351	589.81
67.0495	581.26
67.0639	578.20
67.0784	579.49
67.0928	590.91
67.1073	599.19
67.1217	625.61
67.1361	595.25
67.1506	569.71
67.1650	589.12
67.1795	578.05
67.1939	582.83
67.2083	568.85
67.2228	583.50
67.2372	608.16
67.2517	604.64
67.2661	589.49
67.2805	588.52
67.2950	557.47
67.3094	572.15
67.3239	592.34
67.3383	602.63
67.3527	528.11
67.3672	540.23
67.3816	578.68
67.3961	566.93
67.4105	578.90
67.4250	595.61
67.4394	578.21
67.4538	579.20
67.4683	609.02
67.4827	607.18
67.4972	572.57
67.5116	567.06
67.5260	589.29
67.5405	557.78
67.5549	583.27
67.5694	568.60
67.5838	578.88
67.5982	575.96
67.6127	582.49
67.6271	567.74
67.6416	587.57
67.6560	585.92
67.6704	550.95
67.6849	565.59
67.6993	585.47
67.7138	556.36
67.7282	564.23
67.7426	590.39
67.7571	565.75
67.7715	551.47
67.7860	586.36
67.8004	564.62
67.8148	592.76
67.8293	579.02
67.8437	563.81
67.8582	593.19
67.8726	569.63
67.8870	559.79
67.9015	590.49
67.9159	546.19
67.9304	559.10
67.9448	574.19
67.9592	601.30
67.9737	595.35
67.9881	580.51
68.0026	558.30
68.0170	596.57
68.0314	589.91
68.0459	553.26
68.0603	566.58
68.0748	582.89
68.0892	607.91
68.1036	559.24
68.1181	569.18
68.1325	558.80
68.1470	571.35
68.1614	572.64
68.1758	563.13
68.1903	549.71
68.2047	571.64
68.2192	540.09
68.2336	597.51
68.2480	561.90
68.2625	560.98
68.2769	587.81
68.2914	569.58
68.3058	597.83
68.3202	571.29
68.3347	609.70
68.3491	633.93
68.3636	581.52
68.3780	557.91
68.3924	579.56
68.4069	525.00
68.4213	565.18
68.4358	513.27
68.4502	579.07
68.4646	572.05
68.4791	579.03
68.4935	547.77
68.5080	604.46
68.5224	547.73
68.5368	578.19
68.5513	614.28
68.5657	577.77
68.5802	538.09
68.5946	563.61
68.6090	576.08
68.6235	606.00
68.6379	565.96
68.6524	578.67
68.6668	567.04
68.6812	578.71
68.6957	560.41
68.7101	556.47
68.7246	574.36
68.7390	550.72
68.7534	577.18
68.7679	539.22
68.7823	571.06
68.7968	578.87
68.8112	588.51
68.8256	562.40
68.8401	564.28
68.8545	558.56
68.8690	604.87
68.8834	572.29
68.8978	597.17
68.9123	578.55
68.9267	563.34
68.9412	606.97
68.9556	563.23
68.9700	557.19
68.9845	536.20
68.9989	508.90
69.0134	543.42
69.0278	525.83
69.0422	564.52
69.0567	585.27
69.0711	621.62
69.0856	502.50
69.1000	577.58
69.1144	541.27
69.1289	593.68
69.1433	523.03
69.1578	573.64
69.1722	625.45
69.1866	614.12
69.2011	587.54
69.2155	614.78
69.2300	588.75
69.2444	609.71
69.2588	594.55
69.2733	544.61
69.2877	568.12
69.3022	576.00
69.3166	564.00
69.3310	636.26
69.3455	608.65
69.3599	584.17
69.3744	607.35
69.3888	551.86
69.4032	590.96
69.4177	634.41
69.4321	569.82
69.4466	519.33
69.4610	610.50
69.4754	586.98
69.4899	569.94
69.5043	564.88
69.5188	553.13
69.5332	596.45
69.5476	535.79
69.5621	576.50
69.5765	540.42
69.5910	548.23
69.6054	567.61
69.6198	505.44
69.6343	570.01
69.6487	585.15
69.6632	600.49
69.6776	570.64
69.6920	597.16
69.7065	600.16
69.7209	602.45
69.7354	574.24
69.7498	592.69
69.7642	557.33
69.7787	571.37
69.7931	604.98
69.8076	577.78
69.8220	531.63
69.8364	589.40
69.8509	607.30
69.8653	585.90
69.8798	627.67
69.8942	616.70
69.9086	553.40
69.9231	538.40
69.9375	602.50
69.9520	574.39
69.9664	559.47
69.9808	567.15
69.9953	580.01
70.0097	597.49
70.0242	594.42
70.0386	595.02
70.0530	618.63
70.0675	601.96
70.0819	603.14
70.0964	567.92
70.1108	580.68
70.1252	618.21
70.1397	611.40
70.1541	554.57
70.1686	587.76
70.1830	600.52
70.1974	579.29
70.2119	617.73
70.2263	554.88
70.2408	573.61
70.2552	622.07
70.2696	548.93
70.2841	599.68
70.2985	606.22
70.3130	588.67
70.3274	644.74
70.3418	607.11
70.3563	598.91
70.3707	594.33
70.3852	599.91
70.3996	603.72
70.4140	622.97
70.4285	618.45
70.4429	611.57
70.4574	588.03
70.4718	548.37
70.4862	549.38
70.5007	604.81
70.5151	583.17
70.5296	533.63
70.5440	544.38
70.5584	615.45
70.5729	562.85
70.5873	522.75
70.6018	543.80
70.6162	542.53
70.6306	559.52
70.6451	598.28
70.6595	547.76
70.6740	556.31
70.6884	547.44
70.7028	581.62
70.7173	621.42
70.7317	592.59
70.7462	578.23
70.7606	551.37
70.7750	609.54
70.7895	587.88
70.8039	512.12
70.8184	605.73
70.8328	591.12
70.8472	597.80
70.8617	670.77
70.8761	645.04
70.8906	535.56
70.9050	594.25
70.9194	578.18
70.9339	578.38
70.9483	595.01
70.9628	610.38
70.9772	595.46
70.9916	568.22
71.0061	606.85
71.0205	585.91
71.0350	573.79
71.0494	595.78
71.0638	631.48
71.0783	650.85
71.0927	600.20
71.1072	594.30
71.1216	564.86
71.1361	551.17
71.1505	565.50
71.1649	579.03
71.1794	590.22
71.1938	582.00
71.2083	560.00
71.2227	533.82
71.2371	539.67
71.2516	577.57
71.2660	530.54
71.2805	564.89
71.2949	583.80
71.3093	586.99
71.3238	550.55
71.3382	579.68
71.3527	582.61
71.3671	618.55
71.3815	583.20
71.3960	552.25
71.4104	564.69
71.4249	552.71
71.4393	597.95
71.4537	575.80
71.4682	564.71
71.4826	532.57
71.4971	541.73
71.5115	562.31
71.5259	567.88
71.5404	573.80
71.5548	585.50
71.5693	586.05
71.5837	551.33
71.5981	521.48
71.6126	513.61
71.6270	566.38
71.6415	600.38
71.6559	559.32
71.6703	577.75
71.6848	592.69
71.6992	564.61
71.7137	538.64
71.7281	574.68
71.7425	559.57
71.7570	529.69
71.7714	597.05
71.7859	598.22
71.8003	590.69
71.8147	613.29
71.8292	588.76
71.8436	611.35
71.8581	586.50
71.8725	572.05
71.8869	566.32
71.9014	611.11
71.9158	657.07
71.9303	566.85
71.9447	608.41
71.9591	605.01
71.9736	513.42
71.9880	530.00
72.0025	566.87
72.0169	570.98
72.0313	588.21
72.0458	617.71
72.0602	604.97
72.0747	574.06
72.0891	645.26
72.1035	616.51
72.1180	483.34
72.1324	520.63
72.1469	579.67
72.1613	568.06
72.1757	614.96
72.1902	607.09
72.2046	556.39
72.2191	529.56
72.2335	546.77
72.2479	606.24
72.2624	578.58
72.2768	563.43
72.2913	584.81
72.3057	564.97
72.3201	567.97
72.3346	581.54
72.3490	586.95
72.3635	560.52
72.3779	564.31
72.3923	545.31
72.4068	596.87
72.4212	644.88
72.4357	611.69
72.4501	586.35
72.4645	557.60
72.4790	547.63
72.4934	550.81
72.5079	524.18
72.5223	505.01
72.5367	539.92
72.5512	559.79
72.5656	477.64
72.5801	479.71
72.5945	564.30
72.6089	556.04
72.6234	575.82
72.6378	511.48
72.6523	496.01
72.6667	532.67
72.6811	567.35
72.6956	600.43
72.7100	592.17
72.7245	533.04
72.7389	529.99
72.7533	563.93
72.7678	537.93
72.7822	586.21
72.7967	570.81
72.8111	658.98
72.8255	689.04
72.8400	582.75
72.8544	591.98
72.8689	624.02
72.8833	588.94