2022.09.19 19:37:16
Îáðàçåö: ß÷åéêà LCoV 16-09-2022
Lambda1 = 1.54060
Lambda2 = 1.54439
Lambdam = 1.54186
R = 0.497
2Theta	I

line¹ 0 ;repeat¹ 0
22.1120	555.13
22.1264	594.07
22.1409	600.80
22.1553	431.14
22.1697	553.25
22.1842	572.73
22.1986	639.91
22.2131	577.78
22.2275	572.41
22.2419	588.52
22.2564	601.92
22.2708	565.48
22.2853	524.87
22.2997	547.53
22.3141	593.48
22.3286	570.08
22.3430	563.65
22.3575	620.70
22.3719	603.85
22.3863	580.80
22.4008	508.37
22.4152	544.49
22.4297	711.58
22.4441	693.56
22.4585	663.27
22.4730	664.45
22.4874	624.90
22.5019	654.88
22.5163	596.67
22.5307	530.61
22.5452	553.11
22.5596	609.93
22.5741	642.04
22.5885	655.54
22.6029	579.64
22.6174	602.93
22.6318	655.24
22.6463	687.23
22.6607	586.07
22.6751	558.09
22.6896	567.60
22.7040	555.31
22.7185	564.44
22.7329	505.68
22.7473	499.78
22.7618	574.92
22.7762	581.47
22.7907	639.54
22.8051	599.31
22.8195	557.62
22.8340	505.81
22.8484	482.00
22.8629	543.26
22.8773	506.24
22.8917	569.32
22.9062	570.78
22.9206	589.59
22.9351	504.46
22.9495	566.67
22.9639	517.43
22.9784	560.57
22.9928	572.52
23.0073	534.69
23.0217	556.28
23.0361	551.26
23.0506	518.12
23.0650	595.10
23.0795	587.37
23.0939	544.41
23.1083	592.71
23.1228	617.02
23.1372	580.67
23.1517	582.54
23.1661	579.78
23.1806	586.57
23.1950	626.39
23.2094	559.86
23.2239	564.94
23.2383	523.33
23.2528	584.46
23.2672	546.19
23.2816	602.65
23.2961	512.67
23.3105	554.14
23.3250	568.76
23.3394	586.02
23.3538	525.98
23.3683	515.94
23.3827	550.81
23.3972	541.72
23.4116	554.46
23.4260	596.76
23.4405	543.96
23.4549	579.79
23.4694	579.89
23.4838	545.08
23.4982	580.52
23.5127	583.30
23.5271	574.58
23.5416	514.48
23.5560	551.78
23.5704	612.89
23.5849	579.98
23.5993	546.70
23.6138	533.40
23.6282	521.49
23.6426	501.55
23.6571	580.82
23.6715	577.78
23.6860	560.23
23.7004	600.24
23.7148	522.98
23.7293	556.96
23.7437	557.60
23.7582	573.93
23.7726	550.62
23.7870	535.33
23.8015	537.63
23.8159	670.50
23.8304	566.08
23.8448	536.84
23.8592	571.56
23.8737	603.85
23.8881	612.04
23.9026	550.13
23.9170	508.62
23.9314	516.04
23.9459	479.86
23.9603	557.44
23.9748	566.39
23.9892	569.19
24.0036	604.90
24.0181	576.11
24.0325	521.81
24.0470	588.97
24.0614	560.23
24.0758	553.69
24.0903	573.80
24.1047	608.54
24.1192	632.02
24.1336	567.93
24.1480	584.69
24.1625	592.84
24.1769	629.13
24.1914	599.00
24.2058	603.27
24.2202	607.82
24.2347	601.86
24.2491	582.89
24.2636	613.13
24.2780	619.29
24.2924	571.58
24.3069	528.78
24.3213	549.49
24.3358	605.64
24.3502	582.63
24.3646	520.57
24.3791	585.25
24.3935	563.51
24.4080	581.41
24.4224	537.73
24.4368	514.72
24.4513	577.85
24.4657	531.08
24.4802	564.60
24.4946	553.17
24.5090	545.81
24.5235	550.29
24.5379	608.36
24.5524	573.83
24.5668	587.56
24.5812	541.59
24.5957	564.21
24.6101	582.08
24.6246	541.38
24.6390	545.40
24.6534	527.30
24.6679	551.58
24.6823	521.06
24.6968	544.52
24.7112	533.74
24.7256	557.56
24.7401	538.19
24.7545	518.05
24.7690	578.11
24.7834	532.72
24.7978	516.80
24.8123	582.37
24.8267	583.15
24.8412	509.07
24.8556	624.59
24.8700	586.36
24.8845	521.07
24.8989	541.18
24.9134	573.24
24.9278	589.09
24.9422	514.08
24.9567	531.92
24.9711	540.05
24.9856	549.00
25.0000	571.52
25.0144	572.74
25.0289	514.87
25.0433	564.80
25.0578	555.53
25.0722	583.76
25.0866	570.31
25.1011	523.50
25.1155	526.11
25.1300	597.10
25.1444	526.51
25.1588	530.55
25.1733	561.20
25.1877	491.23
25.2022	480.42
25.2166	494.42
25.2310	551.49
25.2455	481.69
25.2599	548.25
25.2744	587.77
25.2888	550.57
25.3032	536.86
25.3177	551.58
25.3321	513.38
25.3466	507.86
25.3610	567.37
25.3754	556.95
25.3899	550.61
25.4043	526.44
25.4188	548.09
25.4332	538.25
25.4476	512.76
25.4621	556.90
25.4765	563.72
25.4910	563.19
25.5054	533.75
25.5198	534.17
25.5343	601.37
25.5487	520.49
25.5632	515.04
25.5776	594.47
25.5920	567.20
25.6065	558.40
25.6209	561.49
25.6354	539.44
25.6498	571.45
25.6642	543.13
25.6787	502.82
25.6931	508.32
25.7076	542.25
25.7220	554.07
25.7364	533.85
25.7509	565.29
25.7653	551.78
25.7798	598.05
25.7942	558.49
25.8086	573.40
25.8231	550.97
25.8375	517.05
25.8520	541.35
25.8664	532.10
25.8808	529.03
25.8953	561.42
25.9097	494.25
25.9242	511.69
25.9386	552.83
25.9530	569.17
25.9675	563.66
25.9819	508.01
25.9964	512.05
26.0108	504.28
26.0252	523.56
26.0397	559.40
26.0541	539.44
26.0686	546.91
26.0830	533.16
26.0974	543.30
26.1119	524.53
26.1263	537.96
26.1408	530.44
26.1552	519.14
26.1696	503.65
26.1841	500.16
26.1985	466.98
26.2130	544.06
26.2274	529.88
26.2418	521.37
26.2563	542.63
26.2707	537.52
26.2852	524.25
26.2996	506.64
26.3140	486.60
26.3285	518.84
26.3429	539.58
26.3574	520.26
26.3718	511.76
26.3862	524.57
26.4007	505.90
26.4151	509.89
26.4296	525.01
26.4440	523.12
26.4584	494.01
26.4729	510.51
26.4873	532.64
26.5018	521.89
26.5162	522.03
26.5306	522.61
26.5451	523.11
26.5595	528.90
26.5740	535.20
26.5884	541.78
26.6028	551.55
26.6173	526.99
26.6317	526.37
26.6462	514.90
26.6606	520.33
26.6750	528.33
26.6895	511.90
26.7039	543.53
26.7184	546.58
26.7328	530.57
26.7472	522.36
26.7617	533.74
26.7761	532.56
26.7906	532.45
26.8050	551.30
26.8194	508.70
26.8339	528.57
26.8483	501.12
26.8628	518.68
26.8772	507.47
26.8917	502.89
26.9061	520.91
26.9205	528.13
26.9350	506.23
26.9494	510.65
26.9639	488.36
26.9783	481.36
26.9927	516.78
27.0072	536.60
27.0216	549.55
27.0361	517.82
27.0505	493.75
27.0649	521.76
27.0794	515.32
27.0938	506.12
27.1083	493.62
27.1227	534.84
27.1371	517.08
27.1516	512.75
27.1660	523.73
27.1805	532.83
27.1949	522.58
27.2093	502.45
27.2238	494.79
27.2382	541.00
27.2527	533.34
27.2671	489.85
27.2815	505.50
27.2960	507.45
27.3104	541.89
27.3249	496.78
27.3393	522.91
27.3537	489.41
27.3682	500.37
27.3826	528.63
27.3971	512.97
27.4115	519.13
27.4259	494.16
27.4404	488.94
27.4548	531.38
27.4693	507.65
27.4837	505.43
27.4981	548.16
27.5126	536.95
27.5270	485.10
27.5415	511.77
27.5559	501.61
27.5703	515.49
27.5848	541.37
27.5992	524.36
27.6137	508.35
27.6281	511.12
27.6425	511.86
27.6570	486.03
27.6714	514.09
27.6859	503.10
27.7003	540.55
27.7147	575.37
27.7292	506.59
27.7436	541.10
27.7581	551.78
27.7725	520.48
27.7869	521.70
27.8014	537.53
27.8158	530.01
27.8303	519.29
27.8447	524.38
27.8591	525.59
27.8736	485.08
27.8880	472.72
27.9025	537.39
27.9169	520.16
27.9313	538.78
27.9458	555.60
27.9602	495.54
27.9747	511.23
27.9891	507.42
28.0035	524.60
28.0180	525.47
28.0324	503.97
28.0469	546.84
28.0613	494.04
28.0757	477.44
28.0902	514.76
28.1046	514.82
28.1191	540.62
28.1335	521.69
28.1479	535.48
28.1624	529.47
28.1768	517.47
28.1913	508.51
28.2057	517.14
28.2201	502.63
28.2346	496.39
28.2490	488.32
28.2635	499.77
28.2779	524.02
28.2923	515.86
28.3068	519.32
28.3212	497.25
28.3357	504.30
28.3501	509.47
28.3645	476.16
28.3790	486.11
28.3934	482.58
28.4079	446.43
28.4223	526.00
28.4367	516.38
28.4512	502.92
28.4656	510.03
28.4801	522.68
28.4945	522.54
28.5089	532.70
28.5234	544.07
28.5378	540.03
28.5523	517.63
28.5667	525.37
28.5811	485.72
28.5956	469.88
28.6100	533.38
28.6245	509.67
28.6389	516.37
28.6533	512.59
28.6678	526.64
28.6822	527.25
28.6967	519.83
28.7111	537.85
28.7255	519.43
28.7400	486.22
28.7544	522.41
28.7689	546.89
28.7833	517.40
28.7977	503.41
28.8122	526.70
28.8266	558.72
28.8411	545.42
28.8555	523.27
28.8699	532.12
28.8844	522.91
28.8988	530.59
28.9133	525.83
28.9277	507.35
28.9421	509.58
28.9566	493.49
28.9710	525.65
28.9855	506.35
28.9999	508.08
29.0143	500.37
29.0288	507.73
29.0432	545.92
29.0577	502.85
29.0721	517.86
29.0865	536.89
29.1010	495.61
29.1154	518.20
29.1299	521.07
29.1443	493.22
29.1587	516.83
29.1732	515.88
29.1876	524.02
29.2021	517.88
29.2165	492.06
29.2309	484.27
29.2454	470.91
29.2598	502.47
29.2743	512.06
29.2887	522.04
29.3031	532.86
29.3176	518.58
29.3320	511.74
29.3465	507.13
29.3609	491.24
29.3753	503.15
29.3898	497.64
29.4042	492.11
29.4187	496.94
29.4331	517.09
29.4475	505.50
29.4620	515.63
29.4764	528.56
29.4909	498.45
29.5053	490.04
29.5197	508.60
29.5342	534.97
29.5486	518.26
29.5631	506.46
29.5775	486.58
29.5919	516.87
29.6064	540.32
29.6208	481.86
29.6353	513.41
29.6497	487.37
29.6641	486.23
29.6786	507.96
29.6930	500.11
29.7075	520.41
29.7219	496.52
29.7363	499.00
29.7508	531.22
29.7652	533.36
29.7797	527.58
29.7941	541.34
29.8085	557.51
29.8230	501.56
29.8374	495.34
29.8519	525.89
29.8663	514.37
29.8807	498.37
29.8952	518.02
29.9096	521.38
29.9241	519.01
29.9385	521.85
29.9529	519.25
29.9674	509.47
29.9818	500.67
29.9963	527.52
30.0107	531.23
30.0251	513.67
30.0396	551.22
30.0540	490.15
30.0685	493.71
30.0829	499.17
30.0973	533.85
30.1118	505.91
30.1262	516.87
30.1407	533.14
30.1551	496.30
30.1695	502.20
30.1840	517.04
30.1984	501.87
30.2129	503.61
30.2273	522.84
30.2417	520.01
30.2562	518.96
30.2706	498.59
30.2851	485.55
30.2995	488.73
30.3139	517.41
30.3284	523.07
30.3428	542.02
30.3573	529.66
30.3717	467.41
30.3861	481.78
30.4006	517.18
30.4150	533.17
30.4295	518.01
30.4439	481.77
30.4583	483.81
30.4728	505.12
30.4872	529.22
30.5017	530.32
30.5161	505.42
30.5305	512.13
30.5450	539.30
30.5594	535.15
30.5739	469.84
30.5883	518.00
30.6028	493.26
30.6172	510.88
30.6316	532.45
30.6461	534.91
30.6605	527.11
30.6750	533.19
30.6894	513.04
30.7038	548.75
30.7183	522.61
30.7327	516.82
30.7472	558.44
30.7616	597.29
30.7760	584.14
30.7905	594.80
30.8049	583.18
30.8194	633.38
30.8338	667.84
30.8482	667.45
30.8627	684.90
30.8771	708.58
30.8916	713.81
30.9060	713.48
30.9204	687.13
30.9349	643.92
30.9493	635.84
30.9638	630.91
30.9782	620.65
30.9926	620.78
31.0071	626.99
31.0215	600.74
31.0360	531.48
31.0504	537.45
31.0648	556.05
31.0793	550.56
31.0937	562.59
31.1082	526.37
31.1226	553.19
31.1370	520.41
31.1515	541.22
31.1659	564.32
31.1804	569.02
31.1948	556.46
31.2092	546.80
31.2237	533.01
31.2381	541.05
31.2526	544.82
31.2670	535.34
31.2814	558.57
31.2959	528.70
31.3103	563.46
31.3248	551.42
31.3392	551.69
31.3536	550.26
31.3681	542.94
31.3825	535.67
31.3970	541.91
31.4114	535.95
31.4258	499.52
31.4403	526.34
31.4547	495.81
31.4692	536.98
31.4836	508.19
31.4980	502.87
31.5125	498.85
31.5269	526.33
31.5414	500.80
31.5558	494.13
31.5702	493.66
31.5847	526.48
31.5991	487.28
31.6136	506.35
31.6280	516.49
31.6424	531.22
31.6569	504.64
31.6713	492.86
31.6858	542.39
31.7002	518.63
31.7146	531.98
31.7291	493.25
31.7435	502.42
31.7580	508.42
31.7724	527.81
31.7868	530.66
31.8013	514.64
31.8157	532.49
31.8302	447.99
31.8446	466.75
31.8590	521.11
31.8735	523.35
31.8879	484.87
31.9024	483.41
31.9168	515.15
31.9312	533.81
31.9457	502.93
31.9601	464.03
31.9746	497.35
31.9890	504.55
32.0034	501.70
32.0179	509.22
32.0323	488.92
32.0468	541.20
32.0612	515.28
32.0756	507.11
32.0901	530.91
32.1045	512.07
32.1190	480.82
32.1334	490.03
32.1478	508.53
32.1623	497.42
32.1767	514.22
32.1912	520.50
32.2056	500.00
32.2200	550.12
32.2345	508.87
32.2489	514.65
32.2634	486.64
32.2778	525.13
32.2922	511.59
32.3067	506.90
32.3211	523.28
32.3356	491.00
32.3500	497.50
32.3644	501.92
32.3789	490.85
32.3933	467.08
32.4078	510.91
32.4222	490.53
32.4366	500.43
32.4511	468.77
32.4655	496.65
32.4800	487.47
32.4944	500.90
32.5088	504.55
32.5233	481.38
32.5377	501.27
32.5522	471.22
32.5666	495.88
32.5810	492.09
32.5955	469.21
32.6099	473.17
32.6244	498.49
32.6388	496.78
32.6532	527.65
32.6677	503.06
32.6821	487.01
32.6966	517.41
32.7110	543.76
32.7254	548.72
32.7399	484.85
32.7543	491.25
32.7688	482.96
32.7832	494.75
32.7976	520.51
32.8121	508.14
32.8265	514.94
32.8410	510.44
32.8554	500.48
32.8698	514.73
32.8843	480.21
32.8987	509.06
32.9132	540.96
32.9276	508.65
32.9420	535.64
32.9565	480.89
32.9709	514.60
32.9854	490.47
32.9998	434.74
33.0142	467.26
33.0287	485.85
33.0431	493.46
33.0576	494.86
33.0720	486.80
33.0864	510.95
33.1009	477.55
33.1153	509.81
33.1298	505.99
33.1442	467.89
33.1586	495.05
33.1731	518.49
33.1875	498.09
33.2020	501.45
33.2164	462.85
33.2308	486.28
33.2453	497.94
33.2597	503.98
33.2742	490.18
33.2886	509.66
33.3030	467.81
33.3175	502.98
33.3319	478.28
33.3464	516.18
33.3608	517.82
33.3752	495.54
33.3897	481.31
33.4041	494.35
33.4186	503.87
33.4330	494.99
33.4474	479.88
33.4619	518.23
33.4763	527.62
33.4908	519.18
33.5052	462.15
33.5196	495.12
33.5341	477.17
33.5485	493.05
33.5630	500.66
33.5774	502.28
33.5918	532.70
33.6063	553.18
33.6207	492.99
33.6352	512.50
33.6496	552.03
33.6640	503.84
33.6785	489.93
33.6929	491.87
33.7074	536.61
33.7218	529.78
33.7362	506.12
33.7507	483.94
33.7651	496.36
33.7796	504.08
33.7940	484.04
33.8084	495.96
33.8229	492.37
33.8373	512.27
33.8518	508.76
33.8662	500.60
33.8806	522.87
33.8951	528.79
33.9095	532.33
33.9240	515.70
33.9384	498.61
33.9528	494.04
33.9673	493.38
33.9817	516.00
33.9962	506.01
34.0106	527.21
34.0250	537.24
34.0395	530.03
34.0539	507.93
34.0684	512.14
34.0828	525.45
34.0972	514.50
34.1117	523.09
34.1261	491.07
34.1406	485.92
34.1550	514.82
34.1694	505.30
34.1839	497.38
34.1983	494.09
34.2128	500.97
34.2272	502.40
34.2417	528.17
34.2561	558.13
34.2705	503.45
34.2850	542.27
34.2994	540.14
34.3139	488.34
34.3283	495.87
34.3427	484.49
34.3572	505.86
34.3716	504.76
34.3861	467.38
34.4005	499.17
34.4149	515.63
34.4294	521.95
34.4438	488.42
34.4583	504.37
34.4727	506.74
34.4871	485.09
34.5016	501.50
34.5160	534.66
34.5305	575.22
34.5449	550.35
34.5593	525.40
34.5738	488.71
34.5882	471.03
34.6027	493.21
34.6171	509.56
34.6315	517.07
34.6460	480.56
34.6604	466.76
34.6749	477.97
34.6893	470.43
34.7037	495.35
34.7182	489.04
34.7326	482.72
34.7471	513.80
34.7615	503.03
34.7759	523.37
34.7904	528.86
34.8048	503.47
34.8193	504.23
34.8337	503.33
34.8481	505.77
34.8626	533.29
34.8770	511.73
34.8915	530.50
34.9059	529.17
34.9203	519.89
34.9348	521.32
34.9492	499.95
34.9637	491.13
34.9781	521.21
34.9925	526.22
35.0070	526.38
35.0214	519.90
35.0359	500.64
35.0503	523.99
35.0647	529.27
35.0792	502.79
35.0936	550.91
35.1081	568.04
35.1225	560.16
35.1369	516.72
35.1514	494.37
35.1658	529.74
35.1803	532.28
35.1947	514.34
35.2091	508.77
35.2236	528.32
35.2380	506.40
35.2525	507.19
35.2669	479.63
35.2813	501.43
35.2958	509.88
35.3102	530.43
35.3247	515.09
35.3391	516.99
35.3535	550.85
35.3680	526.00
35.3824	521.53
35.3969	520.83
35.4113	526.61
35.4257	527.80
35.4402	519.26
35.4546	517.46
35.4691	582.20
35.4835	573.74
35.4979	531.43
35.5124	535.89
35.5268	551.99
35.5413	550.97
35.5557	548.34
35.5701	521.40
35.5846	531.35
35.5990	521.86
35.6135	498.88
35.6279	504.65
35.6423	488.53
35.6568	528.61
35.6712	545.84
35.6857	559.96
35.7001	645.63
35.7145	692.69
35.7290	667.55
35.7434	605.20
35.7579	577.51
35.7723	558.26
35.7867	606.28
35.8012	628.58
35.8156	633.66
35.8301	597.09
35.8445	565.41
35.8589	621.95
35.8734	739.34
35.8878	863.32
35.9023	996.21
35.9167	1117.92
35.9311	1512.84
35.9456	2307.92
35.9600	2300.78
35.9745	1859.88
35.9889	1869.07
36.0033	2203.66
36.0178	2337.27
36.0322	1993.18
36.0467	1854.65
36.0611	1572.25
36.0755	1558.55
36.0900	1454.58
36.1044	1270.33
36.1189	1297.76
36.1333	1193.15
36.1477	1029.57
36.1622	1050.93
36.1766	990.68
36.1911	885.82
36.2055	758.21
36.2199	781.14
36.2344	769.47
36.2488	788.30
36.2633	804.28
36.2777	774.92
36.2921	836.94
36.3066	914.97
36.3210	907.14
36.3355	963.27
36.3499	1012.41
36.3643	987.14
36.3788	1003.48
36.3932	987.19
36.4077	973.69
36.4221	1002.49
36.4365	921.79
36.4510	877.70
36.4654	843.32
36.4799	805.21
36.4943	775.08
36.5087	750.74
36.5232	662.22
36.5376	674.16
36.5521	689.37
36.5665	638.08
36.5809	580.90
36.5954	605.49
36.6098	595.50
36.6243	599.10
36.6387	602.83
36.6531	573.16
36.6676	582.93
36.6820	540.26
36.6965	527.58
36.7109	571.50
36.7253	569.43
36.7398	543.24
36.7542	559.18
36.7687	554.21
36.7831	557.73
36.7975	587.04
36.8120	599.79
36.8264	592.20
36.8409	627.14
36.8553	565.44
36.8697	579.72
36.8842	586.18
36.8986	623.18
36.9131	587.66
36.9275	593.62
36.9419	588.24
36.9564	567.74
36.9708	588.66
36.9853	566.22
36.9997	546.09
37.0141	568.67
37.0286	553.25
37.0430	569.13
37.0575	551.29
37.0719	533.38
37.0863	511.22
37.1008	519.43
37.1152	510.57
37.1297	510.42
37.1441	444.50
37.1585	485.44
37.1730	500.29
37.1874	525.30
37.2019	510.53
37.2163	520.67
37.2307	523.46
37.2452	526.12
37.2596	488.79
37.2741	519.99
37.2885	502.01
37.3029	516.38
37.3174	512.81
37.3318	515.83
37.3463	503.22
37.3607	475.99
37.3751	480.01
37.3896	485.37
37.4040	510.02
37.4185	497.15
37.4329	537.02
37.4473	500.48
37.4618	506.15
37.4762	514.47
37.4907	504.13
37.5051	504.23
37.5195	510.01
37.5340	541.16
37.5484	496.57
37.5629	495.26
37.5773	492.53
37.5917	526.29
37.6062	509.53
37.6206	519.99
37.6351	502.13
37.6495	479.76
37.6639	522.63
37.6784	524.76
37.6928	516.09
37.7073	542.62
37.7217	489.78
37.7361	502.05
37.7506	499.37
37.7650	497.87
37.7795	507.67
37.7939	479.74
37.8083	536.91
37.8228	517.31
37.8372	534.94
37.8517	543.38
37.8661	536.95
37.8805	528.70
37.8950	545.32
37.9094	567.86
37.9239	516.27
37.9383	474.60
37.9528	486.47
37.9672	511.23
37.9816	499.25
37.9961	504.24
38.0105	487.52
38.0250	510.58
38.0394	541.79
38.0538	541.65
38.0683	533.21
38.0827	499.19
38.0972	500.92
38.1116	519.78
38.1260	522.44
38.1405	517.27
38.1549	501.80
38.1694	511.19
38.1838	527.35
38.1982	502.95
38.2127	515.32
38.2271	522.38
38.2416	541.34
38.2560	510.97
38.2704	510.81
38.2849	525.50
38.2993	508.58
38.3138	517.72
38.3282	494.73
38.3426	495.44
38.3571	489.85
38.3715	494.33
38.3860	546.97
38.4004	538.78
38.4148	571.77
38.4293	614.19
38.4437	610.63
38.4582	599.62
38.4726	703.45
38.4870	730.15
38.5015	723.80
38.5159	796.83
38.5304	803.06
38.5448	869.86
38.5592	819.99
38.5737	750.11
38.5881	743.31
38.6026	708.82
38.6170	666.49
38.6314	673.35
38.6459	691.83
38.6603	631.60
38.6748	607.47
38.6892	560.33
38.7036	567.47
38.7181	547.06
38.7325	465.68
38.7470	506.43
38.7614	521.29
38.7758	532.76
38.7903	524.61
38.8047	533.71
38.8192	501.53
38.8336	505.76
38.8480	503.50
38.8625	526.41
38.8769	522.52
38.8914	470.13
38.9058	515.34
38.9202	489.56
38.9347	498.91
38.9491	518.55
38.9636	506.72
38.9780	506.67
38.9924	515.49
39.0069	473.11
39.0213	510.59
39.0358	505.65
39.0502	496.72
39.0646	509.66
39.0791	482.51
39.0935	478.15
39.1080	496.24
39.1224	490.52
39.1368	464.89
39.1513	496.90
39.1657	509.89
39.1802	492.99
39.1946	504.40
39.2090	515.14
39.2235	496.98
39.2379	517.17
39.2524	518.43
39.2668	533.50
39.2812	560.45
39.2957	513.05
39.3101	488.41
39.3246	534.45
39.3390	497.40
39.3534	483.14
39.3679	469.50
39.3823	482.67
39.3968	507.70
39.4112	508.77
39.4256	529.26
39.4401	522.19
39.4545	517.60
39.4690	523.42
39.4834	529.58
39.4978	533.21
39.5123	486.43
39.5267	503.58
39.5412	533.82
39.5556	497.45
39.5700	492.12
39.5845	530.72
39.5989	497.53
39.6134	504.60
39.6278	524.59
39.6422	508.21
39.6567	493.24
39.6711	498.39
39.6856	505.10
39.7000	496.87
39.7144	492.31
39.7289	491.44
39.7433	507.03
39.7578	489.87
39.7722	475.43
39.7866	501.35
39.8011	493.69
39.8155	496.34
39.8300	482.99
39.8444	481.29
39.8588	495.81
39.8733	481.61
39.8877	498.70
39.9022	528.80
39.9166	511.62
39.9310	499.34
39.9455	511.75
39.9599	489.75
39.9744	473.25
39.9888	487.48
40.0032	481.79
40.0177	529.23
40.0321	537.07
40.0466	487.53
40.0610	466.59
40.0754	516.65
40.0899	540.17
40.1043	529.39
40.1188	521.88
40.1332	511.21
40.1476	471.95
40.1621	474.89
40.1765	489.41
40.1910	489.17
40.2054	460.10
40.2198	509.90
40.2343	498.71
40.2487	522.83
40.2632	488.86
40.2776	480.91
40.2920	530.89
40.3065	528.95
40.3209	521.25
40.3354	471.76
40.3498	473.17
40.3642	502.64
40.3787	476.91
40.3931	476.88
40.4076	486.68
40.4220	464.59
40.4364	526.99
40.4509	516.30
40.4653	505.12
40.4798	488.66
40.4942	459.34
40.5086	508.43
40.5231	505.86
40.5375	520.00
40.5520	505.52
40.5664	501.15
40.5808	516.01
40.5953	496.86
40.6097	523.87
40.6242	484.60
40.6386	527.95
40.6530	494.80
40.6675	479.60
40.6819	497.30
40.6964	484.83
40.7108	497.64
40.7252	493.42
40.7397	535.78
40.7541	523.38
40.7686	530.55
40.7830	498.14
40.7974	495.14
40.8119	490.88
40.8263	486.38
40.8408	504.77
40.8552	502.68
40.8696	495.30
40.8841	461.22
40.8985	490.67
40.9130	542.21
40.9274	505.13
40.9418	498.02
40.9563	526.94
40.9707	472.56
40.9852	471.80
40.9996	440.43
41.0140	525.69
41.0285	518.81
41.0429	503.85
41.0574	480.54
41.0718	483.13
41.0862	474.14
41.1007	499.60
41.1151	512.45
41.1296	543.54
41.1440	490.13
41.1584	480.06
41.1729	520.99
41.1873	491.76
41.2018	468.64
41.2162	512.56
41.2306	535.19
41.2451	516.65
41.2595	484.81
41.2740	504.78
41.2884	488.71
41.3028	499.94
41.3173	497.69
41.3317	480.90
41.3462	477.90
41.3606	486.95
41.3750	502.12
41.3895	514.16
41.4039	518.98
41.4184	489.65
41.4328	523.07
41.4472	515.77
41.4617	495.98
41.4761	494.39
41.4906	511.72
41.5050	504.43
41.5194	488.38
41.5339	484.04
41.5483	514.88
41.5628	469.65
41.5772	479.41
41.5916	483.40
41.6061	522.64
41.6205	501.49
41.6350	524.72
41.6494	528.49
41.6639	482.28
41.6783	483.14
41.6927	504.46
41.7072	530.77
41.7216	514.65
41.7361	480.56
41.7505	509.33
41.7649	498.26
41.7794	513.05
41.7938	514.83
41.8083	515.98
41.8227	511.10
41.8371	504.35
41.8516	505.28
41.8660	517.65
41.8805	515.82
41.8949	556.44
41.9093	518.39
41.9238	525.92
41.9382	509.95
41.9527	586.26
41.9671	566.04
41.9815	551.19
41.9960	575.60
42.0104	537.51
42.0249	530.10
42.0393	558.51
42.0537	550.13
42.0682	538.64
42.0826	564.95
42.0971	560.75
42.1115	579.58
42.1259	597.11
42.1404	601.26
42.1548	618.20
42.1693	639.80
42.1837	708.33
42.1981	711.35
42.2126	827.47
42.2270	911.12
42.2415	1033.55
42.2559	1155.74
42.2703	1298.87
42.2848	1519.28
42.2992	1608.12
42.3137	1636.63
42.3281	1642.02
42.3425	1534.17
42.3570	1431.95
42.3714	1400.05
42.3859	1340.12
42.4003	1305.55
42.4147	1347.97
42.4292	1237.64
42.4436	1137.71
42.4581	1002.85
42.4725	937.51
42.4869	862.89
42.5014	803.61
42.5158	661.96
42.5303	640.21
42.5447	603.44
42.5591	581.85
42.5736	556.03
42.5880	552.36
42.6025	547.81
42.6169	579.99
42.6313	540.64
42.6458	544.06
42.6602	509.91
42.6747	532.43
42.6891	540.03
42.7035	549.01
42.7180	543.21
42.7324	527.07
42.7469	552.29
42.7613	515.54
42.7757	527.65
42.7902	545.38
42.8046	527.60
42.8191	524.61
42.8335	523.15
42.8479	502.76
42.8624	525.37
42.8768	527.05
42.8913	532.25
42.9057	544.52
42.9201	537.39
42.9346	506.21
42.9490	515.07
42.9635	482.84
42.9779	484.16
42.9923	514.35
43.0068	514.16
43.0212	507.00
43.0357	513.89
43.0501	502.60
43.0645	526.95
43.0790	525.82
43.0934	539.84
43.1079	507.67
43.1223	507.16
43.1367	502.74
43.1512	515.80
43.1656	534.70
43.1801	527.12
43.1945	509.80
43.2089	503.97
43.2234	489.06
43.2378	513.85
43.2523	532.76
43.2667	534.32
43.2811	531.30
43.2956	519.46
43.3100	558.88
43.3245	516.97
43.3389	504.27
43.3533	534.84
43.3678	512.24
43.3822	527.58
43.3967	527.80
43.4111	503.32
43.4255	517.42
43.4400	520.02
43.4544	534.62
43.4689	511.31
43.4833	514.56
43.4977	499.74
43.5122	498.64
43.5266	521.72
43.5411	515.55
43.5555	544.02
43.5699	528.75
43.5844	500.40
43.5988	503.25
43.6133	519.37
43.6277	552.28
43.6421	522.76
43.6566	530.94
43.6710	481.89
43.6855	513.87
43.6999	527.89
43.7143	524.08
43.7288	539.65
43.7432	515.94
43.7577	505.30
43.7721	490.08
43.7865	512.00
43.8010	518.95
43.8154	523.98
43.8299	521.68
43.8443	512.11
43.8587	524.83
43.8732	534.47
43.8876	511.82
43.9021	559.97
43.9165	495.78
43.9309	516.13
43.9454	541.67
43.9598	517.82
43.9743	533.96
43.9887	505.28
44.0031	521.68
44.0176	555.75
44.0320	507.03
44.0465	537.16
44.0609	575.79
44.0753	545.23
44.0898	558.79
44.1042	545.22
44.1187	566.70
44.1331	576.60
44.1475	563.86
44.1620	587.09
44.1764	621.22
44.1909	621.09
44.2053	619.72
44.2197	640.88
44.2342	637.17
44.2486	589.42
44.2631	556.93
44.2775	595.76
44.2919	610.55
44.3064	614.30
44.3208	631.46
44.3353	593.80
44.3497	569.68
44.3641	607.36
44.3786	581.80
44.3930	584.33
44.4075	591.38
44.4219	597.04
44.4363	608.13
44.4508	569.71
44.4652	594.82
44.4797	624.79
44.4941	600.13
44.5085	587.32
44.5230	585.12
44.5374	625.78
44.5519	580.85
44.5663	560.52
44.5807	583.22
44.5952	600.05
44.6096	623.07
44.6241	588.29
44.6385	589.58
44.6529	593.72
44.6674	588.33
44.6818	598.46
44.6963	665.28
44.7107	714.41
44.7251	732.32
44.7396	728.03
44.7540	802.81
44.7685	869.46
44.7829	885.18
44.7973	911.66
44.8118	840.84
44.8262	771.58
44.8407	737.62
44.8551	767.83
44.8695	728.10
44.8840	737.52
44.8984	704.24
44.9129	692.16
44.9273	700.21
44.9417	647.12
44.9562	577.38
44.9706	585.11
44.9851	562.72
44.9995	504.05
45.0139	518.56
45.0284	534.02
45.0428	544.31
45.0573	523.14
45.0717	508.18
45.0861	494.49
45.1006	514.51
45.1150	514.92
45.1295	500.76
45.1439	475.45
45.1583	476.45
45.1728	514.82
45.1872	502.14
45.2017	489.20
45.2161	525.59
45.2305	557.43
45.2450	514.30
45.2594	510.82
45.2739	516.36
45.2883	477.11
45.3028	524.71
45.3172	515.22
45.3316	499.38
45.3461	492.74
45.3605	478.99
45.3750	492.26
45.3894	494.67
45.4038	496.20
45.4183	495.16
45.4327	530.94
45.4472	482.18
45.4616	491.64
45.4760	502.70
45.4905	491.97
45.5049	514.93
45.5194	524.07
45.5338	512.17
45.5482	526.67
45.5627	483.55
45.5771	492.27
45.5916	500.06
45.6060	493.09
45.6204	465.41
45.6349	508.09
45.6493	513.37
45.6638	510.34
45.6782	499.78
45.6926	470.97
45.7071	511.84
45.7215	505.21
45.7360	497.43
45.7504	516.89
45.7648	493.99
45.7793	487.53
45.7937	491.03
45.8082	509.31
45.8226	496.33
45.8370	506.04
45.8515	513.98
45.8659	535.86
45.8804	513.73
45.8948	540.67
45.9092	524.46
45.9237	519.02
45.9381	520.30
45.9526	523.99
45.9670	489.29
45.9814	480.63
45.9959	491.86
46.0103	492.81
46.0248	481.93
46.0392	530.82
46.0536	509.12
46.0681	521.70
46.0825	504.88
46.0970	511.65
46.1114	495.49
46.1258	534.87
46.1403	530.71
46.1547	486.32
46.1692	494.11
46.1836	502.69
46.1980	491.44
46.2125	502.84
46.2269	500.22
46.2414	478.13
46.2558	492.15
46.2702	530.09
46.2847	510.84
46.2991	506.24
46.3136	504.92
46.3280	517.85
46.3424	500.11
46.3569	514.67
46.3713	498.88
46.3858	483.08
46.4002	481.89
46.4146	485.14
46.4291	528.53
46.4435	497.81
46.4580	484.00
46.4724	506.70
46.4868	479.05
46.5013	506.13
46.5157	503.07
46.5302	521.31
46.5446	518.28
46.5590	521.78
46.5735	472.77
46.5879	481.84
46.6024	485.93
46.6168	487.21
46.6312	524.53
46.6457	521.08
46.6601	507.81
46.6746	514.20
46.6890	493.16
46.7034	498.97
46.7179	481.58
46.7323	506.12
46.7468	493.39
46.7612	506.95
46.7756	485.83
46.7901	501.58
46.8045	509.93
46.8190	493.03
46.8334	499.52
46.8478	492.32
46.8623	524.15
46.8767	511.31
46.8912	500.32
46.9056	519.05
46.9200	524.63
46.9345	524.77
46.9489	509.41
46.9634	476.85
46.9778	499.68
46.9922	513.40
47.0067	518.23
47.0211	508.67
47.0356	516.97
47.0500	516.95
47.0644	517.96
47.0789	523.30
47.0933	508.85
47.1078	494.05
47.1222	562.64
47.1366	520.40
47.1511	506.76
47.1655	497.34
47.1800	504.60
47.1944	475.74
47.2088	507.31
47.2233	521.96
47.2377	504.74
47.2522	517.17
47.2666	526.03
47.2810	505.97
47.2955	525.26
47.3099	517.12
47.3244	498.39
47.3388	495.94
47.3532	517.37
47.3677	492.65
47.3821	501.31
47.3966	492.78
47.4110	505.70
47.4254	513.62
47.4399	487.36
47.4543	493.83
47.4688	506.66
47.4832	521.39
47.4976	514.48
47.5121	472.84
47.5265	496.11
47.5410	517.32
47.5554	509.14
47.5698	506.26
47.5843	522.08
47.5987	508.89
47.6132	476.71
47.6276	462.18
47.6420	494.01
47.6565	522.03
47.6709	485.80
47.6854	471.32
47.6998	527.27
47.7142	563.45
47.7287	523.81
47.7431	462.45
47.7576	507.65
47.7720	495.29
47.7864	481.25
47.8009	465.94
47.8153	490.48
47.8298	483.96
47.8442	493.25
47.8586	520.27
47.8731	496.61
47.8875	504.54
47.9020	523.29
47.9164	484.95
47.9308	509.66
47.9453	510.62
47.9597	519.19
47.9742	506.17
47.9886	547.49
48.0030	500.33
48.0175	490.79
48.0319	535.38
48.0464	500.07
48.0608	494.78
48.0752	529.84
48.0897	527.02
48.1041	497.31
48.1186	502.92
48.1330	505.23
48.1474	483.71
48.1619	469.65
48.1763	493.04
48.1908	490.41
48.2052	492.91
48.2196	499.52
48.2341	519.66
48.2485	521.05
48.2630	509.79
48.2774	495.16
48.2918	510.31
48.3063	494.33
48.3207	513.08
48.3352	562.29
48.3496	509.58
48.3640	515.94
48.3785	490.92
48.3929	497.82
48.4074	510.09
48.4218	574.87
48.4362	551.86
48.4507	513.93
48.4651	515.34
48.4796	560.43
48.4940	536.86
48.5084	520.24
48.5229	528.89
48.5373	507.98
48.5518	482.40
48.5662	488.06
48.5806	506.21
48.5951	560.79
48.6095	499.04
48.6240	500.76
48.6384	516.14
48.6528	525.61
48.6673	516.74
48.6817	548.60
48.6962	522.39
48.7106	535.08
48.7250	537.52
48.7395	552.23
48.7539	523.17
48.7684	480.73
48.7828	523.92
48.7972	512.91
48.8117	559.59
48.8261	521.42
48.8406	502.36
48.8550	546.27
48.8694	498.45
48.8839	527.75
48.8983	548.43
48.9128	554.28
48.9272	506.90
48.9416	575.44
48.9561	595.46
48.9705	550.23
48.9850	567.57
48.9994	591.56
49.0139	560.08
49.0283	613.37
49.0427	596.94
49.0572	664.53
49.0716	685.67
49.0861	644.92
49.1005	670.66
49.1149	713.24
49.1294	727.60
49.1438	768.00
49.1583	755.83
49.1727	832.50
49.1871	886.29
49.2016	940.52
49.2160	1056.79
49.2305	1101.74
49.2449	1151.79
49.2593	1286.74
49.2738	1349.67
49.2882	1471.47
49.3027	1601.73
49.3171	1540.00
49.3315	1625.87
49.3460	1785.12
49.3604	1711.42
49.3749	1761.25
49.3893	1745.10
49.4037	1767.16
49.4182	1697.29
49.4326	1710.47
49.4471	1620.71
49.4615	1545.39
49.4759	1533.50
49.4904	1510.55
49.5048	1405.90
49.5193	1337.24
49.5337	1287.92
49.5481	1191.15
49.5626	1138.26
49.5770	1035.48
49.5915	943.79
49.6059	928.91
49.6203	859.08
49.6348	790.68
49.6492	714.31
49.6637	710.56
49.6781	691.37
49.6925	668.72
49.7070	664.19
49.7214	625.75
49.7359	613.56
49.7503	640.65
49.7647	586.95
49.7792	587.69
49.7936	610.18
49.8081	587.70
49.8225	555.69
49.8369	600.32
49.8514	552.49
49.8658	570.17
49.8803	552.06
49.8947	529.38
49.9091	511.08
49.9236	531.79
49.9380	531.03
49.9525	519.85
49.9669	524.11
49.9813	533.50
49.9958	547.46
50.0102	532.85
50.0247	495.25
50.0391	529.18
50.0535	531.46
50.0680	511.93
50.0824	572.71
50.0969	568.73
50.1113	523.59
50.1257	506.26
50.1402	526.25
50.1546	515.17
50.1691	514.31
50.1835	509.34
50.1979	517.80
50.2124	504.09
50.2268	546.31
50.2413	557.24
50.2557	527.35
50.2701	534.96
50.2846	521.25
50.2990	546.18
50.3135	501.16
50.3279	506.93
50.3423	527.21
50.3568	499.03
50.3712	483.93
50.3857	494.04
50.4001	496.77
50.4145	532.18
50.4290	530.03
50.4434	515.04
50.4579	509.40
50.4723	525.39
50.4867	528.09
50.5012	529.18
50.5156	520.77
50.5301	498.49
50.5445	514.88
50.5589	540.50
50.5734	531.11
50.5878	503.34
50.6023	523.17
50.6167	517.99
50.6311	503.08
50.6456	523.40
50.6600	559.45
50.6745	523.06
50.6889	531.12
50.7033	543.62
50.7178	538.88
50.7322	532.59
50.7467	521.36
50.7611	537.78
50.7755	512.92
50.7900	493.25
50.8044	498.87
50.8189	531.41
50.8333	557.99
50.8477	484.52
50.8622	524.78
50.8766	497.09
50.8911	498.63
50.9055	504.15
50.9199	500.36
50.9344	518.46
50.9488	532.18
50.9633	505.97
50.9777	527.76
50.9921	509.73
51.0066	514.12
51.0210	532.28
51.0355	520.99
51.0499	518.30
51.0643	542.24
51.0788	514.26
51.0932	503.71
51.1077	498.79
51.1221	509.52
51.1365	505.60
51.1510	506.38
51.1654	502.46
51.1799	518.26
51.1943	505.06
51.2087	471.21
51.2232	502.61
51.2376	491.86
51.2521	470.56
51.2665	500.83
51.2809	512.18
51.2954	500.28
51.3098	547.96
51.3243	488.21
51.3387	507.07
51.3531	501.25
51.3676	498.71
51.3820	496.40
51.3965	525.19
51.4109	497.70
51.4253	491.37
51.4398	503.65
51.4542	490.35
51.4687	518.35
51.4831	527.49
51.4975	510.89
51.5120	493.92
51.5264	491.18
51.5409	486.90
51.5553	506.90
51.5697	488.01
51.5842	496.51
51.5986	485.98
51.6131	492.97
51.6275	485.50
51.6419	511.06
51.6564	487.53
51.6708	504.51
51.6853	500.74
51.6997	537.96
51.7141	529.63
51.7286	539.96
51.7430	516.42
51.7575	515.75
51.7719	486.61
51.7863	521.36
51.8008	532.68
51.8152	491.52
51.8297	501.23
51.8441	515.05
51.8585	541.33
51.8730	527.52
51.8874	492.43
51.9019	534.40
51.9163	484.34
51.9307	549.01
51.9452	539.93
51.9596	504.15
51.9741	514.33
51.9885	566.46
52.0029	529.26
52.0174	524.69
52.0318	537.34
52.0463	493.38
52.0607	476.17
52.0751	496.75
52.0896	570.55
52.1040	537.37
52.1185	525.15
52.1329	531.53
52.1473	509.48
52.1618	499.28
52.1762	496.38
52.1907	491.72
52.2051	490.02
52.2195	506.15
52.2340	519.43
52.2484	523.89
52.2629	519.65
52.2773	504.26
52.2917	497.40
52.3062	535.47
52.3206	515.78
52.3351	520.28
52.3495	497.01
52.3639	535.87
52.3784	542.54
52.3928	485.01
52.4073	505.18
52.4217	530.43
52.4361	529.30
52.4506	462.32
52.4650	516.68
52.4795	495.41
52.4939	531.49
52.5083	521.03
52.5228	523.54
52.5372	514.75
52.5517	504.99
52.5661	506.90
52.5805	502.01
52.5950	501.49
52.6094	474.40
52.6239	496.66
52.6383	482.76
52.6527	522.21
52.6672	523.70
52.6816	508.13
52.6961	496.37
52.7105	545.27
52.7250	542.54
52.7394	511.32
52.7538	528.60
52.7683	532.50
52.7827	510.88
52.7972	507.87
52.8116	534.98
52.8260	538.30
52.8405	503.60
52.8549	498.26
52.8694	513.93
52.8838	507.17
52.8982	496.97
52.9127	463.41
52.9271	515.70
52.9416	519.05
52.9560	493.50
52.9704	532.49
52.9849	535.07
52.9993	531.93
53.0138	522.78
53.0282	503.09
53.0426	519.07
53.0571	535.51
53.0715	532.52
53.0860	504.63
53.1004	524.40
53.1148	533.10
53.1293	527.19
53.1437	500.13
53.1582	498.49
53.1726	497.67
53.1870	512.53
53.2015	489.07
53.2159	513.50
53.2304	526.97
53.2448	505.38
53.2592	486.16
53.2737	523.26
53.2881	508.04
53.3026	498.94
53.3170	527.92
53.3314	549.52
53.3459	493.21
53.3603	516.99
53.3748	506.42
53.3892	517.05
53.4036	506.91
53.4181	538.95
53.4325	529.45
53.4470	496.36
53.4614	521.95
53.4758	535.73
53.4903	528.77
53.5047	506.41
53.5192	478.94
53.5336	462.54
53.5480	492.36
53.5625	538.37
53.5769	510.62
53.5914	528.87
53.6058	485.43
53.6202	504.63
53.6347	516.21
53.6491	543.25
53.6636	515.08
53.6780	507.96
53.6924	468.03
53.7069	490.64
53.7213	499.56
53.7358	516.95
53.7502	479.86
53.7646	503.34
53.7791	502.35
53.7935	533.85
53.8080	505.50
53.8224	509.87
53.8368	517.62
53.8513	497.78
53.8657	564.15
53.8802	538.88
53.8946	565.92
53.9090	534.00
53.9235	526.74
53.9379	508.42
53.9524	517.02
53.9668	530.86
53.9812	496.62
53.9957	530.55
54.0101	552.67
54.0246	529.53
54.0390	505.89
54.0534	508.56
54.0679	518.57
54.0823	530.48
54.0968	517.85
54.1112	514.48
54.1256	509.58
54.1401	510.50
54.1545	495.73
54.1690	527.24
54.1834	516.60
54.1978	482.83
54.2123	510.34
54.2267	510.88
54.2412	544.10
54.2556	524.21
54.2700	511.72
54.2845	518.16
54.2989	518.14
54.3134	513.36
54.3278	516.43
54.3422	538.86
54.3567	539.65
54.3711	527.28
54.3856	504.74
54.4000	505.31
54.4144	513.41
54.4289	500.04
54.4433	490.36
54.4578	499.51
54.4722	514.05
54.4866	518.05
54.5011	527.73
54.5155	537.59
54.5300	540.65
54.5444	540.90
54.5588	539.55
54.5733	516.17
54.5877	516.57
54.6022	508.43
54.6166	517.82
54.6310	522.46
54.6455	545.46
54.6599	546.86
54.6744	550.71
54.6888	539.87
54.7032	575.34
54.7177	569.52
54.7321	566.92
54.7466	550.93
54.7610	556.53
54.7754	530.93
54.7899	558.44
54.8043	580.28
54.8188	599.04
54.8332	611.73
54.8476	591.65
54.8621	637.87
54.8765	607.37
54.8910	598.31
54.9054	619.80
54.9198	569.63
54.9343	547.02
54.9487	557.38
54.9632	587.69
54.9776	577.40
54.9920	567.05
55.0065	542.72
55.0209	505.56
55.0354	536.58
55.0498	548.71
55.0642	577.04
55.0787	571.55
55.0931	546.88
55.1076	521.57
55.1220	515.15
55.1364	532.23
55.1509	539.55
55.1653	537.99
55.1798	537.10
55.1942	513.28
55.2086	523.66
55.2231	529.39
55.2375	524.95
55.2520	518.11
55.2664	528.61
55.2808	528.87
55.2953	498.78
55.3097	507.11
55.3242	531.94
55.3386	531.08
55.3530	533.63
55.3675	526.49
55.3819	524.54
55.3964	515.11
55.4108	509.03
55.4252	538.87
55.4397	532.42
55.4541	509.81
55.4686	545.36
55.4830	537.30
55.4974	508.68
55.5119	524.18
55.5263	523.27
55.5408	527.77
55.5552	537.92
55.5696	514.69
55.5841	497.24
55.5985	509.01
55.6130	540.38
55.6274	532.23
55.6418	525.20
55.6563	547.39
55.6707	548.10
55.6852	538.94
55.6996	560.80
55.7140	569.47
55.7285	524.37
55.7429	532.45
55.7574	505.97
55.7718	542.47
55.7862	537.81
55.8007	507.14
55.8151	543.63
55.8296	540.09
55.8440	531.84
55.8584	532.20
55.8729	550.81
55.8873	516.41
55.9018	550.79
55.9162	528.66
55.9306	549.27
55.9451	537.78
55.9595	533.84
55.9740	533.41
55.9884	534.45
56.0028	553.14
56.0173	526.76
56.0317	548.12
56.0462	511.63
56.0606	505.86
56.0750	536.25
56.0895	553.17
56.1039	528.95
56.1184	549.32
56.1328	546.03
56.1472	512.05
56.1617	536.59
56.1761	544.12
56.1906	500.63
56.2050	508.57
56.2194	546.99
56.2339	489.58
56.2483	497.60
56.2628	494.23
56.2772	498.74
56.2916	517.16
56.3061	504.54
56.3205	550.73
56.3350	509.61
56.3494	533.01
56.3639	501.40
56.3783	492.21
56.3927	507.30
56.4072	497.20
56.4216	540.52
56.4361	569.32
56.4505	530.99
56.4649	514.45
56.4794	524.96
56.4938	533.05
56.5083	541.52
56.5227	510.91
56.5371	519.80
56.5516	520.73
56.5660	484.55
56.5805	505.20
56.5949	525.29
56.6093	526.57
56.6238	509.21
56.6382	524.89
56.6527	506.69
56.6671	530.88
56.6815	545.24
56.6960	542.97
56.7104	521.79
56.7249	533.87
56.7393	493.44
56.7537	549.80
56.7682	512.20
56.7826	504.71
56.7971	551.99
56.8115	498.59
56.8259	519.61
56.8404	521.07
56.8548	517.41
56.8693	557.67
56.8837	517.72
56.8981	562.68
56.9126	559.09
56.9270	498.35
56.9415	505.38
56.9559	537.70
56.9703	502.59
56.9848	515.40
56.9992	482.78
57.0137	512.38
57.0281	579.46
57.0425	521.08
57.0570	516.91
57.0714	526.23
57.0859	546.73
57.1003	546.95
57.1147	527.54
57.1292	531.92
57.1436	524.73
57.1581	528.23
57.1725	554.42
57.1869	534.77
57.2014	519.22
57.2158	531.42
57.2303	513.73
57.2447	516.31
57.2591	527.81
57.2736	513.05
57.2880	493.86
57.3025	553.42
57.3169	551.48
57.3313	498.78
57.3458	469.26
57.3602	511.72
57.3747	511.43
57.3891	515.15
57.4035	546.61
57.4180	550.39
57.4324	523.63
57.4469	525.76
57.4613	565.38
57.4757	539.48
57.4902	493.90
57.5046	487.19
57.5191	505.76
57.5335	512.63
57.5479	525.96
57.5624	534.96
57.5768	498.45
57.5913	534.39
57.6057	541.23
57.6201	528.13
57.6346	536.50
57.6490	539.06
57.6635	550.19
57.6779	549.85
57.6923	499.45
57.7068	542.74
57.7212	520.30
57.7357	507.10
57.7501	537.72
57.7645	521.87
57.7790	507.31
57.7934	490.49
57.8079	544.16
57.8223	529.34
57.8367	546.92
57.8512	544.68
57.8656	554.00
57.8801	523.26
57.8945	544.19
57.9089	568.85
57.9234	593.47
57.9378	563.43
57.9523	546.05
57.9667	501.34
57.9811	510.97
57.9956	535.09
58.0100	558.15
58.0245	509.82
58.0389	535.56
58.0533	546.58
58.0678	524.83
58.0822	529.49
58.0967	580.14
58.1111	528.24
58.1255	572.22
58.1400	554.14
58.1544	506.86
58.1689	537.17
58.1833	558.67
58.1977	562.14
58.2122	565.56
58.2266	556.61
58.2411	520.43
58.2555	582.75
58.2699	559.09
58.2844	577.32
58.2988	562.31
58.3133	579.53
58.3277	613.06
58.3421	596.23
58.3566	565.91
58.3710	597.56
58.3855	563.20
58.3999	563.29
58.4143	600.77
58.4288	635.89
58.4432	634.67
58.4577	623.65
58.4721	649.38
58.4865	629.96
58.5010	618.12
58.5154	625.41
58.5299	645.67
58.5443	662.85
58.5587	631.92
58.5732	618.47
58.5876	638.12
58.6021	639.74
58.6165	604.37
58.6309	643.94
58.6454	588.56
58.6598	606.65
58.6743	630.05
58.6887	635.86
58.7031	597.89
58.7176	604.96
58.7320	562.95
58.7465	590.61
58.7609	618.51
58.7753	567.97
58.7898	586.82
58.8042	587.40
58.8187	584.38
58.8331	579.01
58.8475	588.52
58.8620	578.47
58.8764	530.95
58.8909	562.45
58.9053	548.09
58.9197	528.79
58.9342	560.72
58.9486	580.37
58.9631	584.49
58.9775	538.29
58.9919	556.33
59.0064	569.66
59.0208	580.89
59.0353	566.75
59.0497	551.22
59.0641	576.81
59.0786	566.66
59.0930	564.08
59.1075	547.60
59.1219	562.16
59.1363	551.27
59.1508	558.82
59.1652	580.10
59.1797	539.27
59.1941	550.73
59.2085	540.47
59.2230	547.37
59.2374	553.26
59.2519	537.15
59.2663	561.52
59.2807	589.89
59.2952	557.50
59.3096	573.42
59.3241	572.92
59.3385	541.12
59.3529	568.76
59.3674	576.60
59.3818	571.77
59.3963	577.62
59.4107	558.63
59.4251	552.01
59.4396	568.75
59.4540	588.10
59.4685	577.50
59.4829	557.51
59.4973	557.56
59.5118	530.00
59.5262	546.47
59.5407	552.38
59.5551	548.61
59.5695	552.65
59.5840	560.39
59.5984	546.79
59.6129	534.85
59.6273	561.37
59.6417	559.86
59.6562	545.37
59.6706	528.82
59.6851	548.54
59.6995	541.24
59.7139	566.24
59.7284	512.13
59.7428	548.61
59.7573	513.17
59.7717	538.07
59.7861	557.03
59.8006	547.53
59.8150	566.98
59.8295	546.95
59.8439	538.65
59.8583	581.75
59.8728	560.43
59.8872	543.69
59.9017	558.78
59.9161	524.30
59.9305	553.54
59.9450	529.51
59.9594	488.78
59.9739	538.26
59.9883	569.59
60.0027	540.77
60.0172	551.72
60.0316	585.61
60.0461	549.91
60.0605	536.18
60.0750	512.69
60.0894	544.58
60.1038	551.58
60.1183	561.53
60.1327	539.06
60.1472	507.57
60.1616	548.02
60.1760	539.58
60.1905	529.03
60.2049	522.38
60.2194	546.28
60.2338	559.53
60.2482	522.01
60.2627	559.44
60.2771	540.73
60.2916	502.37
60.3060	522.45
60.3204	499.41
60.3349	526.39
60.3493	534.10
60.3638	527.25
60.3782	505.74
60.3926	509.34
60.4071	536.92
60.4215	564.01
60.4360	501.59
60.4504	530.86
60.4648	558.50
60.4793	540.33
60.4937	534.04
60.5082	540.27
60.5226	579.81
60.5370	563.36
60.5515	542.04
60.5659	530.24
60.5804	490.21
60.5948	550.42
60.6092	563.73
60.6237	497.21
60.6381	533.16
60.6526	536.95
60.6670	535.73
60.6814	514.13
60.6959	518.91
60.7103	567.09
60.7248	591.42
60.7392	502.73
60.7536	559.30
60.7681	514.13
60.7825	558.99
60.7970	555.67
60.8114	516.25
60.8258	530.99
60.8403	538.17
60.8547	552.62
60.8692	564.97
60.8836	550.70
60.8980	585.49
60.9125	573.14
60.9269	571.60
60.9414	538.09
60.9558	513.47
60.9702	527.34
60.9847	545.41
60.9991	509.82
61.0136	501.80
61.0280	532.76
61.0424	533.55
61.0569	537.47
61.0713	576.57
61.0858	544.20
61.1002	516.59
61.1146	517.36
61.1291	554.59
61.1435	549.01
61.1580	539.11
61.1724	526.15
61.1868	534.99
61.2013	541.13
61.2157	535.01
61.2302	560.15
61.2446	572.38
61.2590	537.14
61.2735	525.79
61.2879	548.34
61.3024	570.72
61.3168	568.68
61.3312	536.53
61.3457	502.82
61.3601	514.85
61.3746	501.03
61.3890	514.12
61.4034	514.49
61.4179	545.73
61.4323	567.23
61.4468	524.12
61.4612	540.42
61.4756	580.87
61.4901	569.13
61.5045	513.54
61.5190	552.56
61.5334	534.63
61.5478	523.50
61.5623	570.56
61.5767	528.98
61.5912	532.59
61.6056	570.54
61.6200	563.71
61.6345	544.86
61.6489	555.51
61.6634	530.88
61.6778	512.55
61.6922	528.68
61.7067	569.45
61.7211	548.31
61.7356	521.45
61.7500	525.92
61.7644	527.55
61.7789	568.57
61.7933	569.69
61.8078	557.53
61.8222	539.79
61.8366	542.35
61.8511	567.11
61.8655	568.72
61.8800	548.37
61.8944	570.49
61.9088	579.26
61.9233	575.70
61.9377	552.04
61.9522	585.42
61.9666	583.53
61.9810	525.06
61.9955	522.94
62.0099	531.14
62.0244	542.12
62.0388	525.64
62.0532	561.51
62.0677	560.01
62.0821	555.43
62.0966	578.33
62.1110	565.38
62.1254	573.76
62.1399	558.75
62.1543	515.78
62.1688	550.10
62.1832	549.61
62.1976	534.68
62.2121	564.94
62.2265	548.37
62.2410	557.44
62.2554	526.63
62.2698	539.06
62.2843	594.18
62.2987	556.30
62.3132	543.39
62.3276	574.84
62.3420	537.66
62.3565	557.28
62.3709	560.90
62.3854	562.89
62.3998	568.97
62.4142	532.53
62.4287	548.17
62.4431	565.38
62.4576	549.08
62.4720	564.25
62.4864	588.16
62.5009	580.59
62.5153	574.14
62.5298	582.11
62.5442	564.26
62.5586	573.74
62.5731	556.07
62.5875	530.07
62.6020	551.45
62.6164	521.99
62.6308	560.69
62.6453	541.42
62.6597	581.58
62.6742	566.28
62.6886	542.01
62.7030	583.76
62.7175	584.26
62.7319	579.29
62.7464	567.68
62.7608	538.89
62.7752	568.30
62.7897	582.71
62.8041	556.34
62.8186	553.96
62.8330	574.76
62.8474	553.61
62.8619	597.93
62.8763	587.83
62.8908	561.88
62.9052	580.02
62.9196	562.28
62.9341	548.90
62.9485	531.55
62.9630	536.64
62.9774	542.25
62.9918	574.72
63.0063	596.44
63.0207	596.14
63.0352	594.59
63.0496	603.49
63.0640	551.81
63.0785	563.51
63.0929	601.18
63.1074	562.31
63.1218	554.70
63.1362	533.57
63.1507	504.85
63.1651	545.24
63.1796	545.91
63.1940	540.34
63.2084	561.77
63.2229	569.71
63.2373	572.10
63.2518	568.60
63.2662	564.50
63.2806	588.33
63.2951	569.70
63.3095	576.58
63.3240	608.97
63.3384	574.88
63.3528	564.60
63.3673	577.30
63.3817	603.58
63.3962	584.51
63.4106	573.01
63.4250	593.89
63.4395	592.89
63.4539	557.88
63.4684	589.34
63.4828	555.26
63.4972	549.48
63.5117	571.63
63.5261	579.79
63.5406	582.40
63.5550	567.56
63.5694	572.36
63.5839	553.33
63.5983	577.97
63.6128	588.58
63.6272	573.08
63.6416	558.93
63.6561	581.17
63.6705	552.05
63.6850	612.51
63.6994	599.71
63.7138	574.53
63.7283	586.09
63.7427	534.47
63.7572	591.39
63.7716	599.54
63.7861	605.30
63.8005	606.69
63.8149	601.12
63.8294	603.70
63.8438	591.46
63.8583	621.76
63.8727	606.81
63.8871	605.68
63.9016	582.36
63.9160	583.41
63.9305	585.30
63.9449	607.57
63.9593	573.81
63.9738	618.10
63.9882	632.58
64.0027	619.64
64.0171	607.63
64.0315	674.92
64.0460	669.57
64.0604	674.06
64.0749	688.72
64.0893	763.36
64.1037	681.11
64.1182	698.51
64.1326	735.57
64.1471	717.32
64.1615	738.78
64.1759	712.29
64.1904	699.95
64.2048	720.69
64.2193	765.66
64.2337	761.97
64.2481	734.91
64.2626	752.19
64.2770	764.11
64.2915	789.40
64.3059	804.57
64.3203	779.64
64.3348	744.46
64.3492	782.45
64.3637	801.24
64.3781	770.73
64.3925	774.93
64.4070	752.25
64.4214	774.26
64.4359	763.50
64.4503	706.06
64.4647	714.05
64.4792	707.22
64.4936	713.98
64.5081	731.31
64.5225	731.95
64.5369	700.74
64.5514	712.68
64.5658	672.13
64.5803	689.93
64.5947	675.14
64.6091	713.19
64.6236	707.53
64.6380	680.30
64.6525	666.22
64.6669	694.38
64.6813	680.60
64.6958	722.46
64.7102	764.14
64.7247	706.79
64.7391	703.94
64.7535	744.62
64.7680	732.04
64.7824	757.07
64.7969	791.07
64.8113	758.05
64.8257	808.85
64.8402	828.22
64.8546	820.53
64.8691	838.63
64.8835	827.40
64.8979	899.60
64.9124	905.51
64.9268	930.80
64.9413	950.57
64.9557	964.26
64.9701	1049.14
64.9846	1059.29
64.9990	1185.02
65.0135	1380.79
65.0279	1539.70
65.0423	1805.34
65.0568	2118.42
65.0712	2734.83
65.0857	3707.41
65.1001	4756.53
65.1145	6475.43
65.1290	8408.45
65.1434	10095.31
65.1579	11384.14
65.1723	11919.13
65.1867	11291.48
65.2012	9673.06
65.2156	8022.07
65.2301	6465.70
65.2445	5141.06
65.2589	4369.22
65.2734	4273.42
65.2878	4566.41
65.3023	5166.66
65.3167	6035.48
65.3311	6711.19
65.3456	7023.19
65.3600	6883.66
65.3745	6292.08
65.3889	5317.94
65.4033	4291.71
65.4178	3334.74
65.4322	2665.33
65.4467	2031.43
65.4611	1712.78
65.4755	1452.86
65.4900	1247.15
65.5044	1145.61
65.5189	1039.96
65.5333	1059.01
65.5477	961.68
65.5622	895.55
65.5766	841.86
65.5911	785.30
65.6055	845.82
65.6199	777.69
65.6344	810.41
65.6488	755.82
65.6633	708.98
65.6777	687.32
65.6921	711.70
65.7066	770.47
65.7210	711.37
65.7355	677.23
65.7499	713.67
65.7643	697.21
65.7788	678.99
65.7932	659.40
65.8077	655.96
65.8221	637.60
65.8365	667.57
65.8510	693.95
65.8654	712.05
65.8799	685.69
65.8943	651.20
65.9087	669.07
65.9232	645.43
65.9376	654.11
65.9521	649.98
65.9665	650.23
65.9809	638.80
65.9954	632.79
66.0098	584.89
66.0243	628.49
66.0387	624.31
66.0531	598.42
66.0676	620.60
66.0820	606.53
66.0965	633.69
66.1109	619.82
66.1253	640.30
66.1398	597.46
66.1542	598.55
66.1687	640.29
66.1831	621.18
66.1975	606.48
66.2120	617.77
66.2264	606.00
66.2409	595.39
66.2553	592.09
66.2697	603.42
66.2842	580.34
66.2986	567.84
66.3131	600.99
66.3275	630.98
66.3419	631.31
66.3564	615.73
66.3708	618.14
66.3853	613.18
66.3997	593.59
66.4141	604.38
66.4286	637.00
66.4430	620.68
66.4575	606.40
66.4719	600.62
66.4863	579.74
66.5008	611.76
66.5152	608.91
66.5297	600.57
66.5441	585.71
66.5585	585.02
66.5730	568.76
66.5874	596.85
66.6019	630.92
66.6163	583.90
66.6307	590.24
66.6452	603.82
66.6596	568.66
66.6741	548.15
66.6885	557.22
66.7029	598.79
66.7174	599.64
66.7318	561.12
66.7463	574.10
66.7607	599.20
66.7751	590.90
66.7896	569.84
66.8040	617.53
66.8185	621.18
66.8329	597.15
66.8473	558.45
66.8618	560.12
66.8762	577.42
66.8907	575.66
66.9051	602.73
66.9195	568.38
66.9340	639.30
66.9484	652.87
66.9629	572.61
66.9773	525.59
66.9917	570.22
67.0062	585.31
67.0206	570.38
67.0351	598.43
67.0495	589.92
67.0639	543.84
67.0784	556.10
67.0928	613.03
67.1073	575.42
67.1217	570.97
67.1361	591.08
67.1506	581.94
67.1650	604.97
67.1795	573.41
67.1939	564.20
67.2083	558.07
67.2228	580.09
67.2372	563.21
67.2517	582.38
67.2661	565.17
67.2805	579.53
67.2950	563.27
67.3094	593.44
67.3239	565.48
67.3383	587.68
67.3527	588.00
67.3672	579.22
67.3816	578.74
67.3961	571.35
67.4105	573.14
67.4250	620.44
67.4394	585.01
67.4538	542.28
67.4683	606.75
67.4827	574.69
67.4972	539.66
67.5116	575.80
67.5260	552.36
67.5405	541.26
67.5549	567.66
67.5694	569.35
67.5838	594.76
67.5982	606.96
67.6127	590.77
67.6271	560.29
67.6416	579.67
67.6560	598.72
67.6704	585.07
67.6849	588.83
67.6993	590.79
67.7138	576.28
67.7282	529.03
67.7426	580.05
67.7571	565.83
67.7715	563.66
67.7860	620.51
67.8004	540.29
67.8148	580.76
67.8293	578.71
67.8437	567.25
67.8582	573.14
67.8726	561.39
67.8870	555.25
67.9015	584.14
67.9159	559.87
67.9304	589.87
67.9448	606.56
67.9592	594.46
67.9737	595.15
67.9881	597.96
68.0026	578.77
68.0170	574.76
68.0314	558.00
68.0459	600.89
68.0603	610.79
68.0748	569.54
68.0892	562.85
68.1036	603.16
68.1181	601.50
68.1325	583.63
68.1470	544.08
68.1614	645.89
68.1758	588.49
68.1903	570.11
68.2047	556.79
68.2192	561.04
68.2336	618.39
68.2480	530.41
68.2625	512.62
68.2769	552.29
68.2914	527.12
68.3058	555.38
68.3202	564.70
68.3347	548.51
68.3491	568.35
68.3636	572.20
68.3780	574.31
68.3924	549.49
68.4069	593.84
68.4213	594.16
68.4358	573.54
68.4502	572.54
68.4646	561.49
68.4791	592.78
68.4935	584.21
68.5080	574.25
68.5224	613.74
68.5368	596.97
68.5513	580.53
68.5657	553.28
68.5802	548.07
68.5946	577.39
68.6090	627.71
68.6235	617.89
68.6379	595.00
68.6524	573.52
68.6668	608.62
68.6812	570.88
68.6957	579.76
68.7101	572.81
68.7246	562.19
68.7390	579.95
68.7534	601.65
68.7679	592.55
68.7823	564.82
68.7968	571.81
68.8112	589.01
68.8256	551.56
68.8401	519.51
68.8545	561.86
68.8690	570.58
68.8834	570.32
68.8978	626.39
68.9123	550.50
68.9267	573.63
68.9412	598.59
68.9556	596.27
68.9700	563.15
68.9845	559.16
68.9989	556.51
69.0134	538.45
69.0278	564.63
69.0422	497.40
69.0567	532.32
69.0711	566.47
69.0856	578.87
69.1000	568.02
69.1144	573.92
69.1289	579.94
69.1433	548.15
69.1578	533.99
69.1722	605.70
69.1866	570.53
69.2011	549.44
69.2155	591.57
69.2300	580.52
69.2444	564.51
69.2588	551.04
69.2733	599.46
69.2877	558.24
69.3022	595.20
69.3166	567.85
69.3310	571.02
69.3455	570.15
69.3599	563.38
69.3744	586.37
69.3888	556.21
69.4032	583.69
69.4177	569.76
69.4321	584.48
69.4466	593.37
69.4610	558.02
69.4754	592.72
69.4899	595.61
69.5043	569.51
69.5188	544.80
69.5332	581.39
69.5476	560.60
69.5621	573.38
69.5765	591.61
69.5910	598.48
69.6054	554.79
69.6198	535.94
69.6343	614.13
69.6487	606.47
69.6632	567.36
69.6776	611.40
69.6920	559.76
69.7065	595.90
69.7209	608.76
69.7354	515.09
69.7498	580.20
69.7642	624.21
69.7787	630.47
69.7931	580.54
69.8076	585.47
69.8220	526.45
69.8364	564.01
69.8509	548.00
69.8653	575.96
69.8798	544.17
69.8942	633.40
69.9086	593.56
69.9231	593.78
69.9375	611.45
69.9520	612.69
69.9664	540.41
69.9808	572.09
69.9953	566.67
70.0097	594.18
70.0242	559.83
70.0386	599.10
70.0530	568.72
70.0675	539.45
70.0819	546.38
70.0964	542.79
70.1108	525.74
70.1252	581.74
70.1397	555.22
70.1541	548.69
70.1686	559.98
70.1830	591.67
70.1974	603.26
70.2119	604.73
70.2263	553.92
70.2408	573.68
70.2552	566.02
70.2696	567.10
70.2841	539.22
70.2985	542.67
70.3130	589.09
70.3274	577.19
70.3418	592.15
70.3563	547.37
70.3707	577.83
70.3852	614.04
70.3996	532.60
70.4140	527.02
70.4285	564.36
70.4429	569.85
70.4574	612.97
70.4718	650.07
70.4862	587.46
70.5007	639.38
70.5151	568.92
70.5296	551.39
70.5440	546.56
70.5584	571.20
70.5729	580.65
70.5873	545.50
70.6018	588.63
70.6162	559.38
70.6306	550.24
70.6451	533.95
70.6595	595.18
70.6740	606.23
70.6884	533.05
70.7028	553.63
70.7173	496.44
70.7317	590.15
70.7462	594.42
70.7606	565.34
70.7750	578.05
70.7895	605.44
70.8039	601.35
70.8184	579.00
70.8328	547.30
70.8472	572.13
70.8617	593.98
70.8761	576.34
70.8906	609.56
70.9050	557.25
70.9194	524.68
70.9339	558.54
70.9483	590.68
70.9628	572.48
70.9772	542.29
70.9916	581.46
71.0061	566.84
71.0205	565.74
71.0350	549.19
71.0494	570.71
71.0638	557.07
71.0783	581.24
71.0927	618.75
71.1072	614.29
71.1216	567.91
71.1361	552.98
71.1505	544.19
71.1649	569.11
71.1794	585.25
71.1938	578.81
71.2083	588.52
71.2227	571.22
71.2371	624.08
71.2516	590.01
71.2660	571.19
71.2805	557.51
71.2949	558.00
71.3093	589.99
71.3238	587.15
71.3382	566.24
71.3527	538.97
71.3671	580.71
71.3815	603.40
71.3960	588.24
71.4104	613.20
71.4249	640.90
71.4393	566.67
71.4537	572.34
71.4682	583.47
71.4826	580.55
71.4971	558.25
71.5115	563.27
71.5259	546.98
71.5404	567.11
71.5548	534.37
71.5693	509.74
71.5837	538.54
71.5981	531.61
71.6126	517.84
71.6270	541.12
71.6415	602.74
71.6559	632.95
71.6703	609.58
71.6848	584.59
71.6992	616.18
71.7137	587.54
71.7281	576.52
71.7425	582.05
71.7570	583.27
71.7714	560.21
71.7859	576.62
71.8003	607.91
71.8147	629.56
71.8292	571.39
71.8436	585.92
71.8581	569.63
71.8725	552.24
71.8869	540.05
71.9014	578.51
71.9158	599.82
71.9303	524.85
71.9447	566.61
71.9591	611.03
71.9736	577.57
71.9880	548.70
72.0025	506.08
72.0169	533.16
72.0313	569.34
72.0458	520.32
72.0602	520.37
72.0747	619.36
72.0891	630.17
72.1035	604.97
72.1180	611.49
72.1324	625.02
72.1469	546.08
72.1613	554.35
72.1757	618.69
72.1902	600.92
72.2046	547.23
72.2191	521.90
72.2335	564.06
72.2479	568.90
72.2624	590.26
72.2768	625.04
72.2913	581.44
72.3057	519.83
72.3201	506.16
72.3346	523.30
72.3490	465.83
72.3635	522.57
72.3779	580.23
72.3923	572.29
72.4068	614.31
72.4212	592.85
72.4357	500.34
72.4501	453.77
72.4645	562.68
72.4790	593.31
72.4934	506.30
72.5079	567.86
72.5223	592.79
72.5367	527.81
72.5512	548.00
72.5656	571.30
72.5801	533.57
72.5945	537.36
72.6089	564.85
72.6234	586.77
72.6378	580.49
72.6523	576.69
72.6667	660.80
72.6811	683.84
72.6956	620.93
72.7100	580.49
72.7245	548.67
72.7389	598.82
72.7533	636.72
72.7678	646.12
72.7822	689.53
72.7967	603.25
72.8111	570.82
72.8255	612.16
72.8400	604.47
72.8544	563.59
72.8689	582.38
72.8833	564.94

Result vector
22.1120	555.13
22.1264	594.07
22.1409	600.80
22.1553	431.14
22.1697	553.25
22.1842	572.73
22.1986	639.91
22.2131	577.78
22.2275	572.41
22.2419	588.52
22.2564	601.92
22.2708	565.48
22.2853	524.87
22.2997	547.53
22.3141	593.48
22.3286	570.08
22.3430	563.65
22.3575	620.70
22.3719	603.85
22.3863	580.80
22.4008	508.37
22.4152	544.49
22.4297	711.58
22.4441	693.56
22.4585	663.27
22.4730	664.45
22.4874	624.90
22.5019	654.88
22.5163	596.67
22.5307	530.61
22.5452	553.11
22.5596	609.93
22.5741	642.04
22.5885	655.54
22.6029	579.64
22.6174	602.93
22.6318	655.24
22.6463	687.23
22.6607	586.07
22.6751	558.09
22.6896	567.60
22.7040	555.31
22.7185	564.44
22.7329	505.68
22.7473	499.78
22.7618	574.92
22.7762	581.47
22.7907	639.54
22.8051	599.31
22.8195	557.62
22.8340	505.81
22.8484	482.00
22.8629	543.26
22.8773	506.24
22.8917	569.32
22.9062	570.78
22.9206	589.59
22.9351	504.46
22.9495	566.67
22.9639	517.43
22.9784	560.57
22.9928	572.52
23.0073	534.69
23.0217	556.28
23.0361	551.26
23.0506	518.12
23.0650	595.10
23.0795	587.37
23.0939	544.41
23.1083	592.71
23.1228	617.02
23.1372	580.67
23.1517	582.54
23.1661	579.78
23.1806	586.57
23.1950	626.39
23.2094	559.86
23.2239	564.94
23.2383	523.33
23.2528	584.46
23.2672	546.19
23.2816	602.65
23.2961	512.67
23.3105	554.14
23.3250	568.76
23.3394	586.02
23.3538	525.98
23.3683	515.94
23.3827	550.81
23.3972	541.72
23.4116	554.46
23.4260	596.76
23.4405	543.96
23.4549	579.79
23.4694	579.89
23.4838	545.08
23.4982	580.52
23.5127	583.30
23.5271	574.58
23.5416	514.48
23.5560	551.78
23.5704	612.89
23.5849	579.98
23.5993	546.70
23.6138	533.40
23.6282	521.49
23.6426	501.55
23.6571	580.82
23.6715	577.78
23.6860	560.23
23.7004	600.24
23.7148	522.98
23.7293	556.96
23.7437	557.60
23.7582	573.93
23.7726	550.62
23.7870	535.33
23.8015	537.63
23.8159	670.50
23.8304	566.08
23.8448	536.84
23.8592	571.56
23.8737	603.85
23.8881	612.04
23.9026	550.13
23.9170	508.62
23.9314	516.04
23.9459	479.86
23.9603	557.44
23.9748	566.39
23.9892	569.19
24.0036	604.90
24.0181	576.11
24.0325	521.81
24.0470	588.97
24.0614	560.23
24.0758	553.69
24.0903	573.80
24.1047	608.54
24.1192	632.02
24.1336	567.93
24.1480	584.69
24.1625	592.84
24.1769	629.13
24.1914	599.00
24.2058	603.27
24.2202	607.82
24.2347	601.86
24.2491	582.89
24.2636	613.13
24.2780	619.29
24.2924	571.58
24.3069	528.78
24.3213	549.49
24.3358	605.64
24.3502	582.63
24.3646	520.57
24.3791	585.25
24.3935	563.51
24.4080	581.41
24.4224	537.73
24.4368	514.72
24.4513	577.85
24.4657	531.08
24.4802	564.60
24.4946	553.17
24.5090	545.81
24.5235	550.29
24.5379	608.36
24.5524	573.83
24.5668	587.56
24.5812	541.59
24.5957	564.21
24.6101	582.08
24.6246	541.38
24.6390	545.40
24.6534	527.30
24.6679	551.58
24.6823	521.06
24.6968	544.52
24.7112	533.74
24.7256	557.56
24.7401	538.19
24.7545	518.05
24.7690	578.11
24.7834	532.72
24.7978	516.80
24.8123	582.37
24.8267	583.15
24.8412	509.07
24.8556	624.59
24.8700	586.36
24.8845	521.07
24.8989	541.18
24.9134	573.24
24.9278	589.09
24.9422	514.08
24.9567	531.92
24.9711	540.05
24.9856	549.00
25.0000	571.52
25.0144	572.74
25.0289	514.87
25.0433	564.80
25.0578	555.53
25.0722	583.76
25.0866	570.31
25.1011	523.50
25.1155	526.11
25.1300	597.10
25.1444	526.51
25.1588	530.55
25.1733	561.20
25.1877	491.23
25.2022	480.42
25.2166	494.42
25.2310	551.49
25.2455	481.69
25.2599	548.25
25.2744	587.77
25.2888	550.57
25.3032	536.86
25.3177	551.58
25.3321	513.38
25.3466	507.86
25.3610	567.37
25.3754	556.95
25.3899	550.61
25.4043	526.44
25.4188	548.09
25.4332	538.25
25.4476	512.76
25.4621	556.90
25.4765	563.72
25.4910	563.19
25.5054	533.75
25.5198	534.17
25.5343	601.37
25.5487	520.49
25.5632	515.04
25.5776	594.47
25.5920	567.20
25.6065	558.40
25.6209	561.49
25.6354	539.44
25.6498	571.45
25.6642	543.13
25.6787	502.82
25.6931	508.32
25.7076	542.25
25.7220	554.07
25.7364	533.85
25.7509	565.29
25.7653	551.78
25.7798	598.05
25.7942	558.49
25.8086	573.40
25.8231	550.97
25.8375	517.05
25.8520	541.35
25.8664	532.10
25.8808	529.03
25.8953	561.42
25.9097	494.25
25.9242	511.69
25.9386	552.83
25.9530	569.17
25.9675	563.66
25.9819	508.01
25.9964	512.05
26.0108	504.28
26.0252	523.56
26.0397	559.40
26.0541	539.44
26.0686	546.91
26.0830	533.16
26.0974	543.30
26.1119	524.53
26.1263	537.96
26.1408	530.44
26.1552	519.14
26.1696	503.65
26.1841	500.16
26.1985	466.98
26.2130	544.06
26.2274	529.88
26.2418	521.37
26.2563	542.63
26.2707	537.52
26.2852	524.25
26.2996	506.64
26.3140	486.60
26.3285	518.84
26.3429	539.58
26.3574	520.26
26.3718	511.76
26.3862	524.57
26.4007	505.90
26.4151	509.89
26.4296	525.01
26.4440	523.12
26.4584	494.01
26.4729	510.51
26.4873	532.64
26.5018	521.89
26.5162	522.03
26.5306	522.61
26.5451	523.11
26.5595	528.90
26.5740	535.20
26.5884	541.78
26.6028	551.55
26.6173	526.99
26.6317	526.37
26.6462	514.90
26.6606	520.33
26.6750	528.33
26.6895	511.90
26.7039	543.53
26.7184	546.58
26.7328	530.57
26.7472	522.36
26.7617	533.74
26.7761	532.56
26.7906	532.45
26.8050	551.30
26.8194	508.70
26.8339	528.57
26.8483	501.12
26.8628	518.68
26.8772	507.47
26.8917	502.89
26.9061	520.91
26.9205	528.13
26.9350	506.23
26.9494	510.65
26.9639	488.36
26.9783	481.36
26.9927	516.78
27.0072	536.60
27.0216	549.55
27.0361	517.82
27.0505	493.75
27.0649	521.76
27.0794	515.32
27.0938	506.12
27.1083	493.62
27.1227	534.84
27.1371	517.08
27.1516	512.75
27.1660	523.73
27.1805	532.83
27.1949	522.58
27.2093	502.45
27.2238	494.79
27.2382	541.00
27.2527	533.34
27.2671	489.85
27.2815	505.50
27.2960	507.45
27.3104	541.89
27.3249	496.78
27.3393	522.91
27.3537	489.41
27.3682	500.37
27.3826	528.63
27.3971	512.97
27.4115	519.13
27.4259	494.16
27.4404	488.94
27.4548	531.38
27.4693	507.65
27.4837	505.43
27.4981	548.16
27.5126	536.95
27.5270	485.10
27.5415	511.77
27.5559	501.61
27.5703	515.49
27.5848	541.37
27.5992	524.36
27.6137	508.35
27.6281	511.12
27.6425	511.86
27.6570	486.03
27.6714	514.09
27.6859	503.10
27.7003	540.55
27.7147	575.37
27.7292	506.59
27.7436	541.10
27.7581	551.78
27.7725	520.48
27.7869	521.70
27.8014	537.53
27.8158	530.01
27.8303	519.29
27.8447	524.38
27.8591	525.59
27.8736	485.08
27.8880	472.72
27.9025	537.39
27.9169	520.16
27.9313	538.78
27.9458	555.60
27.9602	495.54
27.9747	511.23
27.9891	507.42
28.0035	524.60
28.0180	525.47
28.0324	503.97
28.0469	546.84
28.0613	494.04
28.0757	477.44
28.0902	514.76
28.1046	514.82
28.1191	540.62
28.1335	521.69
28.1479	535.48
28.1624	529.47
28.1768	517.47
28.1913	508.51
28.2057	517.14
28.2201	502.63
28.2346	496.39
28.2490	488.32
28.2635	499.77
28.2779	524.02
28.2923	515.86
28.3068	519.32
28.3212	497.25
28.3357	504.30
28.3501	509.47
28.3645	476.16
28.3790	486.11
28.3934	482.58
28.4079	446.43
28.4223	526.00
28.4367	516.38
28.4512	502.92
28.4656	510.03
28.4801	522.68
28.4945	522.54
28.5089	532.70
28.5234	544.07
28.5378	540.03
28.5523	517.63
28.5667	525.37
28.5811	485.72
28.5956	469.88
28.6100	533.38
28.6245	509.67
28.6389	516.37
28.6533	512.59
28.6678	526.64
28.6822	527.25
28.6967	519.83
28.7111	537.85
28.7255	519.43
28.7400	486.22
28.7544	522.41
28.7689	546.89
28.7833	517.40
28.7977	503.41
28.8122	526.70
28.8266	558.72
28.8411	545.42
28.8555	523.27
28.8699	532.12
28.8844	522.91
28.8988	530.59
28.9133	525.83
28.9277	507.35
28.9421	509.58
28.9566	493.49
28.9710	525.65
28.9855	506.35
28.9999	508.08
29.0143	500.37
29.0288	507.73
29.0432	545.92
29.0577	502.85
29.0721	517.86
29.0865	536.89
29.1010	495.61
29.1154	518.20
29.1299	521.07
29.1443	493.22
29.1587	516.83
29.1732	515.88
29.1876	524.02
29.2021	517.88
29.2165	492.06
29.2309	484.27
29.2454	470.91
29.2598	502.47
29.2743	512.06
29.2887	522.04
29.3031	532.86
29.3176	518.58
29.3320	511.74
29.3465	507.13
29.3609	491.24
29.3753	503.15
29.3898	497.64
29.4042	492.11
29.4187	496.94
29.4331	517.09
29.4475	505.50
29.4620	515.63
29.4764	528.56
29.4909	498.45
29.5053	490.04
29.5197	508.60
29.5342	534.97
29.5486	518.26
29.5631	506.46
29.5775	486.58
29.5919	516.87
29.6064	540.32
29.6208	481.86
29.6353	513.41
29.6497	487.37
29.6641	486.23
29.6786	507.96
29.6930	500.11
29.7075	520.41
29.7219	496.52
29.7363	499.00
29.7508	531.22
29.7652	533.36
29.7797	527.58
29.7941	541.34
29.8085	557.51
29.8230	501.56
29.8374	495.34
29.8519	525.89
29.8663	514.37
29.8807	498.37
29.8952	518.02
29.9096	521.38
29.9241	519.01
29.9385	521.85
29.9529	519.25
29.9674	509.47
29.9818	500.67
29.9963	527.52
30.0107	531.23
30.0251	513.67
30.0396	551.22
30.0540	490.15
30.0685	493.71
30.0829	499.17
30.0973	533.85
30.1118	505.91
30.1262	516.87
30.1407	533.14
30.1551	496.30
30.1695	502.20
30.1840	517.04
30.1984	501.87
30.2129	503.61
30.2273	522.84
30.2417	520.01
30.2562	518.96
30.2706	498.59
30.2851	485.55
30.2995	488.73
30.3139	517.41
30.3284	523.07
30.3428	542.02
30.3573	529.66
30.3717	467.41
30.3861	481.78
30.4006	517.18
30.4150	533.17
30.4295	518.01
30.4439	481.77
30.4583	483.81
30.4728	505.12
30.4872	529.22
30.5017	530.32
30.5161	505.42
30.5305	512.13
30.5450	539.30
30.5594	535.15
30.5739	469.84
30.5883	518.00
30.6028	493.26
30.6172	510.88
30.6316	532.45
30.6461	534.91
30.6605	527.11
30.6750	533.19
30.6894	513.04
30.7038	548.75
30.7183	522.61
30.7327	516.82
30.7472	558.44
30.7616	597.29
30.7760	584.14
30.7905	594.80
30.8049	583.18
30.8194	633.38
30.8338	667.84
30.8482	667.45
30.8627	684.90
30.8771	708.58
30.8916	713.81
30.9060	713.48
30.9204	687.13
30.9349	643.92
30.9493	635.84
30.9638	630.91
30.9782	620.65
30.9926	620.78
31.0071	626.99
31.0215	600.74
31.0360	531.48
31.0504	537.45
31.0648	556.05
31.0793	550.56
31.0937	562.59
31.1082	526.37
31.1226	553.19
31.1370	520.41
31.1515	541.22
31.1659	564.32
31.1804	569.02
31.1948	556.46
31.2092	546.80
31.2237	533.01
31.2381	541.05
31.2526	544.82
31.2670	535.34
31.2814	558.57
31.2959	528.70
31.3103	563.46
31.3248	551.42
31.3392	551.69
31.3536	550.26
31.3681	542.94
31.3825	535.67
31.3970	541.91
31.4114	535.95
31.4258	499.52
31.4403	526.34
31.4547	495.81
31.4692	536.98
31.4836	508.19
31.4980	502.87
31.5125	498.85
31.5269	526.33
31.5414	500.80
31.5558	494.13
31.5702	493.66
31.5847	526.48
31.5991	487.28
31.6136	506.35
31.6280	516.49
31.6424	531.22
31.6569	504.64
31.6713	492.86
31.6858	542.39
31.7002	518.63
31.7146	531.98
31.7291	493.25
31.7435	502.42
31.7580	508.42
31.7724	527.81
31.7868	530.66
31.8013	514.64
31.8157	532.49
31.8302	447.99
31.8446	466.75
31.8590	521.11
31.8735	523.35
31.8879	484.87
31.9024	483.41
31.9168	515.15
31.9312	533.81
31.9457	502.93
31.9601	464.03
31.9746	497.35
31.9890	504.55
32.0034	501.70
32.0179	509.22
32.0323	488.92
32.0468	541.20
32.0612	515.28
32.0756	507.11
32.0901	530.91
32.1045	512.07
32.1190	480.82
32.1334	490.03
32.1478	508.53
32.1623	497.42
32.1767	514.22
32.1912	520.50
32.2056	500.00
32.2200	550.12
32.2345	508.87
32.2489	514.65
32.2634	486.64
32.2778	525.13
32.2922	511.59
32.3067	506.90
32.3211	523.28
32.3356	491.00
32.3500	497.50
32.3644	501.92
32.3789	490.85
32.3933	467.08
32.4078	510.91
32.4222	490.53
32.4366	500.43
32.4511	468.77
32.4655	496.65
32.4800	487.47
32.4944	500.90
32.5088	504.55
32.5233	481.38
32.5377	501.27
32.5522	471.22
32.5666	495.88
32.5810	492.09
32.5955	469.21
32.6099	473.17
32.6244	498.49
32.6388	496.78
32.6532	527.65
32.6677	503.06
32.6821	487.01
32.6966	517.41
32.7110	543.76
32.7254	548.72
32.7399	484.85
32.7543	491.25
32.7688	482.96
32.7832	494.75
32.7976	520.51
32.8121	508.14
32.8265	514.94
32.8410	510.44
32.8554	500.48
32.8698	514.73
32.8843	480.21
32.8987	509.06
32.9132	540.96
32.9276	508.65
32.9420	535.64
32.9565	480.89
32.9709	514.60
32.9854	490.47
32.9998	434.74
33.0142	467.26
33.0287	485.85
33.0431	493.46
33.0576	494.86
33.0720	486.80
33.0864	510.95
33.1009	477.55
33.1153	509.81
33.1298	505.99
33.1442	467.89
33.1586	495.05
33.1731	518.49
33.1875	498.09
33.2020	501.45
33.2164	462.85
33.2308	486.28
33.2453	497.94
33.2597	503.98
33.2742	490.18
33.2886	509.66
33.3030	467.81
33.3175	502.98
33.3319	478.28
33.3464	516.18
33.3608	517.82
33.3752	495.54
33.3897	481.31
33.4041	494.35
33.4186	503.87
33.4330	494.99
33.4474	479.88
33.4619	518.23
33.4763	527.62
33.4908	519.18
33.5052	462.15
33.5196	495.12
33.5341	477.17
33.5485	493.05
33.5630	500.66
33.5774	502.28
33.5918	532.70
33.6063	553.18
33.6207	492.99
33.6352	512.50
33.6496	552.03
33.6640	503.84
33.6785	489.93
33.6929	491.87
33.7074	536.61
33.7218	529.78
33.7362	506.12
33.7507	483.94
33.7651	496.36
33.7796	504.08
33.7940	484.04
33.8084	495.96
33.8229	492.37
33.8373	512.27
33.8518	508.76
33.8662	500.60
33.8806	522.87
33.8951	528.79
33.9095	532.33
33.9240	515.70
33.9384	498.61
33.9528	494.04
33.9673	493.38
33.9817	516.00
33.9962	506.01
34.0106	527.21
34.0250	537.24
34.0395	530.03
34.0539	507.93
34.0684	512.14
34.0828	525.45
34.0972	514.50
34.1117	523.09
34.1261	491.07
34.1406	485.92
34.1550	514.82
34.1694	505.30
34.1839	497.38
34.1983	494.09
34.2128	500.97
34.2272	502.40
34.2417	528.17
34.2561	558.13
34.2705	503.45
34.2850	542.27
34.2994	540.14
34.3139	488.34
34.3283	495.87
34.3427	484.49
34.3572	505.86
34.3716	504.76
34.3861	467.38
34.4005	499.17
34.4149	515.63
34.4294	521.95
34.4438	488.42
34.4583	504.37
34.4727	506.74
34.4871	485.09
34.5016	501.50
34.5160	534.66
34.5305	575.22
34.5449	550.35
34.5593	525.40
34.5738	488.71
34.5882	471.03
34.6027	493.21
34.6171	509.56
34.6315	517.07
34.6460	480.56
34.6604	466.76
34.6749	477.97
34.6893	470.43
34.7037	495.35
34.7182	489.04
34.7326	482.72
34.7471	513.80
34.7615	503.03
34.7759	523.37
34.7904	528.86
34.8048	503.47
34.8193	504.23
34.8337	503.33
34.8481	505.77
34.8626	533.29
34.8770	511.73
34.8915	530.50
34.9059	529.17
34.9203	519.89
34.9348	521.32
34.9492	499.95
34.9637	491.13
34.9781	521.21
34.9925	526.22
35.0070	526.38
35.0214	519.90
35.0359	500.64
35.0503	523.99
35.0647	529.27
35.0792	502.79
35.0936	550.91
35.1081	568.04
35.1225	560.16
35.1369	516.72
35.1514	494.37
35.1658	529.74
35.1803	532.28
35.1947	514.34
35.2091	508.77
35.2236	528.32
35.2380	506.40
35.2525	507.19
35.2669	479.63
35.2813	501.43
35.2958	509.88
35.3102	530.43
35.3247	515.09
35.3391	516.99
35.3535	550.85
35.3680	526.00
35.3824	521.53
35.3969	520.83
35.4113	526.61
35.4257	527.80
35.4402	519.26
35.4546	517.46
35.4691	582.20
35.4835	573.74
35.4979	531.43
35.5124	535.89
35.5268	551.99
35.5413	550.97
35.5557	548.34
35.5701	521.40
35.5846	531.35
35.5990	521.86
35.6135	498.88
35.6279	504.65
35.6423	488.53
35.6568	528.61
35.6712	545.84
35.6857	559.96
35.7001	645.63
35.7145	692.69
35.7290	667.55
35.7434	605.20
35.7579	577.51
35.7723	558.26
35.7867	606.28
35.8012	628.58
35.8156	633.66
35.8301	597.09
35.8445	565.41
35.8589	621.95
35.8734	739.34
35.8878	863.32
35.9023	996.21
35.9167	1117.92
35.9311	1512.84
35.9456	2307.92
35.9600	2300.78
35.9745	1859.88
35.9889	1869.07
36.0033	2203.66
36.0178	2337.27
36.0322	1993.18
36.0467	1854.65
36.0611	1572.25
36.0755	1558.55
36.0900	1454.58
36.1044	1270.33
36.1189	1297.76
36.1333	1193.15
36.1477	1029.57
36.1622	1050.93
36.1766	990.68
36.1911	885.82
36.2055	758.21
36.2199	781.14
36.2344	769.47
36.2488	788.30
36.2633	804.28
36.2777	774.92
36.2921	836.94
36.3066	914.97
36.3210	907.14
36.3355	963.27
36.3499	1012.41
36.3643	987.14
36.3788	1003.48
36.3932	987.19
36.4077	973.69
36.4221	1002.49
36.4365	921.79
36.4510	877.70
36.4654	843.32
36.4799	805.21
36.4943	775.08
36.5087	750.74
36.5232	662.22
36.5376	674.16
36.5521	689.37
36.5665	638.08
36.5809	580.90
36.5954	605.49
36.6098	595.50
36.6243	599.10
36.6387	602.83
36.6531	573.16
36.6676	582.93
36.6820	540.26
36.6965	527.58
36.7109	571.50
36.7253	569.43
36.7398	543.24
36.7542	559.18
36.7687	554.21
36.7831	557.73
36.7975	587.04
36.8120	599.79
36.8264	592.20
36.8409	627.14
36.8553	565.44
36.8697	579.72
36.8842	586.18
36.8986	623.18
36.9131	587.66
36.9275	593.62
36.9419	588.24
36.9564	567.74
36.9708	588.66
36.9853	566.22
36.9997	546.09
37.0141	568.67
37.0286	553.25
37.0430	569.13
37.0575	551.29
37.0719	533.38
37.0863	511.22
37.1008	519.43
37.1152	510.57
37.1297	510.42
37.1441	444.50
37.1585	485.44
37.1730	500.29
37.1874	525.30
37.2019	510.53
37.2163	520.67
37.2307	523.46
37.2452	526.12
37.2596	488.79
37.2741	519.99
37.2885	502.01
37.3029	516.38
37.3174	512.81
37.3318	515.83
37.3463	503.22
37.3607	475.99
37.3751	480.01
37.3896	485.37
37.4040	510.02
37.4185	497.15
37.4329	537.02
37.4473	500.48
37.4618	506.15
37.4762	514.47
37.4907	504.13
37.5051	504.23
37.5195	510.01
37.5340	541.16
37.5484	496.57
37.5629	495.26
37.5773	492.53
37.5917	526.29
37.6062	509.53
37.6206	519.99
37.6351	502.13
37.6495	479.76
37.6639	522.63
37.6784	524.76
37.6928	516.09
37.7073	542.62
37.7217	489.78
37.7361	502.05
37.7506	499.37
37.7650	497.87
37.7795	507.67
37.7939	479.74
37.8083	536.91
37.8228	517.31
37.8372	534.94
37.8517	543.38
37.8661	536.95
37.8805	528.70
37.8950	545.32
37.9094	567.86
37.9239	516.27
37.9383	474.60
37.9528	486.47
37.9672	511.23
37.9816	499.25
37.9961	504.24
38.0105	487.52
38.0250	510.58
38.0394	541.79
38.0538	541.65
38.0683	533.21
38.0827	499.19
38.0972	500.92
38.1116	519.78
38.1260	522.44
38.1405	517.27
38.1549	501.80
38.1694	511.19
38.1838	527.35
38.1982	502.95
38.2127	515.32
38.2271	522.38
38.2416	541.34
38.2560	510.97
38.2704	510.81
38.2849	525.50
38.2993	508.58
38.3138	517.72
38.3282	494.73
38.3426	495.44
38.3571	489.85
38.3715	494.33
38.3860	546.97
38.4004	538.78
38.4148	571.77
38.4293	614.19
38.4437	610.63
38.4582	599.62
38.4726	703.45
38.4870	730.15
38.5015	723.80
38.5159	796.83
38.5304	803.06
38.5448	869.86
38.5592	819.99
38.5737	750.11
38.5881	743.31
38.6026	708.82
38.6170	666.49
38.6314	673.35
38.6459	691.83
38.6603	631.60
38.6748	607.47
38.6892	560.33
38.7036	567.47
38.7181	547.06
38.7325	465.68
38.7470	506.43
38.7614	521.29
38.7758	532.76
38.7903	524.61
38.8047	533.71
38.8192	501.53
38.8336	505.76
38.8480	503.50
38.8625	526.41
38.8769	522.52
38.8914	470.13
38.9058	515.34
38.9202	489.56
38.9347	498.91
38.9491	518.55
38.9636	506.72
38.9780	506.67
38.9924	515.49
39.0069	473.11
39.0213	510.59
39.0358	505.65
39.0502	496.72
39.0646	509.66
39.0791	482.51
39.0935	478.15
39.1080	496.24
39.1224	490.52
39.1368	464.89
39.1513	496.90
39.1657	509.89
39.1802	492.99
39.1946	504.40
39.2090	515.14
39.2235	496.98
39.2379	517.17
39.2524	518.43
39.2668	533.50
39.2812	560.45
39.2957	513.05
39.3101	488.41
39.3246	534.45
39.3390	497.40
39.3534	483.14
39.3679	469.50
39.3823	482.67
39.3968	507.70
39.4112	508.77
39.4256	529.26
39.4401	522.19
39.4545	517.60
39.4690	523.42
39.4834	529.58
39.4978	533.21
39.5123	486.43
39.5267	503.58
39.5412	533.82
39.5556	497.45
39.5700	492.12
39.5845	530.72
39.5989	497.53
39.6134	504.60
39.6278	524.59
39.6422	508.21
39.6567	493.24
39.6711	498.39
39.6856	505.10
39.7000	496.87
39.7144	492.31
39.7289	491.44
39.7433	507.03
39.7578	489.87
39.7722	475.43
39.7866	501.35
39.8011	493.69
39.8155	496.34
39.8300	482.99
39.8444	481.29
39.8588	495.81
39.8733	481.61
39.8877	498.70
39.9022	528.80
39.9166	511.62
39.9310	499.34
39.9455	511.75
39.9599	489.75
39.9744	473.25
39.9888	487.48
40.0032	481.79
40.0177	529.23
40.0321	537.07
40.0466	487.53
40.0610	466.59
40.0754	516.65
40.0899	540.17
40.1043	529.39
40.1188	521.88
40.1332	511.21
40.1476	471.95
40.1621	474.89
40.1765	489.41
40.1910	489.17
40.2054	460.10
40.2198	509.90
40.2343	498.71
40.2487	522.83
40.2632	488.86
40.2776	480.91
40.2920	530.89
40.3065	528.95
40.3209	521.25
40.3354	471.76
40.3498	473.17
40.3642	502.64
40.3787	476.91
40.3931	476.88
40.4076	486.68
40.4220	464.59
40.4364	526.99
40.4509	516.30
40.4653	505.12
40.4798	488.66
40.4942	459.34
40.5086	508.43
40.5231	505.86
40.5375	520.00
40.5520	505.52
40.5664	501.15
40.5808	516.01
40.5953	496.86
40.6097	523.87
40.6242	484.60
40.6386	527.95
40.6530	494.80
40.6675	479.60
40.6819	497.30
40.6964	484.83
40.7108	497.64
40.7252	493.42
40.7397	535.78
40.7541	523.38
40.7686	530.55
40.7830	498.14
40.7974	495.14
40.8119	490.88
40.8263	486.38
40.8408	504.77
40.8552	502.68
40.8696	495.30
40.8841	461.22
40.8985	490.67
40.9130	542.21
40.9274	505.13
40.9418	498.02
40.9563	526.94
40.9707	472.56
40.9852	471.80
40.9996	440.43
41.0140	525.69
41.0285	518.81
41.0429	503.85
41.0574	480.54
41.0718	483.13
41.0862	474.14
41.1007	499.60
41.1151	512.45
41.1296	543.54
41.1440	490.13
41.1584	480.06
41.1729	520.99
41.1873	491.76
41.2018	468.64
41.2162	512.56
41.2306	535.19
41.2451	516.65
41.2595	484.81
41.2740	504.78
41.2884	488.71
41.3028	499.94
41.3173	497.69
41.3317	480.90
41.3462	477.90
41.3606	486.95
41.3750	502.12
41.3895	514.16
41.4039	518.98
41.4184	489.65
41.4328	523.07
41.4472	515.77
41.4617	495.98
41.4761	494.39
41.4906	511.72
41.5050	504.43
41.5194	488.38
41.5339	484.04
41.5483	514.88
41.5628	469.65
41.5772	479.41
41.5916	483.40
41.6061	522.64
41.6205	501.49
41.6350	524.72
41.6494	528.49
41.6639	482.28
41.6783	483.14
41.6927	504.46
41.7072	530.77
41.7216	514.65
41.7361	480.56
41.7505	509.33
41.7649	498.26
41.7794	513.05
41.7938	514.83
41.8083	515.98
41.8227	511.10
41.8371	504.35
41.8516	505.28
41.8660	517.65
41.8805	515.82
41.8949	556.44
41.9093	518.39
41.9238	525.92
41.9382	509.95
41.9527	586.26
41.9671	566.04
41.9815	551.19
41.9960	575.60
42.0104	537.51
42.0249	530.10
42.0393	558.51
42.0537	550.13
42.0682	538.64
42.0826	564.95
42.0971	560.75
42.1115	579.58
42.1259	597.11
42.1404	601.26
42.1548	618.20
42.1693	639.80
42.1837	708.33
42.1981	711.35
42.2126	827.47
42.2270	911.12
42.2415	1033.55
42.2559	1155.74
42.2703	1298.87
42.2848	1519.28
42.2992	1608.12
42.3137	1636.63
42.3281	1642.02
42.3425	1534.17
42.3570	1431.95
42.3714	1400.05
42.3859	1340.12
42.4003	1305.55
42.4147	1347.97
42.4292	1237.64
42.4436	1137.71
42.4581	1002.85
42.4725	937.51
42.4869	862.89
42.5014	803.61
42.5158	661.96
42.5303	640.21
42.5447	603.44
42.5591	581.85
42.5736	556.03
42.5880	552.36
42.6025	547.81
42.6169	579.99
42.6313	540.64
42.6458	544.06
42.6602	509.91
42.6747	532.43
42.6891	540.03
42.7035	549.01
42.7180	543.21
42.7324	527.07
42.7469	552.29
42.7613	515.54
42.7757	527.65
42.7902	545.38
42.8046	527.60
42.8191	524.61
42.8335	523.15
42.8479	502.76
42.8624	525.37
42.8768	527.05
42.8913	532.25
42.9057	544.52
42.9201	537.39
42.9346	506.21
42.9490	515.07
42.9635	482.84
42.9779	484.16
42.9923	514.35
43.0068	514.16
43.0212	507.00
43.0357	513.89
43.0501	502.60
43.0645	526.95
43.0790	525.82
43.0934	539.84
43.1079	507.67
43.1223	507.16
43.1367	502.74
43.1512	515.80
43.1656	534.70
43.1801	527.12
43.1945	509.80
43.2089	503.97
43.2234	489.06
43.2378	513.85
43.2523	532.76
43.2667	534.32
43.2811	531.30
43.2956	519.46
43.3100	558.88
43.3245	516.97
43.3389	504.27
43.3533	534.84
43.3678	512.24
43.3822	527.58
43.3967	527.80
43.4111	503.32
43.4255	517.42
43.4400	520.02
43.4544	534.62
43.4689	511.31
43.4833	514.56
43.4977	499.74
43.5122	498.64
43.5266	521.72
43.5411	515.55
43.5555	544.02
43.5699	528.75
43.5844	500.40
43.5988	503.25
43.6133	519.37
43.6277	552.28
43.6421	522.76
43.6566	530.94
43.6710	481.89
43.6855	513.87
43.6999	527.89
43.7143	524.08
43.7288	539.65
43.7432	515.94
43.7577	505.30
43.7721	490.08
43.7865	512.00
43.8010	518.95
43.8154	523.98
43.8299	521.68
43.8443	512.11
43.8587	524.83
43.8732	534.47
43.8876	511.82
43.9021	559.97
43.9165	495.78
43.9309	516.13
43.9454	541.67
43.9598	517.82
43.9743	533.96
43.9887	505.28
44.0031	521.68
44.0176	555.75
44.0320	507.03
44.0465	537.16
44.0609	575.79
44.0753	545.23
44.0898	558.79
44.1042	545.22
44.1187	566.70
44.1331	576.60
44.1475	563.86
44.1620	587.09
44.1764	621.22
44.1909	621.09
44.2053	619.72
44.2197	640.88
44.2342	637.17
44.2486	589.42
44.2631	556.93
44.2775	595.76
44.2919	610.55
44.3064	614.30
44.3208	631.46
44.3353	593.80
44.3497	569.68
44.3641	607.36
44.3786	581.80
44.3930	584.33
44.4075	591.38
44.4219	597.04
44.4363	608.13
44.4508	569.71
44.4652	594.82
44.4797	624.79
44.4941	600.13
44.5085	587.32
44.5230	585.12
44.5374	625.78
44.5519	580.85
44.5663	560.52
44.5807	583.22
44.5952	600.05
44.6096	623.07
44.6241	588.29
44.6385	589.58
44.6529	593.72
44.6674	588.33
44.6818	598.46
44.6963	665.28
44.7107	714.41
44.7251	732.32
44.7396	728.03
44.7540	802.81
44.7685	869.46
44.7829	885.18
44.7973	911.66
44.8118	840.84
44.8262	771.58
44.8407	737.62
44.8551	767.83
44.8695	728.10
44.8840	737.52
44.8984	704.24
44.9129	692.16
44.9273	700.21
44.9417	647.12
44.9562	577.38
44.9706	585.11
44.9851	562.72
44.9995	504.05
45.0139	518.56
45.0284	534.02
45.0428	544.31
45.0573	523.14
45.0717	508.18
45.0861	494.49
45.1006	514.51
45.1150	514.92
45.1295	500.76
45.1439	475.45
45.1583	476.45
45.1728	514.82
45.1872	502.14
45.2017	489.20
45.2161	525.59
45.2305	557.43
45.2450	514.30
45.2594	510.82
45.2739	516.36
45.2883	477.11
45.3028	524.71
45.3172	515.22
45.3316	499.38
45.3461	492.74
45.3605	478.99
45.3750	492.26
45.3894	494.67
45.4038	496.20
45.4183	495.16
45.4327	530.94
45.4472	482.18
45.4616	491.64
45.4760	502.70
45.4905	491.97
45.5049	514.93
45.5194	524.07
45.5338	512.17
45.5482	526.67
45.5627	483.55
45.5771	492.27
45.5916	500.06
45.6060	493.09
45.6204	465.41
45.6349	508.09
45.6493	513.37
45.6638	510.34
45.6782	499.78
45.6926	470.97
45.7071	511.84
45.7215	505.21
45.7360	497.43
45.7504	516.89
45.7648	493.99
45.7793	487.53
45.7937	491.03
45.8082	509.31
45.8226	496.33
45.8370	506.04
45.8515	513.98
45.8659	535.86
45.8804	513.73
45.8948	540.67
45.9092	524.46
45.9237	519.02
45.9381	520.30
45.9526	523.99
45.9670	489.29
45.9814	480.63
45.9959	491.86
46.0103	492.81
46.0248	481.93
46.0392	530.82
46.0536	509.12
46.0681	521.70
46.0825	504.88
46.0970	511.65
46.1114	495.49
46.1258	534.87
46.1403	530.71
46.1547	486.32
46.1692	494.11
46.1836	502.69
46.1980	491.44
46.2125	502.84
46.2269	500.22
46.2414	478.13
46.2558	492.15
46.2702	530.09
46.2847	510.84
46.2991	506.24
46.3136	504.92
46.3280	517.85
46.3424	500.11
46.3569	514.67
46.3713	498.88
46.3858	483.08
46.4002	481.89
46.4146	485.14
46.4291	528.53
46.4435	497.81
46.4580	484.00
46.4724	506.70
46.4868	479.05
46.5013	506.13
46.5157	503.07
46.5302	521.31
46.5446	518.28
46.5590	521.78
46.5735	472.77
46.5879	481.84
46.6024	485.93
46.6168	487.21
46.6312	524.53
46.6457	521.08
46.6601	507.81
46.6746	514.20
46.6890	493.16
46.7034	498.97
46.7179	481.58
46.7323	506.12
46.7468	493.39
46.7612	506.95
46.7756	485.83
46.7901	501.58
46.8045	509.93
46.8190	493.03
46.8334	499.52
46.8478	492.32
46.8623	524.15
46.8767	511.31
46.8912	500.32
46.9056	519.05
46.9200	524.63
46.9345	524.77
46.9489	509.41
46.9634	476.85
46.9778	499.68
46.9922	513.40
47.0067	518.23
47.0211	508.67
47.0356	516.97
47.0500	516.95
47.0644	517.96
47.0789	523.30
47.0933	508.85
47.1078	494.05
47.1222	562.64
47.1366	520.40
47.1511	506.76
47.1655	497.34
47.1800	504.60
47.1944	475.74
47.2088	507.31
47.2233	521.96
47.2377	504.74
47.2522	517.17
47.2666	526.03
47.2810	505.97
47.2955	525.26
47.3099	517.12
47.3244	498.39
47.3388	495.94
47.3532	517.37
47.3677	492.65
47.3821	501.31
47.3966	492.78
47.4110	505.70
47.4254	513.62
47.4399	487.36
47.4543	493.83
47.4688	506.66
47.4832	521.39
47.4976	514.48
47.5121	472.84
47.5265	496.11
47.5410	517.32
47.5554	509.14
47.5698	506.26
47.5843	522.08
47.5987	508.89
47.6132	476.71
47.6276	462.18
47.6420	494.01
47.6565	522.03
47.6709	485.80
47.6854	471.32
47.6998	527.27
47.7142	563.45
47.7287	523.81
47.7431	462.45
47.7576	507.65
47.7720	495.29
47.7864	481.25
47.8009	465.94
47.8153	490.48
47.8298	483.96
47.8442	493.25
47.8586	520.27
47.8731	496.61
47.8875	504.54
47.9020	523.29
47.9164	484.95
47.9308	509.66
47.9453	510.62
47.9597	519.19
47.9742	506.17
47.9886	547.49
48.0030	500.33
48.0175	490.79
48.0319	535.38
48.0464	500.07
48.0608	494.78
48.0752	529.84
48.0897	527.02
48.1041	497.31
48.1186	502.92
48.1330	505.23
48.1474	483.71
48.1619	469.65
48.1763	493.04
48.1908	490.41
48.2052	492.91
48.2196	499.52
48.2341	519.66
48.2485	521.05
48.2630	509.79
48.2774	495.16
48.2918	510.31
48.3063	494.33
48.3207	513.08
48.3352	562.29
48.3496	509.58
48.3640	515.94
48.3785	490.92
48.3929	497.82
48.4074	510.09
48.4218	574.87
48.4362	551.86
48.4507	513.93
48.4651	515.34
48.4796	560.43
48.4940	536.86
48.5084	520.24
48.5229	528.89
48.5373	507.98
48.5518	482.40
48.5662	488.06
48.5806	506.21
48.5951	560.79
48.6095	499.04
48.6240	500.76
48.6384	516.14
48.6528	525.61
48.6673	516.74
48.6817	548.60
48.6962	522.39
48.7106	535.08
48.7250	537.52
48.7395	552.23
48.7539	523.17
48.7684	480.73
48.7828	523.92
48.7972	512.91
48.8117	559.59
48.8261	521.42
48.8406	502.36
48.8550	546.27
48.8694	498.45
48.8839	527.75
48.8983	548.43
48.9128	554.28
48.9272	506.90
48.9416	575.44
48.9561	595.46
48.9705	550.23
48.9850	567.57
48.9994	591.56
49.0139	560.08
49.0283	613.37
49.0427	596.94
49.0572	664.53
49.0716	685.67
49.0861	644.92
49.1005	670.66
49.1149	713.24
49.1294	727.60
49.1438	768.00
49.1583	755.83
49.1727	832.50
49.1871	886.29
49.2016	940.52
49.2160	1056.79
49.2305	1101.74
49.2449	1151.79
49.2593	1286.74
49.2738	1349.67
49.2882	1471.47
49.3027	1601.73
49.3171	1540.00
49.3315	1625.87
49.3460	1785.12
49.3604	1711.42
49.3749	1761.25
49.3893	1745.10
49.4037	1767.16
49.4182	1697.29
49.4326	1710.47
49.4471	1620.71
49.4615	1545.39
49.4759	1533.50
49.4904	1510.55
49.5048	1405.90
49.5193	1337.24
49.5337	1287.92
49.5481	1191.15
49.5626	1138.26
49.5770	1035.48
49.5915	943.79
49.6059	928.91
49.6203	859.08
49.6348	790.68
49.6492	714.31
49.6637	710.56
49.6781	691.37
49.6925	668.72
49.7070	664.19
49.7214	625.75
49.7359	613.56
49.7503	640.65
49.7647	586.95
49.7792	587.69
49.7936	610.18
49.8081	587.70
49.8225	555.69
49.8369	600.32
49.8514	552.49
49.8658	570.17
49.8803	552.06
49.8947	529.38
49.9091	511.08
49.9236	531.79
49.9380	531.03
49.9525	519.85
49.9669	524.11
49.9813	533.50
49.9958	547.46
50.0102	532.85
50.0247	495.25
50.0391	529.18
50.0535	531.46
50.0680	511.93
50.0824	572.71
50.0969	568.73
50.1113	523.59
50.1257	506.26
50.1402	526.25
50.1546	515.17
50.1691	514.31
50.1835	509.34
50.1979	517.80
50.2124	504.09
50.2268	546.31
50.2413	557.24
50.2557	527.35
50.2701	534.96
50.2846	521.25
50.2990	546.18
50.3135	501.16
50.3279	506.93
50.3423	527.21
50.3568	499.03
50.3712	483.93
50.3857	494.04
50.4001	496.77
50.4145	532.18
50.4290	530.03
50.4434	515.04
50.4579	509.40
50.4723	525.39
50.4867	528.09
50.5012	529.18
50.5156	520.77
50.5301	498.49
50.5445	514.88
50.5589	540.50
50.5734	531.11
50.5878	503.34
50.6023	523.17
50.6167	517.99
50.6311	503.08
50.6456	523.40
50.6600	559.45
50.6745	523.06
50.6889	531.12
50.7033	543.62
50.7178	538.88
50.7322	532.59
50.7467	521.36
50.7611	537.78
50.7755	512.92
50.7900	493.25
50.8044	498.87
50.8189	531.41
50.8333	557.99
50.8477	484.52
50.8622	524.78
50.8766	497.09
50.8911	498.63
50.9055	504.15
50.9199	500.36
50.9344	518.46
50.9488	532.18
50.9633	505.97
50.9777	527.76
50.9921	509.73
51.0066	514.12
51.0210	532.28
51.0355	520.99
51.0499	518.30
51.0643	542.24
51.0788	514.26
51.0932	503.71
51.1077	498.79
51.1221	509.52
51.1365	505.60
51.1510	506.38
51.1654	502.46
51.1799	518.26
51.1943	505.06
51.2087	471.21
51.2232	502.61
51.2376	491.86
51.2521	470.56
51.2665	500.83
51.2809	512.18
51.2954	500.28
51.3098	547.96
51.3243	488.21
51.3387	507.07
51.3531	501.25
51.3676	498.71
51.3820	496.40
51.3965	525.19
51.4109	497.70
51.4253	491.37
51.4398	503.65
51.4542	490.35
51.4687	518.35
51.4831	527.49
51.4975	510.89
51.5120	493.92
51.5264	491.18
51.5409	486.90
51.5553	506.90
51.5697	488.01
51.5842	496.51
51.5986	485.98
51.6131	492.97
51.6275	485.50
51.6419	511.06
51.6564	487.53
51.6708	504.51
51.6853	500.74
51.6997	537.96
51.7141	529.63
51.7286	539.96
51.7430	516.42
51.7575	515.75
51.7719	486.61
51.7863	521.36
51.8008	532.68
51.8152	491.52
51.8297	501.23
51.8441	515.05
51.8585	541.33
51.8730	527.52
51.8874	492.43
51.9019	534.40
51.9163	484.34
51.9307	549.01
51.9452	539.93
51.9596	504.15
51.9741	514.33
51.9885	566.46
52.0029	529.26
52.0174	524.69
52.0318	537.34
52.0463	493.38
52.0607	476.17
52.0751	496.75
52.0896	570.55
52.1040	537.37
52.1185	525.15
52.1329	531.53
52.1473	509.48
52.1618	499.28
52.1762	496.38
52.1907	491.72
52.2051	490.02
52.2195	506.15
52.2340	519.43
52.2484	523.89
52.2629	519.65
52.2773	504.26
52.2917	497.40
52.3062	535.47
52.3206	515.78
52.3351	520.28
52.3495	497.01
52.3639	535.87
52.3784	542.54
52.3928	485.01
52.4073	505.18
52.4217	530.43
52.4361	529.30
52.4506	462.32
52.4650	516.68
52.4795	495.41
52.4939	531.49
52.5083	521.03
52.5228	523.54
52.5372	514.75
52.5517	504.99
52.5661	506.90
52.5805	502.01
52.5950	501.49
52.6094	474.40
52.6239	496.66
52.6383	482.76
52.6527	522.21
52.6672	523.70
52.6816	508.13
52.6961	496.37
52.7105	545.27
52.7250	542.54
52.7394	511.32
52.7538	528.60
52.7683	532.50
52.7827	510.88
52.7972	507.87
52.8116	534.98
52.8260	538.30
52.8405	503.60
52.8549	498.26
52.8694	513.93
52.8838	507.17
52.8982	496.97
52.9127	463.41
52.9271	515.70
52.9416	519.05
52.9560	493.50
52.9704	532.49
52.9849	535.07
52.9993	531.93
53.0138	522.78
53.0282	503.09
53.0426	519.07
53.0571	535.51
53.0715	532.52
53.0860	504.63
53.1004	524.40
53.1148	533.10
53.1293	527.19
53.1437	500.13
53.1582	498.49
53.1726	497.67
53.1870	512.53
53.2015	489.07
53.2159	513.50
53.2304	526.97
53.2448	505.38
53.2592	486.16
53.2737	523.26
53.2881	508.04
53.3026	498.94
53.3170	527.92
53.3314	549.52
53.3459	493.21
53.3603	516.99
53.3748	506.42
53.3892	517.05
53.4036	506.91
53.4181	538.95
53.4325	529.45
53.4470	496.36
53.4614	521.95
53.4758	535.73
53.4903	528.77
53.5047	506.41
53.5192	478.94
53.5336	462.54
53.5480	492.36
53.5625	538.37
53.5769	510.62
53.5914	528.87
53.6058	485.43
53.6202	504.63
53.6347	516.21
53.6491	543.25
53.6636	515.08
53.6780	507.96
53.6924	468.03
53.7069	490.64
53.7213	499.56
53.7358	516.95
53.7502	479.86
53.7646	503.34
53.7791	502.35
53.7935	533.85
53.8080	505.50
53.8224	509.87
53.8368	517.62
53.8513	497.78
53.8657	564.15
53.8802	538.88
53.8946	565.92
53.9090	534.00
53.9235	526.74
53.9379	508.42
53.9524	517.02
53.9668	530.86
53.9812	496.62
53.9957	530.55
54.0101	552.67
54.0246	529.53
54.0390	505.89
54.0534	508.56
54.0679	518.57
54.0823	530.48
54.0968	517.85
54.1112	514.48
54.1256	509.58
54.1401	510.50
54.1545	495.73
54.1690	527.24
54.1834	516.60
54.1978	482.83
54.2123	510.34
54.2267	510.88
54.2412	544.10
54.2556	524.21
54.2700	511.72
54.2845	518.16
54.2989	518.14
54.3134	513.36
54.3278	516.43
54.3422	538.86
54.3567	539.65
54.3711	527.28
54.3856	504.74
54.4000	505.31
54.4144	513.41
54.4289	500.04
54.4433	490.36
54.4578	499.51
54.4722	514.05
54.4866	518.05
54.5011	527.73
54.5155	537.59
54.5300	540.65
54.5444	540.90
54.5588	539.55
54.5733	516.17
54.5877	516.57
54.6022	508.43
54.6166	517.82
54.6310	522.46
54.6455	545.46
54.6599	546.86
54.6744	550.71
54.6888	539.87
54.7032	575.34
54.7177	569.52
54.7321	566.92
54.7466	550.93
54.7610	556.53
54.7754	530.93
54.7899	558.44
54.8043	580.28
54.8188	599.04
54.8332	611.73
54.8476	591.65
54.8621	637.87
54.8765	607.37
54.8910	598.31
54.9054	619.80
54.9198	569.63
54.9343	547.02
54.9487	557.38
54.9632	587.69
54.9776	577.40
54.9920	567.05
55.0065	542.72
55.0209	505.56
55.0354	536.58
55.0498	548.71
55.0642	577.04
55.0787	571.55
55.0931	546.88
55.1076	521.57
55.1220	515.15
55.1364	532.23
55.1509	539.55
55.1653	537.99
55.1798	537.10
55.1942	513.28
55.2086	523.66
55.2231	529.39
55.2375	524.95
55.2520	518.11
55.2664	528.61
55.2808	528.87
55.2953	498.78
55.3097	507.11
55.3242	531.94
55.3386	531.08
55.3530	533.63
55.3675	526.49
55.3819	524.54
55.3964	515.11
55.4108	509.03
55.4252	538.87
55.4397	532.42
55.4541	509.81
55.4686	545.36
55.4830	537.30
55.4974	508.68
55.5119	524.18
55.5263	523.27
55.5408	527.77
55.5552	537.92
55.5696	514.69
55.5841	497.24
55.5985	509.01
55.6130	540.38
55.6274	532.23
55.6418	525.20
55.6563	547.39
55.6707	548.10
55.6852	538.94
55.6996	560.80
55.7140	569.47
55.7285	524.37
55.7429	532.45
55.7574	505.97
55.7718	542.47
55.7862	537.81
55.8007	507.14
55.8151	543.63
55.8296	540.09
55.8440	531.84
55.8584	532.20
55.8729	550.81
55.8873	516.41
55.9018	550.79
55.9162	528.66
55.9306	549.27
55.9451	537.78
55.9595	533.84
55.9740	533.41
55.9884	534.45
56.0028	553.14
56.0173	526.76
56.0317	548.12
56.0462	511.63
56.0606	505.86
56.0750	536.25
56.0895	553.17
56.1039	528.95
56.1184	549.32
56.1328	546.03
56.1472	512.05
56.1617	536.59
56.1761	544.12
56.1906	500.63
56.2050	508.57
56.2194	546.99
56.2339	489.58
56.2483	497.60
56.2628	494.23
56.2772	498.74
56.2916	517.16
56.3061	504.54
56.3205	550.73
56.3350	509.61
56.3494	533.01
56.3639	501.40
56.3783	492.21
56.3927	507.30
56.4072	497.20
56.4216	540.52
56.4361	569.32
56.4505	530.99
56.4649	514.45
56.4794	524.96
56.4938	533.05
56.5083	541.52
56.5227	510.91
56.5371	519.80
56.5516	520.73
56.5660	484.55
56.5805	505.20
56.5949	525.29
56.6093	526.57
56.6238	509.21
56.6382	524.89
56.6527	506.69
56.6671	530.88
56.6815	545.24
56.6960	542.97
56.7104	521.79
56.7249	533.87
56.7393	493.44
56.7537	549.80
56.7682	512.20
56.7826	504.71
56.7971	551.99
56.8115	498.59
56.8259	519.61
56.8404	521.07
56.8548	517.41
56.8693	557.67
56.8837	517.72
56.8981	562.68
56.9126	559.09
56.9270	498.35
56.9415	505.38
56.9559	537.70
56.9703	502.59
56.9848	515.40
56.9992	482.78
57.0137	512.38
57.0281	579.46
57.0425	521.08
57.0570	516.91
57.0714	526.23
57.0859	546.73
57.1003	546.95
57.1147	527.54
57.1292	531.92
57.1436	524.73
57.1581	528.23
57.1725	554.42
57.1869	534.77
57.2014	519.22
57.2158	531.42
57.2303	513.73
57.2447	516.31
57.2591	527.81
57.2736	513.05
57.2880	493.86
57.3025	553.42
57.3169	551.48
57.3313	498.78
57.3458	469.26
57.3602	511.72
57.3747	511.43
57.3891	515.15
57.4035	546.61
57.4180	550.39
57.4324	523.63
57.4469	525.76
57.4613	565.38
57.4757	539.48
57.4902	493.90
57.5046	487.19
57.5191	505.76
57.5335	512.63
57.5479	525.96
57.5624	534.96
57.5768	498.45
57.5913	534.39
57.6057	541.23
57.6201	528.13
57.6346	536.50
57.6490	539.06
57.6635	550.19
57.6779	549.85
57.6923	499.45
57.7068	542.74
57.7212	520.30
57.7357	507.10
57.7501	537.72
57.7645	521.87
57.7790	507.31
57.7934	490.49
57.8079	544.16
57.8223	529.34
57.8367	546.92
57.8512	544.68
57.8656	554.00
57.8801	523.26
57.8945	544.19
57.9089	568.85
57.9234	593.47
57.9378	563.43
57.9523	546.05
57.9667	501.34
57.9811	510.97
57.9956	535.09
58.0100	558.15
58.0245	509.82
58.0389	535.56
58.0533	546.58
58.0678	524.83
58.0822	529.49
58.0967	580.14
58.1111	528.24
58.1255	572.22
58.1400	554.14
58.1544	506.86
58.1689	537.17
58.1833	558.67
58.1977	562.14
58.2122	565.56
58.2266	556.61
58.2411	520.43
58.2555	582.75
58.2699	559.09
58.2844	577.32
58.2988	562.31
58.3133	579.53
58.3277	613.06
58.3421	596.23
58.3566	565.91
58.3710	597.56
58.3855	563.20
58.3999	563.29
58.4143	600.77
58.4288	635.89
58.4432	634.67
58.4577	623.65
58.4721	649.38
58.4865	629.96
58.5010	618.12
58.5154	625.41
58.5299	645.67
58.5443	662.85
58.5587	631.92
58.5732	618.47
58.5876	638.12
58.6021	639.74
58.6165	604.37
58.6309	643.94
58.6454	588.56
58.6598	606.65
58.6743	630.05
58.6887	635.86
58.7031	597.89
58.7176	604.96
58.7320	562.95
58.7465	590.61
58.7609	618.51
58.7753	567.97
58.7898	586.82
58.8042	587.40
58.8187	584.38
58.8331	579.01
58.8475	588.52
58.8620	578.47
58.8764	530.95
58.8909	562.45
58.9053	548.09
58.9197	528.79
58.9342	560.72
58.9486	580.37
58.9631	584.49
58.9775	538.29
58.9919	556.33
59.0064	569.66
59.0208	580.89
59.0353	566.75
59.0497	551.22
59.0641	576.81
59.0786	566.66
59.0930	564.08
59.1075	547.60
59.1219	562.16
59.1363	551.27
59.1508	558.82
59.1652	580.10
59.1797	539.27
59.1941	550.73
59.2085	540.47
59.2230	547.37
59.2374	553.26
59.2519	537.15
59.2663	561.52
59.2807	589.89
59.2952	557.50
59.3096	573.42
59.3241	572.92
59.3385	541.12
59.3529	568.76
59.3674	576.60
59.3818	571.77
59.3963	577.62
59.4107	558.63
59.4251	552.01
59.4396	568.75
59.4540	588.10
59.4685	577.50
59.4829	557.51
59.4973	557.56
59.5118	530.00
59.5262	546.47
59.5407	552.38
59.5551	548.61
59.5695	552.65
59.5840	560.39
59.5984	546.79
59.6129	534.85
59.6273	561.37
59.6417	559.86
59.6562	545.37
59.6706	528.82
59.6851	548.54
59.6995	541.24
59.7139	566.24
59.7284	512.13
59.7428	548.61
59.7573	513.17
59.7717	538.07
59.7861	557.03
59.8006	547.53
59.8150	566.98
59.8295	546.95
59.8439	538.65
59.8583	581.75
59.8728	560.43
59.8872	543.69
59.9017	558.78
59.9161	524.30
59.9305	553.54
59.9450	529.51
59.9594	488.78
59.9739	538.26
59.9883	569.59
60.0027	540.77
60.0172	551.72
60.0316	585.61
60.0461	549.91
60.0605	536.18
60.0750	512.69
60.0894	544.58
60.1038	551.58
60.1183	561.53
60.1327	539.06
60.1472	507.57
60.1616	548.02
60.1760	539.58
60.1905	529.03
60.2049	522.38
60.2194	546.28
60.2338	559.53
60.2482	522.01
60.2627	559.44
60.2771	540.73
60.2916	502.37
60.3060	522.45
60.3204	499.41
60.3349	526.39
60.3493	534.10
60.3638	527.25
60.3782	505.74
60.3926	509.34
60.4071	536.92
60.4215	564.01
60.4360	501.59
60.4504	530.86
60.4648	558.50
60.4793	540.33
60.4937	534.04
60.5082	540.27
60.5226	579.81
60.5370	563.36
60.5515	542.04
60.5659	530.24
60.5804	490.21
60.5948	550.42
60.6092	563.73
60.6237	497.21
60.6381	533.16
60.6526	536.95
60.6670	535.73
60.6814	514.13
60.6959	518.91
60.7103	567.09
60.7248	591.42
60.7392	502.73
60.7536	559.30
60.7681	514.13
60.7825	558.99
60.7970	555.67
60.8114	516.25
60.8258	530.99
60.8403	538.17
60.8547	552.62
60.8692	564.97
60.8836	550.70
60.8980	585.49
60.9125	573.14
60.9269	571.60
60.9414	538.09
60.9558	513.47
60.9702	527.34
60.9847	545.41
60.9991	509.82
61.0136	501.80
61.0280	532.76
61.0424	533.55
61.0569	537.47
61.0713	576.57
61.0858	544.20
61.1002	516.59
61.1146	517.36
61.1291	554.59
61.1435	549.01
61.1580	539.11
61.1724	526.15
61.1868	534.99
61.2013	541.13
61.2157	535.01
61.2302	560.15
61.2446	572.38
61.2590	537.14
61.2735	525.79
61.2879	548.34
61.3024	570.72
61.3168	568.68
61.3312	536.53
61.3457	502.82
61.3601	514.85
61.3746	501.03
61.3890	514.12
61.4034	514.49
61.4179	545.73
61.4323	567.23
61.4468	524.12
61.4612	540.42
61.4756	580.87
61.4901	569.13
61.5045	513.54
61.5190	552.56
61.5334	534.63
61.5478	523.50
61.5623	570.56
61.5767	528.98
61.5912	532.59
61.6056	570.54
61.6200	563.71
61.6345	544.86
61.6489	555.51
61.6634	530.88
61.6778	512.55
61.6922	528.68
61.7067	569.45
61.7211	548.31
61.7356	521.45
61.7500	525.92
61.7644	527.55
61.7789	568.57
61.7933	569.69
61.8078	557.53
61.8222	539.79
61.8366	542.35
61.8511	567.11
61.8655	568.72
61.8800	548.37
61.8944	570.49
61.9088	579.26
61.9233	575.70
61.9377	552.04
61.9522	585.42
61.9666	583.53
61.9810	525.06
61.9955	522.94
62.0099	531.14
62.0244	542.12
62.0388	525.64
62.0532	561.51
62.0677	560.01
62.0821	555.43
62.0966	578.33
62.1110	565.38
62.1254	573.76
62.1399	558.75
62.1543	515.78
62.1688	550.10
62.1832	549.61
62.1976	534.68
62.2121	564.94
62.2265	548.37
62.2410	557.44
62.2554	526.63
62.2698	539.06
62.2843	594.18
62.2987	556.30
62.3132	543.39
62.3276	574.84
62.3420	537.66
62.3565	557.28
62.3709	560.90
62.3854	562.89
62.3998	568.97
62.4142	532.53
62.4287	548.17
62.4431	565.38
62.4576	549.08
62.4720	564.25
62.4864	588.16
62.5009	580.59
62.5153	574.14
62.5298	582.11
62.5442	564.26
62.5586	573.74
62.5731	556.07
62.5875	530.07
62.6020	551.45
62.6164	521.99
62.6308	560.69
62.6453	541.42
62.6597	581.58
62.6742	566.28
62.6886	542.01
62.7030	583.76
62.7175	584.26
62.7319	579.29
62.7464	567.68
62.7608	538.89
62.7752	568.30
62.7897	582.71
62.8041	556.34
62.8186	553.96
62.8330	574.76
62.8474	553.61
62.8619	597.93
62.8763	587.83
62.8908	561.88
62.9052	580.02
62.9196	562.28
62.9341	548.90
62.9485	531.55
62.9630	536.64
62.9774	542.25
62.9918	574.72
63.0063	596.44
63.0207	596.14
63.0352	594.59
63.0496	603.49
63.0640	551.81
63.0785	563.51
63.0929	601.18
63.1074	562.31
63.1218	554.70
63.1362	533.57
63.1507	504.85
63.1651	545.24
63.1796	545.91
63.1940	540.34
63.2084	561.77
63.2229	569.71
63.2373	572.10
63.2518	568.60
63.2662	564.50
63.2806	588.33
63.2951	569.70
63.3095	576.58
63.3240	608.97
63.3384	574.88
63.3528	564.60
63.3673	577.30
63.3817	603.58
63.3962	584.51
63.4106	573.01
63.4250	593.89
63.4395	592.89
63.4539	557.88
63.4684	589.34
63.4828	555.26
63.4972	549.48
63.5117	571.63
63.5261	579.79
63.5406	582.40
63.5550	567.56
63.5694	572.36
63.5839	553.33
63.5983	577.97
63.6128	588.58
63.6272	573.08
63.6416	558.93
63.6561	581.17
63.6705	552.05
63.6850	612.51
63.6994	599.71
63.7138	574.53
63.7283	586.09
63.7427	534.47
63.7572	591.39
63.7716	599.54
63.7861	605.30
63.8005	606.69
63.8149	601.12
63.8294	603.70
63.8438	591.46
63.8583	621.76
63.8727	606.81
63.8871	605.68
63.9016	582.36
63.9160	583.41
63.9305	585.30
63.9449	607.57
63.9593	573.81
63.9738	618.10
63.9882	632.58
64.0027	619.64
64.0171	607.63
64.0315	674.92
64.0460	669.57
64.0604	674.06
64.0749	688.72
64.0893	763.36
64.1037	681.11
64.1182	698.51
64.1326	735.57
64.1471	717.32
64.1615	738.78
64.1759	712.29
64.1904	699.95
64.2048	720.69
64.2193	765.66
64.2337	761.97
64.2481	734.91
64.2626	752.19
64.2770	764.11
64.2915	789.40
64.3059	804.57
64.3203	779.64
64.3348	744.46
64.3492	782.45
64.3637	801.24
64.3781	770.73
64.3925	774.93
64.4070	752.25
64.4214	774.26
64.4359	763.50
64.4503	706.06
64.4647	714.05
64.4792	707.22
64.4936	713.98
64.5081	731.31
64.5225	731.95
64.5369	700.74
64.5514	712.68
64.5658	672.13
64.5803	689.93
64.5947	675.14
64.6091	713.19
64.6236	707.53
64.6380	680.30
64.6525	666.22
64.6669	694.38
64.6813	680.60
64.6958	722.46
64.7102	764.14
64.7247	706.79
64.7391	703.94
64.7535	744.62
64.7680	732.04
64.7824	757.07
64.7969	791.07
64.8113	758.05
64.8257	808.85
64.8402	828.22
64.8546	820.53
64.8691	838.63
64.8835	827.40
64.8979	899.60
64.9124	905.51
64.9268	930.80
64.9413	950.57
64.9557	964.26
64.9701	1049.14
64.9846	1059.29
64.9990	1185.02
65.0135	1380.79
65.0279	1539.70
65.0423	1805.34
65.0568	2118.42
65.0712	2734.83
65.0857	3707.41
65.1001	4756.53
65.1145	6475.43
65.1290	8408.45
65.1434	10095.31
65.1579	11384.14
65.1723	11919.13
65.1867	11291.48
65.2012	9673.06
65.2156	8022.07
65.2301	6465.70
65.2445	5141.06
65.2589	4369.22
65.2734	4273.42
65.2878	4566.41
65.3023	5166.66
65.3167	6035.48
65.3311	6711.19
65.3456	7023.19
65.3600	6883.66
65.3745	6292.08
65.3889	5317.94
65.4033	4291.71
65.4178	3334.74
65.4322	2665.33
65.4467	2031.43
65.4611	1712.78
65.4755	1452.86
65.4900	1247.15
65.5044	1145.61
65.5189	1039.96
65.5333	1059.01
65.5477	961.68
65.5622	895.55
65.5766	841.86
65.5911	785.30
65.6055	845.82
65.6199	777.69
65.6344	810.41
65.6488	755.82
65.6633	708.98
65.6777	687.32
65.6921	711.70
65.7066	770.47
65.7210	711.37
65.7355	677.23
65.7499	713.67
65.7643	697.21
65.7788	678.99
65.7932	659.40
65.8077	655.96
65.8221	637.60
65.8365	667.57
65.8510	693.95
65.8654	712.05
65.8799	685.69
65.8943	651.20
65.9087	669.07
65.9232	645.43
65.9376	654.11
65.9521	649.98
65.9665	650.23
65.9809	638.80
65.9954	632.79
66.0098	584.89
66.0243	628.49
66.0387	624.31
66.0531	598.42
66.0676	620.60
66.0820	606.53
66.0965	633.69
66.1109	619.82
66.1253	640.30
66.1398	597.46
66.1542	598.55
66.1687	640.29
66.1831	621.18
66.1975	606.48
66.2120	617.77
66.2264	606.00
66.2409	595.39
66.2553	592.09
66.2697	603.42
66.2842	580.34
66.2986	567.84
66.3131	600.99
66.3275	630.98
66.3419	631.31
66.3564	615.73
66.3708	618.14
66.3853	613.18
66.3997	593.59
66.4141	604.38
66.4286	637.00
66.4430	620.68
66.4575	606.40
66.4719	600.62
66.4863	579.74
66.5008	611.76
66.5152	608.91
66.5297	600.57
66.5441	585.71
66.5585	585.02
66.5730	568.76
66.5874	596.85
66.6019	630.92
66.6163	583.90
66.6307	590.24
66.6452	603.82
66.6596	568.66
66.6741	548.15
66.6885	557.22
66.7029	598.79
66.7174	599.64
66.7318	561.12
66.7463	574.10
66.7607	599.20
66.7751	590.90
66.7896	569.84
66.8040	617.53
66.8185	621.18
66.8329	597.15
66.8473	558.45
66.8618	560.12
66.8762	577.42
66.8907	575.66
66.9051	602.73
66.9195	568.38
66.9340	639.30
66.9484	652.87
66.9629	572.61
66.9773	525.59
66.9917	570.22
67.0062	585.31
67.0206	570.38
67.0351	598.43
67.0495	589.92
67.0639	543.84
67.0784	556.10
67.0928	613.03
67.1073	575.42
67.1217	570.97
67.1361	591.08
67.1506	581.94
67.1650	604.97
67.1795	573.41
67.1939	564.20
67.2083	558.07
67.2228	580.09
67.2372	563.21
67.2517	582.38
67.2661	565.17
67.2805	579.53
67.2950	563.27
67.3094	593.44
67.3239	565.48
67.3383	587.68
67.3527	588.00
67.3672	579.22
67.3816	578.74
67.3961	571.35
67.4105	573.14
67.4250	620.44
67.4394	585.01
67.4538	542.28
67.4683	606.75
67.4827	574.69
67.4972	539.66
67.5116	575.80
67.5260	552.36
67.5405	541.26
67.5549	567.66
67.5694	569.35
67.5838	594.76
67.5982	606.96
67.6127	590.77
67.6271	560.29
67.6416	579.67
67.6560	598.72
67.6704	585.07
67.6849	588.83
67.6993	590.79
67.7138	576.28
67.7282	529.03
67.7426	580.05
67.7571	565.83
67.7715	563.66
67.7860	620.51
67.8004	540.29
67.8148	580.76
67.8293	578.71
67.8437	567.25
67.8582	573.14
67.8726	561.39
67.8870	555.25
67.9015	584.14
67.9159	559.87
67.9304	589.87
67.9448	606.56
67.9592	594.46
67.9737	595.15
67.9881	597.96
68.0026	578.77
68.0170	574.76
68.0314	558.00
68.0459	600.89
68.0603	610.79
68.0748	569.54
68.0892	562.85
68.1036	603.16
68.1181	601.50
68.1325	583.63
68.1470	544.08
68.1614	645.89
68.1758	588.49
68.1903	570.11
68.2047	556.79
68.2192	561.04
68.2336	618.39
68.2480	530.41
68.2625	512.62
68.2769	552.29
68.2914	527.12
68.3058	555.38
68.3202	564.70
68.3347	548.51
68.3491	568.35
68.3636	572.20
68.3780	574.31
68.3924	549.49
68.4069	593.84
68.4213	594.16
68.4358	573.54
68.4502	572.54
68.4646	561.49
68.4791	592.78
68.4935	584.21
68.5080	574.25
68.5224	613.74
68.5368	596.97
68.5513	580.53
68.5657	553.28
68.5802	548.07
68.5946	577.39
68.6090	627.71
68.6235	617.89
68.6379	595.00
68.6524	573.52
68.6668	608.62
68.6812	570.88
68.6957	579.76
68.7101	572.81
68.7246	562.19
68.7390	579.95
68.7534	601.65
68.7679	592.55
68.7823	564.82
68.7968	571.81
68.8112	589.01
68.8256	551.56
68.8401	519.51
68.8545	561.86
68.8690	570.58
68.8834	570.32
68.8978	626.39
68.9123	550.50
68.9267	573.63
68.9412	598.59
68.9556	596.27
68.9700	563.15
68.9845	559.16
68.9989	556.51
69.0134	538.45
69.0278	564.63
69.0422	497.40
69.0567	532.32
69.0711	566.47
69.0856	578.87
69.1000	568.02
69.1144	573.92
69.1289	579.94
69.1433	548.15
69.1578	533.99
69.1722	605.70
69.1866	570.53
69.2011	549.44
69.2155	591.57
69.2300	580.52
69.2444	564.51
69.2588	551.04
69.2733	599.46
69.2877	558.24
69.3022	595.20
69.3166	567.85
69.3310	571.02
69.3455	570.15
69.3599	563.38
69.3744	586.37
69.3888	556.21
69.4032	583.69
69.4177	569.76
69.4321	584.48
69.4466	593.37
69.4610	558.02
69.4754	592.72
69.4899	595.61
69.5043	569.51
69.5188	544.80
69.5332	581.39
69.5476	560.60
69.5621	573.38
69.5765	591.61
69.5910	598.48
69.6054	554.79
69.6198	535.94
69.6343	614.13
69.6487	606.47
69.6632	567.36
69.6776	611.40
69.6920	559.76
69.7065	595.90
69.7209	608.76
69.7354	515.09
69.7498	580.20
69.7642	624.21
69.7787	630.47
69.7931	580.54
69.8076	585.47
69.8220	526.45
69.8364	564.01
69.8509	548.00
69.8653	575.96
69.8798	544.17
69.8942	633.40
69.9086	593.56
69.9231	593.78
69.9375	611.45
69.9520	612.69
69.9664	540.41
69.9808	572.09
69.9953	566.67
70.0097	594.18
70.0242	559.83
70.0386	599.10
70.0530	568.72
70.0675	539.45
70.0819	546.38
70.0964	542.79
70.1108	525.74
70.1252	581.74
70.1397	555.22
70.1541	548.69
70.1686	559.98
70.1830	591.67
70.1974	603.26
70.2119	604.73
70.2263	553.92
70.2408	573.68
70.2552	566.02
70.2696	567.10
70.2841	539.22
70.2985	542.67
70.3130	589.09
70.3274	577.19
70.3418	592.15
70.3563	547.37
70.3707	577.83
70.3852	614.04
70.3996	532.60
70.4140	527.02
70.4285	564.36
70.4429	569.85
70.4574	612.97
70.4718	650.07
70.4862	587.46
70.5007	639.38
70.5151	568.92
70.5296	551.39
70.5440	546.56
70.5584	571.20
70.5729	580.65
70.5873	545.50
70.6018	588.63
70.6162	559.38
70.6306	550.24
70.6451	533.95
70.6595	595.18
70.6740	606.23
70.6884	533.05
70.7028	553.63
70.7173	496.44
70.7317	590.15
70.7462	594.42
70.7606	565.34
70.7750	578.05
70.7895	605.44
70.8039	601.35
70.8184	579.00
70.8328	547.30
70.8472	572.13
70.8617	593.98
70.8761	576.34
70.8906	609.56
70.9050	557.25
70.9194	524.68
70.9339	558.54
70.9483	590.68
70.9628	572.48
70.9772	542.29
70.9916	581.46
71.0061	566.84
71.0205	565.74
71.0350	549.19
71.0494	570.71
71.0638	557.07
71.0783	581.24
71.0927	618.75
71.1072	614.29
71.1216	567.91
71.1361	552.98
71.1505	544.19
71.1649	569.11
71.1794	585.25
71.1938	578.81
71.2083	588.52
71.2227	571.22
71.2371	624.08
71.2516	590.01
71.2660	571.19
71.2805	557.51
71.2949	558.00
71.3093	589.99
71.3238	587.15
71.3382	566.24
71.3527	538.97
71.3671	580.71
71.3815	603.40
71.3960	588.24
71.4104	613.20
71.4249	640.90
71.4393	566.67
71.4537	572.34
71.4682	583.47
71.4826	580.55
71.4971	558.25
71.5115	563.27
71.5259	546.98
71.5404	567.11
71.5548	534.37
71.5693	509.74
71.5837	538.54
71.5981	531.61
71.6126	517.84
71.6270	541.12
71.6415	602.74
71.6559	632.95
71.6703	609.58
71.6848	584.59
71.6992	616.18
71.7137	587.54
71.7281	576.52
71.7425	582.05
71.7570	583.27
71.7714	560.21
71.7859	576.62
71.8003	607.91
71.8147	629.56
71.8292	571.39
71.8436	585.92
71.8581	569.63
71.8725	552.24
71.8869	540.05
71.9014	578.51
71.9158	599.82
71.9303	524.85
71.9447	566.61
71.9591	611.03
71.9736	577.57
71.9880	548.70
72.0025	506.08
72.0169	533.16
72.0313	569.34
72.0458	520.32
72.0602	520.37
72.0747	619.36
72.0891	630.17
72.1035	604.97
72.1180	611.49
72.1324	625.02
72.1469	546.08
72.1613	554.35
72.1757	618.69
72.1902	600.92
72.2046	547.23
72.2191	521.90
72.2335	564.06
72.2479	568.90
72.2624	590.26
72.2768	625.04
72.2913	581.44
72.3057	519.83
72.3201	506.16
72.3346	523.30
72.3490	465.83
72.3635	522.57
72.3779	580.23
72.3923	572.29
72.4068	614.31
72.4212	592.85
72.4357	500.34
72.4501	453.77
72.4645	562.68
72.4790	593.31
72.4934	506.30
72.5079	567.86
72.5223	592.79
72.5367	527.81
72.5512	548.00
72.5656	571.30
72.5801	533.57
72.5945	537.36
72.6089	564.85
72.6234	586.77
72.6378	580.49
72.6523	576.69
72.6667	660.80
72.6811	683.84
72.6956	620.93
72.7100	580.49
72.7245	548.67
72.7389	598.82
72.7533	636.72
72.7678	646.12
72.7822	689.53
72.7967	603.25
72.8111	570.82
72.8255	612.16
72.8400	604.47
72.8544	563.59
72.8689	582.38
72.8833	564.94