2022.09.19 19:37:16
Îáðàçåö: ß÷åéêà LCoV 16-09-2022
Lambda1 = 1.54060
Lambda2 = 1.54439
Lambdam = 1.54186
R = 0.497
2Theta	I

line¹ 0 ;repeat¹ 0
22.1120	620.76
22.1264	574.89
22.1409	506.79
22.1553	546.70
22.1697	562.06
22.1842	570.08
22.1986	603.85
22.2131	567.05
22.2275	499.58
22.2419	590.81
22.2564	577.38
22.2708	555.16
22.2853	554.37
22.2997	546.00
22.3141	583.12
22.3286	587.06
22.3430	636.35
22.3575	553.63
22.3719	556.30
22.3863	550.55
22.4008	557.09
22.4152	588.13
22.4297	607.69
22.4441	642.19
22.4585	601.18
22.4730	564.71
22.4874	612.29
22.5019	597.73
22.5163	580.84
22.5307	593.04
22.5452	623.80
22.5596	657.94
22.5741	729.28
22.5885	599.61
22.6029	591.73
22.6174	572.96
22.6318	618.37
22.6463	620.82
22.6607	612.87
22.6751	624.84
22.6896	595.58
22.7040	606.15
22.7185	581.49
22.7329	631.11
22.7473	603.10
22.7618	551.12
22.7762	615.82
22.7907	664.16
22.8051	621.82
22.8195	527.73
22.8340	521.60
22.8484	502.24
22.8629	605.24
22.8773	563.40
22.8917	487.43
22.9062	533.40
22.9206	577.98
22.9351	552.20
22.9495	540.18
22.9639	647.18
22.9784	596.78
22.9928	555.39
23.0073	536.64
23.0217	640.58
23.0361	568.97
23.0506	606.62
23.0650	602.94
23.0795	552.61
23.0939	538.09
23.1083	595.82
23.1228	618.73
23.1372	595.89
23.1517	555.97
23.1661	563.10
23.1806	563.63
23.1950	570.06
23.2094	564.98
23.2239	603.42
23.2383	550.56
23.2528	591.45
23.2672	574.72
23.2816	594.03
23.2961	557.87
23.3105	627.36
23.3250	598.44
23.3394	612.50
23.3538	553.49
23.3683	534.13
23.3827	497.49
23.3972	537.67
23.4116	562.68
23.4260	578.78
23.4405	561.20
23.4549	519.33
23.4694	564.91
23.4838	564.83
23.4982	512.53
23.5127	531.82
23.5271	546.62
23.5416	544.55
23.5560	560.67
23.5704	503.79
23.5849	603.01
23.5993	542.42
23.6138	546.47
23.6282	535.39
23.6426	555.01
23.6571	535.54
23.6715	572.55
23.6860	553.67
23.7004	520.16
23.7148	548.67
23.7293	582.90
23.7437	533.82
23.7582	540.43
23.7726	580.92
23.7870	502.21
23.8015	490.82
23.8159	518.51
23.8304	530.47
23.8448	502.14
23.8592	573.56
23.8737	544.25
23.8881	555.58
23.9026	557.63
23.9170	580.81
23.9314	525.35
23.9459	549.93
23.9603	580.51
23.9748	529.29
23.9892	476.48
24.0036	536.55
24.0181	631.35
24.0325	581.66
24.0470	546.11
24.0614	593.59
24.0758	494.92
24.0903	575.79
24.1047	541.71
24.1192	543.96
24.1336	561.16
24.1480	530.31
24.1625	588.37
24.1769	529.38
24.1914	566.69
24.2058	628.06
24.2202	554.59
24.2347	667.43
24.2491	650.63
24.2636	632.62
24.2780	549.26
24.2924	587.71
24.3069	597.94
24.3213	583.58
24.3358	526.03
24.3502	553.94
24.3646	561.80
24.3791	549.11
24.3935	533.04
24.4080	532.36
24.4224	567.32
24.4368	544.38
24.4513	534.90
24.4657	517.03
24.4802	576.28
24.4946	626.93
24.5090	554.49
24.5235	497.20
24.5379	536.53
24.5524	582.30
24.5668	541.75
24.5812	594.46
24.5957	562.61
24.6101	636.84
24.6246	564.79
24.6390	552.98
24.6534	608.86
24.6679	502.49
24.6823	529.37
24.6968	477.65
24.7112	557.45
24.7256	541.92
24.7401	545.87
24.7545	584.58
24.7690	544.61
24.7834	508.92
24.7978	549.27
24.8123	530.15
24.8267	522.76
24.8412	558.27
24.8556	544.43
24.8700	546.41
24.8845	519.72
24.8989	512.30
24.9134	537.57
24.9278	583.85
24.9422	574.37
24.9567	510.69
24.9711	579.69
24.9856	577.17
25.0000	568.06
25.0144	556.33
25.0289	571.14
25.0433	576.45
25.0578	540.19
25.0722	560.88
25.0866	607.59
25.1011	537.97
25.1155	551.95
25.1300	594.51
25.1444	539.68
25.1588	540.01
25.1733	531.80
25.1877	518.10
25.2022	471.75
25.2166	543.97
25.2310	531.38
25.2455	521.65
25.2599	502.33
25.2744	546.72
25.2888	573.95
25.3032	544.73
25.3177	538.71
25.3321	527.30
25.3466	547.93
25.3610	524.61
25.3754	544.30
25.3899	549.26
25.4043	517.10
25.4188	572.43
25.4332	561.64
25.4476	534.28
25.4621	544.47
25.4765	527.78
25.4910	503.13
25.5054	515.44
25.5198	540.78
25.5343	573.62
25.5487	561.71
25.5632	544.79
25.5776	555.09
25.5920	498.51
25.6065	493.46
25.6209	512.77
25.6354	507.22
25.6498	504.72
25.6642	525.13
25.6787	526.95
25.6931	504.33
25.7076	548.49
25.7220	533.75
25.7364	512.80
25.7509	547.60
25.7653	525.65
25.7798	562.62
25.7942	585.55
25.8086	548.00
25.8231	588.62
25.8375	567.05
25.8520	527.20
25.8664	558.02
25.8808	558.86
25.8953	582.25
25.9097	532.73
25.9242	531.56
25.9386	534.90
25.9530	555.13
25.9675	500.22
25.9819	527.01
25.9964	547.93
26.0108	557.05
26.0252	543.08
26.0397	554.98
26.0541	534.05
26.0686	539.04
26.0830	531.19
26.0974	546.65
26.1119	548.42
26.1263	520.76
26.1408	487.07
26.1552	497.73
26.1696	504.59
26.1841	483.77
26.1985	507.02
26.2130	529.74
26.2274	527.24
26.2418	544.22
26.2563	546.09
26.2707	519.28
26.2852	505.26
26.2996	541.57
26.3140	553.64
26.3285	514.32
26.3429	533.42
26.3574	558.81
26.3718	528.65
26.3862	533.57
26.4007	533.04
26.4151	533.19
26.4296	526.18
26.4440	536.44
26.4584	536.46
26.4729	533.96
26.4873	524.33
26.5018	520.01
26.5162	528.23
26.5306	542.10
26.5451	556.10
26.5595	565.58
26.5740	542.87
26.5884	520.87
26.6028	518.80
26.6173	514.13
26.6317	539.04
26.6462	532.99
26.6606	503.44
26.6750	534.66
26.6895	542.44
26.7039	570.59
26.7184	532.48
26.7328	504.84
26.7472	530.13
26.7617	529.37
26.7761	507.76
26.7906	509.69
26.8050	488.57
26.8194	471.98
26.8339	523.32
26.8483	554.20
26.8628	538.70
26.8772	528.21
26.8917	519.85
26.9061	527.83
26.9205	553.57
26.9350	527.75
26.9494	534.15
26.9639	536.03
26.9783	513.38
26.9927	545.27
27.0072	547.55
27.0216	515.97
27.0361	461.36
27.0505	495.82
27.0649	546.09
27.0794	501.82
27.0938	502.55
27.1083	525.83
27.1227	578.13
27.1371	576.24
27.1516	572.77
27.1660	557.81
27.1805	548.63
27.1949	510.24
27.2093	541.70
27.2238	504.36
27.2382	538.82
27.2527	532.44
27.2671	513.46
27.2815	497.88
27.2960	520.63
27.3104	520.98
27.3249	508.91
27.3393	523.45
27.3537	547.21
27.3682	536.68
27.3826	505.33
27.3971	491.11
27.4115	512.18
27.4259	501.42
27.4404	513.74
27.4548	539.93
27.4693	550.81
27.4837	542.17
27.4981	526.41
27.5126	516.29
27.5270	514.53
27.5415	517.44
27.5559	509.23
27.5703	510.90
27.5848	500.40
27.5992	513.20
27.6137	537.51
27.6281	529.87
27.6425	494.70
27.6570	535.97
27.6714	527.29
27.6859	515.87
27.7003	557.53
27.7147	541.58
27.7292	531.98
27.7436	488.00
27.7581	494.11
27.7725	526.71
27.7869	536.65
27.8014	497.49
27.8158	474.56
27.8303	523.93
27.8447	529.38
27.8591	531.77
27.8736	521.20
27.8880	523.06
27.9025	513.19
27.9169	489.90
27.9313	499.22
27.9458	503.57
27.9602	494.50
27.9747	522.91
27.9891	498.68
28.0035	499.63
28.0180	540.02
28.0324	498.50
28.0469	485.70
28.0613	536.95
28.0757	522.91
28.0902	515.04
28.1046	530.07
28.1191	561.02
28.1335	535.90
28.1479	504.15
28.1624	508.54
28.1768	528.36
28.1913	532.10
28.2057	534.99
28.2201	531.27
28.2346	519.44
28.2490	522.09
28.2635	509.64
28.2779	521.70
28.2923	526.65
28.3068	534.42
28.3212	542.71
28.3357	544.14
28.3501	550.53
28.3645	526.06
28.3790	496.72
28.3934	481.21
28.4079	500.50
28.4223	504.81
28.4367	528.78
28.4512	514.31
28.4656	493.25
28.4801	503.67
28.4945	536.34
28.5089	527.96
28.5234	495.82
28.5378	517.50
28.5523	510.67
28.5667	526.08
28.5811	539.24
28.5956	503.09
28.6100	506.27
28.6245	505.21
28.6389	507.77
28.6533	530.74
28.6678	485.03
28.6822	499.93
28.6967	513.24
28.7111	512.56
28.7255	530.14
28.7400	534.10
28.7544	504.48
28.7689	517.42
28.7833	528.31
28.7977	496.73
28.8122	496.90
28.8266	514.27
28.8411	529.64
28.8555	532.96
28.8699	513.48
28.8844	487.18
28.8988	500.74
28.9133	469.41
28.9277	510.93
28.9421	497.18
28.9566	477.20
28.9710	512.31
28.9855	518.36
28.9999	500.06
29.0143	503.51
29.0288	534.99
29.0432	517.31
29.0577	527.67
29.0721	483.95
29.0865	545.52
29.1010	538.09
29.1154	512.03
29.1299	488.50
29.1443	486.80
29.1587	486.00
29.1732	495.31
29.1876	528.40
29.2021	511.10
29.2165	534.68
29.2309	482.62
29.2454	533.69
29.2598	520.68
29.2743	510.53
29.2887	531.90
29.3031	519.41
29.3176	485.06
29.3320	490.12
29.3465	515.63
29.3609	500.76
29.3753	494.93
29.3898	485.75
29.4042	486.88
29.4187	500.52
29.4331	508.51
29.4475	502.54
29.4620	516.37
29.4764	498.70
29.4909	518.65
29.5053	501.02
29.5197	470.60
29.5342	529.08
29.5486	548.28
29.5631	538.83
29.5775	524.08
29.5919	515.65
29.6064	496.86
29.6208	544.53
29.6353	544.01
29.6497	513.50
29.6641	520.66
29.6786	498.52
29.6930	507.35
29.7075	535.00
29.7219	542.49
29.7363	471.53
29.7508	479.33
29.7652	480.66
29.7797	498.51
29.7941	494.24
29.8085	524.59
29.8230	501.92
29.8374	512.92
29.8519	502.53
29.8663	514.75
29.8807	481.97
29.8952	474.11
29.9096	515.25
29.9241	511.49
29.9385	512.71
29.9529	527.07
29.9674	510.25
29.9818	510.64
29.9963	495.45
30.0107	489.98
30.0251	480.65
30.0396	501.41
30.0540	520.89
30.0685	517.62
30.0829	501.74
30.0973	485.69
30.1118	501.04
30.1262	505.29
30.1407	535.02
30.1551	500.69
30.1695	497.46
30.1840	488.81
30.1984	540.47
30.2129	551.47
30.2273	497.11
30.2417	553.43
30.2562	534.96
30.2706	561.05
30.2851	546.82
30.2995	493.46
30.3139	508.61
30.3284	487.80
30.3428	541.93
30.3573	496.94
30.3717	476.35
30.3861	511.12
30.4006	514.26
30.4150	498.04
30.4295	549.90
30.4439	530.89
30.4583	548.84
30.4728	594.28
30.4872	579.14
30.5017	561.62
30.5161	576.09
30.5305	592.17
30.5450	649.29
30.5594	697.60
30.5739	703.26
30.5883	754.40
30.6028	759.19
30.6172	724.61
30.6316	729.85
30.6461	727.70
30.6605	728.12
30.6750	708.54
30.6894	681.91
30.7038	651.78
30.7183	647.09
30.7327	584.01
30.7472	570.01
30.7616	565.48
30.7760	556.12
30.7905	543.82
30.8049	530.92
30.8194	534.61
30.8338	593.88
30.8482	543.80
30.8627	529.89
30.8771	502.95
30.8916	501.63
30.9060	539.82
30.9204	524.78
30.9349	515.72
30.9493	482.36
30.9638	477.71
30.9782	518.91
30.9926	537.51
31.0071	529.42
31.0215	507.02
31.0360	519.69
31.0504	506.29
31.0648	521.10
31.0793	516.06
31.0937	502.98
31.1082	504.42
31.1226	526.51
31.1370	516.71
31.1515	495.48
31.1659	499.42
31.1804	523.76
31.1948	489.09
31.2092	530.19
31.2237	539.52
31.2381	521.84
31.2526	543.47
31.2670	541.39
31.2814	529.64
31.2959	530.87
31.3103	531.18
31.3248	534.84
31.3392	534.37
31.3536	514.85
31.3681	511.52
31.3825	518.23
31.3970	512.79
31.4114	505.97
31.4258	534.27
31.4403	518.29
31.4547	548.98
31.4692	513.41
31.4836	503.23
31.4980	525.88
31.5125	510.83
31.5269	481.75
31.5414	483.92
31.5558	519.94
31.5702	541.24
31.5847	508.84
31.5991	521.56
31.6136	495.42
31.6280	484.24
31.6424	513.59
31.6569	493.85
31.6713	512.78
31.6858	473.57
31.7002	507.79
31.7146	513.67
31.7291	495.04
31.7435	482.95
31.7580	496.92
31.7724	507.48
31.7868	530.44
31.8013	532.80
31.8157	494.30
31.8302	509.91
31.8446	481.71
31.8590	501.15
31.8735	544.23
31.8879	528.05
31.9024	535.64
31.9168	532.47
31.9312	490.82
31.9457	506.53
31.9601	487.47
31.9746	493.89
31.9890	504.39
32.0034	508.07
32.0179	508.70
32.0323	528.30
32.0468	503.03
32.0612	500.90
32.0756	487.63
32.0901	516.76
32.1045	525.89
32.1190	520.24
32.1334	500.69
32.1478	480.73
32.1623	518.59
32.1767	515.92
32.1912	535.35
32.2056	490.91
32.2200	495.67
32.2345	501.45
32.2489	480.51
32.2634	470.15
32.2778	515.34
32.2922	463.42
32.3067	502.46
32.3211	517.17
32.3356	521.40
32.3500	524.72
32.3644	522.28
32.3789	507.98
32.3933	473.05
32.4078	448.99
32.4222	491.31
32.4366	514.44
32.4511	493.94
32.4655	491.58
32.4800	539.65
32.4944	506.75
32.5088	485.72
32.5233	507.91
32.5377	523.29
32.5522	547.23
32.5666	501.60
32.5810	497.11
32.5955	514.15
32.6099	475.86
32.6244	535.22
32.6388	534.24
32.6532	489.47
32.6677	510.51
32.6821	504.68
32.6966	502.42
32.7110	504.56
32.7254	490.06
32.7399	465.45
32.7543	505.58
32.7688	500.16
32.7832	505.58
32.7976	476.11
32.8121	547.78
32.8265	504.47
32.8410	541.93
32.8554	501.36
32.8698	524.90
32.8843	501.66
32.8987	498.92
32.9132	496.66
32.9276	495.39
32.9420	514.07
32.9565	476.29
32.9709	522.41
32.9854	547.80
32.9998	472.58
33.0142	470.19
33.0287	494.40
33.0431	470.23
33.0576	509.06
33.0720	535.48
33.0864	511.35
33.1009	488.48
33.1153	507.78
33.1298	544.17
33.1442	514.73
33.1586	506.27
33.1731	535.74
33.1875	464.59
33.2020	463.23
33.2164	497.36
33.2308	497.79
33.2453	505.47
33.2597	511.78
33.2742	480.80
33.2886	509.87
33.3030	491.49
33.3175	504.73
33.3319	544.75
33.3464	517.49
33.3608	519.56
33.3752	510.22
33.3897	504.99
33.4041	475.31
33.4186	515.31
33.4330	534.80
33.4474	496.71
33.4619	518.85
33.4763	525.68
33.4908	529.41
33.5052	518.17
33.5196	502.22
33.5341	522.11
33.5485	494.34
33.5630	491.30
33.5774	502.64
33.5918	527.52
33.6063	530.39
33.6207	511.57
33.6352	508.06
33.6496	482.29
33.6640	502.70
33.6785	500.05
33.6929	494.66
33.7074	549.02
33.7218	518.76
33.7362	522.90
33.7507	519.92
33.7651	522.50
33.7796	543.97
33.7940	494.45
33.8084	487.99
33.8229	526.71
33.8373	516.49
33.8518	503.04
33.8662	479.94
33.8806	499.40
33.8951	533.68
33.9095	500.48
33.9240	469.78
33.9384	509.40
33.9528	493.53
33.9673	513.13
33.9817	510.81
33.9962	498.96
34.0106	473.70
34.0250	519.98
34.0395	496.40
34.0539	496.04
34.0684	494.41
34.0828	477.13
34.0972	510.44
34.1117	514.37
34.1261	532.30
34.1406	500.74
34.1550	481.38
34.1694	485.06
34.1839	501.59
34.1983	471.06
34.2128	493.68
34.2272	524.58
34.2417	501.66
34.2561	471.94
34.2705	500.46
34.2850	530.39
34.2994	524.88
34.3139	507.01
34.3283	504.67
34.3427	524.42
34.3572	504.64
34.3716	494.87
34.3861	507.55
34.4005	480.06
34.4149	482.37
34.4294	529.58
34.4438	516.35
34.4583	492.61
34.4727	502.51
34.4871	517.07
34.5016	505.81
34.5160	515.85
34.5305	510.93
34.5449	524.27
34.5593	516.04
34.5738	496.07
34.5882	507.89
34.6027	514.56
34.6171	504.72
34.6315	480.01
34.6460	485.93
34.6604	491.53
34.6749	494.85
34.6893	499.45
34.7037	528.90
34.7182	484.43
34.7326	471.14
34.7471	487.73
34.7615	503.03
34.7759	495.56
34.7904	506.86
34.8048	540.83
34.8193	515.14
34.8337	482.32
34.8481	488.73
34.8626	517.77
34.8770	543.11
34.8915	504.69
34.9059	539.20
34.9203	556.53
34.9348	536.64
34.9492	519.32
34.9637	518.23
34.9781	504.15
34.9925	507.05
35.0070	518.66
35.0214	495.96
35.0359	526.18
35.0503	503.07
35.0647	498.28
35.0792	535.19
35.0936	559.77
35.1081	505.63
35.1225	516.17
35.1369	515.17
35.1514	515.15
35.1658	534.42
35.1803	507.46
35.1947	470.19
35.2091	501.38
35.2236	495.87
35.2380	514.49
35.2525	500.71
35.2669	505.02
35.2813	523.80
35.2958	498.80
35.3102	509.46
35.3247	519.24
35.3391	540.87
35.3535	520.17
35.3680	492.27
35.3824	513.16
35.3969	500.13
35.4113	514.68
35.4257	519.81
35.4402	514.64
35.4546	506.36
35.4691	532.96
35.4835	560.55
35.4979	550.62
35.5124	497.51
35.5268	495.71
35.5413	530.10
35.5557	572.69
35.5701	524.89
35.5846	519.82
35.5990	520.44
35.6135	533.47
35.6279	502.15
35.6423	530.58
35.6568	559.11
35.6712	582.85
35.6857	599.29
35.7001	656.01
35.7145	698.81
35.7290	671.32
35.7434	619.73
35.7579	613.33
35.7723	590.66
35.7867	619.39
35.8012	642.38
35.8156	665.91
35.8301	669.05
35.8445	656.44
35.8589	686.89
35.8734	785.81
35.8878	906.77
35.9023	1060.40
35.9167	1193.81
35.9311	1395.49
35.9456	1909.14
35.9600	2370.55
35.9745	2269.84
35.9889	2342.78
36.0033	2711.48
36.0178	2939.14
36.0322	2631.89
36.0467	2518.60
36.0611	2188.08
36.0755	2018.78
36.0900	1995.48
36.1044	1743.65
36.1189	1622.12
36.1333	1537.15
36.1477	1288.24
36.1622	1244.82
36.1766	1178.67
36.1911	941.03
36.2055	769.75
36.2199	740.17
36.2344	670.45
36.2488	600.17
36.2633	537.75
36.2777	586.28
36.2921	550.49
36.3066	537.30
36.3210	546.64
36.3355	548.17
36.3499	555.12
36.3643	543.66
36.3788	544.61
36.3932	542.64
36.4077	513.83
36.4221	550.64
36.4365	555.50
36.4510	534.00
36.4654	537.93
36.4799	533.73
36.4943	515.94
36.5087	528.50
36.5232	554.66
36.5376	509.66
36.5521	512.27
36.5665	510.09
36.5809	519.54
36.5954	542.62
36.6098	552.83
36.6243	511.15
36.6387	503.77
36.6531	517.45
36.6676	524.33
36.6820	508.87
36.6965	531.72
36.7109	510.05
36.7253	514.53
36.7398	543.03
36.7542	560.08
36.7687	572.30
36.7831	551.20
36.7975	576.10
36.8120	581.11
36.8264	542.87
36.8409	561.50
36.8553	574.58
36.8697	585.91
36.8842	588.73
36.8986	632.95
36.9131	605.16
36.9275	589.45
36.9419	600.88
36.9564	549.61
36.9708	587.13
36.9853	537.40
36.9997	576.76
37.0141	543.69
37.0286	602.10
37.0430	574.54
37.0575	511.64
37.0719	477.29
37.0863	531.77
37.1008	522.52
37.1152	504.88
37.1297	531.53
37.1441	478.97
37.1585	515.59
37.1730	534.18
37.1874	470.97
37.2019	464.93
37.2163	482.18
37.2307	465.22
37.2452	519.36
37.2596	519.16
37.2741	530.75
37.2885	512.76
37.3029	494.52
37.3174	500.52
37.3318	516.52
37.3463	489.57
37.3607	512.05
37.3751	495.62
37.3896	499.70
37.4040	504.15
37.4185	521.44
37.4329	565.24
37.4473	516.73
37.4618	499.18
37.4762	530.85
37.4907	523.74
37.5051	509.03
37.5195	497.17
37.5340	516.71
37.5484	485.70
37.5629	519.30
37.5773	529.64
37.5917	532.35
37.6062	505.17
37.6206	522.31
37.6351	545.91
37.6495	496.21
37.6639	506.86
37.6784	483.35
37.6928	482.28
37.7073	515.90
37.7217	516.57
37.7361	503.73
37.7506	528.00
37.7650	494.58
37.7795	515.31
37.7939	537.31
37.8083	505.93
37.8228	488.68
37.8372	497.14
37.8517	489.74
37.8661	540.40
37.8805	519.30
37.8950	482.99
37.9094	503.66
37.9239	495.99
37.9383	515.06
37.9528	532.46
37.9672	464.89
37.9816	510.07
37.9961	518.68
38.0105	507.58
38.0250	522.61
38.0394	498.95
38.0538	451.97
38.0683	478.31
38.0827	487.92
38.0972	499.59
38.1116	529.60
38.1260	530.15
38.1405	496.14
38.1549	495.24
38.1694	495.68
38.1838	516.44
38.1982	521.16
38.2127	492.39
38.2271	486.71
38.2416	509.53
38.2560	516.56
38.2704	491.21
38.2849	519.06
38.2993	496.61
38.3138	505.25
38.3282	519.41
38.3426	521.65
38.3571	514.12
38.3715	498.81
38.3860	560.81
38.4004	538.71
38.4148	524.06
38.4293	554.52
38.4437	535.88
38.4582	598.15
38.4726	701.60
38.4870	703.19
38.5015	710.45
38.5159	764.45
38.5304	803.31
38.5448	840.68
38.5592	824.53
38.5737	759.83
38.5881	725.01
38.6026	725.17
38.6170	728.76
38.6314	704.64
38.6459	662.84
38.6603	612.83
38.6748	615.75
38.6892	583.89
38.7036	581.35
38.7181	577.83
38.7325	535.37
38.7470	520.85
38.7614	469.40
38.7758	465.61
38.7903	520.49
38.8047	550.44
38.8192	509.77
38.8336	506.73
38.8480	489.22
38.8625	539.74
38.8769	498.69
38.8914	481.34
38.9058	532.14
38.9202	496.32
38.9347	483.33
38.9491	483.26
38.9636	505.54
38.9780	498.38
38.9924	475.30
39.0069	478.82
39.0213	529.21
39.0358	516.33
39.0502	488.68
39.0646	508.09
39.0791	505.13
39.0935	532.87
39.1080	504.86
39.1224	490.25
39.1368	501.51
39.1513	456.21
39.1657	496.08
39.1802	494.23
39.1946	485.48
39.2090	507.53
39.2235	491.75
39.2379	496.58
39.2524	509.79
39.2668	487.29
39.2812	511.78
39.2957	491.41
39.3101	514.29
39.3246	544.61
39.3390	510.18
39.3534	524.58
39.3679	515.80
39.3823	528.22
39.3968	505.12
39.4112	507.16
39.4256	497.46
39.4401	511.56
39.4545	508.57
39.4690	498.68
39.4834	502.55
39.4978	496.99
39.5123	470.23
39.5267	518.44
39.5412	490.51
39.5556	490.09
39.5700	472.49
39.5845	510.11
39.5989	492.76
39.6134	483.23
39.6278	488.45
39.6422	509.73
39.6567	511.61
39.6711	495.16
39.6856	499.74
39.7000	503.71
39.7144	492.70
39.7289	492.83
39.7433	477.27
39.7578	495.53
39.7722	504.26
39.7866	544.39
39.8011	510.34
39.8155	485.44
39.8300	456.85
39.8444	492.06
39.8588	493.12
39.8733	500.50
39.8877	513.01
39.9022	534.40
39.9166	471.77
39.9310	494.75
39.9455	483.99
39.9599	511.83
39.9744	500.80
39.9888	483.08
40.0032	474.13
40.0177	457.37
40.0321	482.15
40.0466	475.25
40.0610	479.67
40.0754	477.94
40.0899	511.05
40.1043	461.49
40.1188	525.62
40.1332	504.66
40.1476	491.43
40.1621	504.52
40.1765	474.20
40.1910	497.49
40.2054	525.27
40.2198	513.74
40.2343	473.67
40.2487	490.55
40.2632	475.02
40.2776	476.09
40.2920	498.15
40.3065	481.93
40.3209	464.25
40.3354	502.79
40.3498	483.67
40.3642	502.72
40.3787	532.64
40.3931	488.27
40.4076	484.43
40.4220	446.21
40.4364	450.41
40.4509	501.42
40.4653	519.21
40.4798	542.54
40.4942	498.13
40.5086	495.84
40.5231	482.31
40.5375	483.58
40.5520	479.73
40.5664	488.70
40.5808	512.19
40.5953	511.62
40.6097	509.58
40.6242	507.25
40.6386	507.23
40.6530	483.85
40.6675	525.62
40.6819	530.41
40.6964	485.84
40.7108	501.82
40.7252	536.15
40.7397	492.60
40.7541	527.66
40.7686	469.81
40.7830	501.57
40.7974	477.34
40.8119	505.72
40.8263	503.65
40.8408	510.87
40.8552	514.41
40.8696	501.48
40.8841	488.25
40.8985	513.63
40.9130	512.31
40.9274	506.56
40.9418	506.80
40.9563	503.16
40.9707	514.12
40.9852	492.52
40.9996	487.48
41.0140	497.95
41.0285	510.19
41.0429	500.34
41.0574	498.71
41.0718	489.02
41.0862	499.42
41.1007	524.21
41.1151	518.78
41.1296	512.34
41.1440	476.72
41.1584	530.70
41.1729	506.62
41.1873	500.21
41.2018	511.78
41.2162	490.48
41.2306	518.84
41.2451	505.47
41.2595	486.96
41.2740	497.04
41.2884	504.08
41.3028	472.18
41.3173	471.70
41.3317	517.43
41.3462	511.70
41.3606	515.96
41.3750	503.28
41.3895	459.01
41.4039	516.15
41.4184	522.15
41.4328	518.58
41.4472	538.33
41.4617	520.75
41.4761	515.14
41.4906	511.60
41.5050	524.63
41.5194	501.18
41.5339	510.08
41.5483	512.29
41.5628	509.74
41.5772	514.10
41.5916	506.63
41.6061	496.14
41.6205	477.61
41.6350	509.16
41.6494	506.05
41.6639	485.03
41.6783	498.49
41.6927	500.83
41.7072	487.51
41.7216	522.41
41.7361	509.96
41.7505	483.04
41.7649	512.83
41.7794	502.20
41.7938	520.48
41.8083	510.32
41.8227	511.13
41.8371	533.40
41.8516	527.42
41.8660	565.17
41.8805	518.33
41.8949	564.74
41.9093	585.05
41.9238	574.05
41.9382	595.22
41.9527	557.37
41.9671	589.60
41.9815	569.52
41.9960	537.42
42.0104	523.59
42.0249	526.29
42.0393	557.60
42.0537	596.43
42.0682	561.03
42.0826	608.60
42.0971	620.82
42.1115	573.05
42.1259	597.03
42.1404	577.89
42.1548	588.62
42.1693	624.58
42.1837	655.39
42.1981	744.74
42.2126	822.00
42.2270	918.39
42.2415	1003.20
42.2559	1150.08
42.2703	1290.49
42.2848	1462.75
42.2992	1578.71
42.3137	1616.95
42.3281	1600.60
42.3425	1557.61
42.3570	1509.48
42.3714	1385.27
42.3859	1392.41
42.4003	1352.35
42.4147	1391.28
42.4292	1325.38
42.4436	1151.65
42.4581	1070.63
42.4725	995.05
42.4869	880.68
42.5014	801.89
42.5158	721.70
42.5303	669.19
42.5447	680.23
42.5591	625.00
42.5736	607.64
42.5880	584.05
42.6025	554.91
42.6169	556.92
42.6313	549.14
42.6458	518.00
42.6602	494.37
42.6747	506.12
42.6891	523.83
42.7035	564.87
42.7180	530.34
42.7324	500.90
42.7469	534.04
42.7613	525.07
42.7757	534.33
42.7902	507.27
42.8046	493.14
42.8191	543.06
42.8335	567.96
42.8479	556.17
42.8624	531.94
42.8768	504.43
42.8913	509.95
42.9057	533.35
42.9201	490.71
42.9346	510.01
42.9490	519.09
42.9635	503.02
42.9779	500.77
42.9923	531.50
43.0068	530.56
43.0212	540.66
43.0357	516.89
43.0501	523.31
43.0645	550.90
43.0790	547.50
43.0934	528.68
43.1079	524.03
43.1223	530.55
43.1367	534.20
43.1512	525.94
43.1656	533.31
43.1801	539.14
43.1945	523.45
43.2089	526.44
43.2234	527.53
43.2378	530.04
43.2523	515.76
43.2667	516.22
43.2811	542.26
43.2956	534.27
43.3100	496.04
43.3245	562.50
43.3389	534.06
43.3533	493.58
43.3678	491.10
43.3822	526.92
43.3967	515.85
43.4111	507.20
43.4255	499.03
43.4400	522.02
43.4544	494.70
43.4689	526.85
43.4833	522.71
43.4977	485.49
43.5122	491.11
43.5266	531.50
43.5411	543.03
43.5555	517.67
43.5699	511.53
43.5844	538.03
43.5988	526.42
43.6133	532.87
43.6277	556.32
43.6421	508.36
43.6566	519.73
43.6710	513.96
43.6855	499.50
43.6999	575.66
43.7143	589.47
43.7288	593.01
43.7432	625.77
43.7577	648.38
43.7721	656.02
43.7865	681.77
43.8010	678.44
43.8154	695.67
43.8299	666.81
43.8443	644.32
43.8587	619.07
43.8732	634.92
43.8876	652.65
43.9021	636.87
43.9165	620.74
43.9309	600.44
43.9454	587.48
43.9598	557.10
43.9743	531.05
43.9887	546.46
44.0031	543.94
44.0176	527.93
44.0320	541.69
44.0465	506.88
44.0609	533.03
44.0753	538.89
44.0898	533.21
44.1042	518.54
44.1187	503.68
44.1331	531.98
44.1475	497.56
44.1620	554.37
44.1764	481.39
44.1909	505.33
44.2053	502.33
44.2197	540.83
44.2342	530.23
44.2486	521.26
44.2631	529.91
44.2775	532.07
44.2919	519.15
44.3064	501.09
44.3208	485.68
44.3353	540.48
44.3497	563.00
44.3641	556.25
44.3786	562.38
44.3930	555.12
44.4075	563.74
44.4219	562.15
44.4363	566.38
44.4508	572.60
44.4652	610.81
44.4797	625.20
44.4941	577.67
44.5085	574.86
44.5230	583.30
44.5374	547.23
44.5519	588.32
44.5663	585.36
44.5807	558.21
44.5952	597.15
44.6096	564.43
44.6241	560.17
44.6385	564.07
44.6529	589.37
44.6674	599.28
44.6818	560.96
44.6963	604.00
44.7107	661.86
44.7251	699.99
44.7396	745.56
44.7540	808.29
44.7685	822.38
44.7829	854.01
44.7973	886.38
44.8118	881.53
44.8262	835.82
44.8407	808.93
44.8551	776.57
44.8695	715.30
44.8840	692.96
44.8984	761.56
44.9129	742.68
44.9273	676.25
44.9417	715.38
44.9562	622.00
44.9706	588.27
44.9851	558.22
44.9995	562.05
45.0139	497.65
45.0284	520.26
45.0428	547.79
45.0573	533.10
45.0717	554.96
45.0861	546.08
45.1006	530.35
45.1150	510.95
45.1295	537.14
45.1439	491.45
45.1583	489.42
45.1728	542.29
45.1872	496.01
45.2017	517.52
45.2161	519.17
45.2305	494.56
45.2450	492.31
45.2594	508.46
45.2739	527.94
45.2883	518.16
45.3028	528.98
45.3172	528.23
45.3316	547.38
45.3461	502.56
45.3605	498.79
45.3750	506.45
45.3894	513.91
45.4038	505.16
45.4183	521.12
45.4327	523.09
45.4472	487.25
45.4616	509.21
45.4760	504.48
45.4905	512.97
45.5049	517.11
45.5194	493.11
45.5338	506.00
45.5482	500.18
45.5627	506.53
45.5771	476.51
45.5916	495.96
45.6060	514.25
45.6204	495.74
45.6349	499.51
45.6493	546.05
45.6638	544.20
45.6782	538.40
45.6926	507.52
45.7071	519.42
45.7215	501.43
45.7360	476.74
45.7504	521.52
45.7648	495.90
45.7793	495.65
45.7937	497.80
45.8082	505.62
45.8226	512.12
45.8370	523.15
45.8515	521.71
45.8659	549.20
45.8804	501.94
45.8948	513.95
45.9092	471.21
45.9237	489.06
45.9381	494.90
45.9526	442.83
45.9670	465.74
45.9814	505.08
45.9959	501.43
46.0103	477.01
46.0248	519.12
46.0392	513.22
46.0536	488.78
46.0681	485.44
46.0825	495.99
46.0970	513.51
46.1114	502.06
46.1258	508.49
46.1403	508.76
46.1547	492.53
46.1692	514.06
46.1836	468.88
46.1980	479.36
46.2125	493.74
46.2269	492.38
46.2414	466.10
46.2558	467.54
46.2702	495.46
46.2847	483.67
46.2991	498.29
46.3136	501.67
46.3280	523.90
46.3424	482.81
46.3569	490.22
46.3713	479.67
46.3858	453.71
46.4002	466.51
46.4146	487.01
46.4291	535.91
46.4435	481.65
46.4580	490.27
46.4724	520.66
46.4868	511.81
46.5013	509.17
46.5157	507.27
46.5302	482.71
46.5446	518.23
46.5590	510.51
46.5735	495.07
46.5879	498.29
46.6024	486.67
46.6168	516.77
46.6312	485.06
46.6457	474.96
46.6601	473.96
46.6746	510.13
46.6890	516.07
46.7034	482.99
46.7179	522.44
46.7323	506.35
46.7468	518.73
46.7612	485.16
46.7756	515.13
46.7901	513.07
46.8045	515.88
46.8190	497.01
46.8334	511.35
46.8478	520.27
46.8623	508.72
46.8767	482.00
46.8912	473.89
46.9056	505.61
46.9200	510.46
46.9345	512.93
46.9489	493.38
46.9634	488.20
46.9778	490.00
46.9922	499.94
47.0067	511.51
47.0211	516.63
47.0356	534.41
47.0500	532.90
47.0644	523.18
47.0789	497.06
47.0933	504.18
47.1078	503.40
47.1222	503.80
47.1366	518.33
47.1511	489.20
47.1655	494.46
47.1800	536.23
47.1944	480.14
47.2088	505.18
47.2233	519.79
47.2377	535.43
47.2522	529.88
47.2666	509.16
47.2810	525.66
47.2955	498.39
47.3099	511.92
47.3244	544.43
47.3388	512.80
47.3532	553.84
47.3677	471.44
47.3821	494.63
47.3966	503.95
47.4110	502.37
47.4254	497.47
47.4399	490.54
47.4543	493.40
47.4688	527.76
47.4832	538.08
47.4976	486.62
47.5121	511.33
47.5265	544.56
47.5410	493.36
47.5554	485.45
47.5698	503.86
47.5843	524.95
47.5987	517.37
47.6132	513.02
47.6276	495.94
47.6420	529.33
47.6565	516.33
47.6709	503.25
47.6854	521.40
47.6998	502.74
47.7142	490.18
47.7287	485.91
47.7431	521.33
47.7576	515.71
47.7720	511.27
47.7864	491.93
47.8009	494.74
47.8153	520.31
47.8298	520.65
47.8442	505.40
47.8586	493.55
47.8731	500.48
47.8875	509.69
47.9020	512.52
47.9164	508.24
47.9308	552.21
47.9453	505.96
47.9597	518.05
47.9742	461.74
47.9886	494.62
48.0030	494.07
48.0175	507.43
48.0319	495.11
48.0464	498.71
48.0608	520.24
48.0752	510.41
48.0897	521.68
48.1041	490.24
48.1186	511.87
48.1330	514.74
48.1474	516.85
48.1619	460.53
48.1763	491.79
48.1908	480.41
48.2052	448.37
48.2196	481.95
48.2341	500.65
48.2485	517.34
48.2630	489.59
48.2774	548.14
48.2918	518.66
48.3063	494.69
48.3207	519.06
48.3352	510.30
48.3496	538.04
48.3640	541.96
48.3785	534.54
48.3929	501.34
48.4074	529.78
48.4218	493.97
48.4362	504.32
48.4507	502.11
48.4651	484.31
48.4796	483.41
48.4940	471.70
48.5084	479.95
48.5229	510.18
48.5373	522.17
48.5518	514.26
48.5662	512.16
48.5806	533.05
48.5951	505.31
48.6095	519.26
48.6240	546.96
48.6384	492.52
48.6528	520.67
48.6673	499.46
48.6817	491.02
48.6962	495.90
48.7106	555.98
48.7250	569.89
48.7395	523.34
48.7539	535.49
48.7684	545.25
48.7828	516.24
48.7972	535.37
48.8117	540.19
48.8261	516.60
48.8406	496.25
48.8550	565.75
48.8694	526.27
48.8839	536.29
48.8983	533.22
48.9128	547.97
48.9272	553.39
48.9416	541.52
48.9561	577.34
48.9705	587.22
48.9850	608.45
48.9994	560.13
49.0139	554.71
49.0283	618.68
49.0427	620.59
49.0572	639.45
49.0716	629.31
49.0861	677.96
49.1005	678.05
49.1149	712.14
49.1294	766.55
49.1438	728.21
49.1583	757.91
49.1727	812.17
49.1871	840.41
49.2016	920.81
49.2160	972.63
49.2305	1073.79
49.2449	1145.84
49.2593	1204.45
49.2738	1317.64
49.2882	1419.11
49.3027	1476.07
49.3171	1545.70
49.3315	1620.02
49.3460	1696.42
49.3604	1726.82
49.3749	1722.24
49.3893	1653.86
49.4037	1727.81
49.4182	1775.43
49.4326	1766.92
49.4471	1684.88
49.4615	1628.47
49.4759	1608.12
49.4904	1482.64
49.5048	1405.12
49.5193	1282.86
49.5337	1304.90
49.5481	1209.68
49.5626	1137.26
49.5770	1070.32
49.5915	1006.14
49.6059	926.90
49.6203	860.15
49.6348	799.71
49.6492	763.25
49.6637	744.84
49.6781	739.09
49.6925	709.84
49.7070	684.21
49.7214	677.42
49.7359	628.69
49.7503	622.03
49.7647	588.04
49.7792	602.31
49.7936	574.47
49.8081	584.01
49.8225	558.99
49.8369	576.37
49.8514	560.05
49.8658	546.38
49.8803	526.98
49.8947	542.51
49.9091	555.11
49.9236	555.83
49.9380	548.35
49.9525	538.97
49.9669	543.89
49.9813	488.22
49.9958	543.18
50.0102	536.32
50.0247	530.23
50.0391	497.63
50.0535	508.47
50.0680	523.63
50.0824	533.24
50.0969	507.79
50.1113	505.67
50.1257	529.10
50.1402	491.27
50.1546	482.88
50.1691	540.21
50.1835	536.03
50.1979	530.95
50.2124	524.84
50.2268	505.07
50.2413	523.06
50.2557	512.49
50.2701	506.96
50.2846	516.49
50.2990	488.65
50.3135	508.97
50.3279	515.64
50.3423	508.26
50.3568	533.87
50.3712	514.62
50.3857	504.12
50.4001	442.76
50.4145	487.78
50.4290	530.59
50.4434	482.89
50.4579	501.07
50.4723	538.49
50.4867	502.69
50.5012	523.11
50.5156	543.64
50.5301	533.92
50.5445	527.75
50.5589	547.10
50.5734	539.97
50.5878	531.36
50.6023	535.87
50.6167	527.75
50.6311	532.29
50.6456	533.51
50.6600	537.33
50.6745	516.62
50.6889	513.82
50.7033	540.20
50.7178	505.37
50.7322	501.16
50.7467	510.84
50.7611	518.72
50.7755	519.16
50.7900	534.82
50.8044	538.15
50.8189	518.52
50.8333	498.66
50.8477	512.36
50.8622	490.39
50.8766	523.51
50.8911	508.28
50.9055	549.66
50.9199	538.20
50.9344	515.13
50.9488	536.51
50.9633	515.76
50.9777	506.96
50.9921	508.93
51.0066	486.84
51.0210	494.92
51.0355	521.27
51.0499	491.37
51.0643	527.34
51.0788	517.93
51.0932	528.56
51.1077	541.69
51.1221	536.23
51.1365	508.74
51.1510	470.55
51.1654	534.66
51.1799	525.25
51.1943	475.49
51.2087	495.76
51.2232	518.18
51.2376	507.01
51.2521	496.48
51.2665	468.73
51.2809	506.15
51.2954	530.41
51.3098	537.62
51.3243	530.20
51.3387	520.73
51.3531	503.36
51.3676	535.60
51.3820	496.64
51.3965	486.84
51.4109	501.56
51.4253	530.09
51.4398	499.37
51.4542	516.07
51.4687	498.66
51.4831	513.51
51.4975	509.75
51.5120	493.45
51.5264	499.09
51.5409	522.60
51.5553	531.56
51.5697	534.33
51.5842	509.53
51.5986	532.20
51.6131	508.34
51.6275	482.63
51.6419	509.34
51.6564	541.98
51.6708	506.53
51.6853	498.20
51.6997	546.46
51.7141	526.54
51.7286	474.73
51.7430	496.01
51.7575	505.60
51.7719	484.89
51.7863	492.33
51.8008	521.11
51.8152	510.70
51.8297	545.03
51.8441	514.78
51.8585	546.15
51.8730	546.61
51.8874	522.69
51.9019	531.24
51.9163	508.14
51.9307	496.74
51.9452	527.95
51.9596	511.77
51.9741	537.33
51.9885	509.46
52.0029	488.27
52.0174	498.07
52.0318	517.92
52.0463	507.83
52.0607	527.35
52.0751	505.76
52.0896	517.09
52.1040	511.05
52.1185	530.78
52.1329	486.89
52.1473	483.09
52.1618	484.47
52.1762	508.23
52.1907	475.36
52.2051	516.90
52.2195	535.94
52.2340	519.97
52.2484	502.27
52.2629	522.74
52.2773	533.55
52.2917	493.27
52.3062	530.33
52.3206	531.06
52.3351	515.72
52.3495	482.88
52.3639	518.16
52.3784	544.00
52.3928	551.24
52.4073	525.89
52.4217	482.71
52.4361	528.20
52.4506	537.11
52.4650	530.17
52.4795	520.32
52.4939	532.57
52.5083	524.59
52.5228	517.05
52.5372	546.60
52.5517	468.55
52.5661	531.57
52.5805	511.13
52.5950	504.23
52.6094	501.31
52.6239	528.20
52.6383	553.93
52.6527	533.25
52.6672	520.59
52.6816	481.96
52.6961	518.41
52.7105	519.04
52.7250	486.43
52.7394	488.58
52.7538	537.21
52.7683	516.81
52.7827	518.08
52.7972	517.21
52.8116	515.40
52.8260	533.22
52.8405	505.66
52.8549	534.24
52.8694	510.58
52.8838	501.69
52.8982	504.92
52.9127	524.39
52.9271	509.94
52.9416	506.16
52.9560	459.98
52.9704	511.02
52.9849	503.49
52.9993	515.99
53.0138	511.01
53.0282	509.37
53.0426	491.13
53.0571	554.78
53.0715	508.86
53.0860	525.78
53.1004	543.19
53.1148	515.62
53.1293	506.25
53.1437	477.41
53.1582	512.64
53.1726	554.55
53.1870	496.71
53.2015	519.02
53.2159	531.88
53.2304	485.69
53.2448	520.61
53.2592	511.74
53.2737	506.83
53.2881	542.74
53.3026	513.62
53.3170	499.04
53.3314	513.43
53.3459	543.99
53.3603	519.97
53.3748	520.90
53.3892	500.68
53.4036	515.05
53.4181	507.44
53.4325	546.98
53.4470	504.26
53.4614	551.59
53.4758	534.88
53.4903	502.98
53.5047	499.32
53.5192	480.79
53.5336	498.10
53.5480	518.65
53.5625	509.73
53.5769	480.60
53.5914	517.41
53.6058	507.16
53.6202	486.04
53.6347	493.59
53.6491	530.65
53.6636	512.72
53.6780	479.57
53.6924	540.08
53.7069	529.53
53.7213	529.67
53.7358	524.15
53.7502	543.19
53.7646	506.84
53.7791	536.78
53.7935	528.50
53.8080	491.46
53.8224	516.58
53.8368	538.86
53.8513	499.60
53.8657	520.97
53.8802	496.72
53.8946	520.41
53.9090	514.30
53.9235	495.34
53.9379	537.09
53.9524	517.97
53.9668	497.65
53.9812	525.79
53.9957	512.79
54.0101	504.39
54.0246	493.31
54.0390	541.06
54.0534	506.59
54.0679	518.20
54.0823	557.92
54.0968	537.69
54.1112	509.80
54.1256	531.46
54.1401	517.34
54.1545	510.37
54.1690	494.34
54.1834	494.07
54.1978	533.36
54.2123	547.93
54.2267	515.12
54.2412	554.52
54.2556	551.03
54.2700	562.76
54.2845	553.07
54.2989	582.28
54.3134	611.12
54.3278	619.42
54.3422	637.85
54.3567	603.05
54.3711	592.11
54.3856	610.90
54.4000	610.55
54.4144	619.47
54.4289	664.45
54.4433	596.20
54.4578	594.87
54.4722	665.79
54.4866	642.89
54.5011	614.44
54.5155	580.93
54.5300	584.40
54.5444	539.65
54.5588	552.09
54.5733	562.34
54.5877	559.92
54.6022	542.26
54.6166	539.94
54.6310	547.64
54.6455	543.47
54.6599	527.81
54.6744	541.94
54.6888	542.51
54.7032	558.80
54.7177	558.15
54.7321	497.04
54.7466	519.11
54.7610	523.45
54.7754	534.50
54.7899	529.37
54.8043	556.47
54.8188	535.19
54.8332	515.18
54.8476	498.09
54.8621	504.44
54.8765	503.71
54.8910	495.42
54.9054	530.54
54.9198	525.86
54.9343	504.28
54.9487	523.29
54.9632	523.65
54.9776	508.48
54.9920	512.04
55.0065	502.22
55.0209	517.13
55.0354	539.67
55.0498	543.87
55.0642	530.84
55.0787	485.15
55.0931	529.35
55.1076	519.62
55.1220	520.80
55.1364	501.96
55.1509	484.25
55.1653	506.60
55.1798	532.05
55.1942	493.86
55.2086	504.82
55.2231	495.82
55.2375	512.51
55.2520	500.62
55.2664	509.44
55.2808	513.41
55.2953	490.39
55.3097	490.56
55.3242	503.41
55.3386	530.68
55.3530	512.34
55.3675	490.66
55.3819	493.86
55.3964	491.67
55.4108	505.33
55.4252	531.39
55.4397	524.56
55.4541	468.25
55.4686	536.18
55.4830	529.27
55.4974	518.18
55.5119	485.45
55.5263	525.37
55.5408	522.40
55.5552	503.04
55.5696	518.87
55.5841	512.37
55.5985	507.99
55.6130	520.00
55.6274	516.52
55.6418	497.80
55.6563	528.03
55.6707	525.63
55.6852	492.10
55.6996	514.34
55.7140	503.43
55.7285	467.41
55.7429	481.32
55.7574	507.84
55.7718	503.83
55.7862	520.05
55.8007	539.43
55.8151	512.36
55.8296	495.98
55.8440	537.88
55.8584	527.39
55.8729	535.33
55.8873	525.88
55.9018	535.10
55.9162	522.51
55.9306	549.08
55.9451	534.97
55.9595	554.70
55.9740	489.04
55.9884	520.98
56.0028	486.15
56.0173	529.22
56.0317	566.81
56.0462	507.56
56.0606	532.36
56.0750	539.27
56.0895	536.88
56.1039	512.96
56.1184	517.01
56.1328	528.83
56.1472	512.10
56.1617	508.63
56.1761	555.05
56.1906	518.80
56.2050	515.06
56.2194	515.91
56.2339	532.23
56.2483	545.70
56.2628	508.68
56.2772	525.33
56.2916	527.16
56.3061	539.52
56.3205	561.38
56.3350	551.46
56.3494	533.22
56.3639	549.45
56.3783	539.43
56.3927	498.90
56.4072	494.66
56.4216	559.10
56.4361	500.30
56.4505	496.52
56.4649	523.18
56.4794	545.74
56.4938	523.06
56.5083	501.65
56.5227	540.90
56.5371	550.44
56.5516	510.41
56.5660	514.30
56.5805	480.81
56.5949	535.44
56.6093	531.46
56.6238	525.39
56.6382	521.16
56.6527	512.57
56.6671	522.09
56.6815	505.51
56.6960	504.48
56.7104	497.72
56.7249	505.14
56.7393	537.04
56.7537	526.51
56.7682	500.44
56.7826	526.95
56.7971	523.56
56.8115	533.14
56.8259	514.97
56.8404	523.94
56.8548	535.93
56.8693	533.33
56.8837	504.64
56.8981	497.78
56.9126	492.67
56.9270	531.46
56.9415	560.11
56.9559	543.47
56.9703	498.80
56.9848	540.67
56.9992	589.89
57.0137	579.63
57.0281	551.50
57.0425	525.33
57.0570	546.27
57.0714	562.07
57.0859	533.88
57.1003	556.22
57.1147	515.16
57.1292	512.77
57.1436	531.67
57.1581	530.19
57.1725	560.24
57.1869	529.46
57.2014	506.40
57.2158	521.72
57.2303	500.22
57.2447	535.93
57.2591	533.96
57.2736	542.11
57.2880	511.70
57.3025	506.09
57.3169	522.05
57.3313	513.23
57.3458	550.88
57.3602	519.82
57.3747	505.71
57.3891	536.23
57.4035	570.91
57.4180	547.19
57.4324	536.30
57.4469	514.72
57.4613	544.27
57.4757	574.56
57.4902	537.75
57.5046	533.05
57.5191	517.37
57.5335	520.22
57.5479	545.56
57.5624	538.71
57.5768	528.92
57.5913	535.05
57.6057	512.06
57.6201	498.53
57.6346	536.60
57.6490	532.74
57.6635	550.42
57.6779	558.20
57.6923	568.89
57.7068	550.23
57.7212	546.64
57.7357	534.11
57.7501	535.09
57.7645	541.41
57.7790	537.00
57.7934	518.31
57.8079	562.63
57.8223	581.05
57.8367	589.31
57.8512	605.25
57.8656	656.78
57.8801	673.90
57.8945	696.94
57.9089	696.93
57.9234	736.36
57.9378	711.87
57.9523	729.21
57.9667	708.68
57.9811	706.01
57.9956	701.86
58.0100	669.44
58.0245	673.96
58.0389	671.71
58.0533	656.51
58.0678	675.76
58.0822	652.14
58.0967	633.04
58.1111	639.28
58.1255	657.73
58.1400	613.17
58.1544	599.74
58.1689	611.26
58.1833	573.29
58.1977	576.40
58.2122	582.34
58.2266	571.54
58.2411	567.96
58.2555	547.98
58.2699	539.61
58.2844	541.48
58.2988	535.40
58.3133	530.74
58.3277	549.61
58.3421	567.04
58.3566	543.05
58.3710	523.58
58.3855	521.56
58.3999	535.08
58.4143	517.26
58.4288	546.23
58.4432	528.40
58.4577	488.31
58.4721	514.16
58.4865	524.75
58.5010	528.62
58.5154	542.79
58.5299	516.94
58.5443	525.26
58.5587	527.84
58.5732	544.02
58.5876	548.31
58.6021	545.51
58.6165	523.85
58.6309	526.42
58.6454	525.22
58.6598	532.49
58.6743	549.07
58.6887	542.60
58.7031	533.13
58.7176	540.48
58.7320	504.50
58.7465	528.16
58.7609	531.57
58.7753	534.33
58.7898	490.71
58.8042	526.95
58.8187	556.22
58.8331	535.28
58.8475	490.83
58.8620	526.82
58.8764	539.22
58.8909	511.10
58.9053	522.20
58.9197	534.98
58.9342	520.71
58.9486	540.11
58.9631	553.41
58.9775	529.95
58.9919	560.79
59.0064	525.57
59.0208	530.13
59.0353	509.81
59.0497	523.86
59.0641	506.79
59.0786	494.80
59.0930	529.32
59.1075	536.83
59.1219	523.93
59.1363	514.66
59.1508	534.11
59.1652	543.64
59.1797	551.07
59.1941	513.66
59.2085	542.62
59.2230	572.02
59.2374	546.79
59.2519	522.14
59.2663	534.46
59.2807	556.04
59.2952	570.98
59.3096	551.55
59.3241	570.90
59.3385	567.45
59.3529	564.01
59.3674	538.67
59.3818	564.85
59.3963	535.44
59.4107	541.87
59.4251	561.51
59.4396	535.60
59.4540	536.03
59.4685	558.98
59.4829	583.50
59.4973	524.08
59.5118	564.96
59.5262	607.69
59.5407	554.87
59.5551	529.45
59.5695	521.30
59.5840	522.54
59.5984	542.32
59.6129	559.11
59.6273	515.72
59.6417	546.58
59.6562	568.15
59.6706	545.89
59.6851	527.26
59.6995	528.25
59.7139	544.55
59.7284	560.84
59.7428	547.45
59.7573	512.08
59.7717	536.61
59.7861	549.24
59.8006	537.73
59.8150	536.82
59.8295	554.80
59.8439	536.69
59.8583	558.05
59.8728	570.28
59.8872	567.02
59.9017	550.93
59.9161	507.90
59.9305	556.48
59.9450	534.16
59.9594	522.75
59.9739	508.52
59.9883	537.33
60.0027	504.61
60.0172	533.85
60.0316	532.55
60.0461	514.59
60.0605	550.88
60.0750	556.60
60.0894	527.73
60.1038	520.66
60.1183	552.93
60.1327	534.73
60.1472	506.78
60.1616	534.42
60.1760	534.41
60.1905	525.56
60.2049	547.43
60.2194	508.39
60.2338	545.55
60.2482	516.61
60.2627	532.47
60.2771	542.71
60.2916	529.16
60.3060	489.61
60.3204	534.21
60.3349	543.97
60.3493	545.98
60.3638	548.83
60.3782	552.84
60.3926	545.29
60.4071	516.42
60.4215	560.13
60.4360	560.13
60.4504	533.67
60.4648	538.78
60.4793	562.87
60.4937	514.95
60.5082	505.79
60.5226	516.11
60.5370	538.00
60.5515	535.54
60.5659	518.13
60.5804	502.24
60.5948	526.34
60.6092	527.56
60.6237	521.66
60.6381	539.05
60.6526	513.30
60.6670	539.56
60.6814	542.56
60.6959	512.70
60.7103	540.87
60.7248	534.03
60.7392	557.29
60.7536	566.87
60.7681	536.43
60.7825	526.29
60.7970	565.34
60.8114	518.82
60.8258	549.58
60.8403	529.57
60.8547	527.77
60.8692	541.84
60.8836	542.05
60.8980	532.82
60.9125	544.83
60.9269	565.79
60.9414	552.65
60.9558	557.90
60.9702	550.89
60.9847	533.29
60.9991	558.34
61.0136	543.10
61.0280	531.55
61.0424	500.65
61.0569	495.14
61.0713	554.54
61.0858	536.98
61.1002	561.55
61.1146	611.90
61.1291	611.71
61.1435	533.42
61.1580	541.54
61.1724	543.64
61.1868	510.90
61.2013	515.55
61.2157	530.21
61.2302	522.88
61.2446	549.16
61.2590	539.10
61.2735	567.40
61.2879	537.74
61.3024	530.64
61.3168	525.91
61.3312	528.76
61.3457	566.64
61.3601	554.50
61.3746	536.08
61.3890	526.07
61.4034	523.20
61.4179	523.49
61.4323	553.75
61.4468	549.10
61.4612	535.24
61.4756	556.56
61.4901	547.89
61.5045	540.68
61.5190	552.60
61.5334	576.98
61.5478	572.02
61.5623	551.37
61.5767	542.38
61.5912	536.09
61.6056	526.48
61.6200	533.31
61.6345	538.97
61.6489	552.01
61.6634	557.99
61.6778	546.81
61.6922	548.97
61.7067	527.13
61.7211	549.09
61.7356	533.94
61.7500	549.96
61.7644	551.67
61.7789	560.65
61.7933	594.23
61.8078	559.98
61.8222	529.11
61.8366	576.44
61.8511	596.65
61.8655	557.82
61.8800	549.58
61.8944	541.37
61.9088	514.81
61.9233	558.12
61.9377	555.40
61.9522	527.91
61.9666	571.77
61.9810	566.51
61.9955	562.95
62.0099	568.69
62.0244	575.70
62.0388	539.05
62.0532	541.03
62.0677	572.52
62.0821	553.52
62.0966	553.93
62.1110	527.72
62.1254	533.68
62.1399	558.86
62.1543	568.24
62.1688	584.67
62.1832	542.98
62.1976	552.33
62.2121	572.92
62.2265	566.51
62.2410	561.72
62.2554	573.12
62.2698	566.83
62.2843	573.46
62.2987	530.59
62.3132	556.33
62.3276	572.33
62.3420	551.82
62.3565	543.28
62.3709	562.39
62.3854	529.96
62.3998	526.03
62.4142	553.54
62.4287	586.47
62.4431	543.22
62.4576	553.02
62.4720	593.20
62.4864	578.62
62.5009	571.34
62.5153	572.22
62.5298	548.89
62.5442	580.76
62.5586	574.33
62.5731	562.00
62.5875	558.16
62.6020	588.55
62.6164	539.65
62.6308	554.18
62.6453	555.90
62.6597	559.10
62.6742	554.24
62.6886	555.12
62.7030	563.88
62.7175	554.95
62.7319	537.39
62.7464	566.83
62.7608	542.50
62.7752	563.75
62.7897	547.85
62.8041	561.36
62.8186	546.29
62.8330	547.42
62.8474	548.88
62.8619	578.02
62.8763	557.35
62.8908	541.74
62.9052	552.76
62.9196	563.97
62.9341	559.23
62.9485	549.02
62.9630	563.72
62.9774	597.43
62.9918	587.09
63.0063	609.67
63.0207	583.57
63.0352	569.93
63.0496	585.39
63.0640	582.02
63.0785	600.40
63.0929	608.55
63.1074	589.46
63.1218	580.78
63.1362	576.55
63.1507	522.71
63.1651	562.82
63.1796	607.48
63.1940	552.88
63.2084	564.08
63.2229	551.39
63.2373	598.00
63.2518	582.69
63.2662	576.14
63.2806	592.29
63.2951	596.00
63.3095	574.96
63.3240	564.18
63.3384	613.53
63.3528	587.42
63.3673	606.29
63.3817	599.35
63.3962	557.25
63.4106	595.70
63.4250	610.49
63.4395	586.89
63.4539	611.09
63.4684	651.14
63.4828	617.61
63.4972	646.05
63.5117	692.58
63.5261	709.99
63.5406	719.92
63.5550	741.78
63.5694	815.59
63.5839	876.82
63.5983	929.84
63.6128	984.12
63.6272	983.10
63.6416	965.27
63.6561	945.59
63.6705	971.35
63.6850	930.55
63.6994	866.52
63.7138	839.12
63.7283	751.28
63.7427	768.34
63.7572	766.61
63.7716	782.37
63.7861	799.93
63.8005	812.28
63.8149	794.57
63.8294	786.92
63.8438	740.78
63.8583	726.58
63.8727	771.87
63.8871	691.04
63.9016	714.35
63.9160	672.07
63.9305	613.40
63.9449	636.13
63.9593	650.02
63.9738	650.78
63.9882	651.20
64.0027	579.22
64.0171	595.82
64.0315	596.52
64.0460	607.29
64.0604	621.96
64.0749	607.95
64.0893	621.54
64.1037	624.93
64.1182	589.55
64.1326	606.48
64.1471	595.16
64.1615	592.86
64.1759	594.39
64.1904	618.29
64.2048	624.16
64.2193	597.34
64.2337	551.77
64.2481	596.88
64.2626	597.55
64.2770	629.44
64.2915	600.68
64.3059	626.05
64.3203	589.54
64.3348	612.99
64.3492	604.77
64.3637	574.33
64.3781	559.37
64.3925	598.05
64.4070	576.25
64.4214	624.36
64.4359	596.86
64.4503	583.12
64.4647	626.67
64.4792	650.10
64.4936	623.46
64.5081	630.77
64.5225	605.24
64.5369	616.82
64.5514	655.27
64.5658	659.08
64.5803	633.39
64.5947	626.97
64.6091	625.00
64.6236	577.39
64.6380	638.86
64.6525	654.22
64.6669	655.20
64.6813	661.51
64.6958	657.35
64.7102	680.40
64.7247	688.31
64.7391	715.95
64.7535	716.20
64.7680	725.12
64.7824	746.42
64.7969	730.11
64.8113	760.61
64.8257	778.22
64.8402	800.52
64.8546	845.62
64.8691	784.00
64.8835	845.74
64.8979	837.79
64.9124	826.58
64.9268	853.90
64.9413	913.56
64.9557	983.98
64.9701	1023.71
64.9846	1044.85
64.9990	1084.99
65.0135	1301.78
65.0279	1467.98
65.0423	1623.62
65.0568	1999.76
65.0712	2530.06
65.0857	3269.32
65.1001	4406.33
65.1145	5907.51
65.1290	7749.92
65.1434	9312.67
65.1579	10950.44
65.1723	11797.01
65.1867	11415.35
65.2012	10229.68
65.2156	8630.87
65.2301	6786.95
65.2445	5478.87
65.2589	4544.25
65.2734	4277.64
65.2878	4540.69
65.3023	4932.79
65.3167	5696.28
65.3311	6472.09
65.3456	7050.78
65.3600	6977.84
65.3745	6446.20
65.3889	5651.11
65.4033	4618.02
65.4178	3629.52
65.4322	2886.63
65.4467	2132.95
65.4611	1728.82
65.4755	1532.86
65.4900	1319.05
65.5044	1157.43
65.5189	1080.20
65.5333	975.15
65.5477	918.63
65.5622	907.86
65.5766	886.68
65.5911	878.61
65.6055	803.47
65.6199	735.07
65.6344	761.30
65.6488	731.50
65.6633	755.52
65.6777	740.87
65.6921	699.37
65.7066	705.16
65.7210	709.64
65.7355	694.60
65.7499	672.16
65.7643	669.23
65.7788	696.28
65.7932	678.94
65.8077	670.23
65.8221	659.11
65.8365	655.23
65.8510	647.85
65.8654	629.44
65.8799	675.63
65.8943	670.52
65.9087	680.29
65.9232	655.98
65.9376	648.34
65.9521	624.70
65.9665	622.05
65.9809	630.99
65.9954	613.04
66.0098	596.68
66.0243	649.68
66.0387	624.18
66.0531	624.61
66.0676	591.56
66.0820	571.94
66.0965	642.72
66.1109	640.53
66.1253	631.08
66.1398	641.90
66.1542	592.55
66.1687	602.97
66.1831	633.09
66.1975	632.92
66.2120	601.28
66.2264	615.29
66.2409	617.32
66.2553	627.22
66.2697	648.76
66.2842	627.92
66.2986	602.38
66.3131	625.57
66.3275	579.49
66.3419	567.56
66.3564	580.15
66.3708	586.50
66.3853	577.85
66.3997	614.60
66.4141	611.00
66.4286	652.26
66.4430	614.01
66.4575	571.46
66.4719	631.83
66.4863	573.70
66.5008	567.22
66.5152	572.97
66.5297	552.50
66.5441	577.61
66.5585	569.95
66.5730	614.25
66.5874	595.97
66.6019	588.74
66.6163	607.53
66.6307	579.65
66.6452	557.46
66.6596	579.20
66.6741	568.85
66.6885	584.72
66.7029	592.00
66.7174	603.66
66.7318	612.71
66.7463	579.87
66.7607	567.63
66.7751	582.11
66.7896	618.43
66.8040	617.15
66.8185	579.15
66.8329	551.83
66.8473	582.18
66.8618	630.68
66.8762	596.20
66.8907	587.51
66.9051	619.30
66.9195	595.21
66.9340	610.99
66.9484	628.73
66.9629	613.74
66.9773	599.18
66.9917	586.25
67.0062	618.72
67.0206	614.20
67.0351	561.24
67.0495	555.18
67.0639	576.01
67.0784	575.29
67.0928	554.42
67.1073	547.52
67.1217	588.85
67.1361	592.38
67.1506	562.59
67.1650	590.82
67.1795	569.27
67.1939	584.44
67.2083	578.63
67.2228	596.63
67.2372	576.82
67.2517	582.94
67.2661	541.03
67.2805	567.17
67.2950	559.89
67.3094	553.07
67.3239	545.10
67.3383	577.45
67.3527	629.95
67.3672	584.93
67.3816	617.40
67.3961	575.13
67.4105	545.50
67.4250	596.59
67.4394	579.08
67.4538	554.06
67.4683	574.29
67.4827	628.59
67.4972	591.53
67.5116	553.02
67.5260	575.13
67.5405	599.56
67.5549	539.46
67.5694	563.56
67.5838	585.70
67.5982	564.53
67.6127	599.95
67.6271	613.74
67.6416	559.86
67.6560	542.93
67.6704	575.28
67.6849	591.47
67.6993	582.24
67.7138	575.89
67.7282	565.98
67.7426	605.91
67.7571	604.88
67.7715	601.64
67.7860	547.83
67.8004	583.51
67.8148	590.86
67.8293	562.32
67.8437	542.70
67.8582	587.35
67.8726	618.06
67.8870	607.76
67.9015	635.13
67.9159	617.08
67.9304	621.73
67.9448	606.65
67.9592	596.06
67.9737	588.60
67.9881	589.60
68.0026	567.41
68.0170	606.44
68.0314	573.05
68.0459	535.07
68.0603	574.89
68.0748	555.23
68.0892	538.97
68.1036	534.75
68.1181	606.36
68.1325	589.05
68.1470	565.21
68.1614	588.53
68.1758	573.29
68.1903	562.56
68.2047	585.37
68.2192	635.04
68.2336	552.41
68.2480	583.84
68.2625	552.67
68.2769	552.24
68.2914	576.60
68.3058	547.42
68.3202	593.13
68.3347	584.05
68.3491	568.09
68.3636	577.11
68.3780	569.12
68.3924	590.66
68.4069	551.45
68.4213	592.19
68.4358	589.56
68.4502	576.67
68.4646	571.88
68.4791	582.99
68.4935	564.98
68.5080	563.86
68.5224	577.43
68.5368	597.62
68.5513	577.67
68.5657	556.30
68.5802	528.00
68.5946	541.43
68.6090	587.76
68.6235	551.79
68.6379	574.35
68.6524	559.14
68.6668	599.07
68.6812	558.88
68.6957	527.12
68.7101	531.66
68.7246	560.00
68.7390	553.77
68.7534	548.89
68.7679	547.20
68.7823	534.21
68.7968	562.94
68.8112	567.46
68.8256	553.28
68.8401	552.44
68.8545	567.18
68.8690	608.41
68.8834	602.30
68.8978	587.37
68.9123	584.24
68.9267	578.62
68.9412	570.52
68.9556	554.39
68.9700	604.18
68.9845	534.51
68.9989	550.88
69.0134	573.31
69.0278	570.69
69.0422	618.81
69.0567	611.66
69.0711	599.31
69.0856	612.36
69.1000	551.18
69.1144	559.92
69.1289	628.95
69.1433	500.74
69.1578	597.37
69.1722	560.90
69.1866	552.41
69.2011	585.62
69.2155	568.01
69.2300	594.65
69.2444	609.69
69.2588	585.94
69.2733	589.27
69.2877	572.37
69.3022	548.24
69.3166	549.26
69.3310	564.58
69.3455	557.41
69.3599	626.30
69.3744	547.29
69.3888	572.20
69.4032	585.32
69.4177	559.14
69.4321	581.10
69.4466	541.28
69.4610	543.00
69.4754	589.33
69.4899	552.13
69.5043	558.04
69.5188	556.94
69.5332	593.05
69.5476	610.83
69.5621	592.03
69.5765	611.85
69.5910	581.15
69.6054	538.31
69.6198	572.46
69.6343	596.43
69.6487	574.24
69.6632	564.50
69.6776	577.25
69.6920	565.12
69.7065	595.43
69.7209	572.25
69.7354	558.08
69.7498	572.15
69.7642	547.39
69.7787	577.21
69.7931	585.36
69.8076	620.25
69.8220	572.75
69.8364	597.69
69.8509	584.93
69.8653	557.33
69.8798	582.72
69.8942	536.59
69.9086	570.47
69.9231	545.45
69.9375	594.32
69.9520	574.77
69.9664	579.32
69.9808	579.81
69.9953	613.24
70.0097	554.43
70.0242	484.33
70.0386	572.58
70.0530	587.35
70.0675	578.55
70.0819	582.88
70.0964	574.89
70.1108	585.63
70.1252	604.86
70.1397	545.27
70.1541	578.62
70.1686	602.43
70.1830	613.82
70.1974	544.25
70.2119	592.11
70.2263	545.18
70.2408	569.69
70.2552	584.82
70.2696	545.51
70.2841	566.12
70.2985	528.53
70.3130	542.13
70.3274	605.39
70.3418	648.91
70.3563	583.14
70.3707	556.26
70.3852	587.04
70.3996	592.35
70.4140	583.19
70.4285	558.09
70.4429	564.91
70.4574	555.53
70.4718	577.16
70.4862	608.49
70.5007	595.10
70.5151	598.56
70.5296	616.94
70.5440	557.46
70.5584	594.30
70.5729	624.28
70.5873	558.26
70.6018	573.72
70.6162	562.90
70.6306	595.75
70.6451	570.68
70.6595	541.75
70.6740	547.12
70.6884	527.61
70.7028	582.10
70.7173	571.11
70.7317	538.29
70.7462	542.30
70.7606	584.68
70.7750	587.07
70.7895	552.61
70.8039	581.47
70.8184	583.24
70.8328	609.83
70.8472	589.63
70.8617	580.89
70.8761	592.49
70.8906	574.56
70.9050	566.97
70.9194	582.05
70.9339	591.23
70.9483	546.21
70.9628	556.34
70.9772	581.43
70.9916	558.00
71.0061	570.08
71.0205	577.34
71.0350	566.72
71.0494	532.44
71.0638	534.48
71.0783	562.92
71.0927	603.98
71.1072	599.82
71.1216	577.97
71.1361	614.02
71.1505	619.60
71.1649	605.60
71.1794	562.59
71.1938	584.40
71.2083	617.76
71.2227	573.95
71.2371	530.52
71.2516	564.57
71.2660	589.45
71.2805	575.08
71.2949	532.20
71.3093	537.16
71.3238	556.24
71.3382	604.68
71.3527	644.07
71.3671	596.93
71.3815	550.47
71.3960	622.59
71.4104	613.45
71.4249	634.21
71.4393	627.15
71.4537	539.79
71.4682	574.49
71.4826	504.56
71.4971	549.38
71.5115	594.19
71.5259	549.91
71.5404	555.38
71.5548	549.73
71.5693	551.48
71.5837	542.35
71.5981	594.72
71.6126	630.06
71.6270	556.46
71.6415	535.82
71.6559	517.16
71.6703	568.28
71.6848	573.53
71.6992	605.52
71.7137	613.93
71.7281	575.73
71.7425	595.10
71.7570	621.33
71.7714	629.22
71.7859	563.33
71.8003	568.99
71.8147	587.08
71.8292	589.95
71.8436	584.64
71.8581	558.23
71.8725	592.26
71.8869	578.75
71.9014	636.28
71.9158	631.37
71.9303	599.73
71.9447	506.85
71.9591	487.91
71.9736	466.62
71.9880	512.00
72.0025	580.84
72.0169	548.84
72.0313	542.93
72.0458	533.52
72.0602	513.03
72.0747	619.20
72.0891	658.04
72.1035	709.99
72.1180	739.97
72.1324	661.05
72.1469	609.01
72.1613	575.45
72.1757	556.91
72.1902	592.45
72.2046	630.20
72.2191	593.29
72.2335	575.06
72.2479	639.24
72.2624	658.54
72.2768	597.85
72.2913	583.41
72.3057	639.35
72.3201	639.72
72.3346	619.05
72.3490	610.60
72.3635	670.81
72.3779	639.49
72.3923	584.53
72.4068	565.10
72.4212	534.06
72.4357	571.95
72.4501	580.59
72.4645	575.33
72.4790	634.58
72.4934	670.07
72.5079	583.39
72.5223	537.59
72.5367	614.88
72.5512	642.45
72.5656	605.11
72.5801	575.61
72.5945	540.95
72.6089	572.76
72.6234	592.70
72.6378	601.16
72.6523	600.95
72.6667	632.26
72.6811	588.76
72.6956	572.76
72.7100	524.97
72.7245	511.47
72.7389	593.60
72.7533	641.24
72.7678	642.08
72.7822	584.64
72.7967	596.63
72.8111	597.44
72.8255	628.98
72.8400	570.80
72.8544	503.74
72.8689	533.21
72.8833	569.09

Result vector
22.1120	620.76
22.1264	574.89
22.1409	506.79
22.1553	546.70
22.1697	562.06
22.1842	570.08
22.1986	603.85
22.2131	567.05
22.2275	499.58
22.2419	590.81
22.2564	577.38
22.2708	555.16
22.2853	554.37
22.2997	546.00
22.3141	583.12
22.3286	587.06
22.3430	636.35
22.3575	553.63
22.3719	556.30
22.3863	550.55
22.4008	557.09
22.4152	588.13
22.4297	607.69
22.4441	642.19
22.4585	601.18
22.4730	564.71
22.4874	612.29
22.5019	597.73
22.5163	580.84
22.5307	593.04
22.5452	623.80
22.5596	657.94
22.5741	729.28
22.5885	599.61
22.6029	591.73
22.6174	572.96
22.6318	618.37
22.6463	620.82
22.6607	612.87
22.6751	624.84
22.6896	595.58
22.7040	606.15
22.7185	581.49
22.7329	631.11
22.7473	603.10
22.7618	551.12
22.7762	615.82
22.7907	664.16
22.8051	621.82
22.8195	527.73
22.8340	521.60
22.8484	502.24
22.8629	605.24
22.8773	563.40
22.8917	487.43
22.9062	533.40
22.9206	577.98
22.9351	552.20
22.9495	540.18
22.9639	647.18
22.9784	596.78
22.9928	555.39
23.0073	536.64
23.0217	640.58
23.0361	568.97
23.0506	606.62
23.0650	602.94
23.0795	552.61
23.0939	538.09
23.1083	595.82
23.1228	618.73
23.1372	595.89
23.1517	555.97
23.1661	563.10
23.1806	563.63
23.1950	570.06
23.2094	564.98
23.2239	603.42
23.2383	550.56
23.2528	591.45
23.2672	574.72
23.2816	594.03
23.2961	557.87
23.3105	627.36
23.3250	598.44
23.3394	612.50
23.3538	553.49
23.3683	534.13
23.3827	497.49
23.3972	537.67
23.4116	562.68
23.4260	578.78
23.4405	561.20
23.4549	519.33
23.4694	564.91
23.4838	564.83
23.4982	512.53
23.5127	531.82
23.5271	546.62
23.5416	544.55
23.5560	560.67
23.5704	503.79
23.5849	603.01
23.5993	542.42
23.6138	546.47
23.6282	535.39
23.6426	555.01
23.6571	535.54
23.6715	572.55
23.6860	553.67
23.7004	520.16
23.7148	548.67
23.7293	582.90
23.7437	533.82
23.7582	540.43
23.7726	580.92
23.7870	502.21
23.8015	490.82
23.8159	518.51
23.8304	530.47
23.8448	502.14
23.8592	573.56
23.8737	544.25
23.8881	555.58
23.9026	557.63
23.9170	580.81
23.9314	525.35
23.9459	549.93
23.9603	580.51
23.9748	529.29
23.9892	476.48
24.0036	536.55
24.0181	631.35
24.0325	581.66
24.0470	546.11
24.0614	593.59
24.0758	494.92
24.0903	575.79
24.1047	541.71
24.1192	543.96
24.1336	561.16
24.1480	530.31
24.1625	588.37
24.1769	529.38
24.1914	566.69
24.2058	628.06
24.2202	554.59
24.2347	667.43
24.2491	650.63
24.2636	632.62
24.2780	549.26
24.2924	587.71
24.3069	597.94
24.3213	583.58
24.3358	526.03
24.3502	553.94
24.3646	561.80
24.3791	549.11
24.3935	533.04
24.4080	532.36
24.4224	567.32
24.4368	544.38
24.4513	534.90
24.4657	517.03
24.4802	576.28
24.4946	626.93
24.5090	554.49
24.5235	497.20
24.5379	536.53
24.5524	582.30
24.5668	541.75
24.5812	594.46
24.5957	562.61
24.6101	636.84
24.6246	564.79
24.6390	552.98
24.6534	608.86
24.6679	502.49
24.6823	529.37
24.6968	477.65
24.7112	557.45
24.7256	541.92
24.7401	545.87
24.7545	584.58
24.7690	544.61
24.7834	508.92
24.7978	549.27
24.8123	530.15
24.8267	522.76
24.8412	558.27
24.8556	544.43
24.8700	546.41
24.8845	519.72
24.8989	512.30
24.9134	537.57
24.9278	583.85
24.9422	574.37
24.9567	510.69
24.9711	579.69
24.9856	577.17
25.0000	568.06
25.0144	556.33
25.0289	571.14
25.0433	576.45
25.0578	540.19
25.0722	560.88
25.0866	607.59
25.1011	537.97
25.1155	551.95
25.1300	594.51
25.1444	539.68
25.1588	540.01
25.1733	531.80
25.1877	518.10
25.2022	471.75
25.2166	543.97
25.2310	531.38
25.2455	521.65
25.2599	502.33
25.2744	546.72
25.2888	573.95
25.3032	544.73
25.3177	538.71
25.3321	527.30
25.3466	547.93
25.3610	524.61
25.3754	544.30
25.3899	549.26
25.4043	517.10
25.4188	572.43
25.4332	561.64
25.4476	534.28
25.4621	544.47
25.4765	527.78
25.4910	503.13
25.5054	515.44
25.5198	540.78
25.5343	573.62
25.5487	561.71
25.5632	544.79
25.5776	555.09
25.5920	498.51
25.6065	493.46
25.6209	512.77
25.6354	507.22
25.6498	504.72
25.6642	525.13
25.6787	526.95
25.6931	504.33
25.7076	548.49
25.7220	533.75
25.7364	512.80
25.7509	547.60
25.7653	525.65
25.7798	562.62
25.7942	585.55
25.8086	548.00
25.8231	588.62
25.8375	567.05
25.8520	527.20
25.8664	558.02
25.8808	558.86
25.8953	582.25
25.9097	532.73
25.9242	531.56
25.9386	534.90
25.9530	555.13
25.9675	500.22
25.9819	527.01
25.9964	547.93
26.0108	557.05
26.0252	543.08
26.0397	554.98
26.0541	534.05
26.0686	539.04
26.0830	531.19
26.0974	546.65
26.1119	548.42
26.1263	520.76
26.1408	487.07
26.1552	497.73
26.1696	504.59
26.1841	483.77
26.1985	507.02
26.2130	529.74
26.2274	527.24
26.2418	544.22
26.2563	546.09
26.2707	519.28
26.2852	505.26
26.2996	541.57
26.3140	553.64
26.3285	514.32
26.3429	533.42
26.3574	558.81
26.3718	528.65
26.3862	533.57
26.4007	533.04
26.4151	533.19
26.4296	526.18
26.4440	536.44
26.4584	536.46
26.4729	533.96
26.4873	524.33
26.5018	520.01
26.5162	528.23
26.5306	542.10
26.5451	556.10
26.5595	565.58
26.5740	542.87
26.5884	520.87
26.6028	518.80
26.6173	514.13
26.6317	539.04
26.6462	532.99
26.6606	503.44
26.6750	534.66
26.6895	542.44
26.7039	570.59
26.7184	532.48
26.7328	504.84
26.7472	530.13
26.7617	529.37
26.7761	507.76
26.7906	509.69
26.8050	488.57
26.8194	471.98
26.8339	523.32
26.8483	554.20
26.8628	538.70
26.8772	528.21
26.8917	519.85
26.9061	527.83
26.9205	553.57
26.9350	527.75
26.9494	534.15
26.9639	536.03
26.9783	513.38
26.9927	545.27
27.0072	547.55
27.0216	515.97
27.0361	461.36
27.0505	495.82
27.0649	546.09
27.0794	501.82
27.0938	502.55
27.1083	525.83
27.1227	578.13
27.1371	576.24
27.1516	572.77
27.1660	557.81
27.1805	548.63
27.1949	510.24
27.2093	541.70
27.2238	504.36
27.2382	538.82
27.2527	532.44
27.2671	513.46
27.2815	497.88
27.2960	520.63
27.3104	520.98
27.3249	508.91
27.3393	523.45
27.3537	547.21
27.3682	536.68
27.3826	505.33
27.3971	491.11
27.4115	512.18
27.4259	501.42
27.4404	513.74
27.4548	539.93
27.4693	550.81
27.4837	542.17
27.4981	526.41
27.5126	516.29
27.5270	514.53
27.5415	517.44
27.5559	509.23
27.5703	510.90
27.5848	500.40
27.5992	513.20
27.6137	537.51
27.6281	529.87
27.6425	494.70
27.6570	535.97
27.6714	527.29
27.6859	515.87
27.7003	557.53
27.7147	541.58
27.7292	531.98
27.7436	488.00
27.7581	494.11
27.7725	526.71
27.7869	536.65
27.8014	497.49
27.8158	474.56
27.8303	523.93
27.8447	529.38
27.8591	531.77
27.8736	521.20
27.8880	523.06
27.9025	513.19
27.9169	489.90
27.9313	499.22
27.9458	503.57
27.9602	494.50
27.9747	522.91
27.9891	498.68
28.0035	499.63
28.0180	540.02
28.0324	498.50
28.0469	485.70
28.0613	536.95
28.0757	522.91
28.0902	515.04
28.1046	530.07
28.1191	561.02
28.1335	535.90
28.1479	504.15
28.1624	508.54
28.1768	528.36
28.1913	532.10
28.2057	534.99
28.2201	531.27
28.2346	519.44
28.2490	522.09
28.2635	509.64
28.2779	521.70
28.2923	526.65
28.3068	534.42
28.3212	542.71
28.3357	544.14
28.3501	550.53
28.3645	526.06
28.3790	496.72
28.3934	481.21
28.4079	500.50
28.4223	504.81
28.4367	528.78
28.4512	514.31
28.4656	493.25
28.4801	503.67
28.4945	536.34
28.5089	527.96
28.5234	495.82
28.5378	517.50
28.5523	510.67
28.5667	526.08
28.5811	539.24
28.5956	503.09
28.6100	506.27
28.6245	505.21
28.6389	507.77
28.6533	530.74
28.6678	485.03
28.6822	499.93
28.6967	513.24
28.7111	512.56
28.7255	530.14
28.7400	534.10
28.7544	504.48
28.7689	517.42
28.7833	528.31
28.7977	496.73
28.8122	496.90
28.8266	514.27
28.8411	529.64
28.8555	532.96
28.8699	513.48
28.8844	487.18
28.8988	500.74
28.9133	469.41
28.9277	510.93
28.9421	497.18
28.9566	477.20
28.9710	512.31
28.9855	518.36
28.9999	500.06
29.0143	503.51
29.0288	534.99
29.0432	517.31
29.0577	527.67
29.0721	483.95
29.0865	545.52
29.1010	538.09
29.1154	512.03
29.1299	488.50
29.1443	486.80
29.1587	486.00
29.1732	495.31
29.1876	528.40
29.2021	511.10
29.2165	534.68
29.2309	482.62
29.2454	533.69
29.2598	520.68
29.2743	510.53
29.2887	531.90
29.3031	519.41
29.3176	485.06
29.3320	490.12
29.3465	515.63
29.3609	500.76
29.3753	494.93
29.3898	485.75
29.4042	486.88
29.4187	500.52
29.4331	508.51
29.4475	502.54
29.4620	516.37
29.4764	498.70
29.4909	518.65
29.5053	501.02
29.5197	470.60
29.5342	529.08
29.5486	548.28
29.5631	538.83
29.5775	524.08
29.5919	515.65
29.6064	496.86
29.6208	544.53
29.6353	544.01
29.6497	513.50
29.6641	520.66
29.6786	498.52
29.6930	507.35
29.7075	535.00
29.7219	542.49
29.7363	471.53
29.7508	479.33
29.7652	480.66
29.7797	498.51
29.7941	494.24
29.8085	524.59
29.8230	501.92
29.8374	512.92
29.8519	502.53
29.8663	514.75
29.8807	481.97
29.8952	474.11
29.9096	515.25
29.9241	511.49
29.9385	512.71
29.9529	527.07
29.9674	510.25
29.9818	510.64
29.9963	495.45
30.0107	489.98
30.0251	480.65
30.0396	501.41
30.0540	520.89
30.0685	517.62
30.0829	501.74
30.0973	485.69
30.1118	501.04
30.1262	505.29
30.1407	535.02
30.1551	500.69
30.1695	497.46
30.1840	488.81
30.1984	540.47
30.2129	551.47
30.2273	497.11
30.2417	553.43
30.2562	534.96
30.2706	561.05
30.2851	546.82
30.2995	493.46
30.3139	508.61
30.3284	487.80
30.3428	541.93
30.3573	496.94
30.3717	476.35
30.3861	511.12
30.4006	514.26
30.4150	498.04
30.4295	549.90
30.4439	530.89
30.4583	548.84
30.4728	594.28
30.4872	579.14
30.5017	561.62
30.5161	576.09
30.5305	592.17
30.5450	649.29
30.5594	697.60
30.5739	703.26
30.5883	754.40
30.6028	759.19
30.6172	724.61
30.6316	729.85
30.6461	727.70
30.6605	728.12
30.6750	708.54
30.6894	681.91
30.7038	651.78
30.7183	647.09
30.7327	584.01
30.7472	570.01
30.7616	565.48
30.7760	556.12
30.7905	543.82
30.8049	530.92
30.8194	534.61
30.8338	593.88
30.8482	543.80
30.8627	529.89
30.8771	502.95
30.8916	501.63
30.9060	539.82
30.9204	524.78
30.9349	515.72
30.9493	482.36
30.9638	477.71
30.9782	518.91
30.9926	537.51
31.0071	529.42
31.0215	507.02
31.0360	519.69
31.0504	506.29
31.0648	521.10
31.0793	516.06
31.0937	502.98
31.1082	504.42
31.1226	526.51
31.1370	516.71
31.1515	495.48
31.1659	499.42
31.1804	523.76
31.1948	489.09
31.2092	530.19
31.2237	539.52
31.2381	521.84
31.2526	543.47
31.2670	541.39
31.2814	529.64
31.2959	530.87
31.3103	531.18
31.3248	534.84
31.3392	534.37
31.3536	514.85
31.3681	511.52
31.3825	518.23
31.3970	512.79
31.4114	505.97
31.4258	534.27
31.4403	518.29
31.4547	548.98
31.4692	513.41
31.4836	503.23
31.4980	525.88
31.5125	510.83
31.5269	481.75
31.5414	483.92
31.5558	519.94
31.5702	541.24
31.5847	508.84
31.5991	521.56
31.6136	495.42
31.6280	484.24
31.6424	513.59
31.6569	493.85
31.6713	512.78
31.6858	473.57
31.7002	507.79
31.7146	513.67
31.7291	495.04
31.7435	482.95
31.7580	496.92
31.7724	507.48
31.7868	530.44
31.8013	532.80
31.8157	494.30
31.8302	509.91
31.8446	481.71
31.8590	501.15
31.8735	544.23
31.8879	528.05
31.9024	535.64
31.9168	532.47
31.9312	490.82
31.9457	506.53
31.9601	487.47
31.9746	493.89
31.9890	504.39
32.0034	508.07
32.0179	508.70
32.0323	528.30
32.0468	503.03
32.0612	500.90
32.0756	487.63
32.0901	516.76
32.1045	525.89
32.1190	520.24
32.1334	500.69
32.1478	480.73
32.1623	518.59
32.1767	515.92
32.1912	535.35
32.2056	490.91
32.2200	495.67
32.2345	501.45
32.2489	480.51
32.2634	470.15
32.2778	515.34
32.2922	463.42
32.3067	502.46
32.3211	517.17
32.3356	521.40
32.3500	524.72
32.3644	522.28
32.3789	507.98
32.3933	473.05
32.4078	448.99
32.4222	491.31
32.4366	514.44
32.4511	493.94
32.4655	491.58
32.4800	539.65
32.4944	506.75
32.5088	485.72
32.5233	507.91
32.5377	523.29
32.5522	547.23
32.5666	501.60
32.5810	497.11
32.5955	514.15
32.6099	475.86
32.6244	535.22
32.6388	534.24
32.6532	489.47
32.6677	510.51
32.6821	504.68
32.6966	502.42
32.7110	504.56
32.7254	490.06
32.7399	465.45
32.7543	505.58
32.7688	500.16
32.7832	505.58
32.7976	476.11
32.8121	547.78
32.8265	504.47
32.8410	541.93
32.8554	501.36
32.8698	524.90
32.8843	501.66
32.8987	498.92
32.9132	496.66
32.9276	495.39
32.9420	514.07
32.9565	476.29
32.9709	522.41
32.9854	547.80
32.9998	472.58
33.0142	470.19
33.0287	494.40
33.0431	470.23
33.0576	509.06
33.0720	535.48
33.0864	511.35
33.1009	488.48
33.1153	507.78
33.1298	544.17
33.1442	514.73
33.1586	506.27
33.1731	535.74
33.1875	464.59
33.2020	463.23
33.2164	497.36
33.2308	497.79
33.2453	505.47
33.2597	511.78
33.2742	480.80
33.2886	509.87
33.3030	491.49
33.3175	504.73
33.3319	544.75
33.3464	517.49
33.3608	519.56
33.3752	510.22
33.3897	504.99
33.4041	475.31
33.4186	515.31
33.4330	534.80
33.4474	496.71
33.4619	518.85
33.4763	525.68
33.4908	529.41
33.5052	518.17
33.5196	502.22
33.5341	522.11
33.5485	494.34
33.5630	491.30
33.5774	502.64
33.5918	527.52
33.6063	530.39
33.6207	511.57
33.6352	508.06
33.6496	482.29
33.6640	502.70
33.6785	500.05
33.6929	494.66
33.7074	549.02
33.7218	518.76
33.7362	522.90
33.7507	519.92
33.7651	522.50
33.7796	543.97
33.7940	494.45
33.8084	487.99
33.8229	526.71
33.8373	516.49
33.8518	503.04
33.8662	479.94
33.8806	499.40
33.8951	533.68
33.9095	500.48
33.9240	469.78
33.9384	509.40
33.9528	493.53
33.9673	513.13
33.9817	510.81
33.9962	498.96
34.0106	473.70
34.0250	519.98
34.0395	496.40
34.0539	496.04
34.0684	494.41
34.0828	477.13
34.0972	510.44
34.1117	514.37
34.1261	532.30
34.1406	500.74
34.1550	481.38
34.1694	485.06
34.1839	501.59
34.1983	471.06
34.2128	493.68
34.2272	524.58
34.2417	501.66
34.2561	471.94
34.2705	500.46
34.2850	530.39
34.2994	524.88
34.3139	507.01
34.3283	504.67
34.3427	524.42
34.3572	504.64
34.3716	494.87
34.3861	507.55
34.4005	480.06
34.4149	482.37
34.4294	529.58
34.4438	516.35
34.4583	492.61
34.4727	502.51
34.4871	517.07
34.5016	505.81
34.5160	515.85
34.5305	510.93
34.5449	524.27
34.5593	516.04
34.5738	496.07
34.5882	507.89
34.6027	514.56
34.6171	504.72
34.6315	480.01
34.6460	485.93
34.6604	491.53
34.6749	494.85
34.6893	499.45
34.7037	528.90
34.7182	484.43
34.7326	471.14
34.7471	487.73
34.7615	503.03
34.7759	495.56
34.7904	506.86
34.8048	540.83
34.8193	515.14
34.8337	482.32
34.8481	488.73
34.8626	517.77
34.8770	543.11
34.8915	504.69
34.9059	539.20
34.9203	556.53
34.9348	536.64
34.9492	519.32
34.9637	518.23
34.9781	504.15
34.9925	507.05
35.0070	518.66
35.0214	495.96
35.0359	526.18
35.0503	503.07
35.0647	498.28
35.0792	535.19
35.0936	559.77
35.1081	505.63
35.1225	516.17
35.1369	515.17
35.1514	515.15
35.1658	534.42
35.1803	507.46
35.1947	470.19
35.2091	501.38
35.2236	495.87
35.2380	514.49
35.2525	500.71
35.2669	505.02
35.2813	523.80
35.2958	498.80
35.3102	509.46
35.3247	519.24
35.3391	540.87
35.3535	520.17
35.3680	492.27
35.3824	513.16
35.3969	500.13
35.4113	514.68
35.4257	519.81
35.4402	514.64
35.4546	506.36
35.4691	532.96
35.4835	560.55
35.4979	550.62
35.5124	497.51
35.5268	495.71
35.5413	530.10
35.5557	572.69
35.5701	524.89
35.5846	519.82
35.5990	520.44
35.6135	533.47
35.6279	502.15
35.6423	530.58
35.6568	559.11
35.6712	582.85
35.6857	599.29
35.7001	656.01
35.7145	698.81
35.7290	671.32
35.7434	619.73
35.7579	613.33
35.7723	590.66
35.7867	619.39
35.8012	642.38
35.8156	665.91
35.8301	669.05
35.8445	656.44
35.8589	686.89
35.8734	785.81
35.8878	906.77
35.9023	1060.40
35.9167	1193.81
35.9311	1395.49
35.9456	1909.14
35.9600	2370.55
35.9745	2269.84
35.9889	2342.78
36.0033	2711.48
36.0178	2939.14
36.0322	2631.89
36.0467	2518.60
36.0611	2188.08
36.0755	2018.78
36.0900	1995.48
36.1044	1743.65
36.1189	1622.12
36.1333	1537.15
36.1477	1288.24
36.1622	1244.82
36.1766	1178.67
36.1911	941.03
36.2055	769.75
36.2199	740.17
36.2344	670.45
36.2488	600.17
36.2633	537.75
36.2777	586.28
36.2921	550.49
36.3066	537.30
36.3210	546.64
36.3355	548.17
36.3499	555.12
36.3643	543.66
36.3788	544.61
36.3932	542.64
36.4077	513.83
36.4221	550.64
36.4365	555.50
36.4510	534.00
36.4654	537.93
36.4799	533.73
36.4943	515.94
36.5087	528.50
36.5232	554.66
36.5376	509.66
36.5521	512.27
36.5665	510.09
36.5809	519.54
36.5954	542.62
36.6098	552.83
36.6243	511.15
36.6387	503.77
36.6531	517.45
36.6676	524.33
36.6820	508.87
36.6965	531.72
36.7109	510.05
36.7253	514.53
36.7398	543.03
36.7542	560.08
36.7687	572.30
36.7831	551.20
36.7975	576.10
36.8120	581.11
36.8264	542.87
36.8409	561.50
36.8553	574.58
36.8697	585.91
36.8842	588.73
36.8986	632.95
36.9131	605.16
36.9275	589.45
36.9419	600.88
36.9564	549.61
36.9708	587.13
36.9853	537.40
36.9997	576.76
37.0141	543.69
37.0286	602.10
37.0430	574.54
37.0575	511.64
37.0719	477.29
37.0863	531.77
37.1008	522.52
37.1152	504.88
37.1297	531.53
37.1441	478.97
37.1585	515.59
37.1730	534.18
37.1874	470.97
37.2019	464.93
37.2163	482.18
37.2307	465.22
37.2452	519.36
37.2596	519.16
37.2741	530.75
37.2885	512.76
37.3029	494.52
37.3174	500.52
37.3318	516.52
37.3463	489.57
37.3607	512.05
37.3751	495.62
37.3896	499.70
37.4040	504.15
37.4185	521.44
37.4329	565.24
37.4473	516.73
37.4618	499.18
37.4762	530.85
37.4907	523.74
37.5051	509.03
37.5195	497.17
37.5340	516.71
37.5484	485.70
37.5629	519.30
37.5773	529.64
37.5917	532.35
37.6062	505.17
37.6206	522.31
37.6351	545.91
37.6495	496.21
37.6639	506.86
37.6784	483.35
37.6928	482.28
37.7073	515.90
37.7217	516.57
37.7361	503.73
37.7506	528.00
37.7650	494.58
37.7795	515.31
37.7939	537.31
37.8083	505.93
37.8228	488.68
37.8372	497.14
37.8517	489.74
37.8661	540.40
37.8805	519.30
37.8950	482.99
37.9094	503.66
37.9239	495.99
37.9383	515.06
37.9528	532.46
37.9672	464.89
37.9816	510.07
37.9961	518.68
38.0105	507.58
38.0250	522.61
38.0394	498.95
38.0538	451.97
38.0683	478.31
38.0827	487.92
38.0972	499.59
38.1116	529.60
38.1260	530.15
38.1405	496.14
38.1549	495.24
38.1694	495.68
38.1838	516.44
38.1982	521.16
38.2127	492.39
38.2271	486.71
38.2416	509.53
38.2560	516.56
38.2704	491.21
38.2849	519.06
38.2993	496.61
38.3138	505.25
38.3282	519.41
38.3426	521.65
38.3571	514.12
38.3715	498.81
38.3860	560.81
38.4004	538.71
38.4148	524.06
38.4293	554.52
38.4437	535.88
38.4582	598.15
38.4726	701.60
38.4870	703.19
38.5015	710.45
38.5159	764.45
38.5304	803.31
38.5448	840.68
38.5592	824.53
38.5737	759.83
38.5881	725.01
38.6026	725.17
38.6170	728.76
38.6314	704.64
38.6459	662.84
38.6603	612.83
38.6748	615.75
38.6892	583.89
38.7036	581.35
38.7181	577.83
38.7325	535.37
38.7470	520.85
38.7614	469.40
38.7758	465.61
38.7903	520.49
38.8047	550.44
38.8192	509.77
38.8336	506.73
38.8480	489.22
38.8625	539.74
38.8769	498.69
38.8914	481.34
38.9058	532.14
38.9202	496.32
38.9347	483.33
38.9491	483.26
38.9636	505.54
38.9780	498.38
38.9924	475.30
39.0069	478.82
39.0213	529.21
39.0358	516.33
39.0502	488.68
39.0646	508.09
39.0791	505.13
39.0935	532.87
39.1080	504.86
39.1224	490.25
39.1368	501.51
39.1513	456.21
39.1657	496.08
39.1802	494.23
39.1946	485.48
39.2090	507.53
39.2235	491.75
39.2379	496.58
39.2524	509.79
39.2668	487.29
39.2812	511.78
39.2957	491.41
39.3101	514.29
39.3246	544.61
39.3390	510.18
39.3534	524.58
39.3679	515.80
39.3823	528.22
39.3968	505.12
39.4112	507.16
39.4256	497.46
39.4401	511.56
39.4545	508.57
39.4690	498.68
39.4834	502.55
39.4978	496.99
39.5123	470.23
39.5267	518.44
39.5412	490.51
39.5556	490.09
39.5700	472.49
39.5845	510.11
39.5989	492.76
39.6134	483.23
39.6278	488.45
39.6422	509.73
39.6567	511.61
39.6711	495.16
39.6856	499.74
39.7000	503.71
39.7144	492.70
39.7289	492.83
39.7433	477.27
39.7578	495.53
39.7722	504.26
39.7866	544.39
39.8011	510.34
39.8155	485.44
39.8300	456.85
39.8444	492.06
39.8588	493.12
39.8733	500.50
39.8877	513.01
39.9022	534.40
39.9166	471.77
39.9310	494.75
39.9455	483.99
39.9599	511.83
39.9744	500.80
39.9888	483.08
40.0032	474.13
40.0177	457.37
40.0321	482.15
40.0466	475.25
40.0610	479.67
40.0754	477.94
40.0899	511.05
40.1043	461.49
40.1188	525.62
40.1332	504.66
40.1476	491.43
40.1621	504.52
40.1765	474.20
40.1910	497.49
40.2054	525.27
40.2198	513.74
40.2343	473.67
40.2487	490.55
40.2632	475.02
40.2776	476.09
40.2920	498.15
40.3065	481.93
40.3209	464.25
40.3354	502.79
40.3498	483.67
40.3642	502.72
40.3787	532.64
40.3931	488.27
40.4076	484.43
40.4220	446.21
40.4364	450.41
40.4509	501.42
40.4653	519.21
40.4798	542.54
40.4942	498.13
40.5086	495.84
40.5231	482.31
40.5375	483.58
40.5520	479.73
40.5664	488.70
40.5808	512.19
40.5953	511.62
40.6097	509.58
40.6242	507.25
40.6386	507.23
40.6530	483.85
40.6675	525.62
40.6819	530.41
40.6964	485.84
40.7108	501.82
40.7252	536.15
40.7397	492.60
40.7541	527.66
40.7686	469.81
40.7830	501.57
40.7974	477.34
40.8119	505.72
40.8263	503.65
40.8408	510.87
40.8552	514.41
40.8696	501.48
40.8841	488.25
40.8985	513.63
40.9130	512.31
40.9274	506.56
40.9418	506.80
40.9563	503.16
40.9707	514.12
40.9852	492.52
40.9996	487.48
41.0140	497.95
41.0285	510.19
41.0429	500.34
41.0574	498.71
41.0718	489.02
41.0862	499.42
41.1007	524.21
41.1151	518.78
41.1296	512.34
41.1440	476.72
41.1584	530.70
41.1729	506.62
41.1873	500.21
41.2018	511.78
41.2162	490.48
41.2306	518.84
41.2451	505.47
41.2595	486.96
41.2740	497.04
41.2884	504.08
41.3028	472.18
41.3173	471.70
41.3317	517.43
41.3462	511.70
41.3606	515.96
41.3750	503.28
41.3895	459.01
41.4039	516.15
41.4184	522.15
41.4328	518.58
41.4472	538.33
41.4617	520.75
41.4761	515.14
41.4906	511.60
41.5050	524.63
41.5194	501.18
41.5339	510.08
41.5483	512.29
41.5628	509.74
41.5772	514.10
41.5916	506.63
41.6061	496.14
41.6205	477.61
41.6350	509.16
41.6494	506.05
41.6639	485.03
41.6783	498.49
41.6927	500.83
41.7072	487.51
41.7216	522.41
41.7361	509.96
41.7505	483.04
41.7649	512.83
41.7794	502.20
41.7938	520.48
41.8083	510.32
41.8227	511.13
41.8371	533.40
41.8516	527.42
41.8660	565.17
41.8805	518.33
41.8949	564.74
41.9093	585.05
41.9238	574.05
41.9382	595.22
41.9527	557.37
41.9671	589.60
41.9815	569.52
41.9960	537.42
42.0104	523.59
42.0249	526.29
42.0393	557.60
42.0537	596.43
42.0682	561.03
42.0826	608.60
42.0971	620.82
42.1115	573.05
42.1259	597.03
42.1404	577.89
42.1548	588.62
42.1693	624.58
42.1837	655.39
42.1981	744.74
42.2126	822.00
42.2270	918.39
42.2415	1003.20
42.2559	1150.08
42.2703	1290.49
42.2848	1462.75
42.2992	1578.71
42.3137	1616.95
42.3281	1600.60
42.3425	1557.61
42.3570	1509.48
42.3714	1385.27
42.3859	1392.41
42.4003	1352.35
42.4147	1391.28
42.4292	1325.38
42.4436	1151.65
42.4581	1070.63
42.4725	995.05
42.4869	880.68
42.5014	801.89
42.5158	721.70
42.5303	669.19
42.5447	680.23
42.5591	625.00
42.5736	607.64
42.5880	584.05
42.6025	554.91
42.6169	556.92
42.6313	549.14
42.6458	518.00
42.6602	494.37
42.6747	506.12
42.6891	523.83
42.7035	564.87
42.7180	530.34
42.7324	500.90
42.7469	534.04
42.7613	525.07
42.7757	534.33
42.7902	507.27
42.8046	493.14
42.8191	543.06
42.8335	567.96
42.8479	556.17
42.8624	531.94
42.8768	504.43
42.8913	509.95
42.9057	533.35
42.9201	490.71
42.9346	510.01
42.9490	519.09
42.9635	503.02
42.9779	500.77
42.9923	531.50
43.0068	530.56
43.0212	540.66
43.0357	516.89
43.0501	523.31
43.0645	550.90
43.0790	547.50
43.0934	528.68
43.1079	524.03
43.1223	530.55
43.1367	534.20
43.1512	525.94
43.1656	533.31
43.1801	539.14
43.1945	523.45
43.2089	526.44
43.2234	527.53
43.2378	530.04
43.2523	515.76
43.2667	516.22
43.2811	542.26
43.2956	534.27
43.3100	496.04
43.3245	562.50
43.3389	534.06
43.3533	493.58
43.3678	491.10
43.3822	526.92
43.3967	515.85
43.4111	507.20
43.4255	499.03
43.4400	522.02
43.4544	494.70
43.4689	526.85
43.4833	522.71
43.4977	485.49
43.5122	491.11
43.5266	531.50
43.5411	543.03
43.5555	517.67
43.5699	511.53
43.5844	538.03
43.5988	526.42
43.6133	532.87
43.6277	556.32
43.6421	508.36
43.6566	519.73
43.6710	513.96
43.6855	499.50
43.6999	575.66
43.7143	589.47
43.7288	593.01
43.7432	625.77
43.7577	648.38
43.7721	656.02
43.7865	681.77
43.8010	678.44
43.8154	695.67
43.8299	666.81
43.8443	644.32
43.8587	619.07
43.8732	634.92
43.8876	652.65
43.9021	636.87
43.9165	620.74
43.9309	600.44
43.9454	587.48
43.9598	557.10
43.9743	531.05
43.9887	546.46
44.0031	543.94
44.0176	527.93
44.0320	541.69
44.0465	506.88
44.0609	533.03
44.0753	538.89
44.0898	533.21
44.1042	518.54
44.1187	503.68
44.1331	531.98
44.1475	497.56
44.1620	554.37
44.1764	481.39
44.1909	505.33
44.2053	502.33
44.2197	540.83
44.2342	530.23
44.2486	521.26
44.2631	529.91
44.2775	532.07
44.2919	519.15
44.3064	501.09
44.3208	485.68
44.3353	540.48
44.3497	563.00
44.3641	556.25
44.3786	562.38
44.3930	555.12
44.4075	563.74
44.4219	562.15
44.4363	566.38
44.4508	572.60
44.4652	610.81
44.4797	625.20
44.4941	577.67
44.5085	574.86
44.5230	583.30
44.5374	547.23
44.5519	588.32
44.5663	585.36
44.5807	558.21
44.5952	597.15
44.6096	564.43
44.6241	560.17
44.6385	564.07
44.6529	589.37
44.6674	599.28
44.6818	560.96
44.6963	604.00
44.7107	661.86
44.7251	699.99
44.7396	745.56
44.7540	808.29
44.7685	822.38
44.7829	854.01
44.7973	886.38
44.8118	881.53
44.8262	835.82
44.8407	808.93
44.8551	776.57
44.8695	715.30
44.8840	692.96
44.8984	761.56
44.9129	742.68
44.9273	676.25
44.9417	715.38
44.9562	622.00
44.9706	588.27
44.9851	558.22
44.9995	562.05
45.0139	497.65
45.0284	520.26
45.0428	547.79
45.0573	533.10
45.0717	554.96
45.0861	546.08
45.1006	530.35
45.1150	510.95
45.1295	537.14
45.1439	491.45
45.1583	489.42
45.1728	542.29
45.1872	496.01
45.2017	517.52
45.2161	519.17
45.2305	494.56
45.2450	492.31
45.2594	508.46
45.2739	527.94
45.2883	518.16
45.3028	528.98
45.3172	528.23
45.3316	547.38
45.3461	502.56
45.3605	498.79
45.3750	506.45
45.3894	513.91
45.4038	505.16
45.4183	521.12
45.4327	523.09
45.4472	487.25
45.4616	509.21
45.4760	504.48
45.4905	512.97
45.5049	517.11
45.5194	493.11
45.5338	506.00
45.5482	500.18
45.5627	506.53
45.5771	476.51
45.5916	495.96
45.6060	514.25
45.6204	495.74
45.6349	499.51
45.6493	546.05
45.6638	544.20
45.6782	538.40
45.6926	507.52
45.7071	519.42
45.7215	501.43
45.7360	476.74
45.7504	521.52
45.7648	495.90
45.7793	495.65
45.7937	497.80
45.8082	505.62
45.8226	512.12
45.8370	523.15
45.8515	521.71
45.8659	549.20
45.8804	501.94
45.8948	513.95
45.9092	471.21
45.9237	489.06
45.9381	494.90
45.9526	442.83
45.9670	465.74
45.9814	505.08
45.9959	501.43
46.0103	477.01
46.0248	519.12
46.0392	513.22
46.0536	488.78
46.0681	485.44
46.0825	495.99
46.0970	513.51
46.1114	502.06
46.1258	508.49
46.1403	508.76
46.1547	492.53
46.1692	514.06
46.1836	468.88
46.1980	479.36
46.2125	493.74
46.2269	492.38
46.2414	466.10
46.2558	467.54
46.2702	495.46
46.2847	483.67
46.2991	498.29
46.3136	501.67
46.3280	523.90
46.3424	482.81
46.3569	490.22
46.3713	479.67
46.3858	453.71
46.4002	466.51
46.4146	487.01
46.4291	535.91
46.4435	481.65
46.4580	490.27
46.4724	520.66
46.4868	511.81
46.5013	509.17
46.5157	507.27
46.5302	482.71
46.5446	518.23
46.5590	510.51
46.5735	495.07
46.5879	498.29
46.6024	486.67
46.6168	516.77
46.6312	485.06
46.6457	474.96
46.6601	473.96
46.6746	510.13
46.6890	516.07
46.7034	482.99
46.7179	522.44
46.7323	506.35
46.7468	518.73
46.7612	485.16
46.7756	515.13
46.7901	513.07
46.8045	515.88
46.8190	497.01
46.8334	511.35
46.8478	520.27
46.8623	508.72
46.8767	482.00
46.8912	473.89
46.9056	505.61
46.9200	510.46
46.9345	512.93
46.9489	493.38
46.9634	488.20
46.9778	490.00
46.9922	499.94
47.0067	511.51
47.0211	516.63
47.0356	534.41
47.0500	532.90
47.0644	523.18
47.0789	497.06
47.0933	504.18
47.1078	503.40
47.1222	503.80
47.1366	518.33
47.1511	489.20
47.1655	494.46
47.1800	536.23
47.1944	480.14
47.2088	505.18
47.2233	519.79
47.2377	535.43
47.2522	529.88
47.2666	509.16
47.2810	525.66
47.2955	498.39
47.3099	511.92
47.3244	544.43
47.3388	512.80
47.3532	553.84
47.3677	471.44
47.3821	494.63
47.3966	503.95
47.4110	502.37
47.4254	497.47
47.4399	490.54
47.4543	493.40
47.4688	527.76
47.4832	538.08
47.4976	486.62
47.5121	511.33
47.5265	544.56
47.5410	493.36
47.5554	485.45
47.5698	503.86
47.5843	524.95
47.5987	517.37
47.6132	513.02
47.6276	495.94
47.6420	529.33
47.6565	516.33
47.6709	503.25
47.6854	521.40
47.6998	502.74
47.7142	490.18
47.7287	485.91
47.7431	521.33
47.7576	515.71
47.7720	511.27
47.7864	491.93
47.8009	494.74
47.8153	520.31
47.8298	520.65
47.8442	505.40
47.8586	493.55
47.8731	500.48
47.8875	509.69
47.9020	512.52
47.9164	508.24
47.9308	552.21
47.9453	505.96
47.9597	518.05
47.9742	461.74
47.9886	494.62
48.0030	494.07
48.0175	507.43
48.0319	495.11
48.0464	498.71
48.0608	520.24
48.0752	510.41
48.0897	521.68
48.1041	490.24
48.1186	511.87
48.1330	514.74
48.1474	516.85
48.1619	460.53
48.1763	491.79
48.1908	480.41
48.2052	448.37
48.2196	481.95
48.2341	500.65
48.2485	517.34
48.2630	489.59
48.2774	548.14
48.2918	518.66
48.3063	494.69
48.3207	519.06
48.3352	510.30
48.3496	538.04
48.3640	541.96
48.3785	534.54
48.3929	501.34
48.4074	529.78
48.4218	493.97
48.4362	504.32
48.4507	502.11
48.4651	484.31
48.4796	483.41
48.4940	471.70
48.5084	479.95
48.5229	510.18
48.5373	522.17
48.5518	514.26
48.5662	512.16
48.5806	533.05
48.5951	505.31
48.6095	519.26
48.6240	546.96
48.6384	492.52
48.6528	520.67
48.6673	499.46
48.6817	491.02
48.6962	495.90
48.7106	555.98
48.7250	569.89
48.7395	523.34
48.7539	535.49
48.7684	545.25
48.7828	516.24
48.7972	535.37
48.8117	540.19
48.8261	516.60
48.8406	496.25
48.8550	565.75
48.8694	526.27
48.8839	536.29
48.8983	533.22
48.9128	547.97
48.9272	553.39
48.9416	541.52
48.9561	577.34
48.9705	587.22
48.9850	608.45
48.9994	560.13
49.0139	554.71
49.0283	618.68
49.0427	620.59
49.0572	639.45
49.0716	629.31
49.0861	677.96
49.1005	678.05
49.1149	712.14
49.1294	766.55
49.1438	728.21
49.1583	757.91
49.1727	812.17
49.1871	840.41
49.2016	920.81
49.2160	972.63
49.2305	1073.79
49.2449	1145.84
49.2593	1204.45
49.2738	1317.64
49.2882	1419.11
49.3027	1476.07
49.3171	1545.70
49.3315	1620.02
49.3460	1696.42
49.3604	1726.82
49.3749	1722.24
49.3893	1653.86
49.4037	1727.81
49.4182	1775.43
49.4326	1766.92
49.4471	1684.88
49.4615	1628.47
49.4759	1608.12
49.4904	1482.64
49.5048	1405.12
49.5193	1282.86
49.5337	1304.90
49.5481	1209.68
49.5626	1137.26
49.5770	1070.32
49.5915	1006.14
49.6059	926.90
49.6203	860.15
49.6348	799.71
49.6492	763.25
49.6637	744.84
49.6781	739.09
49.6925	709.84
49.7070	684.21
49.7214	677.42
49.7359	628.69
49.7503	622.03
49.7647	588.04
49.7792	602.31
49.7936	574.47
49.8081	584.01
49.8225	558.99
49.8369	576.37
49.8514	560.05
49.8658	546.38
49.8803	526.98
49.8947	542.51
49.9091	555.11
49.9236	555.83
49.9380	548.35
49.9525	538.97
49.9669	543.89
49.9813	488.22
49.9958	543.18
50.0102	536.32
50.0247	530.23
50.0391	497.63
50.0535	508.47
50.0680	523.63
50.0824	533.24
50.0969	507.79
50.1113	505.67
50.1257	529.10
50.1402	491.27
50.1546	482.88
50.1691	540.21
50.1835	536.03
50.1979	530.95
50.2124	524.84
50.2268	505.07
50.2413	523.06
50.2557	512.49
50.2701	506.96
50.2846	516.49
50.2990	488.65
50.3135	508.97
50.3279	515.64
50.3423	508.26
50.3568	533.87
50.3712	514.62
50.3857	504.12
50.4001	442.76
50.4145	487.78
50.4290	530.59
50.4434	482.89
50.4579	501.07
50.4723	538.49
50.4867	502.69
50.5012	523.11
50.5156	543.64
50.5301	533.92
50.5445	527.75
50.5589	547.10
50.5734	539.97
50.5878	531.36
50.6023	535.87
50.6167	527.75
50.6311	532.29
50.6456	533.51
50.6600	537.33
50.6745	516.62
50.6889	513.82
50.7033	540.20
50.7178	505.37
50.7322	501.16
50.7467	510.84
50.7611	518.72
50.7755	519.16
50.7900	534.82
50.8044	538.15
50.8189	518.52
50.8333	498.66
50.8477	512.36
50.8622	490.39
50.8766	523.51
50.8911	508.28
50.9055	549.66
50.9199	538.20
50.9344	515.13
50.9488	536.51
50.9633	515.76
50.9777	506.96
50.9921	508.93
51.0066	486.84
51.0210	494.92
51.0355	521.27
51.0499	491.37
51.0643	527.34
51.0788	517.93
51.0932	528.56
51.1077	541.69
51.1221	536.23
51.1365	508.74
51.1510	470.55
51.1654	534.66
51.1799	525.25
51.1943	475.49
51.2087	495.76
51.2232	518.18
51.2376	507.01
51.2521	496.48
51.2665	468.73
51.2809	506.15
51.2954	530.41
51.3098	537.62
51.3243	530.20
51.3387	520.73
51.3531	503.36
51.3676	535.60
51.3820	496.64
51.3965	486.84
51.4109	501.56
51.4253	530.09
51.4398	499.37
51.4542	516.07
51.4687	498.66
51.4831	513.51
51.4975	509.75
51.5120	493.45
51.5264	499.09
51.5409	522.60
51.5553	531.56
51.5697	534.33
51.5842	509.53
51.5986	532.20
51.6131	508.34
51.6275	482.63
51.6419	509.34
51.6564	541.98
51.6708	506.53
51.6853	498.20
51.6997	546.46
51.7141	526.54
51.7286	474.73
51.7430	496.01
51.7575	505.60
51.7719	484.89
51.7863	492.33
51.8008	521.11
51.8152	510.70
51.8297	545.03
51.8441	514.78
51.8585	546.15
51.8730	546.61
51.8874	522.69
51.9019	531.24
51.9163	508.14
51.9307	496.74
51.9452	527.95
51.9596	511.77
51.9741	537.33
51.9885	509.46
52.0029	488.27
52.0174	498.07
52.0318	517.92
52.0463	507.83
52.0607	527.35
52.0751	505.76
52.0896	517.09
52.1040	511.05
52.1185	530.78
52.1329	486.89
52.1473	483.09
52.1618	484.47
52.1762	508.23
52.1907	475.36
52.2051	516.90
52.2195	535.94
52.2340	519.97
52.2484	502.27
52.2629	522.74
52.2773	533.55
52.2917	493.27
52.3062	530.33
52.3206	531.06
52.3351	515.72
52.3495	482.88
52.3639	518.16
52.3784	544.00
52.3928	551.24
52.4073	525.89
52.4217	482.71
52.4361	528.20
52.4506	537.11
52.4650	530.17
52.4795	520.32
52.4939	532.57
52.5083	524.59
52.5228	517.05
52.5372	546.60
52.5517	468.55
52.5661	531.57
52.5805	511.13
52.5950	504.23
52.6094	501.31
52.6239	528.20
52.6383	553.93
52.6527	533.25
52.6672	520.59
52.6816	481.96
52.6961	518.41
52.7105	519.04
52.7250	486.43
52.7394	488.58
52.7538	537.21
52.7683	516.81
52.7827	518.08
52.7972	517.21
52.8116	515.40
52.8260	533.22
52.8405	505.66
52.8549	534.24
52.8694	510.58
52.8838	501.69
52.8982	504.92
52.9127	524.39
52.9271	509.94
52.9416	506.16
52.9560	459.98
52.9704	511.02
52.9849	503.49
52.9993	515.99
53.0138	511.01
53.0282	509.37
53.0426	491.13
53.0571	554.78
53.0715	508.86
53.0860	525.78
53.1004	543.19
53.1148	515.62
53.1293	506.25
53.1437	477.41
53.1582	512.64
53.1726	554.55
53.1870	496.71
53.2015	519.02
53.2159	531.88
53.2304	485.69
53.2448	520.61
53.2592	511.74
53.2737	506.83
53.2881	542.74
53.3026	513.62
53.3170	499.04
53.3314	513.43
53.3459	543.99
53.3603	519.97
53.3748	520.90
53.3892	500.68
53.4036	515.05
53.4181	507.44
53.4325	546.98
53.4470	504.26
53.4614	551.59
53.4758	534.88
53.4903	502.98
53.5047	499.32
53.5192	480.79
53.5336	498.10
53.5480	518.65
53.5625	509.73
53.5769	480.60
53.5914	517.41
53.6058	507.16
53.6202	486.04
53.6347	493.59
53.6491	530.65
53.6636	512.72
53.6780	479.57
53.6924	540.08
53.7069	529.53
53.7213	529.67
53.7358	524.15
53.7502	543.19
53.7646	506.84
53.7791	536.78
53.7935	528.50
53.8080	491.46
53.8224	516.58
53.8368	538.86
53.8513	499.60
53.8657	520.97
53.8802	496.72
53.8946	520.41
53.9090	514.30
53.9235	495.34
53.9379	537.09
53.9524	517.97
53.9668	497.65
53.9812	525.79
53.9957	512.79
54.0101	504.39
54.0246	493.31
54.0390	541.06
54.0534	506.59
54.0679	518.20
54.0823	557.92
54.0968	537.69
54.1112	509.80
54.1256	531.46
54.1401	517.34
54.1545	510.37
54.1690	494.34
54.1834	494.07
54.1978	533.36
54.2123	547.93
54.2267	515.12
54.2412	554.52
54.2556	551.03
54.2700	562.76
54.2845	553.07
54.2989	582.28
54.3134	611.12
54.3278	619.42
54.3422	637.85
54.3567	603.05
54.3711	592.11
54.3856	610.90
54.4000	610.55
54.4144	619.47
54.4289	664.45
54.4433	596.20
54.4578	594.87
54.4722	665.79
54.4866	642.89
54.5011	614.44
54.5155	580.93
54.5300	584.40
54.5444	539.65
54.5588	552.09
54.5733	562.34
54.5877	559.92
54.6022	542.26
54.6166	539.94
54.6310	547.64
54.6455	543.47
54.6599	527.81
54.6744	541.94
54.6888	542.51
54.7032	558.80
54.7177	558.15
54.7321	497.04
54.7466	519.11
54.7610	523.45
54.7754	534.50
54.7899	529.37
54.8043	556.47
54.8188	535.19
54.8332	515.18
54.8476	498.09
54.8621	504.44
54.8765	503.71
54.8910	495.42
54.9054	530.54
54.9198	525.86
54.9343	504.28
54.9487	523.29
54.9632	523.65
54.9776	508.48
54.9920	512.04
55.0065	502.22
55.0209	517.13
55.0354	539.67
55.0498	543.87
55.0642	530.84
55.0787	485.15
55.0931	529.35
55.1076	519.62
55.1220	520.80
55.1364	501.96
55.1509	484.25
55.1653	506.60
55.1798	532.05
55.1942	493.86
55.2086	504.82
55.2231	495.82
55.2375	512.51
55.2520	500.62
55.2664	509.44
55.2808	513.41
55.2953	490.39
55.3097	490.56
55.3242	503.41
55.3386	530.68
55.3530	512.34
55.3675	490.66
55.3819	493.86
55.3964	491.67
55.4108	505.33
55.4252	531.39
55.4397	524.56
55.4541	468.25
55.4686	536.18
55.4830	529.27
55.4974	518.18
55.5119	485.45
55.5263	525.37
55.5408	522.40
55.5552	503.04
55.5696	518.87
55.5841	512.37
55.5985	507.99
55.6130	520.00
55.6274	516.52
55.6418	497.80
55.6563	528.03
55.6707	525.63
55.6852	492.10
55.6996	514.34
55.7140	503.43
55.7285	467.41
55.7429	481.32
55.7574	507.84
55.7718	503.83
55.7862	520.05
55.8007	539.43
55.8151	512.36
55.8296	495.98
55.8440	537.88
55.8584	527.39
55.8729	535.33
55.8873	525.88
55.9018	535.10
55.9162	522.51
55.9306	549.08
55.9451	534.97
55.9595	554.70
55.9740	489.04
55.9884	520.98
56.0028	486.15
56.0173	529.22
56.0317	566.81
56.0462	507.56
56.0606	532.36
56.0750	539.27
56.0895	536.88
56.1039	512.96
56.1184	517.01
56.1328	528.83
56.1472	512.10
56.1617	508.63
56.1761	555.05
56.1906	518.80
56.2050	515.06
56.2194	515.91
56.2339	532.23
56.2483	545.70
56.2628	508.68
56.2772	525.33
56.2916	527.16
56.3061	539.52
56.3205	561.38
56.3350	551.46
56.3494	533.22
56.3639	549.45
56.3783	539.43
56.3927	498.90
56.4072	494.66
56.4216	559.10
56.4361	500.30
56.4505	496.52
56.4649	523.18
56.4794	545.74
56.4938	523.06
56.5083	501.65
56.5227	540.90
56.5371	550.44
56.5516	510.41
56.5660	514.30
56.5805	480.81
56.5949	535.44
56.6093	531.46
56.6238	525.39
56.6382	521.16
56.6527	512.57
56.6671	522.09
56.6815	505.51
56.6960	504.48
56.7104	497.72
56.7249	505.14
56.7393	537.04
56.7537	526.51
56.7682	500.44
56.7826	526.95
56.7971	523.56
56.8115	533.14
56.8259	514.97
56.8404	523.94
56.8548	535.93
56.8693	533.33
56.8837	504.64
56.8981	497.78
56.9126	492.67
56.9270	531.46
56.9415	560.11
56.9559	543.47
56.9703	498.80
56.9848	540.67
56.9992	589.89
57.0137	579.63
57.0281	551.50
57.0425	525.33
57.0570	546.27
57.0714	562.07
57.0859	533.88
57.1003	556.22
57.1147	515.16
57.1292	512.77
57.1436	531.67
57.1581	530.19
57.1725	560.24
57.1869	529.46
57.2014	506.40
57.2158	521.72
57.2303	500.22
57.2447	535.93
57.2591	533.96
57.2736	542.11
57.2880	511.70
57.3025	506.09
57.3169	522.05
57.3313	513.23
57.3458	550.88
57.3602	519.82
57.3747	505.71
57.3891	536.23
57.4035	570.91
57.4180	547.19
57.4324	536.30
57.4469	514.72
57.4613	544.27
57.4757	574.56
57.4902	537.75
57.5046	533.05
57.5191	517.37
57.5335	520.22
57.5479	545.56
57.5624	538.71
57.5768	528.92
57.5913	535.05
57.6057	512.06
57.6201	498.53
57.6346	536.60
57.6490	532.74
57.6635	550.42
57.6779	558.20
57.6923	568.89
57.7068	550.23
57.7212	546.64
57.7357	534.11
57.7501	535.09
57.7645	541.41
57.7790	537.00
57.7934	518.31
57.8079	562.63
57.8223	581.05
57.8367	589.31
57.8512	605.25
57.8656	656.78
57.8801	673.90
57.8945	696.94
57.9089	696.93
57.9234	736.36
57.9378	711.87
57.9523	729.21
57.9667	708.68
57.9811	706.01
57.9956	701.86
58.0100	669.44
58.0245	673.96
58.0389	671.71
58.0533	656.51
58.0678	675.76
58.0822	652.14
58.0967	633.04
58.1111	639.28
58.1255	657.73
58.1400	613.17
58.1544	599.74
58.1689	611.26
58.1833	573.29
58.1977	576.40
58.2122	582.34
58.2266	571.54
58.2411	567.96
58.2555	547.98
58.2699	539.61
58.2844	541.48
58.2988	535.40
58.3133	530.74
58.3277	549.61
58.3421	567.04
58.3566	543.05
58.3710	523.58
58.3855	521.56
58.3999	535.08
58.4143	517.26
58.4288	546.23
58.4432	528.40
58.4577	488.31
58.4721	514.16
58.4865	524.75
58.5010	528.62
58.5154	542.79
58.5299	516.94
58.5443	525.26
58.5587	527.84
58.5732	544.02
58.5876	548.31
58.6021	545.51
58.6165	523.85
58.6309	526.42
58.6454	525.22
58.6598	532.49
58.6743	549.07
58.6887	542.60
58.7031	533.13
58.7176	540.48
58.7320	504.50
58.7465	528.16
58.7609	531.57
58.7753	534.33
58.7898	490.71
58.8042	526.95
58.8187	556.22
58.8331	535.28
58.8475	490.83
58.8620	526.82
58.8764	539.22
58.8909	511.10
58.9053	522.20
58.9197	534.98
58.9342	520.71
58.9486	540.11
58.9631	553.41
58.9775	529.95
58.9919	560.79
59.0064	525.57
59.0208	530.13
59.0353	509.81
59.0497	523.86
59.0641	506.79
59.0786	494.80
59.0930	529.32
59.1075	536.83
59.1219	523.93
59.1363	514.66
59.1508	534.11
59.1652	543.64
59.1797	551.07
59.1941	513.66
59.2085	542.62
59.2230	572.02
59.2374	546.79
59.2519	522.14
59.2663	534.46
59.2807	556.04
59.2952	570.98
59.3096	551.55
59.3241	570.90
59.3385	567.45
59.3529	564.01
59.3674	538.67
59.3818	564.85
59.3963	535.44
59.4107	541.87
59.4251	561.51
59.4396	535.60
59.4540	536.03
59.4685	558.98
59.4829	583.50
59.4973	524.08
59.5118	564.96
59.5262	607.69
59.5407	554.87
59.5551	529.45
59.5695	521.30
59.5840	522.54
59.5984	542.32
59.6129	559.11
59.6273	515.72
59.6417	546.58
59.6562	568.15
59.6706	545.89
59.6851	527.26
59.6995	528.25
59.7139	544.55
59.7284	560.84
59.7428	547.45
59.7573	512.08
59.7717	536.61
59.7861	549.24
59.8006	537.73
59.8150	536.82
59.8295	554.80
59.8439	536.69
59.8583	558.05
59.8728	570.28
59.8872	567.02
59.9017	550.93
59.9161	507.90
59.9305	556.48
59.9450	534.16
59.9594	522.75
59.9739	508.52
59.9883	537.33
60.0027	504.61
60.0172	533.85
60.0316	532.55
60.0461	514.59
60.0605	550.88
60.0750	556.60
60.0894	527.73
60.1038	520.66
60.1183	552.93
60.1327	534.73
60.1472	506.78
60.1616	534.42
60.1760	534.41
60.1905	525.56
60.2049	547.43
60.2194	508.39
60.2338	545.55
60.2482	516.61
60.2627	532.47
60.2771	542.71
60.2916	529.16
60.3060	489.61
60.3204	534.21
60.3349	543.97
60.3493	545.98
60.3638	548.83
60.3782	552.84
60.3926	545.29
60.4071	516.42
60.4215	560.13
60.4360	560.13
60.4504	533.67
60.4648	538.78
60.4793	562.87
60.4937	514.95
60.5082	505.79
60.5226	516.11
60.5370	538.00
60.5515	535.54
60.5659	518.13
60.5804	502.24
60.5948	526.34
60.6092	527.56
60.6237	521.66
60.6381	539.05
60.6526	513.30
60.6670	539.56
60.6814	542.56
60.6959	512.70
60.7103	540.87
60.7248	534.03
60.7392	557.29
60.7536	566.87
60.7681	536.43
60.7825	526.29
60.7970	565.34
60.8114	518.82
60.8258	549.58
60.8403	529.57
60.8547	527.77
60.8692	541.84
60.8836	542.05
60.8980	532.82
60.9125	544.83
60.9269	565.79
60.9414	552.65
60.9558	557.90
60.9702	550.89
60.9847	533.29
60.9991	558.34
61.0136	543.10
61.0280	531.55
61.0424	500.65
61.0569	495.14
61.0713	554.54
61.0858	536.98
61.1002	561.55
61.1146	611.90
61.1291	611.71
61.1435	533.42
61.1580	541.54
61.1724	543.64
61.1868	510.90
61.2013	515.55
61.2157	530.21
61.2302	522.88
61.2446	549.16
61.2590	539.10
61.2735	567.40
61.2879	537.74
61.3024	530.64
61.3168	525.91
61.3312	528.76
61.3457	566.64
61.3601	554.50
61.3746	536.08
61.3890	526.07
61.4034	523.20
61.4179	523.49
61.4323	553.75
61.4468	549.10
61.4612	535.24
61.4756	556.56
61.4901	547.89
61.5045	540.68
61.5190	552.60
61.5334	576.98
61.5478	572.02
61.5623	551.37
61.5767	542.38
61.5912	536.09
61.6056	526.48
61.6200	533.31
61.6345	538.97
61.6489	552.01
61.6634	557.99
61.6778	546.81
61.6922	548.97
61.7067	527.13
61.7211	549.09
61.7356	533.94
61.7500	549.96
61.7644	551.67
61.7789	560.65
61.7933	594.23
61.8078	559.98
61.8222	529.11
61.8366	576.44
61.8511	596.65
61.8655	557.82
61.8800	549.58
61.8944	541.37
61.9088	514.81
61.9233	558.12
61.9377	555.40
61.9522	527.91
61.9666	571.77
61.9810	566.51
61.9955	562.95
62.0099	568.69
62.0244	575.70
62.0388	539.05
62.0532	541.03
62.0677	572.52
62.0821	553.52
62.0966	553.93
62.1110	527.72
62.1254	533.68
62.1399	558.86
62.1543	568.24
62.1688	584.67
62.1832	542.98
62.1976	552.33
62.2121	572.92
62.2265	566.51
62.2410	561.72
62.2554	573.12
62.2698	566.83
62.2843	573.46
62.2987	530.59
62.3132	556.33
62.3276	572.33
62.3420	551.82
62.3565	543.28
62.3709	562.39
62.3854	529.96
62.3998	526.03
62.4142	553.54
62.4287	586.47
62.4431	543.22
62.4576	553.02
62.4720	593.20
62.4864	578.62
62.5009	571.34
62.5153	572.22
62.5298	548.89
62.5442	580.76
62.5586	574.33
62.5731	562.00
62.5875	558.16
62.6020	588.55
62.6164	539.65
62.6308	554.18
62.6453	555.90
62.6597	559.10
62.6742	554.24
62.6886	555.12
62.7030	563.88
62.7175	554.95
62.7319	537.39
62.7464	566.83
62.7608	542.50
62.7752	563.75
62.7897	547.85
62.8041	561.36
62.8186	546.29
62.8330	547.42
62.8474	548.88
62.8619	578.02
62.8763	557.35
62.8908	541.74
62.9052	552.76
62.9196	563.97
62.9341	559.23
62.9485	549.02
62.9630	563.72
62.9774	597.43
62.9918	587.09
63.0063	609.67
63.0207	583.57
63.0352	569.93
63.0496	585.39
63.0640	582.02
63.0785	600.40
63.0929	608.55
63.1074	589.46
63.1218	580.78
63.1362	576.55
63.1507	522.71
63.1651	562.82
63.1796	607.48
63.1940	552.88
63.2084	564.08
63.2229	551.39
63.2373	598.00
63.2518	582.69
63.2662	576.14
63.2806	592.29
63.2951	596.00
63.3095	574.96
63.3240	564.18
63.3384	613.53
63.3528	587.42
63.3673	606.29
63.3817	599.35
63.3962	557.25
63.4106	595.70
63.4250	610.49
63.4395	586.89
63.4539	611.09
63.4684	651.14
63.4828	617.61
63.4972	646.05
63.5117	692.58
63.5261	709.99
63.5406	719.92
63.5550	741.78
63.5694	815.59
63.5839	876.82
63.5983	929.84
63.6128	984.12
63.6272	983.10
63.6416	965.27
63.6561	945.59
63.6705	971.35
63.6850	930.55
63.6994	866.52
63.7138	839.12
63.7283	751.28
63.7427	768.34
63.7572	766.61
63.7716	782.37
63.7861	799.93
63.8005	812.28
63.8149	794.57
63.8294	786.92
63.8438	740.78
63.8583	726.58
63.8727	771.87
63.8871	691.04
63.9016	714.35
63.9160	672.07
63.9305	613.40
63.9449	636.13
63.9593	650.02
63.9738	650.78
63.9882	651.20
64.0027	579.22
64.0171	595.82
64.0315	596.52
64.0460	607.29
64.0604	621.96
64.0749	607.95
64.0893	621.54
64.1037	624.93
64.1182	589.55
64.1326	606.48
64.1471	595.16
64.1615	592.86
64.1759	594.39
64.1904	618.29
64.2048	624.16
64.2193	597.34
64.2337	551.77
64.2481	596.88
64.2626	597.55
64.2770	629.44
64.2915	600.68
64.3059	626.05
64.3203	589.54
64.3348	612.99
64.3492	604.77
64.3637	574.33
64.3781	559.37
64.3925	598.05
64.4070	576.25
64.4214	624.36
64.4359	596.86
64.4503	583.12
64.4647	626.67
64.4792	650.10
64.4936	623.46
64.5081	630.77
64.5225	605.24
64.5369	616.82
64.5514	655.27
64.5658	659.08
64.5803	633.39
64.5947	626.97
64.6091	625.00
64.6236	577.39
64.6380	638.86
64.6525	654.22
64.6669	655.20
64.6813	661.51
64.6958	657.35
64.7102	680.40
64.7247	688.31
64.7391	715.95
64.7535	716.20
64.7680	725.12
64.7824	746.42
64.7969	730.11
64.8113	760.61
64.8257	778.22
64.8402	800.52
64.8546	845.62
64.8691	784.00
64.8835	845.74
64.8979	837.79
64.9124	826.58
64.9268	853.90
64.9413	913.56
64.9557	983.98
64.9701	1023.71
64.9846	1044.85
64.9990	1084.99
65.0135	1301.78
65.0279	1467.98
65.0423	1623.62
65.0568	1999.76
65.0712	2530.06
65.0857	3269.32
65.1001	4406.33
65.1145	5907.51
65.1290	7749.92
65.1434	9312.67
65.1579	10950.44
65.1723	11797.01
65.1867	11415.35
65.2012	10229.68
65.2156	8630.87
65.2301	6786.95
65.2445	5478.87
65.2589	4544.25
65.2734	4277.64
65.2878	4540.69
65.3023	4932.79
65.3167	5696.28
65.3311	6472.09
65.3456	7050.78
65.3600	6977.84
65.3745	6446.20
65.3889	5651.11
65.4033	4618.02
65.4178	3629.52
65.4322	2886.63
65.4467	2132.95
65.4611	1728.82
65.4755	1532.86
65.4900	1319.05
65.5044	1157.43
65.5189	1080.20
65.5333	975.15
65.5477	918.63
65.5622	907.86
65.5766	886.68
65.5911	878.61
65.6055	803.47
65.6199	735.07
65.6344	761.30
65.6488	731.50
65.6633	755.52
65.6777	740.87
65.6921	699.37
65.7066	705.16
65.7210	709.64
65.7355	694.60
65.7499	672.16
65.7643	669.23
65.7788	696.28
65.7932	678.94
65.8077	670.23
65.8221	659.11
65.8365	655.23
65.8510	647.85
65.8654	629.44
65.8799	675.63
65.8943	670.52
65.9087	680.29
65.9232	655.98
65.9376	648.34
65.9521	624.70
65.9665	622.05
65.9809	630.99
65.9954	613.04
66.0098	596.68
66.0243	649.68
66.0387	624.18
66.0531	624.61
66.0676	591.56
66.0820	571.94
66.0965	642.72
66.1109	640.53
66.1253	631.08
66.1398	641.90
66.1542	592.55
66.1687	602.97
66.1831	633.09
66.1975	632.92
66.2120	601.28
66.2264	615.29
66.2409	617.32
66.2553	627.22
66.2697	648.76
66.2842	627.92
66.2986	602.38
66.3131	625.57
66.3275	579.49
66.3419	567.56
66.3564	580.15
66.3708	586.50
66.3853	577.85
66.3997	614.60
66.4141	611.00
66.4286	652.26
66.4430	614.01
66.4575	571.46
66.4719	631.83
66.4863	573.70
66.5008	567.22
66.5152	572.97
66.5297	552.50
66.5441	577.61
66.5585	569.95
66.5730	614.25
66.5874	595.97
66.6019	588.74
66.6163	607.53
66.6307	579.65
66.6452	557.46
66.6596	579.20
66.6741	568.85
66.6885	584.72
66.7029	592.00
66.7174	603.66
66.7318	612.71
66.7463	579.87
66.7607	567.63
66.7751	582.11
66.7896	618.43
66.8040	617.15
66.8185	579.15
66.8329	551.83
66.8473	582.18
66.8618	630.68
66.8762	596.20
66.8907	587.51
66.9051	619.30
66.9195	595.21
66.9340	610.99
66.9484	628.73
66.9629	613.74
66.9773	599.18
66.9917	586.25
67.0062	618.72
67.0206	614.20
67.0351	561.24
67.0495	555.18
67.0639	576.01
67.0784	575.29
67.0928	554.42
67.1073	547.52
67.1217	588.85
67.1361	592.38
67.1506	562.59
67.1650	590.82
67.1795	569.27
67.1939	584.44
67.2083	578.63
67.2228	596.63
67.2372	576.82
67.2517	582.94
67.2661	541.03
67.2805	567.17
67.2950	559.89
67.3094	553.07
67.3239	545.10
67.3383	577.45
67.3527	629.95
67.3672	584.93
67.3816	617.40
67.3961	575.13
67.4105	545.50
67.4250	596.59
67.4394	579.08
67.4538	554.06
67.4683	574.29
67.4827	628.59
67.4972	591.53
67.5116	553.02
67.5260	575.13
67.5405	599.56
67.5549	539.46
67.5694	563.56
67.5838	585.70
67.5982	564.53
67.6127	599.95
67.6271	613.74
67.6416	559.86
67.6560	542.93
67.6704	575.28
67.6849	591.47
67.6993	582.24
67.7138	575.89
67.7282	565.98
67.7426	605.91
67.7571	604.88
67.7715	601.64
67.7860	547.83
67.8004	583.51
67.8148	590.86
67.8293	562.32
67.8437	542.70
67.8582	587.35
67.8726	618.06
67.8870	607.76
67.9015	635.13
67.9159	617.08
67.9304	621.73
67.9448	606.65
67.9592	596.06
67.9737	588.60
67.9881	589.60
68.0026	567.41
68.0170	606.44
68.0314	573.05
68.0459	535.07
68.0603	574.89
68.0748	555.23
68.0892	538.97
68.1036	534.75
68.1181	606.36
68.1325	589.05
68.1470	565.21
68.1614	588.53
68.1758	573.29
68.1903	562.56
68.2047	585.37
68.2192	635.04
68.2336	552.41
68.2480	583.84
68.2625	552.67
68.2769	552.24
68.2914	576.60
68.3058	547.42
68.3202	593.13
68.3347	584.05
68.3491	568.09
68.3636	577.11
68.3780	569.12
68.3924	590.66
68.4069	551.45
68.4213	592.19
68.4358	589.56
68.4502	576.67
68.4646	571.88
68.4791	582.99
68.4935	564.98
68.5080	563.86
68.5224	577.43
68.5368	597.62
68.5513	577.67
68.5657	556.30
68.5802	528.00
68.5946	541.43
68.6090	587.76
68.6235	551.79
68.6379	574.35
68.6524	559.14
68.6668	599.07
68.6812	558.88
68.6957	527.12
68.7101	531.66
68.7246	560.00
68.7390	553.77
68.7534	548.89
68.7679	547.20
68.7823	534.21
68.7968	562.94
68.8112	567.46
68.8256	553.28
68.8401	552.44
68.8545	567.18
68.8690	608.41
68.8834	602.30
68.8978	587.37
68.9123	584.24
68.9267	578.62
68.9412	570.52
68.9556	554.39
68.9700	604.18
68.9845	534.51
68.9989	550.88
69.0134	573.31
69.0278	570.69
69.0422	618.81
69.0567	611.66
69.0711	599.31
69.0856	612.36
69.1000	551.18
69.1144	559.92
69.1289	628.95
69.1433	500.74
69.1578	597.37
69.1722	560.90
69.1866	552.41
69.2011	585.62
69.2155	568.01
69.2300	594.65
69.2444	609.69
69.2588	585.94
69.2733	589.27
69.2877	572.37
69.3022	548.24
69.3166	549.26
69.3310	564.58
69.3455	557.41
69.3599	626.30
69.3744	547.29
69.3888	572.20
69.4032	585.32
69.4177	559.14
69.4321	581.10
69.4466	541.28
69.4610	543.00
69.4754	589.33
69.4899	552.13
69.5043	558.04
69.5188	556.94
69.5332	593.05
69.5476	610.83
69.5621	592.03
69.5765	611.85
69.5910	581.15
69.6054	538.31
69.6198	572.46
69.6343	596.43
69.6487	574.24
69.6632	564.50
69.6776	577.25
69.6920	565.12
69.7065	595.43
69.7209	572.25
69.7354	558.08
69.7498	572.15
69.7642	547.39
69.7787	577.21
69.7931	585.36
69.8076	620.25
69.8220	572.75
69.8364	597.69
69.8509	584.93
69.8653	557.33
69.8798	582.72
69.8942	536.59
69.9086	570.47
69.9231	545.45
69.9375	594.32
69.9520	574.77
69.9664	579.32
69.9808	579.81
69.9953	613.24
70.0097	554.43
70.0242	484.33
70.0386	572.58
70.0530	587.35
70.0675	578.55
70.0819	582.88
70.0964	574.89
70.1108	585.63
70.1252	604.86
70.1397	545.27
70.1541	578.62
70.1686	602.43
70.1830	613.82
70.1974	544.25
70.2119	592.11
70.2263	545.18
70.2408	569.69
70.2552	584.82
70.2696	545.51
70.2841	566.12
70.2985	528.53
70.3130	542.13
70.3274	605.39
70.3418	648.91
70.3563	583.14
70.3707	556.26
70.3852	587.04
70.3996	592.35
70.4140	583.19
70.4285	558.09
70.4429	564.91
70.4574	555.53
70.4718	577.16
70.4862	608.49
70.5007	595.10
70.5151	598.56
70.5296	616.94
70.5440	557.46
70.5584	594.30
70.5729	624.28
70.5873	558.26
70.6018	573.72
70.6162	562.90
70.6306	595.75
70.6451	570.68
70.6595	541.75
70.6740	547.12
70.6884	527.61
70.7028	582.10
70.7173	571.11
70.7317	538.29
70.7462	542.30
70.7606	584.68
70.7750	587.07
70.7895	552.61
70.8039	581.47
70.8184	583.24
70.8328	609.83
70.8472	589.63
70.8617	580.89
70.8761	592.49
70.8906	574.56
70.9050	566.97
70.9194	582.05
70.9339	591.23
70.9483	546.21
70.9628	556.34
70.9772	581.43
70.9916	558.00
71.0061	570.08
71.0205	577.34
71.0350	566.72
71.0494	532.44
71.0638	534.48
71.0783	562.92
71.0927	603.98
71.1072	599.82
71.1216	577.97
71.1361	614.02
71.1505	619.60
71.1649	605.60
71.1794	562.59
71.1938	584.40
71.2083	617.76
71.2227	573.95
71.2371	530.52
71.2516	564.57
71.2660	589.45
71.2805	575.08
71.2949	532.20
71.3093	537.16
71.3238	556.24
71.3382	604.68
71.3527	644.07
71.3671	596.93
71.3815	550.47
71.3960	622.59
71.4104	613.45
71.4249	634.21
71.4393	627.15
71.4537	539.79
71.4682	574.49
71.4826	504.56
71.4971	549.38
71.5115	594.19
71.5259	549.91
71.5404	555.38
71.5548	549.73
71.5693	551.48
71.5837	542.35
71.5981	594.72
71.6126	630.06
71.6270	556.46
71.6415	535.82
71.6559	517.16
71.6703	568.28
71.6848	573.53
71.6992	605.52
71.7137	613.93
71.7281	575.73
71.7425	595.10
71.7570	621.33
71.7714	629.22
71.7859	563.33
71.8003	568.99
71.8147	587.08
71.8292	589.95
71.8436	584.64
71.8581	558.23
71.8725	592.26
71.8869	578.75
71.9014	636.28
71.9158	631.37
71.9303	599.73
71.9447	506.85
71.9591	487.91
71.9736	466.62
71.9880	512.00
72.0025	580.84
72.0169	548.84
72.0313	542.93
72.0458	533.52
72.0602	513.03
72.0747	619.20
72.0891	658.04
72.1035	709.99
72.1180	739.97
72.1324	661.05
72.1469	609.01
72.1613	575.45
72.1757	556.91
72.1902	592.45
72.2046	630.20
72.2191	593.29
72.2335	575.06
72.2479	639.24
72.2624	658.54
72.2768	597.85
72.2913	583.41
72.3057	639.35
72.3201	639.72
72.3346	619.05
72.3490	610.60
72.3635	670.81
72.3779	639.49
72.3923	584.53
72.4068	565.10
72.4212	534.06
72.4357	571.95
72.4501	580.59
72.4645	575.33
72.4790	634.58
72.4934	670.07
72.5079	583.39
72.5223	537.59
72.5367	614.88
72.5512	642.45
72.5656	605.11
72.5801	575.61
72.5945	540.95
72.6089	572.76
72.6234	592.70
72.6378	601.16
72.6523	600.95
72.6667	632.26
72.6811	588.76
72.6956	572.76
72.7100	524.97
72.7245	511.47
72.7389	593.60
72.7533	641.24
72.7678	642.08
72.7822	584.64
72.7967	596.63
72.8111	597.44
72.8255	628.98
72.8400	570.80
72.8544	503.74
72.8689	533.21
72.8833	569.09