2022.09.19 19:37:16
Îáðàçåö: ß÷åéêà LCoV 16-09-2022
Lambda1 = 1.54060
Lambda2 = 1.54439
Lambdam = 1.54186
R = 0.497
2Theta	I

line¹ 0 ;repeat¹ 0
22.1120	658.83
22.1264	585.56
22.1409	547.04
22.1553	597.65
22.1697	619.64
22.1842	562.80
22.1986	581.62
22.2131	550.56
22.2275	563.21
22.2419	612.67
22.2564	616.49
22.2708	570.04
22.2853	486.55
22.2997	545.66
22.3141	618.36
22.3286	574.35
22.3430	593.08
22.3575	543.60
22.3719	498.05
22.3863	537.16
22.4008	581.24
22.4152	639.55
22.4297	707.33
22.4441	609.98
22.4585	680.92
22.4730	664.79
22.4874	683.99
22.5019	694.62
22.5163	697.34
22.5307	514.41
22.5452	572.39
22.5596	597.58
22.5741	639.55
22.5885	620.78
22.6029	637.17
22.6174	700.13
22.6318	610.82
22.6463	616.18
22.6607	650.57
22.6751	582.83
22.6896	541.31
22.7040	590.85
22.7185	565.72
22.7329	517.98
22.7473	555.06
22.7618	544.34
22.7762	503.60
22.7907	544.87
22.8051	533.24
22.8195	529.41
22.8340	561.85
22.8484	522.10
22.8629	573.70
22.8773	595.28
22.8917	590.80
22.9062	506.08
22.9206	529.07
22.9351	552.05
22.9495	560.80
22.9639	551.85
22.9784	591.13
22.9928	549.27
23.0073	582.64
23.0217	676.81
23.0361	560.81
23.0506	565.94
23.0650	591.67
23.0795	532.09
23.0939	546.57
23.1083	533.77
23.1228	572.54
23.1372	610.68
23.1517	563.29
23.1661	597.20
23.1806	580.28
23.1950	579.42
23.2094	489.05
23.2239	514.20
23.2383	610.91
23.2528	585.15
23.2672	553.47
23.2816	599.96
23.2961	569.59
23.3105	555.11
23.3250	537.43
23.3394	532.98
23.3538	581.87
23.3683	518.80
23.3827	559.09
23.3972	594.21
23.4116	522.40
23.4260	541.02
23.4405	570.97
23.4549	526.60
23.4694	552.77
23.4838	491.63
23.4982	560.33
23.5127	566.68
23.5271	589.31
23.5416	505.28
23.5560	520.75
23.5704	570.91
23.5849	574.12
23.5993	582.09
23.6138	541.60
23.6282	514.06
23.6426	540.81
23.6571	600.19
23.6715	565.63
23.6860	506.44
23.7004	555.93
23.7148	460.12
23.7293	531.19
23.7437	491.70
23.7582	607.48
23.7726	518.46
23.7870	598.57
23.8015	589.38
23.8159	523.36
23.8304	572.23
23.8448	493.51
23.8592	516.78
23.8737	527.91
23.8881	554.35
23.9026	573.93
23.9170	504.20
23.9314	581.39
23.9459	604.42
23.9603	559.24
23.9748	571.51
23.9892	602.12
24.0036	572.87
24.0181	502.51
24.0325	573.93
24.0470	475.19
24.0614	601.13
24.0758	629.88
24.0903	589.59
24.1047	618.43
24.1192	588.67
24.1336	590.22
24.1480	598.61
24.1625	570.34
24.1769	549.17
24.1914	573.26
24.2058	599.99
24.2202	595.59
24.2347	577.98
24.2491	596.55
24.2636	545.21
24.2780	597.49
24.2924	563.72
24.3069	562.59
24.3213	553.87
24.3358	553.35
24.3502	577.06
24.3646	568.41
24.3791	580.32
24.3935	546.10
24.4080	558.57
24.4224	488.04
24.4368	533.87
24.4513	596.32
24.4657	524.19
24.4802	533.43
24.4946	499.78
24.5090	516.89
24.5235	525.03
24.5379	570.42
24.5524	530.99
24.5668	566.29
24.5812	499.43
24.5957	569.95
24.6101	544.57
24.6246	552.37
24.6390	545.42
24.6534	520.88
24.6679	523.97
24.6823	526.31
24.6968	494.35
24.7112	536.69
24.7256	528.98
24.7401	582.13
24.7545	524.60
24.7690	498.43
24.7834	567.56
24.7978	540.25
24.8123	557.31
24.8267	543.35
24.8412	509.19
24.8556	507.67
24.8700	572.36
24.8845	541.89
24.8989	569.45
24.9134	494.95
24.9278	535.38
24.9422	536.51
24.9567	536.89
24.9711	521.03
24.9856	547.59
25.0000	527.97
25.0144	525.09
25.0289	602.98
25.0433	562.45
25.0578	548.28
25.0722	547.22
25.0866	560.94
25.1011	555.73
25.1155	572.34
25.1300	560.07
25.1444	518.46
25.1588	567.36
25.1733	583.67
25.1877	546.68
25.2022	526.92
25.2166	538.80
25.2310	553.20
25.2455	543.58
25.2599	510.08
25.2744	528.13
25.2888	526.77
25.3032	529.28
25.3177	503.50
25.3321	561.10
25.3466	551.07
25.3610	557.93
25.3754	590.20
25.3899	542.70
25.4043	508.04
25.4188	520.89
25.4332	554.32
25.4476	568.20
25.4621	581.22
25.4765	573.22
25.4910	581.74
25.5054	579.58
25.5198	534.62
25.5343	550.77
25.5487	543.30
25.5632	572.52
25.5776	557.70
25.5920	547.07
25.6065	539.24
25.6209	531.52
25.6354	533.20
25.6498	536.09
25.6642	553.95
25.6787	543.54
25.6931	541.77
25.7076	583.11
25.7220	544.16
25.7364	519.01
25.7509	507.70
25.7653	516.20
25.7798	550.13
25.7942	586.80
25.8086	521.42
25.8231	534.84
25.8375	556.37
25.8520	524.68
25.8664	574.37
25.8808	540.93
25.8953	590.12
25.9097	533.08
25.9242	507.88
25.9386	533.32
25.9530	533.41
25.9675	522.74
25.9819	559.60
25.9964	570.90
26.0108	542.94
26.0252	547.89
26.0397	518.82
26.0541	536.50
26.0686	506.49
26.0830	522.51
26.0974	521.20
26.1119	545.25
26.1263	573.48
26.1408	543.94
26.1552	536.51
26.1696	532.17
26.1841	516.49
26.1985	507.21
26.2130	577.15
26.2274	557.86
26.2418	508.37
26.2563	552.98
26.2707	554.39
26.2852	535.71
26.2996	515.78
26.3140	513.92
26.3285	531.22
26.3429	523.32
26.3574	539.99
26.3718	542.29
26.3862	529.95
26.4007	516.01
26.4151	530.09
26.4296	546.12
26.4440	478.30
26.4584	515.22
26.4729	536.67
26.4873	532.35
26.5018	555.77
26.5162	548.69
26.5306	515.25
26.5451	535.64
26.5595	517.93
26.5740	551.24
26.5884	540.02
26.6028	506.07
26.6173	514.25
26.6317	526.81
26.6462	548.87
26.6606	517.41
26.6750	513.56
26.6895	516.71
26.7039	525.02
26.7184	537.65
26.7328	547.32
26.7472	541.83
26.7617	516.21
26.7761	505.52
26.7906	513.15
26.8050	510.77
26.8194	517.35
26.8339	525.05
26.8483	499.41
26.8628	537.29
26.8772	515.21
26.8917	526.32
26.9061	516.40
26.9205	505.56
26.9350	524.53
26.9494	531.27
26.9639	522.50
26.9783	526.43
26.9927	535.04
27.0072	525.17
27.0216	548.70
27.0361	541.18
27.0505	515.43
27.0649	512.96
27.0794	512.88
27.0938	534.25
27.1083	517.63
27.1227	501.06
27.1371	500.15
27.1516	513.72
27.1660	548.62
27.1805	528.32
27.1949	538.13
27.2093	518.85
27.2238	526.34
27.2382	529.31
27.2527	521.92
27.2671	520.31
27.2815	527.58
27.2960	504.63
27.3104	516.96
27.3249	486.33
27.3393	527.83
27.3537	527.02
27.3682	496.94
27.3826	504.16
27.3971	515.32
27.4115	524.31
27.4259	538.28
27.4404	490.03
27.4548	505.87
27.4693	534.54
27.4837	503.57
27.4981	507.71
27.5126	501.13
27.5270	499.83
27.5415	537.50
27.5559	518.46
27.5703	507.97
27.5848	545.80
27.5992	526.95
27.6137	540.61
27.6281	509.32
27.6425	535.65
27.6570	502.26
27.6714	492.70
27.6859	525.56
27.7003	523.19
27.7147	514.97
27.7292	480.17
27.7436	501.29
27.7581	513.09
27.7725	513.40
27.7869	530.01
27.8014	540.10
27.8158	514.03
27.8303	539.17
27.8447	517.01
27.8591	510.93
27.8736	544.01
27.8880	499.67
27.9025	533.34
27.9169	537.71
27.9313	539.05
27.9458	543.17
27.9602	499.33
27.9747	513.92
27.9891	533.79
28.0035	527.45
28.0180	569.63
28.0324	526.44
28.0469	517.01
28.0613	500.20
28.0757	515.24
28.0902	538.18
28.1046	500.06
28.1191	556.09
28.1335	563.91
28.1479	510.34
28.1624	544.38
28.1768	509.12
28.1913	543.85
28.2057	517.53
28.2201	529.22
28.2346	506.48
28.2490	508.14
28.2635	507.58
28.2779	500.93
28.2923	511.11
28.3068	530.95
28.3212	530.94
28.3357	514.74
28.3501	515.62
28.3645	519.55
28.3790	492.18
28.3934	510.08
28.4079	493.98
28.4223	504.50
28.4367	512.87
28.4512	505.76
28.4656	531.21
28.4801	541.02
28.4945	522.24
28.5089	520.70
28.5234	524.20
28.5378	521.72
28.5523	527.74
28.5667	506.10
28.5811	544.81
28.5956	539.35
28.6100	500.42
28.6245	515.88
28.6389	554.75
28.6533	507.08
28.6678	511.29
28.6822	510.94
28.6967	493.20
28.7111	518.88
28.7255	520.41
28.7400	519.52
28.7544	519.69
28.7689	488.98
28.7833	518.57
28.7977	512.86
28.8122	546.24
28.8266	554.47
28.8411	507.64
28.8555	502.00
28.8699	515.16
28.8844	476.06
28.8988	507.49
28.9133	506.55
28.9277	535.08
28.9421	533.03
28.9566	511.00
28.9710	536.16
28.9855	503.35
28.9999	489.65
29.0143	496.24
29.0288	530.21
29.0432	540.25
29.0577	506.35
29.0721	475.28
29.0865	523.48
29.1010	515.12
29.1154	538.51
29.1299	501.10
29.1443	472.47
29.1587	467.72
29.1732	508.40
29.1876	496.47
29.2021	553.76
29.2165	537.65
29.2309	536.56
29.2454	503.86
29.2598	518.85
29.2743	492.16
29.2887	475.19
29.3031	477.60
29.3176	501.83
29.3320	506.82
29.3465	549.35
29.3609	519.67
29.3753	511.31
29.3898	505.13
29.4042	489.71
29.4187	518.43
29.4331	540.32
29.4475	532.47
29.4620	506.77
29.4764	512.56
29.4909	500.30
29.5053	533.40
29.5197	496.38
29.5342	456.08
29.5486	496.58
29.5631	503.09
29.5775	486.87
29.5919	523.19
29.6064	473.69
29.6208	513.74
29.6353	538.07
29.6497	508.23
29.6641	505.07
29.6786	502.19
29.6930	486.78
29.7075	527.88
29.7219	490.86
29.7363	535.92
29.7508	527.96
29.7652	531.64
29.7797	533.61
29.7941	497.46
29.8085	516.24
29.8230	513.24
29.8374	522.95
29.8519	519.29
29.8663	530.83
29.8807	508.11
29.8952	507.09
29.9096	514.81
29.9241	479.17
29.9385	514.74
29.9529	523.59
29.9674	510.43
29.9818	510.79
29.9963	497.35
30.0107	505.46
30.0251	488.80
30.0396	542.48
30.0540	515.67
30.0685	535.45
30.0829	475.00
30.0973	503.44
30.1118	520.51
30.1262	521.43
30.1407	512.22
30.1551	502.48
30.1695	499.20
30.1840	489.83
30.1984	512.57
30.2129	491.92
30.2273	474.09
30.2417	521.42
30.2562	529.59
30.2706	525.37
30.2851	495.06
30.2995	500.03
30.3139	524.55
30.3284	525.12
30.3428	538.87
30.3573	515.71
30.3717	505.39
30.3861	489.25
30.4006	489.19
30.4150	513.41
30.4295	516.68
30.4439	507.48
30.4583	529.52
30.4728	537.65
30.4872	517.29
30.5017	489.55
30.5161	508.12
30.5305	534.89
30.5450	511.85
30.5594	517.73
30.5739	495.52
30.5883	511.25
30.6028	506.97
30.6172	507.17
30.6316	526.94
30.6461	549.67
30.6605	534.66
30.6750	509.34
30.6894	513.32
30.7038	517.28
30.7183	547.71
30.7327	515.21
30.7472	545.31
30.7616	536.56
30.7760	584.21
30.7905	585.75
30.8049	615.14
30.8194	641.59
30.8338	643.57
30.8482	685.64
30.8627	694.94
30.8771	697.21
30.8916	690.04
30.9060	713.92
30.9204	683.95
30.9349	694.00
30.9493	688.86
30.9638	671.86
30.9782	654.12
30.9926	644.64
31.0071	607.09
31.0215	562.85
31.0360	566.57
31.0504	579.53
31.0648	547.56
31.0793	580.90
31.0937	597.53
31.1082	580.83
31.1226	552.45
31.1370	531.91
31.1515	515.20
31.1659	512.14
31.1804	520.52
31.1948	530.92
31.2092	486.56
31.2237	503.30
31.2381	558.47
31.2526	534.57
31.2670	501.58
31.2814	533.87
31.2959	535.52
31.3103	531.37
31.3248	525.57
31.3392	523.54
31.3536	526.98
31.3681	499.16
31.3825	551.62
31.3970	500.52
31.4114	513.93
31.4258	546.69
31.4403	501.78
31.4547	503.52
31.4692	503.55
31.4836	492.08
31.4980	510.91
31.5125	509.93
31.5269	521.65
31.5414	526.92
31.5558	522.10
31.5702	520.64
31.5847	522.46
31.5991	487.67
31.6136	482.02
31.6280	493.94
31.6424	522.29
31.6569	518.54
31.6713	528.47
31.6858	495.52
31.7002	489.14
31.7146	532.62
31.7291	505.42
31.7435	510.92
31.7580	523.01
31.7724	498.76
31.7868	515.28
31.8013	503.55
31.8157	510.91
31.8302	484.15
31.8446	475.75
31.8590	507.14
31.8735	514.35
31.8879	525.89
31.9024	524.65
31.9168	538.68
31.9312	464.16
31.9457	520.18
31.9601	511.06
31.9746	519.03
31.9890	506.14
32.0034	502.14
32.0179	531.29
32.0323	496.73
32.0468	509.29
32.0612	514.08
32.0756	506.76
32.0901	510.05
32.1045	506.98
32.1190	536.99
32.1334	531.12
32.1478	525.61
32.1623	514.08
32.1767	508.74
32.1912	495.15
32.2056	505.73
32.2200	492.74
32.2345	490.02
32.2489	495.21
32.2634	500.06
32.2778	517.72
32.2922	519.98
32.3067	499.74
32.3211	504.98
32.3356	534.99
32.3500	493.66
32.3644	477.93
32.3789	499.85
32.3933	503.02
32.4078	479.77
32.4222	504.50
32.4366	465.42
32.4511	488.22
32.4655	544.32
32.4800	513.87
32.4944	528.47
32.5088	516.08
32.5233	484.50
32.5377	484.91
32.5522	526.96
32.5666	543.84
32.5810	484.62
32.5955	511.66
32.6099	535.38
32.6244	531.16
32.6388	508.88
32.6532	515.32
32.6677	493.83
32.6821	486.76
32.6966	484.49
32.7110	515.01
32.7254	489.30
32.7399	479.25
32.7543	512.54
32.7688	499.57
32.7832	503.73
32.7976	486.56
32.8121	494.64
32.8265	506.25
32.8410	462.92
32.8554	490.85
32.8698	533.84
32.8843	510.68
32.8987	502.52
32.9132	515.69
32.9276	514.29
32.9420	530.18
32.9565	537.67
32.9709	515.12
32.9854	506.89
32.9998	474.75
33.0142	501.12
33.0287	498.61
33.0431	465.89
33.0576	508.57
33.0720	504.20
33.0864	524.40
33.1009	511.37
33.1153	520.34
33.1298	531.74
33.1442	484.82
33.1586	517.15
33.1731	483.59
33.1875	502.27
33.2020	477.92
33.2164	471.88
33.2308	481.13
33.2453	476.78
33.2597	524.37
33.2742	526.01
33.2886	543.96
33.3030	516.97
33.3175	538.54
33.3319	508.86
33.3464	516.50
33.3608	552.68
33.3752	506.60
33.3897	493.53
33.4041	519.08
33.4186	483.32
33.4330	482.47
33.4474	484.42
33.4619	513.72
33.4763	477.41
33.4908	500.86
33.5052	514.85
33.5196	505.67
33.5341	492.92
33.5485	515.51
33.5630	499.66
33.5774	496.47
33.5918	485.54
33.6063	504.31
33.6207	521.25
33.6352	547.62
33.6496	501.85
33.6640	487.93
33.6785	458.83
33.6929	474.77
33.7074	520.86
33.7218	562.32
33.7362	520.50
33.7507	544.83
33.7651	548.92
33.7796	508.05
33.7940	486.78
33.8084	512.62
33.8229	496.48
33.8373	504.81
33.8518	507.06
33.8662	537.00
33.8806	498.24
33.8951	476.70
33.9095	480.36
33.9240	515.69
33.9384	526.50
33.9528	490.35
33.9673	477.98
33.9817	442.78
33.9962	505.29
34.0106	500.07
34.0250	517.56
34.0395	508.86
34.0539	502.74
34.0684	560.45
34.0828	534.35
34.0972	515.19
34.1117	475.39
34.1261	503.83
34.1406	496.94
34.1550	476.85
34.1694	518.69
34.1839	523.05
34.1983	488.57
34.2128	492.43
34.2272	467.93
34.2417	499.15
34.2561	489.63
34.2705	492.09
34.2850	504.12
34.2994	495.34
34.3139	517.00
34.3283	485.53
34.3427	518.81
34.3572	524.08
34.3716	517.62
34.3861	511.48
34.4005	498.40
34.4149	498.42
34.4294	493.52
34.4438	511.88
34.4583	520.26
34.4727	511.71
34.4871	495.08
34.5016	497.44
34.5160	509.68
34.5305	545.11
34.5449	510.51
34.5593	527.23
34.5738	509.45
34.5882	497.63
34.6027	484.25
34.6171	505.11
34.6315	521.86
34.6460	514.44
34.6604	468.29
34.6749	494.23
34.6893	503.99
34.7037	515.11
34.7182	481.28
34.7326	483.49
34.7471	536.85
34.7615	523.49
34.7759	496.29
34.7904	493.89
34.8048	514.30
34.8193	519.51
34.8337	509.45
34.8481	496.15
34.8626	516.17
34.8770	517.23
34.8915	489.93
34.9059	529.22
34.9203	506.33
34.9348	526.51
34.9492	531.93
34.9637	526.69
34.9781	517.41
34.9925	508.73
35.0070	551.28
35.0214	530.12
35.0359	497.48
35.0503	521.07
35.0647	547.14
35.0792	536.18
35.0936	545.84
35.1081	513.76
35.1225	522.41
35.1369	542.68
35.1514	493.22
35.1658	520.47
35.1803	519.35
35.1947	480.18
35.2091	489.39
35.2236	470.65
35.2380	515.84
35.2525	510.27
35.2669	488.86
35.2813	518.04
35.2958	475.45
35.3102	496.19
35.3247	502.53
35.3391	503.93
35.3535	489.95
35.3680	481.16
35.3824	492.27
35.3969	495.39
35.4113	499.53
35.4257	524.53
35.4402	517.32
35.4546	549.96
35.4691	535.95
35.4835	523.78
35.4979	491.75
35.5124	515.54
35.5268	504.78
35.5413	526.91
35.5557	554.13
35.5701	500.54
35.5846	494.05
35.5990	508.55
35.6135	539.60
35.6279	518.71
35.6423	542.69
35.6568	545.37
35.6712	505.60
35.6857	556.30
35.7001	623.48
35.7145	699.88
35.7290	665.78
35.7434	599.94
35.7579	574.76
35.7723	556.35
35.7867	614.30
35.8012	623.95
35.8156	603.03
35.8301	640.79
35.8445	596.42
35.8589	577.40
35.8734	709.55
35.8878	885.90
35.9023	996.26
35.9167	1072.78
35.9311	1507.42
35.9456	2271.11
35.9600	2356.47
35.9745	1781.25
35.9889	1768.68
36.0033	2254.45
36.0178	2200.57
36.0322	1875.03
36.0467	1858.91
36.0611	1571.77
36.0755	1583.35
36.0900	1479.02
36.1044	1305.52
36.1189	1272.64
36.1333	1184.27
36.1477	1031.52
36.1622	1030.94
36.1766	1008.26
36.1911	965.52
36.2055	847.07
36.2199	723.42
36.2344	766.50
36.2488	800.32
36.2633	756.06
36.2777	792.15
36.2921	870.77
36.3066	836.23
36.3210	900.84
36.3355	989.23
36.3499	996.11
36.3643	1001.45
36.3788	969.02
36.3932	962.78
36.4077	946.47
36.4221	954.27
36.4365	953.87
36.4510	915.30
36.4654	912.23
36.4799	840.36
36.4943	780.74
36.5087	767.52
36.5232	728.89
36.5376	737.28
36.5521	697.02
36.5665	633.91
36.5809	601.79
36.5954	622.52
36.6098	617.01
36.6243	561.84
36.6387	570.46
36.6531	588.05
36.6676	621.81
36.6820	572.39
36.6965	567.95
36.7109	547.70
36.7253	551.62
36.7398	529.74
36.7542	545.63
36.7687	568.25
36.7831	581.29
36.7975	592.61
36.8120	570.93
36.8264	578.16
36.8409	540.93
36.8553	598.79
36.8697	597.11
36.8842	616.84
36.8986	614.74
36.9131	632.91
36.9275	555.77
36.9419	621.19
36.9564	607.86
36.9708	581.36
36.9853	545.67
36.9997	560.65
37.0141	514.24
37.0286	530.25
37.0430	549.69
37.0575	513.98
37.0719	517.59
37.0863	561.84
37.1008	550.14
37.1152	524.56
37.1297	551.80
37.1441	480.59
37.1585	508.25
37.1730	532.43
37.1874	514.19
37.2019	490.27
37.2163	517.35
37.2307	504.38
37.2452	524.90
37.2596	521.47
37.2741	490.61
37.2885	507.42
37.3029	503.96
37.3174	487.57
37.3318	480.13
37.3463	487.52
37.3607	506.06
37.3751	484.72
37.3896	499.77
37.4040	491.59
37.4185	509.45
37.4329	556.09
37.4473	496.25
37.4618	495.70
37.4762	508.44
37.4907	513.97
37.5051	521.69
37.5195	529.57
37.5340	463.06
37.5484	476.98
37.5629	522.77
37.5773	501.55
37.5917	503.87
37.6062	542.84
37.6206	493.03
37.6351	463.03
37.6495	480.61
37.6639	487.22
37.6784	475.67
37.6928	482.91
37.7073	554.53
37.7217	515.69
37.7361	490.31
37.7506	535.39
37.7650	525.00
37.7795	475.58
37.7939	500.00
37.8083	508.41
37.8228	492.58
37.8372	497.84
37.8517	523.90
37.8661	510.20
37.8805	522.37
37.8950	507.82
37.9094	531.16
37.9239	499.31
37.9383	494.25
37.9528	484.91
37.9672	488.29
37.9816	542.16
37.9961	514.62
38.0105	487.80
38.0250	496.14
38.0394	521.56
38.0538	520.25
38.0683	506.17
38.0827	487.23
38.0972	520.85
38.1116	520.21
38.1260	512.36
38.1405	503.55
38.1549	484.68
38.1694	509.57
38.1838	495.61
38.1982	487.46
38.2127	506.83
38.2271	473.96
38.2416	492.51
38.2560	510.84
38.2704	520.87
38.2849	475.13
38.2993	476.58
38.3138	522.35
38.3282	524.26
38.3426	544.61
38.3571	508.30
38.3715	505.87
38.3860	535.34
38.4004	519.48
38.4148	539.07
38.4293	592.04
38.4437	586.00
38.4582	622.74
38.4726	669.25
38.4870	724.39
38.5015	750.75
38.5159	776.49
38.5304	830.46
38.5448	792.17
38.5592	814.97
38.5737	797.06
38.5881	736.29
38.6026	711.60
38.6170	687.55
38.6314	685.63
38.6459	673.81
38.6603	615.50
38.6748	585.97
38.6892	562.41
38.7036	567.50
38.7181	573.90
38.7325	508.49
38.7470	539.46
38.7614	532.71
38.7758	502.84
38.7903	533.85
38.8047	550.85
38.8192	541.16
38.8336	481.49
38.8480	503.19
38.8625	524.76
38.8769	536.58
38.8914	485.76
38.9058	508.56
38.9202	501.75
38.9347	508.99
38.9491	517.59
38.9636	516.77
38.9780	477.66
38.9924	484.14
39.0069	495.45
39.0213	525.50
39.0358	522.97
39.0502	514.35
39.0646	524.99
39.0791	518.20
39.0935	507.93
39.1080	492.45
39.1224	493.60
39.1368	510.72
39.1513	497.18
39.1657	528.13
39.1802	506.43
39.1946	475.97
39.2090	501.34
39.2235	499.09
39.2379	484.94
39.2524	496.27
39.2668	501.15
39.2812	521.95
39.2957	526.82
39.3101	510.51
39.3246	528.78
39.3390	541.75
39.3534	525.72
39.3679	499.51
39.3823	515.53
39.3968	519.08
39.4112	487.01
39.4256	525.78
39.4401	511.95
39.4545	480.87
39.4690	508.27
39.4834	536.19
39.4978	531.91
39.5123	496.12
39.5267	472.18
39.5412	484.64
39.5556	504.56
39.5700	506.00
39.5845	519.36
39.5989	464.74
39.6134	512.88
39.6278	527.08
39.6422	513.79
39.6567	507.15
39.6711	512.30
39.6856	444.09
39.7000	468.81
39.7144	528.17
39.7289	481.58
39.7433	495.60
39.7578	478.91
39.7722	490.64
39.7866	510.35
39.8011	482.67
39.8155	498.21
39.8300	480.70
39.8444	505.36
39.8588	494.21
39.8733	525.73
39.8877	519.38
39.9022	533.10
39.9166	529.99
39.9310	492.10
39.9455	487.07
39.9599	480.21
39.9744	498.94
39.9888	493.44
40.0032	475.93
40.0177	518.01
40.0321	507.26
40.0466	486.17
40.0610	510.33
40.0754	462.49
40.0899	526.20
40.1043	484.27
40.1188	480.44
40.1332	480.98
40.1476	503.67
40.1621	471.13
40.1765	493.04
40.1910	519.94
40.2054	503.21
40.2198	530.47
40.2343	531.53
40.2487	513.88
40.2632	511.92
40.2776	541.05
40.2920	473.25
40.3065	523.94
40.3209	507.98
40.3354	522.25
40.3498	499.25
40.3642	506.74
40.3787	456.62
40.3931	476.45
40.4076	511.09
40.4220	510.49
40.4364	505.96
40.4509	489.25
40.4653	506.38
40.4798	487.37
40.4942	480.97
40.5086	498.10
40.5231	507.05
40.5375	529.13
40.5520	488.70
40.5664	507.97
40.5808	502.49
40.5953	507.21
40.6097	482.59
40.6242	494.53
40.6386	540.58
40.6530	500.36
40.6675	498.65
40.6819	496.15
40.6964	524.90
40.7108	518.03
40.7252	503.70
40.7397	501.35
40.7541	516.37
40.7686	514.28
40.7830	532.52
40.7974	513.37
40.8119	491.61
40.8263	496.51
40.8408	523.97
40.8552	479.58
40.8696	526.20
40.8841	487.69
40.8985	509.43
40.9130	498.73
40.9274	531.02
40.9418	542.75
40.9563	508.72
40.9707	501.08
40.9852	516.95
40.9996	467.83
41.0140	506.47
41.0285	506.36
41.0429	480.45
41.0574	512.26
41.0718	495.98
41.0862	485.61
41.1007	520.08
41.1151	489.54
41.1296	515.88
41.1440	465.64
41.1584	474.86
41.1729	521.78
41.1873	492.95
41.2018	481.20
41.2162	494.71
41.2306	521.85
41.2451	527.90
41.2595	502.65
41.2740	473.57
41.2884	478.11
41.3028	491.43
41.3173	504.05
41.3317	489.47
41.3462	465.37
41.3606	529.03
41.3750	487.31
41.3895	493.97
41.4039	502.11
41.4184	480.97
41.4328	493.53
41.4472	483.24
41.4617	518.20
41.4761	508.36
41.4906	501.64
41.5050	536.21
41.5194	514.48
41.5339	479.57
41.5483	492.65
41.5628	523.05
41.5772	492.15
41.5916	480.32
41.6061	501.81
41.6205	473.63
41.6350	502.95
41.6494	481.23
41.6639	527.87
41.6783	513.47
41.6927	485.57
41.7072	523.18
41.7216	537.38
41.7361	479.86
41.7505	510.16
41.7649	479.38
41.7794	506.33
41.7938	520.47
41.8083	497.69
41.8227	482.50
41.8371	508.54
41.8516	516.92
41.8660	542.84
41.8805	535.00
41.8949	531.76
41.9093	519.68
41.9238	539.74
41.9382	569.85
41.9527	552.18
41.9671	563.65
41.9815	563.62
41.9960	529.05
42.0104	574.69
42.0249	590.56
42.0393	558.00
42.0537	556.39
42.0682	546.64
42.0826	565.23
42.0971	604.67
42.1115	518.71
42.1259	557.91
42.1404	625.04
42.1548	614.15
42.1693	660.04
42.1837	727.93
42.1981	731.90
42.2126	811.30
42.2270	916.01
42.2415	1024.46
42.2559	1170.39
42.2703	1316.62
42.2848	1495.50
42.2992	1617.38
42.3137	1641.06
42.3281	1641.99
42.3425	1552.28
42.3570	1419.63
42.3714	1364.06
42.3859	1386.00
42.4003	1397.96
42.4147	1371.44
42.4292	1283.30
42.4436	1165.07
42.4581	1033.20
42.4725	935.55
42.4869	830.48
42.5014	742.28
42.5158	726.62
42.5303	685.28
42.5447	646.07
42.5591	637.45
42.5736	619.58
42.5880	590.30
42.6025	575.04
42.6169	541.87
42.6313	533.96
42.6458	550.58
42.6602	539.15
42.6747	512.83
42.6891	513.43
42.7035	553.96
42.7180	550.58
42.7324	529.14
42.7469	516.89
42.7613	509.05
42.7757	531.43
42.7902	516.20
42.8046	534.04
42.8191	530.62
42.8335	517.86
42.8479	499.97
42.8624	516.51
42.8768	530.06
42.8913	504.75
42.9057	528.68
42.9201	533.64
42.9346	511.64
42.9490	524.15
42.9635	489.30
42.9779	463.57
42.9923	505.83
43.0068	525.35
43.0212	500.10
43.0357	502.70
43.0501	483.94
43.0645	514.36
43.0790	519.60
43.0934	523.73
43.1079	527.97
43.1223	558.10
43.1367	530.51
43.1512	522.02
43.1656	512.49
43.1801	518.38
43.1945	561.63
43.2089	527.71
43.2234	534.46
43.2378	505.46
43.2523	541.58
43.2667	537.52
43.2811	566.41
43.2956	550.30
43.3100	554.95
43.3245	525.58
43.3389	551.01
43.3533	524.67
43.3678	507.20
43.3822	546.79
43.3967	528.95
43.4111	520.93
43.4255	522.97
43.4400	535.17
43.4544	527.03
43.4689	519.87
43.4833	514.89
43.4977	494.98
43.5122	518.29
43.5266	501.07
43.5411	502.68
43.5555	530.96
43.5699	497.25
43.5844	512.77
43.5988	534.18
43.6133	536.98
43.6277	518.13
43.6421	482.12
43.6566	473.25
43.6710	529.96
43.6855	523.68
43.6999	547.34
43.7143	531.83
43.7288	526.11
43.7432	522.85
43.7577	535.09
43.7721	489.94
43.7865	504.67
43.8010	521.44
43.8154	522.55
43.8299	547.26
43.8443	509.52
43.8587	550.51
43.8732	500.09
43.8876	539.08
43.9021	520.73
43.9165	548.32
43.9309	555.06
43.9454	508.09
43.9598	512.77
43.9743	520.48
43.9887	529.94
44.0031	531.22
44.0176	529.70
44.0320	530.14
44.0465	507.18
44.0609	563.77
44.0753	511.81
44.0898	563.88
44.1042	576.85
44.1187	573.21
44.1331	606.09
44.1475	592.57
44.1620	604.23
44.1764	613.27
44.1909	585.92
44.2053	617.69
44.2197	633.11
44.2342	628.23
44.2486	641.31
44.2631	585.15
44.2775	587.91
44.2919	587.33
44.3064	600.32
44.3208	599.98
44.3353	618.43
44.3497	634.18
44.3641	601.08
44.3786	575.38
44.3930	559.50
44.4075	599.49
44.4219	620.87
44.4363	590.38
44.4508	542.51
44.4652	589.41
44.4797	577.34
44.4941	554.09
44.5085	610.26
44.5230	596.98
44.5374	582.13
44.5519	619.49
44.5663	590.31
44.5807	565.69
44.5952	587.85
44.6096	610.79
44.6241	574.58
44.6385	544.97
44.6529	584.15
44.6674	589.36
44.6818	626.73
44.6963	618.56
44.7107	714.85
44.7251	720.83
44.7396	777.62
44.7540	808.36
44.7685	865.65
44.7829	916.49
44.7973	833.09
44.8118	830.56
44.8262	773.85
44.8407	765.19
44.8551	765.96
44.8695	737.04
44.8840	741.61
44.8984	695.03
44.9129	706.48
44.9273	668.58
44.9417	656.61
44.9562	602.24
44.9706	567.00
44.9851	536.45
44.9995	573.26
45.0139	541.25
45.0284	554.32
45.0428	551.26
45.0573	541.02
45.0717	528.69
45.0861	529.91
45.1006	498.13
45.1150	529.04
45.1295	503.77
45.1439	480.75
45.1583	518.44
45.1728	524.68
45.1872	482.66
45.2017	514.62
45.2161	490.20
45.2305	482.41
45.2450	511.12
45.2594	506.32
45.2739	500.31
45.2883	535.99
45.3028	520.33
45.3172	505.52
45.3316	495.66
45.3461	504.59
45.3605	524.41
45.3750	463.19
45.3894	505.24
45.4038	518.31
45.4183	507.18
45.4327	484.15
45.4472	473.05
45.4616	497.53
45.4760	514.11
45.4905	498.70
45.5049	481.69
45.5194	491.26
45.5338	503.01
45.5482	479.94
45.5627	469.54
45.5771	466.13
45.5916	518.64
45.6060	511.32
45.6204	501.13
45.6349	529.39
45.6493	512.66
45.6638	512.36
45.6782	506.07
45.6926	499.92
45.7071	515.04
45.7215	518.98
45.7360	469.21
45.7504	509.56
45.7648	499.92
45.7793	522.75
45.7937	539.49
45.8082	510.05
45.8226	476.49
45.8370	529.41
45.8515	505.62
45.8659	497.41
45.8804	509.37
45.8948	491.41
45.9092	503.90
45.9237	470.21
45.9381	533.14
45.9526	486.71
45.9670	490.00
45.9814	491.96
45.9959	498.65
46.0103	503.86
46.0248	510.18
46.0392	497.69
46.0536	498.90
46.0681	451.48
46.0825	476.10
46.0970	481.34
46.1114	528.68
46.1258	505.07
46.1403	485.56
46.1547	498.54
46.1692	502.10
46.1836	493.59
46.1980	482.16
46.2125	494.16
46.2269	524.32
46.2414	479.70
46.2558	485.82
46.2702	500.70
46.2847	509.72
46.2991	500.76
46.3136	474.57
46.3280	491.12
46.3424	524.86
46.3569	541.26
46.3713	515.97
46.3858	479.60
46.4002	466.44
46.4146	476.74
46.4291	510.17
46.4435	473.36
46.4580	487.78
46.4724	520.15
46.4868	525.52
46.5013	525.91
46.5157	509.34
46.5302	512.14
46.5446	488.99
46.5590	510.27
46.5735	490.79
46.5879	507.87
46.6024	487.48
46.6168	494.36
46.6312	526.08
46.6457	493.27
46.6601	481.00
46.6746	512.31
46.6890	485.29
46.7034	503.67
46.7179	501.21
46.7323	464.76
46.7468	527.94
46.7612	506.70
46.7756	484.16
46.7901	503.02
46.8045	525.19
46.8190	499.28
46.8334	504.11
46.8478	491.54
46.8623	532.42
46.8767	527.95
46.8912	491.69
46.9056	522.47
46.9200	522.00
46.9345	503.90
46.9489	528.64
46.9634	486.31
46.9778	494.77
46.9922	501.80
47.0067	507.17
47.0211	525.27
47.0356	539.00
47.0500	550.28
47.0644	522.34
47.0789	505.82
47.0933	520.95
47.1078	496.99
47.1222	489.25
47.1366	496.06
47.1511	478.54
47.1655	489.82
47.1800	535.92
47.1944	502.64
47.2088	476.85
47.2233	501.62
47.2377	501.93
47.2522	517.92
47.2666	511.08
47.2810	502.47
47.2955	491.88
47.3099	520.17
47.3244	504.70
47.3388	534.59
47.3532	521.95
47.3677	495.63
47.3821	511.14
47.3966	501.77
47.4110	493.85
47.4254	541.24
47.4399	503.83
47.4543	503.42
47.4688	507.45
47.4832	499.52
47.4976	514.32
47.5121	484.57
47.5265	509.21
47.5410	526.71
47.5554	518.49
47.5698	502.92
47.5843	519.24
47.5987	522.74
47.6132	520.68
47.6276	522.48
47.6420	494.94
47.6565	541.62
47.6709	505.53
47.6854	516.56
47.6998	541.95
47.7142	531.38
47.7287	493.68
47.7431	492.05
47.7576	502.88
47.7720	483.35
47.7864	498.32
47.8009	515.98
47.8153	507.84
47.8298	515.54
47.8442	515.89
47.8586	502.55
47.8731	490.67
47.8875	502.08
47.9020	508.19
47.9164	499.45
47.9308	484.66
47.9453	509.83
47.9597	514.58
47.9742	470.83
47.9886	497.09
48.0030	451.97
48.0175	502.67
48.0319	524.12
48.0464	521.51
48.0608	535.51
48.0752	499.51
48.0897	575.24
48.1041	578.90
48.1186	537.32
48.1330	504.98
48.1474	478.72
48.1619	507.32
48.1763	546.92
48.1908	494.77
48.2052	482.68
48.2196	510.65
48.2341	493.34
48.2485	506.93
48.2630	505.73
48.2774	500.04
48.2918	477.39
48.3063	516.57
48.3207	499.62
48.3352	496.40
48.3496	496.19
48.3640	522.69
48.3785	483.77
48.3929	511.23
48.4074	471.94
48.4218	488.78
48.4362	486.81
48.4507	513.38
48.4651	488.46
48.4796	500.37
48.4940	494.40
48.5084	512.85
48.5229	534.81
48.5373	531.79
48.5518	511.34
48.5662	504.54
48.5806	527.75
48.5951	515.98
48.6095	526.95
48.6240	518.85
48.6384	517.98
48.6528	512.78
48.6673	492.83
48.6817	513.72
48.6962	503.53
48.7106	554.99
48.7250	539.22
48.7395	521.16
48.7539	530.54
48.7684	528.27
48.7828	524.85
48.7972	532.90
48.8117	556.21
48.8261	496.54
48.8406	564.65
48.8550	525.60
48.8694	501.72
48.8839	518.10
48.8983	539.90
48.9128	540.10
48.9272	528.42
48.9416	549.64
48.9561	558.27
48.9705	576.68
48.9850	596.79
48.9994	561.03
49.0139	613.37
49.0283	603.91
49.0427	580.23
49.0572	619.34
49.0716	636.08
49.0861	674.97
49.1005	657.41
49.1149	689.70
49.1294	721.67
49.1438	716.11
49.1583	779.46
49.1727	860.60
49.1871	876.27
49.2016	917.69
49.2160	1005.12
49.2305	1045.62
49.2449	1187.66
49.2593	1300.60
49.2738	1362.41
49.2882	1396.78
49.3027	1476.27
49.3171	1665.05
49.3315	1710.53
49.3460	1768.36
49.3604	1750.38
49.3749	1791.83
49.3893	1787.73
49.4037	1741.04
49.4182	1773.71
49.4326	1691.02
49.4471	1591.16
49.4615	1575.62
49.4759	1563.97
49.4904	1517.30
49.5048	1352.72
49.5193	1320.51
49.5337	1289.70
49.5481	1161.99
49.5626	1118.07
49.5770	999.57
49.5915	962.85
49.6059	920.42
49.6203	877.78
49.6348	784.94
49.6492	736.24
49.6637	701.00
49.6781	678.75
49.6925	659.29
49.7070	686.98
49.7214	621.29
49.7359	616.45
49.7503	611.15
49.7647	590.80
49.7792	594.87
49.7936	548.54
49.8081	578.36
49.8225	573.70
49.8369	584.49
49.8514	582.57
49.8658	572.81
49.8803	514.84
49.8947	557.97
49.9091	580.71
49.9236	557.53
49.9380	536.54
49.9525	540.31
49.9669	540.83
49.9813	520.05
49.9958	520.47
50.0102	529.07
50.0247	548.31
50.0391	526.85
50.0535	533.82
50.0680	545.47
50.0824	524.54
50.0969	527.06
50.1113	520.51
50.1257	518.62
50.1402	497.80
50.1546	489.87
50.1691	516.76
50.1835	505.14
50.1979	514.94
50.2124	531.85
50.2268	526.95
50.2413	543.70
50.2557	530.48
50.2701	510.99
50.2846	510.63
50.2990	499.75
50.3135	521.70
50.3279	512.60
50.3423	510.15
50.3568	508.49
50.3712	479.67
50.3857	508.13
50.4001	536.82
50.4145	496.26
50.4290	491.74
50.4434	517.98
50.4579	524.86
50.4723	522.95
50.4867	527.90
50.5012	513.10
50.5156	508.97
50.5301	517.97
50.5445	487.46
50.5589	555.22
50.5734	495.90
50.5878	508.47
50.6023	529.39
50.6167	484.67
50.6311	497.30
50.6456	484.93
50.6600	523.49
50.6745	516.25
50.6889	522.25
50.7033	529.24
50.7178	521.09
50.7322	480.18
50.7467	510.71
50.7611	534.71
50.7755	505.44
50.7900	509.91
50.8044	507.85
50.8189	486.54
50.8333	504.77
50.8477	545.73
50.8622	521.04
50.8766	499.67
50.8911	495.03
50.9055	521.42
50.9199	530.58
50.9344	526.30
50.9488	525.99
50.9633	486.20
50.9777	490.61
50.9921	510.98
51.0066	507.72
51.0210	513.00
51.0355	526.47
51.0499	497.47
51.0643	532.48
51.0788	512.53
51.0932	520.48
51.1077	516.83
51.1221	516.96
51.1365	485.40
51.1510	486.46
51.1654	505.52
51.1799	488.08
51.1943	504.49
51.2087	508.68
51.2232	513.71
51.2376	519.97
51.2521	499.11
51.2665	507.92
51.2809	511.53
51.2954	504.49
51.3098	486.05
51.3243	523.97
51.3387	532.76
51.3531	509.42
51.3676	523.78
51.3820	505.85
51.3965	510.23
51.4109	490.71
51.4253	527.01
51.4398	506.70
51.4542	524.97
51.4687	543.21
51.4831	529.92
51.4975	527.42
51.5120	519.75
51.5264	527.30
51.5409	487.60
51.5553	491.02
51.5697	513.24
51.5842	509.55
51.5986	503.22
51.6131	501.96
51.6275	541.66
51.6419	515.90
51.6564	495.85
51.6708	501.07
51.6853	491.74
51.6997	531.84
51.7141	538.89
51.7286	516.66
51.7430	572.76
51.7575	520.42
51.7719	470.36
51.7863	517.00
51.8008	513.39
51.8152	509.39
51.8297	499.76
51.8441	481.62
51.8585	517.67
51.8730	518.76
51.8874	513.41
51.9019	547.22
51.9163	500.24
51.9307	508.66
51.9452	523.58
51.9596	504.45
51.9741	514.50
51.9885	524.08
52.0029	502.56
52.0174	524.24
52.0318	482.43
52.0463	509.36
52.0607	503.76
52.0751	496.28
52.0896	536.12
52.1040	495.43
52.1185	531.98
52.1329	530.69
52.1473	498.76
52.1618	485.92
52.1762	524.65
52.1907	482.38
52.2051	514.91
52.2195	537.51
52.2340	534.18
52.2484	530.62
52.2629	506.16
52.2773	511.81
52.2917	486.08
52.3062	511.06
52.3206	525.12
52.3351	559.16
52.3495	531.01
52.3639	520.23
52.3784	499.83
52.3928	477.41
52.4073	477.76
52.4217	533.04
52.4361	543.24
52.4506	515.97
52.4650	539.03
52.4795	547.21
52.4939	551.47
52.5083	490.75
52.5228	523.92
52.5372	550.70
52.5517	523.89
52.5661	510.74
52.5805	544.66
52.5950	534.63
52.6094	506.24
52.6239	513.93
52.6383	544.88
52.6527	505.66
52.6672	499.96
52.6816	500.84
52.6961	522.98
52.7105	532.44
52.7250	511.59
52.7394	520.21
52.7538	515.73
52.7683	520.91
52.7827	528.46
52.7972	543.30
52.8116	500.13
52.8260	488.71
52.8405	511.32
52.8549	502.08
52.8694	488.19
52.8838	497.46
52.8982	527.00
52.9127	539.92
52.9271	565.77
52.9416	551.91
52.9560	521.91
52.9704	517.35
52.9849	491.61
52.9993	510.01
53.0138	525.62
53.0282	495.55
53.0426	517.83
53.0571	493.90
53.0715	527.93
53.0860	523.73
53.1004	521.65
53.1148	534.28
53.1293	554.38
53.1437	488.15
53.1582	492.50
53.1726	512.86
53.1870	507.75
53.2015	452.14
53.2159	502.10
53.2304	527.00
53.2448	513.98
53.2592	490.59
53.2737	524.25
53.2881	550.73
53.3026	506.48
53.3170	546.86
53.3314	529.86
53.3459	532.71
53.3603	523.80
53.3748	524.88
53.3892	523.83
53.4036	504.46
53.4181	495.08
53.4325	524.00
53.4470	491.76
53.4614	528.89
53.4758	537.78
53.4903	501.24
53.5047	524.60
53.5192	553.57
53.5336	552.57
53.5480	524.13
53.5625	537.74
53.5769	499.63
53.5914	521.19
53.6058	518.51
53.6202	518.17
53.6347	521.69
53.6491	478.31
53.6636	516.20
53.6780	519.10
53.6924	500.46
53.7069	502.59
53.7213	538.52
53.7358	478.58
53.7502	484.96
53.7646	517.89
53.7791	533.86
53.7935	540.51
53.8080	540.97
53.8224	528.60
53.8368	539.02
53.8513	521.32
53.8657	512.35
53.8802	506.92
53.8946	469.95
53.9090	515.65
53.9235	486.63
53.9379	506.31
53.9524	495.02
53.9668	507.28
53.9812	541.72
53.9957	532.96
54.0101	504.88
54.0246	531.79
54.0390	548.20
54.0534	510.24
54.0679	527.98
54.0823	532.30
54.0968	516.10
54.1112	504.61
54.1256	515.24
54.1401	493.54
54.1545	529.74
54.1690	564.13
54.1834	536.87
54.1978	500.47
54.2123	492.91
54.2267	515.20
54.2412	531.47
54.2556	508.34
54.2700	523.84
54.2845	524.76
54.2989	495.29
54.3134	514.71
54.3278	551.16
54.3422	514.89
54.3567	508.28
54.3711	517.13
54.3856	536.89
54.4000	528.07
54.4144	539.95
54.4289	506.75
54.4433	483.91
54.4578	516.43
54.4722	515.49
54.4866	510.48
54.5011	520.52
54.5155	515.15
54.5300	514.03
54.5444	514.66
54.5588	540.80
54.5733	519.30
54.5877	541.97
54.6022	528.44
54.6166	532.45
54.6310	530.24
54.6455	505.36
54.6599	529.75
54.6744	513.86
54.6888	508.30
54.7032	545.45
54.7177	551.80
54.7321	548.11
54.7466	593.27
54.7610	538.98
54.7754	591.56
54.7899	571.71
54.8043	563.78
54.8188	591.17
54.8332	536.06
54.8476	547.31
54.8621	567.41
54.8765	564.35
54.8910	578.65
54.9054	616.94
54.9198	609.96
54.9343	581.81
54.9487	570.96
54.9632	569.66
54.9776	584.28
54.9920	572.37
55.0065	552.45
55.0209	577.99
55.0354	585.63
55.0498	565.83
55.0642	557.13
55.0787	548.12
55.0931	551.55
55.1076	535.17
55.1220	557.99
55.1364	529.08
55.1509	497.04
55.1653	550.66
55.1798	500.95
55.1942	560.29
55.2086	566.67
55.2231	555.30
55.2375	535.09
55.2520	530.08
55.2664	530.12
55.2808	534.38
55.2953	505.31
55.3097	513.01
55.3242	527.43
55.3386	527.97
55.3530	511.46
55.3675	503.92
55.3819	499.99
55.3964	485.19
55.4108	515.12
55.4252	566.53
55.4397	522.88
55.4541	548.84
55.4686	525.05
55.4830	497.34
55.4974	498.04
55.5119	510.95
55.5263	544.22
55.5408	537.64
55.5552	498.88
55.5696	482.85
55.5841	526.41
55.5985	501.97
55.6130	508.78
55.6274	545.53
55.6418	505.17
55.6563	501.89
55.6707	527.53
55.6852	511.10
55.6996	521.02
55.7140	526.47
55.7285	516.65
55.7429	523.53
55.7574	515.71
55.7718	516.63
55.7862	494.47
55.8007	529.89
55.8151	511.34
55.8296	510.36
55.8440	503.07
55.8584	516.45
55.8729	547.24
55.8873	553.91
55.9018	543.94
55.9162	534.10
55.9306	520.08
55.9451	549.85
55.9595	515.78
55.9740	523.80
55.9884	523.80
56.0028	512.02
56.0173	531.16
56.0317	501.54
56.0462	524.74
56.0606	523.88
56.0750	531.42
56.0895	563.33
56.1039	530.49
56.1184	517.64
56.1328	528.62
56.1472	489.86
56.1617	546.43
56.1761	529.84
56.1906	499.91
56.2050	525.62
56.2194	515.31
56.2339	532.75
56.2483	554.94
56.2628	520.58
56.2772	520.98
56.2916	511.89
56.3061	511.25
56.3205	511.82
56.3350	530.10
56.3494	495.96
56.3639	507.06
56.3783	535.78
56.3927	540.93
56.4072	529.40
56.4216	555.59
56.4361	587.90
56.4505	528.77
56.4649	552.03
56.4794	536.65
56.4938	509.73
56.5083	503.84
56.5227	494.89
56.5371	528.82
56.5516	515.62
56.5660	526.60
56.5805	515.44
56.5949	522.76
56.6093	524.27
56.6238	501.94
56.6382	518.59
56.6527	492.46
56.6671	510.55
56.6815	544.46
56.6960	524.77
56.7104	515.60
56.7249	520.58
56.7393	526.39
56.7537	529.06
56.7682	512.05
56.7826	535.67
56.7971	552.57
56.8115	520.34
56.8259	504.93
56.8404	529.52
56.8548	493.76
56.8693	538.32
56.8837	537.94
56.8981	520.72
56.9126	533.33
56.9270	494.38
56.9415	511.57
56.9559	526.15
56.9703	516.97
56.9848	512.84
56.9992	490.44
57.0137	521.02
57.0281	517.65
57.0425	500.94
57.0570	526.90
57.0714	553.73
57.0859	544.86
57.1003	531.67
57.1147	516.91
57.1292	490.61
57.1436	504.54
57.1581	484.80
57.1725	548.33
57.1869	529.48
57.2014	492.76
57.2158	520.87
57.2303	506.99
57.2447	519.06
57.2591	575.28
57.2736	546.03
57.2880	518.01
57.3025	508.86
57.3169	486.80
57.3313	533.23
57.3458	516.26
57.3602	533.30
57.3747	543.57
57.3891	528.52
57.4035	509.19
57.4180	518.67
57.4324	546.91
57.4469	513.93
57.4613	536.01
57.4757	527.21
57.4902	553.86
57.5046	547.44
57.5191	505.06
57.5335	522.21
57.5479	519.09
57.5624	512.85
57.5768	518.71
57.5913	551.61
57.6057	520.26
57.6201	503.54
57.6346	524.50
57.6490	541.09
57.6635	527.38
57.6779	513.48
57.6923	509.45
57.7068	539.35
57.7212	531.75
57.7357	530.98
57.7501	525.79
57.7645	517.39
57.7790	525.57
57.7934	532.63
57.8079	545.45
57.8223	514.97
57.8367	542.66
57.8512	533.05
57.8656	542.19
57.8801	558.18
57.8945	596.00
57.9089	547.19
57.9234	524.01
57.9378	543.79
57.9523	557.95
57.9667	532.70
57.9811	483.73
57.9956	539.75
58.0100	524.02
58.0245	534.32
58.0389	531.97
58.0533	553.40
58.0678	532.47
58.0822	550.37
58.0967	550.61
58.1111	532.75
58.1255	567.68
58.1400	530.88
58.1544	539.59
58.1689	572.10
58.1833	538.63
58.1977	550.16
58.2122	556.34
58.2266	544.46
58.2411	543.74
58.2555	564.44
58.2699	556.47
58.2844	559.86
58.2988	567.94
58.3133	601.37
58.3277	585.97
58.3421	585.98
58.3566	582.53
58.3710	570.11
58.3855	599.27
58.3999	617.58
58.4143	620.29
58.4288	618.84
58.4432	606.30
58.4577	600.58
58.4721	640.33
58.4865	640.43
58.5010	665.75
58.5154	621.11
58.5299	633.23
58.5443	662.45
58.5587	634.09
58.5732	625.32
58.5876	628.79
58.6021	594.73
58.6165	607.59
58.6309	598.70
58.6454	608.99
58.6598	624.09
58.6743	596.35
58.6887	636.41
58.7031	632.63
58.7176	620.25
58.7320	608.55
58.7465	572.24
58.7609	577.69
58.7753	569.85
58.7898	553.65
58.8042	547.31
58.8187	589.93
58.8331	557.23
58.8475	533.41
58.8620	573.27
58.8764	550.67
58.8909	536.76
58.9053	548.79
58.9197	534.96
58.9342	530.52
58.9486	570.26
58.9631	561.22
58.9775	556.70
58.9919	532.52
59.0064	514.42
59.0208	560.36
59.0353	564.49
59.0497	525.72
59.0641	558.42
59.0786	518.50
59.0930	527.95
59.1075	530.78
59.1219	571.88
59.1363	561.28
59.1508	541.81
59.1652	540.10
59.1797	552.22
59.1941	526.05
59.2085	538.95
59.2230	547.53
59.2374	535.53
59.2519	533.88
59.2663	536.78
59.2807	552.61
59.2952	566.29
59.3096	561.54
59.3241	560.28
59.3385	587.76
59.3529	550.51
59.3674	541.66
59.3818	551.26
59.3963	526.51
59.4107	512.98
59.4251	571.18
59.4396	553.30
59.4540	529.75
59.4685	554.64
59.4829	549.06
59.4973	587.47
59.5118	576.01
59.5262	569.90
59.5407	565.20
59.5551	563.58
59.5695	554.57
59.5840	547.28
59.5984	584.44
59.6129	546.80
59.6273	547.75
59.6417	604.92
59.6562	577.40
59.6706	547.36
59.6851	524.05
59.6995	535.07
59.7139	550.70
59.7284	541.87
59.7428	520.99
59.7573	506.94
59.7717	551.42
59.7861	547.16
59.8006	506.15
59.8150	553.50
59.8295	549.49
59.8439	528.41
59.8583	582.71
59.8728	547.12
59.8872	533.63
59.9017	541.32
59.9161	547.66
59.9305	555.66
59.9450	524.08
59.9594	560.74
59.9739	510.55
59.9883	564.16
60.0027	549.74
60.0172	532.48
60.0316	534.15
60.0461	524.47
60.0605	551.85
60.0750	542.82
60.0894	533.55
60.1038	515.68
60.1183	520.64
60.1327	526.59
60.1472	522.57
60.1616	530.14
60.1760	563.59
60.1905	538.27
60.2049	534.62
60.2194	572.10
60.2338	537.25
60.2482	537.40
60.2627	525.49
60.2771	546.22
60.2916	546.28
60.3060	576.24
60.3204	547.27
60.3349	530.92
60.3493	537.93
60.3638	542.53
60.3782	572.12
60.3926	538.33
60.4071	540.31
60.4215	554.15
60.4360	549.65
60.4504	538.98
60.4648	524.25
60.4793	515.61
60.4937	526.89
60.5082	524.62
60.5226	549.58
60.5370	516.73
60.5515	587.67
60.5659	575.39
60.5804	541.41
60.5948	555.80
60.6092	536.16
60.6237	530.43
60.6381	540.67
60.6526	549.35
60.6670	543.51
60.6814	566.03
60.6959	565.34
60.7103	531.41
60.7248	533.74
60.7392	538.57
60.7536	540.78
60.7681	524.20
60.7825	533.79
60.7970	535.18
60.8114	541.34
60.8258	515.24
60.8403	556.04
60.8547	548.14
60.8692	565.17
60.8836	542.08
60.8980	541.66
60.9125	563.63
60.9269	552.22
60.9414	536.23
60.9558	530.19
60.9702	501.22
60.9847	566.78
60.9991	557.57
61.0136	585.30
61.0280	528.17
61.0424	539.29
61.0569	505.78
61.0713	500.99
61.0858	542.70
61.1002	569.14
61.1146	556.75
61.1291	532.34
61.1435	519.86
61.1580	541.49
61.1724	556.37
61.1868	527.15
61.2013	523.28
61.2157	497.60
61.2302	507.26
61.2446	553.09
61.2590	561.51
61.2735	551.18
61.2879	565.13
61.3024	541.16
61.3168	551.31
61.3312	585.32
61.3457	524.02
61.3601	527.73
61.3746	550.22
61.3890	528.93
61.4034	523.01
61.4179	541.01
61.4323	545.30
61.4468	529.58
61.4612	581.25
61.4756	596.27
61.4901	561.72
61.5045	530.40
61.5190	537.96
61.5334	563.26
61.5478	578.91
61.5623	546.97
61.5767	551.13
61.5912	564.62
61.6056	557.77
61.6200	553.28
61.6345	568.24
61.6489	576.48
61.6634	539.67
61.6778	511.70
61.6922	521.37
61.7067	560.89
61.7211	564.16
61.7356	531.62
61.7500	555.59
61.7644	584.70
61.7789	595.90
61.7933	588.69
61.8078	571.99
61.8222	518.31
61.8366	535.39
61.8511	521.97
61.8655	518.12
61.8800	531.32
61.8944	556.30
61.9088	547.26
61.9233	526.49
61.9377	545.52
61.9522	555.15
61.9666	532.70
61.9810	586.66
61.9955	582.75
62.0099	538.72
62.0244	552.37
62.0388	565.86
62.0532	522.74
62.0677	583.09
62.0821	583.75
62.0966	569.98
62.1110	551.24
62.1254	556.64
62.1399	544.61
62.1543	537.52
62.1688	554.16
62.1832	552.39
62.1976	551.65
62.2121	550.31
62.2265	537.59
62.2410	556.99
62.2554	539.50
62.2698	535.14
62.2843	544.54
62.2987	532.95
62.3132	530.93
62.3276	563.52
62.3420	561.37
62.3565	570.14
62.3709	553.22
62.3854	534.86
62.3998	544.89
62.4142	546.37
62.4287	570.65
62.4431	554.25
62.4576	565.05
62.4720	557.93
62.4864	574.52
62.5009	554.68
62.5153	568.61
62.5298	566.67
62.5442	529.72
62.5586	534.57
62.5731	530.40
62.5875	530.29
62.6020	575.03
62.6164	539.46
62.6308	564.36
62.6453	568.94
62.6597	571.29
62.6742	550.83
62.6886	547.90
62.7030	538.30
62.7175	547.73
62.7319	570.87
62.7464	538.18
62.7608	507.42
62.7752	538.13
62.7897	559.53
62.8041	543.39
62.8186	553.53
62.8330	580.74
62.8474	588.78
62.8619	601.79
62.8763	584.77
62.8908	571.03
62.9052	584.19
62.9196	573.74
62.9341	565.74
62.9485	576.89
62.9630	568.42
62.9774	606.84
62.9918	594.32
63.0063	576.19
63.0207	555.99
63.0352	581.82
63.0496	574.16
63.0640	561.95
63.0785	585.29
63.0929	553.81
63.1074	528.86
63.1218	564.39
63.1362	545.69
63.1507	547.44
63.1651	581.56
63.1796	543.19
63.1940	523.73
63.2084	588.17
63.2229	591.48
63.2373	560.31
63.2518	570.76
63.2662	560.68
63.2806	566.14
63.2951	565.53
63.3095	582.73
63.3240	606.22
63.3384	564.10
63.3528	573.80
63.3673	569.03
63.3817	547.56
63.3962	539.17
63.4106	583.90
63.4250	607.28
63.4395	557.03
63.4539	579.28
63.4684	631.81
63.4828	602.80
63.4972	579.63
63.5117	574.91
63.5261	581.20
63.5406	570.07
63.5550	573.59
63.5694	590.91
63.5839	587.51
63.5983	644.74
63.6128	598.15
63.6272	593.18
63.6416	593.69
63.6561	601.40
63.6705	598.06
63.6850	585.55
63.6994	588.76
63.7138	631.69
63.7283	581.23
63.7427	604.49
63.7572	594.73
63.7716	584.66
63.7861	597.83
63.8005	583.83
63.8149	583.33
63.8294	594.69
63.8438	605.15
63.8583	585.19
63.8727	608.76
63.8871	576.00
63.9016	604.46
63.9160	618.18
63.9305	610.49
63.9449	617.43
63.9593	606.79
63.9738	600.72
63.9882	577.91
64.0027	628.50
64.0171	616.09
64.0315	647.94
64.0460	595.37
64.0604	608.16
64.0749	673.92
64.0893	678.59
64.1037	673.77
64.1182	722.34
64.1326	751.72
64.1471	745.03
64.1615	710.82
64.1759	808.11
64.1904	732.92
64.2048	704.40
64.2193	757.80
64.2337	724.48
64.2481	727.61
64.2626	725.61
64.2770	747.24
64.2915	783.49
64.3059	768.07
64.3203	773.83
64.3348	776.90
64.3492	736.15
64.3637	757.40
64.3781	735.06
64.3925	709.70
64.4070	748.66
64.4214	732.35
64.4359	776.83
64.4503	723.52
64.4647	770.77
64.4792	741.92
64.4936	742.08
64.5081	702.09
64.5225	711.96
64.5369	757.72
64.5514	737.67
64.5658	694.97
64.5803	713.27
64.5947	707.76
64.6091	718.59
64.6236	706.34
64.6380	707.69
64.6525	697.33
64.6669	667.70
64.6813	685.52
64.6958	682.24
64.7102	736.58
64.7247	689.75
64.7391	680.08
64.7535	737.12
64.7680	720.65
64.7824	750.49
64.7969	778.37
64.8113	784.32
64.8257	822.03
64.8402	827.45
64.8546	787.31
64.8691	880.86
64.8835	851.55
64.8979	919.92
64.9124	912.97
64.9268	865.79
64.9413	973.36
64.9557	967.33
64.9701	970.77
64.9846	1051.12
64.9990	1147.34
65.0135	1264.81
65.0279	1520.96
65.0423	1851.82
65.0568	2203.96
65.0712	2762.75
65.0857	3635.04
65.1001	4823.88
65.1145	6486.34
65.1290	8417.40
65.1434	9919.05
65.1579	11297.30
65.1723	11918.01
65.1867	11168.73
65.2012	9716.51
65.2156	8055.98
65.2301	6214.33
65.2445	5108.31
65.2589	4328.57
65.2734	4215.39
65.2878	4544.28
65.3023	5121.91
65.3167	5909.43
65.3311	6698.35
65.3456	7196.05
65.3600	6928.05
65.3745	6340.78
65.3889	5396.12
65.4033	4269.26
65.4178	3332.90
65.4322	2643.14
65.4467	2038.63
65.4611	1664.66
65.4755	1428.66
65.4900	1214.96
65.5044	1155.90
65.5189	1026.61
65.5333	986.61
65.5477	930.01
65.5622	957.71
65.5766	895.37
65.5911	824.76
65.6055	774.04
65.6199	775.93
65.6344	798.14
65.6488	773.70
65.6633	766.91
65.6777	732.60
65.6921	733.74
65.7066	759.79
65.7210	737.30
65.7355	646.47
65.7499	670.62
65.7643	687.15
65.7788	722.79
65.7932	704.08
65.8077	665.67
65.8221	677.94
65.8365	690.12
65.8510	684.96
65.8654	653.91
65.8799	656.96
65.8943	661.94
65.9087	670.51
65.9232	655.39
65.9376	651.47
65.9521	640.77
65.9665	631.18
65.9809	599.79
65.9954	638.08
66.0098	632.60
66.0243	617.06
66.0387	618.07
66.0531	606.47
66.0676	641.88
66.0820	661.65
66.0965	646.29
66.1109	607.75
66.1253	606.62
66.1398	599.33
66.1542	619.59
66.1687	607.64
66.1831	594.48
66.1975	626.31
66.2120	608.27
66.2264	590.34
66.2409	609.61
66.2553	634.05
66.2697	635.36
66.2842	631.19
66.2986	569.53
66.3131	630.20
66.3275	630.82
66.3419	617.12
66.3564	612.12
66.3708	621.28
66.3853	620.97
66.3997	622.31
66.4141	628.93
66.4286	600.40
66.4430	604.70
66.4575	612.88
66.4719	628.80
66.4863	610.70
66.5008	614.42
66.5152	640.66
66.5297	611.88
66.5441	605.39
66.5585	614.60
66.5730	582.31
66.5874	562.87
66.6019	571.20
66.6163	566.54
66.6307	573.49
66.6452	558.63
66.6596	549.41
66.6741	584.78
66.6885	597.65
66.7029	591.28
66.7174	597.74
66.7318	594.73
66.7463	585.52
66.7607	573.68
66.7751	597.32
66.7896	588.19
66.8040	573.05
66.8185	610.46
66.8329	592.55
66.8473	569.35
66.8618	574.28
66.8762	575.20
66.8907	559.00
66.9051	545.88
66.9195	527.08
66.9340	584.43
66.9484	592.82
66.9629	584.06
66.9773	598.82
66.9917	595.30
67.0062	562.31
67.0206	582.64
67.0351	630.23
67.0495	621.58
67.0639	594.12
67.0784	578.39
67.0928	593.11
67.1073	577.51
67.1217	581.11
67.1361	574.61
67.1506	553.35
67.1650	589.26
67.1795	576.41
67.1939	591.52
67.2083	570.90
67.2228	589.84
67.2372	578.31
67.2517	573.23
67.2661	601.96
67.2805	575.27
67.2950	556.03
67.3094	565.07
67.3239	549.34
67.3383	588.53
67.3527	606.44
67.3672	594.81
67.3816	571.64
67.3961	573.66
67.4105	570.55
67.4250	598.98
67.4394	586.29
67.4538	555.08
67.4683	587.75
67.4827	570.14
67.4972	569.03
67.5116	573.05
67.5260	572.90
67.5405	557.16
67.5549	578.77
67.5694	579.09
67.5838	568.20
67.5982	559.44
67.6127	559.81
67.6271	533.58
67.6416	581.90
67.6560	583.30
67.6704	584.09
67.6849	554.80
67.6993	587.91
67.7138	589.62
67.7282	551.70
67.7426	564.79
67.7571	618.83
67.7715	572.03
67.7860	599.53
67.8004	624.60
67.8148	581.04
67.8293	600.27
67.8437	588.90
67.8582	605.63
67.8726	613.39
67.8870	576.36
67.9015	578.77
67.9159	551.56
67.9304	583.71
67.9448	608.96
67.9592	566.03
67.9737	600.81
67.9881	602.89
68.0026	616.81
68.0170	614.57
68.0314	575.60
68.0459	567.58
68.0603	593.59
68.0748	589.74
68.0892	594.51
68.1036	573.45
68.1181	604.74
68.1325	638.36
68.1470	561.86
68.1614	550.38
68.1758	584.28
68.1903	554.74
68.2047	549.27
68.2192	594.06
68.2336	576.23
68.2480	594.77
68.2625	574.48
68.2769	580.64
68.2914	579.31
68.3058	561.44
68.3202	555.41
68.3347	596.27
68.3491	611.28
68.3636	605.78
68.3780	584.07
68.3924	610.07
68.4069	540.12
68.4213	629.20
68.4358	565.88
68.4502	559.56
68.4646	575.68
68.4791	557.86
68.4935	539.75
68.5080	553.64
68.5224	547.71
68.5368	616.68
68.5513	563.92
68.5657	540.16
68.5802	551.47
68.5946	564.88
68.6090	552.32
68.6235	596.18
68.6379	591.88
68.6524	574.99
68.6668	552.38
68.6812	546.47
68.6957	600.48
68.7101	601.55
68.7246	565.96
68.7390	592.17
68.7534	558.05
68.7679	610.41
68.7823	582.64
68.7968	630.07
68.8112	564.93
68.8256	573.18
68.8401	574.50
68.8545	627.92
68.8690	600.96
68.8834	551.58
68.8978	578.44
68.9123	588.37
68.9267	556.09
68.9412	514.13
68.9556	538.64
68.9700	532.08
68.9845	563.68
68.9989	565.34
69.0134	611.13
69.0278	564.90
69.0422	607.33
69.0567	566.22
69.0711	584.73
69.0856	541.01
69.1000	578.79
69.1144	633.85
69.1289	630.82
69.1433	630.82
69.1578	631.65
69.1722	648.45
69.1866	598.51
69.2011	546.65
69.2155	573.97
69.2300	540.41
69.2444	591.66
69.2588	526.55
69.2733	571.10
69.2877	569.40
69.3022	578.07
69.3166	625.58
69.3310	576.49
69.3455	603.09
69.3599	602.41
69.3744	570.20
69.3888	558.84
69.4032	592.32
69.4177	591.30
69.4321	599.92
69.4466	576.68
69.4610	597.56
69.4754	559.21
69.4899	570.71
69.5043	559.30
69.5188	545.04
69.5332	569.05
69.5476	554.31
69.5621	595.74
69.5765	543.80
69.5910	609.80
69.6054	538.83
69.6198	513.74
69.6343	591.04
69.6487	600.44
69.6632	607.32
69.6776	572.37
69.6920	581.96
69.7065	595.35
69.7209	622.69
69.7354	580.96
69.7498	549.57
69.7642	582.09
69.7787	590.40
69.7931	599.83
69.8076	596.39
69.8220	568.49
69.8364	640.97
69.8509	582.07
69.8653	573.57
69.8798	588.68
69.8942	618.29
69.9086	603.43
69.9231	528.89
69.9375	552.46
69.9520	552.31
69.9664	605.95
69.9808	544.13
69.9953	566.06
70.0097	563.09
70.0242	543.21
70.0386	572.38
70.0530	579.65
70.0675	567.58
70.0819	553.02
70.0964	585.31
70.1108	569.31
70.1252	581.16
70.1397	596.93
70.1541	550.80
70.1686	565.59
70.1830	554.43
70.1974	575.31
70.2119	601.58
70.2263	603.46
70.2408	625.77
70.2552	583.76
70.2696	558.73
70.2841	532.64
70.2985	632.42
70.3130	542.67
70.3274	575.55
70.3418	579.40
70.3563	624.99
70.3707	558.58
70.3852	549.41
70.3996	569.17
70.4140	555.45
70.4285	604.19
70.4429	590.25
70.4574	604.49
70.4718	545.79
70.4862	568.17
70.5007	568.96
70.5151	544.92
70.5296	548.13
70.5440	568.42
70.5584	603.15
70.5729	550.14
70.5873	532.46
70.6018	573.32
70.6162	574.24
70.6306	528.25
70.6451	548.35
70.6595	594.08
70.6740	572.97
70.6884	536.30
70.7028	542.55
70.7173	605.42
70.7317	600.52
70.7462	605.24
70.7606	618.41
70.7750	551.76
70.7895	527.56
70.8039	589.97
70.8184	606.17
70.8328	599.48
70.8472	569.04
70.8617	597.05
70.8761	579.58
70.8906	567.19
70.9050	610.92
70.9194	543.72
70.9339	581.53
70.9483	625.74
70.9628	624.40
70.9772	578.12
70.9916	569.05
71.0061	583.72
71.0205	623.73
71.0350	594.74
71.0494	523.10
71.0638	525.30
71.0783	575.20
71.0927	635.78
71.1072	600.97
71.1216	588.25
71.1361	592.57
71.1505	595.43
71.1649	604.48
71.1794	582.88
71.1938	590.02
71.2083	636.15
71.2227	626.70
71.2371	611.54
71.2516	588.96
71.2660	584.24
71.2805	563.80
71.2949	528.51
71.3093	589.05
71.3238	620.01
71.3382	614.86
71.3527	565.57
71.3671	568.86
71.3815	555.31
71.3960	570.05
71.4104	610.96
71.4249	641.38
71.4393	647.25
71.4537	615.51
71.4682	603.76
71.4826	543.85
71.4971	570.56
71.5115	597.15
71.5259	616.05
71.5404	604.11
71.5548	556.16
71.5693	568.93
71.5837	535.55
71.5981	586.26
71.6126	593.55
71.6270	593.15
71.6415	587.87
71.6559	565.81
71.6703	609.64
71.6848	604.02
71.6992	611.26
71.7137	621.29
71.7281	547.77
71.7425	540.90
71.7570	557.23
71.7714	575.28
71.7859	640.63
71.8003	620.07
71.8147	571.53
71.8292	607.42
71.8436	590.99
71.8581	569.90
71.8725	565.37
71.8869	545.88
71.9014	636.45
71.9158	636.08
71.9303	565.87
71.9447	526.42
71.9591	545.04
71.9736	571.63
71.9880	529.09
72.0025	534.02
72.0169	535.66
72.0313	565.93
72.0458	620.25
72.0602	617.07
72.0747	596.52
72.0891	567.11
72.1035	555.18
72.1180	604.21
72.1324	598.08
72.1469	542.09
72.1613	600.36
72.1757	657.47
72.1902	639.29
72.2046	579.78
72.2191	518.07
72.2335	549.20
72.2479	550.23
72.2624	535.26
72.2768	523.50
72.2913	533.04
72.3057	613.35
72.3201	652.95
72.3346	647.45
72.3490	541.62
72.3635	491.51
72.3779	528.36
72.3923	580.40
72.4068	595.18
72.4212	590.80
72.4357	636.00
72.4501	580.90
72.4645	541.31
72.4790	543.07
72.4934	555.99
72.5079	643.46
72.5223	571.27
72.5367	552.29
72.5512	564.66
72.5656	564.86
72.5801	605.48
72.5945	572.74
72.6089	497.45
72.6234	540.41
72.6378	560.70
72.6523	603.67
72.6667	598.27
72.6811	584.99
72.6956	556.93
72.7100	576.17
72.7245	536.64
72.7389	526.21
72.7533	576.17
72.7678	581.03
72.7822	607.45
72.7967	670.25
72.8111	641.18
72.8255	520.35
72.8400	513.29
72.8544	504.89
72.8689	603.03
72.8833	598.65

Result vector
22.1120	658.83
22.1264	585.56
22.1409	547.04
22.1553	597.65
22.1697	619.64
22.1842	562.80
22.1986	581.62
22.2131	550.56
22.2275	563.21
22.2419	612.67
22.2564	616.49
22.2708	570.04
22.2853	486.55
22.2997	545.66
22.3141	618.36
22.3286	574.35
22.3430	593.08
22.3575	543.60
22.3719	498.05
22.3863	537.16
22.4008	581.24
22.4152	639.55
22.4297	707.33
22.4441	609.98
22.4585	680.92
22.4730	664.79
22.4874	683.99
22.5019	694.62
22.5163	697.34
22.5307	514.41
22.5452	572.39
22.5596	597.58
22.5741	639.55
22.5885	620.78
22.6029	637.17
22.6174	700.13
22.6318	610.82
22.6463	616.18
22.6607	650.57
22.6751	582.83
22.6896	541.31
22.7040	590.85
22.7185	565.72
22.7329	517.98
22.7473	555.06
22.7618	544.34
22.7762	503.60
22.7907	544.87
22.8051	533.24
22.8195	529.41
22.8340	561.85
22.8484	522.10
22.8629	573.70
22.8773	595.28
22.8917	590.80
22.9062	506.08
22.9206	529.07
22.9351	552.05
22.9495	560.80
22.9639	551.85
22.9784	591.13
22.9928	549.27
23.0073	582.64
23.0217	676.81
23.0361	560.81
23.0506	565.94
23.0650	591.67
23.0795	532.09
23.0939	546.57
23.1083	533.77
23.1228	572.54
23.1372	610.68
23.1517	563.29
23.1661	597.20
23.1806	580.28
23.1950	579.42
23.2094	489.05
23.2239	514.20
23.2383	610.91
23.2528	585.15
23.2672	553.47
23.2816	599.96
23.2961	569.59
23.3105	555.11
23.3250	537.43
23.3394	532.98
23.3538	581.87
23.3683	518.80
23.3827	559.09
23.3972	594.21
23.4116	522.40
23.4260	541.02
23.4405	570.97
23.4549	526.60
23.4694	552.77
23.4838	491.63
23.4982	560.33
23.5127	566.68
23.5271	589.31
23.5416	505.28
23.5560	520.75
23.5704	570.91
23.5849	574.12
23.5993	582.09
23.6138	541.60
23.6282	514.06
23.6426	540.81
23.6571	600.19
23.6715	565.63
23.6860	506.44
23.7004	555.93
23.7148	460.12
23.7293	531.19
23.7437	491.70
23.7582	607.48
23.7726	518.46
23.7870	598.57
23.8015	589.38
23.8159	523.36
23.8304	572.23
23.8448	493.51
23.8592	516.78
23.8737	527.91
23.8881	554.35
23.9026	573.93
23.9170	504.20
23.9314	581.39
23.9459	604.42
23.9603	559.24
23.9748	571.51
23.9892	602.12
24.0036	572.87
24.0181	502.51
24.0325	573.93
24.0470	475.19
24.0614	601.13
24.0758	629.88
24.0903	589.59
24.1047	618.43
24.1192	588.67
24.1336	590.22
24.1480	598.61
24.1625	570.34
24.1769	549.17
24.1914	573.26
24.2058	599.99
24.2202	595.59
24.2347	577.98
24.2491	596.55
24.2636	545.21
24.2780	597.49
24.2924	563.72
24.3069	562.59
24.3213	553.87
24.3358	553.35
24.3502	577.06
24.3646	568.41
24.3791	580.32
24.3935	546.10
24.4080	558.57
24.4224	488.04
24.4368	533.87
24.4513	596.32
24.4657	524.19
24.4802	533.43
24.4946	499.78
24.5090	516.89
24.5235	525.03
24.5379	570.42
24.5524	530.99
24.5668	566.29
24.5812	499.43
24.5957	569.95
24.6101	544.57
24.6246	552.37
24.6390	545.42
24.6534	520.88
24.6679	523.97
24.6823	526.31
24.6968	494.35
24.7112	536.69
24.7256	528.98
24.7401	582.13
24.7545	524.60
24.7690	498.43
24.7834	567.56
24.7978	540.25
24.8123	557.31
24.8267	543.35
24.8412	509.19
24.8556	507.67
24.8700	572.36
24.8845	541.89
24.8989	569.45
24.9134	494.95
24.9278	535.38
24.9422	536.51
24.9567	536.89
24.9711	521.03
24.9856	547.59
25.0000	527.97
25.0144	525.09
25.0289	602.98
25.0433	562.45
25.0578	548.28
25.0722	547.22
25.0866	560.94
25.1011	555.73
25.1155	572.34
25.1300	560.07
25.1444	518.46
25.1588	567.36
25.1733	583.67
25.1877	546.68
25.2022	526.92
25.2166	538.80
25.2310	553.20
25.2455	543.58
25.2599	510.08
25.2744	528.13
25.2888	526.77
25.3032	529.28
25.3177	503.50
25.3321	561.10
25.3466	551.07
25.3610	557.93
25.3754	590.20
25.3899	542.70
25.4043	508.04
25.4188	520.89
25.4332	554.32
25.4476	568.20
25.4621	581.22
25.4765	573.22
25.4910	581.74
25.5054	579.58
25.5198	534.62
25.5343	550.77
25.5487	543.30
25.5632	572.52
25.5776	557.70
25.5920	547.07
25.6065	539.24
25.6209	531.52
25.6354	533.20
25.6498	536.09
25.6642	553.95
25.6787	543.54
25.6931	541.77
25.7076	583.11
25.7220	544.16
25.7364	519.01
25.7509	507.70
25.7653	516.20
25.7798	550.13
25.7942	586.80
25.8086	521.42
25.8231	534.84
25.8375	556.37
25.8520	524.68
25.8664	574.37
25.8808	540.93
25.8953	590.12
25.9097	533.08
25.9242	507.88
25.9386	533.32
25.9530	533.41
25.9675	522.74
25.9819	559.60
25.9964	570.90
26.0108	542.94
26.0252	547.89
26.0397	518.82
26.0541	536.50
26.0686	506.49
26.0830	522.51
26.0974	521.20
26.1119	545.25
26.1263	573.48
26.1408	543.94
26.1552	536.51
26.1696	532.17
26.1841	516.49
26.1985	507.21
26.2130	577.15
26.2274	557.86
26.2418	508.37
26.2563	552.98
26.2707	554.39
26.2852	535.71
26.2996	515.78
26.3140	513.92
26.3285	531.22
26.3429	523.32
26.3574	539.99
26.3718	542.29
26.3862	529.95
26.4007	516.01
26.4151	530.09
26.4296	546.12
26.4440	478.30
26.4584	515.22
26.4729	536.67
26.4873	532.35
26.5018	555.77
26.5162	548.69
26.5306	515.25
26.5451	535.64
26.5595	517.93
26.5740	551.24
26.5884	540.02
26.6028	506.07
26.6173	514.25
26.6317	526.81
26.6462	548.87
26.6606	517.41
26.6750	513.56
26.6895	516.71
26.7039	525.02
26.7184	537.65
26.7328	547.32
26.7472	541.83
26.7617	516.21
26.7761	505.52
26.7906	513.15
26.8050	510.77
26.8194	517.35
26.8339	525.05
26.8483	499.41
26.8628	537.29
26.8772	515.21
26.8917	526.32
26.9061	516.40
26.9205	505.56
26.9350	524.53
26.9494	531.27
26.9639	522.50
26.9783	526.43
26.9927	535.04
27.0072	525.17
27.0216	548.70
27.0361	541.18
27.0505	515.43
27.0649	512.96
27.0794	512.88
27.0938	534.25
27.1083	517.63
27.1227	501.06
27.1371	500.15
27.1516	513.72
27.1660	548.62
27.1805	528.32
27.1949	538.13
27.2093	518.85
27.2238	526.34
27.2382	529.31
27.2527	521.92
27.2671	520.31
27.2815	527.58
27.2960	504.63
27.3104	516.96
27.3249	486.33
27.3393	527.83
27.3537	527.02
27.3682	496.94
27.3826	504.16
27.3971	515.32
27.4115	524.31
27.4259	538.28
27.4404	490.03
27.4548	505.87
27.4693	534.54
27.4837	503.57
27.4981	507.71
27.5126	501.13
27.5270	499.83
27.5415	537.50
27.5559	518.46
27.5703	507.97
27.5848	545.80
27.5992	526.95
27.6137	540.61
27.6281	509.32
27.6425	535.65
27.6570	502.26
27.6714	492.70
27.6859	525.56
27.7003	523.19
27.7147	514.97
27.7292	480.17
27.7436	501.29
27.7581	513.09
27.7725	513.40
27.7869	530.01
27.8014	540.10
27.8158	514.03
27.8303	539.17
27.8447	517.01
27.8591	510.93
27.8736	544.01
27.8880	499.67
27.9025	533.34
27.9169	537.71
27.9313	539.05
27.9458	543.17
27.9602	499.33
27.9747	513.92
27.9891	533.79
28.0035	527.45
28.0180	569.63
28.0324	526.44
28.0469	517.01
28.0613	500.20
28.0757	515.24
28.0902	538.18
28.1046	500.06
28.1191	556.09
28.1335	563.91
28.1479	510.34
28.1624	544.38
28.1768	509.12
28.1913	543.85
28.2057	517.53
28.2201	529.22
28.2346	506.48
28.2490	508.14
28.2635	507.58
28.2779	500.93
28.2923	511.11
28.3068	530.95
28.3212	530.94
28.3357	514.74
28.3501	515.62
28.3645	519.55
28.3790	492.18
28.3934	510.08
28.4079	493.98
28.4223	504.50
28.4367	512.87
28.4512	505.76
28.4656	531.21
28.4801	541.02
28.4945	522.24
28.5089	520.70
28.5234	524.20
28.5378	521.72
28.5523	527.74
28.5667	506.10
28.5811	544.81
28.5956	539.35
28.6100	500.42
28.6245	515.88
28.6389	554.75
28.6533	507.08
28.6678	511.29
28.6822	510.94
28.6967	493.20
28.7111	518.88
28.7255	520.41
28.7400	519.52
28.7544	519.69
28.7689	488.98
28.7833	518.57
28.7977	512.86
28.8122	546.24
28.8266	554.47
28.8411	507.64
28.8555	502.00
28.8699	515.16
28.8844	476.06
28.8988	507.49
28.9133	506.55
28.9277	535.08
28.9421	533.03
28.9566	511.00
28.9710	536.16
28.9855	503.35
28.9999	489.65
29.0143	496.24
29.0288	530.21
29.0432	540.25
29.0577	506.35
29.0721	475.28
29.0865	523.48
29.1010	515.12
29.1154	538.51
29.1299	501.10
29.1443	472.47
29.1587	467.72
29.1732	508.40
29.1876	496.47
29.2021	553.76
29.2165	537.65
29.2309	536.56
29.2454	503.86
29.2598	518.85
29.2743	492.16
29.2887	475.19
29.3031	477.60
29.3176	501.83
29.3320	506.82
29.3465	549.35
29.3609	519.67
29.3753	511.31
29.3898	505.13
29.4042	489.71
29.4187	518.43
29.4331	540.32
29.4475	532.47
29.4620	506.77
29.4764	512.56
29.4909	500.30
29.5053	533.40
29.5197	496.38
29.5342	456.08
29.5486	496.58
29.5631	503.09
29.5775	486.87
29.5919	523.19
29.6064	473.69
29.6208	513.74
29.6353	538.07
29.6497	508.23
29.6641	505.07
29.6786	502.19
29.6930	486.78
29.7075	527.88
29.7219	490.86
29.7363	535.92
29.7508	527.96
29.7652	531.64
29.7797	533.61
29.7941	497.46
29.8085	516.24
29.8230	513.24
29.8374	522.95
29.8519	519.29
29.8663	530.83
29.8807	508.11
29.8952	507.09
29.9096	514.81
29.9241	479.17
29.9385	514.74
29.9529	523.59
29.9674	510.43
29.9818	510.79
29.9963	497.35
30.0107	505.46
30.0251	488.80
30.0396	542.48
30.0540	515.67
30.0685	535.45
30.0829	475.00
30.0973	503.44
30.1118	520.51
30.1262	521.43
30.1407	512.22
30.1551	502.48
30.1695	499.20
30.1840	489.83
30.1984	512.57
30.2129	491.92
30.2273	474.09
30.2417	521.42
30.2562	529.59
30.2706	525.37
30.2851	495.06
30.2995	500.03
30.3139	524.55
30.3284	525.12
30.3428	538.87
30.3573	515.71
30.3717	505.39
30.3861	489.25
30.4006	489.19
30.4150	513.41
30.4295	516.68
30.4439	507.48
30.4583	529.52
30.4728	537.65
30.4872	517.29
30.5017	489.55
30.5161	508.12
30.5305	534.89
30.5450	511.85
30.5594	517.73
30.5739	495.52
30.5883	511.25
30.6028	506.97
30.6172	507.17
30.6316	526.94
30.6461	549.67
30.6605	534.66
30.6750	509.34
30.6894	513.32
30.7038	517.28
30.7183	547.71
30.7327	515.21
30.7472	545.31
30.7616	536.56
30.7760	584.21
30.7905	585.75
30.8049	615.14
30.8194	641.59
30.8338	643.57
30.8482	685.64
30.8627	694.94
30.8771	697.21
30.8916	690.04
30.9060	713.92
30.9204	683.95
30.9349	694.00
30.9493	688.86
30.9638	671.86
30.9782	654.12
30.9926	644.64
31.0071	607.09
31.0215	562.85
31.0360	566.57
31.0504	579.53
31.0648	547.56
31.0793	580.90
31.0937	597.53
31.1082	580.83
31.1226	552.45
31.1370	531.91
31.1515	515.20
31.1659	512.14
31.1804	520.52
31.1948	530.92
31.2092	486.56
31.2237	503.30
31.2381	558.47
31.2526	534.57
31.2670	501.58
31.2814	533.87
31.2959	535.52
31.3103	531.37
31.3248	525.57
31.3392	523.54
31.3536	526.98
31.3681	499.16
31.3825	551.62
31.3970	500.52
31.4114	513.93
31.4258	546.69
31.4403	501.78
31.4547	503.52
31.4692	503.55
31.4836	492.08
31.4980	510.91
31.5125	509.93
31.5269	521.65
31.5414	526.92
31.5558	522.10
31.5702	520.64
31.5847	522.46
31.5991	487.67
31.6136	482.02
31.6280	493.94
31.6424	522.29
31.6569	518.54
31.6713	528.47
31.6858	495.52
31.7002	489.14
31.7146	532.62
31.7291	505.42
31.7435	510.92
31.7580	523.01
31.7724	498.76
31.7868	515.28
31.8013	503.55
31.8157	510.91
31.8302	484.15
31.8446	475.75
31.8590	507.14
31.8735	514.35
31.8879	525.89
31.9024	524.65
31.9168	538.68
31.9312	464.16
31.9457	520.18
31.9601	511.06
31.9746	519.03
31.9890	506.14
32.0034	502.14
32.0179	531.29
32.0323	496.73
32.0468	509.29
32.0612	514.08
32.0756	506.76
32.0901	510.05
32.1045	506.98
32.1190	536.99
32.1334	531.12
32.1478	525.61
32.1623	514.08
32.1767	508.74
32.1912	495.15
32.2056	505.73
32.2200	492.74
32.2345	490.02
32.2489	495.21
32.2634	500.06
32.2778	517.72
32.2922	519.98
32.3067	499.74
32.3211	504.98
32.3356	534.99
32.3500	493.66
32.3644	477.93
32.3789	499.85
32.3933	503.02
32.4078	479.77
32.4222	504.50
32.4366	465.42
32.4511	488.22
32.4655	544.32
32.4800	513.87
32.4944	528.47
32.5088	516.08
32.5233	484.50
32.5377	484.91
32.5522	526.96
32.5666	543.84
32.5810	484.62
32.5955	511.66
32.6099	535.38
32.6244	531.16
32.6388	508.88
32.6532	515.32
32.6677	493.83
32.6821	486.76
32.6966	484.49
32.7110	515.01
32.7254	489.30
32.7399	479.25
32.7543	512.54
32.7688	499.57
32.7832	503.73
32.7976	486.56
32.8121	494.64
32.8265	506.25
32.8410	462.92
32.8554	490.85
32.8698	533.84
32.8843	510.68
32.8987	502.52
32.9132	515.69
32.9276	514.29
32.9420	530.18
32.9565	537.67
32.9709	515.12
32.9854	506.89
32.9998	474.75
33.0142	501.12
33.0287	498.61
33.0431	465.89
33.0576	508.57
33.0720	504.20
33.0864	524.40
33.1009	511.37
33.1153	520.34
33.1298	531.74
33.1442	484.82
33.1586	517.15
33.1731	483.59
33.1875	502.27
33.2020	477.92
33.2164	471.88
33.2308	481.13
33.2453	476.78
33.2597	524.37
33.2742	526.01
33.2886	543.96
33.3030	516.97
33.3175	538.54
33.3319	508.86
33.3464	516.50
33.3608	552.68
33.3752	506.60
33.3897	493.53
33.4041	519.08
33.4186	483.32
33.4330	482.47
33.4474	484.42
33.4619	513.72
33.4763	477.41
33.4908	500.86
33.5052	514.85
33.5196	505.67
33.5341	492.92
33.5485	515.51
33.5630	499.66
33.5774	496.47
33.5918	485.54
33.6063	504.31
33.6207	521.25
33.6352	547.62
33.6496	501.85
33.6640	487.93
33.6785	458.83
33.6929	474.77
33.7074	520.86
33.7218	562.32
33.7362	520.50
33.7507	544.83
33.7651	548.92
33.7796	508.05
33.7940	486.78
33.8084	512.62
33.8229	496.48
33.8373	504.81
33.8518	507.06
33.8662	537.00
33.8806	498.24
33.8951	476.70
33.9095	480.36
33.9240	515.69
33.9384	526.50
33.9528	490.35
33.9673	477.98
33.9817	442.78
33.9962	505.29
34.0106	500.07
34.0250	517.56
34.0395	508.86
34.0539	502.74
34.0684	560.45
34.0828	534.35
34.0972	515.19
34.1117	475.39
34.1261	503.83
34.1406	496.94
34.1550	476.85
34.1694	518.69
34.1839	523.05
34.1983	488.57
34.2128	492.43
34.2272	467.93
34.2417	499.15
34.2561	489.63
34.2705	492.09
34.2850	504.12
34.2994	495.34
34.3139	517.00
34.3283	485.53
34.3427	518.81
34.3572	524.08
34.3716	517.62
34.3861	511.48
34.4005	498.40
34.4149	498.42
34.4294	493.52
34.4438	511.88
34.4583	520.26
34.4727	511.71
34.4871	495.08
34.5016	497.44
34.5160	509.68
34.5305	545.11
34.5449	510.51
34.5593	527.23
34.5738	509.45
34.5882	497.63
34.6027	484.25
34.6171	505.11
34.6315	521.86
34.6460	514.44
34.6604	468.29
34.6749	494.23
34.6893	503.99
34.7037	515.11
34.7182	481.28
34.7326	483.49
34.7471	536.85
34.7615	523.49
34.7759	496.29
34.7904	493.89
34.8048	514.30
34.8193	519.51
34.8337	509.45
34.8481	496.15
34.8626	516.17
34.8770	517.23
34.8915	489.93
34.9059	529.22
34.9203	506.33
34.9348	526.51
34.9492	531.93
34.9637	526.69
34.9781	517.41
34.9925	508.73
35.0070	551.28
35.0214	530.12
35.0359	497.48
35.0503	521.07
35.0647	547.14
35.0792	536.18
35.0936	545.84
35.1081	513.76
35.1225	522.41
35.1369	542.68
35.1514	493.22
35.1658	520.47
35.1803	519.35
35.1947	480.18
35.2091	489.39
35.2236	470.65
35.2380	515.84
35.2525	510.27
35.2669	488.86
35.2813	518.04
35.2958	475.45
35.3102	496.19
35.3247	502.53
35.3391	503.93
35.3535	489.95
35.3680	481.16
35.3824	492.27
35.3969	495.39
35.4113	499.53
35.4257	524.53
35.4402	517.32
35.4546	549.96
35.4691	535.95
35.4835	523.78
35.4979	491.75
35.5124	515.54
35.5268	504.78
35.5413	526.91
35.5557	554.13
35.5701	500.54
35.5846	494.05
35.5990	508.55
35.6135	539.60
35.6279	518.71
35.6423	542.69
35.6568	545.37
35.6712	505.60
35.6857	556.30
35.7001	623.48
35.7145	699.88
35.7290	665.78
35.7434	599.94
35.7579	574.76
35.7723	556.35
35.7867	614.30
35.8012	623.95
35.8156	603.03
35.8301	640.79
35.8445	596.42
35.8589	577.40
35.8734	709.55
35.8878	885.90
35.9023	996.26
35.9167	1072.78
35.9311	1507.42
35.9456	2271.11
35.9600	2356.47
35.9745	1781.25
35.9889	1768.68
36.0033	2254.45
36.0178	2200.57
36.0322	1875.03
36.0467	1858.91
36.0611	1571.77
36.0755	1583.35
36.0900	1479.02
36.1044	1305.52
36.1189	1272.64
36.1333	1184.27
36.1477	1031.52
36.1622	1030.94
36.1766	1008.26
36.1911	965.52
36.2055	847.07
36.2199	723.42
36.2344	766.50
36.2488	800.32
36.2633	756.06
36.2777	792.15
36.2921	870.77
36.3066	836.23
36.3210	900.84
36.3355	989.23
36.3499	996.11
36.3643	1001.45
36.3788	969.02
36.3932	962.78
36.4077	946.47
36.4221	954.27
36.4365	953.87
36.4510	915.30
36.4654	912.23
36.4799	840.36
36.4943	780.74
36.5087	767.52
36.5232	728.89
36.5376	737.28
36.5521	697.02
36.5665	633.91
36.5809	601.79
36.5954	622.52
36.6098	617.01
36.6243	561.84
36.6387	570.46
36.6531	588.05
36.6676	621.81
36.6820	572.39
36.6965	567.95
36.7109	547.70
36.7253	551.62
36.7398	529.74
36.7542	545.63
36.7687	568.25
36.7831	581.29
36.7975	592.61
36.8120	570.93
36.8264	578.16
36.8409	540.93
36.8553	598.79
36.8697	597.11
36.8842	616.84
36.8986	614.74
36.9131	632.91
36.9275	555.77
36.9419	621.19
36.9564	607.86
36.9708	581.36
36.9853	545.67
36.9997	560.65
37.0141	514.24
37.0286	530.25
37.0430	549.69
37.0575	513.98
37.0719	517.59
37.0863	561.84
37.1008	550.14
37.1152	524.56
37.1297	551.80
37.1441	480.59
37.1585	508.25
37.1730	532.43
37.1874	514.19
37.2019	490.27
37.2163	517.35
37.2307	504.38
37.2452	524.90
37.2596	521.47
37.2741	490.61
37.2885	507.42
37.3029	503.96
37.3174	487.57
37.3318	480.13
37.3463	487.52
37.3607	506.06
37.3751	484.72
37.3896	499.77
37.4040	491.59
37.4185	509.45
37.4329	556.09
37.4473	496.25
37.4618	495.70
37.4762	508.44
37.4907	513.97
37.5051	521.69
37.5195	529.57
37.5340	463.06
37.5484	476.98
37.5629	522.77
37.5773	501.55
37.5917	503.87
37.6062	542.84
37.6206	493.03
37.6351	463.03
37.6495	480.61
37.6639	487.22
37.6784	475.67
37.6928	482.91
37.7073	554.53
37.7217	515.69
37.7361	490.31
37.7506	535.39
37.7650	525.00
37.7795	475.58
37.7939	500.00
37.8083	508.41
37.8228	492.58
37.8372	497.84
37.8517	523.90
37.8661	510.20
37.8805	522.37
37.8950	507.82
37.9094	531.16
37.9239	499.31
37.9383	494.25
37.9528	484.91
37.9672	488.29
37.9816	542.16
37.9961	514.62
38.0105	487.80
38.0250	496.14
38.0394	521.56
38.0538	520.25
38.0683	506.17
38.0827	487.23
38.0972	520.85
38.1116	520.21
38.1260	512.36
38.1405	503.55
38.1549	484.68
38.1694	509.57
38.1838	495.61
38.1982	487.46
38.2127	506.83
38.2271	473.96
38.2416	492.51
38.2560	510.84
38.2704	520.87
38.2849	475.13
38.2993	476.58
38.3138	522.35
38.3282	524.26
38.3426	544.61
38.3571	508.30
38.3715	505.87
38.3860	535.34
38.4004	519.48
38.4148	539.07
38.4293	592.04
38.4437	586.00
38.4582	622.74
38.4726	669.25
38.4870	724.39
38.5015	750.75
38.5159	776.49
38.5304	830.46
38.5448	792.17
38.5592	814.97
38.5737	797.06
38.5881	736.29
38.6026	711.60
38.6170	687.55
38.6314	685.63
38.6459	673.81
38.6603	615.50
38.6748	585.97
38.6892	562.41
38.7036	567.50
38.7181	573.90
38.7325	508.49
38.7470	539.46
38.7614	532.71
38.7758	502.84
38.7903	533.85
38.8047	550.85
38.8192	541.16
38.8336	481.49
38.8480	503.19
38.8625	524.76
38.8769	536.58
38.8914	485.76
38.9058	508.56
38.9202	501.75
38.9347	508.99
38.9491	517.59
38.9636	516.77
38.9780	477.66
38.9924	484.14
39.0069	495.45
39.0213	525.50
39.0358	522.97
39.0502	514.35
39.0646	524.99
39.0791	518.20
39.0935	507.93
39.1080	492.45
39.1224	493.60
39.1368	510.72
39.1513	497.18
39.1657	528.13
39.1802	506.43
39.1946	475.97
39.2090	501.34
39.2235	499.09
39.2379	484.94
39.2524	496.27
39.2668	501.15
39.2812	521.95
39.2957	526.82
39.3101	510.51
39.3246	528.78
39.3390	541.75
39.3534	525.72
39.3679	499.51
39.3823	515.53
39.3968	519.08
39.4112	487.01
39.4256	525.78
39.4401	511.95
39.4545	480.87
39.4690	508.27
39.4834	536.19
39.4978	531.91
39.5123	496.12
39.5267	472.18
39.5412	484.64
39.5556	504.56
39.5700	506.00
39.5845	519.36
39.5989	464.74
39.6134	512.88
39.6278	527.08
39.6422	513.79
39.6567	507.15
39.6711	512.30
39.6856	444.09
39.7000	468.81
39.7144	528.17
39.7289	481.58
39.7433	495.60
39.7578	478.91
39.7722	490.64
39.7866	510.35
39.8011	482.67
39.8155	498.21
39.8300	480.70
39.8444	505.36
39.8588	494.21
39.8733	525.73
39.8877	519.38
39.9022	533.10
39.9166	529.99
39.9310	492.10
39.9455	487.07
39.9599	480.21
39.9744	498.94
39.9888	493.44
40.0032	475.93
40.0177	518.01
40.0321	507.26
40.0466	486.17
40.0610	510.33
40.0754	462.49
40.0899	526.20
40.1043	484.27
40.1188	480.44
40.1332	480.98
40.1476	503.67
40.1621	471.13
40.1765	493.04
40.1910	519.94
40.2054	503.21
40.2198	530.47
40.2343	531.53
40.2487	513.88
40.2632	511.92
40.2776	541.05
40.2920	473.25
40.3065	523.94
40.3209	507.98
40.3354	522.25
40.3498	499.25
40.3642	506.74
40.3787	456.62
40.3931	476.45
40.4076	511.09
40.4220	510.49
40.4364	505.96
40.4509	489.25
40.4653	506.38
40.4798	487.37
40.4942	480.97
40.5086	498.10
40.5231	507.05
40.5375	529.13
40.5520	488.70
40.5664	507.97
40.5808	502.49
40.5953	507.21
40.6097	482.59
40.6242	494.53
40.6386	540.58
40.6530	500.36
40.6675	498.65
40.6819	496.15
40.6964	524.90
40.7108	518.03
40.7252	503.70
40.7397	501.35
40.7541	516.37
40.7686	514.28
40.7830	532.52
40.7974	513.37
40.8119	491.61
40.8263	496.51
40.8408	523.97
40.8552	479.58
40.8696	526.20
40.8841	487.69
40.8985	509.43
40.9130	498.73
40.9274	531.02
40.9418	542.75
40.9563	508.72
40.9707	501.08
40.9852	516.95
40.9996	467.83
41.0140	506.47
41.0285	506.36
41.0429	480.45
41.0574	512.26
41.0718	495.98
41.0862	485.61
41.1007	520.08
41.1151	489.54
41.1296	515.88
41.1440	465.64
41.1584	474.86
41.1729	521.78
41.1873	492.95
41.2018	481.20
41.2162	494.71
41.2306	521.85
41.2451	527.90
41.2595	502.65
41.2740	473.57
41.2884	478.11
41.3028	491.43
41.3173	504.05
41.3317	489.47
41.3462	465.37
41.3606	529.03
41.3750	487.31
41.3895	493.97
41.4039	502.11
41.4184	480.97
41.4328	493.53
41.4472	483.24
41.4617	518.20
41.4761	508.36
41.4906	501.64
41.5050	536.21
41.5194	514.48
41.5339	479.57
41.5483	492.65
41.5628	523.05
41.5772	492.15
41.5916	480.32
41.6061	501.81
41.6205	473.63
41.6350	502.95
41.6494	481.23
41.6639	527.87
41.6783	513.47
41.6927	485.57
41.7072	523.18
41.7216	537.38
41.7361	479.86
41.7505	510.16
41.7649	479.38
41.7794	506.33
41.7938	520.47
41.8083	497.69
41.8227	482.50
41.8371	508.54
41.8516	516.92
41.8660	542.84
41.8805	535.00
41.8949	531.76
41.9093	519.68
41.9238	539.74
41.9382	569.85
41.9527	552.18
41.9671	563.65
41.9815	563.62
41.9960	529.05
42.0104	574.69
42.0249	590.56
42.0393	558.00
42.0537	556.39
42.0682	546.64
42.0826	565.23
42.0971	604.67
42.1115	518.71
42.1259	557.91
42.1404	625.04
42.1548	614.15
42.1693	660.04
42.1837	727.93
42.1981	731.90
42.2126	811.30
42.2270	916.01
42.2415	1024.46
42.2559	1170.39
42.2703	1316.62
42.2848	1495.50
42.2992	1617.38
42.3137	1641.06
42.3281	1641.99
42.3425	1552.28
42.3570	1419.63
42.3714	1364.06
42.3859	1386.00
42.4003	1397.96
42.4147	1371.44
42.4292	1283.30
42.4436	1165.07
42.4581	1033.20
42.4725	935.55
42.4869	830.48
42.5014	742.28
42.5158	726.62
42.5303	685.28
42.5447	646.07
42.5591	637.45
42.5736	619.58
42.5880	590.30
42.6025	575.04
42.6169	541.87
42.6313	533.96
42.6458	550.58
42.6602	539.15
42.6747	512.83
42.6891	513.43
42.7035	553.96
42.7180	550.58
42.7324	529.14
42.7469	516.89
42.7613	509.05
42.7757	531.43
42.7902	516.20
42.8046	534.04
42.8191	530.62
42.8335	517.86
42.8479	499.97
42.8624	516.51
42.8768	530.06
42.8913	504.75
42.9057	528.68
42.9201	533.64
42.9346	511.64
42.9490	524.15
42.9635	489.30
42.9779	463.57
42.9923	505.83
43.0068	525.35
43.0212	500.10
43.0357	502.70
43.0501	483.94
43.0645	514.36
43.0790	519.60
43.0934	523.73
43.1079	527.97
43.1223	558.10
43.1367	530.51
43.1512	522.02
43.1656	512.49
43.1801	518.38
43.1945	561.63
43.2089	527.71
43.2234	534.46
43.2378	505.46
43.2523	541.58
43.2667	537.52
43.2811	566.41
43.2956	550.30
43.3100	554.95
43.3245	525.58
43.3389	551.01
43.3533	524.67
43.3678	507.20
43.3822	546.79
43.3967	528.95
43.4111	520.93
43.4255	522.97
43.4400	535.17
43.4544	527.03
43.4689	519.87
43.4833	514.89
43.4977	494.98
43.5122	518.29
43.5266	501.07
43.5411	502.68
43.5555	530.96
43.5699	497.25
43.5844	512.77
43.5988	534.18
43.6133	536.98
43.6277	518.13
43.6421	482.12
43.6566	473.25
43.6710	529.96
43.6855	523.68
43.6999	547.34
43.7143	531.83
43.7288	526.11
43.7432	522.85
43.7577	535.09
43.7721	489.94
43.7865	504.67
43.8010	521.44
43.8154	522.55
43.8299	547.26
43.8443	509.52
43.8587	550.51
43.8732	500.09
43.8876	539.08
43.9021	520.73
43.9165	548.32
43.9309	555.06
43.9454	508.09
43.9598	512.77
43.9743	520.48
43.9887	529.94
44.0031	531.22
44.0176	529.70
44.0320	530.14
44.0465	507.18
44.0609	563.77
44.0753	511.81
44.0898	563.88
44.1042	576.85
44.1187	573.21
44.1331	606.09
44.1475	592.57
44.1620	604.23
44.1764	613.27
44.1909	585.92
44.2053	617.69
44.2197	633.11
44.2342	628.23
44.2486	641.31
44.2631	585.15
44.2775	587.91
44.2919	587.33
44.3064	600.32
44.3208	599.98
44.3353	618.43
44.3497	634.18
44.3641	601.08
44.3786	575.38
44.3930	559.50
44.4075	599.49
44.4219	620.87
44.4363	590.38
44.4508	542.51
44.4652	589.41
44.4797	577.34
44.4941	554.09
44.5085	610.26
44.5230	596.98
44.5374	582.13
44.5519	619.49
44.5663	590.31
44.5807	565.69
44.5952	587.85
44.6096	610.79
44.6241	574.58
44.6385	544.97
44.6529	584.15
44.6674	589.36
44.6818	626.73
44.6963	618.56
44.7107	714.85
44.7251	720.83
44.7396	777.62
44.7540	808.36
44.7685	865.65
44.7829	916.49
44.7973	833.09
44.8118	830.56
44.8262	773.85
44.8407	765.19
44.8551	765.96
44.8695	737.04
44.8840	741.61
44.8984	695.03
44.9129	706.48
44.9273	668.58
44.9417	656.61
44.9562	602.24
44.9706	567.00
44.9851	536.45
44.9995	573.26
45.0139	541.25
45.0284	554.32
45.0428	551.26
45.0573	541.02
45.0717	528.69
45.0861	529.91
45.1006	498.13
45.1150	529.04
45.1295	503.77
45.1439	480.75
45.1583	518.44
45.1728	524.68
45.1872	482.66
45.2017	514.62
45.2161	490.20
45.2305	482.41
45.2450	511.12
45.2594	506.32
45.2739	500.31
45.2883	535.99
45.3028	520.33
45.3172	505.52
45.3316	495.66
45.3461	504.59
45.3605	524.41
45.3750	463.19
45.3894	505.24
45.4038	518.31
45.4183	507.18
45.4327	484.15
45.4472	473.05
45.4616	497.53
45.4760	514.11
45.4905	498.70
45.5049	481.69
45.5194	491.26
45.5338	503.01
45.5482	479.94
45.5627	469.54
45.5771	466.13
45.5916	518.64
45.6060	511.32
45.6204	501.13
45.6349	529.39
45.6493	512.66
45.6638	512.36
45.6782	506.07
45.6926	499.92
45.7071	515.04
45.7215	518.98
45.7360	469.21
45.7504	509.56
45.7648	499.92
45.7793	522.75
45.7937	539.49
45.8082	510.05
45.8226	476.49
45.8370	529.41
45.8515	505.62
45.8659	497.41
45.8804	509.37
45.8948	491.41
45.9092	503.90
45.9237	470.21
45.9381	533.14
45.9526	486.71
45.9670	490.00
45.9814	491.96
45.9959	498.65
46.0103	503.86
46.0248	510.18
46.0392	497.69
46.0536	498.90
46.0681	451.48
46.0825	476.10
46.0970	481.34
46.1114	528.68
46.1258	505.07
46.1403	485.56
46.1547	498.54
46.1692	502.10
46.1836	493.59
46.1980	482.16
46.2125	494.16
46.2269	524.32
46.2414	479.70
46.2558	485.82
46.2702	500.70
46.2847	509.72
46.2991	500.76
46.3136	474.57
46.3280	491.12
46.3424	524.86
46.3569	541.26
46.3713	515.97
46.3858	479.60
46.4002	466.44
46.4146	476.74
46.4291	510.17
46.4435	473.36
46.4580	487.78
46.4724	520.15
46.4868	525.52
46.5013	525.91
46.5157	509.34
46.5302	512.14
46.5446	488.99
46.5590	510.27
46.5735	490.79
46.5879	507.87
46.6024	487.48
46.6168	494.36
46.6312	526.08
46.6457	493.27
46.6601	481.00
46.6746	512.31
46.6890	485.29
46.7034	503.67
46.7179	501.21
46.7323	464.76
46.7468	527.94
46.7612	506.70
46.7756	484.16
46.7901	503.02
46.8045	525.19
46.8190	499.28
46.8334	504.11
46.8478	491.54
46.8623	532.42
46.8767	527.95
46.8912	491.69
46.9056	522.47
46.9200	522.00
46.9345	503.90
46.9489	528.64
46.9634	486.31
46.9778	494.77
46.9922	501.80
47.0067	507.17
47.0211	525.27
47.0356	539.00
47.0500	550.28
47.0644	522.34
47.0789	505.82
47.0933	520.95
47.1078	496.99
47.1222	489.25
47.1366	496.06
47.1511	478.54
47.1655	489.82
47.1800	535.92
47.1944	502.64
47.2088	476.85
47.2233	501.62
47.2377	501.93
47.2522	517.92
47.2666	511.08
47.2810	502.47
47.2955	491.88
47.3099	520.17
47.3244	504.70
47.3388	534.59
47.3532	521.95
47.3677	495.63
47.3821	511.14
47.3966	501.77
47.4110	493.85
47.4254	541.24
47.4399	503.83
47.4543	503.42
47.4688	507.45
47.4832	499.52
47.4976	514.32
47.5121	484.57
47.5265	509.21
47.5410	526.71
47.5554	518.49
47.5698	502.92
47.5843	519.24
47.5987	522.74
47.6132	520.68
47.6276	522.48
47.6420	494.94
47.6565	541.62
47.6709	505.53
47.6854	516.56
47.6998	541.95
47.7142	531.38
47.7287	493.68
47.7431	492.05
47.7576	502.88
47.7720	483.35
47.7864	498.32
47.8009	515.98
47.8153	507.84
47.8298	515.54
47.8442	515.89
47.8586	502.55
47.8731	490.67
47.8875	502.08
47.9020	508.19
47.9164	499.45
47.9308	484.66
47.9453	509.83
47.9597	514.58
47.9742	470.83
47.9886	497.09
48.0030	451.97
48.0175	502.67
48.0319	524.12
48.0464	521.51
48.0608	535.51
48.0752	499.51
48.0897	575.24
48.1041	578.90
48.1186	537.32
48.1330	504.98
48.1474	478.72
48.1619	507.32
48.1763	546.92
48.1908	494.77
48.2052	482.68
48.2196	510.65
48.2341	493.34
48.2485	506.93
48.2630	505.73
48.2774	500.04
48.2918	477.39
48.3063	516.57
48.3207	499.62
48.3352	496.40
48.3496	496.19
48.3640	522.69
48.3785	483.77
48.3929	511.23
48.4074	471.94
48.4218	488.78
48.4362	486.81
48.4507	513.38
48.4651	488.46
48.4796	500.37
48.4940	494.40
48.5084	512.85
48.5229	534.81
48.5373	531.79
48.5518	511.34
48.5662	504.54
48.5806	527.75
48.5951	515.98
48.6095	526.95
48.6240	518.85
48.6384	517.98
48.6528	512.78
48.6673	492.83
48.6817	513.72
48.6962	503.53
48.7106	554.99
48.7250	539.22
48.7395	521.16
48.7539	530.54
48.7684	528.27
48.7828	524.85
48.7972	532.90
48.8117	556.21
48.8261	496.54
48.8406	564.65
48.8550	525.60
48.8694	501.72
48.8839	518.10
48.8983	539.90
48.9128	540.10
48.9272	528.42
48.9416	549.64
48.9561	558.27
48.9705	576.68
48.9850	596.79
48.9994	561.03
49.0139	613.37
49.0283	603.91
49.0427	580.23
49.0572	619.34
49.0716	636.08
49.0861	674.97
49.1005	657.41
49.1149	689.70
49.1294	721.67
49.1438	716.11
49.1583	779.46
49.1727	860.60
49.1871	876.27
49.2016	917.69
49.2160	1005.12
49.2305	1045.62
49.2449	1187.66
49.2593	1300.60
49.2738	1362.41
49.2882	1396.78
49.3027	1476.27
49.3171	1665.05
49.3315	1710.53
49.3460	1768.36
49.3604	1750.38
49.3749	1791.83
49.3893	1787.73
49.4037	1741.04
49.4182	1773.71
49.4326	1691.02
49.4471	1591.16
49.4615	1575.62
49.4759	1563.97
49.4904	1517.30
49.5048	1352.72
49.5193	1320.51
49.5337	1289.70
49.5481	1161.99
49.5626	1118.07
49.5770	999.57
49.5915	962.85
49.6059	920.42
49.6203	877.78
49.6348	784.94
49.6492	736.24
49.6637	701.00
49.6781	678.75
49.6925	659.29
49.7070	686.98
49.7214	621.29
49.7359	616.45
49.7503	611.15
49.7647	590.80
49.7792	594.87
49.7936	548.54
49.8081	578.36
49.8225	573.70
49.8369	584.49
49.8514	582.57
49.8658	572.81
49.8803	514.84
49.8947	557.97
49.9091	580.71
49.9236	557.53
49.9380	536.54
49.9525	540.31
49.9669	540.83
49.9813	520.05
49.9958	520.47
50.0102	529.07
50.0247	548.31
50.0391	526.85
50.0535	533.82
50.0680	545.47
50.0824	524.54
50.0969	527.06
50.1113	520.51
50.1257	518.62
50.1402	497.80
50.1546	489.87
50.1691	516.76
50.1835	505.14
50.1979	514.94
50.2124	531.85
50.2268	526.95
50.2413	543.70
50.2557	530.48
50.2701	510.99
50.2846	510.63
50.2990	499.75
50.3135	521.70
50.3279	512.60
50.3423	510.15
50.3568	508.49
50.3712	479.67
50.3857	508.13
50.4001	536.82
50.4145	496.26
50.4290	491.74
50.4434	517.98
50.4579	524.86
50.4723	522.95
50.4867	527.90
50.5012	513.10
50.5156	508.97
50.5301	517.97
50.5445	487.46
50.5589	555.22
50.5734	495.90
50.5878	508.47
50.6023	529.39
50.6167	484.67
50.6311	497.30
50.6456	484.93
50.6600	523.49
50.6745	516.25
50.6889	522.25
50.7033	529.24
50.7178	521.09
50.7322	480.18
50.7467	510.71
50.7611	534.71
50.7755	505.44
50.7900	509.91
50.8044	507.85
50.8189	486.54
50.8333	504.77
50.8477	545.73
50.8622	521.04
50.8766	499.67
50.8911	495.03
50.9055	521.42
50.9199	530.58
50.9344	526.30
50.9488	525.99
50.9633	486.20
50.9777	490.61
50.9921	510.98
51.0066	507.72
51.0210	513.00
51.0355	526.47
51.0499	497.47
51.0643	532.48
51.0788	512.53
51.0932	520.48
51.1077	516.83
51.1221	516.96
51.1365	485.40
51.1510	486.46
51.1654	505.52
51.1799	488.08
51.1943	504.49
51.2087	508.68
51.2232	513.71
51.2376	519.97
51.2521	499.11
51.2665	507.92
51.2809	511.53
51.2954	504.49
51.3098	486.05
51.3243	523.97
51.3387	532.76
51.3531	509.42
51.3676	523.78
51.3820	505.85
51.3965	510.23
51.4109	490.71
51.4253	527.01
51.4398	506.70
51.4542	524.97
51.4687	543.21
51.4831	529.92
51.4975	527.42
51.5120	519.75
51.5264	527.30
51.5409	487.60
51.5553	491.02
51.5697	513.24
51.5842	509.55
51.5986	503.22
51.6131	501.96
51.6275	541.66
51.6419	515.90
51.6564	495.85
51.6708	501.07
51.6853	491.74
51.6997	531.84
51.7141	538.89
51.7286	516.66
51.7430	572.76
51.7575	520.42
51.7719	470.36
51.7863	517.00
51.8008	513.39
51.8152	509.39
51.8297	499.76
51.8441	481.62
51.8585	517.67
51.8730	518.76
51.8874	513.41
51.9019	547.22
51.9163	500.24
51.9307	508.66
51.9452	523.58
51.9596	504.45
51.9741	514.50
51.9885	524.08
52.0029	502.56
52.0174	524.24
52.0318	482.43
52.0463	509.36
52.0607	503.76
52.0751	496.28
52.0896	536.12
52.1040	495.43
52.1185	531.98
52.1329	530.69
52.1473	498.76
52.1618	485.92
52.1762	524.65
52.1907	482.38
52.2051	514.91
52.2195	537.51
52.2340	534.18
52.2484	530.62
52.2629	506.16
52.2773	511.81
52.2917	486.08
52.3062	511.06
52.3206	525.12
52.3351	559.16
52.3495	531.01
52.3639	520.23
52.3784	499.83
52.3928	477.41
52.4073	477.76
52.4217	533.04
52.4361	543.24
52.4506	515.97
52.4650	539.03
52.4795	547.21
52.4939	551.47
52.5083	490.75
52.5228	523.92
52.5372	550.70
52.5517	523.89
52.5661	510.74
52.5805	544.66
52.5950	534.63
52.6094	506.24
52.6239	513.93
52.6383	544.88
52.6527	505.66
52.6672	499.96
52.6816	500.84
52.6961	522.98
52.7105	532.44
52.7250	511.59
52.7394	520.21
52.7538	515.73
52.7683	520.91
52.7827	528.46
52.7972	543.30
52.8116	500.13
52.8260	488.71
52.8405	511.32
52.8549	502.08
52.8694	488.19
52.8838	497.46
52.8982	527.00
52.9127	539.92
52.9271	565.77
52.9416	551.91
52.9560	521.91
52.9704	517.35
52.9849	491.61
52.9993	510.01
53.0138	525.62
53.0282	495.55
53.0426	517.83
53.0571	493.90
53.0715	527.93
53.0860	523.73
53.1004	521.65
53.1148	534.28
53.1293	554.38
53.1437	488.15
53.1582	492.50
53.1726	512.86
53.1870	507.75
53.2015	452.14
53.2159	502.10
53.2304	527.00
53.2448	513.98
53.2592	490.59
53.2737	524.25
53.2881	550.73
53.3026	506.48
53.3170	546.86
53.3314	529.86
53.3459	532.71
53.3603	523.80
53.3748	524.88
53.3892	523.83
53.4036	504.46
53.4181	495.08
53.4325	524.00
53.4470	491.76
53.4614	528.89
53.4758	537.78
53.4903	501.24
53.5047	524.60
53.5192	553.57
53.5336	552.57
53.5480	524.13
53.5625	537.74
53.5769	499.63
53.5914	521.19
53.6058	518.51
53.6202	518.17
53.6347	521.69
53.6491	478.31
53.6636	516.20
53.6780	519.10
53.6924	500.46
53.7069	502.59
53.7213	538.52
53.7358	478.58
53.7502	484.96
53.7646	517.89
53.7791	533.86
53.7935	540.51
53.8080	540.97
53.8224	528.60
53.8368	539.02
53.8513	521.32
53.8657	512.35
53.8802	506.92
53.8946	469.95
53.9090	515.65
53.9235	486.63
53.9379	506.31
53.9524	495.02
53.9668	507.28
53.9812	541.72
53.9957	532.96
54.0101	504.88
54.0246	531.79
54.0390	548.20
54.0534	510.24
54.0679	527.98
54.0823	532.30
54.0968	516.10
54.1112	504.61
54.1256	515.24
54.1401	493.54
54.1545	529.74
54.1690	564.13
54.1834	536.87
54.1978	500.47
54.2123	492.91
54.2267	515.20
54.2412	531.47
54.2556	508.34
54.2700	523.84
54.2845	524.76
54.2989	495.29
54.3134	514.71
54.3278	551.16
54.3422	514.89
54.3567	508.28
54.3711	517.13
54.3856	536.89
54.4000	528.07
54.4144	539.95
54.4289	506.75
54.4433	483.91
54.4578	516.43
54.4722	515.49
54.4866	510.48
54.5011	520.52
54.5155	515.15
54.5300	514.03
54.5444	514.66
54.5588	540.80
54.5733	519.30
54.5877	541.97
54.6022	528.44
54.6166	532.45
54.6310	530.24
54.6455	505.36
54.6599	529.75
54.6744	513.86
54.6888	508.30
54.7032	545.45
54.7177	551.80
54.7321	548.11
54.7466	593.27
54.7610	538.98
54.7754	591.56
54.7899	571.71
54.8043	563.78
54.8188	591.17
54.8332	536.06
54.8476	547.31
54.8621	567.41
54.8765	564.35
54.8910	578.65
54.9054	616.94
54.9198	609.96
54.9343	581.81
54.9487	570.96
54.9632	569.66
54.9776	584.28
54.9920	572.37
55.0065	552.45
55.0209	577.99
55.0354	585.63
55.0498	565.83
55.0642	557.13
55.0787	548.12
55.0931	551.55
55.1076	535.17
55.1220	557.99
55.1364	529.08
55.1509	497.04
55.1653	550.66
55.1798	500.95
55.1942	560.29
55.2086	566.67
55.2231	555.30
55.2375	535.09
55.2520	530.08
55.2664	530.12
55.2808	534.38
55.2953	505.31
55.3097	513.01
55.3242	527.43
55.3386	527.97
55.3530	511.46
55.3675	503.92
55.3819	499.99
55.3964	485.19
55.4108	515.12
55.4252	566.53
55.4397	522.88
55.4541	548.84
55.4686	525.05
55.4830	497.34
55.4974	498.04
55.5119	510.95
55.5263	544.22
55.5408	537.64
55.5552	498.88
55.5696	482.85
55.5841	526.41
55.5985	501.97
55.6130	508.78
55.6274	545.53
55.6418	505.17
55.6563	501.89
55.6707	527.53
55.6852	511.10
55.6996	521.02
55.7140	526.47
55.7285	516.65
55.7429	523.53
55.7574	515.71
55.7718	516.63
55.7862	494.47
55.8007	529.89
55.8151	511.34
55.8296	510.36
55.8440	503.07
55.8584	516.45
55.8729	547.24
55.8873	553.91
55.9018	543.94
55.9162	534.10
55.9306	520.08
55.9451	549.85
55.9595	515.78
55.9740	523.80
55.9884	523.80
56.0028	512.02
56.0173	531.16
56.0317	501.54
56.0462	524.74
56.0606	523.88
56.0750	531.42
56.0895	563.33
56.1039	530.49
56.1184	517.64
56.1328	528.62
56.1472	489.86
56.1617	546.43
56.1761	529.84
56.1906	499.91
56.2050	525.62
56.2194	515.31
56.2339	532.75
56.2483	554.94
56.2628	520.58
56.2772	520.98
56.2916	511.89
56.3061	511.25
56.3205	511.82
56.3350	530.10
56.3494	495.96
56.3639	507.06
56.3783	535.78
56.3927	540.93
56.4072	529.40
56.4216	555.59
56.4361	587.90
56.4505	528.77
56.4649	552.03
56.4794	536.65
56.4938	509.73
56.5083	503.84
56.5227	494.89
56.5371	528.82
56.5516	515.62
56.5660	526.60
56.5805	515.44
56.5949	522.76
56.6093	524.27
56.6238	501.94
56.6382	518.59
56.6527	492.46
56.6671	510.55
56.6815	544.46
56.6960	524.77
56.7104	515.60
56.7249	520.58
56.7393	526.39
56.7537	529.06
56.7682	512.05
56.7826	535.67
56.7971	552.57
56.8115	520.34
56.8259	504.93
56.8404	529.52
56.8548	493.76
56.8693	538.32
56.8837	537.94
56.8981	520.72
56.9126	533.33
56.9270	494.38
56.9415	511.57
56.9559	526.15
56.9703	516.97
56.9848	512.84
56.9992	490.44
57.0137	521.02
57.0281	517.65
57.0425	500.94
57.0570	526.90
57.0714	553.73
57.0859	544.86
57.1003	531.67
57.1147	516.91
57.1292	490.61
57.1436	504.54
57.1581	484.80
57.1725	548.33
57.1869	529.48
57.2014	492.76
57.2158	520.87
57.2303	506.99
57.2447	519.06
57.2591	575.28
57.2736	546.03
57.2880	518.01
57.3025	508.86
57.3169	486.80
57.3313	533.23
57.3458	516.26
57.3602	533.30
57.3747	543.57
57.3891	528.52
57.4035	509.19
57.4180	518.67
57.4324	546.91
57.4469	513.93
57.4613	536.01
57.4757	527.21
57.4902	553.86
57.5046	547.44
57.5191	505.06
57.5335	522.21
57.5479	519.09
57.5624	512.85
57.5768	518.71
57.5913	551.61
57.6057	520.26
57.6201	503.54
57.6346	524.50
57.6490	541.09
57.6635	527.38
57.6779	513.48
57.6923	509.45
57.7068	539.35
57.7212	531.75
57.7357	530.98
57.7501	525.79
57.7645	517.39
57.7790	525.57
57.7934	532.63
57.8079	545.45
57.8223	514.97
57.8367	542.66
57.8512	533.05
57.8656	542.19
57.8801	558.18
57.8945	596.00
57.9089	547.19
57.9234	524.01
57.9378	543.79
57.9523	557.95
57.9667	532.70
57.9811	483.73
57.9956	539.75
58.0100	524.02
58.0245	534.32
58.0389	531.97
58.0533	553.40
58.0678	532.47
58.0822	550.37
58.0967	550.61
58.1111	532.75
58.1255	567.68
58.1400	530.88
58.1544	539.59
58.1689	572.10
58.1833	538.63
58.1977	550.16
58.2122	556.34
58.2266	544.46
58.2411	543.74
58.2555	564.44
58.2699	556.47
58.2844	559.86
58.2988	567.94
58.3133	601.37
58.3277	585.97
58.3421	585.98
58.3566	582.53
58.3710	570.11
58.3855	599.27
58.3999	617.58
58.4143	620.29
58.4288	618.84
58.4432	606.30
58.4577	600.58
58.4721	640.33
58.4865	640.43
58.5010	665.75
58.5154	621.11
58.5299	633.23
58.5443	662.45
58.5587	634.09
58.5732	625.32
58.5876	628.79
58.6021	594.73
58.6165	607.59
58.6309	598.70
58.6454	608.99
58.6598	624.09
58.6743	596.35
58.6887	636.41
58.7031	632.63
58.7176	620.25
58.7320	608.55
58.7465	572.24
58.7609	577.69
58.7753	569.85
58.7898	553.65
58.8042	547.31
58.8187	589.93
58.8331	557.23
58.8475	533.41
58.8620	573.27
58.8764	550.67
58.8909	536.76
58.9053	548.79
58.9197	534.96
58.9342	530.52
58.9486	570.26
58.9631	561.22
58.9775	556.70
58.9919	532.52
59.0064	514.42
59.0208	560.36
59.0353	564.49
59.0497	525.72
59.0641	558.42
59.0786	518.50
59.0930	527.95
59.1075	530.78
59.1219	571.88
59.1363	561.28
59.1508	541.81
59.1652	540.10
59.1797	552.22
59.1941	526.05
59.2085	538.95
59.2230	547.53
59.2374	535.53
59.2519	533.88
59.2663	536.78
59.2807	552.61
59.2952	566.29
59.3096	561.54
59.3241	560.28
59.3385	587.76
59.3529	550.51
59.3674	541.66
59.3818	551.26
59.3963	526.51
59.4107	512.98
59.4251	571.18
59.4396	553.30
59.4540	529.75
59.4685	554.64
59.4829	549.06
59.4973	587.47
59.5118	576.01
59.5262	569.90
59.5407	565.20
59.5551	563.58
59.5695	554.57
59.5840	547.28
59.5984	584.44
59.6129	546.80
59.6273	547.75
59.6417	604.92
59.6562	577.40
59.6706	547.36
59.6851	524.05
59.6995	535.07
59.7139	550.70
59.7284	541.87
59.7428	520.99
59.7573	506.94
59.7717	551.42
59.7861	547.16
59.8006	506.15
59.8150	553.50
59.8295	549.49
59.8439	528.41
59.8583	582.71
59.8728	547.12
59.8872	533.63
59.9017	541.32
59.9161	547.66
59.9305	555.66
59.9450	524.08
59.9594	560.74
59.9739	510.55
59.9883	564.16
60.0027	549.74
60.0172	532.48
60.0316	534.15
60.0461	524.47
60.0605	551.85
60.0750	542.82
60.0894	533.55
60.1038	515.68
60.1183	520.64
60.1327	526.59
60.1472	522.57
60.1616	530.14
60.1760	563.59
60.1905	538.27
60.2049	534.62
60.2194	572.10
60.2338	537.25
60.2482	537.40
60.2627	525.49
60.2771	546.22
60.2916	546.28
60.3060	576.24
60.3204	547.27
60.3349	530.92
60.3493	537.93
60.3638	542.53
60.3782	572.12
60.3926	538.33
60.4071	540.31
60.4215	554.15
60.4360	549.65
60.4504	538.98
60.4648	524.25
60.4793	515.61
60.4937	526.89
60.5082	524.62
60.5226	549.58
60.5370	516.73
60.5515	587.67
60.5659	575.39
60.5804	541.41
60.5948	555.80
60.6092	536.16
60.6237	530.43
60.6381	540.67
60.6526	549.35
60.6670	543.51
60.6814	566.03
60.6959	565.34
60.7103	531.41
60.7248	533.74
60.7392	538.57
60.7536	540.78
60.7681	524.20
60.7825	533.79
60.7970	535.18
60.8114	541.34
60.8258	515.24
60.8403	556.04
60.8547	548.14
60.8692	565.17
60.8836	542.08
60.8980	541.66
60.9125	563.63
60.9269	552.22
60.9414	536.23
60.9558	530.19
60.9702	501.22
60.9847	566.78
60.9991	557.57
61.0136	585.30
61.0280	528.17
61.0424	539.29
61.0569	505.78
61.0713	500.99
61.0858	542.70
61.1002	569.14
61.1146	556.75
61.1291	532.34
61.1435	519.86
61.1580	541.49
61.1724	556.37
61.1868	527.15
61.2013	523.28
61.2157	497.60
61.2302	507.26
61.2446	553.09
61.2590	561.51
61.2735	551.18
61.2879	565.13
61.3024	541.16
61.3168	551.31
61.3312	585.32
61.3457	524.02
61.3601	527.73
61.3746	550.22
61.3890	528.93
61.4034	523.01
61.4179	541.01
61.4323	545.30
61.4468	529.58
61.4612	581.25
61.4756	596.27
61.4901	561.72
61.5045	530.40
61.5190	537.96
61.5334	563.26
61.5478	578.91
61.5623	546.97
61.5767	551.13
61.5912	564.62
61.6056	557.77
61.6200	553.28
61.6345	568.24
61.6489	576.48
61.6634	539.67
61.6778	511.70
61.6922	521.37
61.7067	560.89
61.7211	564.16
61.7356	531.62
61.7500	555.59
61.7644	584.70
61.7789	595.90
61.7933	588.69
61.8078	571.99
61.8222	518.31
61.8366	535.39
61.8511	521.97
61.8655	518.12
61.8800	531.32
61.8944	556.30
61.9088	547.26
61.9233	526.49
61.9377	545.52
61.9522	555.15
61.9666	532.70
61.9810	586.66
61.9955	582.75
62.0099	538.72
62.0244	552.37
62.0388	565.86
62.0532	522.74
62.0677	583.09
62.0821	583.75
62.0966	569.98
62.1110	551.24
62.1254	556.64
62.1399	544.61
62.1543	537.52
62.1688	554.16
62.1832	552.39
62.1976	551.65
62.2121	550.31
62.2265	537.59
62.2410	556.99
62.2554	539.50
62.2698	535.14
62.2843	544.54
62.2987	532.95
62.3132	530.93
62.3276	563.52
62.3420	561.37
62.3565	570.14
62.3709	553.22
62.3854	534.86
62.3998	544.89
62.4142	546.37
62.4287	570.65
62.4431	554.25
62.4576	565.05
62.4720	557.93
62.4864	574.52
62.5009	554.68
62.5153	568.61
62.5298	566.67
62.5442	529.72
62.5586	534.57
62.5731	530.40
62.5875	530.29
62.6020	575.03
62.6164	539.46
62.6308	564.36
62.6453	568.94
62.6597	571.29
62.6742	550.83
62.6886	547.90
62.7030	538.30
62.7175	547.73
62.7319	570.87
62.7464	538.18
62.7608	507.42
62.7752	538.13
62.7897	559.53
62.8041	543.39
62.8186	553.53
62.8330	580.74
62.8474	588.78
62.8619	601.79
62.8763	584.77
62.8908	571.03
62.9052	584.19
62.9196	573.74
62.9341	565.74
62.9485	576.89
62.9630	568.42
62.9774	606.84
62.9918	594.32
63.0063	576.19
63.0207	555.99
63.0352	581.82
63.0496	574.16
63.0640	561.95
63.0785	585.29
63.0929	553.81
63.1074	528.86
63.1218	564.39
63.1362	545.69
63.1507	547.44
63.1651	581.56
63.1796	543.19
63.1940	523.73
63.2084	588.17
63.2229	591.48
63.2373	560.31
63.2518	570.76
63.2662	560.68
63.2806	566.14
63.2951	565.53
63.3095	582.73
63.3240	606.22
63.3384	564.10
63.3528	573.80
63.3673	569.03
63.3817	547.56
63.3962	539.17
63.4106	583.90
63.4250	607.28
63.4395	557.03
63.4539	579.28
63.4684	631.81
63.4828	602.80
63.4972	579.63
63.5117	574.91
63.5261	581.20
63.5406	570.07
63.5550	573.59
63.5694	590.91
63.5839	587.51
63.5983	644.74
63.6128	598.15
63.6272	593.18
63.6416	593.69
63.6561	601.40
63.6705	598.06
63.6850	585.55
63.6994	588.76
63.7138	631.69
63.7283	581.23
63.7427	604.49
63.7572	594.73
63.7716	584.66
63.7861	597.83
63.8005	583.83
63.8149	583.33
63.8294	594.69
63.8438	605.15
63.8583	585.19
63.8727	608.76
63.8871	576.00
63.9016	604.46
63.9160	618.18
63.9305	610.49
63.9449	617.43
63.9593	606.79
63.9738	600.72
63.9882	577.91
64.0027	628.50
64.0171	616.09
64.0315	647.94
64.0460	595.37
64.0604	608.16
64.0749	673.92
64.0893	678.59
64.1037	673.77
64.1182	722.34
64.1326	751.72
64.1471	745.03
64.1615	710.82
64.1759	808.11
64.1904	732.92
64.2048	704.40
64.2193	757.80
64.2337	724.48
64.2481	727.61
64.2626	725.61
64.2770	747.24
64.2915	783.49
64.3059	768.07
64.3203	773.83
64.3348	776.90
64.3492	736.15
64.3637	757.40
64.3781	735.06
64.3925	709.70
64.4070	748.66
64.4214	732.35
64.4359	776.83
64.4503	723.52
64.4647	770.77
64.4792	741.92
64.4936	742.08
64.5081	702.09
64.5225	711.96
64.5369	757.72
64.5514	737.67
64.5658	694.97
64.5803	713.27
64.5947	707.76
64.6091	718.59
64.6236	706.34
64.6380	707.69
64.6525	697.33
64.6669	667.70
64.6813	685.52
64.6958	682.24
64.7102	736.58
64.7247	689.75
64.7391	680.08
64.7535	737.12
64.7680	720.65
64.7824	750.49
64.7969	778.37
64.8113	784.32
64.8257	822.03
64.8402	827.45
64.8546	787.31
64.8691	880.86
64.8835	851.55
64.8979	919.92
64.9124	912.97
64.9268	865.79
64.9413	973.36
64.9557	967.33
64.9701	970.77
64.9846	1051.12
64.9990	1147.34
65.0135	1264.81
65.0279	1520.96
65.0423	1851.82
65.0568	2203.96
65.0712	2762.75
65.0857	3635.04
65.1001	4823.88
65.1145	6486.34
65.1290	8417.40
65.1434	9919.05
65.1579	11297.30
65.1723	11918.01
65.1867	11168.73
65.2012	9716.51
65.2156	8055.98
65.2301	6214.33
65.2445	5108.31
65.2589	4328.57
65.2734	4215.39
65.2878	4544.28
65.3023	5121.91
65.3167	5909.43
65.3311	6698.35
65.3456	7196.05
65.3600	6928.05
65.3745	6340.78
65.3889	5396.12
65.4033	4269.26
65.4178	3332.90
65.4322	2643.14
65.4467	2038.63
65.4611	1664.66
65.4755	1428.66
65.4900	1214.96
65.5044	1155.90
65.5189	1026.61
65.5333	986.61
65.5477	930.01
65.5622	957.71
65.5766	895.37
65.5911	824.76
65.6055	774.04
65.6199	775.93
65.6344	798.14
65.6488	773.70
65.6633	766.91
65.6777	732.60
65.6921	733.74
65.7066	759.79
65.7210	737.30
65.7355	646.47
65.7499	670.62
65.7643	687.15
65.7788	722.79
65.7932	704.08
65.8077	665.67
65.8221	677.94
65.8365	690.12
65.8510	684.96
65.8654	653.91
65.8799	656.96
65.8943	661.94
65.9087	670.51
65.9232	655.39
65.9376	651.47
65.9521	640.77
65.9665	631.18
65.9809	599.79
65.9954	638.08
66.0098	632.60
66.0243	617.06
66.0387	618.07
66.0531	606.47
66.0676	641.88
66.0820	661.65
66.0965	646.29
66.1109	607.75
66.1253	606.62
66.1398	599.33
66.1542	619.59
66.1687	607.64
66.1831	594.48
66.1975	626.31
66.2120	608.27
66.2264	590.34
66.2409	609.61
66.2553	634.05
66.2697	635.36
66.2842	631.19
66.2986	569.53
66.3131	630.20
66.3275	630.82
66.3419	617.12
66.3564	612.12
66.3708	621.28
66.3853	620.97
66.3997	622.31
66.4141	628.93
66.4286	600.40
66.4430	604.70
66.4575	612.88
66.4719	628.80
66.4863	610.70
66.5008	614.42
66.5152	640.66
66.5297	611.88
66.5441	605.39
66.5585	614.60
66.5730	582.31
66.5874	562.87
66.6019	571.20
66.6163	566.54
66.6307	573.49
66.6452	558.63
66.6596	549.41
66.6741	584.78
66.6885	597.65
66.7029	591.28
66.7174	597.74
66.7318	594.73
66.7463	585.52
66.7607	573.68
66.7751	597.32
66.7896	588.19
66.8040	573.05
66.8185	610.46
66.8329	592.55
66.8473	569.35
66.8618	574.28
66.8762	575.20
66.8907	559.00
66.9051	545.88
66.9195	527.08
66.9340	584.43
66.9484	592.82
66.9629	584.06
66.9773	598.82
66.9917	595.30
67.0062	562.31
67.0206	582.64
67.0351	630.23
67.0495	621.58
67.0639	594.12
67.0784	578.39
67.0928	593.11
67.1073	577.51
67.1217	581.11
67.1361	574.61
67.1506	553.35
67.1650	589.26
67.1795	576.41
67.1939	591.52
67.2083	570.90
67.2228	589.84
67.2372	578.31
67.2517	573.23
67.2661	601.96
67.2805	575.27
67.2950	556.03
67.3094	565.07
67.3239	549.34
67.3383	588.53
67.3527	606.44
67.3672	594.81
67.3816	571.64
67.3961	573.66
67.4105	570.55
67.4250	598.98
67.4394	586.29
67.4538	555.08
67.4683	587.75
67.4827	570.14
67.4972	569.03
67.5116	573.05
67.5260	572.90
67.5405	557.16
67.5549	578.77
67.5694	579.09
67.5838	568.20
67.5982	559.44
67.6127	559.81
67.6271	533.58
67.6416	581.90
67.6560	583.30
67.6704	584.09
67.6849	554.80
67.6993	587.91
67.7138	589.62
67.7282	551.70
67.7426	564.79
67.7571	618.83
67.7715	572.03
67.7860	599.53
67.8004	624.60
67.8148	581.04
67.8293	600.27
67.8437	588.90
67.8582	605.63
67.8726	613.39
67.8870	576.36
67.9015	578.77
67.9159	551.56
67.9304	583.71
67.9448	608.96
67.9592	566.03
67.9737	600.81
67.9881	602.89
68.0026	616.81
68.0170	614.57
68.0314	575.60
68.0459	567.58
68.0603	593.59
68.0748	589.74
68.0892	594.51
68.1036	573.45
68.1181	604.74
68.1325	638.36
68.1470	561.86
68.1614	550.38
68.1758	584.28
68.1903	554.74
68.2047	549.27
68.2192	594.06
68.2336	576.23
68.2480	594.77
68.2625	574.48
68.2769	580.64
68.2914	579.31
68.3058	561.44
68.3202	555.41
68.3347	596.27
68.3491	611.28
68.3636	605.78
68.3780	584.07
68.3924	610.07
68.4069	540.12
68.4213	629.20
68.4358	565.88
68.4502	559.56
68.4646	575.68
68.4791	557.86
68.4935	539.75
68.5080	553.64
68.5224	547.71
68.5368	616.68
68.5513	563.92
68.5657	540.16
68.5802	551.47
68.5946	564.88
68.6090	552.32
68.6235	596.18
68.6379	591.88
68.6524	574.99
68.6668	552.38
68.6812	546.47
68.6957	600.48
68.7101	601.55
68.7246	565.96
68.7390	592.17
68.7534	558.05
68.7679	610.41
68.7823	582.64
68.7968	630.07
68.8112	564.93
68.8256	573.18
68.8401	574.50
68.8545	627.92
68.8690	600.96
68.8834	551.58
68.8978	578.44
68.9123	588.37
68.9267	556.09
68.9412	514.13
68.9556	538.64
68.9700	532.08
68.9845	563.68
68.9989	565.34
69.0134	611.13
69.0278	564.90
69.0422	607.33
69.0567	566.22
69.0711	584.73
69.0856	541.01
69.1000	578.79
69.1144	633.85
69.1289	630.82
69.1433	630.82
69.1578	631.65
69.1722	648.45
69.1866	598.51
69.2011	546.65
69.2155	573.97
69.2300	540.41
69.2444	591.66
69.2588	526.55
69.2733	571.10
69.2877	569.40
69.3022	578.07
69.3166	625.58
69.3310	576.49
69.3455	603.09
69.3599	602.41
69.3744	570.20
69.3888	558.84
69.4032	592.32
69.4177	591.30
69.4321	599.92
69.4466	576.68
69.4610	597.56
69.4754	559.21
69.4899	570.71
69.5043	559.30
69.5188	545.04
69.5332	569.05
69.5476	554.31
69.5621	595.74
69.5765	543.80
69.5910	609.80
69.6054	538.83
69.6198	513.74
69.6343	591.04
69.6487	600.44
69.6632	607.32
69.6776	572.37
69.6920	581.96
69.7065	595.35
69.7209	622.69
69.7354	580.96
69.7498	549.57
69.7642	582.09
69.7787	590.40
69.7931	599.83
69.8076	596.39
69.8220	568.49
69.8364	640.97
69.8509	582.07
69.8653	573.57
69.8798	588.68
69.8942	618.29
69.9086	603.43
69.9231	528.89
69.9375	552.46
69.9520	552.31
69.9664	605.95
69.9808	544.13
69.9953	566.06
70.0097	563.09
70.0242	543.21
70.0386	572.38
70.0530	579.65
70.0675	567.58
70.0819	553.02
70.0964	585.31
70.1108	569.31
70.1252	581.16
70.1397	596.93
70.1541	550.80
70.1686	565.59
70.1830	554.43
70.1974	575.31
70.2119	601.58
70.2263	603.46
70.2408	625.77
70.2552	583.76
70.2696	558.73
70.2841	532.64
70.2985	632.42
70.3130	542.67
70.3274	575.55
70.3418	579.40
70.3563	624.99
70.3707	558.58
70.3852	549.41
70.3996	569.17
70.4140	555.45
70.4285	604.19
70.4429	590.25
70.4574	604.49
70.4718	545.79
70.4862	568.17
70.5007	568.96
70.5151	544.92
70.5296	548.13
70.5440	568.42
70.5584	603.15
70.5729	550.14
70.5873	532.46
70.6018	573.32
70.6162	574.24
70.6306	528.25
70.6451	548.35
70.6595	594.08
70.6740	572.97
70.6884	536.30
70.7028	542.55
70.7173	605.42
70.7317	600.52
70.7462	605.24
70.7606	618.41
70.7750	551.76
70.7895	527.56
70.8039	589.97
70.8184	606.17
70.8328	599.48
70.8472	569.04
70.8617	597.05
70.8761	579.58
70.8906	567.19
70.9050	610.92
70.9194	543.72
70.9339	581.53
70.9483	625.74
70.9628	624.40
70.9772	578.12
70.9916	569.05
71.0061	583.72
71.0205	623.73
71.0350	594.74
71.0494	523.10
71.0638	525.30
71.0783	575.20
71.0927	635.78
71.1072	600.97
71.1216	588.25
71.1361	592.57
71.1505	595.43
71.1649	604.48
71.1794	582.88
71.1938	590.02
71.2083	636.15
71.2227	626.70
71.2371	611.54
71.2516	588.96
71.2660	584.24
71.2805	563.80
71.2949	528.51
71.3093	589.05
71.3238	620.01
71.3382	614.86
71.3527	565.57
71.3671	568.86
71.3815	555.31
71.3960	570.05
71.4104	610.96
71.4249	641.38
71.4393	647.25
71.4537	615.51
71.4682	603.76
71.4826	543.85
71.4971	570.56
71.5115	597.15
71.5259	616.05
71.5404	604.11
71.5548	556.16
71.5693	568.93
71.5837	535.55
71.5981	586.26
71.6126	593.55
71.6270	593.15
71.6415	587.87
71.6559	565.81
71.6703	609.64
71.6848	604.02
71.6992	611.26
71.7137	621.29
71.7281	547.77
71.7425	540.90
71.7570	557.23
71.7714	575.28
71.7859	640.63
71.8003	620.07
71.8147	571.53
71.8292	607.42
71.8436	590.99
71.8581	569.90
71.8725	565.37
71.8869	545.88
71.9014	636.45
71.9158	636.08
71.9303	565.87
71.9447	526.42
71.9591	545.04
71.9736	571.63
71.9880	529.09
72.0025	534.02
72.0169	535.66
72.0313	565.93
72.0458	620.25
72.0602	617.07
72.0747	596.52
72.0891	567.11
72.1035	555.18
72.1180	604.21
72.1324	598.08
72.1469	542.09
72.1613	600.36
72.1757	657.47
72.1902	639.29
72.2046	579.78
72.2191	518.07
72.2335	549.20
72.2479	550.23
72.2624	535.26
72.2768	523.50
72.2913	533.04
72.3057	613.35
72.3201	652.95
72.3346	647.45
72.3490	541.62
72.3635	491.51
72.3779	528.36
72.3923	580.40
72.4068	595.18
72.4212	590.80
72.4357	636.00
72.4501	580.90
72.4645	541.31
72.4790	543.07
72.4934	555.99
72.5079	643.46
72.5223	571.27
72.5367	552.29
72.5512	564.66
72.5656	564.86
72.5801	605.48
72.5945	572.74
72.6089	497.45
72.6234	540.41
72.6378	560.70
72.6523	603.67
72.6667	598.27
72.6811	584.99
72.6956	556.93
72.7100	576.17
72.7245	536.64
72.7389	526.21
72.7533	576.17
72.7678	581.03
72.7822	607.45
72.7967	670.25
72.8111	641.18
72.8255	520.35
72.8400	513.29
72.8544	504.89
72.8689	603.03
72.8833	598.65