2022.09.19 19:37:16
Îáðàçåö: ß÷åéêà LCoV 16-09-2022
Lambda1 = 1.54060
Lambda2 = 1.54439
Lambdam = 1.54186
R = 0.497
2Theta	I

line¹ 0 ;repeat¹ 0
22.1120	584.05
22.1264	634.76
22.1409	532.14
22.1553	548.22
22.1697	578.52
22.1842	594.66
22.1986	573.94
22.2131	559.00
22.2275	503.02
22.2419	560.91
22.2564	583.16
22.2708	622.64
22.2853	603.80
22.2997	542.12
22.3141	572.48
22.3286	591.82
22.3430	500.85
22.3575	607.20
22.3719	524.53
22.3863	553.58
22.4008	500.72
22.4152	542.15
22.4297	578.91
22.4441	545.19
22.4585	667.50
22.4730	601.19
22.4874	586.12
22.5019	685.16
22.5163	658.66
22.5307	624.41
22.5452	559.39
22.5596	686.07
22.5741	620.77
22.5885	617.50
22.6029	634.40
22.6174	584.16
22.6318	580.92
22.6463	521.42
22.6607	589.87
22.6751	616.85
22.6896	627.09
22.7040	629.16
22.7185	583.61
22.7329	569.14
22.7473	535.76
22.7618	490.31
22.7762	510.83
22.7907	584.36
22.8051	636.38
22.8195	557.73
22.8340	525.98
22.8484	499.10
22.8629	546.34
22.8773	528.97
22.8917	520.61
22.9062	619.65
22.9206	530.52
22.9351	546.26
22.9495	592.23
22.9639	628.27
22.9784	607.17
22.9928	530.49
23.0073	540.44
23.0217	541.08
23.0361	533.33
23.0506	667.32
23.0650	626.41
23.0795	563.07
23.0939	588.53
23.1083	602.62
23.1228	548.40
23.1372	568.81
23.1517	563.14
23.1661	619.79
23.1806	529.51
23.1950	548.82
23.2094	551.59
23.2239	661.91
23.2383	616.86
23.2528	559.98
23.2672	611.03
23.2816	640.56
23.2961	521.10
23.3105	528.71
23.3250	597.34
23.3394	571.47
23.3538	617.59
23.3683	517.14
23.3827	443.73
23.3972	537.05
23.4116	531.81
23.4260	593.50
23.4405	560.76
23.4549	569.38
23.4694	562.72
23.4838	582.53
23.4982	600.03
23.5127	547.85
23.5271	581.75
23.5416	506.19
23.5560	574.54
23.5704	547.12
23.5849	555.72
23.5993	576.51
23.6138	568.28
23.6282	484.60
23.6426	569.83
23.6571	550.81
23.6715	561.26
23.6860	545.98
23.7004	571.58
23.7148	518.96
23.7293	589.28
23.7437	532.90
23.7582	573.24
23.7726	518.92
23.7870	582.99
23.8015	524.13
23.8159	615.14
23.8304	600.39
23.8448	552.67
23.8592	559.57
23.8737	563.06
23.8881	484.57
23.9026	574.08
23.9170	573.18
23.9314	545.31
23.9459	611.57
23.9603	529.98
23.9748	583.11
23.9892	542.82
24.0036	507.20
24.0181	465.60
24.0325	532.01
24.0470	524.77
24.0614	470.96
24.0758	507.13
24.0903	585.05
24.1047	616.04
24.1192	573.98
24.1336	588.78
24.1480	563.87
24.1625	551.02
24.1769	587.09
24.1914	623.12
24.2058	607.11
24.2202	623.29
24.2347	572.78
24.2491	645.02
24.2636	584.92
24.2780	565.19
24.2924	627.29
24.3069	538.59
24.3213	599.89
24.3358	548.34
24.3502	557.02
24.3646	562.25
24.3791	578.98
24.3935	494.74
24.4080	566.44
24.4224	522.09
24.4368	534.32
24.4513	536.70
24.4657	550.51
24.4802	593.43
24.4946	537.46
24.5090	559.63
24.5235	531.62
24.5379	585.41
24.5524	555.57
24.5668	499.59
24.5812	548.91
24.5957	575.51
24.6101	557.53
24.6246	537.60
24.6390	531.86
24.6534	589.20
24.6679	538.93
24.6823	546.48
24.6968	551.03
24.7112	529.95
24.7256	580.01
24.7401	585.91
24.7545	609.57
24.7690	544.07
24.7834	553.24
24.7978	591.55
24.8123	589.45
24.8267	609.37
24.8412	607.83
24.8556	571.93
24.8700	543.60
24.8845	511.72
24.8989	565.27
24.9134	600.59
24.9278	528.13
24.9422	605.92
24.9567	571.80
24.9711	532.52
24.9856	507.64
25.0000	549.14
25.0144	502.88
25.0289	574.62
25.0433	568.69
25.0578	566.16
25.0722	567.42
25.0866	580.35
25.1011	547.52
25.1155	557.53
25.1300	537.49
25.1444	553.04
25.1588	526.79
25.1733	596.15
25.1877	596.02
25.2022	537.45
25.2166	562.73
25.2310	528.67
25.2455	520.89
25.2599	546.38
25.2744	525.04
25.2888	518.59
25.3032	508.48
25.3177	565.41
25.3321	518.46
25.3466	511.79
25.3610	522.99
25.3754	504.22
25.3899	541.60
25.4043	529.99
25.4188	521.34
25.4332	531.92
25.4476	520.17
25.4621	524.53
25.4765	510.23
25.4910	520.65
25.5054	548.93
25.5198	537.26
25.5343	589.15
25.5487	543.00
25.5632	541.32
25.5776	527.85
25.5920	532.45
25.6065	561.46
25.6209	562.29
25.6354	547.30
25.6498	530.45
25.6642	561.97
25.6787	558.59
25.6931	561.64
25.7076	580.18
25.7220	518.25
25.7364	538.70
25.7509	555.01
25.7653	539.39
25.7798	569.61
25.7942	575.06
25.8086	582.53
25.8231	564.46
25.8375	570.17
25.8520	526.15
25.8664	515.90
25.8808	542.44
25.8953	533.44
25.9097	507.33
25.9242	539.75
25.9386	566.10
25.9530	534.74
25.9675	533.21
25.9819	529.95
25.9964	526.04
26.0108	548.49
26.0252	562.21
26.0397	542.56
26.0541	544.51
26.0686	546.60
26.0830	530.15
26.0974	530.86
26.1119	538.53
26.1263	553.54
26.1408	506.86
26.1552	491.84
26.1696	525.55
26.1841	514.25
26.1985	543.35
26.2130	544.32
26.2274	525.32
26.2418	552.14
26.2563	509.52
26.2707	540.25
26.2852	563.92
26.2996	568.94
26.3140	551.66
26.3285	531.26
26.3429	508.99
26.3574	525.05
26.3718	525.76
26.3862	486.48
26.4007	485.11
26.4151	488.96
26.4296	517.05
26.4440	512.48
26.4584	541.65
26.4729	528.91
26.4873	547.69
26.5018	531.04
26.5162	532.46
26.5306	565.96
26.5451	544.02
26.5595	514.61
26.5740	545.27
26.5884	573.62
26.6028	508.16
26.6173	527.92
26.6317	532.65
26.6462	538.57
26.6606	517.89
26.6750	508.07
26.6895	509.86
26.7039	537.07
26.7184	547.89
26.7328	526.20
26.7472	491.53
26.7617	526.77
26.7761	525.23
26.7906	503.89
26.8050	553.36
26.8194	569.02
26.8339	553.99
26.8483	509.70
26.8628	518.34
26.8772	524.93
26.8917	555.29
26.9061	562.59
26.9205	531.23
26.9350	565.47
26.9494	505.88
26.9639	533.55
26.9783	531.03
26.9927	536.28
27.0072	535.34
27.0216	501.28
27.0361	514.36
27.0505	506.59
27.0649	503.36
27.0794	524.07
27.0938	559.90
27.1083	482.02
27.1227	532.15
27.1371	518.69
27.1516	492.37
27.1660	518.76
27.1805	514.57
27.1949	494.40
27.2093	520.62
27.2238	509.70
27.2382	505.97
27.2527	519.45
27.2671	528.27
27.2815	508.12
27.2960	498.87
27.3104	518.69
27.3249	518.34
27.3393	505.69
27.3537	516.77
27.3682	517.96
27.3826	491.60
27.3971	474.84
27.4115	528.13
27.4259	541.78
27.4404	494.05
27.4548	535.93
27.4693	497.77
27.4837	484.48
27.4981	501.35
27.5126	499.90
27.5270	472.46
27.5415	517.32
27.5559	525.17
27.5703	519.85
27.5848	530.22
27.5992	511.58
27.6137	500.15
27.6281	513.55
27.6425	520.88
27.6570	548.31
27.6714	525.82
27.6859	490.22
27.7003	521.49
27.7147	537.25
27.7292	519.28
27.7436	512.37
27.7581	511.65
27.7725	509.45
27.7869	536.12
27.8014	515.45
27.8158	547.65
27.8303	525.51
27.8447	526.69
27.8591	501.69
27.8736	519.96
27.8880	518.44
27.9025	512.14
27.9169	495.26
27.9313	493.58
27.9458	529.83
27.9602	491.91
27.9747	527.63
27.9891	541.65
28.0035	529.02
28.0180	540.48
28.0324	534.83
28.0469	493.74
28.0613	515.25
28.0757	511.62
28.0902	517.98
28.1046	481.70
28.1191	533.18
28.1335	552.53
28.1479	510.38
28.1624	539.25
28.1768	500.49
28.1913	502.66
28.2057	507.81
28.2201	525.57
28.2346	501.37
28.2490	493.09
28.2635	505.89
28.2779	488.26
28.2923	503.14
28.3068	509.06
28.3212	489.53
28.3357	534.85
28.3501	537.99
28.3645	532.62
28.3790	531.33
28.3934	506.95
28.4079	499.85
28.4223	508.33
28.4367	518.05
28.4512	496.54
28.4656	546.82
28.4801	542.01
28.4945	526.72
28.5089	492.26
28.5234	509.01
28.5378	523.89
28.5523	528.44
28.5667	498.01
28.5811	471.74
28.5956	511.56
28.6100	507.34
28.6245	528.65
28.6389	514.47
28.6533	504.75
28.6678	514.63
28.6822	529.62
28.6967	526.43
28.7111	568.15
28.7255	518.14
28.7400	519.76
28.7544	511.17
28.7689	489.42
28.7833	528.50
28.7977	520.15
28.8122	514.82
28.8266	543.96
28.8411	509.03
28.8555	510.01
28.8699	538.66
28.8844	494.01
28.8988	519.10
28.9133	469.69
28.9277	524.81
28.9421	501.61
28.9566	504.13
28.9710	533.57
28.9855	505.89
28.9999	495.79
29.0143	513.63
29.0288	488.37
29.0432	511.37
29.0577	472.47
29.0721	514.88
29.0865	502.74
29.1010	484.39
29.1154	545.03
29.1299	541.17
29.1443	507.27
29.1587	487.42
29.1732	525.11
29.1876	525.50
29.2021	500.68
29.2165	559.98
29.2309	516.47
29.2454	539.73
29.2598	503.60
29.2743	477.87
29.2887	485.99
29.3031	517.15
29.3176	479.19
29.3320	521.49
29.3465	494.79
29.3609	536.86
29.3753	487.59
29.3898	472.07
29.4042	529.23
29.4187	510.69
29.4331	491.96
29.4475	490.96
29.4620	528.61
29.4764	519.50
29.4909	533.98
29.5053	507.49
29.5197	508.06
29.5342	472.20
29.5486	506.43
29.5631	505.36
29.5775	492.15
29.5919	511.52
29.6064	518.93
29.6208	505.19
29.6353	485.41
29.6497	449.91
29.6641	493.25
29.6786	516.01
29.6930	526.89
29.7075	516.34
29.7219	491.06
29.7363	505.05
29.7508	500.90
29.7652	506.29
29.7797	493.78
29.7941	538.44
29.8085	545.35
29.8230	541.96
29.8374	519.77
29.8519	491.22
29.8663	521.81
29.8807	535.50
29.8952	537.15
29.9096	515.48
29.9241	501.17
29.9385	507.22
29.9529	501.42
29.9674	479.41
29.9818	519.69
29.9963	518.89
30.0107	513.67
30.0251	495.20
30.0396	517.61
30.0540	539.35
30.0685	497.55
30.0829	493.71
30.0973	538.48
30.1118	529.61
30.1262	504.43
30.1407	486.12
30.1551	504.93
30.1695	507.11
30.1840	513.31
30.1984	513.26
30.2129	524.44
30.2273	495.43
30.2417	496.06
30.2562	489.84
30.2706	530.27
30.2851	489.61
30.2995	494.93
30.3139	507.27
30.3284	510.17
30.3428	494.29
30.3573	474.52
30.3717	521.68
30.3861	495.93
30.4006	492.64
30.4150	503.05
30.4295	542.38
30.4439	526.03
30.4583	541.09
30.4728	528.15
30.4872	477.96
30.5017	521.07
30.5161	515.62
30.5305	518.94
30.5450	530.79
30.5594	549.27
30.5739	515.56
30.5883	493.62
30.6028	490.71
30.6172	508.50
30.6316	533.46
30.6461	537.00
30.6605	512.23
30.6750	516.99
30.6894	519.56
30.7038	536.31
30.7183	540.12
30.7327	559.05
30.7472	555.21
30.7616	558.97
30.7760	573.69
30.7905	560.85
30.8049	593.08
30.8194	635.11
30.8338	658.54
30.8482	635.87
30.8627	687.42
30.8771	674.24
30.8916	673.25
30.9060	673.42
30.9204	689.10
30.9349	684.93
30.9493	650.12
30.9638	668.63
30.9782	630.54
30.9926	627.87
31.0071	606.08
31.0215	575.66
31.0360	566.84
31.0504	565.97
31.0648	544.20
31.0793	541.34
31.0937	563.65
31.1082	534.88
31.1226	544.83
31.1370	539.91
31.1515	551.71
31.1659	538.41
31.1804	511.31
31.1948	530.46
31.2092	550.38
31.2237	518.98
31.2381	529.11
31.2526	529.71
31.2670	536.76
31.2814	548.46
31.2959	552.55
31.3103	555.75
31.3248	547.40
31.3392	529.53
31.3536	531.44
31.3681	538.74
31.3825	550.98
31.3970	527.34
31.4114	539.33
31.4258	566.40
31.4403	496.31
31.4547	514.93
31.4692	524.99
31.4836	539.53
31.4980	515.87
31.5125	504.64
31.5269	499.22
31.5414	498.82
31.5558	511.13
31.5702	535.24
31.5847	542.69
31.5991	528.68
31.6136	501.93
31.6280	507.86
31.6424	550.89
31.6569	529.82
31.6713	513.05
31.6858	492.83
31.7002	461.72
31.7146	501.02
31.7291	517.64
31.7435	500.50
31.7580	516.54
31.7724	515.09
31.7868	523.55
31.8013	496.79
31.8157	512.41
31.8302	487.57
31.8446	513.53
31.8590	516.95
31.8735	531.87
31.8879	553.78
31.9024	541.98
31.9168	561.45
31.9312	564.55
31.9457	526.56
31.9601	532.49
31.9746	514.31
31.9890	560.38
32.0034	530.08
32.0179	506.93
32.0323	539.72
32.0468	529.21
32.0612	516.67
32.0756	501.61
32.0901	523.63
32.1045	530.70
32.1190	501.30
32.1334	475.26
32.1478	455.35
32.1623	514.48
32.1767	516.03
32.1912	500.13
32.2056	515.06
32.2200	487.40
32.2345	486.42
32.2489	490.75
32.2634	499.50
32.2778	522.40
32.2922	499.54
32.3067	486.57
32.3211	508.76
32.3356	521.58
32.3500	529.11
32.3644	495.24
32.3789	522.12
32.3933	512.92
32.4078	497.60
32.4222	540.29
32.4366	504.96
32.4511	463.87
32.4655	493.73
32.4800	487.97
32.4944	481.37
32.5088	464.50
32.5233	466.43
32.5377	544.77
32.5522	515.91
32.5666	511.08
32.5810	535.34
32.5955	519.73
32.6099	505.59
32.6244	478.20
32.6388	530.29
32.6532	489.09
32.6677	490.93
32.6821	503.11
32.6966	496.38
32.7110	500.95
32.7254	508.32
32.7399	490.18
32.7543	527.34
32.7688	510.84
32.7832	512.40
32.7976	514.72
32.8121	500.03
32.8265	467.98
32.8410	480.00
32.8554	509.79
32.8698	533.51
32.8843	516.83
32.8987	567.93
32.9132	508.92
32.9276	488.80
32.9420	479.94
32.9565	477.40
32.9709	487.45
32.9854	490.85
32.9998	493.00
33.0142	541.76
33.0287	554.42
33.0431	529.24
33.0576	497.58
33.0720	529.14
33.0864	530.24
33.1009	511.73
33.1153	483.96
33.1298	505.00
33.1442	513.40
33.1586	490.84
33.1731	533.92
33.1875	525.68
33.2020	500.15
33.2164	500.81
33.2308	533.66
33.2453	526.26
33.2597	510.09
33.2742	484.62
33.2886	499.25
33.3030	488.55
33.3175	507.49
33.3319	499.16
33.3464	510.85
33.3608	493.76
33.3752	479.61
33.3897	471.02
33.4041	493.70
33.4186	520.33
33.4330	516.80
33.4474	505.17
33.4619	526.22
33.4763	517.08
33.4908	512.21
33.5052	486.87
33.5196	519.99
33.5341	535.57
33.5485	479.41
33.5630	522.95
33.5774	519.09
33.5918	492.39
33.6063	496.56
33.6207	507.97
33.6352	507.76
33.6496	489.55
33.6640	492.82
33.6785	514.49
33.6929	491.51
33.7074	500.55
33.7218	530.05
33.7362	519.39
33.7507	527.79
33.7651	497.79
33.7796	502.77
33.7940	509.37
33.8084	534.10
33.8229	510.16
33.8373	501.12
33.8518	509.28
33.8662	485.29
33.8806	520.20
33.8951	506.10
33.9095	526.55
33.9240	510.94
33.9384	474.14
33.9528	477.12
33.9673	493.79
33.9817	551.00
33.9962	503.31
34.0106	497.70
34.0250	484.27
34.0395	478.28
34.0539	478.73
34.0684	512.26
34.0828	516.83
34.0972	533.73
34.1117	517.12
34.1261	513.56
34.1406	494.08
34.1550	497.32
34.1694	524.78
34.1839	502.99
34.1983	503.75
34.2128	508.89
34.2272	512.04
34.2417	502.63
34.2561	511.19
34.2705	482.93
34.2850	526.12
34.2994	507.15
34.3139	484.15
34.3283	498.84
34.3427	511.18
34.3572	490.77
34.3716	492.21
34.3861	498.86
34.4005	506.90
34.4149	511.42
34.4294	523.24
34.4438	491.61
34.4583	506.72
34.4727	516.12
34.4871	499.03
34.5016	477.16
34.5160	483.18
34.5305	523.28
34.5449	505.19
34.5593	500.51
34.5738	500.29
34.5882	518.43
34.6027	491.21
34.6171	508.51
34.6315	514.00
34.6460	495.09
34.6604	496.89
34.6749	502.07
34.6893	480.04
34.7037	491.25
34.7182	491.81
34.7326	494.66
34.7471	508.96
34.7615	516.60
34.7759	515.26
34.7904	514.12
34.8048	519.77
34.8193	493.67
34.8337	510.45
34.8481	531.74
34.8626	487.62
34.8770	493.97
34.8915	506.26
34.9059	521.09
34.9203	506.86
34.9348	503.64
34.9492	495.73
34.9637	493.85
34.9781	509.33
34.9925	512.53
35.0070	532.81
35.0214	549.77
35.0359	531.01
35.0503	520.39
35.0647	506.96
35.0792	528.78
35.0936	524.15
35.1081	515.98
35.1225	535.27
35.1369	501.49
35.1514	494.96
35.1658	515.79
35.1803	532.03
35.1947	543.38
35.2091	507.20
35.2236	511.34
35.2380	511.43
35.2525	503.28
35.2669	520.77
35.2813	520.23
35.2958	502.77
35.3102	518.82
35.3247	490.73
35.3391	504.45
35.3535	509.91
35.3680	483.79
35.3824	480.77
35.3969	515.66
35.4113	533.63
35.4257	520.76
35.4402	509.18
35.4546	494.90
35.4691	525.20
35.4835	525.73
35.4979	554.79
35.5124	551.84
35.5268	540.78
35.5413	543.03
35.5557	521.01
35.5701	533.78
35.5846	538.87
35.5990	505.45
35.6135	506.39
35.6279	519.53
35.6423	529.57
35.6568	540.66
35.6712	539.43
35.6857	574.00
35.7001	671.16
35.7145	699.58
35.7290	648.43
35.7434	582.32
35.7579	555.73
35.7723	567.62
35.7867	627.72
35.8012	661.09
35.8156	654.04
35.8301	609.87
35.8445	605.73
35.8589	637.22
35.8734	745.11
35.8878	849.00
35.9023	1007.76
35.9167	1110.25
35.9311	1502.15
35.9456	2329.69
35.9600	2337.05
35.9745	1812.80
35.9889	1744.28
36.0033	2201.72
36.0178	2237.32
36.0322	1916.75
36.0467	1734.08
36.0611	1619.96
36.0755	1585.81
36.0900	1517.02
36.1044	1308.41
36.1189	1272.92
36.1333	1141.67
36.1477	1034.44
36.1622	1042.48
36.1766	960.23
36.1911	920.35
36.2055	830.38
36.2199	762.28
36.2344	711.72
36.2488	777.61
36.2633	757.30
36.2777	828.09
36.2921	768.58
36.3066	865.96
36.3210	912.61
36.3355	936.09
36.3499	972.82
36.3643	998.41
36.3788	971.71
36.3932	959.25
36.4077	959.46
36.4221	932.71
36.4365	961.39
36.4510	891.59
36.4654	896.81
36.4799	839.18
36.4943	773.37
36.5087	790.59
36.5232	757.17
36.5376	744.22
36.5521	688.60
36.5665	638.61
36.5809	662.19
36.5954	641.09
36.6098	563.06
36.6243	600.41
36.6387	601.93
36.6531	568.85
36.6676	555.36
36.6820	577.67
36.6965	568.44
36.7109	584.04
36.7253	571.03
36.7398	565.10
36.7542	532.46
36.7687	548.45
36.7831	555.57
36.7975	571.89
36.8120	609.76
36.8264	553.21
36.8409	569.45
36.8553	581.60
36.8697	607.42
36.8842	572.36
36.8986	575.87
36.9131	609.12
36.9275	615.22
36.9419	577.80
36.9564	570.24
36.9708	574.86
36.9853	578.38
36.9997	646.13
37.0141	606.75
37.0286	551.14
37.0430	523.78
37.0575	509.91
37.0719	516.50
37.0863	554.43
37.1008	520.37
37.1152	539.11
37.1297	535.64
37.1441	507.86
37.1585	516.07
37.1730	508.34
37.1874	484.83
37.2019	487.40
37.2163	536.46
37.2307	488.77
37.2452	501.48
37.2596	531.57
37.2741	492.83
37.2885	489.09
37.3029	498.93
37.3174	518.89
37.3318	530.90
37.3463	541.82
37.3607	543.33
37.3751	544.56
37.3896	497.88
37.4040	488.92
37.4185	520.76
37.4329	545.38
37.4473	492.49
37.4618	483.30
37.4762	492.53
37.4907	502.30
37.5051	537.10
37.5195	536.15
37.5340	519.29
37.5484	501.75
37.5629	514.45
37.5773	516.79
37.5917	474.31
37.6062	472.96
37.6206	475.66
37.6351	505.89
37.6495	513.37
37.6639	494.66
37.6784	467.71
37.6928	484.04
37.7073	554.51
37.7217	522.99
37.7361	503.69
37.7506	528.09
37.7650	488.64
37.7795	519.02
37.7939	508.74
37.8083	490.74
37.8228	482.94
37.8372	520.62
37.8517	502.63
37.8661	529.00
37.8805	518.77
37.8950	524.09
37.9094	519.79
37.9239	499.28
37.9383	505.04
37.9528	499.37
37.9672	495.66
37.9816	502.58
37.9961	497.87
38.0105	478.18
38.0250	528.84
38.0394	521.42
38.0538	523.50
38.0683	569.01
38.0827	526.38
38.0972	510.27
38.1116	478.76
38.1260	487.59
38.1405	510.07
38.1549	521.91
38.1694	524.40
38.1838	518.23
38.1982	480.19
38.2127	493.70
38.2271	525.36
38.2416	497.70
38.2560	492.48
38.2704	492.48
38.2849	504.05
38.2993	497.77
38.3138	502.87
38.3282	477.60
38.3426	495.13
38.3571	521.97
38.3715	531.58
38.3860	557.93
38.4004	546.26
38.4148	558.33
38.4293	568.81
38.4437	606.16
38.4582	618.12
38.4726	651.69
38.4870	713.41
38.5015	733.61
38.5159	763.71
38.5304	813.48
38.5448	812.95
38.5592	812.91
38.5737	779.41
38.5881	727.31
38.6026	733.91
38.6170	699.94
38.6314	693.91
38.6459	642.68
38.6603	609.33
38.6748	595.59
38.6892	557.27
38.7036	533.26
38.7181	509.63
38.7325	524.69
38.7470	525.56
38.7614	509.38
38.7758	514.91
38.7903	517.41
38.8047	497.44
38.8192	499.37
38.8336	493.74
38.8480	498.32
38.8625	504.68
38.8769	507.61
38.8914	512.70
38.9058	496.50
38.9202	499.51
38.9347	525.37
38.9491	515.26
38.9636	487.01
38.9780	480.67
38.9924	513.54
39.0069	539.93
39.0213	518.97
39.0358	486.69
39.0502	446.29
39.0646	472.14
39.0791	509.59
39.0935	526.32
39.1080	491.71
39.1224	540.32
39.1368	492.60
39.1513	461.06
39.1657	536.34
39.1802	523.33
39.1946	519.38
39.2090	498.52
39.2235	500.88
39.2379	483.36
39.2524	492.86
39.2668	494.47
39.2812	478.86
39.2957	495.38
39.3101	500.82
39.3246	506.72
39.3390	493.27
39.3534	495.13
39.3679	492.82
39.3823	493.14
39.3968	494.71
39.4112	505.23
39.4256	532.08
39.4401	512.83
39.4545	499.51
39.4690	520.69
39.4834	530.36
39.4978	511.13
39.5123	491.75
39.5267	506.20
39.5412	510.88
39.5556	483.51
39.5700	495.22
39.5845	487.84
39.5989	467.35
39.6134	479.02
39.6278	536.26
39.6422	490.72
39.6567	508.75
39.6711	492.90
39.6856	481.69
39.7000	489.64
39.7144	510.87
39.7289	468.49
39.7433	484.25
39.7578	472.85
39.7722	476.48
39.7866	493.48
39.8011	521.00
39.8155	491.12
39.8300	494.12
39.8444	512.61
39.8588	509.96
39.8733	498.74
39.8877	495.22
39.9022	515.17
39.9166	539.79
39.9310	506.43
39.9455	551.86
39.9599	454.71
39.9744	470.37
39.9888	447.36
40.0032	492.91
40.0177	490.39
40.0321	503.67
40.0466	511.01
40.0610	497.52
40.0754	483.69
40.0899	492.26
40.1043	478.70
40.1188	489.83
40.1332	495.57
40.1476	498.52
40.1621	512.08
40.1765	532.30
40.1910	473.73
40.2054	473.16
40.2198	471.19
40.2343	452.67
40.2487	478.31
40.2632	497.91
40.2776	484.82
40.2920	485.42
40.3065	511.29
40.3209	506.47
40.3354	530.74
40.3498	504.32
40.3642	502.97
40.3787	531.16
40.3931	485.98
40.4076	498.12
40.4220	489.84
40.4364	525.98
40.4509	485.73
40.4653	529.19
40.4798	513.27
40.4942	497.81
40.5086	490.30
40.5231	453.42
40.5375	505.69
40.5520	493.98
40.5664	494.25
40.5808	524.33
40.5953	511.59
40.6097	486.14
40.6242	480.21
40.6386	524.19
40.6530	506.85
40.6675	483.90
40.6819	458.17
40.6964	486.13
40.7108	495.25
40.7252	535.07
40.7397	494.96
40.7541	479.80
40.7686	519.79
40.7830	514.84
40.7974	503.77
40.8119	502.81
40.8263	523.43
40.8408	478.26
40.8552	506.02
40.8696	520.92
40.8841	504.66
40.8985	491.39
40.9130	498.67
40.9274	521.22
40.9418	493.55
40.9563	497.44
40.9707	500.41
40.9852	544.09
40.9996	517.87
41.0140	529.76
41.0285	525.31
41.0429	464.68
41.0574	499.33
41.0718	527.66
41.0862	493.53
41.1007	502.76
41.1151	508.65
41.1296	492.72
41.1440	513.75
41.1584	513.30
41.1729	546.19
41.1873	461.01
41.2018	495.10
41.2162	497.57
41.2306	493.40
41.2451	506.89
41.2595	506.31
41.2740	502.33
41.2884	513.62
41.3028	507.58
41.3173	483.15
41.3317	493.90
41.3462	476.48
41.3606	464.53
41.3750	499.82
41.3895	484.62
41.4039	521.34
41.4184	522.01
41.4328	502.19
41.4472	488.77
41.4617	480.76
41.4761	499.84
41.4906	508.44
41.5050	477.41
41.5194	492.95
41.5339	511.64
41.5483	495.10
41.5628	521.48
41.5772	487.69
41.5916	474.00
41.6061	503.77
41.6205	469.68
41.6350	498.52
41.6494	501.39
41.6639	518.16
41.6783	495.14
41.6927	495.58
41.7072	523.99
41.7216	516.43
41.7361	469.21
41.7505	517.76
41.7649	534.15
41.7794	523.83
41.7938	499.90
41.8083	505.64
41.8227	510.24
41.8371	492.12
41.8516	518.61
41.8660	497.32
41.8805	499.75
41.8949	539.61
41.9093	521.45
41.9238	574.27
41.9382	574.53
41.9527	596.14
41.9671	613.49
41.9815	560.04
41.9960	535.29
42.0104	545.18
42.0249	574.11
42.0393	548.72
42.0537	541.81
42.0682	569.84
42.0826	576.13
42.0971	576.18
42.1115	585.87
42.1259	596.84
42.1404	602.93
42.1548	595.76
42.1693	646.69
42.1837	681.63
42.1981	746.94
42.2126	800.10
42.2270	912.59
42.2415	1064.58
42.2559	1201.47
42.2703	1329.05
42.2848	1461.13
42.2992	1601.80
42.3137	1662.11
42.3281	1574.18
42.3425	1483.21
42.3570	1445.70
42.3714	1434.36
42.3859	1309.13
42.4003	1272.53
42.4147	1316.44
42.4292	1294.52
42.4436	1145.72
42.4581	1060.86
42.4725	968.87
42.4869	838.65
42.5014	779.24
42.5158	702.30
42.5303	665.44
42.5447	653.57
42.5591	595.32
42.5736	565.31
42.5880	567.31
42.6025	572.19
42.6169	581.35
42.6313	583.25
42.6458	555.56
42.6602	528.52
42.6747	518.15
42.6891	531.71
42.7035	527.72
42.7180	514.93
42.7324	535.16
42.7469	555.30
42.7613	509.68
42.7757	523.20
42.7902	518.30
42.8046	517.66
42.8191	515.57
42.8335	521.55
42.8479	503.05
42.8624	533.04
42.8768	519.91
42.8913	500.30
42.9057	526.61
42.9201	508.96
42.9346	531.99
42.9490	527.62
42.9635	497.47
42.9779	509.05
42.9923	486.55
43.0068	519.60
43.0212	513.27
43.0357	503.24
43.0501	507.69
43.0645	534.08
43.0790	498.16
43.0934	505.94
43.1079	509.64
43.1223	523.33
43.1367	542.82
43.1512	512.61
43.1656	535.31
43.1801	522.42
43.1945	508.28
43.2089	521.84
43.2234	525.09
43.2378	525.23
43.2523	535.42
43.2667	520.70
43.2811	542.55
43.2956	484.96
43.3100	520.07
43.3245	523.57
43.3389	485.69
43.3533	536.07
43.3678	558.28
43.3822	542.20
43.3967	520.92
43.4111	511.19
43.4255	538.08
43.4400	508.63
43.4544	535.11
43.4689	502.64
43.4833	485.92
43.4977	489.19
43.5122	499.49
43.5266	508.69
43.5411	540.60
43.5555	502.91
43.5699	514.62
43.5844	509.85
43.5988	524.41
43.6133	512.16
43.6277	504.23
43.6421	545.24
43.6566	527.87
43.6710	501.09
43.6855	525.62
43.6999	520.91
43.7143	529.78
43.7288	510.24
43.7432	505.71
43.7577	506.43
43.7721	493.85
43.7865	494.25
43.8010	484.58
43.8154	506.01
43.8299	551.21
43.8443	527.24
43.8587	542.88
43.8732	579.31
43.8876	542.87
43.9021	552.13
43.9165	535.74
43.9309	521.05
43.9454	536.92
43.9598	527.30
43.9743	550.50
43.9887	521.81
44.0031	522.56
44.0176	539.99
44.0320	508.57
44.0465	519.77
44.0609	546.20
44.0753	546.24
44.0898	540.61
44.1042	533.02
44.1187	562.40
44.1331	538.41
44.1475	562.79
44.1620	576.89
44.1764	591.59
44.1909	589.07
44.2053	619.13
44.2197	650.92
44.2342	627.95
44.2486	613.12
44.2631	629.98
44.2775	611.39
44.2919	620.79
44.3064	630.03
44.3208	630.28
44.3353	626.44
44.3497	608.29
44.3641	584.33
44.3786	580.36
44.3930	569.92
44.4075	550.50
44.4219	617.44
44.4363	618.33
44.4508	620.88
44.4652	602.95
44.4797	579.20
44.4941	573.50
44.5085	589.91
44.5230	585.51
44.5374	583.74
44.5519	581.30
44.5663	561.69
44.5807	575.70
44.5952	561.06
44.6096	587.21
44.6241	599.20
44.6385	568.04
44.6529	593.01
44.6674	572.02
44.6818	605.65
44.6963	645.24
44.7107	678.75
44.7251	691.21
44.7396	726.51
44.7540	817.75
44.7685	844.20
44.7829	920.24
44.7973	854.67
44.8118	826.80
44.8262	792.41
44.8407	773.87
44.8551	732.24
44.8695	740.59
44.8840	692.84
44.8984	693.84
44.9129	688.45
44.9273	705.53
44.9417	702.34
44.9562	630.13
44.9706	546.82
44.9851	555.22
44.9995	571.26
45.0139	504.36
45.0284	524.59
45.0428	518.00
45.0573	514.25
45.0717	536.38
45.0861	513.82
45.1006	494.63
45.1150	512.78
45.1295	508.19
45.1439	491.74
45.1583	492.80
45.1728	527.49
45.1872	488.26
45.2017	504.99
45.2161	566.74
45.2305	519.55
45.2450	525.09
45.2594	497.61
45.2739	501.48
45.2883	537.26
45.3028	468.54
45.3172	457.66
45.3316	482.45
45.3461	497.94
45.3605	491.91
45.3750	484.64
45.3894	488.58
45.4038	510.47
45.4183	500.42
45.4327	500.00
45.4472	471.60
45.4616	494.84
45.4760	525.60
45.4905	504.05
45.5049	483.01
45.5194	492.78
45.5338	526.11
45.5482	499.00
45.5627	523.54
45.5771	503.79
45.5916	523.97
45.6060	531.18
45.6204	517.50
45.6349	534.03
45.6493	502.29
45.6638	527.32
45.6782	501.55
45.6926	479.46
45.7071	499.21
45.7215	500.58
45.7360	491.60
45.7504	484.64
45.7648	487.08
45.7793	524.28
45.7937	498.40
45.8082	498.19
45.8226	492.53
45.8370	497.08
45.8515	509.06
45.8659	518.58
45.8804	503.43
45.8948	532.50
45.9092	571.95
45.9237	485.99
45.9381	536.78
45.9526	494.94
45.9670	526.30
45.9814	490.59
45.9959	482.31
46.0103	523.56
46.0248	534.40
46.0392	505.49
46.0536	522.04
46.0681	483.70
46.0825	499.70
46.0970	526.44
46.1114	522.38
46.1258	524.93
46.1403	498.69
46.1547	508.44
46.1692	532.91
46.1836	512.14
46.1980	506.78
46.2125	520.09
46.2269	500.60
46.2414	508.87
46.2558	509.20
46.2702	523.83
46.2847	532.69
46.2991	496.84
46.3136	523.55
46.3280	506.52
46.3424	520.88
46.3569	483.50
46.3713	516.07
46.3858	502.05
46.4002	488.94
46.4146	499.79
46.4291	501.13
46.4435	471.84
46.4580	452.36
46.4724	519.41
46.4868	515.55
46.5013	489.56
46.5157	482.44
46.5302	509.26
46.5446	455.30
46.5590	480.61
46.5735	477.74
46.5879	495.59
46.6024	494.36
46.6168	485.06
46.6312	513.54
46.6457	511.14
46.6601	498.54
46.6746	487.62
46.6890	513.13
46.7034	526.46
46.7179	509.66
46.7323	478.91
46.7468	475.60
46.7612	474.06
46.7756	499.43
46.7901	495.27
46.8045	494.45
46.8190	503.67
46.8334	467.16
46.8478	492.21
46.8623	514.16
46.8767	511.63
46.8912	511.90
46.9056	505.73
46.9200	510.50
46.9345	513.24
46.9489	496.85
46.9634	521.74
46.9778	512.47
46.9922	519.80
47.0067	494.21
47.0211	511.80
47.0356	517.13
47.0500	509.56
47.0644	514.94
47.0789	541.05
47.0933	542.97
47.1078	521.26
47.1222	516.62
47.1366	526.32
47.1511	476.35
47.1655	493.93
47.1800	512.91
47.1944	499.29
47.2088	508.62
47.2233	508.20
47.2377	518.05
47.2522	500.92
47.2666	479.47
47.2810	492.97
47.2955	511.48
47.3099	494.65
47.3244	491.30
47.3388	503.64
47.3532	480.11
47.3677	476.33
47.3821	476.11
47.3966	502.62
47.4110	480.90
47.4254	494.67
47.4399	519.44
47.4543	473.92
47.4688	501.26
47.4832	500.58
47.4976	497.33
47.5121	470.52
47.5265	504.49
47.5410	536.23
47.5554	508.96
47.5698	501.26
47.5843	497.68
47.5987	496.38
47.6132	546.51
47.6276	519.02
47.6420	507.16
47.6565	521.60
47.6709	501.84
47.6854	479.30
47.6998	517.94
47.7142	526.12
47.7287	497.23
47.7431	528.76
47.7576	522.91
47.7720	501.28
47.7864	523.83
47.8009	488.99
47.8153	484.23
47.8298	485.47
47.8442	501.16
47.8586	517.79
47.8731	500.25
47.8875	496.41
47.9020	514.90
47.9164	510.42
47.9308	491.82
47.9453	522.86
47.9597	476.44
47.9742	501.06
47.9886	506.94
48.0030	510.24
48.0175	496.54
48.0319	475.76
48.0464	505.76
48.0608	501.32
48.0752	514.67
48.0897	517.16
48.1041	496.40
48.1186	519.51
48.1330	517.48
48.1474	482.75
48.1619	515.75
48.1763	520.50
48.1908	480.72
48.2052	503.88
48.2196	524.23
48.2341	480.75
48.2485	503.50
48.2630	546.66
48.2774	492.86
48.2918	488.39
48.3063	510.80
48.3207	505.28
48.3352	514.49
48.3496	540.30
48.3640	491.10
48.3785	492.67
48.3929	510.83
48.4074	490.33
48.4218	532.58
48.4362	530.22
48.4507	490.31
48.4651	519.51
48.4796	505.46
48.4940	520.11
48.5084	490.39
48.5229	465.08
48.5373	512.77
48.5518	512.41
48.5662	508.80
48.5806	506.03
48.5951	528.91
48.6095	486.35
48.6240	505.98
48.6384	489.85
48.6528	543.85
48.6673	541.96
48.6817	532.68
48.6962	553.26
48.7106	548.63
48.7250	534.44
48.7395	527.65
48.7539	523.90
48.7684	541.33
48.7828	534.39
48.7972	502.79
48.8117	557.66
48.8261	541.12
48.8406	531.96
48.8550	520.24
48.8694	532.23
48.8839	539.75
48.8983	542.63
48.9128	558.44
48.9272	542.74
48.9416	586.21
48.9561	547.70
48.9705	578.01
48.9850	544.59
48.9994	624.59
49.0139	633.93
49.0283	642.78
49.0427	626.78
49.0572	593.47
49.0716	641.13
49.0861	670.05
49.1005	672.21
49.1149	717.90
49.1294	723.89
49.1438	764.59
49.1583	760.05
49.1727	852.90
49.1871	870.17
49.2016	941.91
49.2160	1018.79
49.2305	1023.63
49.2449	1199.56
49.2593	1280.92
49.2738	1365.23
49.2882	1453.77
49.3027	1525.84
49.3171	1662.43
49.3315	1677.25
49.3460	1734.79
49.3604	1716.70
49.3749	1721.66
49.3893	1725.82
49.4037	1688.02
49.4182	1689.77
49.4326	1699.18
49.4471	1645.47
49.4615	1586.06
49.4759	1572.27
49.4904	1463.69
49.5048	1330.56
49.5193	1336.23
49.5337	1292.10
49.5481	1224.19
49.5626	1096.09
49.5770	1055.22
49.5915	1032.70
49.6059	967.39
49.6203	877.94
49.6348	806.98
49.6492	828.86
49.6637	732.32
49.6781	681.24
49.6925	664.68
49.7070	693.32
49.7214	686.73
49.7359	599.63
49.7503	585.48
49.7647	607.74
49.7792	585.58
49.7936	586.16
49.8081	576.29
49.8225	567.34
49.8369	570.27
49.8514	568.94
49.8658	579.87
49.8803	558.13
49.8947	559.72
49.9091	575.39
49.9236	546.07
49.9380	537.82
49.9525	528.51
49.9669	519.93
49.9813	539.62
49.9958	532.21
50.0102	503.47
50.0247	514.46
50.0391	521.43
50.0535	499.64
50.0680	558.57
50.0824	531.67
50.0969	502.50
50.1113	523.35
50.1257	553.50
50.1402	543.20
50.1546	509.72
50.1691	539.05
50.1835	553.23
50.1979	504.93
50.2124	495.04
50.2268	531.79
50.2413	523.43
50.2557	519.58
50.2701	524.89
50.2846	552.78
50.2990	553.23
50.3135	565.66
50.3279	518.67
50.3423	544.51
50.3568	505.10
50.3712	503.82
50.3857	467.13
50.4001	503.31
50.4145	489.43
50.4290	476.74
50.4434	501.28
50.4579	533.29
50.4723	521.03
50.4867	482.42
50.5012	507.70
50.5156	527.39
50.5301	527.60
50.5445	505.62
50.5589	506.18
50.5734	500.71
50.5878	503.89
50.6023	470.40
50.6167	495.99
50.6311	489.43
50.6456	495.22
50.6600	528.71
50.6745	499.42
50.6889	490.86
50.7033	510.39
50.7178	525.24
50.7322	513.98
50.7467	526.57
50.7611	528.45
50.7755	509.68
50.7900	476.63
50.8044	524.91
50.8189	526.00
50.8333	511.39
50.8477	501.50
50.8622	507.58
50.8766	514.05
50.8911	476.07
50.9055	519.78
50.9199	496.68
50.9344	509.78
50.9488	498.99
50.9633	526.10
50.9777	545.28
50.9921	518.51
51.0066	490.11
51.0210	524.31
51.0355	536.37
51.0499	516.95
51.0643	545.55
51.0788	541.22
51.0932	519.19
51.1077	520.46
51.1221	535.99
51.1365	511.13
51.1510	496.78
51.1654	504.49
51.1799	520.50
51.1943	499.14
51.2087	482.60
51.2232	524.44
51.2376	555.76
51.2521	522.70
51.2665	493.51
51.2809	515.06
51.2954	482.23
51.3098	502.51
51.3243	505.84
51.3387	526.10
51.3531	498.26
51.3676	479.36
51.3820	501.46
51.3965	492.26
51.4109	514.74
51.4253	507.08
51.4398	489.91
51.4542	495.93
51.4687	515.14
51.4831	527.54
51.4975	508.20
51.5120	500.05
51.5264	497.50
51.5409	487.02
51.5553	522.71
51.5697	514.24
51.5842	500.02
51.5986	501.03
51.6131	517.77
51.6275	528.31
51.6419	508.64
51.6564	512.12
51.6708	470.34
51.6853	507.48
51.6997	489.09
51.7141	518.73
51.7286	501.17
51.7430	490.03
51.7575	474.93
51.7719	471.24
51.7863	499.13
51.8008	507.98
51.8152	506.92
51.8297	479.93
51.8441	459.25
51.8585	512.15
51.8730	526.47
51.8874	491.49
51.9019	514.98
51.9163	496.60
51.9307	467.05
51.9452	483.66
51.9596	497.86
51.9741	521.59
51.9885	487.37
52.0029	475.92
52.0174	485.57
52.0318	537.89
52.0463	510.62
52.0607	489.14
52.0751	485.27
52.0896	513.42
52.1040	477.69
52.1185	508.67
52.1329	485.32
52.1473	479.51
52.1618	502.48
52.1762	505.41
52.1907	497.12
52.2051	492.90
52.2195	498.50
52.2340	550.38
52.2484	537.43
52.2629	493.21
52.2773	524.20
52.2917	522.14
52.3062	528.26
52.3206	491.60
52.3351	508.00
52.3495	517.49
52.3639	534.45
52.3784	540.60
52.3928	514.53
52.4073	515.97
52.4217	522.76
52.4361	583.66
52.4506	498.47
52.4650	513.90
52.4795	493.73
52.4939	519.64
52.5083	526.31
52.5228	512.76
52.5372	540.37
52.5517	535.92
52.5661	532.73
52.5805	498.06
52.5950	508.69
52.6094	533.23
52.6239	503.58
52.6383	542.81
52.6527	489.13
52.6672	516.17
52.6816	493.87
52.6961	496.16
52.7105	552.65
52.7250	531.25
52.7394	498.88
52.7538	494.82
52.7683	478.72
52.7827	520.17
52.7972	522.05
52.8116	520.68
52.8260	495.24
52.8405	493.80
52.8549	533.22
52.8694	523.34
52.8838	485.48
52.8982	540.12
52.9127	501.84
52.9271	494.31
52.9416	483.00
52.9560	473.46
52.9704	490.50
52.9849	501.06
52.9993	504.34
53.0138	505.55
53.0282	550.33
53.0426	498.96
53.0571	511.31
53.0715	500.60
53.0860	509.38
53.1004	534.70
53.1148	563.52
53.1293	531.32
53.1437	479.76
53.1582	483.58
53.1726	521.82
53.1870	501.66
53.2015	480.57
53.2159	495.50
53.2304	497.69
53.2448	493.88
53.2592	484.53
53.2737	500.56
53.2881	464.74
53.3026	504.72
53.3170	522.09
53.3314	552.53
53.3459	496.63
53.3603	503.31
53.3748	490.56
53.3892	485.18
53.4036	508.37
53.4181	514.70
53.4325	514.07
53.4470	501.74
53.4614	499.29
53.4758	499.82
53.4903	529.87
53.5047	505.56
53.5192	497.41
53.5336	498.65
53.5480	511.80
53.5625	513.97
53.5769	536.00
53.5914	516.69
53.6058	525.05
53.6202	501.94
53.6347	541.94
53.6491	530.02
53.6636	513.57
53.6780	516.09
53.6924	509.86
53.7069	507.23
53.7213	500.35
53.7358	511.88
53.7502	535.02
53.7646	527.79
53.7791	524.10
53.7935	517.95
53.8080	536.28
53.8224	534.06
53.8368	500.44
53.8513	495.30
53.8657	496.79
53.8802	489.80
53.8946	506.54
53.9090	550.92
53.9235	517.90
53.9379	499.09
53.9524	512.58
53.9668	543.32
53.9812	503.61
53.9957	515.19
54.0101	516.94
54.0246	511.45
54.0390	537.37
54.0534	527.23
54.0679	549.12
54.0823	551.46
54.0968	535.49
54.1112	515.63
54.1256	528.58
54.1401	488.67
54.1545	523.09
54.1690	482.20
54.1834	489.20
54.1978	516.36
54.2123	537.52
54.2267	525.79
54.2412	518.67
54.2556	523.21
54.2700	506.04
54.2845	495.20
54.2989	506.56
54.3134	505.77
54.3278	484.77
54.3422	495.20
54.3567	500.81
54.3711	479.85
54.3856	511.16
54.4000	568.32
54.4144	540.68
54.4289	520.58
54.4433	485.77
54.4578	493.54
54.4722	536.97
54.4866	542.05
54.5011	524.12
54.5155	518.52
54.5300	509.34
54.5444	485.87
54.5588	476.14
54.5733	478.39
54.5877	517.59
54.6022	533.87
54.6166	550.36
54.6310	542.92
54.6455	536.74
54.6599	564.20
54.6744	545.34
54.6888	526.38
54.7032	558.68
54.7177	569.45
54.7321	554.85
54.7466	542.20
54.7610	521.64
54.7754	534.97
54.7899	554.82
54.8043	548.78
54.8188	570.31
54.8332	567.53
54.8476	564.09
54.8621	602.42
54.8765	596.73
54.8910	594.56
54.9054	586.09
54.9198	573.28
54.9343	566.71
54.9487	566.62
54.9632	554.21
54.9776	573.34
54.9920	551.03
55.0065	592.56
55.0209	599.69
55.0354	560.16
55.0498	569.29
55.0642	544.32
55.0787	543.30
55.0931	536.11
55.1076	520.76
55.1220	565.98
55.1364	536.14
55.1509	515.87
55.1653	540.19
55.1798	542.18
55.1942	528.85
55.2086	483.03
55.2231	538.75
55.2375	530.54
55.2520	516.73
55.2664	501.13
55.2808	526.00
55.2953	498.06
55.3097	520.07
55.3242	539.72
55.3386	562.83
55.3530	544.77
55.3675	556.65
55.3819	518.72
55.3964	542.19
55.4108	526.67
55.4252	520.40
55.4397	534.03
55.4541	519.70
55.4686	531.28
55.4830	523.17
55.4974	484.86
55.5119	475.05
55.5263	500.78
55.5408	529.40
55.5552	521.82
55.5696	511.82
55.5841	508.74
55.5985	511.92
55.6130	522.92
55.6274	546.29
55.6418	559.92
55.6563	555.87
55.6707	538.28
55.6852	498.79
55.6996	500.57
55.7140	518.32
55.7285	506.20
55.7429	540.60
55.7574	505.31
55.7718	511.45
55.7862	529.53
55.8007	494.93
55.8151	484.87
55.8296	526.21
55.8440	533.86
55.8584	512.70
55.8729	525.09
55.8873	519.89
55.9018	540.99
55.9162	529.00
55.9306	516.14
55.9451	523.33
55.9595	547.62
55.9740	544.41
55.9884	512.45
56.0028	540.29
56.0173	536.92
56.0317	488.53
56.0462	479.23
56.0606	499.73
56.0750	514.57
56.0895	505.41
56.1039	499.38
56.1184	526.47
56.1328	544.62
56.1472	504.11
56.1617	518.01
56.1761	525.34
56.1906	493.95
56.2050	499.48
56.2194	540.22
56.2339	530.69
56.2483	534.62
56.2628	523.29
56.2772	540.25
56.2916	533.36
56.3061	539.93
56.3205	548.75
56.3350	539.76
56.3494	521.66
56.3639	522.08
56.3783	529.32
56.3927	525.94
56.4072	485.44
56.4216	542.21
56.4361	556.28
56.4505	504.58
56.4649	498.19
56.4794	537.42
56.4938	518.31
56.5083	508.02
56.5227	496.95
56.5371	518.73
56.5516	544.73
56.5660	553.42
56.5805	509.39
56.5949	565.03
56.6093	532.85
56.6238	526.27
56.6382	527.06
56.6527	524.19
56.6671	496.06
56.6815	478.89
56.6960	519.15
56.7104	511.99
56.7249	499.75
56.7393	501.52
56.7537	539.63
56.7682	513.16
56.7826	509.00
56.7971	472.85
56.8115	537.25
56.8259	535.86
56.8404	526.53
56.8548	536.73
56.8693	527.50
56.8837	509.33
56.8981	486.38
56.9126	534.43
56.9270	530.44
56.9415	568.24
56.9559	521.70
56.9703	541.94
56.9848	495.55
56.9992	558.03
57.0137	523.15
57.0281	521.68
57.0425	551.66
57.0570	537.05
57.0714	515.82
57.0859	544.68
57.1003	531.09
57.1147	516.66
57.1292	521.05
57.1436	506.26
57.1581	550.76
57.1725	549.17
57.1869	562.40
57.2014	530.20
57.2158	510.75
57.2303	556.81
57.2447	553.56
57.2591	539.81
57.2736	530.68
57.2880	532.09
57.3025	508.01
57.3169	511.87
57.3313	548.57
57.3458	562.45
57.3602	528.02
57.3747	527.63
57.3891	532.13
57.4035	543.56
57.4180	528.97
57.4324	585.67
57.4469	525.51
57.4613	514.51
57.4757	538.04
57.4902	546.99
57.5046	530.02
57.5191	510.00
57.5335	539.57
57.5479	566.52
57.5624	494.67
57.5768	518.39
57.5913	526.94
57.6057	518.57
57.6201	504.46
57.6346	560.68
57.6490	510.55
57.6635	523.25
57.6779	523.69
57.6923	538.05
57.7068	564.71
57.7212	517.92
57.7357	522.71
57.7501	545.98
57.7645	528.83
57.7790	528.42
57.7934	511.88
57.8079	523.72
57.8223	554.93
57.8367	551.73
57.8512	539.24
57.8656	539.63
57.8801	557.71
57.8945	568.15
57.9089	533.62
57.9234	566.62
57.9378	554.52
57.9523	542.47
57.9667	511.56
57.9811	503.01
57.9956	520.71
58.0100	546.35
58.0245	564.01
58.0389	569.98
58.0533	557.74
58.0678	572.40
58.0822	561.35
58.0967	528.00
58.1111	504.89
58.1255	535.48
58.1400	511.66
58.1544	501.00
58.1689	545.23
58.1833	543.63
58.1977	553.04
58.2122	566.84
58.2266	567.85
58.2411	568.35
58.2555	570.18
58.2699	574.98
58.2844	538.08
58.2988	545.20
58.3133	582.99
58.3277	578.48
58.3421	580.00
58.3566	574.59
58.3710	599.55
58.3855	590.95
58.3999	586.38
58.4143	582.84
58.4288	633.91
58.4432	618.34
58.4577	608.37
58.4721	600.93
58.4865	586.65
58.5010	595.93
58.5154	628.27
58.5299	649.26
58.5443	664.67
58.5587	683.68
58.5732	654.68
58.5876	647.18
58.6021	634.88
58.6165	643.50
58.6309	616.33
58.6454	597.55
58.6598	615.55
58.6743	623.28
58.6887	584.96
58.7031	603.91
58.7176	628.93
58.7320	618.81
58.7465	591.07
58.7609	565.73
58.7753	584.94
58.7898	532.63
58.8042	508.31
58.8187	587.59
58.8331	592.53
58.8475	568.87
58.8620	564.29
58.8764	574.85
58.8909	562.47
58.9053	584.32
58.9197	571.70
58.9342	586.20
58.9486	584.45
58.9631	564.31
58.9775	582.44
58.9919	564.22
59.0064	533.62
59.0208	520.17
59.0353	513.02
59.0497	544.81
59.0641	562.55
59.0786	583.75
59.0930	579.89
59.1075	532.86
59.1219	569.31
59.1363	566.24
59.1508	538.12
59.1652	528.66
59.1797	519.96
59.1941	533.40
59.2085	535.00
59.2230	539.34
59.2374	561.92
59.2519	559.80
59.2663	527.79
59.2807	527.08
59.2952	504.68
59.3096	562.41
59.3241	560.73
59.3385	560.26
59.3529	549.24
59.3674	540.03
59.3818	562.40
59.3963	538.66
59.4107	539.40
59.4251	572.71
59.4396	553.16
59.4540	533.42
59.4685	580.45
59.4829	562.03
59.4973	536.59
59.5118	545.80
59.5262	572.52
59.5407	552.44
59.5551	531.61
59.5695	538.18
59.5840	539.33
59.5984	516.14
59.6129	563.02
59.6273	526.14
59.6417	563.67
59.6562	549.60
59.6706	536.58
59.6851	529.67
59.6995	563.41
59.7139	540.56
59.7284	509.49
59.7428	536.17
59.7573	550.47
59.7717	528.04
59.7861	556.75
59.8006	537.52
59.8150	526.14
59.8295	554.80
59.8439	519.15
59.8583	545.16
59.8728	554.05
59.8872	539.57
59.9017	549.43
59.9161	556.32
59.9305	540.23
59.9450	511.34
59.9594	520.04
59.9739	505.18
59.9883	549.34
60.0027	533.95
60.0172	531.06
60.0316	529.37
60.0461	521.48
60.0605	561.64
60.0750	504.66
60.0894	519.45
60.1038	516.57
60.1183	549.43
60.1327	572.98
60.1472	531.94
60.1616	547.70
60.1760	538.35
60.1905	546.47
60.2049	546.96
60.2194	551.89
60.2338	538.58
60.2482	566.82
60.2627	531.24
60.2771	512.22
60.2916	511.19
60.3060	544.95
60.3204	563.77
60.3349	551.31
60.3493	581.53
60.3638	530.17
60.3782	531.48
60.3926	563.76
60.4071	547.38
60.4215	557.96
60.4360	547.02
60.4504	550.34
60.4648	537.45
60.4793	551.41
60.4937	539.26
60.5082	513.32
60.5226	546.17
60.5370	536.88
60.5515	532.90
60.5659	557.10
60.5804	513.10
60.5948	559.34
60.6092	539.18
60.6237	560.81
60.6381	566.53
60.6526	544.62
60.6670	514.25
60.6814	495.91
60.6959	518.14
60.7103	545.11
60.7248	576.88
60.7392	541.43
60.7536	529.32
60.7681	551.23
60.7825	554.73
60.7970	515.81
60.8114	548.71
60.8258	575.57
60.8403	538.30
60.8547	531.58
60.8692	566.15
60.8836	521.23
60.8980	555.66
60.9125	521.18
60.9269	544.49
60.9414	576.87
60.9558	534.92
60.9702	544.18
60.9847	548.09
60.9991	552.86
61.0136	582.35
61.0280	545.48
61.0424	528.05
61.0569	529.61
61.0713	553.53
61.0858	516.34
61.1002	558.52
61.1146	565.18
61.1291	555.08
61.1435	507.39
61.1580	526.22
61.1724	525.39
61.1868	561.40
61.2013	523.20
61.2157	531.14
61.2302	535.78
61.2446	551.65
61.2590	529.88
61.2735	540.13
61.2879	517.48
61.3024	551.20
61.3168	556.88
61.3312	552.80
61.3457	556.24
61.3601	524.29
61.3746	576.36
61.3890	563.42
61.4034	543.08
61.4179	563.16
61.4323	542.77
61.4468	501.34
61.4612	537.98
61.4756	549.43
61.4901	566.18
61.5045	540.31
61.5190	528.56
61.5334	501.81
61.5478	529.81
61.5623	550.33
61.5767	546.06
61.5912	545.33
61.6056	538.75
61.6200	544.49
61.6345	540.96
61.6489	587.25
61.6634	523.16
61.6778	519.82
61.6922	530.97
61.7067	608.76
61.7211	583.58
61.7356	550.39
61.7500	540.43
61.7644	527.09
61.7789	565.85
61.7933	526.76
61.8078	544.86
61.8222	528.84
61.8366	544.44
61.8511	537.07
61.8655	605.18
61.8800	587.93
61.8944	578.76
61.9088	558.18
61.9233	548.43
61.9377	540.70
61.9522	535.59
61.9666	528.09
61.9810	539.82
61.9955	573.55
62.0099	547.21
62.0244	572.84
62.0388	523.73
62.0532	549.97
62.0677	593.48
62.0821	557.88
62.0966	564.35
62.1110	536.28
62.1254	540.40
62.1399	552.09
62.1543	550.47
62.1688	559.57
62.1832	516.09
62.1976	540.64
62.2121	575.16
62.2265	558.94
62.2410	563.13
62.2554	539.83
62.2698	526.04
62.2843	570.97
62.2987	581.15
62.3132	588.97
62.3276	552.80
62.3420	552.97
62.3565	561.85
62.3709	561.58
62.3854	584.28
62.3998	561.98
62.4142	539.11
62.4287	547.63
62.4431	558.87
62.4576	555.26
62.4720	571.09
62.4864	585.94
62.5009	560.73
62.5153	565.12
62.5298	549.09
62.5442	558.34
62.5586	538.35
62.5731	537.76
62.5875	538.73
62.6020	520.66
62.6164	537.26
62.6308	546.86
62.6453	543.59
62.6597	573.64
62.6742	542.80
62.6886	544.23
62.7030	590.36
62.7175	586.63
62.7319	552.48
62.7464	561.25
62.7608	568.83
62.7752	566.42
62.7897	571.05
62.8041	553.47
62.8186	566.83
62.8330	556.08
62.8474	519.60
62.8619	555.41
62.8763	579.98
62.8908	571.22
62.9052	583.78
62.9196	546.90
62.9341	567.00
62.9485	577.98
62.9630	562.26
62.9774	566.92
62.9918	540.83
63.0063	556.03
63.0207	585.86
63.0352	571.98
63.0496	534.61
63.0640	566.40
63.0785	546.26
63.0929	550.07
63.1074	546.64
63.1218	557.75
63.1362	564.45
63.1507	542.96
63.1651	561.35
63.1796	565.30
63.1940	582.09
63.2084	597.81
63.2229	552.72
63.2373	554.80
63.2518	584.69
63.2662	547.94
63.2806	576.53
63.2951	552.84
63.3095	547.26
63.3240	591.07
63.3384	634.70
63.3528	588.19
63.3673	575.23
63.3817	575.34
63.3962	539.59
63.4106	582.12
63.4250	626.99
63.4395	582.45
63.4539	553.12
63.4684	568.05
63.4828	590.41
63.4972	582.15
63.5117	592.18
63.5261	598.67
63.5406	595.17
63.5550	603.41
63.5694	600.48
63.5839	573.66
63.5983	587.72
63.6128	563.29
63.6272	605.18
63.6416	643.99
63.6561	595.62
63.6705	567.81
63.6850	545.74
63.6994	600.80
63.7138	628.80
63.7283	555.72
63.7427	571.28
63.7572	605.54
63.7716	564.17
63.7861	584.24
63.8005	598.69
63.8149	597.66
63.8294	554.63
63.8438	559.48
63.8583	577.07
63.8727	600.94
63.8871	602.98
63.9016	650.79
63.9160	571.47
63.9305	588.41
63.9449	637.98
63.9593	602.69
63.9738	640.14
63.9882	585.72
64.0027	621.21
64.0171	647.93
64.0315	621.57
64.0460	609.57
64.0604	685.10
64.0749	652.06
64.0893	709.93
64.1037	674.65
64.1182	667.18
64.1326	675.20
64.1471	683.19
64.1615	687.78
64.1759	689.46
64.1904	730.17
64.2048	736.70
64.2193	764.87
64.2337	746.24
64.2481	750.53
64.2626	726.29
64.2770	744.46
64.2915	759.82
64.3059	732.96
64.3203	769.45
64.3348	782.03
64.3492	742.54
64.3637	765.69
64.3781	743.53
64.3925	746.23
64.4070	707.27
64.4214	737.94
64.4359	746.80
64.4503	730.77
64.4647	744.56
64.4792	771.60
64.4936	769.61
64.5081	771.30
64.5225	734.92
64.5369	751.76
64.5514	688.83
64.5658	704.28
64.5803	720.42
64.5947	709.98
64.6091	671.73
64.6236	667.19
64.6380	704.54
64.6525	684.97
64.6669	688.35
64.6813	675.31
64.6958	686.36
64.7102	750.68
64.7247	739.45
64.7391	697.55
64.7535	770.42
64.7680	726.40
64.7824	726.19
64.7969	759.82
64.8113	773.34
64.8257	775.39
64.8402	856.46
64.8546	873.80
64.8691	883.81
64.8835	862.51
64.8979	845.08
64.9124	883.50
64.9268	917.60
64.9413	975.51
64.9557	990.68
64.9701	993.27
64.9846	1060.09
64.9990	1241.81
65.0135	1312.05
65.0279	1464.59
65.0423	1776.81
65.0568	2092.82
65.0712	2726.22
65.0857	3697.41
65.1001	4733.57
65.1145	6385.88
65.1290	8569.53
65.1434	9980.99
65.1579	11498.00
65.1723	11919.54
65.1867	11221.05
65.2012	9715.98
65.2156	8161.17
65.2301	6495.39
65.2445	5312.99
65.2589	4421.03
65.2734	4232.53
65.2878	4453.93
65.3023	5061.06
65.3167	5994.87
65.3311	6738.81
65.3456	7211.48
65.3600	7034.32
65.3745	6417.24
65.3889	5388.66
65.4033	4214.72
65.4178	3329.59
65.4322	2611.79
65.4467	1966.55
65.4611	1613.76
65.4755	1474.47
65.4900	1277.99
65.5044	1148.69
65.5189	1044.74
65.5333	982.00
65.5477	927.91
65.5622	875.26
65.5766	836.44
65.5911	802.77
65.6055	800.85
65.6199	789.07
65.6344	810.85
65.6488	778.81
65.6633	727.01
65.6777	702.23
65.6921	703.14
65.7066	766.64
65.7210	744.97
65.7355	703.98
65.7499	681.92
65.7643	651.78
65.7788	681.55
65.7932	699.77
65.8077	660.70
65.8221	624.14
65.8365	621.36
65.8510	640.30
65.8654	637.67
65.8799	662.05
65.8943	666.78
65.9087	641.49
65.9232	620.27
65.9376	634.08
65.9521	652.95
65.9665	671.29
65.9809	652.48
65.9954	621.80
66.0098	606.46
66.0243	647.96
66.0387	649.14
66.0531	604.57
66.0676	626.40
66.0820	612.86
66.0965	607.60
66.1109	608.41
66.1253	637.86
66.1398	603.60
66.1542	596.87
66.1687	601.37
66.1831	603.20
66.1975	619.26
66.2120	638.68
66.2264	650.69
66.2409	640.93
66.2553	613.83
66.2697	589.01
66.2842	606.60
66.2986	580.68
66.3131	577.00
66.3275	634.67
66.3419	599.97
66.3564	611.74
66.3708	576.40
66.3853	603.77
66.3997	592.77
66.4141	579.10
66.4286	614.78
66.4430	587.89
66.4575	598.26
66.4719	609.84
66.4863	601.63
66.5008	600.79
66.5152	587.50
66.5297	560.75
66.5441	634.02
66.5585	616.58
66.5730	583.25
66.5874	578.50
66.6019	573.93
66.6163	606.39
66.6307	591.28
66.6452	614.14
66.6596	583.32
66.6741	578.72
66.6885	575.33
66.7029	606.30
66.7174	597.61
66.7318	570.05
66.7463	582.19
66.7607	565.42
66.7751	594.63
66.7896	624.11
66.8040	586.94
66.8185	605.90
66.8329	613.54
66.8473	590.57
66.8618	612.20
66.8762	590.52
66.8907	562.73
66.9051	612.31
66.9195	584.59
66.9340	580.62
66.9484	595.66
66.9629	603.45
66.9773	586.86
66.9917	566.25
67.0062	578.26
67.0206	577.13
67.0351	560.70
67.0495	552.98
67.0639	576.14
67.0784	577.95
67.0928	619.49
67.1073	573.94
67.1217	541.72
67.1361	563.51
67.1506	573.92
67.1650	574.86
67.1795	577.33
67.1939	583.27
67.2083	556.17
67.2228	593.52
67.2372	592.18
67.2517	578.66
67.2661	603.32
67.2805	595.61
67.2950	592.87
67.3094	579.32
67.3239	596.25
67.3383	589.54
67.3527	573.07
67.3672	569.99
67.3816	550.68
67.3961	567.86
67.4105	571.63
67.4250	583.91
67.4394	591.46
67.4538	552.06
67.4683	597.47
67.4827	591.41
67.4972	569.87
67.5116	569.33
67.5260	571.26
67.5405	557.17
67.5549	574.04
67.5694	570.24
67.5838	597.58
67.5982	587.06
67.6127	566.71
67.6271	557.71
67.6416	585.06
67.6560	607.57
67.6704	616.51
67.6849	623.26
67.6993	560.22
67.7138	595.56
67.7282	610.26
67.7426	566.25
67.7571	575.81
67.7715	574.99
67.7860	579.38
67.8004	579.02
67.8148	569.49
67.8293	568.57
67.8437	596.66
67.8582	580.12
67.8726	565.68
67.8870	543.77
67.9015	593.34
67.9159	577.38
67.9304	579.93
67.9448	563.55
67.9592	591.12
67.9737	568.78
67.9881	543.17
68.0026	555.38
68.0170	621.36
68.0314	561.28
68.0459	548.50
68.0603	554.39
68.0748	541.93
68.0892	544.01
68.1036	552.13
68.1181	609.13
68.1325	579.00
68.1470	590.96
68.1614	562.32
68.1758	547.47
68.1903	569.33
68.2047	570.31
68.2192	569.74
68.2336	540.72
68.2480	568.02
68.2625	586.68
68.2769	579.45
68.2914	576.96
68.3058	554.15
68.3202	593.94
68.3347	563.50
68.3491	549.59
68.3636	566.40
68.3780	593.31
68.3924	577.85
68.4069	570.84
68.4213	521.82
68.4358	585.95
68.4502	602.55
68.4646	624.72
68.4791	604.04
68.4935	574.15
68.5080	557.62
68.5224	549.02
68.5368	590.28
68.5513	576.86
68.5657	577.80
68.5802	575.82
68.5946	574.04
68.6090	564.38
68.6235	553.89
68.6379	564.59
68.6524	555.10
68.6668	567.89
68.6812	543.69
68.6957	531.06
68.7101	552.97
68.7246	548.21
68.7390	575.75
68.7534	620.16
68.7679	580.99
68.7823	579.39
68.7968	545.37
68.8112	554.16
68.8256	611.80
68.8401	526.49
68.8545	554.12
68.8690	613.34
68.8834	568.92
68.8978	594.17
68.9123	613.91
68.9267	598.52
68.9412	597.04
68.9556	580.30
68.9700	620.03
68.9845	525.67
68.9989	536.96
69.0134	564.57
69.0278	554.56
69.0422	591.12
69.0567	538.03
69.0711	616.95
69.0856	662.30
69.1000	625.01
69.1144	555.77
69.1289	653.00
69.1433	569.75
69.1578	585.20
69.1722	633.12
69.1866	597.86
69.2011	601.95
69.2155	578.96
69.2300	578.16
69.2444	574.05
69.2588	557.55
69.2733	550.62
69.2877	574.13
69.3022	611.43
69.3166	565.33
69.3310	569.09
69.3455	622.99
69.3599	606.36
69.3744	581.99
69.3888	612.06
69.4032	558.35
69.4177	551.82
69.4321	604.34
69.4466	531.88
69.4610	545.64
69.4754	589.73
69.4899	616.60
69.5043	613.30
69.5188	547.66
69.5332	578.92
69.5476	543.04
69.5621	572.97
69.5765	545.64
69.5910	532.83
69.6054	573.43
69.6198	607.64
69.6343	598.29
69.6487	511.48
69.6632	576.29
69.6776	551.72
69.6920	630.34
69.7065	614.60
69.7209	622.25
69.7354	585.99
69.7498	536.33
69.7642	565.63
69.7787	582.98
69.7931	644.26
69.8076	609.28
69.8220	568.29
69.8364	556.93
69.8509	593.53
69.8653	610.50
69.8798	542.76
69.8942	566.60
69.9086	605.04
69.9231	583.15
69.9375	585.18
69.9520	622.60
69.9664	579.31
69.9808	577.43
69.9953	572.34
70.0097	590.66
70.0242	577.23
70.0386	599.42
70.0530	633.40
70.0675	609.46
70.0819	560.78
70.0964	592.53
70.1108	608.68
70.1252	587.66
70.1397	578.22
70.1541	572.34
70.1686	577.55
70.1830	552.65
70.1974	558.63
70.2119	605.18
70.2263	588.25
70.2408	608.73
70.2552	573.93
70.2696	614.94
70.2841	616.54
70.2985	610.35
70.3130	555.00
70.3274	525.78
70.3418	575.64
70.3563	586.53
70.3707	565.32
70.3852	595.16
70.3996	606.29
70.4140	544.09
70.4285	611.29
70.4429	584.70
70.4574	596.86
70.4718	594.85
70.4862	566.61
70.5007	603.15
70.5151	573.52
70.5296	564.20
70.5440	554.56
70.5584	605.23
70.5729	526.34
70.5873	560.19
70.6018	554.94
70.6162	535.18
70.6306	560.46
70.6451	577.52
70.6595	566.08
70.6740	567.38
70.6884	569.73
70.7028	602.38
70.7173	641.92
70.7317	553.86
70.7462	562.34
70.7606	585.94
70.7750	614.77
70.7895	582.34
70.8039	551.21
70.8184	618.52
70.8328	571.38
70.8472	591.32
70.8617	595.70
70.8761	568.65
70.8906	609.17
70.9050	634.61
70.9194	575.22
70.9339	654.79
70.9483	574.91
70.9628	553.37
70.9772	586.09
70.9916	621.21
71.0061	599.59
71.0205	615.30
71.0350	582.07
71.0494	573.26
71.0638	612.84
71.0783	591.18
71.0927	563.64
71.1072	591.87
71.1216	587.36
71.1361	585.27
71.1505	568.89
71.1649	588.56
71.1794	605.20
71.1938	608.75
71.2083	617.78
71.2227	548.47
71.2371	546.90
71.2516	559.76
71.2660	599.91
71.2805	565.33
71.2949	529.35
71.3093	563.18
71.3238	588.47
71.3382	600.20
71.3527	529.49
71.3671	519.61
71.3815	562.18
71.3960	606.10
71.4104	579.15
71.4249	596.27
71.4393	587.63
71.4537	558.05
71.4682	584.42
71.4826	572.11
71.4971	581.74
71.5115	586.74
71.5259	602.17
71.5404	622.58
71.5548	617.19
71.5693	591.84
71.5837	547.26
71.5981	591.77
71.6126	578.19
71.6270	533.23
71.6415	550.33
71.6559	631.83
71.6703	609.68
71.6848	586.82
71.6992	582.77
71.7137	594.12
71.7281	569.99
71.7425	569.86
71.7570	577.43
71.7714	580.39
71.7859	557.07
71.8003	592.25
71.8147	592.51
71.8292	574.34
71.8436	542.25
71.8581	510.23
71.8725	539.24
71.8869	559.12
71.9014	565.50
71.9158	558.36
71.9303	631.30
71.9447	589.93
71.9591	508.70
71.9736	529.88
71.9880	543.12
72.0025	512.60
72.0169	513.38
72.0313	617.81
72.0458	616.20
72.0602	563.12
72.0747	524.74
72.0891	596.82
72.1035	615.81
72.1180	545.07
72.1324	536.05
72.1469	583.85
72.1613	584.54
72.1757	562.66
72.1902	538.08
72.2046	513.79
72.2191	564.56
72.2335	552.63
72.2479	517.50
72.2624	627.03
72.2768	676.97
72.2913	590.57
72.3057	554.09
72.3201	533.47
72.3346	520.96
72.3490	553.09
72.3635	584.93
72.3779	581.46
72.3923	579.96
72.4068	545.58
72.4212	604.66
72.4357	608.56
72.4501	510.03
72.4645	540.97
72.4790	600.58
72.4934	524.40
72.5079	533.99
72.5223	534.42
72.5367	490.97
72.5512	528.80
72.5656	617.88
72.5801	565.89
72.5945	490.45
72.6089	551.19
72.6234	554.07
72.6378	535.01
72.6523	514.73
72.6667	593.17
72.6811	703.81
72.6956	615.87
72.7100	650.76
72.7245	666.56
72.7389	642.84
72.7533	530.35
72.7678	594.37
72.7822	616.72
72.7967	527.82
72.8111	559.73
72.8255	611.73
72.8400	612.16
72.8544	613.83
72.8689	567.81
72.8833	566.44

Result vector
22.1120	584.05
22.1264	634.76
22.1409	532.14
22.1553	548.22
22.1697	578.52
22.1842	594.66
22.1986	573.94
22.2131	559.00
22.2275	503.02
22.2419	560.91
22.2564	583.16
22.2708	622.64
22.2853	603.80
22.2997	542.12
22.3141	572.48
22.3286	591.82
22.3430	500.85
22.3575	607.20
22.3719	524.53
22.3863	553.58
22.4008	500.72
22.4152	542.15
22.4297	578.91
22.4441	545.19
22.4585	667.50
22.4730	601.19
22.4874	586.12
22.5019	685.16
22.5163	658.66
22.5307	624.41
22.5452	559.39
22.5596	686.07
22.5741	620.77
22.5885	617.50
22.6029	634.40
22.6174	584.16
22.6318	580.92
22.6463	521.42
22.6607	589.87
22.6751	616.85
22.6896	627.09
22.7040	629.16
22.7185	583.61
22.7329	569.14
22.7473	535.76
22.7618	490.31
22.7762	510.83
22.7907	584.36
22.8051	636.38
22.8195	557.73
22.8340	525.98
22.8484	499.10
22.8629	546.34
22.8773	528.97
22.8917	520.61
22.9062	619.65
22.9206	530.52
22.9351	546.26
22.9495	592.23
22.9639	628.27
22.9784	607.17
22.9928	530.49
23.0073	540.44
23.0217	541.08
23.0361	533.33
23.0506	667.32
23.0650	626.41
23.0795	563.07
23.0939	588.53
23.1083	602.62
23.1228	548.40
23.1372	568.81
23.1517	563.14
23.1661	619.79
23.1806	529.51
23.1950	548.82
23.2094	551.59
23.2239	661.91
23.2383	616.86
23.2528	559.98
23.2672	611.03
23.2816	640.56
23.2961	521.10
23.3105	528.71
23.3250	597.34
23.3394	571.47
23.3538	617.59
23.3683	517.14
23.3827	443.73
23.3972	537.05
23.4116	531.81
23.4260	593.50
23.4405	560.76
23.4549	569.38
23.4694	562.72
23.4838	582.53
23.4982	600.03
23.5127	547.85
23.5271	581.75
23.5416	506.19
23.5560	574.54
23.5704	547.12
23.5849	555.72
23.5993	576.51
23.6138	568.28
23.6282	484.60
23.6426	569.83
23.6571	550.81
23.6715	561.26
23.6860	545.98
23.7004	571.58
23.7148	518.96
23.7293	589.28
23.7437	532.90
23.7582	573.24
23.7726	518.92
23.7870	582.99
23.8015	524.13
23.8159	615.14
23.8304	600.39
23.8448	552.67
23.8592	559.57
23.8737	563.06
23.8881	484.57
23.9026	574.08
23.9170	573.18
23.9314	545.31
23.9459	611.57
23.9603	529.98
23.9748	583.11
23.9892	542.82
24.0036	507.20
24.0181	465.60
24.0325	532.01
24.0470	524.77
24.0614	470.96
24.0758	507.13
24.0903	585.05
24.1047	616.04
24.1192	573.98
24.1336	588.78
24.1480	563.87
24.1625	551.02
24.1769	587.09
24.1914	623.12
24.2058	607.11
24.2202	623.29
24.2347	572.78
24.2491	645.02
24.2636	584.92
24.2780	565.19
24.2924	627.29
24.3069	538.59
24.3213	599.89
24.3358	548.34
24.3502	557.02
24.3646	562.25
24.3791	578.98
24.3935	494.74
24.4080	566.44
24.4224	522.09
24.4368	534.32
24.4513	536.70
24.4657	550.51
24.4802	593.43
24.4946	537.46
24.5090	559.63
24.5235	531.62
24.5379	585.41
24.5524	555.57
24.5668	499.59
24.5812	548.91
24.5957	575.51
24.6101	557.53
24.6246	537.60
24.6390	531.86
24.6534	589.20
24.6679	538.93
24.6823	546.48
24.6968	551.03
24.7112	529.95
24.7256	580.01
24.7401	585.91
24.7545	609.57
24.7690	544.07
24.7834	553.24
24.7978	591.55
24.8123	589.45
24.8267	609.37
24.8412	607.83
24.8556	571.93
24.8700	543.60
24.8845	511.72
24.8989	565.27
24.9134	600.59
24.9278	528.13
24.9422	605.92
24.9567	571.80
24.9711	532.52
24.9856	507.64
25.0000	549.14
25.0144	502.88
25.0289	574.62
25.0433	568.69
25.0578	566.16
25.0722	567.42
25.0866	580.35
25.1011	547.52
25.1155	557.53
25.1300	537.49
25.1444	553.04
25.1588	526.79
25.1733	596.15
25.1877	596.02
25.2022	537.45
25.2166	562.73
25.2310	528.67
25.2455	520.89
25.2599	546.38
25.2744	525.04
25.2888	518.59
25.3032	508.48
25.3177	565.41
25.3321	518.46
25.3466	511.79
25.3610	522.99
25.3754	504.22
25.3899	541.60
25.4043	529.99
25.4188	521.34
25.4332	531.92
25.4476	520.17
25.4621	524.53
25.4765	510.23
25.4910	520.65
25.5054	548.93
25.5198	537.26
25.5343	589.15
25.5487	543.00
25.5632	541.32
25.5776	527.85
25.5920	532.45
25.6065	561.46
25.6209	562.29
25.6354	547.30
25.6498	530.45
25.6642	561.97
25.6787	558.59
25.6931	561.64
25.7076	580.18
25.7220	518.25
25.7364	538.70
25.7509	555.01
25.7653	539.39
25.7798	569.61
25.7942	575.06
25.8086	582.53
25.8231	564.46
25.8375	570.17
25.8520	526.15
25.8664	515.90
25.8808	542.44
25.8953	533.44
25.9097	507.33
25.9242	539.75
25.9386	566.10
25.9530	534.74
25.9675	533.21
25.9819	529.95
25.9964	526.04
26.0108	548.49
26.0252	562.21
26.0397	542.56
26.0541	544.51
26.0686	546.60
26.0830	530.15
26.0974	530.86
26.1119	538.53
26.1263	553.54
26.1408	506.86
26.1552	491.84
26.1696	525.55
26.1841	514.25
26.1985	543.35
26.2130	544.32
26.2274	525.32
26.2418	552.14
26.2563	509.52
26.2707	540.25
26.2852	563.92
26.2996	568.94
26.3140	551.66
26.3285	531.26
26.3429	508.99
26.3574	525.05
26.3718	525.76
26.3862	486.48
26.4007	485.11
26.4151	488.96
26.4296	517.05
26.4440	512.48
26.4584	541.65
26.4729	528.91
26.4873	547.69
26.5018	531.04
26.5162	532.46
26.5306	565.96
26.5451	544.02
26.5595	514.61
26.5740	545.27
26.5884	573.62
26.6028	508.16
26.6173	527.92
26.6317	532.65
26.6462	538.57
26.6606	517.89
26.6750	508.07
26.6895	509.86
26.7039	537.07
26.7184	547.89
26.7328	526.20
26.7472	491.53
26.7617	526.77
26.7761	525.23
26.7906	503.89
26.8050	553.36
26.8194	569.02
26.8339	553.99
26.8483	509.70
26.8628	518.34
26.8772	524.93
26.8917	555.29
26.9061	562.59
26.9205	531.23
26.9350	565.47
26.9494	505.88
26.9639	533.55
26.9783	531.03
26.9927	536.28
27.0072	535.34
27.0216	501.28
27.0361	514.36
27.0505	506.59
27.0649	503.36
27.0794	524.07
27.0938	559.90
27.1083	482.02
27.1227	532.15
27.1371	518.69
27.1516	492.37
27.1660	518.76
27.1805	514.57
27.1949	494.40
27.2093	520.62
27.2238	509.70
27.2382	505.97
27.2527	519.45
27.2671	528.27
27.2815	508.12
27.2960	498.87
27.3104	518.69
27.3249	518.34
27.3393	505.69
27.3537	516.77
27.3682	517.96
27.3826	491.60
27.3971	474.84
27.4115	528.13
27.4259	541.78
27.4404	494.05
27.4548	535.93
27.4693	497.77
27.4837	484.48
27.4981	501.35
27.5126	499.90
27.5270	472.46
27.5415	517.32
27.5559	525.17
27.5703	519.85
27.5848	530.22
27.5992	511.58
27.6137	500.15
27.6281	513.55
27.6425	520.88
27.6570	548.31
27.6714	525.82
27.6859	490.22
27.7003	521.49
27.7147	537.25
27.7292	519.28
27.7436	512.37
27.7581	511.65
27.7725	509.45
27.7869	536.12
27.8014	515.45
27.8158	547.65
27.8303	525.51
27.8447	526.69
27.8591	501.69
27.8736	519.96
27.8880	518.44
27.9025	512.14
27.9169	495.26
27.9313	493.58
27.9458	529.83
27.9602	491.91
27.9747	527.63
27.9891	541.65
28.0035	529.02
28.0180	540.48
28.0324	534.83
28.0469	493.74
28.0613	515.25
28.0757	511.62
28.0902	517.98
28.1046	481.70
28.1191	533.18
28.1335	552.53
28.1479	510.38
28.1624	539.25
28.1768	500.49
28.1913	502.66
28.2057	507.81
28.2201	525.57
28.2346	501.37
28.2490	493.09
28.2635	505.89
28.2779	488.26
28.2923	503.14
28.3068	509.06
28.3212	489.53
28.3357	534.85
28.3501	537.99
28.3645	532.62
28.3790	531.33
28.3934	506.95
28.4079	499.85
28.4223	508.33
28.4367	518.05
28.4512	496.54
28.4656	546.82
28.4801	542.01
28.4945	526.72
28.5089	492.26
28.5234	509.01
28.5378	523.89
28.5523	528.44
28.5667	498.01
28.5811	471.74
28.5956	511.56
28.6100	507.34
28.6245	528.65
28.6389	514.47
28.6533	504.75
28.6678	514.63
28.6822	529.62
28.6967	526.43
28.7111	568.15
28.7255	518.14
28.7400	519.76
28.7544	511.17
28.7689	489.42
28.7833	528.50
28.7977	520.15
28.8122	514.82
28.8266	543.96
28.8411	509.03
28.8555	510.01
28.8699	538.66
28.8844	494.01
28.8988	519.10
28.9133	469.69
28.9277	524.81
28.9421	501.61
28.9566	504.13
28.9710	533.57
28.9855	505.89
28.9999	495.79
29.0143	513.63
29.0288	488.37
29.0432	511.37
29.0577	472.47
29.0721	514.88
29.0865	502.74
29.1010	484.39
29.1154	545.03
29.1299	541.17
29.1443	507.27
29.1587	487.42
29.1732	525.11
29.1876	525.50
29.2021	500.68
29.2165	559.98
29.2309	516.47
29.2454	539.73
29.2598	503.60
29.2743	477.87
29.2887	485.99
29.3031	517.15
29.3176	479.19
29.3320	521.49
29.3465	494.79
29.3609	536.86
29.3753	487.59
29.3898	472.07
29.4042	529.23
29.4187	510.69
29.4331	491.96
29.4475	490.96
29.4620	528.61
29.4764	519.50
29.4909	533.98
29.5053	507.49
29.5197	508.06
29.5342	472.20
29.5486	506.43
29.5631	505.36
29.5775	492.15
29.5919	511.52
29.6064	518.93
29.6208	505.19
29.6353	485.41
29.6497	449.91
29.6641	493.25
29.6786	516.01
29.6930	526.89
29.7075	516.34
29.7219	491.06
29.7363	505.05
29.7508	500.90
29.7652	506.29
29.7797	493.78
29.7941	538.44
29.8085	545.35
29.8230	541.96
29.8374	519.77
29.8519	491.22
29.8663	521.81
29.8807	535.50
29.8952	537.15
29.9096	515.48
29.9241	501.17
29.9385	507.22
29.9529	501.42
29.9674	479.41
29.9818	519.69
29.9963	518.89
30.0107	513.67
30.0251	495.20
30.0396	517.61
30.0540	539.35
30.0685	497.55
30.0829	493.71
30.0973	538.48
30.1118	529.61
30.1262	504.43
30.1407	486.12
30.1551	504.93
30.1695	507.11
30.1840	513.31
30.1984	513.26
30.2129	524.44
30.2273	495.43
30.2417	496.06
30.2562	489.84
30.2706	530.27
30.2851	489.61
30.2995	494.93
30.3139	507.27
30.3284	510.17
30.3428	494.29
30.3573	474.52
30.3717	521.68
30.3861	495.93
30.4006	492.64
30.4150	503.05
30.4295	542.38
30.4439	526.03
30.4583	541.09
30.4728	528.15
30.4872	477.96
30.5017	521.07
30.5161	515.62
30.5305	518.94
30.5450	530.79
30.5594	549.27
30.5739	515.56
30.5883	493.62
30.6028	490.71
30.6172	508.50
30.6316	533.46
30.6461	537.00
30.6605	512.23
30.6750	516.99
30.6894	519.56
30.7038	536.31
30.7183	540.12
30.7327	559.05
30.7472	555.21
30.7616	558.97
30.7760	573.69
30.7905	560.85
30.8049	593.08
30.8194	635.11
30.8338	658.54
30.8482	635.87
30.8627	687.42
30.8771	674.24
30.8916	673.25
30.9060	673.42
30.9204	689.10
30.9349	684.93
30.9493	650.12
30.9638	668.63
30.9782	630.54
30.9926	627.87
31.0071	606.08
31.0215	575.66
31.0360	566.84
31.0504	565.97
31.0648	544.20
31.0793	541.34
31.0937	563.65
31.1082	534.88
31.1226	544.83
31.1370	539.91
31.1515	551.71
31.1659	538.41
31.1804	511.31
31.1948	530.46
31.2092	550.38
31.2237	518.98
31.2381	529.11
31.2526	529.71
31.2670	536.76
31.2814	548.46
31.2959	552.55
31.3103	555.75
31.3248	547.40
31.3392	529.53
31.3536	531.44
31.3681	538.74
31.3825	550.98
31.3970	527.34
31.4114	539.33
31.4258	566.40
31.4403	496.31
31.4547	514.93
31.4692	524.99
31.4836	539.53
31.4980	515.87
31.5125	504.64
31.5269	499.22
31.5414	498.82
31.5558	511.13
31.5702	535.24
31.5847	542.69
31.5991	528.68
31.6136	501.93
31.6280	507.86
31.6424	550.89
31.6569	529.82
31.6713	513.05
31.6858	492.83
31.7002	461.72
31.7146	501.02
31.7291	517.64
31.7435	500.50
31.7580	516.54
31.7724	515.09
31.7868	523.55
31.8013	496.79
31.8157	512.41
31.8302	487.57
31.8446	513.53
31.8590	516.95
31.8735	531.87
31.8879	553.78
31.9024	541.98
31.9168	561.45
31.9312	564.55
31.9457	526.56
31.9601	532.49
31.9746	514.31
31.9890	560.38
32.0034	530.08
32.0179	506.93
32.0323	539.72
32.0468	529.21
32.0612	516.67
32.0756	501.61
32.0901	523.63
32.1045	530.70
32.1190	501.30
32.1334	475.26
32.1478	455.35
32.1623	514.48
32.1767	516.03
32.1912	500.13
32.2056	515.06
32.2200	487.40
32.2345	486.42
32.2489	490.75
32.2634	499.50
32.2778	522.40
32.2922	499.54
32.3067	486.57
32.3211	508.76
32.3356	521.58
32.3500	529.11
32.3644	495.24
32.3789	522.12
32.3933	512.92
32.4078	497.60
32.4222	540.29
32.4366	504.96
32.4511	463.87
32.4655	493.73
32.4800	487.97
32.4944	481.37
32.5088	464.50
32.5233	466.43
32.5377	544.77
32.5522	515.91
32.5666	511.08
32.5810	535.34
32.5955	519.73
32.6099	505.59
32.6244	478.20
32.6388	530.29
32.6532	489.09
32.6677	490.93
32.6821	503.11
32.6966	496.38
32.7110	500.95
32.7254	508.32
32.7399	490.18
32.7543	527.34
32.7688	510.84
32.7832	512.40
32.7976	514.72
32.8121	500.03
32.8265	467.98
32.8410	480.00
32.8554	509.79
32.8698	533.51
32.8843	516.83
32.8987	567.93
32.9132	508.92
32.9276	488.80
32.9420	479.94
32.9565	477.40
32.9709	487.45
32.9854	490.85
32.9998	493.00
33.0142	541.76
33.0287	554.42
33.0431	529.24
33.0576	497.58
33.0720	529.14
33.0864	530.24
33.1009	511.73
33.1153	483.96
33.1298	505.00
33.1442	513.40
33.1586	490.84
33.1731	533.92
33.1875	525.68
33.2020	500.15
33.2164	500.81
33.2308	533.66
33.2453	526.26
33.2597	510.09
33.2742	484.62
33.2886	499.25
33.3030	488.55
33.3175	507.49
33.3319	499.16
33.3464	510.85
33.3608	493.76
33.3752	479.61
33.3897	471.02
33.4041	493.70
33.4186	520.33
33.4330	516.80
33.4474	505.17
33.4619	526.22
33.4763	517.08
33.4908	512.21
33.5052	486.87
33.5196	519.99
33.5341	535.57
33.5485	479.41
33.5630	522.95
33.5774	519.09
33.5918	492.39
33.6063	496.56
33.6207	507.97
33.6352	507.76
33.6496	489.55
33.6640	492.82
33.6785	514.49
33.6929	491.51
33.7074	500.55
33.7218	530.05
33.7362	519.39
33.7507	527.79
33.7651	497.79
33.7796	502.77
33.7940	509.37
33.8084	534.10
33.8229	510.16
33.8373	501.12
33.8518	509.28
33.8662	485.29
33.8806	520.20
33.8951	506.10
33.9095	526.55
33.9240	510.94
33.9384	474.14
33.9528	477.12
33.9673	493.79
33.9817	551.00
33.9962	503.31
34.0106	497.70
34.0250	484.27
34.0395	478.28
34.0539	478.73
34.0684	512.26
34.0828	516.83
34.0972	533.73
34.1117	517.12
34.1261	513.56
34.1406	494.08
34.1550	497.32
34.1694	524.78
34.1839	502.99
34.1983	503.75
34.2128	508.89
34.2272	512.04
34.2417	502.63
34.2561	511.19
34.2705	482.93
34.2850	526.12
34.2994	507.15
34.3139	484.15
34.3283	498.84
34.3427	511.18
34.3572	490.77
34.3716	492.21
34.3861	498.86
34.4005	506.90
34.4149	511.42
34.4294	523.24
34.4438	491.61
34.4583	506.72
34.4727	516.12
34.4871	499.03
34.5016	477.16
34.5160	483.18
34.5305	523.28
34.5449	505.19
34.5593	500.51
34.5738	500.29
34.5882	518.43
34.6027	491.21
34.6171	508.51
34.6315	514.00
34.6460	495.09
34.6604	496.89
34.6749	502.07
34.6893	480.04
34.7037	491.25
34.7182	491.81
34.7326	494.66
34.7471	508.96
34.7615	516.60
34.7759	515.26
34.7904	514.12
34.8048	519.77
34.8193	493.67
34.8337	510.45
34.8481	531.74
34.8626	487.62
34.8770	493.97
34.8915	506.26
34.9059	521.09
34.9203	506.86
34.9348	503.64
34.9492	495.73
34.9637	493.85
34.9781	509.33
34.9925	512.53
35.0070	532.81
35.0214	549.77
35.0359	531.01
35.0503	520.39
35.0647	506.96
35.0792	528.78
35.0936	524.15
35.1081	515.98
35.1225	535.27
35.1369	501.49
35.1514	494.96
35.1658	515.79
35.1803	532.03
35.1947	543.38
35.2091	507.20
35.2236	511.34
35.2380	511.43
35.2525	503.28
35.2669	520.77
35.2813	520.23
35.2958	502.77
35.3102	518.82
35.3247	490.73
35.3391	504.45
35.3535	509.91
35.3680	483.79
35.3824	480.77
35.3969	515.66
35.4113	533.63
35.4257	520.76
35.4402	509.18
35.4546	494.90
35.4691	525.20
35.4835	525.73
35.4979	554.79
35.5124	551.84
35.5268	540.78
35.5413	543.03
35.5557	521.01
35.5701	533.78
35.5846	538.87
35.5990	505.45
35.6135	506.39
35.6279	519.53
35.6423	529.57
35.6568	540.66
35.6712	539.43
35.6857	574.00
35.7001	671.16
35.7145	699.58
35.7290	648.43
35.7434	582.32
35.7579	555.73
35.7723	567.62
35.7867	627.72
35.8012	661.09
35.8156	654.04
35.8301	609.87
35.8445	605.73
35.8589	637.22
35.8734	745.11
35.8878	849.00
35.9023	1007.76
35.9167	1110.25
35.9311	1502.15
35.9456	2329.69
35.9600	2337.05
35.9745	1812.80
35.9889	1744.28
36.0033	2201.72
36.0178	2237.32
36.0322	1916.75
36.0467	1734.08
36.0611	1619.96
36.0755	1585.81
36.0900	1517.02
36.1044	1308.41
36.1189	1272.92
36.1333	1141.67
36.1477	1034.44
36.1622	1042.48
36.1766	960.23
36.1911	920.35
36.2055	830.38
36.2199	762.28
36.2344	711.72
36.2488	777.61
36.2633	757.30
36.2777	828.09
36.2921	768.58
36.3066	865.96
36.3210	912.61
36.3355	936.09
36.3499	972.82
36.3643	998.41
36.3788	971.71
36.3932	959.25
36.4077	959.46
36.4221	932.71
36.4365	961.39
36.4510	891.59
36.4654	896.81
36.4799	839.18
36.4943	773.37
36.5087	790.59
36.5232	757.17
36.5376	744.22
36.5521	688.60
36.5665	638.61
36.5809	662.19
36.5954	641.09
36.6098	563.06
36.6243	600.41
36.6387	601.93
36.6531	568.85
36.6676	555.36
36.6820	577.67
36.6965	568.44
36.7109	584.04
36.7253	571.03
36.7398	565.10
36.7542	532.46
36.7687	548.45
36.7831	555.57
36.7975	571.89
36.8120	609.76
36.8264	553.21
36.8409	569.45
36.8553	581.60
36.8697	607.42
36.8842	572.36
36.8986	575.87
36.9131	609.12
36.9275	615.22
36.9419	577.80
36.9564	570.24
36.9708	574.86
36.9853	578.38
36.9997	646.13
37.0141	606.75
37.0286	551.14
37.0430	523.78
37.0575	509.91
37.0719	516.50
37.0863	554.43
37.1008	520.37
37.1152	539.11
37.1297	535.64
37.1441	507.86
37.1585	516.07
37.1730	508.34
37.1874	484.83
37.2019	487.40
37.2163	536.46
37.2307	488.77
37.2452	501.48
37.2596	531.57
37.2741	492.83
37.2885	489.09
37.3029	498.93
37.3174	518.89
37.3318	530.90
37.3463	541.82
37.3607	543.33
37.3751	544.56
37.3896	497.88
37.4040	488.92
37.4185	520.76
37.4329	545.38
37.4473	492.49
37.4618	483.30
37.4762	492.53
37.4907	502.30
37.5051	537.10
37.5195	536.15
37.5340	519.29
37.5484	501.75
37.5629	514.45
37.5773	516.79
37.5917	474.31
37.6062	472.96
37.6206	475.66
37.6351	505.89
37.6495	513.37
37.6639	494.66
37.6784	467.71
37.6928	484.04
37.7073	554.51
37.7217	522.99
37.7361	503.69
37.7506	528.09
37.7650	488.64
37.7795	519.02
37.7939	508.74
37.8083	490.74
37.8228	482.94
37.8372	520.62
37.8517	502.63
37.8661	529.00
37.8805	518.77
37.8950	524.09
37.9094	519.79
37.9239	499.28
37.9383	505.04
37.9528	499.37
37.9672	495.66
37.9816	502.58
37.9961	497.87
38.0105	478.18
38.0250	528.84
38.0394	521.42
38.0538	523.50
38.0683	569.01
38.0827	526.38
38.0972	510.27
38.1116	478.76
38.1260	487.59
38.1405	510.07
38.1549	521.91
38.1694	524.40
38.1838	518.23
38.1982	480.19
38.2127	493.70
38.2271	525.36
38.2416	497.70
38.2560	492.48
38.2704	492.48
38.2849	504.05
38.2993	497.77
38.3138	502.87
38.3282	477.60
38.3426	495.13
38.3571	521.97
38.3715	531.58
38.3860	557.93
38.4004	546.26
38.4148	558.33
38.4293	568.81
38.4437	606.16
38.4582	618.12
38.4726	651.69
38.4870	713.41
38.5015	733.61
38.5159	763.71
38.5304	813.48
38.5448	812.95
38.5592	812.91
38.5737	779.41
38.5881	727.31
38.6026	733.91
38.6170	699.94
38.6314	693.91
38.6459	642.68
38.6603	609.33
38.6748	595.59
38.6892	557.27
38.7036	533.26
38.7181	509.63
38.7325	524.69
38.7470	525.56
38.7614	509.38
38.7758	514.91
38.7903	517.41
38.8047	497.44
38.8192	499.37
38.8336	493.74
38.8480	498.32
38.8625	504.68
38.8769	507.61
38.8914	512.70
38.9058	496.50
38.9202	499.51
38.9347	525.37
38.9491	515.26
38.9636	487.01
38.9780	480.67
38.9924	513.54
39.0069	539.93
39.0213	518.97
39.0358	486.69
39.0502	446.29
39.0646	472.14
39.0791	509.59
39.0935	526.32
39.1080	491.71
39.1224	540.32
39.1368	492.60
39.1513	461.06
39.1657	536.34
39.1802	523.33
39.1946	519.38
39.2090	498.52
39.2235	500.88
39.2379	483.36
39.2524	492.86
39.2668	494.47
39.2812	478.86
39.2957	495.38
39.3101	500.82
39.3246	506.72
39.3390	493.27
39.3534	495.13
39.3679	492.82
39.3823	493.14
39.3968	494.71
39.4112	505.23
39.4256	532.08
39.4401	512.83
39.4545	499.51
39.4690	520.69
39.4834	530.36
39.4978	511.13
39.5123	491.75
39.5267	506.20
39.5412	510.88
39.5556	483.51
39.5700	495.22
39.5845	487.84
39.5989	467.35
39.6134	479.02
39.6278	536.26
39.6422	490.72
39.6567	508.75
39.6711	492.90
39.6856	481.69
39.7000	489.64
39.7144	510.87
39.7289	468.49
39.7433	484.25
39.7578	472.85
39.7722	476.48
39.7866	493.48
39.8011	521.00
39.8155	491.12
39.8300	494.12
39.8444	512.61
39.8588	509.96
39.8733	498.74
39.8877	495.22
39.9022	515.17
39.9166	539.79
39.9310	506.43
39.9455	551.86
39.9599	454.71
39.9744	470.37
39.9888	447.36
40.0032	492.91
40.0177	490.39
40.0321	503.67
40.0466	511.01
40.0610	497.52
40.0754	483.69
40.0899	492.26
40.1043	478.70
40.1188	489.83
40.1332	495.57
40.1476	498.52
40.1621	512.08
40.1765	532.30
40.1910	473.73
40.2054	473.16
40.2198	471.19
40.2343	452.67
40.2487	478.31
40.2632	497.91
40.2776	484.82
40.2920	485.42
40.3065	511.29
40.3209	506.47
40.3354	530.74
40.3498	504.32
40.3642	502.97
40.3787	531.16
40.3931	485.98
40.4076	498.12
40.4220	489.84
40.4364	525.98
40.4509	485.73
40.4653	529.19
40.4798	513.27
40.4942	497.81
40.5086	490.30
40.5231	453.42
40.5375	505.69
40.5520	493.98
40.5664	494.25
40.5808	524.33
40.5953	511.59
40.6097	486.14
40.6242	480.21
40.6386	524.19
40.6530	506.85
40.6675	483.90
40.6819	458.17
40.6964	486.13
40.7108	495.25
40.7252	535.07
40.7397	494.96
40.7541	479.80
40.7686	519.79
40.7830	514.84
40.7974	503.77
40.8119	502.81
40.8263	523.43
40.8408	478.26
40.8552	506.02
40.8696	520.92
40.8841	504.66
40.8985	491.39
40.9130	498.67
40.9274	521.22
40.9418	493.55
40.9563	497.44
40.9707	500.41
40.9852	544.09
40.9996	517.87
41.0140	529.76
41.0285	525.31
41.0429	464.68
41.0574	499.33
41.0718	527.66
41.0862	493.53
41.1007	502.76
41.1151	508.65
41.1296	492.72
41.1440	513.75
41.1584	513.30
41.1729	546.19
41.1873	461.01
41.2018	495.10
41.2162	497.57
41.2306	493.40
41.2451	506.89
41.2595	506.31
41.2740	502.33
41.2884	513.62
41.3028	507.58
41.3173	483.15
41.3317	493.90
41.3462	476.48
41.3606	464.53
41.3750	499.82
41.3895	484.62
41.4039	521.34
41.4184	522.01
41.4328	502.19
41.4472	488.77
41.4617	480.76
41.4761	499.84
41.4906	508.44
41.5050	477.41
41.5194	492.95
41.5339	511.64
41.5483	495.10
41.5628	521.48
41.5772	487.69
41.5916	474.00
41.6061	503.77
41.6205	469.68
41.6350	498.52
41.6494	501.39
41.6639	518.16
41.6783	495.14
41.6927	495.58
41.7072	523.99
41.7216	516.43
41.7361	469.21
41.7505	517.76
41.7649	534.15
41.7794	523.83
41.7938	499.90
41.8083	505.64
41.8227	510.24
41.8371	492.12
41.8516	518.61
41.8660	497.32
41.8805	499.75
41.8949	539.61
41.9093	521.45
41.9238	574.27
41.9382	574.53
41.9527	596.14
41.9671	613.49
41.9815	560.04
41.9960	535.29
42.0104	545.18
42.0249	574.11
42.0393	548.72
42.0537	541.81
42.0682	569.84
42.0826	576.13
42.0971	576.18
42.1115	585.87
42.1259	596.84
42.1404	602.93
42.1548	595.76
42.1693	646.69
42.1837	681.63
42.1981	746.94
42.2126	800.10
42.2270	912.59
42.2415	1064.58
42.2559	1201.47
42.2703	1329.05
42.2848	1461.13
42.2992	1601.80
42.3137	1662.11
42.3281	1574.18
42.3425	1483.21
42.3570	1445.70
42.3714	1434.36
42.3859	1309.13
42.4003	1272.53
42.4147	1316.44
42.4292	1294.52
42.4436	1145.72
42.4581	1060.86
42.4725	968.87
42.4869	838.65
42.5014	779.24
42.5158	702.30
42.5303	665.44
42.5447	653.57
42.5591	595.32
42.5736	565.31
42.5880	567.31
42.6025	572.19
42.6169	581.35
42.6313	583.25
42.6458	555.56
42.6602	528.52
42.6747	518.15
42.6891	531.71
42.7035	527.72
42.7180	514.93
42.7324	535.16
42.7469	555.30
42.7613	509.68
42.7757	523.20
42.7902	518.30
42.8046	517.66
42.8191	515.57
42.8335	521.55
42.8479	503.05
42.8624	533.04
42.8768	519.91
42.8913	500.30
42.9057	526.61
42.9201	508.96
42.9346	531.99
42.9490	527.62
42.9635	497.47
42.9779	509.05
42.9923	486.55
43.0068	519.60
43.0212	513.27
43.0357	503.24
43.0501	507.69
43.0645	534.08
43.0790	498.16
43.0934	505.94
43.1079	509.64
43.1223	523.33
43.1367	542.82
43.1512	512.61
43.1656	535.31
43.1801	522.42
43.1945	508.28
43.2089	521.84
43.2234	525.09
43.2378	525.23
43.2523	535.42
43.2667	520.70
43.2811	542.55
43.2956	484.96
43.3100	520.07
43.3245	523.57
43.3389	485.69
43.3533	536.07
43.3678	558.28
43.3822	542.20
43.3967	520.92
43.4111	511.19
43.4255	538.08
43.4400	508.63
43.4544	535.11
43.4689	502.64
43.4833	485.92
43.4977	489.19
43.5122	499.49
43.5266	508.69
43.5411	540.60
43.5555	502.91
43.5699	514.62
43.5844	509.85
43.5988	524.41
43.6133	512.16
43.6277	504.23
43.6421	545.24
43.6566	527.87
43.6710	501.09
43.6855	525.62
43.6999	520.91
43.7143	529.78
43.7288	510.24
43.7432	505.71
43.7577	506.43
43.7721	493.85
43.7865	494.25
43.8010	484.58
43.8154	506.01
43.8299	551.21
43.8443	527.24
43.8587	542.88
43.8732	579.31
43.8876	542.87
43.9021	552.13
43.9165	535.74
43.9309	521.05
43.9454	536.92
43.9598	527.30
43.9743	550.50
43.9887	521.81
44.0031	522.56
44.0176	539.99
44.0320	508.57
44.0465	519.77
44.0609	546.20
44.0753	546.24
44.0898	540.61
44.1042	533.02
44.1187	562.40
44.1331	538.41
44.1475	562.79
44.1620	576.89
44.1764	591.59
44.1909	589.07
44.2053	619.13
44.2197	650.92
44.2342	627.95
44.2486	613.12
44.2631	629.98
44.2775	611.39
44.2919	620.79
44.3064	630.03
44.3208	630.28
44.3353	626.44
44.3497	608.29
44.3641	584.33
44.3786	580.36
44.3930	569.92
44.4075	550.50
44.4219	617.44
44.4363	618.33
44.4508	620.88
44.4652	602.95
44.4797	579.20
44.4941	573.50
44.5085	589.91
44.5230	585.51
44.5374	583.74
44.5519	581.30
44.5663	561.69
44.5807	575.70
44.5952	561.06
44.6096	587.21
44.6241	599.20
44.6385	568.04
44.6529	593.01
44.6674	572.02
44.6818	605.65
44.6963	645.24
44.7107	678.75
44.7251	691.21
44.7396	726.51
44.7540	817.75
44.7685	844.20
44.7829	920.24
44.7973	854.67
44.8118	826.80
44.8262	792.41
44.8407	773.87
44.8551	732.24
44.8695	740.59
44.8840	692.84
44.8984	693.84
44.9129	688.45
44.9273	705.53
44.9417	702.34
44.9562	630.13
44.9706	546.82
44.9851	555.22
44.9995	571.26
45.0139	504.36
45.0284	524.59
45.0428	518.00
45.0573	514.25
45.0717	536.38
45.0861	513.82
45.1006	494.63
45.1150	512.78
45.1295	508.19
45.1439	491.74
45.1583	492.80
45.1728	527.49
45.1872	488.26
45.2017	504.99
45.2161	566.74
45.2305	519.55
45.2450	525.09
45.2594	497.61
45.2739	501.48
45.2883	537.26
45.3028	468.54
45.3172	457.66
45.3316	482.45
45.3461	497.94
45.3605	491.91
45.3750	484.64
45.3894	488.58
45.4038	510.47
45.4183	500.42
45.4327	500.00
45.4472	471.60
45.4616	494.84
45.4760	525.60
45.4905	504.05
45.5049	483.01
45.5194	492.78
45.5338	526.11
45.5482	499.00
45.5627	523.54
45.5771	503.79
45.5916	523.97
45.6060	531.18
45.6204	517.50
45.6349	534.03
45.6493	502.29
45.6638	527.32
45.6782	501.55
45.6926	479.46
45.7071	499.21
45.7215	500.58
45.7360	491.60
45.7504	484.64
45.7648	487.08
45.7793	524.28
45.7937	498.40
45.8082	498.19
45.8226	492.53
45.8370	497.08
45.8515	509.06
45.8659	518.58
45.8804	503.43
45.8948	532.50
45.9092	571.95
45.9237	485.99
45.9381	536.78
45.9526	494.94
45.9670	526.30
45.9814	490.59
45.9959	482.31
46.0103	523.56
46.0248	534.40
46.0392	505.49
46.0536	522.04
46.0681	483.70
46.0825	499.70
46.0970	526.44
46.1114	522.38
46.1258	524.93
46.1403	498.69
46.1547	508.44
46.1692	532.91
46.1836	512.14
46.1980	506.78
46.2125	520.09
46.2269	500.60
46.2414	508.87
46.2558	509.20
46.2702	523.83
46.2847	532.69
46.2991	496.84
46.3136	523.55
46.3280	506.52
46.3424	520.88
46.3569	483.50
46.3713	516.07
46.3858	502.05
46.4002	488.94
46.4146	499.79
46.4291	501.13
46.4435	471.84
46.4580	452.36
46.4724	519.41
46.4868	515.55
46.5013	489.56
46.5157	482.44
46.5302	509.26
46.5446	455.30
46.5590	480.61
46.5735	477.74
46.5879	495.59
46.6024	494.36
46.6168	485.06
46.6312	513.54
46.6457	511.14
46.6601	498.54
46.6746	487.62
46.6890	513.13
46.7034	526.46
46.7179	509.66
46.7323	478.91
46.7468	475.60
46.7612	474.06
46.7756	499.43
46.7901	495.27
46.8045	494.45
46.8190	503.67
46.8334	467.16
46.8478	492.21
46.8623	514.16
46.8767	511.63
46.8912	511.90
46.9056	505.73
46.9200	510.50
46.9345	513.24
46.9489	496.85
46.9634	521.74
46.9778	512.47
46.9922	519.80
47.0067	494.21
47.0211	511.80
47.0356	517.13
47.0500	509.56
47.0644	514.94
47.0789	541.05
47.0933	542.97
47.1078	521.26
47.1222	516.62
47.1366	526.32
47.1511	476.35
47.1655	493.93
47.1800	512.91
47.1944	499.29
47.2088	508.62
47.2233	508.20
47.2377	518.05
47.2522	500.92
47.2666	479.47
47.2810	492.97
47.2955	511.48
47.3099	494.65
47.3244	491.30
47.3388	503.64
47.3532	480.11
47.3677	476.33
47.3821	476.11
47.3966	502.62
47.4110	480.90
47.4254	494.67
47.4399	519.44
47.4543	473.92
47.4688	501.26
47.4832	500.58
47.4976	497.33
47.5121	470.52
47.5265	504.49
47.5410	536.23
47.5554	508.96
47.5698	501.26
47.5843	497.68
47.5987	496.38
47.6132	546.51
47.6276	519.02
47.6420	507.16
47.6565	521.60
47.6709	501.84
47.6854	479.30
47.6998	517.94
47.7142	526.12
47.7287	497.23
47.7431	528.76
47.7576	522.91
47.7720	501.28
47.7864	523.83
47.8009	488.99
47.8153	484.23
47.8298	485.47
47.8442	501.16
47.8586	517.79
47.8731	500.25
47.8875	496.41
47.9020	514.90
47.9164	510.42
47.9308	491.82
47.9453	522.86
47.9597	476.44
47.9742	501.06
47.9886	506.94
48.0030	510.24
48.0175	496.54
48.0319	475.76
48.0464	505.76
48.0608	501.32
48.0752	514.67
48.0897	517.16
48.1041	496.40
48.1186	519.51
48.1330	517.48
48.1474	482.75
48.1619	515.75
48.1763	520.50
48.1908	480.72
48.2052	503.88
48.2196	524.23
48.2341	480.75
48.2485	503.50
48.2630	546.66
48.2774	492.86
48.2918	488.39
48.3063	510.80
48.3207	505.28
48.3352	514.49
48.3496	540.30
48.3640	491.10
48.3785	492.67
48.3929	510.83
48.4074	490.33
48.4218	532.58
48.4362	530.22
48.4507	490.31
48.4651	519.51
48.4796	505.46
48.4940	520.11
48.5084	490.39
48.5229	465.08
48.5373	512.77
48.5518	512.41
48.5662	508.80
48.5806	506.03
48.5951	528.91
48.6095	486.35
48.6240	505.98
48.6384	489.85
48.6528	543.85
48.6673	541.96
48.6817	532.68
48.6962	553.26
48.7106	548.63
48.7250	534.44
48.7395	527.65
48.7539	523.90
48.7684	541.33
48.7828	534.39
48.7972	502.79
48.8117	557.66
48.8261	541.12
48.8406	531.96
48.8550	520.24
48.8694	532.23
48.8839	539.75
48.8983	542.63
48.9128	558.44
48.9272	542.74
48.9416	586.21
48.9561	547.70
48.9705	578.01
48.9850	544.59
48.9994	624.59
49.0139	633.93
49.0283	642.78
49.0427	626.78
49.0572	593.47
49.0716	641.13
49.0861	670.05
49.1005	672.21
49.1149	717.90
49.1294	723.89
49.1438	764.59
49.1583	760.05
49.1727	852.90
49.1871	870.17
49.2016	941.91
49.2160	1018.79
49.2305	1023.63
49.2449	1199.56
49.2593	1280.92
49.2738	1365.23
49.2882	1453.77
49.3027	1525.84
49.3171	1662.43
49.3315	1677.25
49.3460	1734.79
49.3604	1716.70
49.3749	1721.66
49.3893	1725.82
49.4037	1688.02
49.4182	1689.77
49.4326	1699.18
49.4471	1645.47
49.4615	1586.06
49.4759	1572.27
49.4904	1463.69
49.5048	1330.56
49.5193	1336.23
49.5337	1292.10
49.5481	1224.19
49.5626	1096.09
49.5770	1055.22
49.5915	1032.70
49.6059	967.39
49.6203	877.94
49.6348	806.98
49.6492	828.86
49.6637	732.32
49.6781	681.24
49.6925	664.68
49.7070	693.32
49.7214	686.73
49.7359	599.63
49.7503	585.48
49.7647	607.74
49.7792	585.58
49.7936	586.16
49.8081	576.29
49.8225	567.34
49.8369	570.27
49.8514	568.94
49.8658	579.87
49.8803	558.13
49.8947	559.72
49.9091	575.39
49.9236	546.07
49.9380	537.82
49.9525	528.51
49.9669	519.93
49.9813	539.62
49.9958	532.21
50.0102	503.47
50.0247	514.46
50.0391	521.43
50.0535	499.64
50.0680	558.57
50.0824	531.67
50.0969	502.50
50.1113	523.35
50.1257	553.50
50.1402	543.20
50.1546	509.72
50.1691	539.05
50.1835	553.23
50.1979	504.93
50.2124	495.04
50.2268	531.79
50.2413	523.43
50.2557	519.58
50.2701	524.89
50.2846	552.78
50.2990	553.23
50.3135	565.66
50.3279	518.67
50.3423	544.51
50.3568	505.10
50.3712	503.82
50.3857	467.13
50.4001	503.31
50.4145	489.43
50.4290	476.74
50.4434	501.28
50.4579	533.29
50.4723	521.03
50.4867	482.42
50.5012	507.70
50.5156	527.39
50.5301	527.60
50.5445	505.62
50.5589	506.18
50.5734	500.71
50.5878	503.89
50.6023	470.40
50.6167	495.99
50.6311	489.43
50.6456	495.22
50.6600	528.71
50.6745	499.42
50.6889	490.86
50.7033	510.39
50.7178	525.24
50.7322	513.98
50.7467	526.57
50.7611	528.45
50.7755	509.68
50.7900	476.63
50.8044	524.91
50.8189	526.00
50.8333	511.39
50.8477	501.50
50.8622	507.58
50.8766	514.05
50.8911	476.07
50.9055	519.78
50.9199	496.68
50.9344	509.78
50.9488	498.99
50.9633	526.10
50.9777	545.28
50.9921	518.51
51.0066	490.11
51.0210	524.31
51.0355	536.37
51.0499	516.95
51.0643	545.55
51.0788	541.22
51.0932	519.19
51.1077	520.46
51.1221	535.99
51.1365	511.13
51.1510	496.78
51.1654	504.49
51.1799	520.50
51.1943	499.14
51.2087	482.60
51.2232	524.44
51.2376	555.76
51.2521	522.70
51.2665	493.51
51.2809	515.06
51.2954	482.23
51.3098	502.51
51.3243	505.84
51.3387	526.10
51.3531	498.26
51.3676	479.36
51.3820	501.46
51.3965	492.26
51.4109	514.74
51.4253	507.08
51.4398	489.91
51.4542	495.93
51.4687	515.14
51.4831	527.54
51.4975	508.20
51.5120	500.05
51.5264	497.50
51.5409	487.02
51.5553	522.71
51.5697	514.24
51.5842	500.02
51.5986	501.03
51.6131	517.77
51.6275	528.31
51.6419	508.64
51.6564	512.12
51.6708	470.34
51.6853	507.48
51.6997	489.09
51.7141	518.73
51.7286	501.17
51.7430	490.03
51.7575	474.93
51.7719	471.24
51.7863	499.13
51.8008	507.98
51.8152	506.92
51.8297	479.93
51.8441	459.25
51.8585	512.15
51.8730	526.47
51.8874	491.49
51.9019	514.98
51.9163	496.60
51.9307	467.05
51.9452	483.66
51.9596	497.86
51.9741	521.59
51.9885	487.37
52.0029	475.92
52.0174	485.57
52.0318	537.89
52.0463	510.62
52.0607	489.14
52.0751	485.27
52.0896	513.42
52.1040	477.69
52.1185	508.67
52.1329	485.32
52.1473	479.51
52.1618	502.48
52.1762	505.41
52.1907	497.12
52.2051	492.90
52.2195	498.50
52.2340	550.38
52.2484	537.43
52.2629	493.21
52.2773	524.20
52.2917	522.14
52.3062	528.26
52.3206	491.60
52.3351	508.00
52.3495	517.49
52.3639	534.45
52.3784	540.60
52.3928	514.53
52.4073	515.97
52.4217	522.76
52.4361	583.66
52.4506	498.47
52.4650	513.90
52.4795	493.73
52.4939	519.64
52.5083	526.31
52.5228	512.76
52.5372	540.37
52.5517	535.92
52.5661	532.73
52.5805	498.06
52.5950	508.69
52.6094	533.23
52.6239	503.58
52.6383	542.81
52.6527	489.13
52.6672	516.17
52.6816	493.87
52.6961	496.16
52.7105	552.65
52.7250	531.25
52.7394	498.88
52.7538	494.82
52.7683	478.72
52.7827	520.17
52.7972	522.05
52.8116	520.68
52.8260	495.24
52.8405	493.80
52.8549	533.22
52.8694	523.34
52.8838	485.48
52.8982	540.12
52.9127	501.84
52.9271	494.31
52.9416	483.00
52.9560	473.46
52.9704	490.50
52.9849	501.06
52.9993	504.34
53.0138	505.55
53.0282	550.33
53.0426	498.96
53.0571	511.31
53.0715	500.60
53.0860	509.38
53.1004	534.70
53.1148	563.52
53.1293	531.32
53.1437	479.76
53.1582	483.58
53.1726	521.82
53.1870	501.66
53.2015	480.57
53.2159	495.50
53.2304	497.69
53.2448	493.88
53.2592	484.53
53.2737	500.56
53.2881	464.74
53.3026	504.72
53.3170	522.09
53.3314	552.53
53.3459	496.63
53.3603	503.31
53.3748	490.56
53.3892	485.18
53.4036	508.37
53.4181	514.70
53.4325	514.07
53.4470	501.74
53.4614	499.29
53.4758	499.82
53.4903	529.87
53.5047	505.56
53.5192	497.41
53.5336	498.65
53.5480	511.80
53.5625	513.97
53.5769	536.00
53.5914	516.69
53.6058	525.05
53.6202	501.94
53.6347	541.94
53.6491	530.02
53.6636	513.57
53.6780	516.09
53.6924	509.86
53.7069	507.23
53.7213	500.35
53.7358	511.88
53.7502	535.02
53.7646	527.79
53.7791	524.10
53.7935	517.95
53.8080	536.28
53.8224	534.06
53.8368	500.44
53.8513	495.30
53.8657	496.79
53.8802	489.80
53.8946	506.54
53.9090	550.92
53.9235	517.90
53.9379	499.09
53.9524	512.58
53.9668	543.32
53.9812	503.61
53.9957	515.19
54.0101	516.94
54.0246	511.45
54.0390	537.37
54.0534	527.23
54.0679	549.12
54.0823	551.46
54.0968	535.49
54.1112	515.63
54.1256	528.58
54.1401	488.67
54.1545	523.09
54.1690	482.20
54.1834	489.20
54.1978	516.36
54.2123	537.52
54.2267	525.79
54.2412	518.67
54.2556	523.21
54.2700	506.04
54.2845	495.20
54.2989	506.56
54.3134	505.77
54.3278	484.77
54.3422	495.20
54.3567	500.81
54.3711	479.85
54.3856	511.16
54.4000	568.32
54.4144	540.68
54.4289	520.58
54.4433	485.77
54.4578	493.54
54.4722	536.97
54.4866	542.05
54.5011	524.12
54.5155	518.52
54.5300	509.34
54.5444	485.87
54.5588	476.14
54.5733	478.39
54.5877	517.59
54.6022	533.87
54.6166	550.36
54.6310	542.92
54.6455	536.74
54.6599	564.20
54.6744	545.34
54.6888	526.38
54.7032	558.68
54.7177	569.45
54.7321	554.85
54.7466	542.20
54.7610	521.64
54.7754	534.97
54.7899	554.82
54.8043	548.78
54.8188	570.31
54.8332	567.53
54.8476	564.09
54.8621	602.42
54.8765	596.73
54.8910	594.56
54.9054	586.09
54.9198	573.28
54.9343	566.71
54.9487	566.62
54.9632	554.21
54.9776	573.34
54.9920	551.03
55.0065	592.56
55.0209	599.69
55.0354	560.16
55.0498	569.29
55.0642	544.32
55.0787	543.30
55.0931	536.11
55.1076	520.76
55.1220	565.98
55.1364	536.14
55.1509	515.87
55.1653	540.19
55.1798	542.18
55.1942	528.85
55.2086	483.03
55.2231	538.75
55.2375	530.54
55.2520	516.73
55.2664	501.13
55.2808	526.00
55.2953	498.06
55.3097	520.07
55.3242	539.72
55.3386	562.83
55.3530	544.77
55.3675	556.65
55.3819	518.72
55.3964	542.19
55.4108	526.67
55.4252	520.40
55.4397	534.03
55.4541	519.70
55.4686	531.28
55.4830	523.17
55.4974	484.86
55.5119	475.05
55.5263	500.78
55.5408	529.40
55.5552	521.82
55.5696	511.82
55.5841	508.74
55.5985	511.92
55.6130	522.92
55.6274	546.29
55.6418	559.92
55.6563	555.87
55.6707	538.28
55.6852	498.79
55.6996	500.57
55.7140	518.32
55.7285	506.20
55.7429	540.60
55.7574	505.31
55.7718	511.45
55.7862	529.53
55.8007	494.93
55.8151	484.87
55.8296	526.21
55.8440	533.86
55.8584	512.70
55.8729	525.09
55.8873	519.89
55.9018	540.99
55.9162	529.00
55.9306	516.14
55.9451	523.33
55.9595	547.62
55.9740	544.41
55.9884	512.45
56.0028	540.29
56.0173	536.92
56.0317	488.53
56.0462	479.23
56.0606	499.73
56.0750	514.57
56.0895	505.41
56.1039	499.38
56.1184	526.47
56.1328	544.62
56.1472	504.11
56.1617	518.01
56.1761	525.34
56.1906	493.95
56.2050	499.48
56.2194	540.22
56.2339	530.69
56.2483	534.62
56.2628	523.29
56.2772	540.25
56.2916	533.36
56.3061	539.93
56.3205	548.75
56.3350	539.76
56.3494	521.66
56.3639	522.08
56.3783	529.32
56.3927	525.94
56.4072	485.44
56.4216	542.21
56.4361	556.28
56.4505	504.58
56.4649	498.19
56.4794	537.42
56.4938	518.31
56.5083	508.02
56.5227	496.95
56.5371	518.73
56.5516	544.73
56.5660	553.42
56.5805	509.39
56.5949	565.03
56.6093	532.85
56.6238	526.27
56.6382	527.06
56.6527	524.19
56.6671	496.06
56.6815	478.89
56.6960	519.15
56.7104	511.99
56.7249	499.75
56.7393	501.52
56.7537	539.63
56.7682	513.16
56.7826	509.00
56.7971	472.85
56.8115	537.25
56.8259	535.86
56.8404	526.53
56.8548	536.73
56.8693	527.50
56.8837	509.33
56.8981	486.38
56.9126	534.43
56.9270	530.44
56.9415	568.24
56.9559	521.70
56.9703	541.94
56.9848	495.55
56.9992	558.03
57.0137	523.15
57.0281	521.68
57.0425	551.66
57.0570	537.05
57.0714	515.82
57.0859	544.68
57.1003	531.09
57.1147	516.66
57.1292	521.05
57.1436	506.26
57.1581	550.76
57.1725	549.17
57.1869	562.40
57.2014	530.20
57.2158	510.75
57.2303	556.81
57.2447	553.56
57.2591	539.81
57.2736	530.68
57.2880	532.09
57.3025	508.01
57.3169	511.87
57.3313	548.57
57.3458	562.45
57.3602	528.02
57.3747	527.63
57.3891	532.13
57.4035	543.56
57.4180	528.97
57.4324	585.67
57.4469	525.51
57.4613	514.51
57.4757	538.04
57.4902	546.99
57.5046	530.02
57.5191	510.00
57.5335	539.57
57.5479	566.52
57.5624	494.67
57.5768	518.39
57.5913	526.94
57.6057	518.57
57.6201	504.46
57.6346	560.68
57.6490	510.55
57.6635	523.25
57.6779	523.69
57.6923	538.05
57.7068	564.71
57.7212	517.92
57.7357	522.71
57.7501	545.98
57.7645	528.83
57.7790	528.42
57.7934	511.88
57.8079	523.72
57.8223	554.93
57.8367	551.73
57.8512	539.24
57.8656	539.63
57.8801	557.71
57.8945	568.15
57.9089	533.62
57.9234	566.62
57.9378	554.52
57.9523	542.47
57.9667	511.56
57.9811	503.01
57.9956	520.71
58.0100	546.35
58.0245	564.01
58.0389	569.98
58.0533	557.74
58.0678	572.40
58.0822	561.35
58.0967	528.00
58.1111	504.89
58.1255	535.48
58.1400	511.66
58.1544	501.00
58.1689	545.23
58.1833	543.63
58.1977	553.04
58.2122	566.84
58.2266	567.85
58.2411	568.35
58.2555	570.18
58.2699	574.98
58.2844	538.08
58.2988	545.20
58.3133	582.99
58.3277	578.48
58.3421	580.00
58.3566	574.59
58.3710	599.55
58.3855	590.95
58.3999	586.38
58.4143	582.84
58.4288	633.91
58.4432	618.34
58.4577	608.37
58.4721	600.93
58.4865	586.65
58.5010	595.93
58.5154	628.27
58.5299	649.26
58.5443	664.67
58.5587	683.68
58.5732	654.68
58.5876	647.18
58.6021	634.88
58.6165	643.50
58.6309	616.33
58.6454	597.55
58.6598	615.55
58.6743	623.28
58.6887	584.96
58.7031	603.91
58.7176	628.93
58.7320	618.81
58.7465	591.07
58.7609	565.73
58.7753	584.94
58.7898	532.63
58.8042	508.31
58.8187	587.59
58.8331	592.53
58.8475	568.87
58.8620	564.29
58.8764	574.85
58.8909	562.47
58.9053	584.32
58.9197	571.70
58.9342	586.20
58.9486	584.45
58.9631	564.31
58.9775	582.44
58.9919	564.22
59.0064	533.62
59.0208	520.17
59.0353	513.02
59.0497	544.81
59.0641	562.55
59.0786	583.75
59.0930	579.89
59.1075	532.86
59.1219	569.31
59.1363	566.24
59.1508	538.12
59.1652	528.66
59.1797	519.96
59.1941	533.40
59.2085	535.00
59.2230	539.34
59.2374	561.92
59.2519	559.80
59.2663	527.79
59.2807	527.08
59.2952	504.68
59.3096	562.41
59.3241	560.73
59.3385	560.26
59.3529	549.24
59.3674	540.03
59.3818	562.40
59.3963	538.66
59.4107	539.40
59.4251	572.71
59.4396	553.16
59.4540	533.42
59.4685	580.45
59.4829	562.03
59.4973	536.59
59.5118	545.80
59.5262	572.52
59.5407	552.44
59.5551	531.61
59.5695	538.18
59.5840	539.33
59.5984	516.14
59.6129	563.02
59.6273	526.14
59.6417	563.67
59.6562	549.60
59.6706	536.58
59.6851	529.67
59.6995	563.41
59.7139	540.56
59.7284	509.49
59.7428	536.17
59.7573	550.47
59.7717	528.04
59.7861	556.75
59.8006	537.52
59.8150	526.14
59.8295	554.80
59.8439	519.15
59.8583	545.16
59.8728	554.05
59.8872	539.57
59.9017	549.43
59.9161	556.32
59.9305	540.23
59.9450	511.34
59.9594	520.04
59.9739	505.18
59.9883	549.34
60.0027	533.95
60.0172	531.06
60.0316	529.37
60.0461	521.48
60.0605	561.64
60.0750	504.66
60.0894	519.45
60.1038	516.57
60.1183	549.43
60.1327	572.98
60.1472	531.94
60.1616	547.70
60.1760	538.35
60.1905	546.47
60.2049	546.96
60.2194	551.89
60.2338	538.58
60.2482	566.82
60.2627	531.24
60.2771	512.22
60.2916	511.19
60.3060	544.95
60.3204	563.77
60.3349	551.31
60.3493	581.53
60.3638	530.17
60.3782	531.48
60.3926	563.76
60.4071	547.38
60.4215	557.96
60.4360	547.02
60.4504	550.34
60.4648	537.45
60.4793	551.41
60.4937	539.26
60.5082	513.32
60.5226	546.17
60.5370	536.88
60.5515	532.90
60.5659	557.10
60.5804	513.10
60.5948	559.34
60.6092	539.18
60.6237	560.81
60.6381	566.53
60.6526	544.62
60.6670	514.25
60.6814	495.91
60.6959	518.14
60.7103	545.11
60.7248	576.88
60.7392	541.43
60.7536	529.32
60.7681	551.23
60.7825	554.73
60.7970	515.81
60.8114	548.71
60.8258	575.57
60.8403	538.30
60.8547	531.58
60.8692	566.15
60.8836	521.23
60.8980	555.66
60.9125	521.18
60.9269	544.49
60.9414	576.87
60.9558	534.92
60.9702	544.18
60.9847	548.09
60.9991	552.86
61.0136	582.35
61.0280	545.48
61.0424	528.05
61.0569	529.61
61.0713	553.53
61.0858	516.34
61.1002	558.52
61.1146	565.18
61.1291	555.08
61.1435	507.39
61.1580	526.22
61.1724	525.39
61.1868	561.40
61.2013	523.20
61.2157	531.14
61.2302	535.78
61.2446	551.65
61.2590	529.88
61.2735	540.13
61.2879	517.48
61.3024	551.20
61.3168	556.88
61.3312	552.80
61.3457	556.24
61.3601	524.29
61.3746	576.36
61.3890	563.42
61.4034	543.08
61.4179	563.16
61.4323	542.77
61.4468	501.34
61.4612	537.98
61.4756	549.43
61.4901	566.18
61.5045	540.31
61.5190	528.56
61.5334	501.81
61.5478	529.81
61.5623	550.33
61.5767	546.06
61.5912	545.33
61.6056	538.75
61.6200	544.49
61.6345	540.96
61.6489	587.25
61.6634	523.16
61.6778	519.82
61.6922	530.97
61.7067	608.76
61.7211	583.58
61.7356	550.39
61.7500	540.43
61.7644	527.09
61.7789	565.85
61.7933	526.76
61.8078	544.86
61.8222	528.84
61.8366	544.44
61.8511	537.07
61.8655	605.18
61.8800	587.93
61.8944	578.76
61.9088	558.18
61.9233	548.43
61.9377	540.70
61.9522	535.59
61.9666	528.09
61.9810	539.82
61.9955	573.55
62.0099	547.21
62.0244	572.84
62.0388	523.73
62.0532	549.97
62.0677	593.48
62.0821	557.88
62.0966	564.35
62.1110	536.28
62.1254	540.40
62.1399	552.09
62.1543	550.47
62.1688	559.57
62.1832	516.09
62.1976	540.64
62.2121	575.16
62.2265	558.94
62.2410	563.13
62.2554	539.83
62.2698	526.04
62.2843	570.97
62.2987	581.15
62.3132	588.97
62.3276	552.80
62.3420	552.97
62.3565	561.85
62.3709	561.58
62.3854	584.28
62.3998	561.98
62.4142	539.11
62.4287	547.63
62.4431	558.87
62.4576	555.26
62.4720	571.09
62.4864	585.94
62.5009	560.73
62.5153	565.12
62.5298	549.09
62.5442	558.34
62.5586	538.35
62.5731	537.76
62.5875	538.73
62.6020	520.66
62.6164	537.26
62.6308	546.86
62.6453	543.59
62.6597	573.64
62.6742	542.80
62.6886	544.23
62.7030	590.36
62.7175	586.63
62.7319	552.48
62.7464	561.25
62.7608	568.83
62.7752	566.42
62.7897	571.05
62.8041	553.47
62.8186	566.83
62.8330	556.08
62.8474	519.60
62.8619	555.41
62.8763	579.98
62.8908	571.22
62.9052	583.78
62.9196	546.90
62.9341	567.00
62.9485	577.98
62.9630	562.26
62.9774	566.92
62.9918	540.83
63.0063	556.03
63.0207	585.86
63.0352	571.98
63.0496	534.61
63.0640	566.40
63.0785	546.26
63.0929	550.07
63.1074	546.64
63.1218	557.75
63.1362	564.45
63.1507	542.96
63.1651	561.35
63.1796	565.30
63.1940	582.09
63.2084	597.81
63.2229	552.72
63.2373	554.80
63.2518	584.69
63.2662	547.94
63.2806	576.53
63.2951	552.84
63.3095	547.26
63.3240	591.07
63.3384	634.70
63.3528	588.19
63.3673	575.23
63.3817	575.34
63.3962	539.59
63.4106	582.12
63.4250	626.99
63.4395	582.45
63.4539	553.12
63.4684	568.05
63.4828	590.41
63.4972	582.15
63.5117	592.18
63.5261	598.67
63.5406	595.17
63.5550	603.41
63.5694	600.48
63.5839	573.66
63.5983	587.72
63.6128	563.29
63.6272	605.18
63.6416	643.99
63.6561	595.62
63.6705	567.81
63.6850	545.74
63.6994	600.80
63.7138	628.80
63.7283	555.72
63.7427	571.28
63.7572	605.54
63.7716	564.17
63.7861	584.24
63.8005	598.69
63.8149	597.66
63.8294	554.63
63.8438	559.48
63.8583	577.07
63.8727	600.94
63.8871	602.98
63.9016	650.79
63.9160	571.47
63.9305	588.41
63.9449	637.98
63.9593	602.69
63.9738	640.14
63.9882	585.72
64.0027	621.21
64.0171	647.93
64.0315	621.57
64.0460	609.57
64.0604	685.10
64.0749	652.06
64.0893	709.93
64.1037	674.65
64.1182	667.18
64.1326	675.20
64.1471	683.19
64.1615	687.78
64.1759	689.46
64.1904	730.17
64.2048	736.70
64.2193	764.87
64.2337	746.24
64.2481	750.53
64.2626	726.29
64.2770	744.46
64.2915	759.82
64.3059	732.96
64.3203	769.45
64.3348	782.03
64.3492	742.54
64.3637	765.69
64.3781	743.53
64.3925	746.23
64.4070	707.27
64.4214	737.94
64.4359	746.80
64.4503	730.77
64.4647	744.56
64.4792	771.60
64.4936	769.61
64.5081	771.30
64.5225	734.92
64.5369	751.76
64.5514	688.83
64.5658	704.28
64.5803	720.42
64.5947	709.98
64.6091	671.73
64.6236	667.19
64.6380	704.54
64.6525	684.97
64.6669	688.35
64.6813	675.31
64.6958	686.36
64.7102	750.68
64.7247	739.45
64.7391	697.55
64.7535	770.42
64.7680	726.40
64.7824	726.19
64.7969	759.82
64.8113	773.34
64.8257	775.39
64.8402	856.46
64.8546	873.80
64.8691	883.81
64.8835	862.51
64.8979	845.08
64.9124	883.50
64.9268	917.60
64.9413	975.51
64.9557	990.68
64.9701	993.27
64.9846	1060.09
64.9990	1241.81
65.0135	1312.05
65.0279	1464.59
65.0423	1776.81
65.0568	2092.82
65.0712	2726.22
65.0857	3697.41
65.1001	4733.57
65.1145	6385.88
65.1290	8569.53
65.1434	9980.99
65.1579	11498.00
65.1723	11919.54
65.1867	11221.05
65.2012	9715.98
65.2156	8161.17
65.2301	6495.39
65.2445	5312.99
65.2589	4421.03
65.2734	4232.53
65.2878	4453.93
65.3023	5061.06
65.3167	5994.87
65.3311	6738.81
65.3456	7211.48
65.3600	7034.32
65.3745	6417.24
65.3889	5388.66
65.4033	4214.72
65.4178	3329.59
65.4322	2611.79
65.4467	1966.55
65.4611	1613.76
65.4755	1474.47
65.4900	1277.99
65.5044	1148.69
65.5189	1044.74
65.5333	982.00
65.5477	927.91
65.5622	875.26
65.5766	836.44
65.5911	802.77
65.6055	800.85
65.6199	789.07
65.6344	810.85
65.6488	778.81
65.6633	727.01
65.6777	702.23
65.6921	703.14
65.7066	766.64
65.7210	744.97
65.7355	703.98
65.7499	681.92
65.7643	651.78
65.7788	681.55
65.7932	699.77
65.8077	660.70
65.8221	624.14
65.8365	621.36
65.8510	640.30
65.8654	637.67
65.8799	662.05
65.8943	666.78
65.9087	641.49
65.9232	620.27
65.9376	634.08
65.9521	652.95
65.9665	671.29
65.9809	652.48
65.9954	621.80
66.0098	606.46
66.0243	647.96
66.0387	649.14
66.0531	604.57
66.0676	626.40
66.0820	612.86
66.0965	607.60
66.1109	608.41
66.1253	637.86
66.1398	603.60
66.1542	596.87
66.1687	601.37
66.1831	603.20
66.1975	619.26
66.2120	638.68
66.2264	650.69
66.2409	640.93
66.2553	613.83
66.2697	589.01
66.2842	606.60
66.2986	580.68
66.3131	577.00
66.3275	634.67
66.3419	599.97
66.3564	611.74
66.3708	576.40
66.3853	603.77
66.3997	592.77
66.4141	579.10
66.4286	614.78
66.4430	587.89
66.4575	598.26
66.4719	609.84
66.4863	601.63
66.5008	600.79
66.5152	587.50
66.5297	560.75
66.5441	634.02
66.5585	616.58
66.5730	583.25
66.5874	578.50
66.6019	573.93
66.6163	606.39
66.6307	591.28
66.6452	614.14
66.6596	583.32
66.6741	578.72
66.6885	575.33
66.7029	606.30
66.7174	597.61
66.7318	570.05
66.7463	582.19
66.7607	565.42
66.7751	594.63
66.7896	624.11
66.8040	586.94
66.8185	605.90
66.8329	613.54
66.8473	590.57
66.8618	612.20
66.8762	590.52
66.8907	562.73
66.9051	612.31
66.9195	584.59
66.9340	580.62
66.9484	595.66
66.9629	603.45
66.9773	586.86
66.9917	566.25
67.0062	578.26
67.0206	577.13
67.0351	560.70
67.0495	552.98
67.0639	576.14
67.0784	577.95
67.0928	619.49
67.1073	573.94
67.1217	541.72
67.1361	563.51
67.1506	573.92
67.1650	574.86
67.1795	577.33
67.1939	583.27
67.2083	556.17
67.2228	593.52
67.2372	592.18
67.2517	578.66
67.2661	603.32
67.2805	595.61
67.2950	592.87
67.3094	579.32
67.3239	596.25
67.3383	589.54
67.3527	573.07
67.3672	569.99
67.3816	550.68
67.3961	567.86
67.4105	571.63
67.4250	583.91
67.4394	591.46
67.4538	552.06
67.4683	597.47
67.4827	591.41
67.4972	569.87
67.5116	569.33
67.5260	571.26
67.5405	557.17
67.5549	574.04
67.5694	570.24
67.5838	597.58
67.5982	587.06
67.6127	566.71
67.6271	557.71
67.6416	585.06
67.6560	607.57
67.6704	616.51
67.6849	623.26
67.6993	560.22
67.7138	595.56
67.7282	610.26
67.7426	566.25
67.7571	575.81
67.7715	574.99
67.7860	579.38
67.8004	579.02
67.8148	569.49
67.8293	568.57
67.8437	596.66
67.8582	580.12
67.8726	565.68
67.8870	543.77
67.9015	593.34
67.9159	577.38
67.9304	579.93
67.9448	563.55
67.9592	591.12
67.9737	568.78
67.9881	543.17
68.0026	555.38
68.0170	621.36
68.0314	561.28
68.0459	548.50
68.0603	554.39
68.0748	541.93
68.0892	544.01
68.1036	552.13
68.1181	609.13
68.1325	579.00
68.1470	590.96
68.1614	562.32
68.1758	547.47
68.1903	569.33
68.2047	570.31
68.2192	569.74
68.2336	540.72
68.2480	568.02
68.2625	586.68
68.2769	579.45
68.2914	576.96
68.3058	554.15
68.3202	593.94
68.3347	563.50
68.3491	549.59
68.3636	566.40
68.3780	593.31
68.3924	577.85
68.4069	570.84
68.4213	521.82
68.4358	585.95
68.4502	602.55
68.4646	624.72
68.4791	604.04
68.4935	574.15
68.5080	557.62
68.5224	549.02
68.5368	590.28
68.5513	576.86
68.5657	577.80
68.5802	575.82
68.5946	574.04
68.6090	564.38
68.6235	553.89
68.6379	564.59
68.6524	555.10
68.6668	567.89
68.6812	543.69
68.6957	531.06
68.7101	552.97
68.7246	548.21
68.7390	575.75
68.7534	620.16
68.7679	580.99
68.7823	579.39
68.7968	545.37
68.8112	554.16
68.8256	611.80
68.8401	526.49
68.8545	554.12
68.8690	613.34
68.8834	568.92
68.8978	594.17
68.9123	613.91
68.9267	598.52
68.9412	597.04
68.9556	580.30
68.9700	620.03
68.9845	525.67
68.9989	536.96
69.0134	564.57
69.0278	554.56
69.0422	591.12
69.0567	538.03
69.0711	616.95
69.0856	662.30
69.1000	625.01
69.1144	555.77
69.1289	653.00
69.1433	569.75
69.1578	585.20
69.1722	633.12
69.1866	597.86
69.2011	601.95
69.2155	578.96
69.2300	578.16
69.2444	574.05
69.2588	557.55
69.2733	550.62
69.2877	574.13
69.3022	611.43
69.3166	565.33
69.3310	569.09
69.3455	622.99
69.3599	606.36
69.3744	581.99
69.3888	612.06
69.4032	558.35
69.4177	551.82
69.4321	604.34
69.4466	531.88
69.4610	545.64
69.4754	589.73
69.4899	616.60
69.5043	613.30
69.5188	547.66
69.5332	578.92
69.5476	543.04
69.5621	572.97
69.5765	545.64
69.5910	532.83
69.6054	573.43
69.6198	607.64
69.6343	598.29
69.6487	511.48
69.6632	576.29
69.6776	551.72
69.6920	630.34
69.7065	614.60
69.7209	622.25
69.7354	585.99
69.7498	536.33
69.7642	565.63
69.7787	582.98
69.7931	644.26
69.8076	609.28
69.8220	568.29
69.8364	556.93
69.8509	593.53
69.8653	610.50
69.8798	542.76
69.8942	566.60
69.9086	605.04
69.9231	583.15
69.9375	585.18
69.9520	622.60
69.9664	579.31
69.9808	577.43
69.9953	572.34
70.0097	590.66
70.0242	577.23
70.0386	599.42
70.0530	633.40
70.0675	609.46
70.0819	560.78
70.0964	592.53
70.1108	608.68
70.1252	587.66
70.1397	578.22
70.1541	572.34
70.1686	577.55
70.1830	552.65
70.1974	558.63
70.2119	605.18
70.2263	588.25
70.2408	608.73
70.2552	573.93
70.2696	614.94
70.2841	616.54
70.2985	610.35
70.3130	555.00
70.3274	525.78
70.3418	575.64
70.3563	586.53
70.3707	565.32
70.3852	595.16
70.3996	606.29
70.4140	544.09
70.4285	611.29
70.4429	584.70
70.4574	596.86
70.4718	594.85
70.4862	566.61
70.5007	603.15
70.5151	573.52
70.5296	564.20
70.5440	554.56
70.5584	605.23
70.5729	526.34
70.5873	560.19
70.6018	554.94
70.6162	535.18
70.6306	560.46
70.6451	577.52
70.6595	566.08
70.6740	567.38
70.6884	569.73
70.7028	602.38
70.7173	641.92
70.7317	553.86
70.7462	562.34
70.7606	585.94
70.7750	614.77
70.7895	582.34
70.8039	551.21
70.8184	618.52
70.8328	571.38
70.8472	591.32
70.8617	595.70
70.8761	568.65
70.8906	609.17
70.9050	634.61
70.9194	575.22
70.9339	654.79
70.9483	574.91
70.9628	553.37
70.9772	586.09
70.9916	621.21
71.0061	599.59
71.0205	615.30
71.0350	582.07
71.0494	573.26
71.0638	612.84
71.0783	591.18
71.0927	563.64
71.1072	591.87
71.1216	587.36
71.1361	585.27
71.1505	568.89
71.1649	588.56
71.1794	605.20
71.1938	608.75
71.2083	617.78
71.2227	548.47
71.2371	546.90
71.2516	559.76
71.2660	599.91
71.2805	565.33
71.2949	529.35
71.3093	563.18
71.3238	588.47
71.3382	600.20
71.3527	529.49
71.3671	519.61
71.3815	562.18
71.3960	606.10
71.4104	579.15
71.4249	596.27
71.4393	587.63
71.4537	558.05
71.4682	584.42
71.4826	572.11
71.4971	581.74
71.5115	586.74
71.5259	602.17
71.5404	622.58
71.5548	617.19
71.5693	591.84
71.5837	547.26
71.5981	591.77
71.6126	578.19
71.6270	533.23
71.6415	550.33
71.6559	631.83
71.6703	609.68
71.6848	586.82
71.6992	582.77
71.7137	594.12
71.7281	569.99
71.7425	569.86
71.7570	577.43
71.7714	580.39
71.7859	557.07
71.8003	592.25
71.8147	592.51
71.8292	574.34
71.8436	542.25
71.8581	510.23
71.8725	539.24
71.8869	559.12
71.9014	565.50
71.9158	558.36
71.9303	631.30
71.9447	589.93
71.9591	508.70
71.9736	529.88
71.9880	543.12
72.0025	512.60
72.0169	513.38
72.0313	617.81
72.0458	616.20
72.0602	563.12
72.0747	524.74
72.0891	596.82
72.1035	615.81
72.1180	545.07
72.1324	536.05
72.1469	583.85
72.1613	584.54
72.1757	562.66
72.1902	538.08
72.2046	513.79
72.2191	564.56
72.2335	552.63
72.2479	517.50
72.2624	627.03
72.2768	676.97
72.2913	590.57
72.3057	554.09
72.3201	533.47
72.3346	520.96
72.3490	553.09
72.3635	584.93
72.3779	581.46
72.3923	579.96
72.4068	545.58
72.4212	604.66
72.4357	608.56
72.4501	510.03
72.4645	540.97
72.4790	600.58
72.4934	524.40
72.5079	533.99
72.5223	534.42
72.5367	490.97
72.5512	528.80
72.5656	617.88
72.5801	565.89
72.5945	490.45
72.6089	551.19
72.6234	554.07
72.6378	535.01
72.6523	514.73
72.6667	593.17
72.6811	703.81
72.6956	615.87
72.7100	650.76
72.7245	666.56
72.7389	642.84
72.7533	530.35
72.7678	594.37
72.7822	616.72
72.7967	527.82
72.8111	559.73
72.8255	611.73
72.8400	612.16
72.8544	613.83
72.8689	567.81
72.8833	566.44