2022.09.19 19:37:16
Îáðàçåö: ß÷åéêà LCoV 16-09-2022
Lambda1 = 1.54060
Lambda2 = 1.54439
Lambdam = 1.54186
R = 0.497
2Theta	I

line¹ 0 ;repeat¹ 0
22.1120	545.67
22.1264	519.45
22.1409	523.80
22.1553	509.40
22.1697	588.92
22.1842	581.96
22.1986	605.03
22.2131	555.15
22.2275	611.51
22.2419	561.67
22.2564	548.27
22.2708	601.61
22.2853	644.00
22.2997	514.51
22.3141	523.00
22.3286	557.04
22.3430	547.94
22.3575	610.74
22.3719	598.10
22.3863	585.80
22.4008	556.70
22.4152	572.41
22.4297	580.84
22.4441	593.11
22.4585	614.59
22.4730	586.97
22.4874	582.43
22.5019	538.62
22.5163	582.37
22.5307	562.19
22.5452	540.28
22.5596	610.82
22.5741	484.70
22.5885	579.96
22.6029	592.94
22.6174	547.85
22.6318	576.24
22.6463	632.05
22.6607	586.07
22.6751	567.10
22.6896	632.07
22.7040	668.96
22.7185	589.36
22.7329	580.84
22.7473	564.52
22.7618	505.74
22.7762	495.21
22.7907	575.38
22.8051	602.25
22.8195	576.45
22.8340	551.90
22.8484	524.87
22.8629	571.02
22.8773	610.81
22.8917	547.90
22.9062	634.03
22.9206	556.44
22.9351	537.58
22.9495	606.64
22.9639	617.00
22.9784	559.45
22.9928	533.31
23.0073	575.78
23.0217	630.80
23.0361	512.02
23.0506	513.97
23.0650	559.92
23.0795	499.48
23.0939	481.95
23.1083	526.75
23.1228	506.05
23.1372	589.82
23.1517	511.45
23.1661	531.53
23.1806	559.96
23.1950	533.70
23.2094	551.19
23.2239	550.48
23.2383	553.78
23.2528	580.40
23.2672	558.95
23.2816	546.63
23.2961	565.10
23.3105	560.29
23.3250	661.26
23.3394	531.10
23.3538	566.89
23.3683	529.88
23.3827	545.92
23.3972	547.83
23.4116	525.61
23.4260	524.37
23.4405	562.94
23.4549	490.86
23.4694	498.99
23.4838	542.43
23.4982	566.41
23.5127	570.84
23.5271	514.39
23.5416	534.16
23.5560	494.08
23.5704	575.97
23.5849	624.01
23.5993	608.90
23.6138	565.33
23.6282	557.34
23.6426	565.96
23.6571	563.30
23.6715	496.44
23.6860	527.51
23.7004	597.80
23.7148	587.97
23.7293	644.60
23.7437	545.73
23.7582	601.40
23.7726	597.81
23.7870	619.24
23.8015	521.75
23.8159	623.38
23.8304	574.95
23.8448	595.99
23.8592	562.47
23.8737	588.09
23.8881	555.41
23.9026	597.84
23.9170	571.13
23.9314	579.30
23.9459	497.01
23.9603	520.61
23.9748	569.07
23.9892	549.59
24.0036	539.37
24.0181	578.39
24.0325	620.70
24.0470	617.65
24.0614	591.96
24.0758	534.28
24.0903	602.54
24.1047	535.09
24.1192	567.64
24.1336	548.84
24.1480	582.60
24.1625	634.63
24.1769	581.06
24.1914	571.58
24.2058	565.94
24.2202	561.24
24.2347	596.09
24.2491	625.47
24.2636	546.44
24.2780	625.94
24.2924	561.55
24.3069	502.96
24.3213	535.07
24.3358	545.54
24.3502	568.70
24.3646	549.61
24.3791	519.12
24.3935	533.28
24.4080	600.98
24.4224	588.08
24.4368	542.65
24.4513	504.33
24.4657	541.68
24.4802	513.55
24.4946	541.35
24.5090	566.01
24.5235	565.91
24.5379	578.27
24.5524	554.68
24.5668	556.72
24.5812	592.49
24.5957	645.11
24.6101	599.08
24.6246	540.43
24.6390	594.64
24.6534	575.28
24.6679	568.34
24.6823	523.01
24.6968	529.60
24.7112	540.87
24.7256	542.95
24.7401	509.53
24.7545	576.34
24.7690	548.80
24.7834	567.31
24.7978	563.68
24.8123	558.25
24.8267	568.82
24.8412	574.74
24.8556	506.28
24.8700	535.99
24.8845	549.95
24.8989	566.71
24.9134	593.18
24.9278	563.50
24.9422	544.20
24.9567	527.73
24.9711	521.78
24.9856	509.66
25.0000	586.24
25.0144	542.72
25.0289	545.69
25.0433	522.40
25.0578	580.86
25.0722	514.39
25.0866	565.08
25.1011	518.42
25.1155	525.67
25.1300	542.26
25.1444	534.86
25.1588	535.54
25.1733	540.07
25.1877	547.03
25.2022	509.40
25.2166	521.27
25.2310	544.67
25.2455	559.04
25.2599	546.90
25.2744	510.91
25.2888	561.79
25.3032	551.26
25.3177	553.02
25.3321	550.40
25.3466	533.16
25.3610	549.92
25.3754	577.90
25.3899	545.80
25.4043	511.26
25.4188	560.95
25.4332	524.50
25.4476	500.86
25.4621	562.95
25.4765	531.58
25.4910	599.57
25.5054	546.99
25.5198	515.40
25.5343	564.76
25.5487	551.69
25.5632	586.96
25.5776	578.37
25.5920	548.92
25.6065	577.74
25.6209	511.74
25.6354	503.74
25.6498	542.58
25.6642	523.11
25.6787	532.48
25.6931	543.68
25.7076	515.35
25.7220	533.04
25.7364	551.70
25.7509	534.40
25.7653	535.62
25.7798	516.21
25.7942	529.95
25.8086	527.53
25.8231	562.14
25.8375	561.06
25.8520	545.82
25.8664	573.21
25.8808	509.75
25.8953	566.18
25.9097	579.85
25.9242	547.83
25.9386	534.16
25.9530	531.38
25.9675	501.11
25.9819	503.69
25.9964	579.10
26.0108	531.94
26.0252	554.58
26.0397	579.61
26.0541	548.04
26.0686	558.78
26.0830	521.01
26.0974	506.53
26.1119	543.66
26.1263	552.16
26.1408	527.47
26.1552	527.96
26.1696	543.44
26.1841	557.36
26.1985	557.41
26.2130	532.07
26.2274	512.94
26.2418	527.78
26.2563	511.10
26.2707	504.41
26.2852	524.50
26.2996	504.67
26.3140	512.81
26.3285	543.91
26.3429	547.44
26.3574	548.61
26.3718	567.42
26.3862	551.17
26.4007	513.82
26.4151	531.73
26.4296	558.98
26.4440	537.35
26.4584	529.27
26.4729	548.30
26.4873	543.33
26.5018	518.91
26.5162	497.84
26.5306	511.53
26.5451	534.48
26.5595	545.06
26.5740	543.16
26.5884	523.99
26.6028	561.10
26.6173	545.15
26.6317	489.30
26.6462	517.33
26.6606	517.21
26.6750	511.68
26.6895	504.19
26.7039	512.30
26.7184	535.25
26.7328	500.99
26.7472	520.75
26.7617	506.48
26.7761	526.57
26.7906	537.85
26.8050	527.14
26.8194	515.40
26.8339	497.15
26.8483	541.97
26.8628	551.38
26.8772	558.64
26.8917	544.81
26.9061	543.52
26.9205	509.63
26.9350	514.54
26.9494	516.66
26.9639	520.09
26.9783	526.47
26.9927	524.77
27.0072	504.73
27.0216	535.18
27.0361	533.82
27.0505	512.63
27.0649	536.75
27.0794	507.12
27.0938	512.14
27.1083	508.51
27.1227	508.67
27.1371	504.35
27.1516	478.37
27.1660	520.95
27.1805	518.90
27.1949	490.49
27.2093	521.97
27.2238	502.29
27.2382	540.99
27.2527	524.68
27.2671	510.60
27.2815	527.26
27.2960	522.61
27.3104	508.52
27.3249	503.28
27.3393	522.10
27.3537	491.46
27.3682	499.11
27.3826	544.21
27.3971	522.54
27.4115	535.91
27.4259	522.04
27.4404	512.32
27.4548	520.63
27.4693	546.75
27.4837	528.88
27.4981	544.08
27.5126	526.10
27.5270	504.18
27.5415	504.65
27.5559	524.35
27.5703	480.65
27.5848	495.89
27.5992	523.90
27.6137	478.29
27.6281	553.09
27.6425	529.43
27.6570	567.61
27.6714	523.27
27.6859	529.60
27.7003	529.06
27.7147	532.19
27.7292	502.41
27.7436	531.48
27.7581	512.11
27.7725	535.75
27.7869	530.99
27.8014	505.49
27.8158	547.36
27.8303	552.12
27.8447	517.35
27.8591	501.67
27.8736	525.93
27.8880	529.01
27.9025	543.55
27.9169	517.99
27.9313	514.75
27.9458	539.57
27.9602	574.50
27.9747	511.45
27.9891	507.33
28.0035	496.06
28.0180	514.84
28.0324	517.09
28.0469	520.58
28.0613	542.23
28.0757	512.97
28.0902	498.33
28.1046	490.43
28.1191	493.65
28.1335	509.04
28.1479	489.57
28.1624	507.79
28.1768	493.81
28.1913	507.24
28.2057	490.80
28.2201	513.03
28.2346	513.27
28.2490	510.57
28.2635	508.88
28.2779	490.53
28.2923	491.18
28.3068	497.11
28.3212	527.95
28.3357	530.51
28.3501	485.90
28.3645	539.62
28.3790	513.02
28.3934	535.93
28.4079	502.06
28.4223	531.42
28.4367	539.90
28.4512	515.18
28.4656	495.85
28.4801	507.69
28.4945	527.16
28.5089	511.50
28.5234	534.03
28.5378	534.48
28.5523	533.70
28.5667	528.23
28.5811	522.95
28.5956	542.66
28.6100	512.14
28.6245	492.06
28.6389	527.80
28.6533	498.38
28.6678	515.07
28.6822	504.78
28.6967	525.05
28.7111	527.70
28.7255	512.41
28.7400	516.43
28.7544	532.77
28.7689	547.69
28.7833	530.94
28.7977	500.83
28.8122	513.05
28.8266	527.04
28.8411	547.85
28.8555	523.27
28.8699	517.55
28.8844	507.50
28.8988	534.70
28.9133	533.59
28.9277	466.85
28.9421	520.96
28.9566	530.13
28.9710	520.24
28.9855	520.28
28.9999	504.12
29.0143	525.88
29.0288	540.18
29.0432	496.80
29.0577	485.08
29.0721	502.85
29.0865	477.94
29.1010	506.01
29.1154	539.05
29.1299	485.71
29.1443	456.76
29.1587	518.30
29.1732	529.07
29.1876	503.81
29.2021	484.23
29.2165	509.06
29.2309	527.46
29.2454	550.74
29.2598	513.83
29.2743	474.99
29.2887	504.37
29.3031	520.37
29.3176	529.25
29.3320	511.13
29.3465	514.36
29.3609	519.87
29.3753	491.96
29.3898	505.34
29.4042	489.84
29.4187	499.73
29.4331	503.66
29.4475	554.73
29.4620	501.85
29.4764	498.60
29.4909	513.04
29.5053	503.93
29.5197	534.90
29.5342	520.63
29.5486	481.79
29.5631	485.03
29.5775	482.40
29.5919	513.36
29.6064	553.59
29.6208	541.16
29.6353	496.50
29.6497	518.88
29.6641	522.77
29.6786	510.80
29.6930	492.86
29.7075	512.43
29.7219	521.08
29.7363	521.84
29.7508	499.92
29.7652	488.69
29.7797	492.81
29.7941	489.57
29.8085	498.15
29.8230	524.68
29.8374	505.21
29.8519	505.97
29.8663	528.88
29.8807	498.16
29.8952	487.15
29.9096	470.44
29.9241	516.16
29.9385	510.44
29.9529	519.32
29.9674	532.24
29.9818	474.54
29.9963	495.92
30.0107	498.95
30.0251	522.45
30.0396	488.48
30.0540	486.86
30.0685	507.16
30.0829	506.32
30.0973	542.18
30.1118	514.42
30.1262	511.34
30.1407	492.47
30.1551	474.81
30.1695	494.66
30.1840	472.58
30.1984	448.89
30.2129	487.27
30.2273	514.01
30.2417	502.36
30.2562	506.91
30.2706	480.71
30.2851	496.35
30.2995	490.26
30.3139	511.59
30.3284	546.34
30.3428	523.61
30.3573	521.10
30.3717	514.98
30.3861	521.68
30.4006	526.92
30.4150	501.17
30.4295	508.58
30.4439	507.05
30.4583	533.39
30.4728	518.50
30.4872	495.03
30.5017	490.78
30.5161	504.97
30.5305	516.14
30.5450	496.05
30.5594	515.75
30.5739	525.19
30.5883	514.79
30.6028	505.69
30.6172	499.92
30.6316	500.92
30.6461	549.46
30.6605	526.71
30.6750	520.19
30.6894	538.20
30.7038	544.38
30.7183	511.66
30.7327	537.09
30.7472	546.90
30.7616	560.39
30.7760	597.69
30.7905	618.43
30.8049	608.32
30.8194	645.33
30.8338	653.33
30.8482	608.29
30.8627	643.91
30.8771	688.94
30.8916	676.30
30.9060	725.16
30.9204	710.89
30.9349	700.02
30.9493	668.43
30.9638	658.36
30.9782	618.24
30.9926	619.33
31.0071	589.76
31.0215	605.56
31.0360	595.95
31.0504	592.56
31.0648	565.69
31.0793	547.63
31.0937	580.35
31.1082	561.61
31.1226	530.53
31.1370	516.25
31.1515	498.37
31.1659	522.62
31.1804	558.16
31.1948	533.93
31.2092	546.65
31.2237	551.42
31.2381	558.51
31.2526	523.26
31.2670	558.71
31.2814	562.43
31.2959	536.56
31.3103	545.70
31.3248	524.49
31.3392	543.20
31.3536	584.32
31.3681	553.73
31.3825	545.35
31.3970	499.27
31.4114	486.62
31.4258	501.78
31.4403	508.76
31.4547	501.80
31.4692	504.42
31.4836	496.80
31.4980	517.60
31.5125	531.76
31.5269	512.06
31.5414	525.78
31.5558	544.04
31.5702	517.31
31.5847	514.56
31.5991	498.99
31.6136	494.33
31.6280	515.97
31.6424	491.12
31.6569	515.34
31.6713	496.42
31.6858	493.04
31.7002	510.13
31.7146	512.90
31.7291	510.59
31.7435	510.13
31.7580	520.30
31.7724	497.88
31.7868	541.21
31.8013	500.05
31.8157	501.60
31.8302	486.48
31.8446	503.46
31.8590	507.80
31.8735	534.70
31.8879	537.92
31.9024	514.91
31.9168	485.97
31.9312	499.92
31.9457	510.66
31.9601	500.65
31.9746	497.67
31.9890	518.18
32.0034	513.35
32.0179	488.48
32.0323	485.34
32.0468	505.93
32.0612	504.21
32.0756	498.55
32.0901	525.01
32.1045	517.64
32.1190	532.86
32.1334	514.99
32.1478	508.40
32.1623	498.29
32.1767	509.30
32.1912	490.43
32.2056	494.53
32.2200	514.68
32.2345	505.10
32.2489	534.75
32.2634	526.71
32.2778	515.98
32.2922	499.97
32.3067	497.36
32.3211	514.32
32.3356	510.49
32.3500	493.13
32.3644	498.45
32.3789	512.56
32.3933	505.15
32.4078	525.72
32.4222	535.29
32.4366	536.09
32.4511	508.77
32.4655	518.05
32.4800	510.65
32.4944	507.19
32.5088	510.86
32.5233	485.52
32.5377	526.78
32.5522	475.61
32.5666	492.14
32.5810	483.63
32.5955	492.83
32.6099	482.99
32.6244	496.51
32.6388	516.43
32.6532	520.29
32.6677	486.06
32.6821	502.86
32.6966	522.83
32.7110	543.83
32.7254	518.24
32.7399	514.58
32.7543	489.99
32.7688	495.63
32.7832	532.16
32.7976	477.88
32.8121	498.15
32.8265	520.26
32.8410	490.75
32.8554	528.25
32.8698	486.68
32.8843	512.23
32.8987	486.79
32.9132	521.59
32.9276	526.60
32.9420	547.22
32.9565	496.81
32.9709	524.92
32.9854	461.08
32.9998	508.51
33.0142	478.80
33.0287	489.48
33.0431	511.06
33.0576	526.65
33.0720	521.38
33.0864	522.55
33.1009	505.12
33.1153	497.44
33.1298	565.02
33.1442	520.46
33.1586	502.37
33.1731	509.22
33.1875	504.59
33.2020	500.77
33.2164	514.02
33.2308	498.33
33.2453	505.20
33.2597	531.45
33.2742	512.47
33.2886	507.73
33.3030	491.09
33.3175	530.84
33.3319	521.82
33.3464	493.76
33.3608	501.78
33.3752	510.11
33.3897	491.51
33.4041	511.65
33.4186	543.27
33.4330	516.89
33.4474	451.65
33.4619	522.51
33.4763	505.27
33.4908	494.82
33.5052	522.94
33.5196	495.00
33.5341	517.97
33.5485	521.43
33.5630	488.29
33.5774	516.74
33.5918	517.11
33.6063	507.06
33.6207	544.80
33.6352	519.45
33.6496	477.10
33.6640	484.24
33.6785	493.40
33.6929	487.02
33.7074	509.37
33.7218	512.83
33.7362	518.55
33.7507	522.89
33.7651	517.66
33.7796	542.07
33.7940	482.28
33.8084	526.59
33.8229	520.12
33.8373	532.40
33.8518	490.16
33.8662	535.70
33.8806	547.94
33.8951	563.72
33.9095	513.40
33.9240	534.57
33.9384	521.71
33.9528	518.97
33.9673	502.91
33.9817	502.48
33.9962	477.64
34.0106	482.64
34.0250	497.92
34.0395	555.73
34.0539	510.94
34.0684	540.60
34.0828	538.16
34.0972	506.19
34.1117	511.47
34.1261	535.49
34.1406	507.53
34.1550	485.68
34.1694	504.24
34.1839	515.41
34.1983	478.43
34.2128	528.61
34.2272	486.91
34.2417	481.25
34.2561	473.62
34.2705	521.90
34.2850	513.09
34.2994	483.21
34.3139	464.74
34.3283	502.89
34.3427	556.69
34.3572	495.26
34.3716	495.25
34.3861	504.58
34.4005	486.34
34.4149	485.23
34.4294	517.26
34.4438	476.67
34.4583	492.82
34.4727	520.41
34.4871	521.01
34.5016	483.50
34.5160	469.29
34.5305	502.39
34.5449	522.16
34.5593	506.14
34.5738	517.69
34.5882	488.65
34.6027	537.31
34.6171	508.86
34.6315	492.76
34.6460	505.59
34.6604	525.48
34.6749	541.25
34.6893	519.22
34.7037	509.05
34.7182	512.49
34.7326	507.59
34.7471	490.09
34.7615	509.80
34.7759	506.14
34.7904	510.57
34.8048	521.53
34.8193	516.03
34.8337	499.95
34.8481	514.93
34.8626	509.87
34.8770	528.38
34.8915	489.62
34.9059	524.74
34.9203	519.65
34.9348	499.86
34.9492	529.76
34.9637	506.38
34.9781	499.78
34.9925	488.72
35.0070	553.55
35.0214	540.98
35.0359	544.98
35.0503	523.33
35.0647	519.65
35.0792	530.46
35.0936	506.32
35.1081	499.10
35.1225	534.91
35.1369	520.34
35.1514	516.96
35.1658	494.64
35.1803	520.46
35.1947	486.64
35.2091	522.94
35.2236	499.17
35.2380	521.92
35.2525	519.94
35.2669	521.86
35.2813	517.98
35.2958	535.36
35.3102	508.35
35.3247	524.11
35.3391	534.80
35.3535	540.78
35.3680	524.61
35.3824	499.12
35.3969	512.89
35.4113	501.07
35.4257	515.11
35.4402	524.00
35.4546	512.03
35.4691	549.67
35.4835	520.45
35.4979	493.12
35.5124	515.60
35.5268	558.91
35.5413	543.15
35.5557	561.99
35.5701	528.76
35.5846	509.22
35.5990	525.18
35.6135	531.51
35.6279	528.81
35.6423	532.10
35.6568	521.46
35.6712	530.24
35.6857	555.73
35.7001	638.99
35.7145	698.41
35.7290	652.71
35.7434	589.46
35.7579	551.07
35.7723	551.42
35.7867	604.22
35.8012	651.39
35.8156	650.94
35.8301	600.00
35.8445	597.07
35.8589	651.61
35.8734	750.30
35.8878	856.67
35.9023	1030.63
35.9167	1140.71
35.9311	1553.41
35.9456	2394.14
35.9600	2357.93
35.9745	1771.39
35.9889	1754.07
36.0033	2166.39
36.0178	2285.76
36.0322	1994.61
36.0467	1864.01
36.0611	1604.40
36.0755	1539.91
36.0900	1525.70
36.1044	1308.12
36.1189	1276.99
36.1333	1195.21
36.1477	983.60
36.1622	1056.77
36.1766	989.26
36.1911	876.94
36.2055	752.10
36.2199	722.64
36.2344	726.65
36.2488	711.27
36.2633	727.44
36.2777	777.78
36.2921	798.04
36.3066	799.21
36.3210	859.27
36.3355	922.29
36.3499	929.20
36.3643	945.08
36.3788	961.27
36.3932	973.23
36.4077	956.72
36.4221	991.93
36.4365	949.91
36.4510	862.90
36.4654	896.62
36.4799	884.19
36.4943	826.70
36.5087	771.21
36.5232	753.06
36.5376	730.44
36.5521	679.76
36.5665	684.22
36.5809	636.75
36.5954	617.41
36.6098	613.05
36.6243	625.75
36.6387	574.73
36.6531	542.91
36.6676	565.24
36.6820	587.23
36.6965	559.24
36.7109	577.68
36.7253	551.85
36.7398	531.30
36.7542	574.48
36.7687	574.65
36.7831	541.01
36.7975	543.62
36.8120	605.13
36.8264	585.80
36.8409	584.76
36.8553	615.79
36.8697	612.25
36.8842	608.33
36.8986	581.04
36.9131	598.96
36.9275	594.18
36.9419	533.82
36.9564	550.42
36.9708	550.34
36.9853	546.33
36.9997	558.67
37.0141	569.48
37.0286	548.08
37.0430	538.52
37.0575	534.00
37.0719	543.16
37.0863	548.65
37.1008	513.13
37.1152	525.81
37.1297	531.13
37.1441	527.95
37.1585	528.75
37.1730	514.55
37.1874	507.65
37.2019	480.18
37.2163	531.26
37.2307	490.95
37.2452	517.14
37.2596	497.32
37.2741	467.72
37.2885	499.55
37.3029	513.86
37.3174	526.59
37.3318	519.82
37.3463	493.50
37.3607	480.61
37.3751	506.32
37.3896	512.60
37.4040	491.46
37.4185	503.89
37.4329	551.10
37.4473	490.21
37.4618	528.68
37.4762	513.64
37.4907	495.70
37.5051	482.22
37.5195	479.58
37.5340	522.08
37.5484	497.41
37.5629	460.95
37.5773	488.36
37.5917	516.40
37.6062	506.82
37.6206	521.13
37.6351	539.34
37.6495	500.17
37.6639	509.78
37.6784	547.03
37.6928	489.38
37.7073	489.63
37.7217	510.81
37.7361	509.16
37.7506	504.65
37.7650	481.27
37.7795	485.95
37.7939	473.90
37.8083	496.45
37.8228	499.33
37.8372	548.24
37.8517	546.44
37.8661	514.87
37.8805	510.53
37.8950	502.83
37.9094	513.89
37.9239	510.98
37.9383	504.57
37.9528	516.62
37.9672	494.34
37.9816	514.43
37.9961	500.67
38.0105	489.79
38.0250	544.27
38.0394	526.38
38.0538	480.08
38.0683	530.10
38.0827	502.51
38.0972	480.42
38.1116	546.08
38.1260	555.62
38.1405	516.10
38.1549	502.55
38.1694	526.48
38.1838	517.13
38.1982	497.68
38.2127	475.33
38.2271	475.14
38.2416	504.98
38.2560	523.12
38.2704	496.83
38.2849	535.46
38.2993	510.88
38.3138	512.64
38.3282	538.49
38.3426	512.02
38.3571	553.03
38.3715	523.05
38.3860	517.17
38.4004	533.99
38.4148	556.56
38.4293	595.44
38.4437	608.10
38.4582	616.31
38.4726	655.49
38.4870	730.91
38.5015	763.10
38.5159	794.30
38.5304	837.89
38.5448	801.32
38.5592	799.07
38.5737	736.47
38.5881	764.22
38.6026	729.03
38.6170	703.34
38.6314	680.77
38.6459	660.47
38.6603	633.18
38.6748	598.44
38.6892	571.00
38.7036	589.21
38.7181	538.47
38.7325	547.21
38.7470	500.77
38.7614	519.71
38.7758	525.24
38.7903	515.80
38.8047	497.33
38.8192	520.47
38.8336	513.72
38.8480	534.08
38.8625	541.32
38.8769	534.01
38.8914	515.90
38.9058	499.22
38.9202	518.65
38.9347	511.81
38.9491	468.74
38.9636	494.12
38.9780	491.63
38.9924	507.33
39.0069	505.02
39.0213	499.56
39.0358	484.85
39.0502	461.59
39.0646	482.37
39.0791	527.88
39.0935	533.55
39.1080	512.32
39.1224	517.87
39.1368	506.00
39.1513	496.59
39.1657	489.02
39.1802	476.77
39.1946	505.22
39.2090	524.20
39.2235	502.05
39.2379	494.80
39.2524	530.83
39.2668	514.85
39.2812	529.93
39.2957	496.98
39.3101	509.20
39.3246	514.04
39.3390	495.68
39.3534	502.43
39.3679	524.21
39.3823	512.44
39.3968	487.10
39.4112	475.78
39.4256	513.14
39.4401	481.93
39.4545	480.05
39.4690	531.37
39.4834	545.17
39.4978	491.09
39.5123	521.19
39.5267	526.56
39.5412	478.67
39.5556	512.07
39.5700	504.24
39.5845	492.25
39.5989	523.33
39.6134	496.80
39.6278	474.81
39.6422	491.79
39.6567	493.38
39.6711	488.49
39.6856	492.35
39.7000	494.90
39.7144	507.96
39.7289	483.40
39.7433	491.76
39.7578	504.16
39.7722	495.90
39.7866	483.72
39.8011	494.75
39.8155	481.93
39.8300	498.30
39.8444	515.95
39.8588	511.56
39.8733	515.66
39.8877	505.74
39.9022	555.37
39.9166	511.19
39.9310	479.19
39.9455	501.97
39.9599	483.83
39.9744	471.19
39.9888	463.84
40.0032	466.07
40.0177	494.59
40.0321	518.66
40.0466	510.14
40.0610	455.93
40.0754	507.59
40.0899	524.43
40.1043	490.49
40.1188	482.74
40.1332	489.45
40.1476	449.75
40.1621	497.91
40.1765	447.11
40.1910	482.21
40.2054	460.13
40.2198	472.81
40.2343	490.15
40.2487	515.40
40.2632	496.37
40.2776	485.72
40.2920	488.59
40.3065	469.13
40.3209	458.98
40.3354	503.64
40.3498	503.77
40.3642	491.14
40.3787	482.54
40.3931	511.49
40.4076	485.65
40.4220	515.48
40.4364	498.26
40.4509	448.36
40.4653	489.85
40.4798	540.42
40.4942	527.12
40.5086	518.46
40.5231	481.38
40.5375	478.66
40.5520	463.30
40.5664	499.91
40.5808	512.99
40.5953	492.55
40.6097	500.34
40.6242	501.20
40.6386	518.55
40.6530	465.43
40.6675	471.48
40.6819	481.29
40.6964	524.87
40.7108	530.55
40.7252	500.91
40.7397	463.89
40.7541	491.73
40.7686	499.98
40.7830	512.50
40.7974	514.57
40.8119	544.82
40.8263	470.44
40.8408	498.22
40.8552	510.81
40.8696	501.60
40.8841	480.25
40.8985	520.63
40.9130	484.83
40.9274	450.07
40.9418	498.81
40.9563	501.84
40.9707	503.91
40.9852	489.34
40.9996	495.34
41.0140	516.08
41.0285	507.31
41.0429	479.71
41.0574	527.24
41.0718	578.30
41.0862	503.30
41.1007	474.25
41.1151	535.79
41.1296	544.75
41.1440	501.23
41.1584	471.95
41.1729	500.69
41.1873	480.97
41.2018	487.07
41.2162	553.94
41.2306	500.28
41.2451	492.12
41.2595	503.35
41.2740	518.55
41.2884	495.87
41.3028	503.50
41.3173	519.58
41.3317	526.67
41.3462	519.15
41.3606	485.45
41.3750	487.72
41.3895	512.77
41.4039	481.52
41.4184	516.66
41.4328	488.47
41.4472	487.09
41.4617	476.43
41.4761	533.46
41.4906	511.52
41.5050	521.74
41.5194	497.75
41.5339	496.60
41.5483	484.92
41.5628	510.25
41.5772	479.36
41.5916	501.98
41.6061	468.90
41.6205	489.08
41.6350	516.22
41.6494	532.87
41.6639	521.75
41.6783	509.08
41.6927	483.25
41.7072	540.26
41.7216	531.12
41.7361	488.99
41.7505	495.00
41.7649	502.14
41.7794	521.80
41.7938	503.77
41.8083	511.97
41.8227	501.28
41.8371	489.82
41.8516	540.02
41.8660	554.14
41.8805	520.16
41.8949	522.59
41.9093	503.46
41.9238	549.89
41.9382	567.59
41.9527	548.06
41.9671	536.42
41.9815	583.18
41.9960	552.61
42.0104	568.87
42.0249	583.89
42.0393	578.02
42.0537	600.65
42.0682	567.31
42.0826	547.77
42.0971	584.98
42.1115	601.32
42.1259	597.44
42.1404	642.20
42.1548	625.84
42.1693	652.76
42.1837	681.18
42.1981	749.59
42.2126	841.87
42.2270	875.41
42.2415	1030.61
42.2559	1186.23
42.2703	1325.44
42.2848	1477.84
42.2992	1594.98
42.3137	1677.71
42.3281	1643.83
42.3425	1588.54
42.3570	1498.96
42.3714	1408.78
42.3859	1427.69
42.4003	1362.89
42.4147	1346.52
42.4292	1288.16
42.4436	1127.37
42.4581	1057.48
42.4725	933.60
42.4869	830.68
42.5014	747.56
42.5158	699.46
42.5303	689.69
42.5447	629.04
42.5591	636.72
42.5736	566.93
42.5880	564.38
42.6025	589.59
42.6169	580.89
42.6313	579.26
42.6458	526.17
42.6602	542.27
42.6747	543.21
42.6891	557.42
42.7035	535.68
42.7180	504.76
42.7324	519.87
42.7469	519.40
42.7613	507.16
42.7757	516.32
42.7902	498.07
42.8046	501.97
42.8191	480.52
42.8335	504.11
42.8479	500.92
42.8624	517.61
42.8768	497.61
42.8913	502.42
42.9057	543.02
42.9201	499.24
42.9346	530.28
42.9490	527.84
42.9635	518.13
42.9779	520.96
42.9923	522.24
43.0068	544.59
43.0212	489.17
43.0357	488.07
43.0501	474.53
43.0645	494.35
43.0790	516.52
43.0934	523.08
43.1079	526.92
43.1223	521.95
43.1367	502.50
43.1512	538.62
43.1656	504.28
43.1801	514.23
43.1945	536.66
43.2089	497.86
43.2234	520.34
43.2378	521.12
43.2523	517.69
43.2667	519.23
43.2811	551.97
43.2956	504.96
43.3100	535.17
43.3245	516.18
43.3389	548.60
43.3533	510.40
43.3678	504.66
43.3822	502.83
43.3967	503.46
43.4111	500.29
43.4255	518.39
43.4400	511.40
43.4544	493.38
43.4689	503.53
43.4833	549.29
43.4977	512.12
43.5122	503.88
43.5266	495.90
43.5411	499.55
43.5555	509.07
43.5699	498.67
43.5844	540.69
43.5988	522.23
43.6133	525.86
43.6277	515.92
43.6421	519.25
43.6566	524.68
43.6710	512.59
43.6855	516.70
43.6999	526.26
43.7143	530.74
43.7288	532.83
43.7432	522.48
43.7577	512.16
43.7721	518.42
43.7865	511.96
43.8010	513.28
43.8154	495.20
43.8299	525.41
43.8443	497.77
43.8587	534.57
43.8732	528.23
43.8876	519.78
43.9021	518.89
43.9165	474.65
43.9309	474.62
43.9454	517.30
43.9598	510.74
43.9743	488.48
43.9887	516.91
44.0031	507.01
44.0176	511.68
44.0320	527.96
44.0465	519.50
44.0609	505.49
44.0753	550.84
44.0898	551.48
44.1042	536.50
44.1187	545.21
44.1331	558.67
44.1475	559.35
44.1620	550.15
44.1764	599.02
44.1909	618.39
44.2053	606.12
44.2197	627.51
44.2342	662.18
44.2486	638.68
44.2631	624.46
44.2775	606.50
44.2919	613.78
44.3064	586.88
44.3208	592.67
44.3353	585.66
44.3497	616.03
44.3641	620.39
44.3786	584.22
44.3930	559.81
44.4075	603.46
44.4219	610.78
44.4363	576.77
44.4508	569.85
44.4652	648.77
44.4797	592.83
44.4941	610.23
44.5085	579.71
44.5230	576.50
44.5374	560.40
44.5519	609.93
44.5663	593.15
44.5807	580.96
44.5952	595.24
44.6096	622.24
44.6241	556.54
44.6385	593.75
44.6529	558.76
44.6674	592.04
44.6818	597.09
44.6963	684.50
44.7107	706.67
44.7251	699.24
44.7396	742.93
44.7540	768.90
44.7685	850.19
44.7829	874.21
44.7973	847.06
44.8118	866.39
44.8262	794.23
44.8407	737.96
44.8551	733.31
44.8695	715.18
44.8840	726.63
44.8984	740.16
44.9129	718.91
44.9273	657.13
44.9417	668.38
44.9562	621.82
44.9706	603.43
44.9851	526.92
44.9995	554.13
45.0139	496.27
45.0284	556.88
45.0428	575.75
45.0573	531.14
45.0717	538.41
45.0861	563.87
45.1006	527.96
45.1150	514.98
45.1295	518.63
45.1439	519.18
45.1583	542.11
45.1728	543.87
45.1872	510.70
45.2017	517.76
45.2161	513.42
45.2305	551.29
45.2450	534.20
45.2594	517.35
45.2739	511.42
45.2883	511.11
45.3028	517.26
45.3172	528.19
45.3316	499.09
45.3461	554.61
45.3605	502.06
45.3750	501.54
45.3894	490.50
45.4038	497.89
45.4183	484.76
45.4327	513.13
45.4472	505.11
45.4616	496.40
45.4760	501.56
45.4905	468.32
45.5049	479.71
45.5194	463.63
45.5338	481.41
45.5482	507.74
45.5627	494.19
45.5771	499.19
45.5916	485.58
45.6060	527.38
45.6204	529.28
45.6349	505.32
45.6493	503.92
45.6638	507.45
45.6782	495.66
45.6926	511.84
45.7071	517.95
45.7215	514.90
45.7360	468.18
45.7504	514.37
45.7648	480.20
45.7793	507.36
45.7937	486.66
45.8082	521.18
45.8226	509.82
45.8370	506.00
45.8515	506.17
45.8659	525.71
45.8804	497.90
45.8948	551.80
45.9092	523.17
45.9237	484.93
45.9381	470.36
45.9526	484.01
45.9670	504.13
45.9814	513.73
45.9959	504.06
46.0103	517.15
46.0248	498.48
46.0392	475.73
46.0536	499.30
46.0681	510.59
46.0825	496.69
46.0970	487.35
46.1114	509.57
46.1258	523.65
46.1403	473.43
46.1547	460.98
46.1692	483.46
46.1836	484.49
46.1980	479.25
46.2125	484.03
46.2269	477.16
46.2414	473.24
46.2558	479.16
46.2702	502.82
46.2847	496.29
46.2991	486.80
46.3136	491.31
46.3280	519.47
46.3424	492.63
46.3569	496.82
46.3713	481.20
46.3858	475.85
46.4002	470.34
46.4146	512.73
46.4291	525.63
46.4435	496.96
46.4580	471.91
46.4724	510.82
46.4868	505.30
46.5013	485.29
46.5157	500.01
46.5302	512.19
46.5446	497.51
46.5590	510.22
46.5735	460.75
46.5879	474.95
46.6024	473.21
46.6168	467.23
46.6312	485.15
46.6457	494.46
46.6601	489.05
46.6746	529.72
46.6890	491.05
46.7034	522.86
46.7179	512.12
46.7323	497.59
46.7468	500.20
46.7612	474.65
46.7756	477.51
46.7901	476.73
46.8045	504.53
46.8190	539.21
46.8334	495.03
46.8478	496.44
46.8623	512.66
46.8767	512.34
46.8912	514.56
46.9056	501.44
46.9200	492.54
46.9345	481.24
46.9489	487.23
46.9634	472.78
46.9778	491.85
46.9922	530.54
47.0067	529.90
47.0211	507.22
47.0356	483.63
47.0500	506.04
47.0644	497.42
47.0789	513.86
47.0933	528.64
47.1078	517.95
47.1222	492.77
47.1366	504.70
47.1511	496.94
47.1655	518.23
47.1800	527.38
47.1944	511.43
47.2088	489.38
47.2233	511.71
47.2377	492.55
47.2522	516.57
47.2666	521.76
47.2810	513.81
47.2955	485.17
47.3099	510.70
47.3244	510.80
47.3388	496.73
47.3532	483.05
47.3677	480.69
47.3821	503.63
47.3966	507.97
47.4110	490.67
47.4254	495.56
47.4399	523.04
47.4543	506.81
47.4688	535.87
47.4832	499.88
47.4976	503.65
47.5121	498.51
47.5265	500.28
47.5410	509.88
47.5554	501.13
47.5698	492.91
47.5843	505.17
47.5987	528.12
47.6132	507.90
47.6276	515.29
47.6420	509.38
47.6565	506.42
47.6709	480.81
47.6854	472.57
47.6998	529.67
47.7142	524.06
47.7287	480.48
47.7431	504.87
47.7576	508.32
47.7720	490.96
47.7864	492.41
47.8009	474.28
47.8153	505.94
47.8298	511.54
47.8442	485.77
47.8586	503.51
47.8731	506.00
47.8875	471.71
47.9020	490.26
47.9164	473.17
47.9308	485.29
47.9453	523.78
47.9597	510.97
47.9742	536.91
47.9886	542.36
48.0030	527.02
48.0175	491.48
48.0319	499.33
48.0464	480.43
48.0608	499.23
48.0752	501.08
48.0897	540.95
48.1041	515.32
48.1186	519.26
48.1330	489.38
48.1474	475.44
48.1619	504.27
48.1763	486.45
48.1908	507.78
48.2052	505.54
48.2196	498.44
48.2341	503.76
48.2485	519.55
48.2630	487.18
48.2774	514.89
48.2918	515.48
48.3063	520.85
48.3207	512.09
48.3352	502.47
48.3496	537.97
48.3640	510.19
48.3785	510.18
48.3929	532.30
48.4074	495.56
48.4218	514.64
48.4362	527.08
48.4507	496.61
48.4651	502.67
48.4796	528.13
48.4940	527.65
48.5084	523.34
48.5229	541.66
48.5373	550.20
48.5518	529.30
48.5662	477.19
48.5806	510.16
48.5951	540.89
48.6095	492.61
48.6240	502.87
48.6384	526.95
48.6528	514.44
48.6673	512.64
48.6817	521.14
48.6962	545.46
48.7106	521.14
48.7250	524.76
48.7395	507.91
48.7539	525.50
48.7684	543.23
48.7828	571.88
48.7972	580.85
48.8117	546.29
48.8261	543.37
48.8406	531.41
48.8550	523.73
48.8694	560.77
48.8839	523.38
48.8983	571.50
48.9128	562.76
48.9272	518.08
48.9416	544.17
48.9561	552.58
48.9705	540.97
48.9850	604.93
48.9994	585.78
49.0139	575.42
49.0283	613.64
49.0427	576.24
49.0572	596.13
49.0716	646.95
49.0861	717.69
49.1005	693.28
49.1149	709.28
49.1294	720.86
49.1438	728.82
49.1583	809.05
49.1727	843.48
49.1871	880.36
49.2016	932.50
49.2160	1046.85
49.2305	1060.08
49.2449	1229.52
49.2593	1274.35
49.2738	1363.66
49.2882	1457.91
49.3027	1560.60
49.3171	1594.39
49.3315	1708.69
49.3460	1708.90
49.3604	1800.87
49.3749	1755.56
49.3893	1729.54
49.4037	1752.94
49.4182	1718.99
49.4326	1755.68
49.4471	1615.17
49.4615	1608.24
49.4759	1572.02
49.4904	1516.46
49.5048	1355.97
49.5193	1298.34
49.5337	1308.18
49.5481	1227.77
49.5626	1147.53
49.5770	1085.37
49.5915	998.59
49.6059	932.55
49.6203	844.79
49.6348	796.91
49.6492	784.15
49.6637	779.03
49.6781	711.30
49.6925	655.14
49.7070	682.98
49.7214	643.94
49.7359	603.41
49.7503	621.82
49.7647	564.61
49.7792	615.48
49.7936	597.72
49.8081	582.12
49.8225	555.34
49.8369	571.52
49.8514	547.79
49.8658	572.79
49.8803	574.25
49.8947	544.73
49.9091	523.03
49.9236	547.30
49.9380	539.18
49.9525	509.16
49.9669	497.64
49.9813	536.88
49.9958	546.62
50.0102	514.10
50.0247	515.64
50.0391	505.62
50.0535	521.93
50.0680	511.15
50.0824	522.81
50.0969	515.59
50.1113	523.59
50.1257	477.63
50.1402	506.15
50.1546	513.35
50.1691	496.30
50.1835	550.97
50.1979	500.35
50.2124	520.43
50.2268	534.06
50.2413	512.38
50.2557	504.17
50.2701	505.76
50.2846	507.72
50.2990	509.03
50.3135	505.91
50.3279	529.92
50.3423	496.61
50.3568	497.98
50.3712	492.65
50.3857	480.42
50.4001	462.84
50.4145	508.64
50.4290	541.28
50.4434	502.52
50.4579	533.97
50.4723	528.87
50.4867	529.50
50.5012	546.52
50.5156	525.55
50.5301	515.27
50.5445	537.22
50.5589	525.63
50.5734	509.38
50.5878	548.54
50.6023	521.91
50.6167	482.87
50.6311	507.18
50.6456	483.17
50.6600	489.28
50.6745	493.61
50.6889	502.78
50.7033	520.31
50.7178	489.52
50.7322	487.74
50.7467	507.26
50.7611	484.66
50.7755	497.35
50.7900	480.13
50.8044	479.19
50.8189	531.84
50.8333	543.18
50.8477	511.92
50.8622	521.41
50.8766	530.11
50.8911	530.83
50.9055	527.27
50.9199	483.65
50.9344	478.29
50.9488	508.82
50.9633	503.68
50.9777	508.52
50.9921	507.40
51.0066	478.77
51.0210	506.53
51.0355	524.95
51.0499	528.01
51.0643	534.21
51.0788	528.35
51.0932	546.28
51.1077	518.71
51.1221	520.22
51.1365	522.97
51.1510	463.23
51.1654	475.47
51.1799	507.20
51.1943	464.11
51.2087	488.56
51.2232	537.30
51.2376	508.85
51.2521	503.24
51.2665	501.12
51.2809	513.06
51.2954	496.70
51.3098	500.47
51.3243	514.91
51.3387	543.23
51.3531	489.96
51.3676	469.19
51.3820	500.93
51.3965	468.09
51.4109	498.91
51.4253	487.98
51.4398	502.28
51.4542	501.06
51.4687	545.45
51.4831	511.06
51.4975	547.15
51.5120	528.78
51.5264	506.59
51.5409	519.93
51.5553	518.00
51.5697	500.06
51.5842	479.60
51.5986	493.92
51.6131	538.31
51.6275	525.66
51.6419	567.28
51.6564	520.64
51.6708	503.98
51.6853	519.38
51.6997	520.01
51.7141	521.38
51.7286	493.32
51.7430	538.11
51.7575	500.79
51.7719	496.98
51.7863	514.43
51.8008	515.81
51.8152	513.32
51.8297	512.83
51.8441	490.09
51.8585	522.42
51.8730	501.05
51.8874	502.14
51.9019	525.07
51.9163	532.75
51.9307	506.46
51.9452	511.68
51.9596	516.49
51.9741	509.78
51.9885	473.48
52.0029	494.08
52.0174	532.48
52.0318	508.37
52.0463	509.00
52.0607	517.97
52.0751	519.16
52.0896	542.94
52.1040	501.21
52.1185	491.11
52.1329	508.32
52.1473	526.00
52.1618	494.76
52.1762	507.12
52.1907	479.77
52.2051	507.68
52.2195	530.97
52.2340	478.93
52.2484	514.90
52.2629	538.61
52.2773	507.88
52.2917	517.23
52.3062	521.88
52.3206	541.36
52.3351	528.12
52.3495	508.12
52.3639	507.95
52.3784	477.72
52.3928	460.17
52.4073	510.35
52.4217	508.36
52.4361	528.68
52.4506	476.32
52.4650	511.34
52.4795	548.48
52.4939	536.22
52.5083	525.60
52.5228	498.41
52.5372	531.94
52.5517	531.87
52.5661	510.48
52.5805	492.40
52.5950	526.05
52.6094	519.99
52.6239	511.66
52.6383	517.18
52.6527	490.74
52.6672	520.07
52.6816	498.81
52.6961	521.50
52.7105	514.50
52.7250	503.37
52.7394	502.58
52.7538	510.04
52.7683	509.46
52.7827	532.30
52.7972	512.04
52.8116	517.50
52.8260	523.49
52.8405	494.16
52.8549	464.22
52.8694	495.68
52.8838	542.38
52.8982	533.03
52.9127	512.84
52.9271	562.76
52.9416	508.87
52.9560	503.31
52.9704	496.63
52.9849	490.26
52.9993	508.58
53.0138	521.95
53.0282	542.46
53.0426	501.64
53.0571	521.82
53.0715	494.52
53.0860	502.81
53.1004	508.61
53.1148	527.04
53.1293	525.19
53.1437	513.93
53.1582	518.99
53.1726	507.24
53.1870	494.84
53.2015	486.64
53.2159	498.33
53.2304	517.37
53.2448	510.27
53.2592	506.30
53.2737	506.46
53.2881	525.80
53.3026	540.78
53.3170	525.57
53.3314	491.33
53.3459	535.83
53.3603	563.77
53.3748	546.50
53.3892	504.69
53.4036	487.90
53.4181	485.29
53.4325	531.97
53.4470	525.15
53.4614	509.60
53.4758	533.45
53.4903	488.38
53.5047	524.39
53.5192	524.31
53.5336	512.83
53.5480	491.00
53.5625	497.61
53.5769	488.49
53.5914	513.14
53.6058	550.57
53.6202	534.45
53.6347	514.41
53.6491	523.46
53.6636	512.45
53.6780	508.36
53.6924	525.82
53.7069	524.35
53.7213	558.87
53.7358	506.30
53.7502	508.28
53.7646	540.76
53.7791	533.82
53.7935	516.04
53.8080	483.69
53.8224	520.10
53.8368	490.17
53.8513	506.21
53.8657	514.74
53.8802	507.58
53.8946	532.84
53.9090	510.70
53.9235	505.90
53.9379	506.82
53.9524	500.59
53.9668	482.91
53.9812	490.87
53.9957	484.97
54.0101	510.42
54.0246	522.33
54.0390	526.79
54.0534	528.68
54.0679	527.57
54.0823	510.79
54.0968	516.72
54.1112	500.17
54.1256	522.79
54.1401	516.57
54.1545	500.11
54.1690	528.46
54.1834	504.76
54.1978	469.78
54.2123	527.47
54.2267	528.16
54.2412	502.24
54.2556	522.66
54.2700	544.58
54.2845	523.23
54.2989	537.27
54.3134	548.63
54.3278	537.14
54.3422	543.69
54.3567	490.12
54.3711	529.77
54.3856	531.21
54.4000	500.21
54.4144	510.73
54.4289	497.79
54.4433	534.90
54.4578	537.88
54.4722	559.38
54.4866	529.81
54.5011	499.36
54.5155	470.02
54.5300	511.73
54.5444	539.07
54.5588	534.79
54.5733	539.54
54.5877	525.65
54.6022	530.02
54.6166	527.48
54.6310	516.64
54.6455	550.43
54.6599	532.56
54.6744	561.78
54.6888	520.33
54.7032	551.02
54.7177	550.26
54.7321	521.58
54.7466	519.03
54.7610	558.20
54.7754	525.14
54.7899	571.67
54.8043	601.65
54.8188	587.00
54.8332	587.74
54.8476	566.19
54.8621	600.25
54.8765	610.53
54.8910	588.05
54.9054	641.30
54.9198	564.72
54.9343	585.85
54.9487	600.34
54.9632	559.77
54.9776	570.40
54.9920	566.00
55.0065	583.24
55.0209	570.01
55.0354	606.01
55.0498	572.04
55.0642	567.19
55.0787	576.77
55.0931	564.06
55.1076	540.13
55.1220	555.32
55.1364	557.32
55.1509	549.92
55.1653	559.47
55.1798	526.13
55.1942	523.92
55.2086	539.26
55.2231	538.70
55.2375	556.15
55.2520	529.18
55.2664	520.90
55.2808	546.38
55.2953	515.01
55.3097	541.30
55.3242	533.45
55.3386	531.30
55.3530	503.53
55.3675	498.22
55.3819	481.20
55.3964	509.95
55.4108	560.22
55.4252	525.72
55.4397	526.10
55.4541	521.71
55.4686	523.56
55.4830	530.56
55.4974	520.80
55.5119	528.35
55.5263	540.19
55.5408	537.51
55.5552	537.86
55.5696	526.57
55.5841	508.80
55.5985	540.54
55.6130	528.04
55.6274	540.63
55.6418	538.62
55.6563	577.52
55.6707	552.25
55.6852	515.97
55.6996	556.55
55.7140	543.59
55.7285	561.60
55.7429	565.99
55.7574	512.91
55.7718	507.75
55.7862	558.47
55.8007	540.41
55.8151	514.74
55.8296	512.90
55.8440	522.36
55.8584	513.90
55.8729	501.10
55.8873	502.10
55.9018	513.89
55.9162	487.77
55.9306	505.61
55.9451	511.80
55.9595	507.29
55.9740	501.56
55.9884	522.21
56.0028	518.17
56.0173	525.02
56.0317	516.37
56.0462	509.57
56.0606	522.93
56.0750	536.30
56.0895	538.79
56.1039	528.08
56.1184	562.73
56.1328	525.00
56.1472	527.89
56.1617	543.65
56.1761	541.94
56.1906	518.23
56.2050	548.70
56.2194	510.98
56.2339	535.17
56.2483	521.46
56.2628	521.59
56.2772	531.51
56.2916	540.16
56.3061	512.81
56.3205	535.51
56.3350	543.09
56.3494	519.13
56.3639	496.38
56.3783	501.62
56.3927	502.84
56.4072	536.39
56.4216	543.55
56.4361	513.50
56.4505	508.13
56.4649	540.48
56.4794	540.27
56.4938	528.35
56.5083	496.04
56.5227	527.74
56.5371	507.39
56.5516	521.89
56.5660	469.75
56.5805	508.36
56.5949	506.45
56.6093	523.88
56.6238	550.89
56.6382	510.36
56.6527	518.38
56.6671	500.19
56.6815	509.60
56.6960	512.92
56.7104	533.70
56.7249	546.66
56.7393	532.98
56.7537	534.38
56.7682	495.26
56.7826	534.40
56.7971	564.98
56.8115	522.10
56.8259	530.35
56.8404	523.44
56.8548	534.40
56.8693	533.42
56.8837	519.75
56.8981	501.25
56.9126	489.23
56.9270	519.77
56.9415	519.11
56.9559	520.49
56.9703	535.94
56.9848	539.89
56.9992	529.24
57.0137	503.50
57.0281	513.55
57.0425	539.33
57.0570	514.30
57.0714	518.57
57.0859	541.94
57.1003	522.23
57.1147	498.30
57.1292	534.47
57.1436	525.83
57.1581	496.99
57.1725	513.53
57.1869	545.83
57.2014	528.54
57.2158	534.63
57.2303	556.66
57.2447	519.86
57.2591	542.98
57.2736	535.23
57.2880	518.75
57.3025	490.84
57.3169	518.42
57.3313	507.24
57.3458	532.83
57.3602	520.33
57.3747	511.92
57.3891	520.65
57.4035	521.48
57.4180	537.89
57.4324	545.46
57.4469	501.72
57.4613	527.09
57.4757	541.42
57.4902	542.18
57.5046	522.34
57.5191	516.32
57.5335	489.00
57.5479	525.97
57.5624	546.84
57.5768	513.61
57.5913	509.72
57.6057	505.57
57.6201	510.99
57.6346	528.32
57.6490	531.19
57.6635	507.05
57.6779	531.88
57.6923	506.72
57.7068	555.04
57.7212	508.96
57.7357	521.72
57.7501	538.47
57.7645	542.33
57.7790	513.35
57.7934	512.17
57.8079	518.46
57.8223	512.72
57.8367	553.23
57.8512	510.83
57.8656	530.41
57.8801	531.17
57.8945	538.80
57.9089	562.46
57.9234	551.74
57.9378	542.81
57.9523	527.59
57.9667	525.41
57.9811	524.39
57.9956	483.02
58.0100	533.95
58.0245	517.03
58.0389	517.52
58.0533	512.45
58.0678	511.96
58.0822	548.02
58.0967	584.48
58.1111	533.27
58.1255	550.25
58.1400	559.83
58.1544	560.34
58.1689	532.63
58.1833	492.58
58.1977	513.00
58.2122	550.60
58.2266	577.29
58.2411	564.08
58.2555	570.34
58.2699	554.87
58.2844	577.50
58.2988	567.09
58.3133	595.78
58.3277	577.54
58.3421	598.71
58.3566	560.02
58.3710	555.85
58.3855	565.87
58.3999	589.92
58.4143	597.34
58.4288	619.03
58.4432	608.02
58.4577	603.72
58.4721	622.70
58.4865	628.11
58.5010	643.45
58.5154	636.22
58.5299	635.27
58.5443	626.93
58.5587	628.77
58.5732	658.29
58.5876	626.22
58.6021	627.43
58.6165	598.69
58.6309	607.57
58.6454	647.91
58.6598	626.05
58.6743	614.08
58.6887	612.57
58.7031	624.59
58.7176	570.89
58.7320	559.85
58.7465	559.14
58.7609	593.81
58.7753	560.55
58.7898	565.65
58.8042	578.45
58.8187	568.93
58.8331	528.93
58.8475	545.26
58.8620	563.92
58.8764	584.97
58.8909	541.22
58.9053	550.87
58.9197	555.66
58.9342	572.13
58.9486	572.67
58.9631	544.31
58.9775	524.41
58.9919	554.05
59.0064	550.60
59.0208	532.04
59.0353	551.35
59.0497	509.52
59.0641	548.65
59.0786	546.96
59.0930	541.75
59.1075	538.91
59.1219	574.57
59.1363	558.36
59.1508	510.72
59.1652	526.18
59.1797	538.20
59.1941	542.51
59.2085	539.84
59.2230	561.87
59.2374	564.86
59.2519	551.54
59.2663	574.01
59.2807	557.87
59.2952	544.30
59.3096	550.45
59.3241	571.67
59.3385	558.55
59.3529	542.25
59.3674	559.92
59.3818	572.53
59.3963	574.57
59.4107	547.53
59.4251	580.86
59.4396	554.90
59.4540	556.76
59.4685	588.28
59.4829	549.14
59.4973	560.11
59.5118	575.95
59.5262	578.48
59.5407	539.20
59.5551	499.51
59.5695	550.27
59.5840	569.18
59.5984	564.82
59.6129	556.58
59.6273	520.33
59.6417	575.18
59.6562	552.42
59.6706	545.64
59.6851	548.40
59.6995	527.72
59.7139	527.30
59.7284	524.01
59.7428	539.82
59.7573	523.30
59.7717	541.47
59.7861	558.66
59.8006	509.42
59.8150	535.25
59.8295	539.95
59.8439	533.85
59.8583	584.22
59.8728	560.43
59.8872	539.19
59.9017	538.96
59.9161	542.34
59.9305	531.60
59.9450	546.26
59.9594	522.81
59.9739	483.90
59.9883	526.01
60.0027	547.75
60.0172	525.28
60.0316	566.71
60.0461	564.83
60.0605	551.01
60.0750	530.70
60.0894	529.56
60.1038	514.34
60.1183	584.65
60.1327	553.43
60.1472	519.38
60.1616	566.81
60.1760	549.59
60.1905	509.63
60.2049	529.08
60.2194	560.69
60.2338	552.30
60.2482	529.10
60.2627	504.93
60.2771	512.56
60.2916	557.37
60.3060	563.08
60.3204	520.09
60.3349	557.28
60.3493	571.04
60.3638	563.11
60.3782	573.27
60.3926	523.65
60.4071	517.81
60.4215	522.45
60.4360	538.45
60.4504	541.05
60.4648	547.76
60.4793	547.65
60.4937	532.31
60.5082	586.25
60.5226	552.39
60.5370	562.43
60.5515	548.68
60.5659	540.27
60.5804	504.83
60.5948	505.18
60.6092	556.44
60.6237	532.35
60.6381	552.41
60.6526	549.74
60.6670	533.10
60.6814	511.70
60.6959	545.27
60.7103	577.65
60.7248	541.50
60.7392	534.02
60.7536	565.94
60.7681	535.06
60.7825	542.58
60.7970	551.86
60.8114	558.17
60.8258	542.83
60.8403	543.64
60.8547	556.35
60.8692	542.19
60.8836	541.30
60.8980	541.59
60.9125	535.41
60.9269	553.93
60.9414	596.36
60.9558	565.98
60.9702	540.31
60.9847	582.91
60.9991	547.86
61.0136	533.04
61.0280	527.29
61.0424	524.57
61.0569	521.52
61.0713	511.29
61.0858	547.74
61.1002	521.91
61.1146	579.74
61.1291	544.99
61.1435	539.81
61.1580	521.14
61.1724	543.69
61.1868	539.07
61.2013	532.04
61.2157	545.00
61.2302	537.65
61.2446	534.17
61.2590	524.37
61.2735	562.38
61.2879	530.10
61.3024	546.50
61.3168	529.98
61.3312	550.86
61.3457	556.85
61.3601	557.02
61.3746	530.00
61.3890	546.97
61.4034	532.69
61.4179	538.03
61.4323	569.88
61.4468	530.62
61.4612	534.33
61.4756	529.54
61.4901	554.11
61.5045	511.76
61.5190	557.69
61.5334	528.23
61.5478	551.87
61.5623	522.23
61.5767	520.29
61.5912	563.85
61.6056	565.35
61.6200	562.94
61.6345	567.11
61.6489	544.65
61.6634	552.47
61.6778	565.15
61.6922	546.41
61.7067	576.41
61.7211	569.70
61.7356	545.62
61.7500	543.02
61.7644	537.07
61.7789	545.34
61.7933	560.27
61.8078	560.94
61.8222	537.14
61.8366	534.30
61.8511	545.43
61.8655	527.07
61.8800	540.77
61.8944	562.09
61.9088	552.90
61.9233	536.44
61.9377	552.40
61.9522	515.91
61.9666	517.32
61.9810	522.55
61.9955	519.18
62.0099	516.00
62.0244	498.02
62.0388	565.18
62.0532	567.80
62.0677	590.83
62.0821	510.61
62.0966	514.08
62.1110	557.39
62.1254	534.79
62.1399	538.24
62.1543	558.01
62.1688	561.41
62.1832	559.37
62.1976	526.11
62.2121	564.41
62.2265	546.39
62.2410	551.74
62.2554	548.34
62.2698	537.82
62.2843	582.73
62.2987	534.17
62.3132	529.67
62.3276	546.25
62.3420	561.39
62.3565	550.61
62.3709	568.25
62.3854	550.00
62.3998	532.65
62.4142	529.92
62.4287	600.91
62.4431	558.26
62.4576	547.19
62.4720	542.38
62.4864	544.14
62.5009	549.12
62.5153	569.77
62.5298	535.28
62.5442	555.21
62.5586	571.86
62.5731	536.42
62.5875	555.05
62.6020	545.05
62.6164	532.91
62.6308	556.38
62.6453	562.39
62.6597	553.51
62.6742	529.11
62.6886	529.27
62.7030	545.59
62.7175	524.81
62.7319	541.12
62.7464	571.80
62.7608	553.00
62.7752	546.45
62.7897	554.66
62.8041	565.89
62.8186	571.14
62.8330	575.44
62.8474	550.13
62.8619	541.87
62.8763	553.54
62.8908	549.68
62.9052	593.01
62.9196	591.74
62.9341	588.15
62.9485	570.23
62.9630	556.53
62.9774	544.27
62.9918	570.84
63.0063	537.68
63.0207	553.65
63.0352	584.59
63.0496	564.13
63.0640	548.59
63.0785	536.64
63.0929	592.40
63.1074	592.28
63.1218	573.96
63.1362	545.93
63.1507	544.40
63.1651	551.82
63.1796	600.44
63.1940	559.07
63.2084	556.26
63.2229	580.25
63.2373	559.77
63.2518	572.41
63.2662	524.73
63.2806	554.94
63.2951	579.10
63.3095	586.73
63.3240	592.85
63.3384	576.35
63.3528	571.00
63.3673	587.91
63.3817	521.13
63.3962	583.31
63.4106	588.20
63.4250	606.82
63.4395	567.34
63.4539	565.75
63.4684	581.85
63.4828	590.93
63.4972	572.75
63.5117	573.02
63.5261	546.58
63.5406	592.11
63.5550	581.62
63.5694	564.29
63.5839	567.08
63.5983	577.41
63.6128	590.70
63.6272	574.66
63.6416	590.70
63.6561	590.91
63.6705	570.69
63.6850	528.92
63.6994	609.82
63.7138	617.68
63.7283	583.18
63.7427	587.42
63.7572	585.82
63.7716	585.28
63.7861	597.08
63.8005	574.22
63.8149	606.37
63.8294	612.06
63.8438	577.42
63.8583	639.05
63.8727	604.24
63.8871	596.04
63.9016	606.75
63.9160	586.25
63.9305	644.82
63.9449	596.55
63.9593	601.79
63.9738	605.27
63.9882	613.56
64.0027	600.68
64.0171	624.58
64.0315	641.54
64.0460	644.23
64.0604	628.82
64.0749	579.69
64.0893	647.84
64.1037	692.59
64.1182	692.34
64.1326	692.12
64.1471	663.98
64.1615	729.51
64.1759	753.61
64.1904	779.05
64.2048	733.11
64.2193	764.86
64.2337	722.77
64.2481	744.55
64.2626	752.94
64.2770	728.05
64.2915	745.91
64.3059	738.94
64.3203	749.42
64.3348	798.93
64.3492	777.19
64.3637	766.50
64.3781	785.12
64.3925	760.65
64.4070	730.68
64.4214	769.40
64.4359	773.28
64.4503	764.07
64.4647	768.78
64.4792	772.61
64.4936	742.58
64.5081	774.04
64.5225	721.83
64.5369	762.02
64.5514	714.34
64.5658	710.49
64.5803	663.76
64.5947	664.64
64.6091	707.15
64.6236	691.76
64.6380	668.70
64.6525	702.93
64.6669	686.48
64.6813	722.61
64.6958	703.33
64.7102	709.84
64.7247	694.92
64.7391	673.14
64.7535	738.56
64.7680	717.63
64.7824	754.36
64.7969	788.35
64.8113	730.95
64.8257	806.33
64.8402	831.86
64.8546	872.99
64.8691	861.71
64.8835	870.77
64.8979	900.95
64.9124	900.49
64.9268	908.60
64.9413	926.56
64.9557	964.47
64.9701	992.47
64.9846	1095.35
64.9990	1132.62
65.0135	1318.52
65.0279	1540.49
65.0423	1762.45
65.0568	2175.30
65.0712	2681.68
65.0857	3619.28
65.1001	4812.24
65.1145	6571.56
65.1290	8347.96
65.1434	9917.02
65.1579	11447.97
65.1723	11972.76
65.1867	11296.14
65.2012	9900.99
65.2156	8124.77
65.2301	6404.45
65.2445	5209.47
65.2589	4367.96
65.2734	4188.26
65.2878	4532.76
65.3023	5294.74
65.3167	5949.71
65.3311	6762.96
65.3456	7030.14
65.3600	6990.47
65.3745	6274.03
65.3889	5346.19
65.4033	4256.32
65.4178	3335.27
65.4322	2635.21
65.4467	2097.05
65.4611	1702.47
65.4755	1436.83
65.4900	1281.79
65.5044	1118.40
65.5189	1036.44
65.5333	969.85
65.5477	907.85
65.5622	839.99
65.5766	794.06
65.5911	826.35
65.6055	795.35
65.6199	818.20
65.6344	775.48
65.6488	780.03
65.6633	762.42
65.6777	733.72
65.6921	731.27
65.7066	694.38
65.7210	698.09
65.7355	671.20
65.7499	740.16
65.7643	647.86
65.7788	653.06
65.7932	638.99
65.8077	722.52
65.8221	697.93
65.8365	668.96
65.8510	621.02
65.8654	661.76
65.8799	647.72
65.8943	694.69
65.9087	634.09
65.9232	620.39
65.9376	645.01
65.9521	630.90
65.9665	586.69
65.9809	600.01
65.9954	596.49
66.0098	585.33
66.0243	637.21
66.0387	641.31
66.0531	611.39
66.0676	628.98
66.0820	627.71
66.0965	648.16
66.1109	634.49
66.1253	641.53
66.1398	615.51
66.1542	604.88
66.1687	667.23
66.1831	645.13
66.1975	630.41
66.2120	630.82
66.2264	590.97
66.2409	623.24
66.2553	621.50
66.2697	634.89
66.2842	619.06
66.2986	629.69
66.3131	627.31
66.3275	619.11
66.3419	622.94
66.3564	610.51
66.3708	588.07
66.3853	597.05
66.3997	591.63
66.4141	597.45
66.4286	636.15
66.4430	567.01
66.4575	555.72
66.4719	608.36
66.4863	567.08
66.5008	617.85
66.5152	577.32
66.5297	568.31
66.5441	565.96
66.5585	615.89
66.5730	590.30
66.5874	602.21
66.6019	576.05
66.6163	587.75
66.6307	595.25
66.6452	596.63
66.6596	607.06
66.6741	595.34
66.6885	594.97
66.7029	605.32
66.7174	581.05
66.7318	594.90
66.7463	560.20
66.7607	570.97
66.7751	567.73
66.7896	564.34
66.8040	564.40
66.8185	614.69
66.8329	596.89
66.8473	612.39
66.8618	601.71
66.8762	609.93
66.8907	573.54
66.9051	596.35
66.9195	591.90
66.9340	574.83
66.9484	580.81
66.9629	575.36
66.9773	583.25
66.9917	580.89
67.0062	556.29
67.0206	557.75
67.0351	589.99
67.0495	568.07
67.0639	610.54
67.0784	596.73
67.0928	613.64
67.1073	577.08
67.1217	610.14
67.1361	569.54
67.1506	557.78
67.1650	593.77
67.1795	581.58
67.1939	576.25
67.2083	541.26
67.2228	542.65
67.2372	539.42
67.2517	564.60
67.2661	571.33
67.2805	576.24
67.2950	577.08
67.3094	565.73
67.3239	597.09
67.3383	579.17
67.3527	586.68
67.3672	565.91
67.3816	591.77
67.3961	564.45
67.4105	548.79
67.4250	607.47
67.4394	599.93
67.4538	610.83
67.4683	610.70
67.4827	580.17
67.4972	572.85
67.5116	556.97
67.5260	555.49
67.5405	589.62
67.5549	537.47
67.5694	574.04
67.5838	578.42
67.5982	607.95
67.6127	594.96
67.6271	581.51
67.6416	595.03
67.6560	583.78
67.6704	586.18
67.6849	568.43
67.6993	562.64
67.7138	600.42
67.7282	574.01
67.7426	582.19
67.7571	535.78
67.7715	532.19
67.7860	545.30
67.8004	561.47
67.8148	597.72
67.8293	609.16
67.8437	542.87
67.8582	585.60
67.8726	598.38
67.8870	584.42
67.9015	559.97
67.9159	584.84
67.9304	587.92
67.9448	596.63
67.9592	571.94
67.9737	588.74
67.9881	602.19
68.0026	576.17
68.0170	595.23
68.0314	594.06
68.0459	575.07
68.0603	590.57
68.0748	614.94
68.0892	629.78
68.1036	561.09
68.1181	593.66
68.1325	584.00
68.1470	556.84
68.1614	585.13
68.1758	561.79
68.1903	575.73
68.2047	603.51
68.2192	603.45
68.2336	584.64
68.2480	571.10
68.2625	571.63
68.2769	559.28
68.2914	559.51
68.3058	602.27
68.3202	566.38
68.3347	578.24
68.3491	592.72
68.3636	568.46
68.3780	541.98
68.3924	553.56
68.4069	573.40
68.4213	584.17
68.4358	569.35
68.4502	583.56
68.4646	552.78
68.4791	577.08
68.4935	568.75
68.5080	579.43
68.5224	540.52
68.5368	633.58
68.5513	543.47
68.5657	522.59
68.5802	537.58
68.5946	563.96
68.6090	582.23
68.6235	540.78
68.6379	558.55
68.6524	584.97
68.6668	571.55
68.6812	560.47
68.6957	576.20
68.7101	594.54
68.7246	577.27
68.7390	596.91
68.7534	567.25
68.7679	580.21
68.7823	645.36
68.7968	596.04
68.8112	616.26
68.8256	583.13
68.8401	602.27
68.8545	559.10
68.8690	575.10
68.8834	544.60
68.8978	601.25
68.9123	563.83
68.9267	560.95
68.9412	609.06
68.9556	531.62
68.9700	579.82
68.9845	557.72
68.9989	579.01
69.0134	582.93
69.0278	574.87
69.0422	614.42
69.0567	614.29
69.0711	622.80
69.0856	575.16
69.1000	598.39
69.1144	597.88
69.1289	617.22
69.1433	559.68
69.1578	579.09
69.1722	615.10
69.1866	538.25
69.2011	555.67
69.2155	584.11
69.2300	568.90
69.2444	565.49
69.2588	588.54
69.2733	529.39
69.2877	584.86
69.3022	523.99
69.3166	610.84
69.3310	541.06
69.3455	581.38
69.3599	576.91
69.3744	563.76
69.3888	567.16
69.4032	591.59
69.4177	596.67
69.4321	570.14
69.4466	529.41
69.4610	585.05
69.4754	566.08
69.4899	566.27
69.5043	517.84
69.5188	531.98
69.5332	589.36
69.5476	553.51
69.5621	605.69
69.5765	564.17
69.5910	602.37
69.6054	594.72
69.6198	541.63
69.6343	553.43
69.6487	550.19
69.6632	571.85
69.6776	555.35
69.6920	546.78
69.7065	588.67
69.7209	543.26
69.7354	527.47
69.7498	581.01
69.7642	568.48
69.7787	533.40
69.7931	537.73
69.8076	575.45
69.8220	591.90
69.8364	585.73
69.8509	579.72
69.8653	613.78
69.8798	597.56
69.8942	631.12
69.9086	587.37
69.9231	585.96
69.9375	622.11
69.9520	556.16
69.9664	603.21
69.9808	538.72
69.9953	570.67
70.0097	602.42
70.0242	570.06
70.0386	568.98
70.0530	650.06
70.0675	592.29
70.0819	537.38
70.0964	582.97
70.1108	525.32
70.1252	619.83
70.1397	542.96
70.1541	553.98
70.1686	583.78
70.1830	576.20
70.1974	585.96
70.2119	619.64
70.2263	567.48
70.2408	577.63
70.2552	595.00
70.2696	609.70
70.2841	561.56
70.2985	575.42
70.3130	600.51
70.3274	593.45
70.3418	562.19
70.3563	562.01
70.3707	541.10
70.3852	592.54
70.3996	579.89
70.4140	584.84
70.4285	607.55
70.4429	564.86
70.4574	584.80
70.4718	586.86
70.4862	577.43
70.5007	621.62
70.5151	576.08
70.5296	574.57
70.5440	567.20
70.5584	594.30
70.5729	603.89
70.5873	592.74
70.6018	601.38
70.6162	601.82
70.6306	523.12
70.6451	523.55
70.6595	561.16
70.6740	603.47
70.6884	522.36
70.7028	606.09
70.7173	622.83
70.7317	551.70
70.7462	629.44
70.7606	599.72
70.7750	564.25
70.7895	573.11
70.8039	564.85
70.8184	584.09
70.8328	635.80
70.8472	514.59
70.8617	579.21
70.8761	617.02
70.8906	581.87
70.9050	599.64
70.9194	571.98
70.9339	622.37
70.9483	625.00
70.9628	594.29
70.9772	566.88
70.9916	562.60
71.0061	569.41
71.0205	556.47
71.0350	593.06
71.0494	584.92
71.0638	596.99
71.0783	600.04
71.0927	612.47
71.1072	625.26
71.1216	630.15
71.1361	633.12
71.1505	616.59
71.1649	574.06
71.1794	566.08
71.1938	632.72
71.2083	619.46
71.2227	576.00
71.2371	577.99
71.2516	620.60
71.2660	599.82
71.2805	551.49
71.2949	522.84
71.3093	546.33
71.3238	539.71
71.3382	568.96
71.3527	595.39
71.3671	596.73
71.3815	538.71
71.3960	556.29
71.4104	579.27
71.4249	601.74
71.4393	619.63
71.4537	556.89
71.4682	533.12
71.4826	561.74
71.4971	587.52
71.5115	521.04
71.5259	468.00
71.5404	496.48
71.5548	539.59
71.5693	541.22
71.5837	543.46
71.5981	509.42
71.6126	532.38
71.6270	577.17
71.6415	592.24
71.6559	551.90
71.6703	515.64
71.6848	538.42
71.6992	640.11
71.7137	646.95
71.7281	547.82
71.7425	563.53
71.7570	566.67
71.7714	543.64
71.7859	573.27
71.8003	566.95
71.8147	598.98
71.8292	633.73
71.8436	573.81
71.8581	600.73
71.8725	630.41
71.8869	604.37
71.9014	609.60
71.9158	564.57
71.9303	536.03
71.9447	567.62
71.9591	580.20
71.9736	599.69
71.9880	586.59
72.0025	561.92
72.0169	546.32
72.0313	537.41
72.0458	531.35
72.0602	600.41
72.0747	651.26
72.0891	701.41
72.1035	729.48
72.1180	641.48
72.1324	523.94
72.1469	545.42
72.1613	559.33
72.1757	636.80
72.1902	703.91
72.2046	626.29
72.2191	576.53
72.2335	574.63
72.2479	533.94
72.2624	509.87
72.2768	544.78
72.2913	551.30
72.3057	560.35
72.3201	599.74
72.3346	585.93
72.3490	619.07
72.3635	597.14
72.3779	508.55
72.3923	515.66
72.4068	613.27
72.4212	617.43
72.4357	596.79
72.4501	584.24
72.4645	578.50
72.4790	561.01
72.4934	503.07
72.5079	479.04
72.5223	481.18
72.5367	494.72
72.5512	617.88
72.5656	570.54
72.5801	506.64
72.5945	536.81
72.6089	522.44
72.6234	604.73
72.6378	622.39
72.6523	528.00
72.6667	574.53
72.6811	637.27
72.6956	667.46
72.7100	624.54
72.7245	521.18
72.7389	569.89
72.7533	600.06
72.7678	618.44
72.7822	631.63
72.7967	590.81
72.8111	662.63
72.8255	661.14
72.8400	639.41
72.8544	611.48
72.8689	578.50
72.8833	530.44

Result vector
22.1120	545.67
22.1264	519.45
22.1409	523.80
22.1553	509.40
22.1697	588.92
22.1842	581.96
22.1986	605.03
22.2131	555.15
22.2275	611.51
22.2419	561.67
22.2564	548.27
22.2708	601.61
22.2853	644.00
22.2997	514.51
22.3141	523.00
22.3286	557.04
22.3430	547.94
22.3575	610.74
22.3719	598.10
22.3863	585.80
22.4008	556.70
22.4152	572.41
22.4297	580.84
22.4441	593.11
22.4585	614.59
22.4730	586.97
22.4874	582.43
22.5019	538.62
22.5163	582.37
22.5307	562.19
22.5452	540.28
22.5596	610.82
22.5741	484.70
22.5885	579.96
22.6029	592.94
22.6174	547.85
22.6318	576.24
22.6463	632.05
22.6607	586.07
22.6751	567.10
22.6896	632.07
22.7040	668.96
22.7185	589.36
22.7329	580.84
22.7473	564.52
22.7618	505.74
22.7762	495.21
22.7907	575.38
22.8051	602.25
22.8195	576.45
22.8340	551.90
22.8484	524.87
22.8629	571.02
22.8773	610.81
22.8917	547.90
22.9062	634.03
22.9206	556.44
22.9351	537.58
22.9495	606.64
22.9639	617.00
22.9784	559.45
22.9928	533.31
23.0073	575.78
23.0217	630.80
23.0361	512.02
23.0506	513.97
23.0650	559.92
23.0795	499.48
23.0939	481.95
23.1083	526.75
23.1228	506.05
23.1372	589.82
23.1517	511.45
23.1661	531.53
23.1806	559.96
23.1950	533.70
23.2094	551.19
23.2239	550.48
23.2383	553.78
23.2528	580.40
23.2672	558.95
23.2816	546.63
23.2961	565.10
23.3105	560.29
23.3250	661.26
23.3394	531.10
23.3538	566.89
23.3683	529.88
23.3827	545.92
23.3972	547.83
23.4116	525.61
23.4260	524.37
23.4405	562.94
23.4549	490.86
23.4694	498.99
23.4838	542.43
23.4982	566.41
23.5127	570.84
23.5271	514.39
23.5416	534.16
23.5560	494.08
23.5704	575.97
23.5849	624.01
23.5993	608.90
23.6138	565.33
23.6282	557.34
23.6426	565.96
23.6571	563.30
23.6715	496.44
23.6860	527.51
23.7004	597.80
23.7148	587.97
23.7293	644.60
23.7437	545.73
23.7582	601.40
23.7726	597.81
23.7870	619.24
23.8015	521.75
23.8159	623.38
23.8304	574.95
23.8448	595.99
23.8592	562.47
23.8737	588.09
23.8881	555.41
23.9026	597.84
23.9170	571.13
23.9314	579.30
23.9459	497.01
23.9603	520.61
23.9748	569.07
23.9892	549.59
24.0036	539.37
24.0181	578.39
24.0325	620.70
24.0470	617.65
24.0614	591.96
24.0758	534.28
24.0903	602.54
24.1047	535.09
24.1192	567.64
24.1336	548.84
24.1480	582.60
24.1625	634.63
24.1769	581.06
24.1914	571.58
24.2058	565.94
24.2202	561.24
24.2347	596.09
24.2491	625.47
24.2636	546.44
24.2780	625.94
24.2924	561.55
24.3069	502.96
24.3213	535.07
24.3358	545.54
24.3502	568.70
24.3646	549.61
24.3791	519.12
24.3935	533.28
24.4080	600.98
24.4224	588.08
24.4368	542.65
24.4513	504.33
24.4657	541.68
24.4802	513.55
24.4946	541.35
24.5090	566.01
24.5235	565.91
24.5379	578.27
24.5524	554.68
24.5668	556.72
24.5812	592.49
24.5957	645.11
24.6101	599.08
24.6246	540.43
24.6390	594.64
24.6534	575.28
24.6679	568.34
24.6823	523.01
24.6968	529.60
24.7112	540.87
24.7256	542.95
24.7401	509.53
24.7545	576.34
24.7690	548.80
24.7834	567.31
24.7978	563.68
24.8123	558.25
24.8267	568.82
24.8412	574.74
24.8556	506.28
24.8700	535.99
24.8845	549.95
24.8989	566.71
24.9134	593.18
24.9278	563.50
24.9422	544.20
24.9567	527.73
24.9711	521.78
24.9856	509.66
25.0000	586.24
25.0144	542.72
25.0289	545.69
25.0433	522.40
25.0578	580.86
25.0722	514.39
25.0866	565.08
25.1011	518.42
25.1155	525.67
25.1300	542.26
25.1444	534.86
25.1588	535.54
25.1733	540.07
25.1877	547.03
25.2022	509.40
25.2166	521.27
25.2310	544.67
25.2455	559.04
25.2599	546.90
25.2744	510.91
25.2888	561.79
25.3032	551.26
25.3177	553.02
25.3321	550.40
25.3466	533.16
25.3610	549.92
25.3754	577.90
25.3899	545.80
25.4043	511.26
25.4188	560.95
25.4332	524.50
25.4476	500.86
25.4621	562.95
25.4765	531.58
25.4910	599.57
25.5054	546.99
25.5198	515.40
25.5343	564.76
25.5487	551.69
25.5632	586.96
25.5776	578.37
25.5920	548.92
25.6065	577.74
25.6209	511.74
25.6354	503.74
25.6498	542.58
25.6642	523.11
25.6787	532.48
25.6931	543.68
25.7076	515.35
25.7220	533.04
25.7364	551.70
25.7509	534.40
25.7653	535.62
25.7798	516.21
25.7942	529.95
25.8086	527.53
25.8231	562.14
25.8375	561.06
25.8520	545.82
25.8664	573.21
25.8808	509.75
25.8953	566.18
25.9097	579.85
25.9242	547.83
25.9386	534.16
25.9530	531.38
25.9675	501.11
25.9819	503.69
25.9964	579.10
26.0108	531.94
26.0252	554.58
26.0397	579.61
26.0541	548.04
26.0686	558.78
26.0830	521.01
26.0974	506.53
26.1119	543.66
26.1263	552.16
26.1408	527.47
26.1552	527.96
26.1696	543.44
26.1841	557.36
26.1985	557.41
26.2130	532.07
26.2274	512.94
26.2418	527.78
26.2563	511.10
26.2707	504.41
26.2852	524.50
26.2996	504.67
26.3140	512.81
26.3285	543.91
26.3429	547.44
26.3574	548.61
26.3718	567.42
26.3862	551.17
26.4007	513.82
26.4151	531.73
26.4296	558.98
26.4440	537.35
26.4584	529.27
26.4729	548.30
26.4873	543.33
26.5018	518.91
26.5162	497.84
26.5306	511.53
26.5451	534.48
26.5595	545.06
26.5740	543.16
26.5884	523.99
26.6028	561.10
26.6173	545.15
26.6317	489.30
26.6462	517.33
26.6606	517.21
26.6750	511.68
26.6895	504.19
26.7039	512.30
26.7184	535.25
26.7328	500.99
26.7472	520.75
26.7617	506.48
26.7761	526.57
26.7906	537.85
26.8050	527.14
26.8194	515.40
26.8339	497.15
26.8483	541.97
26.8628	551.38
26.8772	558.64
26.8917	544.81
26.9061	543.52
26.9205	509.63
26.9350	514.54
26.9494	516.66
26.9639	520.09
26.9783	526.47
26.9927	524.77
27.0072	504.73
27.0216	535.18
27.0361	533.82
27.0505	512.63
27.0649	536.75
27.0794	507.12
27.0938	512.14
27.1083	508.51
27.1227	508.67
27.1371	504.35
27.1516	478.37
27.1660	520.95
27.1805	518.90
27.1949	490.49
27.2093	521.97
27.2238	502.29
27.2382	540.99
27.2527	524.68
27.2671	510.60
27.2815	527.26
27.2960	522.61
27.3104	508.52
27.3249	503.28
27.3393	522.10
27.3537	491.46
27.3682	499.11
27.3826	544.21
27.3971	522.54
27.4115	535.91
27.4259	522.04
27.4404	512.32
27.4548	520.63
27.4693	546.75
27.4837	528.88
27.4981	544.08
27.5126	526.10
27.5270	504.18
27.5415	504.65
27.5559	524.35
27.5703	480.65
27.5848	495.89
27.5992	523.90
27.6137	478.29
27.6281	553.09
27.6425	529.43
27.6570	567.61
27.6714	523.27
27.6859	529.60
27.7003	529.06
27.7147	532.19
27.7292	502.41
27.7436	531.48
27.7581	512.11
27.7725	535.75
27.7869	530.99
27.8014	505.49
27.8158	547.36
27.8303	552.12
27.8447	517.35
27.8591	501.67
27.8736	525.93
27.8880	529.01
27.9025	543.55
27.9169	517.99
27.9313	514.75
27.9458	539.57
27.9602	574.50
27.9747	511.45
27.9891	507.33
28.0035	496.06
28.0180	514.84
28.0324	517.09
28.0469	520.58
28.0613	542.23
28.0757	512.97
28.0902	498.33
28.1046	490.43
28.1191	493.65
28.1335	509.04
28.1479	489.57
28.1624	507.79
28.1768	493.81
28.1913	507.24
28.2057	490.80
28.2201	513.03
28.2346	513.27
28.2490	510.57
28.2635	508.88
28.2779	490.53
28.2923	491.18
28.3068	497.11
28.3212	527.95
28.3357	530.51
28.3501	485.90
28.3645	539.62
28.3790	513.02
28.3934	535.93
28.4079	502.06
28.4223	531.42
28.4367	539.90
28.4512	515.18
28.4656	495.85
28.4801	507.69
28.4945	527.16
28.5089	511.50
28.5234	534.03
28.5378	534.48
28.5523	533.70
28.5667	528.23
28.5811	522.95
28.5956	542.66
28.6100	512.14
28.6245	492.06
28.6389	527.80
28.6533	498.38
28.6678	515.07
28.6822	504.78
28.6967	525.05
28.7111	527.70
28.7255	512.41
28.7400	516.43
28.7544	532.77
28.7689	547.69
28.7833	530.94
28.7977	500.83
28.8122	513.05
28.8266	527.04
28.8411	547.85
28.8555	523.27
28.8699	517.55
28.8844	507.50
28.8988	534.70
28.9133	533.59
28.9277	466.85
28.9421	520.96
28.9566	530.13
28.9710	520.24
28.9855	520.28
28.9999	504.12
29.0143	525.88
29.0288	540.18
29.0432	496.80
29.0577	485.08
29.0721	502.85
29.0865	477.94
29.1010	506.01
29.1154	539.05
29.1299	485.71
29.1443	456.76
29.1587	518.30
29.1732	529.07
29.1876	503.81
29.2021	484.23
29.2165	509.06
29.2309	527.46
29.2454	550.74
29.2598	513.83
29.2743	474.99
29.2887	504.37
29.3031	520.37
29.3176	529.25
29.3320	511.13
29.3465	514.36
29.3609	519.87
29.3753	491.96
29.3898	505.34
29.4042	489.84
29.4187	499.73
29.4331	503.66
29.4475	554.73
29.4620	501.85
29.4764	498.60
29.4909	513.04
29.5053	503.93
29.5197	534.90
29.5342	520.63
29.5486	481.79
29.5631	485.03
29.5775	482.40
29.5919	513.36
29.6064	553.59
29.6208	541.16
29.6353	496.50
29.6497	518.88
29.6641	522.77
29.6786	510.80
29.6930	492.86
29.7075	512.43
29.7219	521.08
29.7363	521.84
29.7508	499.92
29.7652	488.69
29.7797	492.81
29.7941	489.57
29.8085	498.15
29.8230	524.68
29.8374	505.21
29.8519	505.97
29.8663	528.88
29.8807	498.16
29.8952	487.15
29.9096	470.44
29.9241	516.16
29.9385	510.44
29.9529	519.32
29.9674	532.24
29.9818	474.54
29.9963	495.92
30.0107	498.95
30.0251	522.45
30.0396	488.48
30.0540	486.86
30.0685	507.16
30.0829	506.32
30.0973	542.18
30.1118	514.42
30.1262	511.34
30.1407	492.47
30.1551	474.81
30.1695	494.66
30.1840	472.58
30.1984	448.89
30.2129	487.27
30.2273	514.01
30.2417	502.36
30.2562	506.91
30.2706	480.71
30.2851	496.35
30.2995	490.26
30.3139	511.59
30.3284	546.34
30.3428	523.61
30.3573	521.10
30.3717	514.98
30.3861	521.68
30.4006	526.92
30.4150	501.17
30.4295	508.58
30.4439	507.05
30.4583	533.39
30.4728	518.50
30.4872	495.03
30.5017	490.78
30.5161	504.97
30.5305	516.14
30.5450	496.05
30.5594	515.75
30.5739	525.19
30.5883	514.79
30.6028	505.69
30.6172	499.92
30.6316	500.92
30.6461	549.46
30.6605	526.71
30.6750	520.19
30.6894	538.20
30.7038	544.38
30.7183	511.66
30.7327	537.09
30.7472	546.90
30.7616	560.39
30.7760	597.69
30.7905	618.43
30.8049	608.32
30.8194	645.33
30.8338	653.33
30.8482	608.29
30.8627	643.91
30.8771	688.94
30.8916	676.30
30.9060	725.16
30.9204	710.89
30.9349	700.02
30.9493	668.43
30.9638	658.36
30.9782	618.24
30.9926	619.33
31.0071	589.76
31.0215	605.56
31.0360	595.95
31.0504	592.56
31.0648	565.69
31.0793	547.63
31.0937	580.35
31.1082	561.61
31.1226	530.53
31.1370	516.25
31.1515	498.37
31.1659	522.62
31.1804	558.16
31.1948	533.93
31.2092	546.65
31.2237	551.42
31.2381	558.51
31.2526	523.26
31.2670	558.71
31.2814	562.43
31.2959	536.56
31.3103	545.70
31.3248	524.49
31.3392	543.20
31.3536	584.32
31.3681	553.73
31.3825	545.35
31.3970	499.27
31.4114	486.62
31.4258	501.78
31.4403	508.76
31.4547	501.80
31.4692	504.42
31.4836	496.80
31.4980	517.60
31.5125	531.76
31.5269	512.06
31.5414	525.78
31.5558	544.04
31.5702	517.31
31.5847	514.56
31.5991	498.99
31.6136	494.33
31.6280	515.97
31.6424	491.12
31.6569	515.34
31.6713	496.42
31.6858	493.04
31.7002	510.13
31.7146	512.90
31.7291	510.59
31.7435	510.13
31.7580	520.30
31.7724	497.88
31.7868	541.21
31.8013	500.05
31.8157	501.60
31.8302	486.48
31.8446	503.46
31.8590	507.80
31.8735	534.70
31.8879	537.92
31.9024	514.91
31.9168	485.97
31.9312	499.92
31.9457	510.66
31.9601	500.65
31.9746	497.67
31.9890	518.18
32.0034	513.35
32.0179	488.48
32.0323	485.34
32.0468	505.93
32.0612	504.21
32.0756	498.55
32.0901	525.01
32.1045	517.64
32.1190	532.86
32.1334	514.99
32.1478	508.40
32.1623	498.29
32.1767	509.30
32.1912	490.43
32.2056	494.53
32.2200	514.68
32.2345	505.10
32.2489	534.75
32.2634	526.71
32.2778	515.98
32.2922	499.97
32.3067	497.36
32.3211	514.32
32.3356	510.49
32.3500	493.13
32.3644	498.45
32.3789	512.56
32.3933	505.15
32.4078	525.72
32.4222	535.29
32.4366	536.09
32.4511	508.77
32.4655	518.05
32.4800	510.65
32.4944	507.19
32.5088	510.86
32.5233	485.52
32.5377	526.78
32.5522	475.61
32.5666	492.14
32.5810	483.63
32.5955	492.83
32.6099	482.99
32.6244	496.51
32.6388	516.43
32.6532	520.29
32.6677	486.06
32.6821	502.86
32.6966	522.83
32.7110	543.83
32.7254	518.24
32.7399	514.58
32.7543	489.99
32.7688	495.63
32.7832	532.16
32.7976	477.88
32.8121	498.15
32.8265	520.26
32.8410	490.75
32.8554	528.25
32.8698	486.68
32.8843	512.23
32.8987	486.79
32.9132	521.59
32.9276	526.60
32.9420	547.22
32.9565	496.81
32.9709	524.92
32.9854	461.08
32.9998	508.51
33.0142	478.80
33.0287	489.48
33.0431	511.06
33.0576	526.65
33.0720	521.38
33.0864	522.55
33.1009	505.12
33.1153	497.44
33.1298	565.02
33.1442	520.46
33.1586	502.37
33.1731	509.22
33.1875	504.59
33.2020	500.77
33.2164	514.02
33.2308	498.33
33.2453	505.20
33.2597	531.45
33.2742	512.47
33.2886	507.73
33.3030	491.09
33.3175	530.84
33.3319	521.82
33.3464	493.76
33.3608	501.78
33.3752	510.11
33.3897	491.51
33.4041	511.65
33.4186	543.27
33.4330	516.89
33.4474	451.65
33.4619	522.51
33.4763	505.27
33.4908	494.82
33.5052	522.94
33.5196	495.00
33.5341	517.97
33.5485	521.43
33.5630	488.29
33.5774	516.74
33.5918	517.11
33.6063	507.06
33.6207	544.80
33.6352	519.45
33.6496	477.10
33.6640	484.24
33.6785	493.40
33.6929	487.02
33.7074	509.37
33.7218	512.83
33.7362	518.55
33.7507	522.89
33.7651	517.66
33.7796	542.07
33.7940	482.28
33.8084	526.59
33.8229	520.12
33.8373	532.40
33.8518	490.16
33.8662	535.70
33.8806	547.94
33.8951	563.72
33.9095	513.40
33.9240	534.57
33.9384	521.71
33.9528	518.97
33.9673	502.91
33.9817	502.48
33.9962	477.64
34.0106	482.64
34.0250	497.92
34.0395	555.73
34.0539	510.94
34.0684	540.60
34.0828	538.16
34.0972	506.19
34.1117	511.47
34.1261	535.49
34.1406	507.53
34.1550	485.68
34.1694	504.24
34.1839	515.41
34.1983	478.43
34.2128	528.61
34.2272	486.91
34.2417	481.25
34.2561	473.62
34.2705	521.90
34.2850	513.09
34.2994	483.21
34.3139	464.74
34.3283	502.89
34.3427	556.69
34.3572	495.26
34.3716	495.25
34.3861	504.58
34.4005	486.34
34.4149	485.23
34.4294	517.26
34.4438	476.67
34.4583	492.82
34.4727	520.41
34.4871	521.01
34.5016	483.50
34.5160	469.29
34.5305	502.39
34.5449	522.16
34.5593	506.14
34.5738	517.69
34.5882	488.65
34.6027	537.31
34.6171	508.86
34.6315	492.76
34.6460	505.59
34.6604	525.48
34.6749	541.25
34.6893	519.22
34.7037	509.05
34.7182	512.49
34.7326	507.59
34.7471	490.09
34.7615	509.80
34.7759	506.14
34.7904	510.57
34.8048	521.53
34.8193	516.03
34.8337	499.95
34.8481	514.93
34.8626	509.87
34.8770	528.38
34.8915	489.62
34.9059	524.74
34.9203	519.65
34.9348	499.86
34.9492	529.76
34.9637	506.38
34.9781	499.78
34.9925	488.72
35.0070	553.55
35.0214	540.98
35.0359	544.98
35.0503	523.33
35.0647	519.65
35.0792	530.46
35.0936	506.32
35.1081	499.10
35.1225	534.91
35.1369	520.34
35.1514	516.96
35.1658	494.64
35.1803	520.46
35.1947	486.64
35.2091	522.94
35.2236	499.17
35.2380	521.92
35.2525	519.94
35.2669	521.86
35.2813	517.98
35.2958	535.36
35.3102	508.35
35.3247	524.11
35.3391	534.80
35.3535	540.78
35.3680	524.61
35.3824	499.12
35.3969	512.89
35.4113	501.07
35.4257	515.11
35.4402	524.00
35.4546	512.03
35.4691	549.67
35.4835	520.45
35.4979	493.12
35.5124	515.60
35.5268	558.91
35.5413	543.15
35.5557	561.99
35.5701	528.76
35.5846	509.22
35.5990	525.18
35.6135	531.51
35.6279	528.81
35.6423	532.10
35.6568	521.46
35.6712	530.24
35.6857	555.73
35.7001	638.99
35.7145	698.41
35.7290	652.71
35.7434	589.46
35.7579	551.07
35.7723	551.42
35.7867	604.22
35.8012	651.39
35.8156	650.94
35.8301	600.00
35.8445	597.07
35.8589	651.61
35.8734	750.30
35.8878	856.67
35.9023	1030.63
35.9167	1140.71
35.9311	1553.41
35.9456	2394.14
35.9600	2357.93
35.9745	1771.39
35.9889	1754.07
36.0033	2166.39
36.0178	2285.76
36.0322	1994.61
36.0467	1864.01
36.0611	1604.40
36.0755	1539.91
36.0900	1525.70
36.1044	1308.12
36.1189	1276.99
36.1333	1195.21
36.1477	983.60
36.1622	1056.77
36.1766	989.26
36.1911	876.94
36.2055	752.10
36.2199	722.64
36.2344	726.65
36.2488	711.27
36.2633	727.44
36.2777	777.78
36.2921	798.04
36.3066	799.21
36.3210	859.27
36.3355	922.29
36.3499	929.20
36.3643	945.08
36.3788	961.27
36.3932	973.23
36.4077	956.72
36.4221	991.93
36.4365	949.91
36.4510	862.90
36.4654	896.62
36.4799	884.19
36.4943	826.70
36.5087	771.21
36.5232	753.06
36.5376	730.44
36.5521	679.76
36.5665	684.22
36.5809	636.75
36.5954	617.41
36.6098	613.05
36.6243	625.75
36.6387	574.73
36.6531	542.91
36.6676	565.24
36.6820	587.23
36.6965	559.24
36.7109	577.68
36.7253	551.85
36.7398	531.30
36.7542	574.48
36.7687	574.65
36.7831	541.01
36.7975	543.62
36.8120	605.13
36.8264	585.80
36.8409	584.76
36.8553	615.79
36.8697	612.25
36.8842	608.33
36.8986	581.04
36.9131	598.96
36.9275	594.18
36.9419	533.82
36.9564	550.42
36.9708	550.34
36.9853	546.33
36.9997	558.67
37.0141	569.48
37.0286	548.08
37.0430	538.52
37.0575	534.00
37.0719	543.16
37.0863	548.65
37.1008	513.13
37.1152	525.81
37.1297	531.13
37.1441	527.95
37.1585	528.75
37.1730	514.55
37.1874	507.65
37.2019	480.18
37.2163	531.26
37.2307	490.95
37.2452	517.14
37.2596	497.32
37.2741	467.72
37.2885	499.55
37.3029	513.86
37.3174	526.59
37.3318	519.82
37.3463	493.50
37.3607	480.61
37.3751	506.32
37.3896	512.60
37.4040	491.46
37.4185	503.89
37.4329	551.10
37.4473	490.21
37.4618	528.68
37.4762	513.64
37.4907	495.70
37.5051	482.22
37.5195	479.58
37.5340	522.08
37.5484	497.41
37.5629	460.95
37.5773	488.36
37.5917	516.40
37.6062	506.82
37.6206	521.13
37.6351	539.34
37.6495	500.17
37.6639	509.78
37.6784	547.03
37.6928	489.38
37.7073	489.63
37.7217	510.81
37.7361	509.16
37.7506	504.65
37.7650	481.27
37.7795	485.95
37.7939	473.90
37.8083	496.45
37.8228	499.33
37.8372	548.24
37.8517	546.44
37.8661	514.87
37.8805	510.53
37.8950	502.83
37.9094	513.89
37.9239	510.98
37.9383	504.57
37.9528	516.62
37.9672	494.34
37.9816	514.43
37.9961	500.67
38.0105	489.79
38.0250	544.27
38.0394	526.38
38.0538	480.08
38.0683	530.10
38.0827	502.51
38.0972	480.42
38.1116	546.08
38.1260	555.62
38.1405	516.10
38.1549	502.55
38.1694	526.48
38.1838	517.13
38.1982	497.68
38.2127	475.33
38.2271	475.14
38.2416	504.98
38.2560	523.12
38.2704	496.83
38.2849	535.46
38.2993	510.88
38.3138	512.64
38.3282	538.49
38.3426	512.02
38.3571	553.03
38.3715	523.05
38.3860	517.17
38.4004	533.99
38.4148	556.56
38.4293	595.44
38.4437	608.10
38.4582	616.31
38.4726	655.49
38.4870	730.91
38.5015	763.10
38.5159	794.30
38.5304	837.89
38.5448	801.32
38.5592	799.07
38.5737	736.47
38.5881	764.22
38.6026	729.03
38.6170	703.34
38.6314	680.77
38.6459	660.47
38.6603	633.18
38.6748	598.44
38.6892	571.00
38.7036	589.21
38.7181	538.47
38.7325	547.21
38.7470	500.77
38.7614	519.71
38.7758	525.24
38.7903	515.80
38.8047	497.33
38.8192	520.47
38.8336	513.72
38.8480	534.08
38.8625	541.32
38.8769	534.01
38.8914	515.90
38.9058	499.22
38.9202	518.65
38.9347	511.81
38.9491	468.74
38.9636	494.12
38.9780	491.63
38.9924	507.33
39.0069	505.02
39.0213	499.56
39.0358	484.85
39.0502	461.59
39.0646	482.37
39.0791	527.88
39.0935	533.55
39.1080	512.32
39.1224	517.87
39.1368	506.00
39.1513	496.59
39.1657	489.02
39.1802	476.77
39.1946	505.22
39.2090	524.20
39.2235	502.05
39.2379	494.80
39.2524	530.83
39.2668	514.85
39.2812	529.93
39.2957	496.98
39.3101	509.20
39.3246	514.04
39.3390	495.68
39.3534	502.43
39.3679	524.21
39.3823	512.44
39.3968	487.10
39.4112	475.78
39.4256	513.14
39.4401	481.93
39.4545	480.05
39.4690	531.37
39.4834	545.17
39.4978	491.09
39.5123	521.19
39.5267	526.56
39.5412	478.67
39.5556	512.07
39.5700	504.24
39.5845	492.25
39.5989	523.33
39.6134	496.80
39.6278	474.81
39.6422	491.79
39.6567	493.38
39.6711	488.49
39.6856	492.35
39.7000	494.90
39.7144	507.96
39.7289	483.40
39.7433	491.76
39.7578	504.16
39.7722	495.90
39.7866	483.72
39.8011	494.75
39.8155	481.93
39.8300	498.30
39.8444	515.95
39.8588	511.56
39.8733	515.66
39.8877	505.74
39.9022	555.37
39.9166	511.19
39.9310	479.19
39.9455	501.97
39.9599	483.83
39.9744	471.19
39.9888	463.84
40.0032	466.07
40.0177	494.59
40.0321	518.66
40.0466	510.14
40.0610	455.93
40.0754	507.59
40.0899	524.43
40.1043	490.49
40.1188	482.74
40.1332	489.45
40.1476	449.75
40.1621	497.91
40.1765	447.11
40.1910	482.21
40.2054	460.13
40.2198	472.81
40.2343	490.15
40.2487	515.40
40.2632	496.37
40.2776	485.72
40.2920	488.59
40.3065	469.13
40.3209	458.98
40.3354	503.64
40.3498	503.77
40.3642	491.14
40.3787	482.54
40.3931	511.49
40.4076	485.65
40.4220	515.48
40.4364	498.26
40.4509	448.36
40.4653	489.85
40.4798	540.42
40.4942	527.12
40.5086	518.46
40.5231	481.38
40.5375	478.66
40.5520	463.30
40.5664	499.91
40.5808	512.99
40.5953	492.55
40.6097	500.34
40.6242	501.20
40.6386	518.55
40.6530	465.43
40.6675	471.48
40.6819	481.29
40.6964	524.87
40.7108	530.55
40.7252	500.91
40.7397	463.89
40.7541	491.73
40.7686	499.98
40.7830	512.50
40.7974	514.57
40.8119	544.82
40.8263	470.44
40.8408	498.22
40.8552	510.81
40.8696	501.60
40.8841	480.25
40.8985	520.63
40.9130	484.83
40.9274	450.07
40.9418	498.81
40.9563	501.84
40.9707	503.91
40.9852	489.34
40.9996	495.34
41.0140	516.08
41.0285	507.31
41.0429	479.71
41.0574	527.24
41.0718	578.30
41.0862	503.30
41.1007	474.25
41.1151	535.79
41.1296	544.75
41.1440	501.23
41.1584	471.95
41.1729	500.69
41.1873	480.97
41.2018	487.07
41.2162	553.94
41.2306	500.28
41.2451	492.12
41.2595	503.35
41.2740	518.55
41.2884	495.87
41.3028	503.50
41.3173	519.58
41.3317	526.67
41.3462	519.15
41.3606	485.45
41.3750	487.72
41.3895	512.77
41.4039	481.52
41.4184	516.66
41.4328	488.47
41.4472	487.09
41.4617	476.43
41.4761	533.46
41.4906	511.52
41.5050	521.74
41.5194	497.75
41.5339	496.60
41.5483	484.92
41.5628	510.25
41.5772	479.36
41.5916	501.98
41.6061	468.90
41.6205	489.08
41.6350	516.22
41.6494	532.87
41.6639	521.75
41.6783	509.08
41.6927	483.25
41.7072	540.26
41.7216	531.12
41.7361	488.99
41.7505	495.00
41.7649	502.14
41.7794	521.80
41.7938	503.77
41.8083	511.97
41.8227	501.28
41.8371	489.82
41.8516	540.02
41.8660	554.14
41.8805	520.16
41.8949	522.59
41.9093	503.46
41.9238	549.89
41.9382	567.59
41.9527	548.06
41.9671	536.42
41.9815	583.18
41.9960	552.61
42.0104	568.87
42.0249	583.89
42.0393	578.02
42.0537	600.65
42.0682	567.31
42.0826	547.77
42.0971	584.98
42.1115	601.32
42.1259	597.44
42.1404	642.20
42.1548	625.84
42.1693	652.76
42.1837	681.18
42.1981	749.59
42.2126	841.87
42.2270	875.41
42.2415	1030.61
42.2559	1186.23
42.2703	1325.44
42.2848	1477.84
42.2992	1594.98
42.3137	1677.71
42.3281	1643.83
42.3425	1588.54
42.3570	1498.96
42.3714	1408.78
42.3859	1427.69
42.4003	1362.89
42.4147	1346.52
42.4292	1288.16
42.4436	1127.37
42.4581	1057.48
42.4725	933.60
42.4869	830.68
42.5014	747.56
42.5158	699.46
42.5303	689.69
42.5447	629.04
42.5591	636.72
42.5736	566.93
42.5880	564.38
42.6025	589.59
42.6169	580.89
42.6313	579.26
42.6458	526.17
42.6602	542.27
42.6747	543.21
42.6891	557.42
42.7035	535.68
42.7180	504.76
42.7324	519.87
42.7469	519.40
42.7613	507.16
42.7757	516.32
42.7902	498.07
42.8046	501.97
42.8191	480.52
42.8335	504.11
42.8479	500.92
42.8624	517.61
42.8768	497.61
42.8913	502.42
42.9057	543.02
42.9201	499.24
42.9346	530.28
42.9490	527.84
42.9635	518.13
42.9779	520.96
42.9923	522.24
43.0068	544.59
43.0212	489.17
43.0357	488.07
43.0501	474.53
43.0645	494.35
43.0790	516.52
43.0934	523.08
43.1079	526.92
43.1223	521.95
43.1367	502.50
43.1512	538.62
43.1656	504.28
43.1801	514.23
43.1945	536.66
43.2089	497.86
43.2234	520.34
43.2378	521.12
43.2523	517.69
43.2667	519.23
43.2811	551.97
43.2956	504.96
43.3100	535.17
43.3245	516.18
43.3389	548.60
43.3533	510.40
43.3678	504.66
43.3822	502.83
43.3967	503.46
43.4111	500.29
43.4255	518.39
43.4400	511.40
43.4544	493.38
43.4689	503.53
43.4833	549.29
43.4977	512.12
43.5122	503.88
43.5266	495.90
43.5411	499.55
43.5555	509.07
43.5699	498.67
43.5844	540.69
43.5988	522.23
43.6133	525.86
43.6277	515.92
43.6421	519.25
43.6566	524.68
43.6710	512.59
43.6855	516.70
43.6999	526.26
43.7143	530.74
43.7288	532.83
43.7432	522.48
43.7577	512.16
43.7721	518.42
43.7865	511.96
43.8010	513.28
43.8154	495.20
43.8299	525.41
43.8443	497.77
43.8587	534.57
43.8732	528.23
43.8876	519.78
43.9021	518.89
43.9165	474.65
43.9309	474.62
43.9454	517.30
43.9598	510.74
43.9743	488.48
43.9887	516.91
44.0031	507.01
44.0176	511.68
44.0320	527.96
44.0465	519.50
44.0609	505.49
44.0753	550.84
44.0898	551.48
44.1042	536.50
44.1187	545.21
44.1331	558.67
44.1475	559.35
44.1620	550.15
44.1764	599.02
44.1909	618.39
44.2053	606.12
44.2197	627.51
44.2342	662.18
44.2486	638.68
44.2631	624.46
44.2775	606.50
44.2919	613.78
44.3064	586.88
44.3208	592.67
44.3353	585.66
44.3497	616.03
44.3641	620.39
44.3786	584.22
44.3930	559.81
44.4075	603.46
44.4219	610.78
44.4363	576.77
44.4508	569.85
44.4652	648.77
44.4797	592.83
44.4941	610.23
44.5085	579.71
44.5230	576.50
44.5374	560.40
44.5519	609.93
44.5663	593.15
44.5807	580.96
44.5952	595.24
44.6096	622.24
44.6241	556.54
44.6385	593.75
44.6529	558.76
44.6674	592.04
44.6818	597.09
44.6963	684.50
44.7107	706.67
44.7251	699.24
44.7396	742.93
44.7540	768.90
44.7685	850.19
44.7829	874.21
44.7973	847.06
44.8118	866.39
44.8262	794.23
44.8407	737.96
44.8551	733.31
44.8695	715.18
44.8840	726.63
44.8984	740.16
44.9129	718.91
44.9273	657.13
44.9417	668.38
44.9562	621.82
44.9706	603.43
44.9851	526.92
44.9995	554.13
45.0139	496.27
45.0284	556.88
45.0428	575.75
45.0573	531.14
45.0717	538.41
45.0861	563.87
45.1006	527.96
45.1150	514.98
45.1295	518.63
45.1439	519.18
45.1583	542.11
45.1728	543.87
45.1872	510.70
45.2017	517.76
45.2161	513.42
45.2305	551.29
45.2450	534.20
45.2594	517.35
45.2739	511.42
45.2883	511.11
45.3028	517.26
45.3172	528.19
45.3316	499.09
45.3461	554.61
45.3605	502.06
45.3750	501.54
45.3894	490.50
45.4038	497.89
45.4183	484.76
45.4327	513.13
45.4472	505.11
45.4616	496.40
45.4760	501.56
45.4905	468.32
45.5049	479.71
45.5194	463.63
45.5338	481.41
45.5482	507.74
45.5627	494.19
45.5771	499.19
45.5916	485.58
45.6060	527.38
45.6204	529.28
45.6349	505.32
45.6493	503.92
45.6638	507.45
45.6782	495.66
45.6926	511.84
45.7071	517.95
45.7215	514.90
45.7360	468.18
45.7504	514.37
45.7648	480.20
45.7793	507.36
45.7937	486.66
45.8082	521.18
45.8226	509.82
45.8370	506.00
45.8515	506.17
45.8659	525.71
45.8804	497.90
45.8948	551.80
45.9092	523.17
45.9237	484.93
45.9381	470.36
45.9526	484.01
45.9670	504.13
45.9814	513.73
45.9959	504.06
46.0103	517.15
46.0248	498.48
46.0392	475.73
46.0536	499.30
46.0681	510.59
46.0825	496.69
46.0970	487.35
46.1114	509.57
46.1258	523.65
46.1403	473.43
46.1547	460.98
46.1692	483.46
46.1836	484.49
46.1980	479.25
46.2125	484.03
46.2269	477.16
46.2414	473.24
46.2558	479.16
46.2702	502.82
46.2847	496.29
46.2991	486.80
46.3136	491.31
46.3280	519.47
46.3424	492.63
46.3569	496.82
46.3713	481.20
46.3858	475.85
46.4002	470.34
46.4146	512.73
46.4291	525.63
46.4435	496.96
46.4580	471.91
46.4724	510.82
46.4868	505.30
46.5013	485.29
46.5157	500.01
46.5302	512.19
46.5446	497.51
46.5590	510.22
46.5735	460.75
46.5879	474.95
46.6024	473.21
46.6168	467.23
46.6312	485.15
46.6457	494.46
46.6601	489.05
46.6746	529.72
46.6890	491.05
46.7034	522.86
46.7179	512.12
46.7323	497.59
46.7468	500.20
46.7612	474.65
46.7756	477.51
46.7901	476.73
46.8045	504.53
46.8190	539.21
46.8334	495.03
46.8478	496.44
46.8623	512.66
46.8767	512.34
46.8912	514.56
46.9056	501.44
46.9200	492.54
46.9345	481.24
46.9489	487.23
46.9634	472.78
46.9778	491.85
46.9922	530.54
47.0067	529.90
47.0211	507.22
47.0356	483.63
47.0500	506.04
47.0644	497.42
47.0789	513.86
47.0933	528.64
47.1078	517.95
47.1222	492.77
47.1366	504.70
47.1511	496.94
47.1655	518.23
47.1800	527.38
47.1944	511.43
47.2088	489.38
47.2233	511.71
47.2377	492.55
47.2522	516.57
47.2666	521.76
47.2810	513.81
47.2955	485.17
47.3099	510.70
47.3244	510.80
47.3388	496.73
47.3532	483.05
47.3677	480.69
47.3821	503.63
47.3966	507.97
47.4110	490.67
47.4254	495.56
47.4399	523.04
47.4543	506.81
47.4688	535.87
47.4832	499.88
47.4976	503.65
47.5121	498.51
47.5265	500.28
47.5410	509.88
47.5554	501.13
47.5698	492.91
47.5843	505.17
47.5987	528.12
47.6132	507.90
47.6276	515.29
47.6420	509.38
47.6565	506.42
47.6709	480.81
47.6854	472.57
47.6998	529.67
47.7142	524.06
47.7287	480.48
47.7431	504.87
47.7576	508.32
47.7720	490.96
47.7864	492.41
47.8009	474.28
47.8153	505.94
47.8298	511.54
47.8442	485.77
47.8586	503.51
47.8731	506.00
47.8875	471.71
47.9020	490.26
47.9164	473.17
47.9308	485.29
47.9453	523.78
47.9597	510.97
47.9742	536.91
47.9886	542.36
48.0030	527.02
48.0175	491.48
48.0319	499.33
48.0464	480.43
48.0608	499.23
48.0752	501.08
48.0897	540.95
48.1041	515.32
48.1186	519.26
48.1330	489.38
48.1474	475.44
48.1619	504.27
48.1763	486.45
48.1908	507.78
48.2052	505.54
48.2196	498.44
48.2341	503.76
48.2485	519.55
48.2630	487.18
48.2774	514.89
48.2918	515.48
48.3063	520.85
48.3207	512.09
48.3352	502.47
48.3496	537.97
48.3640	510.19
48.3785	510.18
48.3929	532.30
48.4074	495.56
48.4218	514.64
48.4362	527.08
48.4507	496.61
48.4651	502.67
48.4796	528.13
48.4940	527.65
48.5084	523.34
48.5229	541.66
48.5373	550.20
48.5518	529.30
48.5662	477.19
48.5806	510.16
48.5951	540.89
48.6095	492.61
48.6240	502.87
48.6384	526.95
48.6528	514.44
48.6673	512.64
48.6817	521.14
48.6962	545.46
48.7106	521.14
48.7250	524.76
48.7395	507.91
48.7539	525.50
48.7684	543.23
48.7828	571.88
48.7972	580.85
48.8117	546.29
48.8261	543.37
48.8406	531.41
48.8550	523.73
48.8694	560.77
48.8839	523.38
48.8983	571.50
48.9128	562.76
48.9272	518.08
48.9416	544.17
48.9561	552.58
48.9705	540.97
48.9850	604.93
48.9994	585.78
49.0139	575.42
49.0283	613.64
49.0427	576.24
49.0572	596.13
49.0716	646.95
49.0861	717.69
49.1005	693.28
49.1149	709.28
49.1294	720.86
49.1438	728.82
49.1583	809.05
49.1727	843.48
49.1871	880.36
49.2016	932.50
49.2160	1046.85
49.2305	1060.08
49.2449	1229.52
49.2593	1274.35
49.2738	1363.66
49.2882	1457.91
49.3027	1560.60
49.3171	1594.39
49.3315	1708.69
49.3460	1708.90
49.3604	1800.87
49.3749	1755.56
49.3893	1729.54
49.4037	1752.94
49.4182	1718.99
49.4326	1755.68
49.4471	1615.17
49.4615	1608.24
49.4759	1572.02
49.4904	1516.46
49.5048	1355.97
49.5193	1298.34
49.5337	1308.18
49.5481	1227.77
49.5626	1147.53
49.5770	1085.37
49.5915	998.59
49.6059	932.55
49.6203	844.79
49.6348	796.91
49.6492	784.15
49.6637	779.03
49.6781	711.30
49.6925	655.14
49.7070	682.98
49.7214	643.94
49.7359	603.41
49.7503	621.82
49.7647	564.61
49.7792	615.48
49.7936	597.72
49.8081	582.12
49.8225	555.34
49.8369	571.52
49.8514	547.79
49.8658	572.79
49.8803	574.25
49.8947	544.73
49.9091	523.03
49.9236	547.30
49.9380	539.18
49.9525	509.16
49.9669	497.64
49.9813	536.88
49.9958	546.62
50.0102	514.10
50.0247	515.64
50.0391	505.62
50.0535	521.93
50.0680	511.15
50.0824	522.81
50.0969	515.59
50.1113	523.59
50.1257	477.63
50.1402	506.15
50.1546	513.35
50.1691	496.30
50.1835	550.97
50.1979	500.35
50.2124	520.43
50.2268	534.06
50.2413	512.38
50.2557	504.17
50.2701	505.76
50.2846	507.72
50.2990	509.03
50.3135	505.91
50.3279	529.92
50.3423	496.61
50.3568	497.98
50.3712	492.65
50.3857	480.42
50.4001	462.84
50.4145	508.64
50.4290	541.28
50.4434	502.52
50.4579	533.97
50.4723	528.87
50.4867	529.50
50.5012	546.52
50.5156	525.55
50.5301	515.27
50.5445	537.22
50.5589	525.63
50.5734	509.38
50.5878	548.54
50.6023	521.91
50.6167	482.87
50.6311	507.18
50.6456	483.17
50.6600	489.28
50.6745	493.61
50.6889	502.78
50.7033	520.31
50.7178	489.52
50.7322	487.74
50.7467	507.26
50.7611	484.66
50.7755	497.35
50.7900	480.13
50.8044	479.19
50.8189	531.84
50.8333	543.18
50.8477	511.92
50.8622	521.41
50.8766	530.11
50.8911	530.83
50.9055	527.27
50.9199	483.65
50.9344	478.29
50.9488	508.82
50.9633	503.68
50.9777	508.52
50.9921	507.40
51.0066	478.77
51.0210	506.53
51.0355	524.95
51.0499	528.01
51.0643	534.21
51.0788	528.35
51.0932	546.28
51.1077	518.71
51.1221	520.22
51.1365	522.97
51.1510	463.23
51.1654	475.47
51.1799	507.20
51.1943	464.11
51.2087	488.56
51.2232	537.30
51.2376	508.85
51.2521	503.24
51.2665	501.12
51.2809	513.06
51.2954	496.70
51.3098	500.47
51.3243	514.91
51.3387	543.23
51.3531	489.96
51.3676	469.19
51.3820	500.93
51.3965	468.09
51.4109	498.91
51.4253	487.98
51.4398	502.28
51.4542	501.06
51.4687	545.45
51.4831	511.06
51.4975	547.15
51.5120	528.78
51.5264	506.59
51.5409	519.93
51.5553	518.00
51.5697	500.06
51.5842	479.60
51.5986	493.92
51.6131	538.31
51.6275	525.66
51.6419	567.28
51.6564	520.64
51.6708	503.98
51.6853	519.38
51.6997	520.01
51.7141	521.38
51.7286	493.32
51.7430	538.11
51.7575	500.79
51.7719	496.98
51.7863	514.43
51.8008	515.81
51.8152	513.32
51.8297	512.83
51.8441	490.09
51.8585	522.42
51.8730	501.05
51.8874	502.14
51.9019	525.07
51.9163	532.75
51.9307	506.46
51.9452	511.68
51.9596	516.49
51.9741	509.78
51.9885	473.48
52.0029	494.08
52.0174	532.48
52.0318	508.37
52.0463	509.00
52.0607	517.97
52.0751	519.16
52.0896	542.94
52.1040	501.21
52.1185	491.11
52.1329	508.32
52.1473	526.00
52.1618	494.76
52.1762	507.12
52.1907	479.77
52.2051	507.68
52.2195	530.97
52.2340	478.93
52.2484	514.90
52.2629	538.61
52.2773	507.88
52.2917	517.23
52.3062	521.88
52.3206	541.36
52.3351	528.12
52.3495	508.12
52.3639	507.95
52.3784	477.72
52.3928	460.17
52.4073	510.35
52.4217	508.36
52.4361	528.68
52.4506	476.32
52.4650	511.34
52.4795	548.48
52.4939	536.22
52.5083	525.60
52.5228	498.41
52.5372	531.94
52.5517	531.87
52.5661	510.48
52.5805	492.40
52.5950	526.05
52.6094	519.99
52.6239	511.66
52.6383	517.18
52.6527	490.74
52.6672	520.07
52.6816	498.81
52.6961	521.50
52.7105	514.50
52.7250	503.37
52.7394	502.58
52.7538	510.04
52.7683	509.46
52.7827	532.30
52.7972	512.04
52.8116	517.50
52.8260	523.49
52.8405	494.16
52.8549	464.22
52.8694	495.68
52.8838	542.38
52.8982	533.03
52.9127	512.84
52.9271	562.76
52.9416	508.87
52.9560	503.31
52.9704	496.63
52.9849	490.26
52.9993	508.58
53.0138	521.95
53.0282	542.46
53.0426	501.64
53.0571	521.82
53.0715	494.52
53.0860	502.81
53.1004	508.61
53.1148	527.04
53.1293	525.19
53.1437	513.93
53.1582	518.99
53.1726	507.24
53.1870	494.84
53.2015	486.64
53.2159	498.33
53.2304	517.37
53.2448	510.27
53.2592	506.30
53.2737	506.46
53.2881	525.80
53.3026	540.78
53.3170	525.57
53.3314	491.33
53.3459	535.83
53.3603	563.77
53.3748	546.50
53.3892	504.69
53.4036	487.90
53.4181	485.29
53.4325	531.97
53.4470	525.15
53.4614	509.60
53.4758	533.45
53.4903	488.38
53.5047	524.39
53.5192	524.31
53.5336	512.83
53.5480	491.00
53.5625	497.61
53.5769	488.49
53.5914	513.14
53.6058	550.57
53.6202	534.45
53.6347	514.41
53.6491	523.46
53.6636	512.45
53.6780	508.36
53.6924	525.82
53.7069	524.35
53.7213	558.87
53.7358	506.30
53.7502	508.28
53.7646	540.76
53.7791	533.82
53.7935	516.04
53.8080	483.69
53.8224	520.10
53.8368	490.17
53.8513	506.21
53.8657	514.74
53.8802	507.58
53.8946	532.84
53.9090	510.70
53.9235	505.90
53.9379	506.82
53.9524	500.59
53.9668	482.91
53.9812	490.87
53.9957	484.97
54.0101	510.42
54.0246	522.33
54.0390	526.79
54.0534	528.68
54.0679	527.57
54.0823	510.79
54.0968	516.72
54.1112	500.17
54.1256	522.79
54.1401	516.57
54.1545	500.11
54.1690	528.46
54.1834	504.76
54.1978	469.78
54.2123	527.47
54.2267	528.16
54.2412	502.24
54.2556	522.66
54.2700	544.58
54.2845	523.23
54.2989	537.27
54.3134	548.63
54.3278	537.14
54.3422	543.69
54.3567	490.12
54.3711	529.77
54.3856	531.21
54.4000	500.21
54.4144	510.73
54.4289	497.79
54.4433	534.90
54.4578	537.88
54.4722	559.38
54.4866	529.81
54.5011	499.36
54.5155	470.02
54.5300	511.73
54.5444	539.07
54.5588	534.79
54.5733	539.54
54.5877	525.65
54.6022	530.02
54.6166	527.48
54.6310	516.64
54.6455	550.43
54.6599	532.56
54.6744	561.78
54.6888	520.33
54.7032	551.02
54.7177	550.26
54.7321	521.58
54.7466	519.03
54.7610	558.20
54.7754	525.14
54.7899	571.67
54.8043	601.65
54.8188	587.00
54.8332	587.74
54.8476	566.19
54.8621	600.25
54.8765	610.53
54.8910	588.05
54.9054	641.30
54.9198	564.72
54.9343	585.85
54.9487	600.34
54.9632	559.77
54.9776	570.40
54.9920	566.00
55.0065	583.24
55.0209	570.01
55.0354	606.01
55.0498	572.04
55.0642	567.19
55.0787	576.77
55.0931	564.06
55.1076	540.13
55.1220	555.32
55.1364	557.32
55.1509	549.92
55.1653	559.47
55.1798	526.13
55.1942	523.92
55.2086	539.26
55.2231	538.70
55.2375	556.15
55.2520	529.18
55.2664	520.90
55.2808	546.38
55.2953	515.01
55.3097	541.30
55.3242	533.45
55.3386	531.30
55.3530	503.53
55.3675	498.22
55.3819	481.20
55.3964	509.95
55.4108	560.22
55.4252	525.72
55.4397	526.10
55.4541	521.71
55.4686	523.56
55.4830	530.56
55.4974	520.80
55.5119	528.35
55.5263	540.19
55.5408	537.51
55.5552	537.86
55.5696	526.57
55.5841	508.80
55.5985	540.54
55.6130	528.04
55.6274	540.63
55.6418	538.62
55.6563	577.52
55.6707	552.25
55.6852	515.97
55.6996	556.55
55.7140	543.59
55.7285	561.60
55.7429	565.99
55.7574	512.91
55.7718	507.75
55.7862	558.47
55.8007	540.41
55.8151	514.74
55.8296	512.90
55.8440	522.36
55.8584	513.90
55.8729	501.10
55.8873	502.10
55.9018	513.89
55.9162	487.77
55.9306	505.61
55.9451	511.80
55.9595	507.29
55.9740	501.56
55.9884	522.21
56.0028	518.17
56.0173	525.02
56.0317	516.37
56.0462	509.57
56.0606	522.93
56.0750	536.30
56.0895	538.79
56.1039	528.08
56.1184	562.73
56.1328	525.00
56.1472	527.89
56.1617	543.65
56.1761	541.94
56.1906	518.23
56.2050	548.70
56.2194	510.98
56.2339	535.17
56.2483	521.46
56.2628	521.59
56.2772	531.51
56.2916	540.16
56.3061	512.81
56.3205	535.51
56.3350	543.09
56.3494	519.13
56.3639	496.38
56.3783	501.62
56.3927	502.84
56.4072	536.39
56.4216	543.55
56.4361	513.50
56.4505	508.13
56.4649	540.48
56.4794	540.27
56.4938	528.35
56.5083	496.04
56.5227	527.74
56.5371	507.39
56.5516	521.89
56.5660	469.75
56.5805	508.36
56.5949	506.45
56.6093	523.88
56.6238	550.89
56.6382	510.36
56.6527	518.38
56.6671	500.19
56.6815	509.60
56.6960	512.92
56.7104	533.70
56.7249	546.66
56.7393	532.98
56.7537	534.38
56.7682	495.26
56.7826	534.40
56.7971	564.98
56.8115	522.10
56.8259	530.35
56.8404	523.44
56.8548	534.40
56.8693	533.42
56.8837	519.75
56.8981	501.25
56.9126	489.23
56.9270	519.77
56.9415	519.11
56.9559	520.49
56.9703	535.94
56.9848	539.89
56.9992	529.24
57.0137	503.50
57.0281	513.55
57.0425	539.33
57.0570	514.30
57.0714	518.57
57.0859	541.94
57.1003	522.23
57.1147	498.30
57.1292	534.47
57.1436	525.83
57.1581	496.99
57.1725	513.53
57.1869	545.83
57.2014	528.54
57.2158	534.63
57.2303	556.66
57.2447	519.86
57.2591	542.98
57.2736	535.23
57.2880	518.75
57.3025	490.84
57.3169	518.42
57.3313	507.24
57.3458	532.83
57.3602	520.33
57.3747	511.92
57.3891	520.65
57.4035	521.48
57.4180	537.89
57.4324	545.46
57.4469	501.72
57.4613	527.09
57.4757	541.42
57.4902	542.18
57.5046	522.34
57.5191	516.32
57.5335	489.00
57.5479	525.97
57.5624	546.84
57.5768	513.61
57.5913	509.72
57.6057	505.57
57.6201	510.99
57.6346	528.32
57.6490	531.19
57.6635	507.05
57.6779	531.88
57.6923	506.72
57.7068	555.04
57.7212	508.96
57.7357	521.72
57.7501	538.47
57.7645	542.33
57.7790	513.35
57.7934	512.17
57.8079	518.46
57.8223	512.72
57.8367	553.23
57.8512	510.83
57.8656	530.41
57.8801	531.17
57.8945	538.80
57.9089	562.46
57.9234	551.74
57.9378	542.81
57.9523	527.59
57.9667	525.41
57.9811	524.39
57.9956	483.02
58.0100	533.95
58.0245	517.03
58.0389	517.52
58.0533	512.45
58.0678	511.96
58.0822	548.02
58.0967	584.48
58.1111	533.27
58.1255	550.25
58.1400	559.83
58.1544	560.34
58.1689	532.63
58.1833	492.58
58.1977	513.00
58.2122	550.60
58.2266	577.29
58.2411	564.08
58.2555	570.34
58.2699	554.87
58.2844	577.50
58.2988	567.09
58.3133	595.78
58.3277	577.54
58.3421	598.71
58.3566	560.02
58.3710	555.85
58.3855	565.87
58.3999	589.92
58.4143	597.34
58.4288	619.03
58.4432	608.02
58.4577	603.72
58.4721	622.70
58.4865	628.11
58.5010	643.45
58.5154	636.22
58.5299	635.27
58.5443	626.93
58.5587	628.77
58.5732	658.29
58.5876	626.22
58.6021	627.43
58.6165	598.69
58.6309	607.57
58.6454	647.91
58.6598	626.05
58.6743	614.08
58.6887	612.57
58.7031	624.59
58.7176	570.89
58.7320	559.85
58.7465	559.14
58.7609	593.81
58.7753	560.55
58.7898	565.65
58.8042	578.45
58.8187	568.93
58.8331	528.93
58.8475	545.26
58.8620	563.92
58.8764	584.97
58.8909	541.22
58.9053	550.87
58.9197	555.66
58.9342	572.13
58.9486	572.67
58.9631	544.31
58.9775	524.41
58.9919	554.05
59.0064	550.60
59.0208	532.04
59.0353	551.35
59.0497	509.52
59.0641	548.65
59.0786	546.96
59.0930	541.75
59.1075	538.91
59.1219	574.57
59.1363	558.36
59.1508	510.72
59.1652	526.18
59.1797	538.20
59.1941	542.51
59.2085	539.84
59.2230	561.87
59.2374	564.86
59.2519	551.54
59.2663	574.01
59.2807	557.87
59.2952	544.30
59.3096	550.45
59.3241	571.67
59.3385	558.55
59.3529	542.25
59.3674	559.92
59.3818	572.53
59.3963	574.57
59.4107	547.53
59.4251	580.86
59.4396	554.90
59.4540	556.76
59.4685	588.28
59.4829	549.14
59.4973	560.11
59.5118	575.95
59.5262	578.48
59.5407	539.20
59.5551	499.51
59.5695	550.27
59.5840	569.18
59.5984	564.82
59.6129	556.58
59.6273	520.33
59.6417	575.18
59.6562	552.42
59.6706	545.64
59.6851	548.40
59.6995	527.72
59.7139	527.30
59.7284	524.01
59.7428	539.82
59.7573	523.30
59.7717	541.47
59.7861	558.66
59.8006	509.42
59.8150	535.25
59.8295	539.95
59.8439	533.85
59.8583	584.22
59.8728	560.43
59.8872	539.19
59.9017	538.96
59.9161	542.34
59.9305	531.60
59.9450	546.26
59.9594	522.81
59.9739	483.90
59.9883	526.01
60.0027	547.75
60.0172	525.28
60.0316	566.71
60.0461	564.83
60.0605	551.01
60.0750	530.70
60.0894	529.56
60.1038	514.34
60.1183	584.65
60.1327	553.43
60.1472	519.38
60.1616	566.81
60.1760	549.59
60.1905	509.63
60.2049	529.08
60.2194	560.69
60.2338	552.30
60.2482	529.10
60.2627	504.93
60.2771	512.56
60.2916	557.37
60.3060	563.08
60.3204	520.09
60.3349	557.28
60.3493	571.04
60.3638	563.11
60.3782	573.27
60.3926	523.65
60.4071	517.81
60.4215	522.45
60.4360	538.45
60.4504	541.05
60.4648	547.76
60.4793	547.65
60.4937	532.31
60.5082	586.25
60.5226	552.39
60.5370	562.43
60.5515	548.68
60.5659	540.27
60.5804	504.83
60.5948	505.18
60.6092	556.44
60.6237	532.35
60.6381	552.41
60.6526	549.74
60.6670	533.10
60.6814	511.70
60.6959	545.27
60.7103	577.65
60.7248	541.50
60.7392	534.02
60.7536	565.94
60.7681	535.06
60.7825	542.58
60.7970	551.86
60.8114	558.17
60.8258	542.83
60.8403	543.64
60.8547	556.35
60.8692	542.19
60.8836	541.30
60.8980	541.59
60.9125	535.41
60.9269	553.93
60.9414	596.36
60.9558	565.98
60.9702	540.31
60.9847	582.91
60.9991	547.86
61.0136	533.04
61.0280	527.29
61.0424	524.57
61.0569	521.52
61.0713	511.29
61.0858	547.74
61.1002	521.91
61.1146	579.74
61.1291	544.99
61.1435	539.81
61.1580	521.14
61.1724	543.69
61.1868	539.07
61.2013	532.04
61.2157	545.00
61.2302	537.65
61.2446	534.17
61.2590	524.37
61.2735	562.38
61.2879	530.10
61.3024	546.50
61.3168	529.98
61.3312	550.86
61.3457	556.85
61.3601	557.02
61.3746	530.00
61.3890	546.97
61.4034	532.69
61.4179	538.03
61.4323	569.88
61.4468	530.62
61.4612	534.33
61.4756	529.54
61.4901	554.11
61.5045	511.76
61.5190	557.69
61.5334	528.23
61.5478	551.87
61.5623	522.23
61.5767	520.29
61.5912	563.85
61.6056	565.35
61.6200	562.94
61.6345	567.11
61.6489	544.65
61.6634	552.47
61.6778	565.15
61.6922	546.41
61.7067	576.41
61.7211	569.70
61.7356	545.62
61.7500	543.02
61.7644	537.07
61.7789	545.34
61.7933	560.27
61.8078	560.94
61.8222	537.14
61.8366	534.30
61.8511	545.43
61.8655	527.07
61.8800	540.77
61.8944	562.09
61.9088	552.90
61.9233	536.44
61.9377	552.40
61.9522	515.91
61.9666	517.32
61.9810	522.55
61.9955	519.18
62.0099	516.00
62.0244	498.02
62.0388	565.18
62.0532	567.80
62.0677	590.83
62.0821	510.61
62.0966	514.08
62.1110	557.39
62.1254	534.79
62.1399	538.24
62.1543	558.01
62.1688	561.41
62.1832	559.37
62.1976	526.11
62.2121	564.41
62.2265	546.39
62.2410	551.74
62.2554	548.34
62.2698	537.82
62.2843	582.73
62.2987	534.17
62.3132	529.67
62.3276	546.25
62.3420	561.39
62.3565	550.61
62.3709	568.25
62.3854	550.00
62.3998	532.65
62.4142	529.92
62.4287	600.91
62.4431	558.26
62.4576	547.19
62.4720	542.38
62.4864	544.14
62.5009	549.12
62.5153	569.77
62.5298	535.28
62.5442	555.21
62.5586	571.86
62.5731	536.42
62.5875	555.05
62.6020	545.05
62.6164	532.91
62.6308	556.38
62.6453	562.39
62.6597	553.51
62.6742	529.11
62.6886	529.27
62.7030	545.59
62.7175	524.81
62.7319	541.12
62.7464	571.80
62.7608	553.00
62.7752	546.45
62.7897	554.66
62.8041	565.89
62.8186	571.14
62.8330	575.44
62.8474	550.13
62.8619	541.87
62.8763	553.54
62.8908	549.68
62.9052	593.01
62.9196	591.74
62.9341	588.15
62.9485	570.23
62.9630	556.53
62.9774	544.27
62.9918	570.84
63.0063	537.68
63.0207	553.65
63.0352	584.59
63.0496	564.13
63.0640	548.59
63.0785	536.64
63.0929	592.40
63.1074	592.28
63.1218	573.96
63.1362	545.93
63.1507	544.40
63.1651	551.82
63.1796	600.44
63.1940	559.07
63.2084	556.26
63.2229	580.25
63.2373	559.77
63.2518	572.41
63.2662	524.73
63.2806	554.94
63.2951	579.10
63.3095	586.73
63.3240	592.85
63.3384	576.35
63.3528	571.00
63.3673	587.91
63.3817	521.13
63.3962	583.31
63.4106	588.20
63.4250	606.82
63.4395	567.34
63.4539	565.75
63.4684	581.85
63.4828	590.93
63.4972	572.75
63.5117	573.02
63.5261	546.58
63.5406	592.11
63.5550	581.62
63.5694	564.29
63.5839	567.08
63.5983	577.41
63.6128	590.70
63.6272	574.66
63.6416	590.70
63.6561	590.91
63.6705	570.69
63.6850	528.92
63.6994	609.82
63.7138	617.68
63.7283	583.18
63.7427	587.42
63.7572	585.82
63.7716	585.28
63.7861	597.08
63.8005	574.22
63.8149	606.37
63.8294	612.06
63.8438	577.42
63.8583	639.05
63.8727	604.24
63.8871	596.04
63.9016	606.75
63.9160	586.25
63.9305	644.82
63.9449	596.55
63.9593	601.79
63.9738	605.27
63.9882	613.56
64.0027	600.68
64.0171	624.58
64.0315	641.54
64.0460	644.23
64.0604	628.82
64.0749	579.69
64.0893	647.84
64.1037	692.59
64.1182	692.34
64.1326	692.12
64.1471	663.98
64.1615	729.51
64.1759	753.61
64.1904	779.05
64.2048	733.11
64.2193	764.86
64.2337	722.77
64.2481	744.55
64.2626	752.94
64.2770	728.05
64.2915	745.91
64.3059	738.94
64.3203	749.42
64.3348	798.93
64.3492	777.19
64.3637	766.50
64.3781	785.12
64.3925	760.65
64.4070	730.68
64.4214	769.40
64.4359	773.28
64.4503	764.07
64.4647	768.78
64.4792	772.61
64.4936	742.58
64.5081	774.04
64.5225	721.83
64.5369	762.02
64.5514	714.34
64.5658	710.49
64.5803	663.76
64.5947	664.64
64.6091	707.15
64.6236	691.76
64.6380	668.70
64.6525	702.93
64.6669	686.48
64.6813	722.61
64.6958	703.33
64.7102	709.84
64.7247	694.92
64.7391	673.14
64.7535	738.56
64.7680	717.63
64.7824	754.36
64.7969	788.35
64.8113	730.95
64.8257	806.33
64.8402	831.86
64.8546	872.99
64.8691	861.71
64.8835	870.77
64.8979	900.95
64.9124	900.49
64.9268	908.60
64.9413	926.56
64.9557	964.47
64.9701	992.47
64.9846	1095.35
64.9990	1132.62
65.0135	1318.52
65.0279	1540.49
65.0423	1762.45
65.0568	2175.30
65.0712	2681.68
65.0857	3619.28
65.1001	4812.24
65.1145	6571.56
65.1290	8347.96
65.1434	9917.02
65.1579	11447.97
65.1723	11972.76
65.1867	11296.14
65.2012	9900.99
65.2156	8124.77
65.2301	6404.45
65.2445	5209.47
65.2589	4367.96
65.2734	4188.26
65.2878	4532.76
65.3023	5294.74
65.3167	5949.71
65.3311	6762.96
65.3456	7030.14
65.3600	6990.47
65.3745	6274.03
65.3889	5346.19
65.4033	4256.32
65.4178	3335.27
65.4322	2635.21
65.4467	2097.05
65.4611	1702.47
65.4755	1436.83
65.4900	1281.79
65.5044	1118.40
65.5189	1036.44
65.5333	969.85
65.5477	907.85
65.5622	839.99
65.5766	794.06
65.5911	826.35
65.6055	795.35
65.6199	818.20
65.6344	775.48
65.6488	780.03
65.6633	762.42
65.6777	733.72
65.6921	731.27
65.7066	694.38
65.7210	698.09
65.7355	671.20
65.7499	740.16
65.7643	647.86
65.7788	653.06
65.7932	638.99
65.8077	722.52
65.8221	697.93
65.8365	668.96
65.8510	621.02
65.8654	661.76
65.8799	647.72
65.8943	694.69
65.9087	634.09
65.9232	620.39
65.9376	645.01
65.9521	630.90
65.9665	586.69
65.9809	600.01
65.9954	596.49
66.0098	585.33
66.0243	637.21
66.0387	641.31
66.0531	611.39
66.0676	628.98
66.0820	627.71
66.0965	648.16
66.1109	634.49
66.1253	641.53
66.1398	615.51
66.1542	604.88
66.1687	667.23
66.1831	645.13
66.1975	630.41
66.2120	630.82
66.2264	590.97
66.2409	623.24
66.2553	621.50
66.2697	634.89
66.2842	619.06
66.2986	629.69
66.3131	627.31
66.3275	619.11
66.3419	622.94
66.3564	610.51
66.3708	588.07
66.3853	597.05
66.3997	591.63
66.4141	597.45
66.4286	636.15
66.4430	567.01
66.4575	555.72
66.4719	608.36
66.4863	567.08
66.5008	617.85
66.5152	577.32
66.5297	568.31
66.5441	565.96
66.5585	615.89
66.5730	590.30
66.5874	602.21
66.6019	576.05
66.6163	587.75
66.6307	595.25
66.6452	596.63
66.6596	607.06
66.6741	595.34
66.6885	594.97
66.7029	605.32
66.7174	581.05
66.7318	594.90
66.7463	560.20
66.7607	570.97
66.7751	567.73
66.7896	564.34
66.8040	564.40
66.8185	614.69
66.8329	596.89
66.8473	612.39
66.8618	601.71
66.8762	609.93
66.8907	573.54
66.9051	596.35
66.9195	591.90
66.9340	574.83
66.9484	580.81
66.9629	575.36
66.9773	583.25
66.9917	580.89
67.0062	556.29
67.0206	557.75
67.0351	589.99
67.0495	568.07
67.0639	610.54
67.0784	596.73
67.0928	613.64
67.1073	577.08
67.1217	610.14
67.1361	569.54
67.1506	557.78
67.1650	593.77
67.1795	581.58
67.1939	576.25
67.2083	541.26
67.2228	542.65
67.2372	539.42
67.2517	564.60
67.2661	571.33
67.2805	576.24
67.2950	577.08
67.3094	565.73
67.3239	597.09
67.3383	579.17
67.3527	586.68
67.3672	565.91
67.3816	591.77
67.3961	564.45
67.4105	548.79
67.4250	607.47
67.4394	599.93
67.4538	610.83
67.4683	610.70
67.4827	580.17
67.4972	572.85
67.5116	556.97
67.5260	555.49
67.5405	589.62
67.5549	537.47
67.5694	574.04
67.5838	578.42
67.5982	607.95
67.6127	594.96
67.6271	581.51
67.6416	595.03
67.6560	583.78
67.6704	586.18
67.6849	568.43
67.6993	562.64
67.7138	600.42
67.7282	574.01
67.7426	582.19
67.7571	535.78
67.7715	532.19
67.7860	545.30
67.8004	561.47
67.8148	597.72
67.8293	609.16
67.8437	542.87
67.8582	585.60
67.8726	598.38
67.8870	584.42
67.9015	559.97
67.9159	584.84
67.9304	587.92
67.9448	596.63
67.9592	571.94
67.9737	588.74
67.9881	602.19
68.0026	576.17
68.0170	595.23
68.0314	594.06
68.0459	575.07
68.0603	590.57
68.0748	614.94
68.0892	629.78
68.1036	561.09
68.1181	593.66
68.1325	584.00
68.1470	556.84
68.1614	585.13
68.1758	561.79
68.1903	575.73
68.2047	603.51
68.2192	603.45
68.2336	584.64
68.2480	571.10
68.2625	571.63
68.2769	559.28
68.2914	559.51
68.3058	602.27
68.3202	566.38
68.3347	578.24
68.3491	592.72
68.3636	568.46
68.3780	541.98
68.3924	553.56
68.4069	573.40
68.4213	584.17
68.4358	569.35
68.4502	583.56
68.4646	552.78
68.4791	577.08
68.4935	568.75
68.5080	579.43
68.5224	540.52
68.5368	633.58
68.5513	543.47
68.5657	522.59
68.5802	537.58
68.5946	563.96
68.6090	582.23
68.6235	540.78
68.6379	558.55
68.6524	584.97
68.6668	571.55
68.6812	560.47
68.6957	576.20
68.7101	594.54
68.7246	577.27
68.7390	596.91
68.7534	567.25
68.7679	580.21
68.7823	645.36
68.7968	596.04
68.8112	616.26
68.8256	583.13
68.8401	602.27
68.8545	559.10
68.8690	575.10
68.8834	544.60
68.8978	601.25
68.9123	563.83
68.9267	560.95
68.9412	609.06
68.9556	531.62
68.9700	579.82
68.9845	557.72
68.9989	579.01
69.0134	582.93
69.0278	574.87
69.0422	614.42
69.0567	614.29
69.0711	622.80
69.0856	575.16
69.1000	598.39
69.1144	597.88
69.1289	617.22
69.1433	559.68
69.1578	579.09
69.1722	615.10
69.1866	538.25
69.2011	555.67
69.2155	584.11
69.2300	568.90
69.2444	565.49
69.2588	588.54
69.2733	529.39
69.2877	584.86
69.3022	523.99
69.3166	610.84
69.3310	541.06
69.3455	581.38
69.3599	576.91
69.3744	563.76
69.3888	567.16
69.4032	591.59
69.4177	596.67
69.4321	570.14
69.4466	529.41
69.4610	585.05
69.4754	566.08
69.4899	566.27
69.5043	517.84
69.5188	531.98
69.5332	589.36
69.5476	553.51
69.5621	605.69
69.5765	564.17
69.5910	602.37
69.6054	594.72
69.6198	541.63
69.6343	553.43
69.6487	550.19
69.6632	571.85
69.6776	555.35
69.6920	546.78
69.7065	588.67
69.7209	543.26
69.7354	527.47
69.7498	581.01
69.7642	568.48
69.7787	533.40
69.7931	537.73
69.8076	575.45
69.8220	591.90
69.8364	585.73
69.8509	579.72
69.8653	613.78
69.8798	597.56
69.8942	631.12
69.9086	587.37
69.9231	585.96
69.9375	622.11
69.9520	556.16
69.9664	603.21
69.9808	538.72
69.9953	570.67
70.0097	602.42
70.0242	570.06
70.0386	568.98
70.0530	650.06
70.0675	592.29
70.0819	537.38
70.0964	582.97
70.1108	525.32
70.1252	619.83
70.1397	542.96
70.1541	553.98
70.1686	583.78
70.1830	576.20
70.1974	585.96
70.2119	619.64
70.2263	567.48
70.2408	577.63
70.2552	595.00
70.2696	609.70
70.2841	561.56
70.2985	575.42
70.3130	600.51
70.3274	593.45
70.3418	562.19
70.3563	562.01
70.3707	541.10
70.3852	592.54
70.3996	579.89
70.4140	584.84
70.4285	607.55
70.4429	564.86
70.4574	584.80
70.4718	586.86
70.4862	577.43
70.5007	621.62
70.5151	576.08
70.5296	574.57
70.5440	567.20
70.5584	594.30
70.5729	603.89
70.5873	592.74
70.6018	601.38
70.6162	601.82
70.6306	523.12
70.6451	523.55
70.6595	561.16
70.6740	603.47
70.6884	522.36
70.7028	606.09
70.7173	622.83
70.7317	551.70
70.7462	629.44
70.7606	599.72
70.7750	564.25
70.7895	573.11
70.8039	564.85
70.8184	584.09
70.8328	635.80
70.8472	514.59
70.8617	579.21
70.8761	617.02
70.8906	581.87
70.9050	599.64
70.9194	571.98
70.9339	622.37
70.9483	625.00
70.9628	594.29
70.9772	566.88
70.9916	562.60
71.0061	569.41
71.0205	556.47
71.0350	593.06
71.0494	584.92
71.0638	596.99
71.0783	600.04
71.0927	612.47
71.1072	625.26
71.1216	630.15
71.1361	633.12
71.1505	616.59
71.1649	574.06
71.1794	566.08
71.1938	632.72
71.2083	619.46
71.2227	576.00
71.2371	577.99
71.2516	620.60
71.2660	599.82
71.2805	551.49
71.2949	522.84
71.3093	546.33
71.3238	539.71
71.3382	568.96
71.3527	595.39
71.3671	596.73
71.3815	538.71
71.3960	556.29
71.4104	579.27
71.4249	601.74
71.4393	619.63
71.4537	556.89
71.4682	533.12
71.4826	561.74
71.4971	587.52
71.5115	521.04
71.5259	468.00
71.5404	496.48
71.5548	539.59
71.5693	541.22
71.5837	543.46
71.5981	509.42
71.6126	532.38
71.6270	577.17
71.6415	592.24
71.6559	551.90
71.6703	515.64
71.6848	538.42
71.6992	640.11
71.7137	646.95
71.7281	547.82
71.7425	563.53
71.7570	566.67
71.7714	543.64
71.7859	573.27
71.8003	566.95
71.8147	598.98
71.8292	633.73
71.8436	573.81
71.8581	600.73
71.8725	630.41
71.8869	604.37
71.9014	609.60
71.9158	564.57
71.9303	536.03
71.9447	567.62
71.9591	580.20
71.9736	599.69
71.9880	586.59
72.0025	561.92
72.0169	546.32
72.0313	537.41
72.0458	531.35
72.0602	600.41
72.0747	651.26
72.0891	701.41
72.1035	729.48
72.1180	641.48
72.1324	523.94
72.1469	545.42
72.1613	559.33
72.1757	636.80
72.1902	703.91
72.2046	626.29
72.2191	576.53
72.2335	574.63
72.2479	533.94
72.2624	509.87
72.2768	544.78
72.2913	551.30
72.3057	560.35
72.3201	599.74
72.3346	585.93
72.3490	619.07
72.3635	597.14
72.3779	508.55
72.3923	515.66
72.4068	613.27
72.4212	617.43
72.4357	596.79
72.4501	584.24
72.4645	578.50
72.4790	561.01
72.4934	503.07
72.5079	479.04
72.5223	481.18
72.5367	494.72
72.5512	617.88
72.5656	570.54
72.5801	506.64
72.5945	536.81
72.6089	522.44
72.6234	604.73
72.6378	622.39
72.6523	528.00
72.6667	574.53
72.6811	637.27
72.6956	667.46
72.7100	624.54
72.7245	521.18
72.7389	569.89
72.7533	600.06
72.7678	618.44
72.7822	631.63
72.7967	590.81
72.8111	662.63
72.8255	661.14
72.8400	639.41
72.8544	611.48
72.8689	578.50
72.8833	530.44