2022.09.19 19:37:16
Îáðàçåö: ß÷åéêà LCoV 16-09-2022
Lambda1 = 1.54060
Lambda2 = 1.54439
Lambdam = 1.54186
R = 0.497
2Theta	I

line¹ 0 ;repeat¹ 0
22.1120	565.61
22.1264	642.73
22.1409	562.89
22.1553	521.45
22.1697	520.21
22.1842	598.05
22.1986	638.38
22.2131	564.36
22.2275	527.17
22.2419	533.71
22.2564	578.88
22.2708	539.14
22.2853	618.32
22.2997	489.57
22.3141	507.74
22.3286	621.44
22.3430	601.23
22.3575	665.17
22.3719	601.06
22.3863	480.00
22.4008	514.59
22.4152	611.11
22.4297	536.74
22.4441	548.26
22.4585	649.89
22.4730	573.87
22.4874	654.98
22.5019	500.69
22.5163	532.85
22.5307	568.99
22.5452	571.89
22.5596	623.81
22.5741	601.68
22.5885	560.56
22.6029	535.43
22.6174	496.39
22.6318	535.70
22.6463	582.07
22.6607	578.36
22.6751	570.83
22.6896	504.29
22.7040	568.89
22.7185	545.28
22.7329	587.00
22.7473	600.32
22.7618	522.82
22.7762	509.98
22.7907	624.05
22.8051	623.79
22.8195	590.77
22.8340	566.42
22.8484	560.75
22.8629	570.79
22.8773	560.62
22.8917	532.01
22.9062	582.28
22.9206	599.55
22.9351	555.17
22.9495	467.19
22.9639	503.01
22.9784	556.23
22.9928	566.89
23.0073	536.92
23.0217	617.24
23.0361	556.83
23.0506	545.28
23.0650	621.57
23.0795	594.83
23.0939	621.10
23.1083	566.95
23.1228	566.91
23.1372	528.78
23.1517	600.32
23.1661	564.39
23.1806	593.75
23.1950	518.72
23.2094	560.42
23.2239	496.15
23.2383	576.85
23.2528	526.76
23.2672	631.88
23.2816	586.92
23.2961	546.22
23.3105	554.66
23.3250	514.52
23.3394	501.34
23.3538	524.05
23.3683	563.91
23.3827	526.97
23.3972	564.16
23.4116	527.86
23.4260	559.26
23.4405	574.19
23.4549	518.31
23.4694	566.37
23.4838	549.30
23.4982	563.44
23.5127	511.45
23.5271	521.94
23.5416	583.08
23.5560	541.60
23.5704	590.00
23.5849	573.73
23.5993	559.18
23.6138	565.36
23.6282	563.47
23.6426	550.87
23.6571	532.71
23.6715	506.49
23.6860	543.73
23.7004	542.22
23.7148	472.06
23.7293	584.39
23.7437	653.00
23.7582	600.32
23.7726	583.65
23.7870	590.49
23.8015	612.26
23.8159	520.86
23.8304	481.74
23.8448	509.89
23.8592	564.18
23.8737	577.50
23.8881	514.29
23.9026	556.32
23.9170	513.54
23.9314	509.87
23.9459	485.35
23.9603	531.43
23.9748	569.87
23.9892	528.27
24.0036	553.60
24.0181	531.92
24.0325	526.68
24.0470	535.27
24.0614	557.27
24.0758	532.26
24.0903	620.26
24.1047	564.04
24.1192	596.76
24.1336	612.38
24.1480	549.64
24.1625	586.27
24.1769	556.51
24.1914	597.91
24.2058	583.28
24.2202	533.58
24.2347	607.69
24.2491	580.58
24.2636	572.43
24.2780	629.86
24.2924	602.84
24.3069	590.91
24.3213	556.32
24.3358	594.73
24.3502	590.14
24.3646	556.20
24.3791	521.63
24.3935	503.14
24.4080	499.74
24.4224	573.69
24.4368	568.41
24.4513	554.02
24.4657	566.81
24.4802	541.12
24.4946	582.07
24.5090	522.16
24.5235	554.94
24.5379	571.67
24.5524	549.11
24.5668	671.61
24.5812	543.25
24.5957	593.74
24.6101	532.00
24.6246	581.50
24.6390	570.65
24.6534	529.81
24.6679	527.79
24.6823	506.25
24.6968	571.69
24.7112	532.40
24.7256	555.18
24.7401	545.44
24.7545	571.78
24.7690	531.25
24.7834	499.15
24.7978	508.11
24.8123	557.96
24.8267	541.53
24.8412	526.95
24.8556	576.13
24.8700	530.68
24.8845	548.50
24.8989	557.07
24.9134	584.31
24.9278	528.95
24.9422	526.75
24.9567	511.45
24.9711	548.05
24.9856	534.27
25.0000	556.73
25.0144	591.08
25.0289	483.96
25.0433	523.30
25.0578	525.42
25.0722	553.14
25.0866	536.66
25.1011	583.92
25.1155	557.51
25.1300	576.78
25.1444	557.09
25.1588	507.83
25.1733	530.00
25.1877	511.44
25.2022	525.70
25.2166	576.21
25.2310	580.63
25.2455	561.74
25.2599	544.30
25.2744	531.59
25.2888	544.45
25.3032	524.44
25.3177	560.00
25.3321	513.23
25.3466	522.43
25.3610	550.42
25.3754	498.90
25.3899	534.86
25.4043	512.91
25.4188	534.55
25.4332	553.76
25.4476	540.65
25.4621	556.69
25.4765	520.61
25.4910	539.05
25.5054	564.24
25.5198	570.43
25.5343	572.44
25.5487	519.87
25.5632	492.15
25.5776	535.99
25.5920	538.80
25.6065	533.41
25.6209	565.58
25.6354	564.69
25.6498	573.80
25.6642	564.13
25.6787	561.70
25.6931	534.56
25.7076	547.29
25.7220	544.20
25.7364	516.21
25.7509	537.05
25.7653	557.15
25.7798	566.85
25.7942	521.89
25.8086	516.96
25.8231	542.88
25.8375	525.66
25.8520	530.05
25.8664	524.69
25.8808	532.15
25.8953	545.96
25.9097	496.39
25.9242	516.46
25.9386	534.83
25.9530	486.06
25.9675	510.93
25.9819	515.70
25.9964	489.03
26.0108	483.87
26.0252	553.78
26.0397	564.63
26.0541	540.12
26.0686	528.52
26.0830	564.85
26.0974	546.55
26.1119	565.08
26.1263	574.95
26.1408	515.88
26.1552	514.05
26.1696	535.45
26.1841	512.52
26.1985	514.23
26.2130	528.28
26.2274	503.09
26.2418	538.23
26.2563	548.82
26.2707	562.21
26.2852	547.28
26.2996	528.53
26.3140	534.60
26.3285	516.26
26.3429	508.32
26.3574	549.09
26.3718	558.11
26.3862	547.72
26.4007	528.94
26.4151	522.23
26.4296	525.20
26.4440	520.51
26.4584	531.45
26.4729	535.24
26.4873	543.55
26.5018	523.60
26.5162	526.29
26.5306	533.76
26.5451	553.02
26.5595	536.06
26.5740	518.54
26.5884	518.05
26.6028	545.95
26.6173	567.39
26.6317	536.73
26.6462	503.21
26.6606	516.00
26.6750	527.21
26.6895	549.75
26.7039	531.02
26.7184	533.25
26.7328	553.50
26.7472	540.58
26.7617	521.98
26.7761	526.84
26.7906	512.84
26.8050	533.15
26.8194	536.06
26.8339	551.88
26.8483	540.09
26.8628	543.54
26.8772	550.59
26.8917	536.19
26.9061	513.24
26.9205	501.85
26.9350	525.63
26.9494	538.44
26.9639	540.40
26.9783	515.04
26.9927	526.90
27.0072	503.12
27.0216	507.77
27.0361	489.73
27.0505	529.10
27.0649	513.05
27.0794	510.80
27.0938	530.26
27.1083	528.43
27.1227	548.70
27.1371	519.02
27.1516	503.90
27.1660	499.53
27.1805	510.64
27.1949	502.88
27.2093	488.50
27.2238	500.82
27.2382	498.35
27.2527	514.83
27.2671	491.15
27.2815	507.69
27.2960	524.92
27.3104	530.27
27.3249	510.38
27.3393	536.00
27.3537	540.33
27.3682	541.25
27.3826	526.21
27.3971	521.84
27.4115	556.57
27.4259	513.60
27.4404	496.83
27.4548	518.52
27.4693	532.47
27.4837	503.99
27.4981	508.32
27.5126	536.77
27.5270	523.61
27.5415	523.40
27.5559	534.34
27.5703	519.11
27.5848	528.62
27.5992	527.66
27.6137	521.44
27.6281	503.42
27.6425	499.73
27.6570	505.15
27.6714	493.81
27.6859	502.53
27.7003	527.06
27.7147	527.24
27.7292	537.27
27.7436	534.11
27.7581	495.76
27.7725	524.14
27.7869	507.94
27.8014	522.21
27.8158	547.73
27.8303	548.20
27.8447	546.93
27.8591	554.43
27.8736	562.63
27.8880	521.69
27.9025	526.50
27.9169	504.53
27.9313	488.12
27.9458	559.49
27.9602	492.54
27.9747	504.97
27.9891	495.37
28.0035	483.08
28.0180	501.59
28.0324	518.90
28.0469	516.82
28.0613	515.56
28.0757	490.84
28.0902	519.63
28.1046	520.59
28.1191	524.77
28.1335	506.10
28.1479	502.81
28.1624	515.61
28.1768	522.93
28.1913	503.16
28.2057	522.76
28.2201	547.86
28.2346	553.53
28.2490	496.93
28.2635	545.04
28.2779	537.84
28.2923	500.47
28.3068	489.55
28.3212	515.53
28.3357	533.99
28.3501	563.01
28.3645	555.16
28.3790	477.54
28.3934	485.07
28.4079	512.11
28.4223	491.62
28.4367	504.96
28.4512	507.33
28.4656	538.00
28.4801	506.25
28.4945	512.73
28.5089	508.71
28.5234	506.76
28.5378	515.22
28.5523	492.32
28.5667	515.06
28.5811	505.28
28.5956	529.30
28.6100	521.61
28.6245	527.53
28.6389	513.63
28.6533	564.16
28.6678	521.91
28.6822	506.85
28.6967	504.41
28.7111	565.03
28.7255	512.50
28.7400	534.48
28.7544	521.73
28.7689	489.53
28.7833	530.79
28.7977	496.05
28.8122	522.79
28.8266	510.94
28.8411	481.98
28.8555	515.55
28.8699	541.90
28.8844	528.18
28.8988	520.21
28.9133	551.57
28.9277	505.57
28.9421	472.43
28.9566	519.29
28.9710	510.85
28.9855	487.63
28.9999	500.03
29.0143	482.22
29.0288	541.14
29.0432	531.19
29.0577	499.39
29.0721	485.09
29.0865	521.91
29.1010	499.65
29.1154	484.23
29.1299	529.32
29.1443	499.43
29.1587	477.35
29.1732	507.16
29.1876	521.96
29.2021	468.33
29.2165	476.32
29.2309	518.31
29.2454	504.39
29.2598	541.19
29.2743	509.50
29.2887	522.09
29.3031	522.27
29.3176	484.50
29.3320	512.72
29.3465	491.33
29.3609	533.88
29.3753	497.66
29.3898	495.45
29.4042	487.02
29.4187	481.69
29.4331	501.86
29.4475	494.86
29.4620	513.37
29.4764	529.38
29.4909	518.72
29.5053	518.82
29.5197	496.13
29.5342	504.49
29.5486	499.13
29.5631	501.74
29.5775	488.03
29.5919	526.64
29.6064	530.01
29.6208	544.28
29.6353	483.89
29.6497	465.23
29.6641	495.69
29.6786	537.08
29.6930	505.84
29.7075	481.51
29.7219	487.06
29.7363	493.21
29.7508	508.88
29.7652	497.04
29.7797	537.48
29.7941	513.65
29.8085	472.21
29.8230	521.81
29.8374	561.27
29.8519	502.16
29.8663	490.65
29.8807	503.92
29.8952	504.89
29.9096	520.92
29.9241	498.11
29.9385	509.70
29.9529	525.03
29.9674	516.96
29.9818	489.76
29.9963	520.95
30.0107	469.43
30.0251	479.59
30.0396	541.18
30.0540	544.80
30.0685	494.55
30.0829	505.70
30.0973	544.17
30.1118	472.18
30.1262	487.26
30.1407	512.16
30.1551	511.48
30.1695	538.56
30.1840	543.50
30.1984	524.39
30.2129	533.11
30.2273	536.82
30.2417	519.29
30.2562	510.75
30.2706	518.56
30.2851	521.36
30.2995	500.52
30.3139	499.97
30.3284	493.87
30.3428	516.79
30.3573	532.35
30.3717	510.91
30.3861	496.77
30.4006	431.37
30.4150	486.76
30.4295	510.53
30.4439	474.92
30.4583	478.17
30.4728	523.96
30.4872	507.87
30.5017	472.29
30.5161	515.78
30.5305	522.51
30.5450	496.18
30.5594	509.01
30.5739	502.48
30.5883	513.55
30.6028	511.99
30.6172	504.15
30.6316	507.48
30.6461	537.19
30.6605	489.65
30.6750	521.23
30.6894	514.62
30.7038	530.48
30.7183	501.74
30.7327	564.67
30.7472	560.27
30.7616	541.23
30.7760	566.35
30.7905	573.27
30.8049	597.83
30.8194	588.08
30.8338	575.31
30.8482	633.78
30.8627	663.20
30.8771	625.77
30.8916	653.28
30.9060	712.24
30.9204	678.29
30.9349	662.67
30.9493	697.31
30.9638	639.99
30.9782	637.93
30.9926	625.84
31.0071	621.32
31.0215	630.30
31.0360	581.54
31.0504	585.09
31.0648	582.72
31.0793	554.33
31.0937	587.95
31.1082	559.42
31.1226	548.51
31.1370	549.51
31.1515	517.12
31.1659	502.11
31.1804	556.81
31.1948	536.08
31.2092	502.00
31.2237	532.20
31.2381	554.88
31.2526	519.81
31.2670	511.49
31.2814	515.35
31.2959	527.00
31.3103	510.35
31.3248	528.16
31.3392	548.70
31.3536	559.83
31.3681	549.98
31.3825	521.46
31.3970	523.43
31.4114	516.33
31.4258	535.99
31.4403	534.99
31.4547	471.15
31.4692	507.99
31.4836	548.12
31.4980	533.27
31.5125	510.26
31.5269	514.59
31.5414	513.25
31.5558	490.79
31.5702	520.80
31.5847	511.15
31.5991	496.75
31.6136	547.40
31.6280	487.26
31.6424	458.45
31.6569	477.86
31.6713	477.03
31.6858	535.37
31.7002	533.32
31.7146	492.62
31.7291	527.40
31.7435	492.20
31.7580	489.23
31.7724	501.07
31.7868	495.58
31.8013	483.55
31.8157	506.20
31.8302	466.44
31.8446	495.26
31.8590	526.40
31.8735	528.04
31.8879	486.91
31.9024	504.98
31.9168	506.16
31.9312	526.72
31.9457	501.53
31.9601	506.18
31.9746	524.00
31.9890	503.50
32.0034	505.61
32.0179	480.93
32.0323	506.24
32.0468	499.37
32.0612	516.88
32.0756	510.66
32.0901	524.23
32.1045	508.10
32.1190	562.85
32.1334	507.34
32.1478	473.75
32.1623	532.63
32.1767	544.17
32.1912	523.44
32.2056	505.46
32.2200	503.70
32.2345	499.85
32.2489	504.99
32.2634	504.40
32.2778	526.96
32.2922	505.93
32.3067	525.70
32.3211	547.58
32.3356	508.45
32.3500	483.63
32.3644	484.15
32.3789	509.76
32.3933	475.27
32.4078	503.09
32.4222	541.76
32.4366	495.94
32.4511	484.16
32.4655	502.89
32.4800	487.86
32.4944	493.80
32.5088	499.57
32.5233	498.30
32.5377	478.68
32.5522	503.78
32.5666	496.65
32.5810	465.15
32.5955	481.70
32.6099	486.36
32.6244	500.59
32.6388	500.95
32.6532	481.72
32.6677	478.70
32.6821	488.54
32.6966	521.65
32.7110	514.73
32.7254	516.84
32.7399	475.60
32.7543	508.43
32.7688	489.87
32.7832	488.70
32.7976	505.81
32.8121	481.16
32.8265	499.58
32.8410	514.70
32.8554	536.64
32.8698	510.63
32.8843	488.75
32.8987	510.35
32.9132	542.58
32.9276	482.06
32.9420	506.11
32.9565	493.75
32.9709	433.13
32.9854	469.30
32.9998	507.23
33.0142	525.09
33.0287	499.36
33.0431	497.05
33.0576	508.21
33.0720	480.30
33.0864	509.48
33.1009	510.96
33.1153	513.38
33.1298	523.95
33.1442	483.10
33.1586	462.72
33.1731	485.97
33.1875	507.67
33.2020	508.62
33.2164	517.15
33.2308	476.77
33.2453	514.39
33.2597	520.79
33.2742	506.00
33.2886	507.09
33.3030	482.75
33.3175	529.11
33.3319	539.74
33.3464	483.28
33.3608	504.27
33.3752	503.82
33.3897	498.23
33.4041	484.44
33.4186	550.67
33.4330	530.99
33.4474	476.60
33.4619	476.17
33.4763	502.50
33.4908	498.91
33.5052	498.46
33.5196	498.08
33.5341	477.47
33.5485	521.89
33.5630	497.53
33.5774	479.71
33.5918	503.82
33.6063	498.90
33.6207	509.91
33.6352	519.10
33.6496	502.17
33.6640	514.02
33.6785	507.17
33.6929	508.07
33.7074	503.59
33.7218	505.25
33.7362	519.30
33.7507	540.96
33.7651	518.01
33.7796	496.69
33.7940	482.63
33.8084	540.81
33.8229	530.69
33.8373	528.15
33.8518	488.02
33.8662	499.05
33.8806	499.49
33.8951	455.68
33.9095	474.59
33.9240	475.85
33.9384	526.59
33.9528	528.17
33.9673	526.78
33.9817	505.95
33.9962	489.10
34.0106	496.40
34.0250	507.07
34.0395	489.29
34.0539	504.97
34.0684	486.52
34.0828	506.38
34.0972	489.32
34.1117	463.99
34.1261	495.05
34.1406	507.46
34.1550	506.11
34.1694	495.45
34.1839	509.66
34.1983	496.58
34.2128	508.82
34.2272	535.79
34.2417	527.59
34.2561	477.91
34.2705	491.63
34.2850	493.73
34.2994	499.07
34.3139	513.09
34.3283	546.20
34.3427	561.57
34.3572	522.50
34.3716	519.56
34.3861	489.44
34.4005	489.41
34.4149	517.33
34.4294	497.94
34.4438	489.52
34.4583	489.47
34.4727	522.71
34.4871	534.58
34.5016	535.46
34.5160	528.75
34.5305	497.90
34.5449	493.22
34.5593	528.88
34.5738	511.83
34.5882	537.56
34.6027	522.75
34.6171	518.76
34.6315	545.37
34.6460	529.78
34.6604	512.24
34.6749	496.60
34.6893	476.53
34.7037	515.12
34.7182	516.97
34.7326	509.20
34.7471	514.97
34.7615	489.98
34.7759	505.23
34.7904	522.82
34.8048	518.03
34.8193	533.64
34.8337	496.77
34.8481	489.08
34.8626	533.67
34.8770	522.57
34.8915	488.27
34.9059	495.07
34.9203	515.80
34.9348	526.19
34.9492	508.43
34.9637	505.26
34.9781	517.16
34.9925	499.14
35.0070	514.32
35.0214	545.71
35.0359	521.76
35.0503	506.32
35.0647	501.27
35.0792	506.06
35.0936	529.29
35.1081	526.83
35.1225	522.40
35.1369	544.70
35.1514	496.39
35.1658	523.86
35.1803	529.98
35.1947	545.07
35.2091	561.11
35.2236	548.44
35.2380	531.98
35.2525	518.02
35.2669	485.04
35.2813	522.65
35.2958	534.29
35.3102	536.42
35.3247	525.17
35.3391	514.21
35.3535	531.58
35.3680	520.95
35.3824	481.26
35.3969	490.47
35.4113	503.75
35.4257	520.37
35.4402	549.21
35.4546	531.72
35.4691	538.89
35.4835	500.63
35.4979	515.62
35.5124	541.42
35.5268	517.67
35.5413	535.21
35.5557	579.76
35.5701	551.09
35.5846	518.50
35.5990	500.26
35.6135	496.46
35.6279	519.60
35.6423	531.05
35.6568	529.14
35.6712	536.66
35.6857	582.12
35.7001	667.26
35.7145	707.27
35.7290	665.48
35.7434	596.29
35.7579	557.00
35.7723	568.63
35.7867	636.92
35.8012	663.83
35.8156	631.32
35.8301	620.91
35.8445	597.67
35.8589	631.16
35.8734	700.95
35.8878	882.95
35.9023	1039.27
35.9167	1084.36
35.9311	1553.19
35.9456	2440.00
35.9600	2405.04
35.9745	1891.01
35.9889	1781.66
36.0033	2192.93
36.0178	2198.36
36.0322	1951.79
36.0467	1796.92
36.0611	1618.74
36.0755	1583.78
36.0900	1501.45
36.1044	1294.62
36.1189	1240.97
36.1333	1135.05
36.1477	1018.57
36.1622	1045.83
36.1766	943.78
36.1911	834.23
36.2055	731.84
36.2199	722.80
36.2344	717.82
36.2488	735.44
36.2633	691.56
36.2777	727.94
36.2921	809.63
36.3066	812.12
36.3210	867.75
36.3355	877.24
36.3499	897.44
36.3643	959.85
36.3788	987.92
36.3932	959.28
36.4077	943.03
36.4221	1012.26
36.4365	939.81
36.4510	937.90
36.4654	898.79
36.4799	874.41
36.4943	835.82
36.5087	847.05
36.5232	814.31
36.5376	784.74
36.5521	727.07
36.5665	682.90
36.5809	651.03
36.5954	627.01
36.6098	609.42
36.6243	586.06
36.6387	603.24
36.6531	597.76
36.6676	561.39
36.6820	578.82
36.6965	556.50
36.7109	548.67
36.7253	564.51
36.7398	542.62
36.7542	549.88
36.7687	544.85
36.7831	567.90
36.7975	555.34
36.8120	568.01
36.8264	582.51
36.8409	584.54
36.8553	601.13
36.8697	634.19
36.8842	615.98
36.8986	620.81
36.9131	594.80
36.9275	600.87
36.9419	627.89
36.9564	593.78
36.9708	574.92
36.9853	590.36
36.9997	564.83
37.0141	531.25
37.0286	553.53
37.0430	540.71
37.0575	541.40
37.0719	529.20
37.0863	512.31
37.1008	535.93
37.1152	505.61
37.1297	549.02
37.1441	506.66
37.1585	542.46
37.1730	519.46
37.1874	536.38
37.2019	528.61
37.2163	550.36
37.2307	509.71
37.2452	548.88
37.2596	532.40
37.2741	487.68
37.2885	472.01
37.3029	488.92
37.3174	472.68
37.3318	509.88
37.3463	529.20
37.3607	493.48
37.3751	497.17
37.3896	463.97
37.4040	490.52
37.4185	536.99
37.4329	539.09
37.4473	513.81
37.4618	520.08
37.4762	513.35
37.4907	498.86
37.5051	497.02
37.5195	503.36
37.5340	522.87
37.5484	528.74
37.5629	546.48
37.5773	505.12
37.5917	476.74
37.6062	484.02
37.6206	499.38
37.6351	508.22
37.6495	495.30
37.6639	508.27
37.6784	468.97
37.6928	480.62
37.7073	523.44
37.7217	512.60
37.7361	507.24
37.7506	508.61
37.7650	508.07
37.7795	510.01
37.7939	490.56
37.8083	510.97
37.8228	505.09
37.8372	502.71
37.8517	450.90
37.8661	463.41
37.8805	487.19
37.8950	527.61
37.9094	502.64
37.9239	492.37
37.9383	473.47
37.9528	534.10
37.9672	543.98
37.9816	506.00
37.9961	511.14
38.0105	506.03
38.0250	533.43
38.0394	517.50
38.0538	496.97
38.0683	509.93
38.0827	516.27
38.0972	532.69
38.1116	508.39
38.1260	510.60
38.1405	528.71
38.1549	514.99
38.1694	523.02
38.1838	503.59
38.1982	519.78
38.2127	533.87
38.2271	497.31
38.2416	504.17
38.2560	484.25
38.2704	462.45
38.2849	482.43
38.2993	521.74
38.3138	481.29
38.3282	489.18
38.3426	514.77
38.3571	518.11
38.3715	497.11
38.3860	510.50
38.4004	502.16
38.4148	552.17
38.4293	592.23
38.4437	587.54
38.4582	597.87
38.4726	671.88
38.4870	723.14
38.5015	739.70
38.5159	781.19
38.5304	834.98
38.5448	821.39
38.5592	777.45
38.5737	750.60
38.5881	742.22
38.6026	700.83
38.6170	700.72
38.6314	704.27
38.6459	678.24
38.6603	629.56
38.6748	617.83
38.6892	599.36
38.7036	560.46
38.7181	529.98
38.7325	503.99
38.7470	519.09
38.7614	508.89
38.7758	508.97
38.7903	500.94
38.8047	519.73
38.8192	519.26
38.8336	491.24
38.8480	508.91
38.8625	538.53
38.8769	513.81
38.8914	490.66
38.9058	480.60
38.9202	496.68
38.9347	514.55
38.9491	508.62
38.9636	511.55
38.9780	511.30
38.9924	496.66
39.0069	500.18
39.0213	523.40
39.0358	526.24
39.0502	486.20
39.0646	490.34
39.0791	505.19
39.0935	512.80
39.1080	517.59
39.1224	549.55
39.1368	527.82
39.1513	511.74
39.1657	506.06
39.1802	516.61
39.1946	509.24
39.2090	496.76
39.2235	501.30
39.2379	506.94
39.2524	483.40
39.2668	493.36
39.2812	496.76
39.2957	501.81
39.3101	506.61
39.3246	515.18
39.3390	528.02
39.3534	525.84
39.3679	522.75
39.3823	546.11
39.3968	525.29
39.4112	514.31
39.4256	511.82
39.4401	476.19
39.4545	469.81
39.4690	541.26
39.4834	536.27
39.4978	483.46
39.5123	488.54
39.5267	493.52
39.5412	483.48
39.5556	532.19
39.5700	465.98
39.5845	454.24
39.5989	469.06
39.6134	495.10
39.6278	520.35
39.6422	507.38
39.6567	490.00
39.6711	535.79
39.6856	478.74
39.7000	527.63
39.7144	510.97
39.7289	486.24
39.7433	500.53
39.7578	512.19
39.7722	483.46
39.7866	523.83
39.8011	499.44
39.8155	512.06
39.8300	506.80
39.8444	505.38
39.8588	521.89
39.8733	515.86
39.8877	485.28
39.9022	513.15
39.9166	495.72
39.9310	476.25
39.9455	473.43
39.9599	477.34
39.9744	473.66
39.9888	494.69
40.0032	475.95
40.0177	470.15
40.0321	494.94
40.0466	481.20
40.0610	508.37
40.0754	494.78
40.0899	535.55
40.1043	467.31
40.1188	524.31
40.1332	488.86
40.1476	489.10
40.1621	500.99
40.1765	477.45
40.1910	489.07
40.2054	473.79
40.2198	505.84
40.2343	536.80
40.2487	520.05
40.2632	498.54
40.2776	482.31
40.2920	490.74
40.3065	460.84
40.3209	500.55
40.3354	491.59
40.3498	496.97
40.3642	487.70
40.3787	520.94
40.3931	510.84
40.4076	497.66
40.4220	471.14
40.4364	505.87
40.4509	493.58
40.4653	519.27
40.4798	496.42
40.4942	495.59
40.5086	479.97
40.5231	490.07
40.5375	518.34
40.5520	461.64
40.5664	498.21
40.5808	505.08
40.5953	509.66
40.6097	524.66
40.6242	492.63
40.6386	488.94
40.6530	514.21
40.6675	503.57
40.6819	472.40
40.6964	496.63
40.7108	565.97
40.7252	485.31
40.7397	467.90
40.7541	462.59
40.7686	493.52
40.7830	494.19
40.7974	494.30
40.8119	510.58
40.8263	525.37
40.8408	517.47
40.8552	486.90
40.8696	521.75
40.8841	501.01
40.8985	517.49
40.9130	498.85
40.9274	480.25
40.9418	506.14
40.9563	527.50
40.9707	528.40
40.9852	506.30
40.9996	449.82
41.0140	506.24
41.0285	528.11
41.0429	481.93
41.0574	454.46
41.0718	502.90
41.0862	520.72
41.1007	522.23
41.1151	496.53
41.1296	505.64
41.1440	501.70
41.1584	494.42
41.1729	486.17
41.1873	475.46
41.2018	490.82
41.2162	506.74
41.2306	487.72
41.2451	481.08
41.2595	492.74
41.2740	513.91
41.2884	510.35
41.3028	472.85
41.3173	470.38
41.3317	513.03
41.3462	522.93
41.3606	486.65
41.3750	529.34
41.3895	502.05
41.4039	531.97
41.4184	522.14
41.4328	525.61
41.4472	511.25
41.4617	505.58
41.4761	505.75
41.4906	512.98
41.5050	496.84
41.5194	467.18
41.5339	497.81
41.5483	492.16
41.5628	520.08
41.5772	465.80
41.5916	483.06
41.6061	525.10
41.6205	499.17
41.6350	494.81
41.6494	451.12
41.6639	494.60
41.6783	493.86
41.6927	490.48
41.7072	520.35
41.7216	477.91
41.7361	504.44
41.7505	516.98
41.7649	495.89
41.7794	495.65
41.7938	502.11
41.8083	526.24
41.8227	513.14
41.8371	498.15
41.8516	526.57
41.8660	527.77
41.8805	532.68
41.8949	534.06
41.9093	504.62
41.9238	526.91
41.9382	565.86
41.9527	533.06
41.9671	535.13
41.9815	520.94
41.9960	563.38
42.0104	565.14
42.0249	566.57
42.0393	553.28
42.0537	575.57
42.0682	568.15
42.0826	593.64
42.0971	599.55
42.1115	568.55
42.1259	612.73
42.1404	594.54
42.1548	595.51
42.1693	633.86
42.1837	676.79
42.1981	769.42
42.2126	829.23
42.2270	935.52
42.2415	1059.12
42.2559	1224.20
42.2703	1353.39
42.2848	1499.89
42.2992	1584.88
42.3137	1619.93
42.3281	1612.88
42.3425	1584.64
42.3570	1449.97
42.3714	1391.39
42.3859	1361.07
42.4003	1336.22
42.4147	1307.78
42.4292	1257.72
42.4436	1182.79
42.4581	1075.97
42.4725	949.55
42.4869	822.52
42.5014	761.58
42.5158	693.83
42.5303	652.81
42.5447	627.78
42.5591	634.86
42.5736	577.66
42.5880	559.01
42.6025	562.08
42.6169	552.45
42.6313	533.46
42.6458	538.71
42.6602	531.92
42.6747	542.93
42.6891	525.26
42.7035	563.66
42.7180	575.43
42.7324	527.52
42.7469	529.42
42.7613	525.53
42.7757	495.04
42.7902	547.99
42.8046	524.43
42.8191	503.09
42.8335	506.18
42.8479	505.22
42.8624	534.70
42.8768	517.09
42.8913	518.38
42.9057	539.19
42.9201	534.60
42.9346	510.38
42.9490	481.55
42.9635	480.05
42.9779	479.51
42.9923	494.39
43.0068	512.60
43.0212	525.78
43.0357	493.29
43.0501	510.65
43.0645	552.06
43.0790	534.87
43.0934	533.82
43.1079	515.82
43.1223	499.40
43.1367	532.37
43.1512	493.79
43.1656	516.57
43.1801	527.96
43.1945	498.54
43.2089	509.48
43.2234	514.41
43.2378	506.68
43.2523	508.69
43.2667	508.40
43.2811	530.61
43.2956	532.60
43.3100	520.20
43.3245	498.94
43.3389	489.92
43.3533	505.41
43.3678	509.97
43.3822	529.18
43.3967	491.25
43.4111	505.99
43.4255	539.67
43.4400	528.11
43.4544	529.17
43.4689	522.34
43.4833	531.64
43.4977	525.13
43.5122	499.71
43.5266	504.83
43.5411	532.43
43.5555	529.49
43.5699	513.01
43.5844	522.54
43.5988	497.08
43.6133	505.48
43.6277	515.94
43.6421	491.10
43.6566	508.36
43.6710	492.83
43.6855	489.44
43.6999	508.66
43.7143	530.14
43.7288	508.20
43.7432	504.10
43.7577	468.69
43.7721	502.28
43.7865	539.63
43.8010	524.89
43.8154	519.27
43.8299	536.02
43.8443	547.18
43.8587	547.02
43.8732	540.01
43.8876	507.79
43.9021	511.25
43.9165	508.61
43.9309	515.91
43.9454	510.83
43.9598	496.16
43.9743	465.95
43.9887	505.02
44.0031	502.93
44.0176	551.83
44.0320	519.46
44.0465	545.58
44.0609	499.89
44.0753	541.20
44.0898	530.75
44.1042	523.65
44.1187	585.93
44.1331	580.81
44.1475	536.18
44.1620	584.63
44.1764	582.38
44.1909	583.03
44.2053	616.29
44.2197	652.30
44.2342	669.38
44.2486	589.30
44.2631	608.39
44.2775	640.73
44.2919	650.72
44.3064	624.94
44.3208	627.95
44.3353	643.47
44.3497	577.41
44.3641	614.60
44.3786	597.15
44.3930	595.78
44.4075	580.07
44.4219	611.59
44.4363	630.26
44.4508	580.32
44.4652	586.52
44.4797	593.18
44.4941	560.27
44.5085	552.06
44.5230	581.42
44.5374	608.37
44.5519	607.74
44.5663	573.56
44.5807	564.80
44.5952	599.28
44.6096	558.63
44.6241	588.23
44.6385	599.59
44.6529	540.74
44.6674	604.18
44.6818	584.42
44.6963	613.91
44.7107	681.28
44.7251	693.93
44.7396	750.52
44.7540	818.32
44.7685	850.27
44.7829	902.71
44.7973	892.14
44.8118	848.41
44.8262	806.55
44.8407	725.04
44.8551	739.43
44.8695	687.45
44.8840	740.33
44.8984	760.56
44.9129	749.08
44.9273	785.55
44.9417	675.99
44.9562	625.74
44.9706	551.60
44.9851	530.34
44.9995	512.75
45.0139	562.93
45.0284	525.47
45.0428	490.16
45.0573	485.85
45.0717	531.32
45.0861	556.12
45.1006	526.45
45.1150	540.73
45.1295	483.01
45.1439	492.69
45.1583	544.79
45.1728	570.16
45.1872	502.42
45.2017	507.23
45.2161	512.35
45.2305	499.67
45.2450	528.61
45.2594	522.05
45.2739	526.36
45.2883	499.57
45.3028	518.73
45.3172	494.77
45.3316	502.72
45.3461	529.86
45.3605	519.15
45.3750	517.31
45.3894	531.51
45.4038	503.61
45.4183	528.42
45.4327	498.09
45.4472	509.12
45.4616	490.47
45.4760	511.22
45.4905	525.66
45.5049	470.57
45.5194	498.35
45.5338	542.51
45.5482	497.41
45.5627	504.96
45.5771	505.45
45.5916	498.97
45.6060	552.11
45.6204	504.74
45.6349	517.57
45.6493	483.56
45.6638	504.35
45.6782	488.65
45.6926	506.33
45.7071	547.14
45.7215	524.39
45.7360	495.01
45.7504	514.37
45.7648	527.49
45.7793	505.80
45.7937	470.64
45.8082	492.40
45.8226	519.24
45.8370	497.35
45.8515	489.97
45.8659	513.12
45.8804	494.46
45.8948	502.66
45.9092	518.18
45.9237	496.49
45.9381	471.18
45.9526	503.66
45.9670	504.84
45.9814	466.20
45.9959	481.39
46.0103	467.90
46.0248	496.60
46.0392	500.65
46.0536	522.13
46.0681	502.19
46.0825	507.07
46.0970	480.88
46.1114	505.65
46.1258	493.56
46.1403	480.88
46.1547	460.56
46.1692	496.00
46.1836	478.47
46.1980	475.62
46.2125	494.09
46.2269	475.06
46.2414	497.93
46.2558	486.60
46.2702	519.26
46.2847	493.89
46.2991	494.31
46.3136	507.10
46.3280	501.20
46.3424	511.35
46.3569	476.08
46.3713	486.20
46.3858	497.91
46.4002	521.64
46.4146	540.01
46.4291	528.45
46.4435	494.08
46.4580	486.03
46.4724	513.14
46.4868	480.21
46.5013	512.92
46.5157	500.59
46.5302	486.97
46.5446	487.47
46.5590	483.48
46.5735	491.63
46.5879	511.78
46.6024	487.90
46.6168	462.58
46.6312	465.98
46.6457	490.36
46.6601	512.23
46.6746	504.70
46.6890	508.84
46.7034	495.86
46.7179	499.46
46.7323	523.28
46.7468	491.17
46.7612	522.30
46.7756	505.07
46.7901	519.25
46.8045	507.76
46.8190	493.68
46.8334	473.77
46.8478	490.72
46.8623	517.13
46.8767	503.95
46.8912	497.89
46.9056	521.00
46.9200	527.91
46.9345	524.98
46.9489	503.52
46.9634	496.12
46.9778	481.06
46.9922	516.17
47.0067	491.52
47.0211	506.00
47.0356	501.97
47.0500	495.51
47.0644	501.77
47.0789	506.73
47.0933	496.32
47.1078	493.57
47.1222	553.15
47.1366	556.49
47.1511	507.19
47.1655	517.13
47.1800	518.85
47.1944	514.69
47.2088	511.20
47.2233	496.63
47.2377	515.15
47.2522	525.75
47.2666	521.75
47.2810	464.13
47.2955	464.30
47.3099	493.91
47.3244	487.20
47.3388	511.64
47.3532	516.09
47.3677	499.90
47.3821	478.67
47.3966	491.11
47.4110	508.59
47.4254	531.77
47.4399	518.31
47.4543	481.42
47.4688	510.02
47.4832	526.86
47.4976	532.08
47.5121	484.15
47.5265	514.58
47.5410	533.16
47.5554	499.46
47.5698	506.07
47.5843	485.01
47.5987	511.73
47.6132	521.26
47.6276	498.07
47.6420	471.62
47.6565	498.15
47.6709	491.06
47.6854	511.46
47.6998	505.81
47.7142	492.98
47.7287	481.86
47.7431	492.83
47.7576	514.98
47.7720	516.74
47.7864	521.90
47.8009	495.80
47.8153	503.62
47.8298	501.43
47.8442	486.51
47.8586	521.29
47.8731	501.34
47.8875	484.51
47.9020	513.86
47.9164	497.29
47.9308	510.52
47.9453	525.90
47.9597	455.97
47.9742	499.26
47.9886	524.48
48.0030	537.00
48.0175	502.80
48.0319	485.03
48.0464	511.08
48.0608	511.54
48.0752	485.92
48.0897	498.32
48.1041	499.74
48.1186	498.00
48.1330	483.99
48.1474	451.15
48.1619	493.72
48.1763	485.07
48.1908	485.50
48.2052	485.88
48.2196	503.23
48.2341	545.39
48.2485	549.40
48.2630	516.09
48.2774	528.76
48.2918	503.22
48.3063	513.44
48.3207	509.83
48.3352	558.25
48.3496	508.84
48.3640	488.15
48.3785	483.86
48.3929	507.17
48.4074	495.14
48.4218	534.13
48.4362	537.46
48.4507	492.99
48.4651	534.94
48.4796	490.11
48.4940	502.39
48.5084	494.12
48.5229	523.36
48.5373	543.58
48.5518	485.91
48.5662	490.64
48.5806	516.95
48.5951	500.70
48.6095	513.88
48.6240	552.36
48.6384	524.73
48.6528	547.58
48.6673	538.93
48.6817	522.35
48.6962	489.14
48.7106	511.89
48.7250	520.48
48.7395	522.15
48.7539	516.89
48.7684	532.96
48.7828	556.55
48.7972	532.25
48.8117	520.39
48.8261	548.11
48.8406	549.86
48.8550	523.50
48.8694	530.53
48.8839	572.60
48.8983	564.71
48.9128	558.39
48.9272	554.47
48.9416	569.05
48.9561	526.58
48.9705	556.06
48.9850	588.97
48.9994	575.87
49.0139	562.68
49.0283	593.11
49.0427	591.21
49.0572	598.91
49.0716	632.14
49.0861	658.61
49.1005	669.30
49.1149	701.56
49.1294	741.36
49.1438	756.90
49.1583	786.40
49.1727	824.60
49.1871	858.07
49.2016	966.34
49.2160	1005.73
49.2305	1093.13
49.2449	1159.50
49.2593	1248.77
49.2738	1393.15
49.2882	1472.76
49.3027	1565.35
49.3171	1587.05
49.3315	1709.20
49.3460	1773.01
49.3604	1853.89
49.3749	1830.53
49.3893	1780.58
49.4037	1755.21
49.4182	1790.94
49.4326	1721.32
49.4471	1581.59
49.4615	1621.71
49.4759	1595.69
49.4904	1548.70
49.5048	1398.23
49.5193	1357.20
49.5337	1313.74
49.5481	1191.60
49.5626	1115.23
49.5770	1039.41
49.5915	960.54
49.6059	904.90
49.6203	845.65
49.6348	833.29
49.6492	814.67
49.6637	755.74
49.6781	736.67
49.6925	696.33
49.7070	701.01
49.7214	661.78
49.7359	643.57
49.7503	614.10
49.7647	576.18
49.7792	573.69
49.7936	588.85
49.8081	572.92
49.8225	614.88
49.8369	574.78
49.8514	536.22
49.8658	576.60
49.8803	519.53
49.8947	525.73
49.9091	530.49
49.9236	542.34
49.9380	577.02
49.9525	501.82
49.9669	523.59
49.9813	559.09
49.9958	555.41
50.0102	538.32
50.0247	540.74
50.0391	523.72
50.0535	499.85
50.0680	542.70
50.0824	522.39
50.0969	540.25
50.1113	558.32
50.1257	531.45
50.1402	480.22
50.1546	509.78
50.1691	521.77
50.1835	513.46
50.1979	484.09
50.2124	480.63
50.2268	542.33
50.2413	516.06
50.2557	530.87
50.2701	491.32
50.2846	515.14
50.2990	503.37
50.3135	498.63
50.3279	494.05
50.3423	512.93
50.3568	522.03
50.3712	510.02
50.3857	524.09
50.4001	475.62
50.4145	495.38
50.4290	538.89
50.4434	482.84
50.4579	502.89
50.4723	545.03
50.4867	501.21
50.5012	497.73
50.5156	518.06
50.5301	516.28
50.5445	498.24
50.5589	509.42
50.5734	513.19
50.5878	518.84
50.6023	503.16
50.6167	513.35
50.6311	513.02
50.6456	517.24
50.6600	512.56
50.6745	476.11
50.6889	482.52
50.7033	526.69
50.7178	521.75
50.7322	486.53
50.7467	527.58
50.7611	531.10
50.7755	506.64
50.7900	510.65
50.8044	538.07
50.8189	540.38
50.8333	505.40
50.8477	495.95
50.8622	517.01
50.8766	510.36
50.8911	507.47
50.9055	536.88
50.9199	533.31
50.9344	517.73
50.9488	514.99
50.9633	502.65
50.9777	538.39
50.9921	528.81
51.0066	482.31
51.0210	467.06
51.0355	516.58
51.0499	474.86
51.0643	501.93
51.0788	528.47
51.0932	559.62
51.1077	556.42
51.1221	528.82
51.1365	483.70
51.1510	466.64
51.1654	543.78
51.1799	520.69
51.1943	503.35
51.2087	524.95
51.2232	512.37
51.2376	540.12
51.2521	509.56
51.2665	497.61
51.2809	540.50
51.2954	520.77
51.3098	493.22
51.3243	513.27
51.3387	504.61
51.3531	497.47
51.3676	517.36
51.3820	519.29
51.3965	501.11
51.4109	528.21
51.4253	515.03
51.4398	518.65
51.4542	530.28
51.4687	542.40
51.4831	502.90
51.4975	512.44
51.5120	512.58
51.5264	523.23
51.5409	494.14
51.5553	523.13
51.5697	497.21
51.5842	489.17
51.5986	515.19
51.6131	504.15
51.6275	511.24
51.6419	557.34
51.6564	527.20
51.6708	525.67
51.6853	485.97
51.6997	500.68
51.7141	539.06
51.7286	501.79
51.7430	491.27
51.7575	494.70
51.7719	493.90
51.7863	489.08
51.8008	491.75
51.8152	528.23
51.8297	517.56
51.8441	501.85
51.8585	540.34
51.8730	530.54
51.8874	545.32
51.9019	524.44
51.9163	544.14
51.9307	529.58
51.9452	527.96
51.9596	497.11
51.9741	499.30
51.9885	536.58
52.0029	534.46
52.0174	514.22
52.0318	545.84
52.0463	527.58
52.0607	551.23
52.0751	513.99
52.0896	528.59
52.1040	490.91
52.1185	494.01
52.1329	524.26
52.1473	501.62
52.1618	496.08
52.1762	481.07
52.1907	507.18
52.2051	507.97
52.2195	504.66
52.2340	487.42
52.2484	547.52
52.2629	539.39
52.2773	532.70
52.2917	527.15
52.3062	520.69
52.3206	477.29
52.3351	523.57
52.3495	546.21
52.3639	503.18
52.3784	489.99
52.3928	523.74
52.4073	535.24
52.4217	495.88
52.4361	485.29
52.4506	466.22
52.4650	529.80
52.4795	555.83
52.4939	521.47
52.5083	488.18
52.5228	515.21
52.5372	545.15
52.5517	567.68
52.5661	549.87
52.5805	513.96
52.5950	522.46
52.6094	505.28
52.6239	503.28
52.6383	501.00
52.6527	505.49
52.6672	524.24
52.6816	463.93
52.6961	503.74
52.7105	517.97
52.7250	514.38
52.7394	521.56
52.7538	545.69
52.7683	517.24
52.7827	528.00
52.7972	498.71
52.8116	498.08
52.8260	515.15
52.8405	517.01
52.8549	474.96
52.8694	523.92
52.8838	519.54
52.8982	506.04
52.9127	512.87
52.9271	506.39
52.9416	511.27
52.9560	487.37
52.9704	531.40
52.9849	512.50
52.9993	525.37
53.0138	541.39
53.0282	500.68
53.0426	510.66
53.0571	526.72
53.0715	524.58
53.0860	559.99
53.1004	535.09
53.1148	530.74
53.1293	522.31
53.1437	489.44
53.1582	484.83
53.1726	487.26
53.1870	503.39
53.2015	507.62
53.2159	501.20
53.2304	479.29
53.2448	511.76
53.2592	509.81
53.2737	504.37
53.2881	513.41
53.3026	474.11
53.3170	510.81
53.3314	519.40
53.3459	483.40
53.3603	494.08
53.3748	505.01
53.3892	508.07
53.4036	497.48
53.4181	498.85
53.4325	539.79
53.4470	547.24
53.4614	502.44
53.4758	531.07
53.4903	487.61
53.5047	481.54
53.5192	515.73
53.5336	531.84
53.5480	512.26
53.5625	509.85
53.5769	486.43
53.5914	464.99
53.6058	519.36
53.6202	496.97
53.6347	497.00
53.6491	493.75
53.6636	455.51
53.6780	519.88
53.6924	520.58
53.7069	520.97
53.7213	535.16
53.7358	506.25
53.7502	502.87
53.7646	498.45
53.7791	529.13
53.7935	530.01
53.8080	493.03
53.8224	506.30
53.8368	510.26
53.8513	519.84
53.8657	543.70
53.8802	545.76
53.8946	477.81
53.9090	488.95
53.9235	488.81
53.9379	496.48
53.9524	485.64
53.9668	504.69
53.9812	502.94
53.9957	526.15
54.0101	526.00
54.0246	484.39
54.0390	520.55
54.0534	549.63
54.0679	518.11
54.0823	518.89
54.0968	528.33
54.1112	493.72
54.1256	506.68
54.1401	513.07
54.1545	495.88
54.1690	522.18
54.1834	512.66
54.1978	509.42
54.2123	491.69
54.2267	513.32
54.2412	515.32
54.2556	518.32
54.2700	538.70
54.2845	526.71
54.2989	527.80
54.3134	538.63
54.3278	543.82
54.3422	516.06
54.3567	508.24
54.3711	497.49
54.3856	509.73
54.4000	501.02
54.4144	513.46
54.4289	554.75
54.4433	511.30
54.4578	497.20
54.4722	544.15
54.4866	544.81
54.5011	511.21
54.5155	496.19
54.5300	481.98
54.5444	511.43
54.5588	523.77
54.5733	536.17
54.5877	528.54
54.6022	529.69
54.6166	536.64
54.6310	526.37
54.6455	533.83
54.6599	506.07
54.6744	523.35
54.6888	536.82
54.7032	540.51
54.7177	558.28
54.7321	532.93
54.7466	560.78
54.7610	570.42
54.7754	542.72
54.7899	561.51
54.8043	573.65
54.8188	576.93
54.8332	585.77
54.8476	555.96
54.8621	586.83
54.8765	609.86
54.8910	577.51
54.9054	550.57
54.9198	554.81
54.9343	607.15
54.9487	555.04
54.9632	556.74
54.9776	570.77
54.9920	570.47
55.0065	588.63
55.0209	602.78
55.0354	568.78
55.0498	550.62
55.0642	571.58
55.0787	577.61
55.0931	577.17
55.1076	528.23
55.1220	552.24
55.1364	551.68
55.1509	494.54
55.1653	516.31
55.1798	553.26
55.1942	561.34
55.2086	517.24
55.2231	518.44
55.2375	541.09
55.2520	537.85
55.2664	526.82
55.2808	525.89
55.2953	527.10
55.3097	554.17
55.3242	523.99
55.3386	518.85
55.3530	526.80
55.3675	527.94
55.3819	493.82
55.3964	509.28
55.4108	498.03
55.4252	544.59
55.4397	536.05
55.4541	518.70
55.4686	546.78
55.4830	519.58
55.4974	506.31
55.5119	508.10
55.5263	574.64
55.5408	545.08
55.5552	505.53
55.5696	502.25
55.5841	529.49
55.5985	517.54
55.6130	504.84
55.6274	488.80
55.6418	548.39
55.6563	535.01
55.6707	508.10
55.6852	526.57
55.6996	537.24
55.7140	495.13
55.7285	522.35
55.7429	512.99
55.7574	520.30
55.7718	525.92
55.7862	543.23
55.8007	557.05
55.8151	520.68
55.8296	539.16
55.8440	505.29
55.8584	480.37
55.8729	490.27
55.8873	515.72
55.9018	534.70
55.9162	525.25
55.9306	478.03
55.9451	498.71
55.9595	514.83
55.9740	548.82
55.9884	567.54
56.0028	532.72
56.0173	509.19
56.0317	537.21
56.0462	568.97
56.0606	511.69
56.0750	514.22
56.0895	546.72
56.1039	542.35
56.1184	584.32
56.1328	505.07
56.1472	471.28
56.1617	527.21
56.1761	560.23
56.1906	527.02
56.2050	517.31
56.2194	544.16
56.2339	561.78
56.2483	525.51
56.2628	542.63
56.2772	576.59
56.2916	519.19
56.3061	535.21
56.3205	525.39
56.3350	539.29
56.3494	522.20
56.3639	528.41
56.3783	517.43
56.3927	506.53
56.4072	490.60
56.4216	493.73
56.4361	521.17
56.4505	490.64
56.4649	537.17
56.4794	506.20
56.4938	524.47
56.5083	527.55
56.5227	536.07
56.5371	529.11
56.5516	531.38
56.5660	524.55
56.5805	511.98
56.5949	524.83
56.6093	554.29
56.6238	499.93
56.6382	543.25
56.6527	506.20
56.6671	553.96
56.6815	501.78
56.6960	509.27
56.7104	548.78
56.7249	546.57
56.7393	543.60
56.7537	538.53
56.7682	496.58
56.7826	499.09
56.7971	504.85
56.8115	543.55
56.8259	540.34
56.8404	503.03
56.8548	490.87
56.8693	527.81
56.8837	513.17
56.8981	525.62
56.9126	555.67
56.9270	565.79
56.9415	564.99
56.9559	496.53
56.9703	502.00
56.9848	532.86
56.9992	526.18
57.0137	530.65
57.0281	508.73
57.0425	484.08
57.0570	502.45
57.0714	544.60
57.0859	498.06
57.1003	504.56
57.1147	552.88
57.1292	531.16
57.1436	514.16
57.1581	513.35
57.1725	486.22
57.1869	533.22
57.2014	510.22
57.2158	514.47
57.2303	518.88
57.2447	526.50
57.2591	487.83
57.2736	545.28
57.2880	546.64
57.3025	483.14
57.3169	513.73
57.3313	522.23
57.3458	535.46
57.3602	542.82
57.3747	532.92
57.3891	506.20
57.4035	496.89
57.4180	494.58
57.4324	535.61
57.4469	520.77
57.4613	553.62
57.4757	553.11
57.4902	539.92
57.5046	525.71
57.5191	533.49
57.5335	538.44
57.5479	529.39
57.5624	552.82
57.5768	526.73
57.5913	524.75
57.6057	526.86
57.6201	552.27
57.6346	523.77
57.6490	525.91
57.6635	526.98
57.6779	540.51
57.6923	534.93
57.7068	541.94
57.7212	558.34
57.7357	516.69
57.7501	522.98
57.7645	512.91
57.7790	529.21
57.7934	520.84
57.8079	534.42
57.8223	550.77
57.8367	538.98
57.8512	534.13
57.8656	547.91
57.8801	537.92
57.8945	552.46
57.9089	538.03
57.9234	520.83
57.9378	530.60
57.9523	531.35
57.9667	535.58
57.9811	516.05
57.9956	523.00
58.0100	496.88
58.0245	514.09
58.0389	548.41
58.0533	571.57
58.0678	548.32
58.0822	545.73
58.0967	534.94
58.1111	538.54
58.1255	553.90
58.1400	555.79
58.1544	501.66
58.1689	529.52
58.1833	538.95
58.1977	534.03
58.2122	575.75
58.2266	560.37
58.2411	563.65
58.2555	574.99
58.2699	550.40
58.2844	544.56
58.2988	545.84
58.3133	550.65
58.3277	581.07
58.3421	555.91
58.3566	563.68
58.3710	559.42
58.3855	578.27
58.3999	608.36
58.4143	599.52
58.4288	575.56
58.4432	564.83
58.4577	610.06
58.4721	644.57
58.4865	641.24
58.5010	615.75
58.5154	641.65
58.5299	646.21
58.5443	613.96
58.5587	636.08
58.5732	618.77
58.5876	665.57
58.6021	665.61
58.6165	664.85
58.6309	608.78
58.6454	617.01
58.6598	643.69
58.6743	617.83
58.6887	603.88
58.7031	618.39
58.7176	633.65
58.7320	584.40
58.7465	605.63
58.7609	586.28
58.7753	598.84
58.7898	586.85
58.8042	590.56
58.8187	595.41
58.8331	589.12
58.8475	589.06
58.8620	591.54
58.8764	558.13
58.8909	579.08
58.9053	597.54
58.9197	536.46
58.9342	543.74
58.9486	541.23
58.9631	536.15
58.9775	582.04
58.9919	542.35
59.0064	525.48
59.0208	557.37
59.0353	554.70
59.0497	559.68
59.0641	567.90
59.0786	539.00
59.0930	539.68
59.1075	524.57
59.1219	513.17
59.1363	549.76
59.1508	560.40
59.1652	575.52
59.1797	561.24
59.1941	562.89
59.2085	563.52
59.2230	537.45
59.2374	564.87
59.2519	544.09
59.2663	566.97
59.2807	577.11
59.2952	535.59
59.3096	527.89
59.3241	566.02
59.3385	539.68
59.3529	550.55
59.3674	547.08
59.3818	547.76
59.3963	559.58
59.4107	528.28
59.4251	559.94
59.4396	564.31
59.4540	561.13
59.4685	603.02
59.4829	554.44
59.4973	526.59
59.5118	574.60
59.5262	578.50
59.5407	564.70
59.5551	564.62
59.5695	563.31
59.5840	570.71
59.5984	548.85
59.6129	555.33
59.6273	532.43
59.6417	541.00
59.6562	548.98
59.6706	537.43
59.6851	519.48
59.6995	500.19
59.7139	540.13
59.7284	515.79
59.7428	522.52
59.7573	538.14
59.7717	564.08
59.7861	556.08
59.8006	581.52
59.8150	552.03
59.8295	539.59
59.8439	525.94
59.8583	508.19
59.8728	557.83
59.8872	553.03
59.9017	552.69
59.9161	509.63
59.9305	504.03
59.9450	493.58
59.9594	498.90
59.9739	561.02
59.9883	571.72
60.0027	569.92
60.0172	543.15
60.0316	542.99
60.0461	554.89
60.0605	546.83
60.0750	576.79
60.0894	596.36
60.1038	555.69
60.1183	553.81
60.1327	539.18
60.1472	521.72
60.1616	537.23
60.1760	526.63
60.1905	572.75
60.2049	543.11
60.2194	538.06
60.2338	538.41
60.2482	567.66
60.2627	537.36
60.2771	558.34
60.2916	503.80
60.3060	552.28
60.3204	581.60
60.3349	577.37
60.3493	543.52
60.3638	502.71
60.3782	517.93
60.3926	532.80
60.4071	533.26
60.4215	568.84
60.4360	554.15
60.4504	518.98
60.4648	566.30
60.4793	557.98
60.4937	538.30
60.5082	497.22
60.5226	543.19
60.5370	543.57
60.5515	540.48
60.5659	573.13
60.5804	501.96
60.5948	548.37
60.6092	565.20
60.6237	534.50
60.6381	537.27
60.6526	544.18
60.6670	502.23
60.6814	537.88
60.6959	526.47
60.7103	543.96
60.7248	543.05
60.7392	517.93
60.7536	543.66
60.7681	549.09
60.7825	519.22
60.7970	538.70
60.8114	538.71
60.8258	520.27
60.8403	522.43
60.8547	578.55
60.8692	583.39
60.8836	574.42
60.8980	560.35
60.9125	546.71
60.9269	536.99
60.9414	537.06
60.9558	508.59
60.9702	562.51
60.9847	543.99
60.9991	549.98
61.0136	581.48
61.0280	535.34
61.0424	545.77
61.0569	531.78
61.0713	516.96
61.0858	588.06
61.1002	560.60
61.1146	567.32
61.1291	568.95
61.1435	497.20
61.1580	505.29
61.1724	549.26
61.1868	522.59
61.2013	549.23
61.2157	523.11
61.2302	543.51
61.2446	558.33
61.2590	507.80
61.2735	554.20
61.2879	518.38
61.3024	527.95
61.3168	531.42
61.3312	549.66
61.3457	540.87
61.3601	580.14
61.3746	588.11
61.3890	528.35
61.4034	526.80
61.4179	535.97
61.4323	568.68
61.4468	559.98
61.4612	546.99
61.4756	536.29
61.4901	544.52
61.5045	566.00
61.5190	538.61
61.5334	560.73
61.5478	555.37
61.5623	547.59
61.5767	545.47
61.5912	537.34
61.6056	533.14
61.6200	525.62
61.6345	552.45
61.6489	532.88
61.6634	554.84
61.6778	525.16
61.6922	540.15
61.7067	574.62
61.7211	546.50
61.7356	530.39
61.7500	558.54
61.7644	527.82
61.7789	531.48
61.7933	565.06
61.8078	564.48
61.8222	578.48
61.8366	537.77
61.8511	545.30
61.8655	549.85
61.8800	533.26
61.8944	553.22
61.9088	546.53
61.9233	550.19
61.9377	567.25
61.9522	546.06
61.9666	514.25
61.9810	552.32
61.9955	575.59
62.0099	539.18
62.0244	545.80
62.0388	551.62
62.0532	537.87
62.0677	566.80
62.0821	578.23
62.0966	561.96
62.1110	558.92
62.1254	584.96
62.1399	537.40
62.1543	506.24
62.1688	543.11
62.1832	563.91
62.1976	571.72
62.2121	563.20
62.2265	576.86
62.2410	597.02
62.2554	566.60
62.2698	556.59
62.2843	525.78
62.2987	533.44
62.3132	587.58
62.3276	564.24
62.3420	555.68
62.3565	511.76
62.3709	520.18
62.3854	555.98
62.3998	548.14
62.4142	536.57
62.4287	583.65
62.4431	552.30
62.4576	559.24
62.4720	521.16
62.4864	513.28
62.5009	556.25
62.5153	567.18
62.5298	549.96
62.5442	536.70
62.5586	522.88
62.5731	546.33
62.5875	582.66
62.6020	530.21
62.6164	545.60
62.6308	548.50
62.6453	573.35
62.6597	601.16
62.6742	552.12
62.6886	540.16
62.7030	576.20
62.7175	589.20
62.7319	549.59
62.7464	553.38
62.7608	536.61
62.7752	563.44
62.7897	548.89
62.8041	547.22
62.8186	532.57
62.8330	570.40
62.8474	541.21
62.8619	577.17
62.8763	524.65
62.8908	521.09
62.9052	550.97
62.9196	542.20
62.9341	540.26
62.9485	534.82
62.9630	532.43
62.9774	533.31
62.9918	557.58
63.0063	562.25
63.0207	568.99
63.0352	555.59
63.0496	560.32
63.0640	550.04
63.0785	592.05
63.0929	552.43
63.1074	548.17
63.1218	563.11
63.1362	578.75
63.1507	552.29
63.1651	543.11
63.1796	568.60
63.1940	550.72
63.2084	536.22
63.2229	575.58
63.2373	581.59
63.2518	606.12
63.2662	569.48
63.2806	570.63
63.2951	600.42
63.3095	611.00
63.3240	560.12
63.3384	570.46
63.3528	580.48
63.3673	583.15
63.3817	550.69
63.3962	554.74
63.4106	548.76
63.4250	591.27
63.4395	588.98
63.4539	593.38
63.4684	570.50
63.4828	594.81
63.4972	593.21
63.5117	577.31
63.5261	538.68
63.5406	571.58
63.5550	576.51
63.5694	598.97
63.5839	600.39
63.5983	560.72
63.6128	545.67
63.6272	568.73
63.6416	584.07
63.6561	588.82
63.6705	591.63
63.6850	552.33
63.6994	588.14
63.7138	622.92
63.7283	600.03
63.7427	585.67
63.7572	567.50
63.7716	577.92
63.7861	606.18
63.8005	605.19
63.8149	641.60
63.8294	584.86
63.8438	569.53
63.8583	622.91
63.8727	615.51
63.8871	617.29
63.9016	636.03
63.9160	612.78
63.9305	616.24
63.9449	590.17
63.9593	608.11
63.9738	627.84
63.9882	610.97
64.0027	593.85
64.0171	601.27
64.0315	649.66
64.0460	636.55
64.0604	652.70
64.0749	657.34
64.0893	651.55
64.1037	625.19
64.1182	739.56
64.1326	757.43
64.1471	684.62
64.1615	705.60
64.1759	752.48
64.1904	727.11
64.2048	732.19
64.2193	739.11
64.2337	709.89
64.2481	701.43
64.2626	791.01
64.2770	788.08
64.2915	762.10
64.3059	731.12
64.3203	751.00
64.3348	786.08
64.3492	799.37
64.3637	777.29
64.3781	739.25
64.3925	754.76
64.4070	716.03
64.4214	764.48
64.4359	826.30
64.4503	766.76
64.4647	777.98
64.4792	818.34
64.4936	730.78
64.5081	740.94
64.5225	744.91
64.5369	724.63
64.5514	688.89
64.5658	707.87
64.5803	721.17
64.5947	722.33
64.6091	741.63
64.6236	682.06
64.6380	719.54
64.6525	723.53
64.6669	715.47
64.6813	688.26
64.6958	720.92
64.7102	732.59
64.7247	712.96
64.7391	739.15
64.7535	775.44
64.7680	783.28
64.7824	718.01
64.7969	750.01
64.8113	761.15
64.8257	795.37
64.8402	778.88
64.8546	826.35
64.8691	833.93
64.8835	842.87
64.8979	890.29
64.9124	891.71
64.9268	926.09
64.9413	932.07
64.9557	926.68
64.9701	1006.09
64.9846	1087.75
64.9990	1171.53
65.0135	1295.36
65.0279	1508.84
65.0423	1747.47
65.0568	2199.66
65.0712	2806.11
65.0857	3679.81
65.1001	4760.43
65.1145	6420.82
65.1290	8359.34
65.1434	9991.90
65.1579	11417.48
65.1723	11988.20
65.1867	11369.69
65.2012	9790.55
65.2156	8264.72
65.2301	6350.81
65.2445	5272.54
65.2589	4474.97
65.2734	4313.90
65.2878	4560.02
65.3023	5066.72
65.3167	6017.92
65.3311	6662.42
65.3456	7133.01
65.3600	6944.06
65.3745	6474.57
65.3889	5338.12
65.4033	4269.45
65.4178	3345.16
65.4322	2619.99
65.4467	2017.54
65.4611	1736.41
65.4755	1424.27
65.4900	1294.75
65.5044	1150.53
65.5189	1038.99
65.5333	994.64
65.5477	928.68
65.5622	869.90
65.5766	816.05
65.5911	812.79
65.6055	789.00
65.6199	760.12
65.6344	752.29
65.6488	737.77
65.6633	719.89
65.6777	684.92
65.6921	668.96
65.7066	743.00
65.7210	710.21
65.7355	740.50
65.7499	755.16
65.7643	681.92
65.7788	657.50
65.7932	666.59
65.8077	670.97
65.8221	671.69
65.8365	631.00
65.8510	633.28
65.8654	663.46
65.8799	651.51
65.8943	672.95
65.9087	656.12
65.9232	592.00
65.9376	627.37
65.9521	651.88
65.9665	622.18
65.9809	626.20
65.9954	636.41
66.0098	602.63
66.0243	620.43
66.0387	633.62
66.0531	633.32
66.0676	638.56
66.0820	603.05
66.0965	645.97
66.1109	578.98
66.1253	602.32
66.1398	608.18
66.1542	583.87
66.1687	615.82
66.1831	631.77
66.1975	589.12
66.2120	609.69
66.2264	587.65
66.2409	589.65
66.2553	584.81
66.2697	622.87
66.2842	589.29
66.2986	584.26
66.3131	603.25
66.3275	613.75
66.3419	613.10
66.3564	596.85
66.3708	611.80
66.3853	580.51
66.3997	590.37
66.4141	552.94
66.4286	573.47
66.4430	590.73
66.4575	575.75
66.4719	588.15
66.4863	580.39
66.5008	607.27
66.5152	582.36
66.5297	592.18
66.5441	571.39
66.5585	589.95
66.5730	558.06
66.5874	601.25
66.6019	611.56
66.6163	612.48
66.6307	589.45
66.6452	596.12
66.6596	575.03
66.6741	578.14
66.6885	563.75
66.7029	597.29
66.7174	626.89
66.7318	625.03
66.7463	592.25
66.7607	591.04
66.7751	611.50
66.7896	627.78
66.8040	562.12
66.8185	557.60
66.8329	599.34
66.8473	581.52
66.8618	606.17
66.8762	589.14
66.8907	577.02
66.9051	613.08
66.9195	600.98
66.9340	607.83
66.9484	555.22
66.9629	587.46
66.9773	595.38
66.9917	538.40
67.0062	558.49
67.0206	583.25
67.0351	584.68
67.0495	586.66
67.0639	580.90
67.0784	553.54
67.0928	602.00
67.1073	564.43
67.1217	581.95
67.1361	565.38
67.1506	552.97
67.1650	592.51
67.1795	605.69
67.1939	574.52
67.2083	585.25
67.2228	582.62
67.2372	559.53
67.2517	580.72
67.2661	580.82
67.2805	560.79
67.2950	562.26
67.3094	545.42
67.3239	586.67
67.3383	617.87
67.3527	592.71
67.3672	577.33
67.3816	541.79
67.3961	565.42
67.4105	536.36
67.4250	571.70
67.4394	570.66
67.4538	560.31
67.4683	571.28
67.4827	598.83
67.4972	608.88
67.5116	542.83
67.5260	573.82
67.5405	579.86
67.5549	540.58
67.5694	571.02
67.5838	570.35
67.5982	582.57
67.6127	580.00
67.6271	583.81
67.6416	598.41
67.6560	566.63
67.6704	577.49
67.6849	571.94
67.6993	566.78
67.7138	566.26
67.7282	609.18
67.7426	610.90
67.7571	587.41
67.7715	565.06
67.7860	611.96
67.8004	553.87
67.8148	566.25
67.8293	570.53
67.8437	602.31
67.8582	606.49
67.8726	608.14
67.8870	567.44
67.9015	601.33
67.9159	553.72
67.9304	540.05
67.9448	572.27
67.9592	560.58
67.9737	560.51
67.9881	584.85
68.0026	592.48
68.0170	596.45
68.0314	599.26
68.0459	595.04
68.0603	551.00
68.0748	535.91
68.0892	598.94
68.1036	559.55
68.1181	575.15
68.1325	623.37
68.1470	599.66
68.1614	554.73
68.1758	546.61
68.1903	583.15
68.2047	565.78
68.2192	548.65
68.2336	578.68
68.2480	640.21
68.2625	579.64
68.2769	565.91
68.2914	585.62
68.3058	583.72
68.3202	607.35
68.3347	609.48
68.3491	553.54
68.3636	571.93
68.3780	610.98
68.3924	568.65
68.4069	572.14
68.4213	583.03
68.4358	586.22
68.4502	558.61
68.4646	562.92
68.4791	585.54
68.4935	597.48
68.5080	582.58
68.5224	563.46
68.5368	576.95
68.5513	584.29
68.5657	598.30
68.5802	580.44
68.5946	558.78
68.6090	553.72
68.6235	591.56
68.6379	620.32
68.6524	583.70
68.6668	570.51
68.6812	552.34
68.6957	566.53
68.7101	585.85
68.7246	556.13
68.7390	537.99
68.7534	626.64
68.7679	589.63
68.7823	584.49
68.7968	603.78
68.8112	551.20
68.8256	565.21
68.8401	595.88
68.8545	601.04
68.8690	592.11
68.8834	590.04
68.8978	576.45
68.9123	536.64
68.9267	529.71
68.9412	571.11
68.9556	606.26
68.9700	576.26
68.9845	571.55
68.9989	569.70
69.0134	546.20
69.0278	567.33
69.0422	553.25
69.0567	591.53
69.0711	542.61
69.0856	579.00
69.1000	615.75
69.1144	578.78
69.1289	569.47
69.1433	569.24
69.1578	543.01
69.1722	564.92
69.1866	523.91
69.2011	557.74
69.2155	619.86
69.2300	568.89
69.2444	535.98
69.2588	580.17
69.2733	601.84
69.2877	586.01
69.3022	570.21
69.3166	555.68
69.3310	597.83
69.3455	565.49
69.3599	600.36
69.3744	551.28
69.3888	560.33
69.4032	558.35
69.4177	582.64
69.4321	591.02
69.4466	577.56
69.4610	563.42
69.4754	603.67
69.4899	573.72
69.5043	572.64
69.5188	596.91
69.5332	601.48
69.5476	599.74
69.5621	613.48
69.5765	582.94
69.5910	585.10
69.6054	570.78
69.6198	556.80
69.6343	621.37
69.6487	590.47
69.6632	587.96
69.6776	624.17
69.6920	590.29
69.7065	596.63
69.7209	554.09
69.7354	551.72
69.7498	579.45
69.7642	548.29
69.7787	540.28
69.7931	529.75
69.8076	566.46
69.8220	607.39
69.8364	632.72
69.8509	589.14
69.8653	586.28
69.8798	611.87
69.8942	581.63
69.9086	579.73
69.9231	559.76
69.9375	579.86
69.9520	545.16
69.9664	592.96
69.9808	546.12
69.9953	569.14
70.0097	619.68
70.0242	607.54
70.0386	583.40
70.0530	610.20
70.0675	574.14
70.0819	533.69
70.0964	640.84
70.1108	602.51
70.1252	607.15
70.1397	574.09
70.1541	569.97
70.1686	610.55
70.1830	564.25
70.1974	567.88
70.2119	604.56
70.2263	604.70
70.2408	589.61
70.2552	601.31
70.2696	556.50
70.2841	626.38
70.2985	557.50
70.3130	588.76
70.3274	608.09
70.3418	587.03
70.3563	569.87
70.3707	615.86
70.3852	596.24
70.3996	553.28
70.4140	529.84
70.4285	626.25
70.4429	603.56
70.4574	558.86
70.4718	589.37
70.4862	600.56
70.5007	536.02
70.5151	513.19
70.5296	539.35
70.5440	577.84
70.5584	582.98
70.5729	576.34
70.5873	569.08
70.6018	587.85
70.6162	561.85
70.6306	575.30
70.6451	536.47
70.6595	542.65
70.6740	606.90
70.6884	600.27
70.7028	569.93
70.7173	591.68
70.7317	533.98
70.7462	576.23
70.7606	599.06
70.7750	617.75
70.7895	535.79
70.8039	610.51
70.8184	551.59
70.8328	586.66
70.8472	556.90
70.8617	555.32
70.8761	575.36
70.8906	576.94
70.9050	598.54
70.9194	586.54
70.9339	657.77
70.9483	654.51
70.9628	626.10
70.9772	592.71
70.9916	575.79
71.0061	564.59
71.0205	589.24
71.0350	622.04
71.0494	594.30
71.0638	622.21
71.0783	653.30
71.0927	646.38
71.1072	621.23
71.1216	569.76
71.1361	543.57
71.1505	578.16
71.1649	616.09
71.1794	620.64
71.1938	595.35
71.2083	588.83
71.2227	558.72
71.2371	553.55
71.2516	588.04
71.2660	581.37
71.2805	578.87
71.2949	603.10
71.3093	536.86
71.3238	525.98
71.3382	567.81
71.3527	511.02
71.3671	528.79
71.3815	578.35
71.3960	556.56
71.4104	553.67
71.4249	627.69
71.4393	537.58
71.4537	547.07
71.4682	615.50
71.4826	595.87
71.4971	570.21
71.5115	584.00
71.5259	563.44
71.5404	562.72
71.5548	570.15
71.5693	585.17
71.5837	555.19
71.5981	530.90
71.6126	560.38
71.6270	563.05
71.6415	566.57
71.6559	547.07
71.6703	551.84
71.6848	601.84
71.6992	639.44
71.7137	618.24
71.7281	554.51
71.7425	524.06
71.7570	538.69
71.7714	608.68
71.7859	592.19
71.8003	573.51
71.8147	572.14
71.8292	631.18
71.8436	611.44
71.8581	577.85
71.8725	601.80
71.8869	559.83
71.9014	665.20
71.9158	632.31
71.9303	567.28
71.9447	579.72
71.9591	617.59
71.9736	706.47
71.9880	648.08
72.0025	592.35
72.0169	609.58
72.0313	566.28
72.0458	511.64
72.0602	572.52
72.0747	592.35
72.0891	624.02
72.1035	696.28
72.1180	668.17
72.1324	587.20
72.1469	599.01
72.1613	565.80
72.1757	543.54
72.1902	568.40
72.2046	613.51
72.2191	633.55
72.2335	569.84
72.2479	512.88
72.2624	518.32
72.2768	570.90
72.2913	545.35
72.3057	561.59
72.3201	565.60
72.3346	578.16
72.3490	601.15
72.3635	580.84
72.3779	590.29
72.3923	580.26
72.4068	548.69
72.4212	549.73
72.4357	572.21
72.4501	590.80
72.4645	570.64
72.4790	559.73
72.4934	545.50
72.5079	545.91
72.5223	525.88
72.5367	546.34
72.5512	567.39
72.5656	567.70
72.5801	523.33
72.5945	549.04
72.6089	574.91
72.6234	522.80
72.6378	520.62
72.6523	568.99
72.6667	548.85
72.6811	555.33
72.6956	593.22
72.7100	652.92
72.7245	587.32
72.7389	565.03
72.7533	529.24
72.7678	568.01
72.7822	738.07
72.7967	690.98
72.8111	636.67
72.8255	566.57
72.8400	519.71
72.8544	515.47
72.8689	550.22
72.8833	557.34

Result vector
22.1120	565.61
22.1264	642.73
22.1409	562.89
22.1553	521.45
22.1697	520.21
22.1842	598.05
22.1986	638.38
22.2131	564.36
22.2275	527.17
22.2419	533.71
22.2564	578.88
22.2708	539.14
22.2853	618.32
22.2997	489.57
22.3141	507.74
22.3286	621.44
22.3430	601.23
22.3575	665.17
22.3719	601.06
22.3863	480.00
22.4008	514.59
22.4152	611.11
22.4297	536.74
22.4441	548.26
22.4585	649.89
22.4730	573.87
22.4874	654.98
22.5019	500.69
22.5163	532.85
22.5307	568.99
22.5452	571.89
22.5596	623.81
22.5741	601.68
22.5885	560.56
22.6029	535.43
22.6174	496.39
22.6318	535.70
22.6463	582.07
22.6607	578.36
22.6751	570.83
22.6896	504.29
22.7040	568.89
22.7185	545.28
22.7329	587.00
22.7473	600.32
22.7618	522.82
22.7762	509.98
22.7907	624.05
22.8051	623.79
22.8195	590.77
22.8340	566.42
22.8484	560.75
22.8629	570.79
22.8773	560.62
22.8917	532.01
22.9062	582.28
22.9206	599.55
22.9351	555.17
22.9495	467.19
22.9639	503.01
22.9784	556.23
22.9928	566.89
23.0073	536.92
23.0217	617.24
23.0361	556.83
23.0506	545.28
23.0650	621.57
23.0795	594.83
23.0939	621.10
23.1083	566.95
23.1228	566.91
23.1372	528.78
23.1517	600.32
23.1661	564.39
23.1806	593.75
23.1950	518.72
23.2094	560.42
23.2239	496.15
23.2383	576.85
23.2528	526.76
23.2672	631.88
23.2816	586.92
23.2961	546.22
23.3105	554.66
23.3250	514.52
23.3394	501.34
23.3538	524.05
23.3683	563.91
23.3827	526.97
23.3972	564.16
23.4116	527.86
23.4260	559.26
23.4405	574.19
23.4549	518.31
23.4694	566.37
23.4838	549.30
23.4982	563.44
23.5127	511.45
23.5271	521.94
23.5416	583.08
23.5560	541.60
23.5704	590.00
23.5849	573.73
23.5993	559.18
23.6138	565.36
23.6282	563.47
23.6426	550.87
23.6571	532.71
23.6715	506.49
23.6860	543.73
23.7004	542.22
23.7148	472.06
23.7293	584.39
23.7437	653.00
23.7582	600.32
23.7726	583.65
23.7870	590.49
23.8015	612.26
23.8159	520.86
23.8304	481.74
23.8448	509.89
23.8592	564.18
23.8737	577.50
23.8881	514.29
23.9026	556.32
23.9170	513.54
23.9314	509.87
23.9459	485.35
23.9603	531.43
23.9748	569.87
23.9892	528.27
24.0036	553.60
24.0181	531.92
24.0325	526.68
24.0470	535.27
24.0614	557.27
24.0758	532.26
24.0903	620.26
24.1047	564.04
24.1192	596.76
24.1336	612.38
24.1480	549.64
24.1625	586.27
24.1769	556.51
24.1914	597.91
24.2058	583.28
24.2202	533.58
24.2347	607.69
24.2491	580.58
24.2636	572.43
24.2780	629.86
24.2924	602.84
24.3069	590.91
24.3213	556.32
24.3358	594.73
24.3502	590.14
24.3646	556.20
24.3791	521.63
24.3935	503.14
24.4080	499.74
24.4224	573.69
24.4368	568.41
24.4513	554.02
24.4657	566.81
24.4802	541.12
24.4946	582.07
24.5090	522.16
24.5235	554.94
24.5379	571.67
24.5524	549.11
24.5668	671.61
24.5812	543.25
24.5957	593.74
24.6101	532.00
24.6246	581.50
24.6390	570.65
24.6534	529.81
24.6679	527.79
24.6823	506.25
24.6968	571.69
24.7112	532.40
24.7256	555.18
24.7401	545.44
24.7545	571.78
24.7690	531.25
24.7834	499.15
24.7978	508.11
24.8123	557.96
24.8267	541.53
24.8412	526.95
24.8556	576.13
24.8700	530.68
24.8845	548.50
24.8989	557.07
24.9134	584.31
24.9278	528.95
24.9422	526.75
24.9567	511.45
24.9711	548.05
24.9856	534.27
25.0000	556.73
25.0144	591.08
25.0289	483.96
25.0433	523.30
25.0578	525.42
25.0722	553.14
25.0866	536.66
25.1011	583.92
25.1155	557.51
25.1300	576.78
25.1444	557.09
25.1588	507.83
25.1733	530.00
25.1877	511.44
25.2022	525.70
25.2166	576.21
25.2310	580.63
25.2455	561.74
25.2599	544.30
25.2744	531.59
25.2888	544.45
25.3032	524.44
25.3177	560.00
25.3321	513.23
25.3466	522.43
25.3610	550.42
25.3754	498.90
25.3899	534.86
25.4043	512.91
25.4188	534.55
25.4332	553.76
25.4476	540.65
25.4621	556.69
25.4765	520.61
25.4910	539.05
25.5054	564.24
25.5198	570.43
25.5343	572.44
25.5487	519.87
25.5632	492.15
25.5776	535.99
25.5920	538.80
25.6065	533.41
25.6209	565.58
25.6354	564.69
25.6498	573.80
25.6642	564.13
25.6787	561.70
25.6931	534.56
25.7076	547.29
25.7220	544.20
25.7364	516.21
25.7509	537.05
25.7653	557.15
25.7798	566.85
25.7942	521.89
25.8086	516.96
25.8231	542.88
25.8375	525.66
25.8520	530.05
25.8664	524.69
25.8808	532.15
25.8953	545.96
25.9097	496.39
25.9242	516.46
25.9386	534.83
25.9530	486.06
25.9675	510.93
25.9819	515.70
25.9964	489.03
26.0108	483.87
26.0252	553.78
26.0397	564.63
26.0541	540.12
26.0686	528.52
26.0830	564.85
26.0974	546.55
26.1119	565.08
26.1263	574.95
26.1408	515.88
26.1552	514.05
26.1696	535.45
26.1841	512.52
26.1985	514.23
26.2130	528.28
26.2274	503.09
26.2418	538.23
26.2563	548.82
26.2707	562.21
26.2852	547.28
26.2996	528.53
26.3140	534.60
26.3285	516.26
26.3429	508.32
26.3574	549.09
26.3718	558.11
26.3862	547.72
26.4007	528.94
26.4151	522.23
26.4296	525.20
26.4440	520.51
26.4584	531.45
26.4729	535.24
26.4873	543.55
26.5018	523.60
26.5162	526.29
26.5306	533.76
26.5451	553.02
26.5595	536.06
26.5740	518.54
26.5884	518.05
26.6028	545.95
26.6173	567.39
26.6317	536.73
26.6462	503.21
26.6606	516.00
26.6750	527.21
26.6895	549.75
26.7039	531.02
26.7184	533.25
26.7328	553.50
26.7472	540.58
26.7617	521.98
26.7761	526.84
26.7906	512.84
26.8050	533.15
26.8194	536.06
26.8339	551.88
26.8483	540.09
26.8628	543.54
26.8772	550.59
26.8917	536.19
26.9061	513.24
26.9205	501.85
26.9350	525.63
26.9494	538.44
26.9639	540.40
26.9783	515.04
26.9927	526.90
27.0072	503.12
27.0216	507.77
27.0361	489.73
27.0505	529.10
27.0649	513.05
27.0794	510.80
27.0938	530.26
27.1083	528.43
27.1227	548.70
27.1371	519.02
27.1516	503.90
27.1660	499.53
27.1805	510.64
27.1949	502.88
27.2093	488.50
27.2238	500.82
27.2382	498.35
27.2527	514.83
27.2671	491.15
27.2815	507.69
27.2960	524.92
27.3104	530.27
27.3249	510.38
27.3393	536.00
27.3537	540.33
27.3682	541.25
27.3826	526.21
27.3971	521.84
27.4115	556.57
27.4259	513.60
27.4404	496.83
27.4548	518.52
27.4693	532.47
27.4837	503.99
27.4981	508.32
27.5126	536.77
27.5270	523.61
27.5415	523.40
27.5559	534.34
27.5703	519.11
27.5848	528.62
27.5992	527.66
27.6137	521.44
27.6281	503.42
27.6425	499.73
27.6570	505.15
27.6714	493.81
27.6859	502.53
27.7003	527.06
27.7147	527.24
27.7292	537.27
27.7436	534.11
27.7581	495.76
27.7725	524.14
27.7869	507.94
27.8014	522.21
27.8158	547.73
27.8303	548.20
27.8447	546.93
27.8591	554.43
27.8736	562.63
27.8880	521.69
27.9025	526.50
27.9169	504.53
27.9313	488.12
27.9458	559.49
27.9602	492.54
27.9747	504.97
27.9891	495.37
28.0035	483.08
28.0180	501.59
28.0324	518.90
28.0469	516.82
28.0613	515.56
28.0757	490.84
28.0902	519.63
28.1046	520.59
28.1191	524.77
28.1335	506.10
28.1479	502.81
28.1624	515.61
28.1768	522.93
28.1913	503.16
28.2057	522.76
28.2201	547.86
28.2346	553.53
28.2490	496.93
28.2635	545.04
28.2779	537.84
28.2923	500.47
28.3068	489.55
28.3212	515.53
28.3357	533.99
28.3501	563.01
28.3645	555.16
28.3790	477.54
28.3934	485.07
28.4079	512.11
28.4223	491.62
28.4367	504.96
28.4512	507.33
28.4656	538.00
28.4801	506.25
28.4945	512.73
28.5089	508.71
28.5234	506.76
28.5378	515.22
28.5523	492.32
28.5667	515.06
28.5811	505.28
28.5956	529.30
28.6100	521.61
28.6245	527.53
28.6389	513.63
28.6533	564.16
28.6678	521.91
28.6822	506.85
28.6967	504.41
28.7111	565.03
28.7255	512.50
28.7400	534.48
28.7544	521.73
28.7689	489.53
28.7833	530.79
28.7977	496.05
28.8122	522.79
28.8266	510.94
28.8411	481.98
28.8555	515.55
28.8699	541.90
28.8844	528.18
28.8988	520.21
28.9133	551.57
28.9277	505.57
28.9421	472.43
28.9566	519.29
28.9710	510.85
28.9855	487.63
28.9999	500.03
29.0143	482.22
29.0288	541.14
29.0432	531.19
29.0577	499.39
29.0721	485.09
29.0865	521.91
29.1010	499.65
29.1154	484.23
29.1299	529.32
29.1443	499.43
29.1587	477.35
29.1732	507.16
29.1876	521.96
29.2021	468.33
29.2165	476.32
29.2309	518.31
29.2454	504.39
29.2598	541.19
29.2743	509.50
29.2887	522.09
29.3031	522.27
29.3176	484.50
29.3320	512.72
29.3465	491.33
29.3609	533.88
29.3753	497.66
29.3898	495.45
29.4042	487.02
29.4187	481.69
29.4331	501.86
29.4475	494.86
29.4620	513.37
29.4764	529.38
29.4909	518.72
29.5053	518.82
29.5197	496.13
29.5342	504.49
29.5486	499.13
29.5631	501.74
29.5775	488.03
29.5919	526.64
29.6064	530.01
29.6208	544.28
29.6353	483.89
29.6497	465.23
29.6641	495.69
29.6786	537.08
29.6930	505.84
29.7075	481.51
29.7219	487.06
29.7363	493.21
29.7508	508.88
29.7652	497.04
29.7797	537.48
29.7941	513.65
29.8085	472.21
29.8230	521.81
29.8374	561.27
29.8519	502.16
29.8663	490.65
29.8807	503.92
29.8952	504.89
29.9096	520.92
29.9241	498.11
29.9385	509.70
29.9529	525.03
29.9674	516.96
29.9818	489.76
29.9963	520.95
30.0107	469.43
30.0251	479.59
30.0396	541.18
30.0540	544.80
30.0685	494.55
30.0829	505.70
30.0973	544.17
30.1118	472.18
30.1262	487.26
30.1407	512.16
30.1551	511.48
30.1695	538.56
30.1840	543.50
30.1984	524.39
30.2129	533.11
30.2273	536.82
30.2417	519.29
30.2562	510.75
30.2706	518.56
30.2851	521.36
30.2995	500.52
30.3139	499.97
30.3284	493.87
30.3428	516.79
30.3573	532.35
30.3717	510.91
30.3861	496.77
30.4006	431.37
30.4150	486.76
30.4295	510.53
30.4439	474.92
30.4583	478.17
30.4728	523.96
30.4872	507.87
30.5017	472.29
30.5161	515.78
30.5305	522.51
30.5450	496.18
30.5594	509.01
30.5739	502.48
30.5883	513.55
30.6028	511.99
30.6172	504.15
30.6316	507.48
30.6461	537.19
30.6605	489.65
30.6750	521.23
30.6894	514.62
30.7038	530.48
30.7183	501.74
30.7327	564.67
30.7472	560.27
30.7616	541.23
30.7760	566.35
30.7905	573.27
30.8049	597.83
30.8194	588.08
30.8338	575.31
30.8482	633.78
30.8627	663.20
30.8771	625.77
30.8916	653.28
30.9060	712.24
30.9204	678.29
30.9349	662.67
30.9493	697.31
30.9638	639.99
30.9782	637.93
30.9926	625.84
31.0071	621.32
31.0215	630.30
31.0360	581.54
31.0504	585.09
31.0648	582.72
31.0793	554.33
31.0937	587.95
31.1082	559.42
31.1226	548.51
31.1370	549.51
31.1515	517.12
31.1659	502.11
31.1804	556.81
31.1948	536.08
31.2092	502.00
31.2237	532.20
31.2381	554.88
31.2526	519.81
31.2670	511.49
31.2814	515.35
31.2959	527.00
31.3103	510.35
31.3248	528.16
31.3392	548.70
31.3536	559.83
31.3681	549.98
31.3825	521.46
31.3970	523.43
31.4114	516.33
31.4258	535.99
31.4403	534.99
31.4547	471.15
31.4692	507.99
31.4836	548.12
31.4980	533.27
31.5125	510.26
31.5269	514.59
31.5414	513.25
31.5558	490.79
31.5702	520.80
31.5847	511.15
31.5991	496.75
31.6136	547.40
31.6280	487.26
31.6424	458.45
31.6569	477.86
31.6713	477.03
31.6858	535.37
31.7002	533.32
31.7146	492.62
31.7291	527.40
31.7435	492.20
31.7580	489.23
31.7724	501.07
31.7868	495.58
31.8013	483.55
31.8157	506.20
31.8302	466.44
31.8446	495.26
31.8590	526.40
31.8735	528.04
31.8879	486.91
31.9024	504.98
31.9168	506.16
31.9312	526.72
31.9457	501.53
31.9601	506.18
31.9746	524.00
31.9890	503.50
32.0034	505.61
32.0179	480.93
32.0323	506.24
32.0468	499.37
32.0612	516.88
32.0756	510.66
32.0901	524.23
32.1045	508.10
32.1190	562.85
32.1334	507.34
32.1478	473.75
32.1623	532.63
32.1767	544.17
32.1912	523.44
32.2056	505.46
32.2200	503.70
32.2345	499.85
32.2489	504.99
32.2634	504.40
32.2778	526.96
32.2922	505.93
32.3067	525.70
32.3211	547.58
32.3356	508.45
32.3500	483.63
32.3644	484.15
32.3789	509.76
32.3933	475.27
32.4078	503.09
32.4222	541.76
32.4366	495.94
32.4511	484.16
32.4655	502.89
32.4800	487.86
32.4944	493.80
32.5088	499.57
32.5233	498.30
32.5377	478.68
32.5522	503.78
32.5666	496.65
32.5810	465.15
32.5955	481.70
32.6099	486.36
32.6244	500.59
32.6388	500.95
32.6532	481.72
32.6677	478.70
32.6821	488.54
32.6966	521.65
32.7110	514.73
32.7254	516.84
32.7399	475.60
32.7543	508.43
32.7688	489.87
32.7832	488.70
32.7976	505.81
32.8121	481.16
32.8265	499.58
32.8410	514.70
32.8554	536.64
32.8698	510.63
32.8843	488.75
32.8987	510.35
32.9132	542.58
32.9276	482.06
32.9420	506.11
32.9565	493.75
32.9709	433.13
32.9854	469.30
32.9998	507.23
33.0142	525.09
33.0287	499.36
33.0431	497.05
33.0576	508.21
33.0720	480.30
33.0864	509.48
33.1009	510.96
33.1153	513.38
33.1298	523.95
33.1442	483.10
33.1586	462.72
33.1731	485.97
33.1875	507.67
33.2020	508.62
33.2164	517.15
33.2308	476.77
33.2453	514.39
33.2597	520.79
33.2742	506.00
33.2886	507.09
33.3030	482.75
33.3175	529.11
33.3319	539.74
33.3464	483.28
33.3608	504.27
33.3752	503.82
33.3897	498.23
33.4041	484.44
33.4186	550.67
33.4330	530.99
33.4474	476.60
33.4619	476.17
33.4763	502.50
33.4908	498.91
33.5052	498.46
33.5196	498.08
33.5341	477.47
33.5485	521.89
33.5630	497.53
33.5774	479.71
33.5918	503.82
33.6063	498.90
33.6207	509.91
33.6352	519.10
33.6496	502.17
33.6640	514.02
33.6785	507.17
33.6929	508.07
33.7074	503.59
33.7218	505.25
33.7362	519.30
33.7507	540.96
33.7651	518.01
33.7796	496.69
33.7940	482.63
33.8084	540.81
33.8229	530.69
33.8373	528.15
33.8518	488.02
33.8662	499.05
33.8806	499.49
33.8951	455.68
33.9095	474.59
33.9240	475.85
33.9384	526.59
33.9528	528.17
33.9673	526.78
33.9817	505.95
33.9962	489.10
34.0106	496.40
34.0250	507.07
34.0395	489.29
34.0539	504.97
34.0684	486.52
34.0828	506.38
34.0972	489.32
34.1117	463.99
34.1261	495.05
34.1406	507.46
34.1550	506.11
34.1694	495.45
34.1839	509.66
34.1983	496.58
34.2128	508.82
34.2272	535.79
34.2417	527.59
34.2561	477.91
34.2705	491.63
34.2850	493.73
34.2994	499.07
34.3139	513.09
34.3283	546.20
34.3427	561.57
34.3572	522.50
34.3716	519.56
34.3861	489.44
34.4005	489.41
34.4149	517.33
34.4294	497.94
34.4438	489.52
34.4583	489.47
34.4727	522.71
34.4871	534.58
34.5016	535.46
34.5160	528.75
34.5305	497.90
34.5449	493.22
34.5593	528.88
34.5738	511.83
34.5882	537.56
34.6027	522.75
34.6171	518.76
34.6315	545.37
34.6460	529.78
34.6604	512.24
34.6749	496.60
34.6893	476.53
34.7037	515.12
34.7182	516.97
34.7326	509.20
34.7471	514.97
34.7615	489.98
34.7759	505.23
34.7904	522.82
34.8048	518.03
34.8193	533.64
34.8337	496.77
34.8481	489.08
34.8626	533.67
34.8770	522.57
34.8915	488.27
34.9059	495.07
34.9203	515.80
34.9348	526.19
34.9492	508.43
34.9637	505.26
34.9781	517.16
34.9925	499.14
35.0070	514.32
35.0214	545.71
35.0359	521.76
35.0503	506.32
35.0647	501.27
35.0792	506.06
35.0936	529.29
35.1081	526.83
35.1225	522.40
35.1369	544.70
35.1514	496.39
35.1658	523.86
35.1803	529.98
35.1947	545.07
35.2091	561.11
35.2236	548.44
35.2380	531.98
35.2525	518.02
35.2669	485.04
35.2813	522.65
35.2958	534.29
35.3102	536.42
35.3247	525.17
35.3391	514.21
35.3535	531.58
35.3680	520.95
35.3824	481.26
35.3969	490.47
35.4113	503.75
35.4257	520.37
35.4402	549.21
35.4546	531.72
35.4691	538.89
35.4835	500.63
35.4979	515.62
35.5124	541.42
35.5268	517.67
35.5413	535.21
35.5557	579.76
35.5701	551.09
35.5846	518.50
35.5990	500.26
35.6135	496.46
35.6279	519.60
35.6423	531.05
35.6568	529.14
35.6712	536.66
35.6857	582.12
35.7001	667.26
35.7145	707.27
35.7290	665.48
35.7434	596.29
35.7579	557.00
35.7723	568.63
35.7867	636.92
35.8012	663.83
35.8156	631.32
35.8301	620.91
35.8445	597.67
35.8589	631.16
35.8734	700.95
35.8878	882.95
35.9023	1039.27
35.9167	1084.36
35.9311	1553.19
35.9456	2440.00
35.9600	2405.04
35.9745	1891.01
35.9889	1781.66
36.0033	2192.93
36.0178	2198.36
36.0322	1951.79
36.0467	1796.92
36.0611	1618.74
36.0755	1583.78
36.0900	1501.45
36.1044	1294.62
36.1189	1240.97
36.1333	1135.05
36.1477	1018.57
36.1622	1045.83
36.1766	943.78
36.1911	834.23
36.2055	731.84
36.2199	722.80
36.2344	717.82
36.2488	735.44
36.2633	691.56
36.2777	727.94
36.2921	809.63
36.3066	812.12
36.3210	867.75
36.3355	877.24
36.3499	897.44
36.3643	959.85
36.3788	987.92
36.3932	959.28
36.4077	943.03
36.4221	1012.26
36.4365	939.81
36.4510	937.90
36.4654	898.79
36.4799	874.41
36.4943	835.82
36.5087	847.05
36.5232	814.31
36.5376	784.74
36.5521	727.07
36.5665	682.90
36.5809	651.03
36.5954	627.01
36.6098	609.42
36.6243	586.06
36.6387	603.24
36.6531	597.76
36.6676	561.39
36.6820	578.82
36.6965	556.50
36.7109	548.67
36.7253	564.51
36.7398	542.62
36.7542	549.88
36.7687	544.85
36.7831	567.90
36.7975	555.34
36.8120	568.01
36.8264	582.51
36.8409	584.54
36.8553	601.13
36.8697	634.19
36.8842	615.98
36.8986	620.81
36.9131	594.80
36.9275	600.87
36.9419	627.89
36.9564	593.78
36.9708	574.92
36.9853	590.36
36.9997	564.83
37.0141	531.25
37.0286	553.53
37.0430	540.71
37.0575	541.40
37.0719	529.20
37.0863	512.31
37.1008	535.93
37.1152	505.61
37.1297	549.02
37.1441	506.66
37.1585	542.46
37.1730	519.46
37.1874	536.38
37.2019	528.61
37.2163	550.36
37.2307	509.71
37.2452	548.88
37.2596	532.40
37.2741	487.68
37.2885	472.01
37.3029	488.92
37.3174	472.68
37.3318	509.88
37.3463	529.20
37.3607	493.48
37.3751	497.17
37.3896	463.97
37.4040	490.52
37.4185	536.99
37.4329	539.09
37.4473	513.81
37.4618	520.08
37.4762	513.35
37.4907	498.86
37.5051	497.02
37.5195	503.36
37.5340	522.87
37.5484	528.74
37.5629	546.48
37.5773	505.12
37.5917	476.74
37.6062	484.02
37.6206	499.38
37.6351	508.22
37.6495	495.30
37.6639	508.27
37.6784	468.97
37.6928	480.62
37.7073	523.44
37.7217	512.60
37.7361	507.24
37.7506	508.61
37.7650	508.07
37.7795	510.01
37.7939	490.56
37.8083	510.97
37.8228	505.09
37.8372	502.71
37.8517	450.90
37.8661	463.41
37.8805	487.19
37.8950	527.61
37.9094	502.64
37.9239	492.37
37.9383	473.47
37.9528	534.10
37.9672	543.98
37.9816	506.00
37.9961	511.14
38.0105	506.03
38.0250	533.43
38.0394	517.50
38.0538	496.97
38.0683	509.93
38.0827	516.27
38.0972	532.69
38.1116	508.39
38.1260	510.60
38.1405	528.71
38.1549	514.99
38.1694	523.02
38.1838	503.59
38.1982	519.78
38.2127	533.87
38.2271	497.31
38.2416	504.17
38.2560	484.25
38.2704	462.45
38.2849	482.43
38.2993	521.74
38.3138	481.29
38.3282	489.18
38.3426	514.77
38.3571	518.11
38.3715	497.11
38.3860	510.50
38.4004	502.16
38.4148	552.17
38.4293	592.23
38.4437	587.54
38.4582	597.87
38.4726	671.88
38.4870	723.14
38.5015	739.70
38.5159	781.19
38.5304	834.98
38.5448	821.39
38.5592	777.45
38.5737	750.60
38.5881	742.22
38.6026	700.83
38.6170	700.72
38.6314	704.27
38.6459	678.24
38.6603	629.56
38.6748	617.83
38.6892	599.36
38.7036	560.46
38.7181	529.98
38.7325	503.99
38.7470	519.09
38.7614	508.89
38.7758	508.97
38.7903	500.94
38.8047	519.73
38.8192	519.26
38.8336	491.24
38.8480	508.91
38.8625	538.53
38.8769	513.81
38.8914	490.66
38.9058	480.60
38.9202	496.68
38.9347	514.55
38.9491	508.62
38.9636	511.55
38.9780	511.30
38.9924	496.66
39.0069	500.18
39.0213	523.40
39.0358	526.24
39.0502	486.20
39.0646	490.34
39.0791	505.19
39.0935	512.80
39.1080	517.59
39.1224	549.55
39.1368	527.82
39.1513	511.74
39.1657	506.06
39.1802	516.61
39.1946	509.24
39.2090	496.76
39.2235	501.30
39.2379	506.94
39.2524	483.40
39.2668	493.36
39.2812	496.76
39.2957	501.81
39.3101	506.61
39.3246	515.18
39.3390	528.02
39.3534	525.84
39.3679	522.75
39.3823	546.11
39.3968	525.29
39.4112	514.31
39.4256	511.82
39.4401	476.19
39.4545	469.81
39.4690	541.26
39.4834	536.27
39.4978	483.46
39.5123	488.54
39.5267	493.52
39.5412	483.48
39.5556	532.19
39.5700	465.98
39.5845	454.24
39.5989	469.06
39.6134	495.10
39.6278	520.35
39.6422	507.38
39.6567	490.00
39.6711	535.79
39.6856	478.74
39.7000	527.63
39.7144	510.97
39.7289	486.24
39.7433	500.53
39.7578	512.19
39.7722	483.46
39.7866	523.83
39.8011	499.44
39.8155	512.06
39.8300	506.80
39.8444	505.38
39.8588	521.89
39.8733	515.86
39.8877	485.28
39.9022	513.15
39.9166	495.72
39.9310	476.25
39.9455	473.43
39.9599	477.34
39.9744	473.66
39.9888	494.69
40.0032	475.95
40.0177	470.15
40.0321	494.94
40.0466	481.20
40.0610	508.37
40.0754	494.78
40.0899	535.55
40.1043	467.31
40.1188	524.31
40.1332	488.86
40.1476	489.10
40.1621	500.99
40.1765	477.45
40.1910	489.07
40.2054	473.79
40.2198	505.84
40.2343	536.80
40.2487	520.05
40.2632	498.54
40.2776	482.31
40.2920	490.74
40.3065	460.84
40.3209	500.55
40.3354	491.59
40.3498	496.97
40.3642	487.70
40.3787	520.94
40.3931	510.84
40.4076	497.66
40.4220	471.14
40.4364	505.87
40.4509	493.58
40.4653	519.27
40.4798	496.42
40.4942	495.59
40.5086	479.97
40.5231	490.07
40.5375	518.34
40.5520	461.64
40.5664	498.21
40.5808	505.08
40.5953	509.66
40.6097	524.66
40.6242	492.63
40.6386	488.94
40.6530	514.21
40.6675	503.57
40.6819	472.40
40.6964	496.63
40.7108	565.97
40.7252	485.31
40.7397	467.90
40.7541	462.59
40.7686	493.52
40.7830	494.19
40.7974	494.30
40.8119	510.58
40.8263	525.37
40.8408	517.47
40.8552	486.90
40.8696	521.75
40.8841	501.01
40.8985	517.49
40.9130	498.85
40.9274	480.25
40.9418	506.14
40.9563	527.50
40.9707	528.40
40.9852	506.30
40.9996	449.82
41.0140	506.24
41.0285	528.11
41.0429	481.93
41.0574	454.46
41.0718	502.90
41.0862	520.72
41.1007	522.23
41.1151	496.53
41.1296	505.64
41.1440	501.70
41.1584	494.42
41.1729	486.17
41.1873	475.46
41.2018	490.82
41.2162	506.74
41.2306	487.72
41.2451	481.08
41.2595	492.74
41.2740	513.91
41.2884	510.35
41.3028	472.85
41.3173	470.38
41.3317	513.03
41.3462	522.93
41.3606	486.65
41.3750	529.34
41.3895	502.05
41.4039	531.97
41.4184	522.14
41.4328	525.61
41.4472	511.25
41.4617	505.58
41.4761	505.75
41.4906	512.98
41.5050	496.84
41.5194	467.18
41.5339	497.81
41.5483	492.16
41.5628	520.08
41.5772	465.80
41.5916	483.06
41.6061	525.10
41.6205	499.17
41.6350	494.81
41.6494	451.12
41.6639	494.60
41.6783	493.86
41.6927	490.48
41.7072	520.35
41.7216	477.91
41.7361	504.44
41.7505	516.98
41.7649	495.89
41.7794	495.65
41.7938	502.11
41.8083	526.24
41.8227	513.14
41.8371	498.15
41.8516	526.57
41.8660	527.77
41.8805	532.68
41.8949	534.06
41.9093	504.62
41.9238	526.91
41.9382	565.86
41.9527	533.06
41.9671	535.13
41.9815	520.94
41.9960	563.38
42.0104	565.14
42.0249	566.57
42.0393	553.28
42.0537	575.57
42.0682	568.15
42.0826	593.64
42.0971	599.55
42.1115	568.55
42.1259	612.73
42.1404	594.54
42.1548	595.51
42.1693	633.86
42.1837	676.79
42.1981	769.42
42.2126	829.23
42.2270	935.52
42.2415	1059.12
42.2559	1224.20
42.2703	1353.39
42.2848	1499.89
42.2992	1584.88
42.3137	1619.93
42.3281	1612.88
42.3425	1584.64
42.3570	1449.97
42.3714	1391.39
42.3859	1361.07
42.4003	1336.22
42.4147	1307.78
42.4292	1257.72
42.4436	1182.79
42.4581	1075.97
42.4725	949.55
42.4869	822.52
42.5014	761.58
42.5158	693.83
42.5303	652.81
42.5447	627.78
42.5591	634.86
42.5736	577.66
42.5880	559.01
42.6025	562.08
42.6169	552.45
42.6313	533.46
42.6458	538.71
42.6602	531.92
42.6747	542.93
42.6891	525.26
42.7035	563.66
42.7180	575.43
42.7324	527.52
42.7469	529.42
42.7613	525.53
42.7757	495.04
42.7902	547.99
42.8046	524.43
42.8191	503.09
42.8335	506.18
42.8479	505.22
42.8624	534.70
42.8768	517.09
42.8913	518.38
42.9057	539.19
42.9201	534.60
42.9346	510.38
42.9490	481.55
42.9635	480.05
42.9779	479.51
42.9923	494.39
43.0068	512.60
43.0212	525.78
43.0357	493.29
43.0501	510.65
43.0645	552.06
43.0790	534.87
43.0934	533.82
43.1079	515.82
43.1223	499.40
43.1367	532.37
43.1512	493.79
43.1656	516.57
43.1801	527.96
43.1945	498.54
43.2089	509.48
43.2234	514.41
43.2378	506.68
43.2523	508.69
43.2667	508.40
43.2811	530.61
43.2956	532.60
43.3100	520.20
43.3245	498.94
43.3389	489.92
43.3533	505.41
43.3678	509.97
43.3822	529.18
43.3967	491.25
43.4111	505.99
43.4255	539.67
43.4400	528.11
43.4544	529.17
43.4689	522.34
43.4833	531.64
43.4977	525.13
43.5122	499.71
43.5266	504.83
43.5411	532.43
43.5555	529.49
43.5699	513.01
43.5844	522.54
43.5988	497.08
43.6133	505.48
43.6277	515.94
43.6421	491.10
43.6566	508.36
43.6710	492.83
43.6855	489.44
43.6999	508.66
43.7143	530.14
43.7288	508.20
43.7432	504.10
43.7577	468.69
43.7721	502.28
43.7865	539.63
43.8010	524.89
43.8154	519.27
43.8299	536.02
43.8443	547.18
43.8587	547.02
43.8732	540.01
43.8876	507.79
43.9021	511.25
43.9165	508.61
43.9309	515.91
43.9454	510.83
43.9598	496.16
43.9743	465.95
43.9887	505.02
44.0031	502.93
44.0176	551.83
44.0320	519.46
44.0465	545.58
44.0609	499.89
44.0753	541.20
44.0898	530.75
44.1042	523.65
44.1187	585.93
44.1331	580.81
44.1475	536.18
44.1620	584.63
44.1764	582.38
44.1909	583.03
44.2053	616.29
44.2197	652.30
44.2342	669.38
44.2486	589.30
44.2631	608.39
44.2775	640.73
44.2919	650.72
44.3064	624.94
44.3208	627.95
44.3353	643.47
44.3497	577.41
44.3641	614.60
44.3786	597.15
44.3930	595.78
44.4075	580.07
44.4219	611.59
44.4363	630.26
44.4508	580.32
44.4652	586.52
44.4797	593.18
44.4941	560.27
44.5085	552.06
44.5230	581.42
44.5374	608.37
44.5519	607.74
44.5663	573.56
44.5807	564.80
44.5952	599.28
44.6096	558.63
44.6241	588.23
44.6385	599.59
44.6529	540.74
44.6674	604.18
44.6818	584.42
44.6963	613.91
44.7107	681.28
44.7251	693.93
44.7396	750.52
44.7540	818.32
44.7685	850.27
44.7829	902.71
44.7973	892.14
44.8118	848.41
44.8262	806.55
44.8407	725.04
44.8551	739.43
44.8695	687.45
44.8840	740.33
44.8984	760.56
44.9129	749.08
44.9273	785.55
44.9417	675.99
44.9562	625.74
44.9706	551.60
44.9851	530.34
44.9995	512.75
45.0139	562.93
45.0284	525.47
45.0428	490.16
45.0573	485.85
45.0717	531.32
45.0861	556.12
45.1006	526.45
45.1150	540.73
45.1295	483.01
45.1439	492.69
45.1583	544.79
45.1728	570.16
45.1872	502.42
45.2017	507.23
45.2161	512.35
45.2305	499.67
45.2450	528.61
45.2594	522.05
45.2739	526.36
45.2883	499.57
45.3028	518.73
45.3172	494.77
45.3316	502.72
45.3461	529.86
45.3605	519.15
45.3750	517.31
45.3894	531.51
45.4038	503.61
45.4183	528.42
45.4327	498.09
45.4472	509.12
45.4616	490.47
45.4760	511.22
45.4905	525.66
45.5049	470.57
45.5194	498.35
45.5338	542.51
45.5482	497.41
45.5627	504.96
45.5771	505.45
45.5916	498.97
45.6060	552.11
45.6204	504.74
45.6349	517.57
45.6493	483.56
45.6638	504.35
45.6782	488.65
45.6926	506.33
45.7071	547.14
45.7215	524.39
45.7360	495.01
45.7504	514.37
45.7648	527.49
45.7793	505.80
45.7937	470.64
45.8082	492.40
45.8226	519.24
45.8370	497.35
45.8515	489.97
45.8659	513.12
45.8804	494.46
45.8948	502.66
45.9092	518.18
45.9237	496.49
45.9381	471.18
45.9526	503.66
45.9670	504.84
45.9814	466.20
45.9959	481.39
46.0103	467.90
46.0248	496.60
46.0392	500.65
46.0536	522.13
46.0681	502.19
46.0825	507.07
46.0970	480.88
46.1114	505.65
46.1258	493.56
46.1403	480.88
46.1547	460.56
46.1692	496.00
46.1836	478.47
46.1980	475.62
46.2125	494.09
46.2269	475.06
46.2414	497.93
46.2558	486.60
46.2702	519.26
46.2847	493.89
46.2991	494.31
46.3136	507.10
46.3280	501.20
46.3424	511.35
46.3569	476.08
46.3713	486.20
46.3858	497.91
46.4002	521.64
46.4146	540.01
46.4291	528.45
46.4435	494.08
46.4580	486.03
46.4724	513.14
46.4868	480.21
46.5013	512.92
46.5157	500.59
46.5302	486.97
46.5446	487.47
46.5590	483.48
46.5735	491.63
46.5879	511.78
46.6024	487.90
46.6168	462.58
46.6312	465.98
46.6457	490.36
46.6601	512.23
46.6746	504.70
46.6890	508.84
46.7034	495.86
46.7179	499.46
46.7323	523.28
46.7468	491.17
46.7612	522.30
46.7756	505.07
46.7901	519.25
46.8045	507.76
46.8190	493.68
46.8334	473.77
46.8478	490.72
46.8623	517.13
46.8767	503.95
46.8912	497.89
46.9056	521.00
46.9200	527.91
46.9345	524.98
46.9489	503.52
46.9634	496.12
46.9778	481.06
46.9922	516.17
47.0067	491.52
47.0211	506.00
47.0356	501.97
47.0500	495.51
47.0644	501.77
47.0789	506.73
47.0933	496.32
47.1078	493.57
47.1222	553.15
47.1366	556.49
47.1511	507.19
47.1655	517.13
47.1800	518.85
47.1944	514.69
47.2088	511.20
47.2233	496.63
47.2377	515.15
47.2522	525.75
47.2666	521.75
47.2810	464.13
47.2955	464.30
47.3099	493.91
47.3244	487.20
47.3388	511.64
47.3532	516.09
47.3677	499.90
47.3821	478.67
47.3966	491.11
47.4110	508.59
47.4254	531.77
47.4399	518.31
47.4543	481.42
47.4688	510.02
47.4832	526.86
47.4976	532.08
47.5121	484.15
47.5265	514.58
47.5410	533.16
47.5554	499.46
47.5698	506.07
47.5843	485.01
47.5987	511.73
47.6132	521.26
47.6276	498.07
47.6420	471.62
47.6565	498.15
47.6709	491.06
47.6854	511.46
47.6998	505.81
47.7142	492.98
47.7287	481.86
47.7431	492.83
47.7576	514.98
47.7720	516.74
47.7864	521.90
47.8009	495.80
47.8153	503.62
47.8298	501.43
47.8442	486.51
47.8586	521.29
47.8731	501.34
47.8875	484.51
47.9020	513.86
47.9164	497.29
47.9308	510.52
47.9453	525.90
47.9597	455.97
47.9742	499.26
47.9886	524.48
48.0030	537.00
48.0175	502.80
48.0319	485.03
48.0464	511.08
48.0608	511.54
48.0752	485.92
48.0897	498.32
48.1041	499.74
48.1186	498.00
48.1330	483.99
48.1474	451.15
48.1619	493.72
48.1763	485.07
48.1908	485.50
48.2052	485.88
48.2196	503.23
48.2341	545.39
48.2485	549.40
48.2630	516.09
48.2774	528.76
48.2918	503.22
48.3063	513.44
48.3207	509.83
48.3352	558.25
48.3496	508.84
48.3640	488.15
48.3785	483.86
48.3929	507.17
48.4074	495.14
48.4218	534.13
48.4362	537.46
48.4507	492.99
48.4651	534.94
48.4796	490.11
48.4940	502.39
48.5084	494.12
48.5229	523.36
48.5373	543.58
48.5518	485.91
48.5662	490.64
48.5806	516.95
48.5951	500.70
48.6095	513.88
48.6240	552.36
48.6384	524.73
48.6528	547.58
48.6673	538.93
48.6817	522.35
48.6962	489.14
48.7106	511.89
48.7250	520.48
48.7395	522.15
48.7539	516.89
48.7684	532.96
48.7828	556.55
48.7972	532.25
48.8117	520.39
48.8261	548.11
48.8406	549.86
48.8550	523.50
48.8694	530.53
48.8839	572.60
48.8983	564.71
48.9128	558.39
48.9272	554.47
48.9416	569.05
48.9561	526.58
48.9705	556.06
48.9850	588.97
48.9994	575.87
49.0139	562.68
49.0283	593.11
49.0427	591.21
49.0572	598.91
49.0716	632.14
49.0861	658.61
49.1005	669.30
49.1149	701.56
49.1294	741.36
49.1438	756.90
49.1583	786.40
49.1727	824.60
49.1871	858.07
49.2016	966.34
49.2160	1005.73
49.2305	1093.13
49.2449	1159.50
49.2593	1248.77
49.2738	1393.15
49.2882	1472.76
49.3027	1565.35
49.3171	1587.05
49.3315	1709.20
49.3460	1773.01
49.3604	1853.89
49.3749	1830.53
49.3893	1780.58
49.4037	1755.21
49.4182	1790.94
49.4326	1721.32
49.4471	1581.59
49.4615	1621.71
49.4759	1595.69
49.4904	1548.70
49.5048	1398.23
49.5193	1357.20
49.5337	1313.74
49.5481	1191.60
49.5626	1115.23
49.5770	1039.41
49.5915	960.54
49.6059	904.90
49.6203	845.65
49.6348	833.29
49.6492	814.67
49.6637	755.74
49.6781	736.67
49.6925	696.33
49.7070	701.01
49.7214	661.78
49.7359	643.57
49.7503	614.10
49.7647	576.18
49.7792	573.69
49.7936	588.85
49.8081	572.92
49.8225	614.88
49.8369	574.78
49.8514	536.22
49.8658	576.60
49.8803	519.53
49.8947	525.73
49.9091	530.49
49.9236	542.34
49.9380	577.02
49.9525	501.82
49.9669	523.59
49.9813	559.09
49.9958	555.41
50.0102	538.32
50.0247	540.74
50.0391	523.72
50.0535	499.85
50.0680	542.70
50.0824	522.39
50.0969	540.25
50.1113	558.32
50.1257	531.45
50.1402	480.22
50.1546	509.78
50.1691	521.77
50.1835	513.46
50.1979	484.09
50.2124	480.63
50.2268	542.33
50.2413	516.06
50.2557	530.87
50.2701	491.32
50.2846	515.14
50.2990	503.37
50.3135	498.63
50.3279	494.05
50.3423	512.93
50.3568	522.03
50.3712	510.02
50.3857	524.09
50.4001	475.62
50.4145	495.38
50.4290	538.89
50.4434	482.84
50.4579	502.89
50.4723	545.03
50.4867	501.21
50.5012	497.73
50.5156	518.06
50.5301	516.28
50.5445	498.24
50.5589	509.42
50.5734	513.19
50.5878	518.84
50.6023	503.16
50.6167	513.35
50.6311	513.02
50.6456	517.24
50.6600	512.56
50.6745	476.11
50.6889	482.52
50.7033	526.69
50.7178	521.75
50.7322	486.53
50.7467	527.58
50.7611	531.10
50.7755	506.64
50.7900	510.65
50.8044	538.07
50.8189	540.38
50.8333	505.40
50.8477	495.95
50.8622	517.01
50.8766	510.36
50.8911	507.47
50.9055	536.88
50.9199	533.31
50.9344	517.73
50.9488	514.99
50.9633	502.65
50.9777	538.39
50.9921	528.81
51.0066	482.31
51.0210	467.06
51.0355	516.58
51.0499	474.86
51.0643	501.93
51.0788	528.47
51.0932	559.62
51.1077	556.42
51.1221	528.82
51.1365	483.70
51.1510	466.64
51.1654	543.78
51.1799	520.69
51.1943	503.35
51.2087	524.95
51.2232	512.37
51.2376	540.12
51.2521	509.56
51.2665	497.61
51.2809	540.50
51.2954	520.77
51.3098	493.22
51.3243	513.27
51.3387	504.61
51.3531	497.47
51.3676	517.36
51.3820	519.29
51.3965	501.11
51.4109	528.21
51.4253	515.03
51.4398	518.65
51.4542	530.28
51.4687	542.40
51.4831	502.90
51.4975	512.44
51.5120	512.58
51.5264	523.23
51.5409	494.14
51.5553	523.13
51.5697	497.21
51.5842	489.17
51.5986	515.19
51.6131	504.15
51.6275	511.24
51.6419	557.34
51.6564	527.20
51.6708	525.67
51.6853	485.97
51.6997	500.68
51.7141	539.06
51.7286	501.79
51.7430	491.27
51.7575	494.70
51.7719	493.90
51.7863	489.08
51.8008	491.75
51.8152	528.23
51.8297	517.56
51.8441	501.85
51.8585	540.34
51.8730	530.54
51.8874	545.32
51.9019	524.44
51.9163	544.14
51.9307	529.58
51.9452	527.96
51.9596	497.11
51.9741	499.30
51.9885	536.58
52.0029	534.46
52.0174	514.22
52.0318	545.84
52.0463	527.58
52.0607	551.23
52.0751	513.99
52.0896	528.59
52.1040	490.91
52.1185	494.01
52.1329	524.26
52.1473	501.62
52.1618	496.08
52.1762	481.07
52.1907	507.18
52.2051	507.97
52.2195	504.66
52.2340	487.42
52.2484	547.52
52.2629	539.39
52.2773	532.70
52.2917	527.15
52.3062	520.69
52.3206	477.29
52.3351	523.57
52.3495	546.21
52.3639	503.18
52.3784	489.99
52.3928	523.74
52.4073	535.24
52.4217	495.88
52.4361	485.29
52.4506	466.22
52.4650	529.80
52.4795	555.83
52.4939	521.47
52.5083	488.18
52.5228	515.21
52.5372	545.15
52.5517	567.68
52.5661	549.87
52.5805	513.96
52.5950	522.46
52.6094	505.28
52.6239	503.28
52.6383	501.00
52.6527	505.49
52.6672	524.24
52.6816	463.93
52.6961	503.74
52.7105	517.97
52.7250	514.38
52.7394	521.56
52.7538	545.69
52.7683	517.24
52.7827	528.00
52.7972	498.71
52.8116	498.08
52.8260	515.15
52.8405	517.01
52.8549	474.96
52.8694	523.92
52.8838	519.54
52.8982	506.04
52.9127	512.87
52.9271	506.39
52.9416	511.27
52.9560	487.37
52.9704	531.40
52.9849	512.50
52.9993	525.37
53.0138	541.39
53.0282	500.68
53.0426	510.66
53.0571	526.72
53.0715	524.58
53.0860	559.99
53.1004	535.09
53.1148	530.74
53.1293	522.31
53.1437	489.44
53.1582	484.83
53.1726	487.26
53.1870	503.39
53.2015	507.62
53.2159	501.20
53.2304	479.29
53.2448	511.76
53.2592	509.81
53.2737	504.37
53.2881	513.41
53.3026	474.11
53.3170	510.81
53.3314	519.40
53.3459	483.40
53.3603	494.08
53.3748	505.01
53.3892	508.07
53.4036	497.48
53.4181	498.85
53.4325	539.79
53.4470	547.24
53.4614	502.44
53.4758	531.07
53.4903	487.61
53.5047	481.54
53.5192	515.73
53.5336	531.84
53.5480	512.26
53.5625	509.85
53.5769	486.43
53.5914	464.99
53.6058	519.36
53.6202	496.97
53.6347	497.00
53.6491	493.75
53.6636	455.51
53.6780	519.88
53.6924	520.58
53.7069	520.97
53.7213	535.16
53.7358	506.25
53.7502	502.87
53.7646	498.45
53.7791	529.13
53.7935	530.01
53.8080	493.03
53.8224	506.30
53.8368	510.26
53.8513	519.84
53.8657	543.70
53.8802	545.76
53.8946	477.81
53.9090	488.95
53.9235	488.81
53.9379	496.48
53.9524	485.64
53.9668	504.69
53.9812	502.94
53.9957	526.15
54.0101	526.00
54.0246	484.39
54.0390	520.55
54.0534	549.63
54.0679	518.11
54.0823	518.89
54.0968	528.33
54.1112	493.72
54.1256	506.68
54.1401	513.07
54.1545	495.88
54.1690	522.18
54.1834	512.66
54.1978	509.42
54.2123	491.69
54.2267	513.32
54.2412	515.32
54.2556	518.32
54.2700	538.70
54.2845	526.71
54.2989	527.80
54.3134	538.63
54.3278	543.82
54.3422	516.06
54.3567	508.24
54.3711	497.49
54.3856	509.73
54.4000	501.02
54.4144	513.46
54.4289	554.75
54.4433	511.30
54.4578	497.20
54.4722	544.15
54.4866	544.81
54.5011	511.21
54.5155	496.19
54.5300	481.98
54.5444	511.43
54.5588	523.77
54.5733	536.17
54.5877	528.54
54.6022	529.69
54.6166	536.64
54.6310	526.37
54.6455	533.83
54.6599	506.07
54.6744	523.35
54.6888	536.82
54.7032	540.51
54.7177	558.28
54.7321	532.93
54.7466	560.78
54.7610	570.42
54.7754	542.72
54.7899	561.51
54.8043	573.65
54.8188	576.93
54.8332	585.77
54.8476	555.96
54.8621	586.83
54.8765	609.86
54.8910	577.51
54.9054	550.57
54.9198	554.81
54.9343	607.15
54.9487	555.04
54.9632	556.74
54.9776	570.77
54.9920	570.47
55.0065	588.63
55.0209	602.78
55.0354	568.78
55.0498	550.62
55.0642	571.58
55.0787	577.61
55.0931	577.17
55.1076	528.23
55.1220	552.24
55.1364	551.68
55.1509	494.54
55.1653	516.31
55.1798	553.26
55.1942	561.34
55.2086	517.24
55.2231	518.44
55.2375	541.09
55.2520	537.85
55.2664	526.82
55.2808	525.89
55.2953	527.10
55.3097	554.17
55.3242	523.99
55.3386	518.85
55.3530	526.80
55.3675	527.94
55.3819	493.82
55.3964	509.28
55.4108	498.03
55.4252	544.59
55.4397	536.05
55.4541	518.70
55.4686	546.78
55.4830	519.58
55.4974	506.31
55.5119	508.10
55.5263	574.64
55.5408	545.08
55.5552	505.53
55.5696	502.25
55.5841	529.49
55.5985	517.54
55.6130	504.84
55.6274	488.80
55.6418	548.39
55.6563	535.01
55.6707	508.10
55.6852	526.57
55.6996	537.24
55.7140	495.13
55.7285	522.35
55.7429	512.99
55.7574	520.30
55.7718	525.92
55.7862	543.23
55.8007	557.05
55.8151	520.68
55.8296	539.16
55.8440	505.29
55.8584	480.37
55.8729	490.27
55.8873	515.72
55.9018	534.70
55.9162	525.25
55.9306	478.03
55.9451	498.71
55.9595	514.83
55.9740	548.82
55.9884	567.54
56.0028	532.72
56.0173	509.19
56.0317	537.21
56.0462	568.97
56.0606	511.69
56.0750	514.22
56.0895	546.72
56.1039	542.35
56.1184	584.32
56.1328	505.07
56.1472	471.28
56.1617	527.21
56.1761	560.23
56.1906	527.02
56.2050	517.31
56.2194	544.16
56.2339	561.78
56.2483	525.51
56.2628	542.63
56.2772	576.59
56.2916	519.19
56.3061	535.21
56.3205	525.39
56.3350	539.29
56.3494	522.20
56.3639	528.41
56.3783	517.43
56.3927	506.53
56.4072	490.60
56.4216	493.73
56.4361	521.17
56.4505	490.64
56.4649	537.17
56.4794	506.20
56.4938	524.47
56.5083	527.55
56.5227	536.07
56.5371	529.11
56.5516	531.38
56.5660	524.55
56.5805	511.98
56.5949	524.83
56.6093	554.29
56.6238	499.93
56.6382	543.25
56.6527	506.20
56.6671	553.96
56.6815	501.78
56.6960	509.27
56.7104	548.78
56.7249	546.57
56.7393	543.60
56.7537	538.53
56.7682	496.58
56.7826	499.09
56.7971	504.85
56.8115	543.55
56.8259	540.34
56.8404	503.03
56.8548	490.87
56.8693	527.81
56.8837	513.17
56.8981	525.62
56.9126	555.67
56.9270	565.79
56.9415	564.99
56.9559	496.53
56.9703	502.00
56.9848	532.86
56.9992	526.18
57.0137	530.65
57.0281	508.73
57.0425	484.08
57.0570	502.45
57.0714	544.60
57.0859	498.06
57.1003	504.56
57.1147	552.88
57.1292	531.16
57.1436	514.16
57.1581	513.35
57.1725	486.22
57.1869	533.22
57.2014	510.22
57.2158	514.47
57.2303	518.88
57.2447	526.50
57.2591	487.83
57.2736	545.28
57.2880	546.64
57.3025	483.14
57.3169	513.73
57.3313	522.23
57.3458	535.46
57.3602	542.82
57.3747	532.92
57.3891	506.20
57.4035	496.89
57.4180	494.58
57.4324	535.61
57.4469	520.77
57.4613	553.62
57.4757	553.11
57.4902	539.92
57.5046	525.71
57.5191	533.49
57.5335	538.44
57.5479	529.39
57.5624	552.82
57.5768	526.73
57.5913	524.75
57.6057	526.86
57.6201	552.27
57.6346	523.77
57.6490	525.91
57.6635	526.98
57.6779	540.51
57.6923	534.93
57.7068	541.94
57.7212	558.34
57.7357	516.69
57.7501	522.98
57.7645	512.91
57.7790	529.21
57.7934	520.84
57.8079	534.42
57.8223	550.77
57.8367	538.98
57.8512	534.13
57.8656	547.91
57.8801	537.92
57.8945	552.46
57.9089	538.03
57.9234	520.83
57.9378	530.60
57.9523	531.35
57.9667	535.58
57.9811	516.05
57.9956	523.00
58.0100	496.88
58.0245	514.09
58.0389	548.41
58.0533	571.57
58.0678	548.32
58.0822	545.73
58.0967	534.94
58.1111	538.54
58.1255	553.90
58.1400	555.79
58.1544	501.66
58.1689	529.52
58.1833	538.95
58.1977	534.03
58.2122	575.75
58.2266	560.37
58.2411	563.65
58.2555	574.99
58.2699	550.40
58.2844	544.56
58.2988	545.84
58.3133	550.65
58.3277	581.07
58.3421	555.91
58.3566	563.68
58.3710	559.42
58.3855	578.27
58.3999	608.36
58.4143	599.52
58.4288	575.56
58.4432	564.83
58.4577	610.06
58.4721	644.57
58.4865	641.24
58.5010	615.75
58.5154	641.65
58.5299	646.21
58.5443	613.96
58.5587	636.08
58.5732	618.77
58.5876	665.57
58.6021	665.61
58.6165	664.85
58.6309	608.78
58.6454	617.01
58.6598	643.69
58.6743	617.83
58.6887	603.88
58.7031	618.39
58.7176	633.65
58.7320	584.40
58.7465	605.63
58.7609	586.28
58.7753	598.84
58.7898	586.85
58.8042	590.56
58.8187	595.41
58.8331	589.12
58.8475	589.06
58.8620	591.54
58.8764	558.13
58.8909	579.08
58.9053	597.54
58.9197	536.46
58.9342	543.74
58.9486	541.23
58.9631	536.15
58.9775	582.04
58.9919	542.35
59.0064	525.48
59.0208	557.37
59.0353	554.70
59.0497	559.68
59.0641	567.90
59.0786	539.00
59.0930	539.68
59.1075	524.57
59.1219	513.17
59.1363	549.76
59.1508	560.40
59.1652	575.52
59.1797	561.24
59.1941	562.89
59.2085	563.52
59.2230	537.45
59.2374	564.87
59.2519	544.09
59.2663	566.97
59.2807	577.11
59.2952	535.59
59.3096	527.89
59.3241	566.02
59.3385	539.68
59.3529	550.55
59.3674	547.08
59.3818	547.76
59.3963	559.58
59.4107	528.28
59.4251	559.94
59.4396	564.31
59.4540	561.13
59.4685	603.02
59.4829	554.44
59.4973	526.59
59.5118	574.60
59.5262	578.50
59.5407	564.70
59.5551	564.62
59.5695	563.31
59.5840	570.71
59.5984	548.85
59.6129	555.33
59.6273	532.43
59.6417	541.00
59.6562	548.98
59.6706	537.43
59.6851	519.48
59.6995	500.19
59.7139	540.13
59.7284	515.79
59.7428	522.52
59.7573	538.14
59.7717	564.08
59.7861	556.08
59.8006	581.52
59.8150	552.03
59.8295	539.59
59.8439	525.94
59.8583	508.19
59.8728	557.83
59.8872	553.03
59.9017	552.69
59.9161	509.63
59.9305	504.03
59.9450	493.58
59.9594	498.90
59.9739	561.02
59.9883	571.72
60.0027	569.92
60.0172	543.15
60.0316	542.99
60.0461	554.89
60.0605	546.83
60.0750	576.79
60.0894	596.36
60.1038	555.69
60.1183	553.81
60.1327	539.18
60.1472	521.72
60.1616	537.23
60.1760	526.63
60.1905	572.75
60.2049	543.11
60.2194	538.06
60.2338	538.41
60.2482	567.66
60.2627	537.36
60.2771	558.34
60.2916	503.80
60.3060	552.28
60.3204	581.60
60.3349	577.37
60.3493	543.52
60.3638	502.71
60.3782	517.93
60.3926	532.80
60.4071	533.26
60.4215	568.84
60.4360	554.15
60.4504	518.98
60.4648	566.30
60.4793	557.98
60.4937	538.30
60.5082	497.22
60.5226	543.19
60.5370	543.57
60.5515	540.48
60.5659	573.13
60.5804	501.96
60.5948	548.37
60.6092	565.20
60.6237	534.50
60.6381	537.27
60.6526	544.18
60.6670	502.23
60.6814	537.88
60.6959	526.47
60.7103	543.96
60.7248	543.05
60.7392	517.93
60.7536	543.66
60.7681	549.09
60.7825	519.22
60.7970	538.70
60.8114	538.71
60.8258	520.27
60.8403	522.43
60.8547	578.55
60.8692	583.39
60.8836	574.42
60.8980	560.35
60.9125	546.71
60.9269	536.99
60.9414	537.06
60.9558	508.59
60.9702	562.51
60.9847	543.99
60.9991	549.98
61.0136	581.48
61.0280	535.34
61.0424	545.77
61.0569	531.78
61.0713	516.96
61.0858	588.06
61.1002	560.60
61.1146	567.32
61.1291	568.95
61.1435	497.20
61.1580	505.29
61.1724	549.26
61.1868	522.59
61.2013	549.23
61.2157	523.11
61.2302	543.51
61.2446	558.33
61.2590	507.80
61.2735	554.20
61.2879	518.38
61.3024	527.95
61.3168	531.42
61.3312	549.66
61.3457	540.87
61.3601	580.14
61.3746	588.11
61.3890	528.35
61.4034	526.80
61.4179	535.97
61.4323	568.68
61.4468	559.98
61.4612	546.99
61.4756	536.29
61.4901	544.52
61.5045	566.00
61.5190	538.61
61.5334	560.73
61.5478	555.37
61.5623	547.59
61.5767	545.47
61.5912	537.34
61.6056	533.14
61.6200	525.62
61.6345	552.45
61.6489	532.88
61.6634	554.84
61.6778	525.16
61.6922	540.15
61.7067	574.62
61.7211	546.50
61.7356	530.39
61.7500	558.54
61.7644	527.82
61.7789	531.48
61.7933	565.06
61.8078	564.48
61.8222	578.48
61.8366	537.77
61.8511	545.30
61.8655	549.85
61.8800	533.26
61.8944	553.22
61.9088	546.53
61.9233	550.19
61.9377	567.25
61.9522	546.06
61.9666	514.25
61.9810	552.32
61.9955	575.59
62.0099	539.18
62.0244	545.80
62.0388	551.62
62.0532	537.87
62.0677	566.80
62.0821	578.23
62.0966	561.96
62.1110	558.92
62.1254	584.96
62.1399	537.40
62.1543	506.24
62.1688	543.11
62.1832	563.91
62.1976	571.72
62.2121	563.20
62.2265	576.86
62.2410	597.02
62.2554	566.60
62.2698	556.59
62.2843	525.78
62.2987	533.44
62.3132	587.58
62.3276	564.24
62.3420	555.68
62.3565	511.76
62.3709	520.18
62.3854	555.98
62.3998	548.14
62.4142	536.57
62.4287	583.65
62.4431	552.30
62.4576	559.24
62.4720	521.16
62.4864	513.28
62.5009	556.25
62.5153	567.18
62.5298	549.96
62.5442	536.70
62.5586	522.88
62.5731	546.33
62.5875	582.66
62.6020	530.21
62.6164	545.60
62.6308	548.50
62.6453	573.35
62.6597	601.16
62.6742	552.12
62.6886	540.16
62.7030	576.20
62.7175	589.20
62.7319	549.59
62.7464	553.38
62.7608	536.61
62.7752	563.44
62.7897	548.89
62.8041	547.22
62.8186	532.57
62.8330	570.40
62.8474	541.21
62.8619	577.17
62.8763	524.65
62.8908	521.09
62.9052	550.97
62.9196	542.20
62.9341	540.26
62.9485	534.82
62.9630	532.43
62.9774	533.31
62.9918	557.58
63.0063	562.25
63.0207	568.99
63.0352	555.59
63.0496	560.32
63.0640	550.04
63.0785	592.05
63.0929	552.43
63.1074	548.17
63.1218	563.11
63.1362	578.75
63.1507	552.29
63.1651	543.11
63.1796	568.60
63.1940	550.72
63.2084	536.22
63.2229	575.58
63.2373	581.59
63.2518	606.12
63.2662	569.48
63.2806	570.63
63.2951	600.42
63.3095	611.00
63.3240	560.12
63.3384	570.46
63.3528	580.48
63.3673	583.15
63.3817	550.69
63.3962	554.74
63.4106	548.76
63.4250	591.27
63.4395	588.98
63.4539	593.38
63.4684	570.50
63.4828	594.81
63.4972	593.21
63.5117	577.31
63.5261	538.68
63.5406	571.58
63.5550	576.51
63.5694	598.97
63.5839	600.39
63.5983	560.72
63.6128	545.67
63.6272	568.73
63.6416	584.07
63.6561	588.82
63.6705	591.63
63.6850	552.33
63.6994	588.14
63.7138	622.92
63.7283	600.03
63.7427	585.67
63.7572	567.50
63.7716	577.92
63.7861	606.18
63.8005	605.19
63.8149	641.60
63.8294	584.86
63.8438	569.53
63.8583	622.91
63.8727	615.51
63.8871	617.29
63.9016	636.03
63.9160	612.78
63.9305	616.24
63.9449	590.17
63.9593	608.11
63.9738	627.84
63.9882	610.97
64.0027	593.85
64.0171	601.27
64.0315	649.66
64.0460	636.55
64.0604	652.70
64.0749	657.34
64.0893	651.55
64.1037	625.19
64.1182	739.56
64.1326	757.43
64.1471	684.62
64.1615	705.60
64.1759	752.48
64.1904	727.11
64.2048	732.19
64.2193	739.11
64.2337	709.89
64.2481	701.43
64.2626	791.01
64.2770	788.08
64.2915	762.10
64.3059	731.12
64.3203	751.00
64.3348	786.08
64.3492	799.37
64.3637	777.29
64.3781	739.25
64.3925	754.76
64.4070	716.03
64.4214	764.48
64.4359	826.30
64.4503	766.76
64.4647	777.98
64.4792	818.34
64.4936	730.78
64.5081	740.94
64.5225	744.91
64.5369	724.63
64.5514	688.89
64.5658	707.87
64.5803	721.17
64.5947	722.33
64.6091	741.63
64.6236	682.06
64.6380	719.54
64.6525	723.53
64.6669	715.47
64.6813	688.26
64.6958	720.92
64.7102	732.59
64.7247	712.96
64.7391	739.15
64.7535	775.44
64.7680	783.28
64.7824	718.01
64.7969	750.01
64.8113	761.15
64.8257	795.37
64.8402	778.88
64.8546	826.35
64.8691	833.93
64.8835	842.87
64.8979	890.29
64.9124	891.71
64.9268	926.09
64.9413	932.07
64.9557	926.68
64.9701	1006.09
64.9846	1087.75
64.9990	1171.53
65.0135	1295.36
65.0279	1508.84
65.0423	1747.47
65.0568	2199.66
65.0712	2806.11
65.0857	3679.81
65.1001	4760.43
65.1145	6420.82
65.1290	8359.34
65.1434	9991.90
65.1579	11417.48
65.1723	11988.20
65.1867	11369.69
65.2012	9790.55
65.2156	8264.72
65.2301	6350.81
65.2445	5272.54
65.2589	4474.97
65.2734	4313.90
65.2878	4560.02
65.3023	5066.72
65.3167	6017.92
65.3311	6662.42
65.3456	7133.01
65.3600	6944.06
65.3745	6474.57
65.3889	5338.12
65.4033	4269.45
65.4178	3345.16
65.4322	2619.99
65.4467	2017.54
65.4611	1736.41
65.4755	1424.27
65.4900	1294.75
65.5044	1150.53
65.5189	1038.99
65.5333	994.64
65.5477	928.68
65.5622	869.90
65.5766	816.05
65.5911	812.79
65.6055	789.00
65.6199	760.12
65.6344	752.29
65.6488	737.77
65.6633	719.89
65.6777	684.92
65.6921	668.96
65.7066	743.00
65.7210	710.21
65.7355	740.50
65.7499	755.16
65.7643	681.92
65.7788	657.50
65.7932	666.59
65.8077	670.97
65.8221	671.69
65.8365	631.00
65.8510	633.28
65.8654	663.46
65.8799	651.51
65.8943	672.95
65.9087	656.12
65.9232	592.00
65.9376	627.37
65.9521	651.88
65.9665	622.18
65.9809	626.20
65.9954	636.41
66.0098	602.63
66.0243	620.43
66.0387	633.62
66.0531	633.32
66.0676	638.56
66.0820	603.05
66.0965	645.97
66.1109	578.98
66.1253	602.32
66.1398	608.18
66.1542	583.87
66.1687	615.82
66.1831	631.77
66.1975	589.12
66.2120	609.69
66.2264	587.65
66.2409	589.65
66.2553	584.81
66.2697	622.87
66.2842	589.29
66.2986	584.26
66.3131	603.25
66.3275	613.75
66.3419	613.10
66.3564	596.85
66.3708	611.80
66.3853	580.51
66.3997	590.37
66.4141	552.94
66.4286	573.47
66.4430	590.73
66.4575	575.75
66.4719	588.15
66.4863	580.39
66.5008	607.27
66.5152	582.36
66.5297	592.18
66.5441	571.39
66.5585	589.95
66.5730	558.06
66.5874	601.25
66.6019	611.56
66.6163	612.48
66.6307	589.45
66.6452	596.12
66.6596	575.03
66.6741	578.14
66.6885	563.75
66.7029	597.29
66.7174	626.89
66.7318	625.03
66.7463	592.25
66.7607	591.04
66.7751	611.50
66.7896	627.78
66.8040	562.12
66.8185	557.60
66.8329	599.34
66.8473	581.52
66.8618	606.17
66.8762	589.14
66.8907	577.02
66.9051	613.08
66.9195	600.98
66.9340	607.83
66.9484	555.22
66.9629	587.46
66.9773	595.38
66.9917	538.40
67.0062	558.49
67.0206	583.25
67.0351	584.68
67.0495	586.66
67.0639	580.90
67.0784	553.54
67.0928	602.00
67.1073	564.43
67.1217	581.95
67.1361	565.38
67.1506	552.97
67.1650	592.51
67.1795	605.69
67.1939	574.52
67.2083	585.25
67.2228	582.62
67.2372	559.53
67.2517	580.72
67.2661	580.82
67.2805	560.79
67.2950	562.26
67.3094	545.42
67.3239	586.67
67.3383	617.87
67.3527	592.71
67.3672	577.33
67.3816	541.79
67.3961	565.42
67.4105	536.36
67.4250	571.70
67.4394	570.66
67.4538	560.31
67.4683	571.28
67.4827	598.83
67.4972	608.88
67.5116	542.83
67.5260	573.82
67.5405	579.86
67.5549	540.58
67.5694	571.02
67.5838	570.35
67.5982	582.57
67.6127	580.00
67.6271	583.81
67.6416	598.41
67.6560	566.63
67.6704	577.49
67.6849	571.94
67.6993	566.78
67.7138	566.26
67.7282	609.18
67.7426	610.90
67.7571	587.41
67.7715	565.06
67.7860	611.96
67.8004	553.87
67.8148	566.25
67.8293	570.53
67.8437	602.31
67.8582	606.49
67.8726	608.14
67.8870	567.44
67.9015	601.33
67.9159	553.72
67.9304	540.05
67.9448	572.27
67.9592	560.58
67.9737	560.51
67.9881	584.85
68.0026	592.48
68.0170	596.45
68.0314	599.26
68.0459	595.04
68.0603	551.00
68.0748	535.91
68.0892	598.94
68.1036	559.55
68.1181	575.15
68.1325	623.37
68.1470	599.66
68.1614	554.73
68.1758	546.61
68.1903	583.15
68.2047	565.78
68.2192	548.65
68.2336	578.68
68.2480	640.21
68.2625	579.64
68.2769	565.91
68.2914	585.62
68.3058	583.72
68.3202	607.35
68.3347	609.48
68.3491	553.54
68.3636	571.93
68.3780	610.98
68.3924	568.65
68.4069	572.14
68.4213	583.03
68.4358	586.22
68.4502	558.61
68.4646	562.92
68.4791	585.54
68.4935	597.48
68.5080	582.58
68.5224	563.46
68.5368	576.95
68.5513	584.29
68.5657	598.30
68.5802	580.44
68.5946	558.78
68.6090	553.72
68.6235	591.56
68.6379	620.32
68.6524	583.70
68.6668	570.51
68.6812	552.34
68.6957	566.53
68.7101	585.85
68.7246	556.13
68.7390	537.99
68.7534	626.64
68.7679	589.63
68.7823	584.49
68.7968	603.78
68.8112	551.20
68.8256	565.21
68.8401	595.88
68.8545	601.04
68.8690	592.11
68.8834	590.04
68.8978	576.45
68.9123	536.64
68.9267	529.71
68.9412	571.11
68.9556	606.26
68.9700	576.26
68.9845	571.55
68.9989	569.70
69.0134	546.20
69.0278	567.33
69.0422	553.25
69.0567	591.53
69.0711	542.61
69.0856	579.00
69.1000	615.75
69.1144	578.78
69.1289	569.47
69.1433	569.24
69.1578	543.01
69.1722	564.92
69.1866	523.91
69.2011	557.74
69.2155	619.86
69.2300	568.89
69.2444	535.98
69.2588	580.17
69.2733	601.84
69.2877	586.01
69.3022	570.21
69.3166	555.68
69.3310	597.83
69.3455	565.49
69.3599	600.36
69.3744	551.28
69.3888	560.33
69.4032	558.35
69.4177	582.64
69.4321	591.02
69.4466	577.56
69.4610	563.42
69.4754	603.67
69.4899	573.72
69.5043	572.64
69.5188	596.91
69.5332	601.48
69.5476	599.74
69.5621	613.48
69.5765	582.94
69.5910	585.10
69.6054	570.78
69.6198	556.80
69.6343	621.37
69.6487	590.47
69.6632	587.96
69.6776	624.17
69.6920	590.29
69.7065	596.63
69.7209	554.09
69.7354	551.72
69.7498	579.45
69.7642	548.29
69.7787	540.28
69.7931	529.75
69.8076	566.46
69.8220	607.39
69.8364	632.72
69.8509	589.14
69.8653	586.28
69.8798	611.87
69.8942	581.63
69.9086	579.73
69.9231	559.76
69.9375	579.86
69.9520	545.16
69.9664	592.96
69.9808	546.12
69.9953	569.14
70.0097	619.68
70.0242	607.54
70.0386	583.40
70.0530	610.20
70.0675	574.14
70.0819	533.69
70.0964	640.84
70.1108	602.51
70.1252	607.15
70.1397	574.09
70.1541	569.97
70.1686	610.55
70.1830	564.25
70.1974	567.88
70.2119	604.56
70.2263	604.70
70.2408	589.61
70.2552	601.31
70.2696	556.50
70.2841	626.38
70.2985	557.50
70.3130	588.76
70.3274	608.09
70.3418	587.03
70.3563	569.87
70.3707	615.86
70.3852	596.24
70.3996	553.28
70.4140	529.84
70.4285	626.25
70.4429	603.56
70.4574	558.86
70.4718	589.37
70.4862	600.56
70.5007	536.02
70.5151	513.19
70.5296	539.35
70.5440	577.84
70.5584	582.98
70.5729	576.34
70.5873	569.08
70.6018	587.85
70.6162	561.85
70.6306	575.30
70.6451	536.47
70.6595	542.65
70.6740	606.90
70.6884	600.27
70.7028	569.93
70.7173	591.68
70.7317	533.98
70.7462	576.23
70.7606	599.06
70.7750	617.75
70.7895	535.79
70.8039	610.51
70.8184	551.59
70.8328	586.66
70.8472	556.90
70.8617	555.32
70.8761	575.36
70.8906	576.94
70.9050	598.54
70.9194	586.54
70.9339	657.77
70.9483	654.51
70.9628	626.10
70.9772	592.71
70.9916	575.79
71.0061	564.59
71.0205	589.24
71.0350	622.04
71.0494	594.30
71.0638	622.21
71.0783	653.30
71.0927	646.38
71.1072	621.23
71.1216	569.76
71.1361	543.57
71.1505	578.16
71.1649	616.09
71.1794	620.64
71.1938	595.35
71.2083	588.83
71.2227	558.72
71.2371	553.55
71.2516	588.04
71.2660	581.37
71.2805	578.87
71.2949	603.10
71.3093	536.86
71.3238	525.98
71.3382	567.81
71.3527	511.02
71.3671	528.79
71.3815	578.35
71.3960	556.56
71.4104	553.67
71.4249	627.69
71.4393	537.58
71.4537	547.07
71.4682	615.50
71.4826	595.87
71.4971	570.21
71.5115	584.00
71.5259	563.44
71.5404	562.72
71.5548	570.15
71.5693	585.17
71.5837	555.19
71.5981	530.90
71.6126	560.38
71.6270	563.05
71.6415	566.57
71.6559	547.07
71.6703	551.84
71.6848	601.84
71.6992	639.44
71.7137	618.24
71.7281	554.51
71.7425	524.06
71.7570	538.69
71.7714	608.68
71.7859	592.19
71.8003	573.51
71.8147	572.14
71.8292	631.18
71.8436	611.44
71.8581	577.85
71.8725	601.80
71.8869	559.83
71.9014	665.20
71.9158	632.31
71.9303	567.28
71.9447	579.72
71.9591	617.59
71.9736	706.47
71.9880	648.08
72.0025	592.35
72.0169	609.58
72.0313	566.28
72.0458	511.64
72.0602	572.52
72.0747	592.35
72.0891	624.02
72.1035	696.28
72.1180	668.17
72.1324	587.20
72.1469	599.01
72.1613	565.80
72.1757	543.54
72.1902	568.40
72.2046	613.51
72.2191	633.55
72.2335	569.84
72.2479	512.88
72.2624	518.32
72.2768	570.90
72.2913	545.35
72.3057	561.59
72.3201	565.60
72.3346	578.16
72.3490	601.15
72.3635	580.84
72.3779	590.29
72.3923	580.26
72.4068	548.69
72.4212	549.73
72.4357	572.21
72.4501	590.80
72.4645	570.64
72.4790	559.73
72.4934	545.50
72.5079	545.91
72.5223	525.88
72.5367	546.34
72.5512	567.39
72.5656	567.70
72.5801	523.33
72.5945	549.04
72.6089	574.91
72.6234	522.80
72.6378	520.62
72.6523	568.99
72.6667	548.85
72.6811	555.33
72.6956	593.22
72.7100	652.92
72.7245	587.32
72.7389	565.03
72.7533	529.24
72.7678	568.01
72.7822	738.07
72.7967	690.98
72.8111	636.67
72.8255	566.57
72.8400	519.71
72.8544	515.47
72.8689	550.22
72.8833	557.34