2022.09.19 19:37:16
Îáðàçåö: ß÷åéêà LCoV 16-09-2022
Lambda1 = 1.54060
Lambda2 = 1.54439
Lambdam = 1.54186
R = 0.497
2Theta	I

line¹ 0 ;repeat¹ 0
22.1120	531.46
22.1264	528.94
22.1409	578.61
22.1553	583.36
22.1697	686.32
22.1842	621.14
22.1986	574.69
22.2131	598.10
22.2275	559.38
22.2419	577.73
22.2564	438.21
22.2708	496.25
22.2853	625.56
22.2997	480.86
22.3141	586.26
22.3286	608.00
22.3430	554.43
22.3575	600.03
22.3719	613.41
22.3863	620.01
22.4008	654.39
22.4152	560.55
22.4297	607.68
22.4441	577.39
22.4585	550.56
22.4730	546.34
22.4874	561.64
22.5019	608.43
22.5163	607.36
22.5307	558.67
22.5452	545.84
22.5596	587.78
22.5741	562.94
22.5885	562.46
22.6029	643.49
22.6174	599.01
22.6318	551.23
22.6463	501.84
22.6607	530.14
22.6751	578.58
22.6896	557.78
22.7040	652.62
22.7185	612.79
22.7329	541.19
22.7473	614.61
22.7618	637.15
22.7762	542.69
22.7907	605.04
22.8051	555.99
22.8195	526.70
22.8340	573.17
22.8484	497.64
22.8629	533.33
22.8773	540.78
22.8917	639.84
22.9062	634.03
22.9206	498.90
22.9351	517.43
22.9495	585.17
22.9639	578.01
22.9784	589.12
22.9928	645.63
23.0073	594.75
23.0217	502.46
23.0361	561.37
23.0506	522.49
23.0650	596.48
23.0795	604.11
23.0939	546.95
23.1083	521.95
23.1228	608.12
23.1372	594.03
23.1517	493.38
23.1661	604.74
23.1806	511.24
23.1950	493.40
23.2094	534.23
23.2239	539.51
23.2383	562.27
23.2528	607.60
23.2672	561.30
23.2816	616.32
23.2961	522.10
23.3105	548.76
23.3250	512.28
23.3394	553.57
23.3538	531.60
23.3683	561.42
23.3827	551.09
23.3972	529.30
23.4116	515.07
23.4260	541.66
23.4405	530.92
23.4549	543.14
23.4694	568.52
23.4838	531.97
23.4982	603.30
23.5127	620.05
23.5271	576.47
23.5416	546.87
23.5560	553.35
23.5704	594.36
23.5849	538.85
23.5993	540.36
23.6138	576.04
23.6282	520.72
23.6426	538.39
23.6571	475.55
23.6715	587.70
23.6860	523.48
23.7004	558.39
23.7148	546.69
23.7293	521.59
23.7437	590.73
23.7582	529.61
23.7726	595.13
23.7870	573.62
23.8015	555.92
23.8159	542.50
23.8304	551.98
23.8448	505.67
23.8592	492.35
23.8737	555.09
23.8881	542.69
23.9026	603.99
23.9170	533.19
23.9314	565.84
23.9459	550.06
23.9603	527.80
23.9748	610.56
23.9892	603.54
24.0036	527.92
24.0181	542.31
24.0325	604.90
24.0470	577.23
24.0614	562.90
24.0758	532.35
24.0903	507.29
24.1047	540.06
24.1192	518.01
24.1336	572.91
24.1480	568.20
24.1625	620.39
24.1769	592.80
24.1914	603.67
24.2058	597.59
24.2202	564.49
24.2347	602.74
24.2491	582.79
24.2636	578.47
24.2780	638.48
24.2924	583.81
24.3069	595.42
24.3213	590.12
24.3358	644.23
24.3502	503.34
24.3646	589.04
24.3791	540.40
24.3935	582.06
24.4080	511.67
24.4224	568.17
24.4368	564.31
24.4513	564.01
24.4657	561.13
24.4802	554.98
24.4946	547.39
24.5090	531.83
24.5235	553.77
24.5379	564.56
24.5524	560.75
24.5668	555.03
24.5812	548.82
24.5957	522.87
24.6101	540.84
24.6246	585.34
24.6390	565.68
24.6534	555.51
24.6679	549.90
24.6823	571.31
24.6968	554.73
24.7112	584.73
24.7256	564.36
24.7401	519.91
24.7545	570.69
24.7690	551.97
24.7834	532.27
24.7978	515.48
24.8123	515.91
24.8267	569.30
24.8412	488.79
24.8556	557.19
24.8700	548.23
24.8845	511.74
24.8989	558.97
24.9134	565.92
24.9278	534.34
24.9422	562.99
24.9567	511.02
24.9711	518.35
24.9856	531.72
25.0000	550.34
25.0144	536.18
25.0289	560.67
25.0433	571.33
25.0578	593.20
25.0722	529.47
25.0866	576.50
25.1011	579.05
25.1155	549.12
25.1300	542.37
25.1444	507.61
25.1588	551.83
25.1733	575.38
25.1877	553.70
25.2022	568.65
25.2166	544.46
25.2310	497.55
25.2455	538.06
25.2599	580.89
25.2744	580.75
25.2888	559.64
25.3032	529.65
25.3177	531.86
25.3321	562.57
25.3466	547.82
25.3610	528.29
25.3754	530.60
25.3899	542.14
25.4043	505.67
25.4188	529.07
25.4332	563.31
25.4476	525.68
25.4621	542.70
25.4765	579.40
25.4910	552.33
25.5054	536.17
25.5198	535.39
25.5343	519.73
25.5487	567.06
25.5632	569.38
25.5776	567.65
25.5920	526.15
25.6065	542.63
25.6209	545.89
25.6354	526.75
25.6498	554.29
25.6642	555.09
25.6787	506.85
25.6931	545.37
25.7076	552.73
25.7220	526.56
25.7364	530.43
25.7509	500.43
25.7653	515.83
25.7798	554.83
25.7942	530.55
25.8086	521.64
25.8231	568.13
25.8375	547.11
25.8520	506.40
25.8664	529.70
25.8808	514.30
25.8953	554.54
25.9097	604.78
25.9242	561.93
25.9386	585.70
25.9530	526.91
25.9675	524.04
25.9819	539.83
25.9964	530.19
26.0108	545.75
26.0252	566.89
26.0397	519.19
26.0541	514.74
26.0686	533.67
26.0830	559.04
26.0974	557.12
26.1119	581.66
26.1263	592.63
26.1408	521.53
26.1552	540.18
26.1696	540.62
26.1841	537.64
26.1985	514.65
26.2130	537.60
26.2274	533.03
26.2418	491.65
26.2563	521.95
26.2707	528.56
26.2852	539.05
26.2996	518.64
26.3140	520.77
26.3285	531.69
26.3429	534.26
26.3574	522.40
26.3718	530.55
26.3862	549.98
26.4007	531.84
26.4151	517.48
26.4296	529.72
26.4440	535.05
26.4584	516.18
26.4729	510.61
26.4873	560.07
26.5018	546.79
26.5162	525.13
26.5306	530.58
26.5451	526.06
26.5595	524.38
26.5740	548.48
26.5884	547.07
26.6028	535.67
26.6173	524.45
26.6317	541.82
26.6462	536.18
26.6606	569.14
26.6750	534.86
26.6895	483.52
26.7039	514.94
26.7184	535.67
26.7328	527.48
26.7472	514.26
26.7617	519.46
26.7761	516.52
26.7906	542.34
26.8050	528.61
26.8194	524.76
26.8339	557.31
26.8483	541.59
26.8628	530.11
26.8772	552.96
26.8917	547.81
26.9061	552.11
26.9205	499.25
26.9350	533.40
26.9494	541.02
26.9639	514.78
26.9783	508.84
26.9927	542.34
27.0072	544.66
27.0216	544.86
27.0361	531.71
27.0505	546.23
27.0649	554.08
27.0794	533.64
27.0938	557.01
27.1083	530.90
27.1227	546.12
27.1371	522.77
27.1516	490.68
27.1660	492.85
27.1805	526.93
27.1949	506.71
27.2093	509.92
27.2238	515.12
27.2382	508.53
27.2527	513.92
27.2671	498.61
27.2815	518.91
27.2960	538.84
27.3104	528.91
27.3249	531.18
27.3393	528.23
27.3537	496.93
27.3682	499.43
27.3826	506.89
27.3971	516.01
27.4115	507.59
27.4259	521.31
27.4404	515.65
27.4548	525.10
27.4693	516.01
27.4837	523.45
27.4981	524.72
27.5126	535.48
27.5270	506.20
27.5415	510.68
27.5559	518.00
27.5703	531.86
27.5848	513.26
27.5992	548.59
27.6137	536.58
27.6281	528.70
27.6425	559.26
27.6570	534.15
27.6714	495.60
27.6859	544.26
27.7003	511.75
27.7147	513.10
27.7292	500.26
27.7436	476.73
27.7581	522.22
27.7725	534.77
27.7869	528.80
27.8014	491.37
27.8158	515.02
27.8303	515.41
27.8447	475.94
27.8591	507.40
27.8736	531.36
27.8880	512.20
27.9025	573.95
27.9169	518.82
27.9313	523.18
27.9458	520.08
27.9602	529.77
27.9747	540.38
27.9891	507.00
28.0035	504.36
28.0180	535.65
28.0324	511.68
28.0469	506.38
28.0613	533.31
28.0757	521.07
28.0902	516.53
28.1046	465.13
28.1191	513.25
28.1335	557.41
28.1479	511.12
28.1624	492.84
28.1768	518.15
28.1913	513.48
28.2057	508.26
28.2201	539.99
28.2346	511.69
28.2490	497.82
28.2635	538.02
28.2779	547.52
28.2923	531.98
28.3068	574.70
28.3212	519.49
28.3357	494.67
28.3501	501.40
28.3645	524.56
28.3790	513.68
28.3934	535.09
28.4079	504.35
28.4223	528.10
28.4367	513.71
28.4512	521.29
28.4656	526.77
28.4801	526.75
28.4945	536.00
28.5089	532.75
28.5234	489.96
28.5378	500.48
28.5523	550.25
28.5667	495.73
28.5811	515.42
28.5956	505.97
28.6100	494.92
28.6245	504.15
28.6389	525.67
28.6533	546.98
28.6678	499.67
28.6822	489.04
28.6967	521.62
28.7111	517.64
28.7255	503.98
28.7400	506.29
28.7544	506.89
28.7689	484.56
28.7833	525.43
28.7977	506.30
28.8122	492.85
28.8266	518.94
28.8411	504.72
28.8555	476.60
28.8699	486.99
28.8844	507.94
28.8988	561.59
28.9133	521.36
28.9277	497.15
28.9421	488.26
28.9566	482.73
28.9710	513.97
28.9855	520.16
28.9999	519.45
29.0143	542.57
29.0288	494.92
29.0432	524.77
29.0577	497.67
29.0721	560.86
29.0865	493.17
29.1010	497.11
29.1154	492.26
29.1299	476.09
29.1443	489.56
29.1587	529.94
29.1732	504.81
29.1876	474.28
29.2021	496.34
29.2165	522.56
29.2309	493.03
29.2454	517.60
29.2598	532.69
29.2743	506.64
29.2887	495.44
29.3031	482.98
29.3176	485.35
29.3320	524.36
29.3465	496.44
29.3609	507.77
29.3753	489.53
29.3898	516.98
29.4042	523.84
29.4187	502.04
29.4331	531.83
29.4475	496.54
29.4620	511.62
29.4764	513.08
29.4909	511.09
29.5053	522.34
29.5197	483.98
29.5342	534.37
29.5486	503.86
29.5631	519.49
29.5775	507.09
29.5919	509.70
29.6064	487.05
29.6208	502.06
29.6353	523.97
29.6497	503.19
29.6641	520.75
29.6786	502.86
29.6930	527.28
29.7075	536.18
29.7219	495.88
29.7363	516.78
29.7508	504.90
29.7652	459.68
29.7797	540.74
29.7941	507.88
29.8085	501.92
29.8230	509.52
29.8374	516.83
29.8519	507.95
29.8663	537.40
29.8807	502.87
29.8952	522.14
29.9096	547.36
29.9241	503.32
29.9385	541.72
29.9529	514.20
29.9674	500.85
29.9818	493.46
29.9963	499.29
30.0107	472.55
30.0251	504.39
30.0396	543.53
30.0540	519.73
30.0685	505.15
30.0829	506.31
30.0973	506.52
30.1118	499.90
30.1262	515.85
30.1407	502.65
30.1551	494.15
30.1695	509.01
30.1840	502.71
30.1984	480.39
30.2129	503.67
30.2273	502.03
30.2417	520.74
30.2562	511.21
30.2706	507.45
30.2851	514.78
30.2995	509.83
30.3139	500.09
30.3284	513.19
30.3428	516.15
30.3573	518.41
30.3717	534.01
30.3861	501.29
30.4006	482.12
30.4150	474.26
30.4295	515.63
30.4439	515.87
30.4583	493.88
30.4728	502.58
30.4872	491.49
30.5017	489.59
30.5161	519.68
30.5305	491.49
30.5450	515.59
30.5594	486.22
30.5739	492.87
30.5883	528.80
30.6028	499.37
30.6172	517.30
30.6316	522.66
30.6461	554.24
30.6605	514.81
30.6750	515.38
30.6894	513.08
30.7038	531.15
30.7183	530.14
30.7327	547.78
30.7472	541.85
30.7616	573.36
30.7760	578.21
30.7905	553.42
30.8049	566.51
30.8194	621.91
30.8338	610.08
30.8482	616.23
30.8627	658.41
30.8771	676.97
30.8916	654.04
30.9060	686.65
30.9204	691.08
30.9349	665.39
30.9493	671.93
30.9638	666.87
30.9782	672.81
30.9926	657.48
31.0071	615.70
31.0215	601.28
31.0360	590.00
31.0504	593.84
31.0648	579.00
31.0793	565.77
31.0937	589.96
31.1082	554.65
31.1226	546.02
31.1370	534.66
31.1515	496.83
31.1659	501.90
31.1804	508.72
31.1948	519.66
31.2092	512.90
31.2237	532.90
31.2381	524.77
31.2526	526.57
31.2670	523.06
31.2814	538.45
31.2959	523.38
31.3103	527.72
31.3248	542.77
31.3392	573.44
31.3536	540.13
31.3681	527.30
31.3825	517.28
31.3970	537.66
31.4114	514.06
31.4258	548.60
31.4403	525.24
31.4547	500.86
31.4692	521.83
31.4836	506.19
31.4980	513.78
31.5125	532.67
31.5269	495.31
31.5414	491.67
31.5558	537.23
31.5702	499.93
31.5847	509.54
31.5991	504.64
31.6136	514.53
31.6280	511.69
31.6424	515.07
31.6569	514.73
31.6713	488.81
31.6858	511.38
31.7002	493.82
31.7146	479.24
31.7291	539.75
31.7435	502.82
31.7580	491.87
31.7724	526.19
31.7868	537.87
31.8013	527.66
31.8157	502.87
31.8302	490.63
31.8446	520.83
31.8590	533.32
31.8735	545.61
31.8879	516.03
31.9024	540.01
31.9168	498.80
31.9312	506.22
31.9457	493.74
31.9601	440.93
31.9746	462.28
31.9890	484.37
32.0034	502.24
32.0179	514.14
32.0323	521.74
32.0468	494.22
32.0612	490.70
32.0756	520.70
32.0901	486.84
32.1045	509.56
32.1190	523.49
32.1334	513.50
32.1478	491.37
32.1623	512.99
32.1767	522.17
32.1912	507.69
32.2056	490.05
32.2200	525.71
32.2345	503.66
32.2489	532.46
32.2634	512.98
32.2778	514.44
32.2922	541.11
32.3067	495.61
32.3211	514.24
32.3356	538.15
32.3500	523.21
32.3644	514.05
32.3789	480.08
32.3933	502.51
32.4078	497.67
32.4222	506.97
32.4366	523.97
32.4511	474.39
32.4655	520.05
32.4800	491.36
32.4944	495.17
32.5088	524.90
32.5233	519.42
32.5377	526.19
32.5522	483.36
32.5666	488.06
32.5810	498.45
32.5955	513.78
32.6099	534.11
32.6244	521.96
32.6388	513.84
32.6532	493.18
32.6677	499.60
32.6821	492.07
32.6966	482.47
32.7110	506.37
32.7254	526.51
32.7399	470.74
32.7543	508.59
32.7688	493.48
32.7832	504.31
32.7976	497.25
32.8121	480.76
32.8265	489.01
32.8410	499.67
32.8554	514.52
32.8698	513.77
32.8843	540.72
32.8987	561.17
32.9132	484.97
32.9276	500.91
32.9420	527.39
32.9565	508.21
32.9709	474.75
32.9854	517.51
32.9998	509.66
33.0142	504.04
33.0287	509.61
33.0431	498.13
33.0576	507.00
33.0720	506.75
33.0864	527.68
33.1009	505.14
33.1153	519.30
33.1298	529.56
33.1442	518.53
33.1586	477.11
33.1731	509.30
33.1875	486.89
33.2020	466.74
33.2164	508.49
33.2308	507.92
33.2453	491.23
33.2597	504.69
33.2742	508.01
33.2886	514.21
33.3030	502.43
33.3175	507.30
33.3319	531.07
33.3464	514.47
33.3608	488.08
33.3752	523.38
33.3897	467.94
33.4041	498.14
33.4186	513.63
33.4330	549.63
33.4474	503.88
33.4619	544.43
33.4763	495.47
33.4908	487.11
33.5052	492.55
33.5196	528.64
33.5341	495.14
33.5485	506.95
33.5630	482.15
33.5774	473.91
33.5918	489.57
33.6063	519.05
33.6207	476.37
33.6352	520.91
33.6496	502.14
33.6640	491.71
33.6785	514.00
33.6929	490.30
33.7074	500.29
33.7218	528.28
33.7362	500.83
33.7507	524.18
33.7651	519.37
33.7796	522.74
33.7940	489.28
33.8084	526.61
33.8229	496.48
33.8373	505.41
33.8518	519.65
33.8662	514.98
33.8806	518.99
33.8951	537.38
33.9095	539.94
33.9240	515.98
33.9384	491.70
33.9528	538.19
33.9673	514.69
33.9817	479.29
33.9962	509.21
34.0106	449.24
34.0250	497.10
34.0395	536.14
34.0539	506.28
34.0684	491.83
34.0828	528.75
34.0972	540.50
34.1117	543.27
34.1261	518.28
34.1406	464.21
34.1550	518.64
34.1694	537.02
34.1839	518.10
34.1983	484.59
34.2128	507.28
34.2272	515.26
34.2417	538.83
34.2561	506.38
34.2705	500.24
34.2850	504.45
34.2994	480.06
34.3139	517.33
34.3283	544.20
34.3427	538.88
34.3572	513.86
34.3716	519.86
34.3861	500.03
34.4005	504.64
34.4149	521.12
34.4294	482.66
34.4438	499.42
34.4583	499.39
34.4727	508.22
34.4871	481.33
34.5016	468.49
34.5160	507.41
34.5305	491.12
34.5449	475.75
34.5593	494.34
34.5738	516.21
34.5882	472.78
34.6027	522.37
34.6171	507.05
34.6315	513.60
34.6460	497.66
34.6604	505.33
34.6749	501.68
34.6893	509.93
34.7037	520.20
34.7182	512.93
34.7326	498.96
34.7471	521.65
34.7615	519.48
34.7759	545.01
34.7904	512.32
34.8048	499.98
34.8193	476.28
34.8337	518.45
34.8481	513.81
34.8626	503.63
34.8770	491.94
34.8915	503.61
34.9059	499.47
34.9203	507.77
34.9348	508.45
34.9492	519.30
34.9637	503.80
34.9781	495.08
34.9925	512.20
35.0070	515.88
35.0214	513.36
35.0359	522.11
35.0503	549.98
35.0647	540.20
35.0792	487.62
35.0936	516.59
35.1081	536.78
35.1225	522.00
35.1369	499.46
35.1514	510.11
35.1658	506.82
35.1803	515.93
35.1947	482.04
35.2091	497.34
35.2236	530.30
35.2380	518.71
35.2525	523.06
35.2669	511.72
35.2813	538.14
35.2958	521.69
35.3102	548.19
35.3247	535.02
35.3391	511.59
35.3535	536.61
35.3680	563.60
35.3824	534.29
35.3969	531.63
35.4113	532.39
35.4257	508.96
35.4402	522.86
35.4546	532.92
35.4691	537.97
35.4835	550.60
35.4979	501.61
35.5124	517.52
35.5268	517.01
35.5413	533.76
35.5557	539.99
35.5701	520.65
35.5846	520.25
35.5990	523.68
35.6135	527.09
35.6279	532.06
35.6423	559.28
35.6568	548.82
35.6712	526.90
35.6857	539.16
35.7001	650.74
35.7145	719.22
35.7290	689.04
35.7434	621.07
35.7579	548.84
35.7723	612.23
35.7867	647.79
35.8012	652.44
35.8156	673.36
35.8301	637.72
35.8445	624.94
35.8589	634.63
35.8734	731.57
35.8878	832.13
35.9023	960.08
35.9167	1092.18
35.9311	1513.89
35.9456	2416.30
35.9600	2329.57
35.9745	1808.48
35.9889	1758.39
36.0033	2180.06
36.0178	2262.30
36.0322	1977.92
36.0467	1788.34
36.0611	1614.79
36.0755	1510.74
36.0900	1409.56
36.1044	1316.84
36.1189	1302.83
36.1333	1147.08
36.1477	970.01
36.1622	1037.99
36.1766	1005.01
36.1911	854.00
36.2055	747.47
36.2199	697.72
36.2344	728.31
36.2488	712.46
36.2633	716.77
36.2777	732.68
36.2921	784.23
36.3066	819.26
36.3210	792.85
36.3355	912.49
36.3499	932.83
36.3643	970.84
36.3788	929.37
36.3932	968.77
36.4077	968.33
36.4221	1003.33
36.4365	971.92
36.4510	906.31
36.4654	882.00
36.4799	922.77
36.4943	842.46
36.5087	814.96
36.5232	819.41
36.5376	738.38
36.5521	728.99
36.5665	690.04
36.5809	715.86
36.5954	670.22
36.6098	654.33
36.6243	619.88
36.6387	572.06
36.6531	585.25
36.6676	594.84
36.6820	521.53
36.6965	559.90
36.7109	563.78
36.7253	547.04
36.7398	555.76
36.7542	554.49
36.7687	543.30
36.7831	589.60
36.7975	558.78
36.8120	611.48
36.8264	547.37
36.8409	606.28
36.8553	619.46
36.8697	604.50
36.8842	603.85
36.8986	636.10
36.9131	597.34
36.9275	565.05
36.9419	578.37
36.9564	573.68
36.9708	593.73
36.9853	599.97
36.9997	566.63
37.0141	558.45
37.0286	547.49
37.0430	495.36
37.0575	547.49
37.0719	522.92
37.0863	510.79
37.1008	571.47
37.1152	508.38
37.1297	520.34
37.1441	520.58
37.1585	499.80
37.1730	486.19
37.1874	510.10
37.2019	505.24
37.2163	483.91
37.2307	505.41
37.2452	507.61
37.2596	532.84
37.2741	491.80
37.2885	480.20
37.3029	491.00
37.3174	498.26
37.3318	534.56
37.3463	517.10
37.3607	482.27
37.3751	526.91
37.3896	513.12
37.4040	518.20
37.4185	534.75
37.4329	543.37
37.4473	500.77
37.4618	510.17
37.4762	525.72
37.4907	522.36
37.5051	514.97
37.5195	495.12
37.5340	460.45
37.5484	464.35
37.5629	510.72
37.5773	515.53
37.5917	510.35
37.6062	498.65
37.6206	485.76
37.6351	528.55
37.6495	525.09
37.6639	516.92
37.6784	503.71
37.6928	504.13
37.7073	537.08
37.7217	506.45
37.7361	489.24
37.7506	480.53
37.7650	478.37
37.7795	507.66
37.7939	488.55
37.8083	509.72
37.8228	521.76
37.8372	522.32
37.8517	531.34
37.8661	518.04
37.8805	524.21
37.8950	509.90
37.9094	478.59
37.9239	491.03
37.9383	496.31
37.9528	502.46
37.9672	508.93
37.9816	525.26
37.9961	480.07
38.0105	517.91
38.0250	509.85
38.0394	501.09
38.0538	476.22
38.0683	484.11
38.0827	526.78
38.0972	533.23
38.1116	508.15
38.1260	519.53
38.1405	512.32
38.1549	511.63
38.1694	516.63
38.1838	509.99
38.1982	518.63
38.2127	517.20
38.2271	538.14
38.2416	496.85
38.2560	493.33
38.2704	515.64
38.2849	504.92
38.2993	502.16
38.3138	506.06
38.3282	544.74
38.3426	509.89
38.3571	501.84
38.3715	548.82
38.3860	530.68
38.4004	546.10
38.4148	555.11
38.4293	617.59
38.4437	602.97
38.4582	638.67
38.4726	674.01
38.4870	699.37
38.5015	772.84
38.5159	798.94
38.5304	809.47
38.5448	799.76
38.5592	789.95
38.5737	756.43
38.5881	746.48
38.6026	689.16
38.6170	677.34
38.6314	703.48
38.6459	675.44
38.6603	643.84
38.6748	605.25
38.6892	600.07
38.7036	572.94
38.7181	545.88
38.7325	509.69
38.7470	517.10
38.7614	513.45
38.7758	511.85
38.7903	485.40
38.8047	516.62
38.8192	494.91
38.8336	533.05
38.8480	533.71
38.8625	525.48
38.8769	520.93
38.8914	503.13
38.9058	510.53
38.9202	500.14
38.9347	480.99
38.9491	503.64
38.9636	514.67
38.9780	506.68
38.9924	510.58
39.0069	493.03
39.0213	489.89
39.0358	518.15
39.0502	508.92
39.0646	511.39
39.0791	496.73
39.0935	494.45
39.1080	503.61
39.1224	511.73
39.1368	502.99
39.1513	493.29
39.1657	505.86
39.1802	491.28
39.1946	500.33
39.2090	505.36
39.2235	466.90
39.2379	474.64
39.2524	466.81
39.2668	503.55
39.2812	525.65
39.2957	525.16
39.3101	510.87
39.3246	483.61
39.3390	518.84
39.3534	527.48
39.3679	523.23
39.3823	488.51
39.3968	492.66
39.4112	486.67
39.4256	532.16
39.4401	506.85
39.4545	508.79
39.4690	504.77
39.4834	483.78
39.4978	484.56
39.5123	473.92
39.5267	463.63
39.5412	499.24
39.5556	525.93
39.5700	502.32
39.5845	506.13
39.5989	495.23
39.6134	463.87
39.6278	460.60
39.6422	492.38
39.6567	501.26
39.6711	481.61
39.6856	504.52
39.7000	497.40
39.7144	538.14
39.7289	498.17
39.7433	502.30
39.7578	507.27
39.7722	515.55
39.7866	509.49
39.8011	499.17
39.8155	503.79
39.8300	498.50
39.8444	495.52
39.8588	557.54
39.8733	552.52
39.8877	498.23
39.9022	486.50
39.9166	484.57
39.9310	510.97
39.9455	491.10
39.9599	502.43
39.9744	541.25
39.9888	517.51
40.0032	484.99
40.0177	463.22
40.0321	521.04
40.0466	498.20
40.0610	521.85
40.0754	493.85
40.0899	510.57
40.1043	485.82
40.1188	513.72
40.1332	487.91
40.1476	473.57
40.1621	505.90
40.1765	482.45
40.1910	459.58
40.2054	509.31
40.2198	489.10
40.2343	483.37
40.2487	495.21
40.2632	493.30
40.2776	503.84
40.2920	503.03
40.3065	498.61
40.3209	488.36
40.3354	508.12
40.3498	512.92
40.3642	517.75
40.3787	530.52
40.3931	466.34
40.4076	487.36
40.4220	511.42
40.4364	497.37
40.4509	485.84
40.4653	480.07
40.4798	490.63
40.4942	490.64
40.5086	510.01
40.5231	499.90
40.5375	513.17
40.5520	529.98
40.5664	505.70
40.5808	501.22
40.5953	490.20
40.6097	525.20
40.6242	489.98
40.6386	536.53
40.6530	523.04
40.6675	517.50
40.6819	517.68
40.6964	495.87
40.7108	522.66
40.7252	464.02
40.7397	509.17
40.7541	517.74
40.7686	495.05
40.7830	534.72
40.7974	491.52
40.8119	496.92
40.8263	497.58
40.8408	490.98
40.8552	473.11
40.8696	490.62
40.8841	522.77
40.8985	516.86
40.9130	485.98
40.9274	465.36
40.9418	483.11
40.9563	473.18
40.9707	494.62
40.9852	513.49
40.9996	526.74
41.0140	516.37
41.0285	517.87
41.0429	496.39
41.0574	492.81
41.0718	523.88
41.0862	511.11
41.1007	484.68
41.1151	482.82
41.1296	497.39
41.1440	483.58
41.1584	489.85
41.1729	499.37
41.1873	487.88
41.2018	478.04
41.2162	526.18
41.2306	548.06
41.2451	476.06
41.2595	519.10
41.2740	512.78
41.2884	495.48
41.3028	484.85
41.3173	470.58
41.3317	494.84
41.3462	502.46
41.3606	513.69
41.3750	532.32
41.3895	482.95
41.4039	494.49
41.4184	522.42
41.4328	513.53
41.4472	485.20
41.4617	468.26
41.4761	473.65
41.4906	462.73
41.5050	489.73
41.5194	483.43
41.5339	501.18
41.5483	467.88
41.5628	487.46
41.5772	497.98
41.5916	489.80
41.6061	527.99
41.6205	491.32
41.6350	539.31
41.6494	509.02
41.6639	481.93
41.6783	482.87
41.6927	517.63
41.7072	497.13
41.7216	509.23
41.7361	485.66
41.7505	487.42
41.7649	502.24
41.7794	476.76
41.7938	508.21
41.8083	506.65
41.8227	482.72
41.8371	497.12
41.8516	540.09
41.8660	513.65
41.8805	485.05
41.8949	562.07
41.9093	579.18
41.9238	569.60
41.9382	564.33
41.9527	571.42
41.9671	521.38
41.9815	577.70
41.9960	569.42
42.0104	550.79
42.0249	566.26
42.0393	570.40
42.0537	572.72
42.0682	539.88
42.0826	603.08
42.0971	589.85
42.1115	551.17
42.1259	598.14
42.1404	560.70
42.1548	587.83
42.1693	650.96
42.1837	676.20
42.1981	734.59
42.2126	845.08
42.2270	947.69
42.2415	1176.22
42.2559	1235.59
42.2703	1378.43
42.2848	1530.20
42.2992	1604.06
42.3137	1660.56
42.3281	1641.55
42.3425	1609.95
42.3570	1514.16
42.3714	1430.36
42.3859	1367.31
42.4003	1321.30
42.4147	1332.66
42.4292	1268.02
42.4436	1172.23
42.4581	1042.04
42.4725	936.42
42.4869	824.63
42.5014	743.51
42.5158	715.86
42.5303	677.72
42.5447	649.57
42.5591	631.22
42.5736	605.41
42.5880	588.05
42.6025	576.17
42.6169	557.31
42.6313	554.45
42.6458	547.89
42.6602	555.76
42.6747	546.25
42.6891	538.53
42.7035	535.68
42.7180	570.57
42.7324	560.48
42.7469	516.67
42.7613	516.60
42.7757	533.62
42.7902	531.21
42.8046	525.75
42.8191	507.40
42.8335	521.71
42.8479	515.43
42.8624	514.03
42.8768	493.73
42.8913	499.73
42.9057	537.97
42.9201	539.85
42.9346	526.41
42.9490	488.29
42.9635	506.81
42.9779	509.77
42.9923	474.82
43.0068	486.43
43.0212	521.21
43.0357	522.40
43.0501	511.31
43.0645	518.22
43.0790	522.87
43.0934	514.06
43.1079	518.67
43.1223	505.48
43.1367	490.65
43.1512	487.74
43.1656	521.92
43.1801	534.49
43.1945	516.58
43.2089	522.41
43.2234	516.92
43.2378	519.27
43.2523	532.48
43.2667	518.63
43.2811	545.05
43.2956	533.49
43.3100	473.56
43.3245	510.92
43.3389	544.37
43.3533	527.59
43.3678	572.15
43.3822	517.31
43.3967	517.35
43.4111	507.82
43.4255	519.62
43.4400	516.68
43.4544	524.17
43.4689	541.86
43.4833	533.58
43.4977	492.44
43.5122	486.47
43.5266	534.16
43.5411	516.58
43.5555	511.59
43.5699	504.80
43.5844	522.50
43.5988	515.90
43.6133	517.78
43.6277	502.48
43.6421	533.42
43.6566	516.68
43.6710	492.24
43.6855	477.27
43.6999	544.63
43.7143	561.68
43.7288	531.19
43.7432	530.97
43.7577	520.96
43.7721	491.15
43.7865	502.06
43.8010	521.42
43.8154	525.36
43.8299	474.68
43.8443	520.39
43.8587	561.26
43.8732	539.46
43.8876	534.56
43.9021	528.23
43.9165	528.76
43.9309	509.45
43.9454	531.19
43.9598	503.63
43.9743	501.55
43.9887	551.03
44.0031	566.53
44.0176	500.45
44.0320	537.43
44.0465	544.26
44.0609	513.04
44.0753	515.31
44.0898	579.03
44.1042	551.47
44.1187	529.42
44.1331	527.71
44.1475	523.51
44.1620	549.16
44.1764	583.31
44.1909	590.82
44.2053	581.80
44.2197	588.29
44.2342	638.98
44.2486	619.55
44.2631	658.03
44.2775	677.59
44.2919	645.71
44.3064	601.73
44.3208	578.38
44.3353	611.70
44.3497	571.95
44.3641	618.75
44.3786	601.48
44.3930	565.27
44.4075	590.01
44.4219	605.41
44.4363	628.18
44.4508	589.24
44.4652	612.15
44.4797	627.15
44.4941	607.51
44.5085	646.77
44.5230	556.85
44.5374	572.09
44.5519	612.92
44.5663	605.19
44.5807	568.96
44.5952	564.66
44.6096	566.72
44.6241	593.86
44.6385	588.08
44.6529	577.72
44.6674	592.18
44.6818	604.76
44.6963	643.70
44.7107	677.34
44.7251	694.52
44.7396	761.83
44.7540	813.41
44.7685	826.01
44.7829	884.03
44.7973	866.98
44.8118	821.90
44.8262	766.89
44.8407	814.58
44.8551	734.78
44.8695	738.65
44.8840	754.72
44.8984	768.49
44.9129	709.51
44.9273	636.04
44.9417	655.51
44.9562	585.19
44.9706	565.80
44.9851	546.18
44.9995	479.53
45.0139	558.17
45.0284	576.30
45.0428	545.99
45.0573	478.46
45.0717	499.50
45.0861	526.54
45.1006	529.95
45.1150	524.31
45.1295	510.14
45.1439	497.17
45.1583	470.57
45.1728	486.12
45.1872	481.93
45.2017	512.21
45.2161	520.84
45.2305	499.78
45.2450	500.83
45.2594	511.96
45.2739	520.52
45.2883	509.39
45.3028	531.01
45.3172	534.67
45.3316	563.73
45.3461	550.36
45.3605	530.85
45.3750	485.97
45.3894	511.70
45.4038	513.49
45.4183	533.40
45.4327	528.67
45.4472	511.46
45.4616	503.05
45.4760	505.94
45.4905	504.79
45.5049	483.15
45.5194	519.97
45.5338	501.32
45.5482	480.30
45.5627	476.67
45.5771	507.39
45.5916	501.15
45.6060	557.26
45.6204	500.61
45.6349	492.07
45.6493	504.24
45.6638	496.91
45.6782	506.37
45.6926	517.34
45.7071	535.20
45.7215	473.38
45.7360	498.15
45.7504	514.36
45.7648	515.89
45.7793	514.38
45.7937	495.36
45.8082	518.11
45.8226	523.90
45.8370	516.89
45.8515	512.19
45.8659	498.06
45.8804	534.35
45.8948	536.47
45.9092	498.01
45.9237	486.89
45.9381	481.91
45.9526	504.01
45.9670	486.74
45.9814	546.13
45.9959	520.20
46.0103	505.58
46.0248	531.90
46.0392	476.50
46.0536	516.70
46.0681	536.42
46.0825	507.79
46.0970	512.66
46.1114	518.13
46.1258	490.21
46.1403	526.19
46.1547	514.66
46.1692	537.98
46.1836	534.71
46.1980	491.92
46.2125	523.06
46.2269	490.59
46.2414	488.50
46.2558	513.69
46.2702	486.39
46.2847	504.98
46.2991	513.26
46.3136	531.14
46.3280	514.54
46.3424	539.66
46.3569	521.34
46.3713	491.93
46.3858	490.71
46.4002	485.79
46.4146	482.16
46.4291	506.36
46.4435	493.52
46.4580	503.58
46.4724	507.21
46.4868	507.47
46.5013	513.44
46.5157	524.98
46.5302	539.91
46.5446	511.44
46.5590	498.39
46.5735	491.65
46.5879	477.11
46.6024	486.20
46.6168	488.52
46.6312	467.58
46.6457	493.03
46.6601	480.67
46.6746	479.54
46.6890	494.75
46.7034	502.41
46.7179	502.24
46.7323	501.29
46.7468	526.19
46.7612	514.95
46.7756	509.50
46.7901	532.20
46.8045	543.63
46.8190	534.95
46.8334	509.55
46.8478	494.12
46.8623	536.24
46.8767	520.44
46.8912	501.04
46.9056	521.59
46.9200	506.11
46.9345	504.71
46.9489	519.63
46.9634	516.45
46.9778	508.70
46.9922	514.76
47.0067	495.25
47.0211	526.30
47.0356	511.66
47.0500	511.59
47.0644	520.93
47.0789	517.09
47.0933	534.64
47.1078	532.61
47.1222	520.98
47.1366	520.17
47.1511	509.42
47.1655	482.11
47.1800	516.78
47.1944	510.40
47.2088	519.73
47.2233	523.68
47.2377	541.71
47.2522	511.88
47.2666	491.96
47.2810	516.64
47.2955	521.98
47.3099	490.10
47.3244	502.87
47.3388	532.23
47.3532	532.22
47.3677	508.47
47.3821	473.11
47.3966	479.34
47.4110	492.72
47.4254	510.77
47.4399	524.06
47.4543	504.15
47.4688	515.54
47.4832	518.42
47.4976	520.11
47.5121	541.74
47.5265	529.46
47.5410	509.59
47.5554	479.53
47.5698	481.08
47.5843	486.59
47.5987	517.31
47.6132	502.63
47.6276	519.34
47.6420	499.86
47.6565	478.47
47.6709	472.92
47.6854	487.41
47.6998	489.81
47.7142	497.96
47.7287	504.28
47.7431	483.12
47.7576	485.69
47.7720	466.03
47.7864	518.90
47.8009	508.83
47.8153	529.10
47.8298	481.82
47.8442	492.96
47.8586	527.16
47.8731	503.03
47.8875	482.56
47.9020	505.19
47.9164	467.48
47.9308	495.69
47.9453	499.12
47.9597	491.50
47.9742	501.40
47.9886	506.42
48.0030	476.13
48.0175	530.79
48.0319	533.22
48.0464	491.22
48.0608	518.81
48.0752	516.33
48.0897	495.73
48.1041	515.87
48.1186	496.25
48.1330	542.23
48.1474	520.67
48.1619	525.28
48.1763	516.92
48.1908	522.96
48.2052	512.62
48.2196	535.32
48.2341	522.83
48.2485	514.22
48.2630	521.06
48.2774	505.14
48.2918	496.84
48.3063	498.11
48.3207	507.44
48.3352	524.36
48.3496	500.80
48.3640	529.23
48.3785	504.55
48.3929	499.33
48.4074	534.76
48.4218	526.07
48.4362	515.32
48.4507	519.71
48.4651	523.02
48.4796	499.41
48.4940	514.13
48.5084	495.04
48.5229	500.61
48.5373	497.80
48.5518	514.08
48.5662	502.49
48.5806	510.37
48.5951	547.59
48.6095	525.67
48.6240	539.86
48.6384	524.64
48.6528	522.62
48.6673	497.54
48.6817	461.11
48.6962	520.60
48.7106	530.42
48.7250	521.46
48.7395	506.12
48.7539	508.15
48.7684	508.08
48.7828	526.22
48.7972	527.70
48.8117	556.81
48.8261	572.06
48.8406	535.25
48.8550	538.08
48.8694	568.27
48.8839	582.78
48.8983	553.53
48.9128	530.91
48.9272	514.09
48.9416	628.94
48.9561	601.44
48.9705	596.29
48.9850	559.31
48.9994	557.85
49.0139	558.04
49.0283	640.65
49.0427	629.44
49.0572	661.63
49.0716	699.61
49.0861	688.96
49.1005	646.10
49.1149	686.80
49.1294	694.36
49.1438	744.32
49.1583	804.22
49.1727	868.25
49.1871	921.85
49.2016	970.85
49.2160	1021.79
49.2305	1100.75
49.2449	1185.72
49.2593	1262.20
49.2738	1352.60
49.2882	1475.51
49.3027	1530.68
49.3171	1606.88
49.3315	1713.74
49.3460	1745.35
49.3604	1806.68
49.3749	1832.43
49.3893	1820.21
49.4037	1737.72
49.4182	1788.63
49.4326	1771.29
49.4471	1636.43
49.4615	1664.84
49.4759	1660.70
49.4904	1488.62
49.5048	1398.86
49.5193	1364.04
49.5337	1300.56
49.5481	1223.96
49.5626	1133.81
49.5770	1032.79
49.5915	965.88
49.6059	937.31
49.6203	870.79
49.6348	806.78
49.6492	785.64
49.6637	730.76
49.6781	752.13
49.6925	706.68
49.7070	672.57
49.7214	659.79
49.7359	631.15
49.7503	627.63
49.7647	606.22
49.7792	601.77
49.7936	601.37
49.8081	585.41
49.8225	597.63
49.8369	575.77
49.8514	581.99
49.8658	582.39
49.8803	556.72
49.8947	562.57
49.9091	561.29
49.9236	560.85
49.9380	586.65
49.9525	552.11
49.9669	548.89
49.9813	537.92
49.9958	533.96
50.0102	540.93
50.0247	550.68
50.0391	502.46
50.0535	509.53
50.0680	509.14
50.0824	522.00
50.0969	526.40
50.1113	521.40
50.1257	524.91
50.1402	508.55
50.1546	484.81
50.1691	540.17
50.1835	539.95
50.1979	534.16
50.2124	546.11
50.2268	521.18
50.2413	533.07
50.2557	511.11
50.2701	501.65
50.2846	509.07
50.2990	484.91
50.3135	499.77
50.3279	545.49
50.3423	543.58
50.3568	546.26
50.3712	511.93
50.3857	493.59
50.4001	496.00
50.4145	506.26
50.4290	491.23
50.4434	507.04
50.4579	508.15
50.4723	531.79
50.4867	495.21
50.5012	503.10
50.5156	491.84
50.5301	507.86
50.5445	515.93
50.5589	513.96
50.5734	513.69
50.5878	494.36
50.6023	511.38
50.6167	494.04
50.6311	495.12
50.6456	471.35
50.6600	493.39
50.6745	490.85
50.6889	484.72
50.7033	506.66
50.7178	514.87
50.7322	497.43
50.7467	526.41
50.7611	487.86
50.7755	501.38
50.7900	517.54
50.8044	482.99
50.8189	505.64
50.8333	509.18
50.8477	548.38
50.8622	560.08
50.8766	549.03
50.8911	506.24
50.9055	514.25
50.9199	512.81
50.9344	493.72
50.9488	492.80
50.9633	498.98
50.9777	505.97
50.9921	517.79
51.0066	523.39
51.0210	520.97
51.0355	492.23
51.0499	491.45
51.0643	517.93
51.0788	531.03
51.0932	544.03
51.1077	530.24
51.1221	522.78
51.1365	504.48
51.1510	462.83
51.1654	474.91
51.1799	500.59
51.1943	522.81
51.2087	504.54
51.2232	490.25
51.2376	511.75
51.2521	522.00
51.2665	506.46
51.2809	528.06
51.2954	506.47
51.3098	521.00
51.3243	547.93
51.3387	518.85
51.3531	492.20
51.3676	504.01
51.3820	505.53
51.3965	494.71
51.4109	489.16
51.4253	521.93
51.4398	530.23
51.4542	518.88
51.4687	510.75
51.4831	511.97
51.4975	504.93
51.5120	525.25
51.5264	510.10
51.5409	518.08
51.5553	534.51
51.5697	511.25
51.5842	501.87
51.5986	511.50
51.6131	509.25
51.6275	502.03
51.6419	511.42
51.6564	540.97
51.6708	492.68
51.6853	496.35
51.6997	530.81
51.7141	503.10
51.7286	504.98
51.7430	513.86
51.7575	458.56
51.7719	494.47
51.7863	490.50
51.8008	505.21
51.8152	516.39
51.8297	541.67
51.8441	519.47
51.8585	527.47
51.8730	540.32
51.8874	489.79
51.9019	508.69
51.9163	481.74
51.9307	493.98
51.9452	571.12
51.9596	507.12
51.9741	512.75
51.9885	527.68
52.0029	546.57
52.0174	537.95
52.0318	486.58
52.0463	490.26
52.0607	488.06
52.0751	494.03
52.0896	533.46
52.1040	461.99
52.1185	496.83
52.1329	516.55
52.1473	496.68
52.1618	522.68
52.1762	519.17
52.1907	474.13
52.2051	495.32
52.2195	515.32
52.2340	515.62
52.2484	526.32
52.2629	508.36
52.2773	509.37
52.2917	508.90
52.3062	514.94
52.3206	522.16
52.3351	522.65
52.3495	525.21
52.3639	522.89
52.3784	532.74
52.3928	502.42
52.4073	506.07
52.4217	532.04
52.4361	490.94
52.4506	519.23
52.4650	550.91
52.4795	505.33
52.4939	518.12
52.5083	521.79
52.5228	540.11
52.5372	540.30
52.5517	497.13
52.5661	508.12
52.5805	543.40
52.5950	546.51
52.6094	533.60
52.6239	541.81
52.6383	505.76
52.6527	515.77
52.6672	489.18
52.6816	491.62
52.6961	501.88
52.7105	542.09
52.7250	487.92
52.7394	489.93
52.7538	530.96
52.7683	510.03
52.7827	539.83
52.7972	529.58
52.8116	544.85
52.8260	539.56
52.8405	514.16
52.8549	529.23
52.8694	549.38
52.8838	531.11
52.8982	521.54
52.9127	492.30
52.9271	522.96
52.9416	495.35
52.9560	501.52
52.9704	510.43
52.9849	489.06
52.9993	453.66
53.0138	521.15
53.0282	517.51
53.0426	500.83
53.0571	505.56
53.0715	519.37
53.0860	525.37
53.1004	496.47
53.1148	520.33
53.1293	543.48
53.1437	500.18
53.1582	526.80
53.1726	517.65
53.1870	509.17
53.2015	487.00
53.2159	530.14
53.2304	519.25
53.2448	505.02
53.2592	538.40
53.2737	517.34
53.2881	540.44
53.3026	552.62
53.3170	526.17
53.3314	512.45
53.3459	511.72
53.3603	504.02
53.3748	512.30
53.3892	501.92
53.4036	488.05
53.4181	508.79
53.4325	532.10
53.4470	529.96
53.4614	522.87
53.4758	530.99
53.4903	524.64
53.5047	511.43
53.5192	532.40
53.5336	495.15
53.5480	518.59
53.5625	521.53
53.5769	500.77
53.5914	520.24
53.6058	511.73
53.6202	518.18
53.6347	505.80
53.6491	503.04
53.6636	524.94
53.6780	478.57
53.6924	499.41
53.7069	553.94
53.7213	559.90
53.7358	539.94
53.7502	545.97
53.7646	498.21
53.7791	514.89
53.7935	517.89
53.8080	506.69
53.8224	527.90
53.8368	533.52
53.8513	500.80
53.8657	556.78
53.8802	548.45
53.8946	527.08
53.9090	535.66
53.9235	492.59
53.9379	525.91
53.9524	486.33
53.9668	510.83
53.9812	515.19
53.9957	545.32
54.0101	509.17
54.0246	508.99
54.0390	525.93
54.0534	515.49
54.0679	479.87
54.0823	492.56
54.0968	541.20
54.1112	510.64
54.1256	490.48
54.1401	514.50
54.1545	528.98
54.1690	551.43
54.1834	524.44
54.1978	510.26
54.2123	512.05
54.2267	531.05
54.2412	546.32
54.2556	511.28
54.2700	525.09
54.2845	533.76
54.2989	522.92
54.3134	550.27
54.3278	548.43
54.3422	511.87
54.3567	527.10
54.3711	548.67
54.3856	523.07
54.4000	498.62
54.4144	526.83
54.4289	519.38
54.4433	493.92
54.4578	526.69
54.4722	521.06
54.4866	532.44
54.5011	557.64
54.5155	540.63
54.5300	531.48
54.5444	542.83
54.5588	537.37
54.5733	536.07
54.5877	553.31
54.6022	493.47
54.6166	532.11
54.6310	510.14
54.6455	500.88
54.6599	534.81
54.6744	537.94
54.6888	516.68
54.7032	552.57
54.7177	527.46
54.7321	517.21
54.7466	521.60
54.7610	528.42
54.7754	549.48
54.7899	554.14
54.8043	570.61
54.8188	557.49
54.8332	522.51
54.8476	544.76
54.8621	607.07
54.8765	593.11
54.8910	595.15
54.9054	614.43
54.9198	575.59
54.9343	552.38
54.9487	583.53
54.9632	574.46
54.9776	588.66
54.9920	583.00
55.0065	601.19
55.0209	621.74
55.0354	593.33
55.0498	590.94
55.0642	541.40
55.0787	547.19
55.0931	558.42
55.1076	550.25
55.1220	553.88
55.1364	571.37
55.1509	545.66
55.1653	567.82
55.1798	550.55
55.1942	508.17
55.2086	542.67
55.2231	557.94
55.2375	537.71
55.2520	530.22
55.2664	522.55
55.2808	550.06
55.2953	535.20
55.3097	544.25
55.3242	521.44
55.3386	576.87
55.3530	530.51
55.3675	518.73
55.3819	541.02
55.3964	515.07
55.4108	489.92
55.4252	491.64
55.4397	509.75
55.4541	487.93
55.4686	501.48
55.4830	492.98
55.4974	530.30
55.5119	513.67
55.5263	520.67
55.5408	568.64
55.5552	514.76
55.5696	532.22
55.5841	524.46
55.5985	498.20
55.6130	498.04
55.6274	511.22
55.6418	527.23
55.6563	535.67
55.6707	498.38
55.6852	522.93
55.6996	533.42
55.7140	541.72
55.7285	539.88
55.7429	565.57
55.7574	502.00
55.7718	507.45
55.7862	514.78
55.8007	537.05
55.8151	526.14
55.8296	552.91
55.8440	537.16
55.8584	550.74
55.8729	549.27
55.8873	525.02
55.9018	565.50
55.9162	521.55
55.9306	489.08
55.9451	516.29
55.9595	525.90
55.9740	501.17
55.9884	556.91
56.0028	509.20
56.0173	544.26
56.0317	525.07
56.0462	521.42
56.0606	535.30
56.0750	497.33
56.0895	531.17
56.1039	538.01
56.1184	536.97
56.1328	525.64
56.1472	530.67
56.1617	508.26
56.1761	519.15
56.1906	489.66
56.2050	527.65
56.2194	508.54
56.2339	516.87
56.2483	513.56
56.2628	480.15
56.2772	478.81
56.2916	484.86
56.3061	513.49
56.3205	536.70
56.3350	546.83
56.3494	514.17
56.3639	535.51
56.3783	518.37
56.3927	523.46
56.4072	502.40
56.4216	538.44
56.4361	562.94
56.4505	522.54
56.4649	542.37
56.4794	532.63
56.4938	535.07
56.5083	505.60
56.5227	504.36
56.5371	489.79
56.5516	542.34
56.5660	508.29
56.5805	517.49
56.5949	509.03
56.6093	483.11
56.6238	518.70
56.6382	516.21
56.6527	529.77
56.6671	530.76
56.6815	499.39
56.6960	491.07
56.7104	539.92
56.7249	544.05
56.7393	521.03
56.7537	530.91
56.7682	524.37
56.7826	511.41
56.7971	541.56
56.8115	550.02
56.8259	513.48
56.8404	544.12
56.8548	533.22
56.8693	524.29
56.8837	496.46
56.8981	524.20
56.9126	525.02
56.9270	500.78
56.9415	526.23
56.9559	471.56
56.9703	528.63
56.9848	567.91
56.9992	543.47
57.0137	569.22
57.0281	543.12
57.0425	476.33
57.0570	503.03
57.0714	541.32
57.0859	562.86
57.1003	534.01
57.1147	539.38
57.1292	520.71
57.1436	521.85
57.1581	510.67
57.1725	482.24
57.1869	514.76
57.2014	516.52
57.2158	517.39
57.2303	525.15
57.2447	562.54
57.2591	519.60
57.2736	519.93
57.2880	530.19
57.3025	514.86
57.3169	528.25
57.3313	522.15
57.3458	524.74
57.3602	527.02
57.3747	540.61
57.3891	498.02
57.4035	526.00
57.4180	544.91
57.4324	518.67
57.4469	511.87
57.4613	520.94
57.4757	560.02
57.4902	541.76
57.5046	484.32
57.5191	521.57
57.5335	520.17
57.5479	477.93
57.5624	533.89
57.5768	513.07
57.5913	521.90
57.6057	525.43
57.6201	531.57
57.6346	537.72
57.6490	550.87
57.6635	530.45
57.6779	514.94
57.6923	515.72
57.7068	559.30
57.7212	534.38
57.7357	496.47
57.7501	517.69
57.7645	500.36
57.7790	531.17
57.7934	552.22
57.8079	554.56
57.8223	555.70
57.8367	541.22
57.8512	531.24
57.8656	570.99
57.8801	566.37
57.8945	575.11
57.9089	541.17
57.9234	548.52
57.9378	544.14
57.9523	535.81
57.9667	547.29
57.9811	539.65
57.9956	520.57
58.0100	573.87
58.0245	588.02
58.0389	558.53
58.0533	542.76
58.0678	577.01
58.0822	541.93
58.0967	530.40
58.1111	545.72
58.1255	551.93
58.1400	544.43
58.1544	495.89
58.1689	536.90
58.1833	569.37
58.1977	568.86
58.2122	558.73
58.2266	520.40
58.2411	541.47
58.2555	577.00
58.2699	561.94
58.2844	582.62
58.2988	560.06
58.3133	584.47
58.3277	574.07
58.3421	578.35
58.3566	550.48
58.3710	539.69
58.3855	564.83
58.3999	570.46
58.4143	570.38
58.4288	575.11
58.4432	582.26
58.4577	573.78
58.4721	614.10
58.4865	630.06
58.5010	620.79
58.5154	646.17
58.5299	629.97
58.5443	603.19
58.5587	620.04
58.5732	624.36
58.5876	651.06
58.6021	644.46
58.6165	626.92
58.6309	616.89
58.6454	615.59
58.6598	629.74
58.6743	598.45
58.6887	587.55
58.7031	614.67
58.7176	636.97
58.7320	615.52
58.7465	621.48
58.7609	585.68
58.7753	592.70
58.7898	630.46
58.8042	633.97
58.8187	620.15
58.8331	599.59
58.8475	571.79
58.8620	574.46
58.8764	575.99
58.8909	568.15
58.9053	560.68
58.9197	526.90
58.9342	554.12
58.9486	530.71
58.9631	522.34
58.9775	549.90
58.9919	556.49
59.0064	552.68
59.0208	587.31
59.0353	578.72
59.0497	547.43
59.0641	534.40
59.0786	535.50
59.0930	547.28
59.1075	568.81
59.1219	581.72
59.1363	545.63
59.1508	521.98
59.1652	542.64
59.1797	568.21
59.1941	544.99
59.2085	539.61
59.2230	559.55
59.2374	563.90
59.2519	574.61
59.2663	552.69
59.2807	589.33
59.2952	556.11
59.3096	555.83
59.3241	569.36
59.3385	556.03
59.3529	568.36
59.3674	584.99
59.3818	554.45
59.3963	570.25
59.4107	544.73
59.4251	593.99
59.4396	618.80
59.4540	602.70
59.4685	560.75
59.4829	555.24
59.4973	588.36
59.5118	551.08
59.5262	543.35
59.5407	578.74
59.5551	580.56
59.5695	517.54
59.5840	522.61
59.5984	539.10
59.6129	546.86
59.6273	504.02
59.6417	611.70
59.6562	533.26
59.6706	548.08
59.6851	566.50
59.6995	554.37
59.7139	533.32
59.7284	503.58
59.7428	528.90
59.7573	546.11
59.7717	552.56
59.7861	506.45
59.8006	539.21
59.8150	554.45
59.8295	534.57
59.8439	544.79
59.8583	530.84
59.8728	540.73
59.8872	544.05
59.9017	537.28
59.9161	546.99
59.9305	557.38
59.9450	554.19
59.9594	531.00
59.9739	568.34
59.9883	537.76
60.0027	519.54
60.0172	551.13
60.0316	560.78
60.0461	542.08
60.0605	574.70
60.0750	538.22
60.0894	557.37
60.1038	555.55
60.1183	555.23
60.1327	571.07
60.1472	517.54
60.1616	549.12
60.1760	538.46
60.1905	554.10
60.2049	562.66
60.2194	559.88
60.2338	542.38
60.2482	566.20
60.2627	552.09
60.2771	515.72
60.2916	540.53
60.3060	523.75
60.3204	520.90
60.3349	562.42
60.3493	543.42
60.3638	538.90
60.3782	526.44
60.3926	565.17
60.4071	550.64
60.4215	545.36
60.4360	554.04
60.4504	503.63
60.4648	565.94
60.4793	572.11
60.4937	549.69
60.5082	559.21
60.5226	533.04
60.5370	535.72
60.5515	532.55
60.5659	531.53
60.5804	509.39
60.5948	553.87
60.6092	575.62
60.6237	578.09
60.6381	526.93
60.6526	541.72
60.6670	509.94
60.6814	526.24
60.6959	545.09
60.7103	549.17
60.7248	525.99
60.7392	530.85
60.7536	534.37
60.7681	529.32
60.7825	555.72
60.7970	522.59
60.8114	578.09
60.8258	544.20
60.8403	518.59
60.8547	541.42
60.8692	576.25
60.8836	571.20
60.8980	553.33
60.9125	599.52
60.9269	546.04
60.9414	526.29
60.9558	576.04
60.9702	551.73
60.9847	566.69
60.9991	542.96
61.0136	546.95
61.0280	574.70
61.0424	553.71
61.0569	559.81
61.0713	555.24
61.0858	558.66
61.1002	521.40
61.1146	536.25
61.1291	522.49
61.1435	494.55
61.1580	503.46
61.1724	527.94
61.1868	560.01
61.2013	532.08
61.2157	516.41
61.2302	550.10
61.2446	555.94
61.2590	564.17
61.2735	571.44
61.2879	556.67
61.3024	555.06
61.3168	563.87
61.3312	544.36
61.3457	579.58
61.3601	542.92
61.3746	542.66
61.3890	551.89
61.4034	572.38
61.4179	578.79
61.4323	560.74
61.4468	580.22
61.4612	565.59
61.4756	569.72
61.4901	526.31
61.5045	548.31
61.5190	528.45
61.5334	527.14
61.5478	546.54
61.5623	532.48
61.5767	561.41
61.5912	552.35
61.6056	584.47
61.6200	574.31
61.6345	549.39
61.6489	573.32
61.6634	521.02
61.6778	521.90
61.6922	508.41
61.7067	592.46
61.7211	549.35
61.7356	525.26
61.7500	551.09
61.7644	501.06
61.7789	568.34
61.7933	573.35
61.8078	511.04
61.8222	556.66
61.8366	561.61
61.8511	574.92
61.8655	562.79
61.8800	534.01
61.8944	558.43
61.9088	567.84
61.9233	559.07
61.9377	564.68
61.9522	581.93
61.9666	538.24
61.9810	554.61
61.9955	582.43
62.0099	554.93
62.0244	564.49
62.0388	584.09
62.0532	534.08
62.0677	545.98
62.0821	580.40
62.0966	568.61
62.1110	531.87
62.1254	535.62
62.1399	561.11
62.1543	541.02
62.1688	560.27
62.1832	557.74
62.1976	547.24
62.2121	531.03
62.2265	567.09
62.2410	576.53
62.2554	527.17
62.2698	537.88
62.2843	562.20
62.2987	573.04
62.3132	571.83
62.3276	580.60
62.3420	563.53
62.3565	527.01
62.3709	539.39
62.3854	558.05
62.3998	587.55
62.4142	525.37
62.4287	572.45
62.4431	557.87
62.4576	575.43
62.4720	576.88
62.4864	568.83
62.5009	531.37
62.5153	537.71
62.5298	549.24
62.5442	590.98
62.5586	562.32
62.5731	571.40
62.5875	567.80
62.6020	535.38
62.6164	539.84
62.6308	517.15
62.6453	530.91
62.6597	558.34
62.6742	541.73
62.6886	557.24
62.7030	565.70
62.7175	560.58
62.7319	549.30
62.7464	572.68
62.7608	543.76
62.7752	538.63
62.7897	552.19
62.8041	571.48
62.8186	565.31
62.8330	574.21
62.8474	553.19
62.8619	599.80
62.8763	582.75
62.8908	553.89
62.9052	568.66
62.9196	552.11
62.9341	549.91
62.9485	558.93
62.9630	567.98
62.9774	568.94
62.9918	582.22
63.0063	586.49
63.0207	593.89
63.0352	574.44
63.0496	577.25
63.0640	575.64
63.0785	586.38
63.0929	604.39
63.1074	587.37
63.1218	572.84
63.1362	552.09
63.1507	545.37
63.1651	602.20
63.1796	582.25
63.1940	553.15
63.2084	595.33
63.2229	582.40
63.2373	523.09
63.2518	546.63
63.2662	567.05
63.2806	568.51
63.2951	557.91
63.3095	540.50
63.3240	561.13
63.3384	596.79
63.3528	587.30
63.3673	590.60
63.3817	555.39
63.3962	594.23
63.4106	562.21
63.4250	601.56
63.4395	589.73
63.4539	583.81
63.4684	577.38
63.4828	564.77
63.4972	548.70
63.5117	555.54
63.5261	552.66
63.5406	596.30
63.5550	554.76
63.5694	570.76
63.5839	597.82
63.5983	583.23
63.6128	614.41
63.6272	565.90
63.6416	614.32
63.6561	621.28
63.6705	595.28
63.6850	556.70
63.6994	580.89
63.7138	584.18
63.7283	622.86
63.7427	629.43
63.7572	576.47
63.7716	575.00
63.7861	607.56
63.8005	550.04
63.8149	582.49
63.8294	621.58
63.8438	591.72
63.8583	615.78
63.8727	645.59
63.8871	617.58
63.9016	623.11
63.9160	581.78
63.9305	598.21
63.9449	624.83
63.9593	588.87
63.9738	602.88
63.9882	601.21
64.0027	606.09
64.0171	596.79
64.0315	666.17
64.0460	614.24
64.0604	635.44
64.0749	641.43
64.0893	626.06
64.1037	650.10
64.1182	638.97
64.1326	666.76
64.1471	621.12
64.1615	655.38
64.1759	688.22
64.1904	713.39
64.2048	683.73
64.2193	728.33
64.2337	758.83
64.2481	745.75
64.2626	733.85
64.2770	744.59
64.2915	747.22
64.3059	776.72
64.3203	705.87
64.3348	788.60
64.3492	795.01
64.3637	763.37
64.3781	824.21
64.3925	793.56
64.4070	746.40
64.4214	767.37
64.4359	770.00
64.4503	774.52
64.4647	788.32
64.4792	833.19
64.4936	785.67
64.5081	734.53
64.5225	693.04
64.5369	736.23
64.5514	756.53
64.5658	741.10
64.5803	726.63
64.5947	703.26
64.6091	691.20
64.6236	688.05
64.6380	702.06
64.6525	749.95
64.6669	725.12
64.6813	714.25
64.6958	717.96
64.7102	741.45
64.7247	754.71
64.7391	735.99
64.7535	756.97
64.7680	728.78
64.7824	747.66
64.7969	755.44
64.8113	755.22
64.8257	780.87
64.8402	795.49
64.8546	842.44
64.8691	859.43
64.8835	853.41
64.8979	883.25
64.9124	895.81
64.9268	923.12
64.9413	983.29
64.9557	1003.74
64.9701	1028.68
64.9846	1062.22
64.9990	1215.78
65.0135	1300.09
65.0279	1458.10
65.0423	1756.74
65.0568	2223.34
65.0712	2708.03
65.0857	3546.84
65.1001	4785.38
65.1145	6407.10
65.1290	8348.17
65.1434	9883.45
65.1579	11444.10
65.1723	11911.42
65.1867	11358.28
65.2012	9880.22
65.2156	8138.71
65.2301	6300.57
65.2445	5302.78
65.2589	4462.34
65.2734	4334.98
65.2878	4453.97
65.3023	5110.37
65.3167	6054.57
65.3311	6843.46
65.3456	7065.65
65.3600	6987.13
65.3745	6440.89
65.3889	5385.14
65.4033	4245.08
65.4178	3336.37
65.4322	2620.23
65.4467	1992.93
65.4611	1713.95
65.4755	1477.97
65.4900	1229.11
65.5044	1110.26
65.5189	1048.87
65.5333	994.16
65.5477	924.00
65.5622	888.50
65.5766	807.99
65.5911	844.56
65.6055	791.20
65.6199	820.17
65.6344	772.44
65.6488	718.91
65.6633	719.52
65.6777	729.93
65.6921	707.37
65.7066	744.65
65.7210	678.62
65.7355	653.26
65.7499	683.24
65.7643	713.69
65.7788	667.78
65.7932	666.95
65.8077	695.02
65.8221	699.35
65.8365	646.50
65.8510	696.55
65.8654	688.04
65.8799	664.44
65.8943	614.09
65.9087	657.72
65.9232	652.70
65.9376	679.97
65.9521	633.47
65.9665	587.40
65.9809	622.56
65.9954	622.09
66.0098	646.08
66.0243	619.57
66.0387	622.70
66.0531	644.41
66.0676	614.10
66.0820	629.83
66.0965	629.71
66.1109	667.70
66.1253	616.16
66.1398	594.46
66.1542	611.08
66.1687	649.94
66.1831	615.83
66.1975	607.95
66.2120	626.73
66.2264	623.50
66.2409	619.14
66.2553	600.32
66.2697	620.58
66.2842	623.50
66.2986	621.45
66.3131	604.61
66.3275	608.21
66.3419	609.32
66.3564	594.81
66.3708	600.64
66.3853	588.09
66.3997	601.58
66.4141	607.87
66.4286	660.23
66.4430	597.95
66.4575	607.11
66.4719	621.28
66.4863	585.95
66.5008	588.22
66.5152	574.06
66.5297	591.25
66.5441	599.02
66.5585	569.25
66.5730	592.32
66.5874	615.37
66.6019	564.79
66.6163	609.50
66.6307	634.09
66.6452	582.28
66.6596	583.44
66.6741	576.64
66.6885	584.35
66.7029	596.12
66.7174	581.27
66.7318	567.51
66.7463	576.16
66.7607	583.10
66.7751	597.55
66.7896	619.75
66.8040	607.21
66.8185	574.05
66.8329	586.87
66.8473	589.49
66.8618	581.41
66.8762	604.31
66.8907	565.49
66.9051	583.61
66.9195	576.82
66.9340	585.54
66.9484	618.40
66.9629	601.00
66.9773	572.74
66.9917	559.23
67.0062	554.20
67.0206	578.01
67.0351	573.51
67.0495	565.63
67.0639	602.35
67.0784	584.52
67.0928	612.24
67.1073	583.20
67.1217	598.99
67.1361	605.40
67.1506	604.23
67.1650	593.68
67.1795	573.79
67.1939	557.00
67.2083	561.34
67.2228	604.41
67.2372	625.36
67.2517	598.30
67.2661	571.99
67.2805	625.92
67.2950	612.95
67.3094	575.81
67.3239	587.10
67.3383	617.39
67.3527	578.32
67.3672	579.60
67.3816	555.60
67.3961	551.92
67.4105	590.25
67.4250	633.00
67.4394	606.38
67.4538	603.44
67.4683	581.32
67.4827	585.95
67.4972	542.77
67.5116	557.65
67.5260	557.92
67.5405	595.46
67.5549	580.16
67.5694	570.56
67.5838	561.91
67.5982	593.04
67.6127	597.69
67.6271	609.56
67.6416	594.98
67.6560	587.80
67.6704	574.80
67.6849	570.64
67.6993	623.17
67.7138	626.33
67.7282	648.37
67.7426	574.02
67.7571	553.56
67.7715	559.03
67.7860	601.76
67.8004	589.06
67.8148	588.21
67.8293	564.03
67.8437	565.76
67.8582	625.29
67.8726	603.25
67.8870	557.46
67.9015	568.99
67.9159	567.30
67.9304	561.85
67.9448	574.70
67.9592	589.99
67.9737	591.16
67.9881	581.56
68.0026	555.45
68.0170	558.98
68.0314	601.17
68.0459	613.76
68.0603	580.18
68.0748	526.65
68.0892	581.72
68.1036	589.96
68.1181	600.34
68.1325	588.88
68.1470	583.56
68.1614	593.55
68.1758	586.37
68.1903	577.45
68.2047	556.06
68.2192	558.31
68.2336	563.91
68.2480	619.31
68.2625	603.45
68.2769	585.21
68.2914	590.53
68.3058	548.56
68.3202	540.06
68.3347	616.27
68.3491	534.45
68.3636	564.80
68.3780	585.26
68.3924	587.61
68.4069	545.82
68.4213	576.65
68.4358	581.87
68.4502	581.88
68.4646	542.78
68.4791	581.25
68.4935	560.45
68.5080	562.83
68.5224	558.53
68.5368	556.16
68.5513	585.77
68.5657	552.08
68.5802	537.92
68.5946	562.34
68.6090	594.01
68.6235	576.12
68.6379	610.59
68.6524	561.81
68.6668	573.69
68.6812	568.17
68.6957	532.35
68.7101	566.97
68.7246	533.22
68.7390	558.70
68.7534	564.45
68.7679	582.13
68.7823	554.03
68.7968	581.90
68.8112	598.83
68.8256	592.49
68.8401	581.27
68.8545	553.45
68.8690	561.49
68.8834	594.81
68.8978	597.72
68.9123	619.08
68.9267	536.99
68.9412	558.26
68.9556	596.43
68.9700	602.68
68.9845	616.83
68.9989	631.83
69.0134	570.10
69.0278	609.65
69.0422	605.47
69.0567	593.70
69.0711	598.52
69.0856	575.64
69.1000	599.67
69.1144	659.77
69.1289	559.39
69.1433	568.11
69.1578	604.34
69.1722	597.59
69.1866	565.55
69.2011	521.08
69.2155	588.39
69.2300	559.79
69.2444	572.16
69.2588	593.01
69.2733	625.13
69.2877	612.27
69.3022	592.07
69.3166	612.07
69.3310	622.67
69.3455	614.56
69.3599	628.67
69.3744	554.23
69.3888	594.09
69.4032	611.77
69.4177	580.61
69.4321	666.47
69.4466	569.13
69.4610	586.92
69.4754	580.26
69.4899	646.14
69.5043	590.22
69.5188	584.47
69.5332	563.78
69.5476	603.35
69.5621	596.48
69.5765	543.20
69.5910	535.23
69.6054	566.26
69.6198	619.29
69.6343	574.71
69.6487	560.93
69.6632	572.50
69.6776	573.00
69.6920	625.88
69.7065	555.20
69.7209	546.92
69.7354	579.63
69.7498	630.08
69.7642	597.51
69.7787	590.10
69.7931	578.39
69.8076	602.36
69.8220	591.12
69.8364	578.91
69.8509	570.88
69.8653	567.99
69.8798	516.27
69.8942	576.57
69.9086	574.69
69.9231	591.85
69.9375	595.39
69.9520	590.30
69.9664	564.55
69.9808	602.50
69.9953	570.63
70.0097	609.70
70.0242	597.41
70.0386	586.50
70.0530	552.50
70.0675	563.67
70.0819	606.88
70.0964	588.07
70.1108	595.94
70.1252	594.79
70.1397	572.74
70.1541	568.33
70.1686	576.77
70.1830	510.21
70.1974	559.15
70.2119	575.35
70.2263	611.75
70.2408	593.92
70.2552	618.33
70.2696	608.84
70.2841	612.53
70.2985	593.29
70.3130	556.22
70.3274	582.10
70.3418	600.25
70.3563	591.49
70.3707	569.37
70.3852	604.04
70.3996	595.67
70.4140	591.47
70.4285	629.37
70.4429	611.53
70.4574	585.76
70.4718	612.14
70.4862	560.26
70.5007	576.45
70.5151	583.86
70.5296	569.13
70.5440	595.30
70.5584	611.61
70.5729	553.65
70.5873	583.46
70.6018	590.20
70.6162	578.69
70.6306	606.49
70.6451	601.37
70.6595	582.05
70.6740	589.71
70.6884	590.10
70.7028	576.55
70.7173	577.44
70.7317	589.55
70.7462	585.02
70.7606	535.58
70.7750	562.24
70.7895	560.88
70.8039	589.39
70.8184	516.83
70.8328	515.29
70.8472	543.97
70.8617	536.77
70.8761	583.21
70.8906	598.98
70.9050	638.17
70.9194	597.92
70.9339	538.71
70.9483	554.70
70.9628	602.22
70.9772	639.35
70.9916	648.70
71.0061	576.38
71.0205	566.80
71.0350	604.73
71.0494	586.08
71.0638	548.53
71.0783	604.18
71.0927	561.15
71.1072	551.48
71.1216	577.99
71.1361	553.77
71.1505	555.55
71.1649	585.81
71.1794	615.73
71.1938	582.98
71.2083	587.35
71.2227	597.02
71.2371	625.97
71.2516	579.92
71.2660	550.06
71.2805	543.16
71.2949	539.12
71.3093	513.53
71.3238	539.64
71.3382	611.62
71.3527	571.72
71.3671	562.26
71.3815	545.37
71.3960	560.21
71.4104	562.79
71.4249	595.61
71.4393	584.01
71.4537	568.17
71.4682	629.71
71.4826	604.19
71.4971	584.90
71.5115	592.21
71.5259	583.42
71.5404	575.22
71.5548	583.73
71.5693	555.80
71.5837	546.97
71.5981	586.10
71.6126	602.55
71.6270	579.18
71.6415	579.27
71.6559	545.21
71.6703	557.04
71.6848	548.11
71.6992	582.46
71.7137	620.30
71.7281	639.53
71.7425	617.16
71.7570	580.15
71.7714	575.56
71.7859	557.56
71.8003	556.91
71.8147	532.42
71.8292	556.97
71.8436	579.49
71.8581	610.84
71.8725	624.50
71.8869	584.66
71.9014	601.77
71.9158	559.34
71.9303	568.80
71.9447	595.61
71.9591	579.93
71.9736	590.85
71.9880	569.98
72.0025	536.52
72.0169	577.58
72.0313	557.84
72.0458	555.39
72.0602	581.44
72.0747	569.84
72.0891	551.49
72.1035	550.59
72.1180	514.99
72.1324	576.30
72.1469	527.00
72.1613	570.32
72.1757	621.33
72.1902	581.89
72.2046	612.95
72.2191	580.83
72.2335	504.69
72.2479	463.88
72.2624	527.43
72.2768	581.42
72.2913	572.12
72.3057	578.09
72.3201	583.94
72.3346	609.25
72.3490	547.37
72.3635	506.72
72.3779	533.50
72.3923	535.13
72.4068	554.45
72.4212	562.55
72.4357	576.40
72.4501	537.24
72.4645	557.41
72.4790	600.94
72.4934	504.40
72.5079	549.75
72.5223	544.00
72.5367	526.54
72.5512	489.71
72.5656	538.32
72.5801	536.57
72.5945	449.67
72.6089	566.11
72.6234	581.92
72.6378	568.09
72.6523	557.84
72.6667	567.18
72.6811	597.19
72.6956	607.09
72.7100	556.23
72.7245	539.86
72.7389	573.83
72.7533	593.98
72.7678	643.03
72.7822	624.12
72.7967	619.36
72.8111	657.74
72.8255	613.64
72.8400	592.79
72.8544	624.50
72.8689	574.14
72.8833	538.99

Result vector
22.1120	531.46
22.1264	528.94
22.1409	578.61
22.1553	583.36
22.1697	686.32
22.1842	621.14
22.1986	574.69
22.2131	598.10
22.2275	559.38
22.2419	577.73
22.2564	438.21
22.2708	496.25
22.2853	625.56
22.2997	480.86
22.3141	586.26
22.3286	608.00
22.3430	554.43
22.3575	600.03
22.3719	613.41
22.3863	620.01
22.4008	654.39
22.4152	560.55
22.4297	607.68
22.4441	577.39
22.4585	550.56
22.4730	546.34
22.4874	561.64
22.5019	608.43
22.5163	607.36
22.5307	558.67
22.5452	545.84
22.5596	587.78
22.5741	562.94
22.5885	562.46
22.6029	643.49
22.6174	599.01
22.6318	551.23
22.6463	501.84
22.6607	530.14
22.6751	578.58
22.6896	557.78
22.7040	652.62
22.7185	612.79
22.7329	541.19
22.7473	614.61
22.7618	637.15
22.7762	542.69
22.7907	605.04
22.8051	555.99
22.8195	526.70
22.8340	573.17
22.8484	497.64
22.8629	533.33
22.8773	540.78
22.8917	639.84
22.9062	634.03
22.9206	498.90
22.9351	517.43
22.9495	585.17
22.9639	578.01
22.9784	589.12
22.9928	645.63
23.0073	594.75
23.0217	502.46
23.0361	561.37
23.0506	522.49
23.0650	596.48
23.0795	604.11
23.0939	546.95
23.1083	521.95
23.1228	608.12
23.1372	594.03
23.1517	493.38
23.1661	604.74
23.1806	511.24
23.1950	493.40
23.2094	534.23
23.2239	539.51
23.2383	562.27
23.2528	607.60
23.2672	561.30
23.2816	616.32
23.2961	522.10
23.3105	548.76
23.3250	512.28
23.3394	553.57
23.3538	531.60
23.3683	561.42
23.3827	551.09
23.3972	529.30
23.4116	515.07
23.4260	541.66
23.4405	530.92
23.4549	543.14
23.4694	568.52
23.4838	531.97
23.4982	603.30
23.5127	620.05
23.5271	576.47
23.5416	546.87
23.5560	553.35
23.5704	594.36
23.5849	538.85
23.5993	540.36
23.6138	576.04
23.6282	520.72
23.6426	538.39
23.6571	475.55
23.6715	587.70
23.6860	523.48
23.7004	558.39
23.7148	546.69
23.7293	521.59
23.7437	590.73
23.7582	529.61
23.7726	595.13
23.7870	573.62
23.8015	555.92
23.8159	542.50
23.8304	551.98
23.8448	505.67
23.8592	492.35
23.8737	555.09
23.8881	542.69
23.9026	603.99
23.9170	533.19
23.9314	565.84
23.9459	550.06
23.9603	527.80
23.9748	610.56
23.9892	603.54
24.0036	527.92
24.0181	542.31
24.0325	604.90
24.0470	577.23
24.0614	562.90
24.0758	532.35
24.0903	507.29
24.1047	540.06
24.1192	518.01
24.1336	572.91
24.1480	568.20
24.1625	620.39
24.1769	592.80
24.1914	603.67
24.2058	597.59
24.2202	564.49
24.2347	602.74
24.2491	582.79
24.2636	578.47
24.2780	638.48
24.2924	583.81
24.3069	595.42
24.3213	590.12
24.3358	644.23
24.3502	503.34
24.3646	589.04
24.3791	540.40
24.3935	582.06
24.4080	511.67
24.4224	568.17
24.4368	564.31
24.4513	564.01
24.4657	561.13
24.4802	554.98
24.4946	547.39
24.5090	531.83
24.5235	553.77
24.5379	564.56
24.5524	560.75
24.5668	555.03
24.5812	548.82
24.5957	522.87
24.6101	540.84
24.6246	585.34
24.6390	565.68
24.6534	555.51
24.6679	549.90
24.6823	571.31
24.6968	554.73
24.7112	584.73
24.7256	564.36
24.7401	519.91
24.7545	570.69
24.7690	551.97
24.7834	532.27
24.7978	515.48
24.8123	515.91
24.8267	569.30
24.8412	488.79
24.8556	557.19
24.8700	548.23
24.8845	511.74
24.8989	558.97
24.9134	565.92
24.9278	534.34
24.9422	562.99
24.9567	511.02
24.9711	518.35
24.9856	531.72
25.0000	550.34
25.0144	536.18
25.0289	560.67
25.0433	571.33
25.0578	593.20
25.0722	529.47
25.0866	576.50
25.1011	579.05
25.1155	549.12
25.1300	542.37
25.1444	507.61
25.1588	551.83
25.1733	575.38
25.1877	553.70
25.2022	568.65
25.2166	544.46
25.2310	497.55
25.2455	538.06
25.2599	580.89
25.2744	580.75
25.2888	559.64
25.3032	529.65
25.3177	531.86
25.3321	562.57
25.3466	547.82
25.3610	528.29
25.3754	530.60
25.3899	542.14
25.4043	505.67
25.4188	529.07
25.4332	563.31
25.4476	525.68
25.4621	542.70
25.4765	579.40
25.4910	552.33
25.5054	536.17
25.5198	535.39
25.5343	519.73
25.5487	567.06
25.5632	569.38
25.5776	567.65
25.5920	526.15
25.6065	542.63
25.6209	545.89
25.6354	526.75
25.6498	554.29
25.6642	555.09
25.6787	506.85
25.6931	545.37
25.7076	552.73
25.7220	526.56
25.7364	530.43
25.7509	500.43
25.7653	515.83
25.7798	554.83
25.7942	530.55
25.8086	521.64
25.8231	568.13
25.8375	547.11
25.8520	506.40
25.8664	529.70
25.8808	514.30
25.8953	554.54
25.9097	604.78
25.9242	561.93
25.9386	585.70
25.9530	526.91
25.9675	524.04
25.9819	539.83
25.9964	530.19
26.0108	545.75
26.0252	566.89
26.0397	519.19
26.0541	514.74
26.0686	533.67
26.0830	559.04
26.0974	557.12
26.1119	581.66
26.1263	592.63
26.1408	521.53
26.1552	540.18
26.1696	540.62
26.1841	537.64
26.1985	514.65
26.2130	537.60
26.2274	533.03
26.2418	491.65
26.2563	521.95
26.2707	528.56
26.2852	539.05
26.2996	518.64
26.3140	520.77
26.3285	531.69
26.3429	534.26
26.3574	522.40
26.3718	530.55
26.3862	549.98
26.4007	531.84
26.4151	517.48
26.4296	529.72
26.4440	535.05
26.4584	516.18
26.4729	510.61
26.4873	560.07
26.5018	546.79
26.5162	525.13
26.5306	530.58
26.5451	526.06
26.5595	524.38
26.5740	548.48
26.5884	547.07
26.6028	535.67
26.6173	524.45
26.6317	541.82
26.6462	536.18
26.6606	569.14
26.6750	534.86
26.6895	483.52
26.7039	514.94
26.7184	535.67
26.7328	527.48
26.7472	514.26
26.7617	519.46
26.7761	516.52
26.7906	542.34
26.8050	528.61
26.8194	524.76
26.8339	557.31
26.8483	541.59
26.8628	530.11
26.8772	552.96
26.8917	547.81
26.9061	552.11
26.9205	499.25
26.9350	533.40
26.9494	541.02
26.9639	514.78
26.9783	508.84
26.9927	542.34
27.0072	544.66
27.0216	544.86
27.0361	531.71
27.0505	546.23
27.0649	554.08
27.0794	533.64
27.0938	557.01
27.1083	530.90
27.1227	546.12
27.1371	522.77
27.1516	490.68
27.1660	492.85
27.1805	526.93
27.1949	506.71
27.2093	509.92
27.2238	515.12
27.2382	508.53
27.2527	513.92
27.2671	498.61
27.2815	518.91
27.2960	538.84
27.3104	528.91
27.3249	531.18
27.3393	528.23
27.3537	496.93
27.3682	499.43
27.3826	506.89
27.3971	516.01
27.4115	507.59
27.4259	521.31
27.4404	515.65
27.4548	525.10
27.4693	516.01
27.4837	523.45
27.4981	524.72
27.5126	535.48
27.5270	506.20
27.5415	510.68
27.5559	518.00
27.5703	531.86
27.5848	513.26
27.5992	548.59
27.6137	536.58
27.6281	528.70
27.6425	559.26
27.6570	534.15
27.6714	495.60
27.6859	544.26
27.7003	511.75
27.7147	513.10
27.7292	500.26
27.7436	476.73
27.7581	522.22
27.7725	534.77
27.7869	528.80
27.8014	491.37
27.8158	515.02
27.8303	515.41
27.8447	475.94
27.8591	507.40
27.8736	531.36
27.8880	512.20
27.9025	573.95
27.9169	518.82
27.9313	523.18
27.9458	520.08
27.9602	529.77
27.9747	540.38
27.9891	507.00
28.0035	504.36
28.0180	535.65
28.0324	511.68
28.0469	506.38
28.0613	533.31
28.0757	521.07
28.0902	516.53
28.1046	465.13
28.1191	513.25
28.1335	557.41
28.1479	511.12
28.1624	492.84
28.1768	518.15
28.1913	513.48
28.2057	508.26
28.2201	539.99
28.2346	511.69
28.2490	497.82
28.2635	538.02
28.2779	547.52
28.2923	531.98
28.3068	574.70
28.3212	519.49
28.3357	494.67
28.3501	501.40
28.3645	524.56
28.3790	513.68
28.3934	535.09
28.4079	504.35
28.4223	528.10
28.4367	513.71
28.4512	521.29
28.4656	526.77
28.4801	526.75
28.4945	536.00
28.5089	532.75
28.5234	489.96
28.5378	500.48
28.5523	550.25
28.5667	495.73
28.5811	515.42
28.5956	505.97
28.6100	494.92
28.6245	504.15
28.6389	525.67
28.6533	546.98
28.6678	499.67
28.6822	489.04
28.6967	521.62
28.7111	517.64
28.7255	503.98
28.7400	506.29
28.7544	506.89
28.7689	484.56
28.7833	525.43
28.7977	506.30
28.8122	492.85
28.8266	518.94
28.8411	504.72
28.8555	476.60
28.8699	486.99
28.8844	507.94
28.8988	561.59
28.9133	521.36
28.9277	497.15
28.9421	488.26
28.9566	482.73
28.9710	513.97
28.9855	520.16
28.9999	519.45
29.0143	542.57
29.0288	494.92
29.0432	524.77
29.0577	497.67
29.0721	560.86
29.0865	493.17
29.1010	497.11
29.1154	492.26
29.1299	476.09
29.1443	489.56
29.1587	529.94
29.1732	504.81
29.1876	474.28
29.2021	496.34
29.2165	522.56
29.2309	493.03
29.2454	517.60
29.2598	532.69
29.2743	506.64
29.2887	495.44
29.3031	482.98
29.3176	485.35
29.3320	524.36
29.3465	496.44
29.3609	507.77
29.3753	489.53
29.3898	516.98
29.4042	523.84
29.4187	502.04
29.4331	531.83
29.4475	496.54
29.4620	511.62
29.4764	513.08
29.4909	511.09
29.5053	522.34
29.5197	483.98
29.5342	534.37
29.5486	503.86
29.5631	519.49
29.5775	507.09
29.5919	509.70
29.6064	487.05
29.6208	502.06
29.6353	523.97
29.6497	503.19
29.6641	520.75
29.6786	502.86
29.6930	527.28
29.7075	536.18
29.7219	495.88
29.7363	516.78
29.7508	504.90
29.7652	459.68
29.7797	540.74
29.7941	507.88
29.8085	501.92
29.8230	509.52
29.8374	516.83
29.8519	507.95
29.8663	537.40
29.8807	502.87
29.8952	522.14
29.9096	547.36
29.9241	503.32
29.9385	541.72
29.9529	514.20
29.9674	500.85
29.9818	493.46
29.9963	499.29
30.0107	472.55
30.0251	504.39
30.0396	543.53
30.0540	519.73
30.0685	505.15
30.0829	506.31
30.0973	506.52
30.1118	499.90
30.1262	515.85
30.1407	502.65
30.1551	494.15
30.1695	509.01
30.1840	502.71
30.1984	480.39
30.2129	503.67
30.2273	502.03
30.2417	520.74
30.2562	511.21
30.2706	507.45
30.2851	514.78
30.2995	509.83
30.3139	500.09
30.3284	513.19
30.3428	516.15
30.3573	518.41
30.3717	534.01
30.3861	501.29
30.4006	482.12
30.4150	474.26
30.4295	515.63
30.4439	515.87
30.4583	493.88
30.4728	502.58
30.4872	491.49
30.5017	489.59
30.5161	519.68
30.5305	491.49
30.5450	515.59
30.5594	486.22
30.5739	492.87
30.5883	528.80
30.6028	499.37
30.6172	517.30
30.6316	522.66
30.6461	554.24
30.6605	514.81
30.6750	515.38
30.6894	513.08
30.7038	531.15
30.7183	530.14
30.7327	547.78
30.7472	541.85
30.7616	573.36
30.7760	578.21
30.7905	553.42
30.8049	566.51
30.8194	621.91
30.8338	610.08
30.8482	616.23
30.8627	658.41
30.8771	676.97
30.8916	654.04
30.9060	686.65
30.9204	691.08
30.9349	665.39
30.9493	671.93
30.9638	666.87
30.9782	672.81
30.9926	657.48
31.0071	615.70
31.0215	601.28
31.0360	590.00
31.0504	593.84
31.0648	579.00
31.0793	565.77
31.0937	589.96
31.1082	554.65
31.1226	546.02
31.1370	534.66
31.1515	496.83
31.1659	501.90
31.1804	508.72
31.1948	519.66
31.2092	512.90
31.2237	532.90
31.2381	524.77
31.2526	526.57
31.2670	523.06
31.2814	538.45
31.2959	523.38
31.3103	527.72
31.3248	542.77
31.3392	573.44
31.3536	540.13
31.3681	527.30
31.3825	517.28
31.3970	537.66
31.4114	514.06
31.4258	548.60
31.4403	525.24
31.4547	500.86
31.4692	521.83
31.4836	506.19
31.4980	513.78
31.5125	532.67
31.5269	495.31
31.5414	491.67
31.5558	537.23
31.5702	499.93
31.5847	509.54
31.5991	504.64
31.6136	514.53
31.6280	511.69
31.6424	515.07
31.6569	514.73
31.6713	488.81
31.6858	511.38
31.7002	493.82
31.7146	479.24
31.7291	539.75
31.7435	502.82
31.7580	491.87
31.7724	526.19
31.7868	537.87
31.8013	527.66
31.8157	502.87
31.8302	490.63
31.8446	520.83
31.8590	533.32
31.8735	545.61
31.8879	516.03
31.9024	540.01
31.9168	498.80
31.9312	506.22
31.9457	493.74
31.9601	440.93
31.9746	462.28
31.9890	484.37
32.0034	502.24
32.0179	514.14
32.0323	521.74
32.0468	494.22
32.0612	490.70
32.0756	520.70
32.0901	486.84
32.1045	509.56
32.1190	523.49
32.1334	513.50
32.1478	491.37
32.1623	512.99
32.1767	522.17
32.1912	507.69
32.2056	490.05
32.2200	525.71
32.2345	503.66
32.2489	532.46
32.2634	512.98
32.2778	514.44
32.2922	541.11
32.3067	495.61
32.3211	514.24
32.3356	538.15
32.3500	523.21
32.3644	514.05
32.3789	480.08
32.3933	502.51
32.4078	497.67
32.4222	506.97
32.4366	523.97
32.4511	474.39
32.4655	520.05
32.4800	491.36
32.4944	495.17
32.5088	524.90
32.5233	519.42
32.5377	526.19
32.5522	483.36
32.5666	488.06
32.5810	498.45
32.5955	513.78
32.6099	534.11
32.6244	521.96
32.6388	513.84
32.6532	493.18
32.6677	499.60
32.6821	492.07
32.6966	482.47
32.7110	506.37
32.7254	526.51
32.7399	470.74
32.7543	508.59
32.7688	493.48
32.7832	504.31
32.7976	497.25
32.8121	480.76
32.8265	489.01
32.8410	499.67
32.8554	514.52
32.8698	513.77
32.8843	540.72
32.8987	561.17
32.9132	484.97
32.9276	500.91
32.9420	527.39
32.9565	508.21
32.9709	474.75
32.9854	517.51
32.9998	509.66
33.0142	504.04
33.0287	509.61
33.0431	498.13
33.0576	507.00
33.0720	506.75
33.0864	527.68
33.1009	505.14
33.1153	519.30
33.1298	529.56
33.1442	518.53
33.1586	477.11
33.1731	509.30
33.1875	486.89
33.2020	466.74
33.2164	508.49
33.2308	507.92
33.2453	491.23
33.2597	504.69
33.2742	508.01
33.2886	514.21
33.3030	502.43
33.3175	507.30
33.3319	531.07
33.3464	514.47
33.3608	488.08
33.3752	523.38
33.3897	467.94
33.4041	498.14
33.4186	513.63
33.4330	549.63
33.4474	503.88
33.4619	544.43
33.4763	495.47
33.4908	487.11
33.5052	492.55
33.5196	528.64
33.5341	495.14
33.5485	506.95
33.5630	482.15
33.5774	473.91
33.5918	489.57
33.6063	519.05
33.6207	476.37
33.6352	520.91
33.6496	502.14
33.6640	491.71
33.6785	514.00
33.6929	490.30
33.7074	500.29
33.7218	528.28
33.7362	500.83
33.7507	524.18
33.7651	519.37
33.7796	522.74
33.7940	489.28
33.8084	526.61
33.8229	496.48
33.8373	505.41
33.8518	519.65
33.8662	514.98
33.8806	518.99
33.8951	537.38
33.9095	539.94
33.9240	515.98
33.9384	491.70
33.9528	538.19
33.9673	514.69
33.9817	479.29
33.9962	509.21
34.0106	449.24
34.0250	497.10
34.0395	536.14
34.0539	506.28
34.0684	491.83
34.0828	528.75
34.0972	540.50
34.1117	543.27
34.1261	518.28
34.1406	464.21
34.1550	518.64
34.1694	537.02
34.1839	518.10
34.1983	484.59
34.2128	507.28
34.2272	515.26
34.2417	538.83
34.2561	506.38
34.2705	500.24
34.2850	504.45
34.2994	480.06
34.3139	517.33
34.3283	544.20
34.3427	538.88
34.3572	513.86
34.3716	519.86
34.3861	500.03
34.4005	504.64
34.4149	521.12
34.4294	482.66
34.4438	499.42
34.4583	499.39
34.4727	508.22
34.4871	481.33
34.5016	468.49
34.5160	507.41
34.5305	491.12
34.5449	475.75
34.5593	494.34
34.5738	516.21
34.5882	472.78
34.6027	522.37
34.6171	507.05
34.6315	513.60
34.6460	497.66
34.6604	505.33
34.6749	501.68
34.6893	509.93
34.7037	520.20
34.7182	512.93
34.7326	498.96
34.7471	521.65
34.7615	519.48
34.7759	545.01
34.7904	512.32
34.8048	499.98
34.8193	476.28
34.8337	518.45
34.8481	513.81
34.8626	503.63
34.8770	491.94
34.8915	503.61
34.9059	499.47
34.9203	507.77
34.9348	508.45
34.9492	519.30
34.9637	503.80
34.9781	495.08
34.9925	512.20
35.0070	515.88
35.0214	513.36
35.0359	522.11
35.0503	549.98
35.0647	540.20
35.0792	487.62
35.0936	516.59
35.1081	536.78
35.1225	522.00
35.1369	499.46
35.1514	510.11
35.1658	506.82
35.1803	515.93
35.1947	482.04
35.2091	497.34
35.2236	530.30
35.2380	518.71
35.2525	523.06
35.2669	511.72
35.2813	538.14
35.2958	521.69
35.3102	548.19
35.3247	535.02
35.3391	511.59
35.3535	536.61
35.3680	563.60
35.3824	534.29
35.3969	531.63
35.4113	532.39
35.4257	508.96
35.4402	522.86
35.4546	532.92
35.4691	537.97
35.4835	550.60
35.4979	501.61
35.5124	517.52
35.5268	517.01
35.5413	533.76
35.5557	539.99
35.5701	520.65
35.5846	520.25
35.5990	523.68
35.6135	527.09
35.6279	532.06
35.6423	559.28
35.6568	548.82
35.6712	526.90
35.6857	539.16
35.7001	650.74
35.7145	719.22
35.7290	689.04
35.7434	621.07
35.7579	548.84
35.7723	612.23
35.7867	647.79
35.8012	652.44
35.8156	673.36
35.8301	637.72
35.8445	624.94
35.8589	634.63
35.8734	731.57
35.8878	832.13
35.9023	960.08
35.9167	1092.18
35.9311	1513.89
35.9456	2416.30
35.9600	2329.57
35.9745	1808.48
35.9889	1758.39
36.0033	2180.06
36.0178	2262.30
36.0322	1977.92
36.0467	1788.34
36.0611	1614.79
36.0755	1510.74
36.0900	1409.56
36.1044	1316.84
36.1189	1302.83
36.1333	1147.08
36.1477	970.01
36.1622	1037.99
36.1766	1005.01
36.1911	854.00
36.2055	747.47
36.2199	697.72
36.2344	728.31
36.2488	712.46
36.2633	716.77
36.2777	732.68
36.2921	784.23
36.3066	819.26
36.3210	792.85
36.3355	912.49
36.3499	932.83
36.3643	970.84
36.3788	929.37
36.3932	968.77
36.4077	968.33
36.4221	1003.33
36.4365	971.92
36.4510	906.31
36.4654	882.00
36.4799	922.77
36.4943	842.46
36.5087	814.96
36.5232	819.41
36.5376	738.38
36.5521	728.99
36.5665	690.04
36.5809	715.86
36.5954	670.22
36.6098	654.33
36.6243	619.88
36.6387	572.06
36.6531	585.25
36.6676	594.84
36.6820	521.53
36.6965	559.90
36.7109	563.78
36.7253	547.04
36.7398	555.76
36.7542	554.49
36.7687	543.30
36.7831	589.60
36.7975	558.78
36.8120	611.48
36.8264	547.37
36.8409	606.28
36.8553	619.46
36.8697	604.50
36.8842	603.85
36.8986	636.10
36.9131	597.34
36.9275	565.05
36.9419	578.37
36.9564	573.68
36.9708	593.73
36.9853	599.97
36.9997	566.63
37.0141	558.45
37.0286	547.49
37.0430	495.36
37.0575	547.49
37.0719	522.92
37.0863	510.79
37.1008	571.47
37.1152	508.38
37.1297	520.34
37.1441	520.58
37.1585	499.80
37.1730	486.19
37.1874	510.10
37.2019	505.24
37.2163	483.91
37.2307	505.41
37.2452	507.61
37.2596	532.84
37.2741	491.80
37.2885	480.20
37.3029	491.00
37.3174	498.26
37.3318	534.56
37.3463	517.10
37.3607	482.27
37.3751	526.91
37.3896	513.12
37.4040	518.20
37.4185	534.75
37.4329	543.37
37.4473	500.77
37.4618	510.17
37.4762	525.72
37.4907	522.36
37.5051	514.97
37.5195	495.12
37.5340	460.45
37.5484	464.35
37.5629	510.72
37.5773	515.53
37.5917	510.35
37.6062	498.65
37.6206	485.76
37.6351	528.55
37.6495	525.09
37.6639	516.92
37.6784	503.71
37.6928	504.13
37.7073	537.08
37.7217	506.45
37.7361	489.24
37.7506	480.53
37.7650	478.37
37.7795	507.66
37.7939	488.55
37.8083	509.72
37.8228	521.76
37.8372	522.32
37.8517	531.34
37.8661	518.04
37.8805	524.21
37.8950	509.90
37.9094	478.59
37.9239	491.03
37.9383	496.31
37.9528	502.46
37.9672	508.93
37.9816	525.26
37.9961	480.07
38.0105	517.91
38.0250	509.85
38.0394	501.09
38.0538	476.22
38.0683	484.11
38.0827	526.78
38.0972	533.23
38.1116	508.15
38.1260	519.53
38.1405	512.32
38.1549	511.63
38.1694	516.63
38.1838	509.99
38.1982	518.63
38.2127	517.20
38.2271	538.14
38.2416	496.85
38.2560	493.33
38.2704	515.64
38.2849	504.92
38.2993	502.16
38.3138	506.06
38.3282	544.74
38.3426	509.89
38.3571	501.84
38.3715	548.82
38.3860	530.68
38.4004	546.10
38.4148	555.11
38.4293	617.59
38.4437	602.97
38.4582	638.67
38.4726	674.01
38.4870	699.37
38.5015	772.84
38.5159	798.94
38.5304	809.47
38.5448	799.76
38.5592	789.95
38.5737	756.43
38.5881	746.48
38.6026	689.16
38.6170	677.34
38.6314	703.48
38.6459	675.44
38.6603	643.84
38.6748	605.25
38.6892	600.07
38.7036	572.94
38.7181	545.88
38.7325	509.69
38.7470	517.10
38.7614	513.45
38.7758	511.85
38.7903	485.40
38.8047	516.62
38.8192	494.91
38.8336	533.05
38.8480	533.71
38.8625	525.48
38.8769	520.93
38.8914	503.13
38.9058	510.53
38.9202	500.14
38.9347	480.99
38.9491	503.64
38.9636	514.67
38.9780	506.68
38.9924	510.58
39.0069	493.03
39.0213	489.89
39.0358	518.15
39.0502	508.92
39.0646	511.39
39.0791	496.73
39.0935	494.45
39.1080	503.61
39.1224	511.73
39.1368	502.99
39.1513	493.29
39.1657	505.86
39.1802	491.28
39.1946	500.33
39.2090	505.36
39.2235	466.90
39.2379	474.64
39.2524	466.81
39.2668	503.55
39.2812	525.65
39.2957	525.16
39.3101	510.87
39.3246	483.61
39.3390	518.84
39.3534	527.48
39.3679	523.23
39.3823	488.51
39.3968	492.66
39.4112	486.67
39.4256	532.16
39.4401	506.85
39.4545	508.79
39.4690	504.77
39.4834	483.78
39.4978	484.56
39.5123	473.92
39.5267	463.63
39.5412	499.24
39.5556	525.93
39.5700	502.32
39.5845	506.13
39.5989	495.23
39.6134	463.87
39.6278	460.60
39.6422	492.38
39.6567	501.26
39.6711	481.61
39.6856	504.52
39.7000	497.40
39.7144	538.14
39.7289	498.17
39.7433	502.30
39.7578	507.27
39.7722	515.55
39.7866	509.49
39.8011	499.17
39.8155	503.79
39.8300	498.50
39.8444	495.52
39.8588	557.54
39.8733	552.52
39.8877	498.23
39.9022	486.50
39.9166	484.57
39.9310	510.97
39.9455	491.10
39.9599	502.43
39.9744	541.25
39.9888	517.51
40.0032	484.99
40.0177	463.22
40.0321	521.04
40.0466	498.20
40.0610	521.85
40.0754	493.85
40.0899	510.57
40.1043	485.82
40.1188	513.72
40.1332	487.91
40.1476	473.57
40.1621	505.90
40.1765	482.45
40.1910	459.58
40.2054	509.31
40.2198	489.10
40.2343	483.37
40.2487	495.21
40.2632	493.30
40.2776	503.84
40.2920	503.03
40.3065	498.61
40.3209	488.36
40.3354	508.12
40.3498	512.92
40.3642	517.75
40.3787	530.52
40.3931	466.34
40.4076	487.36
40.4220	511.42
40.4364	497.37
40.4509	485.84
40.4653	480.07
40.4798	490.63
40.4942	490.64
40.5086	510.01
40.5231	499.90
40.5375	513.17
40.5520	529.98
40.5664	505.70
40.5808	501.22
40.5953	490.20
40.6097	525.20
40.6242	489.98
40.6386	536.53
40.6530	523.04
40.6675	517.50
40.6819	517.68
40.6964	495.87
40.7108	522.66
40.7252	464.02
40.7397	509.17
40.7541	517.74
40.7686	495.05
40.7830	534.72
40.7974	491.52
40.8119	496.92
40.8263	497.58
40.8408	490.98
40.8552	473.11
40.8696	490.62
40.8841	522.77
40.8985	516.86
40.9130	485.98
40.9274	465.36
40.9418	483.11
40.9563	473.18
40.9707	494.62
40.9852	513.49
40.9996	526.74
41.0140	516.37
41.0285	517.87
41.0429	496.39
41.0574	492.81
41.0718	523.88
41.0862	511.11
41.1007	484.68
41.1151	482.82
41.1296	497.39
41.1440	483.58
41.1584	489.85
41.1729	499.37
41.1873	487.88
41.2018	478.04
41.2162	526.18
41.2306	548.06
41.2451	476.06
41.2595	519.10
41.2740	512.78
41.2884	495.48
41.3028	484.85
41.3173	470.58
41.3317	494.84
41.3462	502.46
41.3606	513.69
41.3750	532.32
41.3895	482.95
41.4039	494.49
41.4184	522.42
41.4328	513.53
41.4472	485.20
41.4617	468.26
41.4761	473.65
41.4906	462.73
41.5050	489.73
41.5194	483.43
41.5339	501.18
41.5483	467.88
41.5628	487.46
41.5772	497.98
41.5916	489.80
41.6061	527.99
41.6205	491.32
41.6350	539.31
41.6494	509.02
41.6639	481.93
41.6783	482.87
41.6927	517.63
41.7072	497.13
41.7216	509.23
41.7361	485.66
41.7505	487.42
41.7649	502.24
41.7794	476.76
41.7938	508.21
41.8083	506.65
41.8227	482.72
41.8371	497.12
41.8516	540.09
41.8660	513.65
41.8805	485.05
41.8949	562.07
41.9093	579.18
41.9238	569.60
41.9382	564.33
41.9527	571.42
41.9671	521.38
41.9815	577.70
41.9960	569.42
42.0104	550.79
42.0249	566.26
42.0393	570.40
42.0537	572.72
42.0682	539.88
42.0826	603.08
42.0971	589.85
42.1115	551.17
42.1259	598.14
42.1404	560.70
42.1548	587.83
42.1693	650.96
42.1837	676.20
42.1981	734.59
42.2126	845.08
42.2270	947.69
42.2415	1176.22
42.2559	1235.59
42.2703	1378.43
42.2848	1530.20
42.2992	1604.06
42.3137	1660.56
42.3281	1641.55
42.3425	1609.95
42.3570	1514.16
42.3714	1430.36
42.3859	1367.31
42.4003	1321.30
42.4147	1332.66
42.4292	1268.02
42.4436	1172.23
42.4581	1042.04
42.4725	936.42
42.4869	824.63
42.5014	743.51
42.5158	715.86
42.5303	677.72
42.5447	649.57
42.5591	631.22
42.5736	605.41
42.5880	588.05
42.6025	576.17
42.6169	557.31
42.6313	554.45
42.6458	547.89
42.6602	555.76
42.6747	546.25
42.6891	538.53
42.7035	535.68
42.7180	570.57
42.7324	560.48
42.7469	516.67
42.7613	516.60
42.7757	533.62
42.7902	531.21
42.8046	525.75
42.8191	507.40
42.8335	521.71
42.8479	515.43
42.8624	514.03
42.8768	493.73
42.8913	499.73
42.9057	537.97
42.9201	539.85
42.9346	526.41
42.9490	488.29
42.9635	506.81
42.9779	509.77
42.9923	474.82
43.0068	486.43
43.0212	521.21
43.0357	522.40
43.0501	511.31
43.0645	518.22
43.0790	522.87
43.0934	514.06
43.1079	518.67
43.1223	505.48
43.1367	490.65
43.1512	487.74
43.1656	521.92
43.1801	534.49
43.1945	516.58
43.2089	522.41
43.2234	516.92
43.2378	519.27
43.2523	532.48
43.2667	518.63
43.2811	545.05
43.2956	533.49
43.3100	473.56
43.3245	510.92
43.3389	544.37
43.3533	527.59
43.3678	572.15
43.3822	517.31
43.3967	517.35
43.4111	507.82
43.4255	519.62
43.4400	516.68
43.4544	524.17
43.4689	541.86
43.4833	533.58
43.4977	492.44
43.5122	486.47
43.5266	534.16
43.5411	516.58
43.5555	511.59
43.5699	504.80
43.5844	522.50
43.5988	515.90
43.6133	517.78
43.6277	502.48
43.6421	533.42
43.6566	516.68
43.6710	492.24
43.6855	477.27
43.6999	544.63
43.7143	561.68
43.7288	531.19
43.7432	530.97
43.7577	520.96
43.7721	491.15
43.7865	502.06
43.8010	521.42
43.8154	525.36
43.8299	474.68
43.8443	520.39
43.8587	561.26
43.8732	539.46
43.8876	534.56
43.9021	528.23
43.9165	528.76
43.9309	509.45
43.9454	531.19
43.9598	503.63
43.9743	501.55
43.9887	551.03
44.0031	566.53
44.0176	500.45
44.0320	537.43
44.0465	544.26
44.0609	513.04
44.0753	515.31
44.0898	579.03
44.1042	551.47
44.1187	529.42
44.1331	527.71
44.1475	523.51
44.1620	549.16
44.1764	583.31
44.1909	590.82
44.2053	581.80
44.2197	588.29
44.2342	638.98
44.2486	619.55
44.2631	658.03
44.2775	677.59
44.2919	645.71
44.3064	601.73
44.3208	578.38
44.3353	611.70
44.3497	571.95
44.3641	618.75
44.3786	601.48
44.3930	565.27
44.4075	590.01
44.4219	605.41
44.4363	628.18
44.4508	589.24
44.4652	612.15
44.4797	627.15
44.4941	607.51
44.5085	646.77
44.5230	556.85
44.5374	572.09
44.5519	612.92
44.5663	605.19
44.5807	568.96
44.5952	564.66
44.6096	566.72
44.6241	593.86
44.6385	588.08
44.6529	577.72
44.6674	592.18
44.6818	604.76
44.6963	643.70
44.7107	677.34
44.7251	694.52
44.7396	761.83
44.7540	813.41
44.7685	826.01
44.7829	884.03
44.7973	866.98
44.8118	821.90
44.8262	766.89
44.8407	814.58
44.8551	734.78
44.8695	738.65
44.8840	754.72
44.8984	768.49
44.9129	709.51
44.9273	636.04
44.9417	655.51
44.9562	585.19
44.9706	565.80
44.9851	546.18
44.9995	479.53
45.0139	558.17
45.0284	576.30
45.0428	545.99
45.0573	478.46
45.0717	499.50
45.0861	526.54
45.1006	529.95
45.1150	524.31
45.1295	510.14
45.1439	497.17
45.1583	470.57
45.1728	486.12
45.1872	481.93
45.2017	512.21
45.2161	520.84
45.2305	499.78
45.2450	500.83
45.2594	511.96
45.2739	520.52
45.2883	509.39
45.3028	531.01
45.3172	534.67
45.3316	563.73
45.3461	550.36
45.3605	530.85
45.3750	485.97
45.3894	511.70
45.4038	513.49
45.4183	533.40
45.4327	528.67
45.4472	511.46
45.4616	503.05
45.4760	505.94
45.4905	504.79
45.5049	483.15
45.5194	519.97
45.5338	501.32
45.5482	480.30
45.5627	476.67
45.5771	507.39
45.5916	501.15
45.6060	557.26
45.6204	500.61
45.6349	492.07
45.6493	504.24
45.6638	496.91
45.6782	506.37
45.6926	517.34
45.7071	535.20
45.7215	473.38
45.7360	498.15
45.7504	514.36
45.7648	515.89
45.7793	514.38
45.7937	495.36
45.8082	518.11
45.8226	523.90
45.8370	516.89
45.8515	512.19
45.8659	498.06
45.8804	534.35
45.8948	536.47
45.9092	498.01
45.9237	486.89
45.9381	481.91
45.9526	504.01
45.9670	486.74
45.9814	546.13
45.9959	520.20
46.0103	505.58
46.0248	531.90
46.0392	476.50
46.0536	516.70
46.0681	536.42
46.0825	507.79
46.0970	512.66
46.1114	518.13
46.1258	490.21
46.1403	526.19
46.1547	514.66
46.1692	537.98
46.1836	534.71
46.1980	491.92
46.2125	523.06
46.2269	490.59
46.2414	488.50
46.2558	513.69
46.2702	486.39
46.2847	504.98
46.2991	513.26
46.3136	531.14
46.3280	514.54
46.3424	539.66
46.3569	521.34
46.3713	491.93
46.3858	490.71
46.4002	485.79
46.4146	482.16
46.4291	506.36
46.4435	493.52
46.4580	503.58
46.4724	507.21
46.4868	507.47
46.5013	513.44
46.5157	524.98
46.5302	539.91
46.5446	511.44
46.5590	498.39
46.5735	491.65
46.5879	477.11
46.6024	486.20
46.6168	488.52
46.6312	467.58
46.6457	493.03
46.6601	480.67
46.6746	479.54
46.6890	494.75
46.7034	502.41
46.7179	502.24
46.7323	501.29
46.7468	526.19
46.7612	514.95
46.7756	509.50
46.7901	532.20
46.8045	543.63
46.8190	534.95
46.8334	509.55
46.8478	494.12
46.8623	536.24
46.8767	520.44
46.8912	501.04
46.9056	521.59
46.9200	506.11
46.9345	504.71
46.9489	519.63
46.9634	516.45
46.9778	508.70
46.9922	514.76
47.0067	495.25
47.0211	526.30
47.0356	511.66
47.0500	511.59
47.0644	520.93
47.0789	517.09
47.0933	534.64
47.1078	532.61
47.1222	520.98
47.1366	520.17
47.1511	509.42
47.1655	482.11
47.1800	516.78
47.1944	510.40
47.2088	519.73
47.2233	523.68
47.2377	541.71
47.2522	511.88
47.2666	491.96
47.2810	516.64
47.2955	521.98
47.3099	490.10
47.3244	502.87
47.3388	532.23
47.3532	532.22
47.3677	508.47
47.3821	473.11
47.3966	479.34
47.4110	492.72
47.4254	510.77
47.4399	524.06
47.4543	504.15
47.4688	515.54
47.4832	518.42
47.4976	520.11
47.5121	541.74
47.5265	529.46
47.5410	509.59
47.5554	479.53
47.5698	481.08
47.5843	486.59
47.5987	517.31
47.6132	502.63
47.6276	519.34
47.6420	499.86
47.6565	478.47
47.6709	472.92
47.6854	487.41
47.6998	489.81
47.7142	497.96
47.7287	504.28
47.7431	483.12
47.7576	485.69
47.7720	466.03
47.7864	518.90
47.8009	508.83
47.8153	529.10
47.8298	481.82
47.8442	492.96
47.8586	527.16
47.8731	503.03
47.8875	482.56
47.9020	505.19
47.9164	467.48
47.9308	495.69
47.9453	499.12
47.9597	491.50
47.9742	501.40
47.9886	506.42
48.0030	476.13
48.0175	530.79
48.0319	533.22
48.0464	491.22
48.0608	518.81
48.0752	516.33
48.0897	495.73
48.1041	515.87
48.1186	496.25
48.1330	542.23
48.1474	520.67
48.1619	525.28
48.1763	516.92
48.1908	522.96
48.2052	512.62
48.2196	535.32
48.2341	522.83
48.2485	514.22
48.2630	521.06
48.2774	505.14
48.2918	496.84
48.3063	498.11
48.3207	507.44
48.3352	524.36
48.3496	500.80
48.3640	529.23
48.3785	504.55
48.3929	499.33
48.4074	534.76
48.4218	526.07
48.4362	515.32
48.4507	519.71
48.4651	523.02
48.4796	499.41
48.4940	514.13
48.5084	495.04
48.5229	500.61
48.5373	497.80
48.5518	514.08
48.5662	502.49
48.5806	510.37
48.5951	547.59
48.6095	525.67
48.6240	539.86
48.6384	524.64
48.6528	522.62
48.6673	497.54
48.6817	461.11
48.6962	520.60
48.7106	530.42
48.7250	521.46
48.7395	506.12
48.7539	508.15
48.7684	508.08
48.7828	526.22
48.7972	527.70
48.8117	556.81
48.8261	572.06
48.8406	535.25
48.8550	538.08
48.8694	568.27
48.8839	582.78
48.8983	553.53
48.9128	530.91
48.9272	514.09
48.9416	628.94
48.9561	601.44
48.9705	596.29
48.9850	559.31
48.9994	557.85
49.0139	558.04
49.0283	640.65
49.0427	629.44
49.0572	661.63
49.0716	699.61
49.0861	688.96
49.1005	646.10
49.1149	686.80
49.1294	694.36
49.1438	744.32
49.1583	804.22
49.1727	868.25
49.1871	921.85
49.2016	970.85
49.2160	1021.79
49.2305	1100.75
49.2449	1185.72
49.2593	1262.20
49.2738	1352.60
49.2882	1475.51
49.3027	1530.68
49.3171	1606.88
49.3315	1713.74
49.3460	1745.35
49.3604	1806.68
49.3749	1832.43
49.3893	1820.21
49.4037	1737.72
49.4182	1788.63
49.4326	1771.29
49.4471	1636.43
49.4615	1664.84
49.4759	1660.70
49.4904	1488.62
49.5048	1398.86
49.5193	1364.04
49.5337	1300.56
49.5481	1223.96
49.5626	1133.81
49.5770	1032.79
49.5915	965.88
49.6059	937.31
49.6203	870.79
49.6348	806.78
49.6492	785.64
49.6637	730.76
49.6781	752.13
49.6925	706.68
49.7070	672.57
49.7214	659.79
49.7359	631.15
49.7503	627.63
49.7647	606.22
49.7792	601.77
49.7936	601.37
49.8081	585.41
49.8225	597.63
49.8369	575.77
49.8514	581.99
49.8658	582.39
49.8803	556.72
49.8947	562.57
49.9091	561.29
49.9236	560.85
49.9380	586.65
49.9525	552.11
49.9669	548.89
49.9813	537.92
49.9958	533.96
50.0102	540.93
50.0247	550.68
50.0391	502.46
50.0535	509.53
50.0680	509.14
50.0824	522.00
50.0969	526.40
50.1113	521.40
50.1257	524.91
50.1402	508.55
50.1546	484.81
50.1691	540.17
50.1835	539.95
50.1979	534.16
50.2124	546.11
50.2268	521.18
50.2413	533.07
50.2557	511.11
50.2701	501.65
50.2846	509.07
50.2990	484.91
50.3135	499.77
50.3279	545.49
50.3423	543.58
50.3568	546.26
50.3712	511.93
50.3857	493.59
50.4001	496.00
50.4145	506.26
50.4290	491.23
50.4434	507.04
50.4579	508.15
50.4723	531.79
50.4867	495.21
50.5012	503.10
50.5156	491.84
50.5301	507.86
50.5445	515.93
50.5589	513.96
50.5734	513.69
50.5878	494.36
50.6023	511.38
50.6167	494.04
50.6311	495.12
50.6456	471.35
50.6600	493.39
50.6745	490.85
50.6889	484.72
50.7033	506.66
50.7178	514.87
50.7322	497.43
50.7467	526.41
50.7611	487.86
50.7755	501.38
50.7900	517.54
50.8044	482.99
50.8189	505.64
50.8333	509.18
50.8477	548.38
50.8622	560.08
50.8766	549.03
50.8911	506.24
50.9055	514.25
50.9199	512.81
50.9344	493.72
50.9488	492.80
50.9633	498.98
50.9777	505.97
50.9921	517.79
51.0066	523.39
51.0210	520.97
51.0355	492.23
51.0499	491.45
51.0643	517.93
51.0788	531.03
51.0932	544.03
51.1077	530.24
51.1221	522.78
51.1365	504.48
51.1510	462.83
51.1654	474.91
51.1799	500.59
51.1943	522.81
51.2087	504.54
51.2232	490.25
51.2376	511.75
51.2521	522.00
51.2665	506.46
51.2809	528.06
51.2954	506.47
51.3098	521.00
51.3243	547.93
51.3387	518.85
51.3531	492.20
51.3676	504.01
51.3820	505.53
51.3965	494.71
51.4109	489.16
51.4253	521.93
51.4398	530.23
51.4542	518.88
51.4687	510.75
51.4831	511.97
51.4975	504.93
51.5120	525.25
51.5264	510.10
51.5409	518.08
51.5553	534.51
51.5697	511.25
51.5842	501.87
51.5986	511.50
51.6131	509.25
51.6275	502.03
51.6419	511.42
51.6564	540.97
51.6708	492.68
51.6853	496.35
51.6997	530.81
51.7141	503.10
51.7286	504.98
51.7430	513.86
51.7575	458.56
51.7719	494.47
51.7863	490.50
51.8008	505.21
51.8152	516.39
51.8297	541.67
51.8441	519.47
51.8585	527.47
51.8730	540.32
51.8874	489.79
51.9019	508.69
51.9163	481.74
51.9307	493.98
51.9452	571.12
51.9596	507.12
51.9741	512.75
51.9885	527.68
52.0029	546.57
52.0174	537.95
52.0318	486.58
52.0463	490.26
52.0607	488.06
52.0751	494.03
52.0896	533.46
52.1040	461.99
52.1185	496.83
52.1329	516.55
52.1473	496.68
52.1618	522.68
52.1762	519.17
52.1907	474.13
52.2051	495.32
52.2195	515.32
52.2340	515.62
52.2484	526.32
52.2629	508.36
52.2773	509.37
52.2917	508.90
52.3062	514.94
52.3206	522.16
52.3351	522.65
52.3495	525.21
52.3639	522.89
52.3784	532.74
52.3928	502.42
52.4073	506.07
52.4217	532.04
52.4361	490.94
52.4506	519.23
52.4650	550.91
52.4795	505.33
52.4939	518.12
52.5083	521.79
52.5228	540.11
52.5372	540.30
52.5517	497.13
52.5661	508.12
52.5805	543.40
52.5950	546.51
52.6094	533.60
52.6239	541.81
52.6383	505.76
52.6527	515.77
52.6672	489.18
52.6816	491.62
52.6961	501.88
52.7105	542.09
52.7250	487.92
52.7394	489.93
52.7538	530.96
52.7683	510.03
52.7827	539.83
52.7972	529.58
52.8116	544.85
52.8260	539.56
52.8405	514.16
52.8549	529.23
52.8694	549.38
52.8838	531.11
52.8982	521.54
52.9127	492.30
52.9271	522.96
52.9416	495.35
52.9560	501.52
52.9704	510.43
52.9849	489.06
52.9993	453.66
53.0138	521.15
53.0282	517.51
53.0426	500.83
53.0571	505.56
53.0715	519.37
53.0860	525.37
53.1004	496.47
53.1148	520.33
53.1293	543.48
53.1437	500.18
53.1582	526.80
53.1726	517.65
53.1870	509.17
53.2015	487.00
53.2159	530.14
53.2304	519.25
53.2448	505.02
53.2592	538.40
53.2737	517.34
53.2881	540.44
53.3026	552.62
53.3170	526.17
53.3314	512.45
53.3459	511.72
53.3603	504.02
53.3748	512.30
53.3892	501.92
53.4036	488.05
53.4181	508.79
53.4325	532.10
53.4470	529.96
53.4614	522.87
53.4758	530.99
53.4903	524.64
53.5047	511.43
53.5192	532.40
53.5336	495.15
53.5480	518.59
53.5625	521.53
53.5769	500.77
53.5914	520.24
53.6058	511.73
53.6202	518.18
53.6347	505.80
53.6491	503.04
53.6636	524.94
53.6780	478.57
53.6924	499.41
53.7069	553.94
53.7213	559.90
53.7358	539.94
53.7502	545.97
53.7646	498.21
53.7791	514.89
53.7935	517.89
53.8080	506.69
53.8224	527.90
53.8368	533.52
53.8513	500.80
53.8657	556.78
53.8802	548.45
53.8946	527.08
53.9090	535.66
53.9235	492.59
53.9379	525.91
53.9524	486.33
53.9668	510.83
53.9812	515.19
53.9957	545.32
54.0101	509.17
54.0246	508.99
54.0390	525.93
54.0534	515.49
54.0679	479.87
54.0823	492.56
54.0968	541.20
54.1112	510.64
54.1256	490.48
54.1401	514.50
54.1545	528.98
54.1690	551.43
54.1834	524.44
54.1978	510.26
54.2123	512.05
54.2267	531.05
54.2412	546.32
54.2556	511.28
54.2700	525.09
54.2845	533.76
54.2989	522.92
54.3134	550.27
54.3278	548.43
54.3422	511.87
54.3567	527.10
54.3711	548.67
54.3856	523.07
54.4000	498.62
54.4144	526.83
54.4289	519.38
54.4433	493.92
54.4578	526.69
54.4722	521.06
54.4866	532.44
54.5011	557.64
54.5155	540.63
54.5300	531.48
54.5444	542.83
54.5588	537.37
54.5733	536.07
54.5877	553.31
54.6022	493.47
54.6166	532.11
54.6310	510.14
54.6455	500.88
54.6599	534.81
54.6744	537.94
54.6888	516.68
54.7032	552.57
54.7177	527.46
54.7321	517.21
54.7466	521.60
54.7610	528.42
54.7754	549.48
54.7899	554.14
54.8043	570.61
54.8188	557.49
54.8332	522.51
54.8476	544.76
54.8621	607.07
54.8765	593.11
54.8910	595.15
54.9054	614.43
54.9198	575.59
54.9343	552.38
54.9487	583.53
54.9632	574.46
54.9776	588.66
54.9920	583.00
55.0065	601.19
55.0209	621.74
55.0354	593.33
55.0498	590.94
55.0642	541.40
55.0787	547.19
55.0931	558.42
55.1076	550.25
55.1220	553.88
55.1364	571.37
55.1509	545.66
55.1653	567.82
55.1798	550.55
55.1942	508.17
55.2086	542.67
55.2231	557.94
55.2375	537.71
55.2520	530.22
55.2664	522.55
55.2808	550.06
55.2953	535.20
55.3097	544.25
55.3242	521.44
55.3386	576.87
55.3530	530.51
55.3675	518.73
55.3819	541.02
55.3964	515.07
55.4108	489.92
55.4252	491.64
55.4397	509.75
55.4541	487.93
55.4686	501.48
55.4830	492.98
55.4974	530.30
55.5119	513.67
55.5263	520.67
55.5408	568.64
55.5552	514.76
55.5696	532.22
55.5841	524.46
55.5985	498.20
55.6130	498.04
55.6274	511.22
55.6418	527.23
55.6563	535.67
55.6707	498.38
55.6852	522.93
55.6996	533.42
55.7140	541.72
55.7285	539.88
55.7429	565.57
55.7574	502.00
55.7718	507.45
55.7862	514.78
55.8007	537.05
55.8151	526.14
55.8296	552.91
55.8440	537.16
55.8584	550.74
55.8729	549.27
55.8873	525.02
55.9018	565.50
55.9162	521.55
55.9306	489.08
55.9451	516.29
55.9595	525.90
55.9740	501.17
55.9884	556.91
56.0028	509.20
56.0173	544.26
56.0317	525.07
56.0462	521.42
56.0606	535.30
56.0750	497.33
56.0895	531.17
56.1039	538.01
56.1184	536.97
56.1328	525.64
56.1472	530.67
56.1617	508.26
56.1761	519.15
56.1906	489.66
56.2050	527.65
56.2194	508.54
56.2339	516.87
56.2483	513.56
56.2628	480.15
56.2772	478.81
56.2916	484.86
56.3061	513.49
56.3205	536.70
56.3350	546.83
56.3494	514.17
56.3639	535.51
56.3783	518.37
56.3927	523.46
56.4072	502.40
56.4216	538.44
56.4361	562.94
56.4505	522.54
56.4649	542.37
56.4794	532.63
56.4938	535.07
56.5083	505.60
56.5227	504.36
56.5371	489.79
56.5516	542.34
56.5660	508.29
56.5805	517.49
56.5949	509.03
56.6093	483.11
56.6238	518.70
56.6382	516.21
56.6527	529.77
56.6671	530.76
56.6815	499.39
56.6960	491.07
56.7104	539.92
56.7249	544.05
56.7393	521.03
56.7537	530.91
56.7682	524.37
56.7826	511.41
56.7971	541.56
56.8115	550.02
56.8259	513.48
56.8404	544.12
56.8548	533.22
56.8693	524.29
56.8837	496.46
56.8981	524.20
56.9126	525.02
56.9270	500.78
56.9415	526.23
56.9559	471.56
56.9703	528.63
56.9848	567.91
56.9992	543.47
57.0137	569.22
57.0281	543.12
57.0425	476.33
57.0570	503.03
57.0714	541.32
57.0859	562.86
57.1003	534.01
57.1147	539.38
57.1292	520.71
57.1436	521.85
57.1581	510.67
57.1725	482.24
57.1869	514.76
57.2014	516.52
57.2158	517.39
57.2303	525.15
57.2447	562.54
57.2591	519.60
57.2736	519.93
57.2880	530.19
57.3025	514.86
57.3169	528.25
57.3313	522.15
57.3458	524.74
57.3602	527.02
57.3747	540.61
57.3891	498.02
57.4035	526.00
57.4180	544.91
57.4324	518.67
57.4469	511.87
57.4613	520.94
57.4757	560.02
57.4902	541.76
57.5046	484.32
57.5191	521.57
57.5335	520.17
57.5479	477.93
57.5624	533.89
57.5768	513.07
57.5913	521.90
57.6057	525.43
57.6201	531.57
57.6346	537.72
57.6490	550.87
57.6635	530.45
57.6779	514.94
57.6923	515.72
57.7068	559.30
57.7212	534.38
57.7357	496.47
57.7501	517.69
57.7645	500.36
57.7790	531.17
57.7934	552.22
57.8079	554.56
57.8223	555.70
57.8367	541.22
57.8512	531.24
57.8656	570.99
57.8801	566.37
57.8945	575.11
57.9089	541.17
57.9234	548.52
57.9378	544.14
57.9523	535.81
57.9667	547.29
57.9811	539.65
57.9956	520.57
58.0100	573.87
58.0245	588.02
58.0389	558.53
58.0533	542.76
58.0678	577.01
58.0822	541.93
58.0967	530.40
58.1111	545.72
58.1255	551.93
58.1400	544.43
58.1544	495.89
58.1689	536.90
58.1833	569.37
58.1977	568.86
58.2122	558.73
58.2266	520.40
58.2411	541.47
58.2555	577.00
58.2699	561.94
58.2844	582.62
58.2988	560.06
58.3133	584.47
58.3277	574.07
58.3421	578.35
58.3566	550.48
58.3710	539.69
58.3855	564.83
58.3999	570.46
58.4143	570.38
58.4288	575.11
58.4432	582.26
58.4577	573.78
58.4721	614.10
58.4865	630.06
58.5010	620.79
58.5154	646.17
58.5299	629.97
58.5443	603.19
58.5587	620.04
58.5732	624.36
58.5876	651.06
58.6021	644.46
58.6165	626.92
58.6309	616.89
58.6454	615.59
58.6598	629.74
58.6743	598.45
58.6887	587.55
58.7031	614.67
58.7176	636.97
58.7320	615.52
58.7465	621.48
58.7609	585.68
58.7753	592.70
58.7898	630.46
58.8042	633.97
58.8187	620.15
58.8331	599.59
58.8475	571.79
58.8620	574.46
58.8764	575.99
58.8909	568.15
58.9053	560.68
58.9197	526.90
58.9342	554.12
58.9486	530.71
58.9631	522.34
58.9775	549.90
58.9919	556.49
59.0064	552.68
59.0208	587.31
59.0353	578.72
59.0497	547.43
59.0641	534.40
59.0786	535.50
59.0930	547.28
59.1075	568.81
59.1219	581.72
59.1363	545.63
59.1508	521.98
59.1652	542.64
59.1797	568.21
59.1941	544.99
59.2085	539.61
59.2230	559.55
59.2374	563.90
59.2519	574.61
59.2663	552.69
59.2807	589.33
59.2952	556.11
59.3096	555.83
59.3241	569.36
59.3385	556.03
59.3529	568.36
59.3674	584.99
59.3818	554.45
59.3963	570.25
59.4107	544.73
59.4251	593.99
59.4396	618.80
59.4540	602.70
59.4685	560.75
59.4829	555.24
59.4973	588.36
59.5118	551.08
59.5262	543.35
59.5407	578.74
59.5551	580.56
59.5695	517.54
59.5840	522.61
59.5984	539.10
59.6129	546.86
59.6273	504.02
59.6417	611.70
59.6562	533.26
59.6706	548.08
59.6851	566.50
59.6995	554.37
59.7139	533.32
59.7284	503.58
59.7428	528.90
59.7573	546.11
59.7717	552.56
59.7861	506.45
59.8006	539.21
59.8150	554.45
59.8295	534.57
59.8439	544.79
59.8583	530.84
59.8728	540.73
59.8872	544.05
59.9017	537.28
59.9161	546.99
59.9305	557.38
59.9450	554.19
59.9594	531.00
59.9739	568.34
59.9883	537.76
60.0027	519.54
60.0172	551.13
60.0316	560.78
60.0461	542.08
60.0605	574.70
60.0750	538.22
60.0894	557.37
60.1038	555.55
60.1183	555.23
60.1327	571.07
60.1472	517.54
60.1616	549.12
60.1760	538.46
60.1905	554.10
60.2049	562.66
60.2194	559.88
60.2338	542.38
60.2482	566.20
60.2627	552.09
60.2771	515.72
60.2916	540.53
60.3060	523.75
60.3204	520.90
60.3349	562.42
60.3493	543.42
60.3638	538.90
60.3782	526.44
60.3926	565.17
60.4071	550.64
60.4215	545.36
60.4360	554.04
60.4504	503.63
60.4648	565.94
60.4793	572.11
60.4937	549.69
60.5082	559.21
60.5226	533.04
60.5370	535.72
60.5515	532.55
60.5659	531.53
60.5804	509.39
60.5948	553.87
60.6092	575.62
60.6237	578.09
60.6381	526.93
60.6526	541.72
60.6670	509.94
60.6814	526.24
60.6959	545.09
60.7103	549.17
60.7248	525.99
60.7392	530.85
60.7536	534.37
60.7681	529.32
60.7825	555.72
60.7970	522.59
60.8114	578.09
60.8258	544.20
60.8403	518.59
60.8547	541.42
60.8692	576.25
60.8836	571.20
60.8980	553.33
60.9125	599.52
60.9269	546.04
60.9414	526.29
60.9558	576.04
60.9702	551.73
60.9847	566.69
60.9991	542.96
61.0136	546.95
61.0280	574.70
61.0424	553.71
61.0569	559.81
61.0713	555.24
61.0858	558.66
61.1002	521.40
61.1146	536.25
61.1291	522.49
61.1435	494.55
61.1580	503.46
61.1724	527.94
61.1868	560.01
61.2013	532.08
61.2157	516.41
61.2302	550.10
61.2446	555.94
61.2590	564.17
61.2735	571.44
61.2879	556.67
61.3024	555.06
61.3168	563.87
61.3312	544.36
61.3457	579.58
61.3601	542.92
61.3746	542.66
61.3890	551.89
61.4034	572.38
61.4179	578.79
61.4323	560.74
61.4468	580.22
61.4612	565.59
61.4756	569.72
61.4901	526.31
61.5045	548.31
61.5190	528.45
61.5334	527.14
61.5478	546.54
61.5623	532.48
61.5767	561.41
61.5912	552.35
61.6056	584.47
61.6200	574.31
61.6345	549.39
61.6489	573.32
61.6634	521.02
61.6778	521.90
61.6922	508.41
61.7067	592.46
61.7211	549.35
61.7356	525.26
61.7500	551.09
61.7644	501.06
61.7789	568.34
61.7933	573.35
61.8078	511.04
61.8222	556.66
61.8366	561.61
61.8511	574.92
61.8655	562.79
61.8800	534.01
61.8944	558.43
61.9088	567.84
61.9233	559.07
61.9377	564.68
61.9522	581.93
61.9666	538.24
61.9810	554.61
61.9955	582.43
62.0099	554.93
62.0244	564.49
62.0388	584.09
62.0532	534.08
62.0677	545.98
62.0821	580.40
62.0966	568.61
62.1110	531.87
62.1254	535.62
62.1399	561.11
62.1543	541.02
62.1688	560.27
62.1832	557.74
62.1976	547.24
62.2121	531.03
62.2265	567.09
62.2410	576.53
62.2554	527.17
62.2698	537.88
62.2843	562.20
62.2987	573.04
62.3132	571.83
62.3276	580.60
62.3420	563.53
62.3565	527.01
62.3709	539.39
62.3854	558.05
62.3998	587.55
62.4142	525.37
62.4287	572.45
62.4431	557.87
62.4576	575.43
62.4720	576.88
62.4864	568.83
62.5009	531.37
62.5153	537.71
62.5298	549.24
62.5442	590.98
62.5586	562.32
62.5731	571.40
62.5875	567.80
62.6020	535.38
62.6164	539.84
62.6308	517.15
62.6453	530.91
62.6597	558.34
62.6742	541.73
62.6886	557.24
62.7030	565.70
62.7175	560.58
62.7319	549.30
62.7464	572.68
62.7608	543.76
62.7752	538.63
62.7897	552.19
62.8041	571.48
62.8186	565.31
62.8330	574.21
62.8474	553.19
62.8619	599.80
62.8763	582.75
62.8908	553.89
62.9052	568.66
62.9196	552.11
62.9341	549.91
62.9485	558.93
62.9630	567.98
62.9774	568.94
62.9918	582.22
63.0063	586.49
63.0207	593.89
63.0352	574.44
63.0496	577.25
63.0640	575.64
63.0785	586.38
63.0929	604.39
63.1074	587.37
63.1218	572.84
63.1362	552.09
63.1507	545.37
63.1651	602.20
63.1796	582.25
63.1940	553.15
63.2084	595.33
63.2229	582.40
63.2373	523.09
63.2518	546.63
63.2662	567.05
63.2806	568.51
63.2951	557.91
63.3095	540.50
63.3240	561.13
63.3384	596.79
63.3528	587.30
63.3673	590.60
63.3817	555.39
63.3962	594.23
63.4106	562.21
63.4250	601.56
63.4395	589.73
63.4539	583.81
63.4684	577.38
63.4828	564.77
63.4972	548.70
63.5117	555.54
63.5261	552.66
63.5406	596.30
63.5550	554.76
63.5694	570.76
63.5839	597.82
63.5983	583.23
63.6128	614.41
63.6272	565.90
63.6416	614.32
63.6561	621.28
63.6705	595.28
63.6850	556.70
63.6994	580.89
63.7138	584.18
63.7283	622.86
63.7427	629.43
63.7572	576.47
63.7716	575.00
63.7861	607.56
63.8005	550.04
63.8149	582.49
63.8294	621.58
63.8438	591.72
63.8583	615.78
63.8727	645.59
63.8871	617.58
63.9016	623.11
63.9160	581.78
63.9305	598.21
63.9449	624.83
63.9593	588.87
63.9738	602.88
63.9882	601.21
64.0027	606.09
64.0171	596.79
64.0315	666.17
64.0460	614.24
64.0604	635.44
64.0749	641.43
64.0893	626.06
64.1037	650.10
64.1182	638.97
64.1326	666.76
64.1471	621.12
64.1615	655.38
64.1759	688.22
64.1904	713.39
64.2048	683.73
64.2193	728.33
64.2337	758.83
64.2481	745.75
64.2626	733.85
64.2770	744.59
64.2915	747.22
64.3059	776.72
64.3203	705.87
64.3348	788.60
64.3492	795.01
64.3637	763.37
64.3781	824.21
64.3925	793.56
64.4070	746.40
64.4214	767.37
64.4359	770.00
64.4503	774.52
64.4647	788.32
64.4792	833.19
64.4936	785.67
64.5081	734.53
64.5225	693.04
64.5369	736.23
64.5514	756.53
64.5658	741.10
64.5803	726.63
64.5947	703.26
64.6091	691.20
64.6236	688.05
64.6380	702.06
64.6525	749.95
64.6669	725.12
64.6813	714.25
64.6958	717.96
64.7102	741.45
64.7247	754.71
64.7391	735.99
64.7535	756.97
64.7680	728.78
64.7824	747.66
64.7969	755.44
64.8113	755.22
64.8257	780.87
64.8402	795.49
64.8546	842.44
64.8691	859.43
64.8835	853.41
64.8979	883.25
64.9124	895.81
64.9268	923.12
64.9413	983.29
64.9557	1003.74
64.9701	1028.68
64.9846	1062.22
64.9990	1215.78
65.0135	1300.09
65.0279	1458.10
65.0423	1756.74
65.0568	2223.34
65.0712	2708.03
65.0857	3546.84
65.1001	4785.38
65.1145	6407.10
65.1290	8348.17
65.1434	9883.45
65.1579	11444.10
65.1723	11911.42
65.1867	11358.28
65.2012	9880.22
65.2156	8138.71
65.2301	6300.57
65.2445	5302.78
65.2589	4462.34
65.2734	4334.98
65.2878	4453.97
65.3023	5110.37
65.3167	6054.57
65.3311	6843.46
65.3456	7065.65
65.3600	6987.13
65.3745	6440.89
65.3889	5385.14
65.4033	4245.08
65.4178	3336.37
65.4322	2620.23
65.4467	1992.93
65.4611	1713.95
65.4755	1477.97
65.4900	1229.11
65.5044	1110.26
65.5189	1048.87
65.5333	994.16
65.5477	924.00
65.5622	888.50
65.5766	807.99
65.5911	844.56
65.6055	791.20
65.6199	820.17
65.6344	772.44
65.6488	718.91
65.6633	719.52
65.6777	729.93
65.6921	707.37
65.7066	744.65
65.7210	678.62
65.7355	653.26
65.7499	683.24
65.7643	713.69
65.7788	667.78
65.7932	666.95
65.8077	695.02
65.8221	699.35
65.8365	646.50
65.8510	696.55
65.8654	688.04
65.8799	664.44
65.8943	614.09
65.9087	657.72
65.9232	652.70
65.9376	679.97
65.9521	633.47
65.9665	587.40
65.9809	622.56
65.9954	622.09
66.0098	646.08
66.0243	619.57
66.0387	622.70
66.0531	644.41
66.0676	614.10
66.0820	629.83
66.0965	629.71
66.1109	667.70
66.1253	616.16
66.1398	594.46
66.1542	611.08
66.1687	649.94
66.1831	615.83
66.1975	607.95
66.2120	626.73
66.2264	623.50
66.2409	619.14
66.2553	600.32
66.2697	620.58
66.2842	623.50
66.2986	621.45
66.3131	604.61
66.3275	608.21
66.3419	609.32
66.3564	594.81
66.3708	600.64
66.3853	588.09
66.3997	601.58
66.4141	607.87
66.4286	660.23
66.4430	597.95
66.4575	607.11
66.4719	621.28
66.4863	585.95
66.5008	588.22
66.5152	574.06
66.5297	591.25
66.5441	599.02
66.5585	569.25
66.5730	592.32
66.5874	615.37
66.6019	564.79
66.6163	609.50
66.6307	634.09
66.6452	582.28
66.6596	583.44
66.6741	576.64
66.6885	584.35
66.7029	596.12
66.7174	581.27
66.7318	567.51
66.7463	576.16
66.7607	583.10
66.7751	597.55
66.7896	619.75
66.8040	607.21
66.8185	574.05
66.8329	586.87
66.8473	589.49
66.8618	581.41
66.8762	604.31
66.8907	565.49
66.9051	583.61
66.9195	576.82
66.9340	585.54
66.9484	618.40
66.9629	601.00
66.9773	572.74
66.9917	559.23
67.0062	554.20
67.0206	578.01
67.0351	573.51
67.0495	565.63
67.0639	602.35
67.0784	584.52
67.0928	612.24
67.1073	583.20
67.1217	598.99
67.1361	605.40
67.1506	604.23
67.1650	593.68
67.1795	573.79
67.1939	557.00
67.2083	561.34
67.2228	604.41
67.2372	625.36
67.2517	598.30
67.2661	571.99
67.2805	625.92
67.2950	612.95
67.3094	575.81
67.3239	587.10
67.3383	617.39
67.3527	578.32
67.3672	579.60
67.3816	555.60
67.3961	551.92
67.4105	590.25
67.4250	633.00
67.4394	606.38
67.4538	603.44
67.4683	581.32
67.4827	585.95
67.4972	542.77
67.5116	557.65
67.5260	557.92
67.5405	595.46
67.5549	580.16
67.5694	570.56
67.5838	561.91
67.5982	593.04
67.6127	597.69
67.6271	609.56
67.6416	594.98
67.6560	587.80
67.6704	574.80
67.6849	570.64
67.6993	623.17
67.7138	626.33
67.7282	648.37
67.7426	574.02
67.7571	553.56
67.7715	559.03
67.7860	601.76
67.8004	589.06
67.8148	588.21
67.8293	564.03
67.8437	565.76
67.8582	625.29
67.8726	603.25
67.8870	557.46
67.9015	568.99
67.9159	567.30
67.9304	561.85
67.9448	574.70
67.9592	589.99
67.9737	591.16
67.9881	581.56
68.0026	555.45
68.0170	558.98
68.0314	601.17
68.0459	613.76
68.0603	580.18
68.0748	526.65
68.0892	581.72
68.1036	589.96
68.1181	600.34
68.1325	588.88
68.1470	583.56
68.1614	593.55
68.1758	586.37
68.1903	577.45
68.2047	556.06
68.2192	558.31
68.2336	563.91
68.2480	619.31
68.2625	603.45
68.2769	585.21
68.2914	590.53
68.3058	548.56
68.3202	540.06
68.3347	616.27
68.3491	534.45
68.3636	564.80
68.3780	585.26
68.3924	587.61
68.4069	545.82
68.4213	576.65
68.4358	581.87
68.4502	581.88
68.4646	542.78
68.4791	581.25
68.4935	560.45
68.5080	562.83
68.5224	558.53
68.5368	556.16
68.5513	585.77
68.5657	552.08
68.5802	537.92
68.5946	562.34
68.6090	594.01
68.6235	576.12
68.6379	610.59
68.6524	561.81
68.6668	573.69
68.6812	568.17
68.6957	532.35
68.7101	566.97
68.7246	533.22
68.7390	558.70
68.7534	564.45
68.7679	582.13
68.7823	554.03
68.7968	581.90
68.8112	598.83
68.8256	592.49
68.8401	581.27
68.8545	553.45
68.8690	561.49
68.8834	594.81
68.8978	597.72
68.9123	619.08
68.9267	536.99
68.9412	558.26
68.9556	596.43
68.9700	602.68
68.9845	616.83
68.9989	631.83
69.0134	570.10
69.0278	609.65
69.0422	605.47
69.0567	593.70
69.0711	598.52
69.0856	575.64
69.1000	599.67
69.1144	659.77
69.1289	559.39
69.1433	568.11
69.1578	604.34
69.1722	597.59
69.1866	565.55
69.2011	521.08
69.2155	588.39
69.2300	559.79
69.2444	572.16
69.2588	593.01
69.2733	625.13
69.2877	612.27
69.3022	592.07
69.3166	612.07
69.3310	622.67
69.3455	614.56
69.3599	628.67
69.3744	554.23
69.3888	594.09
69.4032	611.77
69.4177	580.61
69.4321	666.47
69.4466	569.13
69.4610	586.92
69.4754	580.26
69.4899	646.14
69.5043	590.22
69.5188	584.47
69.5332	563.78
69.5476	603.35
69.5621	596.48
69.5765	543.20
69.5910	535.23
69.6054	566.26
69.6198	619.29
69.6343	574.71
69.6487	560.93
69.6632	572.50
69.6776	573.00
69.6920	625.88
69.7065	555.20
69.7209	546.92
69.7354	579.63
69.7498	630.08
69.7642	597.51
69.7787	590.10
69.7931	578.39
69.8076	602.36
69.8220	591.12
69.8364	578.91
69.8509	570.88
69.8653	567.99
69.8798	516.27
69.8942	576.57
69.9086	574.69
69.9231	591.85
69.9375	595.39
69.9520	590.30
69.9664	564.55
69.9808	602.50
69.9953	570.63
70.0097	609.70
70.0242	597.41
70.0386	586.50
70.0530	552.50
70.0675	563.67
70.0819	606.88
70.0964	588.07
70.1108	595.94
70.1252	594.79
70.1397	572.74
70.1541	568.33
70.1686	576.77
70.1830	510.21
70.1974	559.15
70.2119	575.35
70.2263	611.75
70.2408	593.92
70.2552	618.33
70.2696	608.84
70.2841	612.53
70.2985	593.29
70.3130	556.22
70.3274	582.10
70.3418	600.25
70.3563	591.49
70.3707	569.37
70.3852	604.04
70.3996	595.67
70.4140	591.47
70.4285	629.37
70.4429	611.53
70.4574	585.76
70.4718	612.14
70.4862	560.26
70.5007	576.45
70.5151	583.86
70.5296	569.13
70.5440	595.30
70.5584	611.61
70.5729	553.65
70.5873	583.46
70.6018	590.20
70.6162	578.69
70.6306	606.49
70.6451	601.37
70.6595	582.05
70.6740	589.71
70.6884	590.10
70.7028	576.55
70.7173	577.44
70.7317	589.55
70.7462	585.02
70.7606	535.58
70.7750	562.24
70.7895	560.88
70.8039	589.39
70.8184	516.83
70.8328	515.29
70.8472	543.97
70.8617	536.77
70.8761	583.21
70.8906	598.98
70.9050	638.17
70.9194	597.92
70.9339	538.71
70.9483	554.70
70.9628	602.22
70.9772	639.35
70.9916	648.70
71.0061	576.38
71.0205	566.80
71.0350	604.73
71.0494	586.08
71.0638	548.53
71.0783	604.18
71.0927	561.15
71.1072	551.48
71.1216	577.99
71.1361	553.77
71.1505	555.55
71.1649	585.81
71.1794	615.73
71.1938	582.98
71.2083	587.35
71.2227	597.02
71.2371	625.97
71.2516	579.92
71.2660	550.06
71.2805	543.16
71.2949	539.12
71.3093	513.53
71.3238	539.64
71.3382	611.62
71.3527	571.72
71.3671	562.26
71.3815	545.37
71.3960	560.21
71.4104	562.79
71.4249	595.61
71.4393	584.01
71.4537	568.17
71.4682	629.71
71.4826	604.19
71.4971	584.90
71.5115	592.21
71.5259	583.42
71.5404	575.22
71.5548	583.73
71.5693	555.80
71.5837	546.97
71.5981	586.10
71.6126	602.55
71.6270	579.18
71.6415	579.27
71.6559	545.21
71.6703	557.04
71.6848	548.11
71.6992	582.46
71.7137	620.30
71.7281	639.53
71.7425	617.16
71.7570	580.15
71.7714	575.56
71.7859	557.56
71.8003	556.91
71.8147	532.42
71.8292	556.97
71.8436	579.49
71.8581	610.84
71.8725	624.50
71.8869	584.66
71.9014	601.77
71.9158	559.34
71.9303	568.80
71.9447	595.61
71.9591	579.93
71.9736	590.85
71.9880	569.98
72.0025	536.52
72.0169	577.58
72.0313	557.84
72.0458	555.39
72.0602	581.44
72.0747	569.84
72.0891	551.49
72.1035	550.59
72.1180	514.99
72.1324	576.30
72.1469	527.00
72.1613	570.32
72.1757	621.33
72.1902	581.89
72.2046	612.95
72.2191	580.83
72.2335	504.69
72.2479	463.88
72.2624	527.43
72.2768	581.42
72.2913	572.12
72.3057	578.09
72.3201	583.94
72.3346	609.25
72.3490	547.37
72.3635	506.72
72.3779	533.50
72.3923	535.13
72.4068	554.45
72.4212	562.55
72.4357	576.40
72.4501	537.24
72.4645	557.41
72.4790	600.94
72.4934	504.40
72.5079	549.75
72.5223	544.00
72.5367	526.54
72.5512	489.71
72.5656	538.32
72.5801	536.57
72.5945	449.67
72.6089	566.11
72.6234	581.92
72.6378	568.09
72.6523	557.84
72.6667	567.18
72.6811	597.19
72.6956	607.09
72.7100	556.23
72.7245	539.86
72.7389	573.83
72.7533	593.98
72.7678	643.03
72.7822	624.12
72.7967	619.36
72.8111	657.74
72.8255	613.64
72.8400	592.79
72.8544	624.50
72.8689	574.14
72.8833	538.99