2022.09.19 19:37:16
Îáðàçåö: ß÷åéêà LCoV 16-09-2022
Lambda1 = 1.54060
Lambda2 = 1.54439
Lambdam = 1.54186
R = 0.497
2Theta	I

line¹ 0 ;repeat¹ 0
22.1120	602.33
22.1264	579.81
22.1409	518.41
22.1553	504.10
22.1697	552.45
22.1842	560.16
22.1986	517.98
22.2131	491.51
22.2275	555.54
22.2419	570.10
22.2564	572.84
22.2708	639.85
22.2853	593.14
22.2997	616.09
22.3141	585.06
22.3286	579.31
22.3430	575.09
22.3575	596.62
22.3719	672.51
22.3863	686.60
22.4008	591.95
22.4152	584.31
22.4297	608.06
22.4441	602.31
22.4585	584.30
22.4730	537.15
22.4874	525.60
22.5019	555.95
22.5163	537.89
22.5307	552.44
22.5452	552.59
22.5596	559.32
22.5741	669.39
22.5885	600.00
22.6029	650.12
22.6174	537.83
22.6318	608.74
22.6463	562.36
22.6607	558.55
22.6751	510.33
22.6896	497.09
22.7040	510.44
22.7185	589.78
22.7329	501.82
22.7473	516.47
22.7618	540.42
22.7762	561.74
22.7907	658.13
22.8051	621.23
22.8195	616.38
22.8340	559.39
22.8484	583.76
22.8629	579.28
22.8773	562.30
22.8917	590.78
22.9062	498.90
22.9206	533.44
22.9351	493.15
22.9495	521.56
22.9639	582.81
22.9784	477.13
22.9928	509.02
23.0073	538.18
23.0217	609.53
23.0361	493.64
23.0506	575.30
23.0650	541.29
23.0795	497.07
23.0939	506.93
23.1083	542.94
23.1228	626.31
23.1372	587.00
23.1517	539.27
23.1661	577.85
23.1806	561.03
23.1950	596.14
23.2094	535.36
23.2239	534.71
23.2383	510.92
23.2528	621.63
23.2672	508.81
23.2816	625.83
23.2961	520.71
23.3105	618.16
23.3250	546.61
23.3394	571.26
23.3538	533.45
23.3683	522.06
23.3827	451.09
23.3972	506.04
23.4116	550.35
23.4260	550.88
23.4405	509.93
23.4549	576.53
23.4694	618.54
23.4838	504.58
23.4982	559.95
23.5127	488.95
23.5271	579.23
23.5416	555.98
23.5560	620.26
23.5704	609.62
23.5849	500.13
23.5993	588.48
23.6138	550.69
23.6282	583.59
23.6426	562.16
23.6571	573.73
23.6715	577.68
23.6860	579.80
23.7004	614.76
23.7148	540.95
23.7293	510.38
23.7437	525.06
23.7582	565.61
23.7726	522.64
23.7870	568.61
23.8015	612.96
23.8159	602.90
23.8304	575.72
23.8448	561.93
23.8592	617.83
23.8737	575.88
23.8881	582.50
23.9026	549.48
23.9170	578.08
23.9314	498.63
23.9459	619.24
23.9603	518.09
23.9748	526.95
23.9892	573.31
24.0036	504.48
24.0181	512.87
24.0325	583.79
24.0470	579.37
24.0614	569.87
24.0758	610.64
24.0903	638.68
24.1047	516.55
24.1192	548.86
24.1336	570.01
24.1480	573.50
24.1625	574.32
24.1769	529.15
24.1914	564.68
24.2058	537.96
24.2202	592.57
24.2347	571.96
24.2491	637.72
24.2636	615.36
24.2780	626.53
24.2924	602.69
24.3069	596.26
24.3213	583.34
24.3358	589.46
24.3502	514.07
24.3646	514.17
24.3791	508.41
24.3935	541.60
24.4080	514.85
24.4224	563.94
24.4368	538.03
24.4513	516.46
24.4657	586.21
24.4802	567.19
24.4946	522.43
24.5090	561.53
24.5235	576.75
24.5379	532.60
24.5524	561.25
24.5668	611.85
24.5812	571.20
24.5957	550.36
24.6101	541.85
24.6246	517.48
24.6390	576.31
24.6534	568.71
24.6679	549.75
24.6823	570.87
24.6968	572.97
24.7112	584.80
24.7256	604.59
24.7401	539.63
24.7545	574.48
24.7690	516.34
24.7834	543.02
24.7978	541.40
24.8123	529.81
24.8267	533.70
24.8412	551.61
24.8556	577.99
24.8700	592.69
24.8845	521.85
24.8989	487.25
24.9134	478.47
24.9278	506.57
24.9422	521.39
24.9567	535.75
24.9711	551.61
24.9856	518.19
25.0000	508.24
25.0144	548.10
25.0289	633.39
25.0433	531.53
25.0578	550.04
25.0722	497.19
25.0866	586.13
25.1011	537.33
25.1155	572.15
25.1300	535.73
25.1444	503.83
25.1588	470.31
25.1733	508.53
25.1877	551.42
25.2022	550.02
25.2166	548.82
25.2310	580.14
25.2455	544.88
25.2599	561.38
25.2744	520.38
25.2888	509.41
25.3032	525.40
25.3177	534.52
25.3321	571.38
25.3466	521.91
25.3610	535.87
25.3754	559.99
25.3899	531.63
25.4043	541.39
25.4188	549.46
25.4332	540.77
25.4476	535.78
25.4621	547.83
25.4765	543.90
25.4910	529.04
25.5054	580.92
25.5198	545.14
25.5343	592.54
25.5487	590.49
25.5632	544.79
25.5776	542.25
25.5920	544.53
25.6065	580.71
25.6209	551.89
25.6354	548.09
25.6498	525.32
25.6642	586.44
25.6787	567.03
25.6931	558.88
25.7076	564.47
25.7220	564.80
25.7364	536.34
25.7509	531.06
25.7653	547.10
25.7798	540.24
25.7942	580.91
25.8086	548.78
25.8231	517.26
25.8375	497.58
25.8520	548.51
25.8664	529.35
25.8808	500.48
25.8953	521.07
25.9097	517.20
25.9242	571.43
25.9386	575.79
25.9530	542.24
25.9675	540.02
25.9819	571.76
25.9964	556.85
26.0108	513.58
26.0252	553.10
26.0397	518.71
26.0541	537.34
26.0686	525.68
26.0830	557.87
26.0974	534.74
26.1119	541.93
26.1263	535.09
26.1408	527.30
26.1552	514.26
26.1696	541.54
26.1841	544.03
26.1985	529.22
26.2130	503.43
26.2274	515.56
26.2418	511.46
26.2563	533.95
26.2707	497.67
26.2852	511.35
26.2996	544.95
26.3140	554.76
26.3285	543.46
26.3429	536.46
26.3574	524.48
26.3718	512.48
26.3862	531.80
26.4007	530.13
26.4151	559.67
26.4296	549.74
26.4440	540.02
26.4584	562.47
26.4729	550.01
26.4873	505.28
26.5018	533.20
26.5162	556.74
26.5306	537.54
26.5451	559.01
26.5595	556.92
26.5740	542.30
26.5884	535.95
26.6028	523.36
26.6173	526.70
26.6317	579.03
26.6462	545.76
26.6606	515.22
26.6750	537.93
26.6895	540.07
26.7039	535.74
26.7184	566.63
26.7328	518.87
26.7472	551.03
26.7617	542.67
26.7761	528.68
26.7906	539.06
26.8050	537.60
26.8194	496.73
26.8339	501.98
26.8483	484.16
26.8628	516.08
26.8772	516.29
26.8917	514.32
26.9061	565.04
26.9205	555.93
26.9350	548.44
26.9494	540.16
26.9639	510.79
26.9783	509.53
26.9927	524.42
27.0072	513.30
27.0216	531.78
27.0361	568.03
27.0505	536.58
27.0649	500.08
27.0794	536.97
27.0938	544.47
27.1083	527.89
27.1227	534.63
27.1371	525.15
27.1516	496.53
27.1660	506.67
27.1805	514.58
27.1949	506.14
27.2093	537.64
27.2238	522.64
27.2382	524.29
27.2527	520.92
27.2671	500.87
27.2815	555.03
27.2960	503.90
27.3104	484.53
27.3249	516.19
27.3393	531.21
27.3537	508.67
27.3682	512.62
27.3826	525.76
27.3971	523.27
27.4115	519.27
27.4259	544.84
27.4404	535.21
27.4548	524.11
27.4693	510.34
27.4837	506.29
27.4981	525.51
27.5126	555.04
27.5270	556.28
27.5415	519.13
27.5559	517.11
27.5703	518.37
27.5848	507.14
27.5992	479.88
27.6137	505.19
27.6281	523.28
27.6425	489.38
27.6570	503.88
27.6714	542.65
27.6859	516.24
27.7003	532.97
27.7147	563.44
27.7292	531.79
27.7436	558.10
27.7581	502.11
27.7725	506.49
27.7869	531.65
27.8014	519.74
27.8158	553.86
27.8303	525.37
27.8447	543.30
27.8591	527.36
27.8736	559.03
27.8880	549.02
27.9025	539.77
27.9169	511.62
27.9313	515.20
27.9458	521.51
27.9602	494.02
27.9747	485.39
27.9891	545.49
28.0035	495.44
28.0180	513.25
28.0324	512.93
28.0469	507.10
28.0613	520.36
28.0757	512.73
28.0902	547.73
28.1046	547.23
28.1191	522.30
28.1335	521.17
28.1479	524.66
28.1624	526.07
28.1768	493.81
28.1913	524.76
28.2057	527.10
28.2201	523.70
28.2346	510.68
28.2490	494.23
28.2635	497.80
28.2779	530.69
28.2923	533.57
28.3068	534.87
28.3212	512.19
28.3357	534.78
28.3501	504.19
28.3645	541.00
28.3790	532.27
28.3934	524.20
28.4079	508.06
28.4223	513.97
28.4367	545.33
28.4512	496.27
28.4656	515.89
28.4801	536.31
28.4945	530.94
28.5089	500.55
28.5234	515.04
28.5378	536.30
28.5523	519.24
28.5667	505.35
28.5811	529.01
28.5956	539.99
28.6100	510.26
28.6245	505.68
28.6389	537.54
28.6533	564.67
28.6678	563.45
28.6822	527.31
28.6967	495.84
28.7111	511.24
28.7255	480.01
28.7400	510.68
28.7544	536.92
28.7689	531.03
28.7833	504.57
28.7977	526.23
28.8122	517.55
28.8266	493.88
28.8411	502.15
28.8555	472.69
28.8699	480.24
28.8844	508.30
28.8988	484.44
28.9133	520.07
28.9277	533.52
28.9421	504.23
28.9566	501.76
28.9710	489.85
28.9855	498.65
28.9999	541.37
29.0143	513.86
29.0288	484.85
29.0432	520.62
29.0577	525.10
29.0721	565.85
29.0865	533.50
29.1010	524.07
29.1154	543.59
29.1299	512.71
29.1443	461.53
29.1587	531.69
29.1732	531.93
29.1876	498.71
29.2021	508.34
29.2165	497.96
29.2309	513.45
29.2454	516.35
29.2598	507.90
29.2743	479.99
29.2887	508.64
29.3031	497.49
29.3176	488.88
29.3320	500.42
29.3465	533.80
29.3609	493.88
29.3753	489.08
29.3898	513.24
29.4042	507.46
29.4187	507.13
29.4331	552.44
29.4475	503.03
29.4620	531.24
29.4764	533.63
29.4909	489.88
29.5053	504.71
29.5197	519.29
29.5342	499.27
29.5486	507.66
29.5631	497.41
29.5775	507.34
29.5919	487.07
29.6064	502.96
29.6208	534.19
29.6353	521.03
29.6497	521.17
29.6641	554.99
29.6786	546.00
29.6930	538.38
29.7075	507.08
29.7219	518.12
29.7363	524.29
29.7508	496.48
29.7652	477.45
29.7797	496.89
29.7941	489.28
29.8085	475.50
29.8230	469.07
29.8374	501.26
29.8519	496.48
29.8663	509.22
29.8807	524.74
29.8952	490.50
29.9096	511.22
29.9241	497.90
29.9385	480.14
29.9529	524.54
29.9674	522.53
29.9818	510.78
29.9963	518.75
30.0107	498.94
30.0251	507.83
30.0396	536.11
30.0540	527.78
30.0685	522.26
30.0829	517.35
30.0973	540.76
30.1118	521.72
30.1262	511.80
30.1407	501.92
30.1551	473.14
30.1695	542.79
30.1840	527.86
30.1984	469.60
30.2129	500.43
30.2273	523.65
30.2417	522.14
30.2562	503.65
30.2706	504.61
30.2851	490.25
30.2995	490.35
30.3139	527.51
30.3284	505.41
30.3428	506.67
30.3573	489.73
30.3717	487.24
30.3861	500.37
30.4006	510.33
30.4150	531.46
30.4295	537.83
30.4439	529.27
30.4583	497.36
30.4728	517.02
30.4872	514.09
30.5017	534.40
30.5161	499.95
30.5305	499.36
30.5450	525.92
30.5594	515.67
30.5739	481.17
30.5883	500.21
30.6028	501.07
30.6172	476.90
30.6316	511.37
30.6461	526.57
30.6605	512.49
30.6750	519.25
30.6894	527.52
30.7038	540.34
30.7183	541.44
30.7327	535.49
30.7472	546.79
30.7616	547.00
30.7760	559.57
30.7905	566.72
30.8049	569.45
30.8194	597.00
30.8338	612.01
30.8482	629.14
30.8627	658.50
30.8771	648.60
30.8916	661.94
30.9060	737.64
30.9204	702.08
30.9349	688.88
30.9493	669.78
30.9638	668.15
30.9782	660.76
30.9926	623.86
31.0071	628.75
31.0215	610.83
31.0360	615.08
31.0504	571.38
31.0648	561.27
31.0793	595.39
31.0937	567.76
31.1082	546.15
31.1226	552.42
31.1370	533.86
31.1515	541.81
31.1659	579.38
31.1804	544.43
31.1948	541.16
31.2092	550.16
31.2237	528.21
31.2381	545.02
31.2526	549.10
31.2670	525.72
31.2814	500.31
31.2959	527.58
31.3103	515.76
31.3248	558.38
31.3392	563.65
31.3536	564.35
31.3681	532.29
31.3825	507.21
31.3970	505.76
31.4114	533.17
31.4258	535.38
31.4403	531.82
31.4547	541.78
31.4692	522.79
31.4836	534.23
31.4980	506.56
31.5125	504.87
31.5269	509.69
31.5414	497.46
31.5558	514.06
31.5702	510.69
31.5847	503.38
31.5991	507.51
31.6136	533.92
31.6280	535.69
31.6424	493.27
31.6569	504.53
31.6713	522.95
31.6858	517.86
31.7002	526.67
31.7146	520.11
31.7291	513.22
31.7435	496.04
31.7580	524.25
31.7724	509.05
31.7868	550.97
31.8013	517.05
31.8157	518.81
31.8302	503.90
31.8446	504.57
31.8590	529.62
31.8735	529.71
31.8879	505.33
31.9024	542.24
31.9168	505.08
31.9312	470.45
31.9457	539.64
31.9601	498.68
31.9746	527.36
31.9890	493.70
32.0034	516.63
32.0179	507.25
32.0323	504.08
32.0468	496.84
32.0612	512.46
32.0756	548.97
32.0901	475.21
32.1045	496.41
32.1190	512.34
32.1334	511.03
32.1478	486.96
32.1623	525.45
32.1767	494.80
32.1912	496.14
32.2056	470.38
32.2200	475.70
32.2345	498.47
32.2489	527.81
32.2634	525.28
32.2778	525.94
32.2922	519.45
32.3067	485.45
32.3211	507.05
32.3356	529.54
32.3500	505.79
32.3644	492.06
32.3789	481.21
32.3933	503.69
32.4078	495.77
32.4222	549.09
32.4366	485.92
32.4511	505.68
32.4655	488.48
32.4800	548.48
32.4944	521.98
32.5088	503.23
32.5233	525.69
32.5377	537.46
32.5522	490.44
32.5666	507.41
32.5810	510.29
32.5955	540.94
32.6099	516.80
32.6244	532.24
32.6388	540.05
32.6532	519.30
32.6677	500.48
32.6821	496.15
32.6966	485.13
32.7110	509.37
32.7254	485.60
32.7399	492.26
32.7543	509.28
32.7688	487.87
32.7832	511.18
32.7976	467.76
32.8121	517.09
32.8265	514.59
32.8410	505.93
32.8554	523.22
32.8698	521.70
32.8843	517.08
32.8987	498.50
32.9132	526.81
32.9276	504.33
32.9420	499.05
32.9565	490.05
32.9709	527.03
32.9854	529.53
32.9998	550.93
33.0142	518.48
33.0287	532.33
33.0431	446.82
33.0576	466.74
33.0720	497.97
33.0864	472.66
33.1009	441.27
33.1153	577.46
33.1298	533.47
33.1442	503.19
33.1586	483.10
33.1731	479.36
33.1875	477.38
33.2020	508.30
33.2164	535.28
33.2308	518.38
33.2453	492.40
33.2597	515.56
33.2742	520.58
33.2886	500.66
33.3030	508.30
33.3175	485.10
33.3319	527.83
33.3464	500.87
33.3608	525.37
33.3752	528.83
33.3897	474.25
33.4041	517.94
33.4186	523.34
33.4330	513.08
33.4474	500.38
33.4619	489.61
33.4763	529.54
33.4908	533.92
33.5052	502.98
33.5196	503.84
33.5341	508.26
33.5485	526.82
33.5630	493.35
33.5774	495.39
33.5918	529.75
33.6063	522.73
33.6207	518.99
33.6352	487.61
33.6496	492.31
33.6640	514.67
33.6785	499.65
33.6929	507.74
33.7074	522.37
33.7218	496.10
33.7362	469.54
33.7507	510.62
33.7651	469.50
33.7796	495.56
33.7940	500.83
33.8084	530.67
33.8229	501.01
33.8373	506.98
33.8518	512.15
33.8662	515.40
33.8806	510.33
33.8951	537.86
33.9095	499.01
33.9240	506.35
33.9384	512.51
33.9528	534.51
33.9673	504.33
33.9817	505.08
33.9962	470.68
34.0106	527.02
34.0250	567.16
34.0395	529.46
34.0539	506.32
34.0684	503.19
34.0828	522.20
34.0972	508.08
34.1117	504.90
34.1261	521.01
34.1406	477.24
34.1550	486.01
34.1694	510.33
34.1839	509.36
34.1983	513.12
34.2128	523.53
34.2272	500.27
34.2417	481.96
34.2561	537.33
34.2705	510.20
34.2850	510.82
34.2994	485.11
34.3139	503.57
34.3283	505.11
34.3427	524.93
34.3572	516.23
34.3716	497.98
34.3861	487.71
34.4005	503.17
34.4149	491.25
34.4294	521.60
34.4438	472.81
34.4583	468.13
34.4727	505.11
34.4871	499.32
34.5016	503.66
34.5160	508.55
34.5305	485.31
34.5449	518.09
34.5593	492.84
34.5738	529.89
34.5882	505.06
34.6027	497.92
34.6171	512.03
34.6315	520.90
34.6460	518.67
34.6604	483.44
34.6749	474.36
34.6893	484.21
34.7037	523.36
34.7182	514.71
34.7326	498.07
34.7471	526.06
34.7615	493.70
34.7759	504.87
34.7904	521.48
34.8048	503.38
34.8193	496.38
34.8337	525.37
34.8481	526.69
34.8626	514.77
34.8770	544.85
34.8915	532.04
34.9059	496.11
34.9203	492.42
34.9348	489.77
34.9492	496.66
34.9637	526.53
34.9781	487.64
34.9925	476.65
35.0070	522.95
35.0214	498.29
35.0359	503.56
35.0503	489.23
35.0647	509.70
35.0792	512.16
35.0936	536.57
35.1081	503.03
35.1225	507.88
35.1369	484.44
35.1514	497.94
35.1658	508.84
35.1803	486.19
35.1947	509.39
35.2091	503.08
35.2236	528.63
35.2380	517.25
35.2525	525.29
35.2669	527.53
35.2813	527.00
35.2958	476.80
35.3102	483.09
35.3247	496.88
35.3391	530.64
35.3535	565.83
35.3680	546.85
35.3824	535.31
35.3969	515.30
35.4113	486.93
35.4257	500.31
35.4402	525.24
35.4546	532.35
35.4691	519.07
35.4835	531.94
35.4979	559.88
35.5124	527.35
35.5268	536.65
35.5413	566.00
35.5557	511.90
35.5701	522.59
35.5846	533.30
35.5990	525.56
35.6135	528.25
35.6279	538.01
35.6423	534.53
35.6568	555.80
35.6712	525.58
35.6857	567.98
35.7001	663.90
35.7145	746.37
35.7290	716.84
35.7434	577.01
35.7579	550.82
35.7723	592.43
35.7867	599.07
35.8012	646.76
35.8156	645.58
35.8301	618.69
35.8445	581.01
35.8589	614.45
35.8734	756.97
35.8878	895.34
35.9023	1010.96
35.9167	1128.52
35.9311	1545.04
35.9456	2434.49
35.9600	2330.11
35.9745	1804.83
35.9889	1858.06
36.0033	2223.87
36.0178	2276.66
36.0322	1927.02
36.0467	1783.46
36.0611	1656.56
36.0755	1544.30
36.0900	1510.76
36.1044	1379.37
36.1189	1277.13
36.1333	1171.05
36.1477	1022.99
36.1622	1017.49
36.1766	956.42
36.1911	835.42
36.2055	779.09
36.2199	725.68
36.2344	722.85
36.2488	708.56
36.2633	702.34
36.2777	713.98
36.2921	719.57
36.3066	765.30
36.3210	813.63
36.3355	897.25
36.3499	910.32
36.3643	865.56
36.3788	898.55
36.3932	931.55
36.4077	942.96
36.4221	979.22
36.4365	980.32
36.4510	939.25
36.4654	929.53
36.4799	880.54
36.4943	841.28
36.5087	818.66
36.5232	820.49
36.5376	787.75
36.5521	722.54
36.5665	724.19
36.5809	683.00
36.5954	663.19
36.6098	632.57
36.6243	628.94
36.6387	590.30
36.6531	582.27
36.6676	570.37
36.6820	573.10
36.6965	565.98
36.7109	590.03
36.7253	543.46
36.7398	543.09
36.7542	568.09
36.7687	554.30
36.7831	577.75
36.7975	572.16
36.8120	561.13
36.8264	629.87
36.8409	599.17
36.8553	604.48
36.8697	614.73
36.8842	604.08
36.8986	595.25
36.9131	589.30
36.9275	560.17
36.9419	579.06
36.9564	617.71
36.9708	551.28
36.9853	585.17
36.9997	542.40
37.0141	521.47
37.0286	541.13
37.0430	540.62
37.0575	551.66
37.0719	519.38
37.0863	574.36
37.1008	502.19
37.1152	514.48
37.1297	514.34
37.1441	485.57
37.1585	492.82
37.1730	490.29
37.1874	523.24
37.2019	490.03
37.2163	522.10
37.2307	515.75
37.2452	504.14
37.2596	524.58
37.2741	514.10
37.2885	510.57
37.3029	467.55
37.3174	518.32
37.3318	525.04
37.3463	478.01
37.3607	519.44
37.3751	511.49
37.3896	489.21
37.4040	501.57
37.4185	492.37
37.4329	536.10
37.4473	503.27
37.4618	520.73
37.4762	545.03
37.4907	499.66
37.5051	499.93
37.5195	541.99
37.5340	550.61
37.5484	480.04
37.5629	519.26
37.5773	498.72
37.5917	485.36
37.6062	484.85
37.6206	489.98
37.6351	500.02
37.6495	440.61
37.6639	487.75
37.6784	497.13
37.6928	512.07
37.7073	517.87
37.7217	521.86
37.7361	522.18
37.7506	520.91
37.7650	541.77
37.7795	526.46
37.7939	533.14
37.8083	489.73
37.8228	501.82
37.8372	496.89
37.8517	527.95
37.8661	553.91
37.8805	522.74
37.8950	526.86
37.9094	487.64
37.9239	518.89
37.9383	554.01
37.9528	519.68
37.9672	523.48
37.9816	512.83
37.9961	516.45
38.0105	498.51
38.0250	515.45
38.0394	508.62
38.0538	510.86
38.0683	524.45
38.0827	531.39
38.0972	515.24
38.1116	506.04
38.1260	532.19
38.1405	494.21
38.1549	498.11
38.1694	507.61
38.1838	497.74
38.1982	493.80
38.2127	517.63
38.2271	516.59
38.2416	510.40
38.2560	508.84
38.2704	501.25
38.2849	512.77
38.2993	493.13
38.3138	531.30
38.3282	535.25
38.3426	569.32
38.3571	529.06
38.3715	520.92
38.3860	512.20
38.4004	526.76
38.4148	529.98
38.4293	575.33
38.4437	564.82
38.4582	623.68
38.4726	667.63
38.4870	704.12
38.5015	729.57
38.5159	760.65
38.5304	796.98
38.5448	774.86
38.5592	798.45
38.5737	735.73
38.5881	751.70
38.6026	722.59
38.6170	671.64
38.6314	655.84
38.6459	675.79
38.6603	658.85
38.6748	618.42
38.6892	584.40
38.7036	576.93
38.7181	540.12
38.7325	537.84
38.7470	562.49
38.7614	517.32
38.7758	529.45
38.7903	537.40
38.8047	517.24
38.8192	518.09
38.8336	525.33
38.8480	504.18
38.8625	518.78
38.8769	533.27
38.8914	525.10
38.9058	530.28
38.9202	524.60
38.9347	517.24
38.9491	522.31
38.9636	521.95
38.9780	507.82
38.9924	498.50
39.0069	519.00
39.0213	524.32
39.0358	524.73
39.0502	505.60
39.0646	521.12
39.0791	512.30
39.0935	521.80
39.1080	481.93
39.1224	520.48
39.1368	507.17
39.1513	493.05
39.1657	493.59
39.1802	505.33
39.1946	482.11
39.2090	510.71
39.2235	530.19
39.2379	479.50
39.2524	505.64
39.2668	512.20
39.2812	519.25
39.2957	506.91
39.3101	508.66
39.3246	505.64
39.3390	532.45
39.3534	536.74
39.3679	502.43
39.3823	532.14
39.3968	516.79
39.4112	512.29
39.4256	525.17
39.4401	532.66
39.4545	498.19
39.4690	483.54
39.4834	535.75
39.4978	488.62
39.5123	492.71
39.5267	525.30
39.5412	532.10
39.5556	499.27
39.5700	479.60
39.5845	493.01
39.5989	520.25
39.6134	514.07
39.6278	530.91
39.6422	497.42
39.6567	498.50
39.6711	499.76
39.6856	494.93
39.7000	519.74
39.7144	523.63
39.7289	477.25
39.7433	453.91
39.7578	482.73
39.7722	503.19
39.7866	501.93
39.8011	489.26
39.8155	486.51
39.8300	536.66
39.8444	475.86
39.8588	520.90
39.8733	545.22
39.8877	494.76
39.9022	531.60
39.9166	486.22
39.9310	498.27
39.9455	518.87
39.9599	472.63
39.9744	503.15
39.9888	520.65
40.0032	483.38
40.0177	508.39
40.0321	541.86
40.0466	510.66
40.0610	508.54
40.0754	509.40
40.0899	517.22
40.1043	514.76
40.1188	477.02
40.1332	494.65
40.1476	489.16
40.1621	512.18
40.1765	520.15
40.1910	494.18
40.2054	492.04
40.2198	512.68
40.2343	501.89
40.2487	461.89
40.2632	467.16
40.2776	516.12
40.2920	510.66
40.3065	494.68
40.3209	505.52
40.3354	483.89
40.3498	514.02
40.3642	505.91
40.3787	465.16
40.3931	469.39
40.4076	452.79
40.4220	483.09
40.4364	485.82
40.4509	454.57
40.4653	503.23
40.4798	508.16
40.4942	483.85
40.5086	482.49
40.5231	489.92
40.5375	490.44
40.5520	492.08
40.5664	497.15
40.5808	507.48
40.5953	486.44
40.6097	499.96
40.6242	484.15
40.6386	502.66
40.6530	515.32
40.6675	516.09
40.6819	519.69
40.6964	476.92
40.7108	474.78
40.7252	477.82
40.7397	511.88
40.7541	498.15
40.7686	488.70
40.7830	494.27
40.7974	502.63
40.8119	493.96
40.8263	498.51
40.8408	505.62
40.8552	511.34
40.8696	498.28
40.8841	461.71
40.8985	489.20
40.9130	504.19
40.9274	490.53
40.9418	490.15
40.9563	486.21
40.9707	487.67
40.9852	515.78
40.9996	510.82
41.0140	500.33
41.0285	510.90
41.0429	494.44
41.0574	510.93
41.0718	473.49
41.0862	558.12
41.1007	530.94
41.1151	500.86
41.1296	502.54
41.1440	487.46
41.1584	489.42
41.1729	525.36
41.1873	510.73
41.2018	539.89
41.2162	509.87
41.2306	464.24
41.2451	508.33
41.2595	502.34
41.2740	499.98
41.2884	502.35
41.3028	514.08
41.3173	509.35
41.3317	494.27
41.3462	491.44
41.3606	496.32
41.3750	512.51
41.3895	488.56
41.4039	498.93
41.4184	483.00
41.4328	510.85
41.4472	491.22
41.4617	523.46
41.4761	536.97
41.4906	513.92
41.5050	521.07
41.5194	491.94
41.5339	507.38
41.5483	484.89
41.5628	522.39
41.5772	461.84
41.5916	483.55
41.6061	531.02
41.6205	489.23
41.6350	497.99
41.6494	469.72
41.6639	460.03
41.6783	456.99
41.6927	442.79
41.7072	532.81
41.7216	502.70
41.7361	478.30
41.7505	508.60
41.7649	463.76
41.7794	482.68
41.7938	468.11
41.8083	500.40
41.8227	573.97
41.8371	535.12
41.8516	505.37
41.8660	499.46
41.8805	495.68
41.8949	532.58
41.9093	559.72
41.9238	557.49
41.9382	554.45
41.9527	559.71
41.9671	550.30
41.9815	544.44
41.9960	532.72
42.0104	519.39
42.0249	535.17
42.0393	560.74
42.0537	586.03
42.0682	538.95
42.0826	555.77
42.0971	584.52
42.1115	578.66
42.1259	623.16
42.1404	613.26
42.1548	587.82
42.1693	669.17
42.1837	694.12
42.1981	725.43
42.2126	864.35
42.2270	979.14
42.2415	1044.17
42.2559	1209.69
42.2703	1368.27
42.2848	1505.71
42.2992	1592.59
42.3137	1642.50
42.3281	1665.19
42.3425	1593.10
42.3570	1489.44
42.3714	1387.69
42.3859	1354.53
42.4003	1383.62
42.4147	1362.50
42.4292	1279.96
42.4436	1098.39
42.4581	1021.66
42.4725	953.21
42.4869	832.48
42.5014	730.57
42.5158	689.37
42.5303	669.92
42.5447	657.20
42.5591	633.84
42.5736	590.54
42.5880	591.11
42.6025	580.13
42.6169	575.96
42.6313	554.31
42.6458	577.43
42.6602	563.06
42.6747	523.23
42.6891	512.41
42.7035	520.30
42.7180	538.92
42.7324	559.08
42.7469	518.41
42.7613	517.72
42.7757	520.89
42.7902	561.60
42.8046	533.42
42.8191	534.78
42.8335	544.72
42.8479	509.25
42.8624	534.06
42.8768	522.07
42.8913	497.93
42.9057	513.82
42.9201	482.75
42.9346	497.79
42.9490	513.61
42.9635	505.65
42.9779	532.42
42.9923	519.74
43.0068	498.80
43.0212	490.15
43.0357	514.62
43.0501	515.79
43.0645	516.68
43.0790	546.14
43.0934	519.10
43.1079	505.67
43.1223	578.40
43.1367	545.92
43.1512	538.25
43.1656	526.25
43.1801	498.58
43.1945	514.53
43.2089	509.54
43.2234	529.01
43.2378	496.35
43.2523	523.81
43.2667	517.01
43.2811	537.10
43.2956	496.84
43.3100	534.37
43.3245	524.89
43.3389	550.51
43.3533	552.56
43.3678	513.70
43.3822	498.90
43.3967	513.81
43.4111	493.11
43.4255	505.28
43.4400	544.79
43.4544	507.27
43.4689	524.61
43.4833	499.90
43.4977	514.84
43.5122	497.35
43.5266	525.01
43.5411	505.32
43.5555	499.93
43.5699	513.30
43.5844	514.86
43.5988	500.71
43.6133	518.84
43.6277	546.01
43.6421	532.68
43.6566	532.31
43.6710	505.58
43.6855	515.52
43.6999	551.47
43.7143	512.71
43.7288	533.70
43.7432	521.54
43.7577	524.29
43.7721	504.07
43.7865	531.53
43.8010	517.16
43.8154	523.93
43.8299	523.74
43.8443	490.69
43.8587	545.28
43.8732	545.18
43.8876	499.71
43.9021	548.12
43.9165	551.86
43.9309	546.84
43.9454	516.36
43.9598	530.72
43.9743	522.96
43.9887	542.35
44.0031	550.56
44.0176	542.38
44.0320	523.64
44.0465	489.06
44.0609	521.56
44.0753	545.53
44.0898	533.37
44.1042	513.48
44.1187	534.01
44.1331	540.15
44.1475	555.16
44.1620	586.18
44.1764	553.97
44.1909	576.43
44.2053	645.15
44.2197	602.11
44.2342	611.91
44.2486	639.65
44.2631	569.64
44.2775	620.75
44.2919	610.47
44.3064	623.63
44.3208	620.99
44.3353	666.63
44.3497	592.80
44.3641	604.63
44.3786	581.00
44.3930	609.49
44.4075	619.83
44.4219	598.25
44.4363	617.04
44.4508	583.30
44.4652	650.46
44.4797	622.39
44.4941	602.05
44.5085	597.97
44.5230	605.49
44.5374	572.57
44.5519	567.68
44.5663	564.18
44.5807	570.91
44.5952	578.21
44.6096	604.11
44.6241	565.76
44.6385	599.15
44.6529	577.78
44.6674	574.04
44.6818	572.44
44.6963	626.30
44.7107	668.38
44.7251	653.10
44.7396	736.11
44.7540	816.80
44.7685	840.94
44.7829	867.71
44.7973	903.71
44.8118	840.44
44.8262	772.63
44.8407	747.83
44.8551	725.80
44.8695	745.36
44.8840	690.69
44.8984	788.32
44.9129	717.07
44.9273	678.19
44.9417	704.28
44.9562	602.92
44.9706	593.69
44.9851	569.59
44.9995	557.94
45.0139	518.91
45.0284	552.00
45.0428	511.56
45.0573	503.05
45.0717	537.28
45.0861	554.34
45.1006	511.55
45.1150	520.49
45.1295	541.19
45.1439	501.06
45.1583	510.69
45.1728	528.55
45.1872	524.44
45.2017	479.59
45.2161	515.29
45.2305	521.59
45.2450	510.41
45.2594	485.79
45.2739	515.44
45.2883	516.67
45.3028	528.95
45.3172	472.17
45.3316	509.79
45.3461	512.63
45.3605	512.63
45.3750	528.70
45.3894	548.29
45.4038	501.93
45.4183	501.91
45.4327	552.43
45.4472	505.19
45.4616	486.50
45.4760	479.05
45.4905	534.42
45.5049	523.74
45.5194	504.00
45.5338	487.08
45.5482	473.50
45.5627	501.97
45.5771	504.86
45.5916	514.90
45.6060	503.40
45.6204	509.16
45.6349	535.59
45.6493	526.68
45.6638	500.33
45.6782	516.96
45.6926	490.13
45.7071	512.92
45.7215	513.90
45.7360	508.10
45.7504	494.64
45.7648	488.40
45.7793	508.84
45.7937	509.05
45.8082	538.56
45.8226	513.82
45.8370	495.06
45.8515	486.04
45.8659	540.56
45.8804	521.09
45.8948	483.04
45.9092	530.76
45.9237	522.53
45.9381	474.77
45.9526	477.02
45.9670	495.97
45.9814	496.46
45.9959	502.56
46.0103	493.21
46.0248	487.70
46.0392	481.99
46.0536	508.51
46.0681	511.65
46.0825	487.51
46.0970	484.22
46.1114	518.64
46.1258	541.80
46.1403	526.70
46.1547	510.53
46.1692	522.32
46.1836	486.80
46.1980	482.26
46.2125	520.16
46.2269	519.83
46.2414	505.46
46.2558	478.31
46.2702	504.62
46.2847	511.04
46.2991	479.69
46.3136	498.80
46.3280	483.65
46.3424	505.06
46.3569	501.78
46.3713	497.04
46.3858	490.10
46.4002	491.70
46.4146	485.61
46.4291	515.24
46.4435	505.06
46.4580	510.95
46.4724	532.91
46.4868	508.81
46.5013	503.79
46.5157	504.79
46.5302	480.93
46.5446	490.89
46.5590	488.44
46.5735	492.51
46.5879	493.34
46.6024	506.62
46.6168	515.07
46.6312	505.97
46.6457	488.54
46.6601	479.04
46.6746	483.56
46.6890	474.06
46.7034	486.44
46.7179	507.96
46.7323	482.21
46.7468	490.61
46.7612	489.40
46.7756	504.01
46.7901	527.77
46.8045	521.89
46.8190	495.11
46.8334	522.68
46.8478	508.08
46.8623	508.39
46.8767	507.75
46.8912	507.40
46.9056	507.18
46.9200	522.01
46.9345	506.91
46.9489	485.57
46.9634	512.27
46.9778	494.10
46.9922	483.47
47.0067	489.84
47.0211	520.80
47.0356	524.07
47.0500	506.51
47.0644	525.07
47.0789	539.79
47.0933	527.16
47.1078	491.77
47.1222	501.66
47.1366	506.98
47.1511	472.01
47.1655	526.93
47.1800	539.27
47.1944	525.64
47.2088	482.83
47.2233	525.74
47.2377	496.36
47.2522	497.12
47.2666	502.86
47.2810	530.91
47.2955	531.20
47.3099	516.01
47.3244	489.35
47.3388	504.63
47.3532	508.96
47.3677	517.01
47.3821	520.03
47.3966	497.12
47.4110	485.81
47.4254	496.84
47.4399	516.02
47.4543	505.84
47.4688	504.88
47.4832	515.68
47.4976	483.80
47.5121	523.36
47.5265	474.89
47.5410	499.52
47.5554	492.70
47.5698	483.83
47.5843	495.82
47.5987	519.03
47.6132	507.97
47.6276	517.08
47.6420	494.48
47.6565	527.55
47.6709	480.70
47.6854	476.54
47.6998	503.26
47.7142	530.68
47.7287	502.24
47.7431	494.20
47.7576	513.45
47.7720	476.15
47.7864	508.27
47.8009	517.45
47.8153	536.91
47.8298	545.24
47.8442	479.46
47.8586	490.87
47.8731	487.11
47.8875	506.44
47.9020	541.62
47.9164	516.91
47.9308	533.37
47.9453	539.93
47.9597	521.25
47.9742	525.84
47.9886	548.34
48.0030	523.36
48.0175	527.30
48.0319	540.21
48.0464	512.49
48.0608	486.45
48.0752	479.17
48.0897	545.04
48.1041	527.37
48.1186	517.22
48.1330	512.52
48.1474	496.21
48.1619	524.55
48.1763	509.02
48.1908	480.94
48.2052	489.23
48.2196	504.88
48.2341	520.48
48.2485	480.03
48.2630	492.31
48.2774	498.57
48.2918	505.46
48.3063	511.56
48.3207	529.61
48.3352	549.72
48.3496	524.75
48.3640	497.01
48.3785	499.87
48.3929	487.12
48.4074	490.37
48.4218	523.72
48.4362	524.23
48.4507	487.60
48.4651	509.29
48.4796	529.75
48.4940	534.05
48.5084	538.74
48.5229	509.73
48.5373	535.25
48.5518	509.83
48.5662	500.33
48.5806	491.22
48.5951	508.32
48.6095	496.29
48.6240	516.20
48.6384	505.28
48.6528	495.21
48.6673	509.69
48.6817	500.43
48.6962	518.74
48.7106	535.88
48.7250	525.99
48.7395	540.94
48.7539	510.12
48.7684	494.46
48.7828	544.47
48.7972	527.61
48.8117	543.08
48.8261	517.23
48.8406	543.15
48.8550	528.28
48.8694	578.05
48.8839	553.24
48.8983	529.04
48.9128	574.18
48.9272	536.77
48.9416	559.38
48.9561	573.74
48.9705	555.44
48.9850	569.90
48.9994	531.81
49.0139	571.63
49.0283	599.52
49.0427	601.75
49.0572	644.03
49.0716	642.70
49.0861	683.23
49.1005	704.56
49.1149	691.95
49.1294	725.55
49.1438	769.22
49.1583	812.58
49.1727	826.31
49.1871	915.49
49.2016	884.15
49.2160	998.57
49.2305	1118.11
49.2449	1209.65
49.2593	1262.24
49.2738	1369.44
49.2882	1505.95
49.3027	1560.97
49.3171	1631.09
49.3315	1684.89
49.3460	1771.78
49.3604	1760.72
49.3749	1872.48
49.3893	1775.50
49.4037	1787.62
49.4182	1746.98
49.4326	1697.98
49.4471	1729.95
49.4615	1672.79
49.4759	1577.32
49.4904	1464.22
49.5048	1391.36
49.5193	1305.92
49.5337	1265.81
49.5481	1242.46
49.5626	1126.75
49.5770	1049.06
49.5915	1015.53
49.6059	923.16
49.6203	889.70
49.6348	827.06
49.6492	768.26
49.6637	732.51
49.6781	730.12
49.6925	723.61
49.7070	667.80
49.7214	644.02
49.7359	626.21
49.7503	624.46
49.7647	605.78
49.7792	605.20
49.7936	602.95
49.8081	562.28
49.8225	563.10
49.8369	582.60
49.8514	588.50
49.8658	589.87
49.8803	566.79
49.8947	568.73
49.9091	567.58
49.9236	520.30
49.9380	557.72
49.9525	570.00
49.9669	543.52
49.9813	551.56
49.9958	527.14
50.0102	505.01
50.0247	558.15
50.0391	549.42
50.0535	545.38
50.0680	543.65
50.0824	544.54
50.0969	525.48
50.1113	516.52
50.1257	518.56
50.1402	523.03
50.1546	511.47
50.1691	562.73
50.1835	543.83
50.1979	482.87
50.2124	553.92
50.2268	535.76
50.2413	527.19
50.2557	503.94
50.2701	491.94
50.2846	513.11
50.2990	502.44
50.3135	491.52
50.3279	509.59
50.3423	532.34
50.3568	489.71
50.3712	509.33
50.3857	489.44
50.4001	497.25
50.4145	508.61
50.4290	531.46
50.4434	543.43
50.4579	555.99
50.4723	548.10
50.4867	524.02
50.5012	523.23
50.5156	512.07
50.5301	538.73
50.5445	492.25
50.5589	498.56
50.5734	535.30
50.5878	513.02
50.6023	496.00
50.6167	488.38
50.6311	527.82
50.6456	529.60
50.6600	507.68
50.6745	484.27
50.6889	500.59
50.7033	493.00
50.7178	497.57
50.7322	544.39
50.7467	522.83
50.7611	488.65
50.7755	477.52
50.7900	519.89
50.8044	532.50
50.8189	523.98
50.8333	511.82
50.8477	535.19
50.8622	503.99
50.8766	479.86
50.8911	485.27
50.9055	509.09
50.9199	488.60
50.9344	508.84
50.9488	523.62
50.9633	514.79
50.9777	507.86
50.9921	512.16
51.0066	530.31
51.0210	521.16
51.0355	530.62
51.0499	518.20
51.0643	486.45
51.0788	506.87
51.0932	528.54
51.1077	531.67
51.1221	515.93
51.1365	477.33
51.1510	496.59
51.1654	516.43
51.1799	491.49
51.1943	528.66
51.2087	504.86
51.2232	516.61
51.2376	507.41
51.2521	536.33
51.2665	529.31
51.2809	534.48
51.2954	521.38
51.3098	510.51
51.3243	492.97
51.3387	529.44
51.3531	519.15
51.3676	512.35
51.3820	494.96
51.3965	532.00
51.4109	485.65
51.4253	494.89
51.4398	511.66
51.4542	511.34
51.4687	507.82
51.4831	536.39
51.4975	497.98
51.5120	483.51
51.5264	536.09
51.5409	531.05
51.5553	521.53
51.5697	476.92
51.5842	485.80
51.5986	522.52
51.6131	476.48
51.6275	495.71
51.6419	491.96
51.6564	486.99
51.6708	511.08
51.6853	505.60
51.6997	505.88
51.7141	517.19
51.7286	512.28
51.7430	519.55
51.7575	495.92
51.7719	526.77
51.7863	529.75
51.8008	498.21
51.8152	484.96
51.8297	494.10
51.8441	490.82
51.8585	527.13
51.8730	526.45
51.8874	504.10
51.9019	512.43
51.9163	524.53
51.9307	528.25
51.9452	524.05
51.9596	538.46
51.9741	513.73
51.9885	520.41
52.0029	497.58
52.0174	499.86
52.0318	485.47
52.0463	505.99
52.0607	526.98
52.0751	519.28
52.0896	519.20
52.1040	492.84
52.1185	527.60
52.1329	510.77
52.1473	485.83
52.1618	508.43
52.1762	481.65
52.1907	523.24
52.2051	530.83
52.2195	541.87
52.2340	513.24
52.2484	475.74
52.2629	488.56
52.2773	504.21
52.2917	497.15
52.3062	522.58
52.3206	506.86
52.3351	509.55
52.3495	511.46
52.3639	489.97
52.3784	506.22
52.3928	492.46
52.4073	526.22
52.4217	520.88
52.4361	529.34
52.4506	515.21
52.4650	569.79
52.4795	495.50
52.4939	492.13
52.5083	512.00
52.5228	536.84
52.5372	522.04
52.5517	501.96
52.5661	509.05
52.5805	522.91
52.5950	497.20
52.6094	486.15
52.6239	492.13
52.6383	512.30
52.6527	505.30
52.6672	499.93
52.6816	483.45
52.6961	498.34
52.7105	525.25
52.7250	501.29
52.7394	512.14
52.7538	496.05
52.7683	488.16
52.7827	537.48
52.7972	503.29
52.8116	494.26
52.8260	495.55
52.8405	504.81
52.8549	507.04
52.8694	502.47
52.8838	525.19
52.8982	545.77
52.9127	526.02
52.9271	527.55
52.9416	542.14
52.9560	527.76
52.9704	562.77
52.9849	553.60
52.9993	516.82
53.0138	489.81
53.0282	536.33
53.0426	481.69
53.0571	539.17
53.0715	555.93
53.0860	564.08
53.1004	552.98
53.1148	524.28
53.1293	494.45
53.1437	511.90
53.1582	481.14
53.1726	481.32
53.1870	516.52
53.2015	483.46
53.2159	495.64
53.2304	509.65
53.2448	510.92
53.2592	483.28
53.2737	489.87
53.2881	498.40
53.3026	489.04
53.3170	517.31
53.3314	522.66
53.3459	474.85
53.3603	489.66
53.3748	512.95
53.3892	502.45
53.4036	516.37
53.4181	495.73
53.4325	542.59
53.4470	511.11
53.4614	496.83
53.4758	522.31
53.4903	532.07
53.5047	511.71
53.5192	517.26
53.5336	528.63
53.5480	535.99
53.5625	556.52
53.5769	507.18
53.5914	510.11
53.6058	519.27
53.6202	506.62
53.6347	516.63
53.6491	492.24
53.6636	495.81
53.6780	516.78
53.6924	512.45
53.7069	560.15
53.7213	518.57
53.7358	466.50
53.7502	522.16
53.7646	496.43
53.7791	525.07
53.7935	526.20
53.8080	489.66
53.8224	497.58
53.8368	536.65
53.8513	504.59
53.8657	508.59
53.8802	514.32
53.8946	503.53
53.9090	509.59
53.9235	521.59
53.9379	498.11
53.9524	477.47
53.9668	523.16
53.9812	523.69
53.9957	528.86
54.0101	512.90
54.0246	520.56
54.0390	489.05
54.0534	476.83
54.0679	497.75
54.0823	536.73
54.0968	533.90
54.1112	510.42
54.1256	522.16
54.1401	500.27
54.1545	509.86
54.1690	543.72
54.1834	547.68
54.1978	503.60
54.2123	516.14
54.2267	518.86
54.2412	536.89
54.2556	524.95
54.2700	553.59
54.2845	542.53
54.2989	517.38
54.3134	488.48
54.3278	538.01
54.3422	523.52
54.3567	521.32
54.3711	515.03
54.3856	512.74
54.4000	519.41
54.4144	526.58
54.4289	526.84
54.4433	513.89
54.4578	525.63
54.4722	550.27
54.4866	544.91
54.5011	537.83
54.5155	517.48
54.5300	506.03
54.5444	532.58
54.5588	528.76
54.5733	525.34
54.5877	502.67
54.6022	536.66
54.6166	532.26
54.6310	542.20
54.6455	479.97
54.6599	490.22
54.6744	514.45
54.6888	517.09
54.7032	565.82
54.7177	574.64
54.7321	534.08
54.7466	555.04
54.7610	544.92
54.7754	569.99
54.7899	585.66
54.8043	564.97
54.8188	583.33
54.8332	542.22
54.8476	533.86
54.8621	565.42
54.8765	592.23
54.8910	612.17
54.9054	643.21
54.9198	597.01
54.9343	578.80
54.9487	597.85
54.9632	607.07
54.9776	552.22
54.9920	541.76
55.0065	586.84
55.0209	603.60
55.0354	582.32
55.0498	575.47
55.0642	568.03
55.0787	577.20
55.0931	605.96
55.1076	572.79
55.1220	522.09
55.1364	560.44
55.1509	548.87
55.1653	525.94
55.1798	550.07
55.1942	557.65
55.2086	545.41
55.2231	522.46
55.2375	520.43
55.2520	530.63
55.2664	497.64
55.2808	557.92
55.2953	554.48
55.3097	541.68
55.3242	536.66
55.3386	554.61
55.3530	566.15
55.3675	549.22
55.3819	516.51
55.3964	522.62
55.4108	503.85
55.4252	538.92
55.4397	517.90
55.4541	514.08
55.4686	523.61
55.4830	558.49
55.4974	501.28
55.5119	515.69
55.5263	522.39
55.5408	519.43
55.5552	540.82
55.5696	530.10
55.5841	550.42
55.5985	550.43
55.6130	519.63
55.6274	541.70
55.6418	482.87
55.6563	503.10
55.6707	549.85
55.6852	495.87
55.6996	534.26
55.7140	561.61
55.7285	525.84
55.7429	528.35
55.7574	519.49
55.7718	525.36
55.7862	535.56
55.8007	551.27
55.8151	523.89
55.8296	508.87
55.8440	549.15
55.8584	532.16
55.8729	523.02
55.8873	534.05
55.9018	565.55
55.9162	513.77
55.9306	515.97
55.9451	536.43
55.9595	527.87
55.9740	520.67
55.9884	531.34
56.0028	527.24
56.0173	521.37
56.0317	533.20
56.0462	535.67
56.0606	506.66
56.0750	539.18
56.0895	517.40
56.1039	524.76
56.1184	512.39
56.1328	513.80
56.1472	518.82
56.1617	498.34
56.1761	509.80
56.1906	505.33
56.2050	524.30
56.2194	528.80
56.2339	535.64
56.2483	522.69
56.2628	530.95
56.2772	543.70
56.2916	496.49
56.3061	532.58
56.3205	516.87
56.3350	527.09
56.3494	495.91
56.3639	521.38
56.3783	473.17
56.3927	578.58
56.4072	515.60
56.4216	524.20
56.4361	534.48
56.4505	528.93
56.4649	539.26
56.4794	542.58
56.4938	491.73
56.5083	516.28
56.5227	493.93
56.5371	542.04
56.5516	546.19
56.5660	504.30
56.5805	536.22
56.5949	498.03
56.6093	505.27
56.6238	522.45
56.6382	521.94
56.6527	475.61
56.6671	492.07
56.6815	500.82
56.6960	496.98
56.7104	517.08
56.7249	541.89
56.7393	514.81
56.7537	529.92
56.7682	477.96
56.7826	517.37
56.7971	552.42
56.8115	563.28
56.8259	506.05
56.8404	493.57
56.8548	540.95
56.8693	570.65
56.8837	524.92
56.8981	518.76
56.9126	538.75
56.9270	455.98
56.9415	531.38
56.9559	511.30
56.9703	497.61
56.9848	501.04
56.9992	487.11
57.0137	492.75
57.0281	516.99
57.0425	531.86
57.0570	544.56
57.0714	503.88
57.0859	529.83
57.1003	525.32
57.1147	514.86
57.1292	541.12
57.1436	499.75
57.1581	551.68
57.1725	507.79
57.1869	543.20
57.2014	493.95
57.2158	538.05
57.2303	513.24
57.2447	519.39
57.2591	518.24
57.2736	531.73
57.2880	538.45
57.3025	555.85
57.3169	553.19
57.3313	573.31
57.3458	538.52
57.3602	537.47
57.3747	538.77
57.3891	502.42
57.4035	521.25
57.4180	514.04
57.4324	556.97
57.4469	497.97
57.4613	527.75
57.4757	544.93
57.4902	545.39
57.5046	522.33
57.5191	498.27
57.5335	530.63
57.5479	537.76
57.5624	527.15
57.5768	539.99
57.5913	536.84
57.6057	522.77
57.6201	479.94
57.6346	526.11
57.6490	521.76
57.6635	524.60
57.6779	510.40
57.6923	482.73
57.7068	525.68
57.7212	526.68
57.7357	502.11
57.7501	536.42
57.7645	553.31
57.7790	535.23
57.7934	516.76
57.8079	525.90
57.8223	518.71
57.8367	534.04
57.8512	525.51
57.8656	518.57
57.8801	521.75
57.8945	543.29
57.9089	548.32
57.9234	507.95
57.9378	510.70
57.9523	523.04
57.9667	564.33
57.9811	535.50
57.9956	558.25
58.0100	541.14
58.0245	504.07
58.0389	530.65
58.0533	520.35
58.0678	534.02
58.0822	519.23
58.0967	517.42
58.1111	533.46
58.1255	519.95
58.1400	520.12
58.1544	551.72
58.1689	547.53
58.1833	520.16
58.1977	535.33
58.2122	538.60
58.2266	543.48
58.2411	538.12
58.2555	554.44
58.2699	572.86
58.2844	595.73
58.2988	548.66
58.3133	539.66
58.3277	563.43
58.3421	601.80
58.3566	570.18
58.3710	572.49
58.3855	578.99
58.3999	596.00
58.4143	567.41
58.4288	615.44
58.4432	569.85
58.4577	606.01
58.4721	636.47
58.4865	617.89
58.5010	605.67
58.5154	604.20
58.5299	581.14
58.5443	611.50
58.5587	651.73
58.5732	640.99
58.5876	617.57
58.6021	619.87
58.6165	621.75
58.6309	643.70
58.6454	627.65
58.6598	630.94
58.6743	637.05
58.6887	616.18
58.7031	603.21
58.7176	622.80
58.7320	595.55
58.7465	590.70
58.7609	613.04
58.7753	612.89
58.7898	557.47
58.8042	576.10
58.8187	576.46
58.8331	570.30
58.8475	550.78
58.8620	579.33
58.8764	589.68
58.8909	562.55
58.9053	591.55
58.9197	583.17
58.9342	578.62
58.9486	578.15
58.9631	540.24
58.9775	528.31
58.9919	562.10
59.0064	536.16
59.0208	589.95
59.0353	571.09
59.0497	532.60
59.0641	597.18
59.0786	555.85
59.0930	551.85
59.1075	539.26
59.1219	549.54
59.1363	542.53
59.1508	547.48
59.1652	557.16
59.1797	558.55
59.1941	512.69
59.2085	526.41
59.2230	556.02
59.2374	594.13
59.2519	562.84
59.2663	559.75
59.2807	580.38
59.2952	566.35
59.3096	527.36
59.3241	571.92
59.3385	583.40
59.3529	603.01
59.3674	562.41
59.3818	584.24
59.3963	551.38
59.4107	554.39
59.4251	580.41
59.4396	532.12
59.4540	545.03
59.4685	586.55
59.4829	580.47
59.4973	554.10
59.5118	542.38
59.5262	549.21
59.5407	603.23
59.5551	582.99
59.5695	551.33
59.5840	562.15
59.5984	554.32
59.6129	534.10
59.6273	545.53
59.6417	524.86
59.6562	535.71
59.6706	553.18
59.6851	533.55
59.6995	579.51
59.7139	598.16
59.7284	549.30
59.7428	525.43
59.7573	565.43
59.7717	531.34
59.7861	537.71
59.8006	532.51
59.8150	543.14
59.8295	559.17
59.8439	535.56
59.8583	573.43
59.8728	540.47
59.8872	538.08
59.9017	557.87
59.9161	552.80
59.9305	561.21
59.9450	537.26
59.9594	518.31
59.9739	514.98
59.9883	526.82
60.0027	517.64
60.0172	556.95
60.0316	567.29
60.0461	538.83
60.0605	534.22
60.0750	559.58
60.0894	569.97
60.1038	499.15
60.1183	551.96
60.1327	577.76
60.1472	528.42
60.1616	537.34
60.1760	557.86
60.1905	555.23
60.2049	530.71
60.2194	526.00
60.2338	519.62
60.2482	505.53
60.2627	502.82
60.2771	552.05
60.2916	540.12
60.3060	537.64
60.3204	553.92
60.3349	538.76
60.3493	548.80
60.3638	549.68
60.3782	549.49
60.3926	575.32
60.4071	548.82
60.4215	567.23
60.4360	579.62
60.4504	514.88
60.4648	576.94
60.4793	573.69
60.4937	579.76
60.5082	549.05
60.5226	580.08
60.5370	542.90
60.5515	552.64
60.5659	530.62
60.5804	555.44
60.5948	566.01
60.6092	556.98
60.6237	510.48
60.6381	527.46
60.6526	563.93
60.6670	548.95
60.6814	538.04
60.6959	530.95
60.7103	558.49
60.7248	533.28
60.7392	568.67
60.7536	551.25
60.7681	537.76
60.7825	542.01
60.7970	559.67
60.8114	553.97
60.8258	544.95
60.8403	529.71
60.8547	535.53
60.8692	557.61
60.8836	549.41
60.8980	531.63
60.9125	519.95
60.9269	535.08
60.9414	554.61
60.9558	510.10
60.9702	557.44
60.9847	554.60
60.9991	532.55
61.0136	519.92
61.0280	531.37
61.0424	544.53
61.0569	589.36
61.0713	533.74
61.0858	576.60
61.1002	555.02
61.1146	567.28
61.1291	577.81
61.1435	564.48
61.1580	578.54
61.1724	575.87
61.1868	535.70
61.2013	552.74
61.2157	553.35
61.2302	579.52
61.2446	567.84
61.2590	531.43
61.2735	519.07
61.2879	544.07
61.3024	571.78
61.3168	523.02
61.3312	556.75
61.3457	545.09
61.3601	529.19
61.3746	566.25
61.3890	560.55
61.4034	520.01
61.4179	538.18
61.4323	548.57
61.4468	564.90
61.4612	545.43
61.4756	578.62
61.4901	576.67
61.5045	535.78
61.5190	553.85
61.5334	543.75
61.5478	561.27
61.5623	542.97
61.5767	544.97
61.5912	523.36
61.6056	516.95
61.6200	519.48
61.6345	521.82
61.6489	555.33
61.6634	554.62
61.6778	547.65
61.6922	509.65
61.7067	549.66
61.7211	541.29
61.7356	533.87
61.7500	561.57
61.7644	529.50
61.7789	587.04
61.7933	574.81
61.8078	529.95
61.8222	506.96
61.8366	547.36
61.8511	518.60
61.8655	555.27
61.8800	574.72
61.8944	572.18
61.9088	571.46
61.9233	548.25
61.9377	561.30
61.9522	549.47
61.9666	547.90
61.9810	522.47
61.9955	563.09
62.0099	547.58
62.0244	545.87
62.0388	559.39
62.0532	563.10
62.0677	553.26
62.0821	532.83
62.0966	531.94
62.1110	544.72
62.1254	561.96
62.1399	571.35
62.1543	578.72
62.1688	570.83
62.1832	578.63
62.1976	555.38
62.2121	526.37
62.2265	546.10
62.2410	573.63
62.2554	558.47
62.2698	540.44
62.2843	586.34
62.2987	570.81
62.3132	527.24
62.3276	557.45
62.3420	571.27
62.3565	557.20
62.3709	550.23
62.3854	566.84
62.3998	518.50
62.4142	527.78
62.4287	564.97
62.4431	573.60
62.4576	545.75
62.4720	561.87
62.4864	573.24
62.5009	544.56
62.5153	571.82
62.5298	563.12
62.5442	553.24
62.5586	564.17
62.5731	549.31
62.5875	547.40
62.6020	564.88
62.6164	541.38
62.6308	557.06
62.6453	549.90
62.6597	550.92
62.6742	558.43
62.6886	555.49
62.7030	563.98
62.7175	593.67
62.7319	547.60
62.7464	580.53
62.7608	541.78
62.7752	545.02
62.7897	565.88
62.8041	538.36
62.8186	547.42
62.8330	563.27
62.8474	561.16
62.8619	560.43
62.8763	569.61
62.8908	552.43
62.9052	581.18
62.9196	574.48
62.9341	576.53
62.9485	582.48
62.9630	562.53
62.9774	575.15
62.9918	547.10
63.0063	571.24
63.0207	597.83
63.0352	559.23
63.0496	588.87
63.0640	588.60
63.0785	564.22
63.0929	547.12
63.1074	573.18
63.1218	610.37
63.1362	627.07
63.1507	569.70
63.1651	555.92
63.1796	548.19
63.1940	537.72
63.2084	582.84
63.2229	554.49
63.2373	562.73
63.2518	567.34
63.2662	570.71
63.2806	594.93
63.2951	568.85
63.3095	561.17
63.3240	585.50
63.3384	568.90
63.3528	558.13
63.3673	552.78
63.3817	563.55
63.3962	588.12
63.4106	584.97
63.4250	576.71
63.4395	574.54
63.4539	574.18
63.4684	607.05
63.4828	584.77
63.4972	619.74
63.5117	590.12
63.5261	579.08
63.5406	588.63
63.5550	566.29
63.5694	574.85
63.5839	579.59
63.5983	552.86
63.6128	561.33
63.6272	559.46
63.6416	582.39
63.6561	591.95
63.6705	604.00
63.6850	568.96
63.6994	574.71
63.7138	604.71
63.7283	593.69
63.7427	585.25
63.7572	587.22
63.7716	593.09
63.7861	577.36
63.8005	570.82
63.8149	568.20
63.8294	593.59
63.8438	566.42
63.8583	606.33
63.8727	589.33
63.8871	623.18
63.9016	623.07
63.9160	645.14
63.9305	608.88
63.9449	576.12
63.9593	595.73
63.9738	627.07
63.9882	629.08
64.0027	647.32
64.0171	632.24
64.0315	619.07
64.0460	636.22
64.0604	634.46
64.0749	631.16
64.0893	613.44
64.1037	654.98
64.1182	641.05
64.1326	669.25
64.1471	655.79
64.1615	690.92
64.1759	710.24
64.1904	718.46
64.2048	722.23
64.2193	714.80
64.2337	743.06
64.2481	763.72
64.2626	713.12
64.2770	766.68
64.2915	775.50
64.3059	799.28
64.3203	806.18
64.3348	786.92
64.3492	756.65
64.3637	778.90
64.3781	785.05
64.3925	765.26
64.4070	766.03
64.4214	763.48
64.4359	761.63
64.4503	704.71
64.4647	746.33
64.4792	785.28
64.4936	811.51
64.5081	728.15
64.5225	750.22
64.5369	772.04
64.5514	735.85
64.5658	733.99
64.5803	729.28
64.5947	740.92
64.6091	693.74
64.6236	709.63
64.6380	716.91
64.6525	692.95
64.6669	738.55
64.6813	757.72
64.6958	721.84
64.7102	746.99
64.7247	728.46
64.7391	715.59
64.7535	717.65
64.7680	754.68
64.7824	768.80
64.7969	790.42
64.8113	797.15
64.8257	817.38
64.8402	804.97
64.8546	835.27
64.8691	859.58
64.8835	876.48
64.8979	841.19
64.9124	868.30
64.9268	919.75
64.9413	948.62
64.9557	944.36
64.9701	989.68
64.9846	1039.90
64.9990	1133.53
65.0135	1307.74
65.0279	1524.23
65.0423	1761.15
65.0568	2052.03
65.0712	2652.54
65.0857	3544.92
65.1001	4684.80
65.1145	6346.15
65.1290	8300.64
65.1434	9905.50
65.1579	11348.07
65.1723	11925.07
65.1867	11191.28
65.2012	9776.56
65.2156	8122.21
65.2301	6444.68
65.2445	5178.78
65.2589	4442.71
65.2734	4148.54
65.2878	4446.48
65.3023	5085.15
65.3167	5967.89
65.3311	6722.83
65.3456	7125.95
65.3600	7029.17
65.3745	6391.88
65.3889	5424.94
65.4033	4346.57
65.4178	3424.21
65.4322	2614.82
65.4467	1977.53
65.4611	1672.68
65.4755	1459.44
65.4900	1338.26
65.5044	1135.07
65.5189	1066.24
65.5333	1004.66
65.5477	929.63
65.5622	863.90
65.5766	854.57
65.5911	800.57
65.6055	784.81
65.6199	799.05
65.6344	775.92
65.6488	771.95
65.6633	762.05
65.6777	764.70
65.6921	726.35
65.7066	723.35
65.7210	700.08
65.7355	691.78
65.7499	709.88
65.7643	657.92
65.7788	695.41
65.7932	662.06
65.8077	667.51
65.8221	640.29
65.8365	658.36
65.8510	676.97
65.8654	615.96
65.8799	604.49
65.8943	636.25
65.9087	682.81
65.9232	636.06
65.9376	664.14
65.9521	647.94
65.9665	627.25
65.9809	651.16
65.9954	656.01
66.0098	678.65
66.0243	666.70
66.0387	638.87
66.0531	640.93
66.0676	641.37
66.0820	618.30
66.0965	622.93
66.1109	637.43
66.1253	633.20
66.1398	606.93
66.1542	623.61
66.1687	643.93
66.1831	614.51
66.1975	612.99
66.2120	575.42
66.2264	576.88
66.2409	626.67
66.2553	615.33
66.2697	596.28
66.2842	612.38
66.2986	614.28
66.3131	603.12
66.3275	630.68
66.3419	620.86
66.3564	618.38
66.3708	574.08
66.3853	600.43
66.3997	606.58
66.4141	597.06
66.4286	615.71
66.4430	577.65
66.4575	604.22
66.4719	595.27
66.4863	625.59
66.5008	584.80
66.5152	587.62
66.5297	622.60
66.5441	606.10
66.5585	615.95
66.5730	588.95
66.5874	598.53
66.6019	575.88
66.6163	599.34
66.6307	586.66
66.6452	579.49
66.6596	577.25
66.6741	594.67
66.6885	608.56
66.7029	590.73
66.7174	585.01
66.7318	569.02
66.7463	587.49
66.7607	571.92
66.7751	571.63
66.7896	577.09
66.8040	603.97
66.8185	611.40
66.8329	595.74
66.8473	600.51
66.8618	583.97
66.8762	590.87
66.8907	601.37
66.9051	571.55
66.9195	537.80
66.9340	585.36
66.9484	587.72
66.9629	540.34
66.9773	565.53
66.9917	585.22
67.0062	611.39
67.0206	611.33
67.0351	602.07
67.0495	584.86
67.0639	609.62
67.0784	582.11
67.0928	590.92
67.1073	601.64
67.1217	586.27
67.1361	565.64
67.1506	557.81
67.1650	576.61
67.1795	580.96
67.1939	595.97
67.2083	621.06
67.2228	597.57
67.2372	597.55
67.2517	600.27
67.2661	601.26
67.2805	589.66
67.2950	553.13
67.3094	598.38
67.3239	556.30
67.3383	585.78
67.3527	557.00
67.3672	580.75
67.3816	584.76
67.3961	600.10
67.4105	576.83
67.4250	608.19
67.4394	596.81
67.4538	593.35
67.4683	589.54
67.4827	553.87
67.4972	607.76
67.5116	574.44
67.5260	559.39
67.5405	599.70
67.5549	623.60
67.5694	590.47
67.5838	602.88
67.5982	572.60
67.6127	588.94
67.6271	553.58
67.6416	582.25
67.6560	568.24
67.6704	565.48
67.6849	582.24
67.6993	595.04
67.7138	591.45
67.7282	590.51
67.7426	588.24
67.7571	577.52
67.7715	585.83
67.7860	527.99
67.8004	574.89
67.8148	585.01
67.8293	572.77
67.8437	584.24
67.8582	588.89
67.8726	600.55
67.8870	569.76
67.9015	609.78
67.9159	591.29
67.9304	601.58
67.9448	584.65
67.9592	530.02
67.9737	583.03
67.9881	526.97
68.0026	596.13
68.0170	572.03
68.0314	550.17
68.0459	570.37
68.0603	630.35
68.0748	602.66
68.0892	590.21
68.1036	598.84
68.1181	587.11
68.1325	585.61
68.1470	556.88
68.1614	588.39
68.1758	571.91
68.1903	594.52
68.2047	563.15
68.2192	558.25
68.2336	544.15
68.2480	552.03
68.2625	589.33
68.2769	548.67
68.2914	563.73
68.3058	550.88
68.3202	558.82
68.3347	605.64
68.3491	593.65
68.3636	534.79
68.3780	565.44
68.3924	553.56
68.4069	546.29
68.4213	551.98
68.4358	568.14
68.4502	503.87
68.4646	559.22
68.4791	592.31
68.4935	595.93
68.5080	574.38
68.5224	613.93
68.5368	602.40
68.5513	579.12
68.5657	569.17
68.5802	559.36
68.5946	581.90
68.6090	581.65
68.6235	582.93
68.6379	594.12
68.6524	612.66
68.6668	569.19
68.6812	566.74
68.6957	550.97
68.7101	604.79
68.7246	611.53
68.7390	615.38
68.7534	589.37
68.7679	622.82
68.7823	607.60
68.7968	577.94
68.8112	603.89
68.8256	573.69
68.8401	579.32
68.8545	577.55
68.8690	620.93
68.8834	617.13
68.8978	622.55
68.9123	564.82
68.9267	592.67
68.9412	581.41
68.9556	578.05
68.9700	565.21
68.9845	627.94
68.9989	558.83
69.0134	586.78
69.0278	560.67
69.0422	551.12
69.0567	569.91
69.0711	622.13
69.0856	602.90
69.1000	567.83
69.1144	548.18
69.1289	578.19
69.1433	586.74
69.1578	530.30
69.1722	594.47
69.1866	541.82
69.2011	550.18
69.2155	587.87
69.2300	569.57
69.2444	609.85
69.2588	550.03
69.2733	536.85
69.2877	587.18
69.3022	595.45
69.3166	602.42
69.3310	589.08
69.3455	590.78
69.3599	574.08
69.3744	548.42
69.3888	525.24
69.4032	581.67
69.4177	574.19
69.4321	603.21
69.4466	538.19
69.4610	540.20
69.4754	568.53
69.4899	546.15
69.5043	549.53
69.5188	588.57
69.5332	583.92
69.5476	600.88
69.5621	577.73
69.5765	598.83
69.5910	583.49
69.6054	583.44
69.6198	607.75
69.6343	567.27
69.6487	567.50
69.6632	597.43
69.6776	559.08
69.6920	561.92
69.7065	534.54
69.7209	583.36
69.7354	568.22
69.7498	590.61
69.7642	557.03
69.7787	576.41
69.7931	597.59
69.8076	617.79
69.8220	548.39
69.8364	570.77
69.8509	540.37
69.8653	556.48
69.8798	617.54
69.8942	542.23
69.9086	553.47
69.9231	592.31
69.9375	581.94
69.9520	582.73
69.9664	588.47
69.9808	582.03
69.9953	556.79
70.0097	559.32
70.0242	566.93
70.0386	538.60
70.0530	545.82
70.0675	511.17
70.0819	576.82
70.0964	524.08
70.1108	569.24
70.1252	579.29
70.1397	576.44
70.1541	583.52
70.1686	602.21
70.1830	617.71
70.1974	577.90
70.2119	616.79
70.2263	573.15
70.2408	584.80
70.2552	563.63
70.2696	544.44
70.2841	559.35
70.2985	591.25
70.3130	532.61
70.3274	529.13
70.3418	588.66
70.3563	603.06
70.3707	580.23
70.3852	563.49
70.3996	580.29
70.4140	568.72
70.4285	665.02
70.4429	625.92
70.4574	576.17
70.4718	598.23
70.4862	615.48
70.5007	568.46
70.5151	530.15
70.5296	632.49
70.5440	570.54
70.5584	561.69
70.5729	568.59
70.5873	537.87
70.6018	496.58
70.6162	547.36
70.6306	566.18
70.6451	506.74
70.6595	606.05
70.6740	594.19
70.6884	574.80
70.7028	572.51
70.7173	599.84
70.7317	587.08
70.7462	547.90
70.7606	557.15
70.7750	595.31
70.7895	644.92
70.8039	624.15
70.8184	603.08
70.8328	545.48
70.8472	548.30
70.8617	537.76
70.8761	553.77
70.8906	560.33
70.9050	601.27
70.9194	533.35
70.9339	541.52
70.9483	584.78
70.9628	575.33
70.9772	529.58
70.9916	570.63
71.0061	565.04
71.0205	572.92
71.0350	590.10
71.0494	618.43
71.0638	594.13
71.0783	592.87
71.0927	585.45
71.1072	604.03
71.1216	544.70
71.1361	545.95
71.1505	618.82
71.1649	595.14
71.1794	577.78
71.1938	586.90
71.2083	606.17
71.2227	558.26
71.2371	563.14
71.2516	556.42
71.2660	587.40
71.2805	601.82
71.2949	534.33
71.3093	597.60
71.3238	604.88
71.3382	606.58
71.3527	562.81
71.3671	561.00
71.3815	622.06
71.3960	596.78
71.4104	539.56
71.4249	560.67
71.4393	560.53
71.4537	540.95
71.4682	594.21
71.4826	619.99
71.4971	601.33
71.5115	561.19
71.5259	502.00
71.5404	456.98
71.5548	542.65
71.5693	595.05
71.5837	619.04
71.5981	547.93
71.6126	538.50
71.6270	573.40
71.6415	583.02
71.6559	566.67
71.6703	612.45
71.6848	592.22
71.6992	566.12
71.7137	566.48
71.7281	545.94
71.7425	582.11
71.7570	575.00
71.7714	554.07
71.7859	559.38
71.8003	572.75
71.8147	596.55
71.8292	580.18
71.8436	579.33
71.8581	576.52
71.8725	536.16
71.8869	524.12
71.9014	617.56
71.9158	543.06
71.9303	511.51
71.9447	595.96
71.9591	653.26
71.9736	660.47
71.9880	629.27
72.0025	607.13
72.0169	618.62
72.0313	643.27
72.0458	635.15
72.0602	605.56
72.0747	526.44
72.0891	517.47
72.1035	600.11
72.1180	563.59
72.1324	551.48
72.1469	573.52
72.1613	595.48
72.1757	568.95
72.1902	645.25
72.2046	649.24
72.2191	559.28
72.2335	564.56
72.2479	569.79
72.2624	605.68
72.2768	623.07
72.2913	597.70
72.3057	609.35
72.3201	661.72
72.3346	640.69
72.3490	562.93
72.3635	533.81
72.3779	540.59
72.3923	561.82
72.4068	575.85
72.4212	582.70
72.4357	615.09
72.4501	626.30
72.4645	624.84
72.4790	568.28
72.4934	591.51
72.5079	552.08
72.5223	474.13
72.5367	513.30
72.5512	561.64
72.5656	580.65
72.5801	491.13
72.5945	429.71
72.6089	531.96
72.6234	570.24
72.6378	590.71
72.6523	622.91
72.6667	551.74
72.6811	524.59
72.6956	560.52
72.7100	579.41
72.7245	582.46
72.7389	624.51
72.7533	616.43
72.7678	597.91
72.7822	606.58
72.7967	609.00
72.8111	653.85
72.8255	760.82
72.8400	661.53
72.8544	593.63
72.8689	587.41
72.8833	528.34

Result vector
22.1120	602.33
22.1264	579.81
22.1409	518.41
22.1553	504.10
22.1697	552.45
22.1842	560.16
22.1986	517.98
22.2131	491.51
22.2275	555.54
22.2419	570.10
22.2564	572.84
22.2708	639.85
22.2853	593.14
22.2997	616.09
22.3141	585.06
22.3286	579.31
22.3430	575.09
22.3575	596.62
22.3719	672.51
22.3863	686.60
22.4008	591.95
22.4152	584.31
22.4297	608.06
22.4441	602.31
22.4585	584.30
22.4730	537.15
22.4874	525.60
22.5019	555.95
22.5163	537.89
22.5307	552.44
22.5452	552.59
22.5596	559.32
22.5741	669.39
22.5885	600.00
22.6029	650.12
22.6174	537.83
22.6318	608.74
22.6463	562.36
22.6607	558.55
22.6751	510.33
22.6896	497.09
22.7040	510.44
22.7185	589.78
22.7329	501.82
22.7473	516.47
22.7618	540.42
22.7762	561.74
22.7907	658.13
22.8051	621.23
22.8195	616.38
22.8340	559.39
22.8484	583.76
22.8629	579.28
22.8773	562.30
22.8917	590.78
22.9062	498.90
22.9206	533.44
22.9351	493.15
22.9495	521.56
22.9639	582.81
22.9784	477.13
22.9928	509.02
23.0073	538.18
23.0217	609.53
23.0361	493.64
23.0506	575.30
23.0650	541.29
23.0795	497.07
23.0939	506.93
23.1083	542.94
23.1228	626.31
23.1372	587.00
23.1517	539.27
23.1661	577.85
23.1806	561.03
23.1950	596.14
23.2094	535.36
23.2239	534.71
23.2383	510.92
23.2528	621.63
23.2672	508.81
23.2816	625.83
23.2961	520.71
23.3105	618.16
23.3250	546.61
23.3394	571.26
23.3538	533.45
23.3683	522.06
23.3827	451.09
23.3972	506.04
23.4116	550.35
23.4260	550.88
23.4405	509.93
23.4549	576.53
23.4694	618.54
23.4838	504.58
23.4982	559.95
23.5127	488.95
23.5271	579.23
23.5416	555.98
23.5560	620.26
23.5704	609.62
23.5849	500.13
23.5993	588.48
23.6138	550.69
23.6282	583.59
23.6426	562.16
23.6571	573.73
23.6715	577.68
23.6860	579.80
23.7004	614.76
23.7148	540.95
23.7293	510.38
23.7437	525.06
23.7582	565.61
23.7726	522.64
23.7870	568.61
23.8015	612.96
23.8159	602.90
23.8304	575.72
23.8448	561.93
23.8592	617.83
23.8737	575.88
23.8881	582.50
23.9026	549.48
23.9170	578.08
23.9314	498.63
23.9459	619.24
23.9603	518.09
23.9748	526.95
23.9892	573.31
24.0036	504.48
24.0181	512.87
24.0325	583.79
24.0470	579.37
24.0614	569.87
24.0758	610.64
24.0903	638.68
24.1047	516.55
24.1192	548.86
24.1336	570.01
24.1480	573.50
24.1625	574.32
24.1769	529.15
24.1914	564.68
24.2058	537.96
24.2202	592.57
24.2347	571.96
24.2491	637.72
24.2636	615.36
24.2780	626.53
24.2924	602.69
24.3069	596.26
24.3213	583.34
24.3358	589.46
24.3502	514.07
24.3646	514.17
24.3791	508.41
24.3935	541.60
24.4080	514.85
24.4224	563.94
24.4368	538.03
24.4513	516.46
24.4657	586.21
24.4802	567.19
24.4946	522.43
24.5090	561.53
24.5235	576.75
24.5379	532.60
24.5524	561.25
24.5668	611.85
24.5812	571.20
24.5957	550.36
24.6101	541.85
24.6246	517.48
24.6390	576.31
24.6534	568.71
24.6679	549.75
24.6823	570.87
24.6968	572.97
24.7112	584.80
24.7256	604.59
24.7401	539.63
24.7545	574.48
24.7690	516.34
24.7834	543.02
24.7978	541.40
24.8123	529.81
24.8267	533.70
24.8412	551.61
24.8556	577.99
24.8700	592.69
24.8845	521.85
24.8989	487.25
24.9134	478.47
24.9278	506.57
24.9422	521.39
24.9567	535.75
24.9711	551.61
24.9856	518.19
25.0000	508.24
25.0144	548.10
25.0289	633.39
25.0433	531.53
25.0578	550.04
25.0722	497.19
25.0866	586.13
25.1011	537.33
25.1155	572.15
25.1300	535.73
25.1444	503.83
25.1588	470.31
25.1733	508.53
25.1877	551.42
25.2022	550.02
25.2166	548.82
25.2310	580.14
25.2455	544.88
25.2599	561.38
25.2744	520.38
25.2888	509.41
25.3032	525.40
25.3177	534.52
25.3321	571.38
25.3466	521.91
25.3610	535.87
25.3754	559.99
25.3899	531.63
25.4043	541.39
25.4188	549.46
25.4332	540.77
25.4476	535.78
25.4621	547.83
25.4765	543.90
25.4910	529.04
25.5054	580.92
25.5198	545.14
25.5343	592.54
25.5487	590.49
25.5632	544.79
25.5776	542.25
25.5920	544.53
25.6065	580.71
25.6209	551.89
25.6354	548.09
25.6498	525.32
25.6642	586.44
25.6787	567.03
25.6931	558.88
25.7076	564.47
25.7220	564.80
25.7364	536.34
25.7509	531.06
25.7653	547.10
25.7798	540.24
25.7942	580.91
25.8086	548.78
25.8231	517.26
25.8375	497.58
25.8520	548.51
25.8664	529.35
25.8808	500.48
25.8953	521.07
25.9097	517.20
25.9242	571.43
25.9386	575.79
25.9530	542.24
25.9675	540.02
25.9819	571.76
25.9964	556.85
26.0108	513.58
26.0252	553.10
26.0397	518.71
26.0541	537.34
26.0686	525.68
26.0830	557.87
26.0974	534.74
26.1119	541.93
26.1263	535.09
26.1408	527.30
26.1552	514.26
26.1696	541.54
26.1841	544.03
26.1985	529.22
26.2130	503.43
26.2274	515.56
26.2418	511.46
26.2563	533.95
26.2707	497.67
26.2852	511.35
26.2996	544.95
26.3140	554.76
26.3285	543.46
26.3429	536.46
26.3574	524.48
26.3718	512.48
26.3862	531.80
26.4007	530.13
26.4151	559.67
26.4296	549.74
26.4440	540.02
26.4584	562.47
26.4729	550.01
26.4873	505.28
26.5018	533.20
26.5162	556.74
26.5306	537.54
26.5451	559.01
26.5595	556.92
26.5740	542.30
26.5884	535.95
26.6028	523.36
26.6173	526.70
26.6317	579.03
26.6462	545.76
26.6606	515.22
26.6750	537.93
26.6895	540.07
26.7039	535.74
26.7184	566.63
26.7328	518.87
26.7472	551.03
26.7617	542.67
26.7761	528.68
26.7906	539.06
26.8050	537.60
26.8194	496.73
26.8339	501.98
26.8483	484.16
26.8628	516.08
26.8772	516.29
26.8917	514.32
26.9061	565.04
26.9205	555.93
26.9350	548.44
26.9494	540.16
26.9639	510.79
26.9783	509.53
26.9927	524.42
27.0072	513.30
27.0216	531.78
27.0361	568.03
27.0505	536.58
27.0649	500.08
27.0794	536.97
27.0938	544.47
27.1083	527.89
27.1227	534.63
27.1371	525.15
27.1516	496.53
27.1660	506.67
27.1805	514.58
27.1949	506.14
27.2093	537.64
27.2238	522.64
27.2382	524.29
27.2527	520.92
27.2671	500.87
27.2815	555.03
27.2960	503.90
27.3104	484.53
27.3249	516.19
27.3393	531.21
27.3537	508.67
27.3682	512.62
27.3826	525.76
27.3971	523.27
27.4115	519.27
27.4259	544.84
27.4404	535.21
27.4548	524.11
27.4693	510.34
27.4837	506.29
27.4981	525.51
27.5126	555.04
27.5270	556.28
27.5415	519.13
27.5559	517.11
27.5703	518.37
27.5848	507.14
27.5992	479.88
27.6137	505.19
27.6281	523.28
27.6425	489.38
27.6570	503.88
27.6714	542.65
27.6859	516.24
27.7003	532.97
27.7147	563.44
27.7292	531.79
27.7436	558.10
27.7581	502.11
27.7725	506.49
27.7869	531.65
27.8014	519.74
27.8158	553.86
27.8303	525.37
27.8447	543.30
27.8591	527.36
27.8736	559.03
27.8880	549.02
27.9025	539.77
27.9169	511.62
27.9313	515.20
27.9458	521.51
27.9602	494.02
27.9747	485.39
27.9891	545.49
28.0035	495.44
28.0180	513.25
28.0324	512.93
28.0469	507.10
28.0613	520.36
28.0757	512.73
28.0902	547.73
28.1046	547.23
28.1191	522.30
28.1335	521.17
28.1479	524.66
28.1624	526.07
28.1768	493.81
28.1913	524.76
28.2057	527.10
28.2201	523.70
28.2346	510.68
28.2490	494.23
28.2635	497.80
28.2779	530.69
28.2923	533.57
28.3068	534.87
28.3212	512.19
28.3357	534.78
28.3501	504.19
28.3645	541.00
28.3790	532.27
28.3934	524.20
28.4079	508.06
28.4223	513.97
28.4367	545.33
28.4512	496.27
28.4656	515.89
28.4801	536.31
28.4945	530.94
28.5089	500.55
28.5234	515.04
28.5378	536.30
28.5523	519.24
28.5667	505.35
28.5811	529.01
28.5956	539.99
28.6100	510.26
28.6245	505.68
28.6389	537.54
28.6533	564.67
28.6678	563.45
28.6822	527.31
28.6967	495.84
28.7111	511.24
28.7255	480.01
28.7400	510.68
28.7544	536.92
28.7689	531.03
28.7833	504.57
28.7977	526.23
28.8122	517.55
28.8266	493.88
28.8411	502.15
28.8555	472.69
28.8699	480.24
28.8844	508.30
28.8988	484.44
28.9133	520.07
28.9277	533.52
28.9421	504.23
28.9566	501.76
28.9710	489.85
28.9855	498.65
28.9999	541.37
29.0143	513.86
29.0288	484.85
29.0432	520.62
29.0577	525.10
29.0721	565.85
29.0865	533.50
29.1010	524.07
29.1154	543.59
29.1299	512.71
29.1443	461.53
29.1587	531.69
29.1732	531.93
29.1876	498.71
29.2021	508.34
29.2165	497.96
29.2309	513.45
29.2454	516.35
29.2598	507.90
29.2743	479.99
29.2887	508.64
29.3031	497.49
29.3176	488.88
29.3320	500.42
29.3465	533.80
29.3609	493.88
29.3753	489.08
29.3898	513.24
29.4042	507.46
29.4187	507.13
29.4331	552.44
29.4475	503.03
29.4620	531.24
29.4764	533.63
29.4909	489.88
29.5053	504.71
29.5197	519.29
29.5342	499.27
29.5486	507.66
29.5631	497.41
29.5775	507.34
29.5919	487.07
29.6064	502.96
29.6208	534.19
29.6353	521.03
29.6497	521.17
29.6641	554.99
29.6786	546.00
29.6930	538.38
29.7075	507.08
29.7219	518.12
29.7363	524.29
29.7508	496.48
29.7652	477.45
29.7797	496.89
29.7941	489.28
29.8085	475.50
29.8230	469.07
29.8374	501.26
29.8519	496.48
29.8663	509.22
29.8807	524.74
29.8952	490.50
29.9096	511.22
29.9241	497.90
29.9385	480.14
29.9529	524.54
29.9674	522.53
29.9818	510.78
29.9963	518.75
30.0107	498.94
30.0251	507.83
30.0396	536.11
30.0540	527.78
30.0685	522.26
30.0829	517.35
30.0973	540.76
30.1118	521.72
30.1262	511.80
30.1407	501.92
30.1551	473.14
30.1695	542.79
30.1840	527.86
30.1984	469.60
30.2129	500.43
30.2273	523.65
30.2417	522.14
30.2562	503.65
30.2706	504.61
30.2851	490.25
30.2995	490.35
30.3139	527.51
30.3284	505.41
30.3428	506.67
30.3573	489.73
30.3717	487.24
30.3861	500.37
30.4006	510.33
30.4150	531.46
30.4295	537.83
30.4439	529.27
30.4583	497.36
30.4728	517.02
30.4872	514.09
30.5017	534.40
30.5161	499.95
30.5305	499.36
30.5450	525.92
30.5594	515.67
30.5739	481.17
30.5883	500.21
30.6028	501.07
30.6172	476.90
30.6316	511.37
30.6461	526.57
30.6605	512.49
30.6750	519.25
30.6894	527.52
30.7038	540.34
30.7183	541.44
30.7327	535.49
30.7472	546.79
30.7616	547.00
30.7760	559.57
30.7905	566.72
30.8049	569.45
30.8194	597.00
30.8338	612.01
30.8482	629.14
30.8627	658.50
30.8771	648.60
30.8916	661.94
30.9060	737.64
30.9204	702.08
30.9349	688.88
30.9493	669.78
30.9638	668.15
30.9782	660.76
30.9926	623.86
31.0071	628.75
31.0215	610.83
31.0360	615.08
31.0504	571.38
31.0648	561.27
31.0793	595.39
31.0937	567.76
31.1082	546.15
31.1226	552.42
31.1370	533.86
31.1515	541.81
31.1659	579.38
31.1804	544.43
31.1948	541.16
31.2092	550.16
31.2237	528.21
31.2381	545.02
31.2526	549.10
31.2670	525.72
31.2814	500.31
31.2959	527.58
31.3103	515.76
31.3248	558.38
31.3392	563.65
31.3536	564.35
31.3681	532.29
31.3825	507.21
31.3970	505.76
31.4114	533.17
31.4258	535.38
31.4403	531.82
31.4547	541.78
31.4692	522.79
31.4836	534.23
31.4980	506.56
31.5125	504.87
31.5269	509.69
31.5414	497.46
31.5558	514.06
31.5702	510.69
31.5847	503.38
31.5991	507.51
31.6136	533.92
31.6280	535.69
31.6424	493.27
31.6569	504.53
31.6713	522.95
31.6858	517.86
31.7002	526.67
31.7146	520.11
31.7291	513.22
31.7435	496.04
31.7580	524.25
31.7724	509.05
31.7868	550.97
31.8013	517.05
31.8157	518.81
31.8302	503.90
31.8446	504.57
31.8590	529.62
31.8735	529.71
31.8879	505.33
31.9024	542.24
31.9168	505.08
31.9312	470.45
31.9457	539.64
31.9601	498.68
31.9746	527.36
31.9890	493.70
32.0034	516.63
32.0179	507.25
32.0323	504.08
32.0468	496.84
32.0612	512.46
32.0756	548.97
32.0901	475.21
32.1045	496.41
32.1190	512.34
32.1334	511.03
32.1478	486.96
32.1623	525.45
32.1767	494.80
32.1912	496.14
32.2056	470.38
32.2200	475.70
32.2345	498.47
32.2489	527.81
32.2634	525.28
32.2778	525.94
32.2922	519.45
32.3067	485.45
32.3211	507.05
32.3356	529.54
32.3500	505.79
32.3644	492.06
32.3789	481.21
32.3933	503.69
32.4078	495.77
32.4222	549.09
32.4366	485.92
32.4511	505.68
32.4655	488.48
32.4800	548.48
32.4944	521.98
32.5088	503.23
32.5233	525.69
32.5377	537.46
32.5522	490.44
32.5666	507.41
32.5810	510.29
32.5955	540.94
32.6099	516.80
32.6244	532.24
32.6388	540.05
32.6532	519.30
32.6677	500.48
32.6821	496.15
32.6966	485.13
32.7110	509.37
32.7254	485.60
32.7399	492.26
32.7543	509.28
32.7688	487.87
32.7832	511.18
32.7976	467.76
32.8121	517.09
32.8265	514.59
32.8410	505.93
32.8554	523.22
32.8698	521.70
32.8843	517.08
32.8987	498.50
32.9132	526.81
32.9276	504.33
32.9420	499.05
32.9565	490.05
32.9709	527.03
32.9854	529.53
32.9998	550.93
33.0142	518.48
33.0287	532.33
33.0431	446.82
33.0576	466.74
33.0720	497.97
33.0864	472.66
33.1009	441.27
33.1153	577.46
33.1298	533.47
33.1442	503.19
33.1586	483.10
33.1731	479.36
33.1875	477.38
33.2020	508.30
33.2164	535.28
33.2308	518.38
33.2453	492.40
33.2597	515.56
33.2742	520.58
33.2886	500.66
33.3030	508.30
33.3175	485.10
33.3319	527.83
33.3464	500.87
33.3608	525.37
33.3752	528.83
33.3897	474.25
33.4041	517.94
33.4186	523.34
33.4330	513.08
33.4474	500.38
33.4619	489.61
33.4763	529.54
33.4908	533.92
33.5052	502.98
33.5196	503.84
33.5341	508.26
33.5485	526.82
33.5630	493.35
33.5774	495.39
33.5918	529.75
33.6063	522.73
33.6207	518.99
33.6352	487.61
33.6496	492.31
33.6640	514.67
33.6785	499.65
33.6929	507.74
33.7074	522.37
33.7218	496.10
33.7362	469.54
33.7507	510.62
33.7651	469.50
33.7796	495.56
33.7940	500.83
33.8084	530.67
33.8229	501.01
33.8373	506.98
33.8518	512.15
33.8662	515.40
33.8806	510.33
33.8951	537.86
33.9095	499.01
33.9240	506.35
33.9384	512.51
33.9528	534.51
33.9673	504.33
33.9817	505.08
33.9962	470.68
34.0106	527.02
34.0250	567.16
34.0395	529.46
34.0539	506.32
34.0684	503.19
34.0828	522.20
34.0972	508.08
34.1117	504.90
34.1261	521.01
34.1406	477.24
34.1550	486.01
34.1694	510.33
34.1839	509.36
34.1983	513.12
34.2128	523.53
34.2272	500.27
34.2417	481.96
34.2561	537.33
34.2705	510.20
34.2850	510.82
34.2994	485.11
34.3139	503.57
34.3283	505.11
34.3427	524.93
34.3572	516.23
34.3716	497.98
34.3861	487.71
34.4005	503.17
34.4149	491.25
34.4294	521.60
34.4438	472.81
34.4583	468.13
34.4727	505.11
34.4871	499.32
34.5016	503.66
34.5160	508.55
34.5305	485.31
34.5449	518.09
34.5593	492.84
34.5738	529.89
34.5882	505.06
34.6027	497.92
34.6171	512.03
34.6315	520.90
34.6460	518.67
34.6604	483.44
34.6749	474.36
34.6893	484.21
34.7037	523.36
34.7182	514.71
34.7326	498.07
34.7471	526.06
34.7615	493.70
34.7759	504.87
34.7904	521.48
34.8048	503.38
34.8193	496.38
34.8337	525.37
34.8481	526.69
34.8626	514.77
34.8770	544.85
34.8915	532.04
34.9059	496.11
34.9203	492.42
34.9348	489.77
34.9492	496.66
34.9637	526.53
34.9781	487.64
34.9925	476.65
35.0070	522.95
35.0214	498.29
35.0359	503.56
35.0503	489.23
35.0647	509.70
35.0792	512.16
35.0936	536.57
35.1081	503.03
35.1225	507.88
35.1369	484.44
35.1514	497.94
35.1658	508.84
35.1803	486.19
35.1947	509.39
35.2091	503.08
35.2236	528.63
35.2380	517.25
35.2525	525.29
35.2669	527.53
35.2813	527.00
35.2958	476.80
35.3102	483.09
35.3247	496.88
35.3391	530.64
35.3535	565.83
35.3680	546.85
35.3824	535.31
35.3969	515.30
35.4113	486.93
35.4257	500.31
35.4402	525.24
35.4546	532.35
35.4691	519.07
35.4835	531.94
35.4979	559.88
35.5124	527.35
35.5268	536.65
35.5413	566.00
35.5557	511.90
35.5701	522.59
35.5846	533.30
35.5990	525.56
35.6135	528.25
35.6279	538.01
35.6423	534.53
35.6568	555.80
35.6712	525.58
35.6857	567.98
35.7001	663.90
35.7145	746.37
35.7290	716.84
35.7434	577.01
35.7579	550.82
35.7723	592.43
35.7867	599.07
35.8012	646.76
35.8156	645.58
35.8301	618.69
35.8445	581.01
35.8589	614.45
35.8734	756.97
35.8878	895.34
35.9023	1010.96
35.9167	1128.52
35.9311	1545.04
35.9456	2434.49
35.9600	2330.11
35.9745	1804.83
35.9889	1858.06
36.0033	2223.87
36.0178	2276.66
36.0322	1927.02
36.0467	1783.46
36.0611	1656.56
36.0755	1544.30
36.0900	1510.76
36.1044	1379.37
36.1189	1277.13
36.1333	1171.05
36.1477	1022.99
36.1622	1017.49
36.1766	956.42
36.1911	835.42
36.2055	779.09
36.2199	725.68
36.2344	722.85
36.2488	708.56
36.2633	702.34
36.2777	713.98
36.2921	719.57
36.3066	765.30
36.3210	813.63
36.3355	897.25
36.3499	910.32
36.3643	865.56
36.3788	898.55
36.3932	931.55
36.4077	942.96
36.4221	979.22
36.4365	980.32
36.4510	939.25
36.4654	929.53
36.4799	880.54
36.4943	841.28
36.5087	818.66
36.5232	820.49
36.5376	787.75
36.5521	722.54
36.5665	724.19
36.5809	683.00
36.5954	663.19
36.6098	632.57
36.6243	628.94
36.6387	590.30
36.6531	582.27
36.6676	570.37
36.6820	573.10
36.6965	565.98
36.7109	590.03
36.7253	543.46
36.7398	543.09
36.7542	568.09
36.7687	554.30
36.7831	577.75
36.7975	572.16
36.8120	561.13
36.8264	629.87
36.8409	599.17
36.8553	604.48
36.8697	614.73
36.8842	604.08
36.8986	595.25
36.9131	589.30
36.9275	560.17
36.9419	579.06
36.9564	617.71
36.9708	551.28
36.9853	585.17
36.9997	542.40
37.0141	521.47
37.0286	541.13
37.0430	540.62
37.0575	551.66
37.0719	519.38
37.0863	574.36
37.1008	502.19
37.1152	514.48
37.1297	514.34
37.1441	485.57
37.1585	492.82
37.1730	490.29
37.1874	523.24
37.2019	490.03
37.2163	522.10
37.2307	515.75
37.2452	504.14
37.2596	524.58
37.2741	514.10
37.2885	510.57
37.3029	467.55
37.3174	518.32
37.3318	525.04
37.3463	478.01
37.3607	519.44
37.3751	511.49
37.3896	489.21
37.4040	501.57
37.4185	492.37
37.4329	536.10
37.4473	503.27
37.4618	520.73
37.4762	545.03
37.4907	499.66
37.5051	499.93
37.5195	541.99
37.5340	550.61
37.5484	480.04
37.5629	519.26
37.5773	498.72
37.5917	485.36
37.6062	484.85
37.6206	489.98
37.6351	500.02
37.6495	440.61
37.6639	487.75
37.6784	497.13
37.6928	512.07
37.7073	517.87
37.7217	521.86
37.7361	522.18
37.7506	520.91
37.7650	541.77
37.7795	526.46
37.7939	533.14
37.8083	489.73
37.8228	501.82
37.8372	496.89
37.8517	527.95
37.8661	553.91
37.8805	522.74
37.8950	526.86
37.9094	487.64
37.9239	518.89
37.9383	554.01
37.9528	519.68
37.9672	523.48
37.9816	512.83
37.9961	516.45
38.0105	498.51
38.0250	515.45
38.0394	508.62
38.0538	510.86
38.0683	524.45
38.0827	531.39
38.0972	515.24
38.1116	506.04
38.1260	532.19
38.1405	494.21
38.1549	498.11
38.1694	507.61
38.1838	497.74
38.1982	493.80
38.2127	517.63
38.2271	516.59
38.2416	510.40
38.2560	508.84
38.2704	501.25
38.2849	512.77
38.2993	493.13
38.3138	531.30
38.3282	535.25
38.3426	569.32
38.3571	529.06
38.3715	520.92
38.3860	512.20
38.4004	526.76
38.4148	529.98
38.4293	575.33
38.4437	564.82
38.4582	623.68
38.4726	667.63
38.4870	704.12
38.5015	729.57
38.5159	760.65
38.5304	796.98
38.5448	774.86
38.5592	798.45
38.5737	735.73
38.5881	751.70
38.6026	722.59
38.6170	671.64
38.6314	655.84
38.6459	675.79
38.6603	658.85
38.6748	618.42
38.6892	584.40
38.7036	576.93
38.7181	540.12
38.7325	537.84
38.7470	562.49
38.7614	517.32
38.7758	529.45
38.7903	537.40
38.8047	517.24
38.8192	518.09
38.8336	525.33
38.8480	504.18
38.8625	518.78
38.8769	533.27
38.8914	525.10
38.9058	530.28
38.9202	524.60
38.9347	517.24
38.9491	522.31
38.9636	521.95
38.9780	507.82
38.9924	498.50
39.0069	519.00
39.0213	524.32
39.0358	524.73
39.0502	505.60
39.0646	521.12
39.0791	512.30
39.0935	521.80
39.1080	481.93
39.1224	520.48
39.1368	507.17
39.1513	493.05
39.1657	493.59
39.1802	505.33
39.1946	482.11
39.2090	510.71
39.2235	530.19
39.2379	479.50
39.2524	505.64
39.2668	512.20
39.2812	519.25
39.2957	506.91
39.3101	508.66
39.3246	505.64
39.3390	532.45
39.3534	536.74
39.3679	502.43
39.3823	532.14
39.3968	516.79
39.4112	512.29
39.4256	525.17
39.4401	532.66
39.4545	498.19
39.4690	483.54
39.4834	535.75
39.4978	488.62
39.5123	492.71
39.5267	525.30
39.5412	532.10
39.5556	499.27
39.5700	479.60
39.5845	493.01
39.5989	520.25
39.6134	514.07
39.6278	530.91
39.6422	497.42
39.6567	498.50
39.6711	499.76
39.6856	494.93
39.7000	519.74
39.7144	523.63
39.7289	477.25
39.7433	453.91
39.7578	482.73
39.7722	503.19
39.7866	501.93
39.8011	489.26
39.8155	486.51
39.8300	536.66
39.8444	475.86
39.8588	520.90
39.8733	545.22
39.8877	494.76
39.9022	531.60
39.9166	486.22
39.9310	498.27
39.9455	518.87
39.9599	472.63
39.9744	503.15
39.9888	520.65
40.0032	483.38
40.0177	508.39
40.0321	541.86
40.0466	510.66
40.0610	508.54
40.0754	509.40
40.0899	517.22
40.1043	514.76
40.1188	477.02
40.1332	494.65
40.1476	489.16
40.1621	512.18
40.1765	520.15
40.1910	494.18
40.2054	492.04
40.2198	512.68
40.2343	501.89
40.2487	461.89
40.2632	467.16
40.2776	516.12
40.2920	510.66
40.3065	494.68
40.3209	505.52
40.3354	483.89
40.3498	514.02
40.3642	505.91
40.3787	465.16
40.3931	469.39
40.4076	452.79
40.4220	483.09
40.4364	485.82
40.4509	454.57
40.4653	503.23
40.4798	508.16
40.4942	483.85
40.5086	482.49
40.5231	489.92
40.5375	490.44
40.5520	492.08
40.5664	497.15
40.5808	507.48
40.5953	486.44
40.6097	499.96
40.6242	484.15
40.6386	502.66
40.6530	515.32
40.6675	516.09
40.6819	519.69
40.6964	476.92
40.7108	474.78
40.7252	477.82
40.7397	511.88
40.7541	498.15
40.7686	488.70
40.7830	494.27
40.7974	502.63
40.8119	493.96
40.8263	498.51
40.8408	505.62
40.8552	511.34
40.8696	498.28
40.8841	461.71
40.8985	489.20
40.9130	504.19
40.9274	490.53
40.9418	490.15
40.9563	486.21
40.9707	487.67
40.9852	515.78
40.9996	510.82
41.0140	500.33
41.0285	510.90
41.0429	494.44
41.0574	510.93
41.0718	473.49
41.0862	558.12
41.1007	530.94
41.1151	500.86
41.1296	502.54
41.1440	487.46
41.1584	489.42
41.1729	525.36
41.1873	510.73
41.2018	539.89
41.2162	509.87
41.2306	464.24
41.2451	508.33
41.2595	502.34
41.2740	499.98
41.2884	502.35
41.3028	514.08
41.3173	509.35
41.3317	494.27
41.3462	491.44
41.3606	496.32
41.3750	512.51
41.3895	488.56
41.4039	498.93
41.4184	483.00
41.4328	510.85
41.4472	491.22
41.4617	523.46
41.4761	536.97
41.4906	513.92
41.5050	521.07
41.5194	491.94
41.5339	507.38
41.5483	484.89
41.5628	522.39
41.5772	461.84
41.5916	483.55
41.6061	531.02
41.6205	489.23
41.6350	497.99
41.6494	469.72
41.6639	460.03
41.6783	456.99
41.6927	442.79
41.7072	532.81
41.7216	502.70
41.7361	478.30
41.7505	508.60
41.7649	463.76
41.7794	482.68
41.7938	468.11
41.8083	500.40
41.8227	573.97
41.8371	535.12
41.8516	505.37
41.8660	499.46
41.8805	495.68
41.8949	532.58
41.9093	559.72
41.9238	557.49
41.9382	554.45
41.9527	559.71
41.9671	550.30
41.9815	544.44
41.9960	532.72
42.0104	519.39
42.0249	535.17
42.0393	560.74
42.0537	586.03
42.0682	538.95
42.0826	555.77
42.0971	584.52
42.1115	578.66
42.1259	623.16
42.1404	613.26
42.1548	587.82
42.1693	669.17
42.1837	694.12
42.1981	725.43
42.2126	864.35
42.2270	979.14
42.2415	1044.17
42.2559	1209.69
42.2703	1368.27
42.2848	1505.71
42.2992	1592.59
42.3137	1642.50
42.3281	1665.19
42.3425	1593.10
42.3570	1489.44
42.3714	1387.69
42.3859	1354.53
42.4003	1383.62
42.4147	1362.50
42.4292	1279.96
42.4436	1098.39
42.4581	1021.66
42.4725	953.21
42.4869	832.48
42.5014	730.57
42.5158	689.37
42.5303	669.92
42.5447	657.20
42.5591	633.84
42.5736	590.54
42.5880	591.11
42.6025	580.13
42.6169	575.96
42.6313	554.31
42.6458	577.43
42.6602	563.06
42.6747	523.23
42.6891	512.41
42.7035	520.30
42.7180	538.92
42.7324	559.08
42.7469	518.41
42.7613	517.72
42.7757	520.89
42.7902	561.60
42.8046	533.42
42.8191	534.78
42.8335	544.72
42.8479	509.25
42.8624	534.06
42.8768	522.07
42.8913	497.93
42.9057	513.82
42.9201	482.75
42.9346	497.79
42.9490	513.61
42.9635	505.65
42.9779	532.42
42.9923	519.74
43.0068	498.80
43.0212	490.15
43.0357	514.62
43.0501	515.79
43.0645	516.68
43.0790	546.14
43.0934	519.10
43.1079	505.67
43.1223	578.40
43.1367	545.92
43.1512	538.25
43.1656	526.25
43.1801	498.58
43.1945	514.53
43.2089	509.54
43.2234	529.01
43.2378	496.35
43.2523	523.81
43.2667	517.01
43.2811	537.10
43.2956	496.84
43.3100	534.37
43.3245	524.89
43.3389	550.51
43.3533	552.56
43.3678	513.70
43.3822	498.90
43.3967	513.81
43.4111	493.11
43.4255	505.28
43.4400	544.79
43.4544	507.27
43.4689	524.61
43.4833	499.90
43.4977	514.84
43.5122	497.35
43.5266	525.01
43.5411	505.32
43.5555	499.93
43.5699	513.30
43.5844	514.86
43.5988	500.71
43.6133	518.84
43.6277	546.01
43.6421	532.68
43.6566	532.31
43.6710	505.58
43.6855	515.52
43.6999	551.47
43.7143	512.71
43.7288	533.70
43.7432	521.54
43.7577	524.29
43.7721	504.07
43.7865	531.53
43.8010	517.16
43.8154	523.93
43.8299	523.74
43.8443	490.69
43.8587	545.28
43.8732	545.18
43.8876	499.71
43.9021	548.12
43.9165	551.86
43.9309	546.84
43.9454	516.36
43.9598	530.72
43.9743	522.96
43.9887	542.35
44.0031	550.56
44.0176	542.38
44.0320	523.64
44.0465	489.06
44.0609	521.56
44.0753	545.53
44.0898	533.37
44.1042	513.48
44.1187	534.01
44.1331	540.15
44.1475	555.16
44.1620	586.18
44.1764	553.97
44.1909	576.43
44.2053	645.15
44.2197	602.11
44.2342	611.91
44.2486	639.65
44.2631	569.64
44.2775	620.75
44.2919	610.47
44.3064	623.63
44.3208	620.99
44.3353	666.63
44.3497	592.80
44.3641	604.63
44.3786	581.00
44.3930	609.49
44.4075	619.83
44.4219	598.25
44.4363	617.04
44.4508	583.30
44.4652	650.46
44.4797	622.39
44.4941	602.05
44.5085	597.97
44.5230	605.49
44.5374	572.57
44.5519	567.68
44.5663	564.18
44.5807	570.91
44.5952	578.21
44.6096	604.11
44.6241	565.76
44.6385	599.15
44.6529	577.78
44.6674	574.04
44.6818	572.44
44.6963	626.30
44.7107	668.38
44.7251	653.10
44.7396	736.11
44.7540	816.80
44.7685	840.94
44.7829	867.71
44.7973	903.71
44.8118	840.44
44.8262	772.63
44.8407	747.83
44.8551	725.80
44.8695	745.36
44.8840	690.69
44.8984	788.32
44.9129	717.07
44.9273	678.19
44.9417	704.28
44.9562	602.92
44.9706	593.69
44.9851	569.59
44.9995	557.94
45.0139	518.91
45.0284	552.00
45.0428	511.56
45.0573	503.05
45.0717	537.28
45.0861	554.34
45.1006	511.55
45.1150	520.49
45.1295	541.19
45.1439	501.06
45.1583	510.69
45.1728	528.55
45.1872	524.44
45.2017	479.59
45.2161	515.29
45.2305	521.59
45.2450	510.41
45.2594	485.79
45.2739	515.44
45.2883	516.67
45.3028	528.95
45.3172	472.17
45.3316	509.79
45.3461	512.63
45.3605	512.63
45.3750	528.70
45.3894	548.29
45.4038	501.93
45.4183	501.91
45.4327	552.43
45.4472	505.19
45.4616	486.50
45.4760	479.05
45.4905	534.42
45.5049	523.74
45.5194	504.00
45.5338	487.08
45.5482	473.50
45.5627	501.97
45.5771	504.86
45.5916	514.90
45.6060	503.40
45.6204	509.16
45.6349	535.59
45.6493	526.68
45.6638	500.33
45.6782	516.96
45.6926	490.13
45.7071	512.92
45.7215	513.90
45.7360	508.10
45.7504	494.64
45.7648	488.40
45.7793	508.84
45.7937	509.05
45.8082	538.56
45.8226	513.82
45.8370	495.06
45.8515	486.04
45.8659	540.56
45.8804	521.09
45.8948	483.04
45.9092	530.76
45.9237	522.53
45.9381	474.77
45.9526	477.02
45.9670	495.97
45.9814	496.46
45.9959	502.56
46.0103	493.21
46.0248	487.70
46.0392	481.99
46.0536	508.51
46.0681	511.65
46.0825	487.51
46.0970	484.22
46.1114	518.64
46.1258	541.80
46.1403	526.70
46.1547	510.53
46.1692	522.32
46.1836	486.80
46.1980	482.26
46.2125	520.16
46.2269	519.83
46.2414	505.46
46.2558	478.31
46.2702	504.62
46.2847	511.04
46.2991	479.69
46.3136	498.80
46.3280	483.65
46.3424	505.06
46.3569	501.78
46.3713	497.04
46.3858	490.10
46.4002	491.70
46.4146	485.61
46.4291	515.24
46.4435	505.06
46.4580	510.95
46.4724	532.91
46.4868	508.81
46.5013	503.79
46.5157	504.79
46.5302	480.93
46.5446	490.89
46.5590	488.44
46.5735	492.51
46.5879	493.34
46.6024	506.62
46.6168	515.07
46.6312	505.97
46.6457	488.54
46.6601	479.04
46.6746	483.56
46.6890	474.06
46.7034	486.44
46.7179	507.96
46.7323	482.21
46.7468	490.61
46.7612	489.40
46.7756	504.01
46.7901	527.77
46.8045	521.89
46.8190	495.11
46.8334	522.68
46.8478	508.08
46.8623	508.39
46.8767	507.75
46.8912	507.40
46.9056	507.18
46.9200	522.01
46.9345	506.91
46.9489	485.57
46.9634	512.27
46.9778	494.10
46.9922	483.47
47.0067	489.84
47.0211	520.80
47.0356	524.07
47.0500	506.51
47.0644	525.07
47.0789	539.79
47.0933	527.16
47.1078	491.77
47.1222	501.66
47.1366	506.98
47.1511	472.01
47.1655	526.93
47.1800	539.27
47.1944	525.64
47.2088	482.83
47.2233	525.74
47.2377	496.36
47.2522	497.12
47.2666	502.86
47.2810	530.91
47.2955	531.20
47.3099	516.01
47.3244	489.35
47.3388	504.63
47.3532	508.96
47.3677	517.01
47.3821	520.03
47.3966	497.12
47.4110	485.81
47.4254	496.84
47.4399	516.02
47.4543	505.84
47.4688	504.88
47.4832	515.68
47.4976	483.80
47.5121	523.36
47.5265	474.89
47.5410	499.52
47.5554	492.70
47.5698	483.83
47.5843	495.82
47.5987	519.03
47.6132	507.97
47.6276	517.08
47.6420	494.48
47.6565	527.55
47.6709	480.70
47.6854	476.54
47.6998	503.26
47.7142	530.68
47.7287	502.24
47.7431	494.20
47.7576	513.45
47.7720	476.15
47.7864	508.27
47.8009	517.45
47.8153	536.91
47.8298	545.24
47.8442	479.46
47.8586	490.87
47.8731	487.11
47.8875	506.44
47.9020	541.62
47.9164	516.91
47.9308	533.37
47.9453	539.93
47.9597	521.25
47.9742	525.84
47.9886	548.34
48.0030	523.36
48.0175	527.30
48.0319	540.21
48.0464	512.49
48.0608	486.45
48.0752	479.17
48.0897	545.04
48.1041	527.37
48.1186	517.22
48.1330	512.52
48.1474	496.21
48.1619	524.55
48.1763	509.02
48.1908	480.94
48.2052	489.23
48.2196	504.88
48.2341	520.48
48.2485	480.03
48.2630	492.31
48.2774	498.57
48.2918	505.46
48.3063	511.56
48.3207	529.61
48.3352	549.72
48.3496	524.75
48.3640	497.01
48.3785	499.87
48.3929	487.12
48.4074	490.37
48.4218	523.72
48.4362	524.23
48.4507	487.60
48.4651	509.29
48.4796	529.75
48.4940	534.05
48.5084	538.74
48.5229	509.73
48.5373	535.25
48.5518	509.83
48.5662	500.33
48.5806	491.22
48.5951	508.32
48.6095	496.29
48.6240	516.20
48.6384	505.28
48.6528	495.21
48.6673	509.69
48.6817	500.43
48.6962	518.74
48.7106	535.88
48.7250	525.99
48.7395	540.94
48.7539	510.12
48.7684	494.46
48.7828	544.47
48.7972	527.61
48.8117	543.08
48.8261	517.23
48.8406	543.15
48.8550	528.28
48.8694	578.05
48.8839	553.24
48.8983	529.04
48.9128	574.18
48.9272	536.77
48.9416	559.38
48.9561	573.74
48.9705	555.44
48.9850	569.90
48.9994	531.81
49.0139	571.63
49.0283	599.52
49.0427	601.75
49.0572	644.03
49.0716	642.70
49.0861	683.23
49.1005	704.56
49.1149	691.95
49.1294	725.55
49.1438	769.22
49.1583	812.58
49.1727	826.31
49.1871	915.49
49.2016	884.15
49.2160	998.57
49.2305	1118.11
49.2449	1209.65
49.2593	1262.24
49.2738	1369.44
49.2882	1505.95
49.3027	1560.97
49.3171	1631.09
49.3315	1684.89
49.3460	1771.78
49.3604	1760.72
49.3749	1872.48
49.3893	1775.50
49.4037	1787.62
49.4182	1746.98
49.4326	1697.98
49.4471	1729.95
49.4615	1672.79
49.4759	1577.32
49.4904	1464.22
49.5048	1391.36
49.5193	1305.92
49.5337	1265.81
49.5481	1242.46
49.5626	1126.75
49.5770	1049.06
49.5915	1015.53
49.6059	923.16
49.6203	889.70
49.6348	827.06
49.6492	768.26
49.6637	732.51
49.6781	730.12
49.6925	723.61
49.7070	667.80
49.7214	644.02
49.7359	626.21
49.7503	624.46
49.7647	605.78
49.7792	605.20
49.7936	602.95
49.8081	562.28
49.8225	563.10
49.8369	582.60
49.8514	588.50
49.8658	589.87
49.8803	566.79
49.8947	568.73
49.9091	567.58
49.9236	520.30
49.9380	557.72
49.9525	570.00
49.9669	543.52
49.9813	551.56
49.9958	527.14
50.0102	505.01
50.0247	558.15
50.0391	549.42
50.0535	545.38
50.0680	543.65
50.0824	544.54
50.0969	525.48
50.1113	516.52
50.1257	518.56
50.1402	523.03
50.1546	511.47
50.1691	562.73
50.1835	543.83
50.1979	482.87
50.2124	553.92
50.2268	535.76
50.2413	527.19
50.2557	503.94
50.2701	491.94
50.2846	513.11
50.2990	502.44
50.3135	491.52
50.3279	509.59
50.3423	532.34
50.3568	489.71
50.3712	509.33
50.3857	489.44
50.4001	497.25
50.4145	508.61
50.4290	531.46
50.4434	543.43
50.4579	555.99
50.4723	548.10
50.4867	524.02
50.5012	523.23
50.5156	512.07
50.5301	538.73
50.5445	492.25
50.5589	498.56
50.5734	535.30
50.5878	513.02
50.6023	496.00
50.6167	488.38
50.6311	527.82
50.6456	529.60
50.6600	507.68
50.6745	484.27
50.6889	500.59
50.7033	493.00
50.7178	497.57
50.7322	544.39
50.7467	522.83
50.7611	488.65
50.7755	477.52
50.7900	519.89
50.8044	532.50
50.8189	523.98
50.8333	511.82
50.8477	535.19
50.8622	503.99
50.8766	479.86
50.8911	485.27
50.9055	509.09
50.9199	488.60
50.9344	508.84
50.9488	523.62
50.9633	514.79
50.9777	507.86
50.9921	512.16
51.0066	530.31
51.0210	521.16
51.0355	530.62
51.0499	518.20
51.0643	486.45
51.0788	506.87
51.0932	528.54
51.1077	531.67
51.1221	515.93
51.1365	477.33
51.1510	496.59
51.1654	516.43
51.1799	491.49
51.1943	528.66
51.2087	504.86
51.2232	516.61
51.2376	507.41
51.2521	536.33
51.2665	529.31
51.2809	534.48
51.2954	521.38
51.3098	510.51
51.3243	492.97
51.3387	529.44
51.3531	519.15
51.3676	512.35
51.3820	494.96
51.3965	532.00
51.4109	485.65
51.4253	494.89
51.4398	511.66
51.4542	511.34
51.4687	507.82
51.4831	536.39
51.4975	497.98
51.5120	483.51
51.5264	536.09
51.5409	531.05
51.5553	521.53
51.5697	476.92
51.5842	485.80
51.5986	522.52
51.6131	476.48
51.6275	495.71
51.6419	491.96
51.6564	486.99
51.6708	511.08
51.6853	505.60
51.6997	505.88
51.7141	517.19
51.7286	512.28
51.7430	519.55
51.7575	495.92
51.7719	526.77
51.7863	529.75
51.8008	498.21
51.8152	484.96
51.8297	494.10
51.8441	490.82
51.8585	527.13
51.8730	526.45
51.8874	504.10
51.9019	512.43
51.9163	524.53
51.9307	528.25
51.9452	524.05
51.9596	538.46
51.9741	513.73
51.9885	520.41
52.0029	497.58
52.0174	499.86
52.0318	485.47
52.0463	505.99
52.0607	526.98
52.0751	519.28
52.0896	519.20
52.1040	492.84
52.1185	527.60
52.1329	510.77
52.1473	485.83
52.1618	508.43
52.1762	481.65
52.1907	523.24
52.2051	530.83
52.2195	541.87
52.2340	513.24
52.2484	475.74
52.2629	488.56
52.2773	504.21
52.2917	497.15
52.3062	522.58
52.3206	506.86
52.3351	509.55
52.3495	511.46
52.3639	489.97
52.3784	506.22
52.3928	492.46
52.4073	526.22
52.4217	520.88
52.4361	529.34
52.4506	515.21
52.4650	569.79
52.4795	495.50
52.4939	492.13
52.5083	512.00
52.5228	536.84
52.5372	522.04
52.5517	501.96
52.5661	509.05
52.5805	522.91
52.5950	497.20
52.6094	486.15
52.6239	492.13
52.6383	512.30
52.6527	505.30
52.6672	499.93
52.6816	483.45
52.6961	498.34
52.7105	525.25
52.7250	501.29
52.7394	512.14
52.7538	496.05
52.7683	488.16
52.7827	537.48
52.7972	503.29
52.8116	494.26
52.8260	495.55
52.8405	504.81
52.8549	507.04
52.8694	502.47
52.8838	525.19
52.8982	545.77
52.9127	526.02
52.9271	527.55
52.9416	542.14
52.9560	527.76
52.9704	562.77
52.9849	553.60
52.9993	516.82
53.0138	489.81
53.0282	536.33
53.0426	481.69
53.0571	539.17
53.0715	555.93
53.0860	564.08
53.1004	552.98
53.1148	524.28
53.1293	494.45
53.1437	511.90
53.1582	481.14
53.1726	481.32
53.1870	516.52
53.2015	483.46
53.2159	495.64
53.2304	509.65
53.2448	510.92
53.2592	483.28
53.2737	489.87
53.2881	498.40
53.3026	489.04
53.3170	517.31
53.3314	522.66
53.3459	474.85
53.3603	489.66
53.3748	512.95
53.3892	502.45
53.4036	516.37
53.4181	495.73
53.4325	542.59
53.4470	511.11
53.4614	496.83
53.4758	522.31
53.4903	532.07
53.5047	511.71
53.5192	517.26
53.5336	528.63
53.5480	535.99
53.5625	556.52
53.5769	507.18
53.5914	510.11
53.6058	519.27
53.6202	506.62
53.6347	516.63
53.6491	492.24
53.6636	495.81
53.6780	516.78
53.6924	512.45
53.7069	560.15
53.7213	518.57
53.7358	466.50
53.7502	522.16
53.7646	496.43
53.7791	525.07
53.7935	526.20
53.8080	489.66
53.8224	497.58
53.8368	536.65
53.8513	504.59
53.8657	508.59
53.8802	514.32
53.8946	503.53
53.9090	509.59
53.9235	521.59
53.9379	498.11
53.9524	477.47
53.9668	523.16
53.9812	523.69
53.9957	528.86
54.0101	512.90
54.0246	520.56
54.0390	489.05
54.0534	476.83
54.0679	497.75
54.0823	536.73
54.0968	533.90
54.1112	510.42
54.1256	522.16
54.1401	500.27
54.1545	509.86
54.1690	543.72
54.1834	547.68
54.1978	503.60
54.2123	516.14
54.2267	518.86
54.2412	536.89
54.2556	524.95
54.2700	553.59
54.2845	542.53
54.2989	517.38
54.3134	488.48
54.3278	538.01
54.3422	523.52
54.3567	521.32
54.3711	515.03
54.3856	512.74
54.4000	519.41
54.4144	526.58
54.4289	526.84
54.4433	513.89
54.4578	525.63
54.4722	550.27
54.4866	544.91
54.5011	537.83
54.5155	517.48
54.5300	506.03
54.5444	532.58
54.5588	528.76
54.5733	525.34
54.5877	502.67
54.6022	536.66
54.6166	532.26
54.6310	542.20
54.6455	479.97
54.6599	490.22
54.6744	514.45
54.6888	517.09
54.7032	565.82
54.7177	574.64
54.7321	534.08
54.7466	555.04
54.7610	544.92
54.7754	569.99
54.7899	585.66
54.8043	564.97
54.8188	583.33
54.8332	542.22
54.8476	533.86
54.8621	565.42
54.8765	592.23
54.8910	612.17
54.9054	643.21
54.9198	597.01
54.9343	578.80
54.9487	597.85
54.9632	607.07
54.9776	552.22
54.9920	541.76
55.0065	586.84
55.0209	603.60
55.0354	582.32
55.0498	575.47
55.0642	568.03
55.0787	577.20
55.0931	605.96
55.1076	572.79
55.1220	522.09
55.1364	560.44
55.1509	548.87
55.1653	525.94
55.1798	550.07
55.1942	557.65
55.2086	545.41
55.2231	522.46
55.2375	520.43
55.2520	530.63
55.2664	497.64
55.2808	557.92
55.2953	554.48
55.3097	541.68
55.3242	536.66
55.3386	554.61
55.3530	566.15
55.3675	549.22
55.3819	516.51
55.3964	522.62
55.4108	503.85
55.4252	538.92
55.4397	517.90
55.4541	514.08
55.4686	523.61
55.4830	558.49
55.4974	501.28
55.5119	515.69
55.5263	522.39
55.5408	519.43
55.5552	540.82
55.5696	530.10
55.5841	550.42
55.5985	550.43
55.6130	519.63
55.6274	541.70
55.6418	482.87
55.6563	503.10
55.6707	549.85
55.6852	495.87
55.6996	534.26
55.7140	561.61
55.7285	525.84
55.7429	528.35
55.7574	519.49
55.7718	525.36
55.7862	535.56
55.8007	551.27
55.8151	523.89
55.8296	508.87
55.8440	549.15
55.8584	532.16
55.8729	523.02
55.8873	534.05
55.9018	565.55
55.9162	513.77
55.9306	515.97
55.9451	536.43
55.9595	527.87
55.9740	520.67
55.9884	531.34
56.0028	527.24
56.0173	521.37
56.0317	533.20
56.0462	535.67
56.0606	506.66
56.0750	539.18
56.0895	517.40
56.1039	524.76
56.1184	512.39
56.1328	513.80
56.1472	518.82
56.1617	498.34
56.1761	509.80
56.1906	505.33
56.2050	524.30
56.2194	528.80
56.2339	535.64
56.2483	522.69
56.2628	530.95
56.2772	543.70
56.2916	496.49
56.3061	532.58
56.3205	516.87
56.3350	527.09
56.3494	495.91
56.3639	521.38
56.3783	473.17
56.3927	578.58
56.4072	515.60
56.4216	524.20
56.4361	534.48
56.4505	528.93
56.4649	539.26
56.4794	542.58
56.4938	491.73
56.5083	516.28
56.5227	493.93
56.5371	542.04
56.5516	546.19
56.5660	504.30
56.5805	536.22
56.5949	498.03
56.6093	505.27
56.6238	522.45
56.6382	521.94
56.6527	475.61
56.6671	492.07
56.6815	500.82
56.6960	496.98
56.7104	517.08
56.7249	541.89
56.7393	514.81
56.7537	529.92
56.7682	477.96
56.7826	517.37
56.7971	552.42
56.8115	563.28
56.8259	506.05
56.8404	493.57
56.8548	540.95
56.8693	570.65
56.8837	524.92
56.8981	518.76
56.9126	538.75
56.9270	455.98
56.9415	531.38
56.9559	511.30
56.9703	497.61
56.9848	501.04
56.9992	487.11
57.0137	492.75
57.0281	516.99
57.0425	531.86
57.0570	544.56
57.0714	503.88
57.0859	529.83
57.1003	525.32
57.1147	514.86
57.1292	541.12
57.1436	499.75
57.1581	551.68
57.1725	507.79
57.1869	543.20
57.2014	493.95
57.2158	538.05
57.2303	513.24
57.2447	519.39
57.2591	518.24
57.2736	531.73
57.2880	538.45
57.3025	555.85
57.3169	553.19
57.3313	573.31
57.3458	538.52
57.3602	537.47
57.3747	538.77
57.3891	502.42
57.4035	521.25
57.4180	514.04
57.4324	556.97
57.4469	497.97
57.4613	527.75
57.4757	544.93
57.4902	545.39
57.5046	522.33
57.5191	498.27
57.5335	530.63
57.5479	537.76
57.5624	527.15
57.5768	539.99
57.5913	536.84
57.6057	522.77
57.6201	479.94
57.6346	526.11
57.6490	521.76
57.6635	524.60
57.6779	510.40
57.6923	482.73
57.7068	525.68
57.7212	526.68
57.7357	502.11
57.7501	536.42
57.7645	553.31
57.7790	535.23
57.7934	516.76
57.8079	525.90
57.8223	518.71
57.8367	534.04
57.8512	525.51
57.8656	518.57
57.8801	521.75
57.8945	543.29
57.9089	548.32
57.9234	507.95
57.9378	510.70
57.9523	523.04
57.9667	564.33
57.9811	535.50
57.9956	558.25
58.0100	541.14
58.0245	504.07
58.0389	530.65
58.0533	520.35
58.0678	534.02
58.0822	519.23
58.0967	517.42
58.1111	533.46
58.1255	519.95
58.1400	520.12
58.1544	551.72
58.1689	547.53
58.1833	520.16
58.1977	535.33
58.2122	538.60
58.2266	543.48
58.2411	538.12
58.2555	554.44
58.2699	572.86
58.2844	595.73
58.2988	548.66
58.3133	539.66
58.3277	563.43
58.3421	601.80
58.3566	570.18
58.3710	572.49
58.3855	578.99
58.3999	596.00
58.4143	567.41
58.4288	615.44
58.4432	569.85
58.4577	606.01
58.4721	636.47
58.4865	617.89
58.5010	605.67
58.5154	604.20
58.5299	581.14
58.5443	611.50
58.5587	651.73
58.5732	640.99
58.5876	617.57
58.6021	619.87
58.6165	621.75
58.6309	643.70
58.6454	627.65
58.6598	630.94
58.6743	637.05
58.6887	616.18
58.7031	603.21
58.7176	622.80
58.7320	595.55
58.7465	590.70
58.7609	613.04
58.7753	612.89
58.7898	557.47
58.8042	576.10
58.8187	576.46
58.8331	570.30
58.8475	550.78
58.8620	579.33
58.8764	589.68
58.8909	562.55
58.9053	591.55
58.9197	583.17
58.9342	578.62
58.9486	578.15
58.9631	540.24
58.9775	528.31
58.9919	562.10
59.0064	536.16
59.0208	589.95
59.0353	571.09
59.0497	532.60
59.0641	597.18
59.0786	555.85
59.0930	551.85
59.1075	539.26
59.1219	549.54
59.1363	542.53
59.1508	547.48
59.1652	557.16
59.1797	558.55
59.1941	512.69
59.2085	526.41
59.2230	556.02
59.2374	594.13
59.2519	562.84
59.2663	559.75
59.2807	580.38
59.2952	566.35
59.3096	527.36
59.3241	571.92
59.3385	583.40
59.3529	603.01
59.3674	562.41
59.3818	584.24
59.3963	551.38
59.4107	554.39
59.4251	580.41
59.4396	532.12
59.4540	545.03
59.4685	586.55
59.4829	580.47
59.4973	554.10
59.5118	542.38
59.5262	549.21
59.5407	603.23
59.5551	582.99
59.5695	551.33
59.5840	562.15
59.5984	554.32
59.6129	534.10
59.6273	545.53
59.6417	524.86
59.6562	535.71
59.6706	553.18
59.6851	533.55
59.6995	579.51
59.7139	598.16
59.7284	549.30
59.7428	525.43
59.7573	565.43
59.7717	531.34
59.7861	537.71
59.8006	532.51
59.8150	543.14
59.8295	559.17
59.8439	535.56
59.8583	573.43
59.8728	540.47
59.8872	538.08
59.9017	557.87
59.9161	552.80
59.9305	561.21
59.9450	537.26
59.9594	518.31
59.9739	514.98
59.9883	526.82
60.0027	517.64
60.0172	556.95
60.0316	567.29
60.0461	538.83
60.0605	534.22
60.0750	559.58
60.0894	569.97
60.1038	499.15
60.1183	551.96
60.1327	577.76
60.1472	528.42
60.1616	537.34
60.1760	557.86
60.1905	555.23
60.2049	530.71
60.2194	526.00
60.2338	519.62
60.2482	505.53
60.2627	502.82
60.2771	552.05
60.2916	540.12
60.3060	537.64
60.3204	553.92
60.3349	538.76
60.3493	548.80
60.3638	549.68
60.3782	549.49
60.3926	575.32
60.4071	548.82
60.4215	567.23
60.4360	579.62
60.4504	514.88
60.4648	576.94
60.4793	573.69
60.4937	579.76
60.5082	549.05
60.5226	580.08
60.5370	542.90
60.5515	552.64
60.5659	530.62
60.5804	555.44
60.5948	566.01
60.6092	556.98
60.6237	510.48
60.6381	527.46
60.6526	563.93
60.6670	548.95
60.6814	538.04
60.6959	530.95
60.7103	558.49
60.7248	533.28
60.7392	568.67
60.7536	551.25
60.7681	537.76
60.7825	542.01
60.7970	559.67
60.8114	553.97
60.8258	544.95
60.8403	529.71
60.8547	535.53
60.8692	557.61
60.8836	549.41
60.8980	531.63
60.9125	519.95
60.9269	535.08
60.9414	554.61
60.9558	510.10
60.9702	557.44
60.9847	554.60
60.9991	532.55
61.0136	519.92
61.0280	531.37
61.0424	544.53
61.0569	589.36
61.0713	533.74
61.0858	576.60
61.1002	555.02
61.1146	567.28
61.1291	577.81
61.1435	564.48
61.1580	578.54
61.1724	575.87
61.1868	535.70
61.2013	552.74
61.2157	553.35
61.2302	579.52
61.2446	567.84
61.2590	531.43
61.2735	519.07
61.2879	544.07
61.3024	571.78
61.3168	523.02
61.3312	556.75
61.3457	545.09
61.3601	529.19
61.3746	566.25
61.3890	560.55
61.4034	520.01
61.4179	538.18
61.4323	548.57
61.4468	564.90
61.4612	545.43
61.4756	578.62
61.4901	576.67
61.5045	535.78
61.5190	553.85
61.5334	543.75
61.5478	561.27
61.5623	542.97
61.5767	544.97
61.5912	523.36
61.6056	516.95
61.6200	519.48
61.6345	521.82
61.6489	555.33
61.6634	554.62
61.6778	547.65
61.6922	509.65
61.7067	549.66
61.7211	541.29
61.7356	533.87
61.7500	561.57
61.7644	529.50
61.7789	587.04
61.7933	574.81
61.8078	529.95
61.8222	506.96
61.8366	547.36
61.8511	518.60
61.8655	555.27
61.8800	574.72
61.8944	572.18
61.9088	571.46
61.9233	548.25
61.9377	561.30
61.9522	549.47
61.9666	547.90
61.9810	522.47
61.9955	563.09
62.0099	547.58
62.0244	545.87
62.0388	559.39
62.0532	563.10
62.0677	553.26
62.0821	532.83
62.0966	531.94
62.1110	544.72
62.1254	561.96
62.1399	571.35
62.1543	578.72
62.1688	570.83
62.1832	578.63
62.1976	555.38
62.2121	526.37
62.2265	546.10
62.2410	573.63
62.2554	558.47
62.2698	540.44
62.2843	586.34
62.2987	570.81
62.3132	527.24
62.3276	557.45
62.3420	571.27
62.3565	557.20
62.3709	550.23
62.3854	566.84
62.3998	518.50
62.4142	527.78
62.4287	564.97
62.4431	573.60
62.4576	545.75
62.4720	561.87
62.4864	573.24
62.5009	544.56
62.5153	571.82
62.5298	563.12
62.5442	553.24
62.5586	564.17
62.5731	549.31
62.5875	547.40
62.6020	564.88
62.6164	541.38
62.6308	557.06
62.6453	549.90
62.6597	550.92
62.6742	558.43
62.6886	555.49
62.7030	563.98
62.7175	593.67
62.7319	547.60
62.7464	580.53
62.7608	541.78
62.7752	545.02
62.7897	565.88
62.8041	538.36
62.8186	547.42
62.8330	563.27
62.8474	561.16
62.8619	560.43
62.8763	569.61
62.8908	552.43
62.9052	581.18
62.9196	574.48
62.9341	576.53
62.9485	582.48
62.9630	562.53
62.9774	575.15
62.9918	547.10
63.0063	571.24
63.0207	597.83
63.0352	559.23
63.0496	588.87
63.0640	588.60
63.0785	564.22
63.0929	547.12
63.1074	573.18
63.1218	610.37
63.1362	627.07
63.1507	569.70
63.1651	555.92
63.1796	548.19
63.1940	537.72
63.2084	582.84
63.2229	554.49
63.2373	562.73
63.2518	567.34
63.2662	570.71
63.2806	594.93
63.2951	568.85
63.3095	561.17
63.3240	585.50
63.3384	568.90
63.3528	558.13
63.3673	552.78
63.3817	563.55
63.3962	588.12
63.4106	584.97
63.4250	576.71
63.4395	574.54
63.4539	574.18
63.4684	607.05
63.4828	584.77
63.4972	619.74
63.5117	590.12
63.5261	579.08
63.5406	588.63
63.5550	566.29
63.5694	574.85
63.5839	579.59
63.5983	552.86
63.6128	561.33
63.6272	559.46
63.6416	582.39
63.6561	591.95
63.6705	604.00
63.6850	568.96
63.6994	574.71
63.7138	604.71
63.7283	593.69
63.7427	585.25
63.7572	587.22
63.7716	593.09
63.7861	577.36
63.8005	570.82
63.8149	568.20
63.8294	593.59
63.8438	566.42
63.8583	606.33
63.8727	589.33
63.8871	623.18
63.9016	623.07
63.9160	645.14
63.9305	608.88
63.9449	576.12
63.9593	595.73
63.9738	627.07
63.9882	629.08
64.0027	647.32
64.0171	632.24
64.0315	619.07
64.0460	636.22
64.0604	634.46
64.0749	631.16
64.0893	613.44
64.1037	654.98
64.1182	641.05
64.1326	669.25
64.1471	655.79
64.1615	690.92
64.1759	710.24
64.1904	718.46
64.2048	722.23
64.2193	714.80
64.2337	743.06
64.2481	763.72
64.2626	713.12
64.2770	766.68
64.2915	775.50
64.3059	799.28
64.3203	806.18
64.3348	786.92
64.3492	756.65
64.3637	778.90
64.3781	785.05
64.3925	765.26
64.4070	766.03
64.4214	763.48
64.4359	761.63
64.4503	704.71
64.4647	746.33
64.4792	785.28
64.4936	811.51
64.5081	728.15
64.5225	750.22
64.5369	772.04
64.5514	735.85
64.5658	733.99
64.5803	729.28
64.5947	740.92
64.6091	693.74
64.6236	709.63
64.6380	716.91
64.6525	692.95
64.6669	738.55
64.6813	757.72
64.6958	721.84
64.7102	746.99
64.7247	728.46
64.7391	715.59
64.7535	717.65
64.7680	754.68
64.7824	768.80
64.7969	790.42
64.8113	797.15
64.8257	817.38
64.8402	804.97
64.8546	835.27
64.8691	859.58
64.8835	876.48
64.8979	841.19
64.9124	868.30
64.9268	919.75
64.9413	948.62
64.9557	944.36
64.9701	989.68
64.9846	1039.90
64.9990	1133.53
65.0135	1307.74
65.0279	1524.23
65.0423	1761.15
65.0568	2052.03
65.0712	2652.54
65.0857	3544.92
65.1001	4684.80
65.1145	6346.15
65.1290	8300.64
65.1434	9905.50
65.1579	11348.07
65.1723	11925.07
65.1867	11191.28
65.2012	9776.56
65.2156	8122.21
65.2301	6444.68
65.2445	5178.78
65.2589	4442.71
65.2734	4148.54
65.2878	4446.48
65.3023	5085.15
65.3167	5967.89
65.3311	6722.83
65.3456	7125.95
65.3600	7029.17
65.3745	6391.88
65.3889	5424.94
65.4033	4346.57
65.4178	3424.21
65.4322	2614.82
65.4467	1977.53
65.4611	1672.68
65.4755	1459.44
65.4900	1338.26
65.5044	1135.07
65.5189	1066.24
65.5333	1004.66
65.5477	929.63
65.5622	863.90
65.5766	854.57
65.5911	800.57
65.6055	784.81
65.6199	799.05
65.6344	775.92
65.6488	771.95
65.6633	762.05
65.6777	764.70
65.6921	726.35
65.7066	723.35
65.7210	700.08
65.7355	691.78
65.7499	709.88
65.7643	657.92
65.7788	695.41
65.7932	662.06
65.8077	667.51
65.8221	640.29
65.8365	658.36
65.8510	676.97
65.8654	615.96
65.8799	604.49
65.8943	636.25
65.9087	682.81
65.9232	636.06
65.9376	664.14
65.9521	647.94
65.9665	627.25
65.9809	651.16
65.9954	656.01
66.0098	678.65
66.0243	666.70
66.0387	638.87
66.0531	640.93
66.0676	641.37
66.0820	618.30
66.0965	622.93
66.1109	637.43
66.1253	633.20
66.1398	606.93
66.1542	623.61
66.1687	643.93
66.1831	614.51
66.1975	612.99
66.2120	575.42
66.2264	576.88
66.2409	626.67
66.2553	615.33
66.2697	596.28
66.2842	612.38
66.2986	614.28
66.3131	603.12
66.3275	630.68
66.3419	620.86
66.3564	618.38
66.3708	574.08
66.3853	600.43
66.3997	606.58
66.4141	597.06
66.4286	615.71
66.4430	577.65
66.4575	604.22
66.4719	595.27
66.4863	625.59
66.5008	584.80
66.5152	587.62
66.5297	622.60
66.5441	606.10
66.5585	615.95
66.5730	588.95
66.5874	598.53
66.6019	575.88
66.6163	599.34
66.6307	586.66
66.6452	579.49
66.6596	577.25
66.6741	594.67
66.6885	608.56
66.7029	590.73
66.7174	585.01
66.7318	569.02
66.7463	587.49
66.7607	571.92
66.7751	571.63
66.7896	577.09
66.8040	603.97
66.8185	611.40
66.8329	595.74
66.8473	600.51
66.8618	583.97
66.8762	590.87
66.8907	601.37
66.9051	571.55
66.9195	537.80
66.9340	585.36
66.9484	587.72
66.9629	540.34
66.9773	565.53
66.9917	585.22
67.0062	611.39
67.0206	611.33
67.0351	602.07
67.0495	584.86
67.0639	609.62
67.0784	582.11
67.0928	590.92
67.1073	601.64
67.1217	586.27
67.1361	565.64
67.1506	557.81
67.1650	576.61
67.1795	580.96
67.1939	595.97
67.2083	621.06
67.2228	597.57
67.2372	597.55
67.2517	600.27
67.2661	601.26
67.2805	589.66
67.2950	553.13
67.3094	598.38
67.3239	556.30
67.3383	585.78
67.3527	557.00
67.3672	580.75
67.3816	584.76
67.3961	600.10
67.4105	576.83
67.4250	608.19
67.4394	596.81
67.4538	593.35
67.4683	589.54
67.4827	553.87
67.4972	607.76
67.5116	574.44
67.5260	559.39
67.5405	599.70
67.5549	623.60
67.5694	590.47
67.5838	602.88
67.5982	572.60
67.6127	588.94
67.6271	553.58
67.6416	582.25
67.6560	568.24
67.6704	565.48
67.6849	582.24
67.6993	595.04
67.7138	591.45
67.7282	590.51
67.7426	588.24
67.7571	577.52
67.7715	585.83
67.7860	527.99
67.8004	574.89
67.8148	585.01
67.8293	572.77
67.8437	584.24
67.8582	588.89
67.8726	600.55
67.8870	569.76
67.9015	609.78
67.9159	591.29
67.9304	601.58
67.9448	584.65
67.9592	530.02
67.9737	583.03
67.9881	526.97
68.0026	596.13
68.0170	572.03
68.0314	550.17
68.0459	570.37
68.0603	630.35
68.0748	602.66
68.0892	590.21
68.1036	598.84
68.1181	587.11
68.1325	585.61
68.1470	556.88
68.1614	588.39
68.1758	571.91
68.1903	594.52
68.2047	563.15
68.2192	558.25
68.2336	544.15
68.2480	552.03
68.2625	589.33
68.2769	548.67
68.2914	563.73
68.3058	550.88
68.3202	558.82
68.3347	605.64
68.3491	593.65
68.3636	534.79
68.3780	565.44
68.3924	553.56
68.4069	546.29
68.4213	551.98
68.4358	568.14
68.4502	503.87
68.4646	559.22
68.4791	592.31
68.4935	595.93
68.5080	574.38
68.5224	613.93
68.5368	602.40
68.5513	579.12
68.5657	569.17
68.5802	559.36
68.5946	581.90
68.6090	581.65
68.6235	582.93
68.6379	594.12
68.6524	612.66
68.6668	569.19
68.6812	566.74
68.6957	550.97
68.7101	604.79
68.7246	611.53
68.7390	615.38
68.7534	589.37
68.7679	622.82
68.7823	607.60
68.7968	577.94
68.8112	603.89
68.8256	573.69
68.8401	579.32
68.8545	577.55
68.8690	620.93
68.8834	617.13
68.8978	622.55
68.9123	564.82
68.9267	592.67
68.9412	581.41
68.9556	578.05
68.9700	565.21
68.9845	627.94
68.9989	558.83
69.0134	586.78
69.0278	560.67
69.0422	551.12
69.0567	569.91
69.0711	622.13
69.0856	602.90
69.1000	567.83
69.1144	548.18
69.1289	578.19
69.1433	586.74
69.1578	530.30
69.1722	594.47
69.1866	541.82
69.2011	550.18
69.2155	587.87
69.2300	569.57
69.2444	609.85
69.2588	550.03
69.2733	536.85
69.2877	587.18
69.3022	595.45
69.3166	602.42
69.3310	589.08
69.3455	590.78
69.3599	574.08
69.3744	548.42
69.3888	525.24
69.4032	581.67
69.4177	574.19
69.4321	603.21
69.4466	538.19
69.4610	540.20
69.4754	568.53
69.4899	546.15
69.5043	549.53
69.5188	588.57
69.5332	583.92
69.5476	600.88
69.5621	577.73
69.5765	598.83
69.5910	583.49
69.6054	583.44
69.6198	607.75
69.6343	567.27
69.6487	567.50
69.6632	597.43
69.6776	559.08
69.6920	561.92
69.7065	534.54
69.7209	583.36
69.7354	568.22
69.7498	590.61
69.7642	557.03
69.7787	576.41
69.7931	597.59
69.8076	617.79
69.8220	548.39
69.8364	570.77
69.8509	540.37
69.8653	556.48
69.8798	617.54
69.8942	542.23
69.9086	553.47
69.9231	592.31
69.9375	581.94
69.9520	582.73
69.9664	588.47
69.9808	582.03
69.9953	556.79
70.0097	559.32
70.0242	566.93
70.0386	538.60
70.0530	545.82
70.0675	511.17
70.0819	576.82
70.0964	524.08
70.1108	569.24
70.1252	579.29
70.1397	576.44
70.1541	583.52
70.1686	602.21
70.1830	617.71
70.1974	577.90
70.2119	616.79
70.2263	573.15
70.2408	584.80
70.2552	563.63
70.2696	544.44
70.2841	559.35
70.2985	591.25
70.3130	532.61
70.3274	529.13
70.3418	588.66
70.3563	603.06
70.3707	580.23
70.3852	563.49
70.3996	580.29
70.4140	568.72
70.4285	665.02
70.4429	625.92
70.4574	576.17
70.4718	598.23
70.4862	615.48
70.5007	568.46
70.5151	530.15
70.5296	632.49
70.5440	570.54
70.5584	561.69
70.5729	568.59
70.5873	537.87
70.6018	496.58
70.6162	547.36
70.6306	566.18
70.6451	506.74
70.6595	606.05
70.6740	594.19
70.6884	574.80
70.7028	572.51
70.7173	599.84
70.7317	587.08
70.7462	547.90
70.7606	557.15
70.7750	595.31
70.7895	644.92
70.8039	624.15
70.8184	603.08
70.8328	545.48
70.8472	548.30
70.8617	537.76
70.8761	553.77
70.8906	560.33
70.9050	601.27
70.9194	533.35
70.9339	541.52
70.9483	584.78
70.9628	575.33
70.9772	529.58
70.9916	570.63
71.0061	565.04
71.0205	572.92
71.0350	590.10
71.0494	618.43
71.0638	594.13
71.0783	592.87
71.0927	585.45
71.1072	604.03
71.1216	544.70
71.1361	545.95
71.1505	618.82
71.1649	595.14
71.1794	577.78
71.1938	586.90
71.2083	606.17
71.2227	558.26
71.2371	563.14
71.2516	556.42
71.2660	587.40
71.2805	601.82
71.2949	534.33
71.3093	597.60
71.3238	604.88
71.3382	606.58
71.3527	562.81
71.3671	561.00
71.3815	622.06
71.3960	596.78
71.4104	539.56
71.4249	560.67
71.4393	560.53
71.4537	540.95
71.4682	594.21
71.4826	619.99
71.4971	601.33
71.5115	561.19
71.5259	502.00
71.5404	456.98
71.5548	542.65
71.5693	595.05
71.5837	619.04
71.5981	547.93
71.6126	538.50
71.6270	573.40
71.6415	583.02
71.6559	566.67
71.6703	612.45
71.6848	592.22
71.6992	566.12
71.7137	566.48
71.7281	545.94
71.7425	582.11
71.7570	575.00
71.7714	554.07
71.7859	559.38
71.8003	572.75
71.8147	596.55
71.8292	580.18
71.8436	579.33
71.8581	576.52
71.8725	536.16
71.8869	524.12
71.9014	617.56
71.9158	543.06
71.9303	511.51
71.9447	595.96
71.9591	653.26
71.9736	660.47
71.9880	629.27
72.0025	607.13
72.0169	618.62
72.0313	643.27
72.0458	635.15
72.0602	605.56
72.0747	526.44
72.0891	517.47
72.1035	600.11
72.1180	563.59
72.1324	551.48
72.1469	573.52
72.1613	595.48
72.1757	568.95
72.1902	645.25
72.2046	649.24
72.2191	559.28
72.2335	564.56
72.2479	569.79
72.2624	605.68
72.2768	623.07
72.2913	597.70
72.3057	609.35
72.3201	661.72
72.3346	640.69
72.3490	562.93
72.3635	533.81
72.3779	540.59
72.3923	561.82
72.4068	575.85
72.4212	582.70
72.4357	615.09
72.4501	626.30
72.4645	624.84
72.4790	568.28
72.4934	591.51
72.5079	552.08
72.5223	474.13
72.5367	513.30
72.5512	561.64
72.5656	580.65
72.5801	491.13
72.5945	429.71
72.6089	531.96
72.6234	570.24
72.6378	590.71
72.6523	622.91
72.6667	551.74
72.6811	524.59
72.6956	560.52
72.7100	579.41
72.7245	582.46
72.7389	624.51
72.7533	616.43
72.7678	597.91
72.7822	606.58
72.7967	609.00
72.8111	653.85
72.8255	760.82
72.8400	661.53
72.8544	593.63
72.8689	587.41
72.8833	528.34