2022.09.19 19:37:17
Îáðàçåö: ß÷åéêà LCoV 16-09-2022
Lambda1 = 1.54060
Lambda2 = 1.54439
Lambdam = 1.54186
R = 0.497
2Theta	I

line¹ 0 ;repeat¹ 0
22.1120	557.84
22.1264	544.13
22.1409	493.88
22.1553	507.43
22.1697	642.94
22.1842	615.81
22.1986	526.00
22.2131	591.58
22.2275	604.22
22.2419	554.77
22.2564	538.66
22.2708	532.95
22.2853	587.39
22.2997	598.04
22.3141	540.99
22.3286	580.91
22.3430	616.43
22.3575	568.26
22.3719	616.44
22.3863	571.32
22.4008	644.85
22.4152	607.67
22.4297	585.06
22.4441	606.91
22.4585	658.69
22.4730	582.41
22.4874	549.34
22.5019	636.38
22.5163	669.45
22.5307	639.53
22.5452	629.90
22.5596	641.40
22.5741	619.47
22.5885	530.29
22.6029	528.18
22.6174	577.50
22.6318	596.38
22.6463	529.23
22.6607	602.79
22.6751	573.86
22.6896	648.41
22.7040	559.79
22.7185	595.11
22.7329	568.74
22.7473	533.91
22.7618	566.04
22.7762	539.58
22.7907	580.70
22.8051	585.63
22.8195	639.60
22.8340	586.23
22.8484	520.50
22.8629	569.74
22.8773	649.58
22.8917	524.76
22.9062	520.46
22.9206	549.20
22.9351	553.56
22.9495	549.13
22.9639	559.49
22.9784	510.42
22.9928	510.30
23.0073	523.33
23.0217	547.07
23.0361	603.02
23.0506	560.19
23.0650	579.03
23.0795	542.89
23.0939	652.64
23.1083	586.02
23.1228	609.01
23.1372	585.25
23.1517	552.62
23.1661	563.07
23.1806	580.81
23.1950	495.85
23.2094	542.82
23.2239	548.25
23.2383	579.56
23.2528	577.79
23.2672	568.82
23.2816	582.05
23.2961	455.46
23.3105	595.60
23.3250	610.05
23.3394	607.16
23.3538	557.50
23.3683	481.14
23.3827	599.47
23.3972	570.75
23.4116	537.95
23.4260	549.24
23.4405	489.77
23.4549	603.51
23.4694	544.13
23.4838	533.28
23.4982	539.09
23.5127	568.93
23.5271	526.32
23.5416	620.35
23.5560	621.17
23.5704	578.40
23.5849	613.44
23.5993	608.75
23.6138	599.71
23.6282	562.70
23.6426	548.35
23.6571	516.36
23.6715	539.94
23.6860	505.84
23.7004	527.96
23.7148	588.63
23.7293	558.25
23.7437	538.94
23.7582	510.33
23.7726	635.92
23.7870	546.71
23.8015	530.22
23.8159	589.50
23.8304	613.43
23.8448	590.40
23.8592	536.49
23.8737	585.21
23.8881	544.82
23.9026	600.45
23.9170	544.62
23.9314	542.62
23.9459	522.17
23.9603	574.82
23.9748	553.72
23.9892	527.05
24.0036	579.05
24.0181	529.49
24.0325	576.03
24.0470	580.27
24.0614	572.79
24.0758	596.66
24.0903	634.94
24.1047	494.99
24.1192	557.18
24.1336	548.41
24.1480	539.34
24.1625	575.08
24.1769	587.48
24.1914	564.60
24.2058	509.29
24.2202	580.63
24.2347	591.94
24.2491	566.60
24.2636	617.11
24.2780	602.08
24.2924	580.81
24.3069	541.53
24.3213	561.40
24.3358	562.37
24.3502	519.68
24.3646	493.76
24.3791	512.26
24.3935	611.26
24.4080	518.47
24.4224	627.12
24.4368	532.71
24.4513	528.36
24.4657	587.44
24.4802	551.39
24.4946	550.34
24.5090	554.84
24.5235	594.33
24.5379	542.15
24.5524	553.60
24.5668	530.15
24.5812	550.03
24.5957	586.44
24.6101	552.74
24.6246	538.56
24.6390	539.47
24.6534	529.93
24.6679	566.39
24.6823	563.84
24.6968	604.48
24.7112	534.38
24.7256	466.67
24.7401	559.70
24.7545	551.27
24.7690	531.78
24.7834	582.87
24.7978	534.51
24.8123	539.38
24.8267	515.88
24.8412	558.74
24.8556	595.04
24.8700	564.97
24.8845	570.79
24.8989	514.88
24.9134	537.37
24.9278	515.60
24.9422	561.31
24.9567	510.61
24.9711	547.31
24.9856	611.48
25.0000	531.81
25.0144	534.88
25.0289	574.31
25.0433	556.70
25.0578	523.16
25.0722	522.30
25.0866	551.51
25.1011	484.10
25.1155	529.87
25.1300	521.15
25.1444	561.33
25.1588	510.05
25.1733	526.34
25.1877	509.51
25.2022	552.17
25.2166	567.23
25.2310	561.47
25.2455	536.83
25.2599	546.44
25.2744	553.62
25.2888	549.80
25.3032	563.62
25.3177	586.22
25.3321	583.40
25.3466	551.02
25.3610	560.85
25.3754	532.93
25.3899	558.03
25.4043	581.56
25.4188	541.67
25.4332	585.58
25.4476	515.82
25.4621	488.92
25.4765	539.29
25.4910	511.96
25.5054	515.74
25.5198	539.64
25.5343	547.23
25.5487	538.67
25.5632	557.32
25.5776	527.01
25.5920	524.80
25.6065	528.47
25.6209	564.79
25.6354	524.85
25.6498	518.88
25.6642	503.11
25.6787	523.56
25.6931	543.52
25.7076	533.30
25.7220	519.40
25.7364	531.46
25.7509	525.96
25.7653	537.92
25.7798	541.14
25.7942	589.76
25.8086	588.32
25.8231	543.42
25.8375	506.24
25.8520	500.28
25.8664	578.35
25.8808	523.77
25.8953	518.80
25.9097	538.06
25.9242	548.62
25.9386	522.33
25.9530	511.13
25.9675	492.85
25.9819	554.33
25.9964	534.82
26.0108	538.80
26.0252	570.41
26.0397	521.82
26.0541	544.39
26.0686	523.64
26.0830	524.23
26.0974	534.16
26.1119	562.19
26.1263	550.76
26.1408	529.45
26.1552	520.02
26.1696	512.17
26.1841	524.27
26.1985	529.77
26.2130	553.64
26.2274	565.90
26.2418	526.99
26.2563	550.90
26.2707	508.39
26.2852	525.92
26.2996	553.59
26.3140	537.62
26.3285	522.47
26.3429	508.95
26.3574	515.61
26.3718	529.25
26.3862	532.33
26.4007	528.83
26.4151	522.60
26.4296	519.24
26.4440	507.96
26.4584	529.26
26.4729	503.98
26.4873	522.43
26.5018	520.60
26.5162	504.41
26.5306	537.35
26.5451	515.17
26.5595	504.92
26.5740	567.46
26.5884	544.29
26.6028	562.34
26.6173	551.78
26.6317	525.34
26.6462	575.07
26.6606	555.67
26.6750	518.97
26.6895	518.48
26.7039	551.06
26.7184	560.68
26.7328	556.90
26.7472	537.57
26.7617	504.53
26.7761	490.39
26.7906	508.26
26.8050	510.77
26.8194	520.85
26.8339	512.66
26.8483	519.84
26.8628	504.95
26.8772	494.20
26.8917	539.90
26.9061	575.80
26.9205	544.79
26.9350	528.24
26.9494	492.58
26.9639	534.96
26.9783	511.00
26.9927	498.03
27.0072	508.61
27.0216	525.98
27.0361	509.50
27.0505	492.57
27.0649	520.31
27.0794	520.71
27.0938	517.70
27.1083	527.56
27.1227	510.94
27.1371	511.12
27.1516	545.00
27.1660	525.38
27.1805	533.57
27.1949	528.19
27.2093	519.41
27.2238	533.49
27.2382	548.03
27.2527	524.51
27.2671	502.89
27.2815	527.91
27.2960	510.84
27.3104	510.46
27.3249	489.41
27.3393	499.14
27.3537	476.44
27.3682	504.45
27.3826	537.32
27.3971	526.45
27.4115	539.17
27.4259	548.76
27.4404	537.46
27.4548	511.90
27.4693	498.85
27.4837	505.06
27.4981	521.43
27.5126	500.96
27.5270	526.41
27.5415	526.79
27.5559	536.94
27.5703	485.41
27.5848	517.66
27.5992	532.02
27.6137	546.87
27.6281	526.36
27.6425	535.08
27.6570	523.97
27.6714	508.48
27.6859	512.23
27.7003	472.16
27.7147	488.03
27.7292	516.19
27.7436	534.72
27.7581	542.69
27.7725	522.52
27.7869	556.34
27.8014	513.47
27.8158	509.59
27.8303	509.04
27.8447	505.99
27.8591	524.30
27.8736	517.63
27.8880	501.82
27.9025	508.33
27.9169	525.85
27.9313	532.46
27.9458	516.54
27.9602	518.90
27.9747	524.65
27.9891	541.15
28.0035	505.10
28.0180	506.53
28.0324	528.77
28.0469	504.78
28.0613	515.43
28.0757	510.32
28.0902	536.70
28.1046	507.96
28.1191	535.51
28.1335	550.32
28.1479	526.78
28.1624	506.08
28.1768	533.25
28.1913	509.21
28.2057	495.62
28.2201	504.69
28.2346	497.95
28.2490	507.23
28.2635	528.40
28.2779	483.40
28.2923	506.42
28.3068	550.97
28.3212	515.28
28.3357	536.08
28.3501	515.36
28.3645	516.29
28.3790	512.29
28.3934	463.46
28.4079	486.16
28.4223	543.02
28.4367	541.18
28.4512	518.22
28.4656	493.65
28.4801	510.84
28.4945	517.82
28.5089	521.84
28.5234	509.71
28.5378	552.44
28.5523	520.83
28.5667	509.04
28.5811	510.79
28.5956	503.07
28.6100	516.91
28.6245	505.16
28.6389	530.52
28.6533	507.32
28.6678	533.21
28.6822	505.13
28.6967	519.44
28.7111	520.96
28.7255	526.40
28.7400	527.28
28.7544	524.17
28.7689	505.47
28.7833	527.32
28.7977	513.08
28.8122	533.48
28.8266	512.83
28.8411	518.35
28.8555	525.85
28.8699	514.57
28.8844	520.90
28.8988	520.27
28.9133	517.39
28.9277	474.10
28.9421	473.33
28.9566	503.24
28.9710	495.80
28.9855	499.12
28.9999	520.76
29.0143	514.54
29.0288	535.61
29.0432	494.34
29.0577	523.42
29.0721	468.47
29.0865	551.03
29.1010	506.34
29.1154	522.59
29.1299	509.00
29.1443	466.34
29.1587	519.31
29.1732	509.91
29.1876	484.24
29.2021	481.19
29.2165	516.63
29.2309	491.99
29.2454	498.83
29.2598	509.35
29.2743	496.28
29.2887	494.60
29.3031	501.06
29.3176	486.73
29.3320	529.46
29.3465	514.25
29.3609	526.34
29.3753	467.40
29.3898	513.80
29.4042	541.60
29.4187	531.96
29.4331	520.44
29.4475	469.79
29.4620	470.09
29.4764	502.85
29.4909	494.86
29.5053	510.26
29.5197	492.90
29.5342	502.70
29.5486	538.10
29.5631	518.88
29.5775	522.97
29.5919	510.18
29.6064	500.54
29.6208	475.97
29.6353	519.68
29.6497	488.10
29.6641	512.97
29.6786	501.32
29.6930	499.08
29.7075	541.87
29.7219	529.07
29.7363	515.47
29.7508	502.77
29.7652	514.81
29.7797	522.25
29.7941	508.74
29.8085	509.73
29.8230	499.60
29.8374	486.18
29.8519	493.39
29.8663	510.26
29.8807	467.55
29.8952	559.84
29.9096	511.97
29.9241	514.02
29.9385	502.59
29.9529	488.36
29.9674	492.01
29.9818	491.75
29.9963	505.80
30.0107	487.82
30.0251	483.84
30.0396	509.77
30.0540	495.61
30.0685	539.15
30.0829	505.58
30.0973	511.12
30.1118	467.42
30.1262	483.11
30.1407	485.98
30.1551	480.31
30.1695	500.50
30.1840	519.89
30.1984	521.88
30.2129	486.11
30.2273	498.08
30.2417	467.23
30.2562	530.85
30.2706	512.93
30.2851	502.55
30.2995	463.22
30.3139	470.87
30.3284	488.75
30.3428	519.84
30.3573	512.28
30.3717	487.92
30.3861	480.65
30.4006	493.30
30.4150	505.49
30.4295	511.19
30.4439	508.13
30.4583	541.37
30.4728	539.73
30.4872	489.37
30.5017	497.67
30.5161	490.87
30.5305	517.77
30.5450	490.40
30.5594	534.75
30.5739	494.62
30.5883	508.50
30.6028	502.63
30.6172	491.10
30.6316	491.99
30.6461	478.64
30.6605	518.06
30.6750	527.46
30.6894	519.71
30.7038	505.35
30.7183	516.23
30.7327	494.90
30.7472	563.90
30.7616	536.34
30.7760	528.71
30.7905	533.22
30.8049	595.36
30.8194	600.86
30.8338	613.97
30.8482	628.13
30.8627	630.02
30.8771	645.89
30.8916	650.41
30.9060	675.72
30.9204	677.85
30.9349	687.78
30.9493	671.42
30.9638	666.46
30.9782	649.81
30.9926	641.90
31.0071	632.10
31.0215	643.26
31.0360	627.53
31.0504	562.85
31.0648	580.66
31.0793	567.05
31.0937	556.79
31.1082	573.67
31.1226	575.86
31.1370	549.00
31.1515	514.84
31.1659	537.34
31.1804	554.76
31.1948	527.98
31.2092	537.02
31.2237	524.74
31.2381	509.95
31.2526	550.25
31.2670	539.17
31.2814	553.49
31.2959	552.42
31.3103	534.64
31.3248	538.27
31.3392	567.41
31.3536	530.93
31.3681	554.84
31.3825	525.79
31.3970	522.90
31.4114	524.45
31.4258	553.75
31.4403	538.60
31.4547	513.40
31.4692	492.36
31.4836	513.80
31.4980	515.74
31.5125	506.10
31.5269	495.78
31.5414	468.91
31.5558	516.89
31.5702	516.84
31.5847	510.48
31.5991	503.23
31.6136	507.02
31.6280	506.48
31.6424	536.50
31.6569	490.79
31.6713	508.48
31.6858	502.80
31.7002	506.04
31.7146	529.00
31.7291	493.86
31.7435	480.13
31.7580	513.89
31.7724	513.97
31.7868	513.41
31.8013	476.89
31.8157	505.51
31.8302	504.77
31.8446	486.73
31.8590	496.56
31.8735	536.20
31.8879	495.38
31.9024	499.87
31.9168	470.63
31.9312	495.93
31.9457	518.67
31.9601	498.84
31.9746	536.29
31.9890	519.08
32.0034	529.83
32.0179	535.16
32.0323	516.77
32.0468	539.19
32.0612	520.03
32.0756	474.98
32.0901	512.01
32.1045	527.83
32.1190	531.10
32.1334	508.81
32.1478	506.14
32.1623	502.39
32.1767	535.77
32.1912	491.12
32.2056	480.66
32.2200	528.56
32.2345	499.90
32.2489	478.44
32.2634	501.79
32.2778	539.01
32.2922	507.30
32.3067	482.72
32.3211	486.94
32.3356	517.24
32.3500	495.26
32.3644	511.69
32.3789	516.44
32.3933	498.15
32.4078	512.94
32.4222	525.09
32.4366	508.22
32.4511	504.38
32.4655	498.85
32.4800	506.41
32.4944	494.89
32.5088	492.05
32.5233	507.99
32.5377	511.40
32.5522	511.22
32.5666	505.08
32.5810	492.24
32.5955	477.23
32.6099	506.57
32.6244	511.27
32.6388	523.70
32.6532	490.18
32.6677	467.09
32.6821	481.32
32.6966	532.27
32.7110	527.89
32.7254	505.10
32.7399	465.07
32.7543	493.64
32.7688	478.69
32.7832	486.77
32.7976	477.32
32.8121	493.46
32.8265	518.92
32.8410	512.26
32.8554	500.61
32.8698	504.07
32.8843	493.19
32.8987	499.27
32.9132	486.46
32.9276	532.29
32.9420	527.63
32.9565	537.26
32.9709	484.15
32.9854	533.06
32.9998	508.70
33.0142	514.30
33.0287	481.71
33.0431	514.81
33.0576	530.46
33.0720	497.61
33.0864	500.47
33.1009	538.62
33.1153	506.74
33.1298	534.48
33.1442	515.58
33.1586	516.06
33.1731	531.85
33.1875	474.17
33.2020	495.52
33.2164	522.18
33.2308	505.21
33.2453	524.46
33.2597	515.74
33.2742	509.64
33.2886	519.84
33.3030	529.01
33.3175	494.84
33.3319	510.95
33.3464	545.00
33.3608	509.29
33.3752	521.43
33.3897	503.33
33.4041	489.56
33.4186	524.16
33.4330	545.86
33.4474	531.18
33.4619	525.91
33.4763	528.55
33.4908	536.42
33.5052	516.53
33.5196	504.95
33.5341	533.04
33.5485	504.78
33.5630	501.88
33.5774	544.79
33.5918	530.54
33.6063	491.23
33.6207	497.00
33.6352	517.74
33.6496	513.02
33.6640	531.34
33.6785	505.80
33.6929	521.62
33.7074	522.26
33.7218	530.94
33.7362	482.92
33.7507	496.37
33.7651	492.67
33.7796	492.57
33.7940	502.00
33.8084	500.92
33.8229	515.84
33.8373	549.80
33.8518	518.69
33.8662	543.23
33.8806	513.01
33.8951	485.35
33.9095	468.53
33.9240	509.43
33.9384	514.09
33.9528	498.07
33.9673	500.19
33.9817	491.67
33.9962	514.67
34.0106	462.19
34.0250	455.98
34.0395	499.29
34.0539	507.02
34.0684	529.93
34.0828	517.79
34.0972	504.73
34.1117	487.12
34.1261	511.28
34.1406	529.71
34.1550	512.32
34.1694	510.55
34.1839	485.99
34.1983	511.37
34.2128	506.06
34.2272	527.56
34.2417	526.52
34.2561	517.75
34.2705	499.55
34.2850	500.20
34.2994	508.42
34.3139	518.98
34.3283	532.48
34.3427	513.79
34.3572	494.29
34.3716	490.41
34.3861	481.49
34.4005	505.71
34.4149	507.52
34.4294	511.11
34.4438	489.94
34.4583	458.98
34.4727	474.10
34.4871	503.78
34.5016	526.94
34.5160	516.97
34.5305	506.46
34.5449	509.49
34.5593	512.31
34.5738	496.45
34.5882	512.24
34.6027	518.28
34.6171	523.61
34.6315	525.22
34.6460	524.53
34.6604	517.99
34.6749	499.57
34.6893	526.02
34.7037	518.12
34.7182	500.16
34.7326	472.00
34.7471	493.30
34.7615	469.54
34.7759	510.10
34.7904	498.56
34.8048	524.01
34.8193	575.33
34.8337	510.75
34.8481	489.45
34.8626	488.50
34.8770	503.29
34.8915	483.84
34.9059	520.29
34.9203	496.26
34.9348	454.03
34.9492	473.75
34.9637	520.25
34.9781	510.18
34.9925	494.68
35.0070	515.47
35.0214	530.24
35.0359	521.47
35.0503	517.77
35.0647	523.58
35.0792	518.19
35.0936	499.30
35.1081	483.06
35.1225	541.62
35.1369	527.65
35.1514	505.40
35.1658	506.67
35.1803	514.26
35.1947	528.38
35.2091	521.63
35.2236	518.98
35.2380	508.49
35.2525	528.86
35.2669	515.45
35.2813	524.10
35.2958	530.52
35.3102	548.17
35.3247	538.45
35.3391	532.07
35.3535	498.86
35.3680	492.89
35.3824	534.89
35.3969	525.09
35.4113	511.00
35.4257	539.33
35.4402	552.23
35.4546	504.14
35.4691	550.11
35.4835	562.51
35.4979	541.88
35.5124	512.69
35.5268	500.56
35.5413	559.65
35.5557	543.51
35.5701	552.93
35.5846	535.63
35.5990	549.29
35.6135	533.04
35.6279	536.99
35.6423	541.49
35.6568	524.35
35.6712	547.78
35.6857	579.07
35.7001	657.20
35.7145	695.84
35.7290	651.70
35.7434	613.91
35.7579	612.30
35.7723	584.30
35.7867	631.79
35.8012	687.38
35.8156	682.79
35.8301	601.98
35.8445	583.37
35.8589	615.42
35.8734	702.39
35.8878	839.08
35.9023	1025.24
35.9167	1053.38
35.9311	1481.94
35.9456	2431.33
35.9600	2372.17
35.9745	1794.19
35.9889	1659.93
36.0033	2184.57
36.0178	2251.36
36.0322	1952.89
36.0467	1761.95
36.0611	1527.83
36.0755	1503.08
36.0900	1525.24
36.1044	1334.87
36.1189	1303.40
36.1333	1158.75
36.1477	1044.33
36.1622	1032.92
36.1766	943.35
36.1911	852.71
36.2055	745.21
36.2199	688.71
36.2344	716.99
36.2488	678.38
36.2633	691.12
36.2777	736.96
36.2921	745.62
36.3066	725.53
36.3210	752.16
36.3355	800.35
36.3499	842.50
36.3643	877.93
36.3788	876.09
36.3932	906.90
36.4077	847.66
36.4221	1002.75
36.4365	969.30
36.4510	946.45
36.4654	957.60
36.4799	875.43
36.4943	879.60
36.5087	797.83
36.5232	807.16
36.5376	800.73
36.5521	770.10
36.5665	724.28
36.5809	645.50
36.5954	629.97
36.6098	617.24
36.6243	600.37
36.6387	618.31
36.6531	598.61
36.6676	578.87
36.6820	545.14
36.6965	581.48
36.7109	587.78
36.7253	563.93
36.7398	568.83
36.7542	556.90
36.7687	578.46
36.7831	577.22
36.7975	585.55
36.8120	591.25
36.8264	608.57
36.8409	592.49
36.8553	608.06
36.8697	673.43
36.8842	600.19
36.8986	613.49
36.9131	625.54
36.9275	594.15
36.9419	585.24
36.9564	592.54
36.9708	583.57
36.9853	565.75
36.9997	592.76
37.0141	543.32
37.0286	517.52
37.0430	487.80
37.0575	517.26
37.0719	553.96
37.0863	530.78
37.1008	527.97
37.1152	505.13
37.1297	508.30
37.1441	488.49
37.1585	508.87
37.1730	525.38
37.1874	493.78
37.2019	510.96
37.2163	534.30
37.2307	516.82
37.2452	525.21
37.2596	492.01
37.2741	510.57
37.2885	521.54
37.3029	500.32
37.3174	513.83
37.3318	517.31
37.3463	518.72
37.3607	511.41
37.3751	499.95
37.3896	526.10
37.4040	506.74
37.4185	493.31
37.4329	539.66
37.4473	477.00
37.4618	493.93
37.4762	495.17
37.4907	481.52
37.5051	495.80
37.5195	492.06
37.5340	525.01
37.5484	500.24
37.5629	506.80
37.5773	538.86
37.5917	503.31
37.6062	504.84
37.6206	497.06
37.6351	517.17
37.6495	523.77
37.6639	550.68
37.6784	557.46
37.6928	520.61
37.7073	503.03
37.7217	492.24
37.7361	483.23
37.7506	520.18
37.7650	517.11
37.7795	492.42
37.7939	513.82
37.8083	502.43
37.8228	493.26
37.8372	495.84
37.8517	516.64
37.8661	515.36
37.8805	494.54
37.8950	512.08
37.9094	531.14
37.9239	526.28
37.9383	537.05
37.9528	475.55
37.9672	489.05
37.9816	484.14
37.9961	513.38
38.0105	473.86
38.0250	509.45
38.0394	541.26
38.0538	520.62
38.0683	521.83
38.0827	528.18
38.0972	544.11
38.1116	534.40
38.1260	485.18
38.1405	499.21
38.1549	514.18
38.1694	554.12
38.1838	511.51
38.1982	512.07
38.2127	523.99
38.2271	485.10
38.2416	476.63
38.2560	498.36
38.2704	510.47
38.2849	527.69
38.2993	518.24
38.3138	541.34
38.3282	521.84
38.3426	507.24
38.3571	520.11
38.3715	535.90
38.3860	514.76
38.4004	550.08
38.4148	534.68
38.4293	554.04
38.4437	600.31
38.4582	619.76
38.4726	690.18
38.4870	696.36
38.5015	757.38
38.5159	744.37
38.5304	791.07
38.5448	805.34
38.5592	791.72
38.5737	752.86
38.5881	721.16
38.6026	688.95
38.6170	691.09
38.6314	666.15
38.6459	688.82
38.6603	682.30
38.6748	617.74
38.6892	576.20
38.7036	565.30
38.7181	548.28
38.7325	535.40
38.7470	525.32
38.7614	480.19
38.7758	501.42
38.7903	503.92
38.8047	501.52
38.8192	518.89
38.8336	542.87
38.8480	522.33
38.8625	512.67
38.8769	495.86
38.8914	491.70
38.9058	510.09
38.9202	497.87
38.9347	492.99
38.9491	507.44
38.9636	516.47
38.9780	503.43
38.9924	511.28
39.0069	512.13
39.0213	532.45
39.0358	516.99
39.0502	526.84
39.0646	509.41
39.0791	483.02
39.0935	477.08
39.1080	483.31
39.1224	528.37
39.1368	517.57
39.1513	453.31
39.1657	489.50
39.1802	512.47
39.1946	488.05
39.2090	489.22
39.2235	489.41
39.2379	484.36
39.2524	501.86
39.2668	498.64
39.2812	504.76
39.2957	470.80
39.3101	497.05
39.3246	528.03
39.3390	476.38
39.3534	504.80
39.3679	532.28
39.3823	522.04
39.3968	504.97
39.4112	525.78
39.4256	524.81
39.4401	493.05
39.4545	488.24
39.4690	514.52
39.4834	518.37
39.4978	509.25
39.5123	493.68
39.5267	505.48
39.5412	504.49
39.5556	472.80
39.5700	488.38
39.5845	494.47
39.5989	528.04
39.6134	533.12
39.6278	507.08
39.6422	505.76
39.6567	476.74
39.6711	481.23
39.6856	500.46
39.7000	518.66
39.7144	521.03
39.7289	476.37
39.7433	500.61
39.7578	491.93
39.7722	469.25
39.7866	502.41
39.8011	501.05
39.8155	506.94
39.8300	474.00
39.8444	496.03
39.8588	512.67
39.8733	531.49
39.8877	498.57
39.9022	485.86
39.9166	517.15
39.9310	484.53
39.9455	518.21
39.9599	464.04
39.9744	488.03
39.9888	545.29
40.0032	518.47
40.0177	479.86
40.0321	497.26
40.0466	514.61
40.0610	495.38
40.0754	494.61
40.0899	498.81
40.1043	545.96
40.1188	542.79
40.1332	513.22
40.1476	498.59
40.1621	522.00
40.1765	515.68
40.1910	466.74
40.2054	500.49
40.2198	519.54
40.2343	504.07
40.2487	470.41
40.2632	495.60
40.2776	512.84
40.2920	491.99
40.3065	472.56
40.3209	502.73
40.3354	505.92
40.3498	522.15
40.3642	508.83
40.3787	501.20
40.3931	511.19
40.4076	518.18
40.4220	497.58
40.4364	495.63
40.4509	475.99
40.4653	463.95
40.4798	499.75
40.4942	483.76
40.5086	493.81
40.5231	494.30
40.5375	502.61
40.5520	503.87
40.5664	501.50
40.5808	509.95
40.5953	507.45
40.6097	537.81
40.6242	506.52
40.6386	515.90
40.6530	478.30
40.6675	488.01
40.6819	541.72
40.6964	492.30
40.7108	495.79
40.7252	459.58
40.7397	470.57
40.7541	510.44
40.7686	499.13
40.7830	519.44
40.7974	499.54
40.8119	528.91
40.8263	510.44
40.8408	493.85
40.8552	496.00
40.8696	486.80
40.8841	480.84
40.8985	499.82
40.9130	506.29
40.9274	531.22
40.9418	486.69
40.9563	488.98
40.9707	504.25
40.9852	500.68
40.9996	511.45
41.0140	505.95
41.0285	518.23
41.0429	487.69
41.0574	461.04
41.0718	493.02
41.0862	491.82
41.1007	519.15
41.1151	509.52
41.1296	478.98
41.1440	459.66
41.1584	494.92
41.1729	471.43
41.1873	471.62
41.2018	474.65
41.2162	477.56
41.2306	480.84
41.2451	495.28
41.2595	522.01
41.2740	496.22
41.2884	491.59
41.3028	485.96
41.3173	516.25
41.3317	496.85
41.3462	522.84
41.3606	496.84
41.3750	474.33
41.3895	500.77
41.4039	495.67
41.4184	479.57
41.4328	516.78
41.4472	500.04
41.4617	479.84
41.4761	485.64
41.4906	528.55
41.5050	500.67
41.5194	477.07
41.5339	503.02
41.5483	496.26
41.5628	513.00
41.5772	518.78
41.5916	498.48
41.6061	507.62
41.6205	508.05
41.6350	498.59
41.6494	508.82
41.6639	494.78
41.6783	490.90
41.6927	503.51
41.7072	529.15
41.7216	523.92
41.7361	488.51
41.7505	494.72
41.7649	498.43
41.7794	502.69
41.7938	507.50
41.8083	538.13
41.8227	499.63
41.8371	511.73
41.8516	506.41
41.8660	481.66
41.8805	517.41
41.8949	589.92
41.9093	578.89
41.9238	554.47
41.9382	528.12
41.9527	528.03
41.9671	559.78
41.9815	555.25
41.9960	551.50
42.0104	537.76
42.0249	538.53
42.0393	551.95
42.0537	547.08
42.0682	598.72
42.0826	566.42
42.0971	614.17
42.1115	588.78
42.1259	623.13
42.1404	609.55
42.1548	605.37
42.1693	636.04
42.1837	723.79
42.1981	737.31
42.2126	830.48
42.2270	1007.88
42.2415	1082.54
42.2559	1208.38
42.2703	1330.10
42.2848	1549.95
42.2992	1665.48
42.3137	1706.27
42.3281	1668.45
42.3425	1596.35
42.3570	1467.02
42.3714	1384.17
42.3859	1390.84
42.4003	1373.76
42.4147	1298.02
42.4292	1258.00
42.4436	1102.37
42.4581	1032.20
42.4725	977.24
42.4869	827.27
42.5014	734.73
42.5158	704.88
42.5303	651.22
42.5447	631.04
42.5591	595.86
42.5736	576.53
42.5880	590.76
42.6025	561.50
42.6169	553.44
42.6313	541.28
42.6458	555.21
42.6602	556.33
42.6747	546.49
42.6891	541.14
42.7035	532.02
42.7180	546.34
42.7324	528.97
42.7469	526.88
42.7613	529.36
42.7757	532.89
42.7902	512.35
42.8046	544.41
42.8191	563.31
42.8335	519.08
42.8479	498.37
42.8624	541.01
42.8768	515.96
42.8913	530.64
42.9057	557.53
42.9201	517.62
42.9346	548.19
42.9490	525.85
42.9635	513.70
42.9779	522.23
42.9923	537.56
43.0068	514.16
43.0212	535.59
43.0357	509.21
43.0501	505.86
43.0645	523.90
43.0790	476.59
43.0934	527.05
43.1079	497.09
43.1223	520.04
43.1367	495.37
43.1512	507.38
43.1656	551.31
43.1801	545.59
43.1945	524.11
43.2089	499.14
43.2234	499.10
43.2378	512.04
43.2523	554.83
43.2667	533.50
43.2811	530.80
43.2956	506.68
43.3100	527.04
43.3245	545.11
43.3389	556.49
43.3533	523.55
43.3678	517.22
43.3822	524.02
43.3967	515.65
43.4111	496.58
43.4255	523.09
43.4400	526.59
43.4544	469.21
43.4689	508.23
43.4833	524.94
43.4977	492.43
43.5122	490.19
43.5266	525.69
43.5411	523.32
43.5555	522.22
43.5699	497.46
43.5844	517.84
43.5988	515.23
43.6133	501.67
43.6277	529.73
43.6421	533.41
43.6566	539.20
43.6710	479.76
43.6855	548.74
43.6999	520.75
43.7143	529.74
43.7288	527.60
43.7432	538.45
43.7577	547.01
43.7721	518.54
43.7865	515.10
43.8010	539.57
43.8154	528.65
43.8299	500.28
43.8443	530.30
43.8587	550.90
43.8732	547.75
43.8876	497.41
43.9021	510.10
43.9165	523.84
43.9309	524.51
43.9454	513.60
43.9598	499.34
43.9743	521.35
43.9887	513.88
44.0031	508.73
44.0176	536.40
44.0320	511.27
44.0465	511.20
44.0609	543.35
44.0753	554.22
44.0898	539.58
44.1042	536.40
44.1187	550.77
44.1331	548.87
44.1475	532.37
44.1620	559.99
44.1764	574.74
44.1909	543.43
44.2053	533.74
44.2197	619.08
44.2342	668.10
44.2486	633.76
44.2631	588.31
44.2775	567.39
44.2919	609.79
44.3064	648.50
44.3208	623.73
44.3353	676.33
44.3497	677.72
44.3641	621.86
44.3786	576.98
44.3930	606.07
44.4075	589.18
44.4219	625.87
44.4363	586.84
44.4508	591.70
44.4652	625.17
44.4797	605.75
44.4941	596.52
44.5085	597.98
44.5230	557.44
44.5374	582.15
44.5519	573.34
44.5663	579.00
44.5807	590.41
44.5952	587.66
44.6096	605.78
44.6241	579.77
44.6385	554.55
44.6529	603.77
44.6674	577.46
44.6818	609.85
44.6963	628.69
44.7107	610.38
44.7251	656.83
44.7396	782.20
44.7540	832.61
44.7685	825.73
44.7829	886.99
44.7973	903.49
44.8118	862.10
44.8262	853.27
44.8407	769.87
44.8551	747.84
44.8695	725.62
44.8840	701.41
44.8984	796.37
44.9129	720.19
44.9273	710.71
44.9417	664.32
44.9562	617.17
44.9706	561.72
44.9851	563.97
44.9995	560.05
45.0139	551.30
45.0284	546.48
45.0428	538.07
45.0573	510.72
45.0717	513.34
45.0861	509.41
45.1006	526.91
45.1150	536.99
45.1295	521.09
45.1439	511.88
45.1583	503.87
45.1728	501.38
45.1872	508.58
45.2017	522.58
45.2161	537.77
45.2305	533.87
45.2450	509.96
45.2594	489.46
45.2739	528.18
45.2883	518.53
45.3028	500.65
45.3172	493.05
45.3316	531.79
45.3461	518.16
45.3605	501.19
45.3750	512.53
45.3894	479.80
45.4038	480.93
45.4183	509.60
45.4327	471.33
45.4472	503.20
45.4616	503.73
45.4760	554.65
45.4905	521.96
45.5049	513.24
45.5194	520.04
45.5338	489.77
45.5482	503.92
45.5627	503.17
45.5771	476.46
45.5916	472.82
45.6060	487.81
45.6204	478.04
45.6349	502.33
45.6493	510.00
45.6638	522.42
45.6782	492.98
45.6926	478.80
45.7071	483.27
45.7215	501.49
45.7360	502.48
45.7504	471.70
45.7648	480.67
45.7793	490.39
45.7937	555.39
45.8082	524.97
45.8226	517.45
45.8370	511.24
45.8515	500.76
45.8659	541.75
45.8804	552.00
45.8948	513.87
45.9092	501.31
45.9237	480.67
45.9381	530.61
45.9526	499.05
45.9670	488.98
45.9814	453.28
45.9959	472.39
46.0103	492.05
46.0248	522.58
46.0392	514.07
46.0536	506.54
46.0681	510.34
46.0825	498.83
46.0970	480.06
46.1114	498.32
46.1258	497.37
46.1403	505.80
46.1547	464.71
46.1692	478.10
46.1836	491.90
46.1980	491.26
46.2125	515.32
46.2269	496.45
46.2414	506.64
46.2558	533.55
46.2702	527.93
46.2847	507.53
46.2991	486.08
46.3136	494.94
46.3280	491.70
46.3424	476.72
46.3569	536.64
46.3713	519.82
46.3858	494.58
46.4002	524.24
46.4146	510.31
46.4291	492.89
46.4435	472.45
46.4580	478.85
46.4724	478.05
46.4868	476.26
46.5013	482.23
46.5157	518.14
46.5302	483.77
46.5446	513.69
46.5590	526.08
46.5735	527.65
46.5879	489.93
46.6024	494.16
46.6168	516.23
46.6312	474.24
46.6457	477.29
46.6601	484.67
46.6746	494.23
46.6890	484.56
46.7034	499.08
46.7179	504.38
46.7323	508.63
46.7468	514.48
46.7612	520.92
46.7756	501.65
46.7901	519.86
46.8045	515.56
46.8190	515.73
46.8334	502.39
46.8478	518.31
46.8623	545.57
46.8767	521.94
46.8912	508.82
46.9056	504.79
46.9200	484.22
46.9345	518.59
46.9489	541.71
46.9634	545.04
46.9778	547.02
46.9922	510.88
47.0067	517.68
47.0211	553.27
47.0356	529.06
47.0500	497.42
47.0644	504.06
47.0789	536.32
47.0933	556.73
47.1078	530.41
47.1222	498.95
47.1366	518.98
47.1511	534.84
47.1655	522.81
47.1800	483.16
47.1944	494.49
47.2088	527.48
47.2233	528.05
47.2377	491.41
47.2522	515.68
47.2666	503.02
47.2810	518.45
47.2955	512.95
47.3099	488.37
47.3244	519.04
47.3388	541.94
47.3532	524.93
47.3677	508.67
47.3821	501.53
47.3966	517.11
47.4110	488.89
47.4254	531.40
47.4399	511.16
47.4543	513.06
47.4688	544.57
47.4832	520.12
47.4976	501.58
47.5121	518.36
47.5265	505.71
47.5410	503.84
47.5554	487.14
47.5698	484.86
47.5843	512.37
47.5987	521.39
47.6132	513.71
47.6276	503.34
47.6420	487.67
47.6565	504.07
47.6709	490.83
47.6854	512.01
47.6998	548.40
47.7142	504.12
47.7287	502.03
47.7431	483.85
47.7576	495.45
47.7720	500.21
47.7864	480.09
47.8009	477.58
47.8153	497.74
47.8298	491.72
47.8442	517.14
47.8586	548.44
47.8731	543.87
47.8875	550.88
47.9020	561.44
47.9164	528.62
47.9308	515.30
47.9453	525.47
47.9597	521.42
47.9742	512.34
47.9886	503.80
48.0030	522.70
48.0175	505.11
48.0319	517.24
48.0464	519.79
48.0608	540.93
48.0752	523.70
48.0897	543.51
48.1041	522.93
48.1186	542.03
48.1330	530.80
48.1474	477.95
48.1619	508.31
48.1763	540.16
48.1908	509.35
48.2052	476.03
48.2196	520.06
48.2341	504.06
48.2485	499.89
48.2630	515.27
48.2774	478.71
48.2918	495.34
48.3063	504.38
48.3207	489.26
48.3352	516.98
48.3496	504.34
48.3640	531.56
48.3785	491.13
48.3929	501.48
48.4074	516.95
48.4218	519.58
48.4362	536.86
48.4507	523.08
48.4651	516.10
48.4796	489.31
48.4940	516.11
48.5084	497.85
48.5229	522.37
48.5373	501.98
48.5518	501.72
48.5662	516.31
48.5806	516.60
48.5951	505.26
48.6095	506.38
48.6240	504.59
48.6384	502.41
48.6528	522.56
48.6673	532.78
48.6817	524.03
48.6962	509.86
48.7106	509.65
48.7250	548.32
48.7395	527.56
48.7539	547.69
48.7684	499.90
48.7828	516.92
48.7972	536.45
48.8117	571.69
48.8261	544.22
48.8406	543.50
48.8550	552.12
48.8694	529.44
48.8839	515.62
48.8983	525.45
48.9128	571.28
48.9272	547.88
48.9416	556.94
48.9561	538.60
48.9705	561.20
48.9850	602.79
48.9994	533.18
49.0139	594.20
49.0283	613.27
49.0427	648.74
49.0572	591.37
49.0716	604.36
49.0861	654.20
49.1005	685.66
49.1149	730.84
49.1294	768.12
49.1438	747.55
49.1583	789.04
49.1727	885.04
49.1871	893.60
49.2016	987.98
49.2160	1001.67
49.2305	1088.94
49.2449	1187.70
49.2593	1243.58
49.2738	1377.40
49.2882	1482.06
49.3027	1491.23
49.3171	1627.08
49.3315	1684.96
49.3460	1713.55
49.3604	1780.84
49.3749	1744.25
49.3893	1735.04
49.4037	1702.59
49.4182	1724.89
49.4326	1713.73
49.4471	1627.70
49.4615	1611.16
49.4759	1563.17
49.4904	1493.79
49.5048	1408.93
49.5193	1338.48
49.5337	1333.49
49.5481	1212.27
49.5626	1138.64
49.5770	1062.26
49.5915	1006.69
49.6059	918.86
49.6203	891.73
49.6348	827.20
49.6492	753.41
49.6637	750.99
49.6781	727.12
49.6925	677.30
49.7070	706.50
49.7214	672.06
49.7359	649.14
49.7503	614.17
49.7647	601.42
49.7792	607.54
49.7936	579.61
49.8081	582.30
49.8225	580.64
49.8369	573.15
49.8514	544.18
49.8658	585.82
49.8803	574.05
49.8947	597.41
49.9091	574.97
49.9236	551.52
49.9380	573.13
49.9525	555.89
49.9669	528.32
49.9813	517.49
49.9958	563.06
50.0102	556.82
50.0247	515.21
50.0391	517.00
50.0535	504.43
50.0680	528.68
50.0824	516.28
50.0969	515.03
50.1113	518.42
50.1257	531.19
50.1402	541.38
50.1546	534.36
50.1691	518.17
50.1835	514.43
50.1979	529.02
50.2124	513.76
50.2268	534.91
50.2413	519.56
50.2557	499.08
50.2701	486.33
50.2846	514.16
50.2990	516.43
50.3135	518.30
50.3279	518.13
50.3423	500.31
50.3568	513.27
50.3712	503.83
50.3857	511.82
50.4001	504.85
50.4145	518.46
50.4290	541.79
50.4434	522.02
50.4579	510.18
50.4723	545.15
50.4867	536.10
50.5012	551.81
50.5156	536.31
50.5301	523.71
50.5445	522.89
50.5589	523.96
50.5734	517.57
50.5878	494.07
50.6023	500.47
50.6167	507.81
50.6311	510.12
50.6456	543.23
50.6600	515.11
50.6745	503.59
50.6889	508.12
50.7033	532.48
50.7178	502.23
50.7322	518.77
50.7467	501.27
50.7611	464.05
50.7755	492.55
50.7900	501.44
50.8044	489.08
50.8189	516.70
50.8333	509.62
50.8477	497.28
50.8622	498.55
50.8766	486.01
50.8911	491.14
50.9055	507.20
50.9199	500.47
50.9344	475.66
50.9488	505.15
50.9633	519.16
50.9777	524.66
50.9921	521.08
51.0066	513.86
51.0210	464.68
51.0355	489.46
51.0499	510.26
51.0643	488.42
51.0788	515.93
51.0932	508.24
51.1077	494.68
51.1221	535.54
51.1365	513.54
51.1510	495.29
51.1654	552.55
51.1799	541.17
51.1943	496.04
51.2087	515.78
51.2232	523.30
51.2376	538.30
51.2521	514.85
51.2665	491.10
51.2809	508.81
51.2954	517.30
51.3098	515.38
51.3243	494.48
51.3387	519.70
51.3531	543.18
51.3676	515.99
51.3820	509.81
51.3965	515.65
51.4109	494.18
51.4253	518.06
51.4398	518.40
51.4542	518.08
51.4687	470.66
51.4831	495.90
51.4975	509.91
51.5120	524.32
51.5264	481.70
51.5409	476.21
51.5553	506.44
51.5697	522.29
51.5842	519.23
51.5986	521.74
51.6131	517.50
51.6275	505.99
51.6419	507.91
51.6564	513.13
51.6708	507.35
51.6853	505.55
51.6997	508.46
51.7141	516.30
51.7286	484.82
51.7430	521.90
51.7575	540.84
51.7719	516.59
51.7863	515.95
51.8008	525.74
51.8152	532.36
51.8297	530.50
51.8441	529.99
51.8585	509.04
51.8730	533.99
51.8874	524.66
51.9019	525.52
51.9163	501.82
51.9307	496.42
51.9452	513.50
51.9596	498.93
51.9741	528.00
51.9885	477.67
52.0029	480.86
52.0174	525.65
52.0318	536.65
52.0463	510.14
52.0607	534.50
52.0751	516.31
52.0896	537.09
52.1040	521.60
52.1185	519.24
52.1329	505.51
52.1473	463.17
52.1618	507.46
52.1762	527.49
52.1907	535.77
52.2051	514.81
52.2195	482.49
52.2340	510.89
52.2484	503.57
52.2629	533.70
52.2773	519.86
52.2917	535.18
52.3062	537.53
52.3206	512.07
52.3351	509.76
52.3495	549.67
52.3639	511.33
52.3784	497.33
52.3928	506.15
52.4073	499.20
52.4217	520.82
52.4361	503.80
52.4506	493.90
52.4650	529.47
52.4795	509.59
52.4939	501.49
52.5083	532.52
52.5228	545.07
52.5372	529.35
52.5517	476.07
52.5661	487.81
52.5805	526.31
52.5950	520.62
52.6094	524.10
52.6239	518.63
52.6383	506.98
52.6527	516.54
52.6672	502.83
52.6816	480.89
52.6961	522.03
52.7105	521.84
52.7250	500.27
52.7394	486.12
52.7538	505.56
52.7683	453.19
52.7827	520.83
52.7972	504.76
52.8116	527.34
52.8260	517.15
52.8405	493.69
52.8549	542.82
52.8694	518.75
52.8838	486.72
52.8982	519.66
52.9127	543.54
52.9271	505.84
52.9416	552.59
52.9560	539.40
52.9704	516.63
52.9849	551.92
52.9993	506.26
53.0138	520.99
53.0282	527.16
53.0426	468.68
53.0571	537.08
53.0715	487.77
53.0860	548.78
53.1004	518.14
53.1148	546.01
53.1293	514.54
53.1437	514.34
53.1582	457.15
53.1726	494.19
53.1870	496.78
53.2015	513.26
53.2159	508.37
53.2304	521.18
53.2448	526.03
53.2592	488.11
53.2737	464.99
53.2881	529.77
53.3026	545.27
53.3170	521.89
53.3314	549.26
53.3459	525.77
53.3603	518.28
53.3748	514.75
53.3892	500.52
53.4036	504.91
53.4181	529.57
53.4325	536.20
53.4470	512.97
53.4614	505.34
53.4758	524.35
53.4903	539.55
53.5047	534.66
53.5192	541.33
53.5336	528.26
53.5480	545.93
53.5625	542.86
53.5769	520.42
53.5914	520.95
53.6058	530.46
53.6202	512.09
53.6347	545.85
53.6491	528.45
53.6636	531.58
53.6780	505.70
53.6924	505.15
53.7069	540.22
53.7213	526.40
53.7358	476.53
53.7502	520.64
53.7646	514.55
53.7791	557.33
53.7935	509.54
53.8080	478.46
53.8224	524.73
53.8368	512.69
53.8513	537.00
53.8657	556.74
53.8802	517.11
53.8946	515.77
53.9090	526.24
53.9235	495.42
53.9379	505.64
53.9524	509.98
53.9668	495.21
53.9812	502.58
53.9957	497.56
54.0101	523.23
54.0246	496.37
54.0390	504.60
54.0534	507.80
54.0679	526.94
54.0823	534.68
54.0968	558.53
54.1112	513.33
54.1256	522.56
54.1401	494.13
54.1545	506.65
54.1690	524.08
54.1834	479.89
54.1978	513.13
54.2123	524.43
54.2267	531.01
54.2412	530.32
54.2556	521.09
54.2700	473.66
54.2845	488.00
54.2989	519.21
54.3134	545.11
54.3278	530.01
54.3422	550.40
54.3567	535.36
54.3711	513.31
54.3856	504.78
54.4000	508.10
54.4144	516.04
54.4289	539.41
54.4433	507.55
54.4578	509.21
54.4722	518.77
54.4866	518.00
54.5011	524.71
54.5155	525.11
54.5300	529.04
54.5444	508.32
54.5588	521.43
54.5733	528.24
54.5877	512.58
54.6022	532.00
54.6166	540.40
54.6310	537.38
54.6455	527.32
54.6599	537.07
54.6744	542.67
54.6888	517.23
54.7032	545.66
54.7177	567.74
54.7321	541.85
54.7466	534.75
54.7610	533.56
54.7754	545.65
54.7899	574.08
54.8043	560.09
54.8188	573.76
54.8332	567.00
54.8476	586.48
54.8621	592.28
54.8765	594.48
54.8910	575.63
54.9054	575.68
54.9198	585.42
54.9343	579.54
54.9487	580.00
54.9632	564.61
54.9776	566.74
54.9920	563.60
55.0065	566.50
55.0209	570.35
55.0354	586.51
55.0498	582.39
55.0642	602.49
55.0787	538.66
55.0931	581.35
55.1076	605.87
55.1220	587.17
55.1364	563.40
55.1509	541.96
55.1653	546.01
55.1798	544.47
55.1942	533.61
55.2086	535.80
55.2231	527.69
55.2375	561.35
55.2520	517.95
55.2664	532.41
55.2808	510.33
55.2953	516.73
55.3097	523.38
55.3242	504.14
55.3386	522.18
55.3530	518.73
55.3675	510.77
55.3819	546.92
55.3964	533.92
55.4108	548.55
55.4252	546.86
55.4397	562.21
55.4541	492.11
55.4686	540.37
55.4830	556.78
55.4974	508.26
55.5119	511.49
55.5263	535.04
55.5408	529.37
55.5552	523.19
55.5696	526.13
55.5841	545.98
55.5985	520.36
55.6130	538.65
55.6274	549.90
55.6418	552.53
55.6563	556.29
55.6707	524.11
55.6852	504.99
55.6996	525.77
55.7140	550.28
55.7285	541.80
55.7429	523.22
55.7574	520.20
55.7718	555.01
55.7862	555.24
55.8007	512.00
55.8151	503.43
55.8296	515.81
55.8440	521.05
55.8584	510.43
55.8729	531.02
55.8873	527.17
55.9018	550.30
55.9162	530.22
55.9306	549.91
55.9451	587.03
55.9595	531.37
55.9740	512.85
55.9884	559.80
56.0028	524.23
56.0173	512.86
56.0317	538.51
56.0462	523.32
56.0606	525.10
56.0750	519.07
56.0895	516.36
56.1039	553.63
56.1184	539.91
56.1328	541.10
56.1472	486.48
56.1617	542.80
56.1761	531.62
56.1906	552.20
56.2050	502.01
56.2194	512.78
56.2339	516.75
56.2483	500.33
56.2628	535.38
56.2772	535.98
56.2916	512.97
56.3061	545.74
56.3205	514.73
56.3350	521.52
56.3494	504.39
56.3639	497.59
56.3783	549.06
56.3927	542.08
56.4072	527.55
56.4216	557.35
56.4361	527.03
56.4505	519.34
56.4649	527.44
56.4794	562.00
56.4938	543.70
56.5083	515.89
56.5227	532.92
56.5371	532.68
56.5516	511.73
56.5660	500.57
56.5805	499.81
56.5949	525.42
56.6093	511.36
56.6238	478.00
56.6382	498.55
56.6527	519.50
56.6671	516.45
56.6815	507.57
56.6960	513.84
56.7104	527.41
56.7249	510.13
56.7393	494.47
56.7537	536.23
56.7682	505.03
56.7826	507.05
56.7971	474.75
56.8115	503.49
56.8259	511.57
56.8404	537.15
56.8548	537.71
56.8693	546.54
56.8837	541.01
56.8981	521.45
56.9126	498.61
56.9270	485.90
56.9415	558.36
56.9559	506.99
56.9703	532.05
56.9848	534.30
56.9992	557.09
57.0137	510.59
57.0281	526.29
57.0425	500.00
57.0570	521.59
57.0714	472.84
57.0859	501.87
57.1003	505.22
57.1147	545.67
57.1292	551.40
57.1436	530.47
57.1581	543.75
57.1725	518.30
57.1869	535.48
57.2014	563.12
57.2158	519.04
57.2303	499.84
57.2447	541.64
57.2591	528.33
57.2736	532.96
57.2880	554.79
57.3025	526.14
57.3169	512.57
57.3313	535.63
57.3458	535.80
57.3602	530.29
57.3747	545.95
57.3891	486.38
57.4035	510.18
57.4180	518.16
57.4324	524.79
57.4469	505.06
57.4613	529.86
57.4757	531.40
57.4902	545.93
57.5046	533.05
57.5191	521.45
57.5335	518.47
57.5479	536.88
57.5624	562.63
57.5768	557.36
57.5913	532.05
57.6057	519.80
57.6201	547.98
57.6346	545.97
57.6490	523.94
57.6635	505.92
57.6779	542.56
57.6923	533.77
57.7068	529.32
57.7212	530.61
57.7357	507.17
57.7501	533.10
57.7645	520.87
57.7790	552.63
57.7934	540.87
57.8079	526.43
57.8223	555.26
57.8367	544.83
57.8512	532.42
57.8656	561.67
57.8801	525.67
57.8945	540.79
57.9089	550.00
57.9234	553.34
57.9378	546.62
57.9523	540.31
57.9667	539.43
57.9811	562.69
57.9956	552.23
58.0100	523.99
58.0245	517.07
58.0389	516.15
58.0533	551.87
58.0678	529.14
58.0822	521.88
58.0967	542.85
58.1111	559.76
58.1255	560.81
58.1400	524.47
58.1544	518.58
58.1689	569.49
58.1833	559.62
58.1977	536.38
58.2122	536.08
58.2266	537.01
58.2411	565.47
58.2555	560.33
58.2699	563.23
58.2844	578.33
58.2988	549.52
58.3133	540.71
58.3277	588.09
58.3421	564.90
58.3566	572.28
58.3710	564.03
58.3855	574.45
58.3999	547.33
58.4143	587.29
58.4288	595.50
58.4432	583.12
58.4577	591.55
58.4721	595.50
58.4865	609.16
58.5010	590.13
58.5154	588.90
58.5299	614.23
58.5443	628.61
58.5587	652.80
58.5732	616.39
58.5876	593.44
58.6021	617.07
58.6165	601.64
58.6309	614.89
58.6454	587.74
58.6598	634.01
58.6743	647.82
58.6887	637.11
58.7031	640.90
58.7176	627.71
58.7320	588.55
58.7465	592.12
58.7609	601.10
58.7753	599.69
58.7898	593.68
58.8042	612.43
58.8187	602.66
58.8331	608.30
58.8475	585.98
58.8620	568.74
58.8764	585.89
58.8909	555.02
58.9053	576.27
58.9197	579.42
58.9342	573.26
58.9486	575.41
58.9631	543.90
58.9775	549.77
58.9919	556.16
59.0064	553.05
59.0208	568.15
59.0353	553.37
59.0497	548.21
59.0641	538.35
59.0786	559.83
59.0930	556.82
59.1075	541.11
59.1219	568.62
59.1363	558.38
59.1508	558.07
59.1652	555.33
59.1797	574.47
59.1941	561.41
59.2085	515.78
59.2230	526.46
59.2374	583.39
59.2519	548.02
59.2663	553.20
59.2807	590.40
59.2952	556.38
59.3096	584.49
59.3241	554.99
59.3385	595.77
59.3529	563.42
59.3674	588.82
59.3818	570.98
59.3963	559.19
59.4107	553.36
59.4251	601.27
59.4396	599.76
59.4540	586.55
59.4685	588.03
59.4829	542.41
59.4973	522.53
59.5118	546.95
59.5262	558.37
59.5407	587.32
59.5551	571.72
59.5695	530.29
59.5840	532.69
59.5984	520.26
59.6129	537.44
59.6273	531.64
59.6417	554.48
59.6562	576.09
59.6706	552.92
59.6851	515.45
59.6995	542.07
59.7139	540.10
59.7284	539.10
59.7428	552.64
59.7573	564.34
59.7717	554.79
59.7861	587.62
59.8006	581.50
59.8150	556.21
59.8295	518.01
59.8439	523.02
59.8583	552.73
59.8728	570.08
59.8872	505.33
59.9017	519.77
59.9161	534.41
59.9305	521.27
59.9450	533.54
59.9594	540.57
59.9739	569.11
59.9883	538.76
60.0027	553.52
60.0172	500.71
60.0316	542.12
60.0461	526.62
60.0605	578.68
60.0750	555.53
60.0894	547.64
60.1038	490.55
60.1183	548.27
60.1327	544.46
60.1472	508.78
60.1616	531.39
60.1760	563.16
60.1905	544.54
60.2049	506.11
60.2194	524.06
60.2338	553.29
60.2482	525.22
60.2627	494.91
60.2771	526.78
60.2916	521.15
60.3060	538.98
60.3204	556.69
60.3349	586.11
60.3493	557.16
60.3638	530.76
60.3782	539.05
60.3926	507.68
60.4071	498.57
60.4215	583.29
60.4360	552.59
60.4504	511.53
60.4648	521.25
60.4793	536.99
60.4937	540.36
60.5082	528.46
60.5226	521.30
60.5370	516.64
60.5515	572.25
60.5659	540.54
60.5804	530.53
60.5948	548.04
60.6092	553.68
60.6237	524.39
60.6381	536.17
60.6526	536.14
60.6670	569.58
60.6814	552.47
60.6959	526.59
60.7103	558.82
60.7248	547.95
60.7392	538.46
60.7536	535.92
60.7681	539.17
60.7825	540.76
60.7970	561.68
60.8114	554.52
60.8258	559.59
60.8403	560.18
60.8547	548.93
60.8692	533.96
60.8836	535.06
60.8980	584.39
60.9125	563.04
60.9269	473.22
60.9414	530.59
60.9558	572.33
60.9702	520.20
60.9847	548.34
60.9991	552.40
61.0136	518.67
61.0280	593.18
61.0424	566.54
61.0569	520.17
61.0713	546.01
61.0858	552.41
61.1002	579.85
61.1146	520.16
61.1291	537.83
61.1435	525.01
61.1580	546.07
61.1724	541.12
61.1868	512.62
61.2013	544.58
61.2157	557.44
61.2302	530.64
61.2446	518.41
61.2590	558.51
61.2735	536.20
61.2879	563.31
61.3024	526.56
61.3168	534.43
61.3312	582.42
61.3457	570.62
61.3601	553.47
61.3746	540.16
61.3890	525.52
61.4034	539.65
61.4179	558.97
61.4323	607.52
61.4468	550.03
61.4612	557.98
61.4756	539.04
61.4901	547.33
61.5045	530.71
61.5190	542.02
61.5334	560.77
61.5478	564.40
61.5623	549.19
61.5767	535.20
61.5912	533.63
61.6056	545.02
61.6200	534.27
61.6345	544.14
61.6489	530.82
61.6634	524.68
61.6778	530.51
61.6922	542.24
61.7067	547.29
61.7211	526.12
61.7356	516.07
61.7500	567.13
61.7644	544.41
61.7789	529.64
61.7933	537.49
61.8078	574.27
61.8222	579.76
61.8366	546.58
61.8511	558.48
61.8655	555.75
61.8800	543.67
61.8944	544.17
61.9088	566.87
61.9233	537.58
61.9377	582.93
61.9522	568.29
61.9666	545.19
61.9810	534.09
61.9955	535.54
62.0099	546.24
62.0244	567.12
62.0388	558.74
62.0532	522.23
62.0677	532.42
62.0821	536.43
62.0966	523.11
62.1110	534.72
62.1254	549.01
62.1399	547.55
62.1543	506.00
62.1688	536.22
62.1832	576.04
62.1976	525.89
62.2121	567.77
62.2265	565.85
62.2410	531.05
62.2554	538.13
62.2698	530.83
62.2843	537.66
62.2987	587.86
62.3132	544.38
62.3276	561.94
62.3420	560.97
62.3565	575.74
62.3709	585.49
62.3854	578.70
62.3998	557.00
62.4142	538.01
62.4287	560.04
62.4431	552.18
62.4576	555.09
62.4720	578.30
62.4864	562.20
62.5009	572.06
62.5153	569.63
62.5298	585.69
62.5442	570.72
62.5586	539.16
62.5731	526.22
62.5875	557.17
62.6020	559.20
62.6164	560.83
62.6308	575.40
62.6453	570.96
62.6597	572.99
62.6742	563.14
62.6886	552.97
62.7030	551.85
62.7175	557.85
62.7319	538.08
62.7464	580.20
62.7608	558.15
62.7752	554.96
62.7897	561.02
62.8041	569.54
62.8186	537.14
62.8330	564.22
62.8474	558.99
62.8619	577.36
62.8763	592.47
62.8908	582.20
62.9052	601.88
62.9196	593.48
62.9341	591.22
62.9485	566.95
62.9630	535.92
62.9774	545.16
62.9918	580.34
63.0063	559.74
63.0207	564.42
63.0352	602.48
63.0496	543.98
63.0640	529.32
63.0785	573.88
63.0929	583.97
63.1074	574.01
63.1218	600.54
63.1362	585.51
63.1507	546.82
63.1651	606.67
63.1796	560.88
63.1940	565.17
63.2084	575.28
63.2229	568.48
63.2373	539.82
63.2518	550.55
63.2662	561.29
63.2806	581.01
63.2951	560.11
63.3095	549.27
63.3240	583.98
63.3384	596.31
63.3528	586.20
63.3673	568.97
63.3817	578.79
63.3962	574.45
63.4106	591.15
63.4250	584.09
63.4395	586.21
63.4539	582.19
63.4684	579.42
63.4828	578.98
63.4972	541.29
63.5117	544.48
63.5261	549.47
63.5406	547.09
63.5550	525.45
63.5694	583.13
63.5839	598.84
63.5983	557.04
63.6128	562.44
63.6272	565.58
63.6416	606.43
63.6561	576.13
63.6705	560.58
63.6850	566.88
63.6994	622.48
63.7138	621.99
63.7283	614.38
63.7427	582.52
63.7572	596.30
63.7716	578.80
63.7861	584.89
63.8005	588.01
63.8149	594.96
63.8294	613.27
63.8438	582.99
63.8583	630.41
63.8727	599.53
63.8871	564.02
63.9016	606.20
63.9160	622.95
63.9305	607.80
63.9449	593.04
63.9593	585.44
63.9738	622.50
63.9882	593.46
64.0027	597.69
64.0171	580.69
64.0315	605.42
64.0460	610.19
64.0604	618.96
64.0749	641.17
64.0893	638.72
64.1037	630.92
64.1182	661.08
64.1326	710.33
64.1471	638.38
64.1615	673.84
64.1759	679.82
64.1904	671.25
64.2048	723.70
64.2193	719.36
64.2337	723.42
64.2481	730.89
64.2626	731.70
64.2770	758.71
64.2915	735.02
64.3059	748.35
64.3203	756.98
64.3348	782.08
64.3492	818.28
64.3637	784.56
64.3781	745.52
64.3925	749.64
64.4070	804.50
64.4214	771.90
64.4359	812.76
64.4503	774.23
64.4647	748.15
64.4792	768.28
64.4936	765.33
64.5081	781.47
64.5225	745.12
64.5369	751.24
64.5514	757.67
64.5658	694.57
64.5803	695.54
64.5947	723.92
64.6091	739.68
64.6236	737.87
64.6380	732.07
64.6525	758.59
64.6669	782.02
64.6813	737.43
64.6958	754.30
64.7102	775.63
64.7247	742.01
64.7391	725.24
64.7535	735.06
64.7680	694.76
64.7824	735.72
64.7969	786.13
64.8113	769.09
64.8257	754.87
64.8402	786.26
64.8546	811.28
64.8691	896.17
64.8835	894.81
64.8979	896.84
64.9124	857.72
64.9268	857.54
64.9413	936.09
64.9557	939.40
64.9701	993.84
64.9846	1095.81
64.9990	1132.84
65.0135	1307.90
65.0279	1473.33
65.0423	1706.24
65.0568	2181.68
65.0712	2612.25
65.0857	3585.32
65.1001	4749.24
65.1145	6389.31
65.1290	8366.60
65.1434	9799.41
65.1579	11434.61
65.1723	11991.49
65.1867	11362.36
65.2012	10038.13
65.2156	8187.67
65.2301	6346.71
65.2445	5186.12
65.2589	4392.07
65.2734	4136.67
65.2878	4500.66
65.3023	5016.35
65.3167	5942.17
65.3311	6554.90
65.3456	7008.07
65.3600	7021.18
65.3745	6525.20
65.3889	5491.10
65.4033	4429.58
65.4178	3370.94
65.4322	2670.97
65.4467	2043.98
65.4611	1742.72
65.4755	1537.71
65.4900	1313.87
65.5044	1123.68
65.5189	1080.44
65.5333	1015.14
65.5477	945.71
65.5622	872.03
65.5766	891.63
65.5911	870.20
65.6055	780.38
65.6199	751.26
65.6344	734.03
65.6488	732.87
65.6633	771.70
65.6777	771.58
65.6921	711.01
65.7066	747.25
65.7210	711.87
65.7355	706.30
65.7499	714.77
65.7643	674.18
65.7788	655.04
65.7932	660.26
65.8077	657.55
65.8221	662.72
65.8365	649.11
65.8510	640.10
65.8654	696.48
65.8799	603.67
65.8943	661.32
65.9087	649.73
65.9232	668.06
65.9376	678.18
65.9521	653.54
65.9665	644.08
65.9809	633.59
65.9954	612.51
66.0098	624.09
66.0243	693.18
66.0387	632.03
66.0531	631.54
66.0676	651.45
66.0820	629.43
66.0965	646.05
66.1109	629.15
66.1253	623.49
66.1398	659.68
66.1542	629.89
66.1687	611.23
66.1831	582.62
66.1975	575.53
66.2120	621.55
66.2264	623.69
66.2409	598.15
66.2553	618.76
66.2697	596.18
66.2842	639.94
66.2986	615.64
66.3131	613.49
66.3275	611.92
66.3419	625.62
66.3564	632.38
66.3708	571.57
66.3853	594.95
66.3997	611.79
66.4141	613.10
66.4286	633.20
66.4430	559.53
66.4575	586.51
66.4719	598.86
66.4863	594.88
66.5008	609.13
66.5152	594.66
66.5297	590.01
66.5441	595.55
66.5585	574.59
66.5730	579.02
66.5874	611.08
66.6019	624.33
66.6163	583.91
66.6307	572.60
66.6452	623.05
66.6596	605.14
66.6741	556.75
66.6885	558.48
66.7029	592.67
66.7174	602.20
66.7318	614.37
66.7463	581.48
66.7607	579.31
66.7751	569.76
66.7896	591.09
66.8040	595.32
66.8185	604.93
66.8329	604.98
66.8473	563.24
66.8618	615.51
66.8762	601.53
66.8907	602.57
66.9051	607.38
66.9195	570.87
66.9340	570.37
66.9484	597.51
66.9629	588.12
66.9773	586.75
66.9917	608.46
67.0062	596.17
67.0206	598.06
67.0351	587.25
67.0495	581.43
67.0639	605.72
67.0784	620.89
67.0928	602.33
67.1073	605.27
67.1217	610.17
67.1361	572.92
67.1506	568.99
67.1650	584.15
67.1795	593.91
67.1939	536.94
67.2083	564.14
67.2228	575.76
67.2372	612.96
67.2517	597.60
67.2661	554.33
67.2805	575.74
67.2950	596.04
67.3094	610.10
67.3239	576.78
67.3383	607.13
67.3527	573.06
67.3672	550.84
67.3816	564.29
67.3961	551.54
67.4105	533.25
67.4250	593.62
67.4394	597.07
67.4538	563.57
67.4683	598.69
67.4827	569.03
67.4972	574.63
67.5116	559.89
67.5260	583.71
67.5405	584.07
67.5549	623.93
67.5694	581.27
67.5838	575.60
67.5982	598.59
67.6127	575.55
67.6271	595.74
67.6416	591.98
67.6560	619.40
67.6704	606.82
67.6849	596.66
67.6993	574.78
67.7138	588.86
67.7282	549.01
67.7426	558.65
67.7571	570.67
67.7715	596.33
67.7860	605.72
67.8004	580.99
67.8148	579.67
67.8293	584.49
67.8437	589.37
67.8582	583.49
67.8726	578.61
67.8870	566.48
67.9015	614.18
67.9159	591.23
67.9304	630.57
67.9448	587.56
67.9592	570.47
67.9737	571.36
67.9881	588.15
68.0026	554.43
68.0170	596.29
68.0314	558.82
68.0459	574.43
68.0603	626.49
68.0748	613.56
68.0892	614.31
68.1036	577.81
68.1181	547.10
68.1325	562.22
68.1470	562.02
68.1614	608.63
68.1758	576.96
68.1903	544.69
68.2047	595.64
68.2192	564.36
68.2336	614.67
68.2480	575.76
68.2625	561.60
68.2769	603.64
68.2914	615.35
68.3058	550.66
68.3202	556.04
68.3347	565.45
68.3491	568.21
68.3636	572.86
68.3780	604.98
68.3924	587.69
68.4069	537.45
68.4213	591.03
68.4358	574.98
68.4502	535.99
68.4646	548.65
68.4791	614.12
68.4935	516.93
68.5080	601.30
68.5224	565.06
68.5368	594.54
68.5513	586.13
68.5657	592.06
68.5802	572.99
68.5946	541.99
68.6090	555.84
68.6235	606.23
68.6379	588.88
68.6524	576.45
68.6668	530.04
68.6812	555.67
68.6957	573.23
68.7101	575.80
68.7246	583.93
68.7390	544.63
68.7534	571.97
68.7679	574.24
68.7823	558.74
68.7968	510.62
68.8112	555.59
68.8256	504.90
68.8401	612.64
68.8545	593.72
68.8690	556.10
68.8834	552.64
68.8978	582.47
68.9123	571.33
68.9267	523.27
68.9412	591.09
68.9556	582.07
68.9700	552.55
68.9845	552.76
68.9989	556.86
69.0134	574.40
69.0278	592.07
69.0422	610.11
69.0567	594.66
69.0711	607.84
69.0856	634.18
69.1000	595.89
69.1144	635.34
69.1289	614.72
69.1433	573.76
69.1578	568.84
69.1722	599.76
69.1866	585.31
69.2011	583.68
69.2155	578.91
69.2300	549.06
69.2444	571.90
69.2588	577.38
69.2733	582.24
69.2877	581.30
69.3022	563.97
69.3166	558.08
69.3310	615.83
69.3455	604.03
69.3599	518.16
69.3744	556.81
69.3888	538.93
69.4032	621.32
69.4177	614.25
69.4321	592.74
69.4466	581.54
69.4610	546.33
69.4754	595.70
69.4899	618.87
69.5043	620.55
69.5188	602.82
69.5332	615.77
69.5476	555.75
69.5621	590.29
69.5765	540.38
69.5910	550.41
69.6054	566.48
69.6198	584.06
69.6343	586.57
69.6487	549.55
69.6632	583.60
69.6776	563.13
69.6920	580.50
69.7065	592.16
69.7209	606.03
69.7354	560.81
69.7498	595.58
69.7642	586.19
69.7787	563.11
69.7931	563.35
69.8076	570.32
69.8220	526.64
69.8364	562.58
69.8509	541.66
69.8653	562.71
69.8798	560.71
69.8942	584.75
69.9086	579.18
69.9231	593.11
69.9375	568.37
69.9520	580.76
69.9664	544.17
69.9808	596.97
69.9953	621.54
70.0097	568.18
70.0242	544.79
70.0386	578.03
70.0530	567.99
70.0675	596.88
70.0819	617.77
70.0964	571.68
70.1108	573.61
70.1252	573.36
70.1397	580.15
70.1541	600.60
70.1686	592.57
70.1830	551.69
70.1974	542.99
70.2119	587.90
70.2263	560.95
70.2408	605.30
70.2552	605.20
70.2696	587.69
70.2841	548.94
70.2985	593.09
70.3130	569.31
70.3274	535.40
70.3418	573.13
70.3563	609.73
70.3707	588.93
70.3852	559.92
70.3996	588.24
70.4140	552.83
70.4285	621.70
70.4429	599.77
70.4574	626.77
70.4718	612.36
70.4862	579.03
70.5007	566.23
70.5151	562.24
70.5296	533.20
70.5440	612.22
70.5584	596.98
70.5729	592.31
70.5873	593.71
70.6018	552.32
70.6162	554.51
70.6306	577.07
70.6451	625.78
70.6595	629.47
70.6740	563.88
70.6884	538.22
70.7028	573.35
70.7173	619.79
70.7317	611.00
70.7462	640.88
70.7606	597.64
70.7750	564.35
70.7895	621.36
70.8039	580.94
70.8184	557.64
70.8328	573.88
70.8472	547.51
70.8617	620.66
70.8761	590.62
70.8906	552.93
70.9050	580.83
70.9194	585.87
70.9339	613.06
70.9483	634.24
70.9628	587.79
70.9772	547.85
70.9916	613.89
71.0061	599.94
71.0205	559.63
71.0350	545.84
71.0494	538.62
71.0638	580.96
71.0783	589.58
71.0927	600.53
71.1072	579.67
71.1216	583.47
71.1361	610.67
71.1505	584.46
71.1649	543.90
71.1794	575.41
71.1938	600.79
71.2083	620.21
71.2227	598.99
71.2371	600.99
71.2516	590.88
71.2660	576.19
71.2805	564.05
71.2949	589.94
71.3093	596.22
71.3238	651.85
71.3382	650.79
71.3527	568.60
71.3671	505.00
71.3815	529.94
71.3960	584.14
71.4104	536.37
71.4249	580.39
71.4393	619.90
71.4537	590.03
71.4682	571.57
71.4826	572.89
71.4971	586.93
71.5115	590.25
71.5259	608.92
71.5404	597.51
71.5548	544.00
71.5693	576.54
71.5837	615.62
71.5981	583.21
71.6126	562.76
71.6270	543.09
71.6415	538.24
71.6559	588.12
71.6703	582.30
71.6848	578.44
71.6992	562.56
71.7137	584.98
71.7281	602.11
71.7425	592.16
71.7570	612.40
71.7714	577.45
71.7859	620.03
71.8003	617.52
71.8147	566.79
71.8292	564.74
71.8436	537.82
71.8581	553.48
71.8725	605.49
71.8869	567.10
71.9014	539.12
71.9158	582.11
71.9303	593.65
71.9447	587.72
71.9591	602.01
71.9736	507.39
71.9880	512.11
72.0025	567.64
72.0169	518.37
72.0313	538.19
72.0458	504.48
72.0602	545.95
72.0747	578.73
72.0891	572.94
72.1035	627.74
72.1180	647.79
72.1324	618.96
72.1469	531.50
72.1613	539.66
72.1757	543.93
72.1902	530.97
72.2046	491.17
72.2191	519.04
72.2335	645.50
72.2479	674.36
72.2624	653.65
72.2768	640.90
72.2913	630.02
72.3057	605.33
72.3201	543.68
72.3346	566.62
72.3490	517.93
72.3635	531.70
72.3779	557.64
72.3923	497.23
72.4068	552.93
72.4212	592.08
72.4357	558.63
72.4501	544.24
72.4645	555.49
72.4790	542.70
72.4934	561.91
72.5079	607.26
72.5223	578.09
72.5367	561.65
72.5512	559.59
72.5656	563.28
72.5801	579.91
72.5945	501.59
72.6089	560.89
72.6234	625.59
72.6378	636.37
72.6523	629.75
72.6667	540.07
72.6811	547.21
72.6956	637.27
72.7100	592.72
72.7245	529.26
72.7389	558.02
72.7533	509.65
72.7678	521.62
72.7822	631.83
72.7967	561.25
72.8111	588.28
72.8255	606.83
72.8400	548.24
72.8544	515.24
72.8689	554.10
72.8833	580.10

Result vector
22.1120	557.84
22.1264	544.13
22.1409	493.88
22.1553	507.43
22.1697	642.94
22.1842	615.81
22.1986	526.00
22.2131	591.58
22.2275	604.22
22.2419	554.77
22.2564	538.66
22.2708	532.95
22.2853	587.39
22.2997	598.04
22.3141	540.99
22.3286	580.91
22.3430	616.43
22.3575	568.26
22.3719	616.44
22.3863	571.32
22.4008	644.85
22.4152	607.67
22.4297	585.06
22.4441	606.91
22.4585	658.69
22.4730	582.41
22.4874	549.34
22.5019	636.38
22.5163	669.45
22.5307	639.53
22.5452	629.90
22.5596	641.40
22.5741	619.47
22.5885	530.29
22.6029	528.18
22.6174	577.50
22.6318	596.38
22.6463	529.23
22.6607	602.79
22.6751	573.86
22.6896	648.41
22.7040	559.79
22.7185	595.11
22.7329	568.74
22.7473	533.91
22.7618	566.04
22.7762	539.58
22.7907	580.70
22.8051	585.63
22.8195	639.60
22.8340	586.23
22.8484	520.50
22.8629	569.74
22.8773	649.58
22.8917	524.76
22.9062	520.46
22.9206	549.20
22.9351	553.56
22.9495	549.13
22.9639	559.49
22.9784	510.42
22.9928	510.30
23.0073	523.33
23.0217	547.07
23.0361	603.02
23.0506	560.19
23.0650	579.03
23.0795	542.89
23.0939	652.64
23.1083	586.02
23.1228	609.01
23.1372	585.25
23.1517	552.62
23.1661	563.07
23.1806	580.81
23.1950	495.85
23.2094	542.82
23.2239	548.25
23.2383	579.56
23.2528	577.79
23.2672	568.82
23.2816	582.05
23.2961	455.46
23.3105	595.60
23.3250	610.05
23.3394	607.16
23.3538	557.50
23.3683	481.14
23.3827	599.47
23.3972	570.75
23.4116	537.95
23.4260	549.24
23.4405	489.77
23.4549	603.51
23.4694	544.13
23.4838	533.28
23.4982	539.09
23.5127	568.93
23.5271	526.32
23.5416	620.35
23.5560	621.17
23.5704	578.40
23.5849	613.44
23.5993	608.75
23.6138	599.71
23.6282	562.70
23.6426	548.35
23.6571	516.36
23.6715	539.94
23.6860	505.84
23.7004	527.96
23.7148	588.63
23.7293	558.25
23.7437	538.94
23.7582	510.33
23.7726	635.92
23.7870	546.71
23.8015	530.22
23.8159	589.50
23.8304	613.43
23.8448	590.40
23.8592	536.49
23.8737	585.21
23.8881	544.82
23.9026	600.45
23.9170	544.62
23.9314	542.62
23.9459	522.17
23.9603	574.82
23.9748	553.72
23.9892	527.05
24.0036	579.05
24.0181	529.49
24.0325	576.03
24.0470	580.27
24.0614	572.79
24.0758	596.66
24.0903	634.94
24.1047	494.99
24.1192	557.18
24.1336	548.41
24.1480	539.34
24.1625	575.08
24.1769	587.48
24.1914	564.60
24.2058	509.29
24.2202	580.63
24.2347	591.94
24.2491	566.60
24.2636	617.11
24.2780	602.08
24.2924	580.81
24.3069	541.53
24.3213	561.40
24.3358	562.37
24.3502	519.68
24.3646	493.76
24.3791	512.26
24.3935	611.26
24.4080	518.47
24.4224	627.12
24.4368	532.71
24.4513	528.36
24.4657	587.44
24.4802	551.39
24.4946	550.34
24.5090	554.84
24.5235	594.33
24.5379	542.15
24.5524	553.60
24.5668	530.15
24.5812	550.03
24.5957	586.44
24.6101	552.74
24.6246	538.56
24.6390	539.47
24.6534	529.93
24.6679	566.39
24.6823	563.84
24.6968	604.48
24.7112	534.38
24.7256	466.67
24.7401	559.70
24.7545	551.27
24.7690	531.78
24.7834	582.87
24.7978	534.51
24.8123	539.38
24.8267	515.88
24.8412	558.74
24.8556	595.04
24.8700	564.97
24.8845	570.79
24.8989	514.88
24.9134	537.37
24.9278	515.60
24.9422	561.31
24.9567	510.61
24.9711	547.31
24.9856	611.48
25.0000	531.81
25.0144	534.88
25.0289	574.31
25.0433	556.70
25.0578	523.16
25.0722	522.30
25.0866	551.51
25.1011	484.10
25.1155	529.87
25.1300	521.15
25.1444	561.33
25.1588	510.05
25.1733	526.34
25.1877	509.51
25.2022	552.17
25.2166	567.23
25.2310	561.47
25.2455	536.83
25.2599	546.44
25.2744	553.62
25.2888	549.80
25.3032	563.62
25.3177	586.22
25.3321	583.40
25.3466	551.02
25.3610	560.85
25.3754	532.93
25.3899	558.03
25.4043	581.56
25.4188	541.67
25.4332	585.58
25.4476	515.82
25.4621	488.92
25.4765	539.29
25.4910	511.96
25.5054	515.74
25.5198	539.64
25.5343	547.23
25.5487	538.67
25.5632	557.32
25.5776	527.01
25.5920	524.80
25.6065	528.47
25.6209	564.79
25.6354	524.85
25.6498	518.88
25.6642	503.11
25.6787	523.56
25.6931	543.52
25.7076	533.30
25.7220	519.40
25.7364	531.46
25.7509	525.96
25.7653	537.92
25.7798	541.14
25.7942	589.76
25.8086	588.32
25.8231	543.42
25.8375	506.24
25.8520	500.28
25.8664	578.35
25.8808	523.77
25.8953	518.80
25.9097	538.06
25.9242	548.62
25.9386	522.33
25.9530	511.13
25.9675	492.85
25.9819	554.33
25.9964	534.82
26.0108	538.80
26.0252	570.41
26.0397	521.82
26.0541	544.39
26.0686	523.64
26.0830	524.23
26.0974	534.16
26.1119	562.19
26.1263	550.76
26.1408	529.45
26.1552	520.02
26.1696	512.17
26.1841	524.27
26.1985	529.77
26.2130	553.64
26.2274	565.90
26.2418	526.99
26.2563	550.90
26.2707	508.39
26.2852	525.92
26.2996	553.59
26.3140	537.62
26.3285	522.47
26.3429	508.95
26.3574	515.61
26.3718	529.25
26.3862	532.33
26.4007	528.83
26.4151	522.60
26.4296	519.24
26.4440	507.96
26.4584	529.26
26.4729	503.98
26.4873	522.43
26.5018	520.60
26.5162	504.41
26.5306	537.35
26.5451	515.17
26.5595	504.92
26.5740	567.46
26.5884	544.29
26.6028	562.34
26.6173	551.78
26.6317	525.34
26.6462	575.07
26.6606	555.67
26.6750	518.97
26.6895	518.48
26.7039	551.06
26.7184	560.68
26.7328	556.90
26.7472	537.57
26.7617	504.53
26.7761	490.39
26.7906	508.26
26.8050	510.77
26.8194	520.85
26.8339	512.66
26.8483	519.84
26.8628	504.95
26.8772	494.20
26.8917	539.90
26.9061	575.80
26.9205	544.79
26.9350	528.24
26.9494	492.58
26.9639	534.96
26.9783	511.00
26.9927	498.03
27.0072	508.61
27.0216	525.98
27.0361	509.50
27.0505	492.57
27.0649	520.31
27.0794	520.71
27.0938	517.70
27.1083	527.56
27.1227	510.94
27.1371	511.12
27.1516	545.00
27.1660	525.38
27.1805	533.57
27.1949	528.19
27.2093	519.41
27.2238	533.49
27.2382	548.03
27.2527	524.51
27.2671	502.89
27.2815	527.91
27.2960	510.84
27.3104	510.46
27.3249	489.41
27.3393	499.14
27.3537	476.44
27.3682	504.45
27.3826	537.32
27.3971	526.45
27.4115	539.17
27.4259	548.76
27.4404	537.46
27.4548	511.90
27.4693	498.85
27.4837	505.06
27.4981	521.43
27.5126	500.96
27.5270	526.41
27.5415	526.79
27.5559	536.94
27.5703	485.41
27.5848	517.66
27.5992	532.02
27.6137	546.87
27.6281	526.36
27.6425	535.08
27.6570	523.97
27.6714	508.48
27.6859	512.23
27.7003	472.16
27.7147	488.03
27.7292	516.19
27.7436	534.72
27.7581	542.69
27.7725	522.52
27.7869	556.34
27.8014	513.47
27.8158	509.59
27.8303	509.04
27.8447	505.99
27.8591	524.30
27.8736	517.63
27.8880	501.82
27.9025	508.33
27.9169	525.85
27.9313	532.46
27.9458	516.54
27.9602	518.90
27.9747	524.65
27.9891	541.15
28.0035	505.10
28.0180	506.53
28.0324	528.77
28.0469	504.78
28.0613	515.43
28.0757	510.32
28.0902	536.70
28.1046	507.96
28.1191	535.51
28.1335	550.32
28.1479	526.78
28.1624	506.08
28.1768	533.25
28.1913	509.21
28.2057	495.62
28.2201	504.69
28.2346	497.95
28.2490	507.23
28.2635	528.40
28.2779	483.40
28.2923	506.42
28.3068	550.97
28.3212	515.28
28.3357	536.08
28.3501	515.36
28.3645	516.29
28.3790	512.29
28.3934	463.46
28.4079	486.16
28.4223	543.02
28.4367	541.18
28.4512	518.22
28.4656	493.65
28.4801	510.84
28.4945	517.82
28.5089	521.84
28.5234	509.71
28.5378	552.44
28.5523	520.83
28.5667	509.04
28.5811	510.79
28.5956	503.07
28.6100	516.91
28.6245	505.16
28.6389	530.52
28.6533	507.32
28.6678	533.21
28.6822	505.13
28.6967	519.44
28.7111	520.96
28.7255	526.40
28.7400	527.28
28.7544	524.17
28.7689	505.47
28.7833	527.32
28.7977	513.08
28.8122	533.48
28.8266	512.83
28.8411	518.35
28.8555	525.85
28.8699	514.57
28.8844	520.90
28.8988	520.27
28.9133	517.39
28.9277	474.10
28.9421	473.33
28.9566	503.24
28.9710	495.80
28.9855	499.12
28.9999	520.76
29.0143	514.54
29.0288	535.61
29.0432	494.34
29.0577	523.42
29.0721	468.47
29.0865	551.03
29.1010	506.34
29.1154	522.59
29.1299	509.00
29.1443	466.34
29.1587	519.31
29.1732	509.91
29.1876	484.24
29.2021	481.19
29.2165	516.63
29.2309	491.99
29.2454	498.83
29.2598	509.35
29.2743	496.28
29.2887	494.60
29.3031	501.06
29.3176	486.73
29.3320	529.46
29.3465	514.25
29.3609	526.34
29.3753	467.40
29.3898	513.80
29.4042	541.60
29.4187	531.96
29.4331	520.44
29.4475	469.79
29.4620	470.09
29.4764	502.85
29.4909	494.86
29.5053	510.26
29.5197	492.90
29.5342	502.70
29.5486	538.10
29.5631	518.88
29.5775	522.97
29.5919	510.18
29.6064	500.54
29.6208	475.97
29.6353	519.68
29.6497	488.10
29.6641	512.97
29.6786	501.32
29.6930	499.08
29.7075	541.87
29.7219	529.07
29.7363	515.47
29.7508	502.77
29.7652	514.81
29.7797	522.25
29.7941	508.74
29.8085	509.73
29.8230	499.60
29.8374	486.18
29.8519	493.39
29.8663	510.26
29.8807	467.55
29.8952	559.84
29.9096	511.97
29.9241	514.02
29.9385	502.59
29.9529	488.36
29.9674	492.01
29.9818	491.75
29.9963	505.80
30.0107	487.82
30.0251	483.84
30.0396	509.77
30.0540	495.61
30.0685	539.15
30.0829	505.58
30.0973	511.12
30.1118	467.42
30.1262	483.11
30.1407	485.98
30.1551	480.31
30.1695	500.50
30.1840	519.89
30.1984	521.88
30.2129	486.11
30.2273	498.08
30.2417	467.23
30.2562	530.85
30.2706	512.93
30.2851	502.55
30.2995	463.22
30.3139	470.87
30.3284	488.75
30.3428	519.84
30.3573	512.28
30.3717	487.92
30.3861	480.65
30.4006	493.30
30.4150	505.49
30.4295	511.19
30.4439	508.13
30.4583	541.37
30.4728	539.73
30.4872	489.37
30.5017	497.67
30.5161	490.87
30.5305	517.77
30.5450	490.40
30.5594	534.75
30.5739	494.62
30.5883	508.50
30.6028	502.63
30.6172	491.10
30.6316	491.99
30.6461	478.64
30.6605	518.06
30.6750	527.46
30.6894	519.71
30.7038	505.35
30.7183	516.23
30.7327	494.90
30.7472	563.90
30.7616	536.34
30.7760	528.71
30.7905	533.22
30.8049	595.36
30.8194	600.86
30.8338	613.97
30.8482	628.13
30.8627	630.02
30.8771	645.89
30.8916	650.41
30.9060	675.72
30.9204	677.85
30.9349	687.78
30.9493	671.42
30.9638	666.46
30.9782	649.81
30.9926	641.90
31.0071	632.10
31.0215	643.26
31.0360	627.53
31.0504	562.85
31.0648	580.66
31.0793	567.05
31.0937	556.79
31.1082	573.67
31.1226	575.86
31.1370	549.00
31.1515	514.84
31.1659	537.34
31.1804	554.76
31.1948	527.98
31.2092	537.02
31.2237	524.74
31.2381	509.95
31.2526	550.25
31.2670	539.17
31.2814	553.49
31.2959	552.42
31.3103	534.64
31.3248	538.27
31.3392	567.41
31.3536	530.93
31.3681	554.84
31.3825	525.79
31.3970	522.90
31.4114	524.45
31.4258	553.75
31.4403	538.60
31.4547	513.40
31.4692	492.36
31.4836	513.80
31.4980	515.74
31.5125	506.10
31.5269	495.78
31.5414	468.91
31.5558	516.89
31.5702	516.84
31.5847	510.48
31.5991	503.23
31.6136	507.02
31.6280	506.48
31.6424	536.50
31.6569	490.79
31.6713	508.48
31.6858	502.80
31.7002	506.04
31.7146	529.00
31.7291	493.86
31.7435	480.13
31.7580	513.89
31.7724	513.97
31.7868	513.41
31.8013	476.89
31.8157	505.51
31.8302	504.77
31.8446	486.73
31.8590	496.56
31.8735	536.20
31.8879	495.38
31.9024	499.87
31.9168	470.63
31.9312	495.93
31.9457	518.67
31.9601	498.84
31.9746	536.29
31.9890	519.08
32.0034	529.83
32.0179	535.16
32.0323	516.77
32.0468	539.19
32.0612	520.03
32.0756	474.98
32.0901	512.01
32.1045	527.83
32.1190	531.10
32.1334	508.81
32.1478	506.14
32.1623	502.39
32.1767	535.77
32.1912	491.12
32.2056	480.66
32.2200	528.56
32.2345	499.90
32.2489	478.44
32.2634	501.79
32.2778	539.01
32.2922	507.30
32.3067	482.72
32.3211	486.94
32.3356	517.24
32.3500	495.26
32.3644	511.69
32.3789	516.44
32.3933	498.15
32.4078	512.94
32.4222	525.09
32.4366	508.22
32.4511	504.38
32.4655	498.85
32.4800	506.41
32.4944	494.89
32.5088	492.05
32.5233	507.99
32.5377	511.40
32.5522	511.22
32.5666	505.08
32.5810	492.24
32.5955	477.23
32.6099	506.57
32.6244	511.27
32.6388	523.70
32.6532	490.18
32.6677	467.09
32.6821	481.32
32.6966	532.27
32.7110	527.89
32.7254	505.10
32.7399	465.07
32.7543	493.64
32.7688	478.69
32.7832	486.77
32.7976	477.32
32.8121	493.46
32.8265	518.92
32.8410	512.26
32.8554	500.61
32.8698	504.07
32.8843	493.19
32.8987	499.27
32.9132	486.46
32.9276	532.29
32.9420	527.63
32.9565	537.26
32.9709	484.15
32.9854	533.06
32.9998	508.70
33.0142	514.30
33.0287	481.71
33.0431	514.81
33.0576	530.46
33.0720	497.61
33.0864	500.47
33.1009	538.62
33.1153	506.74
33.1298	534.48
33.1442	515.58
33.1586	516.06
33.1731	531.85
33.1875	474.17
33.2020	495.52
33.2164	522.18
33.2308	505.21
33.2453	524.46
33.2597	515.74
33.2742	509.64
33.2886	519.84
33.3030	529.01
33.3175	494.84
33.3319	510.95
33.3464	545.00
33.3608	509.29
33.3752	521.43
33.3897	503.33
33.4041	489.56
33.4186	524.16
33.4330	545.86
33.4474	531.18
33.4619	525.91
33.4763	528.55
33.4908	536.42
33.5052	516.53
33.5196	504.95
33.5341	533.04
33.5485	504.78
33.5630	501.88
33.5774	544.79
33.5918	530.54
33.6063	491.23
33.6207	497.00
33.6352	517.74
33.6496	513.02
33.6640	531.34
33.6785	505.80
33.6929	521.62
33.7074	522.26
33.7218	530.94
33.7362	482.92
33.7507	496.37
33.7651	492.67
33.7796	492.57
33.7940	502.00
33.8084	500.92
33.8229	515.84
33.8373	549.80
33.8518	518.69
33.8662	543.23
33.8806	513.01
33.8951	485.35
33.9095	468.53
33.9240	509.43
33.9384	514.09
33.9528	498.07
33.9673	500.19
33.9817	491.67
33.9962	514.67
34.0106	462.19
34.0250	455.98
34.0395	499.29
34.0539	507.02
34.0684	529.93
34.0828	517.79
34.0972	504.73
34.1117	487.12
34.1261	511.28
34.1406	529.71
34.1550	512.32
34.1694	510.55
34.1839	485.99
34.1983	511.37
34.2128	506.06
34.2272	527.56
34.2417	526.52
34.2561	517.75
34.2705	499.55
34.2850	500.20
34.2994	508.42
34.3139	518.98
34.3283	532.48
34.3427	513.79
34.3572	494.29
34.3716	490.41
34.3861	481.49
34.4005	505.71
34.4149	507.52
34.4294	511.11
34.4438	489.94
34.4583	458.98
34.4727	474.10
34.4871	503.78
34.5016	526.94
34.5160	516.97
34.5305	506.46
34.5449	509.49
34.5593	512.31
34.5738	496.45
34.5882	512.24
34.6027	518.28
34.6171	523.61
34.6315	525.22
34.6460	524.53
34.6604	517.99
34.6749	499.57
34.6893	526.02
34.7037	518.12
34.7182	500.16
34.7326	472.00
34.7471	493.30
34.7615	469.54
34.7759	510.10
34.7904	498.56
34.8048	524.01
34.8193	575.33
34.8337	510.75
34.8481	489.45
34.8626	488.50
34.8770	503.29
34.8915	483.84
34.9059	520.29
34.9203	496.26
34.9348	454.03
34.9492	473.75
34.9637	520.25
34.9781	510.18
34.9925	494.68
35.0070	515.47
35.0214	530.24
35.0359	521.47
35.0503	517.77
35.0647	523.58
35.0792	518.19
35.0936	499.30
35.1081	483.06
35.1225	541.62
35.1369	527.65
35.1514	505.40
35.1658	506.67
35.1803	514.26
35.1947	528.38
35.2091	521.63
35.2236	518.98
35.2380	508.49
35.2525	528.86
35.2669	515.45
35.2813	524.10
35.2958	530.52
35.3102	548.17
35.3247	538.45
35.3391	532.07
35.3535	498.86
35.3680	492.89
35.3824	534.89
35.3969	525.09
35.4113	511.00
35.4257	539.33
35.4402	552.23
35.4546	504.14
35.4691	550.11
35.4835	562.51
35.4979	541.88
35.5124	512.69
35.5268	500.56
35.5413	559.65
35.5557	543.51
35.5701	552.93
35.5846	535.63
35.5990	549.29
35.6135	533.04
35.6279	536.99
35.6423	541.49
35.6568	524.35
35.6712	547.78
35.6857	579.07
35.7001	657.20
35.7145	695.84
35.7290	651.70
35.7434	613.91
35.7579	612.30
35.7723	584.30
35.7867	631.79
35.8012	687.38
35.8156	682.79
35.8301	601.98
35.8445	583.37
35.8589	615.42
35.8734	702.39
35.8878	839.08
35.9023	1025.24
35.9167	1053.38
35.9311	1481.94
35.9456	2431.33
35.9600	2372.17
35.9745	1794.19
35.9889	1659.93
36.0033	2184.57
36.0178	2251.36
36.0322	1952.89
36.0467	1761.95
36.0611	1527.83
36.0755	1503.08
36.0900	1525.24
36.1044	1334.87
36.1189	1303.40
36.1333	1158.75
36.1477	1044.33
36.1622	1032.92
36.1766	943.35
36.1911	852.71
36.2055	745.21
36.2199	688.71
36.2344	716.99
36.2488	678.38
36.2633	691.12
36.2777	736.96
36.2921	745.62
36.3066	725.53
36.3210	752.16
36.3355	800.35
36.3499	842.50
36.3643	877.93
36.3788	876.09
36.3932	906.90
36.4077	847.66
36.4221	1002.75
36.4365	969.30
36.4510	946.45
36.4654	957.60
36.4799	875.43
36.4943	879.60
36.5087	797.83
36.5232	807.16
36.5376	800.73
36.5521	770.10
36.5665	724.28
36.5809	645.50
36.5954	629.97
36.6098	617.24
36.6243	600.37
36.6387	618.31
36.6531	598.61
36.6676	578.87
36.6820	545.14
36.6965	581.48
36.7109	587.78
36.7253	563.93
36.7398	568.83
36.7542	556.90
36.7687	578.46
36.7831	577.22
36.7975	585.55
36.8120	591.25
36.8264	608.57
36.8409	592.49
36.8553	608.06
36.8697	673.43
36.8842	600.19
36.8986	613.49
36.9131	625.54
36.9275	594.15
36.9419	585.24
36.9564	592.54
36.9708	583.57
36.9853	565.75
36.9997	592.76
37.0141	543.32
37.0286	517.52
37.0430	487.80
37.0575	517.26
37.0719	553.96
37.0863	530.78
37.1008	527.97
37.1152	505.13
37.1297	508.30
37.1441	488.49
37.1585	508.87
37.1730	525.38
37.1874	493.78
37.2019	510.96
37.2163	534.30
37.2307	516.82
37.2452	525.21
37.2596	492.01
37.2741	510.57
37.2885	521.54
37.3029	500.32
37.3174	513.83
37.3318	517.31
37.3463	518.72
37.3607	511.41
37.3751	499.95
37.3896	526.10
37.4040	506.74
37.4185	493.31
37.4329	539.66
37.4473	477.00
37.4618	493.93
37.4762	495.17
37.4907	481.52
37.5051	495.80
37.5195	492.06
37.5340	525.01
37.5484	500.24
37.5629	506.80
37.5773	538.86
37.5917	503.31
37.6062	504.84
37.6206	497.06
37.6351	517.17
37.6495	523.77
37.6639	550.68
37.6784	557.46
37.6928	520.61
37.7073	503.03
37.7217	492.24
37.7361	483.23
37.7506	520.18
37.7650	517.11
37.7795	492.42
37.7939	513.82
37.8083	502.43
37.8228	493.26
37.8372	495.84
37.8517	516.64
37.8661	515.36
37.8805	494.54
37.8950	512.08
37.9094	531.14
37.9239	526.28
37.9383	537.05
37.9528	475.55
37.9672	489.05
37.9816	484.14
37.9961	513.38
38.0105	473.86
38.0250	509.45
38.0394	541.26
38.0538	520.62
38.0683	521.83
38.0827	528.18
38.0972	544.11
38.1116	534.40
38.1260	485.18
38.1405	499.21
38.1549	514.18
38.1694	554.12
38.1838	511.51
38.1982	512.07
38.2127	523.99
38.2271	485.10
38.2416	476.63
38.2560	498.36
38.2704	510.47
38.2849	527.69
38.2993	518.24
38.3138	541.34
38.3282	521.84
38.3426	507.24
38.3571	520.11
38.3715	535.90
38.3860	514.76
38.4004	550.08
38.4148	534.68
38.4293	554.04
38.4437	600.31
38.4582	619.76
38.4726	690.18
38.4870	696.36
38.5015	757.38
38.5159	744.37
38.5304	791.07
38.5448	805.34
38.5592	791.72
38.5737	752.86
38.5881	721.16
38.6026	688.95
38.6170	691.09
38.6314	666.15
38.6459	688.82
38.6603	682.30
38.6748	617.74
38.6892	576.20
38.7036	565.30
38.7181	548.28
38.7325	535.40
38.7470	525.32
38.7614	480.19
38.7758	501.42
38.7903	503.92
38.8047	501.52
38.8192	518.89
38.8336	542.87
38.8480	522.33
38.8625	512.67
38.8769	495.86
38.8914	491.70
38.9058	510.09
38.9202	497.87
38.9347	492.99
38.9491	507.44
38.9636	516.47
38.9780	503.43
38.9924	511.28
39.0069	512.13
39.0213	532.45
39.0358	516.99
39.0502	526.84
39.0646	509.41
39.0791	483.02
39.0935	477.08
39.1080	483.31
39.1224	528.37
39.1368	517.57
39.1513	453.31
39.1657	489.50
39.1802	512.47
39.1946	488.05
39.2090	489.22
39.2235	489.41
39.2379	484.36
39.2524	501.86
39.2668	498.64
39.2812	504.76
39.2957	470.80
39.3101	497.05
39.3246	528.03
39.3390	476.38
39.3534	504.80
39.3679	532.28
39.3823	522.04
39.3968	504.97
39.4112	525.78
39.4256	524.81
39.4401	493.05
39.4545	488.24
39.4690	514.52
39.4834	518.37
39.4978	509.25
39.5123	493.68
39.5267	505.48
39.5412	504.49
39.5556	472.80
39.5700	488.38
39.5845	494.47
39.5989	528.04
39.6134	533.12
39.6278	507.08
39.6422	505.76
39.6567	476.74
39.6711	481.23
39.6856	500.46
39.7000	518.66
39.7144	521.03
39.7289	476.37
39.7433	500.61
39.7578	491.93
39.7722	469.25
39.7866	502.41
39.8011	501.05
39.8155	506.94
39.8300	474.00
39.8444	496.03
39.8588	512.67
39.8733	531.49
39.8877	498.57
39.9022	485.86
39.9166	517.15
39.9310	484.53
39.9455	518.21
39.9599	464.04
39.9744	488.03
39.9888	545.29
40.0032	518.47
40.0177	479.86
40.0321	497.26
40.0466	514.61
40.0610	495.38
40.0754	494.61
40.0899	498.81
40.1043	545.96
40.1188	542.79
40.1332	513.22
40.1476	498.59
40.1621	522.00
40.1765	515.68
40.1910	466.74
40.2054	500.49
40.2198	519.54
40.2343	504.07
40.2487	470.41
40.2632	495.60
40.2776	512.84
40.2920	491.99
40.3065	472.56
40.3209	502.73
40.3354	505.92
40.3498	522.15
40.3642	508.83
40.3787	501.20
40.3931	511.19
40.4076	518.18
40.4220	497.58
40.4364	495.63
40.4509	475.99
40.4653	463.95
40.4798	499.75
40.4942	483.76
40.5086	493.81
40.5231	494.30
40.5375	502.61
40.5520	503.87
40.5664	501.50
40.5808	509.95
40.5953	507.45
40.6097	537.81
40.6242	506.52
40.6386	515.90
40.6530	478.30
40.6675	488.01
40.6819	541.72
40.6964	492.30
40.7108	495.79
40.7252	459.58
40.7397	470.57
40.7541	510.44
40.7686	499.13
40.7830	519.44
40.7974	499.54
40.8119	528.91
40.8263	510.44
40.8408	493.85
40.8552	496.00
40.8696	486.80
40.8841	480.84
40.8985	499.82
40.9130	506.29
40.9274	531.22
40.9418	486.69
40.9563	488.98
40.9707	504.25
40.9852	500.68
40.9996	511.45
41.0140	505.95
41.0285	518.23
41.0429	487.69
41.0574	461.04
41.0718	493.02
41.0862	491.82
41.1007	519.15
41.1151	509.52
41.1296	478.98
41.1440	459.66
41.1584	494.92
41.1729	471.43
41.1873	471.62
41.2018	474.65
41.2162	477.56
41.2306	480.84
41.2451	495.28
41.2595	522.01
41.2740	496.22
41.2884	491.59
41.3028	485.96
41.3173	516.25
41.3317	496.85
41.3462	522.84
41.3606	496.84
41.3750	474.33
41.3895	500.77
41.4039	495.67
41.4184	479.57
41.4328	516.78
41.4472	500.04
41.4617	479.84
41.4761	485.64
41.4906	528.55
41.5050	500.67
41.5194	477.07
41.5339	503.02
41.5483	496.26
41.5628	513.00
41.5772	518.78
41.5916	498.48
41.6061	507.62
41.6205	508.05
41.6350	498.59
41.6494	508.82
41.6639	494.78
41.6783	490.90
41.6927	503.51
41.7072	529.15
41.7216	523.92
41.7361	488.51
41.7505	494.72
41.7649	498.43
41.7794	502.69
41.7938	507.50
41.8083	538.13
41.8227	499.63
41.8371	511.73
41.8516	506.41
41.8660	481.66
41.8805	517.41
41.8949	589.92
41.9093	578.89
41.9238	554.47
41.9382	528.12
41.9527	528.03
41.9671	559.78
41.9815	555.25
41.9960	551.50
42.0104	537.76
42.0249	538.53
42.0393	551.95
42.0537	547.08
42.0682	598.72
42.0826	566.42
42.0971	614.17
42.1115	588.78
42.1259	623.13
42.1404	609.55
42.1548	605.37
42.1693	636.04
42.1837	723.79
42.1981	737.31
42.2126	830.48
42.2270	1007.88
42.2415	1082.54
42.2559	1208.38
42.2703	1330.10
42.2848	1549.95
42.2992	1665.48
42.3137	1706.27
42.3281	1668.45
42.3425	1596.35
42.3570	1467.02
42.3714	1384.17
42.3859	1390.84
42.4003	1373.76
42.4147	1298.02
42.4292	1258.00
42.4436	1102.37
42.4581	1032.20
42.4725	977.24
42.4869	827.27
42.5014	734.73
42.5158	704.88
42.5303	651.22
42.5447	631.04
42.5591	595.86
42.5736	576.53
42.5880	590.76
42.6025	561.50
42.6169	553.44
42.6313	541.28
42.6458	555.21
42.6602	556.33
42.6747	546.49
42.6891	541.14
42.7035	532.02
42.7180	546.34
42.7324	528.97
42.7469	526.88
42.7613	529.36
42.7757	532.89
42.7902	512.35
42.8046	544.41
42.8191	563.31
42.8335	519.08
42.8479	498.37
42.8624	541.01
42.8768	515.96
42.8913	530.64
42.9057	557.53
42.9201	517.62
42.9346	548.19
42.9490	525.85
42.9635	513.70
42.9779	522.23
42.9923	537.56
43.0068	514.16
43.0212	535.59
43.0357	509.21
43.0501	505.86
43.0645	523.90
43.0790	476.59
43.0934	527.05
43.1079	497.09
43.1223	520.04
43.1367	495.37
43.1512	507.38
43.1656	551.31
43.1801	545.59
43.1945	524.11
43.2089	499.14
43.2234	499.10
43.2378	512.04
43.2523	554.83
43.2667	533.50
43.2811	530.80
43.2956	506.68
43.3100	527.04
43.3245	545.11
43.3389	556.49
43.3533	523.55
43.3678	517.22
43.3822	524.02
43.3967	515.65
43.4111	496.58
43.4255	523.09
43.4400	526.59
43.4544	469.21
43.4689	508.23
43.4833	524.94
43.4977	492.43
43.5122	490.19
43.5266	525.69
43.5411	523.32
43.5555	522.22
43.5699	497.46
43.5844	517.84
43.5988	515.23
43.6133	501.67
43.6277	529.73
43.6421	533.41
43.6566	539.20
43.6710	479.76
43.6855	548.74
43.6999	520.75
43.7143	529.74
43.7288	527.60
43.7432	538.45
43.7577	547.01
43.7721	518.54
43.7865	515.10
43.8010	539.57
43.8154	528.65
43.8299	500.28
43.8443	530.30
43.8587	550.90
43.8732	547.75
43.8876	497.41
43.9021	510.10
43.9165	523.84
43.9309	524.51
43.9454	513.60
43.9598	499.34
43.9743	521.35
43.9887	513.88
44.0031	508.73
44.0176	536.40
44.0320	511.27
44.0465	511.20
44.0609	543.35
44.0753	554.22
44.0898	539.58
44.1042	536.40
44.1187	550.77
44.1331	548.87
44.1475	532.37
44.1620	559.99
44.1764	574.74
44.1909	543.43
44.2053	533.74
44.2197	619.08
44.2342	668.10
44.2486	633.76
44.2631	588.31
44.2775	567.39
44.2919	609.79
44.3064	648.50
44.3208	623.73
44.3353	676.33
44.3497	677.72
44.3641	621.86
44.3786	576.98
44.3930	606.07
44.4075	589.18
44.4219	625.87
44.4363	586.84
44.4508	591.70
44.4652	625.17
44.4797	605.75
44.4941	596.52
44.5085	597.98
44.5230	557.44
44.5374	582.15
44.5519	573.34
44.5663	579.00
44.5807	590.41
44.5952	587.66
44.6096	605.78
44.6241	579.77
44.6385	554.55
44.6529	603.77
44.6674	577.46
44.6818	609.85
44.6963	628.69
44.7107	610.38
44.7251	656.83
44.7396	782.20
44.7540	832.61
44.7685	825.73
44.7829	886.99
44.7973	903.49
44.8118	862.10
44.8262	853.27
44.8407	769.87
44.8551	747.84
44.8695	725.62
44.8840	701.41
44.8984	796.37
44.9129	720.19
44.9273	710.71
44.9417	664.32
44.9562	617.17
44.9706	561.72
44.9851	563.97
44.9995	560.05
45.0139	551.30
45.0284	546.48
45.0428	538.07
45.0573	510.72
45.0717	513.34
45.0861	509.41
45.1006	526.91
45.1150	536.99
45.1295	521.09
45.1439	511.88
45.1583	503.87
45.1728	501.38
45.1872	508.58
45.2017	522.58
45.2161	537.77
45.2305	533.87
45.2450	509.96
45.2594	489.46
45.2739	528.18
45.2883	518.53
45.3028	500.65
45.3172	493.05
45.3316	531.79
45.3461	518.16
45.3605	501.19
45.3750	512.53
45.3894	479.80
45.4038	480.93
45.4183	509.60
45.4327	471.33
45.4472	503.20
45.4616	503.73
45.4760	554.65
45.4905	521.96
45.5049	513.24
45.5194	520.04
45.5338	489.77
45.5482	503.92
45.5627	503.17
45.5771	476.46
45.5916	472.82
45.6060	487.81
45.6204	478.04
45.6349	502.33
45.6493	510.00
45.6638	522.42
45.6782	492.98
45.6926	478.80
45.7071	483.27
45.7215	501.49
45.7360	502.48
45.7504	471.70
45.7648	480.67
45.7793	490.39
45.7937	555.39
45.8082	524.97
45.8226	517.45
45.8370	511.24
45.8515	500.76
45.8659	541.75
45.8804	552.00
45.8948	513.87
45.9092	501.31
45.9237	480.67
45.9381	530.61
45.9526	499.05
45.9670	488.98
45.9814	453.28
45.9959	472.39
46.0103	492.05
46.0248	522.58
46.0392	514.07
46.0536	506.54
46.0681	510.34
46.0825	498.83
46.0970	480.06
46.1114	498.32
46.1258	497.37
46.1403	505.80
46.1547	464.71
46.1692	478.10
46.1836	491.90
46.1980	491.26
46.2125	515.32
46.2269	496.45
46.2414	506.64
46.2558	533.55
46.2702	527.93
46.2847	507.53
46.2991	486.08
46.3136	494.94
46.3280	491.70
46.3424	476.72
46.3569	536.64
46.3713	519.82
46.3858	494.58
46.4002	524.24
46.4146	510.31
46.4291	492.89
46.4435	472.45
46.4580	478.85
46.4724	478.05
46.4868	476.26
46.5013	482.23
46.5157	518.14
46.5302	483.77
46.5446	513.69
46.5590	526.08
46.5735	527.65
46.5879	489.93
46.6024	494.16
46.6168	516.23
46.6312	474.24
46.6457	477.29
46.6601	484.67
46.6746	494.23
46.6890	484.56
46.7034	499.08
46.7179	504.38
46.7323	508.63
46.7468	514.48
46.7612	520.92
46.7756	501.65
46.7901	519.86
46.8045	515.56
46.8190	515.73
46.8334	502.39
46.8478	518.31
46.8623	545.57
46.8767	521.94
46.8912	508.82
46.9056	504.79
46.9200	484.22
46.9345	518.59
46.9489	541.71
46.9634	545.04
46.9778	547.02
46.9922	510.88
47.0067	517.68
47.0211	553.27
47.0356	529.06
47.0500	497.42
47.0644	504.06
47.0789	536.32
47.0933	556.73
47.1078	530.41
47.1222	498.95
47.1366	518.98
47.1511	534.84
47.1655	522.81
47.1800	483.16
47.1944	494.49
47.2088	527.48
47.2233	528.05
47.2377	491.41
47.2522	515.68
47.2666	503.02
47.2810	518.45
47.2955	512.95
47.3099	488.37
47.3244	519.04
47.3388	541.94
47.3532	524.93
47.3677	508.67
47.3821	501.53
47.3966	517.11
47.4110	488.89
47.4254	531.40
47.4399	511.16
47.4543	513.06
47.4688	544.57
47.4832	520.12
47.4976	501.58
47.5121	518.36
47.5265	505.71
47.5410	503.84
47.5554	487.14
47.5698	484.86
47.5843	512.37
47.5987	521.39
47.6132	513.71
47.6276	503.34
47.6420	487.67
47.6565	504.07
47.6709	490.83
47.6854	512.01
47.6998	548.40
47.7142	504.12
47.7287	502.03
47.7431	483.85
47.7576	495.45
47.7720	500.21
47.7864	480.09
47.8009	477.58
47.8153	497.74
47.8298	491.72
47.8442	517.14
47.8586	548.44
47.8731	543.87
47.8875	550.88
47.9020	561.44
47.9164	528.62
47.9308	515.30
47.9453	525.47
47.9597	521.42
47.9742	512.34
47.9886	503.80
48.0030	522.70
48.0175	505.11
48.0319	517.24
48.0464	519.79
48.0608	540.93
48.0752	523.70
48.0897	543.51
48.1041	522.93
48.1186	542.03
48.1330	530.80
48.1474	477.95
48.1619	508.31
48.1763	540.16
48.1908	509.35
48.2052	476.03
48.2196	520.06
48.2341	504.06
48.2485	499.89
48.2630	515.27
48.2774	478.71
48.2918	495.34
48.3063	504.38
48.3207	489.26
48.3352	516.98
48.3496	504.34
48.3640	531.56
48.3785	491.13
48.3929	501.48
48.4074	516.95
48.4218	519.58
48.4362	536.86
48.4507	523.08
48.4651	516.10
48.4796	489.31
48.4940	516.11
48.5084	497.85
48.5229	522.37
48.5373	501.98
48.5518	501.72
48.5662	516.31
48.5806	516.60
48.5951	505.26
48.6095	506.38
48.6240	504.59
48.6384	502.41
48.6528	522.56
48.6673	532.78
48.6817	524.03
48.6962	509.86
48.7106	509.65
48.7250	548.32
48.7395	527.56
48.7539	547.69
48.7684	499.90
48.7828	516.92
48.7972	536.45
48.8117	571.69
48.8261	544.22
48.8406	543.50
48.8550	552.12
48.8694	529.44
48.8839	515.62
48.8983	525.45
48.9128	571.28
48.9272	547.88
48.9416	556.94
48.9561	538.60
48.9705	561.20
48.9850	602.79
48.9994	533.18
49.0139	594.20
49.0283	613.27
49.0427	648.74
49.0572	591.37
49.0716	604.36
49.0861	654.20
49.1005	685.66
49.1149	730.84
49.1294	768.12
49.1438	747.55
49.1583	789.04
49.1727	885.04
49.1871	893.60
49.2016	987.98
49.2160	1001.67
49.2305	1088.94
49.2449	1187.70
49.2593	1243.58
49.2738	1377.40
49.2882	1482.06
49.3027	1491.23
49.3171	1627.08
49.3315	1684.96
49.3460	1713.55
49.3604	1780.84
49.3749	1744.25
49.3893	1735.04
49.4037	1702.59
49.4182	1724.89
49.4326	1713.73
49.4471	1627.70
49.4615	1611.16
49.4759	1563.17
49.4904	1493.79
49.5048	1408.93
49.5193	1338.48
49.5337	1333.49
49.5481	1212.27
49.5626	1138.64
49.5770	1062.26
49.5915	1006.69
49.6059	918.86
49.6203	891.73
49.6348	827.20
49.6492	753.41
49.6637	750.99
49.6781	727.12
49.6925	677.30
49.7070	706.50
49.7214	672.06
49.7359	649.14
49.7503	614.17
49.7647	601.42
49.7792	607.54
49.7936	579.61
49.8081	582.30
49.8225	580.64
49.8369	573.15
49.8514	544.18
49.8658	585.82
49.8803	574.05
49.8947	597.41
49.9091	574.97
49.9236	551.52
49.9380	573.13
49.9525	555.89
49.9669	528.32
49.9813	517.49
49.9958	563.06
50.0102	556.82
50.0247	515.21
50.0391	517.00
50.0535	504.43
50.0680	528.68
50.0824	516.28
50.0969	515.03
50.1113	518.42
50.1257	531.19
50.1402	541.38
50.1546	534.36
50.1691	518.17
50.1835	514.43
50.1979	529.02
50.2124	513.76
50.2268	534.91
50.2413	519.56
50.2557	499.08
50.2701	486.33
50.2846	514.16
50.2990	516.43
50.3135	518.30
50.3279	518.13
50.3423	500.31
50.3568	513.27
50.3712	503.83
50.3857	511.82
50.4001	504.85
50.4145	518.46
50.4290	541.79
50.4434	522.02
50.4579	510.18
50.4723	545.15
50.4867	536.10
50.5012	551.81
50.5156	536.31
50.5301	523.71
50.5445	522.89
50.5589	523.96
50.5734	517.57
50.5878	494.07
50.6023	500.47
50.6167	507.81
50.6311	510.12
50.6456	543.23
50.6600	515.11
50.6745	503.59
50.6889	508.12
50.7033	532.48
50.7178	502.23
50.7322	518.77
50.7467	501.27
50.7611	464.05
50.7755	492.55
50.7900	501.44
50.8044	489.08
50.8189	516.70
50.8333	509.62
50.8477	497.28
50.8622	498.55
50.8766	486.01
50.8911	491.14
50.9055	507.20
50.9199	500.47
50.9344	475.66
50.9488	505.15
50.9633	519.16
50.9777	524.66
50.9921	521.08
51.0066	513.86
51.0210	464.68
51.0355	489.46
51.0499	510.26
51.0643	488.42
51.0788	515.93
51.0932	508.24
51.1077	494.68
51.1221	535.54
51.1365	513.54
51.1510	495.29
51.1654	552.55
51.1799	541.17
51.1943	496.04
51.2087	515.78
51.2232	523.30
51.2376	538.30
51.2521	514.85
51.2665	491.10
51.2809	508.81
51.2954	517.30
51.3098	515.38
51.3243	494.48
51.3387	519.70
51.3531	543.18
51.3676	515.99
51.3820	509.81
51.3965	515.65
51.4109	494.18
51.4253	518.06
51.4398	518.40
51.4542	518.08
51.4687	470.66
51.4831	495.90
51.4975	509.91
51.5120	524.32
51.5264	481.70
51.5409	476.21
51.5553	506.44
51.5697	522.29
51.5842	519.23
51.5986	521.74
51.6131	517.50
51.6275	505.99
51.6419	507.91
51.6564	513.13
51.6708	507.35
51.6853	505.55
51.6997	508.46
51.7141	516.30
51.7286	484.82
51.7430	521.90
51.7575	540.84
51.7719	516.59
51.7863	515.95
51.8008	525.74
51.8152	532.36
51.8297	530.50
51.8441	529.99
51.8585	509.04
51.8730	533.99
51.8874	524.66
51.9019	525.52
51.9163	501.82
51.9307	496.42
51.9452	513.50
51.9596	498.93
51.9741	528.00
51.9885	477.67
52.0029	480.86
52.0174	525.65
52.0318	536.65
52.0463	510.14
52.0607	534.50
52.0751	516.31
52.0896	537.09
52.1040	521.60
52.1185	519.24
52.1329	505.51
52.1473	463.17
52.1618	507.46
52.1762	527.49
52.1907	535.77
52.2051	514.81
52.2195	482.49
52.2340	510.89
52.2484	503.57
52.2629	533.70
52.2773	519.86
52.2917	535.18
52.3062	537.53
52.3206	512.07
52.3351	509.76
52.3495	549.67
52.3639	511.33
52.3784	497.33
52.3928	506.15
52.4073	499.20
52.4217	520.82
52.4361	503.80
52.4506	493.90
52.4650	529.47
52.4795	509.59
52.4939	501.49
52.5083	532.52
52.5228	545.07
52.5372	529.35
52.5517	476.07
52.5661	487.81
52.5805	526.31
52.5950	520.62
52.6094	524.10
52.6239	518.63
52.6383	506.98
52.6527	516.54
52.6672	502.83
52.6816	480.89
52.6961	522.03
52.7105	521.84
52.7250	500.27
52.7394	486.12
52.7538	505.56
52.7683	453.19
52.7827	520.83
52.7972	504.76
52.8116	527.34
52.8260	517.15
52.8405	493.69
52.8549	542.82
52.8694	518.75
52.8838	486.72
52.8982	519.66
52.9127	543.54
52.9271	505.84
52.9416	552.59
52.9560	539.40
52.9704	516.63
52.9849	551.92
52.9993	506.26
53.0138	520.99
53.0282	527.16
53.0426	468.68
53.0571	537.08
53.0715	487.77
53.0860	548.78
53.1004	518.14
53.1148	546.01
53.1293	514.54
53.1437	514.34
53.1582	457.15
53.1726	494.19
53.1870	496.78
53.2015	513.26
53.2159	508.37
53.2304	521.18
53.2448	526.03
53.2592	488.11
53.2737	464.99
53.2881	529.77
53.3026	545.27
53.3170	521.89
53.3314	549.26
53.3459	525.77
53.3603	518.28
53.3748	514.75
53.3892	500.52
53.4036	504.91
53.4181	529.57
53.4325	536.20
53.4470	512.97
53.4614	505.34
53.4758	524.35
53.4903	539.55
53.5047	534.66
53.5192	541.33
53.5336	528.26
53.5480	545.93
53.5625	542.86
53.5769	520.42
53.5914	520.95
53.6058	530.46
53.6202	512.09
53.6347	545.85
53.6491	528.45
53.6636	531.58
53.6780	505.70
53.6924	505.15
53.7069	540.22
53.7213	526.40
53.7358	476.53
53.7502	520.64
53.7646	514.55
53.7791	557.33
53.7935	509.54
53.8080	478.46
53.8224	524.73
53.8368	512.69
53.8513	537.00
53.8657	556.74
53.8802	517.11
53.8946	515.77
53.9090	526.24
53.9235	495.42
53.9379	505.64
53.9524	509.98
53.9668	495.21
53.9812	502.58
53.9957	497.56
54.0101	523.23
54.0246	496.37
54.0390	504.60
54.0534	507.80
54.0679	526.94
54.0823	534.68
54.0968	558.53
54.1112	513.33
54.1256	522.56
54.1401	494.13
54.1545	506.65
54.1690	524.08
54.1834	479.89
54.1978	513.13
54.2123	524.43
54.2267	531.01
54.2412	530.32
54.2556	521.09
54.2700	473.66
54.2845	488.00
54.2989	519.21
54.3134	545.11
54.3278	530.01
54.3422	550.40
54.3567	535.36
54.3711	513.31
54.3856	504.78
54.4000	508.10
54.4144	516.04
54.4289	539.41
54.4433	507.55
54.4578	509.21
54.4722	518.77
54.4866	518.00
54.5011	524.71
54.5155	525.11
54.5300	529.04
54.5444	508.32
54.5588	521.43
54.5733	528.24
54.5877	512.58
54.6022	532.00
54.6166	540.40
54.6310	537.38
54.6455	527.32
54.6599	537.07
54.6744	542.67
54.6888	517.23
54.7032	545.66
54.7177	567.74
54.7321	541.85
54.7466	534.75
54.7610	533.56
54.7754	545.65
54.7899	574.08
54.8043	560.09
54.8188	573.76
54.8332	567.00
54.8476	586.48
54.8621	592.28
54.8765	594.48
54.8910	575.63
54.9054	575.68
54.9198	585.42
54.9343	579.54
54.9487	580.00
54.9632	564.61
54.9776	566.74
54.9920	563.60
55.0065	566.50
55.0209	570.35
55.0354	586.51
55.0498	582.39
55.0642	602.49
55.0787	538.66
55.0931	581.35
55.1076	605.87
55.1220	587.17
55.1364	563.40
55.1509	541.96
55.1653	546.01
55.1798	544.47
55.1942	533.61
55.2086	535.80
55.2231	527.69
55.2375	561.35
55.2520	517.95
55.2664	532.41
55.2808	510.33
55.2953	516.73
55.3097	523.38
55.3242	504.14
55.3386	522.18
55.3530	518.73
55.3675	510.77
55.3819	546.92
55.3964	533.92
55.4108	548.55
55.4252	546.86
55.4397	562.21
55.4541	492.11
55.4686	540.37
55.4830	556.78
55.4974	508.26
55.5119	511.49
55.5263	535.04
55.5408	529.37
55.5552	523.19
55.5696	526.13
55.5841	545.98
55.5985	520.36
55.6130	538.65
55.6274	549.90
55.6418	552.53
55.6563	556.29
55.6707	524.11
55.6852	504.99
55.6996	525.77
55.7140	550.28
55.7285	541.80
55.7429	523.22
55.7574	520.20
55.7718	555.01
55.7862	555.24
55.8007	512.00
55.8151	503.43
55.8296	515.81
55.8440	521.05
55.8584	510.43
55.8729	531.02
55.8873	527.17
55.9018	550.30
55.9162	530.22
55.9306	549.91
55.9451	587.03
55.9595	531.37
55.9740	512.85
55.9884	559.80
56.0028	524.23
56.0173	512.86
56.0317	538.51
56.0462	523.32
56.0606	525.10
56.0750	519.07
56.0895	516.36
56.1039	553.63
56.1184	539.91
56.1328	541.10
56.1472	486.48
56.1617	542.80
56.1761	531.62
56.1906	552.20
56.2050	502.01
56.2194	512.78
56.2339	516.75
56.2483	500.33
56.2628	535.38
56.2772	535.98
56.2916	512.97
56.3061	545.74
56.3205	514.73
56.3350	521.52
56.3494	504.39
56.3639	497.59
56.3783	549.06
56.3927	542.08
56.4072	527.55
56.4216	557.35
56.4361	527.03
56.4505	519.34
56.4649	527.44
56.4794	562.00
56.4938	543.70
56.5083	515.89
56.5227	532.92
56.5371	532.68
56.5516	511.73
56.5660	500.57
56.5805	499.81
56.5949	525.42
56.6093	511.36
56.6238	478.00
56.6382	498.55
56.6527	519.50
56.6671	516.45
56.6815	507.57
56.6960	513.84
56.7104	527.41
56.7249	510.13
56.7393	494.47
56.7537	536.23
56.7682	505.03
56.7826	507.05
56.7971	474.75
56.8115	503.49
56.8259	511.57
56.8404	537.15
56.8548	537.71
56.8693	546.54
56.8837	541.01
56.8981	521.45
56.9126	498.61
56.9270	485.90
56.9415	558.36
56.9559	506.99
56.9703	532.05
56.9848	534.30
56.9992	557.09
57.0137	510.59
57.0281	526.29
57.0425	500.00
57.0570	521.59
57.0714	472.84
57.0859	501.87
57.1003	505.22
57.1147	545.67
57.1292	551.40
57.1436	530.47
57.1581	543.75
57.1725	518.30
57.1869	535.48
57.2014	563.12
57.2158	519.04
57.2303	499.84
57.2447	541.64
57.2591	528.33
57.2736	532.96
57.2880	554.79
57.3025	526.14
57.3169	512.57
57.3313	535.63
57.3458	535.80
57.3602	530.29
57.3747	545.95
57.3891	486.38
57.4035	510.18
57.4180	518.16
57.4324	524.79
57.4469	505.06
57.4613	529.86
57.4757	531.40
57.4902	545.93
57.5046	533.05
57.5191	521.45
57.5335	518.47
57.5479	536.88
57.5624	562.63
57.5768	557.36
57.5913	532.05
57.6057	519.80
57.6201	547.98
57.6346	545.97
57.6490	523.94
57.6635	505.92
57.6779	542.56
57.6923	533.77
57.7068	529.32
57.7212	530.61
57.7357	507.17
57.7501	533.10
57.7645	520.87
57.7790	552.63
57.7934	540.87
57.8079	526.43
57.8223	555.26
57.8367	544.83
57.8512	532.42
57.8656	561.67
57.8801	525.67
57.8945	540.79
57.9089	550.00
57.9234	553.34
57.9378	546.62
57.9523	540.31
57.9667	539.43
57.9811	562.69
57.9956	552.23
58.0100	523.99
58.0245	517.07
58.0389	516.15
58.0533	551.87
58.0678	529.14
58.0822	521.88
58.0967	542.85
58.1111	559.76
58.1255	560.81
58.1400	524.47
58.1544	518.58
58.1689	569.49
58.1833	559.62
58.1977	536.38
58.2122	536.08
58.2266	537.01
58.2411	565.47
58.2555	560.33
58.2699	563.23
58.2844	578.33
58.2988	549.52
58.3133	540.71
58.3277	588.09
58.3421	564.90
58.3566	572.28
58.3710	564.03
58.3855	574.45
58.3999	547.33
58.4143	587.29
58.4288	595.50
58.4432	583.12
58.4577	591.55
58.4721	595.50
58.4865	609.16
58.5010	590.13
58.5154	588.90
58.5299	614.23
58.5443	628.61
58.5587	652.80
58.5732	616.39
58.5876	593.44
58.6021	617.07
58.6165	601.64
58.6309	614.89
58.6454	587.74
58.6598	634.01
58.6743	647.82
58.6887	637.11
58.7031	640.90
58.7176	627.71
58.7320	588.55
58.7465	592.12
58.7609	601.10
58.7753	599.69
58.7898	593.68
58.8042	612.43
58.8187	602.66
58.8331	608.30
58.8475	585.98
58.8620	568.74
58.8764	585.89
58.8909	555.02
58.9053	576.27
58.9197	579.42
58.9342	573.26
58.9486	575.41
58.9631	543.90
58.9775	549.77
58.9919	556.16
59.0064	553.05
59.0208	568.15
59.0353	553.37
59.0497	548.21
59.0641	538.35
59.0786	559.83
59.0930	556.82
59.1075	541.11
59.1219	568.62
59.1363	558.38
59.1508	558.07
59.1652	555.33
59.1797	574.47
59.1941	561.41
59.2085	515.78
59.2230	526.46
59.2374	583.39
59.2519	548.02
59.2663	553.20
59.2807	590.40
59.2952	556.38
59.3096	584.49
59.3241	554.99
59.3385	595.77
59.3529	563.42
59.3674	588.82
59.3818	570.98
59.3963	559.19
59.4107	553.36
59.4251	601.27
59.4396	599.76
59.4540	586.55
59.4685	588.03
59.4829	542.41
59.4973	522.53
59.5118	546.95
59.5262	558.37
59.5407	587.32
59.5551	571.72
59.5695	530.29
59.5840	532.69
59.5984	520.26
59.6129	537.44
59.6273	531.64
59.6417	554.48
59.6562	576.09
59.6706	552.92
59.6851	515.45
59.6995	542.07
59.7139	540.10
59.7284	539.10
59.7428	552.64
59.7573	564.34
59.7717	554.79
59.7861	587.62
59.8006	581.50
59.8150	556.21
59.8295	518.01
59.8439	523.02
59.8583	552.73
59.8728	570.08
59.8872	505.33
59.9017	519.77
59.9161	534.41
59.9305	521.27
59.9450	533.54
59.9594	540.57
59.9739	569.11
59.9883	538.76
60.0027	553.52
60.0172	500.71
60.0316	542.12
60.0461	526.62
60.0605	578.68
60.0750	555.53
60.0894	547.64
60.1038	490.55
60.1183	548.27
60.1327	544.46
60.1472	508.78
60.1616	531.39
60.1760	563.16
60.1905	544.54
60.2049	506.11
60.2194	524.06
60.2338	553.29
60.2482	525.22
60.2627	494.91
60.2771	526.78
60.2916	521.15
60.3060	538.98
60.3204	556.69
60.3349	586.11
60.3493	557.16
60.3638	530.76
60.3782	539.05
60.3926	507.68
60.4071	498.57
60.4215	583.29
60.4360	552.59
60.4504	511.53
60.4648	521.25
60.4793	536.99
60.4937	540.36
60.5082	528.46
60.5226	521.30
60.5370	516.64
60.5515	572.25
60.5659	540.54
60.5804	530.53
60.5948	548.04
60.6092	553.68
60.6237	524.39
60.6381	536.17
60.6526	536.14
60.6670	569.58
60.6814	552.47
60.6959	526.59
60.7103	558.82
60.7248	547.95
60.7392	538.46
60.7536	535.92
60.7681	539.17
60.7825	540.76
60.7970	561.68
60.8114	554.52
60.8258	559.59
60.8403	560.18
60.8547	548.93
60.8692	533.96
60.8836	535.06
60.8980	584.39
60.9125	563.04
60.9269	473.22
60.9414	530.59
60.9558	572.33
60.9702	520.20
60.9847	548.34
60.9991	552.40
61.0136	518.67
61.0280	593.18
61.0424	566.54
61.0569	520.17
61.0713	546.01
61.0858	552.41
61.1002	579.85
61.1146	520.16
61.1291	537.83
61.1435	525.01
61.1580	546.07
61.1724	541.12
61.1868	512.62
61.2013	544.58
61.2157	557.44
61.2302	530.64
61.2446	518.41
61.2590	558.51
61.2735	536.20
61.2879	563.31
61.3024	526.56
61.3168	534.43
61.3312	582.42
61.3457	570.62
61.3601	553.47
61.3746	540.16
61.3890	525.52
61.4034	539.65
61.4179	558.97
61.4323	607.52
61.4468	550.03
61.4612	557.98
61.4756	539.04
61.4901	547.33
61.5045	530.71
61.5190	542.02
61.5334	560.77
61.5478	564.40
61.5623	549.19
61.5767	535.20
61.5912	533.63
61.6056	545.02
61.6200	534.27
61.6345	544.14
61.6489	530.82
61.6634	524.68
61.6778	530.51
61.6922	542.24
61.7067	547.29
61.7211	526.12
61.7356	516.07
61.7500	567.13
61.7644	544.41
61.7789	529.64
61.7933	537.49
61.8078	574.27
61.8222	579.76
61.8366	546.58
61.8511	558.48
61.8655	555.75
61.8800	543.67
61.8944	544.17
61.9088	566.87
61.9233	537.58
61.9377	582.93
61.9522	568.29
61.9666	545.19
61.9810	534.09
61.9955	535.54
62.0099	546.24
62.0244	567.12
62.0388	558.74
62.0532	522.23
62.0677	532.42
62.0821	536.43
62.0966	523.11
62.1110	534.72
62.1254	549.01
62.1399	547.55
62.1543	506.00
62.1688	536.22
62.1832	576.04
62.1976	525.89
62.2121	567.77
62.2265	565.85
62.2410	531.05
62.2554	538.13
62.2698	530.83
62.2843	537.66
62.2987	587.86
62.3132	544.38
62.3276	561.94
62.3420	560.97
62.3565	575.74
62.3709	585.49
62.3854	578.70
62.3998	557.00
62.4142	538.01
62.4287	560.04
62.4431	552.18
62.4576	555.09
62.4720	578.30
62.4864	562.20
62.5009	572.06
62.5153	569.63
62.5298	585.69
62.5442	570.72
62.5586	539.16
62.5731	526.22
62.5875	557.17
62.6020	559.20
62.6164	560.83
62.6308	575.40
62.6453	570.96
62.6597	572.99
62.6742	563.14
62.6886	552.97
62.7030	551.85
62.7175	557.85
62.7319	538.08
62.7464	580.20
62.7608	558.15
62.7752	554.96
62.7897	561.02
62.8041	569.54
62.8186	537.14
62.8330	564.22
62.8474	558.99
62.8619	577.36
62.8763	592.47
62.8908	582.20
62.9052	601.88
62.9196	593.48
62.9341	591.22
62.9485	566.95
62.9630	535.92
62.9774	545.16
62.9918	580.34
63.0063	559.74
63.0207	564.42
63.0352	602.48
63.0496	543.98
63.0640	529.32
63.0785	573.88
63.0929	583.97
63.1074	574.01
63.1218	600.54
63.1362	585.51
63.1507	546.82
63.1651	606.67
63.1796	560.88
63.1940	565.17
63.2084	575.28
63.2229	568.48
63.2373	539.82
63.2518	550.55
63.2662	561.29
63.2806	581.01
63.2951	560.11
63.3095	549.27
63.3240	583.98
63.3384	596.31
63.3528	586.20
63.3673	568.97
63.3817	578.79
63.3962	574.45
63.4106	591.15
63.4250	584.09
63.4395	586.21
63.4539	582.19
63.4684	579.42
63.4828	578.98
63.4972	541.29
63.5117	544.48
63.5261	549.47
63.5406	547.09
63.5550	525.45
63.5694	583.13
63.5839	598.84
63.5983	557.04
63.6128	562.44
63.6272	565.58
63.6416	606.43
63.6561	576.13
63.6705	560.58
63.6850	566.88
63.6994	622.48
63.7138	621.99
63.7283	614.38
63.7427	582.52
63.7572	596.30
63.7716	578.80
63.7861	584.89
63.8005	588.01
63.8149	594.96
63.8294	613.27
63.8438	582.99
63.8583	630.41
63.8727	599.53
63.8871	564.02
63.9016	606.20
63.9160	622.95
63.9305	607.80
63.9449	593.04
63.9593	585.44
63.9738	622.50
63.9882	593.46
64.0027	597.69
64.0171	580.69
64.0315	605.42
64.0460	610.19
64.0604	618.96
64.0749	641.17
64.0893	638.72
64.1037	630.92
64.1182	661.08
64.1326	710.33
64.1471	638.38
64.1615	673.84
64.1759	679.82
64.1904	671.25
64.2048	723.70
64.2193	719.36
64.2337	723.42
64.2481	730.89
64.2626	731.70
64.2770	758.71
64.2915	735.02
64.3059	748.35
64.3203	756.98
64.3348	782.08
64.3492	818.28
64.3637	784.56
64.3781	745.52
64.3925	749.64
64.4070	804.50
64.4214	771.90
64.4359	812.76
64.4503	774.23
64.4647	748.15
64.4792	768.28
64.4936	765.33
64.5081	781.47
64.5225	745.12
64.5369	751.24
64.5514	757.67
64.5658	694.57
64.5803	695.54
64.5947	723.92
64.6091	739.68
64.6236	737.87
64.6380	732.07
64.6525	758.59
64.6669	782.02
64.6813	737.43
64.6958	754.30
64.7102	775.63
64.7247	742.01
64.7391	725.24
64.7535	735.06
64.7680	694.76
64.7824	735.72
64.7969	786.13
64.8113	769.09
64.8257	754.87
64.8402	786.26
64.8546	811.28
64.8691	896.17
64.8835	894.81
64.8979	896.84
64.9124	857.72
64.9268	857.54
64.9413	936.09
64.9557	939.40
64.9701	993.84
64.9846	1095.81
64.9990	1132.84
65.0135	1307.90
65.0279	1473.33
65.0423	1706.24
65.0568	2181.68
65.0712	2612.25
65.0857	3585.32
65.1001	4749.24
65.1145	6389.31
65.1290	8366.60
65.1434	9799.41
65.1579	11434.61
65.1723	11991.49
65.1867	11362.36
65.2012	10038.13
65.2156	8187.67
65.2301	6346.71
65.2445	5186.12
65.2589	4392.07
65.2734	4136.67
65.2878	4500.66
65.3023	5016.35
65.3167	5942.17
65.3311	6554.90
65.3456	7008.07
65.3600	7021.18
65.3745	6525.20
65.3889	5491.10
65.4033	4429.58
65.4178	3370.94
65.4322	2670.97
65.4467	2043.98
65.4611	1742.72
65.4755	1537.71
65.4900	1313.87
65.5044	1123.68
65.5189	1080.44
65.5333	1015.14
65.5477	945.71
65.5622	872.03
65.5766	891.63
65.5911	870.20
65.6055	780.38
65.6199	751.26
65.6344	734.03
65.6488	732.87
65.6633	771.70
65.6777	771.58
65.6921	711.01
65.7066	747.25
65.7210	711.87
65.7355	706.30
65.7499	714.77
65.7643	674.18
65.7788	655.04
65.7932	660.26
65.8077	657.55
65.8221	662.72
65.8365	649.11
65.8510	640.10
65.8654	696.48
65.8799	603.67
65.8943	661.32
65.9087	649.73
65.9232	668.06
65.9376	678.18
65.9521	653.54
65.9665	644.08
65.9809	633.59
65.9954	612.51
66.0098	624.09
66.0243	693.18
66.0387	632.03
66.0531	631.54
66.0676	651.45
66.0820	629.43
66.0965	646.05
66.1109	629.15
66.1253	623.49
66.1398	659.68
66.1542	629.89
66.1687	611.23
66.1831	582.62
66.1975	575.53
66.2120	621.55
66.2264	623.69
66.2409	598.15
66.2553	618.76
66.2697	596.18
66.2842	639.94
66.2986	615.64
66.3131	613.49
66.3275	611.92
66.3419	625.62
66.3564	632.38
66.3708	571.57
66.3853	594.95
66.3997	611.79
66.4141	613.10
66.4286	633.20
66.4430	559.53
66.4575	586.51
66.4719	598.86
66.4863	594.88
66.5008	609.13
66.5152	594.66
66.5297	590.01
66.5441	595.55
66.5585	574.59
66.5730	579.02
66.5874	611.08
66.6019	624.33
66.6163	583.91
66.6307	572.60
66.6452	623.05
66.6596	605.14
66.6741	556.75
66.6885	558.48
66.7029	592.67
66.7174	602.20
66.7318	614.37
66.7463	581.48
66.7607	579.31
66.7751	569.76
66.7896	591.09
66.8040	595.32
66.8185	604.93
66.8329	604.98
66.8473	563.24
66.8618	615.51
66.8762	601.53
66.8907	602.57
66.9051	607.38
66.9195	570.87
66.9340	570.37
66.9484	597.51
66.9629	588.12
66.9773	586.75
66.9917	608.46
67.0062	596.17
67.0206	598.06
67.0351	587.25
67.0495	581.43
67.0639	605.72
67.0784	620.89
67.0928	602.33
67.1073	605.27
67.1217	610.17
67.1361	572.92
67.1506	568.99
67.1650	584.15
67.1795	593.91
67.1939	536.94
67.2083	564.14
67.2228	575.76
67.2372	612.96
67.2517	597.60
67.2661	554.33
67.2805	575.74
67.2950	596.04
67.3094	610.10
67.3239	576.78
67.3383	607.13
67.3527	573.06
67.3672	550.84
67.3816	564.29
67.3961	551.54
67.4105	533.25
67.4250	593.62
67.4394	597.07
67.4538	563.57
67.4683	598.69
67.4827	569.03
67.4972	574.63
67.5116	559.89
67.5260	583.71
67.5405	584.07
67.5549	623.93
67.5694	581.27
67.5838	575.60
67.5982	598.59
67.6127	575.55
67.6271	595.74
67.6416	591.98
67.6560	619.40
67.6704	606.82
67.6849	596.66
67.6993	574.78
67.7138	588.86
67.7282	549.01
67.7426	558.65
67.7571	570.67
67.7715	596.33
67.7860	605.72
67.8004	580.99
67.8148	579.67
67.8293	584.49
67.8437	589.37
67.8582	583.49
67.8726	578.61
67.8870	566.48
67.9015	614.18
67.9159	591.23
67.9304	630.57
67.9448	587.56
67.9592	570.47
67.9737	571.36
67.9881	588.15
68.0026	554.43
68.0170	596.29
68.0314	558.82
68.0459	574.43
68.0603	626.49
68.0748	613.56
68.0892	614.31
68.1036	577.81
68.1181	547.10
68.1325	562.22
68.1470	562.02
68.1614	608.63
68.1758	576.96
68.1903	544.69
68.2047	595.64
68.2192	564.36
68.2336	614.67
68.2480	575.76
68.2625	561.60
68.2769	603.64
68.2914	615.35
68.3058	550.66
68.3202	556.04
68.3347	565.45
68.3491	568.21
68.3636	572.86
68.3780	604.98
68.3924	587.69
68.4069	537.45
68.4213	591.03
68.4358	574.98
68.4502	535.99
68.4646	548.65
68.4791	614.12
68.4935	516.93
68.5080	601.30
68.5224	565.06
68.5368	594.54
68.5513	586.13
68.5657	592.06
68.5802	572.99
68.5946	541.99
68.6090	555.84
68.6235	606.23
68.6379	588.88
68.6524	576.45
68.6668	530.04
68.6812	555.67
68.6957	573.23
68.7101	575.80
68.7246	583.93
68.7390	544.63
68.7534	571.97
68.7679	574.24
68.7823	558.74
68.7968	510.62
68.8112	555.59
68.8256	504.90
68.8401	612.64
68.8545	593.72
68.8690	556.10
68.8834	552.64
68.8978	582.47
68.9123	571.33
68.9267	523.27
68.9412	591.09
68.9556	582.07
68.9700	552.55
68.9845	552.76
68.9989	556.86
69.0134	574.40
69.0278	592.07
69.0422	610.11
69.0567	594.66
69.0711	607.84
69.0856	634.18
69.1000	595.89
69.1144	635.34
69.1289	614.72
69.1433	573.76
69.1578	568.84
69.1722	599.76
69.1866	585.31
69.2011	583.68
69.2155	578.91
69.2300	549.06
69.2444	571.90
69.2588	577.38
69.2733	582.24
69.2877	581.30
69.3022	563.97
69.3166	558.08
69.3310	615.83
69.3455	604.03
69.3599	518.16
69.3744	556.81
69.3888	538.93
69.4032	621.32
69.4177	614.25
69.4321	592.74
69.4466	581.54
69.4610	546.33
69.4754	595.70
69.4899	618.87
69.5043	620.55
69.5188	602.82
69.5332	615.77
69.5476	555.75
69.5621	590.29
69.5765	540.38
69.5910	550.41
69.6054	566.48
69.6198	584.06
69.6343	586.57
69.6487	549.55
69.6632	583.60
69.6776	563.13
69.6920	580.50
69.7065	592.16
69.7209	606.03
69.7354	560.81
69.7498	595.58
69.7642	586.19
69.7787	563.11
69.7931	563.35
69.8076	570.32
69.8220	526.64
69.8364	562.58
69.8509	541.66
69.8653	562.71
69.8798	560.71
69.8942	584.75
69.9086	579.18
69.9231	593.11
69.9375	568.37
69.9520	580.76
69.9664	544.17
69.9808	596.97
69.9953	621.54
70.0097	568.18
70.0242	544.79
70.0386	578.03
70.0530	567.99
70.0675	596.88
70.0819	617.77
70.0964	571.68
70.1108	573.61
70.1252	573.36
70.1397	580.15
70.1541	600.60
70.1686	592.57
70.1830	551.69
70.1974	542.99
70.2119	587.90
70.2263	560.95
70.2408	605.30
70.2552	605.20
70.2696	587.69
70.2841	548.94
70.2985	593.09
70.3130	569.31
70.3274	535.40
70.3418	573.13
70.3563	609.73
70.3707	588.93
70.3852	559.92
70.3996	588.24
70.4140	552.83
70.4285	621.70
70.4429	599.77
70.4574	626.77
70.4718	612.36
70.4862	579.03
70.5007	566.23
70.5151	562.24
70.5296	533.20
70.5440	612.22
70.5584	596.98
70.5729	592.31
70.5873	593.71
70.6018	552.32
70.6162	554.51
70.6306	577.07
70.6451	625.78
70.6595	629.47
70.6740	563.88
70.6884	538.22
70.7028	573.35
70.7173	619.79
70.7317	611.00
70.7462	640.88
70.7606	597.64
70.7750	564.35
70.7895	621.36
70.8039	580.94
70.8184	557.64
70.8328	573.88
70.8472	547.51
70.8617	620.66
70.8761	590.62
70.8906	552.93
70.9050	580.83
70.9194	585.87
70.9339	613.06
70.9483	634.24
70.9628	587.79
70.9772	547.85
70.9916	613.89
71.0061	599.94
71.0205	559.63
71.0350	545.84
71.0494	538.62
71.0638	580.96
71.0783	589.58
71.0927	600.53
71.1072	579.67
71.1216	583.47
71.1361	610.67
71.1505	584.46
71.1649	543.90
71.1794	575.41
71.1938	600.79
71.2083	620.21
71.2227	598.99
71.2371	600.99
71.2516	590.88
71.2660	576.19
71.2805	564.05
71.2949	589.94
71.3093	596.22
71.3238	651.85
71.3382	650.79
71.3527	568.60
71.3671	505.00
71.3815	529.94
71.3960	584.14
71.4104	536.37
71.4249	580.39
71.4393	619.90
71.4537	590.03
71.4682	571.57
71.4826	572.89
71.4971	586.93
71.5115	590.25
71.5259	608.92
71.5404	597.51
71.5548	544.00
71.5693	576.54
71.5837	615.62
71.5981	583.21
71.6126	562.76
71.6270	543.09
71.6415	538.24
71.6559	588.12
71.6703	582.30
71.6848	578.44
71.6992	562.56
71.7137	584.98
71.7281	602.11
71.7425	592.16
71.7570	612.40
71.7714	577.45
71.7859	620.03
71.8003	617.52
71.8147	566.79
71.8292	564.74
71.8436	537.82
71.8581	553.48
71.8725	605.49
71.8869	567.10
71.9014	539.12
71.9158	582.11
71.9303	593.65
71.9447	587.72
71.9591	602.01
71.9736	507.39
71.9880	512.11
72.0025	567.64
72.0169	518.37
72.0313	538.19
72.0458	504.48
72.0602	545.95
72.0747	578.73
72.0891	572.94
72.1035	627.74
72.1180	647.79
72.1324	618.96
72.1469	531.50
72.1613	539.66
72.1757	543.93
72.1902	530.97
72.2046	491.17
72.2191	519.04
72.2335	645.50
72.2479	674.36
72.2624	653.65
72.2768	640.90
72.2913	630.02
72.3057	605.33
72.3201	543.68
72.3346	566.62
72.3490	517.93
72.3635	531.70
72.3779	557.64
72.3923	497.23
72.4068	552.93
72.4212	592.08
72.4357	558.63
72.4501	544.24
72.4645	555.49
72.4790	542.70
72.4934	561.91
72.5079	607.26
72.5223	578.09
72.5367	561.65
72.5512	559.59
72.5656	563.28
72.5801	579.91
72.5945	501.59
72.6089	560.89
72.6234	625.59
72.6378	636.37
72.6523	629.75
72.6667	540.07
72.6811	547.21
72.6956	637.27
72.7100	592.72
72.7245	529.26
72.7389	558.02
72.7533	509.65
72.7678	521.62
72.7822	631.83
72.7967	561.25
72.8111	588.28
72.8255	606.83
72.8400	548.24
72.8544	515.24
72.8689	554.10
72.8833	580.10