2022.09.19 19:37:17
Îáðàçåö: ß÷åéêà LCoV 16-09-2022
Lambda1 = 1.54060
Lambda2 = 1.54439
Lambdam = 1.54186
R = 0.497
2Theta	I

line¹ 0 ;repeat¹ 0
22.1120	588.63
22.1264	544.81
22.1409	546.69
22.1553	578.87
22.1697	618.04
22.1842	574.39
22.1986	503.37
22.2131	576.63
22.2275	574.71
22.2419	568.59
22.2564	587.35
22.2708	556.30
22.2853	567.46
22.2997	609.60
22.3141	626.51
22.3286	666.71
22.3430	622.18
22.3575	563.25
22.3719	592.69
22.3863	550.95
22.4008	571.27
22.4152	593.88
22.4297	610.37
22.4441	627.23
22.4585	585.44
22.4730	625.66
22.4874	683.25
22.5019	614.26
22.5163	542.22
22.5307	475.45
22.5452	518.30
22.5596	644.14
22.5741	507.93
22.5885	550.32
22.6029	611.11
22.6174	607.79
22.6318	580.56
22.6463	577.15
22.6607	577.75
22.6751	477.58
22.6896	508.06
22.7040	538.87
22.7185	516.09
22.7329	528.20
22.7473	566.19
22.7618	573.16
22.7762	661.20
22.7907	635.27
22.8051	611.07
22.8195	612.42
22.8340	589.24
22.8484	585.66
22.8629	674.02
22.8773	576.42
22.8917	517.54
22.9062	510.40
22.9206	609.54
22.9351	614.22
22.9495	495.77
22.9639	573.60
22.9784	614.85
22.9928	663.61
23.0073	557.55
23.0217	575.59
23.0361	533.07
23.0506	546.97
23.0650	500.10
23.0795	538.18
23.0939	601.11
23.1083	545.40
23.1228	617.03
23.1372	602.97
23.1517	591.36
23.1661	581.52
23.1806	525.25
23.1950	554.84
23.2094	535.66
23.2239	590.15
23.2383	579.09
23.2528	576.60
23.2672	651.55
23.2816	577.21
23.2961	581.97
23.3105	554.84
23.3250	545.75
23.3394	579.43
23.3538	525.30
23.3683	570.20
23.3827	548.13
23.3972	521.02
23.4116	535.85
23.4260	587.44
23.4405	514.50
23.4549	509.38
23.4694	501.97
23.4838	586.66
23.4982	583.40
23.5127	585.52
23.5271	577.68
23.5416	570.10
23.5560	542.92
23.5704	560.25
23.5849	533.41
23.5993	547.48
23.6138	582.26
23.6282	579.90
23.6426	509.45
23.6571	581.32
23.6715	566.52
23.6860	541.82
23.7004	556.73
23.7148	465.56
23.7293	550.86
23.7437	559.28
23.7582	503.22
23.7726	519.08
23.7870	597.30
23.8015	518.05
23.8159	545.88
23.8304	559.36
23.8448	525.10
23.8592	594.35
23.8737	629.33
23.8881	560.58
23.9026	602.92
23.9170	585.82
23.9314	567.54
23.9459	527.72
23.9603	522.32
23.9748	569.46
23.9892	584.30
24.0036	572.20
24.0181	554.89
24.0325	558.05
24.0470	536.82
24.0614	597.43
24.0758	565.21
24.0903	578.18
24.1047	582.40
24.1192	590.25
24.1336	581.85
24.1480	591.41
24.1625	575.57
24.1769	618.53
24.1914	581.55
24.2058	561.80
24.2202	577.37
24.2347	625.45
24.2491	718.81
24.2636	512.18
24.2780	589.78
24.2924	595.12
24.3069	565.43
24.3213	601.63
24.3358	591.69
24.3502	580.31
24.3646	536.96
24.3791	531.88
24.3935	552.42
24.4080	555.08
24.4224	588.43
24.4368	554.47
24.4513	549.68
24.4657	594.17
24.4802	538.45
24.4946	510.38
24.5090	515.81
24.5235	523.88
24.5379	562.43
24.5524	500.37
24.5668	540.46
24.5812	580.95
24.5957	548.24
24.6101	602.24
24.6246	573.30
24.6390	530.58
24.6534	515.07
24.6679	583.51
24.6823	568.62
24.6968	598.80
24.7112	534.43
24.7256	535.99
24.7401	531.99
24.7545	584.64
24.7690	572.43
24.7834	563.03
24.7978	544.82
24.8123	544.98
24.8267	510.53
24.8412	540.27
24.8556	537.67
24.8700	555.77
24.8845	542.42
24.8989	508.43
24.9134	526.64
24.9278	567.57
24.9422	563.09
24.9567	505.50
24.9711	554.61
24.9856	548.47
25.0000	545.76
25.0144	557.65
25.0289	480.41
25.0433	558.10
25.0578	582.78
25.0722	553.52
25.0866	577.59
25.1011	513.91
25.1155	584.11
25.1300	568.83
25.1444	509.96
25.1588	549.20
25.1733	531.15
25.1877	500.06
25.2022	562.29
25.2166	548.00
25.2310	537.32
25.2455	558.55
25.2599	570.87
25.2744	558.20
25.2888	541.23
25.3032	539.98
25.3177	505.39
25.3321	542.72
25.3466	544.75
25.3610	532.30
25.3754	560.60
25.3899	516.10
25.4043	521.08
25.4188	533.43
25.4332	535.90
25.4476	530.01
25.4621	514.67
25.4765	529.93
25.4910	548.96
25.5054	532.42
25.5198	533.21
25.5343	568.74
25.5487	555.20
25.5632	535.55
25.5776	546.32
25.5920	538.79
25.6065	533.42
25.6209	537.75
25.6354	513.27
25.6498	531.21
25.6642	481.73
25.6787	510.68
25.6931	518.27
25.7076	554.40
25.7220	550.82
25.7364	539.14
25.7509	552.96
25.7653	563.69
25.7798	540.41
25.7942	523.87
25.8086	530.65
25.8231	558.23
25.8375	555.97
25.8520	556.23
25.8664	522.88
25.8808	522.36
25.8953	544.35
25.9097	516.20
25.9242	505.91
25.9386	555.01
25.9530	518.83
25.9675	481.14
25.9819	531.79
25.9964	516.40
26.0108	542.47
26.0252	570.34
26.0397	567.38
26.0541	500.85
26.0686	501.57
26.0830	502.00
26.0974	498.43
26.1119	503.40
26.1263	529.61
26.1408	509.06
26.1552	506.75
26.1696	546.07
26.1841	528.84
26.1985	517.56
26.2130	513.28
26.2274	522.18
26.2418	529.43
26.2563	526.94
26.2707	547.93
26.2852	548.19
26.2996	542.71
26.3140	542.22
26.3285	519.77
26.3429	507.79
26.3574	524.53
26.3718	538.85
26.3862	525.47
26.4007	528.67
26.4151	511.82
26.4296	509.67
26.4440	515.36
26.4584	536.10
26.4729	557.78
26.4873	528.73
26.5018	531.24
26.5162	582.40
26.5306	588.34
26.5451	549.95
26.5595	546.48
26.5740	516.65
26.5884	525.56
26.6028	548.31
26.6173	538.79
26.6317	567.27
26.6462	520.65
26.6606	504.63
26.6750	523.89
26.6895	507.18
26.7039	555.43
26.7184	562.42
26.7328	536.24
26.7472	500.26
26.7617	489.13
26.7761	491.90
26.7906	522.43
26.8050	521.11
26.8194	492.59
26.8339	514.47
26.8483	533.74
26.8628	558.94
26.8772	534.79
26.8917	521.47
26.9061	525.13
26.9205	538.37
26.9350	526.68
26.9494	512.51
26.9639	487.79
26.9783	504.39
26.9927	515.52
27.0072	522.63
27.0216	530.71
27.0361	535.66
27.0505	525.95
27.0649	536.45
27.0794	557.91
27.0938	544.11
27.1083	539.57
27.1227	517.61
27.1371	538.06
27.1516	537.11
27.1660	491.19
27.1805	501.10
27.1949	518.10
27.2093	504.71
27.2238	504.19
27.2382	543.40
27.2527	549.92
27.2671	514.67
27.2815	514.02
27.2960	492.94
27.3104	493.87
27.3249	538.83
27.3393	541.17
27.3537	532.05
27.3682	524.45
27.3826	505.88
27.3971	501.67
27.4115	486.06
27.4259	509.13
27.4404	531.66
27.4548	540.03
27.4693	517.82
27.4837	513.08
27.4981	533.98
27.5126	529.42
27.5270	521.17
27.5415	515.53
27.5559	557.43
27.5703	571.69
27.5848	503.99
27.5992	499.27
27.6137	522.89
27.6281	514.55
27.6425	540.08
27.6570	518.75
27.6714	508.53
27.6859	515.46
27.7003	554.02
27.7147	556.66
27.7292	535.50
27.7436	502.77
27.7581	541.48
27.7725	547.26
27.7869	537.99
27.8014	555.94
27.8158	526.86
27.8303	538.66
27.8447	541.76
27.8591	527.17
27.8736	515.65
27.8880	514.24
27.9025	538.43
27.9169	528.67
27.9313	536.53
27.9458	570.06
27.9602	507.80
27.9747	488.69
27.9891	500.83
28.0035	507.55
28.0180	505.10
28.0324	524.39
28.0469	543.89
28.0613	538.20
28.0757	540.38
28.0902	526.08
28.1046	490.63
28.1191	532.16
28.1335	524.17
28.1479	476.75
28.1624	493.45
28.1768	515.72
28.1913	502.49
28.2057	523.35
28.2201	511.58
28.2346	532.99
28.2490	537.66
28.2635	518.60
28.2779	508.85
28.2923	522.97
28.3068	487.80
28.3212	485.84
28.3357	534.34
28.3501	527.79
28.3645	508.37
28.3790	532.10
28.3934	521.38
28.4079	543.05
28.4223	554.86
28.4367	544.44
28.4512	516.71
28.4656	514.57
28.4801	534.68
28.4945	532.56
28.5089	503.83
28.5234	515.82
28.5378	510.69
28.5523	505.69
28.5667	505.04
28.5811	511.50
28.5956	515.77
28.6100	507.79
28.6245	534.15
28.6389	530.41
28.6533	491.31
28.6678	497.38
28.6822	508.07
28.6967	486.78
28.7111	498.82
28.7255	520.21
28.7400	531.36
28.7544	523.26
28.7689	562.10
28.7833	551.74
28.7977	532.32
28.8122	519.06
28.8266	546.82
28.8411	533.30
28.8555	520.49
28.8699	517.91
28.8844	521.86
28.8988	522.50
28.9133	514.46
28.9277	480.34
28.9421	550.89
28.9566	523.12
28.9710	525.70
28.9855	525.90
28.9999	529.83
29.0143	506.67
29.0288	513.64
29.0432	509.39
29.0577	522.14
29.0721	500.09
29.0865	518.10
29.1010	511.43
29.1154	499.29
29.1299	525.03
29.1443	513.60
29.1587	496.82
29.1732	491.47
29.1876	496.06
29.2021	527.68
29.2165	521.18
29.2309	516.64
29.2454	496.74
29.2598	521.33
29.2743	506.75
29.2887	489.47
29.3031	513.83
29.3176	525.69
29.3320	548.10
29.3465	550.97
29.3609	514.95
29.3753	536.74
29.3898	513.29
29.4042	500.74
29.4187	545.85
29.4331	511.46
29.4475	499.72
29.4620	543.89
29.4764	501.02
29.4909	508.49
29.5053	519.68
29.5197	508.38
29.5342	527.52
29.5486	541.80
29.5631	527.72
29.5775	498.01
29.5919	487.66
29.6064	516.83
29.6208	516.01
29.6353	523.57
29.6497	506.84
29.6641	509.27
29.6786	489.28
29.6930	514.04
29.7075	493.54
29.7219	513.32
29.7363	510.17
29.7508	476.63
29.7652	485.99
29.7797	507.99
29.7941	528.94
29.8085	525.72
29.8230	511.74
29.8374	509.57
29.8519	509.88
29.8663	523.40
29.8807	492.99
29.8952	536.88
29.9096	515.51
29.9241	499.74
29.9385	518.94
29.9529	540.69
29.9674	539.43
29.9818	484.92
29.9963	481.78
30.0107	504.68
30.0251	497.53
30.0396	503.01
30.0540	524.93
30.0685	536.18
30.0829	518.43
30.0973	484.86
30.1118	492.88
30.1262	504.98
30.1407	499.61
30.1551	530.02
30.1695	502.33
30.1840	502.97
30.1984	505.55
30.2129	506.58
30.2273	529.40
30.2417	507.55
30.2562	508.31
30.2706	522.93
30.2851	529.78
30.2995	513.30
30.3139	492.96
30.3284	464.30
30.3428	504.21
30.3573	532.42
30.3717	524.74
30.3861	485.59
30.4006	467.85
30.4150	498.09
30.4295	549.10
30.4439	504.07
30.4583	482.31
30.4728	527.25
30.4872	485.63
30.5017	506.89
30.5161	491.31
30.5305	482.32
30.5450	525.88
30.5594	525.77
30.5739	504.22
30.5883	491.24
30.6028	514.46
30.6172	535.47
30.6316	493.42
30.6461	485.53
30.6605	492.85
30.6750	517.01
30.6894	531.81
30.7038	555.81
30.7183	562.29
30.7327	553.59
30.7472	559.82
30.7616	514.24
30.7760	548.12
30.7905	573.59
30.8049	548.94
30.8194	560.08
30.8338	608.96
30.8482	604.39
30.8627	630.43
30.8771	650.05
30.8916	647.46
30.9060	659.97
30.9204	664.57
30.9349	685.46
30.9493	705.50
30.9638	674.53
30.9782	641.59
30.9926	618.84
31.0071	598.54
31.0215	609.03
31.0360	588.86
31.0504	586.15
31.0648	600.81
31.0793	589.19
31.0937	565.55
31.1082	534.86
31.1226	581.49
31.1370	558.10
31.1515	532.99
31.1659	557.50
31.1804	547.07
31.1948	555.49
31.2092	572.20
31.2237	552.18
31.2381	558.97
31.2526	541.11
31.2670	558.89
31.2814	528.78
31.2959	510.55
31.3103	523.56
31.3248	521.29
31.3392	520.84
31.3536	535.81
31.3681	523.85
31.3825	516.99
31.3970	520.09
31.4114	532.07
31.4258	505.55
31.4403	500.64
31.4547	489.49
31.4692	508.96
31.4836	516.56
31.4980	509.91
31.5125	504.73
31.5269	509.56
31.5414	525.02
31.5558	519.89
31.5702	499.91
31.5847	497.40
31.5991	510.63
31.6136	484.92
31.6280	485.70
31.6424	467.11
31.6569	500.74
31.6713	507.24
31.6858	516.96
31.7002	528.54
31.7146	502.89
31.7291	469.75
31.7435	493.17
31.7580	515.21
31.7724	519.58
31.7868	511.74
31.8013	483.79
31.8157	514.11
31.8302	548.40
31.8446	550.89
31.8590	514.88
31.8735	521.76
31.8879	495.85
31.9024	561.23
31.9168	507.10
31.9312	482.53
31.9457	530.12
31.9601	501.46
31.9746	524.53
31.9890	549.27
32.0034	517.01
32.0179	498.27
32.0323	512.54
32.0468	492.61
32.0612	518.77
32.0756	512.89
32.0901	539.55
32.1045	493.79
32.1190	487.59
32.1334	509.10
32.1478	467.62
32.1623	477.33
32.1767	521.58
32.1912	513.19
32.2056	475.92
32.2200	515.42
32.2345	509.12
32.2489	481.28
32.2634	517.63
32.2778	497.56
32.2922	494.88
32.3067	512.26
32.3211	500.00
32.3356	525.56
32.3500	528.53
32.3644	510.37
32.3789	506.58
32.3933	488.71
32.4078	521.39
32.4222	493.16
32.4366	497.50
32.4511	464.74
32.4655	507.56
32.4800	495.29
32.4944	490.01
32.5088	503.90
32.5233	495.89
32.5377	513.17
32.5522	497.11
32.5666	506.54
32.5810	495.07
32.5955	480.49
32.6099	491.42
32.6244	480.90
32.6388	514.55
32.6532	476.50
32.6677	528.99
32.6821	501.85
32.6966	516.01
32.7110	511.28
32.7254	538.83
32.7399	492.61
32.7543	470.07
32.7688	515.63
32.7832	523.81
32.7976	519.53
32.8121	504.41
32.8265	530.60
32.8410	519.49
32.8554	513.33
32.8698	503.01
32.8843	489.94
32.8987	540.57
32.9132	572.04
32.9276	502.86
32.9420	520.36
32.9565	489.93
32.9709	483.48
32.9854	501.49
32.9998	509.47
33.0142	497.29
33.0287	526.99
33.0431	518.20
33.0576	527.65
33.0720	513.27
33.0864	483.87
33.1009	506.66
33.1153	521.76
33.1298	516.50
33.1442	504.23
33.1586	518.39
33.1731	513.32
33.1875	501.05
33.2020	526.89
33.2164	524.33
33.2308	528.63
33.2453	507.47
33.2597	515.54
33.2742	512.79
33.2886	526.39
33.3030	509.87
33.3175	512.49
33.3319	552.26
33.3464	487.42
33.3608	486.48
33.3752	466.26
33.3897	487.02
33.4041	503.79
33.4186	502.48
33.4330	538.35
33.4474	545.84
33.4619	484.70
33.4763	515.04
33.4908	537.02
33.5052	531.14
33.5196	512.48
33.5341	528.45
33.5485	507.91
33.5630	497.74
33.5774	491.98
33.5918	501.26
33.6063	502.66
33.6207	466.19
33.6352	499.52
33.6496	506.78
33.6640	536.23
33.6785	505.51
33.6929	465.93
33.7074	508.78
33.7218	514.60
33.7362	483.33
33.7507	509.99
33.7651	489.15
33.7796	499.45
33.7940	512.16
33.8084	530.99
33.8229	497.11
33.8373	504.18
33.8518	482.71
33.8662	499.95
33.8806	509.82
33.8951	526.09
33.9095	535.39
33.9240	511.21
33.9384	501.17
33.9528	497.70
33.9673	467.97
33.9817	551.17
33.9962	501.02
34.0106	539.56
34.0250	479.06
34.0395	486.23
34.0539	520.45
34.0684	487.82
34.0828	465.58
34.0972	488.33
34.1117	491.33
34.1261	476.19
34.1406	507.13
34.1550	495.46
34.1694	510.43
34.1839	534.07
34.1983	505.92
34.2128	506.96
34.2272	500.11
34.2417	520.71
34.2561	532.88
34.2705	500.43
34.2850	497.43
34.2994	481.34
34.3139	507.71
34.3283	538.79
34.3427	512.84
34.3572	493.10
34.3716	506.22
34.3861	488.85
34.4005	472.99
34.4149	529.66
34.4294	538.39
34.4438	498.84
34.4583	493.00
34.4727	474.20
34.4871	486.33
34.5016	489.47
34.5160	504.52
34.5305	514.10
34.5449	513.22
34.5593	503.85
34.5738	527.22
34.5882	507.97
34.6027	521.61
34.6171	512.80
34.6315	485.71
34.6460	526.21
34.6604	539.43
34.6749	537.83
34.6893	490.23
34.7037	502.43
34.7182	512.49
34.7326	514.75
34.7471	523.56
34.7615	496.95
34.7759	549.29
34.7904	551.76
34.8048	551.13
34.8193	523.12
34.8337	529.67
34.8481	506.60
34.8626	494.06
34.8770	526.62
34.8915	534.60
34.9059	571.05
34.9203	538.84
34.9348	496.41
34.9492	492.81
34.9637	512.47
34.9781	506.66
34.9925	524.90
35.0070	526.73
35.0214	515.06
35.0359	528.88
35.0503	539.81
35.0647	516.98
35.0792	492.09
35.0936	490.98
35.1081	521.17
35.1225	518.63
35.1369	528.01
35.1514	515.07
35.1658	518.48
35.1803	516.27
35.1947	532.46
35.2091	515.50
35.2236	526.53
35.2380	509.92
35.2525	499.48
35.2669	495.84
35.2813	531.60
35.2958	499.42
35.3102	521.43
35.3247	509.15
35.3391	513.04
35.3535	509.23
35.3680	507.85
35.3824	523.50
35.3969	535.95
35.4113	523.89
35.4257	510.11
35.4402	526.63
35.4546	527.73
35.4691	579.25
35.4835	535.51
35.4979	525.28
35.5124	521.39
35.5268	530.02
35.5413	562.21
35.5557	557.68
35.5701	528.08
35.5846	544.30
35.5990	538.75
35.6135	511.35
35.6279	503.69
35.6423	516.55
35.6568	523.87
35.6712	531.17
35.6857	599.98
35.7001	671.33
35.7145	724.64
35.7290	699.19
35.7434	587.07
35.7579	577.88
35.7723	579.62
35.7867	590.39
35.8012	621.57
35.8156	669.19
35.8301	645.60
35.8445	619.00
35.8589	601.65
35.8734	720.70
35.8878	786.36
35.9023	934.66
35.9167	1030.95
35.9311	1495.52
35.9456	2322.98
35.9600	2364.28
35.9745	1904.51
35.9889	1866.77
36.0033	2377.14
36.0178	2402.28
36.0322	2038.30
36.0467	1821.83
36.0611	1601.24
36.0755	1543.92
36.0900	1485.74
36.1044	1288.38
36.1189	1262.28
36.1333	1072.10
36.1477	994.00
36.1622	966.30
36.1766	935.01
36.1911	807.85
36.2055	722.14
36.2199	726.15
36.2344	663.85
36.2488	669.89
36.2633	697.02
36.2777	726.26
36.2921	729.62
36.3066	742.40
36.3210	788.26
36.3355	785.37
36.3499	821.88
36.3643	867.05
36.3788	873.40
36.3932	885.69
36.4077	941.72
36.4221	996.70
36.4365	967.39
36.4510	954.62
36.4654	912.18
36.4799	904.24
36.4943	893.83
36.5087	873.19
36.5232	828.31
36.5376	781.23
36.5521	806.99
36.5665	733.58
36.5809	680.66
36.5954	636.17
36.6098	665.46
36.6243	602.21
36.6387	652.22
36.6531	615.84
36.6676	619.76
36.6820	580.18
36.6965	596.09
36.7109	594.85
36.7253	574.59
36.7398	583.60
36.7542	549.85
36.7687	559.24
36.7831	571.97
36.7975	591.60
36.8120	625.13
36.8264	611.07
36.8409	584.40
36.8553	617.22
36.8697	630.86
36.8842	602.82
36.8986	615.90
36.9131	594.26
36.9275	571.27
36.9419	615.85
36.9564	588.22
36.9708	557.12
36.9853	574.07
36.9997	575.00
37.0141	577.96
37.0286	578.01
37.0430	566.61
37.0575	522.18
37.0719	507.10
37.0863	541.27
37.1008	528.83
37.1152	510.58
37.1297	543.92
37.1441	524.66
37.1585	497.08
37.1730	512.51
37.1874	489.95
37.2019	519.95
37.2163	532.73
37.2307	479.45
37.2452	478.25
37.2596	511.74
37.2741	529.24
37.2885	532.52
37.3029	493.18
37.3174	511.39
37.3318	522.02
37.3463	486.40
37.3607	507.88
37.3751	520.42
37.3896	495.89
37.4040	472.31
37.4185	507.55
37.4329	510.19
37.4473	501.90
37.4618	509.74
37.4762	534.84
37.4907	490.65
37.5051	506.09
37.5195	510.28
37.5340	492.25
37.5484	501.82
37.5629	513.25
37.5773	506.99
37.5917	535.48
37.6062	511.46
37.6206	520.50
37.6351	527.80
37.6495	516.52
37.6639	514.04
37.6784	512.38
37.6928	531.24
37.7073	523.14
37.7217	474.06
37.7361	501.36
37.7506	518.41
37.7650	497.49
37.7795	523.25
37.7939	500.56
37.8083	499.27
37.8228	519.93
37.8372	510.46
37.8517	523.72
37.8661	495.53
37.8805	492.73
37.8950	525.91
37.9094	513.05
37.9239	512.31
37.9383	507.16
37.9528	508.10
37.9672	519.02
37.9816	548.91
37.9961	519.27
38.0105	521.60
38.0250	546.08
38.0394	522.13
38.0538	516.29
38.0683	492.37
38.0827	538.19
38.0972	505.89
38.1116	494.18
38.1260	512.57
38.1405	500.25
38.1549	503.06
38.1694	527.72
38.1838	517.01
38.1982	502.52
38.2127	518.59
38.2271	538.55
38.2416	516.55
38.2560	495.38
38.2704	518.42
38.2849	515.70
38.2993	522.75
38.3138	529.73
38.3282	527.92
38.3426	542.09
38.3571	504.79
38.3715	524.73
38.3860	541.90
38.4004	532.73
38.4148	573.46
38.4293	611.53
38.4437	570.97
38.4582	619.98
38.4726	675.70
38.4870	713.01
38.5015	754.01
38.5159	767.60
38.5304	805.66
38.5448	825.44
38.5592	753.17
38.5737	723.29
38.5881	746.38
38.6026	727.19
38.6170	679.73
38.6314	658.95
38.6459	672.14
38.6603	641.38
38.6748	627.26
38.6892	561.84
38.7036	584.49
38.7181	551.24
38.7325	528.51
38.7470	536.03
38.7614	521.71
38.7758	532.66
38.7903	485.40
38.8047	521.93
38.8192	535.18
38.8336	512.02
38.8480	492.98
38.8625	533.69
38.8769	510.91
38.8914	478.39
38.9058	522.36
38.9202	498.80
38.9347	528.72
38.9491	526.67
38.9636	475.82
38.9780	491.10
38.9924	524.40
39.0069	512.42
39.0213	493.39
39.0358	513.11
39.0502	504.02
39.0646	481.28
39.0791	495.18
39.0935	522.00
39.1080	518.36
39.1224	486.03
39.1368	496.12
39.1513	488.17
39.1657	527.80
39.1802	531.96
39.1946	506.14
39.2090	490.29
39.2235	481.58
39.2379	511.20
39.2524	496.73
39.2668	500.64
39.2812	507.10
39.2957	473.84
39.3101	498.14
39.3246	525.55
39.3390	531.78
39.3534	483.49
39.3679	491.88
39.3823	502.29
39.3968	496.88
39.4112	448.05
39.4256	498.27
39.4401	514.44
39.4545	487.78
39.4690	503.77
39.4834	514.40
39.4978	522.41
39.5123	485.81
39.5267	499.13
39.5412	480.13
39.5556	474.29
39.5700	501.97
39.5845	468.89
39.5989	485.86
39.6134	479.66
39.6278	473.03
39.6422	468.29
39.6567	471.15
39.6711	484.91
39.6856	498.93
39.7000	485.58
39.7144	492.04
39.7289	464.23
39.7433	475.82
39.7578	467.62
39.7722	502.60
39.7866	482.29
39.8011	494.28
39.8155	502.63
39.8300	502.30
39.8444	492.92
39.8588	486.03
39.8733	493.68
39.8877	482.09
39.9022	480.08
39.9166	510.19
39.9310	516.84
39.9455	494.52
39.9599	481.70
39.9744	498.53
39.9888	499.62
40.0032	545.56
40.0177	539.14
40.0321	504.79
40.0466	493.58
40.0610	491.83
40.0754	461.68
40.0899	485.79
40.1043	475.01
40.1188	517.89
40.1332	493.16
40.1476	479.27
40.1621	493.98
40.1765	498.97
40.1910	489.67
40.2054	490.63
40.2198	530.04
40.2343	516.54
40.2487	498.12
40.2632	470.01
40.2776	520.65
40.2920	491.19
40.3065	530.65
40.3209	488.56
40.3354	503.09
40.3498	488.22
40.3642	512.40
40.3787	498.85
40.3931	500.11
40.4076	496.70
40.4220	497.49
40.4364	515.53
40.4509	496.82
40.4653	522.29
40.4798	484.38
40.4942	502.53
40.5086	501.18
40.5231	497.29
40.5375	494.58
40.5520	505.26
40.5664	470.66
40.5808	466.29
40.5953	508.08
40.6097	494.01
40.6242	473.24
40.6386	496.19
40.6530	501.66
40.6675	495.22
40.6819	522.61
40.6964	487.95
40.7108	493.35
40.7252	495.20
40.7397	487.08
40.7541	518.60
40.7686	524.29
40.7830	534.43
40.7974	494.72
40.8119	492.69
40.8263	491.18
40.8408	479.89
40.8552	468.32
40.8696	492.83
40.8841	488.26
40.8985	508.12
40.9130	476.06
40.9274	470.52
40.9418	475.25
40.9563	493.75
40.9707	501.89
40.9852	516.76
40.9996	492.51
41.0140	511.08
41.0285	518.94
41.0429	518.35
41.0574	480.25
41.0718	496.23
41.0862	510.11
41.1007	488.34
41.1151	512.02
41.1296	489.60
41.1440	475.81
41.1584	517.06
41.1729	509.83
41.1873	520.67
41.2018	511.84
41.2162	507.52
41.2306	488.63
41.2451	466.07
41.2595	505.28
41.2740	514.13
41.2884	496.43
41.3028	488.77
41.3173	517.07
41.3317	531.97
41.3462	452.33
41.3606	484.58
41.3750	471.74
41.3895	531.10
41.4039	477.17
41.4184	508.24
41.4328	531.03
41.4472	478.10
41.4617	488.73
41.4761	515.41
41.4906	506.71
41.5050	460.42
41.5194	487.82
41.5339	526.96
41.5483	540.26
41.5628	489.72
41.5772	515.12
41.5916	484.88
41.6061	496.74
41.6205	505.83
41.6350	523.90
41.6494	474.69
41.6639	483.12
41.6783	498.68
41.6927	505.32
41.7072	490.51
41.7216	548.47
41.7361	508.59
41.7505	503.30
41.7649	477.49
41.7794	485.06
41.7938	495.20
41.8083	519.88
41.8227	500.06
41.8371	519.21
41.8516	505.04
41.8660	521.11
41.8805	546.83
41.8949	554.10
41.9093	528.47
41.9238	537.33
41.9382	566.88
41.9527	546.16
41.9671	561.83
41.9815	601.93
41.9960	567.13
42.0104	536.79
42.0249	589.32
42.0393	539.06
42.0537	550.50
42.0682	543.08
42.0826	574.73
42.0971	604.70
42.1115	595.58
42.1259	580.53
42.1404	594.20
42.1548	619.31
42.1693	656.66
42.1837	715.94
42.1981	771.61
42.2126	835.08
42.2270	911.66
42.2415	1081.19
42.2559	1215.87
42.2703	1345.69
42.2848	1490.20
42.2992	1642.01
42.3137	1698.35
42.3281	1659.41
42.3425	1600.18
42.3570	1495.66
42.3714	1425.50
42.3859	1384.40
42.4003	1341.27
42.4147	1338.13
42.4292	1372.07
42.4436	1203.55
42.4581	1036.50
42.4725	968.41
42.4869	878.83
42.5014	782.21
42.5158	694.99
42.5303	673.31
42.5447	641.37
42.5591	652.39
42.5736	603.64
42.5880	572.44
42.6025	553.07
42.6169	582.03
42.6313	564.00
42.6458	554.62
42.6602	549.91
42.6747	524.84
42.6891	510.87
42.7035	551.85
42.7180	529.21
42.7324	511.37
42.7469	517.53
42.7613	518.61
42.7757	531.29
42.7902	554.33
42.8046	534.22
42.8191	506.07
42.8335	527.51
42.8479	526.77
42.8624	547.92
42.8768	505.34
42.8913	509.33
42.9057	527.30
42.9201	478.61
42.9346	498.22
42.9490	510.78
42.9635	490.65
42.9779	494.79
42.9923	500.58
43.0068	481.21
43.0212	499.26
43.0357	500.81
43.0501	503.95
43.0645	547.93
43.0790	538.96
43.0934	538.02
43.1079	536.06
43.1223	544.19
43.1367	530.91
43.1512	506.37
43.1656	541.68
43.1801	543.05
43.1945	535.43
43.2089	525.97
43.2234	509.43
43.2378	531.59
43.2523	525.52
43.2667	516.67
43.2811	543.05
43.2956	534.34
43.3100	534.69
43.3245	505.35
43.3389	527.68
43.3533	532.96
43.3678	540.09
43.3822	522.75
43.3967	494.14
43.4111	496.82
43.4255	500.78
43.4400	497.99
43.4544	496.88
43.4689	535.00
43.4833	536.34
43.4977	497.38
43.5122	517.74
43.5266	521.51
43.5411	497.83
43.5555	508.58
43.5699	507.98
43.5844	519.26
43.5988	515.48
43.6133	511.48
43.6277	508.27
43.6421	514.47
43.6566	517.85
43.6710	509.56
43.6855	514.69
43.6999	516.91
43.7143	543.95
43.7288	531.98
43.7432	498.72
43.7577	498.33
43.7721	521.32
43.7865	537.73
43.8010	544.10
43.8154	532.59
43.8299	489.60
43.8443	484.87
43.8587	506.83
43.8732	539.71
43.8876	499.31
43.9021	533.72
43.9165	494.89
43.9309	513.24
43.9454	539.64
43.9598	487.96
43.9743	506.80
43.9887	491.41
44.0031	508.05
44.0176	548.35
44.0320	534.15
44.0465	530.23
44.0609	521.14
44.0753	547.72
44.0898	553.27
44.1042	532.18
44.1187	529.45
44.1331	564.90
44.1475	527.12
44.1620	565.38
44.1764	524.77
44.1909	570.41
44.2053	572.01
44.2197	595.89
44.2342	579.75
44.2486	605.54
44.2631	603.07
44.2775	587.56
44.2919	641.05
44.3064	613.39
44.3208	590.51
44.3353	638.30
44.3497	629.23
44.3641	602.55
44.3786	612.79
44.3930	627.51
44.4075	637.56
44.4219	632.03
44.4363	628.14
44.4508	617.21
44.4652	630.57
44.4797	607.73
44.4941	577.69
44.5085	577.90
44.5230	573.69
44.5374	557.40
44.5519	578.40
44.5663	608.23
44.5807	586.08
44.5952	558.98
44.6096	575.16
44.6241	604.90
44.6385	560.89
44.6529	539.51
44.6674	610.71
44.6818	600.60
44.6963	633.52
44.7107	716.02
44.7251	736.78
44.7396	751.39
44.7540	824.22
44.7685	856.75
44.7829	867.97
44.7973	866.05
44.8118	845.47
44.8262	789.88
44.8407	750.86
44.8551	771.53
44.8695	733.70
44.8840	704.54
44.8984	754.96
44.9129	719.03
44.9273	690.47
44.9417	633.97
44.9562	673.77
44.9706	634.90
44.9851	543.71
44.9995	543.99
45.0139	496.44
45.0284	524.20
45.0428	536.02
45.0573	535.55
45.0717	548.92
45.0861	529.00
45.1006	529.19
45.1150	498.61
45.1295	519.24
45.1439	514.46
45.1583	533.32
45.1728	531.49
45.1872	503.39
45.2017	472.54
45.2161	497.82
45.2305	544.38
45.2450	514.40
45.2594	492.26
45.2739	503.15
45.2883	499.96
45.3028	513.51
45.3172	496.21
45.3316	504.83
45.3461	511.49
45.3605	513.76
45.3750	467.79
45.3894	476.15
45.4038	496.81
45.4183	512.13
45.4327	522.63
45.4472	492.35
45.4616	486.69
45.4760	526.09
45.4905	534.77
45.5049	512.66
45.5194	492.61
45.5338	520.17
45.5482	514.96
45.5627	495.25
45.5771	502.75
45.5916	509.89
45.6060	508.54
45.6204	507.06
45.6349	500.70
45.6493	516.71
45.6638	496.91
45.6782	493.44
45.6926	491.94
45.7071	531.67
45.7215	527.44
45.7360	505.30
45.7504	485.87
45.7648	510.68
45.7793	497.60
45.7937	490.27
45.8082	514.50
45.8226	503.32
45.8370	490.14
45.8515	472.71
45.8659	485.10
45.8804	524.55
45.8948	495.53
45.9092	475.02
45.9237	438.34
45.9381	485.75
45.9526	517.15
45.9670	504.91
45.9814	536.56
45.9959	534.06
46.0103	510.08
46.0248	516.00
46.0392	510.68
46.0536	535.56
46.0681	515.57
46.0825	520.86
46.0970	561.09
46.1114	524.96
46.1258	511.70
46.1403	488.51
46.1547	488.57
46.1692	499.95
46.1836	469.17
46.1980	506.21
46.2125	496.04
46.2269	464.54
46.2414	488.18
46.2558	504.46
46.2702	475.14
46.2847	495.37
46.2991	474.32
46.3136	480.01
46.3280	506.42
46.3424	516.61
46.3569	479.45
46.3713	522.04
46.3858	514.48
46.4002	502.05
46.4146	509.64
46.4291	528.07
46.4435	536.45
46.4580	502.04
46.4724	514.44
46.4868	519.47
46.5013	542.59
46.5157	509.51
46.5302	505.50
46.5446	494.82
46.5590	515.37
46.5735	524.57
46.5879	499.37
46.6024	500.46
46.6168	476.65
46.6312	474.89
46.6457	509.17
46.6601	496.05
46.6746	501.40
46.6890	481.51
46.7034	533.23
46.7179	489.92
46.7323	480.35
46.7468	537.57
46.7612	518.10
46.7756	499.52
46.7901	495.91
46.8045	501.78
46.8190	494.23
46.8334	532.78
46.8478	510.76
46.8623	498.26
46.8767	500.40
46.8912	494.43
46.9056	510.15
46.9200	494.43
46.9345	532.19
46.9489	496.94
46.9634	510.42
46.9778	519.69
46.9922	523.73
47.0067	542.89
47.0211	500.59
47.0356	496.62
47.0500	501.84
47.0644	520.53
47.0789	476.25
47.0933	505.51
47.1078	525.33
47.1222	537.60
47.1366	489.18
47.1511	479.44
47.1655	509.95
47.1800	518.45
47.1944	500.62
47.2088	532.06
47.2233	503.00
47.2377	498.47
47.2522	495.65
47.2666	491.42
47.2810	491.70
47.2955	500.32
47.3099	499.99
47.3244	514.52
47.3388	527.32
47.3532	497.93
47.3677	497.04
47.3821	521.80
47.3966	506.31
47.4110	492.56
47.4254	503.12
47.4399	499.69
47.4543	488.53
47.4688	511.56
47.4832	468.21
47.4976	473.51
47.5121	498.20
47.5265	520.48
47.5410	484.46
47.5554	519.98
47.5698	491.39
47.5843	501.20
47.5987	474.44
47.6132	507.71
47.6276	477.27
47.6420	504.24
47.6565	501.01
47.6709	519.60
47.6854	499.52
47.6998	527.80
47.7142	516.72
47.7287	504.41
47.7431	502.50
47.7576	521.01
47.7720	527.46
47.7864	549.04
47.8009	522.70
47.8153	505.42
47.8298	502.73
47.8442	536.48
47.8586	569.43
47.8731	548.80
47.8875	470.76
47.9020	491.72
47.9164	502.69
47.9308	493.49
47.9453	509.35
47.9597	512.22
47.9742	501.95
47.9886	464.81
48.0030	494.71
48.0175	501.64
48.0319	548.59
48.0464	520.10
48.0608	490.58
48.0752	511.78
48.0897	523.58
48.1041	508.06
48.1186	517.94
48.1330	516.36
48.1474	498.73
48.1619	503.59
48.1763	516.59
48.1908	512.88
48.2052	494.21
48.2196	506.59
48.2341	483.26
48.2485	494.43
48.2630	471.92
48.2774	501.52
48.2918	488.34
48.3063	505.54
48.3207	516.44
48.3352	502.63
48.3496	532.49
48.3640	528.20
48.3785	499.07
48.3929	502.05
48.4074	504.98
48.4218	523.58
48.4362	510.73
48.4507	495.38
48.4651	520.49
48.4796	543.83
48.4940	508.33
48.5084	502.72
48.5229	503.47
48.5373	560.46
48.5518	523.70
48.5662	546.16
48.5806	507.64
48.5951	497.20
48.6095	513.14
48.6240	518.26
48.6384	561.95
48.6528	533.84
48.6673	512.53
48.6817	538.83
48.6962	536.81
48.7106	533.53
48.7250	515.94
48.7395	482.85
48.7539	504.00
48.7684	513.27
48.7828	534.70
48.7972	523.03
48.8117	526.99
48.8261	530.56
48.8406	542.76
48.8550	539.13
48.8694	535.83
48.8839	543.33
48.8983	565.19
48.9128	579.44
48.9272	525.09
48.9416	564.51
48.9561	553.19
48.9705	549.99
48.9850	553.21
48.9994	561.38
49.0139	610.24
49.0283	582.15
49.0427	585.33
49.0572	621.25
49.0716	657.30
49.0861	720.42
49.1005	687.27
49.1149	718.09
49.1294	737.10
49.1438	735.85
49.1583	763.99
49.1727	876.35
49.1871	912.95
49.2016	973.46
49.2160	1031.20
49.2305	1105.73
49.2449	1207.97
49.2593	1230.96
49.2738	1344.21
49.2882	1450.87
49.3027	1595.78
49.3171	1568.99
49.3315	1728.06
49.3460	1818.10
49.3604	1857.27
49.3749	1803.92
49.3893	1763.50
49.4037	1783.47
49.4182	1743.19
49.4326	1747.63
49.4471	1707.78
49.4615	1622.64
49.4759	1573.65
49.4904	1467.00
49.5048	1416.68
49.5193	1300.96
49.5337	1221.01
49.5481	1202.30
49.5626	1178.26
49.5770	1041.49
49.5915	979.29
49.6059	895.75
49.6203	868.62
49.6348	840.57
49.6492	782.81
49.6637	755.13
49.6781	704.18
49.6925	696.14
49.7070	692.60
49.7214	660.54
49.7359	620.85
49.7503	629.69
49.7647	610.30
49.7792	602.90
49.7936	577.83
49.8081	555.69
49.8225	567.27
49.8369	581.12
49.8514	587.30
49.8658	564.23
49.8803	568.57
49.8947	540.03
49.9091	559.45
49.9236	580.60
49.9380	558.20
49.9525	507.83
49.9669	498.35
49.9813	515.76
49.9958	553.53
50.0102	504.22
50.0247	522.70
50.0391	520.66
50.0535	572.92
50.0680	548.52
50.0824	537.27
50.0969	521.31
50.1113	536.07
50.1257	471.12
50.1402	498.34
50.1546	518.78
50.1691	545.74
50.1835	514.62
50.1979	482.48
50.2124	477.07
50.2268	490.86
50.2413	504.71
50.2557	503.12
50.2701	472.90
50.2846	504.15
50.2990	514.59
50.3135	515.99
50.3279	544.89
50.3423	520.77
50.3568	518.26
50.3712	502.51
50.3857	492.17
50.4001	532.58
50.4145	556.84
50.4290	540.91
50.4434	497.15
50.4579	503.68
50.4723	527.58
50.4867	495.77
50.5012	488.33
50.5156	473.00
50.5301	511.95
50.5445	511.15
50.5589	549.61
50.5734	516.86
50.5878	498.08
50.6023	494.00
50.6167	518.49
50.6311	519.06
50.6456	512.43
50.6600	495.99
50.6745	508.00
50.6889	502.76
50.7033	523.02
50.7178	524.20
50.7322	548.02
50.7467	511.09
50.7611	486.46
50.7755	495.14
50.7900	498.54
50.8044	524.91
50.8189	519.43
50.8333	528.12
50.8477	522.03
50.8622	537.46
50.8766	540.53
50.8911	552.81
50.9055	535.25
50.9199	462.17
50.9344	496.20
50.9488	534.59
50.9633	537.11
50.9777	508.67
50.9921	504.35
51.0066	516.48
51.0210	492.89
51.0355	518.10
51.0499	495.34
51.0643	527.91
51.0788	538.83
51.0932	535.10
51.1077	501.42
51.1221	514.91
51.1365	522.87
51.1510	521.31
51.1654	522.58
51.1799	527.51
51.1943	505.58
51.2087	543.64
51.2232	525.34
51.2376	503.36
51.2521	507.97
51.2665	524.08
51.2809	497.13
51.2954	504.11
51.3098	497.64
51.3243	496.47
51.3387	508.25
51.3531	511.75
51.3676	538.65
51.3820	482.67
51.3965	512.64
51.4109	504.97
51.4253	511.12
51.4398	501.86
51.4542	502.55
51.4687	500.37
51.4831	510.76
51.4975	494.74
51.5120	510.13
51.5264	517.38
51.5409	498.91
51.5553	533.82
51.5697	529.70
51.5842	521.68
51.5986	526.93
51.6131	503.03
51.6275	517.96
51.6419	517.12
51.6564	500.33
51.6708	521.31
51.6853	499.60
51.6997	507.79
51.7141	488.98
51.7286	494.74
51.7430	499.82
51.7575	489.34
51.7719	512.67
51.7863	512.76
51.8008	525.10
51.8152	558.43
51.8297	531.99
51.8441	504.92
51.8585	511.22
51.8730	514.50
51.8874	494.91
51.9019	551.53
51.9163	531.67
51.9307	514.00
51.9452	525.82
51.9596	512.02
51.9741	507.09
51.9885	516.95
52.0029	517.86
52.0174	512.12
52.0318	537.72
52.0463	577.24
52.0607	493.55
52.0751	481.51
52.0896	554.45
52.1040	513.27
52.1185	495.17
52.1329	525.67
52.1473	496.20
52.1618	516.38
52.1762	484.78
52.1907	510.59
52.2051	482.29
52.2195	475.97
52.2340	498.85
52.2484	514.70
52.2629	523.43
52.2773	531.19
52.2917	532.63
52.3062	535.21
52.3206	531.93
52.3351	509.97
52.3495	495.52
52.3639	506.56
52.3784	491.71
52.3928	482.04
52.4073	496.51
52.4217	517.31
52.4361	510.95
52.4506	523.77
52.4650	522.21
52.4795	521.15
52.4939	503.19
52.5083	481.39
52.5228	523.68
52.5372	522.11
52.5517	560.09
52.5661	544.70
52.5805	528.00
52.5950	520.62
52.6094	554.23
52.6239	486.61
52.6383	476.78
52.6527	526.40
52.6672	555.07
52.6816	519.04
52.6961	504.93
52.7105	511.88
52.7250	505.11
52.7394	506.34
52.7538	514.14
52.7683	530.90
52.7827	507.16
52.7972	503.11
52.8116	523.60
52.8260	513.59
52.8405	508.31
52.8549	517.33
52.8694	572.99
52.8838	533.21
52.8982	547.62
52.9127	495.20
52.9271	508.14
52.9416	532.60
52.9560	533.11
52.9704	534.01
52.9849	503.58
52.9993	505.76
53.0138	509.63
53.0282	561.22
53.0426	532.38
53.0571	525.33
53.0715	532.82
53.0860	572.90
53.1004	528.86
53.1148	521.54
53.1293	523.61
53.1437	504.60
53.1582	487.47
53.1726	501.29
53.1870	500.38
53.2015	503.00
53.2159	512.53
53.2304	525.84
53.2448	519.39
53.2592	506.70
53.2737	502.18
53.2881	520.94
53.3026	477.21
53.3170	481.75
53.3314	510.14
53.3459	496.71
53.3603	485.34
53.3748	529.72
53.3892	535.33
53.4036	525.40
53.4181	495.24
53.4325	520.47
53.4470	531.83
53.4614	508.63
53.4758	522.68
53.4903	523.68
53.5047	479.19
53.5192	515.36
53.5336	548.05
53.5480	507.53
53.5625	548.34
53.5769	515.55
53.5914	509.75
53.6058	502.01
53.6202	536.91
53.6347	538.55
53.6491	529.88
53.6636	525.41
53.6780	493.36
53.6924	485.87
53.7069	531.53
53.7213	530.03
53.7358	508.60
53.7502	513.91
53.7646	499.42
53.7791	551.17
53.7935	505.89
53.8080	527.55
53.8224	518.62
53.8368	502.09
53.8513	521.85
53.8657	557.64
53.8802	510.24
53.8946	527.40
53.9090	520.67
53.9235	474.29
53.9379	496.86
53.9524	518.22
53.9668	499.36
53.9812	537.13
53.9957	540.22
54.0101	496.72
54.0246	532.68
54.0390	541.09
54.0534	482.96
54.0679	504.59
54.0823	514.00
54.0968	522.36
54.1112	507.95
54.1256	496.68
54.1401	508.36
54.1545	516.98
54.1690	514.77
54.1834	505.83
54.1978	482.73
54.2123	533.75
54.2267	510.19
54.2412	520.79
54.2556	524.96
54.2700	525.22
54.2845	537.80
54.2989	532.45
54.3134	521.67
54.3278	540.65
54.3422	531.48
54.3567	524.82
54.3711	525.11
54.3856	513.09
54.4000	527.39
54.4144	552.28
54.4289	521.32
54.4433	522.19
54.4578	483.61
54.4722	513.96
54.4866	570.16
54.5011	537.93
54.5155	504.25
54.5300	499.26
54.5444	532.38
54.5588	537.05
54.5733	520.28
54.5877	514.84
54.6022	512.68
54.6166	515.54
54.6310	529.45
54.6455	537.62
54.6599	563.09
54.6744	551.20
54.6888	526.68
54.7032	537.40
54.7177	490.77
54.7321	506.48
54.7466	532.10
54.7610	545.03
54.7754	562.21
54.7899	532.66
54.8043	526.63
54.8188	530.36
54.8332	536.15
54.8476	570.58
54.8621	563.83
54.8765	572.32
54.8910	575.59
54.9054	615.41
54.9198	565.00
54.9343	536.49
54.9487	576.98
54.9632	572.30
54.9776	579.86
54.9920	607.13
55.0065	604.36
55.0209	554.05
55.0354	555.56
55.0498	524.05
55.0642	557.44
55.0787	570.03
55.0931	563.69
55.1076	568.57
55.1220	599.43
55.1364	577.75
55.1509	534.97
55.1653	516.06
55.1798	545.99
55.1942	535.47
55.2086	570.04
55.2231	564.45
55.2375	507.35
55.2520	571.46
55.2664	566.81
55.2808	565.92
55.2953	539.33
55.3097	512.65
55.3242	528.77
55.3386	547.46
55.3530	539.39
55.3675	525.39
55.3819	490.56
55.3964	518.74
55.4108	544.50
55.4252	522.71
55.4397	517.96
55.4541	541.85
55.4686	514.98
55.4830	541.24
55.4974	510.76
55.5119	536.27
55.5263	520.53
55.5408	511.80
55.5552	543.20
55.5696	518.25
55.5841	526.03
55.5985	551.80
55.6130	535.19
55.6274	525.08
55.6418	558.50
55.6563	543.61
55.6707	545.87
55.6852	538.12
55.6996	525.62
55.7140	519.46
55.7285	542.09
55.7429	527.74
55.7574	542.15
55.7718	534.64
55.7862	534.73
55.8007	557.37
55.8151	544.40
55.8296	573.57
55.8440	527.86
55.8584	525.76
55.8729	517.31
55.8873	502.38
55.9018	508.87
55.9162	533.88
55.9306	498.89
55.9451	534.46
55.9595	520.30
55.9740	528.57
55.9884	511.99
56.0028	532.84
56.0173	571.49
56.0317	543.27
56.0462	541.06
56.0606	527.79
56.0750	520.92
56.0895	506.75
56.1039	534.80
56.1184	529.79
56.1328	512.91
56.1472	475.62
56.1617	507.50
56.1761	561.86
56.1906	500.56
56.2050	529.23
56.2194	532.99
56.2339	541.82
56.2483	553.04
56.2628	463.91
56.2772	539.69
56.2916	529.44
56.3061	507.68
56.3205	528.03
56.3350	517.40
56.3494	533.42
56.3639	551.89
56.3783	544.92
56.3927	533.23
56.4072	487.23
56.4216	514.72
56.4361	540.84
56.4505	503.20
56.4649	531.03
56.4794	500.77
56.4938	552.19
56.5083	499.36
56.5227	548.96
56.5371	531.88
56.5516	550.00
56.5660	506.53
56.5805	487.33
56.5949	530.60
56.6093	562.03
56.6238	530.79
56.6382	520.64
56.6527	522.96
56.6671	531.55
56.6815	500.84
56.6960	512.77
56.7104	573.77
56.7249	542.04
56.7393	508.46
56.7537	519.15
56.7682	544.31
56.7826	577.85
56.7971	550.60
56.8115	531.40
56.8259	535.19
56.8404	529.35
56.8548	538.65
56.8693	513.01
56.8837	526.51
56.8981	542.05
56.9126	505.36
56.9270	508.93
56.9415	509.85
56.9559	505.57
56.9703	546.59
56.9848	534.60
56.9992	559.73
57.0137	516.50
57.0281	503.52
57.0425	495.59
57.0570	516.18
57.0714	559.68
57.0859	545.68
57.1003	564.19
57.1147	531.25
57.1292	515.21
57.1436	561.21
57.1581	545.91
57.1725	524.70
57.1869	526.57
57.2014	545.25
57.2158	536.10
57.2303	508.72
57.2447	526.83
57.2591	528.30
57.2736	527.16
57.2880	508.08
57.3025	520.50
57.3169	505.30
57.3313	541.42
57.3458	528.73
57.3602	511.27
57.3747	532.05
57.3891	528.52
57.4035	513.10
57.4180	507.36
57.4324	570.88
57.4469	539.43
57.4613	505.14
57.4757	547.30
57.4902	529.75
57.5046	550.10
57.5191	554.78
57.5335	529.52
57.5479	531.61
57.5624	509.07
57.5768	528.51
57.5913	552.27
57.6057	561.31
57.6201	537.57
57.6346	508.87
57.6490	497.02
57.6635	530.10
57.6779	511.29
57.6923	527.20
57.7068	514.47
57.7212	509.74
57.7357	512.61
57.7501	533.75
57.7645	523.14
57.7790	528.05
57.7934	529.99
57.8079	515.48
57.8223	548.60
57.8367	542.57
57.8512	543.20
57.8656	516.98
57.8801	503.95
57.8945	535.47
57.9089	549.85
57.9234	519.02
57.9378	554.85
57.9523	541.73
57.9667	540.13
57.9811	521.12
57.9956	502.65
58.0100	539.67
58.0245	532.64
58.0389	541.30
58.0533	526.39
58.0678	542.66
58.0822	523.91
58.0967	501.34
58.1111	530.38
58.1255	568.49
58.1400	537.52
58.1544	557.49
58.1689	568.89
58.1833	548.40
58.1977	534.38
58.2122	551.97
58.2266	524.92
58.2411	564.00
58.2555	557.87
58.2699	526.69
58.2844	523.96
58.2988	556.52
58.3133	576.97
58.3277	545.22
58.3421	572.54
58.3566	517.28
58.3710	534.48
58.3855	551.93
58.3999	532.35
58.4143	557.23
58.4288	586.88
58.4432	572.40
58.4577	560.50
58.4721	623.66
58.4865	628.37
58.5010	591.96
58.5154	625.44
58.5299	614.50
58.5443	621.36
58.5587	638.61
58.5732	614.41
58.5876	640.80
58.6021	630.38
58.6165	643.62
58.6309	654.45
58.6454	685.01
58.6598	643.41
58.6743	636.45
58.6887	600.92
58.7031	628.34
58.7176	650.87
58.7320	622.53
58.7465	623.85
58.7609	613.78
58.7753	595.88
58.7898	577.42
58.8042	602.29
58.8187	612.69
58.8331	621.97
58.8475	600.43
58.8620	623.10
58.8764	598.30
58.8909	557.02
58.9053	583.21
58.9197	601.55
58.9342	597.59
58.9486	579.27
58.9631	579.56
58.9775	553.34
58.9919	545.35
59.0064	534.14
59.0208	573.03
59.0353	569.07
59.0497	544.90
59.0641	551.10
59.0786	561.43
59.0930	590.42
59.1075	571.30
59.1219	543.67
59.1363	560.83
59.1508	571.64
59.1652	569.66
59.1797	566.47
59.1941	538.76
59.2085	558.30
59.2230	534.81
59.2374	527.33
59.2519	561.54
59.2663	576.44
59.2807	584.72
59.2952	553.05
59.3096	560.75
59.3241	560.95
59.3385	583.85
59.3529	560.69
59.3674	568.80
59.3818	562.92
59.3963	544.29
59.4107	556.35
59.4251	594.33
59.4396	527.32
59.4540	546.51
59.4685	584.72
59.4829	584.65
59.4973	600.81
59.5118	591.86
59.5262	571.95
59.5407	531.49
59.5551	577.79
59.5695	551.89
59.5840	531.69
59.5984	569.44
59.6129	551.31
59.6273	509.80
59.6417	534.80
59.6562	529.94
59.6706	563.62
59.6851	541.32
59.6995	561.79
59.7139	559.08
59.7284	545.73
59.7428	543.20
59.7573	526.93
59.7717	521.77
59.7861	550.01
59.8006	541.58
59.8150	500.43
59.8295	554.76
59.8439	542.32
59.8583	544.99
59.8728	534.22
59.8872	517.39
59.9017	523.10
59.9161	566.20
59.9305	552.73
59.9450	533.77
59.9594	553.88
59.9739	538.05
59.9883	494.47
60.0027	516.37
60.0172	567.29
60.0316	620.66
60.0461	555.22
60.0605	561.50
60.0750	531.76
60.0894	555.77
60.1038	543.77
60.1183	505.30
60.1327	557.65
60.1472	531.19
60.1616	550.45
60.1760	537.88
60.1905	565.71
60.2049	580.70
60.2194	562.33
60.2338	531.87
60.2482	564.24
60.2627	535.75
60.2771	526.34
60.2916	527.55
60.3060	549.70
60.3204	543.81
60.3349	527.73
60.3493	560.13
60.3638	538.04
60.3782	508.58
60.3926	515.93
60.4071	534.40
60.4215	550.95
60.4360	532.42
60.4504	525.61
60.4648	573.03
60.4793	578.28
60.4937	566.40
60.5082	543.07
60.5226	532.69
60.5370	558.91
60.5515	536.26
60.5659	537.10
60.5804	546.54
60.5948	549.64
60.6092	573.20
60.6237	546.28
60.6381	544.62
60.6526	560.14
60.6670	525.98
60.6814	545.65
60.6959	541.45
60.7103	545.74
60.7248	524.61
60.7392	529.34
60.7536	584.27
60.7681	558.92
60.7825	542.92
60.7970	521.94
60.8114	533.84
60.8258	558.48
60.8403	541.74
60.8547	545.44
60.8692	551.11
60.8836	561.60
60.8980	544.01
60.9125	556.31
60.9269	571.83
60.9414	535.45
60.9558	535.09
60.9702	568.95
60.9847	541.74
60.9991	542.27
61.0136	576.48
61.0280	569.65
61.0424	579.99
61.0569	519.25
61.0713	583.70
61.0858	614.71
61.1002	576.86
61.1146	576.90
61.1291	555.72
61.1435	534.34
61.1580	520.69
61.1724	535.95
61.1868	522.31
61.2013	550.56
61.2157	591.47
61.2302	547.04
61.2446	559.57
61.2590	544.25
61.2735	494.94
61.2879	538.13
61.3024	536.18
61.3168	551.72
61.3312	550.55
61.3457	542.93
61.3601	530.21
61.3746	551.25
61.3890	575.81
61.4034	540.25
61.4179	559.93
61.4323	565.46
61.4468	544.23
61.4612	534.80
61.4756	559.63
61.4901	555.95
61.5045	551.38
61.5190	524.89
61.5334	530.25
61.5478	544.18
61.5623	522.70
61.5767	527.20
61.5912	536.91
61.6056	537.72
61.6200	546.51
61.6345	536.62
61.6489	533.48
61.6634	527.89
61.6778	542.04
61.6922	510.33
61.7067	580.10
61.7211	568.63
61.7356	550.86
61.7500	535.69
61.7644	551.64
61.7789	571.63
61.7933	581.95
61.8078	563.51
61.8222	577.87
61.8366	565.13
61.8511	532.53
61.8655	541.49
61.8800	549.15
61.8944	581.72
61.9088	576.25
61.9233	607.07
61.9377	574.84
61.9522	554.96
61.9666	579.81
61.9810	586.76
61.9955	517.23
62.0099	550.63
62.0244	564.35
62.0388	556.38
62.0532	580.00
62.0677	560.90
62.0821	562.46
62.0966	574.05
62.1110	578.45
62.1254	567.19
62.1399	532.73
62.1543	506.75
62.1688	502.31
62.1832	551.39
62.1976	579.29
62.2121	545.72
62.2265	530.14
62.2410	548.62
62.2554	559.59
62.2698	526.45
62.2843	540.25
62.2987	533.43
62.3132	508.76
62.3276	527.53
62.3420	559.33
62.3565	564.69
62.3709	549.55
62.3854	551.28
62.3998	569.01
62.4142	588.06
62.4287	611.53
62.4431	567.99
62.4576	576.60
62.4720	592.55
62.4864	561.74
62.5009	566.63
62.5153	585.84
62.5298	596.81
62.5442	550.87
62.5586	534.62
62.5731	521.17
62.5875	536.59
62.6020	553.26
62.6164	536.22
62.6308	549.26
62.6453	553.92
62.6597	564.50
62.6742	590.56
62.6886	588.21
62.7030	582.72
62.7175	539.17
62.7319	554.12
62.7464	571.29
62.7608	533.53
62.7752	535.23
62.7897	568.61
62.8041	549.28
62.8186	562.92
62.8330	556.13
62.8474	558.19
62.8619	559.00
62.8763	599.50
62.8908	570.68
62.9052	565.78
62.9196	556.98
62.9341	585.32
62.9485	585.46
62.9630	523.58
62.9774	559.27
62.9918	588.74
63.0063	553.56
63.0207	573.59
63.0352	592.86
63.0496	576.38
63.0640	567.28
63.0785	569.89
63.0929	574.11
63.1074	563.25
63.1218	613.33
63.1362	568.66
63.1507	513.79
63.1651	560.30
63.1796	588.57
63.1940	568.04
63.2084	546.17
63.2229	540.20
63.2373	570.69
63.2518	577.65
63.2662	568.23
63.2806	554.89
63.2951	549.27
63.3095	576.30
63.3240	589.61
63.3384	596.77
63.3528	580.31
63.3673	606.14
63.3817	559.67
63.3962	556.16
63.4106	567.41
63.4250	547.51
63.4395	534.90
63.4539	540.82
63.4684	578.68
63.4828	561.44
63.4972	574.45
63.5117	601.40
63.5261	597.00
63.5406	569.27
63.5550	576.93
63.5694	585.99
63.5839	599.26
63.5983	604.77
63.6128	589.40
63.6272	581.16
63.6416	610.30
63.6561	559.75
63.6705	537.73
63.6850	592.12
63.6994	608.84
63.7138	601.91
63.7283	586.33
63.7427	644.01
63.7572	604.83
63.7716	580.61
63.7861	612.45
63.8005	588.62
63.8149	632.59
63.8294	588.99
63.8438	572.60
63.8583	616.19
63.8727	612.18
63.8871	574.14
63.9016	629.21
63.9160	600.02
63.9305	626.76
63.9449	646.32
63.9593	617.36
63.9738	572.87
63.9882	581.12
64.0027	593.91
64.0171	628.19
64.0315	649.92
64.0460	633.80
64.0604	618.92
64.0749	608.19
64.0893	636.25
64.1037	644.23
64.1182	655.74
64.1326	643.30
64.1471	610.00
64.1615	633.42
64.1759	676.81
64.1904	650.59
64.2048	690.40
64.2193	723.69
64.2337	757.41
64.2481	702.99
64.2626	718.32
64.2770	729.35
64.2915	764.01
64.3059	772.83
64.3203	797.70
64.3348	746.33
64.3492	771.16
64.3637	734.99
64.3781	770.55
64.3925	761.94
64.4070	767.61
64.4214	771.76
64.4359	794.76
64.4503	770.28
64.4647	794.43
64.4792	732.38
64.4936	773.88
64.5081	720.75
64.5225	759.76
64.5369	772.14
64.5514	756.46
64.5658	742.83
64.5803	732.98
64.5947	739.93
64.6091	764.00
64.6236	746.64
64.6380	737.70
64.6525	768.07
64.6669	704.85
64.6813	719.16
64.6958	699.14
64.7102	770.34
64.7247	719.40
64.7391	706.32
64.7535	726.60
64.7680	707.16
64.7824	757.55
64.7969	759.26
64.8113	752.68
64.8257	801.56
64.8402	774.67
64.8546	852.81
64.8691	873.27
64.8835	857.58
64.8979	928.79
64.9124	949.03
64.9268	906.11
64.9413	926.36
64.9557	966.05
64.9701	1053.25
64.9846	1153.79
64.9990	1163.60
65.0135	1322.27
65.0279	1451.37
65.0423	1798.49
65.0568	2120.52
65.0712	2735.02
65.0857	3599.36
65.1001	4605.57
65.1145	6284.89
65.1290	8242.89
65.1434	9826.26
65.1579	11323.12
65.1723	11987.33
65.1867	11270.99
65.2012	9826.66
65.2156	8215.83
65.2301	6481.80
65.2445	5267.62
65.2589	4484.70
65.2734	4220.69
65.2878	4474.67
65.3023	4977.82
65.3167	5866.37
65.3311	6528.01
65.3456	6968.02
65.3600	6973.73
65.3745	6506.00
65.3889	5403.23
65.4033	4393.18
65.4178	3432.56
65.4322	2709.78
65.4467	2125.69
65.4611	1741.31
65.4755	1426.11
65.4900	1290.35
65.5044	1147.62
65.5189	1044.55
65.5333	1020.23
65.5477	950.55
65.5622	891.16
65.5766	844.80
65.5911	870.35
65.6055	841.42
65.6199	811.93
65.6344	805.24
65.6488	757.58
65.6633	753.01
65.6777	726.11
65.6921	704.53
65.7066	722.45
65.7210	699.26
65.7355	678.34
65.7499	676.23
65.7643	695.69
65.7788	713.46
65.7932	682.13
65.8077	690.08
65.8221	662.16
65.8365	677.82
65.8510	666.17
65.8654	712.86
65.8799	650.51
65.8943	689.93
65.9087	682.66
65.9232	685.06
65.9376	623.13
65.9521	607.52
65.9665	667.71
65.9809	655.07
65.9954	635.25
66.0098	634.77
66.0243	631.41
66.0387	592.43
66.0531	578.77
66.0676	653.33
66.0820	674.58
66.0965	643.65
66.1109	641.68
66.1253	605.47
66.1398	616.26
66.1542	598.21
66.1687	645.94
66.1831	632.07
66.1975	621.85
66.2120	610.40
66.2264	608.55
66.2409	616.96
66.2553	615.57
66.2697	631.03
66.2842	603.90
66.2986	615.57
66.3131	612.64
66.3275	636.45
66.3419	637.41
66.3564	605.07
66.3708	612.18
66.3853	606.81
66.3997	593.61
66.4141	614.75
66.4286	642.67
66.4430	585.20
66.4575	554.80
66.4719	581.93
66.4863	577.20
66.5008	581.45
66.5152	568.42
66.5297	583.44
66.5441	610.74
66.5585	574.88
66.5730	590.15
66.5874	590.06
66.6019	595.55
66.6163	582.10
66.6307	580.35
66.6452	569.08
66.6596	581.08
66.6741	578.01
66.6885	558.98
66.7029	595.63
66.7174	572.25
66.7318	584.10
66.7463	581.64
66.7607	554.22
66.7751	575.24
66.7896	587.04
66.8040	576.35
66.8185	592.98
66.8329	589.30
66.8473	560.13
66.8618	588.96
66.8762	592.37
66.8907	579.78
66.9051	600.10
66.9195	580.29
66.9340	590.09
66.9484	590.95
66.9629	576.84
66.9773	565.32
66.9917	562.44
67.0062	556.05
67.0206	604.26
67.0351	599.94
67.0495	583.22
67.0639	589.83
67.0784	564.46
67.0928	559.44
67.1073	612.45
67.1217	582.00
67.1361	584.46
67.1506	589.23
67.1650	564.90
67.1795	607.56
67.1939	576.03
67.2083	562.21
67.2228	563.49
67.2372	571.07
67.2517	603.68
67.2661	598.11
67.2805	613.44
67.2950	580.00
67.3094	588.64
67.3239	590.85
67.3383	584.24
67.3527	557.84
67.3672	568.28
67.3816	589.71
67.3961	573.45
67.4105	582.59
67.4250	583.32
67.4394	596.26
67.4538	586.57
67.4683	600.31
67.4827	605.98
67.4972	589.87
67.5116	551.04
67.5260	571.90
67.5405	590.84
67.5549	600.70
67.5694	559.11
67.5838	537.65
67.5982	554.61
67.6127	554.06
67.6271	565.08
67.6416	590.36
67.6560	611.30
67.6704	602.34
67.6849	569.87
67.6993	574.33
67.7138	564.02
67.7282	571.59
67.7426	581.69
67.7571	582.99
67.7715	578.88
67.7860	583.71
67.8004	573.23
67.8148	559.25
67.8293	579.31
67.8437	581.81
67.8582	591.50
67.8726	589.02
67.8870	595.26
67.9015	624.60
67.9159	550.12
67.9304	572.15
67.9448	588.62
67.9592	598.09
67.9737	622.25
67.9881	577.28
68.0026	565.70
68.0170	565.03
68.0314	615.20
68.0459	603.47
68.0603	589.83
68.0748	563.70
68.0892	612.06
68.1036	609.11
68.1181	626.64
68.1325	600.07
68.1470	534.02
68.1614	602.28
68.1758	576.74
68.1903	578.32
68.2047	606.10
68.2192	598.41
68.2336	547.94
68.2480	577.10
68.2625	572.26
68.2769	556.47
68.2914	547.31
68.3058	570.79
68.3202	562.99
68.3347	582.49
68.3491	556.04
68.3636	594.62
68.3780	589.35
68.3924	616.29
68.4069	621.55
68.4213	612.45
68.4358	591.49
68.4502	556.40
68.4646	599.14
68.4791	580.54
68.4935	569.18
68.5080	560.69
68.5224	549.41
68.5368	544.57
68.5513	578.46
68.5657	578.12
68.5802	567.73
68.5946	567.38
68.6090	574.45
68.6235	561.20
68.6379	556.77
68.6524	587.00
68.6668	573.89
68.6812	605.11
68.6957	555.25
68.7101	552.81
68.7246	520.18
68.7390	552.07
68.7534	544.72
68.7679	587.37
68.7823	609.69
68.7968	596.66
68.8112	564.38
68.8256	529.83
68.8401	549.45
68.8545	576.90
68.8690	591.51
68.8834	574.77
68.8978	599.53
68.9123	592.47
68.9267	619.45
68.9412	593.77
68.9556	543.09
68.9700	568.59
68.9845	558.82
68.9989	604.90
69.0134	614.19
69.0278	581.93
69.0422	548.18
69.0567	613.32
69.0711	575.71
69.0856	615.70
69.1000	600.74
69.1144	548.91
69.1289	574.72
69.1433	567.85
69.1578	521.67
69.1722	554.71
69.1866	579.72
69.2011	629.15
69.2155	582.74
69.2300	563.57
69.2444	535.65
69.2588	535.45
69.2733	611.36
69.2877	562.52
69.3022	613.69
69.3166	591.22
69.3310	590.01
69.3455	599.06
69.3599	602.41
69.3744	625.95
69.3888	581.07
69.4032	544.59
69.4177	568.70
69.4321	620.19
69.4466	603.94
69.4610	532.70
69.4754	596.02
69.4899	626.62
69.5043	565.82
69.5188	564.51
69.5332	572.66
69.5476	600.94
69.5621	585.15
69.5765	556.96
69.5910	559.17
69.6054	616.55
69.6198	556.82
69.6343	578.13
69.6487	574.04
69.6632	576.21
69.6776	603.10
69.6920	565.70
69.7065	545.29
69.7209	594.57
69.7354	563.17
69.7498	600.50
69.7642	562.20
69.7787	567.26
69.7931	564.31
69.8076	576.40
69.8220	561.80
69.8364	605.83
69.8509	573.41
69.8653	573.73
69.8798	585.79
69.8942	591.98
69.9086	583.80
69.9231	579.48
69.9375	590.94
69.9520	529.27
69.9664	565.33
69.9808	588.07
69.9953	608.02
70.0097	558.61
70.0242	559.96
70.0386	585.80
70.0530	568.95
70.0675	552.09
70.0819	569.83
70.0964	578.21
70.1108	649.17
70.1252	576.95
70.1397	563.12
70.1541	637.21
70.1686	572.15
70.1830	577.96
70.1974	589.21
70.2119	628.49
70.2263	559.65
70.2408	563.62
70.2552	562.01
70.2696	581.16
70.2841	615.46
70.2985	585.42
70.3130	581.90
70.3274	599.90
70.3418	593.42
70.3563	551.10
70.3707	561.47
70.3852	594.58
70.3996	561.99
70.4140	585.30
70.4285	658.62
70.4429	625.21
70.4574	567.70
70.4718	612.96
70.4862	560.35
70.5007	566.49
70.5151	549.62
70.5296	565.97
70.5440	587.91
70.5584	574.01
70.5729	552.73
70.5873	572.12
70.6018	540.88
70.6162	546.12
70.6306	533.07
70.6451	589.81
70.6595	611.81
70.6740	572.20
70.6884	529.74
70.7028	588.42
70.7173	566.79
70.7317	547.40
70.7462	592.16
70.7606	553.57
70.7750	579.22
70.7895	608.08
70.8039	616.56
70.8184	572.64
70.8328	615.38
70.8472	587.30
70.8617	659.15
70.8761	600.09
70.8906	570.10
70.9050	613.53
70.9194	587.61
70.9339	583.06
70.9483	560.14
70.9628	546.15
70.9772	612.36
70.9916	609.53
71.0061	566.40
71.0205	580.75
71.0350	581.13
71.0494	539.46
71.0638	527.34
71.0783	535.67
71.0927	683.06
71.1072	680.76
71.1216	625.68
71.1361	611.45
71.1505	606.14
71.1649	579.22
71.1794	598.72
71.1938	588.68
71.2083	595.75
71.2227	582.71
71.2371	563.10
71.2516	596.62
71.2660	606.83
71.2805	557.36
71.2949	604.00
71.3093	575.71
71.3238	556.79
71.3382	581.73
71.3527	550.15
71.3671	528.66
71.3815	523.32
71.3960	501.82
71.4104	540.54
71.4249	610.57
71.4393	622.43
71.4537	565.89
71.4682	618.10
71.4826	605.13
71.4971	543.63
71.5115	552.64
71.5259	551.73
71.5404	587.04
71.5548	596.19
71.5693	576.16
71.5837	566.58
71.5981	510.94
71.6126	543.69
71.6270	576.87
71.6415	591.50
71.6559	606.03
71.6703	593.09
71.6848	582.66
71.6992	630.03
71.7137	634.98
71.7281	593.95
71.7425	615.90
71.7570	588.09
71.7714	577.76
71.7859	540.60
71.8003	503.31
71.8147	550.99
71.8292	568.71
71.8436	543.10
71.8581	551.64
71.8725	601.87
71.8869	561.68
71.9014	626.85
71.9158	586.82
71.9303	527.35
71.9447	577.34
71.9591	645.67
71.9736	600.39
71.9880	523.22
72.0025	531.60
72.0169	608.77
72.0313	627.63
72.0458	612.24
72.0602	566.90
72.0747	526.97
72.0891	569.90
72.1035	625.35
72.1180	533.94
72.1324	540.59
72.1469	562.35
72.1613	621.31
72.1757	654.13
72.1902	593.60
72.2046	516.13
72.2191	520.46
72.2335	583.67
72.2479	593.92
72.2624	506.63
72.2768	502.14
72.2913	548.12
72.3057	577.47
72.3201	547.62
72.3346	524.03
72.3490	614.65
72.3635	606.02
72.3779	474.97
72.3923	485.73
72.4068	496.66
72.4212	560.77
72.4357	665.80
72.4501	634.45
72.4645	589.76
72.4790	527.10
72.4934	484.58
72.5079	511.83
72.5223	535.25
72.5367	597.43
72.5512	607.94
72.5656	561.25
72.5801	546.15
72.5945	545.44
72.6089	545.98
72.6234	509.50
72.6378	550.45
72.6523	570.98
72.6667	480.40
72.6811	491.86
72.6956	554.25
72.7100	577.96
72.7245	637.27
72.7389	620.74
72.7533	574.91
72.7678	590.57
72.7822	633.67
72.7967	577.70
72.8111	529.50
72.8255	587.02
72.8400	600.00
72.8544	552.92
72.8689	512.65
72.8833	465.33

Result vector
22.1120	588.63
22.1264	544.81
22.1409	546.69
22.1553	578.87
22.1697	618.04
22.1842	574.39
22.1986	503.37
22.2131	576.63
22.2275	574.71
22.2419	568.59
22.2564	587.35
22.2708	556.30
22.2853	567.46
22.2997	609.60
22.3141	626.51
22.3286	666.71
22.3430	622.18
22.3575	563.25
22.3719	592.69
22.3863	550.95
22.4008	571.27
22.4152	593.88
22.4297	610.37
22.4441	627.23
22.4585	585.44
22.4730	625.66
22.4874	683.25
22.5019	614.26
22.5163	542.22
22.5307	475.45
22.5452	518.30
22.5596	644.14
22.5741	507.93
22.5885	550.32
22.6029	611.11
22.6174	607.79
22.6318	580.56
22.6463	577.15
22.6607	577.75
22.6751	477.58
22.6896	508.06
22.7040	538.87
22.7185	516.09
22.7329	528.20
22.7473	566.19
22.7618	573.16
22.7762	661.20
22.7907	635.27
22.8051	611.07
22.8195	612.42
22.8340	589.24
22.8484	585.66
22.8629	674.02
22.8773	576.42
22.8917	517.54
22.9062	510.40
22.9206	609.54
22.9351	614.22
22.9495	495.77
22.9639	573.60
22.9784	614.85
22.9928	663.61
23.0073	557.55
23.0217	575.59
23.0361	533.07
23.0506	546.97
23.0650	500.10
23.0795	538.18
23.0939	601.11
23.1083	545.40
23.1228	617.03
23.1372	602.97
23.1517	591.36
23.1661	581.52
23.1806	525.25
23.1950	554.84
23.2094	535.66
23.2239	590.15
23.2383	579.09
23.2528	576.60
23.2672	651.55
23.2816	577.21
23.2961	581.97
23.3105	554.84
23.3250	545.75
23.3394	579.43
23.3538	525.30
23.3683	570.20
23.3827	548.13
23.3972	521.02
23.4116	535.85
23.4260	587.44
23.4405	514.50
23.4549	509.38
23.4694	501.97
23.4838	586.66
23.4982	583.40
23.5127	585.52
23.5271	577.68
23.5416	570.10
23.5560	542.92
23.5704	560.25
23.5849	533.41
23.5993	547.48
23.6138	582.26
23.6282	579.90
23.6426	509.45
23.6571	581.32
23.6715	566.52
23.6860	541.82
23.7004	556.73
23.7148	465.56
23.7293	550.86
23.7437	559.28
23.7582	503.22
23.7726	519.08
23.7870	597.30
23.8015	518.05
23.8159	545.88
23.8304	559.36
23.8448	525.10
23.8592	594.35
23.8737	629.33
23.8881	560.58
23.9026	602.92
23.9170	585.82
23.9314	567.54
23.9459	527.72
23.9603	522.32
23.9748	569.46
23.9892	584.30
24.0036	572.20
24.0181	554.89
24.0325	558.05
24.0470	536.82
24.0614	597.43
24.0758	565.21
24.0903	578.18
24.1047	582.40
24.1192	590.25
24.1336	581.85
24.1480	591.41
24.1625	575.57
24.1769	618.53
24.1914	581.55
24.2058	561.80
24.2202	577.37
24.2347	625.45
24.2491	718.81
24.2636	512.18
24.2780	589.78
24.2924	595.12
24.3069	565.43
24.3213	601.63
24.3358	591.69
24.3502	580.31
24.3646	536.96
24.3791	531.88
24.3935	552.42
24.4080	555.08
24.4224	588.43
24.4368	554.47
24.4513	549.68
24.4657	594.17
24.4802	538.45
24.4946	510.38
24.5090	515.81
24.5235	523.88
24.5379	562.43
24.5524	500.37
24.5668	540.46
24.5812	580.95
24.5957	548.24
24.6101	602.24
24.6246	573.30
24.6390	530.58
24.6534	515.07
24.6679	583.51
24.6823	568.62
24.6968	598.80
24.7112	534.43
24.7256	535.99
24.7401	531.99
24.7545	584.64
24.7690	572.43
24.7834	563.03
24.7978	544.82
24.8123	544.98
24.8267	510.53
24.8412	540.27
24.8556	537.67
24.8700	555.77
24.8845	542.42
24.8989	508.43
24.9134	526.64
24.9278	567.57
24.9422	563.09
24.9567	505.50
24.9711	554.61
24.9856	548.47
25.0000	545.76
25.0144	557.65
25.0289	480.41
25.0433	558.10
25.0578	582.78
25.0722	553.52
25.0866	577.59
25.1011	513.91
25.1155	584.11
25.1300	568.83
25.1444	509.96
25.1588	549.20
25.1733	531.15
25.1877	500.06
25.2022	562.29
25.2166	548.00
25.2310	537.32
25.2455	558.55
25.2599	570.87
25.2744	558.20
25.2888	541.23
25.3032	539.98
25.3177	505.39
25.3321	542.72
25.3466	544.75
25.3610	532.30
25.3754	560.60
25.3899	516.10
25.4043	521.08
25.4188	533.43
25.4332	535.90
25.4476	530.01
25.4621	514.67
25.4765	529.93
25.4910	548.96
25.5054	532.42
25.5198	533.21
25.5343	568.74
25.5487	555.20
25.5632	535.55
25.5776	546.32
25.5920	538.79
25.6065	533.42
25.6209	537.75
25.6354	513.27
25.6498	531.21
25.6642	481.73
25.6787	510.68
25.6931	518.27
25.7076	554.40
25.7220	550.82
25.7364	539.14
25.7509	552.96
25.7653	563.69
25.7798	540.41
25.7942	523.87
25.8086	530.65
25.8231	558.23
25.8375	555.97
25.8520	556.23
25.8664	522.88
25.8808	522.36
25.8953	544.35
25.9097	516.20
25.9242	505.91
25.9386	555.01
25.9530	518.83
25.9675	481.14
25.9819	531.79
25.9964	516.40
26.0108	542.47
26.0252	570.34
26.0397	567.38
26.0541	500.85
26.0686	501.57
26.0830	502.00
26.0974	498.43
26.1119	503.40
26.1263	529.61
26.1408	509.06
26.1552	506.75
26.1696	546.07
26.1841	528.84
26.1985	517.56
26.2130	513.28
26.2274	522.18
26.2418	529.43
26.2563	526.94
26.2707	547.93
26.2852	548.19
26.2996	542.71
26.3140	542.22
26.3285	519.77
26.3429	507.79
26.3574	524.53
26.3718	538.85
26.3862	525.47
26.4007	528.67
26.4151	511.82
26.4296	509.67
26.4440	515.36
26.4584	536.10
26.4729	557.78
26.4873	528.73
26.5018	531.24
26.5162	582.40
26.5306	588.34
26.5451	549.95
26.5595	546.48
26.5740	516.65
26.5884	525.56
26.6028	548.31
26.6173	538.79
26.6317	567.27
26.6462	520.65
26.6606	504.63
26.6750	523.89
26.6895	507.18
26.7039	555.43
26.7184	562.42
26.7328	536.24
26.7472	500.26
26.7617	489.13
26.7761	491.90
26.7906	522.43
26.8050	521.11
26.8194	492.59
26.8339	514.47
26.8483	533.74
26.8628	558.94
26.8772	534.79
26.8917	521.47
26.9061	525.13
26.9205	538.37
26.9350	526.68
26.9494	512.51
26.9639	487.79
26.9783	504.39
26.9927	515.52
27.0072	522.63
27.0216	530.71
27.0361	535.66
27.0505	525.95
27.0649	536.45
27.0794	557.91
27.0938	544.11
27.1083	539.57
27.1227	517.61
27.1371	538.06
27.1516	537.11
27.1660	491.19
27.1805	501.10
27.1949	518.10
27.2093	504.71
27.2238	504.19
27.2382	543.40
27.2527	549.92
27.2671	514.67
27.2815	514.02
27.2960	492.94
27.3104	493.87
27.3249	538.83
27.3393	541.17
27.3537	532.05
27.3682	524.45
27.3826	505.88
27.3971	501.67
27.4115	486.06
27.4259	509.13
27.4404	531.66
27.4548	540.03
27.4693	517.82
27.4837	513.08
27.4981	533.98
27.5126	529.42
27.5270	521.17
27.5415	515.53
27.5559	557.43
27.5703	571.69
27.5848	503.99
27.5992	499.27
27.6137	522.89
27.6281	514.55
27.6425	540.08
27.6570	518.75
27.6714	508.53
27.6859	515.46
27.7003	554.02
27.7147	556.66
27.7292	535.50
27.7436	502.77
27.7581	541.48
27.7725	547.26
27.7869	537.99
27.8014	555.94
27.8158	526.86
27.8303	538.66
27.8447	541.76
27.8591	527.17
27.8736	515.65
27.8880	514.24
27.9025	538.43
27.9169	528.67
27.9313	536.53
27.9458	570.06
27.9602	507.80
27.9747	488.69
27.9891	500.83
28.0035	507.55
28.0180	505.10
28.0324	524.39
28.0469	543.89
28.0613	538.20
28.0757	540.38
28.0902	526.08
28.1046	490.63
28.1191	532.16
28.1335	524.17
28.1479	476.75
28.1624	493.45
28.1768	515.72
28.1913	502.49
28.2057	523.35
28.2201	511.58
28.2346	532.99
28.2490	537.66
28.2635	518.60
28.2779	508.85
28.2923	522.97
28.3068	487.80
28.3212	485.84
28.3357	534.34
28.3501	527.79
28.3645	508.37
28.3790	532.10
28.3934	521.38
28.4079	543.05
28.4223	554.86
28.4367	544.44
28.4512	516.71
28.4656	514.57
28.4801	534.68
28.4945	532.56
28.5089	503.83
28.5234	515.82
28.5378	510.69
28.5523	505.69
28.5667	505.04
28.5811	511.50
28.5956	515.77
28.6100	507.79
28.6245	534.15
28.6389	530.41
28.6533	491.31
28.6678	497.38
28.6822	508.07
28.6967	486.78
28.7111	498.82
28.7255	520.21
28.7400	531.36
28.7544	523.26
28.7689	562.10
28.7833	551.74
28.7977	532.32
28.8122	519.06
28.8266	546.82
28.8411	533.30
28.8555	520.49
28.8699	517.91
28.8844	521.86
28.8988	522.50
28.9133	514.46
28.9277	480.34
28.9421	550.89
28.9566	523.12
28.9710	525.70
28.9855	525.90
28.9999	529.83
29.0143	506.67
29.0288	513.64
29.0432	509.39
29.0577	522.14
29.0721	500.09
29.0865	518.10
29.1010	511.43
29.1154	499.29
29.1299	525.03
29.1443	513.60
29.1587	496.82
29.1732	491.47
29.1876	496.06
29.2021	527.68
29.2165	521.18
29.2309	516.64
29.2454	496.74
29.2598	521.33
29.2743	506.75
29.2887	489.47
29.3031	513.83
29.3176	525.69
29.3320	548.10
29.3465	550.97
29.3609	514.95
29.3753	536.74
29.3898	513.29
29.4042	500.74
29.4187	545.85
29.4331	511.46
29.4475	499.72
29.4620	543.89
29.4764	501.02
29.4909	508.49
29.5053	519.68
29.5197	508.38
29.5342	527.52
29.5486	541.80
29.5631	527.72
29.5775	498.01
29.5919	487.66
29.6064	516.83
29.6208	516.01
29.6353	523.57
29.6497	506.84
29.6641	509.27
29.6786	489.28
29.6930	514.04
29.7075	493.54
29.7219	513.32
29.7363	510.17
29.7508	476.63
29.7652	485.99
29.7797	507.99
29.7941	528.94
29.8085	525.72
29.8230	511.74
29.8374	509.57
29.8519	509.88
29.8663	523.40
29.8807	492.99
29.8952	536.88
29.9096	515.51
29.9241	499.74
29.9385	518.94
29.9529	540.69
29.9674	539.43
29.9818	484.92
29.9963	481.78
30.0107	504.68
30.0251	497.53
30.0396	503.01
30.0540	524.93
30.0685	536.18
30.0829	518.43
30.0973	484.86
30.1118	492.88
30.1262	504.98
30.1407	499.61
30.1551	530.02
30.1695	502.33
30.1840	502.97
30.1984	505.55
30.2129	506.58
30.2273	529.40
30.2417	507.55
30.2562	508.31
30.2706	522.93
30.2851	529.78
30.2995	513.30
30.3139	492.96
30.3284	464.30
30.3428	504.21
30.3573	532.42
30.3717	524.74
30.3861	485.59
30.4006	467.85
30.4150	498.09
30.4295	549.10
30.4439	504.07
30.4583	482.31
30.4728	527.25
30.4872	485.63
30.5017	506.89
30.5161	491.31
30.5305	482.32
30.5450	525.88
30.5594	525.77
30.5739	504.22
30.5883	491.24
30.6028	514.46
30.6172	535.47
30.6316	493.42
30.6461	485.53
30.6605	492.85
30.6750	517.01
30.6894	531.81
30.7038	555.81
30.7183	562.29
30.7327	553.59
30.7472	559.82
30.7616	514.24
30.7760	548.12
30.7905	573.59
30.8049	548.94
30.8194	560.08
30.8338	608.96
30.8482	604.39
30.8627	630.43
30.8771	650.05
30.8916	647.46
30.9060	659.97
30.9204	664.57
30.9349	685.46
30.9493	705.50
30.9638	674.53
30.9782	641.59
30.9926	618.84
31.0071	598.54
31.0215	609.03
31.0360	588.86
31.0504	586.15
31.0648	600.81
31.0793	589.19
31.0937	565.55
31.1082	534.86
31.1226	581.49
31.1370	558.10
31.1515	532.99
31.1659	557.50
31.1804	547.07
31.1948	555.49
31.2092	572.20
31.2237	552.18
31.2381	558.97
31.2526	541.11
31.2670	558.89
31.2814	528.78
31.2959	510.55
31.3103	523.56
31.3248	521.29
31.3392	520.84
31.3536	535.81
31.3681	523.85
31.3825	516.99
31.3970	520.09
31.4114	532.07
31.4258	505.55
31.4403	500.64
31.4547	489.49
31.4692	508.96
31.4836	516.56
31.4980	509.91
31.5125	504.73
31.5269	509.56
31.5414	525.02
31.5558	519.89
31.5702	499.91
31.5847	497.40
31.5991	510.63
31.6136	484.92
31.6280	485.70
31.6424	467.11
31.6569	500.74
31.6713	507.24
31.6858	516.96
31.7002	528.54
31.7146	502.89
31.7291	469.75
31.7435	493.17
31.7580	515.21
31.7724	519.58
31.7868	511.74
31.8013	483.79
31.8157	514.11
31.8302	548.40
31.8446	550.89
31.8590	514.88
31.8735	521.76
31.8879	495.85
31.9024	561.23
31.9168	507.10
31.9312	482.53
31.9457	530.12
31.9601	501.46
31.9746	524.53
31.9890	549.27
32.0034	517.01
32.0179	498.27
32.0323	512.54
32.0468	492.61
32.0612	518.77
32.0756	512.89
32.0901	539.55
32.1045	493.79
32.1190	487.59
32.1334	509.10
32.1478	467.62
32.1623	477.33
32.1767	521.58
32.1912	513.19
32.2056	475.92
32.2200	515.42
32.2345	509.12
32.2489	481.28
32.2634	517.63
32.2778	497.56
32.2922	494.88
32.3067	512.26
32.3211	500.00
32.3356	525.56
32.3500	528.53
32.3644	510.37
32.3789	506.58
32.3933	488.71
32.4078	521.39
32.4222	493.16
32.4366	497.50
32.4511	464.74
32.4655	507.56
32.4800	495.29
32.4944	490.01
32.5088	503.90
32.5233	495.89
32.5377	513.17
32.5522	497.11
32.5666	506.54
32.5810	495.07
32.5955	480.49
32.6099	491.42
32.6244	480.90
32.6388	514.55
32.6532	476.50
32.6677	528.99
32.6821	501.85
32.6966	516.01
32.7110	511.28
32.7254	538.83
32.7399	492.61
32.7543	470.07
32.7688	515.63
32.7832	523.81
32.7976	519.53
32.8121	504.41
32.8265	530.60
32.8410	519.49
32.8554	513.33
32.8698	503.01
32.8843	489.94
32.8987	540.57
32.9132	572.04
32.9276	502.86
32.9420	520.36
32.9565	489.93
32.9709	483.48
32.9854	501.49
32.9998	509.47
33.0142	497.29
33.0287	526.99
33.0431	518.20
33.0576	527.65
33.0720	513.27
33.0864	483.87
33.1009	506.66
33.1153	521.76
33.1298	516.50
33.1442	504.23
33.1586	518.39
33.1731	513.32
33.1875	501.05
33.2020	526.89
33.2164	524.33
33.2308	528.63
33.2453	507.47
33.2597	515.54
33.2742	512.79
33.2886	526.39
33.3030	509.87
33.3175	512.49
33.3319	552.26
33.3464	487.42
33.3608	486.48
33.3752	466.26
33.3897	487.02
33.4041	503.79
33.4186	502.48
33.4330	538.35
33.4474	545.84
33.4619	484.70
33.4763	515.04
33.4908	537.02
33.5052	531.14
33.5196	512.48
33.5341	528.45
33.5485	507.91
33.5630	497.74
33.5774	491.98
33.5918	501.26
33.6063	502.66
33.6207	466.19
33.6352	499.52
33.6496	506.78
33.6640	536.23
33.6785	505.51
33.6929	465.93
33.7074	508.78
33.7218	514.60
33.7362	483.33
33.7507	509.99
33.7651	489.15
33.7796	499.45
33.7940	512.16
33.8084	530.99
33.8229	497.11
33.8373	504.18
33.8518	482.71
33.8662	499.95
33.8806	509.82
33.8951	526.09
33.9095	535.39
33.9240	511.21
33.9384	501.17
33.9528	497.70
33.9673	467.97
33.9817	551.17
33.9962	501.02
34.0106	539.56
34.0250	479.06
34.0395	486.23
34.0539	520.45
34.0684	487.82
34.0828	465.58
34.0972	488.33
34.1117	491.33
34.1261	476.19
34.1406	507.13
34.1550	495.46
34.1694	510.43
34.1839	534.07
34.1983	505.92
34.2128	506.96
34.2272	500.11
34.2417	520.71
34.2561	532.88
34.2705	500.43
34.2850	497.43
34.2994	481.34
34.3139	507.71
34.3283	538.79
34.3427	512.84
34.3572	493.10
34.3716	506.22
34.3861	488.85
34.4005	472.99
34.4149	529.66
34.4294	538.39
34.4438	498.84
34.4583	493.00
34.4727	474.20
34.4871	486.33
34.5016	489.47
34.5160	504.52
34.5305	514.10
34.5449	513.22
34.5593	503.85
34.5738	527.22
34.5882	507.97
34.6027	521.61
34.6171	512.80
34.6315	485.71
34.6460	526.21
34.6604	539.43
34.6749	537.83
34.6893	490.23
34.7037	502.43
34.7182	512.49
34.7326	514.75
34.7471	523.56
34.7615	496.95
34.7759	549.29
34.7904	551.76
34.8048	551.13
34.8193	523.12
34.8337	529.67
34.8481	506.60
34.8626	494.06
34.8770	526.62
34.8915	534.60
34.9059	571.05
34.9203	538.84
34.9348	496.41
34.9492	492.81
34.9637	512.47
34.9781	506.66
34.9925	524.90
35.0070	526.73
35.0214	515.06
35.0359	528.88
35.0503	539.81
35.0647	516.98
35.0792	492.09
35.0936	490.98
35.1081	521.17
35.1225	518.63
35.1369	528.01
35.1514	515.07
35.1658	518.48
35.1803	516.27
35.1947	532.46
35.2091	515.50
35.2236	526.53
35.2380	509.92
35.2525	499.48
35.2669	495.84
35.2813	531.60
35.2958	499.42
35.3102	521.43
35.3247	509.15
35.3391	513.04
35.3535	509.23
35.3680	507.85
35.3824	523.50
35.3969	535.95
35.4113	523.89
35.4257	510.11
35.4402	526.63
35.4546	527.73
35.4691	579.25
35.4835	535.51
35.4979	525.28
35.5124	521.39
35.5268	530.02
35.5413	562.21
35.5557	557.68
35.5701	528.08
35.5846	544.30
35.5990	538.75
35.6135	511.35
35.6279	503.69
35.6423	516.55
35.6568	523.87
35.6712	531.17
35.6857	599.98
35.7001	671.33
35.7145	724.64
35.7290	699.19
35.7434	587.07
35.7579	577.88
35.7723	579.62
35.7867	590.39
35.8012	621.57
35.8156	669.19
35.8301	645.60
35.8445	619.00
35.8589	601.65
35.8734	720.70
35.8878	786.36
35.9023	934.66
35.9167	1030.95
35.9311	1495.52
35.9456	2322.98
35.9600	2364.28
35.9745	1904.51
35.9889	1866.77
36.0033	2377.14
36.0178	2402.28
36.0322	2038.30
36.0467	1821.83
36.0611	1601.24
36.0755	1543.92
36.0900	1485.74
36.1044	1288.38
36.1189	1262.28
36.1333	1072.10
36.1477	994.00
36.1622	966.30
36.1766	935.01
36.1911	807.85
36.2055	722.14
36.2199	726.15
36.2344	663.85
36.2488	669.89
36.2633	697.02
36.2777	726.26
36.2921	729.62
36.3066	742.40
36.3210	788.26
36.3355	785.37
36.3499	821.88
36.3643	867.05
36.3788	873.40
36.3932	885.69
36.4077	941.72
36.4221	996.70
36.4365	967.39
36.4510	954.62
36.4654	912.18
36.4799	904.24
36.4943	893.83
36.5087	873.19
36.5232	828.31
36.5376	781.23
36.5521	806.99
36.5665	733.58
36.5809	680.66
36.5954	636.17
36.6098	665.46
36.6243	602.21
36.6387	652.22
36.6531	615.84
36.6676	619.76
36.6820	580.18
36.6965	596.09
36.7109	594.85
36.7253	574.59
36.7398	583.60
36.7542	549.85
36.7687	559.24
36.7831	571.97
36.7975	591.60
36.8120	625.13
36.8264	611.07
36.8409	584.40
36.8553	617.22
36.8697	630.86
36.8842	602.82
36.8986	615.90
36.9131	594.26
36.9275	571.27
36.9419	615.85
36.9564	588.22
36.9708	557.12
36.9853	574.07
36.9997	575.00
37.0141	577.96
37.0286	578.01
37.0430	566.61
37.0575	522.18
37.0719	507.10
37.0863	541.27
37.1008	528.83
37.1152	510.58
37.1297	543.92
37.1441	524.66
37.1585	497.08
37.1730	512.51
37.1874	489.95
37.2019	519.95
37.2163	532.73
37.2307	479.45
37.2452	478.25
37.2596	511.74
37.2741	529.24
37.2885	532.52
37.3029	493.18
37.3174	511.39
37.3318	522.02
37.3463	486.40
37.3607	507.88
37.3751	520.42
37.3896	495.89
37.4040	472.31
37.4185	507.55
37.4329	510.19
37.4473	501.90
37.4618	509.74
37.4762	534.84
37.4907	490.65
37.5051	506.09
37.5195	510.28
37.5340	492.25
37.5484	501.82
37.5629	513.25
37.5773	506.99
37.5917	535.48
37.6062	511.46
37.6206	520.50
37.6351	527.80
37.6495	516.52
37.6639	514.04
37.6784	512.38
37.6928	531.24
37.7073	523.14
37.7217	474.06
37.7361	501.36
37.7506	518.41
37.7650	497.49
37.7795	523.25
37.7939	500.56
37.8083	499.27
37.8228	519.93
37.8372	510.46
37.8517	523.72
37.8661	495.53
37.8805	492.73
37.8950	525.91
37.9094	513.05
37.9239	512.31
37.9383	507.16
37.9528	508.10
37.9672	519.02
37.9816	548.91
37.9961	519.27
38.0105	521.60
38.0250	546.08
38.0394	522.13
38.0538	516.29
38.0683	492.37
38.0827	538.19
38.0972	505.89
38.1116	494.18
38.1260	512.57
38.1405	500.25
38.1549	503.06
38.1694	527.72
38.1838	517.01
38.1982	502.52
38.2127	518.59
38.2271	538.55
38.2416	516.55
38.2560	495.38
38.2704	518.42
38.2849	515.70
38.2993	522.75
38.3138	529.73
38.3282	527.92
38.3426	542.09
38.3571	504.79
38.3715	524.73
38.3860	541.90
38.4004	532.73
38.4148	573.46
38.4293	611.53
38.4437	570.97
38.4582	619.98
38.4726	675.70
38.4870	713.01
38.5015	754.01
38.5159	767.60
38.5304	805.66
38.5448	825.44
38.5592	753.17
38.5737	723.29
38.5881	746.38
38.6026	727.19
38.6170	679.73
38.6314	658.95
38.6459	672.14
38.6603	641.38
38.6748	627.26
38.6892	561.84
38.7036	584.49
38.7181	551.24
38.7325	528.51
38.7470	536.03
38.7614	521.71
38.7758	532.66
38.7903	485.40
38.8047	521.93
38.8192	535.18
38.8336	512.02
38.8480	492.98
38.8625	533.69
38.8769	510.91
38.8914	478.39
38.9058	522.36
38.9202	498.80
38.9347	528.72
38.9491	526.67
38.9636	475.82
38.9780	491.10
38.9924	524.40
39.0069	512.42
39.0213	493.39
39.0358	513.11
39.0502	504.02
39.0646	481.28
39.0791	495.18
39.0935	522.00
39.1080	518.36
39.1224	486.03
39.1368	496.12
39.1513	488.17
39.1657	527.80
39.1802	531.96
39.1946	506.14
39.2090	490.29
39.2235	481.58
39.2379	511.20
39.2524	496.73
39.2668	500.64
39.2812	507.10
39.2957	473.84
39.3101	498.14
39.3246	525.55
39.3390	531.78
39.3534	483.49
39.3679	491.88
39.3823	502.29
39.3968	496.88
39.4112	448.05
39.4256	498.27
39.4401	514.44
39.4545	487.78
39.4690	503.77
39.4834	514.40
39.4978	522.41
39.5123	485.81
39.5267	499.13
39.5412	480.13
39.5556	474.29
39.5700	501.97
39.5845	468.89
39.5989	485.86
39.6134	479.66
39.6278	473.03
39.6422	468.29
39.6567	471.15
39.6711	484.91
39.6856	498.93
39.7000	485.58
39.7144	492.04
39.7289	464.23
39.7433	475.82
39.7578	467.62
39.7722	502.60
39.7866	482.29
39.8011	494.28
39.8155	502.63
39.8300	502.30
39.8444	492.92
39.8588	486.03
39.8733	493.68
39.8877	482.09
39.9022	480.08
39.9166	510.19
39.9310	516.84
39.9455	494.52
39.9599	481.70
39.9744	498.53
39.9888	499.62
40.0032	545.56
40.0177	539.14
40.0321	504.79
40.0466	493.58
40.0610	491.83
40.0754	461.68
40.0899	485.79
40.1043	475.01
40.1188	517.89
40.1332	493.16
40.1476	479.27
40.1621	493.98
40.1765	498.97
40.1910	489.67
40.2054	490.63
40.2198	530.04
40.2343	516.54
40.2487	498.12
40.2632	470.01
40.2776	520.65
40.2920	491.19
40.3065	530.65
40.3209	488.56
40.3354	503.09
40.3498	488.22
40.3642	512.40
40.3787	498.85
40.3931	500.11
40.4076	496.70
40.4220	497.49
40.4364	515.53
40.4509	496.82
40.4653	522.29
40.4798	484.38
40.4942	502.53
40.5086	501.18
40.5231	497.29
40.5375	494.58
40.5520	505.26
40.5664	470.66
40.5808	466.29
40.5953	508.08
40.6097	494.01
40.6242	473.24
40.6386	496.19
40.6530	501.66
40.6675	495.22
40.6819	522.61
40.6964	487.95
40.7108	493.35
40.7252	495.20
40.7397	487.08
40.7541	518.60
40.7686	524.29
40.7830	534.43
40.7974	494.72
40.8119	492.69
40.8263	491.18
40.8408	479.89
40.8552	468.32
40.8696	492.83
40.8841	488.26
40.8985	508.12
40.9130	476.06
40.9274	470.52
40.9418	475.25
40.9563	493.75
40.9707	501.89
40.9852	516.76
40.9996	492.51
41.0140	511.08
41.0285	518.94
41.0429	518.35
41.0574	480.25
41.0718	496.23
41.0862	510.11
41.1007	488.34
41.1151	512.02
41.1296	489.60
41.1440	475.81
41.1584	517.06
41.1729	509.83
41.1873	520.67
41.2018	511.84
41.2162	507.52
41.2306	488.63
41.2451	466.07
41.2595	505.28
41.2740	514.13
41.2884	496.43
41.3028	488.77
41.3173	517.07
41.3317	531.97
41.3462	452.33
41.3606	484.58
41.3750	471.74
41.3895	531.10
41.4039	477.17
41.4184	508.24
41.4328	531.03
41.4472	478.10
41.4617	488.73
41.4761	515.41
41.4906	506.71
41.5050	460.42
41.5194	487.82
41.5339	526.96
41.5483	540.26
41.5628	489.72
41.5772	515.12
41.5916	484.88
41.6061	496.74
41.6205	505.83
41.6350	523.90
41.6494	474.69
41.6639	483.12
41.6783	498.68
41.6927	505.32
41.7072	490.51
41.7216	548.47
41.7361	508.59
41.7505	503.30
41.7649	477.49
41.7794	485.06
41.7938	495.20
41.8083	519.88
41.8227	500.06
41.8371	519.21
41.8516	505.04
41.8660	521.11
41.8805	546.83
41.8949	554.10
41.9093	528.47
41.9238	537.33
41.9382	566.88
41.9527	546.16
41.9671	561.83
41.9815	601.93
41.9960	567.13
42.0104	536.79
42.0249	589.32
42.0393	539.06
42.0537	550.50
42.0682	543.08
42.0826	574.73
42.0971	604.70
42.1115	595.58
42.1259	580.53
42.1404	594.20
42.1548	619.31
42.1693	656.66
42.1837	715.94
42.1981	771.61
42.2126	835.08
42.2270	911.66
42.2415	1081.19
42.2559	1215.87
42.2703	1345.69
42.2848	1490.20
42.2992	1642.01
42.3137	1698.35
42.3281	1659.41
42.3425	1600.18
42.3570	1495.66
42.3714	1425.50
42.3859	1384.40
42.4003	1341.27
42.4147	1338.13
42.4292	1372.07
42.4436	1203.55
42.4581	1036.50
42.4725	968.41
42.4869	878.83
42.5014	782.21
42.5158	694.99
42.5303	673.31
42.5447	641.37
42.5591	652.39
42.5736	603.64
42.5880	572.44
42.6025	553.07
42.6169	582.03
42.6313	564.00
42.6458	554.62
42.6602	549.91
42.6747	524.84
42.6891	510.87
42.7035	551.85
42.7180	529.21
42.7324	511.37
42.7469	517.53
42.7613	518.61
42.7757	531.29
42.7902	554.33
42.8046	534.22
42.8191	506.07
42.8335	527.51
42.8479	526.77
42.8624	547.92
42.8768	505.34
42.8913	509.33
42.9057	527.30
42.9201	478.61
42.9346	498.22
42.9490	510.78
42.9635	490.65
42.9779	494.79
42.9923	500.58
43.0068	481.21
43.0212	499.26
43.0357	500.81
43.0501	503.95
43.0645	547.93
43.0790	538.96
43.0934	538.02
43.1079	536.06
43.1223	544.19
43.1367	530.91
43.1512	506.37
43.1656	541.68
43.1801	543.05
43.1945	535.43
43.2089	525.97
43.2234	509.43
43.2378	531.59
43.2523	525.52
43.2667	516.67
43.2811	543.05
43.2956	534.34
43.3100	534.69
43.3245	505.35
43.3389	527.68
43.3533	532.96
43.3678	540.09
43.3822	522.75
43.3967	494.14
43.4111	496.82
43.4255	500.78
43.4400	497.99
43.4544	496.88
43.4689	535.00
43.4833	536.34
43.4977	497.38
43.5122	517.74
43.5266	521.51
43.5411	497.83
43.5555	508.58
43.5699	507.98
43.5844	519.26
43.5988	515.48
43.6133	511.48
43.6277	508.27
43.6421	514.47
43.6566	517.85
43.6710	509.56
43.6855	514.69
43.6999	516.91
43.7143	543.95
43.7288	531.98
43.7432	498.72
43.7577	498.33
43.7721	521.32
43.7865	537.73
43.8010	544.10
43.8154	532.59
43.8299	489.60
43.8443	484.87
43.8587	506.83
43.8732	539.71
43.8876	499.31
43.9021	533.72
43.9165	494.89
43.9309	513.24
43.9454	539.64
43.9598	487.96
43.9743	506.80
43.9887	491.41
44.0031	508.05
44.0176	548.35
44.0320	534.15
44.0465	530.23
44.0609	521.14
44.0753	547.72
44.0898	553.27
44.1042	532.18
44.1187	529.45
44.1331	564.90
44.1475	527.12
44.1620	565.38
44.1764	524.77
44.1909	570.41
44.2053	572.01
44.2197	595.89
44.2342	579.75
44.2486	605.54
44.2631	603.07
44.2775	587.56
44.2919	641.05
44.3064	613.39
44.3208	590.51
44.3353	638.30
44.3497	629.23
44.3641	602.55
44.3786	612.79
44.3930	627.51
44.4075	637.56
44.4219	632.03
44.4363	628.14
44.4508	617.21
44.4652	630.57
44.4797	607.73
44.4941	577.69
44.5085	577.90
44.5230	573.69
44.5374	557.40
44.5519	578.40
44.5663	608.23
44.5807	586.08
44.5952	558.98
44.6096	575.16
44.6241	604.90
44.6385	560.89
44.6529	539.51
44.6674	610.71
44.6818	600.60
44.6963	633.52
44.7107	716.02
44.7251	736.78
44.7396	751.39
44.7540	824.22
44.7685	856.75
44.7829	867.97
44.7973	866.05
44.8118	845.47
44.8262	789.88
44.8407	750.86
44.8551	771.53
44.8695	733.70
44.8840	704.54
44.8984	754.96
44.9129	719.03
44.9273	690.47
44.9417	633.97
44.9562	673.77
44.9706	634.90
44.9851	543.71
44.9995	543.99
45.0139	496.44
45.0284	524.20
45.0428	536.02
45.0573	535.55
45.0717	548.92
45.0861	529.00
45.1006	529.19
45.1150	498.61
45.1295	519.24
45.1439	514.46
45.1583	533.32
45.1728	531.49
45.1872	503.39
45.2017	472.54
45.2161	497.82
45.2305	544.38
45.2450	514.40
45.2594	492.26
45.2739	503.15
45.2883	499.96
45.3028	513.51
45.3172	496.21
45.3316	504.83
45.3461	511.49
45.3605	513.76
45.3750	467.79
45.3894	476.15
45.4038	496.81
45.4183	512.13
45.4327	522.63
45.4472	492.35
45.4616	486.69
45.4760	526.09
45.4905	534.77
45.5049	512.66
45.5194	492.61
45.5338	520.17
45.5482	514.96
45.5627	495.25
45.5771	502.75
45.5916	509.89
45.6060	508.54
45.6204	507.06
45.6349	500.70
45.6493	516.71
45.6638	496.91
45.6782	493.44
45.6926	491.94
45.7071	531.67
45.7215	527.44
45.7360	505.30
45.7504	485.87
45.7648	510.68
45.7793	497.60
45.7937	490.27
45.8082	514.50
45.8226	503.32
45.8370	490.14
45.8515	472.71
45.8659	485.10
45.8804	524.55
45.8948	495.53
45.9092	475.02
45.9237	438.34
45.9381	485.75
45.9526	517.15
45.9670	504.91
45.9814	536.56
45.9959	534.06
46.0103	510.08
46.0248	516.00
46.0392	510.68
46.0536	535.56
46.0681	515.57
46.0825	520.86
46.0970	561.09
46.1114	524.96
46.1258	511.70
46.1403	488.51
46.1547	488.57
46.1692	499.95
46.1836	469.17
46.1980	506.21
46.2125	496.04
46.2269	464.54
46.2414	488.18
46.2558	504.46
46.2702	475.14
46.2847	495.37
46.2991	474.32
46.3136	480.01
46.3280	506.42
46.3424	516.61
46.3569	479.45
46.3713	522.04
46.3858	514.48
46.4002	502.05
46.4146	509.64
46.4291	528.07
46.4435	536.45
46.4580	502.04
46.4724	514.44
46.4868	519.47
46.5013	542.59
46.5157	509.51
46.5302	505.50
46.5446	494.82
46.5590	515.37
46.5735	524.57
46.5879	499.37
46.6024	500.46
46.6168	476.65
46.6312	474.89
46.6457	509.17
46.6601	496.05
46.6746	501.40
46.6890	481.51
46.7034	533.23
46.7179	489.92
46.7323	480.35
46.7468	537.57
46.7612	518.10
46.7756	499.52
46.7901	495.91
46.8045	501.78
46.8190	494.23
46.8334	532.78
46.8478	510.76
46.8623	498.26
46.8767	500.40
46.8912	494.43
46.9056	510.15
46.9200	494.43
46.9345	532.19
46.9489	496.94
46.9634	510.42
46.9778	519.69
46.9922	523.73
47.0067	542.89
47.0211	500.59
47.0356	496.62
47.0500	501.84
47.0644	520.53
47.0789	476.25
47.0933	505.51
47.1078	525.33
47.1222	537.60
47.1366	489.18
47.1511	479.44
47.1655	509.95
47.1800	518.45
47.1944	500.62
47.2088	532.06
47.2233	503.00
47.2377	498.47
47.2522	495.65
47.2666	491.42
47.2810	491.70
47.2955	500.32
47.3099	499.99
47.3244	514.52
47.3388	527.32
47.3532	497.93
47.3677	497.04
47.3821	521.80
47.3966	506.31
47.4110	492.56
47.4254	503.12
47.4399	499.69
47.4543	488.53
47.4688	511.56
47.4832	468.21
47.4976	473.51
47.5121	498.20
47.5265	520.48
47.5410	484.46
47.5554	519.98
47.5698	491.39
47.5843	501.20
47.5987	474.44
47.6132	507.71
47.6276	477.27
47.6420	504.24
47.6565	501.01
47.6709	519.60
47.6854	499.52
47.6998	527.80
47.7142	516.72
47.7287	504.41
47.7431	502.50
47.7576	521.01
47.7720	527.46
47.7864	549.04
47.8009	522.70
47.8153	505.42
47.8298	502.73
47.8442	536.48
47.8586	569.43
47.8731	548.80
47.8875	470.76
47.9020	491.72
47.9164	502.69
47.9308	493.49
47.9453	509.35
47.9597	512.22
47.9742	501.95
47.9886	464.81
48.0030	494.71
48.0175	501.64
48.0319	548.59
48.0464	520.10
48.0608	490.58
48.0752	511.78
48.0897	523.58
48.1041	508.06
48.1186	517.94
48.1330	516.36
48.1474	498.73
48.1619	503.59
48.1763	516.59
48.1908	512.88
48.2052	494.21
48.2196	506.59
48.2341	483.26
48.2485	494.43
48.2630	471.92
48.2774	501.52
48.2918	488.34
48.3063	505.54
48.3207	516.44
48.3352	502.63
48.3496	532.49
48.3640	528.20
48.3785	499.07
48.3929	502.05
48.4074	504.98
48.4218	523.58
48.4362	510.73
48.4507	495.38
48.4651	520.49
48.4796	543.83
48.4940	508.33
48.5084	502.72
48.5229	503.47
48.5373	560.46
48.5518	523.70
48.5662	546.16
48.5806	507.64
48.5951	497.20
48.6095	513.14
48.6240	518.26
48.6384	561.95
48.6528	533.84
48.6673	512.53
48.6817	538.83
48.6962	536.81
48.7106	533.53
48.7250	515.94
48.7395	482.85
48.7539	504.00
48.7684	513.27
48.7828	534.70
48.7972	523.03
48.8117	526.99
48.8261	530.56
48.8406	542.76
48.8550	539.13
48.8694	535.83
48.8839	543.33
48.8983	565.19
48.9128	579.44
48.9272	525.09
48.9416	564.51
48.9561	553.19
48.9705	549.99
48.9850	553.21
48.9994	561.38
49.0139	610.24
49.0283	582.15
49.0427	585.33
49.0572	621.25
49.0716	657.30
49.0861	720.42
49.1005	687.27
49.1149	718.09
49.1294	737.10
49.1438	735.85
49.1583	763.99
49.1727	876.35
49.1871	912.95
49.2016	973.46
49.2160	1031.20
49.2305	1105.73
49.2449	1207.97
49.2593	1230.96
49.2738	1344.21
49.2882	1450.87
49.3027	1595.78
49.3171	1568.99
49.3315	1728.06
49.3460	1818.10
49.3604	1857.27
49.3749	1803.92
49.3893	1763.50
49.4037	1783.47
49.4182	1743.19
49.4326	1747.63
49.4471	1707.78
49.4615	1622.64
49.4759	1573.65
49.4904	1467.00
49.5048	1416.68
49.5193	1300.96
49.5337	1221.01
49.5481	1202.30
49.5626	1178.26
49.5770	1041.49
49.5915	979.29
49.6059	895.75
49.6203	868.62
49.6348	840.57
49.6492	782.81
49.6637	755.13
49.6781	704.18
49.6925	696.14
49.7070	692.60
49.7214	660.54
49.7359	620.85
49.7503	629.69
49.7647	610.30
49.7792	602.90
49.7936	577.83
49.8081	555.69
49.8225	567.27
49.8369	581.12
49.8514	587.30
49.8658	564.23
49.8803	568.57
49.8947	540.03
49.9091	559.45
49.9236	580.60
49.9380	558.20
49.9525	507.83
49.9669	498.35
49.9813	515.76
49.9958	553.53
50.0102	504.22
50.0247	522.70
50.0391	520.66
50.0535	572.92
50.0680	548.52
50.0824	537.27
50.0969	521.31
50.1113	536.07
50.1257	471.12
50.1402	498.34
50.1546	518.78
50.1691	545.74
50.1835	514.62
50.1979	482.48
50.2124	477.07
50.2268	490.86
50.2413	504.71
50.2557	503.12
50.2701	472.90
50.2846	504.15
50.2990	514.59
50.3135	515.99
50.3279	544.89
50.3423	520.77
50.3568	518.26
50.3712	502.51
50.3857	492.17
50.4001	532.58
50.4145	556.84
50.4290	540.91
50.4434	497.15
50.4579	503.68
50.4723	527.58
50.4867	495.77
50.5012	488.33
50.5156	473.00
50.5301	511.95
50.5445	511.15
50.5589	549.61
50.5734	516.86
50.5878	498.08
50.6023	494.00
50.6167	518.49
50.6311	519.06
50.6456	512.43
50.6600	495.99
50.6745	508.00
50.6889	502.76
50.7033	523.02
50.7178	524.20
50.7322	548.02
50.7467	511.09
50.7611	486.46
50.7755	495.14
50.7900	498.54
50.8044	524.91
50.8189	519.43
50.8333	528.12
50.8477	522.03
50.8622	537.46
50.8766	540.53
50.8911	552.81
50.9055	535.25
50.9199	462.17
50.9344	496.20
50.9488	534.59
50.9633	537.11
50.9777	508.67
50.9921	504.35
51.0066	516.48
51.0210	492.89
51.0355	518.10
51.0499	495.34
51.0643	527.91
51.0788	538.83
51.0932	535.10
51.1077	501.42
51.1221	514.91
51.1365	522.87
51.1510	521.31
51.1654	522.58
51.1799	527.51
51.1943	505.58
51.2087	543.64
51.2232	525.34
51.2376	503.36
51.2521	507.97
51.2665	524.08
51.2809	497.13
51.2954	504.11
51.3098	497.64
51.3243	496.47
51.3387	508.25
51.3531	511.75
51.3676	538.65
51.3820	482.67
51.3965	512.64
51.4109	504.97
51.4253	511.12
51.4398	501.86
51.4542	502.55
51.4687	500.37
51.4831	510.76
51.4975	494.74
51.5120	510.13
51.5264	517.38
51.5409	498.91
51.5553	533.82
51.5697	529.70
51.5842	521.68
51.5986	526.93
51.6131	503.03
51.6275	517.96
51.6419	517.12
51.6564	500.33
51.6708	521.31
51.6853	499.60
51.6997	507.79
51.7141	488.98
51.7286	494.74
51.7430	499.82
51.7575	489.34
51.7719	512.67
51.7863	512.76
51.8008	525.10
51.8152	558.43
51.8297	531.99
51.8441	504.92
51.8585	511.22
51.8730	514.50
51.8874	494.91
51.9019	551.53
51.9163	531.67
51.9307	514.00
51.9452	525.82
51.9596	512.02
51.9741	507.09
51.9885	516.95
52.0029	517.86
52.0174	512.12
52.0318	537.72
52.0463	577.24
52.0607	493.55
52.0751	481.51
52.0896	554.45
52.1040	513.27
52.1185	495.17
52.1329	525.67
52.1473	496.20
52.1618	516.38
52.1762	484.78
52.1907	510.59
52.2051	482.29
52.2195	475.97
52.2340	498.85
52.2484	514.70
52.2629	523.43
52.2773	531.19
52.2917	532.63
52.3062	535.21
52.3206	531.93
52.3351	509.97
52.3495	495.52
52.3639	506.56
52.3784	491.71
52.3928	482.04
52.4073	496.51
52.4217	517.31
52.4361	510.95
52.4506	523.77
52.4650	522.21
52.4795	521.15
52.4939	503.19
52.5083	481.39
52.5228	523.68
52.5372	522.11
52.5517	560.09
52.5661	544.70
52.5805	528.00
52.5950	520.62
52.6094	554.23
52.6239	486.61
52.6383	476.78
52.6527	526.40
52.6672	555.07
52.6816	519.04
52.6961	504.93
52.7105	511.88
52.7250	505.11
52.7394	506.34
52.7538	514.14
52.7683	530.90
52.7827	507.16
52.7972	503.11
52.8116	523.60
52.8260	513.59
52.8405	508.31
52.8549	517.33
52.8694	572.99
52.8838	533.21
52.8982	547.62
52.9127	495.20
52.9271	508.14
52.9416	532.60
52.9560	533.11
52.9704	534.01
52.9849	503.58
52.9993	505.76
53.0138	509.63
53.0282	561.22
53.0426	532.38
53.0571	525.33
53.0715	532.82
53.0860	572.90
53.1004	528.86
53.1148	521.54
53.1293	523.61
53.1437	504.60
53.1582	487.47
53.1726	501.29
53.1870	500.38
53.2015	503.00
53.2159	512.53
53.2304	525.84
53.2448	519.39
53.2592	506.70
53.2737	502.18
53.2881	520.94
53.3026	477.21
53.3170	481.75
53.3314	510.14
53.3459	496.71
53.3603	485.34
53.3748	529.72
53.3892	535.33
53.4036	525.40
53.4181	495.24
53.4325	520.47
53.4470	531.83
53.4614	508.63
53.4758	522.68
53.4903	523.68
53.5047	479.19
53.5192	515.36
53.5336	548.05
53.5480	507.53
53.5625	548.34
53.5769	515.55
53.5914	509.75
53.6058	502.01
53.6202	536.91
53.6347	538.55
53.6491	529.88
53.6636	525.41
53.6780	493.36
53.6924	485.87
53.7069	531.53
53.7213	530.03
53.7358	508.60
53.7502	513.91
53.7646	499.42
53.7791	551.17
53.7935	505.89
53.8080	527.55
53.8224	518.62
53.8368	502.09
53.8513	521.85
53.8657	557.64
53.8802	510.24
53.8946	527.40
53.9090	520.67
53.9235	474.29
53.9379	496.86
53.9524	518.22
53.9668	499.36
53.9812	537.13
53.9957	540.22
54.0101	496.72
54.0246	532.68
54.0390	541.09
54.0534	482.96
54.0679	504.59
54.0823	514.00
54.0968	522.36
54.1112	507.95
54.1256	496.68
54.1401	508.36
54.1545	516.98
54.1690	514.77
54.1834	505.83
54.1978	482.73
54.2123	533.75
54.2267	510.19
54.2412	520.79
54.2556	524.96
54.2700	525.22
54.2845	537.80
54.2989	532.45
54.3134	521.67
54.3278	540.65
54.3422	531.48
54.3567	524.82
54.3711	525.11
54.3856	513.09
54.4000	527.39
54.4144	552.28
54.4289	521.32
54.4433	522.19
54.4578	483.61
54.4722	513.96
54.4866	570.16
54.5011	537.93
54.5155	504.25
54.5300	499.26
54.5444	532.38
54.5588	537.05
54.5733	520.28
54.5877	514.84
54.6022	512.68
54.6166	515.54
54.6310	529.45
54.6455	537.62
54.6599	563.09
54.6744	551.20
54.6888	526.68
54.7032	537.40
54.7177	490.77
54.7321	506.48
54.7466	532.10
54.7610	545.03
54.7754	562.21
54.7899	532.66
54.8043	526.63
54.8188	530.36
54.8332	536.15
54.8476	570.58
54.8621	563.83
54.8765	572.32
54.8910	575.59
54.9054	615.41
54.9198	565.00
54.9343	536.49
54.9487	576.98
54.9632	572.30
54.9776	579.86
54.9920	607.13
55.0065	604.36
55.0209	554.05
55.0354	555.56
55.0498	524.05
55.0642	557.44
55.0787	570.03
55.0931	563.69
55.1076	568.57
55.1220	599.43
55.1364	577.75
55.1509	534.97
55.1653	516.06
55.1798	545.99
55.1942	535.47
55.2086	570.04
55.2231	564.45
55.2375	507.35
55.2520	571.46
55.2664	566.81
55.2808	565.92
55.2953	539.33
55.3097	512.65
55.3242	528.77
55.3386	547.46
55.3530	539.39
55.3675	525.39
55.3819	490.56
55.3964	518.74
55.4108	544.50
55.4252	522.71
55.4397	517.96
55.4541	541.85
55.4686	514.98
55.4830	541.24
55.4974	510.76
55.5119	536.27
55.5263	520.53
55.5408	511.80
55.5552	543.20
55.5696	518.25
55.5841	526.03
55.5985	551.80
55.6130	535.19
55.6274	525.08
55.6418	558.50
55.6563	543.61
55.6707	545.87
55.6852	538.12
55.6996	525.62
55.7140	519.46
55.7285	542.09
55.7429	527.74
55.7574	542.15
55.7718	534.64
55.7862	534.73
55.8007	557.37
55.8151	544.40
55.8296	573.57
55.8440	527.86
55.8584	525.76
55.8729	517.31
55.8873	502.38
55.9018	508.87
55.9162	533.88
55.9306	498.89
55.9451	534.46
55.9595	520.30
55.9740	528.57
55.9884	511.99
56.0028	532.84
56.0173	571.49
56.0317	543.27
56.0462	541.06
56.0606	527.79
56.0750	520.92
56.0895	506.75
56.1039	534.80
56.1184	529.79
56.1328	512.91
56.1472	475.62
56.1617	507.50
56.1761	561.86
56.1906	500.56
56.2050	529.23
56.2194	532.99
56.2339	541.82
56.2483	553.04
56.2628	463.91
56.2772	539.69
56.2916	529.44
56.3061	507.68
56.3205	528.03
56.3350	517.40
56.3494	533.42
56.3639	551.89
56.3783	544.92
56.3927	533.23
56.4072	487.23
56.4216	514.72
56.4361	540.84
56.4505	503.20
56.4649	531.03
56.4794	500.77
56.4938	552.19
56.5083	499.36
56.5227	548.96
56.5371	531.88
56.5516	550.00
56.5660	506.53
56.5805	487.33
56.5949	530.60
56.6093	562.03
56.6238	530.79
56.6382	520.64
56.6527	522.96
56.6671	531.55
56.6815	500.84
56.6960	512.77
56.7104	573.77
56.7249	542.04
56.7393	508.46
56.7537	519.15
56.7682	544.31
56.7826	577.85
56.7971	550.60
56.8115	531.40
56.8259	535.19
56.8404	529.35
56.8548	538.65
56.8693	513.01
56.8837	526.51
56.8981	542.05
56.9126	505.36
56.9270	508.93
56.9415	509.85
56.9559	505.57
56.9703	546.59
56.9848	534.60
56.9992	559.73
57.0137	516.50
57.0281	503.52
57.0425	495.59
57.0570	516.18
57.0714	559.68
57.0859	545.68
57.1003	564.19
57.1147	531.25
57.1292	515.21
57.1436	561.21
57.1581	545.91
57.1725	524.70
57.1869	526.57
57.2014	545.25
57.2158	536.10
57.2303	508.72
57.2447	526.83
57.2591	528.30
57.2736	527.16
57.2880	508.08
57.3025	520.50
57.3169	505.30
57.3313	541.42
57.3458	528.73
57.3602	511.27
57.3747	532.05
57.3891	528.52
57.4035	513.10
57.4180	507.36
57.4324	570.88
57.4469	539.43
57.4613	505.14
57.4757	547.30
57.4902	529.75
57.5046	550.10
57.5191	554.78
57.5335	529.52
57.5479	531.61
57.5624	509.07
57.5768	528.51
57.5913	552.27
57.6057	561.31
57.6201	537.57
57.6346	508.87
57.6490	497.02
57.6635	530.10
57.6779	511.29
57.6923	527.20
57.7068	514.47
57.7212	509.74
57.7357	512.61
57.7501	533.75
57.7645	523.14
57.7790	528.05
57.7934	529.99
57.8079	515.48
57.8223	548.60
57.8367	542.57
57.8512	543.20
57.8656	516.98
57.8801	503.95
57.8945	535.47
57.9089	549.85
57.9234	519.02
57.9378	554.85
57.9523	541.73
57.9667	540.13
57.9811	521.12
57.9956	502.65
58.0100	539.67
58.0245	532.64
58.0389	541.30
58.0533	526.39
58.0678	542.66
58.0822	523.91
58.0967	501.34
58.1111	530.38
58.1255	568.49
58.1400	537.52
58.1544	557.49
58.1689	568.89
58.1833	548.40
58.1977	534.38
58.2122	551.97
58.2266	524.92
58.2411	564.00
58.2555	557.87
58.2699	526.69
58.2844	523.96
58.2988	556.52
58.3133	576.97
58.3277	545.22
58.3421	572.54
58.3566	517.28
58.3710	534.48
58.3855	551.93
58.3999	532.35
58.4143	557.23
58.4288	586.88
58.4432	572.40
58.4577	560.50
58.4721	623.66
58.4865	628.37
58.5010	591.96
58.5154	625.44
58.5299	614.50
58.5443	621.36
58.5587	638.61
58.5732	614.41
58.5876	640.80
58.6021	630.38
58.6165	643.62
58.6309	654.45
58.6454	685.01
58.6598	643.41
58.6743	636.45
58.6887	600.92
58.7031	628.34
58.7176	650.87
58.7320	622.53
58.7465	623.85
58.7609	613.78
58.7753	595.88
58.7898	577.42
58.8042	602.29
58.8187	612.69
58.8331	621.97
58.8475	600.43
58.8620	623.10
58.8764	598.30
58.8909	557.02
58.9053	583.21
58.9197	601.55
58.9342	597.59
58.9486	579.27
58.9631	579.56
58.9775	553.34
58.9919	545.35
59.0064	534.14
59.0208	573.03
59.0353	569.07
59.0497	544.90
59.0641	551.10
59.0786	561.43
59.0930	590.42
59.1075	571.30
59.1219	543.67
59.1363	560.83
59.1508	571.64
59.1652	569.66
59.1797	566.47
59.1941	538.76
59.2085	558.30
59.2230	534.81
59.2374	527.33
59.2519	561.54
59.2663	576.44
59.2807	584.72
59.2952	553.05
59.3096	560.75
59.3241	560.95
59.3385	583.85
59.3529	560.69
59.3674	568.80
59.3818	562.92
59.3963	544.29
59.4107	556.35
59.4251	594.33
59.4396	527.32
59.4540	546.51
59.4685	584.72
59.4829	584.65
59.4973	600.81
59.5118	591.86
59.5262	571.95
59.5407	531.49
59.5551	577.79
59.5695	551.89
59.5840	531.69
59.5984	569.44
59.6129	551.31
59.6273	509.80
59.6417	534.80
59.6562	529.94
59.6706	563.62
59.6851	541.32
59.6995	561.79
59.7139	559.08
59.7284	545.73
59.7428	543.20
59.7573	526.93
59.7717	521.77
59.7861	550.01
59.8006	541.58
59.8150	500.43
59.8295	554.76
59.8439	542.32
59.8583	544.99
59.8728	534.22
59.8872	517.39
59.9017	523.10
59.9161	566.20
59.9305	552.73
59.9450	533.77
59.9594	553.88
59.9739	538.05
59.9883	494.47
60.0027	516.37
60.0172	567.29
60.0316	620.66
60.0461	555.22
60.0605	561.50
60.0750	531.76
60.0894	555.77
60.1038	543.77
60.1183	505.30
60.1327	557.65
60.1472	531.19
60.1616	550.45
60.1760	537.88
60.1905	565.71
60.2049	580.70
60.2194	562.33
60.2338	531.87
60.2482	564.24
60.2627	535.75
60.2771	526.34
60.2916	527.55
60.3060	549.70
60.3204	543.81
60.3349	527.73
60.3493	560.13
60.3638	538.04
60.3782	508.58
60.3926	515.93
60.4071	534.40
60.4215	550.95
60.4360	532.42
60.4504	525.61
60.4648	573.03
60.4793	578.28
60.4937	566.40
60.5082	543.07
60.5226	532.69
60.5370	558.91
60.5515	536.26
60.5659	537.10
60.5804	546.54
60.5948	549.64
60.6092	573.20
60.6237	546.28
60.6381	544.62
60.6526	560.14
60.6670	525.98
60.6814	545.65
60.6959	541.45
60.7103	545.74
60.7248	524.61
60.7392	529.34
60.7536	584.27
60.7681	558.92
60.7825	542.92
60.7970	521.94
60.8114	533.84
60.8258	558.48
60.8403	541.74
60.8547	545.44
60.8692	551.11
60.8836	561.60
60.8980	544.01
60.9125	556.31
60.9269	571.83
60.9414	535.45
60.9558	535.09
60.9702	568.95
60.9847	541.74
60.9991	542.27
61.0136	576.48
61.0280	569.65
61.0424	579.99
61.0569	519.25
61.0713	583.70
61.0858	614.71
61.1002	576.86
61.1146	576.90
61.1291	555.72
61.1435	534.34
61.1580	520.69
61.1724	535.95
61.1868	522.31
61.2013	550.56
61.2157	591.47
61.2302	547.04
61.2446	559.57
61.2590	544.25
61.2735	494.94
61.2879	538.13
61.3024	536.18
61.3168	551.72
61.3312	550.55
61.3457	542.93
61.3601	530.21
61.3746	551.25
61.3890	575.81
61.4034	540.25
61.4179	559.93
61.4323	565.46
61.4468	544.23
61.4612	534.80
61.4756	559.63
61.4901	555.95
61.5045	551.38
61.5190	524.89
61.5334	530.25
61.5478	544.18
61.5623	522.70
61.5767	527.20
61.5912	536.91
61.6056	537.72
61.6200	546.51
61.6345	536.62
61.6489	533.48
61.6634	527.89
61.6778	542.04
61.6922	510.33
61.7067	580.10
61.7211	568.63
61.7356	550.86
61.7500	535.69
61.7644	551.64
61.7789	571.63
61.7933	581.95
61.8078	563.51
61.8222	577.87
61.8366	565.13
61.8511	532.53
61.8655	541.49
61.8800	549.15
61.8944	581.72
61.9088	576.25
61.9233	607.07
61.9377	574.84
61.9522	554.96
61.9666	579.81
61.9810	586.76
61.9955	517.23
62.0099	550.63
62.0244	564.35
62.0388	556.38
62.0532	580.00
62.0677	560.90
62.0821	562.46
62.0966	574.05
62.1110	578.45
62.1254	567.19
62.1399	532.73
62.1543	506.75
62.1688	502.31
62.1832	551.39
62.1976	579.29
62.2121	545.72
62.2265	530.14
62.2410	548.62
62.2554	559.59
62.2698	526.45
62.2843	540.25
62.2987	533.43
62.3132	508.76
62.3276	527.53
62.3420	559.33
62.3565	564.69
62.3709	549.55
62.3854	551.28
62.3998	569.01
62.4142	588.06
62.4287	611.53
62.4431	567.99
62.4576	576.60
62.4720	592.55
62.4864	561.74
62.5009	566.63
62.5153	585.84
62.5298	596.81
62.5442	550.87
62.5586	534.62
62.5731	521.17
62.5875	536.59
62.6020	553.26
62.6164	536.22
62.6308	549.26
62.6453	553.92
62.6597	564.50
62.6742	590.56
62.6886	588.21
62.7030	582.72
62.7175	539.17
62.7319	554.12
62.7464	571.29
62.7608	533.53
62.7752	535.23
62.7897	568.61
62.8041	549.28
62.8186	562.92
62.8330	556.13
62.8474	558.19
62.8619	559.00
62.8763	599.50
62.8908	570.68
62.9052	565.78
62.9196	556.98
62.9341	585.32
62.9485	585.46
62.9630	523.58
62.9774	559.27
62.9918	588.74
63.0063	553.56
63.0207	573.59
63.0352	592.86
63.0496	576.38
63.0640	567.28
63.0785	569.89
63.0929	574.11
63.1074	563.25
63.1218	613.33
63.1362	568.66
63.1507	513.79
63.1651	560.30
63.1796	588.57
63.1940	568.04
63.2084	546.17
63.2229	540.20
63.2373	570.69
63.2518	577.65
63.2662	568.23
63.2806	554.89
63.2951	549.27
63.3095	576.30
63.3240	589.61
63.3384	596.77
63.3528	580.31
63.3673	606.14
63.3817	559.67
63.3962	556.16
63.4106	567.41
63.4250	547.51
63.4395	534.90
63.4539	540.82
63.4684	578.68
63.4828	561.44
63.4972	574.45
63.5117	601.40
63.5261	597.00
63.5406	569.27
63.5550	576.93
63.5694	585.99
63.5839	599.26
63.5983	604.77
63.6128	589.40
63.6272	581.16
63.6416	610.30
63.6561	559.75
63.6705	537.73
63.6850	592.12
63.6994	608.84
63.7138	601.91
63.7283	586.33
63.7427	644.01
63.7572	604.83
63.7716	580.61
63.7861	612.45
63.8005	588.62
63.8149	632.59
63.8294	588.99
63.8438	572.60
63.8583	616.19
63.8727	612.18
63.8871	574.14
63.9016	629.21
63.9160	600.02
63.9305	626.76
63.9449	646.32
63.9593	617.36
63.9738	572.87
63.9882	581.12
64.0027	593.91
64.0171	628.19
64.0315	649.92
64.0460	633.80
64.0604	618.92
64.0749	608.19
64.0893	636.25
64.1037	644.23
64.1182	655.74
64.1326	643.30
64.1471	610.00
64.1615	633.42
64.1759	676.81
64.1904	650.59
64.2048	690.40
64.2193	723.69
64.2337	757.41
64.2481	702.99
64.2626	718.32
64.2770	729.35
64.2915	764.01
64.3059	772.83
64.3203	797.70
64.3348	746.33
64.3492	771.16
64.3637	734.99
64.3781	770.55
64.3925	761.94
64.4070	767.61
64.4214	771.76
64.4359	794.76
64.4503	770.28
64.4647	794.43
64.4792	732.38
64.4936	773.88
64.5081	720.75
64.5225	759.76
64.5369	772.14
64.5514	756.46
64.5658	742.83
64.5803	732.98
64.5947	739.93
64.6091	764.00
64.6236	746.64
64.6380	737.70
64.6525	768.07
64.6669	704.85
64.6813	719.16
64.6958	699.14
64.7102	770.34
64.7247	719.40
64.7391	706.32
64.7535	726.60
64.7680	707.16
64.7824	757.55
64.7969	759.26
64.8113	752.68
64.8257	801.56
64.8402	774.67
64.8546	852.81
64.8691	873.27
64.8835	857.58
64.8979	928.79
64.9124	949.03
64.9268	906.11
64.9413	926.36
64.9557	966.05
64.9701	1053.25
64.9846	1153.79
64.9990	1163.60
65.0135	1322.27
65.0279	1451.37
65.0423	1798.49
65.0568	2120.52
65.0712	2735.02
65.0857	3599.36
65.1001	4605.57
65.1145	6284.89
65.1290	8242.89
65.1434	9826.26
65.1579	11323.12
65.1723	11987.33
65.1867	11270.99
65.2012	9826.66
65.2156	8215.83
65.2301	6481.80
65.2445	5267.62
65.2589	4484.70
65.2734	4220.69
65.2878	4474.67
65.3023	4977.82
65.3167	5866.37
65.3311	6528.01
65.3456	6968.02
65.3600	6973.73
65.3745	6506.00
65.3889	5403.23
65.4033	4393.18
65.4178	3432.56
65.4322	2709.78
65.4467	2125.69
65.4611	1741.31
65.4755	1426.11
65.4900	1290.35
65.5044	1147.62
65.5189	1044.55
65.5333	1020.23
65.5477	950.55
65.5622	891.16
65.5766	844.80
65.5911	870.35
65.6055	841.42
65.6199	811.93
65.6344	805.24
65.6488	757.58
65.6633	753.01
65.6777	726.11
65.6921	704.53
65.7066	722.45
65.7210	699.26
65.7355	678.34
65.7499	676.23
65.7643	695.69
65.7788	713.46
65.7932	682.13
65.8077	690.08
65.8221	662.16
65.8365	677.82
65.8510	666.17
65.8654	712.86
65.8799	650.51
65.8943	689.93
65.9087	682.66
65.9232	685.06
65.9376	623.13
65.9521	607.52
65.9665	667.71
65.9809	655.07
65.9954	635.25
66.0098	634.77
66.0243	631.41
66.0387	592.43
66.0531	578.77
66.0676	653.33
66.0820	674.58
66.0965	643.65
66.1109	641.68
66.1253	605.47
66.1398	616.26
66.1542	598.21
66.1687	645.94
66.1831	632.07
66.1975	621.85
66.2120	610.40
66.2264	608.55
66.2409	616.96
66.2553	615.57
66.2697	631.03
66.2842	603.90
66.2986	615.57
66.3131	612.64
66.3275	636.45
66.3419	637.41
66.3564	605.07
66.3708	612.18
66.3853	606.81
66.3997	593.61
66.4141	614.75
66.4286	642.67
66.4430	585.20
66.4575	554.80
66.4719	581.93
66.4863	577.20
66.5008	581.45
66.5152	568.42
66.5297	583.44
66.5441	610.74
66.5585	574.88
66.5730	590.15
66.5874	590.06
66.6019	595.55
66.6163	582.10
66.6307	580.35
66.6452	569.08
66.6596	581.08
66.6741	578.01
66.6885	558.98
66.7029	595.63
66.7174	572.25
66.7318	584.10
66.7463	581.64
66.7607	554.22
66.7751	575.24
66.7896	587.04
66.8040	576.35
66.8185	592.98
66.8329	589.30
66.8473	560.13
66.8618	588.96
66.8762	592.37
66.8907	579.78
66.9051	600.10
66.9195	580.29
66.9340	590.09
66.9484	590.95
66.9629	576.84
66.9773	565.32
66.9917	562.44
67.0062	556.05
67.0206	604.26
67.0351	599.94
67.0495	583.22
67.0639	589.83
67.0784	564.46
67.0928	559.44
67.1073	612.45
67.1217	582.00
67.1361	584.46
67.1506	589.23
67.1650	564.90
67.1795	607.56
67.1939	576.03
67.2083	562.21
67.2228	563.49
67.2372	571.07
67.2517	603.68
67.2661	598.11
67.2805	613.44
67.2950	580.00
67.3094	588.64
67.3239	590.85
67.3383	584.24
67.3527	557.84
67.3672	568.28
67.3816	589.71
67.3961	573.45
67.4105	582.59
67.4250	583.32
67.4394	596.26
67.4538	586.57
67.4683	600.31
67.4827	605.98
67.4972	589.87
67.5116	551.04
67.5260	571.90
67.5405	590.84
67.5549	600.70
67.5694	559.11
67.5838	537.65
67.5982	554.61
67.6127	554.06
67.6271	565.08
67.6416	590.36
67.6560	611.30
67.6704	602.34
67.6849	569.87
67.6993	574.33
67.7138	564.02
67.7282	571.59
67.7426	581.69
67.7571	582.99
67.7715	578.88
67.7860	583.71
67.8004	573.23
67.8148	559.25
67.8293	579.31
67.8437	581.81
67.8582	591.50
67.8726	589.02
67.8870	595.26
67.9015	624.60
67.9159	550.12
67.9304	572.15
67.9448	588.62
67.9592	598.09
67.9737	622.25
67.9881	577.28
68.0026	565.70
68.0170	565.03
68.0314	615.20
68.0459	603.47
68.0603	589.83
68.0748	563.70
68.0892	612.06
68.1036	609.11
68.1181	626.64
68.1325	600.07
68.1470	534.02
68.1614	602.28
68.1758	576.74
68.1903	578.32
68.2047	606.10
68.2192	598.41
68.2336	547.94
68.2480	577.10
68.2625	572.26
68.2769	556.47
68.2914	547.31
68.3058	570.79
68.3202	562.99
68.3347	582.49
68.3491	556.04
68.3636	594.62
68.3780	589.35
68.3924	616.29
68.4069	621.55
68.4213	612.45
68.4358	591.49
68.4502	556.40
68.4646	599.14
68.4791	580.54
68.4935	569.18
68.5080	560.69
68.5224	549.41
68.5368	544.57
68.5513	578.46
68.5657	578.12
68.5802	567.73
68.5946	567.38
68.6090	574.45
68.6235	561.20
68.6379	556.77
68.6524	587.00
68.6668	573.89
68.6812	605.11
68.6957	555.25
68.7101	552.81
68.7246	520.18
68.7390	552.07
68.7534	544.72
68.7679	587.37
68.7823	609.69
68.7968	596.66
68.8112	564.38
68.8256	529.83
68.8401	549.45
68.8545	576.90
68.8690	591.51
68.8834	574.77
68.8978	599.53
68.9123	592.47
68.9267	619.45
68.9412	593.77
68.9556	543.09
68.9700	568.59
68.9845	558.82
68.9989	604.90
69.0134	614.19
69.0278	581.93
69.0422	548.18
69.0567	613.32
69.0711	575.71
69.0856	615.70
69.1000	600.74
69.1144	548.91
69.1289	574.72
69.1433	567.85
69.1578	521.67
69.1722	554.71
69.1866	579.72
69.2011	629.15
69.2155	582.74
69.2300	563.57
69.2444	535.65
69.2588	535.45
69.2733	611.36
69.2877	562.52
69.3022	613.69
69.3166	591.22
69.3310	590.01
69.3455	599.06
69.3599	602.41
69.3744	625.95
69.3888	581.07
69.4032	544.59
69.4177	568.70
69.4321	620.19
69.4466	603.94
69.4610	532.70
69.4754	596.02
69.4899	626.62
69.5043	565.82
69.5188	564.51
69.5332	572.66
69.5476	600.94
69.5621	585.15
69.5765	556.96
69.5910	559.17
69.6054	616.55
69.6198	556.82
69.6343	578.13
69.6487	574.04
69.6632	576.21
69.6776	603.10
69.6920	565.70
69.7065	545.29
69.7209	594.57
69.7354	563.17
69.7498	600.50
69.7642	562.20
69.7787	567.26
69.7931	564.31
69.8076	576.40
69.8220	561.80
69.8364	605.83
69.8509	573.41
69.8653	573.73
69.8798	585.79
69.8942	591.98
69.9086	583.80
69.9231	579.48
69.9375	590.94
69.9520	529.27
69.9664	565.33
69.9808	588.07
69.9953	608.02
70.0097	558.61
70.0242	559.96
70.0386	585.80
70.0530	568.95
70.0675	552.09
70.0819	569.83
70.0964	578.21
70.1108	649.17
70.1252	576.95
70.1397	563.12
70.1541	637.21
70.1686	572.15
70.1830	577.96
70.1974	589.21
70.2119	628.49
70.2263	559.65
70.2408	563.62
70.2552	562.01
70.2696	581.16
70.2841	615.46
70.2985	585.42
70.3130	581.90
70.3274	599.90
70.3418	593.42
70.3563	551.10
70.3707	561.47
70.3852	594.58
70.3996	561.99
70.4140	585.30
70.4285	658.62
70.4429	625.21
70.4574	567.70
70.4718	612.96
70.4862	560.35
70.5007	566.49
70.5151	549.62
70.5296	565.97
70.5440	587.91
70.5584	574.01
70.5729	552.73
70.5873	572.12
70.6018	540.88
70.6162	546.12
70.6306	533.07
70.6451	589.81
70.6595	611.81
70.6740	572.20
70.6884	529.74
70.7028	588.42
70.7173	566.79
70.7317	547.40
70.7462	592.16
70.7606	553.57
70.7750	579.22
70.7895	608.08
70.8039	616.56
70.8184	572.64
70.8328	615.38
70.8472	587.30
70.8617	659.15
70.8761	600.09
70.8906	570.10
70.9050	613.53
70.9194	587.61
70.9339	583.06
70.9483	560.14
70.9628	546.15
70.9772	612.36
70.9916	609.53
71.0061	566.40
71.0205	580.75
71.0350	581.13
71.0494	539.46
71.0638	527.34
71.0783	535.67
71.0927	683.06
71.1072	680.76
71.1216	625.68
71.1361	611.45
71.1505	606.14
71.1649	579.22
71.1794	598.72
71.1938	588.68
71.2083	595.75
71.2227	582.71
71.2371	563.10
71.2516	596.62
71.2660	606.83
71.2805	557.36
71.2949	604.00
71.3093	575.71
71.3238	556.79
71.3382	581.73
71.3527	550.15
71.3671	528.66
71.3815	523.32
71.3960	501.82
71.4104	540.54
71.4249	610.57
71.4393	622.43
71.4537	565.89
71.4682	618.10
71.4826	605.13
71.4971	543.63
71.5115	552.64
71.5259	551.73
71.5404	587.04
71.5548	596.19
71.5693	576.16
71.5837	566.58
71.5981	510.94
71.6126	543.69
71.6270	576.87
71.6415	591.50
71.6559	606.03
71.6703	593.09
71.6848	582.66
71.6992	630.03
71.7137	634.98
71.7281	593.95
71.7425	615.90
71.7570	588.09
71.7714	577.76
71.7859	540.60
71.8003	503.31
71.8147	550.99
71.8292	568.71
71.8436	543.10
71.8581	551.64
71.8725	601.87
71.8869	561.68
71.9014	626.85
71.9158	586.82
71.9303	527.35
71.9447	577.34
71.9591	645.67
71.9736	600.39
71.9880	523.22
72.0025	531.60
72.0169	608.77
72.0313	627.63
72.0458	612.24
72.0602	566.90
72.0747	526.97
72.0891	569.90
72.1035	625.35
72.1180	533.94
72.1324	540.59
72.1469	562.35
72.1613	621.31
72.1757	654.13
72.1902	593.60
72.2046	516.13
72.2191	520.46
72.2335	583.67
72.2479	593.92
72.2624	506.63
72.2768	502.14
72.2913	548.12
72.3057	577.47
72.3201	547.62
72.3346	524.03
72.3490	614.65
72.3635	606.02
72.3779	474.97
72.3923	485.73
72.4068	496.66
72.4212	560.77
72.4357	665.80
72.4501	634.45
72.4645	589.76
72.4790	527.10
72.4934	484.58
72.5079	511.83
72.5223	535.25
72.5367	597.43
72.5512	607.94
72.5656	561.25
72.5801	546.15
72.5945	545.44
72.6089	545.98
72.6234	509.50
72.6378	550.45
72.6523	570.98
72.6667	480.40
72.6811	491.86
72.6956	554.25
72.7100	577.96
72.7245	637.27
72.7389	620.74
72.7533	574.91
72.7678	590.57
72.7822	633.67
72.7967	577.70
72.8111	529.50
72.8255	587.02
72.8400	600.00
72.8544	552.92
72.8689	512.65
72.8833	465.33