2022.09.19 19:37:17
Îáðàçåö: ß÷åéêà LCoV 16-09-2022
Lambda1 = 1.54060
Lambda2 = 1.54439
Lambdam = 1.54186
R = 0.497
2Theta	I

line¹ 0 ;repeat¹ 0
22.1120	578.65
22.1264	572.59
22.1409	621.69
22.1553	534.75
22.1697	605.74
22.1842	606.95
22.1986	549.03
22.2131	568.18
22.2275	622.63
22.2419	546.70
22.2564	531.05
22.2708	609.20
22.2853	604.64
22.2997	633.74
22.3141	611.87
22.3286	595.82
22.3430	622.64
22.3575	637.61
22.3719	647.12
22.3863	604.64
22.4008	636.82
22.4152	664.85
22.4297	719.61
22.4441	622.25
22.4585	597.34
22.4730	615.65
22.4874	685.69
22.5019	515.17
22.5163	599.27
22.5307	568.29
22.5452	535.86
22.5596	617.02
22.5741	668.19
22.5885	584.19
22.6029	617.17
22.6174	602.06
22.6318	538.07
22.6463	650.13
22.6607	631.02
22.6751	553.10
22.6896	640.57
22.7040	634.58
22.7185	488.41
22.7329	544.05
22.7473	501.26
22.7618	565.86
22.7762	534.14
22.7907	616.82
22.8051	650.48
22.8195	696.56
22.8340	564.78
22.8484	549.63
22.8629	632.49
22.8773	557.57
22.8917	465.93
22.9062	570.78
22.9206	611.09
22.9351	556.45
22.9495	554.76
22.9639	609.68
22.9784	568.33
22.9928	515.69
23.0073	575.24
23.0217	574.60
23.0361	585.13
23.0506	501.41
23.0650	623.65
23.0795	550.20
23.0939	590.41
23.1083	580.80
23.1228	588.13
23.1372	554.90
23.1517	585.55
23.1661	654.97
23.1806	615.26
23.1950	577.34
23.2094	578.90
23.2239	550.48
23.2383	561.07
23.2528	565.18
23.2672	528.02
23.2816	588.74
23.2961	499.75
23.3105	513.65
23.3250	552.71
23.3394	579.86
23.3538	565.17
23.3683	621.84
23.3827	623.19
23.3972	564.35
23.4116	552.37
23.4260	602.42
23.4405	528.95
23.4549	518.40
23.4694	621.10
23.4838	505.27
23.4982	562.47
23.5127	581.96
23.5271	525.59
23.5416	577.03
23.5560	549.25
23.5704	517.73
23.5849	570.67
23.5993	569.74
23.6138	513.17
23.6282	527.17
23.6426	561.81
23.6571	433.41
23.6715	552.84
23.6860	562.37
23.7004	564.47
23.7148	568.42
23.7293	551.59
23.7437	502.39
23.7582	561.52
23.7726	554.75
23.7870	598.86
23.8015	560.32
23.8159	602.97
23.8304	606.66
23.8448	584.11
23.8592	586.87
23.8737	529.88
23.8881	570.69
23.9026	539.75
23.9170	580.52
23.9314	589.49
23.9459	563.85
23.9603	585.84
23.9748	582.18
23.9892	511.12
24.0036	587.55
24.0181	543.82
24.0325	559.98
24.0470	546.26
24.0614	573.76
24.0758	547.33
24.0903	576.38
24.1047	556.33
24.1192	544.08
24.1336	594.71
24.1480	510.72
24.1625	560.29
24.1769	582.07
24.1914	595.14
24.2058	593.29
24.2202	591.00
24.2347	615.57
24.2491	584.79
24.2636	537.62
24.2780	589.83
24.2924	563.49
24.3069	603.58
24.3213	547.59
24.3358	537.25
24.3502	536.89
24.3646	469.64
24.3791	562.94
24.3935	589.37
24.4080	508.39
24.4224	524.62
24.4368	529.01
24.4513	469.87
24.4657	522.78
24.4802	521.13
24.4946	612.00
24.5090	603.01
24.5235	550.90
24.5379	505.86
24.5524	549.67
24.5668	587.32
24.5812	599.87
24.5957	556.38
24.6101	569.41
24.6246	564.39
24.6390	587.10
24.6534	598.75
24.6679	514.20
24.6823	505.11
24.6968	552.63
24.7112	572.75
24.7256	553.30
24.7401	556.09
24.7545	574.06
24.7690	531.76
24.7834	515.21
24.7978	488.57
24.8123	497.51
24.8267	539.42
24.8412	528.13
24.8556	560.91
24.8700	571.56
24.8845	570.10
24.8989	575.47
24.9134	519.21
24.9278	556.84
24.9422	556.06
24.9567	575.63
24.9711	546.00
24.9856	572.20
25.0000	535.50
25.0144	584.09
25.0289	552.84
25.0433	541.95
25.0578	535.88
25.0722	554.15
25.0866	563.70
25.1011	545.73
25.1155	571.21
25.1300	550.15
25.1444	511.18
25.1588	554.94
25.1733	523.41
25.1877	546.37
25.2022	539.77
25.2166	540.87
25.2310	540.70
25.2455	560.18
25.2599	519.27
25.2744	511.30
25.2888	546.59
25.3032	529.02
25.3177	532.42
25.3321	503.54
25.3466	551.98
25.3610	543.51
25.3754	524.55
25.3899	567.75
25.4043	503.12
25.4188	538.52
25.4332	547.76
25.4476	572.90
25.4621	502.69
25.4765	568.18
25.4910	563.25
25.5054	533.07
25.5198	518.57
25.5343	571.62
25.5487	536.56
25.5632	567.52
25.5776	569.88
25.5920	519.38
25.6065	557.01
25.6209	534.24
25.6354	549.28
25.6498	588.95
25.6642	544.43
25.6787	513.10
25.6931	522.46
25.7076	522.57
25.7220	494.23
25.7364	525.35
25.7509	540.88
25.7653	546.34
25.7798	507.13
25.7942	496.91
25.8086	512.36
25.8231	557.50
25.8375	558.70
25.8520	527.58
25.8664	574.58
25.8808	563.91
25.8953	549.34
25.9097	550.40
25.9242	520.93
25.9386	537.54
25.9530	525.52
25.9675	558.23
25.9819	575.50
25.9964	529.72
26.0108	597.61
26.0252	591.83
26.0397	533.38
26.0541	511.13
26.0686	544.84
26.0830	541.73
26.0974	538.06
26.1119	546.86
26.1263	579.46
26.1408	534.55
26.1552	529.13
26.1696	537.23
26.1841	563.61
26.1985	536.94
26.2130	539.41
26.2274	490.38
26.2418	531.05
26.2563	524.78
26.2707	521.38
26.2852	500.06
26.2996	498.26
26.3140	527.74
26.3285	564.26
26.3429	560.87
26.3574	536.12
26.3718	497.04
26.3862	522.15
26.4007	527.02
26.4151	532.82
26.4296	535.86
26.4440	561.03
26.4584	554.46
26.4729	566.62
26.4873	530.87
26.5018	533.37
26.5162	526.12
26.5306	513.88
26.5451	541.28
26.5595	555.63
26.5740	533.13
26.5884	548.30
26.6028	549.73
26.6173	514.61
26.6317	546.49
26.6462	537.71
26.6606	519.93
26.6750	506.55
26.6895	540.87
26.7039	546.30
26.7184	549.56
26.7328	498.32
26.7472	507.81
26.7617	536.05
26.7761	494.31
26.7906	491.35
26.8050	525.25
26.8194	492.76
26.8339	513.39
26.8483	536.38
26.8628	551.66
26.8772	525.74
26.8917	542.76
26.9061	531.84
26.9205	514.27
26.9350	531.67
26.9494	531.42
26.9639	540.83
26.9783	532.06
26.9927	557.43
27.0072	548.08
27.0216	517.75
27.0361	508.01
27.0505	508.78
27.0649	530.55
27.0794	527.65
27.0938	528.16
27.1083	531.09
27.1227	557.56
27.1371	491.39
27.1516	523.05
27.1660	534.80
27.1805	513.83
27.1949	544.13
27.2093	518.57
27.2238	513.48
27.2382	524.87
27.2527	506.40
27.2671	500.96
27.2815	536.88
27.2960	514.90
27.3104	546.13
27.3249	526.03
27.3393	545.81
27.3537	545.62
27.3682	520.71
27.3826	470.85
27.3971	487.04
27.4115	500.51
27.4259	529.84
27.4404	541.04
27.4548	513.42
27.4693	527.59
27.4837	530.72
27.4981	514.41
27.5126	490.95
27.5270	519.06
27.5415	501.43
27.5559	526.52
27.5703	549.46
27.5848	500.37
27.5992	489.86
27.6137	522.82
27.6281	522.89
27.6425	516.67
27.6570	503.33
27.6714	491.35
27.6859	501.61
27.7003	538.29
27.7147	560.18
27.7292	545.95
27.7436	533.63
27.7581	523.34
27.7725	495.48
27.7869	505.54
27.8014	498.84
27.8158	515.33
27.8303	529.02
27.8447	539.13
27.8591	524.27
27.8736	528.78
27.8880	496.06
27.9025	544.10
27.9169	527.90
27.9313	517.62
27.9458	514.42
27.9602	513.39
27.9747	508.55
27.9891	508.54
28.0035	515.52
28.0180	526.43
28.0324	544.69
28.0469	516.26
28.0613	528.20
28.0757	519.80
28.0902	520.25
28.1046	496.88
28.1191	543.36
28.1335	511.65
28.1479	504.39
28.1624	519.09
28.1768	524.43
28.1913	540.10
28.2057	516.24
28.2201	513.30
28.2346	527.98
28.2490	507.18
28.2635	510.66
28.2779	484.55
28.2923	491.82
28.3068	504.84
28.3212	488.80
28.3357	517.41
28.3501	504.61
28.3645	510.29
28.3790	513.14
28.3934	549.09
28.4079	510.44
28.4223	535.80
28.4367	538.88
28.4512	514.01
28.4656	511.53
28.4801	507.14
28.4945	549.11
28.5089	508.89
28.5234	536.78
28.5378	521.63
28.5523	524.63
28.5667	512.64
28.5811	504.78
28.5956	504.03
28.6100	477.71
28.6245	513.72
28.6389	528.13
28.6533	509.21
28.6678	519.61
28.6822	533.28
28.6967	534.50
28.7111	529.66
28.7255	507.80
28.7400	502.05
28.7544	536.68
28.7689	483.37
28.7833	468.20
28.7977	492.25
28.8122	496.70
28.8266	491.15
28.8411	522.97
28.8555	504.69
28.8699	496.23
28.8844	545.12
28.8988	514.16
28.9133	504.01
28.9277	481.06
28.9421	514.70
28.9566	518.65
28.9710	494.90
28.9855	504.12
28.9999	493.30
29.0143	501.27
29.0288	492.55
29.0432	529.43
29.0577	521.74
29.0721	498.06
29.0865	528.22
29.1010	503.57
29.1154	542.88
29.1299	491.94
29.1443	477.11
29.1587	498.65
29.1732	507.14
29.1876	465.22
29.2021	470.27
29.2165	501.87
29.2309	470.07
29.2454	536.88
29.2598	469.81
29.2743	506.03
29.2887	540.04
29.3031	502.27
29.3176	532.86
29.3320	522.15
29.3465	546.84
29.3609	478.09
29.3753	504.35
29.3898	513.51
29.4042	544.79
29.4187	541.41
29.4331	504.51
29.4475	546.42
29.4620	517.73
29.4764	519.65
29.4909	529.95
29.5053	521.59
29.5197	497.95
29.5342	511.46
29.5486	533.43
29.5631	505.14
29.5775	503.81
29.5919	520.20
29.6064	514.73
29.6208	503.99
29.6353	555.33
29.6497	537.67
29.6641	521.32
29.6786	501.13
29.6930	510.01
29.7075	533.82
29.7219	497.27
29.7363	502.51
29.7508	509.65
29.7652	521.78
29.7797	530.64
29.7941	504.74
29.8085	524.13
29.8230	530.61
29.8374	515.00
29.8519	520.24
29.8663	489.54
29.8807	521.88
29.8952	520.35
29.9096	494.81
29.9241	536.95
29.9385	519.87
29.9529	462.02
29.9674	507.79
29.9818	490.86
29.9963	503.53
30.0107	516.00
30.0251	538.17
30.0396	525.52
30.0540	525.97
30.0685	498.28
30.0829	512.05
30.0973	503.70
30.1118	510.59
30.1262	487.43
30.1407	507.82
30.1551	510.48
30.1695	513.17
30.1840	495.52
30.1984	531.26
30.2129	517.66
30.2273	503.77
30.2417	481.11
30.2562	484.63
30.2706	512.38
30.2851	531.43
30.2995	499.95
30.3139	489.11
30.3284	500.35
30.3428	509.21
30.3573	510.36
30.3717	535.91
30.3861	472.43
30.4006	491.82
30.4150	466.47
30.4295	467.43
30.4439	500.34
30.4583	525.11
30.4728	515.75
30.4872	495.69
30.5017	510.25
30.5161	497.98
30.5305	511.67
30.5450	543.63
30.5594	505.24
30.5739	493.09
30.5883	506.29
30.6028	505.88
30.6172	526.53
30.6316	525.07
30.6461	510.26
30.6605	494.34
30.6750	495.33
30.6894	531.74
30.7038	538.54
30.7183	528.23
30.7327	532.08
30.7472	555.76
30.7616	556.74
30.7760	567.79
30.7905	570.06
30.8049	575.81
30.8194	599.54
30.8338	590.97
30.8482	619.25
30.8627	627.97
30.8771	640.61
30.8916	664.27
30.9060	701.80
30.9204	662.80
30.9349	643.72
30.9493	674.80
30.9638	681.99
30.9782	688.55
30.9926	667.45
31.0071	640.00
31.0215	644.94
31.0360	603.32
31.0504	621.52
31.0648	616.22
31.0793	590.60
31.0937	623.19
31.1082	603.93
31.1226	557.29
31.1370	535.51
31.1515	550.26
31.1659	555.43
31.1804	553.58
31.1948	539.26
31.2092	522.08
31.2237	550.86
31.2381	550.22
31.2526	524.76
31.2670	565.40
31.2814	538.84
31.2959	514.74
31.3103	556.10
31.3248	536.14
31.3392	508.01
31.3536	541.88
31.3681	542.74
31.3825	523.39
31.3970	536.65
31.4114	503.75
31.4258	528.18
31.4403	511.79
31.4547	516.25
31.4692	501.75
31.4836	534.42
31.4980	532.26
31.5125	513.72
31.5269	481.04
31.5414	514.07
31.5558	528.15
31.5702	494.73
31.5847	522.89
31.5991	508.20
31.6136	508.75
31.6280	512.85
31.6424	508.08
31.6569	516.67
31.6713	540.77
31.6858	516.97
31.7002	512.29
31.7146	523.03
31.7291	519.61
31.7435	494.05
31.7580	530.99
31.7724	519.37
31.7868	536.01
31.8013	517.09
31.8157	515.84
31.8302	530.34
31.8446	537.17
31.8590	523.51
31.8735	508.05
31.8879	482.34
31.9024	541.13
31.9168	543.35
31.9312	512.88
31.9457	544.10
31.9601	506.07
31.9746	490.61
31.9890	481.34
32.0034	516.48
32.0179	493.01
32.0323	515.93
32.0468	542.38
32.0612	530.17
32.0756	510.98
32.0901	523.02
32.1045	533.34
32.1190	505.86
32.1334	498.72
32.1478	491.27
32.1623	504.27
32.1767	506.75
32.1912	486.46
32.2056	480.88
32.2200	493.17
32.2345	492.12
32.2489	484.25
32.2634	474.77
32.2778	511.61
32.2922	529.03
32.3067	542.24
32.3211	513.20
32.3356	510.98
32.3500	503.63
32.3644	494.93
32.3789	478.10
32.3933	485.66
32.4078	478.42
32.4222	515.18
32.4366	529.90
32.4511	476.05
32.4655	529.65
32.4800	478.44
32.4944	497.18
32.5088	494.43
32.5233	497.51
32.5377	480.31
32.5522	483.39
32.5666	518.12
32.5810	506.58
32.5955	522.57
32.6099	508.63
32.6244	523.30
32.6388	516.26
32.6532	509.87
32.6677	519.67
32.6821	497.79
32.6966	492.78
32.7110	527.82
32.7254	525.47
32.7399	493.91
32.7543	520.98
32.7688	531.09
32.7832	555.18
32.7976	512.75
32.8121	523.22
32.8265	527.50
32.8410	511.53
32.8554	527.17
32.8698	550.22
32.8843	501.74
32.8987	531.51
32.9132	492.74
32.9276	533.07
32.9420	505.52
32.9565	531.56
32.9709	488.35
32.9854	485.14
32.9998	493.72
33.0142	509.07
33.0287	503.56
33.0431	513.44
33.0576	477.13
33.0720	518.44
33.0864	523.63
33.1009	508.17
33.1153	513.44
33.1298	509.33
33.1442	470.65
33.1586	481.87
33.1731	508.80
33.1875	512.75
33.2020	504.09
33.2164	472.62
33.2308	489.15
33.2453	481.81
33.2597	534.47
33.2742	515.56
33.2886	536.96
33.3030	498.20
33.3175	499.62
33.3319	509.91
33.3464	521.38
33.3608	526.40
33.3752	493.82
33.3897	492.74
33.4041	509.48
33.4186	509.88
33.4330	494.93
33.4474	500.25
33.4619	512.91
33.4763	514.01
33.4908	544.31
33.5052	505.25
33.5196	487.43
33.5341	502.85
33.5485	486.23
33.5630	478.96
33.5774	480.97
33.5918	495.59
33.6063	494.54
33.6207	510.18
33.6352	518.46
33.6496	517.22
33.6640	509.36
33.6785	478.57
33.6929	494.53
33.7074	528.05
33.7218	500.42
33.7362	463.69
33.7507	495.97
33.7651	498.46
33.7796	496.55
33.7940	488.33
33.8084	522.22
33.8229	548.32
33.8373	519.38
33.8518	509.71
33.8662	529.61
33.8806	502.12
33.8951	522.51
33.9095	513.46
33.9240	506.82
33.9384	526.89
33.9528	517.11
33.9673	472.23
33.9817	516.61
33.9962	485.85
34.0106	491.55
34.0250	557.87
34.0395	518.60
34.0539	502.31
34.0684	518.46
34.0828	519.61
34.0972	530.20
34.1117	515.83
34.1261	492.02
34.1406	476.17
34.1550	505.96
34.1694	526.58
34.1839	504.70
34.1983	527.68
34.2128	533.70
34.2272	504.57
34.2417	517.54
34.2561	507.01
34.2705	496.34
34.2850	521.25
34.2994	489.90
34.3139	473.42
34.3283	533.77
34.3427	514.22
34.3572	478.74
34.3716	498.32
34.3861	519.72
34.4005	509.03
34.4149	508.93
34.4294	518.58
34.4438	494.56
34.4583	487.57
34.4727	491.76
34.4871	502.51
34.5016	499.62
34.5160	505.17
34.5305	538.18
34.5449	534.74
34.5593	508.03
34.5738	475.27
34.5882	499.02
34.6027	578.72
34.6171	499.95
34.6315	481.73
34.6460	513.97
34.6604	531.25
34.6749	491.80
34.6893	492.29
34.7037	495.59
34.7182	507.94
34.7326	504.43
34.7471	528.56
34.7615	493.80
34.7759	517.17
34.7904	509.46
34.8048	498.32
34.8193	518.95
34.8337	496.48
34.8481	499.31
34.8626	506.72
34.8770	521.10
34.8915	494.12
34.9059	502.89
34.9203	501.34
34.9348	521.20
34.9492	546.84
34.9637	496.72
34.9781	523.86
34.9925	503.26
35.0070	513.66
35.0214	505.21
35.0359	499.00
35.0503	491.54
35.0647	510.48
35.0792	506.31
35.0936	504.89
35.1081	532.89
35.1225	521.73
35.1369	512.99
35.1514	524.67
35.1658	541.32
35.1803	556.60
35.1947	522.74
35.2091	522.83
35.2236	489.48
35.2380	510.71
35.2525	512.39
35.2669	510.73
35.2813	515.73
35.2958	501.50
35.3102	532.15
35.3247	540.77
35.3391	517.01
35.3535	519.25
35.3680	498.09
35.3824	521.07
35.3969	539.69
35.4113	507.06
35.4257	522.60
35.4402	539.07
35.4546	509.12
35.4691	517.57
35.4835	495.28
35.4979	514.17
35.5124	527.68
35.5268	506.12
35.5413	525.24
35.5557	552.27
35.5701	540.46
35.5846	536.13
35.5990	548.83
35.6135	503.98
35.6279	516.30
35.6423	513.05
35.6568	493.20
35.6712	535.26
35.6857	595.95
35.7001	690.82
35.7145	726.81
35.7290	649.38
35.7434	592.02
35.7579	552.75
35.7723	565.83
35.7867	609.53
35.8012	644.76
35.8156	648.44
35.8301	615.10
35.8445	599.52
35.8589	635.05
35.8734	702.30
35.8878	848.49
35.9023	970.98
35.9167	1095.04
35.9311	1512.88
35.9456	2332.09
35.9600	2387.57
35.9745	1843.02
35.9889	1873.15
36.0033	2379.86
36.0178	2453.83
36.0322	2069.09
36.0467	1830.31
36.0611	1626.96
36.0755	1524.57
36.0900	1493.34
36.1044	1229.93
36.1189	1303.14
36.1333	1193.89
36.1477	997.60
36.1622	991.62
36.1766	934.12
36.1911	882.20
36.2055	707.94
36.2199	732.09
36.2344	681.84
36.2488	737.23
36.2633	679.96
36.2777	698.01
36.2921	708.60
36.3066	743.41
36.3210	776.19
36.3355	797.50
36.3499	836.78
36.3643	864.06
36.3788	889.60
36.3932	888.44
36.4077	895.92
36.4221	946.29
36.4365	976.81
36.4510	968.50
36.4654	957.59
36.4799	944.49
36.4943	901.07
36.5087	834.96
36.5232	829.95
36.5376	785.26
36.5521	757.65
36.5665	748.34
36.5809	733.40
36.5954	682.72
36.6098	652.12
36.6243	648.19
36.6387	633.95
36.6531	645.60
36.6676	598.50
36.6820	599.14
36.6965	580.63
36.7109	573.43
36.7253	569.52
36.7398	574.61
36.7542	581.48
36.7687	575.07
36.7831	570.70
36.7975	518.75
36.8120	582.68
36.8264	603.78
36.8409	625.94
36.8553	613.16
36.8697	597.31
36.8842	598.75
36.8986	632.13
36.9131	607.45
36.9275	606.53
36.9419	616.88
36.9564	553.33
36.9708	550.86
36.9853	527.84
36.9997	552.60
37.0141	585.74
37.0286	565.76
37.0430	516.41
37.0575	511.82
37.0719	547.91
37.0863	531.97
37.1008	516.06
37.1152	512.66
37.1297	530.71
37.1441	492.10
37.1585	524.64
37.1730	487.93
37.1874	501.49
37.2019	496.26
37.2163	484.86
37.2307	499.12
37.2452	486.95
37.2596	498.62
37.2741	492.62
37.2885	523.72
37.3029	508.42
37.3174	518.60
37.3318	498.92
37.3463	530.26
37.3607	518.69
37.3751	518.80
37.3896	496.88
37.4040	470.65
37.4185	490.66
37.4329	501.19
37.4473	490.98
37.4618	481.43
37.4762	490.46
37.4907	533.30
37.5051	522.35
37.5195	487.70
37.5340	473.62
37.5484	492.32
37.5629	512.33
37.5773	492.90
37.5917	484.97
37.6062	491.73
37.6206	477.73
37.6351	511.96
37.6495	485.61
37.6639	491.92
37.6784	483.43
37.6928	503.10
37.7073	519.55
37.7217	500.66
37.7361	492.86
37.7506	518.95
37.7650	535.41
37.7795	530.10
37.7939	537.59
37.8083	524.64
37.8228	517.50
37.8372	489.12
37.8517	499.37
37.8661	522.79
37.8805	521.24
37.8950	517.87
37.9094	541.26
37.9239	499.56
37.9383	495.91
37.9528	487.66
37.9672	485.89
37.9816	500.49
37.9961	520.96
38.0105	524.08
38.0250	575.62
38.0394	487.83
38.0538	500.36
38.0683	572.10
38.0827	520.54
38.0972	512.19
38.1116	521.90
38.1260	557.01
38.1405	505.99
38.1549	494.11
38.1694	498.91
38.1838	473.25
38.1982	474.15
38.2127	497.11
38.2271	532.60
38.2416	492.93
38.2560	487.58
38.2704	530.03
38.2849	536.51
38.2993	507.37
38.3138	518.43
38.3282	552.63
38.3426	541.38
38.3571	522.70
38.3715	543.32
38.3860	514.17
38.4004	534.71
38.4148	559.45
38.4293	559.53
38.4437	564.67
38.4582	585.74
38.4726	650.34
38.4870	677.45
38.5015	721.56
38.5159	766.36
38.5304	817.90
38.5448	799.71
38.5592	831.14
38.5737	758.31
38.5881	733.14
38.6026	733.23
38.6170	699.01
38.6314	692.23
38.6459	680.00
38.6603	607.81
38.6748	591.31
38.6892	589.14
38.7036	537.91
38.7181	538.58
38.7325	531.98
38.7470	521.56
38.7614	512.18
38.7758	505.08
38.7903	510.53
38.8047	528.98
38.8192	514.20
38.8336	563.66
38.8480	544.83
38.8625	558.85
38.8769	566.89
38.8914	513.46
38.9058	511.53
38.9202	537.36
38.9347	531.49
38.9491	522.61
38.9636	507.14
38.9780	489.04
38.9924	477.48
39.0069	509.72
39.0213	519.09
39.0358	533.45
39.0502	516.32
39.0646	486.82
39.0791	494.49
39.0935	504.68
39.1080	520.43
39.1224	513.84
39.1368	494.82
39.1513	501.77
39.1657	494.12
39.1802	496.59
39.1946	486.29
39.2090	490.09
39.2235	502.46
39.2379	485.83
39.2524	511.95
39.2668	496.91
39.2812	533.84
39.2957	521.31
39.3101	542.33
39.3246	529.36
39.3390	501.78
39.3534	511.57
39.3679	511.32
39.3823	502.24
39.3968	520.13
39.4112	513.93
39.4256	516.07
39.4401	509.36
39.4545	538.39
39.4690	505.59
39.4834	469.52
39.4978	484.45
39.5123	503.33
39.5267	523.53
39.5412	508.08
39.5556	492.10
39.5700	487.13
39.5845	484.84
39.5989	492.86
39.6134	501.60
39.6278	497.01
39.6422	526.05
39.6567	533.83
39.6711	512.27
39.6856	487.18
39.7000	491.73
39.7144	519.83
39.7289	516.72
39.7433	499.15
39.7578	503.08
39.7722	465.44
39.7866	506.15
39.8011	504.16
39.8155	483.10
39.8300	495.25
39.8444	526.48
39.8588	515.83
39.8733	492.88
39.8877	516.65
39.9022	535.07
39.9166	515.94
39.9310	516.61
39.9455	487.30
39.9599	496.05
39.9744	544.88
39.9888	518.87
40.0032	499.57
40.0177	521.30
40.0321	530.38
40.0466	524.26
40.0610	487.94
40.0754	500.77
40.0899	504.07
40.1043	500.82
40.1188	476.59
40.1332	493.98
40.1476	484.17
40.1621	507.88
40.1765	482.00
40.1910	488.51
40.2054	491.85
40.2198	527.05
40.2343	487.32
40.2487	524.88
40.2632	499.59
40.2776	512.12
40.2920	469.50
40.3065	498.92
40.3209	491.42
40.3354	495.40
40.3498	472.44
40.3642	496.47
40.3787	496.67
40.3931	502.04
40.4076	498.86
40.4220	515.21
40.4364	501.66
40.4509	508.22
40.4653	509.51
40.4798	509.93
40.4942	487.46
40.5086	488.04
40.5231	494.42
40.5375	487.60
40.5520	471.15
40.5664	490.18
40.5808	497.15
40.5953	520.61
40.6097	476.58
40.6242	506.05
40.6386	519.45
40.6530	490.54
40.6675	509.36
40.6819	474.94
40.6964	471.24
40.7108	536.36
40.7252	506.76
40.7397	488.35
40.7541	465.14
40.7686	473.38
40.7830	520.45
40.7974	494.49
40.8119	493.13
40.8263	506.16
40.8408	485.73
40.8552	481.13
40.8696	485.79
40.8841	514.04
40.8985	501.42
40.9130	492.64
40.9274	499.63
40.9418	496.33
40.9563	508.09
40.9707	476.52
40.9852	518.79
40.9996	491.72
41.0140	498.88
41.0285	494.87
41.0429	453.38
41.0574	529.22
41.0718	535.66
41.0862	528.55
41.1007	535.65
41.1151	507.54
41.1296	501.36
41.1440	470.95
41.1584	490.29
41.1729	518.61
41.1873	499.01
41.2018	490.74
41.2162	506.39
41.2306	529.70
41.2451	531.53
41.2595	500.40
41.2740	522.29
41.2884	492.39
41.3028	479.69
41.3173	473.48
41.3317	487.15
41.3462	481.07
41.3606	487.72
41.3750	499.84
41.3895	518.40
41.4039	513.78
41.4184	515.92
41.4328	537.46
41.4472	524.61
41.4617	520.07
41.4761	494.75
41.4906	493.83
41.5050	468.62
41.5194	498.13
41.5339	509.88
41.5483	530.92
41.5628	520.27
41.5772	490.26
41.5916	522.85
41.6061	526.27
41.6205	514.70
41.6350	476.09
41.6494	459.95
41.6639	497.99
41.6783	501.50
41.6927	492.65
41.7072	487.99
41.7216	493.05
41.7361	494.03
41.7505	492.81
41.7649	493.80
41.7794	513.31
41.7938	521.85
41.8083	516.92
41.8227	498.42
41.8371	516.88
41.8516	499.81
41.8660	533.57
41.8805	531.67
41.8949	543.04
41.9093	547.35
41.9238	541.28
41.9382	593.94
41.9527	590.75
41.9671	547.97
41.9815	562.26
41.9960	552.73
42.0104	536.15
42.0249	544.70
42.0393	562.50
42.0537	551.77
42.0682	550.48
42.0826	626.09
42.0971	594.46
42.1115	568.80
42.1259	585.81
42.1404	587.74
42.1548	617.01
42.1693	645.81
42.1837	697.10
42.1981	756.24
42.2126	864.30
42.2270	945.98
42.2415	1073.01
42.2559	1236.69
42.2703	1317.46
42.2848	1456.02
42.2992	1566.79
42.3137	1633.31
42.3281	1587.51
42.3425	1521.28
42.3570	1441.80
42.3714	1394.58
42.3859	1354.84
42.4003	1366.52
42.4147	1329.24
42.4292	1272.52
42.4436	1131.03
42.4581	1006.63
42.4725	924.43
42.4869	836.23
42.5014	768.85
42.5158	688.89
42.5303	679.23
42.5447	662.59
42.5591	607.66
42.5736	588.39
42.5880	550.47
42.6025	562.64
42.6169	558.71
42.6313	521.60
42.6458	546.21
42.6602	535.37
42.6747	548.12
42.6891	517.11
42.7035	505.14
42.7180	504.98
42.7324	527.48
42.7469	519.81
42.7613	497.88
42.7757	493.58
42.7902	504.18
42.8046	525.45
42.8191	509.44
42.8335	531.14
42.8479	526.50
42.8624	511.58
42.8768	515.83
42.8913	502.72
42.9057	517.28
42.9201	486.85
42.9346	521.25
42.9490	526.73
42.9635	487.34
42.9779	471.62
42.9923	519.71
43.0068	543.15
43.0212	511.20
43.0357	511.74
43.0501	527.69
43.0645	528.03
43.0790	518.38
43.0934	544.38
43.1079	522.83
43.1223	509.96
43.1367	517.98
43.1512	507.55
43.1656	546.74
43.1801	550.25
43.1945	517.02
43.2089	534.40
43.2234	531.30
43.2378	567.83
43.2523	540.37
43.2667	545.48
43.2811	553.47
43.2956	503.26
43.3100	488.90
43.3245	534.87
43.3389	553.08
43.3533	553.93
43.3678	533.51
43.3822	523.84
43.3967	518.27
43.4111	490.52
43.4255	506.58
43.4400	501.76
43.4544	500.17
43.4689	502.78
43.4833	522.59
43.4977	503.62
43.5122	477.66
43.5266	508.87
43.5411	509.74
43.5555	518.55
43.5699	498.36
43.5844	515.81
43.5988	508.87
43.6133	501.92
43.6277	516.03
43.6421	540.03
43.6566	507.15
43.6710	507.06
43.6855	493.04
43.6999	551.73
43.7143	545.74
43.7288	529.78
43.7432	503.51
43.7577	519.66
43.7721	482.92
43.7865	549.50
43.8010	544.59
43.8154	532.91
43.8299	529.42
43.8443	546.09
43.8587	560.59
43.8732	528.39
43.8876	503.32
43.9021	551.02
43.9165	526.70
43.9309	493.74
43.9454	551.92
43.9598	529.13
43.9743	518.93
43.9887	539.01
44.0031	547.34
44.0176	525.06
44.0320	492.37
44.0465	517.74
44.0609	514.19
44.0753	531.88
44.0898	569.35
44.1042	540.97
44.1187	533.05
44.1331	533.70
44.1475	500.60
44.1620	536.49
44.1764	548.32
44.1909	568.51
44.2053	597.46
44.2197	583.27
44.2342	575.87
44.2486	619.09
44.2631	620.27
44.2775	639.74
44.2919	576.31
44.3064	574.11
44.3208	620.24
44.3353	643.17
44.3497	635.12
44.3641	585.29
44.3786	638.49
44.3930	630.54
44.4075	569.04
44.4219	590.54
44.4363	626.52
44.4508	626.83
44.4652	647.47
44.4797	593.66
44.4941	579.59
44.5085	607.80
44.5230	579.49
44.5374	623.48
44.5519	593.93
44.5663	624.38
44.5807	586.74
44.5952	565.28
44.6096	565.42
44.6241	561.60
44.6385	592.37
44.6529	602.68
44.6674	578.92
44.6818	616.51
44.6963	642.52
44.7107	663.04
44.7251	688.03
44.7396	768.58
44.7540	848.18
44.7685	831.84
44.7829	853.72
44.7973	889.24
44.8118	860.86
44.8262	810.28
44.8407	796.40
44.8551	755.82
44.8695	729.00
44.8840	725.98
44.8984	769.69
44.9129	791.30
44.9273	705.25
44.9417	694.04
44.9562	605.60
44.9706	572.40
44.9851	568.73
44.9995	534.57
45.0139	553.41
45.0284	478.08
45.0428	520.85
45.0573	507.09
45.0717	488.99
45.0861	553.81
45.1006	489.41
45.1150	535.60
45.1295	539.76
45.1439	520.14
45.1583	486.76
45.1728	520.15
45.1872	521.56
45.2017	504.16
45.2161	508.41
45.2305	510.75
45.2450	505.81
45.2594	514.26
45.2739	498.47
45.2883	502.92
45.3028	495.12
45.3172	523.89
45.3316	483.51
45.3461	516.42
45.3605	539.50
45.3750	491.09
45.3894	490.79
45.4038	514.66
45.4183	516.20
45.4327	518.88
45.4472	494.50
45.4616	498.31
45.4760	499.97
45.4905	495.07
45.5049	522.97
45.5194	547.31
45.5338	542.24
45.5482	546.24
45.5627	488.91
45.5771	500.37
45.5916	505.08
45.6060	503.32
45.6204	479.57
45.6349	523.44
45.6493	493.40
45.6638	510.89
45.6782	508.96
45.6926	467.10
45.7071	528.74
45.7215	511.20
45.7360	517.31
45.7504	500.19
45.7648	508.82
45.7793	511.48
45.7937	480.20
45.8082	484.10
45.8226	515.62
45.8370	520.45
45.8515	506.39
45.8659	515.97
45.8804	520.82
45.8948	509.77
45.9092	486.48
45.9237	489.65
45.9381	509.20
45.9526	472.75
45.9670	506.21
45.9814	511.91
45.9959	477.44
46.0103	483.48
46.0248	500.53
46.0392	486.48
46.0536	480.42
46.0681	492.38
46.0825	496.85
46.0970	491.45
46.1114	498.36
46.1258	509.04
46.1403	509.53
46.1547	486.15
46.1692	497.42
46.1836	512.93
46.1980	488.26
46.2125	506.99
46.2269	505.31
46.2414	512.14
46.2558	513.83
46.2702	492.70
46.2847	498.82
46.2991	474.86
46.3136	487.89
46.3280	496.74
46.3424	476.03
46.3569	513.32
46.3713	519.71
46.3858	528.18
46.4002	517.94
46.4146	483.78
46.4291	522.11
46.4435	494.60
46.4580	507.92
46.4724	503.37
46.4868	498.76
46.5013	494.54
46.5157	488.25
46.5302	485.54
46.5446	522.16
46.5590	523.61
46.5735	509.24
46.5879	507.92
46.6024	480.12
46.6168	496.06
46.6312	494.74
46.6457	497.76
46.6601	520.60
46.6746	491.82
46.6890	464.97
46.7034	480.10
46.7179	485.88
46.7323	498.12
46.7468	502.77
46.7612	506.15
46.7756	506.91
46.7901	512.60
46.8045	491.27
46.8190	528.06
46.8334	523.50
46.8478	515.27
46.8623	511.27
46.8767	502.02
46.8912	502.72
46.9056	511.37
46.9200	507.42
46.9345	517.86
46.9489	517.00
46.9634	497.13
46.9778	482.45
46.9922	480.80
47.0067	497.80
47.0211	517.71
47.0356	509.61
47.0500	482.55
47.0644	495.08
47.0789	512.91
47.0933	521.89
47.1078	509.68
47.1222	515.77
47.1366	536.74
47.1511	456.26
47.1655	495.04
47.1800	485.09
47.1944	514.63
47.2088	507.93
47.2233	529.19
47.2377	508.85
47.2522	525.41
47.2666	502.66
47.2810	518.45
47.2955	522.96
47.3099	499.60
47.3244	485.05
47.3388	483.39
47.3532	494.02
47.3677	505.93
47.3821	496.55
47.3966	490.59
47.4110	485.09
47.4254	513.14
47.4399	500.28
47.4543	495.50
47.4688	499.77
47.4832	491.65
47.4976	483.43
47.5121	500.71
47.5265	510.41
47.5410	511.69
47.5554	506.79
47.5698	497.11
47.5843	491.79
47.5987	518.39
47.6132	523.85
47.6276	498.68
47.6420	523.94
47.6565	531.60
47.6709	506.53
47.6854	487.62
47.6998	532.09
47.7142	530.70
47.7287	506.79
47.7431	525.49
47.7576	503.36
47.7720	498.89
47.7864	495.45
47.8009	485.63
47.8153	525.09
47.8298	505.20
47.8442	503.89
47.8586	514.15
47.8731	532.70
47.8875	496.44
47.9020	511.22
47.9164	485.36
47.9308	486.68
47.9453	531.75
47.9597	545.89
47.9742	533.42
47.9886	500.57
48.0030	493.03
48.0175	494.40
48.0319	500.26
48.0464	513.69
48.0608	538.59
48.0752	508.24
48.0897	525.49
48.1041	515.94
48.1186	540.88
48.1330	524.29
48.1474	501.45
48.1619	517.28
48.1763	488.64
48.1908	455.55
48.2052	481.59
48.2196	501.24
48.2341	485.62
48.2485	505.66
48.2630	486.83
48.2774	522.13
48.2918	504.15
48.3063	503.37
48.3207	513.77
48.3352	557.08
48.3496	536.63
48.3640	489.49
48.3785	519.72
48.3929	501.36
48.4074	481.51
48.4218	521.71
48.4362	562.85
48.4507	525.08
48.4651	551.87
48.4796	507.77
48.4940	505.00
48.5084	525.08
48.5229	510.13
48.5373	546.00
48.5518	525.13
48.5662	519.53
48.5806	499.98
48.5951	531.77
48.6095	481.95
48.6240	552.73
48.6384	539.76
48.6528	522.08
48.6673	537.30
48.6817	512.99
48.6962	524.31
48.7106	532.84
48.7250	501.18
48.7395	521.00
48.7539	527.99
48.7684	518.04
48.7828	549.54
48.7972	547.65
48.8117	514.87
48.8261	500.29
48.8406	503.72
48.8550	545.71
48.8694	555.64
48.8839	525.69
48.8983	530.21
48.9128	538.90
48.9272	537.75
48.9416	545.70
48.9561	567.86
48.9705	604.10
48.9850	563.16
48.9994	568.92
49.0139	581.94
49.0283	627.91
49.0427	590.77
49.0572	608.15
49.0716	641.98
49.0861	691.90
49.1005	710.37
49.1149	739.88
49.1294	751.45
49.1438	744.57
49.1583	827.81
49.1727	853.37
49.1871	915.32
49.2016	956.77
49.2160	1063.11
49.2305	1081.02
49.2449	1208.28
49.2593	1305.31
49.2738	1411.98
49.2882	1451.24
49.3027	1645.49
49.3171	1652.63
49.3315	1725.31
49.3460	1779.06
49.3604	1790.28
49.3749	1839.63
49.3893	1836.33
49.4037	1822.93
49.4182	1769.96
49.4326	1790.71
49.4471	1620.85
49.4615	1632.49
49.4759	1640.86
49.4904	1502.41
49.5048	1424.96
49.5193	1302.33
49.5337	1324.49
49.5481	1198.26
49.5626	1092.21
49.5770	995.04
49.5915	974.90
49.6059	915.55
49.6203	857.75
49.6348	805.23
49.6492	831.64
49.6637	781.21
49.6781	741.12
49.6925	678.13
49.7070	705.20
49.7214	669.19
49.7359	645.19
49.7503	653.82
49.7647	582.20
49.7792	598.73
49.7936	590.80
49.8081	602.82
49.8225	562.00
49.8369	573.82
49.8514	555.39
49.8658	599.69
49.8803	527.58
49.8947	544.68
49.9091	548.00
49.9236	509.37
49.9380	527.58
49.9525	529.09
49.9669	516.86
49.9813	561.12
49.9958	532.11
50.0102	528.07
50.0247	563.97
50.0391	557.18
50.0535	534.02
50.0680	544.27
50.0824	490.71
50.0969	533.65
50.1113	511.01
50.1257	532.65
50.1402	529.61
50.1546	551.25
50.1691	557.94
50.1835	532.53
50.1979	497.06
50.2124	532.09
50.2268	510.55
50.2413	528.07
50.2557	515.59
50.2701	506.46
50.2846	525.58
50.2990	511.29
50.3135	529.38
50.3279	525.20
50.3423	510.52
50.3568	520.13
50.3712	514.35
50.3857	510.79
50.4001	504.45
50.4145	521.17
50.4290	519.08
50.4434	490.86
50.4579	506.84
50.4723	519.78
50.4867	517.16
50.5012	511.01
50.5156	494.49
50.5301	498.70
50.5445	509.70
50.5589	538.82
50.5734	530.95
50.5878	495.19
50.6023	495.94
50.6167	541.20
50.6311	532.06
50.6456	531.98
50.6600	498.62
50.6745	475.88
50.6889	513.62
50.7033	514.52
50.7178	521.08
50.7322	490.21
50.7467	515.74
50.7611	487.71
50.7755	475.47
50.7900	510.69
50.8044	520.18
50.8189	502.36
50.8333	484.62
50.8477	511.06
50.8622	533.41
50.8766	516.49
50.8911	515.37
50.9055	513.43
50.9199	516.51
50.9344	496.25
50.9488	512.71
50.9633	496.82
50.9777	528.77
50.9921	522.40
51.0066	500.39
51.0210	532.24
51.0355	515.60
51.0499	488.63
51.0643	520.84
51.0788	531.00
51.0932	506.53
51.1077	504.07
51.1221	536.32
51.1365	498.61
51.1510	473.50
51.1654	516.84
51.1799	503.14
51.1943	510.86
51.2087	511.01
51.2232	514.50
51.2376	502.41
51.2521	492.78
51.2665	458.31
51.2809	477.56
51.2954	494.68
51.3098	503.09
51.3243	514.38
51.3387	507.49
51.3531	498.66
51.3676	455.67
51.3820	475.51
51.3965	482.54
51.4109	511.79
51.4253	519.59
51.4398	496.96
51.4542	481.87
51.4687	530.74
51.4831	515.43
51.4975	524.10
51.5120	524.05
51.5264	484.29
51.5409	480.39
51.5553	498.25
51.5697	479.95
51.5842	494.66
51.5986	511.48
51.6131	522.36
51.6275	492.23
51.6419	499.45
51.6564	489.26
51.6708	503.46
51.6853	491.42
51.6997	532.07
51.7141	501.11
51.7286	503.85
51.7430	492.19
51.7575	511.44
51.7719	522.75
51.7863	550.44
51.8008	534.72
51.8152	552.81
51.8297	529.44
51.8441	520.01
51.8585	504.79
51.8730	536.66
51.8874	478.99
51.9019	511.09
51.9163	533.22
51.9307	494.65
51.9452	515.45
51.9596	483.43
51.9741	484.52
51.9885	490.50
52.0029	523.65
52.0174	519.13
52.0318	512.57
52.0463	529.51
52.0607	508.75
52.0751	532.36
52.0896	499.24
52.1040	514.29
52.1185	516.95
52.1329	529.03
52.1473	519.58
52.1618	557.52
52.1762	520.96
52.1907	506.96
52.2051	500.44
52.2195	511.41
52.2340	503.28
52.2484	492.25
52.2629	490.48
52.2773	527.90
52.2917	495.29
52.3062	521.18
52.3206	540.75
52.3351	515.95
52.3495	501.31
52.3639	492.83
52.3784	508.72
52.3928	496.55
52.4073	521.62
52.4217	530.38
52.4361	546.28
52.4506	509.65
52.4650	535.82
52.4795	506.33
52.4939	503.07
52.5083	553.39
52.5228	497.90
52.5372	518.02
52.5517	532.43
52.5661	509.93
52.5805	519.23
52.5950	487.01
52.6094	510.49
52.6239	511.68
52.6383	528.99
52.6527	530.02
52.6672	488.87
52.6816	493.54
52.6961	507.14
52.7105	524.37
52.7250	534.94
52.7394	492.13
52.7538	524.94
52.7683	503.92
52.7827	506.32
52.7972	481.20
52.8116	523.98
52.8260	501.81
52.8405	522.53
52.8549	487.33
52.8694	523.40
52.8838	507.61
52.8982	519.81
52.9127	537.13
52.9271	509.44
52.9416	491.21
52.9560	515.23
52.9704	454.96
52.9849	509.50
52.9993	507.68
53.0138	535.36
53.0282	546.46
53.0426	509.48
53.0571	507.10
53.0715	533.73
53.0860	523.03
53.1004	514.39
53.1148	531.74
53.1293	540.88
53.1437	537.37
53.1582	502.37
53.1726	531.22
53.1870	501.04
53.2015	510.16
53.2159	553.66
53.2304	501.71
53.2448	530.19
53.2592	516.66
53.2737	512.40
53.2881	532.16
53.3026	535.99
53.3170	527.96
53.3314	513.88
53.3459	509.28
53.3603	507.60
53.3748	487.72
53.3892	486.32
53.4036	477.87
53.4181	495.42
53.4325	526.57
53.4470	516.65
53.4614	558.82
53.4758	496.80
53.4903	531.53
53.5047	493.49
53.5192	507.82
53.5336	536.40
53.5480	525.30
53.5625	513.48
53.5769	505.34
53.5914	525.22
53.6058	547.98
53.6202	496.11
53.6347	535.22
53.6491	516.58
53.6636	520.39
53.6780	535.00
53.6924	513.02
53.7069	516.20
53.7213	496.75
53.7358	478.18
53.7502	498.55
53.7646	523.14
53.7791	536.10
53.7935	524.50
53.8080	535.70
53.8224	538.70
53.8368	504.38
53.8513	511.87
53.8657	511.82
53.8802	501.85
53.8946	522.20
53.9090	531.50
53.9235	518.84
53.9379	517.80
53.9524	510.07
53.9668	519.58
53.9812	515.62
53.9957	513.20
54.0101	532.85
54.0246	550.83
54.0390	509.87
54.0534	496.05
54.0679	500.49
54.0823	528.86
54.0968	513.10
54.1112	501.14
54.1256	500.53
54.1401	493.49
54.1545	508.41
54.1690	537.11
54.1834	535.12
54.1978	516.22
54.2123	519.74
54.2267	534.28
54.2412	528.53
54.2556	512.15
54.2700	495.16
54.2845	503.22
54.2989	536.29
54.3134	523.90
54.3278	533.82
54.3422	502.81
54.3567	507.03
54.3711	522.09
54.3856	510.04
54.4000	523.80
54.4144	511.27
54.4289	525.89
54.4433	526.48
54.4578	491.91
54.4722	497.60
54.4866	515.07
54.5011	526.74
54.5155	507.97
54.5300	530.17
54.5444	547.27
54.5588	519.82
54.5733	509.19
54.5877	521.37
54.6022	521.04
54.6166	532.82
54.6310	534.30
54.6455	505.44
54.6599	502.74
54.6744	557.10
54.6888	521.08
54.7032	527.05
54.7177	519.09
54.7321	533.06
54.7466	536.77
54.7610	564.79
54.7754	573.81
54.7899	557.10
54.8043	568.01
54.8188	594.60
54.8332	559.54
54.8476	592.23
54.8621	589.05
54.8765	563.93
54.8910	571.07
54.9054	603.23
54.9198	576.14
54.9343	633.81
54.9487	603.56
54.9632	573.27
54.9776	557.81
54.9920	538.15
55.0065	542.45
55.0209	615.38
55.0354	618.02
55.0498	576.42
55.0642	549.76
55.0787	550.78
55.0931	566.08
55.1076	570.85
55.1220	556.43
55.1364	556.93
55.1509	527.11
55.1653	571.51
55.1798	576.88
55.1942	549.01
55.2086	547.64
55.2231	514.14
55.2375	512.80
55.2520	522.08
55.2664	530.99
55.2808	544.57
55.2953	498.17
55.3097	520.20
55.3242	545.67
55.3386	521.59
55.3530	530.66
55.3675	521.08
55.3819	495.10
55.3964	537.41
55.4108	542.16
55.4252	521.93
55.4397	500.83
55.4541	527.72
55.4686	558.53
55.4830	545.66
55.4974	558.59
55.5119	507.12
55.5263	540.24
55.5408	529.39
55.5552	511.17
55.5696	510.91
55.5841	544.28
55.5985	520.10
55.6130	509.64
55.6274	498.35
55.6418	531.83
55.6563	548.47
55.6707	493.11
55.6852	546.36
55.6996	527.14
55.7140	539.28
55.7285	522.24
55.7429	508.09
55.7574	489.17
55.7718	537.64
55.7862	551.08
55.8007	557.95
55.8151	535.98
55.8296	559.47
55.8440	544.28
55.8584	540.91
55.8729	541.40
55.8873	495.81
55.9018	528.51
55.9162	488.19
55.9306	490.05
55.9451	511.31
55.9595	527.92
55.9740	516.11
55.9884	521.93
56.0028	510.70
56.0173	520.61
56.0317	506.78
56.0462	513.09
56.0606	545.93
56.0750	543.16
56.0895	540.74
56.1039	562.71
56.1184	535.06
56.1328	517.97
56.1472	515.30
56.1617	531.06
56.1761	568.00
56.1906	572.14
56.2050	502.08
56.2194	525.61
56.2339	527.45
56.2483	523.20
56.2628	507.59
56.2772	521.67
56.2916	550.39
56.3061	533.11
56.3205	511.17
56.3350	497.89
56.3494	523.89
56.3639	524.64
56.3783	520.60
56.3927	522.48
56.4072	520.12
56.4216	526.37
56.4361	514.21
56.4505	523.26
56.4649	529.22
56.4794	554.05
56.4938	527.48
56.5083	507.57
56.5227	515.86
56.5371	539.56
56.5516	507.68
56.5660	516.55
56.5805	481.80
56.5949	509.65
56.6093	515.04
56.6238	511.42
56.6382	511.49
56.6527	526.48
56.6671	519.51
56.6815	515.93
56.6960	527.56
56.7104	540.34
56.7249	519.96
56.7393	503.80
56.7537	497.70
56.7682	527.15
56.7826	557.81
56.7971	553.24
56.8115	532.83
56.8259	498.48
56.8404	498.77
56.8548	542.24
56.8693	541.16
56.8837	526.14
56.8981	525.62
56.9126	498.40
56.9270	495.64
56.9415	558.53
56.9559	542.80
56.9703	520.11
56.9848	521.06
56.9992	494.23
57.0137	531.34
57.0281	529.36
57.0425	532.32
57.0570	556.60
57.0714	503.42
57.0859	532.07
57.1003	534.25
57.1147	509.08
57.1292	537.66
57.1436	504.36
57.1581	507.99
57.1725	542.86
57.1869	492.49
57.2014	498.42
57.2158	509.03
57.2303	550.56
57.2447	552.74
57.2591	505.61
57.2736	524.13
57.2880	531.58
57.3025	538.48
57.3169	547.13
57.3313	546.90
57.3458	540.51
57.3602	497.49
57.3747	519.15
57.3891	539.63
57.4035	510.52
57.4180	523.00
57.4324	533.93
57.4469	508.33
57.4613	508.23
57.4757	547.72
57.4902	517.15
57.5046	502.07
57.5191	517.14
57.5335	542.89
57.5479	560.49
57.5624	522.37
57.5768	494.49
57.5913	515.93
57.6057	554.27
57.6201	550.01
57.6346	540.87
57.6490	540.11
57.6635	533.59
57.6779	508.70
57.6923	525.47
57.7068	519.43
57.7212	517.74
57.7357	533.31
57.7501	555.20
57.7645	514.08
57.7790	540.38
57.7934	520.43
57.8079	515.62
57.8223	533.90
57.8367	507.74
57.8512	510.39
57.8656	504.48
57.8801	526.44
57.8945	483.98
57.9089	527.87
57.9234	503.31
57.9378	523.80
57.9523	533.43
57.9667	514.03
57.9811	522.70
57.9956	539.05
58.0100	537.28
58.0245	535.67
58.0389	525.49
58.0533	545.16
58.0678	553.13
58.0822	557.67
58.0967	592.36
58.1111	560.24
58.1255	573.43
58.1400	537.42
58.1544	534.46
58.1689	552.82
58.1833	533.42
58.1977	533.75
58.2122	556.12
58.2266	533.32
58.2411	554.51
58.2555	553.65
58.2699	568.89
58.2844	564.33
58.2988	552.86
58.3133	536.17
58.3277	555.47
58.3421	552.92
58.3566	558.43
58.3710	563.64
58.3855	566.62
58.3999	562.71
58.4143	552.89
58.4288	591.19
58.4432	584.81
58.4577	568.51
58.4721	579.17
58.4865	584.64
58.5010	574.79
58.5154	596.17
58.5299	622.56
58.5443	606.49
58.5587	644.69
58.5732	649.83
58.5876	618.06
58.6021	608.89
58.6165	653.94
58.6309	665.05
58.6454	627.23
58.6598	643.59
58.6743	640.15
58.6887	652.20
58.7031	662.90
58.7176	633.64
58.7320	625.70
58.7465	642.21
58.7609	614.10
58.7753	591.83
58.7898	599.33
58.8042	625.52
58.8187	603.92
58.8331	598.16
58.8475	596.86
58.8620	614.42
58.8764	594.01
58.8909	576.44
58.9053	571.60
58.9197	600.87
58.9342	604.43
58.9486	585.11
58.9631	563.63
58.9775	543.35
58.9919	515.13
59.0064	541.19
59.0208	563.10
59.0353	569.55
59.0497	583.49
59.0641	564.81
59.0786	533.35
59.0930	570.64
59.1075	593.21
59.1219	577.23
59.1363	545.30
59.1508	526.46
59.1652	566.61
59.1797	589.80
59.1941	566.47
59.2085	534.32
59.2230	540.30
59.2374	527.28
59.2519	555.41
59.2663	573.20
59.2807	569.42
59.2952	540.95
59.3096	541.65
59.3241	541.88
59.3385	553.28
59.3529	551.38
59.3674	569.75
59.3818	565.78
59.3963	565.60
59.4107	535.07
59.4251	585.46
59.4396	563.72
59.4540	546.78
59.4685	577.34
59.4829	568.17
59.4973	551.39
59.5118	545.70
59.5262	537.75
59.5407	570.25
59.5551	576.43
59.5695	557.40
59.5840	536.15
59.5984	538.96
59.6129	568.19
59.6273	549.39
59.6417	558.00
59.6562	567.98
59.6706	544.59
59.6851	562.52
59.6995	559.96
59.7139	557.12
59.7284	555.96
59.7428	556.51
59.7573	534.61
59.7717	526.57
59.7861	564.14
59.8006	543.84
59.8150	540.38
59.8295	546.35
59.8439	566.42
59.8583	562.82
59.8728	525.04
59.8872	561.41
59.9017	560.07
59.9161	543.89
59.9305	544.17
59.9450	562.80
59.9594	542.40
59.9739	548.83
59.9883	554.55
60.0027	563.77
60.0172	588.90
60.0316	540.03
60.0461	537.39
60.0605	502.82
60.0750	514.42
60.0894	532.49
60.1038	535.30
60.1183	538.50
60.1327	539.32
60.1472	533.96
60.1616	567.24
60.1760	574.20
60.1905	517.42
60.2049	558.80
60.2194	553.77
60.2338	519.07
60.2482	578.43
60.2627	557.32
60.2771	560.82
60.2916	551.52
60.3060	536.01
60.3204	548.27
60.3349	550.36
60.3493	545.37
60.3638	532.53
60.3782	538.48
60.3926	516.68
60.4071	504.12
60.4215	554.76
60.4360	542.26
60.4504	527.75
60.4648	539.01
60.4793	551.20
60.4937	526.09
60.5082	530.24
60.5226	530.86
60.5370	579.80
60.5515	547.84
60.5659	523.13
60.5804	547.72
60.5948	555.58
60.6092	530.98
60.6237	562.51
60.6381	535.01
60.6526	537.58
60.6670	495.87
60.6814	533.53
60.6959	507.57
60.7103	535.12
60.7248	539.88
60.7392	510.52
60.7536	562.51
60.7681	556.22
60.7825	549.57
60.7970	576.06
60.8114	535.75
60.8258	549.95
60.8403	549.94
60.8547	541.58
60.8692	554.03
60.8836	560.30
60.8980	541.23
60.9125	507.20
60.9269	485.81
60.9414	544.40
60.9558	528.36
60.9702	551.02
60.9847	545.24
60.9991	523.12
61.0136	533.66
61.0280	541.47
61.0424	551.16
61.0569	502.64
61.0713	549.93
61.0858	575.18
61.1002	523.10
61.1146	539.56
61.1291	550.48
61.1435	517.59
61.1580	563.81
61.1724	564.18
61.1868	560.17
61.2013	540.85
61.2157	548.50
61.2302	563.60
61.2446	568.38
61.2590	533.88
61.2735	566.23
61.2879	576.63
61.3024	563.78
61.3168	577.12
61.3312	540.45
61.3457	567.24
61.3601	499.63
61.3746	570.87
61.3890	532.06
61.4034	488.89
61.4179	525.80
61.4323	526.23
61.4468	550.34
61.4612	557.66
61.4756	557.19
61.4901	548.58
61.5045	529.54
61.5190	503.62
61.5334	549.54
61.5478	549.32
61.5623	582.42
61.5767	531.12
61.5912	526.94
61.6056	569.48
61.6200	534.45
61.6345	553.97
61.6489	558.07
61.6634	604.71
61.6778	552.46
61.6922	534.81
61.7067	575.61
61.7211	570.97
61.7356	546.44
61.7500	564.74
61.7644	522.57
61.7789	556.84
61.7933	540.61
61.8078	549.59
61.8222	536.66
61.8366	583.83
61.8511	571.24
61.8655	545.20
61.8800	554.00
61.8944	574.75
61.9088	569.34
61.9233	545.44
61.9377	579.82
61.9522	559.58
61.9666	577.49
61.9810	540.32
61.9955	530.61
62.0099	520.71
62.0244	532.40
62.0388	568.67
62.0532	523.97
62.0677	543.38
62.0821	548.85
62.0966	583.45
62.1110	567.71
62.1254	552.02
62.1399	546.16
62.1543	532.66
62.1688	526.62
62.1832	547.07
62.1976	557.58
62.2121	536.26
62.2265	552.95
62.2410	563.87
62.2554	552.61
62.2698	546.52
62.2843	559.29
62.2987	580.77
62.3132	557.33
62.3276	545.31
62.3420	558.01
62.3565	552.18
62.3709	582.98
62.3854	538.90
62.3998	568.83
62.4142	552.85
62.4287	558.69
62.4431	522.44
62.4576	552.28
62.4720	579.32
62.4864	565.03
62.5009	546.85
62.5153	563.34
62.5298	527.42
62.5442	518.47
62.5586	534.82
62.5731	537.26
62.5875	512.97
62.6020	553.90
62.6164	564.56
62.6308	545.24
62.6453	554.16
62.6597	584.66
62.6742	564.54
62.6886	545.50
62.7030	536.97
62.7175	571.52
62.7319	564.50
62.7464	554.51
62.7608	559.05
62.7752	559.66
62.7897	539.39
62.8041	577.28
62.8186	518.86
62.8330	557.51
62.8474	538.85
62.8619	568.11
62.8763	578.12
62.8908	531.35
62.9052	545.69
62.9196	551.00
62.9341	553.26
62.9485	537.52
62.9630	555.65
62.9774	593.90
62.9918	569.19
63.0063	559.78
63.0207	543.72
63.0352	542.34
63.0496	568.27
63.0640	614.53
63.0785	544.47
63.0929	556.89
63.1074	556.59
63.1218	565.94
63.1362	563.04
63.1507	561.72
63.1651	581.16
63.1796	599.55
63.1940	560.30
63.2084	557.74
63.2229	565.57
63.2373	567.32
63.2518	550.86
63.2662	549.74
63.2806	594.07
63.2951	589.68
63.3095	578.07
63.3240	566.35
63.3384	570.34
63.3528	593.98
63.3673	600.26
63.3817	562.64
63.3962	593.36
63.4106	583.46
63.4250	565.66
63.4395	535.23
63.4539	524.24
63.4684	591.30
63.4828	629.12
63.4972	555.89
63.5117	550.28
63.5261	568.47
63.5406	597.52
63.5550	613.31
63.5694	594.20
63.5839	561.00
63.5983	577.26
63.6128	558.55
63.6272	567.31
63.6416	607.04
63.6561	595.15
63.6705	585.55
63.6850	588.33
63.6994	583.90
63.7138	579.54
63.7283	598.85
63.7427	596.28
63.7572	576.75
63.7716	592.46
63.7861	612.35
63.8005	600.53
63.8149	621.93
63.8294	627.75
63.8438	616.92
63.8583	600.67
63.8727	637.18
63.8871	579.15
63.9016	629.61
63.9160	603.33
63.9305	614.22
63.9449	622.09
63.9593	588.67
63.9738	595.35
63.9882	622.34
64.0027	606.16
64.0171	633.96
64.0315	675.58
64.0460	646.12
64.0604	627.69
64.0749	634.53
64.0893	673.49
64.1037	620.68
64.1182	623.51
64.1326	621.05
64.1471	618.25
64.1615	660.32
64.1759	645.94
64.1904	689.26
64.2048	731.20
64.2193	714.45
64.2337	710.15
64.2481	744.52
64.2626	698.40
64.2770	752.38
64.2915	732.39
64.3059	755.75
64.3203	750.98
64.3348	795.19
64.3492	774.54
64.3637	796.09
64.3781	772.77
64.3925	749.30
64.4070	764.52
64.4214	789.35
64.4359	796.61
64.4503	756.31
64.4647	809.38
64.4792	792.44
64.4936	793.68
64.5081	774.16
64.5225	737.85
64.5369	742.38
64.5514	769.36
64.5658	760.06
64.5803	736.58
64.5947	734.87
64.6091	770.54
64.6236	713.40
64.6380	736.18
64.6525	740.81
64.6669	745.89
64.6813	693.48
64.6958	721.83
64.7102	764.84
64.7247	760.63
64.7391	679.53
64.7535	716.50
64.7680	772.50
64.7824	753.24
64.7969	760.27
64.8113	784.60
64.8257	833.55
64.8402	847.45
64.8546	800.93
64.8691	882.62
64.8835	884.27
64.8979	883.48
64.9124	855.12
64.9268	861.19
64.9413	908.82
64.9557	942.49
64.9701	1043.04
64.9846	1073.93
64.9990	1147.94
65.0135	1267.44
65.0279	1413.59
65.0423	1780.91
65.0568	2096.97
65.0712	2648.13
65.0857	3516.83
65.1001	4538.05
65.1145	6134.92
65.1290	8003.69
65.1434	9654.80
65.1579	10963.52
65.1723	11897.01
65.1867	11476.90
65.2012	9989.08
65.2156	8236.66
65.2301	6548.93
65.2445	5255.74
65.2589	4482.03
65.2734	4175.55
65.2878	4446.51
65.3023	5118.66
65.3167	5732.63
65.3311	6509.19
65.3456	7072.83
65.3600	7115.88
65.3745	6542.34
65.3889	5514.63
65.4033	4444.57
65.4178	3387.13
65.4322	2706.22
65.4467	2128.61
65.4611	1789.74
65.4755	1501.02
65.4900	1259.10
65.5044	1131.88
65.5189	1068.31
65.5333	1006.14
65.5477	954.77
65.5622	873.49
65.5766	830.92
65.5911	783.47
65.6055	796.04
65.6199	787.10
65.6344	789.43
65.6488	818.77
65.6633	749.92
65.6777	724.26
65.6921	714.02
65.7066	737.86
65.7210	714.17
65.7355	679.48
65.7499	718.60
65.7643	718.13
65.7788	699.88
65.7932	688.04
65.8077	658.43
65.8221	643.92
65.8365	678.06
65.8510	676.47
65.8654	649.00
65.8799	697.26
65.8943	700.20
65.9087	670.32
65.9232	691.60
65.9376	693.65
65.9521	653.10
65.9665	631.61
65.9809	630.21
65.9954	597.04
66.0098	619.77
66.0243	648.75
66.0387	643.30
66.0531	634.16
66.0676	607.20
66.0820	628.33
66.0965	587.34
66.1109	599.28
66.1253	624.07
66.1398	636.58
66.1542	626.63
66.1687	621.95
66.1831	594.74
66.1975	568.00
66.2120	588.41
66.2264	612.19
66.2409	622.10
66.2553	605.66
66.2697	619.11
66.2842	584.47
66.2986	585.49
66.3131	594.21
66.3275	590.62
66.3419	620.42
66.3564	597.95
66.3708	594.69
66.3853	573.81
66.3997	593.34
66.4141	595.13
66.4286	624.99
66.4430	595.28
66.4575	614.01
66.4719	632.84
66.4863	630.84
66.5008	568.15
66.5152	573.88
66.5297	574.62
66.5441	589.93
66.5585	563.37
66.5730	593.40
66.5874	590.20
66.6019	568.29
66.6163	596.60
66.6307	554.90
66.6452	591.96
66.6596	591.12
66.6741	564.70
66.6885	594.79
66.7029	588.17
66.7174	604.67
66.7318	594.85
66.7463	612.37
66.7607	544.73
66.7751	594.18
66.7896	611.93
66.8040	583.89
66.8185	592.82
66.8329	588.10
66.8473	604.38
66.8618	640.90
66.8762	632.50
66.8907	573.21
66.9051	594.78
66.9195	580.33
66.9340	611.87
66.9484	587.36
66.9629	586.69
66.9773	579.62
66.9917	544.15
67.0062	562.75
67.0206	586.19
67.0351	604.55
67.0495	560.43
67.0639	597.53
67.0784	618.24
67.0928	615.87
67.1073	604.01
67.1217	594.35
67.1361	582.08
67.1506	562.03
67.1650	607.26
67.1795	598.10
67.1939	565.48
67.2083	564.25
67.2228	612.56
67.2372	582.80
67.2517	583.48
67.2661	568.23
67.2805	596.33
67.2950	555.45
67.3094	580.25
67.3239	551.31
67.3383	595.02
67.3527	626.96
67.3672	594.76
67.3816	580.39
67.3961	564.18
67.4105	565.42
67.4250	591.28
67.4394	550.54
67.4538	590.83
67.4683	633.82
67.4827	567.82
67.4972	601.84
67.5116	566.39
67.5260	569.50
67.5405	605.86
67.5549	645.83
67.5694	618.03
67.5838	566.55
67.5982	585.96
67.6127	566.02
67.6271	583.07
67.6416	607.01
67.6560	576.21
67.6704	594.34
67.6849	560.05
67.6993	545.62
67.7138	546.25
67.7282	583.36
67.7426	582.49
67.7571	580.40
67.7715	540.92
67.7860	574.11
67.8004	575.69
67.8148	607.32
67.8293	598.70
67.8437	595.10
67.8582	567.07
67.8726	614.73
67.8870	594.39
67.9015	589.74
67.9159	618.44
67.9304	564.46
67.9448	565.06
67.9592	560.88
67.9737	571.39
67.9881	546.83
68.0026	599.60
68.0170	601.19
68.0314	594.32
68.0459	577.38
68.0603	577.95
68.0748	573.05
68.0892	626.57
68.1036	617.23
68.1181	550.68
68.1325	606.73
68.1470	593.18
68.1614	625.25
68.1758	600.84
68.1903	608.43
68.2047	569.43
68.2192	578.25
68.2336	578.08
68.2480	594.04
68.2625	587.52
68.2769	576.24
68.2914	592.64
68.3058	602.77
68.3202	560.66
68.3347	566.55
68.3491	594.61
68.3636	596.23
68.3780	558.79
68.3924	589.19
68.4069	582.50
68.4213	605.80
68.4358	578.52
68.4502	555.56
68.4646	545.96
68.4791	574.87
68.4935	582.59
68.5080	556.13
68.5224	620.54
68.5368	607.17
68.5513	614.95
68.5657	605.99
68.5802	536.92
68.5946	591.90
68.6090	590.78
68.6235	557.71
68.6379	571.59
68.6524	588.41
68.6668	599.71
68.6812	582.70
68.6957	559.58
68.7101	577.94
68.7246	603.16
68.7390	564.90
68.7534	601.90
68.7679	552.43
68.7823	557.20
68.7968	592.89
68.8112	619.99
68.8256	596.22
68.8401	603.20
68.8545	599.05
68.8690	605.90
68.8834	541.20
68.8978	580.36
68.9123	605.13
68.9267	551.45
68.9412	601.84
68.9556	557.38
68.9700	531.92
68.9845	555.33
68.9989	602.05
69.0134	582.26
69.0278	571.58
69.0422	553.05
69.0567	579.01
69.0711	622.06
69.0856	591.46
69.1000	591.38
69.1144	559.95
69.1289	558.39
69.1433	556.60
69.1578	554.25
69.1722	575.47
69.1866	631.11
69.2011	593.15
69.2155	596.42
69.2300	576.78
69.2444	588.33
69.2588	554.58
69.2733	521.79
69.2877	519.00
69.3022	604.41
69.3166	550.87
69.3310	567.25
69.3455	548.33
69.3599	547.31
69.3744	566.93
69.3888	578.97
69.4032	570.65
69.4177	540.28
69.4321	620.64
69.4466	581.01
69.4610	572.08
69.4754	591.81
69.4899	584.15
69.5043	546.02
69.5188	573.48
69.5332	564.28
69.5476	566.29
69.5621	594.36
69.5765	565.52
69.5910	576.45
69.6054	595.26
69.6198	586.85
69.6343	599.77
69.6487	566.42
69.6632	603.83
69.6776	554.35
69.6920	564.74
69.7065	607.39
69.7209	563.77
69.7354	570.26
69.7498	582.07
69.7642	575.12
69.7787	587.57
69.7931	580.75
69.8076	639.91
69.8220	559.02
69.8364	610.10
69.8509	580.57
69.8653	576.79
69.8798	567.49
69.8942	601.37
69.9086	528.81
69.9231	636.86
69.9375	640.82
69.9520	613.65
69.9664	625.12
69.9808	566.53
69.9953	582.24
70.0097	587.73
70.0242	570.87
70.0386	582.09
70.0530	567.06
70.0675	551.79
70.0819	563.10
70.0964	579.01
70.1108	601.26
70.1252	610.06
70.1397	540.45
70.1541	534.49
70.1686	583.10
70.1830	569.88
70.1974	600.17
70.2119	567.18
70.2263	526.79
70.2408	608.72
70.2552	553.61
70.2696	561.95
70.2841	545.42
70.2985	585.12
70.3130	589.43
70.3274	579.65
70.3418	592.51
70.3563	646.08
70.3707	592.42
70.3852	569.38
70.3996	567.09
70.4140	542.29
70.4285	630.88
70.4429	581.58
70.4574	557.62
70.4718	570.86
70.4862	567.53
70.5007	603.13
70.5151	623.22
70.5296	592.23
70.5440	581.45
70.5584	559.43
70.5729	636.92
70.5873	534.00
70.6018	546.60
70.6162	537.19
70.6306	603.18
70.6451	603.93
70.6595	569.03
70.6740	648.47
70.6884	595.29
70.7028	594.50
70.7173	594.57
70.7317	599.64
70.7462	584.17
70.7606	571.04
70.7750	591.70
70.7895	615.87
70.8039	605.21
70.8184	568.54
70.8328	561.52
70.8472	537.39
70.8617	549.20
70.8761	557.08
70.8906	582.79
70.9050	592.98
70.9194	599.28
70.9339	623.90
70.9483	642.11
70.9628	598.02
70.9772	630.48
70.9916	642.30
71.0061	605.63
71.0205	560.65
71.0350	581.96
71.0494	555.27
71.0638	568.75
71.0783	575.95
71.0927	621.94
71.1072	622.11
71.1216	612.96
71.1361	570.19
71.1505	534.65
71.1649	558.06
71.1794	601.18
71.1938	582.02
71.2083	580.51
71.2227	573.59
71.2371	571.27
71.2516	572.74
71.2660	576.88
71.2805	586.12
71.2949	580.35
71.3093	580.98
71.3238	557.41
71.3382	605.68
71.3527	583.50
71.3671	524.35
71.3815	540.85
71.3960	553.15
71.4104	590.09
71.4249	625.62
71.4393	625.12
71.4537	592.89
71.4682	584.29
71.4826	576.66
71.4971	650.37
71.5115	636.31
71.5259	583.68
71.5404	545.16
71.5548	620.05
71.5693	583.50
71.5837	509.31
71.5981	549.66
71.6126	539.45
71.6270	518.26
71.6415	560.61
71.6559	574.03
71.6703	553.40
71.6848	573.69
71.6992	573.41
71.7137	523.70
71.7281	524.21
71.7425	567.77
71.7570	554.50
71.7714	536.07
71.7859	561.00
71.8003	635.64
71.8147	576.90
71.8292	565.54
71.8436	570.08
71.8581	577.79
71.8725	591.98
71.8869	536.80
71.9014	629.36
71.9158	585.07
71.9303	538.31
71.9447	552.86
71.9591	548.82
71.9736	571.91
71.9880	565.95
72.0025	533.20
72.0169	556.18
72.0313	608.64
72.0458	590.27
72.0602	519.04
72.0747	552.09
72.0891	593.50
72.1035	640.13
72.1180	597.73
72.1324	555.42
72.1469	540.00
72.1613	545.05
72.1757	558.23
72.1902	563.70
72.2046	611.05
72.2191	618.70
72.2335	591.42
72.2479	502.88
72.2624	528.17
72.2768	658.56
72.2913	581.25
72.3057	512.21
72.3201	526.71
72.3346	565.99
72.3490	560.58
72.3635	451.64
72.3779	537.59
72.3923	635.85
72.4068	564.91
72.4212	608.05
72.4357	662.66
72.4501	656.41
72.4645	644.34
72.4790	637.89
72.4934	521.78
72.5079	456.46
72.5223	530.15
72.5367	518.65
72.5512	551.60
72.5656	574.52
72.5801	521.00
72.5945	515.25
72.6089	514.17
72.6234	536.27
72.6378	586.94
72.6523	628.11
72.6667	638.35
72.6811	593.99
72.6956	543.10
72.7100	514.54
72.7245	501.22
72.7389	553.88
72.7533	529.46
72.7678	554.24
72.7822	547.60
72.7967	611.67
72.8111	659.67
72.8255	575.52
72.8400	531.65
72.8544	575.55
72.8689	607.25
72.8833	599.15

Result vector
22.1120	578.65
22.1264	572.59
22.1409	621.69
22.1553	534.75
22.1697	605.74
22.1842	606.95
22.1986	549.03
22.2131	568.18
22.2275	622.63
22.2419	546.70
22.2564	531.05
22.2708	609.20
22.2853	604.64
22.2997	633.74
22.3141	611.87
22.3286	595.82
22.3430	622.64
22.3575	637.61
22.3719	647.12
22.3863	604.64
22.4008	636.82
22.4152	664.85
22.4297	719.61
22.4441	622.25
22.4585	597.34
22.4730	615.65
22.4874	685.69
22.5019	515.17
22.5163	599.27
22.5307	568.29
22.5452	535.86
22.5596	617.02
22.5741	668.19
22.5885	584.19
22.6029	617.17
22.6174	602.06
22.6318	538.07
22.6463	650.13
22.6607	631.02
22.6751	553.10
22.6896	640.57
22.7040	634.58
22.7185	488.41
22.7329	544.05
22.7473	501.26
22.7618	565.86
22.7762	534.14
22.7907	616.82
22.8051	650.48
22.8195	696.56
22.8340	564.78
22.8484	549.63
22.8629	632.49
22.8773	557.57
22.8917	465.93
22.9062	570.78
22.9206	611.09
22.9351	556.45
22.9495	554.76
22.9639	609.68
22.9784	568.33
22.9928	515.69
23.0073	575.24
23.0217	574.60
23.0361	585.13
23.0506	501.41
23.0650	623.65
23.0795	550.20
23.0939	590.41
23.1083	580.80
23.1228	588.13
23.1372	554.90
23.1517	585.55
23.1661	654.97
23.1806	615.26
23.1950	577.34
23.2094	578.90
23.2239	550.48
23.2383	561.07
23.2528	565.18
23.2672	528.02
23.2816	588.74
23.2961	499.75
23.3105	513.65
23.3250	552.71
23.3394	579.86
23.3538	565.17
23.3683	621.84
23.3827	623.19
23.3972	564.35
23.4116	552.37
23.4260	602.42
23.4405	528.95
23.4549	518.40
23.4694	621.10
23.4838	505.27
23.4982	562.47
23.5127	581.96
23.5271	525.59
23.5416	577.03
23.5560	549.25
23.5704	517.73
23.5849	570.67
23.5993	569.74
23.6138	513.17
23.6282	527.17
23.6426	561.81
23.6571	433.41
23.6715	552.84
23.6860	562.37
23.7004	564.47
23.7148	568.42
23.7293	551.59
23.7437	502.39
23.7582	561.52
23.7726	554.75
23.7870	598.86
23.8015	560.32
23.8159	602.97
23.8304	606.66
23.8448	584.11
23.8592	586.87
23.8737	529.88
23.8881	570.69
23.9026	539.75
23.9170	580.52
23.9314	589.49
23.9459	563.85
23.9603	585.84
23.9748	582.18
23.9892	511.12
24.0036	587.55
24.0181	543.82
24.0325	559.98
24.0470	546.26
24.0614	573.76
24.0758	547.33
24.0903	576.38
24.1047	556.33
24.1192	544.08
24.1336	594.71
24.1480	510.72
24.1625	560.29
24.1769	582.07
24.1914	595.14
24.2058	593.29
24.2202	591.00
24.2347	615.57
24.2491	584.79
24.2636	537.62
24.2780	589.83
24.2924	563.49
24.3069	603.58
24.3213	547.59
24.3358	537.25
24.3502	536.89
24.3646	469.64
24.3791	562.94
24.3935	589.37
24.4080	508.39
24.4224	524.62
24.4368	529.01
24.4513	469.87
24.4657	522.78
24.4802	521.13
24.4946	612.00
24.5090	603.01
24.5235	550.90
24.5379	505.86
24.5524	549.67
24.5668	587.32
24.5812	599.87
24.5957	556.38
24.6101	569.41
24.6246	564.39
24.6390	587.10
24.6534	598.75
24.6679	514.20
24.6823	505.11
24.6968	552.63
24.7112	572.75
24.7256	553.30
24.7401	556.09
24.7545	574.06
24.7690	531.76
24.7834	515.21
24.7978	488.57
24.8123	497.51
24.8267	539.42
24.8412	528.13
24.8556	560.91
24.8700	571.56
24.8845	570.10
24.8989	575.47
24.9134	519.21
24.9278	556.84
24.9422	556.06
24.9567	575.63
24.9711	546.00
24.9856	572.20
25.0000	535.50
25.0144	584.09
25.0289	552.84
25.0433	541.95
25.0578	535.88
25.0722	554.15
25.0866	563.70
25.1011	545.73
25.1155	571.21
25.1300	550.15
25.1444	511.18
25.1588	554.94
25.1733	523.41
25.1877	546.37
25.2022	539.77
25.2166	540.87
25.2310	540.70
25.2455	560.18
25.2599	519.27
25.2744	511.30
25.2888	546.59
25.3032	529.02
25.3177	532.42
25.3321	503.54
25.3466	551.98
25.3610	543.51
25.3754	524.55
25.3899	567.75
25.4043	503.12
25.4188	538.52
25.4332	547.76
25.4476	572.90
25.4621	502.69
25.4765	568.18
25.4910	563.25
25.5054	533.07
25.5198	518.57
25.5343	571.62
25.5487	536.56
25.5632	567.52
25.5776	569.88
25.5920	519.38
25.6065	557.01
25.6209	534.24
25.6354	549.28
25.6498	588.95
25.6642	544.43
25.6787	513.10
25.6931	522.46
25.7076	522.57
25.7220	494.23
25.7364	525.35
25.7509	540.88
25.7653	546.34
25.7798	507.13
25.7942	496.91
25.8086	512.36
25.8231	557.50
25.8375	558.70
25.8520	527.58
25.8664	574.58
25.8808	563.91
25.8953	549.34
25.9097	550.40
25.9242	520.93
25.9386	537.54
25.9530	525.52
25.9675	558.23
25.9819	575.50
25.9964	529.72
26.0108	597.61
26.0252	591.83
26.0397	533.38
26.0541	511.13
26.0686	544.84
26.0830	541.73
26.0974	538.06
26.1119	546.86
26.1263	579.46
26.1408	534.55
26.1552	529.13
26.1696	537.23
26.1841	563.61
26.1985	536.94
26.2130	539.41
26.2274	490.38
26.2418	531.05
26.2563	524.78
26.2707	521.38
26.2852	500.06
26.2996	498.26
26.3140	527.74
26.3285	564.26
26.3429	560.87
26.3574	536.12
26.3718	497.04
26.3862	522.15
26.4007	527.02
26.4151	532.82
26.4296	535.86
26.4440	561.03
26.4584	554.46
26.4729	566.62
26.4873	530.87
26.5018	533.37
26.5162	526.12
26.5306	513.88
26.5451	541.28
26.5595	555.63
26.5740	533.13
26.5884	548.30
26.6028	549.73
26.6173	514.61
26.6317	546.49
26.6462	537.71
26.6606	519.93
26.6750	506.55
26.6895	540.87
26.7039	546.30
26.7184	549.56
26.7328	498.32
26.7472	507.81
26.7617	536.05
26.7761	494.31
26.7906	491.35
26.8050	525.25
26.8194	492.76
26.8339	513.39
26.8483	536.38
26.8628	551.66
26.8772	525.74
26.8917	542.76
26.9061	531.84
26.9205	514.27
26.9350	531.67
26.9494	531.42
26.9639	540.83
26.9783	532.06
26.9927	557.43
27.0072	548.08
27.0216	517.75
27.0361	508.01
27.0505	508.78
27.0649	530.55
27.0794	527.65
27.0938	528.16
27.1083	531.09
27.1227	557.56
27.1371	491.39
27.1516	523.05
27.1660	534.80
27.1805	513.83
27.1949	544.13
27.2093	518.57
27.2238	513.48
27.2382	524.87
27.2527	506.40
27.2671	500.96
27.2815	536.88
27.2960	514.90
27.3104	546.13
27.3249	526.03
27.3393	545.81
27.3537	545.62
27.3682	520.71
27.3826	470.85
27.3971	487.04
27.4115	500.51
27.4259	529.84
27.4404	541.04
27.4548	513.42
27.4693	527.59
27.4837	530.72
27.4981	514.41
27.5126	490.95
27.5270	519.06
27.5415	501.43
27.5559	526.52
27.5703	549.46
27.5848	500.37
27.5992	489.86
27.6137	522.82
27.6281	522.89
27.6425	516.67
27.6570	503.33
27.6714	491.35
27.6859	501.61
27.7003	538.29
27.7147	560.18
27.7292	545.95
27.7436	533.63
27.7581	523.34
27.7725	495.48
27.7869	505.54
27.8014	498.84
27.8158	515.33
27.8303	529.02
27.8447	539.13
27.8591	524.27
27.8736	528.78
27.8880	496.06
27.9025	544.10
27.9169	527.90
27.9313	517.62
27.9458	514.42
27.9602	513.39
27.9747	508.55
27.9891	508.54
28.0035	515.52
28.0180	526.43
28.0324	544.69
28.0469	516.26
28.0613	528.20
28.0757	519.80
28.0902	520.25
28.1046	496.88
28.1191	543.36
28.1335	511.65
28.1479	504.39
28.1624	519.09
28.1768	524.43
28.1913	540.10
28.2057	516.24
28.2201	513.30
28.2346	527.98
28.2490	507.18
28.2635	510.66
28.2779	484.55
28.2923	491.82
28.3068	504.84
28.3212	488.80
28.3357	517.41
28.3501	504.61
28.3645	510.29
28.3790	513.14
28.3934	549.09
28.4079	510.44
28.4223	535.80
28.4367	538.88
28.4512	514.01
28.4656	511.53
28.4801	507.14
28.4945	549.11
28.5089	508.89
28.5234	536.78
28.5378	521.63
28.5523	524.63
28.5667	512.64
28.5811	504.78
28.5956	504.03
28.6100	477.71
28.6245	513.72
28.6389	528.13
28.6533	509.21
28.6678	519.61
28.6822	533.28
28.6967	534.50
28.7111	529.66
28.7255	507.80
28.7400	502.05
28.7544	536.68
28.7689	483.37
28.7833	468.20
28.7977	492.25
28.8122	496.70
28.8266	491.15
28.8411	522.97
28.8555	504.69
28.8699	496.23
28.8844	545.12
28.8988	514.16
28.9133	504.01
28.9277	481.06
28.9421	514.70
28.9566	518.65
28.9710	494.90
28.9855	504.12
28.9999	493.30
29.0143	501.27
29.0288	492.55
29.0432	529.43
29.0577	521.74
29.0721	498.06
29.0865	528.22
29.1010	503.57
29.1154	542.88
29.1299	491.94
29.1443	477.11
29.1587	498.65
29.1732	507.14
29.1876	465.22
29.2021	470.27
29.2165	501.87
29.2309	470.07
29.2454	536.88
29.2598	469.81
29.2743	506.03
29.2887	540.04
29.3031	502.27
29.3176	532.86
29.3320	522.15
29.3465	546.84
29.3609	478.09
29.3753	504.35
29.3898	513.51
29.4042	544.79
29.4187	541.41
29.4331	504.51
29.4475	546.42
29.4620	517.73
29.4764	519.65
29.4909	529.95
29.5053	521.59
29.5197	497.95
29.5342	511.46
29.5486	533.43
29.5631	505.14
29.5775	503.81
29.5919	520.20
29.6064	514.73
29.6208	503.99
29.6353	555.33
29.6497	537.67
29.6641	521.32
29.6786	501.13
29.6930	510.01
29.7075	533.82
29.7219	497.27
29.7363	502.51
29.7508	509.65
29.7652	521.78
29.7797	530.64
29.7941	504.74
29.8085	524.13
29.8230	530.61
29.8374	515.00
29.8519	520.24
29.8663	489.54
29.8807	521.88
29.8952	520.35
29.9096	494.81
29.9241	536.95
29.9385	519.87
29.9529	462.02
29.9674	507.79
29.9818	490.86
29.9963	503.53
30.0107	516.00
30.0251	538.17
30.0396	525.52
30.0540	525.97
30.0685	498.28
30.0829	512.05
30.0973	503.70
30.1118	510.59
30.1262	487.43
30.1407	507.82
30.1551	510.48
30.1695	513.17
30.1840	495.52
30.1984	531.26
30.2129	517.66
30.2273	503.77
30.2417	481.11
30.2562	484.63
30.2706	512.38
30.2851	531.43
30.2995	499.95
30.3139	489.11
30.3284	500.35
30.3428	509.21
30.3573	510.36
30.3717	535.91
30.3861	472.43
30.4006	491.82
30.4150	466.47
30.4295	467.43
30.4439	500.34
30.4583	525.11
30.4728	515.75
30.4872	495.69
30.5017	510.25
30.5161	497.98
30.5305	511.67
30.5450	543.63
30.5594	505.24
30.5739	493.09
30.5883	506.29
30.6028	505.88
30.6172	526.53
30.6316	525.07
30.6461	510.26
30.6605	494.34
30.6750	495.33
30.6894	531.74
30.7038	538.54
30.7183	528.23
30.7327	532.08
30.7472	555.76
30.7616	556.74
30.7760	567.79
30.7905	570.06
30.8049	575.81
30.8194	599.54
30.8338	590.97
30.8482	619.25
30.8627	627.97
30.8771	640.61
30.8916	664.27
30.9060	701.80
30.9204	662.80
30.9349	643.72
30.9493	674.80
30.9638	681.99
30.9782	688.55
30.9926	667.45
31.0071	640.00
31.0215	644.94
31.0360	603.32
31.0504	621.52
31.0648	616.22
31.0793	590.60
31.0937	623.19
31.1082	603.93
31.1226	557.29
31.1370	535.51
31.1515	550.26
31.1659	555.43
31.1804	553.58
31.1948	539.26
31.2092	522.08
31.2237	550.86
31.2381	550.22
31.2526	524.76
31.2670	565.40
31.2814	538.84
31.2959	514.74
31.3103	556.10
31.3248	536.14
31.3392	508.01
31.3536	541.88
31.3681	542.74
31.3825	523.39
31.3970	536.65
31.4114	503.75
31.4258	528.18
31.4403	511.79
31.4547	516.25
31.4692	501.75
31.4836	534.42
31.4980	532.26
31.5125	513.72
31.5269	481.04
31.5414	514.07
31.5558	528.15
31.5702	494.73
31.5847	522.89
31.5991	508.20
31.6136	508.75
31.6280	512.85
31.6424	508.08
31.6569	516.67
31.6713	540.77
31.6858	516.97
31.7002	512.29
31.7146	523.03
31.7291	519.61
31.7435	494.05
31.7580	530.99
31.7724	519.37
31.7868	536.01
31.8013	517.09
31.8157	515.84
31.8302	530.34
31.8446	537.17
31.8590	523.51
31.8735	508.05
31.8879	482.34
31.9024	541.13
31.9168	543.35
31.9312	512.88
31.9457	544.10
31.9601	506.07
31.9746	490.61
31.9890	481.34
32.0034	516.48
32.0179	493.01
32.0323	515.93
32.0468	542.38
32.0612	530.17
32.0756	510.98
32.0901	523.02
32.1045	533.34
32.1190	505.86
32.1334	498.72
32.1478	491.27
32.1623	504.27
32.1767	506.75
32.1912	486.46
32.2056	480.88
32.2200	493.17
32.2345	492.12
32.2489	484.25
32.2634	474.77
32.2778	511.61
32.2922	529.03
32.3067	542.24
32.3211	513.20
32.3356	510.98
32.3500	503.63
32.3644	494.93
32.3789	478.10
32.3933	485.66
32.4078	478.42
32.4222	515.18
32.4366	529.90
32.4511	476.05
32.4655	529.65
32.4800	478.44
32.4944	497.18
32.5088	494.43
32.5233	497.51
32.5377	480.31
32.5522	483.39
32.5666	518.12
32.5810	506.58
32.5955	522.57
32.6099	508.63
32.6244	523.30
32.6388	516.26
32.6532	509.87
32.6677	519.67
32.6821	497.79
32.6966	492.78
32.7110	527.82
32.7254	525.47
32.7399	493.91
32.7543	520.98
32.7688	531.09
32.7832	555.18
32.7976	512.75
32.8121	523.22
32.8265	527.50
32.8410	511.53
32.8554	527.17
32.8698	550.22
32.8843	501.74
32.8987	531.51
32.9132	492.74
32.9276	533.07
32.9420	505.52
32.9565	531.56
32.9709	488.35
32.9854	485.14
32.9998	493.72
33.0142	509.07
33.0287	503.56
33.0431	513.44
33.0576	477.13
33.0720	518.44
33.0864	523.63
33.1009	508.17
33.1153	513.44
33.1298	509.33
33.1442	470.65
33.1586	481.87
33.1731	508.80
33.1875	512.75
33.2020	504.09
33.2164	472.62
33.2308	489.15
33.2453	481.81
33.2597	534.47
33.2742	515.56
33.2886	536.96
33.3030	498.20
33.3175	499.62
33.3319	509.91
33.3464	521.38
33.3608	526.40
33.3752	493.82
33.3897	492.74
33.4041	509.48
33.4186	509.88
33.4330	494.93
33.4474	500.25
33.4619	512.91
33.4763	514.01
33.4908	544.31
33.5052	505.25
33.5196	487.43
33.5341	502.85
33.5485	486.23
33.5630	478.96
33.5774	480.97
33.5918	495.59
33.6063	494.54
33.6207	510.18
33.6352	518.46
33.6496	517.22
33.6640	509.36
33.6785	478.57
33.6929	494.53
33.7074	528.05
33.7218	500.42
33.7362	463.69
33.7507	495.97
33.7651	498.46
33.7796	496.55
33.7940	488.33
33.8084	522.22
33.8229	548.32
33.8373	519.38
33.8518	509.71
33.8662	529.61
33.8806	502.12
33.8951	522.51
33.9095	513.46
33.9240	506.82
33.9384	526.89
33.9528	517.11
33.9673	472.23
33.9817	516.61
33.9962	485.85
34.0106	491.55
34.0250	557.87
34.0395	518.60
34.0539	502.31
34.0684	518.46
34.0828	519.61
34.0972	530.20
34.1117	515.83
34.1261	492.02
34.1406	476.17
34.1550	505.96
34.1694	526.58
34.1839	504.70
34.1983	527.68
34.2128	533.70
34.2272	504.57
34.2417	517.54
34.2561	507.01
34.2705	496.34
34.2850	521.25
34.2994	489.90
34.3139	473.42
34.3283	533.77
34.3427	514.22
34.3572	478.74
34.3716	498.32
34.3861	519.72
34.4005	509.03
34.4149	508.93
34.4294	518.58
34.4438	494.56
34.4583	487.57
34.4727	491.76
34.4871	502.51
34.5016	499.62
34.5160	505.17
34.5305	538.18
34.5449	534.74
34.5593	508.03
34.5738	475.27
34.5882	499.02
34.6027	578.72
34.6171	499.95
34.6315	481.73
34.6460	513.97
34.6604	531.25
34.6749	491.80
34.6893	492.29
34.7037	495.59
34.7182	507.94
34.7326	504.43
34.7471	528.56
34.7615	493.80
34.7759	517.17
34.7904	509.46
34.8048	498.32
34.8193	518.95
34.8337	496.48
34.8481	499.31
34.8626	506.72
34.8770	521.10
34.8915	494.12
34.9059	502.89
34.9203	501.34
34.9348	521.20
34.9492	546.84
34.9637	496.72
34.9781	523.86
34.9925	503.26
35.0070	513.66
35.0214	505.21
35.0359	499.00
35.0503	491.54
35.0647	510.48
35.0792	506.31
35.0936	504.89
35.1081	532.89
35.1225	521.73
35.1369	512.99
35.1514	524.67
35.1658	541.32
35.1803	556.60
35.1947	522.74
35.2091	522.83
35.2236	489.48
35.2380	510.71
35.2525	512.39
35.2669	510.73
35.2813	515.73
35.2958	501.50
35.3102	532.15
35.3247	540.77
35.3391	517.01
35.3535	519.25
35.3680	498.09
35.3824	521.07
35.3969	539.69
35.4113	507.06
35.4257	522.60
35.4402	539.07
35.4546	509.12
35.4691	517.57
35.4835	495.28
35.4979	514.17
35.5124	527.68
35.5268	506.12
35.5413	525.24
35.5557	552.27
35.5701	540.46
35.5846	536.13
35.5990	548.83
35.6135	503.98
35.6279	516.30
35.6423	513.05
35.6568	493.20
35.6712	535.26
35.6857	595.95
35.7001	690.82
35.7145	726.81
35.7290	649.38
35.7434	592.02
35.7579	552.75
35.7723	565.83
35.7867	609.53
35.8012	644.76
35.8156	648.44
35.8301	615.10
35.8445	599.52
35.8589	635.05
35.8734	702.30
35.8878	848.49
35.9023	970.98
35.9167	1095.04
35.9311	1512.88
35.9456	2332.09
35.9600	2387.57
35.9745	1843.02
35.9889	1873.15
36.0033	2379.86
36.0178	2453.83
36.0322	2069.09
36.0467	1830.31
36.0611	1626.96
36.0755	1524.57
36.0900	1493.34
36.1044	1229.93
36.1189	1303.14
36.1333	1193.89
36.1477	997.60
36.1622	991.62
36.1766	934.12
36.1911	882.20
36.2055	707.94
36.2199	732.09
36.2344	681.84
36.2488	737.23
36.2633	679.96
36.2777	698.01
36.2921	708.60
36.3066	743.41
36.3210	776.19
36.3355	797.50
36.3499	836.78
36.3643	864.06
36.3788	889.60
36.3932	888.44
36.4077	895.92
36.4221	946.29
36.4365	976.81
36.4510	968.50
36.4654	957.59
36.4799	944.49
36.4943	901.07
36.5087	834.96
36.5232	829.95
36.5376	785.26
36.5521	757.65
36.5665	748.34
36.5809	733.40
36.5954	682.72
36.6098	652.12
36.6243	648.19
36.6387	633.95
36.6531	645.60
36.6676	598.50
36.6820	599.14
36.6965	580.63
36.7109	573.43
36.7253	569.52
36.7398	574.61
36.7542	581.48
36.7687	575.07
36.7831	570.70
36.7975	518.75
36.8120	582.68
36.8264	603.78
36.8409	625.94
36.8553	613.16
36.8697	597.31
36.8842	598.75
36.8986	632.13
36.9131	607.45
36.9275	606.53
36.9419	616.88
36.9564	553.33
36.9708	550.86
36.9853	527.84
36.9997	552.60
37.0141	585.74
37.0286	565.76
37.0430	516.41
37.0575	511.82
37.0719	547.91
37.0863	531.97
37.1008	516.06
37.1152	512.66
37.1297	530.71
37.1441	492.10
37.1585	524.64
37.1730	487.93
37.1874	501.49
37.2019	496.26
37.2163	484.86
37.2307	499.12
37.2452	486.95
37.2596	498.62
37.2741	492.62
37.2885	523.72
37.3029	508.42
37.3174	518.60
37.3318	498.92
37.3463	530.26
37.3607	518.69
37.3751	518.80
37.3896	496.88
37.4040	470.65
37.4185	490.66
37.4329	501.19
37.4473	490.98
37.4618	481.43
37.4762	490.46
37.4907	533.30
37.5051	522.35
37.5195	487.70
37.5340	473.62
37.5484	492.32
37.5629	512.33
37.5773	492.90
37.5917	484.97
37.6062	491.73
37.6206	477.73
37.6351	511.96
37.6495	485.61
37.6639	491.92
37.6784	483.43
37.6928	503.10
37.7073	519.55
37.7217	500.66
37.7361	492.86
37.7506	518.95
37.7650	535.41
37.7795	530.10
37.7939	537.59
37.8083	524.64
37.8228	517.50
37.8372	489.12
37.8517	499.37
37.8661	522.79
37.8805	521.24
37.8950	517.87
37.9094	541.26
37.9239	499.56
37.9383	495.91
37.9528	487.66
37.9672	485.89
37.9816	500.49
37.9961	520.96
38.0105	524.08
38.0250	575.62
38.0394	487.83
38.0538	500.36
38.0683	572.10
38.0827	520.54
38.0972	512.19
38.1116	521.90
38.1260	557.01
38.1405	505.99
38.1549	494.11
38.1694	498.91
38.1838	473.25
38.1982	474.15
38.2127	497.11
38.2271	532.60
38.2416	492.93
38.2560	487.58
38.2704	530.03
38.2849	536.51
38.2993	507.37
38.3138	518.43
38.3282	552.63
38.3426	541.38
38.3571	522.70
38.3715	543.32
38.3860	514.17
38.4004	534.71
38.4148	559.45
38.4293	559.53
38.4437	564.67
38.4582	585.74
38.4726	650.34
38.4870	677.45
38.5015	721.56
38.5159	766.36
38.5304	817.90
38.5448	799.71
38.5592	831.14
38.5737	758.31
38.5881	733.14
38.6026	733.23
38.6170	699.01
38.6314	692.23
38.6459	680.00
38.6603	607.81
38.6748	591.31
38.6892	589.14
38.7036	537.91
38.7181	538.58
38.7325	531.98
38.7470	521.56
38.7614	512.18
38.7758	505.08
38.7903	510.53
38.8047	528.98
38.8192	514.20
38.8336	563.66
38.8480	544.83
38.8625	558.85
38.8769	566.89
38.8914	513.46
38.9058	511.53
38.9202	537.36
38.9347	531.49
38.9491	522.61
38.9636	507.14
38.9780	489.04
38.9924	477.48
39.0069	509.72
39.0213	519.09
39.0358	533.45
39.0502	516.32
39.0646	486.82
39.0791	494.49
39.0935	504.68
39.1080	520.43
39.1224	513.84
39.1368	494.82
39.1513	501.77
39.1657	494.12
39.1802	496.59
39.1946	486.29
39.2090	490.09
39.2235	502.46
39.2379	485.83
39.2524	511.95
39.2668	496.91
39.2812	533.84
39.2957	521.31
39.3101	542.33
39.3246	529.36
39.3390	501.78
39.3534	511.57
39.3679	511.32
39.3823	502.24
39.3968	520.13
39.4112	513.93
39.4256	516.07
39.4401	509.36
39.4545	538.39
39.4690	505.59
39.4834	469.52
39.4978	484.45
39.5123	503.33
39.5267	523.53
39.5412	508.08
39.5556	492.10
39.5700	487.13
39.5845	484.84
39.5989	492.86
39.6134	501.60
39.6278	497.01
39.6422	526.05
39.6567	533.83
39.6711	512.27
39.6856	487.18
39.7000	491.73
39.7144	519.83
39.7289	516.72
39.7433	499.15
39.7578	503.08
39.7722	465.44
39.7866	506.15
39.8011	504.16
39.8155	483.10
39.8300	495.25
39.8444	526.48
39.8588	515.83
39.8733	492.88
39.8877	516.65
39.9022	535.07
39.9166	515.94
39.9310	516.61
39.9455	487.30
39.9599	496.05
39.9744	544.88
39.9888	518.87
40.0032	499.57
40.0177	521.30
40.0321	530.38
40.0466	524.26
40.0610	487.94
40.0754	500.77
40.0899	504.07
40.1043	500.82
40.1188	476.59
40.1332	493.98
40.1476	484.17
40.1621	507.88
40.1765	482.00
40.1910	488.51
40.2054	491.85
40.2198	527.05
40.2343	487.32
40.2487	524.88
40.2632	499.59
40.2776	512.12
40.2920	469.50
40.3065	498.92
40.3209	491.42
40.3354	495.40
40.3498	472.44
40.3642	496.47
40.3787	496.67
40.3931	502.04
40.4076	498.86
40.4220	515.21
40.4364	501.66
40.4509	508.22
40.4653	509.51
40.4798	509.93
40.4942	487.46
40.5086	488.04
40.5231	494.42
40.5375	487.60
40.5520	471.15
40.5664	490.18
40.5808	497.15
40.5953	520.61
40.6097	476.58
40.6242	506.05
40.6386	519.45
40.6530	490.54
40.6675	509.36
40.6819	474.94
40.6964	471.24
40.7108	536.36
40.7252	506.76
40.7397	488.35
40.7541	465.14
40.7686	473.38
40.7830	520.45
40.7974	494.49
40.8119	493.13
40.8263	506.16
40.8408	485.73
40.8552	481.13
40.8696	485.79
40.8841	514.04
40.8985	501.42
40.9130	492.64
40.9274	499.63
40.9418	496.33
40.9563	508.09
40.9707	476.52
40.9852	518.79
40.9996	491.72
41.0140	498.88
41.0285	494.87
41.0429	453.38
41.0574	529.22
41.0718	535.66
41.0862	528.55
41.1007	535.65
41.1151	507.54
41.1296	501.36
41.1440	470.95
41.1584	490.29
41.1729	518.61
41.1873	499.01
41.2018	490.74
41.2162	506.39
41.2306	529.70
41.2451	531.53
41.2595	500.40
41.2740	522.29
41.2884	492.39
41.3028	479.69
41.3173	473.48
41.3317	487.15
41.3462	481.07
41.3606	487.72
41.3750	499.84
41.3895	518.40
41.4039	513.78
41.4184	515.92
41.4328	537.46
41.4472	524.61
41.4617	520.07
41.4761	494.75
41.4906	493.83
41.5050	468.62
41.5194	498.13
41.5339	509.88
41.5483	530.92
41.5628	520.27
41.5772	490.26
41.5916	522.85
41.6061	526.27
41.6205	514.70
41.6350	476.09
41.6494	459.95
41.6639	497.99
41.6783	501.50
41.6927	492.65
41.7072	487.99
41.7216	493.05
41.7361	494.03
41.7505	492.81
41.7649	493.80
41.7794	513.31
41.7938	521.85
41.8083	516.92
41.8227	498.42
41.8371	516.88
41.8516	499.81
41.8660	533.57
41.8805	531.67
41.8949	543.04
41.9093	547.35
41.9238	541.28
41.9382	593.94
41.9527	590.75
41.9671	547.97
41.9815	562.26
41.9960	552.73
42.0104	536.15
42.0249	544.70
42.0393	562.50
42.0537	551.77
42.0682	550.48
42.0826	626.09
42.0971	594.46
42.1115	568.80
42.1259	585.81
42.1404	587.74
42.1548	617.01
42.1693	645.81
42.1837	697.10
42.1981	756.24
42.2126	864.30
42.2270	945.98
42.2415	1073.01
42.2559	1236.69
42.2703	1317.46
42.2848	1456.02
42.2992	1566.79
42.3137	1633.31
42.3281	1587.51
42.3425	1521.28
42.3570	1441.80
42.3714	1394.58
42.3859	1354.84
42.4003	1366.52
42.4147	1329.24
42.4292	1272.52
42.4436	1131.03
42.4581	1006.63
42.4725	924.43
42.4869	836.23
42.5014	768.85
42.5158	688.89
42.5303	679.23
42.5447	662.59
42.5591	607.66
42.5736	588.39
42.5880	550.47
42.6025	562.64
42.6169	558.71
42.6313	521.60
42.6458	546.21
42.6602	535.37
42.6747	548.12
42.6891	517.11
42.7035	505.14
42.7180	504.98
42.7324	527.48
42.7469	519.81
42.7613	497.88
42.7757	493.58
42.7902	504.18
42.8046	525.45
42.8191	509.44
42.8335	531.14
42.8479	526.50
42.8624	511.58
42.8768	515.83
42.8913	502.72
42.9057	517.28
42.9201	486.85
42.9346	521.25
42.9490	526.73
42.9635	487.34
42.9779	471.62
42.9923	519.71
43.0068	543.15
43.0212	511.20
43.0357	511.74
43.0501	527.69
43.0645	528.03
43.0790	518.38
43.0934	544.38
43.1079	522.83
43.1223	509.96
43.1367	517.98
43.1512	507.55
43.1656	546.74
43.1801	550.25
43.1945	517.02
43.2089	534.40
43.2234	531.30
43.2378	567.83
43.2523	540.37
43.2667	545.48
43.2811	553.47
43.2956	503.26
43.3100	488.90
43.3245	534.87
43.3389	553.08
43.3533	553.93
43.3678	533.51
43.3822	523.84
43.3967	518.27
43.4111	490.52
43.4255	506.58
43.4400	501.76
43.4544	500.17
43.4689	502.78
43.4833	522.59
43.4977	503.62
43.5122	477.66
43.5266	508.87
43.5411	509.74
43.5555	518.55
43.5699	498.36
43.5844	515.81
43.5988	508.87
43.6133	501.92
43.6277	516.03
43.6421	540.03
43.6566	507.15
43.6710	507.06
43.6855	493.04
43.6999	551.73
43.7143	545.74
43.7288	529.78
43.7432	503.51
43.7577	519.66
43.7721	482.92
43.7865	549.50
43.8010	544.59
43.8154	532.91
43.8299	529.42
43.8443	546.09
43.8587	560.59
43.8732	528.39
43.8876	503.32
43.9021	551.02
43.9165	526.70
43.9309	493.74
43.9454	551.92
43.9598	529.13
43.9743	518.93
43.9887	539.01
44.0031	547.34
44.0176	525.06
44.0320	492.37
44.0465	517.74
44.0609	514.19
44.0753	531.88
44.0898	569.35
44.1042	540.97
44.1187	533.05
44.1331	533.70
44.1475	500.60
44.1620	536.49
44.1764	548.32
44.1909	568.51
44.2053	597.46
44.2197	583.27
44.2342	575.87
44.2486	619.09
44.2631	620.27
44.2775	639.74
44.2919	576.31
44.3064	574.11
44.3208	620.24
44.3353	643.17
44.3497	635.12
44.3641	585.29
44.3786	638.49
44.3930	630.54
44.4075	569.04
44.4219	590.54
44.4363	626.52
44.4508	626.83
44.4652	647.47
44.4797	593.66
44.4941	579.59
44.5085	607.80
44.5230	579.49
44.5374	623.48
44.5519	593.93
44.5663	624.38
44.5807	586.74
44.5952	565.28
44.6096	565.42
44.6241	561.60
44.6385	592.37
44.6529	602.68
44.6674	578.92
44.6818	616.51
44.6963	642.52
44.7107	663.04
44.7251	688.03
44.7396	768.58
44.7540	848.18
44.7685	831.84
44.7829	853.72
44.7973	889.24
44.8118	860.86
44.8262	810.28
44.8407	796.40
44.8551	755.82
44.8695	729.00
44.8840	725.98
44.8984	769.69
44.9129	791.30
44.9273	705.25
44.9417	694.04
44.9562	605.60
44.9706	572.40
44.9851	568.73
44.9995	534.57
45.0139	553.41
45.0284	478.08
45.0428	520.85
45.0573	507.09
45.0717	488.99
45.0861	553.81
45.1006	489.41
45.1150	535.60
45.1295	539.76
45.1439	520.14
45.1583	486.76
45.1728	520.15
45.1872	521.56
45.2017	504.16
45.2161	508.41
45.2305	510.75
45.2450	505.81
45.2594	514.26
45.2739	498.47
45.2883	502.92
45.3028	495.12
45.3172	523.89
45.3316	483.51
45.3461	516.42
45.3605	539.50
45.3750	491.09
45.3894	490.79
45.4038	514.66
45.4183	516.20
45.4327	518.88
45.4472	494.50
45.4616	498.31
45.4760	499.97
45.4905	495.07
45.5049	522.97
45.5194	547.31
45.5338	542.24
45.5482	546.24
45.5627	488.91
45.5771	500.37
45.5916	505.08
45.6060	503.32
45.6204	479.57
45.6349	523.44
45.6493	493.40
45.6638	510.89
45.6782	508.96
45.6926	467.10
45.7071	528.74
45.7215	511.20
45.7360	517.31
45.7504	500.19
45.7648	508.82
45.7793	511.48
45.7937	480.20
45.8082	484.10
45.8226	515.62
45.8370	520.45
45.8515	506.39
45.8659	515.97
45.8804	520.82
45.8948	509.77
45.9092	486.48
45.9237	489.65
45.9381	509.20
45.9526	472.75
45.9670	506.21
45.9814	511.91
45.9959	477.44
46.0103	483.48
46.0248	500.53
46.0392	486.48
46.0536	480.42
46.0681	492.38
46.0825	496.85
46.0970	491.45
46.1114	498.36
46.1258	509.04
46.1403	509.53
46.1547	486.15
46.1692	497.42
46.1836	512.93
46.1980	488.26
46.2125	506.99
46.2269	505.31
46.2414	512.14
46.2558	513.83
46.2702	492.70
46.2847	498.82
46.2991	474.86
46.3136	487.89
46.3280	496.74
46.3424	476.03
46.3569	513.32
46.3713	519.71
46.3858	528.18
46.4002	517.94
46.4146	483.78
46.4291	522.11
46.4435	494.60
46.4580	507.92
46.4724	503.37
46.4868	498.76
46.5013	494.54
46.5157	488.25
46.5302	485.54
46.5446	522.16
46.5590	523.61
46.5735	509.24
46.5879	507.92
46.6024	480.12
46.6168	496.06
46.6312	494.74
46.6457	497.76
46.6601	520.60
46.6746	491.82
46.6890	464.97
46.7034	480.10
46.7179	485.88
46.7323	498.12
46.7468	502.77
46.7612	506.15
46.7756	506.91
46.7901	512.60
46.8045	491.27
46.8190	528.06
46.8334	523.50
46.8478	515.27
46.8623	511.27
46.8767	502.02
46.8912	502.72
46.9056	511.37
46.9200	507.42
46.9345	517.86
46.9489	517.00
46.9634	497.13
46.9778	482.45
46.9922	480.80
47.0067	497.80
47.0211	517.71
47.0356	509.61
47.0500	482.55
47.0644	495.08
47.0789	512.91
47.0933	521.89
47.1078	509.68
47.1222	515.77
47.1366	536.74
47.1511	456.26
47.1655	495.04
47.1800	485.09
47.1944	514.63
47.2088	507.93
47.2233	529.19
47.2377	508.85
47.2522	525.41
47.2666	502.66
47.2810	518.45
47.2955	522.96
47.3099	499.60
47.3244	485.05
47.3388	483.39
47.3532	494.02
47.3677	505.93
47.3821	496.55
47.3966	490.59
47.4110	485.09
47.4254	513.14
47.4399	500.28
47.4543	495.50
47.4688	499.77
47.4832	491.65
47.4976	483.43
47.5121	500.71
47.5265	510.41
47.5410	511.69
47.5554	506.79
47.5698	497.11
47.5843	491.79
47.5987	518.39
47.6132	523.85
47.6276	498.68
47.6420	523.94
47.6565	531.60
47.6709	506.53
47.6854	487.62
47.6998	532.09
47.7142	530.70
47.7287	506.79
47.7431	525.49
47.7576	503.36
47.7720	498.89
47.7864	495.45
47.8009	485.63
47.8153	525.09
47.8298	505.20
47.8442	503.89
47.8586	514.15
47.8731	532.70
47.8875	496.44
47.9020	511.22
47.9164	485.36
47.9308	486.68
47.9453	531.75
47.9597	545.89
47.9742	533.42
47.9886	500.57
48.0030	493.03
48.0175	494.40
48.0319	500.26
48.0464	513.69
48.0608	538.59
48.0752	508.24
48.0897	525.49
48.1041	515.94
48.1186	540.88
48.1330	524.29
48.1474	501.45
48.1619	517.28
48.1763	488.64
48.1908	455.55
48.2052	481.59
48.2196	501.24
48.2341	485.62
48.2485	505.66
48.2630	486.83
48.2774	522.13
48.2918	504.15
48.3063	503.37
48.3207	513.77
48.3352	557.08
48.3496	536.63
48.3640	489.49
48.3785	519.72
48.3929	501.36
48.4074	481.51
48.4218	521.71
48.4362	562.85
48.4507	525.08
48.4651	551.87
48.4796	507.77
48.4940	505.00
48.5084	525.08
48.5229	510.13
48.5373	546.00
48.5518	525.13
48.5662	519.53
48.5806	499.98
48.5951	531.77
48.6095	481.95
48.6240	552.73
48.6384	539.76
48.6528	522.08
48.6673	537.30
48.6817	512.99
48.6962	524.31
48.7106	532.84
48.7250	501.18
48.7395	521.00
48.7539	527.99
48.7684	518.04
48.7828	549.54
48.7972	547.65
48.8117	514.87
48.8261	500.29
48.8406	503.72
48.8550	545.71
48.8694	555.64
48.8839	525.69
48.8983	530.21
48.9128	538.90
48.9272	537.75
48.9416	545.70
48.9561	567.86
48.9705	604.10
48.9850	563.16
48.9994	568.92
49.0139	581.94
49.0283	627.91
49.0427	590.77
49.0572	608.15
49.0716	641.98
49.0861	691.90
49.1005	710.37
49.1149	739.88
49.1294	751.45
49.1438	744.57
49.1583	827.81
49.1727	853.37
49.1871	915.32
49.2016	956.77
49.2160	1063.11
49.2305	1081.02
49.2449	1208.28
49.2593	1305.31
49.2738	1411.98
49.2882	1451.24
49.3027	1645.49
49.3171	1652.63
49.3315	1725.31
49.3460	1779.06
49.3604	1790.28
49.3749	1839.63
49.3893	1836.33
49.4037	1822.93
49.4182	1769.96
49.4326	1790.71
49.4471	1620.85
49.4615	1632.49
49.4759	1640.86
49.4904	1502.41
49.5048	1424.96
49.5193	1302.33
49.5337	1324.49
49.5481	1198.26
49.5626	1092.21
49.5770	995.04
49.5915	974.90
49.6059	915.55
49.6203	857.75
49.6348	805.23
49.6492	831.64
49.6637	781.21
49.6781	741.12
49.6925	678.13
49.7070	705.20
49.7214	669.19
49.7359	645.19
49.7503	653.82
49.7647	582.20
49.7792	598.73
49.7936	590.80
49.8081	602.82
49.8225	562.00
49.8369	573.82
49.8514	555.39
49.8658	599.69
49.8803	527.58
49.8947	544.68
49.9091	548.00
49.9236	509.37
49.9380	527.58
49.9525	529.09
49.9669	516.86
49.9813	561.12
49.9958	532.11
50.0102	528.07
50.0247	563.97
50.0391	557.18
50.0535	534.02
50.0680	544.27
50.0824	490.71
50.0969	533.65
50.1113	511.01
50.1257	532.65
50.1402	529.61
50.1546	551.25
50.1691	557.94
50.1835	532.53
50.1979	497.06
50.2124	532.09
50.2268	510.55
50.2413	528.07
50.2557	515.59
50.2701	506.46
50.2846	525.58
50.2990	511.29
50.3135	529.38
50.3279	525.20
50.3423	510.52
50.3568	520.13
50.3712	514.35
50.3857	510.79
50.4001	504.45
50.4145	521.17
50.4290	519.08
50.4434	490.86
50.4579	506.84
50.4723	519.78
50.4867	517.16
50.5012	511.01
50.5156	494.49
50.5301	498.70
50.5445	509.70
50.5589	538.82
50.5734	530.95
50.5878	495.19
50.6023	495.94
50.6167	541.20
50.6311	532.06
50.6456	531.98
50.6600	498.62
50.6745	475.88
50.6889	513.62
50.7033	514.52
50.7178	521.08
50.7322	490.21
50.7467	515.74
50.7611	487.71
50.7755	475.47
50.7900	510.69
50.8044	520.18
50.8189	502.36
50.8333	484.62
50.8477	511.06
50.8622	533.41
50.8766	516.49
50.8911	515.37
50.9055	513.43
50.9199	516.51
50.9344	496.25
50.9488	512.71
50.9633	496.82
50.9777	528.77
50.9921	522.40
51.0066	500.39
51.0210	532.24
51.0355	515.60
51.0499	488.63
51.0643	520.84
51.0788	531.00
51.0932	506.53
51.1077	504.07
51.1221	536.32
51.1365	498.61
51.1510	473.50
51.1654	516.84
51.1799	503.14
51.1943	510.86
51.2087	511.01
51.2232	514.50
51.2376	502.41
51.2521	492.78
51.2665	458.31
51.2809	477.56
51.2954	494.68
51.3098	503.09
51.3243	514.38
51.3387	507.49
51.3531	498.66
51.3676	455.67
51.3820	475.51
51.3965	482.54
51.4109	511.79
51.4253	519.59
51.4398	496.96
51.4542	481.87
51.4687	530.74
51.4831	515.43
51.4975	524.10
51.5120	524.05
51.5264	484.29
51.5409	480.39
51.5553	498.25
51.5697	479.95
51.5842	494.66
51.5986	511.48
51.6131	522.36
51.6275	492.23
51.6419	499.45
51.6564	489.26
51.6708	503.46
51.6853	491.42
51.6997	532.07
51.7141	501.11
51.7286	503.85
51.7430	492.19
51.7575	511.44
51.7719	522.75
51.7863	550.44
51.8008	534.72
51.8152	552.81
51.8297	529.44
51.8441	520.01
51.8585	504.79
51.8730	536.66
51.8874	478.99
51.9019	511.09
51.9163	533.22
51.9307	494.65
51.9452	515.45
51.9596	483.43
51.9741	484.52
51.9885	490.50
52.0029	523.65
52.0174	519.13
52.0318	512.57
52.0463	529.51
52.0607	508.75
52.0751	532.36
52.0896	499.24
52.1040	514.29
52.1185	516.95
52.1329	529.03
52.1473	519.58
52.1618	557.52
52.1762	520.96
52.1907	506.96
52.2051	500.44
52.2195	511.41
52.2340	503.28
52.2484	492.25
52.2629	490.48
52.2773	527.90
52.2917	495.29
52.3062	521.18
52.3206	540.75
52.3351	515.95
52.3495	501.31
52.3639	492.83
52.3784	508.72
52.3928	496.55
52.4073	521.62
52.4217	530.38
52.4361	546.28
52.4506	509.65
52.4650	535.82
52.4795	506.33
52.4939	503.07
52.5083	553.39
52.5228	497.90
52.5372	518.02
52.5517	532.43
52.5661	509.93
52.5805	519.23
52.5950	487.01
52.6094	510.49
52.6239	511.68
52.6383	528.99
52.6527	530.02
52.6672	488.87
52.6816	493.54
52.6961	507.14
52.7105	524.37
52.7250	534.94
52.7394	492.13
52.7538	524.94
52.7683	503.92
52.7827	506.32
52.7972	481.20
52.8116	523.98
52.8260	501.81
52.8405	522.53
52.8549	487.33
52.8694	523.40
52.8838	507.61
52.8982	519.81
52.9127	537.13
52.9271	509.44
52.9416	491.21
52.9560	515.23
52.9704	454.96
52.9849	509.50
52.9993	507.68
53.0138	535.36
53.0282	546.46
53.0426	509.48
53.0571	507.10
53.0715	533.73
53.0860	523.03
53.1004	514.39
53.1148	531.74
53.1293	540.88
53.1437	537.37
53.1582	502.37
53.1726	531.22
53.1870	501.04
53.2015	510.16
53.2159	553.66
53.2304	501.71
53.2448	530.19
53.2592	516.66
53.2737	512.40
53.2881	532.16
53.3026	535.99
53.3170	527.96
53.3314	513.88
53.3459	509.28
53.3603	507.60
53.3748	487.72
53.3892	486.32
53.4036	477.87
53.4181	495.42
53.4325	526.57
53.4470	516.65
53.4614	558.82
53.4758	496.80
53.4903	531.53
53.5047	493.49
53.5192	507.82
53.5336	536.40
53.5480	525.30
53.5625	513.48
53.5769	505.34
53.5914	525.22
53.6058	547.98
53.6202	496.11
53.6347	535.22
53.6491	516.58
53.6636	520.39
53.6780	535.00
53.6924	513.02
53.7069	516.20
53.7213	496.75
53.7358	478.18
53.7502	498.55
53.7646	523.14
53.7791	536.10
53.7935	524.50
53.8080	535.70
53.8224	538.70
53.8368	504.38
53.8513	511.87
53.8657	511.82
53.8802	501.85
53.8946	522.20
53.9090	531.50
53.9235	518.84
53.9379	517.80
53.9524	510.07
53.9668	519.58
53.9812	515.62
53.9957	513.20
54.0101	532.85
54.0246	550.83
54.0390	509.87
54.0534	496.05
54.0679	500.49
54.0823	528.86
54.0968	513.10
54.1112	501.14
54.1256	500.53
54.1401	493.49
54.1545	508.41
54.1690	537.11
54.1834	535.12
54.1978	516.22
54.2123	519.74
54.2267	534.28
54.2412	528.53
54.2556	512.15
54.2700	495.16
54.2845	503.22
54.2989	536.29
54.3134	523.90
54.3278	533.82
54.3422	502.81
54.3567	507.03
54.3711	522.09
54.3856	510.04
54.4000	523.80
54.4144	511.27
54.4289	525.89
54.4433	526.48
54.4578	491.91
54.4722	497.60
54.4866	515.07
54.5011	526.74
54.5155	507.97
54.5300	530.17
54.5444	547.27
54.5588	519.82
54.5733	509.19
54.5877	521.37
54.6022	521.04
54.6166	532.82
54.6310	534.30
54.6455	505.44
54.6599	502.74
54.6744	557.10
54.6888	521.08
54.7032	527.05
54.7177	519.09
54.7321	533.06
54.7466	536.77
54.7610	564.79
54.7754	573.81
54.7899	557.10
54.8043	568.01
54.8188	594.60
54.8332	559.54
54.8476	592.23
54.8621	589.05
54.8765	563.93
54.8910	571.07
54.9054	603.23
54.9198	576.14
54.9343	633.81
54.9487	603.56
54.9632	573.27
54.9776	557.81
54.9920	538.15
55.0065	542.45
55.0209	615.38
55.0354	618.02
55.0498	576.42
55.0642	549.76
55.0787	550.78
55.0931	566.08
55.1076	570.85
55.1220	556.43
55.1364	556.93
55.1509	527.11
55.1653	571.51
55.1798	576.88
55.1942	549.01
55.2086	547.64
55.2231	514.14
55.2375	512.80
55.2520	522.08
55.2664	530.99
55.2808	544.57
55.2953	498.17
55.3097	520.20
55.3242	545.67
55.3386	521.59
55.3530	530.66
55.3675	521.08
55.3819	495.10
55.3964	537.41
55.4108	542.16
55.4252	521.93
55.4397	500.83
55.4541	527.72
55.4686	558.53
55.4830	545.66
55.4974	558.59
55.5119	507.12
55.5263	540.24
55.5408	529.39
55.5552	511.17
55.5696	510.91
55.5841	544.28
55.5985	520.10
55.6130	509.64
55.6274	498.35
55.6418	531.83
55.6563	548.47
55.6707	493.11
55.6852	546.36
55.6996	527.14
55.7140	539.28
55.7285	522.24
55.7429	508.09
55.7574	489.17
55.7718	537.64
55.7862	551.08
55.8007	557.95
55.8151	535.98
55.8296	559.47
55.8440	544.28
55.8584	540.91
55.8729	541.40
55.8873	495.81
55.9018	528.51
55.9162	488.19
55.9306	490.05
55.9451	511.31
55.9595	527.92
55.9740	516.11
55.9884	521.93
56.0028	510.70
56.0173	520.61
56.0317	506.78
56.0462	513.09
56.0606	545.93
56.0750	543.16
56.0895	540.74
56.1039	562.71
56.1184	535.06
56.1328	517.97
56.1472	515.30
56.1617	531.06
56.1761	568.00
56.1906	572.14
56.2050	502.08
56.2194	525.61
56.2339	527.45
56.2483	523.20
56.2628	507.59
56.2772	521.67
56.2916	550.39
56.3061	533.11
56.3205	511.17
56.3350	497.89
56.3494	523.89
56.3639	524.64
56.3783	520.60
56.3927	522.48
56.4072	520.12
56.4216	526.37
56.4361	514.21
56.4505	523.26
56.4649	529.22
56.4794	554.05
56.4938	527.48
56.5083	507.57
56.5227	515.86
56.5371	539.56
56.5516	507.68
56.5660	516.55
56.5805	481.80
56.5949	509.65
56.6093	515.04
56.6238	511.42
56.6382	511.49
56.6527	526.48
56.6671	519.51
56.6815	515.93
56.6960	527.56
56.7104	540.34
56.7249	519.96
56.7393	503.80
56.7537	497.70
56.7682	527.15
56.7826	557.81
56.7971	553.24
56.8115	532.83
56.8259	498.48
56.8404	498.77
56.8548	542.24
56.8693	541.16
56.8837	526.14
56.8981	525.62
56.9126	498.40
56.9270	495.64
56.9415	558.53
56.9559	542.80
56.9703	520.11
56.9848	521.06
56.9992	494.23
57.0137	531.34
57.0281	529.36
57.0425	532.32
57.0570	556.60
57.0714	503.42
57.0859	532.07
57.1003	534.25
57.1147	509.08
57.1292	537.66
57.1436	504.36
57.1581	507.99
57.1725	542.86
57.1869	492.49
57.2014	498.42
57.2158	509.03
57.2303	550.56
57.2447	552.74
57.2591	505.61
57.2736	524.13
57.2880	531.58
57.3025	538.48
57.3169	547.13
57.3313	546.90
57.3458	540.51
57.3602	497.49
57.3747	519.15
57.3891	539.63
57.4035	510.52
57.4180	523.00
57.4324	533.93
57.4469	508.33
57.4613	508.23
57.4757	547.72
57.4902	517.15
57.5046	502.07
57.5191	517.14
57.5335	542.89
57.5479	560.49
57.5624	522.37
57.5768	494.49
57.5913	515.93
57.6057	554.27
57.6201	550.01
57.6346	540.87
57.6490	540.11
57.6635	533.59
57.6779	508.70
57.6923	525.47
57.7068	519.43
57.7212	517.74
57.7357	533.31
57.7501	555.20
57.7645	514.08
57.7790	540.38
57.7934	520.43
57.8079	515.62
57.8223	533.90
57.8367	507.74
57.8512	510.39
57.8656	504.48
57.8801	526.44
57.8945	483.98
57.9089	527.87
57.9234	503.31
57.9378	523.80
57.9523	533.43
57.9667	514.03
57.9811	522.70
57.9956	539.05
58.0100	537.28
58.0245	535.67
58.0389	525.49
58.0533	545.16
58.0678	553.13
58.0822	557.67
58.0967	592.36
58.1111	560.24
58.1255	573.43
58.1400	537.42
58.1544	534.46
58.1689	552.82
58.1833	533.42
58.1977	533.75
58.2122	556.12
58.2266	533.32
58.2411	554.51
58.2555	553.65
58.2699	568.89
58.2844	564.33
58.2988	552.86
58.3133	536.17
58.3277	555.47
58.3421	552.92
58.3566	558.43
58.3710	563.64
58.3855	566.62
58.3999	562.71
58.4143	552.89
58.4288	591.19
58.4432	584.81
58.4577	568.51
58.4721	579.17
58.4865	584.64
58.5010	574.79
58.5154	596.17
58.5299	622.56
58.5443	606.49
58.5587	644.69
58.5732	649.83
58.5876	618.06
58.6021	608.89
58.6165	653.94
58.6309	665.05
58.6454	627.23
58.6598	643.59
58.6743	640.15
58.6887	652.20
58.7031	662.90
58.7176	633.64
58.7320	625.70
58.7465	642.21
58.7609	614.10
58.7753	591.83
58.7898	599.33
58.8042	625.52
58.8187	603.92
58.8331	598.16
58.8475	596.86
58.8620	614.42
58.8764	594.01
58.8909	576.44
58.9053	571.60
58.9197	600.87
58.9342	604.43
58.9486	585.11
58.9631	563.63
58.9775	543.35
58.9919	515.13
59.0064	541.19
59.0208	563.10
59.0353	569.55
59.0497	583.49
59.0641	564.81
59.0786	533.35
59.0930	570.64
59.1075	593.21
59.1219	577.23
59.1363	545.30
59.1508	526.46
59.1652	566.61
59.1797	589.80
59.1941	566.47
59.2085	534.32
59.2230	540.30
59.2374	527.28
59.2519	555.41
59.2663	573.20
59.2807	569.42
59.2952	540.95
59.3096	541.65
59.3241	541.88
59.3385	553.28
59.3529	551.38
59.3674	569.75
59.3818	565.78
59.3963	565.60
59.4107	535.07
59.4251	585.46
59.4396	563.72
59.4540	546.78
59.4685	577.34
59.4829	568.17
59.4973	551.39
59.5118	545.70
59.5262	537.75
59.5407	570.25
59.5551	576.43
59.5695	557.40
59.5840	536.15
59.5984	538.96
59.6129	568.19
59.6273	549.39
59.6417	558.00
59.6562	567.98
59.6706	544.59
59.6851	562.52
59.6995	559.96
59.7139	557.12
59.7284	555.96
59.7428	556.51
59.7573	534.61
59.7717	526.57
59.7861	564.14
59.8006	543.84
59.8150	540.38
59.8295	546.35
59.8439	566.42
59.8583	562.82
59.8728	525.04
59.8872	561.41
59.9017	560.07
59.9161	543.89
59.9305	544.17
59.9450	562.80
59.9594	542.40
59.9739	548.83
59.9883	554.55
60.0027	563.77
60.0172	588.90
60.0316	540.03
60.0461	537.39
60.0605	502.82
60.0750	514.42
60.0894	532.49
60.1038	535.30
60.1183	538.50
60.1327	539.32
60.1472	533.96
60.1616	567.24
60.1760	574.20
60.1905	517.42
60.2049	558.80
60.2194	553.77
60.2338	519.07
60.2482	578.43
60.2627	557.32
60.2771	560.82
60.2916	551.52
60.3060	536.01
60.3204	548.27
60.3349	550.36
60.3493	545.37
60.3638	532.53
60.3782	538.48
60.3926	516.68
60.4071	504.12
60.4215	554.76
60.4360	542.26
60.4504	527.75
60.4648	539.01
60.4793	551.20
60.4937	526.09
60.5082	530.24
60.5226	530.86
60.5370	579.80
60.5515	547.84
60.5659	523.13
60.5804	547.72
60.5948	555.58
60.6092	530.98
60.6237	562.51
60.6381	535.01
60.6526	537.58
60.6670	495.87
60.6814	533.53
60.6959	507.57
60.7103	535.12
60.7248	539.88
60.7392	510.52
60.7536	562.51
60.7681	556.22
60.7825	549.57
60.7970	576.06
60.8114	535.75
60.8258	549.95
60.8403	549.94
60.8547	541.58
60.8692	554.03
60.8836	560.30
60.8980	541.23
60.9125	507.20
60.9269	485.81
60.9414	544.40
60.9558	528.36
60.9702	551.02
60.9847	545.24
60.9991	523.12
61.0136	533.66
61.0280	541.47
61.0424	551.16
61.0569	502.64
61.0713	549.93
61.0858	575.18
61.1002	523.10
61.1146	539.56
61.1291	550.48
61.1435	517.59
61.1580	563.81
61.1724	564.18
61.1868	560.17
61.2013	540.85
61.2157	548.50
61.2302	563.60
61.2446	568.38
61.2590	533.88
61.2735	566.23
61.2879	576.63
61.3024	563.78
61.3168	577.12
61.3312	540.45
61.3457	567.24
61.3601	499.63
61.3746	570.87
61.3890	532.06
61.4034	488.89
61.4179	525.80
61.4323	526.23
61.4468	550.34
61.4612	557.66
61.4756	557.19
61.4901	548.58
61.5045	529.54
61.5190	503.62
61.5334	549.54
61.5478	549.32
61.5623	582.42
61.5767	531.12
61.5912	526.94
61.6056	569.48
61.6200	534.45
61.6345	553.97
61.6489	558.07
61.6634	604.71
61.6778	552.46
61.6922	534.81
61.7067	575.61
61.7211	570.97
61.7356	546.44
61.7500	564.74
61.7644	522.57
61.7789	556.84
61.7933	540.61
61.8078	549.59
61.8222	536.66
61.8366	583.83
61.8511	571.24
61.8655	545.20
61.8800	554.00
61.8944	574.75
61.9088	569.34
61.9233	545.44
61.9377	579.82
61.9522	559.58
61.9666	577.49
61.9810	540.32
61.9955	530.61
62.0099	520.71
62.0244	532.40
62.0388	568.67
62.0532	523.97
62.0677	543.38
62.0821	548.85
62.0966	583.45
62.1110	567.71
62.1254	552.02
62.1399	546.16
62.1543	532.66
62.1688	526.62
62.1832	547.07
62.1976	557.58
62.2121	536.26
62.2265	552.95
62.2410	563.87
62.2554	552.61
62.2698	546.52
62.2843	559.29
62.2987	580.77
62.3132	557.33
62.3276	545.31
62.3420	558.01
62.3565	552.18
62.3709	582.98
62.3854	538.90
62.3998	568.83
62.4142	552.85
62.4287	558.69
62.4431	522.44
62.4576	552.28
62.4720	579.32
62.4864	565.03
62.5009	546.85
62.5153	563.34
62.5298	527.42
62.5442	518.47
62.5586	534.82
62.5731	537.26
62.5875	512.97
62.6020	553.90
62.6164	564.56
62.6308	545.24
62.6453	554.16
62.6597	584.66
62.6742	564.54
62.6886	545.50
62.7030	536.97
62.7175	571.52
62.7319	564.50
62.7464	554.51
62.7608	559.05
62.7752	559.66
62.7897	539.39
62.8041	577.28
62.8186	518.86
62.8330	557.51
62.8474	538.85
62.8619	568.11
62.8763	578.12
62.8908	531.35
62.9052	545.69
62.9196	551.00
62.9341	553.26
62.9485	537.52
62.9630	555.65
62.9774	593.90
62.9918	569.19
63.0063	559.78
63.0207	543.72
63.0352	542.34
63.0496	568.27
63.0640	614.53
63.0785	544.47
63.0929	556.89
63.1074	556.59
63.1218	565.94
63.1362	563.04
63.1507	561.72
63.1651	581.16
63.1796	599.55
63.1940	560.30
63.2084	557.74
63.2229	565.57
63.2373	567.32
63.2518	550.86
63.2662	549.74
63.2806	594.07
63.2951	589.68
63.3095	578.07
63.3240	566.35
63.3384	570.34
63.3528	593.98
63.3673	600.26
63.3817	562.64
63.3962	593.36
63.4106	583.46
63.4250	565.66
63.4395	535.23
63.4539	524.24
63.4684	591.30
63.4828	629.12
63.4972	555.89
63.5117	550.28
63.5261	568.47
63.5406	597.52
63.5550	613.31
63.5694	594.20
63.5839	561.00
63.5983	577.26
63.6128	558.55
63.6272	567.31
63.6416	607.04
63.6561	595.15
63.6705	585.55
63.6850	588.33
63.6994	583.90
63.7138	579.54
63.7283	598.85
63.7427	596.28
63.7572	576.75
63.7716	592.46
63.7861	612.35
63.8005	600.53
63.8149	621.93
63.8294	627.75
63.8438	616.92
63.8583	600.67
63.8727	637.18
63.8871	579.15
63.9016	629.61
63.9160	603.33
63.9305	614.22
63.9449	622.09
63.9593	588.67
63.9738	595.35
63.9882	622.34
64.0027	606.16
64.0171	633.96
64.0315	675.58
64.0460	646.12
64.0604	627.69
64.0749	634.53
64.0893	673.49
64.1037	620.68
64.1182	623.51
64.1326	621.05
64.1471	618.25
64.1615	660.32
64.1759	645.94
64.1904	689.26
64.2048	731.20
64.2193	714.45
64.2337	710.15
64.2481	744.52
64.2626	698.40
64.2770	752.38
64.2915	732.39
64.3059	755.75
64.3203	750.98
64.3348	795.19
64.3492	774.54
64.3637	796.09
64.3781	772.77
64.3925	749.30
64.4070	764.52
64.4214	789.35
64.4359	796.61
64.4503	756.31
64.4647	809.38
64.4792	792.44
64.4936	793.68
64.5081	774.16
64.5225	737.85
64.5369	742.38
64.5514	769.36
64.5658	760.06
64.5803	736.58
64.5947	734.87
64.6091	770.54
64.6236	713.40
64.6380	736.18
64.6525	740.81
64.6669	745.89
64.6813	693.48
64.6958	721.83
64.7102	764.84
64.7247	760.63
64.7391	679.53
64.7535	716.50
64.7680	772.50
64.7824	753.24
64.7969	760.27
64.8113	784.60
64.8257	833.55
64.8402	847.45
64.8546	800.93
64.8691	882.62
64.8835	884.27
64.8979	883.48
64.9124	855.12
64.9268	861.19
64.9413	908.82
64.9557	942.49
64.9701	1043.04
64.9846	1073.93
64.9990	1147.94
65.0135	1267.44
65.0279	1413.59
65.0423	1780.91
65.0568	2096.97
65.0712	2648.13
65.0857	3516.83
65.1001	4538.05
65.1145	6134.92
65.1290	8003.69
65.1434	9654.80
65.1579	10963.52
65.1723	11897.01
65.1867	11476.90
65.2012	9989.08
65.2156	8236.66
65.2301	6548.93
65.2445	5255.74
65.2589	4482.03
65.2734	4175.55
65.2878	4446.51
65.3023	5118.66
65.3167	5732.63
65.3311	6509.19
65.3456	7072.83
65.3600	7115.88
65.3745	6542.34
65.3889	5514.63
65.4033	4444.57
65.4178	3387.13
65.4322	2706.22
65.4467	2128.61
65.4611	1789.74
65.4755	1501.02
65.4900	1259.10
65.5044	1131.88
65.5189	1068.31
65.5333	1006.14
65.5477	954.77
65.5622	873.49
65.5766	830.92
65.5911	783.47
65.6055	796.04
65.6199	787.10
65.6344	789.43
65.6488	818.77
65.6633	749.92
65.6777	724.26
65.6921	714.02
65.7066	737.86
65.7210	714.17
65.7355	679.48
65.7499	718.60
65.7643	718.13
65.7788	699.88
65.7932	688.04
65.8077	658.43
65.8221	643.92
65.8365	678.06
65.8510	676.47
65.8654	649.00
65.8799	697.26
65.8943	700.20
65.9087	670.32
65.9232	691.60
65.9376	693.65
65.9521	653.10
65.9665	631.61
65.9809	630.21
65.9954	597.04
66.0098	619.77
66.0243	648.75
66.0387	643.30
66.0531	634.16
66.0676	607.20
66.0820	628.33
66.0965	587.34
66.1109	599.28
66.1253	624.07
66.1398	636.58
66.1542	626.63
66.1687	621.95
66.1831	594.74
66.1975	568.00
66.2120	588.41
66.2264	612.19
66.2409	622.10
66.2553	605.66
66.2697	619.11
66.2842	584.47
66.2986	585.49
66.3131	594.21
66.3275	590.62
66.3419	620.42
66.3564	597.95
66.3708	594.69
66.3853	573.81
66.3997	593.34
66.4141	595.13
66.4286	624.99
66.4430	595.28
66.4575	614.01
66.4719	632.84
66.4863	630.84
66.5008	568.15
66.5152	573.88
66.5297	574.62
66.5441	589.93
66.5585	563.37
66.5730	593.40
66.5874	590.20
66.6019	568.29
66.6163	596.60
66.6307	554.90
66.6452	591.96
66.6596	591.12
66.6741	564.70
66.6885	594.79
66.7029	588.17
66.7174	604.67
66.7318	594.85
66.7463	612.37
66.7607	544.73
66.7751	594.18
66.7896	611.93
66.8040	583.89
66.8185	592.82
66.8329	588.10
66.8473	604.38
66.8618	640.90
66.8762	632.50
66.8907	573.21
66.9051	594.78
66.9195	580.33
66.9340	611.87
66.9484	587.36
66.9629	586.69
66.9773	579.62
66.9917	544.15
67.0062	562.75
67.0206	586.19
67.0351	604.55
67.0495	560.43
67.0639	597.53
67.0784	618.24
67.0928	615.87
67.1073	604.01
67.1217	594.35
67.1361	582.08
67.1506	562.03
67.1650	607.26
67.1795	598.10
67.1939	565.48
67.2083	564.25
67.2228	612.56
67.2372	582.80
67.2517	583.48
67.2661	568.23
67.2805	596.33
67.2950	555.45
67.3094	580.25
67.3239	551.31
67.3383	595.02
67.3527	626.96
67.3672	594.76
67.3816	580.39
67.3961	564.18
67.4105	565.42
67.4250	591.28
67.4394	550.54
67.4538	590.83
67.4683	633.82
67.4827	567.82
67.4972	601.84
67.5116	566.39
67.5260	569.50
67.5405	605.86
67.5549	645.83
67.5694	618.03
67.5838	566.55
67.5982	585.96
67.6127	566.02
67.6271	583.07
67.6416	607.01
67.6560	576.21
67.6704	594.34
67.6849	560.05
67.6993	545.62
67.7138	546.25
67.7282	583.36
67.7426	582.49
67.7571	580.40
67.7715	540.92
67.7860	574.11
67.8004	575.69
67.8148	607.32
67.8293	598.70
67.8437	595.10
67.8582	567.07
67.8726	614.73
67.8870	594.39
67.9015	589.74
67.9159	618.44
67.9304	564.46
67.9448	565.06
67.9592	560.88
67.9737	571.39
67.9881	546.83
68.0026	599.60
68.0170	601.19
68.0314	594.32
68.0459	577.38
68.0603	577.95
68.0748	573.05
68.0892	626.57
68.1036	617.23
68.1181	550.68
68.1325	606.73
68.1470	593.18
68.1614	625.25
68.1758	600.84
68.1903	608.43
68.2047	569.43
68.2192	578.25
68.2336	578.08
68.2480	594.04
68.2625	587.52
68.2769	576.24
68.2914	592.64
68.3058	602.77
68.3202	560.66
68.3347	566.55
68.3491	594.61
68.3636	596.23
68.3780	558.79
68.3924	589.19
68.4069	582.50
68.4213	605.80
68.4358	578.52
68.4502	555.56
68.4646	545.96
68.4791	574.87
68.4935	582.59
68.5080	556.13
68.5224	620.54
68.5368	607.17
68.5513	614.95
68.5657	605.99
68.5802	536.92
68.5946	591.90
68.6090	590.78
68.6235	557.71
68.6379	571.59
68.6524	588.41
68.6668	599.71
68.6812	582.70
68.6957	559.58
68.7101	577.94
68.7246	603.16
68.7390	564.90
68.7534	601.90
68.7679	552.43
68.7823	557.20
68.7968	592.89
68.8112	619.99
68.8256	596.22
68.8401	603.20
68.8545	599.05
68.8690	605.90
68.8834	541.20
68.8978	580.36
68.9123	605.13
68.9267	551.45
68.9412	601.84
68.9556	557.38
68.9700	531.92
68.9845	555.33
68.9989	602.05
69.0134	582.26
69.0278	571.58
69.0422	553.05
69.0567	579.01
69.0711	622.06
69.0856	591.46
69.1000	591.38
69.1144	559.95
69.1289	558.39
69.1433	556.60
69.1578	554.25
69.1722	575.47
69.1866	631.11
69.2011	593.15
69.2155	596.42
69.2300	576.78
69.2444	588.33
69.2588	554.58
69.2733	521.79
69.2877	519.00
69.3022	604.41
69.3166	550.87
69.3310	567.25
69.3455	548.33
69.3599	547.31
69.3744	566.93
69.3888	578.97
69.4032	570.65
69.4177	540.28
69.4321	620.64
69.4466	581.01
69.4610	572.08
69.4754	591.81
69.4899	584.15
69.5043	546.02
69.5188	573.48
69.5332	564.28
69.5476	566.29
69.5621	594.36
69.5765	565.52
69.5910	576.45
69.6054	595.26
69.6198	586.85
69.6343	599.77
69.6487	566.42
69.6632	603.83
69.6776	554.35
69.6920	564.74
69.7065	607.39
69.7209	563.77
69.7354	570.26
69.7498	582.07
69.7642	575.12
69.7787	587.57
69.7931	580.75
69.8076	639.91
69.8220	559.02
69.8364	610.10
69.8509	580.57
69.8653	576.79
69.8798	567.49
69.8942	601.37
69.9086	528.81
69.9231	636.86
69.9375	640.82
69.9520	613.65
69.9664	625.12
69.9808	566.53
69.9953	582.24
70.0097	587.73
70.0242	570.87
70.0386	582.09
70.0530	567.06
70.0675	551.79
70.0819	563.10
70.0964	579.01
70.1108	601.26
70.1252	610.06
70.1397	540.45
70.1541	534.49
70.1686	583.10
70.1830	569.88
70.1974	600.17
70.2119	567.18
70.2263	526.79
70.2408	608.72
70.2552	553.61
70.2696	561.95
70.2841	545.42
70.2985	585.12
70.3130	589.43
70.3274	579.65
70.3418	592.51
70.3563	646.08
70.3707	592.42
70.3852	569.38
70.3996	567.09
70.4140	542.29
70.4285	630.88
70.4429	581.58
70.4574	557.62
70.4718	570.86
70.4862	567.53
70.5007	603.13
70.5151	623.22
70.5296	592.23
70.5440	581.45
70.5584	559.43
70.5729	636.92
70.5873	534.00
70.6018	546.60
70.6162	537.19
70.6306	603.18
70.6451	603.93
70.6595	569.03
70.6740	648.47
70.6884	595.29
70.7028	594.50
70.7173	594.57
70.7317	599.64
70.7462	584.17
70.7606	571.04
70.7750	591.70
70.7895	615.87
70.8039	605.21
70.8184	568.54
70.8328	561.52
70.8472	537.39
70.8617	549.20
70.8761	557.08
70.8906	582.79
70.9050	592.98
70.9194	599.28
70.9339	623.90
70.9483	642.11
70.9628	598.02
70.9772	630.48
70.9916	642.30
71.0061	605.63
71.0205	560.65
71.0350	581.96
71.0494	555.27
71.0638	568.75
71.0783	575.95
71.0927	621.94
71.1072	622.11
71.1216	612.96
71.1361	570.19
71.1505	534.65
71.1649	558.06
71.1794	601.18
71.1938	582.02
71.2083	580.51
71.2227	573.59
71.2371	571.27
71.2516	572.74
71.2660	576.88
71.2805	586.12
71.2949	580.35
71.3093	580.98
71.3238	557.41
71.3382	605.68
71.3527	583.50
71.3671	524.35
71.3815	540.85
71.3960	553.15
71.4104	590.09
71.4249	625.62
71.4393	625.12
71.4537	592.89
71.4682	584.29
71.4826	576.66
71.4971	650.37
71.5115	636.31
71.5259	583.68
71.5404	545.16
71.5548	620.05
71.5693	583.50
71.5837	509.31
71.5981	549.66
71.6126	539.45
71.6270	518.26
71.6415	560.61
71.6559	574.03
71.6703	553.40
71.6848	573.69
71.6992	573.41
71.7137	523.70
71.7281	524.21
71.7425	567.77
71.7570	554.50
71.7714	536.07
71.7859	561.00
71.8003	635.64
71.8147	576.90
71.8292	565.54
71.8436	570.08
71.8581	577.79
71.8725	591.98
71.8869	536.80
71.9014	629.36
71.9158	585.07
71.9303	538.31
71.9447	552.86
71.9591	548.82
71.9736	571.91
71.9880	565.95
72.0025	533.20
72.0169	556.18
72.0313	608.64
72.0458	590.27
72.0602	519.04
72.0747	552.09
72.0891	593.50
72.1035	640.13
72.1180	597.73
72.1324	555.42
72.1469	540.00
72.1613	545.05
72.1757	558.23
72.1902	563.70
72.2046	611.05
72.2191	618.70
72.2335	591.42
72.2479	502.88
72.2624	528.17
72.2768	658.56
72.2913	581.25
72.3057	512.21
72.3201	526.71
72.3346	565.99
72.3490	560.58
72.3635	451.64
72.3779	537.59
72.3923	635.85
72.4068	564.91
72.4212	608.05
72.4357	662.66
72.4501	656.41
72.4645	644.34
72.4790	637.89
72.4934	521.78
72.5079	456.46
72.5223	530.15
72.5367	518.65
72.5512	551.60
72.5656	574.52
72.5801	521.00
72.5945	515.25
72.6089	514.17
72.6234	536.27
72.6378	586.94
72.6523	628.11
72.6667	638.35
72.6811	593.99
72.6956	543.10
72.7100	514.54
72.7245	501.22
72.7389	553.88
72.7533	529.46
72.7678	554.24
72.7822	547.60
72.7967	611.67
72.8111	659.67
72.8255	575.52
72.8400	531.65
72.8544	575.55
72.8689	607.25
72.8833	599.15