2022.09.19 19:37:17
Îáðàçåö: ß÷åéêà LCoV 16-09-2022
Lambda1 = 1.54060
Lambda2 = 1.54439
Lambdam = 1.54186
R = 0.497
2Theta	I

line¹ 0 ;repeat¹ 0
22.1120	582.70
22.1264	608.42
22.1409	608.89
22.1553	593.42
22.1697	644.10
22.1842	599.72
22.1986	475.80
22.2131	462.38
22.2275	470.82
22.2419	569.73
22.2564	577.38
22.2708	558.24
22.2853	575.09
22.2997	595.08
22.3141	634.48
22.3286	578.51
22.3430	557.50
22.3575	593.09
22.3719	549.76
22.3863	534.88
22.4008	607.31
22.4152	614.18
22.4297	566.66
22.4441	579.69
22.4585	581.62
22.4730	596.50
22.4874	702.04
22.5019	651.02
22.5163	639.88
22.5307	645.63
22.5452	620.91
22.5596	531.46
22.5741	525.83
22.5885	611.18
22.6029	682.23
22.6174	622.94
22.6318	592.27
22.6463	630.67
22.6607	498.30
22.6751	512.61
22.6896	658.36
22.7040	639.39
22.7185	594.69
22.7329	555.06
22.7473	560.62
22.7618	541.72
22.7762	545.80
22.7907	610.22
22.8051	523.59
22.8195	578.35
22.8340	620.82
22.8484	594.10
22.8629	667.11
22.8773	655.53
22.8917	628.31
22.9062	638.35
22.9206	599.55
22.9351	579.45
22.9495	550.72
22.9639	537.59
22.9784	569.24
22.9928	583.78
23.0073	576.49
23.0217	575.26
23.0361	557.84
23.0506	585.54
23.0650	652.17
23.0795	578.36
23.0939	538.42
23.1083	584.79
23.1228	565.70
23.1372	626.51
23.1517	560.48
23.1661	556.15
23.1806	457.49
23.1950	529.75
23.2094	570.59
23.2239	631.48
23.2383	644.14
23.2528	566.70
23.2672	498.57
23.2816	543.36
23.2961	544.30
23.3105	582.26
23.3250	539.87
23.3394	550.84
23.3538	545.96
23.3683	503.61
23.3827	526.31
23.3972	530.93
23.4116	574.39
23.4260	534.37
23.4405	566.23
23.4549	500.85
23.4694	508.47
23.4838	531.77
23.4982	545.75
23.5127	514.93
23.5271	567.35
23.5416	537.79
23.5560	532.69
23.5704	553.83
23.5849	544.22
23.5993	589.24
23.6138	540.09
23.6282	559.58
23.6426	625.58
23.6571	575.18
23.6715	486.98
23.6860	535.83
23.7004	595.95
23.7148	542.26
23.7293	512.76
23.7437	522.38
23.7582	575.96
23.7726	566.62
23.7870	587.85
23.8015	532.91
23.8159	511.75
23.8304	524.34
23.8448	585.09
23.8592	572.66
23.8737	564.70
23.8881	551.08
23.9026	568.18
23.9170	538.68
23.9314	467.23
23.9459	552.02
23.9603	533.00
23.9748	554.80
23.9892	562.10
24.0036	536.60
24.0181	611.32
24.0325	549.85
24.0470	558.97
24.0614	660.66
24.0758	543.10
24.0903	658.05
24.1047	554.97
24.1192	578.85
24.1336	537.08
24.1480	512.72
24.1625	558.95
24.1769	598.14
24.1914	549.13
24.2058	558.76
24.2202	585.20
24.2347	625.96
24.2491	601.07
24.2636	596.38
24.2780	594.13
24.2924	575.30
24.3069	568.23
24.3213	523.14
24.3358	518.30
24.3502	514.11
24.3646	543.14
24.3791	539.21
24.3935	516.31
24.4080	514.30
24.4224	600.09
24.4368	549.91
24.4513	594.48
24.4657	555.81
24.4802	602.18
24.4946	589.27
24.5090	520.67
24.5235	537.05
24.5379	516.72
24.5524	596.61
24.5668	548.27
24.5812	639.50
24.5957	558.07
24.6101	539.73
24.6246	605.85
24.6390	579.41
24.6534	530.20
24.6679	522.52
24.6823	497.74
24.6968	530.14
24.7112	523.29
24.7256	546.62
24.7401	542.91
24.7545	552.73
24.7690	538.08
24.7834	562.34
24.7978	514.10
24.8123	535.89
24.8267	518.71
24.8412	527.45
24.8556	562.00
24.8700	581.16
24.8845	528.70
24.8989	507.59
24.9134	495.04
24.9278	507.15
24.9422	481.58
24.9567	562.20
24.9711	544.42
24.9856	599.95
25.0000	585.04
25.0144	519.43
25.0289	575.02
25.0433	574.88
25.0578	588.24
25.0722	584.16
25.0866	571.36
25.1011	531.60
25.1155	548.78
25.1300	563.26
25.1444	548.69
25.1588	544.84
25.1733	556.90
25.1877	559.52
25.2022	551.04
25.2166	573.21
25.2310	535.44
25.2455	513.45
25.2599	528.85
25.2744	568.77
25.2888	515.83
25.3032	527.75
25.3177	566.53
25.3321	530.98
25.3466	576.63
25.3610	528.34
25.3754	499.77
25.3899	517.55
25.4043	517.29
25.4188	519.39
25.4332	515.50
25.4476	537.99
25.4621	548.38
25.4765	545.68
25.4910	533.52
25.5054	498.18
25.5198	533.24
25.5343	590.96
25.5487	556.14
25.5632	561.54
25.5776	549.99
25.5920	554.93
25.6065	516.36
25.6209	527.58
25.6354	531.58
25.6498	563.29
25.6642	548.22
25.6787	552.04
25.6931	538.44
25.7076	562.51
25.7220	555.31
25.7364	479.94
25.7509	500.62
25.7653	504.06
25.7798	579.89
25.7942	573.59
25.8086	539.70
25.8231	545.20
25.8375	520.09
25.8520	537.95
25.8664	563.91
25.8808	573.90
25.8953	591.80
25.9097	593.70
25.9242	559.85
25.9386	555.26
25.9530	513.15
25.9675	521.07
25.9819	576.93
25.9964	567.26
26.0108	553.07
26.0252	608.37
26.0397	572.90
26.0541	528.26
26.0686	526.81
26.0830	540.44
26.0974	526.87
26.1119	522.70
26.1263	518.20
26.1408	499.62
26.1552	519.49
26.1696	525.48
26.1841	525.33
26.1985	546.73
26.2130	553.96
26.2274	553.26
26.2418	524.56
26.2563	529.38
26.2707	518.12
26.2852	527.33
26.2996	502.01
26.3140	533.30
26.3285	536.17
26.3429	537.40
26.3574	540.34
26.3718	524.67
26.3862	515.60
26.4007	543.00
26.4151	571.84
26.4296	537.30
26.4440	538.39
26.4584	535.45
26.4729	531.56
26.4873	535.43
26.5018	529.19
26.5162	502.76
26.5306	531.38
26.5451	545.53
26.5595	558.49
26.5740	560.69
26.5884	553.50
26.6028	587.35
26.6173	572.14
26.6317	530.25
26.6462	500.89
26.6606	506.32
26.6750	519.86
26.6895	510.38
26.7039	529.43
26.7184	561.42
26.7328	522.16
26.7472	503.87
26.7617	514.72
26.7761	532.01
26.7906	511.26
26.8050	519.25
26.8194	529.99
26.8339	550.31
26.8483	538.97
26.8628	535.14
26.8772	515.72
26.8917	548.68
26.9061	560.30
26.9205	536.20
26.9350	530.40
26.9494	540.67
26.9639	535.33
26.9783	516.47
26.9927	515.80
27.0072	492.64
27.0216	518.39
27.0361	517.80
27.0505	510.69
27.0649	541.96
27.0794	499.87
27.0938	529.64
27.1083	508.20
27.1227	506.38
27.1371	497.09
27.1516	497.82
27.1660	549.90
27.1805	533.23
27.1949	533.93
27.2093	540.57
27.2238	498.07
27.2382	522.63
27.2527	535.96
27.2671	510.33
27.2815	523.74
27.2960	533.59
27.3104	565.21
27.3249	557.67
27.3393	526.91
27.3537	546.00
27.3682	541.96
27.3826	498.48
27.3971	505.34
27.4115	529.23
27.4259	533.58
27.4404	502.48
27.4548	534.62
27.4693	522.01
27.4837	528.44
27.4981	516.54
27.5126	532.58
27.5270	518.29
27.5415	518.95
27.5559	516.01
27.5703	512.27
27.5848	536.78
27.5992	526.89
27.6137	523.69
27.6281	521.03
27.6425	531.61
27.6570	519.35
27.6714	508.49
27.6859	539.31
27.7003	542.56
27.7147	549.07
27.7292	521.07
27.7436	546.48
27.7581	539.65
27.7725	526.49
27.7869	509.26
27.8014	516.80
27.8158	531.58
27.8303	520.28
27.8447	521.28
27.8591	528.23
27.8736	516.97
27.8880	479.56
27.9025	529.34
27.9169	504.24
27.9313	499.37
27.9458	540.52
27.9602	511.89
27.9747	505.60
27.9891	496.45
28.0035	483.35
28.0180	511.29
28.0324	500.54
28.0469	495.94
28.0613	508.75
28.0757	516.00
28.0902	515.75
28.1046	541.48
28.1191	543.31
28.1335	535.73
28.1479	497.38
28.1624	496.93
28.1768	544.64
28.1913	526.53
28.2057	504.57
28.2201	535.66
28.2346	509.55
28.2490	509.58
28.2635	511.27
28.2779	540.35
28.2923	523.86
28.3068	500.39
28.3212	519.89
28.3357	533.35
28.3501	500.67
28.3645	508.01
28.3790	489.05
28.3934	527.11
28.4079	533.36
28.4223	533.95
28.4367	508.37
28.4512	493.19
28.4656	526.74
28.4801	501.72
28.4945	522.24
28.5089	531.37
28.5234	527.23
28.5378	517.79
28.5523	527.49
28.5667	571.73
28.5811	538.77
28.5956	513.56
28.6100	505.03
28.6245	501.15
28.6389	490.59
28.6533	492.57
28.6678	479.79
28.6822	538.11
28.6967	536.83
28.7111	528.95
28.7255	517.26
28.7400	538.42
28.7544	526.04
28.7689	511.62
28.7833	518.54
28.7977	528.20
28.8122	492.94
28.8266	481.52
28.8411	491.38
28.8555	524.96
28.8699	524.11
28.8844	506.41
28.8988	537.02
28.9133	517.09
28.9277	495.59
28.9421	525.10
28.9566	515.70
28.9710	487.28
28.9855	484.38
28.9999	502.83
29.0143	531.37
29.0288	503.81
29.0432	447.98
29.0577	471.36
29.0721	484.73
29.0865	522.73
29.1010	549.83
29.1154	511.32
29.1299	509.59
29.1443	527.40
29.1587	506.69
29.1732	500.64
29.1876	524.55
29.2021	506.45
29.2165	521.71
29.2309	543.89
29.2454	510.15
29.2598	469.45
29.2743	513.80
29.2887	497.86
29.3031	498.98
29.3176	501.79
29.3320	519.42
29.3465	512.09
29.3609	496.80
29.3753	525.67
29.3898	517.25
29.4042	499.98
29.4187	488.87
29.4331	548.96
29.4475	523.07
29.4620	533.93
29.4764	542.21
29.4909	520.49
29.5053	500.47
29.5197	502.09
29.5342	520.32
29.5486	501.56
29.5631	523.15
29.5775	506.01
29.5919	532.62
29.6064	536.30
29.6208	504.67
29.6353	535.62
29.6497	517.74
29.6641	515.29
29.6786	519.09
29.6930	520.21
29.7075	492.66
29.7219	489.36
29.7363	482.71
29.7508	492.20
29.7652	483.26
29.7797	519.90
29.7941	482.65
29.8085	485.61
29.8230	542.53
29.8374	543.38
29.8519	502.91
29.8663	517.52
29.8807	503.45
29.8952	500.57
29.9096	521.98
29.9241	501.38
29.9385	539.23
29.9529	508.96
29.9674	521.37
29.9818	513.80
29.9963	512.32
30.0107	511.92
30.0251	514.89
30.0396	516.59
30.0540	503.40
30.0685	518.46
30.0829	473.57
30.0973	511.22
30.1118	530.91
30.1262	515.91
30.1407	511.19
30.1551	494.71
30.1695	493.28
30.1840	507.00
30.1984	480.31
30.2129	509.18
30.2273	511.23
30.2417	476.42
30.2562	488.67
30.2706	525.53
30.2851	504.53
30.2995	505.38
30.3139	502.91
30.3284	523.12
30.3428	513.10
30.3573	522.03
30.3717	513.52
30.3861	532.70
30.4006	510.55
30.4150	514.91
30.4295	492.82
30.4439	518.22
30.4583	493.47
30.4728	511.69
30.4872	466.66
30.5017	483.86
30.5161	486.05
30.5305	467.87
30.5450	497.87
30.5594	508.78
30.5739	502.01
30.5883	506.51
30.6028	494.49
30.6172	520.78
30.6316	550.05
30.6461	532.86
30.6605	528.59
30.6750	523.65
30.6894	552.81
30.7038	534.82
30.7183	556.86
30.7327	532.80
30.7472	531.46
30.7616	501.48
30.7760	556.12
30.7905	546.51
30.8049	540.28
30.8194	565.58
30.8338	619.76
30.8482	575.06
30.8627	589.95
30.8771	629.30
30.8916	670.29
30.9060	693.13
30.9204	662.31
30.9349	664.57
30.9493	662.38
30.9638	638.95
30.9782	657.71
30.9926	644.99
31.0071	617.39
31.0215	656.91
31.0360	601.25
31.0504	600.02
31.0648	603.68
31.0793	556.85
31.0937	526.34
31.1082	562.07
31.1226	577.16
31.1370	539.31
31.1515	508.29
31.1659	526.82
31.1804	527.53
31.1948	494.31
31.2092	544.83
31.2237	557.92
31.2381	565.45
31.2526	533.31
31.2670	535.00
31.2814	533.84
31.2959	577.09
31.3103	561.06
31.3248	529.93
31.3392	547.87
31.3536	533.81
31.3681	518.99
31.3825	543.29
31.3970	508.79
31.4114	518.27
31.4258	578.67
31.4403	559.15
31.4547	538.44
31.4692	550.19
31.4836	542.37
31.4980	511.05
31.5125	492.51
31.5269	482.71
31.5414	534.11
31.5558	523.87
31.5702	507.72
31.5847	532.88
31.5991	546.54
31.6136	522.19
31.6280	486.34
31.6424	504.32
31.6569	528.31
31.6713	529.92
31.6858	517.18
31.7002	517.49
31.7146	486.88
31.7291	505.86
31.7435	492.86
31.7580	489.89
31.7724	481.35
31.7868	487.62
31.8013	502.39
31.8157	529.90
31.8302	522.01
31.8446	544.73
31.8590	529.75
31.8735	556.66
31.8879	500.17
31.9024	544.50
31.9168	511.22
31.9312	476.46
31.9457	495.76
31.9601	482.70
31.9746	499.70
31.9890	468.12
32.0034	482.50
32.0179	477.03
32.0323	524.56
32.0468	534.93
32.0612	498.19
32.0756	508.28
32.0901	553.87
32.1045	530.34
32.1190	495.67
32.1334	488.64
32.1478	502.00
32.1623	526.86
32.1767	510.51
32.1912	478.02
32.2056	489.21
32.2200	491.35
32.2345	504.10
32.2489	540.50
32.2634	490.86
32.2778	542.62
32.2922	500.06
32.3067	496.72
32.3211	484.30
32.3356	528.91
32.3500	527.83
32.3644	496.39
32.3789	474.48
32.3933	486.54
32.4078	483.37
32.4222	511.26
32.4366	509.20
32.4511	511.70
32.4655	537.51
32.4800	517.80
32.4944	500.44
32.5088	504.65
32.5233	494.89
32.5377	514.67
32.5522	514.46
32.5666	512.30
32.5810	515.92
32.5955	508.60
32.6099	562.49
32.6244	504.46
32.6388	488.94
32.6532	519.29
32.6677	498.96
32.6821	501.08
32.6966	496.09
32.7110	509.38
32.7254	492.91
32.7399	540.09
32.7543	525.40
32.7688	493.69
32.7832	457.76
32.7976	527.71
32.8121	525.36
32.8265	547.51
32.8410	475.06
32.8554	500.29
32.8698	524.46
32.8843	527.96
32.8987	528.41
32.9132	506.06
32.9276	535.94
32.9420	533.22
32.9565	517.29
32.9709	506.68
32.9854	517.61
32.9998	497.81
33.0142	484.70
33.0287	509.95
33.0431	507.24
33.0576	484.59
33.0720	502.15
33.0864	480.29
33.1009	496.81
33.1153	503.32
33.1298	496.68
33.1442	512.31
33.1586	540.98
33.1731	522.71
33.1875	505.98
33.2020	451.97
33.2164	491.17
33.2308	506.46
33.2453	505.76
33.2597	493.70
33.2742	485.39
33.2886	510.69
33.3030	519.01
33.3175	521.22
33.3319	499.34
33.3464	481.60
33.3608	536.76
33.3752	515.19
33.3897	503.22
33.4041	475.25
33.4186	514.55
33.4330	527.35
33.4474	489.47
33.4619	550.02
33.4763	550.62
33.4908	524.66
33.5052	526.15
33.5196	500.47
33.5341	515.64
33.5485	536.13
33.5630	527.13
33.5774	529.19
33.5918	496.12
33.6063	502.90
33.6207	479.95
33.6352	502.89
33.6496	512.52
33.6640	508.99
33.6785	515.71
33.6929	512.62
33.7074	506.12
33.7218	519.32
33.7362	501.04
33.7507	506.65
33.7651	483.75
33.7796	473.80
33.7940	489.03
33.8084	517.12
33.8229	504.91
33.8373	503.80
33.8518	472.04
33.8662	517.30
33.8806	516.33
33.8951	493.58
33.9095	541.13
33.9240	518.16
33.9384	537.20
33.9528	536.84
33.9673	498.92
33.9817	503.36
33.9962	502.02
34.0106	487.02
34.0250	524.12
34.0395	541.39
34.0539	512.04
34.0684	532.19
34.0828	512.33
34.0972	526.73
34.1117	528.63
34.1261	532.06
34.1406	511.66
34.1550	506.72
34.1694	495.04
34.1839	534.36
34.1983	508.93
34.2128	516.09
34.2272	506.05
34.2417	486.85
34.2561	515.53
34.2705	502.10
34.2850	505.87
34.2994	487.33
34.3139	519.19
34.3283	505.05
34.3427	519.54
34.3572	517.06
34.3716	499.55
34.3861	508.18
34.4005	521.59
34.4149	510.75
34.4294	509.85
34.4438	492.13
34.4583	517.44
34.4727	527.94
34.4871	560.20
34.5016	545.25
34.5160	515.62
34.5305	516.08
34.5449	490.24
34.5593	514.06
34.5738	504.22
34.5882	510.67
34.6027	525.37
34.6171	500.34
34.6315	471.74
34.6460	500.39
34.6604	509.00
34.6749	443.46
34.6893	505.68
34.7037	520.92
34.7182	503.81
34.7326	513.86
34.7471	513.58
34.7615	499.46
34.7759	512.73
34.7904	499.13
34.8048	507.11
34.8193	494.36
34.8337	493.89
34.8481	511.11
34.8626	531.77
34.8770	526.42
34.8915	488.45
34.9059	513.97
34.9203	492.86
34.9348	486.38
34.9492	498.11
34.9637	514.35
34.9781	475.12
34.9925	507.19
35.0070	507.32
35.0214	495.43
35.0359	483.64
35.0503	491.44
35.0647	510.14
35.0792	483.57
35.0936	537.91
35.1081	535.32
35.1225	546.33
35.1369	509.77
35.1514	491.27
35.1658	495.87
35.1803	531.55
35.1947	524.29
35.2091	521.62
35.2236	508.54
35.2380	500.10
35.2525	484.60
35.2669	509.20
35.2813	566.22
35.2958	523.64
35.3102	534.56
35.3247	494.31
35.3391	519.90
35.3535	492.92
35.3680	498.06
35.3824	499.58
35.3969	490.42
35.4113	509.16
35.4257	510.88
35.4402	497.86
35.4546	525.18
35.4691	558.53
35.4835	517.85
35.4979	557.35
35.5124	541.23
35.5268	529.91
35.5413	542.00
35.5557	554.03
35.5701	520.36
35.5846	512.61
35.5990	537.72
35.6135	484.75
35.6279	498.74
35.6423	521.89
35.6568	544.54
35.6712	523.90
35.6857	593.68
35.7001	643.32
35.7145	716.37
35.7290	674.52
35.7434	595.62
35.7579	552.14
35.7723	560.78
35.7867	614.11
35.8012	641.56
35.8156	705.02
35.8301	636.95
35.8445	592.91
35.8589	629.01
35.8734	747.16
35.8878	845.77
35.9023	1009.95
35.9167	1094.27
35.9311	1448.44
35.9456	2180.33
35.9600	2382.62
35.9745	1896.54
35.9889	1954.45
36.0033	2523.08
36.0178	2665.49
36.0322	2143.97
36.0467	1815.29
36.0611	1620.17
36.0755	1560.68
36.0900	1457.52
36.1044	1279.09
36.1189	1291.18
36.1333	1145.11
36.1477	998.77
36.1622	985.44
36.1766	960.36
36.1911	827.00
36.2055	730.71
36.2199	711.11
36.2344	678.00
36.2488	666.69
36.2633	666.49
36.2777	685.29
36.2921	687.68
36.3066	731.55
36.3210	770.57
36.3355	789.21
36.3499	829.60
36.3643	857.76
36.3788	902.47
36.3932	898.37
36.4077	929.55
36.4221	963.03
36.4365	950.62
36.4510	916.13
36.4654	970.67
36.4799	925.68
36.4943	880.00
36.5087	866.44
36.5232	815.25
36.5376	780.95
36.5521	763.27
36.5665	741.19
36.5809	755.58
36.5954	692.56
36.6098	639.18
36.6243	649.05
36.6387	646.73
36.6531	593.80
36.6676	603.76
36.6820	573.25
36.6965	558.93
36.7109	591.21
36.7253	588.61
36.7398	559.25
36.7542	567.04
36.7687	575.87
36.7831	565.60
36.7975	596.49
36.8120	576.38
36.8264	568.26
36.8409	564.18
36.8553	577.95
36.8697	569.53
36.8842	598.61
36.8986	579.47
36.9131	611.78
36.9275	641.00
36.9419	594.30
36.9564	551.24
36.9708	572.88
36.9853	554.47
36.9997	578.60
37.0141	517.28
37.0286	517.37
37.0430	554.81
37.0575	577.41
37.0719	568.76
37.0863	522.21
37.1008	535.05
37.1152	558.59
37.1297	534.79
37.1441	507.15
37.1585	533.80
37.1730	512.95
37.1874	525.28
37.2019	534.68
37.2163	530.66
37.2307	509.93
37.2452	506.46
37.2596	480.87
37.2741	512.86
37.2885	519.89
37.3029	511.36
37.3174	530.97
37.3318	487.57
37.3463	518.32
37.3607	537.64
37.3751	509.48
37.3896	489.57
37.4040	510.44
37.4185	489.02
37.4329	511.97
37.4473	504.56
37.4618	504.21
37.4762	489.80
37.4907	501.19
37.5051	502.78
37.5195	537.18
37.5340	534.11
37.5484	474.62
37.5629	534.63
37.5773	520.31
37.5917	509.45
37.6062	477.85
37.6206	488.70
37.6351	546.30
37.6495	505.55
37.6639	487.75
37.6784	523.67
37.6928	530.64
37.7073	522.70
37.7217	513.34
37.7361	495.67
37.7506	501.23
37.7650	521.42
37.7795	512.76
37.7939	489.31
37.8083	512.31
37.8228	523.52
37.8372	497.03
37.8517	483.37
37.8661	526.21
37.8805	530.31
37.8950	524.03
37.9094	534.93
37.9239	504.75
37.9383	484.01
37.9528	510.03
37.9672	498.27
37.9816	497.44
37.9961	499.77
38.0105	513.39
38.0250	531.14
38.0394	536.67
38.0538	523.87
38.0683	511.18
38.0827	520.30
38.0972	523.35
38.1116	544.11
38.1260	525.53
38.1405	520.95
38.1549	487.18
38.1694	512.57
38.1838	538.80
38.1982	521.60
38.2127	541.93
38.2271	562.74
38.2416	519.16
38.2560	503.12
38.2704	477.21
38.2849	534.03
38.2993	533.23
38.3138	496.27
38.3282	499.61
38.3426	502.77
38.3571	523.39
38.3715	514.88
38.3860	524.74
38.4004	549.60
38.4148	538.98
38.4293	580.64
38.4437	593.44
38.4582	599.39
38.4726	642.60
38.4870	689.06
38.5015	764.21
38.5159	798.85
38.5304	794.68
38.5448	808.44
38.5592	799.61
38.5737	787.02
38.5881	723.05
38.6026	707.99
38.6170	706.59
38.6314	677.38
38.6459	627.01
38.6603	655.69
38.6748	615.42
38.6892	594.43
38.7036	589.08
38.7181	548.85
38.7325	535.72
38.7470	530.93
38.7614	508.79
38.7758	507.57
38.7903	501.59
38.8047	509.39
38.8192	526.67
38.8336	522.31
38.8480	523.42
38.8625	524.63
38.8769	512.34
38.8914	491.97
38.9058	513.23
38.9202	484.01
38.9347	488.01
38.9491	497.78
38.9636	471.59
38.9780	479.44
38.9924	517.96
39.0069	493.03
39.0213	476.13
39.0358	484.56
39.0502	493.16
39.0646	518.98
39.0791	535.67
39.0935	546.80
39.1080	535.42
39.1224	493.15
39.1368	500.55
39.1513	499.43
39.1657	479.18
39.1802	543.99
39.1946	484.08
39.2090	494.34
39.2235	509.64
39.2379	491.58
39.2524	512.13
39.2668	492.26
39.2812	500.78
39.2957	497.03
39.3101	493.78
39.3246	483.70
39.3390	544.35
39.3534	528.39
39.3679	509.50
39.3823	499.80
39.3968	521.81
39.4112	491.17
39.4256	503.10
39.4401	477.43
39.4545	471.00
39.4690	510.70
39.4834	489.95
39.4978	496.55
39.5123	476.55
39.5267	485.38
39.5412	464.83
39.5556	485.32
39.5700	501.75
39.5845	514.05
39.5989	486.15
39.6134	493.08
39.6278	482.44
39.6422	493.83
39.6567	495.44
39.6711	500.10
39.6856	481.62
39.7000	505.82
39.7144	498.97
39.7289	500.03
39.7433	507.69
39.7578	509.19
39.7722	475.94
39.7866	489.56
39.8011	487.05
39.8155	507.53
39.8300	512.89
39.8444	532.80
39.8588	518.66
39.8733	530.22
39.8877	480.41
39.9022	497.25
39.9166	511.77
39.9310	502.46
39.9455	509.65
39.9599	480.00
39.9744	506.24
39.9888	485.55
40.0032	498.47
40.0177	487.38
40.0321	494.36
40.0466	508.96
40.0610	527.57
40.0754	521.90
40.0899	514.05
40.1043	539.25
40.1188	544.35
40.1332	503.38
40.1476	454.57
40.1621	493.26
40.1765	479.29
40.1910	487.09
40.2054	465.12
40.2198	507.56
40.2343	495.21
40.2487	505.61
40.2632	511.27
40.2776	498.75
40.2920	492.24
40.3065	495.81
40.3209	509.57
40.3354	516.48
40.3498	483.77
40.3642	505.04
40.3787	478.34
40.3931	511.94
40.4076	465.53
40.4220	506.11
40.4364	476.58
40.4509	465.16
40.4653	511.31
40.4798	509.22
40.4942	497.74
40.5086	508.27
40.5231	527.48
40.5375	515.12
40.5520	467.86
40.5664	489.58
40.5808	480.93
40.5953	534.32
40.6097	519.79
40.6242	505.97
40.6386	513.65
40.6530	513.01
40.6675	515.32
40.6819	505.39
40.6964	527.72
40.7108	509.63
40.7252	487.38
40.7397	485.27
40.7541	536.81
40.7686	532.65
40.7830	513.33
40.7974	511.38
40.8119	518.17
40.8263	520.84
40.8408	471.93
40.8552	515.94
40.8696	528.48
40.8841	489.69
40.8985	498.05
40.9130	517.21
40.9274	492.88
40.9418	519.71
40.9563	509.71
40.9707	491.99
40.9852	492.26
40.9996	472.55
41.0140	498.60
41.0285	538.32
41.0429	500.89
41.0574	502.18
41.0718	479.18
41.0862	549.36
41.1007	509.58
41.1151	495.88
41.1296	484.92
41.1440	492.13
41.1584	517.96
41.1729	536.35
41.1873	508.65
41.2018	508.60
41.2162	521.34
41.2306	452.98
41.2451	495.58
41.2595	516.25
41.2740	498.25
41.2884	493.61
41.3028	499.20
41.3173	466.63
41.3317	483.04
41.3462	523.00
41.3606	516.82
41.3750	532.45
41.3895	519.56
41.4039	511.19
41.4184	502.26
41.4328	531.06
41.4472	488.70
41.4617	504.14
41.4761	491.60
41.4906	517.46
41.5050	479.53
41.5194	503.71
41.5339	525.02
41.5483	496.93
41.5628	478.03
41.5772	514.90
41.5916	461.16
41.6061	481.78
41.6205	520.57
41.6350	482.17
41.6494	482.96
41.6639	516.93
41.6783	471.07
41.6927	498.34
41.7072	531.18
41.7216	503.99
41.7361	464.04
41.7505	503.75
41.7649	469.29
41.7794	521.24
41.7938	500.98
41.8083	502.54
41.8227	551.02
41.8371	546.15
41.8516	544.36
41.8660	569.82
41.8805	548.23
41.8949	530.79
41.9093	553.56
41.9238	513.84
41.9382	543.33
41.9527	540.40
41.9671	561.19
41.9815	572.22
41.9960	552.02
42.0104	529.96
42.0249	537.48
42.0393	578.52
42.0537	583.27
42.0682	580.95
42.0826	588.65
42.0971	584.28
42.1115	584.94
42.1259	572.89
42.1404	573.77
42.1548	582.20
42.1693	642.07
42.1837	698.99
42.1981	775.94
42.2126	848.48
42.2270	933.69
42.2415	1080.58
42.2559	1216.45
42.2703	1330.36
42.2848	1488.87
42.2992	1589.22
42.3137	1641.90
42.3281	1629.10
42.3425	1630.19
42.3570	1501.05
42.3714	1404.50
42.3859	1359.13
42.4003	1323.81
42.4147	1321.17
42.4292	1274.09
42.4436	1164.60
42.4581	1031.96
42.4725	998.33
42.4869	854.45
42.5014	764.92
42.5158	673.22
42.5303	640.28
42.5447	645.49
42.5591	648.24
42.5736	599.12
42.5880	584.18
42.6025	568.41
42.6169	555.07
42.6313	570.14
42.6458	552.40
42.6602	539.46
42.6747	525.69
42.6891	526.16
42.7035	518.32
42.7180	525.72
42.7324	515.19
42.7469	507.98
42.7613	542.39
42.7757	529.65
42.7902	541.89
42.8046	500.84
42.8191	517.45
42.8335	524.71
42.8479	521.05
42.8624	535.61
42.8768	500.15
42.8913	497.64
42.9057	528.96
42.9201	516.19
42.9346	521.78
42.9490	548.89
42.9635	512.71
42.9779	536.21
42.9923	538.50
43.0068	525.21
43.0212	555.10
43.0357	525.59
43.0501	494.73
43.0645	494.16
43.0790	512.69
43.0934	535.83
43.1079	510.22
43.1223	539.20
43.1367	531.47
43.1512	512.26
43.1656	499.79
43.1801	523.86
43.1945	491.55
43.2089	501.11
43.2234	539.57
43.2378	541.97
43.2523	529.13
43.2667	486.95
43.2811	529.60
43.2956	511.75
43.3100	538.85
43.3245	518.95
43.3389	487.19
43.3533	527.21
43.3678	527.87
43.3822	524.95
43.3967	497.28
43.4111	493.07
43.4255	523.26
43.4400	516.31
43.4544	483.66
43.4689	513.44
43.4833	518.34
43.4977	523.16
43.5122	495.52
43.5266	488.47
43.5411	493.70
43.5555	532.83
43.5699	554.39
43.5844	524.40
43.5988	510.50
43.6133	515.51
43.6277	521.95
43.6421	554.41
43.6566	499.57
43.6710	528.04
43.6855	499.85
43.6999	501.02
43.7143	517.36
43.7288	513.41
43.7432	536.75
43.7577	530.47
43.7721	501.06
43.7865	530.02
43.8010	526.56
43.8154	519.92
43.8299	518.81
43.8443	512.07
43.8587	521.30
43.8732	529.37
43.8876	527.54
43.9021	535.67
43.9165	515.35
43.9309	508.44
43.9454	504.41
43.9598	474.08
43.9743	484.64
43.9887	547.63
44.0031	518.23
44.0176	515.48
44.0320	499.28
44.0465	526.15
44.0609	502.09
44.0753	517.73
44.0898	554.69
44.1042	517.09
44.1187	569.95
44.1331	570.40
44.1475	498.07
44.1620	538.35
44.1764	573.47
44.1909	566.88
44.2053	605.26
44.2197	596.84
44.2342	615.97
44.2486	629.60
44.2631	614.81
44.2775	601.89
44.2919	629.44
44.3064	619.62
44.3208	609.11
44.3353	644.07
44.3497	640.03
44.3641	610.33
44.3786	602.24
44.3930	553.18
44.4075	583.39
44.4219	602.24
44.4363	594.43
44.4508	617.36
44.4652	603.15
44.4797	608.26
44.4941	575.13
44.5085	593.29
44.5230	606.38
44.5374	601.17
44.5519	586.97
44.5663	577.77
44.5807	597.84
44.5952	569.30
44.6096	568.71
44.6241	594.45
44.6385	569.09
44.6529	586.34
44.6674	612.38
44.6818	616.19
44.6963	671.58
44.7107	645.52
44.7251	701.09
44.7396	778.35
44.7540	800.97
44.7685	848.17
44.7829	904.01
44.7973	914.44
44.8118	807.34
44.8262	797.14
44.8407	794.38
44.8551	733.72
44.8695	755.30
44.8840	732.36
44.8984	744.97
44.9129	719.83
44.9273	700.73
44.9417	690.53
44.9562	585.21
44.9706	613.41
44.9851	586.85
44.9995	544.24
45.0139	527.79
45.0284	545.79
45.0428	517.11
45.0573	538.60
45.0717	522.09
45.0861	524.95
45.1006	548.84
45.1150	520.21
45.1295	517.77
45.1439	511.39
45.1583	531.24
45.1728	517.43
45.1872	532.31
45.2017	514.69
45.2161	516.15
45.2305	505.11
45.2450	498.30
45.2594	492.11
45.2739	531.01
45.2883	522.59
45.3028	518.04
45.3172	501.97
45.3316	524.10
45.3461	492.85
45.3605	464.70
45.3750	517.05
45.3894	501.71
45.4038	502.87
45.4183	497.16
45.4327	516.21
45.4472	530.41
45.4616	503.38
45.4760	492.02
45.4905	481.42
45.5049	508.39
45.5194	474.74
45.5338	493.36
45.5482	521.57
45.5627	498.35
45.5771	513.02
45.5916	515.59
45.6060	527.87
45.6204	518.37
45.6349	492.83
45.6493	492.82
45.6638	490.57
45.6782	489.92
45.6926	473.94
45.7071	517.17
45.7215	528.56
45.7360	475.17
45.7504	502.92
45.7648	481.66
45.7793	521.37
45.7937	501.77
45.8082	515.45
45.8226	507.17
45.8370	499.54
45.8515	508.74
45.8659	545.59
45.8804	511.89
45.8948	513.00
45.9092	493.29
45.9237	516.56
45.9381	517.72
45.9526	521.01
45.9670	479.41
45.9814	521.49
45.9959	523.94
46.0103	517.59
46.0248	497.57
46.0392	516.23
46.0536	496.53
46.0681	489.88
46.0825	519.53
46.0970	516.42
46.1114	499.02
46.1258	519.73
46.1403	496.19
46.1547	496.69
46.1692	506.31
46.1836	503.05
46.1980	520.62
46.2125	480.63
46.2269	474.87
46.2414	488.58
46.2558	491.25
46.2702	520.55
46.2847	531.89
46.2991	514.58
46.3136	499.70
46.3280	516.62
46.3424	466.90
46.3569	512.93
46.3713	526.35
46.3858	524.24
46.4002	534.71
46.4146	514.24
46.4291	530.99
46.4435	501.25
46.4580	487.47
46.4724	505.96
46.4868	507.82
46.5013	489.35
46.5157	494.09
46.5302	496.25
46.5446	479.19
46.5590	512.27
46.5735	507.46
46.5879	498.60
46.6024	473.04
46.6168	490.03
46.6312	507.69
46.6457	506.73
46.6601	488.87
46.6746	496.51
46.6890	488.39
46.7034	505.14
46.7179	501.87
46.7323	488.73
46.7468	472.28
46.7612	501.95
46.7756	519.31
46.7901	525.33
46.8045	509.63
46.8190	532.43
46.8334	526.67
46.8478	518.21
46.8623	528.84
46.8767	513.35
46.8912	478.54
46.9056	511.68
46.9200	502.31
46.9345	458.80
46.9489	493.22
46.9634	501.78
46.9778	522.83
46.9922	520.51
47.0067	522.22
47.0211	529.68
47.0356	526.39
47.0500	484.66
47.0644	506.39
47.0789	518.27
47.0933	536.70
47.1078	517.50
47.1222	500.42
47.1366	488.85
47.1511	497.22
47.1655	513.19
47.1800	521.54
47.1944	516.15
47.2088	485.97
47.2233	476.79
47.2377	498.14
47.2522	540.61
47.2666	492.00
47.2810	470.78
47.2955	496.83
47.3099	498.98
47.3244	479.99
47.3388	503.88
47.3532	499.07
47.3677	500.49
47.3821	522.65
47.3966	480.23
47.4110	488.14
47.4254	519.46
47.4399	495.33
47.4543	503.46
47.4688	521.66
47.4832	519.54
47.4976	506.20
47.5121	498.34
47.5265	505.87
47.5410	531.35
47.5554	518.66
47.5698	511.71
47.5843	489.96
47.5987	513.07
47.6132	510.22
47.6276	485.76
47.6420	535.27
47.6565	469.96
47.6709	511.98
47.6854	495.97
47.6998	502.44
47.7142	528.09
47.7287	485.81
47.7431	495.84
47.7576	517.12
47.7720	522.25
47.7864	522.71
47.8009	512.30
47.8153	522.57
47.8298	492.54
47.8442	505.85
47.8586	512.87
47.8731	498.92
47.8875	522.69
47.9020	525.79
47.9164	524.92
47.9308	535.08
47.9453	557.62
47.9597	549.28
47.9742	486.42
47.9886	475.07
48.0030	524.25
48.0175	500.38
48.0319	523.00
48.0464	508.31
48.0608	536.40
48.0752	498.90
48.0897	497.84
48.1041	504.48
48.1186	498.73
48.1330	532.81
48.1474	500.29
48.1619	504.89
48.1763	519.32
48.1908	506.81
48.2052	513.32
48.2196	488.09
48.2341	480.05
48.2485	511.38
48.2630	498.09
48.2774	485.62
48.2918	493.43
48.3063	509.99
48.3207	499.32
48.3352	529.70
48.3496	540.26
48.3640	518.17
48.3785	533.95
48.3929	528.52
48.4074	529.15
48.4218	554.81
48.4362	492.27
48.4507	507.82
48.4651	514.95
48.4796	560.19
48.4940	546.40
48.5084	499.83
48.5229	545.66
48.5373	517.13
48.5518	504.23
48.5662	513.48
48.5806	490.40
48.5951	506.79
48.6095	515.52
48.6240	486.36
48.6384	512.39
48.6528	541.16
48.6673	497.26
48.6817	499.78
48.6962	545.24
48.7106	517.60
48.7250	533.42
48.7395	503.87
48.7539	504.87
48.7684	510.77
48.7828	542.90
48.7972	541.82
48.8117	540.72
48.8261	573.97
48.8406	522.69
48.8550	548.74
48.8694	555.96
48.8839	506.47
48.8983	542.44
48.9128	567.45
48.9272	537.60
48.9416	567.25
48.9561	553.18
48.9705	586.45
48.9850	597.54
48.9994	562.19
49.0139	626.69
49.0283	639.35
49.0427	638.38
49.0572	623.08
49.0716	603.37
49.0861	643.51
49.1005	712.74
49.1149	706.05
49.1294	699.72
49.1438	765.20
49.1583	837.07
49.1727	858.54
49.1871	877.95
49.2016	912.70
49.2160	1024.96
49.2305	1139.75
49.2449	1227.32
49.2593	1279.24
49.2738	1371.72
49.2882	1484.06
49.3027	1516.83
49.3171	1618.81
49.3315	1642.58
49.3460	1779.46
49.3604	1831.01
49.3749	1806.22
49.3893	1770.84
49.4037	1793.60
49.4182	1780.06
49.4326	1797.95
49.4471	1675.37
49.4615	1634.23
49.4759	1613.91
49.4904	1512.48
49.5048	1461.27
49.5193	1354.43
49.5337	1282.85
49.5481	1241.00
49.5626	1127.23
49.5770	1076.52
49.5915	1002.46
49.6059	968.02
49.6203	871.43
49.6348	835.55
49.6492	808.49
49.6637	736.04
49.6781	670.81
49.6925	685.00
49.7070	677.57
49.7214	665.43
49.7359	612.32
49.7503	614.79
49.7647	610.72
49.7792	589.60
49.7936	576.83
49.8081	591.63
49.8225	568.53
49.8369	576.66
49.8514	565.08
49.8658	553.23
49.8803	571.42
49.8947	547.63
49.9091	525.88
49.9236	551.26
49.9380	549.91
49.9525	535.67
49.9669	529.06
49.9813	562.53
49.9958	549.89
50.0102	553.07
50.0247	542.46
50.0391	532.96
50.0535	535.56
50.0680	554.28
50.0824	543.09
50.0969	543.74
50.1113	537.80
50.1257	511.43
50.1402	538.50
50.1546	525.71
50.1691	529.63
50.1835	571.30
50.1979	518.93
50.2124	517.89
50.2268	524.75
50.2413	531.51
50.2557	504.31
50.2701	503.97
50.2846	557.56
50.2990	525.95
50.3135	530.85
50.3279	548.52
50.3423	520.54
50.3568	495.86
50.3712	546.98
50.3857	528.23
50.4001	507.56
50.4145	521.88
50.4290	514.68
50.4434	480.79
50.4579	524.37
50.4723	514.98
50.4867	522.52
50.5012	539.36
50.5156	515.91
50.5301	510.76
50.5445	515.71
50.5589	495.16
50.5734	481.40
50.5878	482.07
50.6023	505.65
50.6167	502.98
50.6311	489.52
50.6456	497.65
50.6600	515.54
50.6745	498.33
50.6889	500.13
50.7033	538.24
50.7178	498.71
50.7322	492.01
50.7467	507.66
50.7611	520.87
50.7755	526.80
50.7900	503.07
50.8044	497.35
50.8189	511.55
50.8333	515.64
50.8477	522.19
50.8622	576.10
50.8766	541.08
50.8911	515.64
50.9055	541.69
50.9199	517.95
50.9344	541.69
50.9488	540.77
50.9633	520.55
50.9777	500.81
50.9921	510.20
51.0066	501.67
51.0210	514.24
51.0355	495.62
51.0499	539.34
51.0643	543.46
51.0788	510.65
51.0932	503.66
51.1077	500.40
51.1221	511.51
51.1365	504.51
51.1510	480.49
51.1654	500.49
51.1799	503.89
51.1943	494.80
51.2087	496.63
51.2232	495.16
51.2376	483.66
51.2521	537.74
51.2665	512.98
51.2809	542.85
51.2954	519.93
51.3098	518.55
51.3243	497.18
51.3387	522.93
51.3531	533.05
51.3676	524.36
51.3820	490.20
51.3965	503.62
51.4109	470.11
51.4253	479.33
51.4398	510.59
51.4542	502.54
51.4687	529.70
51.4831	518.21
51.4975	520.27
51.5120	495.94
51.5264	506.31
51.5409	543.16
51.5553	533.44
51.5697	503.63
51.5842	498.25
51.5986	507.06
51.6131	511.91
51.6275	521.37
51.6419	486.97
51.6564	498.67
51.6708	513.83
51.6853	514.59
51.6997	519.47
51.7141	515.53
51.7286	501.37
51.7430	525.76
51.7575	517.91
51.7719	480.69
51.7863	498.72
51.8008	495.55
51.8152	511.64
51.8297	517.66
51.8441	505.53
51.8585	521.40
51.8730	505.97
51.8874	496.55
51.9019	518.79
51.9163	519.43
51.9307	489.80
51.9452	485.59
51.9596	492.37
51.9741	519.38
51.9885	500.83
52.0029	491.09
52.0174	487.58
52.0318	525.35
52.0463	520.89
52.0607	518.48
52.0751	479.52
52.0896	494.37
52.1040	502.35
52.1185	517.19
52.1329	534.37
52.1473	480.91
52.1618	495.64
52.1762	523.89
52.1907	475.38
52.2051	516.94
52.2195	488.88
52.2340	479.61
52.2484	514.74
52.2629	502.43
52.2773	546.42
52.2917	497.15
52.3062	486.04
52.3206	519.54
52.3351	509.69
52.3495	495.66
52.3639	496.65
52.3784	490.06
52.3928	487.63
52.4073	512.98
52.4217	522.69
52.4361	500.64
52.4506	514.46
52.4650	521.90
52.4795	503.62
52.4939	482.23
52.5083	483.60
52.5228	512.86
52.5372	524.82
52.5517	503.57
52.5661	537.54
52.5805	498.93
52.5950	476.44
52.6094	511.53
52.6239	499.33
52.6383	536.06
52.6527	510.47
52.6672	534.12
52.6816	509.99
52.6961	552.66
52.7105	530.61
52.7250	512.52
52.7394	517.11
52.7538	532.60
52.7683	508.69
52.7827	486.33
52.7972	534.68
52.8116	517.74
52.8260	506.73
52.8405	524.39
52.8549	522.06
52.8694	503.73
52.8838	484.23
52.8982	484.12
52.9127	514.55
52.9271	495.07
52.9416	543.29
52.9560	517.25
52.9704	518.19
52.9849	504.43
52.9993	536.93
53.0138	518.24
53.0282	531.03
53.0426	493.69
53.0571	564.22
53.0715	534.75
53.0860	501.32
53.1004	519.94
53.1148	529.34
53.1293	493.89
53.1437	477.05
53.1582	497.25
53.1726	523.14
53.1870	514.78
53.2015	524.21
53.2159	541.39
53.2304	504.38
53.2448	494.00
53.2592	501.25
53.2737	537.77
53.2881	543.70
53.3026	540.14
53.3170	515.45
53.3314	520.08
53.3459	509.62
53.3603	496.67
53.3748	467.52
53.3892	482.57
53.4036	473.98
53.4181	542.31
53.4325	519.07
53.4470	530.81
53.4614	493.00
53.4758	515.70
53.4903	530.11
53.5047	505.81
53.5192	469.95
53.5336	455.50
53.5480	475.64
53.5625	492.68
53.5769	517.40
53.5914	551.42
53.6058	525.54
53.6202	536.27
53.6347	531.11
53.6491	506.47
53.6636	541.34
53.6780	542.79
53.6924	517.54
53.7069	551.16
53.7213	507.82
53.7358	516.08
53.7502	554.26
53.7646	485.98
53.7791	503.19
53.7935	499.44
53.8080	522.76
53.8224	496.39
53.8368	529.74
53.8513	526.48
53.8657	539.37
53.8802	519.02
53.8946	541.79
53.9090	511.14
53.9235	485.87
53.9379	518.28
53.9524	527.28
53.9668	487.62
53.9812	491.05
53.9957	532.59
54.0101	490.31
54.0246	508.70
54.0390	546.59
54.0534	535.40
54.0679	547.35
54.0823	536.59
54.0968	513.08
54.1112	501.84
54.1256	523.67
54.1401	528.03
54.1545	493.15
54.1690	515.11
54.1834	521.67
54.1978	526.96
54.2123	544.09
54.2267	512.18
54.2412	508.12
54.2556	537.63
54.2700	495.01
54.2845	527.40
54.2989	478.20
54.3134	522.84
54.3278	522.57
54.3422	523.23
54.3567	517.27
54.3711	517.89
54.3856	521.21
54.4000	521.08
54.4144	523.98
54.4289	513.37
54.4433	500.78
54.4578	511.64
54.4722	533.53
54.4866	532.80
54.5011	538.50
54.5155	535.03
54.5300	518.74
54.5444	550.04
54.5588	512.95
54.5733	535.52
54.5877	545.00
54.6022	541.71
54.6166	516.54
54.6310	528.42
54.6455	546.28
54.6599	529.22
54.6744	513.10
54.6888	508.27
54.7032	525.77
54.7177	513.45
54.7321	506.74
54.7466	524.11
54.7610	540.12
54.7754	505.88
54.7899	555.91
54.8043	558.13
54.8188	561.59
54.8332	552.33
54.8476	601.49
54.8621	580.11
54.8765	546.79
54.8910	562.74
54.9054	599.80
54.9198	561.56
54.9343	593.58
54.9487	608.75
54.9632	598.05
54.9776	572.05
54.9920	575.51
55.0065	553.59
55.0209	557.61
55.0354	579.33
55.0498	553.88
55.0642	558.19
55.0787	598.11
55.0931	579.97
55.1076	566.20
55.1220	596.42
55.1364	576.53
55.1509	543.46
55.1653	541.98
55.1798	547.82
55.1942	527.98
55.2086	536.79
55.2231	533.81
55.2375	537.11
55.2520	557.39
55.2664	554.98
55.2808	545.10
55.2953	531.08
55.3097	543.83
55.3242	526.77
55.3386	519.59
55.3530	509.70
55.3675	506.77
55.3819	553.72
55.3964	521.09
55.4108	502.36
55.4252	541.66
55.4397	548.10
55.4541	524.46
55.4686	536.88
55.4830	546.07
55.4974	549.53
55.5119	537.85
55.5263	540.76
55.5408	534.87
55.5552	566.96
55.5696	545.95
55.5841	540.26
55.5985	542.13
55.6130	514.69
55.6274	541.25
55.6418	517.50
55.6563	524.56
55.6707	516.48
55.6852	533.21
55.6996	532.92
55.7140	560.71
55.7285	545.99
55.7429	533.00
55.7574	541.33
55.7718	536.52
55.7862	574.07
55.8007	519.33
55.8151	550.93
55.8296	512.70
55.8440	556.52
55.8584	569.12
55.8729	539.44
55.8873	510.48
55.9018	585.08
55.9162	499.72
55.9306	510.22
55.9451	530.69
55.9595	529.84
55.9740	539.72
55.9884	513.64
56.0028	530.50
56.0173	529.34
56.0317	548.10
56.0462	535.85
56.0606	552.88
56.0750	532.67
56.0895	493.70
56.1039	519.38
56.1184	550.29
56.1328	513.00
56.1472	482.82
56.1617	517.48
56.1761	527.15
56.1906	503.97
56.2050	529.16
56.2194	566.45
56.2339	526.98
56.2483	535.63
56.2628	538.42
56.2772	518.14
56.2916	509.84
56.3061	513.02
56.3205	504.78
56.3350	556.17
56.3494	508.24
56.3639	537.14
56.3783	535.55
56.3927	521.73
56.4072	511.45
56.4216	508.65
56.4361	531.06
56.4505	507.72
56.4649	559.78
56.4794	522.60
56.4938	541.64
56.5083	518.09
56.5227	512.36
56.5371	520.90
56.5516	541.17
56.5660	511.99
56.5805	516.84
56.5949	498.78
56.6093	527.20
56.6238	517.63
56.6382	517.64
56.6527	515.49
56.6671	514.88
56.6815	524.49
56.6960	530.84
56.7104	517.92
56.7249	537.43
56.7393	518.39
56.7537	534.50
56.7682	523.56
56.7826	544.22
56.7971	530.91
56.8115	505.59
56.8259	519.36
56.8404	540.64
56.8548	523.82
56.8693	520.85
56.8837	541.74
56.8981	554.95
56.9126	545.79
56.9270	547.56
56.9415	546.35
56.9559	510.45
56.9703	507.45
56.9848	496.44
56.9992	523.68
57.0137	498.55
57.0281	543.63
57.0425	538.80
57.0570	571.74
57.0714	554.37
57.0859	559.84
57.1003	511.98
57.1147	517.45
57.1292	525.94
57.1436	524.90
57.1581	508.45
57.1725	548.89
57.1869	514.40
57.2014	533.30
57.2158	549.16
57.2303	525.39
57.2447	542.68
57.2591	514.69
57.2736	538.93
57.2880	552.00
57.3025	530.26
57.3169	542.85
57.3313	564.11
57.3458	526.58
57.3602	533.89
57.3747	534.15
57.3891	518.97
57.4035	508.08
57.4180	515.55
57.4324	527.96
57.4469	513.29
57.4613	543.14
57.4757	558.72
57.4902	546.76
57.5046	507.97
57.5191	522.58
57.5335	538.34
57.5479	543.40
57.5624	508.71
57.5768	521.60
57.5913	520.46
57.6057	529.84
57.6201	485.09
57.6346	522.45
57.6490	523.49
57.6635	559.88
57.6779	557.48
57.6923	523.35
57.7068	537.28
57.7212	549.86
57.7357	534.33
57.7501	534.07
57.7645	522.49
57.7790	524.27
57.7934	534.07
57.8079	542.06
57.8223	523.67
57.8367	524.19
57.8512	540.84
57.8656	563.15
57.8801	504.01
57.8945	541.51
57.9089	514.50
57.9234	546.08
57.9378	558.39
57.9523	562.17
57.9667	525.94
57.9811	554.33
57.9956	534.38
58.0100	551.94
58.0245	538.05
58.0389	563.76
58.0533	550.10
58.0678	536.91
58.0822	554.90
58.0967	555.34
58.1111	532.58
58.1255	542.28
58.1400	527.27
58.1544	529.53
58.1689	512.12
58.1833	526.44
58.1977	531.19
58.2122	559.85
58.2266	541.03
58.2411	542.36
58.2555	568.30
58.2699	532.60
58.2844	497.71
58.2988	537.71
58.3133	532.78
58.3277	579.60
58.3421	540.27
58.3566	548.82
58.3710	563.35
58.3855	589.83
58.3999	588.39
58.4143	565.85
58.4288	611.23
58.4432	584.51
58.4577	590.09
58.4721	612.23
58.4865	615.10
58.5010	623.90
58.5154	592.16
58.5299	594.44
58.5443	586.00
58.5587	620.01
58.5732	641.61
58.5876	657.76
58.6021	639.49
58.6165	623.17
58.6309	650.03
58.6454	649.27
58.6598	676.45
58.6743	605.26
58.6887	581.06
58.7031	638.55
58.7176	624.73
58.7320	598.85
58.7465	608.19
58.7609	601.24
58.7753	594.59
58.7898	629.42
58.8042	602.90
58.8187	590.40
58.8331	582.11
58.8475	580.38
58.8620	571.01
58.8764	564.48
58.8909	554.99
58.9053	602.16
58.9197	573.27
58.9342	555.81
58.9486	504.84
58.9631	523.87
58.9775	572.25
58.9919	556.03
59.0064	514.90
59.0208	525.50
59.0353	566.24
59.0497	553.70
59.0641	542.50
59.0786	544.98
59.0930	574.12
59.1075	568.98
59.1219	549.66
59.1363	530.69
59.1508	562.08
59.1652	566.41
59.1797	560.52
59.1941	550.69
59.2085	555.47
59.2230	582.05
59.2374	582.73
59.2519	565.53
59.2663	565.07
59.2807	581.59
59.2952	557.91
59.3096	561.21
59.3241	570.00
59.3385	590.68
59.3529	597.52
59.3674	563.18
59.3818	550.15
59.3963	577.99
59.4107	550.58
59.4251	603.46
59.4396	565.60
59.4540	525.04
59.4685	563.95
59.4829	566.66
59.4973	554.16
59.5118	572.23
59.5262	573.14
59.5407	569.70
59.5551	545.06
59.5695	550.51
59.5840	530.47
59.5984	536.14
59.6129	561.80
59.6273	553.11
59.6417	561.43
59.6562	535.65
59.6706	554.57
59.6851	524.92
59.6995	554.82
59.7139	581.50
59.7284	546.17
59.7428	533.57
59.7573	533.32
59.7717	520.98
59.7861	552.01
59.8006	569.85
59.8150	540.42
59.8295	538.49
59.8439	538.65
59.8583	537.17
59.8728	525.64
59.8872	508.09
59.9017	547.59
59.9161	569.44
59.9305	541.95
59.9450	558.27
59.9594	518.05
59.9739	563.41
59.9883	560.35
60.0027	522.20
60.0172	536.18
60.0316	537.69
60.0461	543.32
60.0605	523.23
60.0750	534.35
60.0894	568.21
60.1038	575.33
60.1183	550.48
60.1327	530.02
60.1472	512.02
60.1616	531.23
60.1760	558.94
60.1905	568.73
60.2049	512.64
60.2194	552.84
60.2338	581.08
60.2482	568.44
60.2627	555.90
60.2771	575.56
60.2916	542.07
60.3060	511.45
60.3204	548.32
60.3349	577.87
60.3493	541.20
60.3638	553.57
60.3782	541.03
60.3926	546.57
60.4071	506.92
60.4215	544.83
60.4360	537.80
60.4504	523.48
60.4648	544.15
60.4793	540.21
60.4937	530.94
60.5082	523.07
60.5226	543.89
60.5370	536.01
60.5515	530.36
60.5659	505.42
60.5804	559.46
60.5948	560.02
60.6092	537.62
60.6237	512.33
60.6381	536.86
60.6526	542.62
60.6670	559.29
60.6814	520.73
60.6959	534.31
60.7103	546.49
60.7248	527.33
60.7392	489.15
60.7536	554.96
60.7681	569.38
60.7825	558.82
60.7970	531.41
60.8114	533.57
60.8258	507.34
60.8403	562.07
60.8547	544.84
60.8692	562.31
60.8836	560.50
60.8980	532.39
60.9125	578.44
60.9269	569.15
60.9414	609.08
60.9558	536.06
60.9702	509.55
60.9847	540.78
60.9991	546.76
61.0136	518.88
61.0280	556.11
61.0424	546.13
61.0569	535.89
61.0713	529.30
61.0858	529.40
61.1002	548.51
61.1146	561.60
61.1291	536.98
61.1435	543.41
61.1580	532.24
61.1724	577.93
61.1868	526.06
61.2013	520.08
61.2157	544.63
61.2302	532.99
61.2446	554.54
61.2590	553.41
61.2735	519.99
61.2879	537.23
61.3024	569.08
61.3168	547.39
61.3312	585.18
61.3457	571.57
61.3601	559.07
61.3746	530.58
61.3890	515.38
61.4034	559.92
61.4179	519.69
61.4323	559.94
61.4468	571.30
61.4612	573.40
61.4756	588.01
61.4901	539.91
61.5045	542.82
61.5190	565.75
61.5334	558.61
61.5478	559.87
61.5623	556.89
61.5767	542.42
61.5912	546.64
61.6056	567.04
61.6200	525.06
61.6345	511.64
61.6489	578.80
61.6634	545.45
61.6778	526.71
61.6922	557.00
61.7067	571.63
61.7211	585.45
61.7356	568.30
61.7500	569.21
61.7644	544.75
61.7789	554.09
61.7933	545.31
61.8078	572.42
61.8222	590.48
61.8366	545.57
61.8511	532.44
61.8655	583.94
61.8800	561.53
61.8944	547.31
61.9088	575.48
61.9233	532.10
61.9377	536.80
61.9522	551.43
61.9666	549.41
61.9810	568.26
61.9955	550.39
62.0099	558.55
62.0244	579.83
62.0388	564.71
62.0532	565.15
62.0677	565.21
62.0821	550.82
62.0966	600.29
62.1110	575.85
62.1254	570.94
62.1399	564.01
62.1543	546.57
62.1688	531.98
62.1832	554.53
62.1976	549.05
62.2121	576.18
62.2265	554.29
62.2410	520.27
62.2554	548.26
62.2698	549.53
62.2843	561.77
62.2987	573.17
62.3132	569.48
62.3276	562.83
62.3420	534.73
62.3565	560.52
62.3709	582.13
62.3854	559.72
62.3998	562.63
62.4142	570.37
62.4287	580.97
62.4431	557.29
62.4576	542.54
62.4720	596.01
62.4864	570.90
62.5009	562.60
62.5153	537.78
62.5298	568.17
62.5442	565.55
62.5586	548.28
62.5731	557.98
62.5875	559.53
62.6020	587.50
62.6164	568.82
62.6308	543.96
62.6453	578.49
62.6597	544.93
62.6742	576.31
62.6886	573.36
62.7030	571.88
62.7175	572.96
62.7319	560.65
62.7464	543.30
62.7608	551.86
62.7752	533.58
62.7897	539.87
62.8041	555.86
62.8186	599.16
62.8330	606.98
62.8474	576.03
62.8619	554.75
62.8763	545.20
62.8908	507.13
62.9052	541.63
62.9196	536.57
62.9341	568.78
62.9485	598.24
62.9630	573.78
62.9774	560.39
62.9918	557.72
63.0063	565.05
63.0207	591.86
63.0352	583.13
63.0496	569.95
63.0640	557.75
63.0785	558.19
63.0929	573.53
63.1074	563.92
63.1218	572.61
63.1362	585.87
63.1507	535.69
63.1651	557.87
63.1796	573.85
63.1940	557.29
63.2084	541.01
63.2229	574.43
63.2373	548.70
63.2518	559.35
63.2662	563.28
63.2806	603.95
63.2951	567.00
63.3095	511.51
63.3240	559.51
63.3384	576.66
63.3528	557.14
63.3673	575.20
63.3817	564.63
63.3962	554.15
63.4106	566.07
63.4250	561.84
63.4395	598.78
63.4539	567.54
63.4684	608.52
63.4828	585.25
63.4972	616.06
63.5117	576.24
63.5261	562.29
63.5406	546.11
63.5550	574.52
63.5694	555.01
63.5839	568.72
63.5983	575.92
63.6128	561.04
63.6272	565.17
63.6416	593.74
63.6561	595.04
63.6705	576.52
63.6850	569.92
63.6994	600.46
63.7138	614.89
63.7283	575.79
63.7427	586.01
63.7572	598.87
63.7716	556.61
63.7861	594.03
63.8005	570.60
63.8149	611.69
63.8294	592.50
63.8438	608.31
63.8583	639.20
63.8727	595.92
63.8871	595.46
63.9016	605.57
63.9160	576.48
63.9305	588.61
63.9449	629.38
63.9593	613.30
63.9738	619.22
63.9882	603.79
64.0027	576.66
64.0171	641.11
64.0315	603.23
64.0460	568.82
64.0604	640.04
64.0749	601.37
64.0893	639.91
64.1037	611.32
64.1182	654.17
64.1326	670.01
64.1471	607.31
64.1615	619.35
64.1759	662.86
64.1904	662.43
64.2048	682.65
64.2193	742.61
64.2337	731.89
64.2481	715.66
64.2626	722.30
64.2770	764.92
64.2915	775.66
64.3059	779.94
64.3203	798.04
64.3348	798.04
64.3492	763.82
64.3637	768.11
64.3781	806.37
64.3925	784.93
64.4070	775.57
64.4214	811.91
64.4359	800.09
64.4503	763.63
64.4647	807.77
64.4792	802.58
64.4936	777.24
64.5081	791.55
64.5225	777.50
64.5369	774.46
64.5514	717.85
64.5658	714.29
64.5803	769.84
64.5947	754.21
64.6091	695.13
64.6236	729.23
64.6380	739.24
64.6525	746.98
64.6669	746.47
64.6813	735.50
64.6958	721.24
64.7102	758.12
64.7247	728.57
64.7391	731.97
64.7535	718.46
64.7680	736.72
64.7824	792.91
64.7969	753.33
64.8113	783.65
64.8257	824.22
64.8402	816.17
64.8546	849.64
64.8691	855.64
64.8835	853.11
64.8979	942.29
64.9124	909.38
64.9268	918.91
64.9413	934.14
64.9557	968.87
64.9701	1021.99
64.9846	1090.22
64.9990	1181.49
65.0135	1260.52
65.0279	1545.15
65.0423	1774.01
65.0568	1990.01
65.0712	2663.17
65.0857	3466.25
65.1001	4566.35
65.1145	6151.29
65.1290	8044.13
65.1434	9530.12
65.1579	11008.86
65.1723	11829.85
65.1867	11283.42
65.2012	10023.79
65.2156	8323.57
65.2301	6629.55
65.2445	5245.68
65.2589	4436.36
65.2734	4277.60
65.2878	4436.42
65.3023	4974.32
65.3167	5720.49
65.3311	6576.44
65.3456	7067.53
65.3600	7039.46
65.3745	6483.73
65.3889	5619.17
65.4033	4332.31
65.4178	3581.43
65.4322	2782.98
65.4467	2109.77
65.4611	1732.96
65.4755	1484.24
65.4900	1281.33
65.5044	1145.90
65.5189	1075.68
65.5333	1006.72
65.5477	951.92
65.5622	910.28
65.5766	863.54
65.5911	839.11
65.6055	825.11
65.6199	811.91
65.6344	765.35
65.6488	750.77
65.6633	770.95
65.6777	735.03
65.6921	686.78
65.7066	751.20
65.7210	714.25
65.7355	726.71
65.7499	727.90
65.7643	674.75
65.7788	725.96
65.7932	694.24
65.8077	642.96
65.8221	678.96
65.8365	645.49
65.8510	644.08
65.8654	682.68
65.8799	669.77
65.8943	673.57
65.9087	677.03
65.9232	662.43
65.9376	653.78
65.9521	651.13
65.9665	656.13
65.9809	624.11
65.9954	605.20
66.0098	596.36
66.0243	617.06
66.0387	600.76
66.0531	653.48
66.0676	628.78
66.0820	591.24
66.0965	619.66
66.1109	618.43
66.1253	635.61
66.1398	633.30
66.1542	623.41
66.1687	612.52
66.1831	638.27
66.1975	615.14
66.2120	604.56
66.2264	622.04
66.2409	639.20
66.2553	594.36
66.2697	605.43
66.2842	613.78
66.2986	635.33
66.3131	610.40
66.3275	599.13
66.3419	601.04
66.3564	617.25
66.3708	582.78
66.3853	578.09
66.3997	578.56
66.4141	589.54
66.4286	603.49
66.4430	567.81
66.4575	585.83
66.4719	617.00
66.4863	649.05
66.5008	590.39
66.5152	549.94
66.5297	588.87
66.5441	616.61
66.5585	631.70
66.5730	579.42
66.5874	581.41
66.6019	593.28
66.6163	587.66
66.6307	595.46
66.6452	584.93
66.6596	583.79
66.6741	591.26
66.6885	613.14
66.7029	642.96
66.7174	604.38
66.7318	576.48
66.7463	586.25
66.7607	538.85
66.7751	574.53
66.7896	595.80
66.8040	584.30
66.8185	611.26
66.8329	586.63
66.8473	562.93
66.8618	562.52
66.8762	577.42
66.8907	600.71
66.9051	583.33
66.9195	575.72
66.9340	571.09
66.9484	585.05
66.9629	579.00
66.9773	569.40
66.9917	564.12
67.0062	539.63
67.0206	603.93
67.0351	612.59
67.0495	572.48
67.0639	562.48
67.0784	587.96
67.0928	597.41
67.1073	600.79
67.1217	582.22
67.1361	554.12
67.1506	549.02
67.1650	597.80
67.1795	600.15
67.1939	549.66
67.2083	576.35
67.2228	594.11
67.2372	614.27
67.2517	606.48
67.2661	577.50
67.2805	582.05
67.2950	591.72
67.3094	623.15
67.3239	603.00
67.3383	597.80
67.3527	560.52
67.3672	584.74
67.3816	557.41
67.3961	550.46
67.4105	570.84
67.4250	594.33
67.4394	601.55
67.4538	571.37
67.4683	576.16
67.4827	579.12
67.4972	577.19
67.5116	555.31
67.5260	553.78
67.5405	564.07
67.5549	555.13
67.5694	552.44
67.5838	567.07
67.5982	590.36
67.6127	556.14
67.6271	588.74
67.6416	564.66
67.6560	580.21
67.6704	593.58
67.6849	566.26
67.6993	573.52
67.7138	571.59
67.7282	577.09
67.7426	604.79
67.7571	566.06
67.7715	579.83
67.7860	566.62
67.8004	604.66
67.8148	612.67
67.8293	536.54
67.8437	553.09
67.8582	572.05
67.8726	590.44
67.8870	547.03
67.9015	540.24
67.9159	556.54
67.9304	558.49
67.9448	581.79
67.9592	530.17
67.9737	542.11
67.9881	601.10
68.0026	569.31
68.0170	565.18
68.0314	593.58
68.0459	548.12
68.0603	554.96
68.0748	552.12
68.0892	589.94
68.1036	576.17
68.1181	572.89
68.1325	579.09
68.1470	570.31
68.1614	591.54
68.1758	569.81
68.1903	575.14
68.2047	562.60
68.2192	587.21
68.2336	616.28
68.2480	582.45
68.2625	565.66
68.2769	583.58
68.2914	582.57
68.3058	573.47
68.3202	575.99
68.3347	590.66
68.3491	574.54
68.3636	576.16
68.3780	564.38
68.3924	563.03
68.4069	589.42
68.4213	616.46
68.4358	599.99
68.4502	546.79
68.4646	574.32
68.4791	584.99
68.4935	573.63
68.5080	565.08
68.5224	568.77
68.5368	613.64
68.5513	592.53
68.5657	539.90
68.5802	563.44
68.5946	510.22
68.6090	551.38
68.6235	552.62
68.6379	562.41
68.6524	575.98
68.6668	592.07
68.6812	571.37
68.6957	576.43
68.7101	578.74
68.7246	593.07
68.7390	591.38
68.7534	521.75
68.7679	575.21
68.7823	590.73
68.7968	568.46
68.8112	571.05
68.8256	564.15
68.8401	563.89
68.8545	548.50
68.8690	545.27
68.8834	587.89
68.8978	649.36
68.9123	621.55
68.9267	566.10
68.9412	609.46
68.9556	577.76
68.9700	628.91
68.9845	593.82
68.9989	550.43
69.0134	584.48
69.0278	610.73
69.0422	609.01
69.0567	598.71
69.0711	581.32
69.0856	638.18
69.1000	555.61
69.1144	573.79
69.1289	636.22
69.1433	557.39
69.1578	600.03
69.1722	616.36
69.1866	589.30
69.2011	523.93
69.2155	631.55
69.2300	583.43
69.2444	641.34
69.2588	603.79
69.2733	596.67
69.2877	632.61
69.3022	545.27
69.3166	555.23
69.3310	605.42
69.3455	582.30
69.3599	595.80
69.3744	605.19
69.3888	571.08
69.4032	615.54
69.4177	578.21
69.4321	588.97
69.4466	560.10
69.4610	562.41
69.4754	566.51
69.4899	602.67
69.5043	558.84
69.5188	599.30
69.5332	603.85
69.5476	545.28
69.5621	572.85
69.5765	574.63
69.5910	591.64
69.6054	565.35
69.6198	571.98
69.6343	593.66
69.6487	595.58
69.6632	576.20
69.6776	601.04
69.6920	540.80
69.7065	619.65
69.7209	624.16
69.7354	596.17
69.7498	596.91
69.7642	566.66
69.7787	608.09
69.7931	579.17
69.8076	550.35
69.8220	609.95
69.8364	614.81
69.8509	546.85
69.8653	570.07
69.8798	565.01
69.8942	596.82
69.9086	637.73
69.9231	607.78
69.9375	609.54
69.9520	619.93
69.9664	573.66
69.9808	572.24
69.9953	603.94
70.0097	553.36
70.0242	604.09
70.0386	600.57
70.0530	577.97
70.0675	607.33
70.0819	540.41
70.0964	596.81
70.1108	629.96
70.1252	680.15
70.1397	517.42
70.1541	485.52
70.1686	508.70
70.1830	569.53
70.1974	556.15
70.2119	561.99
70.2263	539.02
70.2408	545.60
70.2552	637.43
70.2696	642.89
70.2841	572.69
70.2985	548.14
70.3130	617.30
70.3274	606.44
70.3418	555.21
70.3563	516.34
70.3707	575.30
70.3852	573.82
70.3996	543.65
70.4140	540.62
70.4285	566.92
70.4429	550.19
70.4574	584.63
70.4718	579.33
70.4862	584.66
70.5007	555.68
70.5151	519.32
70.5296	580.72
70.5440	602.65
70.5584	618.64
70.5729	528.27
70.5873	603.81
70.6018	580.41
70.6162	605.65
70.6306	585.09
70.6451	569.17
70.6595	541.53
70.6740	621.92
70.6884	590.42
70.7028	597.41
70.7173	544.44
70.7317	544.79
70.7462	610.08
70.7606	576.91
70.7750	560.14
70.7895	557.42
70.8039	556.28
70.8184	589.39
70.8328	557.56
70.8472	554.30
70.8617	610.52
70.8761	558.40
70.8906	582.56
70.9050	587.16
70.9194	553.62
70.9339	554.52
70.9483	626.53
70.9628	627.88
70.9772	576.82
70.9916	588.14
71.0061	569.51
71.0205	551.17
71.0350	555.94
71.0494	536.74
71.0638	555.49
71.0783	602.74
71.0927	631.57
71.1072	633.66
71.1216	601.08
71.1361	559.30
71.1505	552.73
71.1649	633.08
71.1794	630.93
71.1938	595.92
71.2083	551.18
71.2227	542.66
71.2371	622.14
71.2516	649.41
71.2660	580.97
71.2805	590.23
71.2949	567.02
71.3093	569.19
71.3238	606.61
71.3382	587.39
71.3527	536.74
71.3671	530.19
71.3815	564.28
71.3960	598.75
71.4104	561.22
71.4249	557.79
71.4393	536.94
71.4537	534.53
71.4682	554.15
71.4826	565.10
71.4971	592.63
71.5115	596.04
71.5259	523.14
71.5404	549.86
71.5548	593.03
71.5693	564.30
71.5837	534.14
71.5981	527.31
71.6126	545.77
71.6270	568.24
71.6415	615.03
71.6559	619.69
71.6703	615.40
71.6848	547.09
71.6992	565.48
71.7137	587.79
71.7281	571.82
71.7425	584.81
71.7570	584.91
71.7714	530.41
71.7859	538.01
71.8003	577.72
71.8147	607.23
71.8292	613.54
71.8436	538.56
71.8581	570.06
71.8725	580.43
71.8869	615.48
71.9014	657.38
71.9158	597.06
71.9303	508.58
71.9447	569.10
71.9591	646.59
71.9736	630.03
71.9880	549.45
72.0025	467.46
72.0169	461.71
72.0313	532.99
72.0458	605.54
72.0602	572.78
72.0747	534.13
72.0891	585.80
72.1035	671.32
72.1180	622.53
72.1324	591.14
72.1469	580.00
72.1613	552.29
72.1757	599.57
72.1902	645.67
72.2046	659.85
72.2191	607.20
72.2335	570.34
72.2479	535.28
72.2624	547.32
72.2768	559.65
72.2913	562.80
72.3057	529.09
72.3201	545.70
72.3346	566.97
72.3490	584.89
72.3635	591.71
72.3779	574.37
72.3923	579.22
72.4068	547.38
72.4212	531.17
72.4357	534.05
72.4501	614.24
72.4645	660.64
72.4790	647.14
72.4934	680.51
72.5079	612.36
72.5223	527.40
72.5367	555.64
72.5512	633.28
72.5656	571.30
72.5801	535.91
72.5945	517.40
72.6089	519.02
72.6234	537.00
72.6378	542.02
72.6523	576.35
72.6667	619.29
72.6811	639.09
72.6956	595.76
72.7100	611.03
72.7245	645.36
72.7389	664.95
72.7533	659.91
72.7678	618.57
72.7822	588.74
72.7967	582.11
72.8111	620.45
72.8255	588.72
72.8400	532.32
72.8544	573.34
72.8689	526.74
72.8833	528.03

Result vector
22.1120	582.70
22.1264	608.42
22.1409	608.89
22.1553	593.42
22.1697	644.10
22.1842	599.72
22.1986	475.80
22.2131	462.38
22.2275	470.82
22.2419	569.73
22.2564	577.38
22.2708	558.24
22.2853	575.09
22.2997	595.08
22.3141	634.48
22.3286	578.51
22.3430	557.50
22.3575	593.09
22.3719	549.76
22.3863	534.88
22.4008	607.31
22.4152	614.18
22.4297	566.66
22.4441	579.69
22.4585	581.62
22.4730	596.50
22.4874	702.04
22.5019	651.02
22.5163	639.88
22.5307	645.63
22.5452	620.91
22.5596	531.46
22.5741	525.83
22.5885	611.18
22.6029	682.23
22.6174	622.94
22.6318	592.27
22.6463	630.67
22.6607	498.30
22.6751	512.61
22.6896	658.36
22.7040	639.39
22.7185	594.69
22.7329	555.06
22.7473	560.62
22.7618	541.72
22.7762	545.80
22.7907	610.22
22.8051	523.59
22.8195	578.35
22.8340	620.82
22.8484	594.10
22.8629	667.11
22.8773	655.53
22.8917	628.31
22.9062	638.35
22.9206	599.55
22.9351	579.45
22.9495	550.72
22.9639	537.59
22.9784	569.24
22.9928	583.78
23.0073	576.49
23.0217	575.26
23.0361	557.84
23.0506	585.54
23.0650	652.17
23.0795	578.36
23.0939	538.42
23.1083	584.79
23.1228	565.70
23.1372	626.51
23.1517	560.48
23.1661	556.15
23.1806	457.49
23.1950	529.75
23.2094	570.59
23.2239	631.48
23.2383	644.14
23.2528	566.70
23.2672	498.57
23.2816	543.36
23.2961	544.30
23.3105	582.26
23.3250	539.87
23.3394	550.84
23.3538	545.96
23.3683	503.61
23.3827	526.31
23.3972	530.93
23.4116	574.39
23.4260	534.37
23.4405	566.23
23.4549	500.85
23.4694	508.47
23.4838	531.77
23.4982	545.75
23.5127	514.93
23.5271	567.35
23.5416	537.79
23.5560	532.69
23.5704	553.83
23.5849	544.22
23.5993	589.24
23.6138	540.09
23.6282	559.58
23.6426	625.58
23.6571	575.18
23.6715	486.98
23.6860	535.83
23.7004	595.95
23.7148	542.26
23.7293	512.76
23.7437	522.38
23.7582	575.96
23.7726	566.62
23.7870	587.85
23.8015	532.91
23.8159	511.75
23.8304	524.34
23.8448	585.09
23.8592	572.66
23.8737	564.70
23.8881	551.08
23.9026	568.18
23.9170	538.68
23.9314	467.23
23.9459	552.02
23.9603	533.00
23.9748	554.80
23.9892	562.10
24.0036	536.60
24.0181	611.32
24.0325	549.85
24.0470	558.97
24.0614	660.66
24.0758	543.10
24.0903	658.05
24.1047	554.97
24.1192	578.85
24.1336	537.08
24.1480	512.72
24.1625	558.95
24.1769	598.14
24.1914	549.13
24.2058	558.76
24.2202	585.20
24.2347	625.96
24.2491	601.07
24.2636	596.38
24.2780	594.13
24.2924	575.30
24.3069	568.23
24.3213	523.14
24.3358	518.30
24.3502	514.11
24.3646	543.14
24.3791	539.21
24.3935	516.31
24.4080	514.30
24.4224	600.09
24.4368	549.91
24.4513	594.48
24.4657	555.81
24.4802	602.18
24.4946	589.27
24.5090	520.67
24.5235	537.05
24.5379	516.72
24.5524	596.61
24.5668	548.27
24.5812	639.50
24.5957	558.07
24.6101	539.73
24.6246	605.85
24.6390	579.41
24.6534	530.20
24.6679	522.52
24.6823	497.74
24.6968	530.14
24.7112	523.29
24.7256	546.62
24.7401	542.91
24.7545	552.73
24.7690	538.08
24.7834	562.34
24.7978	514.10
24.8123	535.89
24.8267	518.71
24.8412	527.45
24.8556	562.00
24.8700	581.16
24.8845	528.70
24.8989	507.59
24.9134	495.04
24.9278	507.15
24.9422	481.58
24.9567	562.20
24.9711	544.42
24.9856	599.95
25.0000	585.04
25.0144	519.43
25.0289	575.02
25.0433	574.88
25.0578	588.24
25.0722	584.16
25.0866	571.36
25.1011	531.60
25.1155	548.78
25.1300	563.26
25.1444	548.69
25.1588	544.84
25.1733	556.90
25.1877	559.52
25.2022	551.04
25.2166	573.21
25.2310	535.44
25.2455	513.45
25.2599	528.85
25.2744	568.77
25.2888	515.83
25.3032	527.75
25.3177	566.53
25.3321	530.98
25.3466	576.63
25.3610	528.34
25.3754	499.77
25.3899	517.55
25.4043	517.29
25.4188	519.39
25.4332	515.50
25.4476	537.99
25.4621	548.38
25.4765	545.68
25.4910	533.52
25.5054	498.18
25.5198	533.24
25.5343	590.96
25.5487	556.14
25.5632	561.54
25.5776	549.99
25.5920	554.93
25.6065	516.36
25.6209	527.58
25.6354	531.58
25.6498	563.29
25.6642	548.22
25.6787	552.04
25.6931	538.44
25.7076	562.51
25.7220	555.31
25.7364	479.94
25.7509	500.62
25.7653	504.06
25.7798	579.89
25.7942	573.59
25.8086	539.70
25.8231	545.20
25.8375	520.09
25.8520	537.95
25.8664	563.91
25.8808	573.90
25.8953	591.80
25.9097	593.70
25.9242	559.85
25.9386	555.26
25.9530	513.15
25.9675	521.07
25.9819	576.93
25.9964	567.26
26.0108	553.07
26.0252	608.37
26.0397	572.90
26.0541	528.26
26.0686	526.81
26.0830	540.44
26.0974	526.87
26.1119	522.70
26.1263	518.20
26.1408	499.62
26.1552	519.49
26.1696	525.48
26.1841	525.33
26.1985	546.73
26.2130	553.96
26.2274	553.26
26.2418	524.56
26.2563	529.38
26.2707	518.12
26.2852	527.33
26.2996	502.01
26.3140	533.30
26.3285	536.17
26.3429	537.40
26.3574	540.34
26.3718	524.67
26.3862	515.60
26.4007	543.00
26.4151	571.84
26.4296	537.30
26.4440	538.39
26.4584	535.45
26.4729	531.56
26.4873	535.43
26.5018	529.19
26.5162	502.76
26.5306	531.38
26.5451	545.53
26.5595	558.49
26.5740	560.69
26.5884	553.50
26.6028	587.35
26.6173	572.14
26.6317	530.25
26.6462	500.89
26.6606	506.32
26.6750	519.86
26.6895	510.38
26.7039	529.43
26.7184	561.42
26.7328	522.16
26.7472	503.87
26.7617	514.72
26.7761	532.01
26.7906	511.26
26.8050	519.25
26.8194	529.99
26.8339	550.31
26.8483	538.97
26.8628	535.14
26.8772	515.72
26.8917	548.68
26.9061	560.30
26.9205	536.20
26.9350	530.40
26.9494	540.67
26.9639	535.33
26.9783	516.47
26.9927	515.80
27.0072	492.64
27.0216	518.39
27.0361	517.80
27.0505	510.69
27.0649	541.96
27.0794	499.87
27.0938	529.64
27.1083	508.20
27.1227	506.38
27.1371	497.09
27.1516	497.82
27.1660	549.90
27.1805	533.23
27.1949	533.93
27.2093	540.57
27.2238	498.07
27.2382	522.63
27.2527	535.96
27.2671	510.33
27.2815	523.74
27.2960	533.59
27.3104	565.21
27.3249	557.67
27.3393	526.91
27.3537	546.00
27.3682	541.96
27.3826	498.48
27.3971	505.34
27.4115	529.23
27.4259	533.58
27.4404	502.48
27.4548	534.62
27.4693	522.01
27.4837	528.44
27.4981	516.54
27.5126	532.58
27.5270	518.29
27.5415	518.95
27.5559	516.01
27.5703	512.27
27.5848	536.78
27.5992	526.89
27.6137	523.69
27.6281	521.03
27.6425	531.61
27.6570	519.35
27.6714	508.49
27.6859	539.31
27.7003	542.56
27.7147	549.07
27.7292	521.07
27.7436	546.48
27.7581	539.65
27.7725	526.49
27.7869	509.26
27.8014	516.80
27.8158	531.58
27.8303	520.28
27.8447	521.28
27.8591	528.23
27.8736	516.97
27.8880	479.56
27.9025	529.34
27.9169	504.24
27.9313	499.37
27.9458	540.52
27.9602	511.89
27.9747	505.60
27.9891	496.45
28.0035	483.35
28.0180	511.29
28.0324	500.54
28.0469	495.94
28.0613	508.75
28.0757	516.00
28.0902	515.75
28.1046	541.48
28.1191	543.31
28.1335	535.73
28.1479	497.38
28.1624	496.93
28.1768	544.64
28.1913	526.53
28.2057	504.57
28.2201	535.66
28.2346	509.55
28.2490	509.58
28.2635	511.27
28.2779	540.35
28.2923	523.86
28.3068	500.39
28.3212	519.89
28.3357	533.35
28.3501	500.67
28.3645	508.01
28.3790	489.05
28.3934	527.11
28.4079	533.36
28.4223	533.95
28.4367	508.37
28.4512	493.19
28.4656	526.74
28.4801	501.72
28.4945	522.24
28.5089	531.37
28.5234	527.23
28.5378	517.79
28.5523	527.49
28.5667	571.73
28.5811	538.77
28.5956	513.56
28.6100	505.03
28.6245	501.15
28.6389	490.59
28.6533	492.57
28.6678	479.79
28.6822	538.11
28.6967	536.83
28.7111	528.95
28.7255	517.26
28.7400	538.42
28.7544	526.04
28.7689	511.62
28.7833	518.54
28.7977	528.20
28.8122	492.94
28.8266	481.52
28.8411	491.38
28.8555	524.96
28.8699	524.11
28.8844	506.41
28.8988	537.02
28.9133	517.09
28.9277	495.59
28.9421	525.10
28.9566	515.70
28.9710	487.28
28.9855	484.38
28.9999	502.83
29.0143	531.37
29.0288	503.81
29.0432	447.98
29.0577	471.36
29.0721	484.73
29.0865	522.73
29.1010	549.83
29.1154	511.32
29.1299	509.59
29.1443	527.40
29.1587	506.69
29.1732	500.64
29.1876	524.55
29.2021	506.45
29.2165	521.71
29.2309	543.89
29.2454	510.15
29.2598	469.45
29.2743	513.80
29.2887	497.86
29.3031	498.98
29.3176	501.79
29.3320	519.42
29.3465	512.09
29.3609	496.80
29.3753	525.67
29.3898	517.25
29.4042	499.98
29.4187	488.87
29.4331	548.96
29.4475	523.07
29.4620	533.93
29.4764	542.21
29.4909	520.49
29.5053	500.47
29.5197	502.09
29.5342	520.32
29.5486	501.56
29.5631	523.15
29.5775	506.01
29.5919	532.62
29.6064	536.30
29.6208	504.67
29.6353	535.62
29.6497	517.74
29.6641	515.29
29.6786	519.09
29.6930	520.21
29.7075	492.66
29.7219	489.36
29.7363	482.71
29.7508	492.20
29.7652	483.26
29.7797	519.90
29.7941	482.65
29.8085	485.61
29.8230	542.53
29.8374	543.38
29.8519	502.91
29.8663	517.52
29.8807	503.45
29.8952	500.57
29.9096	521.98
29.9241	501.38
29.9385	539.23
29.9529	508.96
29.9674	521.37
29.9818	513.80
29.9963	512.32
30.0107	511.92
30.0251	514.89
30.0396	516.59
30.0540	503.40
30.0685	518.46
30.0829	473.57
30.0973	511.22
30.1118	530.91
30.1262	515.91
30.1407	511.19
30.1551	494.71
30.1695	493.28
30.1840	507.00
30.1984	480.31
30.2129	509.18
30.2273	511.23
30.2417	476.42
30.2562	488.67
30.2706	525.53
30.2851	504.53
30.2995	505.38
30.3139	502.91
30.3284	523.12
30.3428	513.10
30.3573	522.03
30.3717	513.52
30.3861	532.70
30.4006	510.55
30.4150	514.91
30.4295	492.82
30.4439	518.22
30.4583	493.47
30.4728	511.69
30.4872	466.66
30.5017	483.86
30.5161	486.05
30.5305	467.87
30.5450	497.87
30.5594	508.78
30.5739	502.01
30.5883	506.51
30.6028	494.49
30.6172	520.78
30.6316	550.05
30.6461	532.86
30.6605	528.59
30.6750	523.65
30.6894	552.81
30.7038	534.82
30.7183	556.86
30.7327	532.80
30.7472	531.46
30.7616	501.48
30.7760	556.12
30.7905	546.51
30.8049	540.28
30.8194	565.58
30.8338	619.76
30.8482	575.06
30.8627	589.95
30.8771	629.30
30.8916	670.29
30.9060	693.13
30.9204	662.31
30.9349	664.57
30.9493	662.38
30.9638	638.95
30.9782	657.71
30.9926	644.99
31.0071	617.39
31.0215	656.91
31.0360	601.25
31.0504	600.02
31.0648	603.68
31.0793	556.85
31.0937	526.34
31.1082	562.07
31.1226	577.16
31.1370	539.31
31.1515	508.29
31.1659	526.82
31.1804	527.53
31.1948	494.31
31.2092	544.83
31.2237	557.92
31.2381	565.45
31.2526	533.31
31.2670	535.00
31.2814	533.84
31.2959	577.09
31.3103	561.06
31.3248	529.93
31.3392	547.87
31.3536	533.81
31.3681	518.99
31.3825	543.29
31.3970	508.79
31.4114	518.27
31.4258	578.67
31.4403	559.15
31.4547	538.44
31.4692	550.19
31.4836	542.37
31.4980	511.05
31.5125	492.51
31.5269	482.71
31.5414	534.11
31.5558	523.87
31.5702	507.72
31.5847	532.88
31.5991	546.54
31.6136	522.19
31.6280	486.34
31.6424	504.32
31.6569	528.31
31.6713	529.92
31.6858	517.18
31.7002	517.49
31.7146	486.88
31.7291	505.86
31.7435	492.86
31.7580	489.89
31.7724	481.35
31.7868	487.62
31.8013	502.39
31.8157	529.90
31.8302	522.01
31.8446	544.73
31.8590	529.75
31.8735	556.66
31.8879	500.17
31.9024	544.50
31.9168	511.22
31.9312	476.46
31.9457	495.76
31.9601	482.70
31.9746	499.70
31.9890	468.12
32.0034	482.50
32.0179	477.03
32.0323	524.56
32.0468	534.93
32.0612	498.19
32.0756	508.28
32.0901	553.87
32.1045	530.34
32.1190	495.67
32.1334	488.64
32.1478	502.00
32.1623	526.86
32.1767	510.51
32.1912	478.02
32.2056	489.21
32.2200	491.35
32.2345	504.10
32.2489	540.50
32.2634	490.86
32.2778	542.62
32.2922	500.06
32.3067	496.72
32.3211	484.30
32.3356	528.91
32.3500	527.83
32.3644	496.39
32.3789	474.48
32.3933	486.54
32.4078	483.37
32.4222	511.26
32.4366	509.20
32.4511	511.70
32.4655	537.51
32.4800	517.80
32.4944	500.44
32.5088	504.65
32.5233	494.89
32.5377	514.67
32.5522	514.46
32.5666	512.30
32.5810	515.92
32.5955	508.60
32.6099	562.49
32.6244	504.46
32.6388	488.94
32.6532	519.29
32.6677	498.96
32.6821	501.08
32.6966	496.09
32.7110	509.38
32.7254	492.91
32.7399	540.09
32.7543	525.40
32.7688	493.69
32.7832	457.76
32.7976	527.71
32.8121	525.36
32.8265	547.51
32.8410	475.06
32.8554	500.29
32.8698	524.46
32.8843	527.96
32.8987	528.41
32.9132	506.06
32.9276	535.94
32.9420	533.22
32.9565	517.29
32.9709	506.68
32.9854	517.61
32.9998	497.81
33.0142	484.70
33.0287	509.95
33.0431	507.24
33.0576	484.59
33.0720	502.15
33.0864	480.29
33.1009	496.81
33.1153	503.32
33.1298	496.68
33.1442	512.31
33.1586	540.98
33.1731	522.71
33.1875	505.98
33.2020	451.97
33.2164	491.17
33.2308	506.46
33.2453	505.76
33.2597	493.70
33.2742	485.39
33.2886	510.69
33.3030	519.01
33.3175	521.22
33.3319	499.34
33.3464	481.60
33.3608	536.76
33.3752	515.19
33.3897	503.22
33.4041	475.25
33.4186	514.55
33.4330	527.35
33.4474	489.47
33.4619	550.02
33.4763	550.62
33.4908	524.66
33.5052	526.15
33.5196	500.47
33.5341	515.64
33.5485	536.13
33.5630	527.13
33.5774	529.19
33.5918	496.12
33.6063	502.90
33.6207	479.95
33.6352	502.89
33.6496	512.52
33.6640	508.99
33.6785	515.71
33.6929	512.62
33.7074	506.12
33.7218	519.32
33.7362	501.04
33.7507	506.65
33.7651	483.75
33.7796	473.80
33.7940	489.03
33.8084	517.12
33.8229	504.91
33.8373	503.80
33.8518	472.04
33.8662	517.30
33.8806	516.33
33.8951	493.58
33.9095	541.13
33.9240	518.16
33.9384	537.20
33.9528	536.84
33.9673	498.92
33.9817	503.36
33.9962	502.02
34.0106	487.02
34.0250	524.12
34.0395	541.39
34.0539	512.04
34.0684	532.19
34.0828	512.33
34.0972	526.73
34.1117	528.63
34.1261	532.06
34.1406	511.66
34.1550	506.72
34.1694	495.04
34.1839	534.36
34.1983	508.93
34.2128	516.09
34.2272	506.05
34.2417	486.85
34.2561	515.53
34.2705	502.10
34.2850	505.87
34.2994	487.33
34.3139	519.19
34.3283	505.05
34.3427	519.54
34.3572	517.06
34.3716	499.55
34.3861	508.18
34.4005	521.59
34.4149	510.75
34.4294	509.85
34.4438	492.13
34.4583	517.44
34.4727	527.94
34.4871	560.20
34.5016	545.25
34.5160	515.62
34.5305	516.08
34.5449	490.24
34.5593	514.06
34.5738	504.22
34.5882	510.67
34.6027	525.37
34.6171	500.34
34.6315	471.74
34.6460	500.39
34.6604	509.00
34.6749	443.46
34.6893	505.68
34.7037	520.92
34.7182	503.81
34.7326	513.86
34.7471	513.58
34.7615	499.46
34.7759	512.73
34.7904	499.13
34.8048	507.11
34.8193	494.36
34.8337	493.89
34.8481	511.11
34.8626	531.77
34.8770	526.42
34.8915	488.45
34.9059	513.97
34.9203	492.86
34.9348	486.38
34.9492	498.11
34.9637	514.35
34.9781	475.12
34.9925	507.19
35.0070	507.32
35.0214	495.43
35.0359	483.64
35.0503	491.44
35.0647	510.14
35.0792	483.57
35.0936	537.91
35.1081	535.32
35.1225	546.33
35.1369	509.77
35.1514	491.27
35.1658	495.87
35.1803	531.55
35.1947	524.29
35.2091	521.62
35.2236	508.54
35.2380	500.10
35.2525	484.60
35.2669	509.20
35.2813	566.22
35.2958	523.64
35.3102	534.56
35.3247	494.31
35.3391	519.90
35.3535	492.92
35.3680	498.06
35.3824	499.58
35.3969	490.42
35.4113	509.16
35.4257	510.88
35.4402	497.86
35.4546	525.18
35.4691	558.53
35.4835	517.85
35.4979	557.35
35.5124	541.23
35.5268	529.91
35.5413	542.00
35.5557	554.03
35.5701	520.36
35.5846	512.61
35.5990	537.72
35.6135	484.75
35.6279	498.74
35.6423	521.89
35.6568	544.54
35.6712	523.90
35.6857	593.68
35.7001	643.32
35.7145	716.37
35.7290	674.52
35.7434	595.62
35.7579	552.14
35.7723	560.78
35.7867	614.11
35.8012	641.56
35.8156	705.02
35.8301	636.95
35.8445	592.91
35.8589	629.01
35.8734	747.16
35.8878	845.77
35.9023	1009.95
35.9167	1094.27
35.9311	1448.44
35.9456	2180.33
35.9600	2382.62
35.9745	1896.54
35.9889	1954.45
36.0033	2523.08
36.0178	2665.49
36.0322	2143.97
36.0467	1815.29
36.0611	1620.17
36.0755	1560.68
36.0900	1457.52
36.1044	1279.09
36.1189	1291.18
36.1333	1145.11
36.1477	998.77
36.1622	985.44
36.1766	960.36
36.1911	827.00
36.2055	730.71
36.2199	711.11
36.2344	678.00
36.2488	666.69
36.2633	666.49
36.2777	685.29
36.2921	687.68
36.3066	731.55
36.3210	770.57
36.3355	789.21
36.3499	829.60
36.3643	857.76
36.3788	902.47
36.3932	898.37
36.4077	929.55
36.4221	963.03
36.4365	950.62
36.4510	916.13
36.4654	970.67
36.4799	925.68
36.4943	880.00
36.5087	866.44
36.5232	815.25
36.5376	780.95
36.5521	763.27
36.5665	741.19
36.5809	755.58
36.5954	692.56
36.6098	639.18
36.6243	649.05
36.6387	646.73
36.6531	593.80
36.6676	603.76
36.6820	573.25
36.6965	558.93
36.7109	591.21
36.7253	588.61
36.7398	559.25
36.7542	567.04
36.7687	575.87
36.7831	565.60
36.7975	596.49
36.8120	576.38
36.8264	568.26
36.8409	564.18
36.8553	577.95
36.8697	569.53
36.8842	598.61
36.8986	579.47
36.9131	611.78
36.9275	641.00
36.9419	594.30
36.9564	551.24
36.9708	572.88
36.9853	554.47
36.9997	578.60
37.0141	517.28
37.0286	517.37
37.0430	554.81
37.0575	577.41
37.0719	568.76
37.0863	522.21
37.1008	535.05
37.1152	558.59
37.1297	534.79
37.1441	507.15
37.1585	533.80
37.1730	512.95
37.1874	525.28
37.2019	534.68
37.2163	530.66
37.2307	509.93
37.2452	506.46
37.2596	480.87
37.2741	512.86
37.2885	519.89
37.3029	511.36
37.3174	530.97
37.3318	487.57
37.3463	518.32
37.3607	537.64
37.3751	509.48
37.3896	489.57
37.4040	510.44
37.4185	489.02
37.4329	511.97
37.4473	504.56
37.4618	504.21
37.4762	489.80
37.4907	501.19
37.5051	502.78
37.5195	537.18
37.5340	534.11
37.5484	474.62
37.5629	534.63
37.5773	520.31
37.5917	509.45
37.6062	477.85
37.6206	488.70
37.6351	546.30
37.6495	505.55
37.6639	487.75
37.6784	523.67
37.6928	530.64
37.7073	522.70
37.7217	513.34
37.7361	495.67
37.7506	501.23
37.7650	521.42
37.7795	512.76
37.7939	489.31
37.8083	512.31
37.8228	523.52
37.8372	497.03
37.8517	483.37
37.8661	526.21
37.8805	530.31
37.8950	524.03
37.9094	534.93
37.9239	504.75
37.9383	484.01
37.9528	510.03
37.9672	498.27
37.9816	497.44
37.9961	499.77
38.0105	513.39
38.0250	531.14
38.0394	536.67
38.0538	523.87
38.0683	511.18
38.0827	520.30
38.0972	523.35
38.1116	544.11
38.1260	525.53
38.1405	520.95
38.1549	487.18
38.1694	512.57
38.1838	538.80
38.1982	521.60
38.2127	541.93
38.2271	562.74
38.2416	519.16
38.2560	503.12
38.2704	477.21
38.2849	534.03
38.2993	533.23
38.3138	496.27
38.3282	499.61
38.3426	502.77
38.3571	523.39
38.3715	514.88
38.3860	524.74
38.4004	549.60
38.4148	538.98
38.4293	580.64
38.4437	593.44
38.4582	599.39
38.4726	642.60
38.4870	689.06
38.5015	764.21
38.5159	798.85
38.5304	794.68
38.5448	808.44
38.5592	799.61
38.5737	787.02
38.5881	723.05
38.6026	707.99
38.6170	706.59
38.6314	677.38
38.6459	627.01
38.6603	655.69
38.6748	615.42
38.6892	594.43
38.7036	589.08
38.7181	548.85
38.7325	535.72
38.7470	530.93
38.7614	508.79
38.7758	507.57
38.7903	501.59
38.8047	509.39
38.8192	526.67
38.8336	522.31
38.8480	523.42
38.8625	524.63
38.8769	512.34
38.8914	491.97
38.9058	513.23
38.9202	484.01
38.9347	488.01
38.9491	497.78
38.9636	471.59
38.9780	479.44
38.9924	517.96
39.0069	493.03
39.0213	476.13
39.0358	484.56
39.0502	493.16
39.0646	518.98
39.0791	535.67
39.0935	546.80
39.1080	535.42
39.1224	493.15
39.1368	500.55
39.1513	499.43
39.1657	479.18
39.1802	543.99
39.1946	484.08
39.2090	494.34
39.2235	509.64
39.2379	491.58
39.2524	512.13
39.2668	492.26
39.2812	500.78
39.2957	497.03
39.3101	493.78
39.3246	483.70
39.3390	544.35
39.3534	528.39
39.3679	509.50
39.3823	499.80
39.3968	521.81
39.4112	491.17
39.4256	503.10
39.4401	477.43
39.4545	471.00
39.4690	510.70
39.4834	489.95
39.4978	496.55
39.5123	476.55
39.5267	485.38
39.5412	464.83
39.5556	485.32
39.5700	501.75
39.5845	514.05
39.5989	486.15
39.6134	493.08
39.6278	482.44
39.6422	493.83
39.6567	495.44
39.6711	500.10
39.6856	481.62
39.7000	505.82
39.7144	498.97
39.7289	500.03
39.7433	507.69
39.7578	509.19
39.7722	475.94
39.7866	489.56
39.8011	487.05
39.8155	507.53
39.8300	512.89
39.8444	532.80
39.8588	518.66
39.8733	530.22
39.8877	480.41
39.9022	497.25
39.9166	511.77
39.9310	502.46
39.9455	509.65
39.9599	480.00
39.9744	506.24
39.9888	485.55
40.0032	498.47
40.0177	487.38
40.0321	494.36
40.0466	508.96
40.0610	527.57
40.0754	521.90
40.0899	514.05
40.1043	539.25
40.1188	544.35
40.1332	503.38
40.1476	454.57
40.1621	493.26
40.1765	479.29
40.1910	487.09
40.2054	465.12
40.2198	507.56
40.2343	495.21
40.2487	505.61
40.2632	511.27
40.2776	498.75
40.2920	492.24
40.3065	495.81
40.3209	509.57
40.3354	516.48
40.3498	483.77
40.3642	505.04
40.3787	478.34
40.3931	511.94
40.4076	465.53
40.4220	506.11
40.4364	476.58
40.4509	465.16
40.4653	511.31
40.4798	509.22
40.4942	497.74
40.5086	508.27
40.5231	527.48
40.5375	515.12
40.5520	467.86
40.5664	489.58
40.5808	480.93
40.5953	534.32
40.6097	519.79
40.6242	505.97
40.6386	513.65
40.6530	513.01
40.6675	515.32
40.6819	505.39
40.6964	527.72
40.7108	509.63
40.7252	487.38
40.7397	485.27
40.7541	536.81
40.7686	532.65
40.7830	513.33
40.7974	511.38
40.8119	518.17
40.8263	520.84
40.8408	471.93
40.8552	515.94
40.8696	528.48
40.8841	489.69
40.8985	498.05
40.9130	517.21
40.9274	492.88
40.9418	519.71
40.9563	509.71
40.9707	491.99
40.9852	492.26
40.9996	472.55
41.0140	498.60
41.0285	538.32
41.0429	500.89
41.0574	502.18
41.0718	479.18
41.0862	549.36
41.1007	509.58
41.1151	495.88
41.1296	484.92
41.1440	492.13
41.1584	517.96
41.1729	536.35
41.1873	508.65
41.2018	508.60
41.2162	521.34
41.2306	452.98
41.2451	495.58
41.2595	516.25
41.2740	498.25
41.2884	493.61
41.3028	499.20
41.3173	466.63
41.3317	483.04
41.3462	523.00
41.3606	516.82
41.3750	532.45
41.3895	519.56
41.4039	511.19
41.4184	502.26
41.4328	531.06
41.4472	488.70
41.4617	504.14
41.4761	491.60
41.4906	517.46
41.5050	479.53
41.5194	503.71
41.5339	525.02
41.5483	496.93
41.5628	478.03
41.5772	514.90
41.5916	461.16
41.6061	481.78
41.6205	520.57
41.6350	482.17
41.6494	482.96
41.6639	516.93
41.6783	471.07
41.6927	498.34
41.7072	531.18
41.7216	503.99
41.7361	464.04
41.7505	503.75
41.7649	469.29
41.7794	521.24
41.7938	500.98
41.8083	502.54
41.8227	551.02
41.8371	546.15
41.8516	544.36
41.8660	569.82
41.8805	548.23
41.8949	530.79
41.9093	553.56
41.9238	513.84
41.9382	543.33
41.9527	540.40
41.9671	561.19
41.9815	572.22
41.9960	552.02
42.0104	529.96
42.0249	537.48
42.0393	578.52
42.0537	583.27
42.0682	580.95
42.0826	588.65
42.0971	584.28
42.1115	584.94
42.1259	572.89
42.1404	573.77
42.1548	582.20
42.1693	642.07
42.1837	698.99
42.1981	775.94
42.2126	848.48
42.2270	933.69
42.2415	1080.58
42.2559	1216.45
42.2703	1330.36
42.2848	1488.87
42.2992	1589.22
42.3137	1641.90
42.3281	1629.10
42.3425	1630.19
42.3570	1501.05
42.3714	1404.50
42.3859	1359.13
42.4003	1323.81
42.4147	1321.17
42.4292	1274.09
42.4436	1164.60
42.4581	1031.96
42.4725	998.33
42.4869	854.45
42.5014	764.92
42.5158	673.22
42.5303	640.28
42.5447	645.49
42.5591	648.24
42.5736	599.12
42.5880	584.18
42.6025	568.41
42.6169	555.07
42.6313	570.14
42.6458	552.40
42.6602	539.46
42.6747	525.69
42.6891	526.16
42.7035	518.32
42.7180	525.72
42.7324	515.19
42.7469	507.98
42.7613	542.39
42.7757	529.65
42.7902	541.89
42.8046	500.84
42.8191	517.45
42.8335	524.71
42.8479	521.05
42.8624	535.61
42.8768	500.15
42.8913	497.64
42.9057	528.96
42.9201	516.19
42.9346	521.78
42.9490	548.89
42.9635	512.71
42.9779	536.21
42.9923	538.50
43.0068	525.21
43.0212	555.10
43.0357	525.59
43.0501	494.73
43.0645	494.16
43.0790	512.69
43.0934	535.83
43.1079	510.22
43.1223	539.20
43.1367	531.47
43.1512	512.26
43.1656	499.79
43.1801	523.86
43.1945	491.55
43.2089	501.11
43.2234	539.57
43.2378	541.97
43.2523	529.13
43.2667	486.95
43.2811	529.60
43.2956	511.75
43.3100	538.85
43.3245	518.95
43.3389	487.19
43.3533	527.21
43.3678	527.87
43.3822	524.95
43.3967	497.28
43.4111	493.07
43.4255	523.26
43.4400	516.31
43.4544	483.66
43.4689	513.44
43.4833	518.34
43.4977	523.16
43.5122	495.52
43.5266	488.47
43.5411	493.70
43.5555	532.83
43.5699	554.39
43.5844	524.40
43.5988	510.50
43.6133	515.51
43.6277	521.95
43.6421	554.41
43.6566	499.57
43.6710	528.04
43.6855	499.85
43.6999	501.02
43.7143	517.36
43.7288	513.41
43.7432	536.75
43.7577	530.47
43.7721	501.06
43.7865	530.02
43.8010	526.56
43.8154	519.92
43.8299	518.81
43.8443	512.07
43.8587	521.30
43.8732	529.37
43.8876	527.54
43.9021	535.67
43.9165	515.35
43.9309	508.44
43.9454	504.41
43.9598	474.08
43.9743	484.64
43.9887	547.63
44.0031	518.23
44.0176	515.48
44.0320	499.28
44.0465	526.15
44.0609	502.09
44.0753	517.73
44.0898	554.69
44.1042	517.09
44.1187	569.95
44.1331	570.40
44.1475	498.07
44.1620	538.35
44.1764	573.47
44.1909	566.88
44.2053	605.26
44.2197	596.84
44.2342	615.97
44.2486	629.60
44.2631	614.81
44.2775	601.89
44.2919	629.44
44.3064	619.62
44.3208	609.11
44.3353	644.07
44.3497	640.03
44.3641	610.33
44.3786	602.24
44.3930	553.18
44.4075	583.39
44.4219	602.24
44.4363	594.43
44.4508	617.36
44.4652	603.15
44.4797	608.26
44.4941	575.13
44.5085	593.29
44.5230	606.38
44.5374	601.17
44.5519	586.97
44.5663	577.77
44.5807	597.84
44.5952	569.30
44.6096	568.71
44.6241	594.45
44.6385	569.09
44.6529	586.34
44.6674	612.38
44.6818	616.19
44.6963	671.58
44.7107	645.52
44.7251	701.09
44.7396	778.35
44.7540	800.97
44.7685	848.17
44.7829	904.01
44.7973	914.44
44.8118	807.34
44.8262	797.14
44.8407	794.38
44.8551	733.72
44.8695	755.30
44.8840	732.36
44.8984	744.97
44.9129	719.83
44.9273	700.73
44.9417	690.53
44.9562	585.21
44.9706	613.41
44.9851	586.85
44.9995	544.24
45.0139	527.79
45.0284	545.79
45.0428	517.11
45.0573	538.60
45.0717	522.09
45.0861	524.95
45.1006	548.84
45.1150	520.21
45.1295	517.77
45.1439	511.39
45.1583	531.24
45.1728	517.43
45.1872	532.31
45.2017	514.69
45.2161	516.15
45.2305	505.11
45.2450	498.30
45.2594	492.11
45.2739	531.01
45.2883	522.59
45.3028	518.04
45.3172	501.97
45.3316	524.10
45.3461	492.85
45.3605	464.70
45.3750	517.05
45.3894	501.71
45.4038	502.87
45.4183	497.16
45.4327	516.21
45.4472	530.41
45.4616	503.38
45.4760	492.02
45.4905	481.42
45.5049	508.39
45.5194	474.74
45.5338	493.36
45.5482	521.57
45.5627	498.35
45.5771	513.02
45.5916	515.59
45.6060	527.87
45.6204	518.37
45.6349	492.83
45.6493	492.82
45.6638	490.57
45.6782	489.92
45.6926	473.94
45.7071	517.17
45.7215	528.56
45.7360	475.17
45.7504	502.92
45.7648	481.66
45.7793	521.37
45.7937	501.77
45.8082	515.45
45.8226	507.17
45.8370	499.54
45.8515	508.74
45.8659	545.59
45.8804	511.89
45.8948	513.00
45.9092	493.29
45.9237	516.56
45.9381	517.72
45.9526	521.01
45.9670	479.41
45.9814	521.49
45.9959	523.94
46.0103	517.59
46.0248	497.57
46.0392	516.23
46.0536	496.53
46.0681	489.88
46.0825	519.53
46.0970	516.42
46.1114	499.02
46.1258	519.73
46.1403	496.19
46.1547	496.69
46.1692	506.31
46.1836	503.05
46.1980	520.62
46.2125	480.63
46.2269	474.87
46.2414	488.58
46.2558	491.25
46.2702	520.55
46.2847	531.89
46.2991	514.58
46.3136	499.70
46.3280	516.62
46.3424	466.90
46.3569	512.93
46.3713	526.35
46.3858	524.24
46.4002	534.71
46.4146	514.24
46.4291	530.99
46.4435	501.25
46.4580	487.47
46.4724	505.96
46.4868	507.82
46.5013	489.35
46.5157	494.09
46.5302	496.25
46.5446	479.19
46.5590	512.27
46.5735	507.46
46.5879	498.60
46.6024	473.04
46.6168	490.03
46.6312	507.69
46.6457	506.73
46.6601	488.87
46.6746	496.51
46.6890	488.39
46.7034	505.14
46.7179	501.87
46.7323	488.73
46.7468	472.28
46.7612	501.95
46.7756	519.31
46.7901	525.33
46.8045	509.63
46.8190	532.43
46.8334	526.67
46.8478	518.21
46.8623	528.84
46.8767	513.35
46.8912	478.54
46.9056	511.68
46.9200	502.31
46.9345	458.80
46.9489	493.22
46.9634	501.78
46.9778	522.83
46.9922	520.51
47.0067	522.22
47.0211	529.68
47.0356	526.39
47.0500	484.66
47.0644	506.39
47.0789	518.27
47.0933	536.70
47.1078	517.50
47.1222	500.42
47.1366	488.85
47.1511	497.22
47.1655	513.19
47.1800	521.54
47.1944	516.15
47.2088	485.97
47.2233	476.79
47.2377	498.14
47.2522	540.61
47.2666	492.00
47.2810	470.78
47.2955	496.83
47.3099	498.98
47.3244	479.99
47.3388	503.88
47.3532	499.07
47.3677	500.49
47.3821	522.65
47.3966	480.23
47.4110	488.14
47.4254	519.46
47.4399	495.33
47.4543	503.46
47.4688	521.66
47.4832	519.54
47.4976	506.20
47.5121	498.34
47.5265	505.87
47.5410	531.35
47.5554	518.66
47.5698	511.71
47.5843	489.96
47.5987	513.07
47.6132	510.22
47.6276	485.76
47.6420	535.27
47.6565	469.96
47.6709	511.98
47.6854	495.97
47.6998	502.44
47.7142	528.09
47.7287	485.81
47.7431	495.84
47.7576	517.12
47.7720	522.25
47.7864	522.71
47.8009	512.30
47.8153	522.57
47.8298	492.54
47.8442	505.85
47.8586	512.87
47.8731	498.92
47.8875	522.69
47.9020	525.79
47.9164	524.92
47.9308	535.08
47.9453	557.62
47.9597	549.28
47.9742	486.42
47.9886	475.07
48.0030	524.25
48.0175	500.38
48.0319	523.00
48.0464	508.31
48.0608	536.40
48.0752	498.90
48.0897	497.84
48.1041	504.48
48.1186	498.73
48.1330	532.81
48.1474	500.29
48.1619	504.89
48.1763	519.32
48.1908	506.81
48.2052	513.32
48.2196	488.09
48.2341	480.05
48.2485	511.38
48.2630	498.09
48.2774	485.62
48.2918	493.43
48.3063	509.99
48.3207	499.32
48.3352	529.70
48.3496	540.26
48.3640	518.17
48.3785	533.95
48.3929	528.52
48.4074	529.15
48.4218	554.81
48.4362	492.27
48.4507	507.82
48.4651	514.95
48.4796	560.19
48.4940	546.40
48.5084	499.83
48.5229	545.66
48.5373	517.13
48.5518	504.23
48.5662	513.48
48.5806	490.40
48.5951	506.79
48.6095	515.52
48.6240	486.36
48.6384	512.39
48.6528	541.16
48.6673	497.26
48.6817	499.78
48.6962	545.24
48.7106	517.60
48.7250	533.42
48.7395	503.87
48.7539	504.87
48.7684	510.77
48.7828	542.90
48.7972	541.82
48.8117	540.72
48.8261	573.97
48.8406	522.69
48.8550	548.74
48.8694	555.96
48.8839	506.47
48.8983	542.44
48.9128	567.45
48.9272	537.60
48.9416	567.25
48.9561	553.18
48.9705	586.45
48.9850	597.54
48.9994	562.19
49.0139	626.69
49.0283	639.35
49.0427	638.38
49.0572	623.08
49.0716	603.37
49.0861	643.51
49.1005	712.74
49.1149	706.05
49.1294	699.72
49.1438	765.20
49.1583	837.07
49.1727	858.54
49.1871	877.95
49.2016	912.70
49.2160	1024.96
49.2305	1139.75
49.2449	1227.32
49.2593	1279.24
49.2738	1371.72
49.2882	1484.06
49.3027	1516.83
49.3171	1618.81
49.3315	1642.58
49.3460	1779.46
49.3604	1831.01
49.3749	1806.22
49.3893	1770.84
49.4037	1793.60
49.4182	1780.06
49.4326	1797.95
49.4471	1675.37
49.4615	1634.23
49.4759	1613.91
49.4904	1512.48
49.5048	1461.27
49.5193	1354.43
49.5337	1282.85
49.5481	1241.00
49.5626	1127.23
49.5770	1076.52
49.5915	1002.46
49.6059	968.02
49.6203	871.43
49.6348	835.55
49.6492	808.49
49.6637	736.04
49.6781	670.81
49.6925	685.00
49.7070	677.57
49.7214	665.43
49.7359	612.32
49.7503	614.79
49.7647	610.72
49.7792	589.60
49.7936	576.83
49.8081	591.63
49.8225	568.53
49.8369	576.66
49.8514	565.08
49.8658	553.23
49.8803	571.42
49.8947	547.63
49.9091	525.88
49.9236	551.26
49.9380	549.91
49.9525	535.67
49.9669	529.06
49.9813	562.53
49.9958	549.89
50.0102	553.07
50.0247	542.46
50.0391	532.96
50.0535	535.56
50.0680	554.28
50.0824	543.09
50.0969	543.74
50.1113	537.80
50.1257	511.43
50.1402	538.50
50.1546	525.71
50.1691	529.63
50.1835	571.30
50.1979	518.93
50.2124	517.89
50.2268	524.75
50.2413	531.51
50.2557	504.31
50.2701	503.97
50.2846	557.56
50.2990	525.95
50.3135	530.85
50.3279	548.52
50.3423	520.54
50.3568	495.86
50.3712	546.98
50.3857	528.23
50.4001	507.56
50.4145	521.88
50.4290	514.68
50.4434	480.79
50.4579	524.37
50.4723	514.98
50.4867	522.52
50.5012	539.36
50.5156	515.91
50.5301	510.76
50.5445	515.71
50.5589	495.16
50.5734	481.40
50.5878	482.07
50.6023	505.65
50.6167	502.98
50.6311	489.52
50.6456	497.65
50.6600	515.54
50.6745	498.33
50.6889	500.13
50.7033	538.24
50.7178	498.71
50.7322	492.01
50.7467	507.66
50.7611	520.87
50.7755	526.80
50.7900	503.07
50.8044	497.35
50.8189	511.55
50.8333	515.64
50.8477	522.19
50.8622	576.10
50.8766	541.08
50.8911	515.64
50.9055	541.69
50.9199	517.95
50.9344	541.69
50.9488	540.77
50.9633	520.55
50.9777	500.81
50.9921	510.20
51.0066	501.67
51.0210	514.24
51.0355	495.62
51.0499	539.34
51.0643	543.46
51.0788	510.65
51.0932	503.66
51.1077	500.40
51.1221	511.51
51.1365	504.51
51.1510	480.49
51.1654	500.49
51.1799	503.89
51.1943	494.80
51.2087	496.63
51.2232	495.16
51.2376	483.66
51.2521	537.74
51.2665	512.98
51.2809	542.85
51.2954	519.93
51.3098	518.55
51.3243	497.18
51.3387	522.93
51.3531	533.05
51.3676	524.36
51.3820	490.20
51.3965	503.62
51.4109	470.11
51.4253	479.33
51.4398	510.59
51.4542	502.54
51.4687	529.70
51.4831	518.21
51.4975	520.27
51.5120	495.94
51.5264	506.31
51.5409	543.16
51.5553	533.44
51.5697	503.63
51.5842	498.25
51.5986	507.06
51.6131	511.91
51.6275	521.37
51.6419	486.97
51.6564	498.67
51.6708	513.83
51.6853	514.59
51.6997	519.47
51.7141	515.53
51.7286	501.37
51.7430	525.76
51.7575	517.91
51.7719	480.69
51.7863	498.72
51.8008	495.55
51.8152	511.64
51.8297	517.66
51.8441	505.53
51.8585	521.40
51.8730	505.97
51.8874	496.55
51.9019	518.79
51.9163	519.43
51.9307	489.80
51.9452	485.59
51.9596	492.37
51.9741	519.38
51.9885	500.83
52.0029	491.09
52.0174	487.58
52.0318	525.35
52.0463	520.89
52.0607	518.48
52.0751	479.52
52.0896	494.37
52.1040	502.35
52.1185	517.19
52.1329	534.37
52.1473	480.91
52.1618	495.64
52.1762	523.89
52.1907	475.38
52.2051	516.94
52.2195	488.88
52.2340	479.61
52.2484	514.74
52.2629	502.43
52.2773	546.42
52.2917	497.15
52.3062	486.04
52.3206	519.54
52.3351	509.69
52.3495	495.66
52.3639	496.65
52.3784	490.06
52.3928	487.63
52.4073	512.98
52.4217	522.69
52.4361	500.64
52.4506	514.46
52.4650	521.90
52.4795	503.62
52.4939	482.23
52.5083	483.60
52.5228	512.86
52.5372	524.82
52.5517	503.57
52.5661	537.54
52.5805	498.93
52.5950	476.44
52.6094	511.53
52.6239	499.33
52.6383	536.06
52.6527	510.47
52.6672	534.12
52.6816	509.99
52.6961	552.66
52.7105	530.61
52.7250	512.52
52.7394	517.11
52.7538	532.60
52.7683	508.69
52.7827	486.33
52.7972	534.68
52.8116	517.74
52.8260	506.73
52.8405	524.39
52.8549	522.06
52.8694	503.73
52.8838	484.23
52.8982	484.12
52.9127	514.55
52.9271	495.07
52.9416	543.29
52.9560	517.25
52.9704	518.19
52.9849	504.43
52.9993	536.93
53.0138	518.24
53.0282	531.03
53.0426	493.69
53.0571	564.22
53.0715	534.75
53.0860	501.32
53.1004	519.94
53.1148	529.34
53.1293	493.89
53.1437	477.05
53.1582	497.25
53.1726	523.14
53.1870	514.78
53.2015	524.21
53.2159	541.39
53.2304	504.38
53.2448	494.00
53.2592	501.25
53.2737	537.77
53.2881	543.70
53.3026	540.14
53.3170	515.45
53.3314	520.08
53.3459	509.62
53.3603	496.67
53.3748	467.52
53.3892	482.57
53.4036	473.98
53.4181	542.31
53.4325	519.07
53.4470	530.81
53.4614	493.00
53.4758	515.70
53.4903	530.11
53.5047	505.81
53.5192	469.95
53.5336	455.50
53.5480	475.64
53.5625	492.68
53.5769	517.40
53.5914	551.42
53.6058	525.54
53.6202	536.27
53.6347	531.11
53.6491	506.47
53.6636	541.34
53.6780	542.79
53.6924	517.54
53.7069	551.16
53.7213	507.82
53.7358	516.08
53.7502	554.26
53.7646	485.98
53.7791	503.19
53.7935	499.44
53.8080	522.76
53.8224	496.39
53.8368	529.74
53.8513	526.48
53.8657	539.37
53.8802	519.02
53.8946	541.79
53.9090	511.14
53.9235	485.87
53.9379	518.28
53.9524	527.28
53.9668	487.62
53.9812	491.05
53.9957	532.59
54.0101	490.31
54.0246	508.70
54.0390	546.59
54.0534	535.40
54.0679	547.35
54.0823	536.59
54.0968	513.08
54.1112	501.84
54.1256	523.67
54.1401	528.03
54.1545	493.15
54.1690	515.11
54.1834	521.67
54.1978	526.96
54.2123	544.09
54.2267	512.18
54.2412	508.12
54.2556	537.63
54.2700	495.01
54.2845	527.40
54.2989	478.20
54.3134	522.84
54.3278	522.57
54.3422	523.23
54.3567	517.27
54.3711	517.89
54.3856	521.21
54.4000	521.08
54.4144	523.98
54.4289	513.37
54.4433	500.78
54.4578	511.64
54.4722	533.53
54.4866	532.80
54.5011	538.50
54.5155	535.03
54.5300	518.74
54.5444	550.04
54.5588	512.95
54.5733	535.52
54.5877	545.00
54.6022	541.71
54.6166	516.54
54.6310	528.42
54.6455	546.28
54.6599	529.22
54.6744	513.10
54.6888	508.27
54.7032	525.77
54.7177	513.45
54.7321	506.74
54.7466	524.11
54.7610	540.12
54.7754	505.88
54.7899	555.91
54.8043	558.13
54.8188	561.59
54.8332	552.33
54.8476	601.49
54.8621	580.11
54.8765	546.79
54.8910	562.74
54.9054	599.80
54.9198	561.56
54.9343	593.58
54.9487	608.75
54.9632	598.05
54.9776	572.05
54.9920	575.51
55.0065	553.59
55.0209	557.61
55.0354	579.33
55.0498	553.88
55.0642	558.19
55.0787	598.11
55.0931	579.97
55.1076	566.20
55.1220	596.42
55.1364	576.53
55.1509	543.46
55.1653	541.98
55.1798	547.82
55.1942	527.98
55.2086	536.79
55.2231	533.81
55.2375	537.11
55.2520	557.39
55.2664	554.98
55.2808	545.10
55.2953	531.08
55.3097	543.83
55.3242	526.77
55.3386	519.59
55.3530	509.70
55.3675	506.77
55.3819	553.72
55.3964	521.09
55.4108	502.36
55.4252	541.66
55.4397	548.10
55.4541	524.46
55.4686	536.88
55.4830	546.07
55.4974	549.53
55.5119	537.85
55.5263	540.76
55.5408	534.87
55.5552	566.96
55.5696	545.95
55.5841	540.26
55.5985	542.13
55.6130	514.69
55.6274	541.25
55.6418	517.50
55.6563	524.56
55.6707	516.48
55.6852	533.21
55.6996	532.92
55.7140	560.71
55.7285	545.99
55.7429	533.00
55.7574	541.33
55.7718	536.52
55.7862	574.07
55.8007	519.33
55.8151	550.93
55.8296	512.70
55.8440	556.52
55.8584	569.12
55.8729	539.44
55.8873	510.48
55.9018	585.08
55.9162	499.72
55.9306	510.22
55.9451	530.69
55.9595	529.84
55.9740	539.72
55.9884	513.64
56.0028	530.50
56.0173	529.34
56.0317	548.10
56.0462	535.85
56.0606	552.88
56.0750	532.67
56.0895	493.70
56.1039	519.38
56.1184	550.29
56.1328	513.00
56.1472	482.82
56.1617	517.48
56.1761	527.15
56.1906	503.97
56.2050	529.16
56.2194	566.45
56.2339	526.98
56.2483	535.63
56.2628	538.42
56.2772	518.14
56.2916	509.84
56.3061	513.02
56.3205	504.78
56.3350	556.17
56.3494	508.24
56.3639	537.14
56.3783	535.55
56.3927	521.73
56.4072	511.45
56.4216	508.65
56.4361	531.06
56.4505	507.72
56.4649	559.78
56.4794	522.60
56.4938	541.64
56.5083	518.09
56.5227	512.36
56.5371	520.90
56.5516	541.17
56.5660	511.99
56.5805	516.84
56.5949	498.78
56.6093	527.20
56.6238	517.63
56.6382	517.64
56.6527	515.49
56.6671	514.88
56.6815	524.49
56.6960	530.84
56.7104	517.92
56.7249	537.43
56.7393	518.39
56.7537	534.50
56.7682	523.56
56.7826	544.22
56.7971	530.91
56.8115	505.59
56.8259	519.36
56.8404	540.64
56.8548	523.82
56.8693	520.85
56.8837	541.74
56.8981	554.95
56.9126	545.79
56.9270	547.56
56.9415	546.35
56.9559	510.45
56.9703	507.45
56.9848	496.44
56.9992	523.68
57.0137	498.55
57.0281	543.63
57.0425	538.80
57.0570	571.74
57.0714	554.37
57.0859	559.84
57.1003	511.98
57.1147	517.45
57.1292	525.94
57.1436	524.90
57.1581	508.45
57.1725	548.89
57.1869	514.40
57.2014	533.30
57.2158	549.16
57.2303	525.39
57.2447	542.68
57.2591	514.69
57.2736	538.93
57.2880	552.00
57.3025	530.26
57.3169	542.85
57.3313	564.11
57.3458	526.58
57.3602	533.89
57.3747	534.15
57.3891	518.97
57.4035	508.08
57.4180	515.55
57.4324	527.96
57.4469	513.29
57.4613	543.14
57.4757	558.72
57.4902	546.76
57.5046	507.97
57.5191	522.58
57.5335	538.34
57.5479	543.40
57.5624	508.71
57.5768	521.60
57.5913	520.46
57.6057	529.84
57.6201	485.09
57.6346	522.45
57.6490	523.49
57.6635	559.88
57.6779	557.48
57.6923	523.35
57.7068	537.28
57.7212	549.86
57.7357	534.33
57.7501	534.07
57.7645	522.49
57.7790	524.27
57.7934	534.07
57.8079	542.06
57.8223	523.67
57.8367	524.19
57.8512	540.84
57.8656	563.15
57.8801	504.01
57.8945	541.51
57.9089	514.50
57.9234	546.08
57.9378	558.39
57.9523	562.17
57.9667	525.94
57.9811	554.33
57.9956	534.38
58.0100	551.94
58.0245	538.05
58.0389	563.76
58.0533	550.10
58.0678	536.91
58.0822	554.90
58.0967	555.34
58.1111	532.58
58.1255	542.28
58.1400	527.27
58.1544	529.53
58.1689	512.12
58.1833	526.44
58.1977	531.19
58.2122	559.85
58.2266	541.03
58.2411	542.36
58.2555	568.30
58.2699	532.60
58.2844	497.71
58.2988	537.71
58.3133	532.78
58.3277	579.60
58.3421	540.27
58.3566	548.82
58.3710	563.35
58.3855	589.83
58.3999	588.39
58.4143	565.85
58.4288	611.23
58.4432	584.51
58.4577	590.09
58.4721	612.23
58.4865	615.10
58.5010	623.90
58.5154	592.16
58.5299	594.44
58.5443	586.00
58.5587	620.01
58.5732	641.61
58.5876	657.76
58.6021	639.49
58.6165	623.17
58.6309	650.03
58.6454	649.27
58.6598	676.45
58.6743	605.26
58.6887	581.06
58.7031	638.55
58.7176	624.73
58.7320	598.85
58.7465	608.19
58.7609	601.24
58.7753	594.59
58.7898	629.42
58.8042	602.90
58.8187	590.40
58.8331	582.11
58.8475	580.38
58.8620	571.01
58.8764	564.48
58.8909	554.99
58.9053	602.16
58.9197	573.27
58.9342	555.81
58.9486	504.84
58.9631	523.87
58.9775	572.25
58.9919	556.03
59.0064	514.90
59.0208	525.50
59.0353	566.24
59.0497	553.70
59.0641	542.50
59.0786	544.98
59.0930	574.12
59.1075	568.98
59.1219	549.66
59.1363	530.69
59.1508	562.08
59.1652	566.41
59.1797	560.52
59.1941	550.69
59.2085	555.47
59.2230	582.05
59.2374	582.73
59.2519	565.53
59.2663	565.07
59.2807	581.59
59.2952	557.91
59.3096	561.21
59.3241	570.00
59.3385	590.68
59.3529	597.52
59.3674	563.18
59.3818	550.15
59.3963	577.99
59.4107	550.58
59.4251	603.46
59.4396	565.60
59.4540	525.04
59.4685	563.95
59.4829	566.66
59.4973	554.16
59.5118	572.23
59.5262	573.14
59.5407	569.70
59.5551	545.06
59.5695	550.51
59.5840	530.47
59.5984	536.14
59.6129	561.80
59.6273	553.11
59.6417	561.43
59.6562	535.65
59.6706	554.57
59.6851	524.92
59.6995	554.82
59.7139	581.50
59.7284	546.17
59.7428	533.57
59.7573	533.32
59.7717	520.98
59.7861	552.01
59.8006	569.85
59.8150	540.42
59.8295	538.49
59.8439	538.65
59.8583	537.17
59.8728	525.64
59.8872	508.09
59.9017	547.59
59.9161	569.44
59.9305	541.95
59.9450	558.27
59.9594	518.05
59.9739	563.41
59.9883	560.35
60.0027	522.20
60.0172	536.18
60.0316	537.69
60.0461	543.32
60.0605	523.23
60.0750	534.35
60.0894	568.21
60.1038	575.33
60.1183	550.48
60.1327	530.02
60.1472	512.02
60.1616	531.23
60.1760	558.94
60.1905	568.73
60.2049	512.64
60.2194	552.84
60.2338	581.08
60.2482	568.44
60.2627	555.90
60.2771	575.56
60.2916	542.07
60.3060	511.45
60.3204	548.32
60.3349	577.87
60.3493	541.20
60.3638	553.57
60.3782	541.03
60.3926	546.57
60.4071	506.92
60.4215	544.83
60.4360	537.80
60.4504	523.48
60.4648	544.15
60.4793	540.21
60.4937	530.94
60.5082	523.07
60.5226	543.89
60.5370	536.01
60.5515	530.36
60.5659	505.42
60.5804	559.46
60.5948	560.02
60.6092	537.62
60.6237	512.33
60.6381	536.86
60.6526	542.62
60.6670	559.29
60.6814	520.73
60.6959	534.31
60.7103	546.49
60.7248	527.33
60.7392	489.15
60.7536	554.96
60.7681	569.38
60.7825	558.82
60.7970	531.41
60.8114	533.57
60.8258	507.34
60.8403	562.07
60.8547	544.84
60.8692	562.31
60.8836	560.50
60.8980	532.39
60.9125	578.44
60.9269	569.15
60.9414	609.08
60.9558	536.06
60.9702	509.55
60.9847	540.78
60.9991	546.76
61.0136	518.88
61.0280	556.11
61.0424	546.13
61.0569	535.89
61.0713	529.30
61.0858	529.40
61.1002	548.51
61.1146	561.60
61.1291	536.98
61.1435	543.41
61.1580	532.24
61.1724	577.93
61.1868	526.06
61.2013	520.08
61.2157	544.63
61.2302	532.99
61.2446	554.54
61.2590	553.41
61.2735	519.99
61.2879	537.23
61.3024	569.08
61.3168	547.39
61.3312	585.18
61.3457	571.57
61.3601	559.07
61.3746	530.58
61.3890	515.38
61.4034	559.92
61.4179	519.69
61.4323	559.94
61.4468	571.30
61.4612	573.40
61.4756	588.01
61.4901	539.91
61.5045	542.82
61.5190	565.75
61.5334	558.61
61.5478	559.87
61.5623	556.89
61.5767	542.42
61.5912	546.64
61.6056	567.04
61.6200	525.06
61.6345	511.64
61.6489	578.80
61.6634	545.45
61.6778	526.71
61.6922	557.00
61.7067	571.63
61.7211	585.45
61.7356	568.30
61.7500	569.21
61.7644	544.75
61.7789	554.09
61.7933	545.31
61.8078	572.42
61.8222	590.48
61.8366	545.57
61.8511	532.44
61.8655	583.94
61.8800	561.53
61.8944	547.31
61.9088	575.48
61.9233	532.10
61.9377	536.80
61.9522	551.43
61.9666	549.41
61.9810	568.26
61.9955	550.39
62.0099	558.55
62.0244	579.83
62.0388	564.71
62.0532	565.15
62.0677	565.21
62.0821	550.82
62.0966	600.29
62.1110	575.85
62.1254	570.94
62.1399	564.01
62.1543	546.57
62.1688	531.98
62.1832	554.53
62.1976	549.05
62.2121	576.18
62.2265	554.29
62.2410	520.27
62.2554	548.26
62.2698	549.53
62.2843	561.77
62.2987	573.17
62.3132	569.48
62.3276	562.83
62.3420	534.73
62.3565	560.52
62.3709	582.13
62.3854	559.72
62.3998	562.63
62.4142	570.37
62.4287	580.97
62.4431	557.29
62.4576	542.54
62.4720	596.01
62.4864	570.90
62.5009	562.60
62.5153	537.78
62.5298	568.17
62.5442	565.55
62.5586	548.28
62.5731	557.98
62.5875	559.53
62.6020	587.50
62.6164	568.82
62.6308	543.96
62.6453	578.49
62.6597	544.93
62.6742	576.31
62.6886	573.36
62.7030	571.88
62.7175	572.96
62.7319	560.65
62.7464	543.30
62.7608	551.86
62.7752	533.58
62.7897	539.87
62.8041	555.86
62.8186	599.16
62.8330	606.98
62.8474	576.03
62.8619	554.75
62.8763	545.20
62.8908	507.13
62.9052	541.63
62.9196	536.57
62.9341	568.78
62.9485	598.24
62.9630	573.78
62.9774	560.39
62.9918	557.72
63.0063	565.05
63.0207	591.86
63.0352	583.13
63.0496	569.95
63.0640	557.75
63.0785	558.19
63.0929	573.53
63.1074	563.92
63.1218	572.61
63.1362	585.87
63.1507	535.69
63.1651	557.87
63.1796	573.85
63.1940	557.29
63.2084	541.01
63.2229	574.43
63.2373	548.70
63.2518	559.35
63.2662	563.28
63.2806	603.95
63.2951	567.00
63.3095	511.51
63.3240	559.51
63.3384	576.66
63.3528	557.14
63.3673	575.20
63.3817	564.63
63.3962	554.15
63.4106	566.07
63.4250	561.84
63.4395	598.78
63.4539	567.54
63.4684	608.52
63.4828	585.25
63.4972	616.06
63.5117	576.24
63.5261	562.29
63.5406	546.11
63.5550	574.52
63.5694	555.01
63.5839	568.72
63.5983	575.92
63.6128	561.04
63.6272	565.17
63.6416	593.74
63.6561	595.04
63.6705	576.52
63.6850	569.92
63.6994	600.46
63.7138	614.89
63.7283	575.79
63.7427	586.01
63.7572	598.87
63.7716	556.61
63.7861	594.03
63.8005	570.60
63.8149	611.69
63.8294	592.50
63.8438	608.31
63.8583	639.20
63.8727	595.92
63.8871	595.46
63.9016	605.57
63.9160	576.48
63.9305	588.61
63.9449	629.38
63.9593	613.30
63.9738	619.22
63.9882	603.79
64.0027	576.66
64.0171	641.11
64.0315	603.23
64.0460	568.82
64.0604	640.04
64.0749	601.37
64.0893	639.91
64.1037	611.32
64.1182	654.17
64.1326	670.01
64.1471	607.31
64.1615	619.35
64.1759	662.86
64.1904	662.43
64.2048	682.65
64.2193	742.61
64.2337	731.89
64.2481	715.66
64.2626	722.30
64.2770	764.92
64.2915	775.66
64.3059	779.94
64.3203	798.04
64.3348	798.04
64.3492	763.82
64.3637	768.11
64.3781	806.37
64.3925	784.93
64.4070	775.57
64.4214	811.91
64.4359	800.09
64.4503	763.63
64.4647	807.77
64.4792	802.58
64.4936	777.24
64.5081	791.55
64.5225	777.50
64.5369	774.46
64.5514	717.85
64.5658	714.29
64.5803	769.84
64.5947	754.21
64.6091	695.13
64.6236	729.23
64.6380	739.24
64.6525	746.98
64.6669	746.47
64.6813	735.50
64.6958	721.24
64.7102	758.12
64.7247	728.57
64.7391	731.97
64.7535	718.46
64.7680	736.72
64.7824	792.91
64.7969	753.33
64.8113	783.65
64.8257	824.22
64.8402	816.17
64.8546	849.64
64.8691	855.64
64.8835	853.11
64.8979	942.29
64.9124	909.38
64.9268	918.91
64.9413	934.14
64.9557	968.87
64.9701	1021.99
64.9846	1090.22
64.9990	1181.49
65.0135	1260.52
65.0279	1545.15
65.0423	1774.01
65.0568	1990.01
65.0712	2663.17
65.0857	3466.25
65.1001	4566.35
65.1145	6151.29
65.1290	8044.13
65.1434	9530.12
65.1579	11008.86
65.1723	11829.85
65.1867	11283.42
65.2012	10023.79
65.2156	8323.57
65.2301	6629.55
65.2445	5245.68
65.2589	4436.36
65.2734	4277.60
65.2878	4436.42
65.3023	4974.32
65.3167	5720.49
65.3311	6576.44
65.3456	7067.53
65.3600	7039.46
65.3745	6483.73
65.3889	5619.17
65.4033	4332.31
65.4178	3581.43
65.4322	2782.98
65.4467	2109.77
65.4611	1732.96
65.4755	1484.24
65.4900	1281.33
65.5044	1145.90
65.5189	1075.68
65.5333	1006.72
65.5477	951.92
65.5622	910.28
65.5766	863.54
65.5911	839.11
65.6055	825.11
65.6199	811.91
65.6344	765.35
65.6488	750.77
65.6633	770.95
65.6777	735.03
65.6921	686.78
65.7066	751.20
65.7210	714.25
65.7355	726.71
65.7499	727.90
65.7643	674.75
65.7788	725.96
65.7932	694.24
65.8077	642.96
65.8221	678.96
65.8365	645.49
65.8510	644.08
65.8654	682.68
65.8799	669.77
65.8943	673.57
65.9087	677.03
65.9232	662.43
65.9376	653.78
65.9521	651.13
65.9665	656.13
65.9809	624.11
65.9954	605.20
66.0098	596.36
66.0243	617.06
66.0387	600.76
66.0531	653.48
66.0676	628.78
66.0820	591.24
66.0965	619.66
66.1109	618.43
66.1253	635.61
66.1398	633.30
66.1542	623.41
66.1687	612.52
66.1831	638.27
66.1975	615.14
66.2120	604.56
66.2264	622.04
66.2409	639.20
66.2553	594.36
66.2697	605.43
66.2842	613.78
66.2986	635.33
66.3131	610.40
66.3275	599.13
66.3419	601.04
66.3564	617.25
66.3708	582.78
66.3853	578.09
66.3997	578.56
66.4141	589.54
66.4286	603.49
66.4430	567.81
66.4575	585.83
66.4719	617.00
66.4863	649.05
66.5008	590.39
66.5152	549.94
66.5297	588.87
66.5441	616.61
66.5585	631.70
66.5730	579.42
66.5874	581.41
66.6019	593.28
66.6163	587.66
66.6307	595.46
66.6452	584.93
66.6596	583.79
66.6741	591.26
66.6885	613.14
66.7029	642.96
66.7174	604.38
66.7318	576.48
66.7463	586.25
66.7607	538.85
66.7751	574.53
66.7896	595.80
66.8040	584.30
66.8185	611.26
66.8329	586.63
66.8473	562.93
66.8618	562.52
66.8762	577.42
66.8907	600.71
66.9051	583.33
66.9195	575.72
66.9340	571.09
66.9484	585.05
66.9629	579.00
66.9773	569.40
66.9917	564.12
67.0062	539.63
67.0206	603.93
67.0351	612.59
67.0495	572.48
67.0639	562.48
67.0784	587.96
67.0928	597.41
67.1073	600.79
67.1217	582.22
67.1361	554.12
67.1506	549.02
67.1650	597.80
67.1795	600.15
67.1939	549.66
67.2083	576.35
67.2228	594.11
67.2372	614.27
67.2517	606.48
67.2661	577.50
67.2805	582.05
67.2950	591.72
67.3094	623.15
67.3239	603.00
67.3383	597.80
67.3527	560.52
67.3672	584.74
67.3816	557.41
67.3961	550.46
67.4105	570.84
67.4250	594.33
67.4394	601.55
67.4538	571.37
67.4683	576.16
67.4827	579.12
67.4972	577.19
67.5116	555.31
67.5260	553.78
67.5405	564.07
67.5549	555.13
67.5694	552.44
67.5838	567.07
67.5982	590.36
67.6127	556.14
67.6271	588.74
67.6416	564.66
67.6560	580.21
67.6704	593.58
67.6849	566.26
67.6993	573.52
67.7138	571.59
67.7282	577.09
67.7426	604.79
67.7571	566.06
67.7715	579.83
67.7860	566.62
67.8004	604.66
67.8148	612.67
67.8293	536.54
67.8437	553.09
67.8582	572.05
67.8726	590.44
67.8870	547.03
67.9015	540.24
67.9159	556.54
67.9304	558.49
67.9448	581.79
67.9592	530.17
67.9737	542.11
67.9881	601.10
68.0026	569.31
68.0170	565.18
68.0314	593.58
68.0459	548.12
68.0603	554.96
68.0748	552.12
68.0892	589.94
68.1036	576.17
68.1181	572.89
68.1325	579.09
68.1470	570.31
68.1614	591.54
68.1758	569.81
68.1903	575.14
68.2047	562.60
68.2192	587.21
68.2336	616.28
68.2480	582.45
68.2625	565.66
68.2769	583.58
68.2914	582.57
68.3058	573.47
68.3202	575.99
68.3347	590.66
68.3491	574.54
68.3636	576.16
68.3780	564.38
68.3924	563.03
68.4069	589.42
68.4213	616.46
68.4358	599.99
68.4502	546.79
68.4646	574.32
68.4791	584.99
68.4935	573.63
68.5080	565.08
68.5224	568.77
68.5368	613.64
68.5513	592.53
68.5657	539.90
68.5802	563.44
68.5946	510.22
68.6090	551.38
68.6235	552.62
68.6379	562.41
68.6524	575.98
68.6668	592.07
68.6812	571.37
68.6957	576.43
68.7101	578.74
68.7246	593.07
68.7390	591.38
68.7534	521.75
68.7679	575.21
68.7823	590.73
68.7968	568.46
68.8112	571.05
68.8256	564.15
68.8401	563.89
68.8545	548.50
68.8690	545.27
68.8834	587.89
68.8978	649.36
68.9123	621.55
68.9267	566.10
68.9412	609.46
68.9556	577.76
68.9700	628.91
68.9845	593.82
68.9989	550.43
69.0134	584.48
69.0278	610.73
69.0422	609.01
69.0567	598.71
69.0711	581.32
69.0856	638.18
69.1000	555.61
69.1144	573.79
69.1289	636.22
69.1433	557.39
69.1578	600.03
69.1722	616.36
69.1866	589.30
69.2011	523.93
69.2155	631.55
69.2300	583.43
69.2444	641.34
69.2588	603.79
69.2733	596.67
69.2877	632.61
69.3022	545.27
69.3166	555.23
69.3310	605.42
69.3455	582.30
69.3599	595.80
69.3744	605.19
69.3888	571.08
69.4032	615.54
69.4177	578.21
69.4321	588.97
69.4466	560.10
69.4610	562.41
69.4754	566.51
69.4899	602.67
69.5043	558.84
69.5188	599.30
69.5332	603.85
69.5476	545.28
69.5621	572.85
69.5765	574.63
69.5910	591.64
69.6054	565.35
69.6198	571.98
69.6343	593.66
69.6487	595.58
69.6632	576.20
69.6776	601.04
69.6920	540.80
69.7065	619.65
69.7209	624.16
69.7354	596.17
69.7498	596.91
69.7642	566.66
69.7787	608.09
69.7931	579.17
69.8076	550.35
69.8220	609.95
69.8364	614.81
69.8509	546.85
69.8653	570.07
69.8798	565.01
69.8942	596.82
69.9086	637.73
69.9231	607.78
69.9375	609.54
69.9520	619.93
69.9664	573.66
69.9808	572.24
69.9953	603.94
70.0097	553.36
70.0242	604.09
70.0386	600.57
70.0530	577.97
70.0675	607.33
70.0819	540.41
70.0964	596.81
70.1108	629.96
70.1252	680.15
70.1397	517.42
70.1541	485.52
70.1686	508.70
70.1830	569.53
70.1974	556.15
70.2119	561.99
70.2263	539.02
70.2408	545.60
70.2552	637.43
70.2696	642.89
70.2841	572.69
70.2985	548.14
70.3130	617.30
70.3274	606.44
70.3418	555.21
70.3563	516.34
70.3707	575.30
70.3852	573.82
70.3996	543.65
70.4140	540.62
70.4285	566.92
70.4429	550.19
70.4574	584.63
70.4718	579.33
70.4862	584.66
70.5007	555.68
70.5151	519.32
70.5296	580.72
70.5440	602.65
70.5584	618.64
70.5729	528.27
70.5873	603.81
70.6018	580.41
70.6162	605.65
70.6306	585.09
70.6451	569.17
70.6595	541.53
70.6740	621.92
70.6884	590.42
70.7028	597.41
70.7173	544.44
70.7317	544.79
70.7462	610.08
70.7606	576.91
70.7750	560.14
70.7895	557.42
70.8039	556.28
70.8184	589.39
70.8328	557.56
70.8472	554.30
70.8617	610.52
70.8761	558.40
70.8906	582.56
70.9050	587.16
70.9194	553.62
70.9339	554.52
70.9483	626.53
70.9628	627.88
70.9772	576.82
70.9916	588.14
71.0061	569.51
71.0205	551.17
71.0350	555.94
71.0494	536.74
71.0638	555.49
71.0783	602.74
71.0927	631.57
71.1072	633.66
71.1216	601.08
71.1361	559.30
71.1505	552.73
71.1649	633.08
71.1794	630.93
71.1938	595.92
71.2083	551.18
71.2227	542.66
71.2371	622.14
71.2516	649.41
71.2660	580.97
71.2805	590.23
71.2949	567.02
71.3093	569.19
71.3238	606.61
71.3382	587.39
71.3527	536.74
71.3671	530.19
71.3815	564.28
71.3960	598.75
71.4104	561.22
71.4249	557.79
71.4393	536.94
71.4537	534.53
71.4682	554.15
71.4826	565.10
71.4971	592.63
71.5115	596.04
71.5259	523.14
71.5404	549.86
71.5548	593.03
71.5693	564.30
71.5837	534.14
71.5981	527.31
71.6126	545.77
71.6270	568.24
71.6415	615.03
71.6559	619.69
71.6703	615.40
71.6848	547.09
71.6992	565.48
71.7137	587.79
71.7281	571.82
71.7425	584.81
71.7570	584.91
71.7714	530.41
71.7859	538.01
71.8003	577.72
71.8147	607.23
71.8292	613.54
71.8436	538.56
71.8581	570.06
71.8725	580.43
71.8869	615.48
71.9014	657.38
71.9158	597.06
71.9303	508.58
71.9447	569.10
71.9591	646.59
71.9736	630.03
71.9880	549.45
72.0025	467.46
72.0169	461.71
72.0313	532.99
72.0458	605.54
72.0602	572.78
72.0747	534.13
72.0891	585.80
72.1035	671.32
72.1180	622.53
72.1324	591.14
72.1469	580.00
72.1613	552.29
72.1757	599.57
72.1902	645.67
72.2046	659.85
72.2191	607.20
72.2335	570.34
72.2479	535.28
72.2624	547.32
72.2768	559.65
72.2913	562.80
72.3057	529.09
72.3201	545.70
72.3346	566.97
72.3490	584.89
72.3635	591.71
72.3779	574.37
72.3923	579.22
72.4068	547.38
72.4212	531.17
72.4357	534.05
72.4501	614.24
72.4645	660.64
72.4790	647.14
72.4934	680.51
72.5079	612.36
72.5223	527.40
72.5367	555.64
72.5512	633.28
72.5656	571.30
72.5801	535.91
72.5945	517.40
72.6089	519.02
72.6234	537.00
72.6378	542.02
72.6523	576.35
72.6667	619.29
72.6811	639.09
72.6956	595.76
72.7100	611.03
72.7245	645.36
72.7389	664.95
72.7533	659.91
72.7678	618.57
72.7822	588.74
72.7967	582.11
72.8111	620.45
72.8255	588.72
72.8400	532.32
72.8544	573.34
72.8689	526.74
72.8833	528.03