2022.09.19 19:37:16
Îáðàçåö: ß÷åéêà LCoV 16-09-2022
Lambda1 = 1.54060
Lambda2 = 1.54439
Lambdam = 1.54186
R = 0.497
2Theta	I

line¹ 0 ;repeat¹ 0
22.1120	591.83
22.1264	620.07
22.1409	564.76
22.1553	556.67
22.1697	578.52
22.1842	588.54
22.1986	564.72
22.2131	621.48
22.2275	609.20
22.2419	558.25
22.2564	603.03
22.2708	559.86
22.2853	688.92
22.2997	604.53
22.3141	531.82
22.3286	580.44
22.3430	580.51
22.3575	602.25
22.3719	577.88
22.3863	646.69
22.4008	519.51
22.4152	551.34
22.4297	585.45
22.4441	567.42
22.4585	513.73
22.4730	588.91
22.4874	568.18
22.5019	597.66
22.5163	650.21
22.5307	667.11
22.5452	654.92
22.5596	587.63
22.5741	483.95
22.5885	480.11
22.6029	547.55
22.6174	543.91
22.6318	567.83
22.6463	569.62
22.6607	583.59
22.6751	573.59
22.6896	563.35
22.7040	555.31
22.7185	570.40
22.7329	531.66
22.7473	510.53
22.7618	561.83
22.7762	634.46
22.7907	532.17
22.8051	551.96
22.8195	524.58
22.8340	510.65
22.8484	556.38
22.8629	549.19
22.8773	527.56
22.8917	509.03
22.9062	566.47
22.9206	572.17
22.9351	593.93
22.9495	509.16
22.9639	478.35
22.9784	573.58
22.9928	566.89
23.0073	518.70
23.0217	569.01
23.0361	591.33
23.0506	539.63
23.0650	523.77
23.0795	574.75
23.0939	523.57
23.1083	605.70
23.1228	593.62
23.1372	542.10
23.1517	451.51
23.1661	586.66
23.1806	502.49
23.1950	560.74
23.2094	538.63
23.2239	576.80
23.2383	676.19
23.2528	598.75
23.2672	557.40
23.2816	668.11
23.2961	546.80
23.3105	569.53
23.3250	586.23
23.3394	549.65
23.3538	608.12
23.3683	555.05
23.3827	584.65
23.3972	495.38
23.4116	518.78
23.4260	603.84
23.4405	566.44
23.4549	571.05
23.4694	573.57
23.4838	514.45
23.4982	584.35
23.5127	524.35
23.5271	557.54
23.5416	574.71
23.5560	544.01
23.5704	580.78
23.5849	602.75
23.5993	617.67
23.6138	586.51
23.6282	584.86
23.6426	566.10
23.6571	501.92
23.6715	475.22
23.6860	505.86
23.7004	575.80
23.7148	566.72
23.7293	619.05
23.7437	583.89
23.7582	497.76
23.7726	552.91
23.7870	519.64
23.8015	548.28
23.8159	561.71
23.8304	539.34
23.8448	539.48
23.8592	594.88
23.8737	597.17
23.8881	519.76
23.9026	624.25
23.9170	584.04
23.9314	563.22
23.9459	581.44
23.9603	531.63
23.9748	557.58
23.9892	535.65
24.0036	546.14
24.0181	554.26
24.0325	657.29
24.0470	526.31
24.0614	553.92
24.0758	653.88
24.0903	550.09
24.1047	562.37
24.1192	587.25
24.1336	534.50
24.1480	522.64
24.1625	638.02
24.1769	543.34
24.1914	563.03
24.2058	536.47
24.2202	567.96
24.2347	558.27
24.2491	605.45
24.2636	600.80
24.2780	625.89
24.2924	593.71
24.3069	605.03
24.3213	593.50
24.3358	594.11
24.3502	523.61
24.3646	578.86
24.3791	573.20
24.3935	579.11
24.4080	544.26
24.4224	530.00
24.4368	517.54
24.4513	524.76
24.4657	585.38
24.4802	588.33
24.4946	531.52
24.5090	570.73
24.5235	558.78
24.5379	560.12
24.5524	574.87
24.5668	625.23
24.5812	562.76
24.5957	558.69
24.6101	545.69
24.6246	513.33
24.6390	500.31
24.6534	586.09
24.6679	553.23
24.6823	539.44
24.6968	593.07
24.7112	540.10
24.7256	557.24
24.7401	553.11
24.7545	569.22
24.7690	541.96
24.7834	580.58
24.7978	556.22
24.8123	566.11
24.8267	541.58
24.8412	577.67
24.8556	575.95
24.8700	615.26
24.8845	559.17
24.8989	587.35
24.9134	576.96
24.9278	558.53
24.9422	552.75
24.9567	534.69
24.9711	551.02
24.9856	595.81
25.0000	515.87
25.0144	571.33
25.0289	540.66
25.0433	567.94
25.0578	563.46
25.0722	504.41
25.0866	501.38
25.1011	503.64
25.1155	528.24
25.1300	577.03
25.1444	508.52
25.1588	525.81
25.1733	516.69
25.1877	522.47
25.2022	555.85
25.2166	547.97
25.2310	547.14
25.2455	509.95
25.2599	537.87
25.2744	532.28
25.2888	562.00
25.3032	559.48
25.3177	547.19
25.3321	531.68
25.3466	526.34
25.3610	504.11
25.3754	514.62
25.3899	499.26
25.4043	548.66
25.4188	529.44
25.4332	497.27
25.4476	547.19
25.4621	568.57
25.4765	528.79
25.4910	537.66
25.5054	501.47
25.5198	496.95
25.5343	540.73
25.5487	559.92
25.5632	550.18
25.5776	529.84
25.5920	528.41
25.6065	548.44
25.6209	525.73
25.6354	505.81
25.6498	544.41
25.6642	585.85
25.6787	523.62
25.6931	547.56
25.7076	596.71
25.7220	589.92
25.7364	499.64
25.7509	510.98
25.7653	505.58
25.7798	565.29
25.7942	568.91
25.8086	573.06
25.8231	560.21
25.8375	538.25
25.8520	524.96
25.8664	529.52
25.8808	561.15
25.8953	564.41
25.9097	572.17
25.9242	529.75
25.9386	556.98
25.9530	560.17
25.9675	522.54
25.9819	519.57
25.9964	502.15
26.0108	542.63
26.0252	556.14
26.0397	520.90
26.0541	517.36
26.0686	531.66
26.0830	524.82
26.0974	528.32
26.1119	536.92
26.1263	566.17
26.1408	515.43
26.1552	545.46
26.1696	556.19
26.1841	564.66
26.1985	527.96
26.2130	536.73
26.2274	531.84
26.2418	529.59
26.2563	531.48
26.2707	509.92
26.2852	548.58
26.2996	532.76
26.3140	526.49
26.3285	477.02
26.3429	509.08
26.3574	556.34
26.3718	541.85
26.3862	503.34
26.4007	510.04
26.4151	549.93
26.4296	585.83
26.4440	513.22
26.4584	514.36
26.4729	569.52
26.4873	554.22
26.5018	549.88
26.5162	560.50
26.5306	577.38
26.5451	549.26
26.5595	559.92
26.5740	557.99
26.5884	568.12
26.6028	567.62
26.6173	544.02
26.6317	530.20
26.6462	513.53
26.6606	530.16
26.6750	546.44
26.6895	540.58
26.7039	537.54
26.7184	532.38
26.7328	529.59
26.7472	500.84
26.7617	528.11
26.7761	529.09
26.7906	524.35
26.8050	531.99
26.8194	555.23
26.8339	555.39
26.8483	538.72
26.8628	548.72
26.8772	520.65
26.8917	518.39
26.9061	580.31
26.9205	554.93
26.9350	529.61
26.9494	528.23
26.9639	535.09
26.9783	531.34
26.9927	513.61
27.0072	525.46
27.0216	516.07
27.0361	542.44
27.0505	519.23
27.0649	486.34
27.0794	503.39
27.0938	540.04
27.1083	528.78
27.1227	526.07
27.1371	520.32
27.1516	525.45
27.1660	490.72
27.1805	513.20
27.1949	524.53
27.2093	517.92
27.2238	526.02
27.2382	497.86
27.2527	503.43
27.2671	530.55
27.2815	506.56
27.2960	513.32
27.3104	554.68
27.3249	507.04
27.3393	554.06
27.3537	551.90
27.3682	531.85
27.3826	519.19
27.3971	494.99
27.4115	500.71
27.4259	547.37
27.4404	525.90
27.4548	516.45
27.4693	540.08
27.4837	549.38
27.4981	523.36
27.5126	524.82
27.5270	557.78
27.5415	512.29
27.5559	511.97
27.5703	515.55
27.5848	538.95
27.5992	539.84
27.6137	529.45
27.6281	545.07
27.6425	532.53
27.6570	543.30
27.6714	522.59
27.6859	505.64
27.7003	521.54
27.7147	546.68
27.7292	511.27
27.7436	517.47
27.7581	589.93
27.7725	529.69
27.7869	540.56
27.8014	526.91
27.8158	541.34
27.8303	535.88
27.8447	498.18
27.8591	515.16
27.8736	516.42
27.8880	489.05
27.9025	520.87
27.9169	503.50
27.9313	497.65
27.9458	485.42
27.9602	511.49
27.9747	531.52
27.9891	510.39
28.0035	480.15
28.0180	522.15
28.0324	541.06
28.0469	486.29
28.0613	537.43
28.0757	537.90
28.0902	534.93
28.1046	511.82
28.1191	533.22
28.1335	513.34
28.1479	481.07
28.1624	490.59
28.1768	530.65
28.1913	471.50
28.2057	524.59
28.2201	528.17
28.2346	523.13
28.2490	520.26
28.2635	482.35
28.2779	503.99
28.2923	485.83
28.3068	536.21
28.3212	510.70
28.3357	541.20
28.3501	524.74
28.3645	481.87
28.3790	520.38
28.3934	519.57
28.4079	507.33
28.4223	518.25
28.4367	513.46
28.4512	506.82
28.4656	525.39
28.4801	525.87
28.4945	545.53
28.5089	519.79
28.5234	506.95
28.5378	527.29
28.5523	495.87
28.5667	494.05
28.5811	520.64
28.5956	504.53
28.6100	490.35
28.6245	516.30
28.6389	539.86
28.6533	522.15
28.6678	515.83
28.6822	487.88
28.6967	525.67
28.7111	547.63
28.7255	496.56
28.7400	531.49
28.7544	559.97
28.7689	486.15
28.7833	504.57
28.7977	493.73
28.8122	495.10
28.8266	511.94
28.8411	520.81
28.8555	496.89
28.8699	526.68
28.8844	496.84
28.8988	504.42
28.9133	500.62
28.9277	546.89
28.9421	522.34
28.9566	486.48
28.9710	550.91
28.9855	508.55
28.9999	503.02
29.0143	515.91
29.0288	540.06
29.0432	503.23
29.0577	526.84
29.0721	518.06
29.0865	500.52
29.1010	529.16
29.1154	525.53
29.1299	492.16
29.1443	502.44
29.1587	503.38
29.1732	518.72
29.1876	532.84
29.2021	507.47
29.2165	531.51
29.2309	508.67
29.2454	542.62
29.2598	543.65
29.2743	492.23
29.2887	471.66
29.3031	460.30
29.3176	475.82
29.3320	507.89
29.3465	499.90
29.3609	475.00
29.3753	501.26
29.3898	473.46
29.4042	501.31
29.4187	518.82
29.4331	499.53
29.4475	488.17
29.4620	502.67
29.4764	454.82
29.4909	515.76
29.5053	505.89
29.5197	487.00
29.5342	517.61
29.5486	503.74
29.5631	515.68
29.5775	509.39
29.5919	491.70
29.6064	504.82
29.6208	497.65
29.6353	470.07
29.6497	494.96
29.6641	525.84
29.6786	527.65
29.6930	482.79
29.7075	514.91
29.7219	533.77
29.7363	523.69
29.7508	522.88
29.7652	468.94
29.7797	486.88
29.7941	473.41
29.8085	492.19
29.8230	513.51
29.8374	547.77
29.8519	546.12
29.8663	493.08
29.8807	523.86
29.8952	518.38
29.9096	495.72
29.9241	495.27
29.9385	488.29
29.9529	523.50
29.9674	512.79
29.9818	470.87
29.9963	526.89
30.0107	485.74
30.0251	476.52
30.0396	516.94
30.0540	470.69
30.0685	499.72
30.0829	534.85
30.0973	489.16
30.1118	462.02
30.1262	515.89
30.1407	478.88
30.1551	490.15
30.1695	524.09
30.1840	517.89
30.1984	482.76
30.2129	538.12
30.2273	530.62
30.2417	493.39
30.2562	496.61
30.2706	510.64
30.2851	522.08
30.2995	528.18
30.3139	547.26
30.3284	536.29
30.3428	503.55
30.3573	499.11
30.3717	494.92
30.3861	507.10
30.4006	510.20
30.4150	488.49
30.4295	521.52
30.4439	563.18
30.4583	528.28
30.4728	535.45
30.4872	514.76
30.5017	554.58
30.5161	576.76
30.5305	581.47
30.5450	631.57
30.5594	697.55
30.5739	711.64
30.5883	716.13
30.6028	727.15
30.6172	718.65
30.6316	720.68
30.6461	738.98
30.6605	727.61
30.6750	718.74
30.6894	655.41
30.7038	630.52
30.7183	607.79
30.7327	598.31
30.7472	609.85
30.7616	560.44
30.7760	543.87
30.7905	519.04
30.8049	526.51
30.8194	544.48
30.8338	557.51
30.8482	537.61
30.8627	515.50
30.8771	533.48
30.8916	514.68
30.9060	482.46
30.9204	511.24
30.9349	520.06
30.9493	505.83
30.9638	475.19
30.9782	533.56
30.9926	542.73
31.0071	509.47
31.0215	495.92
31.0360	493.88
31.0504	509.34
31.0648	507.14
31.0793	493.37
31.0937	511.59
31.1082	486.46
31.1226	514.64
31.1370	488.63
31.1515	481.53
31.1659	493.03
31.1804	504.47
31.1948	485.15
31.2092	497.92
31.2237	540.39
31.2381	536.19
31.2526	527.56
31.2670	529.25
31.2814	527.70
31.2959	529.84
31.3103	558.48
31.3248	516.62
31.3392	529.92
31.3536	537.40
31.3681	494.96
31.3825	494.92
31.3970	516.65
31.4114	526.07
31.4258	508.21
31.4403	506.89
31.4547	528.87
31.4692	523.78
31.4836	524.79
31.4980	499.93
31.5125	502.46
31.5269	491.68
31.5414	508.89
31.5558	530.42
31.5702	518.02
31.5847	525.70
31.5991	503.09
31.6136	510.55
31.6280	505.07
31.6424	494.51
31.6569	510.26
31.6713	505.18
31.6858	489.54
31.7002	568.27
31.7146	534.51
31.7291	496.37
31.7435	469.35
31.7580	482.08
31.7724	531.49
31.7868	486.82
31.8013	497.91
31.8157	501.03
31.8302	510.21
31.8446	505.11
31.8590	511.61
31.8735	525.06
31.8879	488.93
31.9024	500.28
31.9168	529.92
31.9312	500.25
31.9457	487.83
31.9601	500.34
31.9746	499.24
31.9890	468.55
32.0034	496.84
32.0179	508.48
32.0323	500.59
32.0468	507.88
32.0612	500.97
32.0756	465.19
32.0901	487.73
32.1045	510.34
32.1190	515.42
32.1334	483.84
32.1478	482.83
32.1623	539.33
32.1767	527.94
32.1912	471.23
32.2056	495.11
32.2200	529.17
32.2345	532.64
32.2489	503.65
32.2634	506.73
32.2778	504.93
32.2922	497.27
32.3067	489.44
32.3211	498.83
32.3356	491.27
32.3500	513.14
32.3644	495.27
32.3789	509.62
32.3933	472.10
32.4078	484.71
32.4222	519.73
32.4366	528.59
32.4511	459.46
32.4655	514.61
32.4800	505.95
32.4944	492.37
32.5088	483.30
32.5233	487.34
32.5377	494.42
32.5522	521.08
32.5666	508.28
32.5810	491.75
32.5955	519.20
32.6099	512.73
32.6244	486.32
32.6388	496.71
32.6532	510.18
32.6677	494.57
32.6821	485.87
32.6966	526.49
32.7110	520.80
32.7254	497.07
32.7399	476.12
32.7543	469.25
32.7688	480.16
32.7832	492.18
32.7976	464.90
32.8121	460.64
32.8265	468.07
32.8410	516.20
32.8554	527.35
32.8698	517.10
32.8843	495.81
32.8987	521.17
32.9132	514.76
32.9276	519.86
32.9420	492.32
32.9565	490.99
32.9709	506.06
32.9854	513.75
32.9998	491.73
33.0142	474.86
33.0287	516.54
33.0431	506.74
33.0576	496.69
33.0720	499.67
33.0864	527.84
33.1009	532.24
33.1153	487.85
33.1298	508.71
33.1442	493.53
33.1586	494.49
33.1731	511.08
33.1875	509.41
33.2020	492.16
33.2164	495.42
33.2308	491.11
33.2453	506.26
33.2597	523.19
33.2742	505.36
33.2886	495.49
33.3030	513.03
33.3175	521.13
33.3319	520.17
33.3464	507.21
33.3608	510.66
33.3752	503.14
33.3897	479.40
33.4041	497.79
33.4186	514.32
33.4330	533.17
33.4474	473.23
33.4619	523.23
33.4763	505.74
33.4908	510.46
33.5052	511.20
33.5196	504.11
33.5341	519.67
33.5485	542.34
33.5630	520.46
33.5774	521.70
33.5918	491.13
33.6063	492.63
33.6207	492.92
33.6352	490.54
33.6496	500.88
33.6640	515.52
33.6785	518.94
33.6929	496.74
33.7074	539.42
33.7218	562.37
33.7362	492.28
33.7507	514.05
33.7651	480.68
33.7796	489.39
33.7940	523.51
33.8084	496.86
33.8229	471.27
33.8373	521.53
33.8518	514.72
33.8662	514.86
33.8806	492.47
33.8951	527.02
33.9095	500.56
33.9240	486.29
33.9384	486.95
33.9528	514.53
33.9673	518.09
33.9817	547.02
33.9962	507.72
34.0106	509.70
34.0250	477.03
34.0395	505.64
34.0539	509.86
34.0684	496.77
34.0828	471.96
34.0972	519.78
34.1117	507.97
34.1261	483.87
34.1406	488.27
34.1550	460.46
34.1694	485.06
34.1839	480.00
34.1983	501.69
34.2128	493.68
34.2272	538.18
34.2417	526.38
34.2561	474.87
34.2705	503.24
34.2850	524.93
34.2994	529.50
34.3139	497.61
34.3283	477.57
34.3427	518.93
34.3572	549.48
34.3716	513.71
34.3861	509.88
34.4005	496.69
34.4149	482.15
34.4294	526.46
34.4438	525.87
34.4583	482.61
34.4727	529.34
34.4871	519.37
34.5016	500.36
34.5160	515.20
34.5305	510.92
34.5449	500.26
34.5593	527.13
34.5738	504.42
34.5882	484.21
34.6027	480.65
34.6171	529.10
34.6315	531.20
34.6460	506.27
34.6604	494.86
34.6749	500.67
34.6893	510.81
34.7037	517.56
34.7182	493.46
34.7326	510.42
34.7471	531.15
34.7615	542.01
34.7759	511.51
34.7904	464.75
34.8048	496.40
34.8193	512.97
34.8337	499.71
34.8481	527.72
34.8626	539.96
34.8770	503.84
34.8915	519.81
34.9059	522.00
34.9203	504.96
34.9348	498.73
34.9492	506.72
34.9637	462.56
34.9781	493.03
34.9925	496.48
35.0070	492.35
35.0214	538.61
35.0359	529.10
35.0503	506.01
35.0647	518.70
35.0792	513.35
35.0936	503.87
35.1081	497.53
35.1225	534.02
35.1369	483.11
35.1514	486.85
35.1658	516.24
35.1803	507.58
35.1947	485.99
35.2091	495.26
35.2236	506.41
35.2380	504.91
35.2525	531.20
35.2669	507.36
35.2813	490.51
35.2958	524.91
35.3102	507.28
35.3247	541.79
35.3391	539.63
35.3535	540.60
35.3680	520.97
35.3824	540.03
35.3969	508.39
35.4113	520.01
35.4257	538.54
35.4402	539.15
35.4546	532.19
35.4691	560.66
35.4835	548.53
35.4979	526.46
35.5124	509.80
35.5268	555.90
35.5413	524.29
35.5557	505.80
35.5701	548.50
35.5846	522.64
35.5990	510.61
35.6135	539.90
35.6279	536.62
35.6423	563.43
35.6568	533.34
35.6712	558.45
35.6857	596.52
35.7001	671.41
35.7145	761.24
35.7290	667.73
35.7434	575.61
35.7579	613.47
35.7723	595.65
35.7867	586.20
35.8012	614.19
35.8156	662.36
35.8301	629.47
35.8445	652.79
35.8589	671.17
35.8734	779.41
35.8878	901.74
35.9023	1057.49
35.9167	1126.03
35.9311	1359.16
35.9456	1965.85
35.9600	2432.54
35.9745	2220.70
35.9889	2220.06
36.0033	2642.43
36.0178	2880.86
36.0322	2670.64
36.0467	2522.30
36.0611	2295.00
36.0755	2114.71
36.0900	2042.82
36.1044	1825.95
36.1189	1729.63
36.1333	1651.44
36.1477	1342.98
36.1622	1280.38
36.1766	1165.98
36.1911	966.25
36.2055	809.23
36.2199	742.48
36.2344	664.38
36.2488	640.52
36.2633	594.83
36.2777	614.53
36.2921	576.41
36.3066	547.69
36.3210	565.01
36.3355	558.74
36.3499	563.36
36.3643	542.50
36.3788	547.70
36.3932	516.83
36.4077	532.25
36.4221	551.68
36.4365	550.52
36.4510	490.27
36.4654	559.68
36.4799	557.19
36.4943	536.55
36.5087	528.64
36.5232	523.01
36.5376	573.35
36.5521	562.84
36.5665	546.19
36.5809	508.50
36.5954	530.21
36.6098	527.12
36.6243	533.60
36.6387	550.88
36.6531	505.49
36.6676	533.31
36.6820	512.85
36.6965	498.69
36.7109	576.16
36.7253	497.97
36.7398	500.67
36.7542	542.64
36.7687	551.84
36.7831	568.73
36.7975	536.59
36.8120	570.12
36.8264	578.30
36.8409	586.31
36.8553	583.52
36.8697	598.54
36.8842	560.10
36.8986	596.36
36.9131	619.73
36.9275	599.44
36.9419	575.89
36.9564	597.78
36.9708	586.66
36.9853	555.40
36.9997	523.78
37.0141	534.21
37.0286	561.87
37.0430	538.14
37.0575	481.45
37.0719	547.87
37.0863	507.36
37.1008	509.02
37.1152	481.80
37.1297	540.03
37.1441	496.13
37.1585	514.46
37.1730	531.19
37.1874	494.90
37.2019	514.16
37.2163	501.60
37.2307	507.94
37.2452	494.25
37.2596	508.95
37.2741	510.63
37.2885	480.87
37.3029	505.04
37.3174	500.53
37.3318	503.29
37.3463	513.92
37.3607	523.48
37.3751	506.64
37.3896	498.25
37.4040	477.84
37.4185	514.19
37.4329	499.28
37.4473	485.84
37.4618	525.75
37.4762	518.40
37.4907	522.80
37.5051	480.46
37.5195	528.26
37.5340	486.65
37.5484	494.28
37.5629	525.84
37.5773	510.18
37.5917	510.39
37.6062	519.49
37.6206	513.34
37.6351	511.65
37.6495	503.93
37.6639	548.52
37.6784	506.87
37.6928	503.72
37.7073	506.95
37.7217	501.99
37.7361	531.21
37.7506	493.29
37.7650	505.89
37.7795	502.28
37.7939	510.49
37.8083	510.02
37.8228	468.06
37.8372	485.12
37.8517	511.61
37.8661	537.46
37.8805	519.09
37.8950	522.31
37.9094	515.27
37.9239	505.63
37.9383	525.54
37.9528	495.71
37.9672	501.43
37.9816	538.90
37.9961	511.93
38.0105	498.30
38.0250	485.88
38.0394	495.20
38.0538	537.37
38.0683	522.15
38.0827	521.95
38.0972	504.30
38.1116	482.87
38.1260	508.97
38.1405	519.08
38.1549	484.40
38.1694	467.68
38.1838	513.35
38.1982	494.47
38.2127	529.25
38.2271	505.99
38.2416	508.43
38.2560	531.18
38.2704	505.58
38.2849	507.13
38.2993	527.46
38.3138	511.16
38.3282	489.53
38.3426	540.36
38.3571	520.80
38.3715	471.61
38.3860	514.77
38.4004	546.33
38.4148	548.87
38.4293	583.03
38.4437	579.11
38.4582	627.31
38.4726	654.98
38.4870	697.12
38.5015	719.86
38.5159	760.63
38.5304	791.49
38.5448	787.24
38.5592	790.87
38.5737	790.32
38.5881	755.95
38.6026	763.70
38.6170	717.82
38.6314	701.17
38.6459	698.14
38.6603	651.84
38.6748	621.74
38.6892	577.07
38.7036	579.75
38.7181	558.65
38.7325	506.99
38.7470	518.67
38.7614	520.14
38.7758	528.58
38.7903	528.55
38.8047	524.94
38.8192	510.56
38.8336	511.66
38.8480	475.94
38.8625	514.13
38.8769	549.45
38.8914	526.99
38.9058	516.81
38.9202	503.51
38.9347	494.46
38.9491	521.97
38.9636	529.63
38.9780	514.06
38.9924	531.57
39.0069	517.81
39.0213	526.84
39.0358	529.08
39.0502	500.74
39.0646	507.98
39.0791	498.50
39.0935	519.09
39.1080	490.09
39.1224	544.00
39.1368	502.57
39.1513	513.63
39.1657	540.91
39.1802	464.95
39.1946	488.12
39.2090	506.07
39.2235	500.35
39.2379	506.63
39.2524	511.50
39.2668	496.88
39.2812	511.77
39.2957	531.66
39.3101	516.33
39.3246	529.52
39.3390	537.89
39.3534	533.39
39.3679	501.81
39.3823	507.37
39.3968	525.24
39.4112	510.21
39.4256	505.95
39.4401	504.18
39.4545	470.38
39.4690	508.83
39.4834	513.58
39.4978	505.64
39.5123	481.71
39.5267	504.00
39.5412	502.42
39.5556	518.74
39.5700	528.30
39.5845	493.97
39.5989	498.08
39.6134	500.54
39.6278	493.46
39.6422	494.70
39.6567	487.15
39.6711	480.18
39.6856	476.25
39.7000	507.98
39.7144	535.59
39.7289	496.95
39.7433	484.97
39.7578	506.60
39.7722	498.16
39.7866	480.11
39.8011	502.94
39.8155	493.36
39.8300	521.29
39.8444	507.80
39.8588	519.11
39.8733	535.44
39.8877	478.36
39.9022	508.14
39.9166	473.79
39.9310	471.94
39.9455	476.22
39.9599	473.08
39.9744	519.70
39.9888	514.85
40.0032	491.50
40.0177	504.79
40.0321	488.14
40.0466	502.17
40.0610	494.48
40.0754	519.62
40.0899	494.31
40.1043	497.49
40.1188	505.37
40.1332	450.22
40.1476	465.52
40.1621	499.00
40.1765	497.45
40.1910	510.65
40.2054	518.13
40.2198	482.48
40.2343	490.63
40.2487	480.58
40.2632	508.80
40.2776	547.02
40.2920	515.40
40.3065	498.93
40.3209	506.71
40.3354	507.83
40.3498	515.36
40.3642	474.96
40.3787	493.81
40.3931	475.71
40.4076	499.92
40.4220	505.47
40.4364	513.76
40.4509	512.64
40.4653	512.61
40.4798	459.85
40.4942	486.87
40.5086	518.02
40.5231	491.94
40.5375	500.69
40.5520	516.81
40.5664	471.39
40.5808	520.75
40.5953	513.51
40.6097	502.12
40.6242	469.73
40.6386	502.64
40.6530	495.57
40.6675	503.72
40.6819	528.26
40.6964	521.82
40.7108	513.87
40.7252	507.91
40.7397	488.77
40.7541	482.84
40.7686	468.95
40.7830	499.08
40.7974	530.08
40.8119	516.32
40.8263	517.58
40.8408	491.78
40.8552	496.82
40.8696	488.79
40.8841	479.65
40.8985	511.91
40.9130	500.64
40.9274	500.76
40.9418	536.47
40.9563	516.98
40.9707	507.72
40.9852	499.86
40.9996	493.17
41.0140	509.77
41.0285	503.27
41.0429	501.01
41.0574	529.98
41.0718	516.12
41.0862	534.42
41.1007	500.91
41.1151	515.35
41.1296	530.63
41.1440	498.71
41.1584	492.32
41.1729	506.52
41.1873	504.35
41.2018	483.10
41.2162	477.85
41.2306	474.39
41.2451	490.59
41.2595	492.49
41.2740	498.56
41.2884	523.99
41.3028	518.21
41.3173	511.06
41.3317	497.05
41.3462	493.17
41.3606	482.51
41.3750	483.75
41.3895	492.47
41.4039	500.03
41.4184	481.20
41.4328	498.20
41.4472	509.96
41.4617	510.25
41.4761	498.72
41.4906	519.84
41.5050	516.98
41.5194	531.92
41.5339	508.92
41.5483	506.08
41.5628	522.44
41.5772	498.13
41.5916	509.79
41.6061	519.36
41.6205	479.03
41.6350	506.25
41.6494	501.00
41.6639	509.83
41.6783	508.42
41.6927	485.91
41.7072	501.34
41.7216	510.37
41.7361	484.00
41.7505	511.75
41.7649	494.61
41.7794	468.91
41.7938	490.65
41.8083	523.58
41.8227	528.50
41.8371	534.55
41.8516	516.27
41.8660	514.22
41.8805	539.38
41.8949	553.17
41.9093	592.78
41.9238	538.07
41.9382	564.62
41.9527	553.29
41.9671	576.01
41.9815	541.77
41.9960	541.27
42.0104	542.77
42.0249	582.61
42.0393	562.50
42.0537	571.97
42.0682	556.40
42.0826	569.87
42.0971	575.56
42.1115	574.59
42.1259	588.50
42.1404	616.27
42.1548	595.05
42.1693	606.66
42.1837	637.93
42.1981	688.43
42.2126	808.28
42.2270	898.35
42.2415	1047.17
42.2559	1169.77
42.2703	1348.77
42.2848	1515.06
42.2992	1621.09
42.3137	1661.71
42.3281	1659.34
42.3425	1579.56
42.3570	1465.68
42.3714	1355.89
42.3859	1373.41
42.4003	1352.68
42.4147	1322.09
42.4292	1302.95
42.4436	1169.11
42.4581	1057.70
42.4725	955.43
42.4869	890.24
42.5014	777.68
42.5158	696.14
42.5303	642.90
42.5447	613.61
42.5591	605.31
42.5736	581.51
42.5880	552.63
42.6025	601.15
42.6169	560.20
42.6313	547.15
42.6458	548.17
42.6602	538.77
42.6747	551.50
42.6891	558.06
42.7035	541.95
42.7180	544.43
42.7324	531.28
42.7469	567.99
42.7613	545.51
42.7757	552.14
42.7902	515.75
42.8046	550.66
42.8191	527.62
42.8335	493.08
42.8479	510.55
42.8624	541.06
42.8768	553.84
42.8913	529.38
42.9057	528.13
42.9201	496.71
42.9346	503.33
42.9490	493.38
42.9635	508.47
42.9779	501.65
42.9923	536.44
43.0068	539.18
43.0212	525.85
43.0357	540.59
43.0501	545.48
43.0645	503.81
43.0790	499.98
43.0934	536.58
43.1079	566.70
43.1223	538.37
43.1367	512.23
43.1512	498.46
43.1656	507.19
43.1801	527.25
43.1945	538.25
43.2089	520.54
43.2234	498.16
43.2378	536.37
43.2523	546.63
43.2667	533.47
43.2811	531.06
43.2956	523.86
43.3100	534.84
43.3245	543.34
43.3389	516.75
43.3533	515.08
43.3678	523.55
43.3822	532.13
43.3967	536.64
43.4111	544.16
43.4255	528.86
43.4400	506.57
43.4544	518.77
43.4689	524.29
43.4833	497.03
43.4977	503.01
43.5122	517.03
43.5266	510.55
43.5411	540.58
43.5555	527.64
43.5699	541.15
43.5844	503.65
43.5988	520.94
43.6133	525.34
43.6277	534.10
43.6421	548.42
43.6566	568.49
43.6710	517.12
43.6855	517.85
43.6999	545.91
43.7143	574.41
43.7288	567.46
43.7432	590.65
43.7577	623.84
43.7721	633.30
43.7865	654.94
43.8010	648.79
43.8154	667.94
43.8299	667.68
43.8443	653.12
43.8587	630.83
43.8732	640.88
43.8876	602.97
43.9021	581.84
43.9165	596.82
43.9309	534.98
43.9454	574.44
43.9598	549.30
43.9743	558.60
43.9887	561.58
44.0031	567.99
44.0176	516.30
44.0320	514.85
44.0465	532.82
44.0609	524.93
44.0753	515.92
44.0898	498.08
44.1042	511.41
44.1187	511.71
44.1331	515.57
44.1475	518.02
44.1620	522.52
44.1764	518.05
44.1909	512.38
44.2053	484.01
44.2197	517.04
44.2342	527.62
44.2486	526.97
44.2631	525.72
44.2775	498.11
44.2919	546.56
44.3064	527.82
44.3208	526.55
44.3353	513.55
44.3497	537.87
44.3641	543.93
44.3786	536.53
44.3930	539.80
44.4075	546.21
44.4219	602.17
44.4363	591.82
44.4508	565.28
44.4652	593.90
44.4797	616.22
44.4941	609.37
44.5085	602.74
44.5230	558.91
44.5374	581.66
44.5519	604.57
44.5663	583.38
44.5807	567.10
44.5952	573.65
44.6096	581.93
44.6241	562.03
44.6385	582.17
44.6529	625.14
44.6674	585.69
44.6818	589.14
44.6963	635.66
44.7107	651.11
44.7251	642.95
44.7396	768.59
44.7540	830.26
44.7685	824.87
44.7829	863.20
44.7973	840.23
44.8118	887.24
44.8262	797.52
44.8407	732.28
44.8551	735.49
44.8695	771.45
44.8840	756.23
44.8984	759.63
44.9129	772.31
44.9273	678.14
44.9417	612.64
44.9562	640.63
44.9706	568.70
44.9851	543.12
44.9995	532.71
45.0139	553.00
45.0284	504.08
45.0428	526.44
45.0573	549.12
45.0717	515.41
45.0861	546.22
45.1006	520.49
45.1150	505.85
45.1295	542.09
45.1439	522.56
45.1583	534.22
45.1728	531.64
45.1872	521.93
45.2017	542.06
45.2161	540.73
45.2305	521.78
45.2450	515.75
45.2594	497.90
45.2739	569.14
45.2883	520.49
45.3028	532.50
45.3172	521.73
45.3316	513.43
45.3461	542.89
45.3605	492.42
45.3750	521.71
45.3894	485.11
45.4038	484.78
45.4183	474.73
45.4327	464.10
45.4472	499.15
45.4616	513.60
45.4760	464.27
45.4905	513.72
45.5049	503.05
45.5194	481.30
45.5338	524.63
45.5482	509.89
45.5627	532.77
45.5771	496.67
45.5916	508.61
45.6060	500.34
45.6204	495.11
45.6349	492.71
45.6493	510.36
45.6638	478.50
45.6782	507.26
45.6926	488.13
45.7071	526.77
45.7215	537.35
45.7360	516.24
45.7504	484.42
45.7648	503.80
45.7793	515.45
45.7937	493.60
45.8082	475.51
45.8226	534.09
45.8370	497.10
45.8515	512.57
45.8659	517.58
45.8804	502.49
45.8948	519.89
45.9092	508.75
45.9237	491.87
45.9381	465.98
45.9526	499.58
45.9670	505.63
45.9814	496.43
45.9959	466.64
46.0103	461.43
46.0248	487.91
46.0392	502.07
46.0536	507.02
46.0681	508.72
46.0825	524.74
46.0970	529.02
46.1114	479.25
46.1258	515.98
46.1403	464.43
46.1547	483.44
46.1692	513.33
46.1836	488.85
46.1980	461.32
46.2125	517.26
46.2269	529.65
46.2414	512.89
46.2558	490.98
46.2702	508.28
46.2847	514.12
46.2991	487.50
46.3136	507.89
46.3280	485.07
46.3424	502.74
46.3569	523.85
46.3713	507.78
46.3858	467.40
46.4002	495.22
46.4146	470.82
46.4291	496.71
46.4435	475.81
46.4580	486.15
46.4724	517.09
46.4868	515.03
46.5013	506.52
46.5157	499.49
46.5302	488.11
46.5446	484.53
46.5590	504.91
46.5735	493.11
46.5879	497.06
46.6024	488.16
46.6168	507.06
46.6312	501.75
46.6457	525.19
46.6601	509.45
46.6746	506.67
46.6890	483.78
46.7034	526.17
46.7179	535.43
46.7323	507.82
46.7468	496.02
46.7612	485.87
46.7756	522.32
46.7901	523.77
46.8045	532.89
46.8190	488.98
46.8334	512.42
46.8478	483.70
46.8623	513.13
46.8767	518.63
46.8912	530.39
46.9056	523.67
46.9200	496.57
46.9345	506.22
46.9489	509.94
46.9634	526.04
46.9778	533.00
46.9922	515.22
47.0067	498.54
47.0211	545.64
47.0356	525.75
47.0500	523.97
47.0644	524.68
47.0789	509.62
47.0933	524.31
47.1078	546.01
47.1222	535.61
47.1366	506.31
47.1511	476.99
47.1655	506.02
47.1800	491.50
47.1944	478.91
47.2088	502.44
47.2233	509.86
47.2377	501.24
47.2522	482.32
47.2666	476.21
47.2810	515.43
47.2955	487.42
47.3099	518.07
47.3244	498.59
47.3388	493.53
47.3532	493.36
47.3677	498.25
47.3821	469.20
47.3966	473.78
47.4110	479.56
47.4254	520.21
47.4399	534.87
47.4543	493.64
47.4688	513.61
47.4832	520.55
47.4976	507.36
47.5121	528.92
47.5265	505.30
47.5410	491.99
47.5554	487.94
47.5698	508.26
47.5843	508.00
47.5987	496.97
47.6132	473.01
47.6276	497.45
47.6420	504.17
47.6565	514.57
47.6709	518.84
47.6854	503.21
47.6998	495.74
47.7142	531.50
47.7287	533.52
47.7431	508.74
47.7576	490.01
47.7720	506.18
47.7864	523.32
47.8009	523.66
47.8153	489.79
47.8298	499.19
47.8442	488.10
47.8586	489.77
47.8731	543.77
47.8875	528.85
47.9020	520.14
47.9164	549.90
47.9308	544.10
47.9453	518.48
47.9597	496.82
47.9742	467.38
47.9886	461.89
48.0030	497.03
48.0175	526.93
48.0319	501.90
48.0464	524.19
48.0608	532.15
48.0752	504.62
48.0897	554.02
48.1041	471.41
48.1186	483.11
48.1330	506.61
48.1474	491.72
48.1619	517.26
48.1763	527.78
48.1908	484.66
48.2052	517.97
48.2196	513.58
48.2341	513.68
48.2485	527.10
48.2630	529.88
48.2774	512.72
48.2918	532.67
48.3063	512.07
48.3207	529.33
48.3352	508.49
48.3496	523.49
48.3640	508.50
48.3785	514.39
48.3929	499.44
48.4074	485.02
48.4218	534.15
48.4362	519.81
48.4507	504.18
48.4651	493.09
48.4796	511.75
48.4940	496.14
48.5084	501.10
48.5229	507.30
48.5373	525.70
48.5518	544.71
48.5662	517.89
48.5806	523.08
48.5951	518.26
48.6095	498.21
48.6240	504.01
48.6384	508.61
48.6528	520.37
48.6673	534.77
48.6817	517.81
48.6962	548.01
48.7106	531.04
48.7250	467.58
48.7395	485.51
48.7539	543.44
48.7684	508.53
48.7828	532.17
48.7972	536.99
48.8117	557.64
48.8261	516.12
48.8406	516.32
48.8550	553.81
48.8694	560.10
48.8839	548.37
48.8983	546.43
48.9128	530.08
48.9272	550.08
48.9416	536.95
48.9561	565.65
48.9705	582.21
48.9850	586.40
48.9994	571.05
49.0139	591.32
49.0283	543.63
49.0427	621.37
49.0572	613.29
49.0716	637.99
49.0861	641.20
49.1005	658.58
49.1149	674.31
49.1294	732.75
49.1438	725.26
49.1583	791.36
49.1727	835.48
49.1871	830.46
49.2016	910.04
49.2160	948.30
49.2305	1002.17
49.2449	1096.69
49.2593	1170.15
49.2738	1307.89
49.2882	1395.00
49.3027	1496.63
49.3171	1563.45
49.3315	1609.42
49.3460	1703.57
49.3604	1786.64
49.3749	1808.74
49.3893	1765.47
49.4037	1704.74
49.4182	1673.92
49.4326	1717.11
49.4471	1625.43
49.4615	1590.34
49.4759	1569.56
49.4904	1485.57
49.5048	1432.07
49.5193	1336.98
49.5337	1318.91
49.5481	1249.70
49.5626	1149.13
49.5770	1088.47
49.5915	984.00
49.6059	960.63
49.6203	834.23
49.6348	799.41
49.6492	747.79
49.6637	729.28
49.6781	742.72
49.6925	697.68
49.7070	694.28
49.7214	660.40
49.7359	585.44
49.7503	604.20
49.7647	612.23
49.7792	578.63
49.7936	586.44
49.8081	562.66
49.8225	627.12
49.8369	584.44
49.8514	539.98
49.8658	550.01
49.8803	551.45
49.8947	561.73
49.9091	611.20
49.9236	580.70
49.9380	542.25
49.9525	559.47
49.9669	549.86
49.9813	562.47
49.9958	534.28
50.0102	516.72
50.0247	530.24
50.0391	536.70
50.0535	531.29
50.0680	540.50
50.0824	513.06
50.0969	550.51
50.1113	521.40
50.1257	514.57
50.1402	518.44
50.1546	528.38
50.1691	534.95
50.1835	536.91
50.1979	504.86
50.2124	525.54
50.2268	514.69
50.2413	527.98
50.2557	538.65
50.2701	488.71
50.2846	524.73
50.2990	538.28
50.3135	531.58
50.3279	523.38
50.3423	526.90
50.3568	548.00
50.3712	540.26
50.3857	490.54
50.4001	480.45
50.4145	505.72
50.4290	537.29
50.4434	505.87
50.4579	498.15
50.4723	528.28
50.4867	546.26
50.5012	502.11
50.5156	511.44
50.5301	488.74
50.5445	488.82
50.5589	510.04
50.5734	540.39
50.5878	504.95
50.6023	496.69
50.6167	508.17
50.6311	482.46
50.6456	478.98
50.6600	479.35
50.6745	510.67
50.6889	505.12
50.7033	511.40
50.7178	487.58
50.7322	495.56
50.7467	524.19
50.7611	486.18
50.7755	476.61
50.7900	505.66
50.8044	524.28
50.8189	523.56
50.8333	554.95
50.8477	509.42
50.8622	520.12
50.8766	537.73
50.8911	513.03
50.9055	535.70
50.9199	499.71
50.9344	498.98
50.9488	481.84
50.9633	498.03
50.9777	527.59
50.9921	510.20
51.0066	495.55
51.0210	516.61
51.0355	481.07
51.0499	496.27
51.0643	521.27
51.0788	512.00
51.0932	529.82
51.1077	505.49
51.1221	514.05
51.1365	512.79
51.1510	514.74
51.1654	541.16
51.1799	529.49
51.1943	505.05
51.2087	505.33
51.2232	498.17
51.2376	519.29
51.2521	512.24
51.2665	510.38
51.2809	512.88
51.2954	520.35
51.3098	503.80
51.3243	506.79
51.3387	534.39
51.3531	498.59
51.3676	519.30
51.3820	501.94
51.3965	507.77
51.4109	498.33
51.4253	515.04
51.4398	508.60
51.4542	502.19
51.4687	554.54
51.4831	499.26
51.4975	502.22
51.5120	513.28
51.5264	511.73
51.5409	521.22
51.5553	499.71
51.5697	510.42
51.5842	496.60
51.5986	477.03
51.6131	493.48
51.6275	522.18
51.6419	516.70
51.6564	517.49
51.6708	505.50
51.6853	500.52
51.6997	514.61
51.7141	546.13
51.7286	525.79
51.7430	546.05
51.7575	523.44
51.7719	513.04
51.7863	502.89
51.8008	533.06
51.8152	553.49
51.8297	513.15
51.8441	521.23
51.8585	505.19
51.8730	534.29
51.8874	493.63
51.9019	484.10
51.9163	517.98
51.9307	509.48
51.9452	493.75
51.9596	531.46
51.9741	506.94
51.9885	492.79
52.0029	534.36
52.0174	512.32
52.0318	549.72
52.0463	487.59
52.0607	515.79
52.0751	486.09
52.0896	520.64
52.1040	482.50
52.1185	515.63
52.1329	485.81
52.1473	473.88
52.1618	515.50
52.1762	495.52
52.1907	525.12
52.2051	522.49
52.2195	544.54
52.2340	524.05
52.2484	513.85
52.2629	517.74
52.2773	494.16
52.2917	489.01
52.3062	557.42
52.3206	517.21
52.3351	511.19
52.3495	485.68
52.3639	515.89
52.3784	504.43
52.3928	535.83
52.4073	498.22
52.4217	521.82
52.4361	524.02
52.4506	503.56
52.4650	535.23
52.4795	543.37
52.4939	510.79
52.5083	499.48
52.5228	499.85
52.5372	533.98
52.5517	510.01
52.5661	503.47
52.5805	535.67
52.5950	519.27
52.6094	566.04
52.6239	530.29
52.6383	519.48
52.6527	490.03
52.6672	482.67
52.6816	465.83
52.6961	506.10
52.7105	523.29
52.7250	507.03
52.7394	519.51
52.7538	527.10
52.7683	505.83
52.7827	549.91
52.7972	534.42
52.8116	531.22
52.8260	514.06
52.8405	504.62
52.8549	523.13
52.8694	520.29
52.8838	513.88
52.8982	545.22
52.9127	522.07
52.9271	504.12
52.9416	570.16
52.9560	537.36
52.9704	522.29
52.9849	517.28
52.9993	514.22
53.0138	526.25
53.0282	511.81
53.0426	533.88
53.0571	540.49
53.0715	518.12
53.0860	510.80
53.1004	508.10
53.1148	503.96
53.1293	543.66
53.1437	512.41
53.1582	547.58
53.1726	565.41
53.1870	526.18
53.2015	537.94
53.2159	555.23
53.2304	525.60
53.2448	517.88
53.2592	514.65
53.2737	519.80
53.2881	497.07
53.3026	530.13
53.3170	514.17
53.3314	514.05
53.3459	522.34
53.3603	538.72
53.3748	490.47
53.3892	469.93
53.4036	495.83
53.4181	508.72
53.4325	491.29
53.4470	497.99
53.4614	529.11
53.4758	531.75
53.4903	568.19
53.5047	546.97
53.5192	512.83
53.5336	506.06
53.5480	496.36
53.5625	512.23
53.5769	530.77
53.5914	517.30
53.6058	551.49
53.6202	521.55
53.6347	541.54
53.6491	540.21
53.6636	501.15
53.6780	528.45
53.6924	475.36
53.7069	519.21
53.7213	518.81
53.7358	494.00
53.7502	500.68
53.7646	506.46
53.7791	503.74
53.7935	493.48
53.8080	522.09
53.8224	520.86
53.8368	492.91
53.8513	489.84
53.8657	536.10
53.8802	525.90
53.8946	535.14
53.9090	563.81
53.9235	519.95
53.9379	526.48
53.9524	499.53
53.9668	503.54
53.9812	520.17
53.9957	499.31
54.0101	527.51
54.0246	525.13
54.0390	550.23
54.0534	513.09
54.0679	521.24
54.0823	525.86
54.0968	534.75
54.1112	543.63
54.1256	557.79
54.1401	498.42
54.1545	529.53
54.1690	543.15
54.1834	523.28
54.1978	516.02
54.2123	555.55
54.2267	572.13
54.2412	550.46
54.2556	545.48
54.2700	563.26
54.2845	549.22
54.2989	584.08
54.3134	579.47
54.3278	604.57
54.3422	617.28
54.3567	629.01
54.3711	589.73
54.3856	627.27
54.4000	596.75
54.4144	595.12
54.4289	620.81
54.4433	581.67
54.4578	568.00
54.4722	579.69
54.4866	600.19
54.5011	597.19
54.5155	619.30
54.5300	599.47
54.5444	564.43
54.5588	567.87
54.5733	556.59
54.5877	565.56
54.6022	564.71
54.6166	547.89
54.6310	510.47
54.6455	528.09
54.6599	519.05
54.6744	516.12
54.6888	500.20
54.7032	521.19
54.7177	523.96
54.7321	521.80
54.7466	524.78
54.7610	525.11
54.7754	532.94
54.7899	525.67
54.8043	531.29
54.8188	533.35
54.8332	525.30
54.8476	550.89
54.8621	534.76
54.8765	538.96
54.8910	520.74
54.9054	525.66
54.9198	520.50
54.9343	541.93
54.9487	535.25
54.9632	485.99
54.9776	492.56
54.9920	527.32
55.0065	509.03
55.0209	521.63
55.0354	527.75
55.0498	506.08
55.0642	516.55
55.0787	490.92
55.0931	530.54
55.1076	515.18
55.1220	525.33
55.1364	523.18
55.1509	499.72
55.1653	489.30
55.1798	524.57
55.1942	503.11
55.2086	543.81
55.2231	546.75
55.2375	530.77
55.2520	490.82
55.2664	511.94
55.2808	545.88
55.2953	508.69
55.3097	535.22
55.3242	521.79
55.3386	498.77
55.3530	528.91
55.3675	514.66
55.3819	505.50
55.3964	497.19
55.4108	506.99
55.4252	517.41
55.4397	521.86
55.4541	508.35
55.4686	510.66
55.4830	499.63
55.4974	523.60
55.5119	560.45
55.5263	548.03
55.5408	527.82
55.5552	544.42
55.5696	521.21
55.5841	520.07
55.5985	553.03
55.6130	546.54
55.6274	524.33
55.6418	524.27
55.6563	526.13
55.6707	530.78
55.6852	520.61
55.6996	555.55
55.7140	554.13
55.7285	524.40
55.7429	557.49
55.7574	538.10
55.7718	528.27
55.7862	510.03
55.8007	535.64
55.8151	552.34
55.8296	523.58
55.8440	555.73
55.8584	556.43
55.8729	533.28
55.8873	512.43
55.9018	539.48
55.9162	518.47
55.9306	498.97
55.9451	517.28
55.9595	530.74
55.9740	512.17
55.9884	565.66
56.0028	540.68
56.0173	507.75
56.0317	531.25
56.0462	506.23
56.0606	488.33
56.0750	502.49
56.0895	511.45
56.1039	495.55
56.1184	521.39
56.1328	540.08
56.1472	479.07
56.1617	485.67
56.1761	500.12
56.1906	493.78
56.2050	501.16
56.2194	525.97
56.2339	494.57
56.2483	515.76
56.2628	527.34
56.2772	542.91
56.2916	505.26
56.3061	530.86
56.3205	559.35
56.3350	564.00
56.3494	524.66
56.3639	504.12
56.3783	505.30
56.3927	502.15
56.4072	522.69
56.4216	536.90
56.4361	527.23
56.4505	526.25
56.4649	510.62
56.4794	548.57
56.4938	562.53
56.5083	518.12
56.5227	535.40
56.5371	481.59
56.5516	487.18
56.5660	493.93
56.5805	501.63
56.5949	513.22
56.6093	548.19
56.6238	502.69
56.6382	506.30
56.6527	572.89
56.6671	529.43
56.6815	523.60
56.6960	520.39
56.7104	506.47
56.7249	513.48
56.7393	514.86
56.7537	500.74
56.7682	500.90
56.7826	560.50
56.7971	551.94
56.8115	509.68
56.8259	549.59
56.8404	524.84
56.8548	518.44
56.8693	534.78
56.8837	483.97
56.8981	567.49
56.9126	537.82
56.9270	521.62
56.9415	541.45
56.9559	516.21
56.9703	498.50
56.9848	496.77
56.9992	495.41
57.0137	494.56
57.0281	517.25
57.0425	532.85
57.0570	542.68
57.0714	537.41
57.0859	581.53
57.1003	518.88
57.1147	507.74
57.1292	535.31
57.1436	538.31
57.1581	530.40
57.1725	519.43
57.1869	536.55
57.2014	499.33
57.2158	545.33
57.2303	529.99
57.2447	545.10
57.2591	561.05
57.2736	526.69
57.2880	522.50
57.3025	544.98
57.3169	531.13
57.3313	518.32
57.3458	498.58
57.3602	520.08
57.3747	538.79
57.3891	531.36
57.4035	500.03
57.4180	540.47
57.4324	529.14
57.4469	496.92
57.4613	480.41
57.4757	519.09
57.4902	551.55
57.5046	528.12
57.5191	525.27
57.5335	540.21
57.5479	538.55
57.5624	539.52
57.5768	546.41
57.5913	499.87
57.6057	542.46
57.6201	525.94
57.6346	520.10
57.6490	549.36
57.6635	525.10
57.6779	540.40
57.6923	549.25
57.7068	528.40
57.7212	571.60
57.7357	570.53
57.7501	563.24
57.7645	548.21
57.7790	580.98
57.7934	572.24
57.8079	562.73
57.8223	576.31
57.8367	583.31
57.8512	595.39
57.8656	642.53
57.8801	634.44
57.8945	693.71
57.9089	712.43
57.9234	686.17
57.9378	686.28
57.9523	702.07
57.9667	713.33
57.9811	749.73
57.9956	739.82
58.0100	688.14
58.0245	664.08
58.0389	690.24
58.0533	689.45
58.0678	667.38
58.0822	661.85
58.0967	680.14
58.1111	665.73
58.1255	685.47
58.1400	654.08
58.1544	643.24
58.1689	630.89
58.1833	577.12
58.1977	579.61
58.2122	594.60
58.2266	582.70
58.2411	597.38
58.2555	587.76
58.2699	599.18
58.2844	570.59
58.2988	554.26
58.3133	599.01
58.3277	588.89
58.3421	555.57
58.3566	540.26
58.3710	549.59
58.3855	537.43
58.3999	531.42
58.4143	524.84
58.4288	551.53
58.4432	519.86
58.4577	509.77
58.4721	562.43
58.4865	572.93
58.5010	574.06
58.5154	527.38
58.5299	513.99
58.5443	510.63
58.5587	504.42
58.5732	514.81
58.5876	512.23
58.6021	545.05
58.6165	531.28
58.6309	541.67
58.6454	546.86
58.6598	546.58
58.6743	509.20
58.6887	524.54
58.7031	545.82
58.7176	539.10
58.7320	511.34
58.7465	539.93
58.7609	536.86
58.7753	526.94
58.7898	525.21
58.8042	534.76
58.8187	526.14
58.8331	557.37
58.8475	553.75
58.8620	539.11
58.8764	527.96
58.8909	541.61
58.9053	536.97
58.9197	525.88
58.9342	537.17
58.9486	569.56
58.9631	527.04
58.9775	550.38
58.9919	540.93
59.0064	534.66
59.0208	532.69
59.0353	529.26
59.0497	506.73
59.0641	511.71
59.0786	526.40
59.0930	511.35
59.1075	511.18
59.1219	536.90
59.1363	531.97
59.1508	543.65
59.1652	539.57
59.1797	553.90
59.1941	531.69
59.2085	516.73
59.2230	541.74
59.2374	543.63
59.2519	532.33
59.2663	539.51
59.2807	572.24
59.2952	583.44
59.3096	561.86
59.3241	569.81
59.3385	558.71
59.3529	557.46
59.3674	546.98
59.3818	555.78
59.3963	563.21
59.4107	548.42
59.4251	542.86
59.4396	536.50
59.4540	535.47
59.4685	526.63
59.4829	553.75
59.4973	599.82
59.5118	572.57
59.5262	575.27
59.5407	550.84
59.5551	536.90
59.5695	548.07
59.5840	531.04
59.5984	563.63
59.6129	531.75
59.6273	530.93
59.6417	534.74
59.6562	553.63
59.6706	538.90
59.6851	518.57
59.6995	553.78
59.7139	556.77
59.7284	516.54
59.7428	561.31
59.7573	517.96
59.7717	512.50
59.7861	555.30
59.8006	553.52
59.8150	565.29
59.8295	520.34
59.8439	521.87
59.8583	511.43
59.8728	535.09
59.8872	523.82
59.9017	557.96
59.9161	515.76
59.9305	504.48
59.9450	487.18
59.9594	517.86
59.9739	533.47
59.9883	516.66
60.0027	508.60
60.0172	567.54
60.0316	514.20
60.0461	496.66
60.0605	530.98
60.0750	511.90
60.0894	515.75
60.1038	535.26
60.1183	545.05
60.1327	547.15
60.1472	493.80
60.1616	510.68
60.1760	554.58
60.1905	538.32
60.2049	532.07
60.2194	557.52
60.2338	501.32
60.2482	535.04
60.2627	560.54
60.2771	517.15
60.2916	527.56
60.3060	546.50
60.3204	526.20
60.3349	538.08
60.3493	547.08
60.3638	519.26
60.3782	534.72
60.3926	557.86
60.4071	538.74
60.4215	560.45
60.4360	584.54
60.4504	559.98
60.4648	541.32
60.4793	562.02
60.4937	567.54
60.5082	556.55
60.5226	514.20
60.5370	549.61
60.5515	528.20
60.5659	535.13
60.5804	543.90
60.5948	547.78
60.6092	530.01
60.6237	543.59
60.6381	549.80
60.6526	518.35
60.6670	516.90
60.6814	493.94
60.6959	543.86
60.7103	551.32
60.7248	553.75
60.7392	536.89
60.7536	518.96
60.7681	530.22
60.7825	536.85
60.7970	587.27
60.8114	552.35
60.8258	537.74
60.8403	537.72
60.8547	521.35
60.8692	543.20
60.8836	567.15
60.8980	577.60
60.9125	611.13
60.9269	528.90
60.9414	546.05
60.9558	523.67
60.9702	546.72
60.9847	560.42
60.9991	541.84
61.0136	517.05
61.0280	556.10
61.0424	558.14
61.0569	549.93
61.0713	558.71
61.0858	543.53
61.1002	514.21
61.1146	568.40
61.1291	543.22
61.1435	513.37
61.1580	524.50
61.1724	535.25
61.1868	522.07
61.2013	552.05
61.2157	523.51
61.2302	552.63
61.2446	589.57
61.2590	550.96
61.2735	521.99
61.2879	567.75
61.3024	531.13
61.3168	521.19
61.3312	513.60
61.3457	508.75
61.3601	536.60
61.3746	529.95
61.3890	536.63
61.4034	485.98
61.4179	547.27
61.4323	585.94
61.4468	527.12
61.4612	548.51
61.4756	575.09
61.4901	562.15
61.5045	527.15
61.5190	530.13
61.5334	542.11
61.5478	545.03
61.5623	547.78
61.5767	561.57
61.5912	560.49
61.6056	554.12
61.6200	564.06
61.6345	572.46
61.6489	539.75
61.6634	537.71
61.6778	553.29
61.6922	555.45
61.7067	573.50
61.7211	550.10
61.7356	538.03
61.7500	556.18
61.7644	554.99
61.7789	572.63
61.7933	565.23
61.8078	532.38
61.8222	532.32
61.8366	526.02
61.8511	566.75
61.8655	563.48
61.8800	551.41
61.8944	551.33
61.9088	539.72
61.9233	568.12
61.9377	570.03
61.9522	584.89
61.9666	561.86
61.9810	577.74
61.9955	582.77
62.0099	578.57
62.0244	583.83
62.0388	583.12
62.0532	569.71
62.0677	543.69
62.0821	557.78
62.0966	565.72
62.1110	526.33
62.1254	556.46
62.1399	563.56
62.1543	535.29
62.1688	544.31
62.1832	566.55
62.1976	534.66
62.2121	526.36
62.2265	557.83
62.2410	539.09
62.2554	567.11
62.2698	571.54
62.2843	585.71
62.2987	577.71
62.3132	565.56
62.3276	565.26
62.3420	564.13
62.3565	551.15
62.3709	524.06
62.3854	524.07
62.3998	552.69
62.4142	559.01
62.4287	556.36
62.4431	514.48
62.4576	541.28
62.4720	568.93
62.4864	575.26
62.5009	527.85
62.5153	568.64
62.5298	554.55
62.5442	507.91
62.5586	569.12
62.5731	559.62
62.5875	576.25
62.6020	582.42
62.6164	572.58
62.6308	552.29
62.6453	528.37
62.6597	562.18
62.6742	542.53
62.6886	516.71
62.7030	547.17
62.7175	556.80
62.7319	544.56
62.7464	555.56
62.7608	532.11
62.7752	551.12
62.7897	550.21
62.8041	529.91
62.8186	534.85
62.8330	553.67
62.8474	540.06
62.8619	554.48
62.8763	553.88
62.8908	580.67
62.9052	582.68
62.9196	564.41
62.9341	545.44
62.9485	567.19
62.9630	575.84
62.9774	587.68
62.9918	579.09
63.0063	528.07
63.0207	557.74
63.0352	575.64
63.0496	546.04
63.0640	575.35
63.0785	588.57
63.0929	631.58
63.1074	571.68
63.1218	594.53
63.1362	546.01
63.1507	542.16
63.1651	575.77
63.1796	558.82
63.1940	571.26
63.2084	562.86
63.2229	565.52
63.2373	564.52
63.2518	557.45
63.2662	580.85
63.2806	595.29
63.2951	575.89
63.3095	570.85
63.3240	603.01
63.3384	578.46
63.3528	595.22
63.3673	602.57
63.3817	614.02
63.3962	567.71
63.4106	572.14
63.4250	636.88
63.4395	618.72
63.4539	606.64
63.4684	643.17
63.4828	622.68
63.4972	645.07
63.5117	616.91
63.5261	671.10
63.5406	673.05
63.5550	654.88
63.5694	725.18
63.5839	745.15
63.5983	752.05
63.6128	849.34
63.6272	961.53
63.6416	945.46
63.6561	956.26
63.6705	931.48
63.6850	894.15
63.6994	851.78
63.7138	842.24
63.7283	820.29
63.7427	815.95
63.7572	768.12
63.7716	756.99
63.7861	803.88
63.8005	751.03
63.8149	827.25
63.8294	786.96
63.8438	805.65
63.8583	809.66
63.8727	781.66
63.8871	767.73
63.9016	745.73
63.9160	708.19
63.9305	660.75
63.9449	699.00
63.9593	648.36
63.9738	610.29
63.9882	621.28
64.0027	622.60
64.0171	619.20
64.0315	637.97
64.0460	594.33
64.0604	564.68
64.0749	592.51
64.0893	611.00
64.1037	627.82
64.1182	658.14
64.1326	603.06
64.1471	600.46
64.1615	577.79
64.1759	602.44
64.1904	600.85
64.2048	592.97
64.2193	612.99
64.2337	608.12
64.2481	598.68
64.2626	607.28
64.2770	621.36
64.2915	574.21
64.3059	614.06
64.3203	626.54
64.3348	601.45
64.3492	607.14
64.3637	621.43
64.3781	607.95
64.3925	606.76
64.4070	623.76
64.4214	613.61
64.4359	611.59
64.4503	583.70
64.4647	621.31
64.4792	627.22
64.4936	605.47
64.5081	613.55
64.5225	632.11
64.5369	668.02
64.5514	603.59
64.5658	609.28
64.5803	612.62
64.5947	637.66
64.6091	617.90
64.6236	605.73
64.6380	655.27
64.6525	663.62
64.6669	686.19
64.6813	671.21
64.6958	671.81
64.7102	672.88
64.7247	702.01
64.7391	737.74
64.7535	705.66
64.7680	648.77
64.7824	701.25
64.7969	700.20
64.8113	750.73
64.8257	732.13
64.8402	746.28
64.8546	786.86
64.8691	839.38
64.8835	832.75
64.8979	846.39
64.9124	895.28
64.9268	875.21
64.9413	925.19
64.9557	976.51
64.9701	987.94
64.9846	1053.00
64.9990	1126.80
65.0135	1221.30
65.0279	1403.14
65.0423	1657.03
65.0568	1981.29
65.0712	2473.28
65.0857	3319.11
65.1001	4397.38
65.1145	5928.82
65.1290	7850.25
65.1434	9352.39
65.1579	11004.17
65.1723	11990.76
65.1867	11351.20
65.2012	10202.30
65.2156	8611.49
65.2301	6847.80
65.2445	5481.83
65.2589	4645.59
65.2734	4292.43
65.2878	4491.16
65.3023	4974.63
65.3167	5737.81
65.3311	6409.31
65.3456	7027.79
65.3600	7052.16
65.3745	6523.44
65.3889	5663.48
65.4033	4647.01
65.4178	3743.94
65.4322	2751.46
65.4467	2139.45
65.4611	1769.61
65.4755	1520.71
65.4900	1301.64
65.5044	1194.35
65.5189	1082.16
65.5333	1029.46
65.5477	929.29
65.5622	809.73
65.5766	854.47
65.5911	845.56
65.6055	820.02
65.6199	786.33
65.6344	773.40
65.6488	744.50
65.6633	774.37
65.6777	743.31
65.6921	693.52
65.7066	692.59
65.7210	668.62
65.7355	717.98
65.7499	708.79
65.7643	648.52
65.7788	699.82
65.7932	675.39
65.8077	634.19
65.8221	653.59
65.8365	640.15
65.8510	642.64
65.8654	662.82
65.8799	629.46
65.8943	664.46
65.9087	640.58
65.9232	667.43
65.9376	663.19
65.9521	637.57
65.9665	663.98
65.9809	653.03
65.9954	639.22
66.0098	624.88
66.0243	624.41
66.0387	635.49
66.0531	622.36
66.0676	637.04
66.0820	610.80
66.0965	632.17
66.1109	645.06
66.1253	652.31
66.1398	599.36
66.1542	594.04
66.1687	637.65
66.1831	629.17
66.1975	639.85
66.2120	610.08
66.2264	593.90
66.2409	605.51
66.2553	611.55
66.2697	623.17
66.2842	609.50
66.2986	614.24
66.3131	593.62
66.3275	574.32
66.3419	579.32
66.3564	625.59
66.3708	594.63
66.3853	594.35
66.3997	591.15
66.4141	599.87
66.4286	640.42
66.4430	620.29
66.4575	606.39
66.4719	598.65
66.4863	592.85
66.5008	594.25
66.5152	589.49
66.5297	573.68
66.5441	587.30
66.5585	587.19
66.5730	594.21
66.5874	599.28
66.6019	591.95
66.6163	615.67
66.6307	567.32
66.6452	608.54
66.6596	582.31
66.6741	626.50
66.6885	616.54
66.7029	626.48
66.7174	602.27
66.7318	597.28
66.7463	586.56
66.7607	581.41
66.7751	613.13
66.7896	619.74
66.8040	596.83
66.8185	587.09
66.8329	605.47
66.8473	578.02
66.8618	553.69
66.8762	575.18
66.8907	594.92
66.9051	642.92
66.9195	599.75
66.9340	581.47
66.9484	594.81
66.9629	577.55
66.9773	580.99
66.9917	585.25
67.0062	578.99
67.0206	579.00
67.0351	567.63
67.0495	560.03
67.0639	597.88
67.0784	605.96
67.0928	608.57
67.1073	559.54
67.1217	574.96
67.1361	595.78
67.1506	581.87
67.1650	598.99
67.1795	577.52
67.1939	530.72
67.2083	583.78
67.2228	578.57
67.2372	609.03
67.2517	623.37
67.2661	603.02
67.2805	582.80
67.2950	562.40
67.3094	559.57
67.3239	576.29
67.3383	565.68
67.3527	585.15
67.3672	576.23
67.3816	591.29
67.3961	600.99
67.4105	559.67
67.4250	596.69
67.4394	576.74
67.4538	558.13
67.4683	593.89
67.4827	581.90
67.4972	556.68
67.5116	591.45
67.5260	596.77
67.5405	597.44
67.5549	577.59
67.5694	565.56
67.5838	547.65
67.5982	594.69
67.6127	610.41
67.6271	587.88
67.6416	589.56
67.6560	572.85
67.6704	576.02
67.6849	575.80
67.6993	582.15
67.7138	585.73
67.7282	603.33
67.7426	562.10
67.7571	564.58
67.7715	591.37
67.7860	608.90
67.8004	594.66
67.8148	572.43
67.8293	566.46
67.8437	568.30
67.8582	613.42
67.8726	592.65
67.8870	581.95
67.9015	595.21
67.9159	568.79
67.9304	603.22
67.9448	585.15
67.9592	572.80
67.9737	550.19
67.9881	558.35
68.0026	585.13
68.0170	566.69
68.0314	576.77
68.0459	599.39
68.0603	593.59
68.0748	558.22
68.0892	605.70
68.1036	597.73
68.1181	585.05
68.1325	580.38
68.1470	563.28
68.1614	569.67
68.1758	605.93
68.1903	555.11
68.2047	535.90
68.2192	559.22
68.2336	597.44
68.2480	555.68
68.2625	563.64
68.2769	529.50
68.2914	559.47
68.3058	573.23
68.3202	537.83
68.3347	580.06
68.3491	567.81
68.3636	614.19
68.3780	587.02
68.3924	538.65
68.4069	585.03
68.4213	573.10
68.4358	625.26
68.4502	556.67
68.4646	526.21
68.4791	623.30
68.4935	621.10
68.5080	595.79
68.5224	544.57
68.5368	570.64
68.5513	538.11
68.5657	564.22
68.5802	605.25
68.5946	542.19
68.6090	579.61
68.6235	568.25
68.6379	607.49
68.6524	609.11
68.6668	567.99
68.6812	564.42
68.6957	581.94
68.7101	607.81
68.7246	608.91
68.7390	617.31
68.7534	613.62
68.7679	602.05
68.7823	574.68
68.7968	565.24
68.8112	558.23
68.8256	577.42
68.8401	581.98
68.8545	575.50
68.8690	591.99
68.8834	604.56
68.8978	592.84
68.9123	566.08
68.9267	597.98
68.9412	601.33
68.9556	548.86
68.9700	578.35
68.9845	545.61
68.9989	538.82
69.0134	585.31
69.0278	554.93
69.0422	549.61
69.0567	596.66
69.0711	571.64
69.0856	583.20
69.1000	577.46
69.1144	591.58
69.1289	566.49
69.1433	518.69
69.1578	564.94
69.1722	587.66
69.1866	612.09
69.2011	542.81
69.2155	600.37
69.2300	557.36
69.2444	557.51
69.2588	571.22
69.2733	552.51
69.2877	598.12
69.3022	558.73
69.3166	587.91
69.3310	558.63
69.3455	532.77
69.3599	589.32
69.3744	609.69
69.3888	614.86
69.4032	586.45
69.4177	571.31
69.4321	605.99
69.4466	575.02
69.4610	591.15
69.4754	629.37
69.4899	618.66
69.5043	551.19
69.5188	626.54
69.5332	618.57
69.5476	584.70
69.5621	589.53
69.5765	585.53
69.5910	611.04
69.6054	618.70
69.6198	618.45
69.6343	587.35
69.6487	544.97
69.6632	598.10
69.6776	598.16
69.6920	578.05
69.7065	588.13
69.7209	532.15
69.7354	577.35
69.7498	579.39
69.7642	567.04
69.7787	581.19
69.7931	597.97
69.8076	604.64
69.8220	581.31
69.8364	585.21
69.8509	629.83
69.8653	607.52
69.8798	573.17
69.8942	608.86
69.9086	592.49
69.9231	578.29
69.9375	597.59
69.9520	561.91
69.9664	580.76
69.9808	570.48
69.9953	585.14
70.0097	554.60
70.0242	585.74
70.0386	495.83
70.0530	567.48
70.0675	587.90
70.0819	574.73
70.0964	589.02
70.1108	563.46
70.1252	598.18
70.1397	568.76
70.1541	542.96
70.1686	595.79
70.1830	567.30
70.1974	564.07
70.2119	606.34
70.2263	506.79
70.2408	564.19
70.2552	569.73
70.2696	552.55
70.2841	532.55
70.2985	578.85
70.3130	566.78
70.3274	587.83
70.3418	598.91
70.3563	597.64
70.3707	600.14
70.3852	568.12
70.3996	602.39
70.4140	599.95
70.4285	642.01
70.4429	608.09
70.4574	610.86
70.4718	543.73
70.4862	549.36
70.5007	614.73
70.5151	568.82
70.5296	566.27
70.5440	555.17
70.5584	596.68
70.5729	584.85
70.5873	514.14
70.6018	556.39
70.6162	589.01
70.6306	622.71
70.6451	614.86
70.6595	616.83
70.6740	580.28
70.6884	563.07
70.7028	591.99
70.7173	580.31
70.7317	530.96
70.7462	566.78
70.7606	632.87
70.7750	596.60
70.7895	566.74
70.8039	576.77
70.8184	576.05
70.8328	606.12
70.8472	577.21
70.8617	561.05
70.8761	505.99
70.8906	571.57
70.9050	597.35
70.9194	605.54
70.9339	573.69
70.9483	574.26
70.9628	624.92
70.9772	606.05
70.9916	526.09
71.0061	522.87
71.0205	531.77
71.0350	554.41
71.0494	615.07
71.0638	595.06
71.0783	629.27
71.0927	633.41
71.1072	614.50
71.1216	602.39
71.1361	559.39
71.1505	538.59
71.1649	582.15
71.1794	675.47
71.1938	678.23
71.2083	581.48
71.2227	524.18
71.2371	534.89
71.2516	552.11
71.2660	570.22
71.2805	590.09
71.2949	601.69
71.3093	586.95
71.3238	545.30
71.3382	576.71
71.3527	548.24
71.3671	529.27
71.3815	575.61
71.3960	596.69
71.4104	541.08
71.4249	576.96
71.4393	567.86
71.4537	572.22
71.4682	599.97
71.4826	586.76
71.4971	554.06
71.5115	527.19
71.5259	519.88
71.5404	541.25
71.5548	575.47
71.5693	585.47
71.5837	569.84
71.5981	572.78
71.6126	577.24
71.6270	546.67
71.6415	579.95
71.6559	587.95
71.6703	592.82
71.6848	575.51
71.6992	581.35
71.7137	594.81
71.7281	557.43
71.7425	555.64
71.7570	571.00
71.7714	567.37
71.7859	569.25
71.8003	533.13
71.8147	583.66
71.8292	590.58
71.8436	608.00
71.8581	603.31
71.8725	590.57
71.8869	581.46
71.9014	581.28
71.9158	579.61
71.9303	605.37
71.9447	634.67
71.9591	628.01
71.9736	568.64
71.9880	563.48
72.0025	532.39
72.0169	586.55
72.0313	666.99
72.0458	654.29
72.0602	572.65
72.0747	583.99
72.0891	633.08
72.1035	638.82
72.1180	560.80
72.1324	551.49
72.1469	588.43
72.1613	563.03
72.1757	572.84
72.1902	595.17
72.2046	579.89
72.2191	569.82
72.2335	560.70
72.2479	564.12
72.2624	600.24
72.2768	620.03
72.2913	586.19
72.3057	621.96
72.3201	614.79
72.3346	702.97
72.3490	630.27
72.3635	544.93
72.3779	594.71
72.3923	605.17
72.4068	634.20
72.4212	694.32
72.4357	720.70
72.4501	636.06
72.4645	600.11
72.4790	670.74
72.4934	653.88
72.5079	602.57
72.5223	554.88
72.5367	537.78
72.5512	615.74
72.5656	617.12
72.5801	555.32
72.5945	506.79
72.6089	470.50
72.6234	510.03
72.6378	569.52
72.6523	577.25
72.6667	568.26
72.6811	554.08
72.6956	591.06
72.7100	606.03
72.7245	564.84
72.7389	632.96
72.7533	564.85
72.7678	593.80
72.7822	646.83
72.7967	628.19
72.8111	562.73
72.8255	577.22
72.8400	570.62
72.8544	529.22
72.8689	531.82
72.8833	608.85

Result vector
22.1120	591.83
22.1264	620.07
22.1409	564.76
22.1553	556.67
22.1697	578.52
22.1842	588.54
22.1986	564.72
22.2131	621.48
22.2275	609.20
22.2419	558.25
22.2564	603.03
22.2708	559.86
22.2853	688.92
22.2997	604.53
22.3141	531.82
22.3286	580.44
22.3430	580.51
22.3575	602.25
22.3719	577.88
22.3863	646.69
22.4008	519.51
22.4152	551.34
22.4297	585.45
22.4441	567.42
22.4585	513.73
22.4730	588.91
22.4874	568.18
22.5019	597.66
22.5163	650.21
22.5307	667.11
22.5452	654.92
22.5596	587.63
22.5741	483.95
22.5885	480.11
22.6029	547.55
22.6174	543.91
22.6318	567.83
22.6463	569.62
22.6607	583.59
22.6751	573.59
22.6896	563.35
22.7040	555.31
22.7185	570.40
22.7329	531.66
22.7473	510.53
22.7618	561.83
22.7762	634.46
22.7907	532.17
22.8051	551.96
22.8195	524.58
22.8340	510.65
22.8484	556.38
22.8629	549.19
22.8773	527.56
22.8917	509.03
22.9062	566.47
22.9206	572.17
22.9351	593.93
22.9495	509.16
22.9639	478.35
22.9784	573.58
22.9928	566.89
23.0073	518.70
23.0217	569.01
23.0361	591.33
23.0506	539.63
23.0650	523.77
23.0795	574.75
23.0939	523.57
23.1083	605.70
23.1228	593.62
23.1372	542.10
23.1517	451.51
23.1661	586.66
23.1806	502.49
23.1950	560.74
23.2094	538.63
23.2239	576.80
23.2383	676.19
23.2528	598.75
23.2672	557.40
23.2816	668.11
23.2961	546.80
23.3105	569.53
23.3250	586.23
23.3394	549.65
23.3538	608.12
23.3683	555.05
23.3827	584.65
23.3972	495.38
23.4116	518.78
23.4260	603.84
23.4405	566.44
23.4549	571.05
23.4694	573.57
23.4838	514.45
23.4982	584.35
23.5127	524.35
23.5271	557.54
23.5416	574.71
23.5560	544.01
23.5704	580.78
23.5849	602.75
23.5993	617.67
23.6138	586.51
23.6282	584.86
23.6426	566.10
23.6571	501.92
23.6715	475.22
23.6860	505.86
23.7004	575.80
23.7148	566.72
23.7293	619.05
23.7437	583.89
23.7582	497.76
23.7726	552.91
23.7870	519.64
23.8015	548.28
23.8159	561.71
23.8304	539.34
23.8448	539.48
23.8592	594.88
23.8737	597.17
23.8881	519.76
23.9026	624.25
23.9170	584.04
23.9314	563.22
23.9459	581.44
23.9603	531.63
23.9748	557.58
23.9892	535.65
24.0036	546.14
24.0181	554.26
24.0325	657.29
24.0470	526.31
24.0614	553.92
24.0758	653.88
24.0903	550.09
24.1047	562.37
24.1192	587.25
24.1336	534.50
24.1480	522.64
24.1625	638.02
24.1769	543.34
24.1914	563.03
24.2058	536.47
24.2202	567.96
24.2347	558.27
24.2491	605.45
24.2636	600.80
24.2780	625.89
24.2924	593.71
24.3069	605.03
24.3213	593.50
24.3358	594.11
24.3502	523.61
24.3646	578.86
24.3791	573.20
24.3935	579.11
24.4080	544.26
24.4224	530.00
24.4368	517.54
24.4513	524.76
24.4657	585.38
24.4802	588.33
24.4946	531.52
24.5090	570.73
24.5235	558.78
24.5379	560.12
24.5524	574.87
24.5668	625.23
24.5812	562.76
24.5957	558.69
24.6101	545.69
24.6246	513.33
24.6390	500.31
24.6534	586.09
24.6679	553.23
24.6823	539.44
24.6968	593.07
24.7112	540.10
24.7256	557.24
24.7401	553.11
24.7545	569.22
24.7690	541.96
24.7834	580.58
24.7978	556.22
24.8123	566.11
24.8267	541.58
24.8412	577.67
24.8556	575.95
24.8700	615.26
24.8845	559.17
24.8989	587.35
24.9134	576.96
24.9278	558.53
24.9422	552.75
24.9567	534.69
24.9711	551.02
24.9856	595.81
25.0000	515.87
25.0144	571.33
25.0289	540.66
25.0433	567.94
25.0578	563.46
25.0722	504.41
25.0866	501.38
25.1011	503.64
25.1155	528.24
25.1300	577.03
25.1444	508.52
25.1588	525.81
25.1733	516.69
25.1877	522.47
25.2022	555.85
25.2166	547.97
25.2310	547.14
25.2455	509.95
25.2599	537.87
25.2744	532.28
25.2888	562.00
25.3032	559.48
25.3177	547.19
25.3321	531.68
25.3466	526.34
25.3610	504.11
25.3754	514.62
25.3899	499.26
25.4043	548.66
25.4188	529.44
25.4332	497.27
25.4476	547.19
25.4621	568.57
25.4765	528.79
25.4910	537.66
25.5054	501.47
25.5198	496.95
25.5343	540.73
25.5487	559.92
25.5632	550.18
25.5776	529.84
25.5920	528.41
25.6065	548.44
25.6209	525.73
25.6354	505.81
25.6498	544.41
25.6642	585.85
25.6787	523.62
25.6931	547.56
25.7076	596.71
25.7220	589.92
25.7364	499.64
25.7509	510.98
25.7653	505.58
25.7798	565.29
25.7942	568.91
25.8086	573.06
25.8231	560.21
25.8375	538.25
25.8520	524.96
25.8664	529.52
25.8808	561.15
25.8953	564.41
25.9097	572.17
25.9242	529.75
25.9386	556.98
25.9530	560.17
25.9675	522.54
25.9819	519.57
25.9964	502.15
26.0108	542.63
26.0252	556.14
26.0397	520.90
26.0541	517.36
26.0686	531.66
26.0830	524.82
26.0974	528.32
26.1119	536.92
26.1263	566.17
26.1408	515.43
26.1552	545.46
26.1696	556.19
26.1841	564.66
26.1985	527.96
26.2130	536.73
26.2274	531.84
26.2418	529.59
26.2563	531.48
26.2707	509.92
26.2852	548.58
26.2996	532.76
26.3140	526.49
26.3285	477.02
26.3429	509.08
26.3574	556.34
26.3718	541.85
26.3862	503.34
26.4007	510.04
26.4151	549.93
26.4296	585.83
26.4440	513.22
26.4584	514.36
26.4729	569.52
26.4873	554.22
26.5018	549.88
26.5162	560.50
26.5306	577.38
26.5451	549.26
26.5595	559.92
26.5740	557.99
26.5884	568.12
26.6028	567.62
26.6173	544.02
26.6317	530.20
26.6462	513.53
26.6606	530.16
26.6750	546.44
26.6895	540.58
26.7039	537.54
26.7184	532.38
26.7328	529.59
26.7472	500.84
26.7617	528.11
26.7761	529.09
26.7906	524.35
26.8050	531.99
26.8194	555.23
26.8339	555.39
26.8483	538.72
26.8628	548.72
26.8772	520.65
26.8917	518.39
26.9061	580.31
26.9205	554.93
26.9350	529.61
26.9494	528.23
26.9639	535.09
26.9783	531.34
26.9927	513.61
27.0072	525.46
27.0216	516.07
27.0361	542.44
27.0505	519.23
27.0649	486.34
27.0794	503.39
27.0938	540.04
27.1083	528.78
27.1227	526.07
27.1371	520.32
27.1516	525.45
27.1660	490.72
27.1805	513.20
27.1949	524.53
27.2093	517.92
27.2238	526.02
27.2382	497.86
27.2527	503.43
27.2671	530.55
27.2815	506.56
27.2960	513.32
27.3104	554.68
27.3249	507.04
27.3393	554.06
27.3537	551.90
27.3682	531.85
27.3826	519.19
27.3971	494.99
27.4115	500.71
27.4259	547.37
27.4404	525.90
27.4548	516.45
27.4693	540.08
27.4837	549.38
27.4981	523.36
27.5126	524.82
27.5270	557.78
27.5415	512.29
27.5559	511.97
27.5703	515.55
27.5848	538.95
27.5992	539.84
27.6137	529.45
27.6281	545.07
27.6425	532.53
27.6570	543.30
27.6714	522.59
27.6859	505.64
27.7003	521.54
27.7147	546.68
27.7292	511.27
27.7436	517.47
27.7581	589.93
27.7725	529.69
27.7869	540.56
27.8014	526.91
27.8158	541.34
27.8303	535.88
27.8447	498.18
27.8591	515.16
27.8736	516.42
27.8880	489.05
27.9025	520.87
27.9169	503.50
27.9313	497.65
27.9458	485.42
27.9602	511.49
27.9747	531.52
27.9891	510.39
28.0035	480.15
28.0180	522.15
28.0324	541.06
28.0469	486.29
28.0613	537.43
28.0757	537.90
28.0902	534.93
28.1046	511.82
28.1191	533.22
28.1335	513.34
28.1479	481.07
28.1624	490.59
28.1768	530.65
28.1913	471.50
28.2057	524.59
28.2201	528.17
28.2346	523.13
28.2490	520.26
28.2635	482.35
28.2779	503.99
28.2923	485.83
28.3068	536.21
28.3212	510.70
28.3357	541.20
28.3501	524.74
28.3645	481.87
28.3790	520.38
28.3934	519.57
28.4079	507.33
28.4223	518.25
28.4367	513.46
28.4512	506.82
28.4656	525.39
28.4801	525.87
28.4945	545.53
28.5089	519.79
28.5234	506.95
28.5378	527.29
28.5523	495.87
28.5667	494.05
28.5811	520.64
28.5956	504.53
28.6100	490.35
28.6245	516.30
28.6389	539.86
28.6533	522.15
28.6678	515.83
28.6822	487.88
28.6967	525.67
28.7111	547.63
28.7255	496.56
28.7400	531.49
28.7544	559.97
28.7689	486.15
28.7833	504.57
28.7977	493.73
28.8122	495.10
28.8266	511.94
28.8411	520.81
28.8555	496.89
28.8699	526.68
28.8844	496.84
28.8988	504.42
28.9133	500.62
28.9277	546.89
28.9421	522.34
28.9566	486.48
28.9710	550.91
28.9855	508.55
28.9999	503.02
29.0143	515.91
29.0288	540.06
29.0432	503.23
29.0577	526.84
29.0721	518.06
29.0865	500.52
29.1010	529.16
29.1154	525.53
29.1299	492.16
29.1443	502.44
29.1587	503.38
29.1732	518.72
29.1876	532.84
29.2021	507.47
29.2165	531.51
29.2309	508.67
29.2454	542.62
29.2598	543.65
29.2743	492.23
29.2887	471.66
29.3031	460.30
29.3176	475.82
29.3320	507.89
29.3465	499.90
29.3609	475.00
29.3753	501.26
29.3898	473.46
29.4042	501.31
29.4187	518.82
29.4331	499.53
29.4475	488.17
29.4620	502.67
29.4764	454.82
29.4909	515.76
29.5053	505.89
29.5197	487.00
29.5342	517.61
29.5486	503.74
29.5631	515.68
29.5775	509.39
29.5919	491.70
29.6064	504.82
29.6208	497.65
29.6353	470.07
29.6497	494.96
29.6641	525.84
29.6786	527.65
29.6930	482.79
29.7075	514.91
29.7219	533.77
29.7363	523.69
29.7508	522.88
29.7652	468.94
29.7797	486.88
29.7941	473.41
29.8085	492.19
29.8230	513.51
29.8374	547.77
29.8519	546.12
29.8663	493.08
29.8807	523.86
29.8952	518.38
29.9096	495.72
29.9241	495.27
29.9385	488.29
29.9529	523.50
29.9674	512.79
29.9818	470.87
29.9963	526.89
30.0107	485.74
30.0251	476.52
30.0396	516.94
30.0540	470.69
30.0685	499.72
30.0829	534.85
30.0973	489.16
30.1118	462.02
30.1262	515.89
30.1407	478.88
30.1551	490.15
30.1695	524.09
30.1840	517.89
30.1984	482.76
30.2129	538.12
30.2273	530.62
30.2417	493.39
30.2562	496.61
30.2706	510.64
30.2851	522.08
30.2995	528.18
30.3139	547.26
30.3284	536.29
30.3428	503.55
30.3573	499.11
30.3717	494.92
30.3861	507.10
30.4006	510.20
30.4150	488.49
30.4295	521.52
30.4439	563.18
30.4583	528.28
30.4728	535.45
30.4872	514.76
30.5017	554.58
30.5161	576.76
30.5305	581.47
30.5450	631.57
30.5594	697.55
30.5739	711.64
30.5883	716.13
30.6028	727.15
30.6172	718.65
30.6316	720.68
30.6461	738.98
30.6605	727.61
30.6750	718.74
30.6894	655.41
30.7038	630.52
30.7183	607.79
30.7327	598.31
30.7472	609.85
30.7616	560.44
30.7760	543.87
30.7905	519.04
30.8049	526.51
30.8194	544.48
30.8338	557.51
30.8482	537.61
30.8627	515.50
30.8771	533.48
30.8916	514.68
30.9060	482.46
30.9204	511.24
30.9349	520.06
30.9493	505.83
30.9638	475.19
30.9782	533.56
30.9926	542.73
31.0071	509.47
31.0215	495.92
31.0360	493.88
31.0504	509.34
31.0648	507.14
31.0793	493.37
31.0937	511.59
31.1082	486.46
31.1226	514.64
31.1370	488.63
31.1515	481.53
31.1659	493.03
31.1804	504.47
31.1948	485.15
31.2092	497.92
31.2237	540.39
31.2381	536.19
31.2526	527.56
31.2670	529.25
31.2814	527.70
31.2959	529.84
31.3103	558.48
31.3248	516.62
31.3392	529.92
31.3536	537.40
31.3681	494.96
31.3825	494.92
31.3970	516.65
31.4114	526.07
31.4258	508.21
31.4403	506.89
31.4547	528.87
31.4692	523.78
31.4836	524.79
31.4980	499.93
31.5125	502.46
31.5269	491.68
31.5414	508.89
31.5558	530.42
31.5702	518.02
31.5847	525.70
31.5991	503.09
31.6136	510.55
31.6280	505.07
31.6424	494.51
31.6569	510.26
31.6713	505.18
31.6858	489.54
31.7002	568.27
31.7146	534.51
31.7291	496.37
31.7435	469.35
31.7580	482.08
31.7724	531.49
31.7868	486.82
31.8013	497.91
31.8157	501.03
31.8302	510.21
31.8446	505.11
31.8590	511.61
31.8735	525.06
31.8879	488.93
31.9024	500.28
31.9168	529.92
31.9312	500.25
31.9457	487.83
31.9601	500.34
31.9746	499.24
31.9890	468.55
32.0034	496.84
32.0179	508.48
32.0323	500.59
32.0468	507.88
32.0612	500.97
32.0756	465.19
32.0901	487.73
32.1045	510.34
32.1190	515.42
32.1334	483.84
32.1478	482.83
32.1623	539.33
32.1767	527.94
32.1912	471.23
32.2056	495.11
32.2200	529.17
32.2345	532.64
32.2489	503.65
32.2634	506.73
32.2778	504.93
32.2922	497.27
32.3067	489.44
32.3211	498.83
32.3356	491.27
32.3500	513.14
32.3644	495.27
32.3789	509.62
32.3933	472.10
32.4078	484.71
32.4222	519.73
32.4366	528.59
32.4511	459.46
32.4655	514.61
32.4800	505.95
32.4944	492.37
32.5088	483.30
32.5233	487.34
32.5377	494.42
32.5522	521.08
32.5666	508.28
32.5810	491.75
32.5955	519.20
32.6099	512.73
32.6244	486.32
32.6388	496.71
32.6532	510.18
32.6677	494.57
32.6821	485.87
32.6966	526.49
32.7110	520.80
32.7254	497.07
32.7399	476.12
32.7543	469.25
32.7688	480.16
32.7832	492.18
32.7976	464.90
32.8121	460.64
32.8265	468.07
32.8410	516.20
32.8554	527.35
32.8698	517.10
32.8843	495.81
32.8987	521.17
32.9132	514.76
32.9276	519.86
32.9420	492.32
32.9565	490.99
32.9709	506.06
32.9854	513.75
32.9998	491.73
33.0142	474.86
33.0287	516.54
33.0431	506.74
33.0576	496.69
33.0720	499.67
33.0864	527.84
33.1009	532.24
33.1153	487.85
33.1298	508.71
33.1442	493.53
33.1586	494.49
33.1731	511.08
33.1875	509.41
33.2020	492.16
33.2164	495.42
33.2308	491.11
33.2453	506.26
33.2597	523.19
33.2742	505.36
33.2886	495.49
33.3030	513.03
33.3175	521.13
33.3319	520.17
33.3464	507.21
33.3608	510.66
33.3752	503.14
33.3897	479.40
33.4041	497.79
33.4186	514.32
33.4330	533.17
33.4474	473.23
33.4619	523.23
33.4763	505.74
33.4908	510.46
33.5052	511.20
33.5196	504.11
33.5341	519.67
33.5485	542.34
33.5630	520.46
33.5774	521.70
33.5918	491.13
33.6063	492.63
33.6207	492.92
33.6352	490.54
33.6496	500.88
33.6640	515.52
33.6785	518.94
33.6929	496.74
33.7074	539.42
33.7218	562.37
33.7362	492.28
33.7507	514.05
33.7651	480.68
33.7796	489.39
33.7940	523.51
33.8084	496.86
33.8229	471.27
33.8373	521.53
33.8518	514.72
33.8662	514.86
33.8806	492.47
33.8951	527.02
33.9095	500.56
33.9240	486.29
33.9384	486.95
33.9528	514.53
33.9673	518.09
33.9817	547.02
33.9962	507.72
34.0106	509.70
34.0250	477.03
34.0395	505.64
34.0539	509.86
34.0684	496.77
34.0828	471.96
34.0972	519.78
34.1117	507.97
34.1261	483.87
34.1406	488.27
34.1550	460.46
34.1694	485.06
34.1839	480.00
34.1983	501.69
34.2128	493.68
34.2272	538.18
34.2417	526.38
34.2561	474.87
34.2705	503.24
34.2850	524.93
34.2994	529.50
34.3139	497.61
34.3283	477.57
34.3427	518.93
34.3572	549.48
34.3716	513.71
34.3861	509.88
34.4005	496.69
34.4149	482.15
34.4294	526.46
34.4438	525.87
34.4583	482.61
34.4727	529.34
34.4871	519.37
34.5016	500.36
34.5160	515.20
34.5305	510.92
34.5449	500.26
34.5593	527.13
34.5738	504.42
34.5882	484.21
34.6027	480.65
34.6171	529.10
34.6315	531.20
34.6460	506.27
34.6604	494.86
34.6749	500.67
34.6893	510.81
34.7037	517.56
34.7182	493.46
34.7326	510.42
34.7471	531.15
34.7615	542.01
34.7759	511.51
34.7904	464.75
34.8048	496.40
34.8193	512.97
34.8337	499.71
34.8481	527.72
34.8626	539.96
34.8770	503.84
34.8915	519.81
34.9059	522.00
34.9203	504.96
34.9348	498.73
34.9492	506.72
34.9637	462.56
34.9781	493.03
34.9925	496.48
35.0070	492.35
35.0214	538.61
35.0359	529.10
35.0503	506.01
35.0647	518.70
35.0792	513.35
35.0936	503.87
35.1081	497.53
35.1225	534.02
35.1369	483.11
35.1514	486.85
35.1658	516.24
35.1803	507.58
35.1947	485.99
35.2091	495.26
35.2236	506.41
35.2380	504.91
35.2525	531.20
35.2669	507.36
35.2813	490.51
35.2958	524.91
35.3102	507.28
35.3247	541.79
35.3391	539.63
35.3535	540.60
35.3680	520.97
35.3824	540.03
35.3969	508.39
35.4113	520.01
35.4257	538.54
35.4402	539.15
35.4546	532.19
35.4691	560.66
35.4835	548.53
35.4979	526.46
35.5124	509.80
35.5268	555.90
35.5413	524.29
35.5557	505.80
35.5701	548.50
35.5846	522.64
35.5990	510.61
35.6135	539.90
35.6279	536.62
35.6423	563.43
35.6568	533.34
35.6712	558.45
35.6857	596.52
35.7001	671.41
35.7145	761.24
35.7290	667.73
35.7434	575.61
35.7579	613.47
35.7723	595.65
35.7867	586.20
35.8012	614.19
35.8156	662.36
35.8301	629.47
35.8445	652.79
35.8589	671.17
35.8734	779.41
35.8878	901.74
35.9023	1057.49
35.9167	1126.03
35.9311	1359.16
35.9456	1965.85
35.9600	2432.54
35.9745	2220.70
35.9889	2220.06
36.0033	2642.43
36.0178	2880.86
36.0322	2670.64
36.0467	2522.30
36.0611	2295.00
36.0755	2114.71
36.0900	2042.82
36.1044	1825.95
36.1189	1729.63
36.1333	1651.44
36.1477	1342.98
36.1622	1280.38
36.1766	1165.98
36.1911	966.25
36.2055	809.23
36.2199	742.48
36.2344	664.38
36.2488	640.52
36.2633	594.83
36.2777	614.53
36.2921	576.41
36.3066	547.69
36.3210	565.01
36.3355	558.74
36.3499	563.36
36.3643	542.50
36.3788	547.70
36.3932	516.83
36.4077	532.25
36.4221	551.68
36.4365	550.52
36.4510	490.27
36.4654	559.68
36.4799	557.19
36.4943	536.55
36.5087	528.64
36.5232	523.01
36.5376	573.35
36.5521	562.84
36.5665	546.19
36.5809	508.50
36.5954	530.21
36.6098	527.12
36.6243	533.60
36.6387	550.88
36.6531	505.49
36.6676	533.31
36.6820	512.85
36.6965	498.69
36.7109	576.16
36.7253	497.97
36.7398	500.67
36.7542	542.64
36.7687	551.84
36.7831	568.73
36.7975	536.59
36.8120	570.12
36.8264	578.30
36.8409	586.31
36.8553	583.52
36.8697	598.54
36.8842	560.10
36.8986	596.36
36.9131	619.73
36.9275	599.44
36.9419	575.89
36.9564	597.78
36.9708	586.66
36.9853	555.40
36.9997	523.78
37.0141	534.21
37.0286	561.87
37.0430	538.14
37.0575	481.45
37.0719	547.87
37.0863	507.36
37.1008	509.02
37.1152	481.80
37.1297	540.03
37.1441	496.13
37.1585	514.46
37.1730	531.19
37.1874	494.90
37.2019	514.16
37.2163	501.60
37.2307	507.94
37.2452	494.25
37.2596	508.95
37.2741	510.63
37.2885	480.87
37.3029	505.04
37.3174	500.53
37.3318	503.29
37.3463	513.92
37.3607	523.48
37.3751	506.64
37.3896	498.25
37.4040	477.84
37.4185	514.19
37.4329	499.28
37.4473	485.84
37.4618	525.75
37.4762	518.40
37.4907	522.80
37.5051	480.46
37.5195	528.26
37.5340	486.65
37.5484	494.28
37.5629	525.84
37.5773	510.18
37.5917	510.39
37.6062	519.49
37.6206	513.34
37.6351	511.65
37.6495	503.93
37.6639	548.52
37.6784	506.87
37.6928	503.72
37.7073	506.95
37.7217	501.99
37.7361	531.21
37.7506	493.29
37.7650	505.89
37.7795	502.28
37.7939	510.49
37.8083	510.02
37.8228	468.06
37.8372	485.12
37.8517	511.61
37.8661	537.46
37.8805	519.09
37.8950	522.31
37.9094	515.27
37.9239	505.63
37.9383	525.54
37.9528	495.71
37.9672	501.43
37.9816	538.90
37.9961	511.93
38.0105	498.30
38.0250	485.88
38.0394	495.20
38.0538	537.37
38.0683	522.15
38.0827	521.95
38.0972	504.30
38.1116	482.87
38.1260	508.97
38.1405	519.08
38.1549	484.40
38.1694	467.68
38.1838	513.35
38.1982	494.47
38.2127	529.25
38.2271	505.99
38.2416	508.43
38.2560	531.18
38.2704	505.58
38.2849	507.13
38.2993	527.46
38.3138	511.16
38.3282	489.53
38.3426	540.36
38.3571	520.80
38.3715	471.61
38.3860	514.77
38.4004	546.33
38.4148	548.87
38.4293	583.03
38.4437	579.11
38.4582	627.31
38.4726	654.98
38.4870	697.12
38.5015	719.86
38.5159	760.63
38.5304	791.49
38.5448	787.24
38.5592	790.87
38.5737	790.32
38.5881	755.95
38.6026	763.70
38.6170	717.82
38.6314	701.17
38.6459	698.14
38.6603	651.84
38.6748	621.74
38.6892	577.07
38.7036	579.75
38.7181	558.65
38.7325	506.99
38.7470	518.67
38.7614	520.14
38.7758	528.58
38.7903	528.55
38.8047	524.94
38.8192	510.56
38.8336	511.66
38.8480	475.94
38.8625	514.13
38.8769	549.45
38.8914	526.99
38.9058	516.81
38.9202	503.51
38.9347	494.46
38.9491	521.97
38.9636	529.63
38.9780	514.06
38.9924	531.57
39.0069	517.81
39.0213	526.84
39.0358	529.08
39.0502	500.74
39.0646	507.98
39.0791	498.50
39.0935	519.09
39.1080	490.09
39.1224	544.00
39.1368	502.57
39.1513	513.63
39.1657	540.91
39.1802	464.95
39.1946	488.12
39.2090	506.07
39.2235	500.35
39.2379	506.63
39.2524	511.50
39.2668	496.88
39.2812	511.77
39.2957	531.66
39.3101	516.33
39.3246	529.52
39.3390	537.89
39.3534	533.39
39.3679	501.81
39.3823	507.37
39.3968	525.24
39.4112	510.21
39.4256	505.95
39.4401	504.18
39.4545	470.38
39.4690	508.83
39.4834	513.58
39.4978	505.64
39.5123	481.71
39.5267	504.00
39.5412	502.42
39.5556	518.74
39.5700	528.30
39.5845	493.97
39.5989	498.08
39.6134	500.54
39.6278	493.46
39.6422	494.70
39.6567	487.15
39.6711	480.18
39.6856	476.25
39.7000	507.98
39.7144	535.59
39.7289	496.95
39.7433	484.97
39.7578	506.60
39.7722	498.16
39.7866	480.11
39.8011	502.94
39.8155	493.36
39.8300	521.29
39.8444	507.80
39.8588	519.11
39.8733	535.44
39.8877	478.36
39.9022	508.14
39.9166	473.79
39.9310	471.94
39.9455	476.22
39.9599	473.08
39.9744	519.70
39.9888	514.85
40.0032	491.50
40.0177	504.79
40.0321	488.14
40.0466	502.17
40.0610	494.48
40.0754	519.62
40.0899	494.31
40.1043	497.49
40.1188	505.37
40.1332	450.22
40.1476	465.52
40.1621	499.00
40.1765	497.45
40.1910	510.65
40.2054	518.13
40.2198	482.48
40.2343	490.63
40.2487	480.58
40.2632	508.80
40.2776	547.02
40.2920	515.40
40.3065	498.93
40.3209	506.71
40.3354	507.83
40.3498	515.36
40.3642	474.96
40.3787	493.81
40.3931	475.71
40.4076	499.92
40.4220	505.47
40.4364	513.76
40.4509	512.64
40.4653	512.61
40.4798	459.85
40.4942	486.87
40.5086	518.02
40.5231	491.94
40.5375	500.69
40.5520	516.81
40.5664	471.39
40.5808	520.75
40.5953	513.51
40.6097	502.12
40.6242	469.73
40.6386	502.64
40.6530	495.57
40.6675	503.72
40.6819	528.26
40.6964	521.82
40.7108	513.87
40.7252	507.91
40.7397	488.77
40.7541	482.84
40.7686	468.95
40.7830	499.08
40.7974	530.08
40.8119	516.32
40.8263	517.58
40.8408	491.78
40.8552	496.82
40.8696	488.79
40.8841	479.65
40.8985	511.91
40.9130	500.64
40.9274	500.76
40.9418	536.47
40.9563	516.98
40.9707	507.72
40.9852	499.86
40.9996	493.17
41.0140	509.77
41.0285	503.27
41.0429	501.01
41.0574	529.98
41.0718	516.12
41.0862	534.42
41.1007	500.91
41.1151	515.35
41.1296	530.63
41.1440	498.71
41.1584	492.32
41.1729	506.52
41.1873	504.35
41.2018	483.10
41.2162	477.85
41.2306	474.39
41.2451	490.59
41.2595	492.49
41.2740	498.56
41.2884	523.99
41.3028	518.21
41.3173	511.06
41.3317	497.05
41.3462	493.17
41.3606	482.51
41.3750	483.75
41.3895	492.47
41.4039	500.03
41.4184	481.20
41.4328	498.20
41.4472	509.96
41.4617	510.25
41.4761	498.72
41.4906	519.84
41.5050	516.98
41.5194	531.92
41.5339	508.92
41.5483	506.08
41.5628	522.44
41.5772	498.13
41.5916	509.79
41.6061	519.36
41.6205	479.03
41.6350	506.25
41.6494	501.00
41.6639	509.83
41.6783	508.42
41.6927	485.91
41.7072	501.34
41.7216	510.37
41.7361	484.00
41.7505	511.75
41.7649	494.61
41.7794	468.91
41.7938	490.65
41.8083	523.58
41.8227	528.50
41.8371	534.55
41.8516	516.27
41.8660	514.22
41.8805	539.38
41.8949	553.17
41.9093	592.78
41.9238	538.07
41.9382	564.62
41.9527	553.29
41.9671	576.01
41.9815	541.77
41.9960	541.27
42.0104	542.77
42.0249	582.61
42.0393	562.50
42.0537	571.97
42.0682	556.40
42.0826	569.87
42.0971	575.56
42.1115	574.59
42.1259	588.50
42.1404	616.27
42.1548	595.05
42.1693	606.66
42.1837	637.93
42.1981	688.43
42.2126	808.28
42.2270	898.35
42.2415	1047.17
42.2559	1169.77
42.2703	1348.77
42.2848	1515.06
42.2992	1621.09
42.3137	1661.71
42.3281	1659.34
42.3425	1579.56
42.3570	1465.68
42.3714	1355.89
42.3859	1373.41
42.4003	1352.68
42.4147	1322.09
42.4292	1302.95
42.4436	1169.11
42.4581	1057.70
42.4725	955.43
42.4869	890.24
42.5014	777.68
42.5158	696.14
42.5303	642.90
42.5447	613.61
42.5591	605.31
42.5736	581.51
42.5880	552.63
42.6025	601.15
42.6169	560.20
42.6313	547.15
42.6458	548.17
42.6602	538.77
42.6747	551.50
42.6891	558.06
42.7035	541.95
42.7180	544.43
42.7324	531.28
42.7469	567.99
42.7613	545.51
42.7757	552.14
42.7902	515.75
42.8046	550.66
42.8191	527.62
42.8335	493.08
42.8479	510.55
42.8624	541.06
42.8768	553.84
42.8913	529.38
42.9057	528.13
42.9201	496.71
42.9346	503.33
42.9490	493.38
42.9635	508.47
42.9779	501.65
42.9923	536.44
43.0068	539.18
43.0212	525.85
43.0357	540.59
43.0501	545.48
43.0645	503.81
43.0790	499.98
43.0934	536.58
43.1079	566.70
43.1223	538.37
43.1367	512.23
43.1512	498.46
43.1656	507.19
43.1801	527.25
43.1945	538.25
43.2089	520.54
43.2234	498.16
43.2378	536.37
43.2523	546.63
43.2667	533.47
43.2811	531.06
43.2956	523.86
43.3100	534.84
43.3245	543.34
43.3389	516.75
43.3533	515.08
43.3678	523.55
43.3822	532.13
43.3967	536.64
43.4111	544.16
43.4255	528.86
43.4400	506.57
43.4544	518.77
43.4689	524.29
43.4833	497.03
43.4977	503.01
43.5122	517.03
43.5266	510.55
43.5411	540.58
43.5555	527.64
43.5699	541.15
43.5844	503.65
43.5988	520.94
43.6133	525.34
43.6277	534.10
43.6421	548.42
43.6566	568.49
43.6710	517.12
43.6855	517.85
43.6999	545.91
43.7143	574.41
43.7288	567.46
43.7432	590.65
43.7577	623.84
43.7721	633.30
43.7865	654.94
43.8010	648.79
43.8154	667.94
43.8299	667.68
43.8443	653.12
43.8587	630.83
43.8732	640.88
43.8876	602.97
43.9021	581.84
43.9165	596.82
43.9309	534.98
43.9454	574.44
43.9598	549.30
43.9743	558.60
43.9887	561.58
44.0031	567.99
44.0176	516.30
44.0320	514.85
44.0465	532.82
44.0609	524.93
44.0753	515.92
44.0898	498.08
44.1042	511.41
44.1187	511.71
44.1331	515.57
44.1475	518.02
44.1620	522.52
44.1764	518.05
44.1909	512.38
44.2053	484.01
44.2197	517.04
44.2342	527.62
44.2486	526.97
44.2631	525.72
44.2775	498.11
44.2919	546.56
44.3064	527.82
44.3208	526.55
44.3353	513.55
44.3497	537.87
44.3641	543.93
44.3786	536.53
44.3930	539.80
44.4075	546.21
44.4219	602.17
44.4363	591.82
44.4508	565.28
44.4652	593.90
44.4797	616.22
44.4941	609.37
44.5085	602.74
44.5230	558.91
44.5374	581.66
44.5519	604.57
44.5663	583.38
44.5807	567.10
44.5952	573.65
44.6096	581.93
44.6241	562.03
44.6385	582.17
44.6529	625.14
44.6674	585.69
44.6818	589.14
44.6963	635.66
44.7107	651.11
44.7251	642.95
44.7396	768.59
44.7540	830.26
44.7685	824.87
44.7829	863.20
44.7973	840.23
44.8118	887.24
44.8262	797.52
44.8407	732.28
44.8551	735.49
44.8695	771.45
44.8840	756.23
44.8984	759.63
44.9129	772.31
44.9273	678.14
44.9417	612.64
44.9562	640.63
44.9706	568.70
44.9851	543.12
44.9995	532.71
45.0139	553.00
45.0284	504.08
45.0428	526.44
45.0573	549.12
45.0717	515.41
45.0861	546.22
45.1006	520.49
45.1150	505.85
45.1295	542.09
45.1439	522.56
45.1583	534.22
45.1728	531.64
45.1872	521.93
45.2017	542.06
45.2161	540.73
45.2305	521.78
45.2450	515.75
45.2594	497.90
45.2739	569.14
45.2883	520.49
45.3028	532.50
45.3172	521.73
45.3316	513.43
45.3461	542.89
45.3605	492.42
45.3750	521.71
45.3894	485.11
45.4038	484.78
45.4183	474.73
45.4327	464.10
45.4472	499.15
45.4616	513.60
45.4760	464.27
45.4905	513.72
45.5049	503.05
45.5194	481.30
45.5338	524.63
45.5482	509.89
45.5627	532.77
45.5771	496.67
45.5916	508.61
45.6060	500.34
45.6204	495.11
45.6349	492.71
45.6493	510.36
45.6638	478.50
45.6782	507.26
45.6926	488.13
45.7071	526.77
45.7215	537.35
45.7360	516.24
45.7504	484.42
45.7648	503.80
45.7793	515.45
45.7937	493.60
45.8082	475.51
45.8226	534.09
45.8370	497.10
45.8515	512.57
45.8659	517.58
45.8804	502.49
45.8948	519.89
45.9092	508.75
45.9237	491.87
45.9381	465.98
45.9526	499.58
45.9670	505.63
45.9814	496.43
45.9959	466.64
46.0103	461.43
46.0248	487.91
46.0392	502.07
46.0536	507.02
46.0681	508.72
46.0825	524.74
46.0970	529.02
46.1114	479.25
46.1258	515.98
46.1403	464.43
46.1547	483.44
46.1692	513.33
46.1836	488.85
46.1980	461.32
46.2125	517.26
46.2269	529.65
46.2414	512.89
46.2558	490.98
46.2702	508.28
46.2847	514.12
46.2991	487.50
46.3136	507.89
46.3280	485.07
46.3424	502.74
46.3569	523.85
46.3713	507.78
46.3858	467.40
46.4002	495.22
46.4146	470.82
46.4291	496.71
46.4435	475.81
46.4580	486.15
46.4724	517.09
46.4868	515.03
46.5013	506.52
46.5157	499.49
46.5302	488.11
46.5446	484.53
46.5590	504.91
46.5735	493.11
46.5879	497.06
46.6024	488.16
46.6168	507.06
46.6312	501.75
46.6457	525.19
46.6601	509.45
46.6746	506.67
46.6890	483.78
46.7034	526.17
46.7179	535.43
46.7323	507.82
46.7468	496.02
46.7612	485.87
46.7756	522.32
46.7901	523.77
46.8045	532.89
46.8190	488.98
46.8334	512.42
46.8478	483.70
46.8623	513.13
46.8767	518.63
46.8912	530.39
46.9056	523.67
46.9200	496.57
46.9345	506.22
46.9489	509.94
46.9634	526.04
46.9778	533.00
46.9922	515.22
47.0067	498.54
47.0211	545.64
47.0356	525.75
47.0500	523.97
47.0644	524.68
47.0789	509.62
47.0933	524.31
47.1078	546.01
47.1222	535.61
47.1366	506.31
47.1511	476.99
47.1655	506.02
47.1800	491.50
47.1944	478.91
47.2088	502.44
47.2233	509.86
47.2377	501.24
47.2522	482.32
47.2666	476.21
47.2810	515.43
47.2955	487.42
47.3099	518.07
47.3244	498.59
47.3388	493.53
47.3532	493.36
47.3677	498.25
47.3821	469.20
47.3966	473.78
47.4110	479.56
47.4254	520.21
47.4399	534.87
47.4543	493.64
47.4688	513.61
47.4832	520.55
47.4976	507.36
47.5121	528.92
47.5265	505.30
47.5410	491.99
47.5554	487.94
47.5698	508.26
47.5843	508.00
47.5987	496.97
47.6132	473.01
47.6276	497.45
47.6420	504.17
47.6565	514.57
47.6709	518.84
47.6854	503.21
47.6998	495.74
47.7142	531.50
47.7287	533.52
47.7431	508.74
47.7576	490.01
47.7720	506.18
47.7864	523.32
47.8009	523.66
47.8153	489.79
47.8298	499.19
47.8442	488.10
47.8586	489.77
47.8731	543.77
47.8875	528.85
47.9020	520.14
47.9164	549.90
47.9308	544.10
47.9453	518.48
47.9597	496.82
47.9742	467.38
47.9886	461.89
48.0030	497.03
48.0175	526.93
48.0319	501.90
48.0464	524.19
48.0608	532.15
48.0752	504.62
48.0897	554.02
48.1041	471.41
48.1186	483.11
48.1330	506.61
48.1474	491.72
48.1619	517.26
48.1763	527.78
48.1908	484.66
48.2052	517.97
48.2196	513.58
48.2341	513.68
48.2485	527.10
48.2630	529.88
48.2774	512.72
48.2918	532.67
48.3063	512.07
48.3207	529.33
48.3352	508.49
48.3496	523.49
48.3640	508.50
48.3785	514.39
48.3929	499.44
48.4074	485.02
48.4218	534.15
48.4362	519.81
48.4507	504.18
48.4651	493.09
48.4796	511.75
48.4940	496.14
48.5084	501.10
48.5229	507.30
48.5373	525.70
48.5518	544.71
48.5662	517.89
48.5806	523.08
48.5951	518.26
48.6095	498.21
48.6240	504.01
48.6384	508.61
48.6528	520.37
48.6673	534.77
48.6817	517.81
48.6962	548.01
48.7106	531.04
48.7250	467.58
48.7395	485.51
48.7539	543.44
48.7684	508.53
48.7828	532.17
48.7972	536.99
48.8117	557.64
48.8261	516.12
48.8406	516.32
48.8550	553.81
48.8694	560.10
48.8839	548.37
48.8983	546.43
48.9128	530.08
48.9272	550.08
48.9416	536.95
48.9561	565.65
48.9705	582.21
48.9850	586.40
48.9994	571.05
49.0139	591.32
49.0283	543.63
49.0427	621.37
49.0572	613.29
49.0716	637.99
49.0861	641.20
49.1005	658.58
49.1149	674.31
49.1294	732.75
49.1438	725.26
49.1583	791.36
49.1727	835.48
49.1871	830.46
49.2016	910.04
49.2160	948.30
49.2305	1002.17
49.2449	1096.69
49.2593	1170.15
49.2738	1307.89
49.2882	1395.00
49.3027	1496.63
49.3171	1563.45
49.3315	1609.42
49.3460	1703.57
49.3604	1786.64
49.3749	1808.74
49.3893	1765.47
49.4037	1704.74
49.4182	1673.92
49.4326	1717.11
49.4471	1625.43
49.4615	1590.34
49.4759	1569.56
49.4904	1485.57
49.5048	1432.07
49.5193	1336.98
49.5337	1318.91
49.5481	1249.70
49.5626	1149.13
49.5770	1088.47
49.5915	984.00
49.6059	960.63
49.6203	834.23
49.6348	799.41
49.6492	747.79
49.6637	729.28
49.6781	742.72
49.6925	697.68
49.7070	694.28
49.7214	660.40
49.7359	585.44
49.7503	604.20
49.7647	612.23
49.7792	578.63
49.7936	586.44
49.8081	562.66
49.8225	627.12
49.8369	584.44
49.8514	539.98
49.8658	550.01
49.8803	551.45
49.8947	561.73
49.9091	611.20
49.9236	580.70
49.9380	542.25
49.9525	559.47
49.9669	549.86
49.9813	562.47
49.9958	534.28
50.0102	516.72
50.0247	530.24
50.0391	536.70
50.0535	531.29
50.0680	540.50
50.0824	513.06
50.0969	550.51
50.1113	521.40
50.1257	514.57
50.1402	518.44
50.1546	528.38
50.1691	534.95
50.1835	536.91
50.1979	504.86
50.2124	525.54
50.2268	514.69
50.2413	527.98
50.2557	538.65
50.2701	488.71
50.2846	524.73
50.2990	538.28
50.3135	531.58
50.3279	523.38
50.3423	526.90
50.3568	548.00
50.3712	540.26
50.3857	490.54
50.4001	480.45
50.4145	505.72
50.4290	537.29
50.4434	505.87
50.4579	498.15
50.4723	528.28
50.4867	546.26
50.5012	502.11
50.5156	511.44
50.5301	488.74
50.5445	488.82
50.5589	510.04
50.5734	540.39
50.5878	504.95
50.6023	496.69
50.6167	508.17
50.6311	482.46
50.6456	478.98
50.6600	479.35
50.6745	510.67
50.6889	505.12
50.7033	511.40
50.7178	487.58
50.7322	495.56
50.7467	524.19
50.7611	486.18
50.7755	476.61
50.7900	505.66
50.8044	524.28
50.8189	523.56
50.8333	554.95
50.8477	509.42
50.8622	520.12
50.8766	537.73
50.8911	513.03
50.9055	535.70
50.9199	499.71
50.9344	498.98
50.9488	481.84
50.9633	498.03
50.9777	527.59
50.9921	510.20
51.0066	495.55
51.0210	516.61
51.0355	481.07
51.0499	496.27
51.0643	521.27
51.0788	512.00
51.0932	529.82
51.1077	505.49
51.1221	514.05
51.1365	512.79
51.1510	514.74
51.1654	541.16
51.1799	529.49
51.1943	505.05
51.2087	505.33
51.2232	498.17
51.2376	519.29
51.2521	512.24
51.2665	510.38
51.2809	512.88
51.2954	520.35
51.3098	503.80
51.3243	506.79
51.3387	534.39
51.3531	498.59
51.3676	519.30
51.3820	501.94
51.3965	507.77
51.4109	498.33
51.4253	515.04
51.4398	508.60
51.4542	502.19
51.4687	554.54
51.4831	499.26
51.4975	502.22
51.5120	513.28
51.5264	511.73
51.5409	521.22
51.5553	499.71
51.5697	510.42
51.5842	496.60
51.5986	477.03
51.6131	493.48
51.6275	522.18
51.6419	516.70
51.6564	517.49
51.6708	505.50
51.6853	500.52
51.6997	514.61
51.7141	546.13
51.7286	525.79
51.7430	546.05
51.7575	523.44
51.7719	513.04
51.7863	502.89
51.8008	533.06
51.8152	553.49
51.8297	513.15
51.8441	521.23
51.8585	505.19
51.8730	534.29
51.8874	493.63
51.9019	484.10
51.9163	517.98
51.9307	509.48
51.9452	493.75
51.9596	531.46
51.9741	506.94
51.9885	492.79
52.0029	534.36
52.0174	512.32
52.0318	549.72
52.0463	487.59
52.0607	515.79
52.0751	486.09
52.0896	520.64
52.1040	482.50
52.1185	515.63
52.1329	485.81
52.1473	473.88
52.1618	515.50
52.1762	495.52
52.1907	525.12
52.2051	522.49
52.2195	544.54
52.2340	524.05
52.2484	513.85
52.2629	517.74
52.2773	494.16
52.2917	489.01
52.3062	557.42
52.3206	517.21
52.3351	511.19
52.3495	485.68
52.3639	515.89
52.3784	504.43
52.3928	535.83
52.4073	498.22
52.4217	521.82
52.4361	524.02
52.4506	503.56
52.4650	535.23
52.4795	543.37
52.4939	510.79
52.5083	499.48
52.5228	499.85
52.5372	533.98
52.5517	510.01
52.5661	503.47
52.5805	535.67
52.5950	519.27
52.6094	566.04
52.6239	530.29
52.6383	519.48
52.6527	490.03
52.6672	482.67
52.6816	465.83
52.6961	506.10
52.7105	523.29
52.7250	507.03
52.7394	519.51
52.7538	527.10
52.7683	505.83
52.7827	549.91
52.7972	534.42
52.8116	531.22
52.8260	514.06
52.8405	504.62
52.8549	523.13
52.8694	520.29
52.8838	513.88
52.8982	545.22
52.9127	522.07
52.9271	504.12
52.9416	570.16
52.9560	537.36
52.9704	522.29
52.9849	517.28
52.9993	514.22
53.0138	526.25
53.0282	511.81
53.0426	533.88
53.0571	540.49
53.0715	518.12
53.0860	510.80
53.1004	508.10
53.1148	503.96
53.1293	543.66
53.1437	512.41
53.1582	547.58
53.1726	565.41
53.1870	526.18
53.2015	537.94
53.2159	555.23
53.2304	525.60
53.2448	517.88
53.2592	514.65
53.2737	519.80
53.2881	497.07
53.3026	530.13
53.3170	514.17
53.3314	514.05
53.3459	522.34
53.3603	538.72
53.3748	490.47
53.3892	469.93
53.4036	495.83
53.4181	508.72
53.4325	491.29
53.4470	497.99
53.4614	529.11
53.4758	531.75
53.4903	568.19
53.5047	546.97
53.5192	512.83
53.5336	506.06
53.5480	496.36
53.5625	512.23
53.5769	530.77
53.5914	517.30
53.6058	551.49
53.6202	521.55
53.6347	541.54
53.6491	540.21
53.6636	501.15
53.6780	528.45
53.6924	475.36
53.7069	519.21
53.7213	518.81
53.7358	494.00
53.7502	500.68
53.7646	506.46
53.7791	503.74
53.7935	493.48
53.8080	522.09
53.8224	520.86
53.8368	492.91
53.8513	489.84
53.8657	536.10
53.8802	525.90
53.8946	535.14
53.9090	563.81
53.9235	519.95
53.9379	526.48
53.9524	499.53
53.9668	503.54
53.9812	520.17
53.9957	499.31
54.0101	527.51
54.0246	525.13
54.0390	550.23
54.0534	513.09
54.0679	521.24
54.0823	525.86
54.0968	534.75
54.1112	543.63
54.1256	557.79
54.1401	498.42
54.1545	529.53
54.1690	543.15
54.1834	523.28
54.1978	516.02
54.2123	555.55
54.2267	572.13
54.2412	550.46
54.2556	545.48
54.2700	563.26
54.2845	549.22
54.2989	584.08
54.3134	579.47
54.3278	604.57
54.3422	617.28
54.3567	629.01
54.3711	589.73
54.3856	627.27
54.4000	596.75
54.4144	595.12
54.4289	620.81
54.4433	581.67
54.4578	568.00
54.4722	579.69
54.4866	600.19
54.5011	597.19
54.5155	619.30
54.5300	599.47
54.5444	564.43
54.5588	567.87
54.5733	556.59
54.5877	565.56
54.6022	564.71
54.6166	547.89
54.6310	510.47
54.6455	528.09
54.6599	519.05
54.6744	516.12
54.6888	500.20
54.7032	521.19
54.7177	523.96
54.7321	521.80
54.7466	524.78
54.7610	525.11
54.7754	532.94
54.7899	525.67
54.8043	531.29
54.8188	533.35
54.8332	525.30
54.8476	550.89
54.8621	534.76
54.8765	538.96
54.8910	520.74
54.9054	525.66
54.9198	520.50
54.9343	541.93
54.9487	535.25
54.9632	485.99
54.9776	492.56
54.9920	527.32
55.0065	509.03
55.0209	521.63
55.0354	527.75
55.0498	506.08
55.0642	516.55
55.0787	490.92
55.0931	530.54
55.1076	515.18
55.1220	525.33
55.1364	523.18
55.1509	499.72
55.1653	489.30
55.1798	524.57
55.1942	503.11
55.2086	543.81
55.2231	546.75
55.2375	530.77
55.2520	490.82
55.2664	511.94
55.2808	545.88
55.2953	508.69
55.3097	535.22
55.3242	521.79
55.3386	498.77
55.3530	528.91
55.3675	514.66
55.3819	505.50
55.3964	497.19
55.4108	506.99
55.4252	517.41
55.4397	521.86
55.4541	508.35
55.4686	510.66
55.4830	499.63
55.4974	523.60
55.5119	560.45
55.5263	548.03
55.5408	527.82
55.5552	544.42
55.5696	521.21
55.5841	520.07
55.5985	553.03
55.6130	546.54
55.6274	524.33
55.6418	524.27
55.6563	526.13
55.6707	530.78
55.6852	520.61
55.6996	555.55
55.7140	554.13
55.7285	524.40
55.7429	557.49
55.7574	538.10
55.7718	528.27
55.7862	510.03
55.8007	535.64
55.8151	552.34
55.8296	523.58
55.8440	555.73
55.8584	556.43
55.8729	533.28
55.8873	512.43
55.9018	539.48
55.9162	518.47
55.9306	498.97
55.9451	517.28
55.9595	530.74
55.9740	512.17
55.9884	565.66
56.0028	540.68
56.0173	507.75
56.0317	531.25
56.0462	506.23
56.0606	488.33
56.0750	502.49
56.0895	511.45
56.1039	495.55
56.1184	521.39
56.1328	540.08
56.1472	479.07
56.1617	485.67
56.1761	500.12
56.1906	493.78
56.2050	501.16
56.2194	525.97
56.2339	494.57
56.2483	515.76
56.2628	527.34
56.2772	542.91
56.2916	505.26
56.3061	530.86
56.3205	559.35
56.3350	564.00
56.3494	524.66
56.3639	504.12
56.3783	505.30
56.3927	502.15
56.4072	522.69
56.4216	536.90
56.4361	527.23
56.4505	526.25
56.4649	510.62
56.4794	548.57
56.4938	562.53
56.5083	518.12
56.5227	535.40
56.5371	481.59
56.5516	487.18
56.5660	493.93
56.5805	501.63
56.5949	513.22
56.6093	548.19
56.6238	502.69
56.6382	506.30
56.6527	572.89
56.6671	529.43
56.6815	523.60
56.6960	520.39
56.7104	506.47
56.7249	513.48
56.7393	514.86
56.7537	500.74
56.7682	500.90
56.7826	560.50
56.7971	551.94
56.8115	509.68
56.8259	549.59
56.8404	524.84
56.8548	518.44
56.8693	534.78
56.8837	483.97
56.8981	567.49
56.9126	537.82
56.9270	521.62
56.9415	541.45
56.9559	516.21
56.9703	498.50
56.9848	496.77
56.9992	495.41
57.0137	494.56
57.0281	517.25
57.0425	532.85
57.0570	542.68
57.0714	537.41
57.0859	581.53
57.1003	518.88
57.1147	507.74
57.1292	535.31
57.1436	538.31
57.1581	530.40
57.1725	519.43
57.1869	536.55
57.2014	499.33
57.2158	545.33
57.2303	529.99
57.2447	545.10
57.2591	561.05
57.2736	526.69
57.2880	522.50
57.3025	544.98
57.3169	531.13
57.3313	518.32
57.3458	498.58
57.3602	520.08
57.3747	538.79
57.3891	531.36
57.4035	500.03
57.4180	540.47
57.4324	529.14
57.4469	496.92
57.4613	480.41
57.4757	519.09
57.4902	551.55
57.5046	528.12
57.5191	525.27
57.5335	540.21
57.5479	538.55
57.5624	539.52
57.5768	546.41
57.5913	499.87
57.6057	542.46
57.6201	525.94
57.6346	520.10
57.6490	549.36
57.6635	525.10
57.6779	540.40
57.6923	549.25
57.7068	528.40
57.7212	571.60
57.7357	570.53
57.7501	563.24
57.7645	548.21
57.7790	580.98
57.7934	572.24
57.8079	562.73
57.8223	576.31
57.8367	583.31
57.8512	595.39
57.8656	642.53
57.8801	634.44
57.8945	693.71
57.9089	712.43
57.9234	686.17
57.9378	686.28
57.9523	702.07
57.9667	713.33
57.9811	749.73
57.9956	739.82
58.0100	688.14
58.0245	664.08
58.0389	690.24
58.0533	689.45
58.0678	667.38
58.0822	661.85
58.0967	680.14
58.1111	665.73
58.1255	685.47
58.1400	654.08
58.1544	643.24
58.1689	630.89
58.1833	577.12
58.1977	579.61
58.2122	594.60
58.2266	582.70
58.2411	597.38
58.2555	587.76
58.2699	599.18
58.2844	570.59
58.2988	554.26
58.3133	599.01
58.3277	588.89
58.3421	555.57
58.3566	540.26
58.3710	549.59
58.3855	537.43
58.3999	531.42
58.4143	524.84
58.4288	551.53
58.4432	519.86
58.4577	509.77
58.4721	562.43
58.4865	572.93
58.5010	574.06
58.5154	527.38
58.5299	513.99
58.5443	510.63
58.5587	504.42
58.5732	514.81
58.5876	512.23
58.6021	545.05
58.6165	531.28
58.6309	541.67
58.6454	546.86
58.6598	546.58
58.6743	509.20
58.6887	524.54
58.7031	545.82
58.7176	539.10
58.7320	511.34
58.7465	539.93
58.7609	536.86
58.7753	526.94
58.7898	525.21
58.8042	534.76
58.8187	526.14
58.8331	557.37
58.8475	553.75
58.8620	539.11
58.8764	527.96
58.8909	541.61
58.9053	536.97
58.9197	525.88
58.9342	537.17
58.9486	569.56
58.9631	527.04
58.9775	550.38
58.9919	540.93
59.0064	534.66
59.0208	532.69
59.0353	529.26
59.0497	506.73
59.0641	511.71
59.0786	526.40
59.0930	511.35
59.1075	511.18
59.1219	536.90
59.1363	531.97
59.1508	543.65
59.1652	539.57
59.1797	553.90
59.1941	531.69
59.2085	516.73
59.2230	541.74
59.2374	543.63
59.2519	532.33
59.2663	539.51
59.2807	572.24
59.2952	583.44
59.3096	561.86
59.3241	569.81
59.3385	558.71
59.3529	557.46
59.3674	546.98
59.3818	555.78
59.3963	563.21
59.4107	548.42
59.4251	542.86
59.4396	536.50
59.4540	535.47
59.4685	526.63
59.4829	553.75
59.4973	599.82
59.5118	572.57
59.5262	575.27
59.5407	550.84
59.5551	536.90
59.5695	548.07
59.5840	531.04
59.5984	563.63
59.6129	531.75
59.6273	530.93
59.6417	534.74
59.6562	553.63
59.6706	538.90
59.6851	518.57
59.6995	553.78
59.7139	556.77
59.7284	516.54
59.7428	561.31
59.7573	517.96
59.7717	512.50
59.7861	555.30
59.8006	553.52
59.8150	565.29
59.8295	520.34
59.8439	521.87
59.8583	511.43
59.8728	535.09
59.8872	523.82
59.9017	557.96
59.9161	515.76
59.9305	504.48
59.9450	487.18
59.9594	517.86
59.9739	533.47
59.9883	516.66
60.0027	508.60
60.0172	567.54
60.0316	514.20
60.0461	496.66
60.0605	530.98
60.0750	511.90
60.0894	515.75
60.1038	535.26
60.1183	545.05
60.1327	547.15
60.1472	493.80
60.1616	510.68
60.1760	554.58
60.1905	538.32
60.2049	532.07
60.2194	557.52
60.2338	501.32
60.2482	535.04
60.2627	560.54
60.2771	517.15
60.2916	527.56
60.3060	546.50
60.3204	526.20
60.3349	538.08
60.3493	547.08
60.3638	519.26
60.3782	534.72
60.3926	557.86
60.4071	538.74
60.4215	560.45
60.4360	584.54
60.4504	559.98
60.4648	541.32
60.4793	562.02
60.4937	567.54
60.5082	556.55
60.5226	514.20
60.5370	549.61
60.5515	528.20
60.5659	535.13
60.5804	543.90
60.5948	547.78
60.6092	530.01
60.6237	543.59
60.6381	549.80
60.6526	518.35
60.6670	516.90
60.6814	493.94
60.6959	543.86
60.7103	551.32
60.7248	553.75
60.7392	536.89
60.7536	518.96
60.7681	530.22
60.7825	536.85
60.7970	587.27
60.8114	552.35
60.8258	537.74
60.8403	537.72
60.8547	521.35
60.8692	543.20
60.8836	567.15
60.8980	577.60
60.9125	611.13
60.9269	528.90
60.9414	546.05
60.9558	523.67
60.9702	546.72
60.9847	560.42
60.9991	541.84
61.0136	517.05
61.0280	556.10
61.0424	558.14
61.0569	549.93
61.0713	558.71
61.0858	543.53
61.1002	514.21
61.1146	568.40
61.1291	543.22
61.1435	513.37
61.1580	524.50
61.1724	535.25
61.1868	522.07
61.2013	552.05
61.2157	523.51
61.2302	552.63
61.2446	589.57
61.2590	550.96
61.2735	521.99
61.2879	567.75
61.3024	531.13
61.3168	521.19
61.3312	513.60
61.3457	508.75
61.3601	536.60
61.3746	529.95
61.3890	536.63
61.4034	485.98
61.4179	547.27
61.4323	585.94
61.4468	527.12
61.4612	548.51
61.4756	575.09
61.4901	562.15
61.5045	527.15
61.5190	530.13
61.5334	542.11
61.5478	545.03
61.5623	547.78
61.5767	561.57
61.5912	560.49
61.6056	554.12
61.6200	564.06
61.6345	572.46
61.6489	539.75
61.6634	537.71
61.6778	553.29
61.6922	555.45
61.7067	573.50
61.7211	550.10
61.7356	538.03
61.7500	556.18
61.7644	554.99
61.7789	572.63
61.7933	565.23
61.8078	532.38
61.8222	532.32
61.8366	526.02
61.8511	566.75
61.8655	563.48
61.8800	551.41
61.8944	551.33
61.9088	539.72
61.9233	568.12
61.9377	570.03
61.9522	584.89
61.9666	561.86
61.9810	577.74
61.9955	582.77
62.0099	578.57
62.0244	583.83
62.0388	583.12
62.0532	569.71
62.0677	543.69
62.0821	557.78
62.0966	565.72
62.1110	526.33
62.1254	556.46
62.1399	563.56
62.1543	535.29
62.1688	544.31
62.1832	566.55
62.1976	534.66
62.2121	526.36
62.2265	557.83
62.2410	539.09
62.2554	567.11
62.2698	571.54
62.2843	585.71
62.2987	577.71
62.3132	565.56
62.3276	565.26
62.3420	564.13
62.3565	551.15
62.3709	524.06
62.3854	524.07
62.3998	552.69
62.4142	559.01
62.4287	556.36
62.4431	514.48
62.4576	541.28
62.4720	568.93
62.4864	575.26
62.5009	527.85
62.5153	568.64
62.5298	554.55
62.5442	507.91
62.5586	569.12
62.5731	559.62
62.5875	576.25
62.6020	582.42
62.6164	572.58
62.6308	552.29
62.6453	528.37
62.6597	562.18
62.6742	542.53
62.6886	516.71
62.7030	547.17
62.7175	556.80
62.7319	544.56
62.7464	555.56
62.7608	532.11
62.7752	551.12
62.7897	550.21
62.8041	529.91
62.8186	534.85
62.8330	553.67
62.8474	540.06
62.8619	554.48
62.8763	553.88
62.8908	580.67
62.9052	582.68
62.9196	564.41
62.9341	545.44
62.9485	567.19
62.9630	575.84
62.9774	587.68
62.9918	579.09
63.0063	528.07
63.0207	557.74
63.0352	575.64
63.0496	546.04
63.0640	575.35
63.0785	588.57
63.0929	631.58
63.1074	571.68
63.1218	594.53
63.1362	546.01
63.1507	542.16
63.1651	575.77
63.1796	558.82
63.1940	571.26
63.2084	562.86
63.2229	565.52
63.2373	564.52
63.2518	557.45
63.2662	580.85
63.2806	595.29
63.2951	575.89
63.3095	570.85
63.3240	603.01
63.3384	578.46
63.3528	595.22
63.3673	602.57
63.3817	614.02
63.3962	567.71
63.4106	572.14
63.4250	636.88
63.4395	618.72
63.4539	606.64
63.4684	643.17
63.4828	622.68
63.4972	645.07
63.5117	616.91
63.5261	671.10
63.5406	673.05
63.5550	654.88
63.5694	725.18
63.5839	745.15
63.5983	752.05
63.6128	849.34
63.6272	961.53
63.6416	945.46
63.6561	956.26
63.6705	931.48
63.6850	894.15
63.6994	851.78
63.7138	842.24
63.7283	820.29
63.7427	815.95
63.7572	768.12
63.7716	756.99
63.7861	803.88
63.8005	751.03
63.8149	827.25
63.8294	786.96
63.8438	805.65
63.8583	809.66
63.8727	781.66
63.8871	767.73
63.9016	745.73
63.9160	708.19
63.9305	660.75
63.9449	699.00
63.9593	648.36
63.9738	610.29
63.9882	621.28
64.0027	622.60
64.0171	619.20
64.0315	637.97
64.0460	594.33
64.0604	564.68
64.0749	592.51
64.0893	611.00
64.1037	627.82
64.1182	658.14
64.1326	603.06
64.1471	600.46
64.1615	577.79
64.1759	602.44
64.1904	600.85
64.2048	592.97
64.2193	612.99
64.2337	608.12
64.2481	598.68
64.2626	607.28
64.2770	621.36
64.2915	574.21
64.3059	614.06
64.3203	626.54
64.3348	601.45
64.3492	607.14
64.3637	621.43
64.3781	607.95
64.3925	606.76
64.4070	623.76
64.4214	613.61
64.4359	611.59
64.4503	583.70
64.4647	621.31
64.4792	627.22
64.4936	605.47
64.5081	613.55
64.5225	632.11
64.5369	668.02
64.5514	603.59
64.5658	609.28
64.5803	612.62
64.5947	637.66
64.6091	617.90
64.6236	605.73
64.6380	655.27
64.6525	663.62
64.6669	686.19
64.6813	671.21
64.6958	671.81
64.7102	672.88
64.7247	702.01
64.7391	737.74
64.7535	705.66
64.7680	648.77
64.7824	701.25
64.7969	700.20
64.8113	750.73
64.8257	732.13
64.8402	746.28
64.8546	786.86
64.8691	839.38
64.8835	832.75
64.8979	846.39
64.9124	895.28
64.9268	875.21
64.9413	925.19
64.9557	976.51
64.9701	987.94
64.9846	1053.00
64.9990	1126.80
65.0135	1221.30
65.0279	1403.14
65.0423	1657.03
65.0568	1981.29
65.0712	2473.28
65.0857	3319.11
65.1001	4397.38
65.1145	5928.82
65.1290	7850.25
65.1434	9352.39
65.1579	11004.17
65.1723	11990.76
65.1867	11351.20
65.2012	10202.30
65.2156	8611.49
65.2301	6847.80
65.2445	5481.83
65.2589	4645.59
65.2734	4292.43
65.2878	4491.16
65.3023	4974.63
65.3167	5737.81
65.3311	6409.31
65.3456	7027.79
65.3600	7052.16
65.3745	6523.44
65.3889	5663.48
65.4033	4647.01
65.4178	3743.94
65.4322	2751.46
65.4467	2139.45
65.4611	1769.61
65.4755	1520.71
65.4900	1301.64
65.5044	1194.35
65.5189	1082.16
65.5333	1029.46
65.5477	929.29
65.5622	809.73
65.5766	854.47
65.5911	845.56
65.6055	820.02
65.6199	786.33
65.6344	773.40
65.6488	744.50
65.6633	774.37
65.6777	743.31
65.6921	693.52
65.7066	692.59
65.7210	668.62
65.7355	717.98
65.7499	708.79
65.7643	648.52
65.7788	699.82
65.7932	675.39
65.8077	634.19
65.8221	653.59
65.8365	640.15
65.8510	642.64
65.8654	662.82
65.8799	629.46
65.8943	664.46
65.9087	640.58
65.9232	667.43
65.9376	663.19
65.9521	637.57
65.9665	663.98
65.9809	653.03
65.9954	639.22
66.0098	624.88
66.0243	624.41
66.0387	635.49
66.0531	622.36
66.0676	637.04
66.0820	610.80
66.0965	632.17
66.1109	645.06
66.1253	652.31
66.1398	599.36
66.1542	594.04
66.1687	637.65
66.1831	629.17
66.1975	639.85
66.2120	610.08
66.2264	593.90
66.2409	605.51
66.2553	611.55
66.2697	623.17
66.2842	609.50
66.2986	614.24
66.3131	593.62
66.3275	574.32
66.3419	579.32
66.3564	625.59
66.3708	594.63
66.3853	594.35
66.3997	591.15
66.4141	599.87
66.4286	640.42
66.4430	620.29
66.4575	606.39
66.4719	598.65
66.4863	592.85
66.5008	594.25
66.5152	589.49
66.5297	573.68
66.5441	587.30
66.5585	587.19
66.5730	594.21
66.5874	599.28
66.6019	591.95
66.6163	615.67
66.6307	567.32
66.6452	608.54
66.6596	582.31
66.6741	626.50
66.6885	616.54
66.7029	626.48
66.7174	602.27
66.7318	597.28
66.7463	586.56
66.7607	581.41
66.7751	613.13
66.7896	619.74
66.8040	596.83
66.8185	587.09
66.8329	605.47
66.8473	578.02
66.8618	553.69
66.8762	575.18
66.8907	594.92
66.9051	642.92
66.9195	599.75
66.9340	581.47
66.9484	594.81
66.9629	577.55
66.9773	580.99
66.9917	585.25
67.0062	578.99
67.0206	579.00
67.0351	567.63
67.0495	560.03
67.0639	597.88
67.0784	605.96
67.0928	608.57
67.1073	559.54
67.1217	574.96
67.1361	595.78
67.1506	581.87
67.1650	598.99
67.1795	577.52
67.1939	530.72
67.2083	583.78
67.2228	578.57
67.2372	609.03
67.2517	623.37
67.2661	603.02
67.2805	582.80
67.2950	562.40
67.3094	559.57
67.3239	576.29
67.3383	565.68
67.3527	585.15
67.3672	576.23
67.3816	591.29
67.3961	600.99
67.4105	559.67
67.4250	596.69
67.4394	576.74
67.4538	558.13
67.4683	593.89
67.4827	581.90
67.4972	556.68
67.5116	591.45
67.5260	596.77
67.5405	597.44
67.5549	577.59
67.5694	565.56
67.5838	547.65
67.5982	594.69
67.6127	610.41
67.6271	587.88
67.6416	589.56
67.6560	572.85
67.6704	576.02
67.6849	575.80
67.6993	582.15
67.7138	585.73
67.7282	603.33
67.7426	562.10
67.7571	564.58
67.7715	591.37
67.7860	608.90
67.8004	594.66
67.8148	572.43
67.8293	566.46
67.8437	568.30
67.8582	613.42
67.8726	592.65
67.8870	581.95
67.9015	595.21
67.9159	568.79
67.9304	603.22
67.9448	585.15
67.9592	572.80
67.9737	550.19
67.9881	558.35
68.0026	585.13
68.0170	566.69
68.0314	576.77
68.0459	599.39
68.0603	593.59
68.0748	558.22
68.0892	605.70
68.1036	597.73
68.1181	585.05
68.1325	580.38
68.1470	563.28
68.1614	569.67
68.1758	605.93
68.1903	555.11
68.2047	535.90
68.2192	559.22
68.2336	597.44
68.2480	555.68
68.2625	563.64
68.2769	529.50
68.2914	559.47
68.3058	573.23
68.3202	537.83
68.3347	580.06
68.3491	567.81
68.3636	614.19
68.3780	587.02
68.3924	538.65
68.4069	585.03
68.4213	573.10
68.4358	625.26
68.4502	556.67
68.4646	526.21
68.4791	623.30
68.4935	621.10
68.5080	595.79
68.5224	544.57
68.5368	570.64
68.5513	538.11
68.5657	564.22
68.5802	605.25
68.5946	542.19
68.6090	579.61
68.6235	568.25
68.6379	607.49
68.6524	609.11
68.6668	567.99
68.6812	564.42
68.6957	581.94
68.7101	607.81
68.7246	608.91
68.7390	617.31
68.7534	613.62
68.7679	602.05
68.7823	574.68
68.7968	565.24
68.8112	558.23
68.8256	577.42
68.8401	581.98
68.8545	575.50
68.8690	591.99
68.8834	604.56
68.8978	592.84
68.9123	566.08
68.9267	597.98
68.9412	601.33
68.9556	548.86
68.9700	578.35
68.9845	545.61
68.9989	538.82
69.0134	585.31
69.0278	554.93
69.0422	549.61
69.0567	596.66
69.0711	571.64
69.0856	583.20
69.1000	577.46
69.1144	591.58
69.1289	566.49
69.1433	518.69
69.1578	564.94
69.1722	587.66
69.1866	612.09
69.2011	542.81
69.2155	600.37
69.2300	557.36
69.2444	557.51
69.2588	571.22
69.2733	552.51
69.2877	598.12
69.3022	558.73
69.3166	587.91
69.3310	558.63
69.3455	532.77
69.3599	589.32
69.3744	609.69
69.3888	614.86
69.4032	586.45
69.4177	571.31
69.4321	605.99
69.4466	575.02
69.4610	591.15
69.4754	629.37
69.4899	618.66
69.5043	551.19
69.5188	626.54
69.5332	618.57
69.5476	584.70
69.5621	589.53
69.5765	585.53
69.5910	611.04
69.6054	618.70
69.6198	618.45
69.6343	587.35
69.6487	544.97
69.6632	598.10
69.6776	598.16
69.6920	578.05
69.7065	588.13
69.7209	532.15
69.7354	577.35
69.7498	579.39
69.7642	567.04
69.7787	581.19
69.7931	597.97
69.8076	604.64
69.8220	581.31
69.8364	585.21
69.8509	629.83
69.8653	607.52
69.8798	573.17
69.8942	608.86
69.9086	592.49
69.9231	578.29
69.9375	597.59
69.9520	561.91
69.9664	580.76
69.9808	570.48
69.9953	585.14
70.0097	554.60
70.0242	585.74
70.0386	495.83
70.0530	567.48
70.0675	587.90
70.0819	574.73
70.0964	589.02
70.1108	563.46
70.1252	598.18
70.1397	568.76
70.1541	542.96
70.1686	595.79
70.1830	567.30
70.1974	564.07
70.2119	606.34
70.2263	506.79
70.2408	564.19
70.2552	569.73
70.2696	552.55
70.2841	532.55
70.2985	578.85
70.3130	566.78
70.3274	587.83
70.3418	598.91
70.3563	597.64
70.3707	600.14
70.3852	568.12
70.3996	602.39
70.4140	599.95
70.4285	642.01
70.4429	608.09
70.4574	610.86
70.4718	543.73
70.4862	549.36
70.5007	614.73
70.5151	568.82
70.5296	566.27
70.5440	555.17
70.5584	596.68
70.5729	584.85
70.5873	514.14
70.6018	556.39
70.6162	589.01
70.6306	622.71
70.6451	614.86
70.6595	616.83
70.6740	580.28
70.6884	563.07
70.7028	591.99
70.7173	580.31
70.7317	530.96
70.7462	566.78
70.7606	632.87
70.7750	596.60
70.7895	566.74
70.8039	576.77
70.8184	576.05
70.8328	606.12
70.8472	577.21
70.8617	561.05
70.8761	505.99
70.8906	571.57
70.9050	597.35
70.9194	605.54
70.9339	573.69
70.9483	574.26
70.9628	624.92
70.9772	606.05
70.9916	526.09
71.0061	522.87
71.0205	531.77
71.0350	554.41
71.0494	615.07
71.0638	595.06
71.0783	629.27
71.0927	633.41
71.1072	614.50
71.1216	602.39
71.1361	559.39
71.1505	538.59
71.1649	582.15
71.1794	675.47
71.1938	678.23
71.2083	581.48
71.2227	524.18
71.2371	534.89
71.2516	552.11
71.2660	570.22
71.2805	590.09
71.2949	601.69
71.3093	586.95
71.3238	545.30
71.3382	576.71
71.3527	548.24
71.3671	529.27
71.3815	575.61
71.3960	596.69
71.4104	541.08
71.4249	576.96
71.4393	567.86
71.4537	572.22
71.4682	599.97
71.4826	586.76
71.4971	554.06
71.5115	527.19
71.5259	519.88
71.5404	541.25
71.5548	575.47
71.5693	585.47
71.5837	569.84
71.5981	572.78
71.6126	577.24
71.6270	546.67
71.6415	579.95
71.6559	587.95
71.6703	592.82
71.6848	575.51
71.6992	581.35
71.7137	594.81
71.7281	557.43
71.7425	555.64
71.7570	571.00
71.7714	567.37
71.7859	569.25
71.8003	533.13
71.8147	583.66
71.8292	590.58
71.8436	608.00
71.8581	603.31
71.8725	590.57
71.8869	581.46
71.9014	581.28
71.9158	579.61
71.9303	605.37
71.9447	634.67
71.9591	628.01
71.9736	568.64
71.9880	563.48
72.0025	532.39
72.0169	586.55
72.0313	666.99
72.0458	654.29
72.0602	572.65
72.0747	583.99
72.0891	633.08
72.1035	638.82
72.1180	560.80
72.1324	551.49
72.1469	588.43
72.1613	563.03
72.1757	572.84
72.1902	595.17
72.2046	579.89
72.2191	569.82
72.2335	560.70
72.2479	564.12
72.2624	600.24
72.2768	620.03
72.2913	586.19
72.3057	621.96
72.3201	614.79
72.3346	702.97
72.3490	630.27
72.3635	544.93
72.3779	594.71
72.3923	605.17
72.4068	634.20
72.4212	694.32
72.4357	720.70
72.4501	636.06
72.4645	600.11
72.4790	670.74
72.4934	653.88
72.5079	602.57
72.5223	554.88
72.5367	537.78
72.5512	615.74
72.5656	617.12
72.5801	555.32
72.5945	506.79
72.6089	470.50
72.6234	510.03
72.6378	569.52
72.6523	577.25
72.6667	568.26
72.6811	554.08
72.6956	591.06
72.7100	606.03
72.7245	564.84
72.7389	632.96
72.7533	564.85
72.7678	593.80
72.7822	646.83
72.7967	628.19
72.8111	562.73
72.8255	577.22
72.8400	570.62
72.8544	529.22
72.8689	531.82
72.8833	608.85