2022.09.19 19:37:17
Îáðàçåö: ß÷åéêà LCoV 16-09-2022
Lambda1 = 1.54060
Lambda2 = 1.54439
Lambdam = 1.54186
R = 0.497
2Theta	I

line¹ 0 ;repeat¹ 0
22.1120	532.47
22.1264	562.41
22.1409	552.21
22.1553	496.47
22.1697	543.58
22.1842	590.86
22.1986	527.93
22.2131	566.65
22.2275	615.34
22.2419	561.30
22.2564	580.45
22.2708	571.27
22.2853	620.01
22.2997	672.80
22.3141	580.38
22.3286	514.17
22.3430	564.39
22.3575	605.78
22.3719	616.09
22.3863	575.84
22.4008	572.45
22.4152	633.36
22.4297	613.05
22.4441	636.82
22.4585	618.81
22.4730	591.56
22.4874	625.69
22.5019	621.54
22.5163	602.57
22.5307	628.28
22.5452	539.09
22.5596	660.36
22.5741	620.23
22.5885	655.92
22.6029	631.97
22.6174	528.17
22.6318	588.03
22.6463	648.75
22.6607	582.35
22.6751	570.08
22.6896	541.31
22.7040	563.95
22.7185	489.04
22.7329	538.82
22.7473	620.73
22.7618	583.63
22.7762	583.95
22.7907	568.35
22.8051	476.48
22.8195	572.49
22.8340	600.74
22.8484	585.51
22.8629	646.78
22.8773	577.91
22.8917	556.42
22.9062	553.52
22.9206	496.05
22.9351	478.68
22.9495	524.70
22.9639	559.10
22.9784	602.33
22.9928	588.61
23.0073	534.12
23.0217	601.55
23.0361	543.37
23.0506	571.48
23.0650	588.47
23.0795	482.90
23.0939	590.98
23.1083	553.21
23.1228	584.73
23.1372	564.35
23.1517	533.03
23.1661	544.53
23.1806	592.37
23.1950	549.43
23.2094	541.42
23.2239	545.29
23.2383	572.02
23.2528	556.56
23.2672	507.76
23.2816	645.73
23.2961	527.53
23.3105	534.55
23.3250	510.08
23.3394	564.88
23.3538	543.16
23.3683	554.70
23.3827	478.77
23.3972	493.68
23.4116	542.42
23.4260	582.73
23.4405	547.76
23.4549	526.69
23.4694	537.63
23.4838	603.68
23.4982	584.93
23.5127	566.22
23.5271	555.12
23.5416	567.83
23.5560	588.37
23.5704	621.27
23.5849	511.09
23.5993	598.99
23.6138	560.00
23.6282	525.69
23.6426	566.73
23.6571	598.45
23.6715	560.31
23.6860	551.35
23.7004	572.20
23.7148	601.80
23.7293	525.38
23.7437	551.72
23.7582	502.78
23.7726	518.25
23.7870	549.77
23.8015	568.00
23.8159	596.11
23.8304	513.22
23.8448	506.16
23.8592	506.25
23.8737	549.61
23.8881	536.92
23.9026	569.15
23.9170	529.21
23.9314	563.78
23.9459	496.99
23.9603	507.89
23.9748	507.68
23.9892	627.89
24.0036	533.48
24.0181	600.85
24.0325	528.21
24.0470	509.36
24.0614	588.14
24.0758	580.29
24.0903	538.18
24.1047	558.55
24.1192	566.26
24.1336	553.22
24.1480	497.24
24.1625	552.81
24.1769	581.20
24.1914	599.56
24.2058	557.53
24.2202	544.27
24.2347	595.09
24.2491	559.19
24.2636	578.80
24.2780	599.12
24.2924	516.50
24.3069	514.33
24.3213	530.82
24.3358	588.69
24.3502	578.54
24.3646	535.61
24.3791	592.61
24.3935	571.69
24.4080	627.90
24.4224	647.53
24.4368	551.42
24.4513	529.58
24.4657	537.09
24.4802	586.20
24.4946	549.80
24.5090	580.38
24.5235	508.27
24.5379	555.68
24.5524	552.61
24.5668	560.18
24.5812	564.54
24.5957	588.22
24.6101	556.26
24.6246	566.57
24.6390	538.45
24.6534	525.66
24.6679	527.40
24.6823	558.60
24.6968	535.96
24.7112	559.33
24.7256	512.76
24.7401	527.90
24.7545	522.02
24.7690	504.62
24.7834	517.55
24.7978	502.78
24.8123	543.00
24.8267	590.94
24.8412	462.73
24.8556	575.22
24.8700	595.47
24.8845	510.88
24.8989	545.49
24.9134	504.68
24.9278	503.79
24.9422	560.34
24.9567	554.65
24.9711	546.85
24.9856	508.99
25.0000	550.68
25.0144	573.51
25.0289	563.76
25.0433	621.47
25.0578	513.76
25.0722	537.42
25.0866	548.48
25.1011	549.51
25.1155	554.93
25.1300	565.06
25.1444	533.41
25.1588	533.32
25.1733	570.33
25.1877	521.70
25.2022	543.87
25.2166	541.26
25.2310	610.51
25.2455	553.96
25.2599	529.53
25.2744	531.71
25.2888	504.16
25.3032	548.40
25.3177	528.11
25.3321	537.30
25.3466	576.04
25.3610	539.07
25.3754	534.13
25.3899	546.13
25.4043	576.60
25.4188	546.47
25.4332	552.03
25.4476	535.10
25.4621	559.58
25.4765	573.15
25.4910	569.99
25.5054	551.27
25.5198	596.37
25.5343	524.95
25.5487	512.26
25.5632	523.90
25.5776	543.60
25.5920	551.64
25.6065	532.62
25.6209	536.12
25.6354	557.52
25.6498	528.78
25.6642	506.91
25.6787	521.22
25.6931	547.01
25.7076	546.55
25.7220	507.97
25.7364	544.39
25.7509	559.89
25.7653	520.76
25.7798	486.23
25.7942	540.71
25.8086	532.96
25.8231	580.30
25.8375	527.65
25.8520	508.29
25.8664	542.41
25.8808	572.63
25.8953	553.12
25.9097	542.50
25.9242	548.39
25.9386	565.94
25.9530	576.62
25.9675	539.49
25.9819	539.38
25.9964	548.35
26.0108	575.41
26.0252	567.17
26.0397	577.04
26.0541	554.18
26.0686	502.16
26.0830	541.07
26.0974	573.32
26.1119	544.51
26.1263	522.56
26.1408	505.32
26.1552	515.29
26.1696	498.96
26.1841	502.48
26.1985	547.45
26.2130	544.87
26.2274	566.77
26.2418	532.91
26.2563	523.83
26.2707	513.70
26.2852	555.15
26.2996	551.03
26.3140	545.48
26.3285	570.71
26.3429	541.81
26.3574	514.18
26.3718	529.01
26.3862	557.38
26.4007	532.54
26.4151	546.36
26.4296	532.51
26.4440	485.12
26.4584	491.85
26.4729	551.81
26.4873	535.67
26.5018	526.48
26.5162	543.90
26.5306	545.02
26.5451	528.55
26.5595	531.61
26.5740	527.00
26.5884	532.86
26.6028	577.30
26.6173	549.41
26.6317	543.58
26.6462	533.95
26.6606	543.96
26.6750	534.75
26.6895	511.75
26.7039	517.76
26.7184	528.00
26.7328	512.87
26.7472	527.35
26.7617	525.39
26.7761	545.87
26.7906	530.89
26.8050	533.84
26.8194	545.92
26.8339	544.02
26.8483	523.69
26.8628	507.48
26.8772	497.06
26.8917	533.32
26.9061	568.37
26.9205	529.52
26.9350	507.54
26.9494	546.51
26.9639	530.72
26.9783	545.09
26.9927	539.66
27.0072	502.90
27.0216	482.16
27.0361	511.32
27.0505	532.49
27.0649	552.05
27.0794	524.67
27.0938	518.29
27.1083	521.69
27.1227	505.14
27.1371	523.88
27.1516	510.96
27.1660	514.51
27.1805	515.50
27.1949	542.67
27.2093	491.64
27.2238	494.79
27.2382	542.40
27.2527	533.72
27.2671	526.15
27.2815	548.28
27.2960	536.71
27.3104	493.14
27.3249	512.70
27.3393	532.77
27.3537	514.99
27.3682	497.13
27.3826	523.63
27.3971	502.11
27.4115	516.55
27.4259	540.18
27.4404	547.44
27.4548	507.26
27.4693	535.73
27.4837	512.11
27.4981	534.79
27.5126	514.48
27.5270	517.75
27.5415	518.07
27.5559	527.90
27.5703	526.74
27.5848	511.00
27.5992	529.84
27.6137	553.28
27.6281	547.05
27.6425	527.87
27.6570	542.95
27.6714	527.23
27.6859	493.44
27.7003	518.63
27.7147	511.61
27.7292	462.10
27.7436	490.40
27.7581	506.35
27.7725	507.99
27.7869	531.25
27.8014	495.15
27.8158	521.60
27.8303	508.93
27.8447	516.97
27.8591	532.19
27.8736	544.17
27.8880	516.36
27.9025	579.62
27.9169	532.97
27.9313	532.29
27.9458	507.36
27.9602	489.00
27.9747	500.16
27.9891	525.05
28.0035	488.68
28.0180	527.60
28.0324	506.83
28.0469	536.60
28.0613	558.21
28.0757	556.49
28.0902	574.07
28.1046	460.78
28.1191	503.91
28.1335	535.39
28.1479	490.63
28.1624	532.17
28.1768	532.34
28.1913	541.48
28.2057	511.93
28.2201	540.62
28.2346	517.77
28.2490	525.98
28.2635	524.44
28.2779	526.40
28.2923	512.31
28.3068	526.93
28.3212	502.31
28.3357	552.86
28.3501	530.13
28.3645	507.61
28.3790	527.02
28.3934	490.35
28.4079	501.78
28.4223	529.90
28.4367	522.04
28.4512	513.96
28.4656	536.36
28.4801	499.98
28.4945	500.94
28.5089	503.90
28.5234	502.94
28.5378	535.24
28.5523	530.20
28.5667	573.13
28.5811	508.18
28.5956	514.23
28.6100	518.05
28.6245	519.08
28.6389	532.17
28.6533	489.33
28.6678	502.36
28.6822	497.34
28.6967	511.42
28.7111	541.86
28.7255	551.66
28.7400	507.07
28.7544	543.92
28.7689	536.79
28.7833	557.29
28.7977	513.19
28.8122	498.13
28.8266	492.57
28.8411	510.11
28.8555	516.09
28.8699	513.16
28.8844	490.07
28.8988	484.87
28.9133	520.09
28.9277	522.22
28.9421	531.12
28.9566	515.90
28.9710	518.15
28.9855	510.15
28.9999	506.00
29.0143	511.12
29.0288	559.12
29.0432	486.18
29.0577	534.99
29.0721	487.24
29.0865	527.17
29.1010	496.24
29.1154	504.81
29.1299	516.78
29.1443	516.38
29.1587	508.70
29.1732	528.14
29.1876	477.43
29.2021	517.84
29.2165	510.96
29.2309	506.58
29.2454	487.53
29.2598	500.39
29.2743	507.32
29.2887	520.86
29.3031	504.40
29.3176	505.18
29.3320	522.20
29.3465	529.38
29.3609	537.97
29.3753	500.44
29.3898	482.87
29.4042	476.66
29.4187	536.03
29.4331	505.86
29.4475	516.54
29.4620	485.32
29.4764	519.59
29.4909	497.65
29.5053	504.57
29.5197	516.77
29.5342	492.07
29.5486	501.48
29.5631	515.91
29.5775	510.12
29.5919	490.13
29.6064	512.63
29.6208	519.65
29.6353	520.50
29.6497	511.79
29.6641	527.88
29.6786	489.73
29.6930	489.22
29.7075	519.03
29.7219	495.40
29.7363	498.69
29.7508	492.04
29.7652	488.54
29.7797	485.28
29.7941	471.54
29.8085	493.78
29.8230	481.93
29.8374	501.21
29.8519	502.03
29.8663	517.65
29.8807	489.19
29.8952	511.50
29.9096	492.44
29.9241	466.77
29.9385	498.27
29.9529	463.62
29.9674	532.39
29.9818	490.91
29.9963	514.80
30.0107	510.72
30.0251	497.70
30.0396	530.40
30.0540	548.50
30.0685	534.86
30.0829	557.07
30.0973	528.56
30.1118	539.23
30.1262	523.62
30.1407	497.90
30.1551	512.05
30.1695	530.48
30.1840	497.88
30.1984	482.38
30.2129	503.63
30.2273	506.45
30.2417	499.86
30.2562	530.68
30.2706	545.96
30.2851	534.23
30.2995	506.91
30.3139	488.33
30.3284	501.72
30.3428	504.17
30.3573	490.21
30.3717	527.66
30.3861	486.80
30.4006	481.59
30.4150	545.55
30.4295	533.67
30.4439	482.16
30.4583	486.51
30.4728	514.00
30.4872	515.00
30.5017	520.08
30.5161	509.58
30.5305	535.86
30.5450	512.34
30.5594	533.54
30.5739	535.72
30.5883	503.42
30.6028	473.79
30.6172	498.09
30.6316	533.44
30.6461	513.86
30.6605	543.98
30.6750	493.09
30.6894	511.18
30.7038	533.41
30.7183	554.69
30.7327	516.54
30.7472	555.16
30.7616	531.05
30.7760	517.79
30.7905	572.62
30.8049	581.26
30.8194	586.81
30.8338	604.93
30.8482	605.12
30.8627	652.08
30.8771	656.12
30.8916	651.33
30.9060	694.79
30.9204	661.19
30.9349	683.62
30.9493	687.77
30.9638	696.47
30.9782	670.45
30.9926	646.15
31.0071	638.15
31.0215	605.14
31.0360	617.75
31.0504	594.85
31.0648	574.43
31.0793	598.75
31.0937	589.09
31.1082	533.33
31.1226	535.26
31.1370	535.99
31.1515	495.86
31.1659	548.28
31.1804	513.39
31.1948	494.19
31.2092	533.50
31.2237	517.24
31.2381	522.07
31.2526	531.09
31.2670	518.86
31.2814	547.71
31.2959	558.62
31.3103	535.35
31.3248	537.68
31.3392	516.25
31.3536	515.85
31.3681	517.64
31.3825	538.78
31.3970	534.93
31.4114	531.38
31.4258	511.53
31.4403	504.21
31.4547	533.60
31.4692	545.77
31.4836	500.34
31.4980	501.71
31.5125	514.16
31.5269	505.72
31.5414	482.70
31.5558	518.11
31.5702	559.41
31.5847	519.42
31.5991	514.36
31.6136	497.62
31.6280	506.33
31.6424	525.59
31.6569	520.04
31.6713	459.37
31.6858	518.45
31.7002	476.38
31.7146	515.72
31.7291	524.75
31.7435	486.78
31.7580	486.05
31.7724	485.27
31.7868	542.81
31.8013	479.34
31.8157	501.02
31.8302	479.32
31.8446	508.28
31.8590	532.28
31.8735	526.58
31.8879	501.72
31.9024	537.83
31.9168	549.52
31.9312	521.73
31.9457	512.98
31.9601	505.97
31.9746	496.90
31.9890	521.63
32.0034	509.12
32.0179	509.97
32.0323	494.76
32.0468	527.23
32.0612	541.97
32.0756	510.00
32.0901	526.09
32.1045	523.22
32.1190	510.95
32.1334	512.14
32.1478	476.87
32.1623	528.63
32.1767	512.67
32.1912	511.37
32.2056	499.09
32.2200	511.06
32.2345	515.67
32.2489	535.36
32.2634	534.97
32.2778	531.81
32.2922	529.68
32.3067	510.58
32.3211	459.12
32.3356	522.11
32.3500	504.08
32.3644	508.21
32.3789	493.53
32.3933	511.22
32.4078	506.36
32.4222	504.99
32.4366	503.27
32.4511	495.92
32.4655	525.17
32.4800	518.56
32.4944	496.00
32.5088	516.95
32.5233	513.22
32.5377	507.95
32.5522	518.23
32.5666	501.68
32.5810	502.00
32.5955	503.51
32.6099	520.24
32.6244	485.66
32.6388	518.17
32.6532	505.21
32.6677	499.76
32.6821	497.07
32.6966	524.67
32.7110	525.34
32.7254	511.98
32.7399	502.84
32.7543	483.48
32.7688	502.43
32.7832	503.82
32.7976	490.04
32.8121	526.36
32.8265	523.71
32.8410	498.38
32.8554	470.70
32.8698	505.31
32.8843	478.68
32.8987	534.23
32.9132	535.47
32.9276	522.13
32.9420	497.07
32.9565	510.89
32.9709	494.27
32.9854	511.56
32.9998	526.34
33.0142	528.52
33.0287	513.82
33.0431	475.25
33.0576	521.22
33.0720	545.73
33.0864	554.19
33.1009	488.46
33.1153	494.05
33.1298	506.64
33.1442	519.09
33.1586	532.76
33.1731	522.01
33.1875	478.30
33.2020	511.78
33.2164	515.55
33.2308	492.60
33.2453	495.50
33.2597	497.79
33.2742	524.94
33.2886	507.29
33.3030	526.57
33.3175	528.63
33.3319	547.70
33.3464	488.34
33.3608	477.54
33.3752	525.48
33.3897	475.44
33.4041	493.73
33.4186	510.42
33.4330	512.73
33.4474	514.03
33.4619	501.09
33.4763	476.19
33.4908	494.84
33.5052	490.62
33.5196	502.63
33.5341	544.78
33.5485	512.92
33.5630	536.17
33.5774	507.16
33.5918	510.60
33.6063	493.82
33.6207	517.10
33.6352	493.36
33.6496	521.62
33.6640	539.35
33.6785	506.04
33.6929	499.12
33.7074	519.03
33.7218	505.66
33.7362	522.72
33.7507	507.55
33.7651	535.58
33.7796	503.06
33.7940	479.93
33.8084	504.98
33.8229	521.10
33.8373	507.20
33.8518	491.12
33.8662	530.37
33.8806	495.98
33.8951	464.33
33.9095	488.24
33.9240	522.15
33.9384	490.66
33.9528	482.33
33.9673	498.03
33.9817	475.64
33.9962	498.75
34.0106	511.92
34.0250	487.14
34.0395	487.63
34.0539	502.16
34.0684	493.16
34.0828	506.08
34.0972	495.26
34.1117	475.18
34.1261	516.98
34.1406	499.09
34.1550	483.39
34.1694	540.60
34.1839	532.49
34.1983	503.82
34.2128	496.34
34.2272	502.44
34.2417	527.40
34.2561	507.58
34.2705	504.12
34.2850	501.38
34.2994	502.41
34.3139	507.81
34.3283	483.47
34.3427	493.74
34.3572	535.50
34.3716	509.66
34.3861	489.94
34.4005	503.27
34.4149	520.40
34.4294	504.21
34.4438	507.41
34.4583	526.71
34.4727	513.43
34.4871	486.42
34.5016	503.60
34.5160	489.73
34.5305	489.24
34.5449	503.78
34.5593	516.73
34.5738	512.42
34.5882	515.55
34.6027	547.12
34.6171	542.50
34.6315	530.59
34.6460	492.57
34.6604	524.20
34.6749	499.93
34.6893	497.35
34.7037	523.81
34.7182	497.47
34.7326	508.60
34.7471	498.48
34.7615	488.30
34.7759	535.09
34.7904	520.45
34.8048	484.17
34.8193	522.44
34.8337	510.40
34.8481	532.69
34.8626	547.43
34.8770	514.54
34.8915	484.89
34.9059	529.58
34.9203	498.92
34.9348	510.88
34.9492	549.51
34.9637	539.79
34.9781	551.02
34.9925	556.66
35.0070	525.75
35.0214	490.54
35.0359	520.64
35.0503	540.08
35.0647	538.17
35.0792	521.11
35.0936	520.93
35.1081	520.71
35.1225	534.16
35.1369	520.09
35.1514	463.75
35.1658	511.80
35.1803	506.50
35.1947	510.47
35.2091	490.65
35.2236	477.92
35.2380	497.86
35.2525	517.53
35.2669	512.89
35.2813	526.39
35.2958	534.64
35.3102	545.62
35.3247	525.02
35.3391	513.44
35.3535	520.25
35.3680	517.34
35.3824	518.58
35.3969	504.39
35.4113	516.91
35.4257	535.57
35.4402	522.39
35.4546	505.71
35.4691	539.88
35.4835	557.53
35.4979	512.40
35.5124	557.30
35.5268	547.08
35.5413	546.84
35.5557	555.43
35.5701	541.21
35.5846	503.77
35.5990	506.88
35.6135	505.63
35.6279	545.97
35.6423	543.12
35.6568	522.47
35.6712	499.79
35.6857	526.35
35.7001	654.92
35.7145	689.17
35.7290	651.12
35.7434	594.19
35.7579	581.94
35.7723	569.12
35.7867	619.47
35.8012	655.99
35.8156	685.16
35.8301	603.40
35.8445	590.11
35.8589	623.42
35.8734	711.07
35.8878	842.51
35.9023	987.73
35.9167	1038.83
35.9311	1410.03
35.9456	2156.96
35.9600	2338.65
35.9745	1888.30
35.9889	1983.62
36.0033	2496.10
36.0178	2622.48
36.0322	2160.81
36.0467	1883.33
36.0611	1629.27
36.0755	1495.37
36.0900	1487.33
36.1044	1233.13
36.1189	1264.92
36.1333	1201.78
36.1477	1036.78
36.1622	965.42
36.1766	943.94
36.1911	874.40
36.2055	767.38
36.2199	726.93
36.2344	694.77
36.2488	702.16
36.2633	653.23
36.2777	695.97
36.2921	719.51
36.3066	735.90
36.3210	744.98
36.3355	831.02
36.3499	804.56
36.3643	843.92
36.3788	916.71
36.3932	929.83
36.4077	993.34
36.4221	991.00
36.4365	981.07
36.4510	915.15
36.4654	940.92
36.4799	910.21
36.4943	899.88
36.5087	823.44
36.5232	773.16
36.5376	747.49
36.5521	765.74
36.5665	702.08
36.5809	702.45
36.5954	653.63
36.6098	612.39
36.6243	625.71
36.6387	602.77
36.6531	585.69
36.6676	588.99
36.6820	551.40
36.6965	598.21
36.7109	576.07
36.7253	550.32
36.7398	574.27
36.7542	501.95
36.7687	540.76
36.7831	545.54
36.7975	576.43
36.8120	597.48
36.8264	591.01
36.8409	628.78
36.8553	593.89
36.8697	602.81
36.8842	581.40
36.8986	581.94
36.9131	616.42
36.9275	601.06
36.9419	576.78
36.9564	583.40
36.9708	600.61
36.9853	544.41
36.9997	553.56
37.0141	558.58
37.0286	572.48
37.0430	543.94
37.0575	538.08
37.0719	554.13
37.0863	557.29
37.1008	544.98
37.1152	541.08
37.1297	519.02
37.1441	500.87
37.1585	533.91
37.1730	535.92
37.1874	501.86
37.2019	486.90
37.2163	504.22
37.2307	510.10
37.2452	533.24
37.2596	496.26
37.2741	496.11
37.2885	503.21
37.3029	530.12
37.3174	500.86
37.3318	518.36
37.3463	499.85
37.3607	506.38
37.3751	512.69
37.3896	521.41
37.4040	529.44
37.4185	524.75
37.4329	518.43
37.4473	488.07
37.4618	518.65
37.4762	500.52
37.4907	465.33
37.5051	494.07
37.5195	530.24
37.5340	495.08
37.5484	481.18
37.5629	510.76
37.5773	476.10
37.5917	462.49
37.6062	493.85
37.6206	505.15
37.6351	495.77
37.6495	493.00
37.6639	497.95
37.6784	497.55
37.6928	450.90
37.7073	547.09
37.7217	480.52
37.7361	474.24
37.7506	458.40
37.7650	456.11
37.7795	502.90
37.7939	498.59
37.8083	494.15
37.8228	484.78
37.8372	514.41
37.8517	495.71
37.8661	488.72
37.8805	480.61
37.8950	504.74
37.9094	499.62
37.9239	492.18
37.9383	522.50
37.9528	499.42
37.9672	470.22
37.9816	483.80
37.9961	526.09
38.0105	492.89
38.0250	490.92
38.0394	486.85
38.0538	502.50
38.0683	538.53
38.0827	541.48
38.0972	507.52
38.1116	507.85
38.1260	517.94
38.1405	537.01
38.1549	520.72
38.1694	531.78
38.1838	528.31
38.1982	493.48
38.2127	528.79
38.2271	526.23
38.2416	521.51
38.2560	508.33
38.2704	491.08
38.2849	499.31
38.2993	518.00
38.3138	506.66
38.3282	541.89
38.3426	531.83
38.3571	511.92
38.3715	528.03
38.3860	518.16
38.4004	537.88
38.4148	556.28
38.4293	599.53
38.4437	610.37
38.4582	630.94
38.4726	678.38
38.4870	742.90
38.5015	744.54
38.5159	785.04
38.5304	787.85
38.5448	818.41
38.5592	752.46
38.5737	749.67
38.5881	752.14
38.6026	716.18
38.6170	700.86
38.6314	671.23
38.6459	677.99
38.6603	661.67
38.6748	607.95
38.6892	585.40
38.7036	577.76
38.7181	525.12
38.7325	521.47
38.7470	532.36
38.7614	500.31
38.7758	521.34
38.7903	499.38
38.8047	480.54
38.8192	519.59
38.8336	531.36
38.8480	540.30
38.8625	514.52
38.8769	520.78
38.8914	510.19
38.9058	539.95
38.9202	493.75
38.9347	497.56
38.9491	499.79
38.9636	485.44
38.9780	498.02
38.9924	482.29
39.0069	503.42
39.0213	512.23
39.0358	496.44
39.0502	483.16
39.0646	526.62
39.0791	493.23
39.0935	485.52
39.1080	504.00
39.1224	498.22
39.1368	494.82
39.1513	487.31
39.1657	503.95
39.1802	513.71
39.1946	517.01
39.2090	507.56
39.2235	530.97
39.2379	503.57
39.2524	508.67
39.2668	516.03
39.2812	524.74
39.2957	499.04
39.3101	527.41
39.3246	516.03
39.3390	518.82
39.3534	499.95
39.3679	514.82
39.3823	503.87
39.3968	500.35
39.4112	506.84
39.4256	530.30
39.4401	500.97
39.4545	485.80
39.4690	511.54
39.4834	473.16
39.4978	507.73
39.5123	503.12
39.5267	509.75
39.5412	516.62
39.5556	512.67
39.5700	521.24
39.5845	528.13
39.5989	475.82
39.6134	512.95
39.6278	519.02
39.6422	512.69
39.6567	480.48
39.6711	503.83
39.6856	481.09
39.7000	465.22
39.7144	485.72
39.7289	468.02
39.7433	458.14
39.7578	493.65
39.7722	513.40
39.7866	522.01
39.8011	520.53
39.8155	512.38
39.8300	524.02
39.8444	516.33
39.8588	530.27
39.8733	493.80
39.8877	494.64
39.9022	497.00
39.9166	499.50
39.9310	506.72
39.9455	518.63
39.9599	490.39
39.9744	489.21
39.9888	555.00
40.0032	530.57
40.0177	531.73
40.0321	489.13
40.0466	499.00
40.0610	513.86
40.0754	489.33
40.0899	539.45
40.1043	511.94
40.1188	486.42
40.1332	503.25
40.1476	463.14
40.1621	521.23
40.1765	487.90
40.1910	512.39
40.2054	501.77
40.2198	500.04
40.2343	501.17
40.2487	490.23
40.2632	488.27
40.2776	470.19
40.2920	449.84
40.3065	480.95
40.3209	509.06
40.3354	504.37
40.3498	486.22
40.3642	507.86
40.3787	488.00
40.3931	497.80
40.4076	497.24
40.4220	469.52
40.4364	485.98
40.4509	472.31
40.4653	494.55
40.4798	537.27
40.4942	529.08
40.5086	464.73
40.5231	485.08
40.5375	512.81
40.5520	511.23
40.5664	510.24
40.5808	477.15
40.5953	502.19
40.6097	488.14
40.6242	497.96
40.6386	518.78
40.6530	533.19
40.6675	470.29
40.6819	490.64
40.6964	513.72
40.7108	534.63
40.7252	511.36
40.7397	505.36
40.7541	507.08
40.7686	491.33
40.7830	484.25
40.7974	477.57
40.8119	505.67
40.8263	489.36
40.8408	521.10
40.8552	504.20
40.8696	499.38
40.8841	495.02
40.8985	528.40
40.9130	524.18
40.9274	501.80
40.9418	511.88
40.9563	480.70
40.9707	454.85
40.9852	496.79
40.9996	534.69
41.0140	484.06
41.0285	497.40
41.0429	518.12
41.0574	508.05
41.0718	529.55
41.0862	525.42
41.1007	528.43
41.1151	504.29
41.1296	497.30
41.1440	497.05
41.1584	492.70
41.1729	508.96
41.1873	509.40
41.2018	501.06
41.2162	493.96
41.2306	494.23
41.2451	482.57
41.2595	502.53
41.2740	511.85
41.2884	516.94
41.3028	486.51
41.3173	502.92
41.3317	517.37
41.3462	492.64
41.3606	520.54
41.3750	515.66
41.3895	474.99
41.4039	470.79
41.4184	505.99
41.4328	522.68
41.4472	480.35
41.4617	486.66
41.4761	488.97
41.4906	486.83
41.5050	501.73
41.5194	519.03
41.5339	493.82
41.5483	464.02
41.5628	497.85
41.5772	500.09
41.5916	495.91
41.6061	518.00
41.6205	547.87
41.6350	517.07
41.6494	509.47
41.6639	490.66
41.6783	491.66
41.6927	486.01
41.7072	526.53
41.7216	519.12
41.7361	494.00
41.7505	523.60
41.7649	514.22
41.7794	512.07
41.7938	531.91
41.8083	513.55
41.8227	511.65
41.8371	489.57
41.8516	521.55
41.8660	542.59
41.8805	538.02
41.8949	570.67
41.9093	553.73
41.9238	535.88
41.9382	560.83
41.9527	544.79
41.9671	585.92
41.9815	580.01
41.9960	558.50
42.0104	552.06
42.0249	587.87
42.0393	576.99
42.0537	583.94
42.0682	584.25
42.0826	586.20
42.0971	585.50
42.1115	559.03
42.1259	596.79
42.1404	592.43
42.1548	594.24
42.1693	651.15
42.1837	679.20
42.1981	748.21
42.2126	895.51
42.2270	968.08
42.2415	1065.77
42.2559	1193.69
42.2703	1315.37
42.2848	1510.73
42.2992	1616.52
42.3137	1675.96
42.3281	1648.86
42.3425	1605.62
42.3570	1501.55
42.3714	1442.97
42.3859	1355.95
42.4003	1325.26
42.4147	1360.72
42.4292	1295.07
42.4436	1128.97
42.4581	1016.34
42.4725	924.83
42.4869	841.00
42.5014	756.13
42.5158	703.59
42.5303	661.10
42.5447	634.46
42.5591	620.02
42.5736	603.91
42.5880	571.70
42.6025	556.26
42.6169	560.24
42.6313	540.53
42.6458	541.60
42.6602	561.26
42.6747	521.77
42.6891	495.79
42.7035	551.32
42.7180	524.90
42.7324	547.63
42.7469	538.49
42.7613	534.85
42.7757	516.39
42.7902	501.73
42.8046	506.42
42.8191	504.03
42.8335	560.29
42.8479	537.92
42.8624	503.67
42.8768	531.73
42.8913	490.15
42.9057	534.89
42.9201	552.49
42.9346	569.93
42.9490	547.06
42.9635	520.27
42.9779	482.52
42.9923	492.19
43.0068	500.42
43.0212	501.75
43.0357	520.38
43.0501	524.48
43.0645	525.08
43.0790	525.44
43.0934	563.01
43.1079	529.10
43.1223	517.21
43.1367	522.25
43.1512	484.53
43.1656	532.64
43.1801	506.78
43.1945	508.81
43.2089	538.36
43.2234	536.75
43.2378	543.64
43.2523	528.81
43.2667	531.27
43.2811	540.91
43.2956	553.77
43.3100	548.27
43.3245	504.09
43.3389	516.38
43.3533	509.60
43.3678	545.37
43.3822	504.04
43.3967	510.16
43.4111	517.42
43.4255	520.23
43.4400	484.95
43.4544	523.39
43.4689	553.36
43.4833	501.30
43.4977	485.87
43.5122	499.84
43.5266	514.15
43.5411	510.42
43.5555	511.03
43.5699	507.20
43.5844	546.68
43.5988	518.37
43.6133	503.34
43.6277	486.74
43.6421	512.60
43.6566	497.78
43.6710	513.75
43.6855	504.25
43.6999	528.15
43.7143	519.03
43.7288	513.18
43.7432	521.87
43.7577	522.79
43.7721	497.10
43.7865	518.76
43.8010	529.27
43.8154	536.51
43.8299	546.02
43.8443	553.78
43.8587	537.58
43.8732	518.96
43.8876	510.80
43.9021	547.93
43.9165	509.89
43.9309	550.39
43.9454	525.39
43.9598	466.47
43.9743	495.98
43.9887	504.68
44.0031	494.89
44.0176	550.13
44.0320	514.00
44.0465	501.11
44.0609	508.86
44.0753	519.40
44.0898	579.60
44.1042	529.98
44.1187	525.91
44.1331	500.62
44.1475	506.83
44.1620	559.53
44.1764	609.72
44.1909	570.57
44.2053	644.98
44.2197	634.37
44.2342	615.54
44.2486	656.70
44.2631	638.32
44.2775	640.54
44.2919	632.11
44.3064	653.68
44.3208	654.12
44.3353	633.97
44.3497	655.80
44.3641	617.18
44.3786	590.44
44.3930	619.83
44.4075	615.45
44.4219	645.41
44.4363	629.59
44.4508	635.64
44.4652	596.66
44.4797	592.93
44.4941	589.64
44.5085	583.40
44.5230	599.48
44.5374	613.48
44.5519	583.05
44.5663	524.70
44.5807	577.86
44.5952	576.52
44.6096	568.02
44.6241	584.12
44.6385	601.11
44.6529	581.12
44.6674	580.31
44.6818	574.01
44.6963	633.47
44.7107	676.61
44.7251	699.19
44.7396	770.91
44.7540	793.46
44.7685	895.35
44.7829	882.68
44.7973	876.14
44.8118	885.77
44.8262	814.22
44.8407	768.73
44.8551	735.47
44.8695	757.83
44.8840	741.51
44.8984	751.64
44.9129	720.82
44.9273	725.11
44.9417	692.24
44.9562	662.78
44.9706	605.34
44.9851	594.93
44.9995	539.31
45.0139	556.14
45.0284	519.45
45.0428	563.21
45.0573	537.68
45.0717	484.23
45.0861	556.50
45.1006	560.01
45.1150	542.65
45.1295	538.44
45.1439	485.32
45.1583	505.21
45.1728	500.68
45.1872	499.75
45.2017	504.16
45.2161	489.63
45.2305	547.75
45.2450	503.61
45.2594	523.35
45.2739	491.41
45.2883	519.53
45.3028	501.16
45.3172	514.61
45.3316	516.97
45.3461	472.87
45.3605	500.28
45.3750	507.30
45.3894	476.72
45.4038	509.04
45.4183	504.78
45.4327	493.45
45.4472	466.71
45.4616	480.65
45.4760	497.81
45.4905	479.20
45.5049	459.42
45.5194	477.40
45.5338	520.33
45.5482	503.55
45.5627	521.67
45.5771	509.26
45.5916	514.42
45.6060	498.14
45.6204	469.05
45.6349	491.99
45.6493	525.73
45.6638	499.07
45.6782	502.46
45.6926	509.01
45.7071	499.89
45.7215	540.24
45.7360	482.09
45.7504	502.69
45.7648	519.18
45.7793	517.05
45.7937	528.34
45.8082	508.74
45.8226	500.09
45.8370	505.41
45.8515	525.84
45.8659	508.61
45.8804	500.65
45.8948	498.80
45.9092	488.38
45.9237	462.56
45.9381	505.23
45.9526	500.03
45.9670	490.76
45.9814	501.34
45.9959	518.23
46.0103	501.44
46.0248	484.62
46.0392	476.42
46.0536	500.35
46.0681	487.86
46.0825	541.26
46.0970	529.38
46.1114	515.20
46.1258	523.01
46.1403	516.26
46.1547	467.37
46.1692	468.77
46.1836	490.07
46.1980	504.88
46.2125	498.68
46.2269	532.05
46.2414	508.53
46.2558	500.28
46.2702	487.29
46.2847	493.49
46.2991	471.81
46.3136	481.97
46.3280	492.46
46.3424	503.15
46.3569	507.18
46.3713	503.61
46.3858	489.93
46.4002	510.43
46.4146	492.15
46.4291	525.12
46.4435	485.67
46.4580	505.55
46.4724	512.58
46.4868	519.33
46.5013	524.26
46.5157	517.33
46.5302	498.11
46.5446	475.21
46.5590	489.80
46.5735	493.11
46.5879	495.82
46.6024	526.81
46.6168	489.78
46.6312	480.43
46.6457	516.94
46.6601	504.79
46.6746	499.30
46.6890	514.84
46.7034	518.66
46.7179	495.35
46.7323	462.33
46.7468	504.57
46.7612	495.76
46.7756	490.54
46.7901	490.08
46.8045	518.40
46.8190	480.47
46.8334	509.30
46.8478	543.17
46.8623	542.95
46.8767	527.39
46.8912	523.81
46.9056	545.68
46.9200	499.93
46.9345	457.41
46.9489	477.77
46.9634	516.24
46.9778	514.24
46.9922	510.56
47.0067	484.66
47.0211	501.25
47.0356	515.68
47.0500	510.32
47.0644	510.14
47.0789	536.46
47.0933	546.98
47.1078	524.64
47.1222	499.31
47.1366	510.67
47.1511	454.83
47.1655	529.79
47.1800	507.79
47.1944	470.05
47.2088	480.29
47.2233	515.86
47.2377	498.78
47.2522	473.29
47.2666	500.28
47.2810	512.88
47.2955	491.36
47.3099	497.06
47.3244	513.56
47.3388	515.31
47.3532	502.48
47.3677	512.14
47.3821	539.74
47.3966	520.43
47.4110	475.10
47.4254	509.26
47.4399	503.10
47.4543	528.17
47.4688	533.59
47.4832	487.84
47.4976	528.62
47.5121	522.02
47.5265	514.40
47.5410	512.32
47.5554	533.56
47.5698	497.89
47.5843	478.07
47.5987	503.33
47.6132	516.09
47.6276	522.40
47.6420	516.23
47.6565	515.99
47.6709	500.59
47.6854	511.83
47.6998	517.43
47.7142	521.61
47.7287	501.34
47.7431	534.83
47.7576	493.02
47.7720	505.06
47.7864	511.77
47.8009	499.75
47.8153	488.76
47.8298	507.30
47.8442	491.05
47.8586	502.85
47.8731	522.49
47.8875	512.22
47.9020	510.21
47.9164	516.53
47.9308	510.47
47.9453	496.72
47.9597	473.25
47.9742	491.00
47.9886	491.01
48.0030	506.27
48.0175	504.04
48.0319	513.75
48.0464	509.00
48.0608	543.17
48.0752	513.48
48.0897	505.78
48.1041	520.45
48.1186	537.26
48.1330	516.06
48.1474	488.50
48.1619	505.31
48.1763	525.54
48.1908	482.96
48.2052	527.99
48.2196	503.73
48.2341	532.62
48.2485	534.73
48.2630	510.54
48.2774	494.26
48.2918	533.81
48.3063	513.59
48.3207	491.32
48.3352	492.95
48.3496	499.18
48.3640	518.99
48.3785	485.07
48.3929	459.94
48.4074	481.38
48.4218	519.47
48.4362	529.95
48.4507	510.80
48.4651	553.40
48.4796	549.21
48.4940	505.02
48.5084	505.81
48.5229	504.58
48.5373	542.72
48.5518	496.52
48.5662	475.10
48.5806	520.83
48.5951	533.28
48.6095	531.66
48.6240	534.37
48.6384	547.69
48.6528	499.66
48.6673	500.42
48.6817	509.06
48.6962	508.50
48.7106	518.05
48.7250	495.29
48.7395	505.37
48.7539	536.27
48.7684	487.19
48.7828	569.33
48.7972	534.57
48.8117	569.11
48.8261	587.09
48.8406	534.91
48.8550	533.43
48.8694	528.03
48.8839	516.47
48.8983	536.71
48.9128	567.87
48.9272	577.94
48.9416	573.84
48.9561	525.87
48.9705	567.99
48.9850	593.98
48.9994	552.90
49.0139	587.64
49.0283	609.17
49.0427	605.71
49.0572	667.75
49.0716	651.51
49.0861	678.25
49.1005	659.58
49.1149	777.26
49.1294	717.44
49.1438	723.09
49.1583	796.80
49.1727	874.83
49.1871	939.76
49.2016	961.98
49.2160	1055.50
49.2305	1060.80
49.2449	1200.75
49.2593	1343.40
49.2738	1359.12
49.2882	1469.48
49.3027	1578.65
49.3171	1651.35
49.3315	1698.66
49.3460	1771.66
49.3604	1754.00
49.3749	1772.05
49.3893	1819.72
49.4037	1800.95
49.4182	1781.20
49.4326	1794.16
49.4471	1675.98
49.4615	1638.19
49.4759	1539.18
49.4904	1492.90
49.5048	1414.41
49.5193	1375.34
49.5337	1318.51
49.5481	1244.96
49.5626	1144.90
49.5770	1106.24
49.5915	1005.76
49.6059	926.69
49.6203	868.33
49.6348	865.05
49.6492	764.24
49.6637	757.59
49.6781	701.06
49.6925	665.61
49.7070	684.84
49.7214	639.23
49.7359	634.06
49.7503	590.37
49.7647	565.69
49.7792	601.16
49.7936	595.96
49.8081	617.28
49.8225	600.44
49.8369	585.73
49.8514	551.47
49.8658	575.85
49.8803	578.36
49.8947	569.52
49.9091	551.43
49.9236	541.85
49.9380	528.60
49.9525	518.80
49.9669	537.47
49.9813	543.33
49.9958	511.00
50.0102	526.47
50.0247	552.34
50.0391	538.50
50.0535	555.92
50.0680	557.71
50.0824	549.15
50.0969	513.58
50.1113	511.96
50.1257	522.47
50.1402	522.88
50.1546	524.65
50.1691	507.89
50.1835	557.78
50.1979	496.84
50.2124	517.27
50.2268	526.28
50.2413	494.59
50.2557	509.46
50.2701	505.60
50.2846	531.41
50.2990	509.31
50.3135	507.14
50.3279	505.85
50.3423	505.44
50.3568	480.67
50.3712	507.94
50.3857	529.15
50.4001	497.34
50.4145	494.04
50.4290	552.84
50.4434	513.01
50.4579	510.48
50.4723	547.62
50.4867	504.47
50.5012	483.42
50.5156	538.71
50.5301	505.51
50.5445	526.89
50.5589	552.94
50.5734	525.98
50.5878	528.39
50.6023	504.18
50.6167	517.71
50.6311	567.18
50.6456	501.58
50.6600	491.54
50.6745	513.47
50.6889	508.24
50.7033	546.75
50.7178	513.07
50.7322	491.07
50.7467	493.35
50.7611	517.46
50.7755	505.32
50.7900	500.08
50.8044	505.62
50.8189	522.12
50.8333	539.58
50.8477	513.71
50.8622	533.71
50.8766	534.76
50.8911	483.83
50.9055	485.97
50.9199	520.95
50.9344	512.57
50.9488	500.49
50.9633	519.76
50.9777	504.51
50.9921	510.70
51.0066	516.78
51.0210	501.03
51.0355	538.06
51.0499	533.29
51.0643	514.97
51.0788	506.61
51.0932	500.05
51.1077	507.72
51.1221	515.27
51.1365	538.86
51.1510	485.22
51.1654	485.42
51.1799	508.18
51.1943	509.16
51.2087	495.86
51.2232	495.06
51.2376	498.51
51.2521	490.93
51.2665	500.18
51.2809	529.04
51.2954	520.01
51.3098	527.64
51.3243	517.27
51.3387	477.56
51.3531	476.68
51.3676	492.72
51.3820	479.64
51.3965	477.50
51.4109	495.42
51.4253	546.10
51.4398	509.84
51.4542	510.48
51.4687	511.97
51.4831	514.76
51.4975	534.13
51.5120	508.58
51.5264	531.71
51.5409	514.69
51.5553	546.02
51.5697	496.17
51.5842	498.97
51.5986	508.79
51.6131	505.08
51.6275	529.06
51.6419	494.96
51.6564	485.47
51.6708	497.32
51.6853	481.78
51.6997	476.76
51.7141	528.12
51.7286	523.84
51.7430	528.74
51.7575	485.58
51.7719	521.75
51.7863	549.01
51.8008	498.08
51.8152	516.56
51.8297	508.18
51.8441	491.30
51.8585	527.50
51.8730	532.86
51.8874	502.53
51.9019	517.99
51.9163	494.04
51.9307	486.25
51.9452	542.76
51.9596	495.26
51.9741	490.36
51.9885	541.99
52.0029	511.22
52.0174	524.14
52.0318	489.22
52.0463	476.28
52.0607	540.99
52.0751	509.38
52.0896	549.21
52.1040	477.74
52.1185	508.21
52.1329	511.76
52.1473	507.74
52.1618	513.05
52.1762	493.54
52.1907	462.18
52.2051	525.63
52.2195	518.85
52.2340	502.70
52.2484	535.18
52.2629	495.42
52.2773	485.64
52.2917	459.93
52.3062	480.92
52.3206	498.20
52.3351	483.29
52.3495	505.04
52.3639	506.63
52.3784	524.16
52.3928	528.27
52.4073	505.46
52.4217	499.87
52.4361	505.70
52.4506	489.03
52.4650	494.41
52.4795	509.39
52.4939	529.87
52.5083	482.56
52.5228	507.72
52.5372	519.44
52.5517	476.21
52.5661	505.02
52.5805	535.71
52.5950	543.84
52.6094	514.06
52.6239	505.00
52.6383	505.31
52.6527	497.37
52.6672	518.82
52.6816	505.95
52.6961	501.42
52.7105	546.11
52.7250	460.16
52.7394	508.08
52.7538	553.93
52.7683	548.52
52.7827	497.80
52.7972	488.47
52.8116	505.85
52.8260	528.73
52.8405	528.53
52.8549	484.14
52.8694	491.26
52.8838	510.69
52.8982	491.46
52.9127	491.97
52.9271	499.01
52.9416	519.75
52.9560	483.91
52.9704	500.55
52.9849	525.97
52.9993	500.88
53.0138	495.48
53.0282	505.97
53.0426	482.51
53.0571	509.76
53.0715	497.47
53.0860	499.20
53.1004	537.41
53.1148	536.65
53.1293	501.75
53.1437	506.05
53.1582	491.18
53.1726	494.15
53.1870	518.43
53.2015	504.29
53.2159	520.41
53.2304	501.89
53.2448	506.71
53.2592	481.97
53.2737	508.86
53.2881	504.02
53.3026	469.41
53.3170	502.20
53.3314	537.24
53.3459	527.42
53.3603	541.13
53.3748	512.71
53.3892	501.26
53.4036	468.59
53.4181	497.80
53.4325	512.34
53.4470	520.79
53.4614	513.57
53.4758	548.45
53.4903	537.13
53.5047	500.89
53.5192	465.49
53.5336	523.29
53.5480	523.20
53.5625	496.43
53.5769	497.84
53.5914	484.46
53.6058	498.60
53.6202	525.42
53.6347	558.17
53.6491	493.44
53.6636	532.99
53.6780	495.57
53.6924	471.31
53.7069	487.50
53.7213	542.98
53.7358	540.33
53.7502	497.31
53.7646	488.08
53.7791	508.09
53.7935	525.17
53.8080	519.31
53.8224	520.13
53.8368	497.63
53.8513	484.50
53.8657	480.02
53.8802	520.45
53.8946	542.37
53.9090	509.61
53.9235	476.12
53.9379	519.92
53.9524	556.28
53.9668	502.12
53.9812	501.51
53.9957	513.55
54.0101	511.58
54.0246	527.77
54.0390	507.42
54.0534	505.28
54.0679	525.76
54.0823	520.42
54.0968	499.72
54.1112	499.93
54.1256	515.19
54.1401	515.13
54.1545	534.18
54.1690	539.13
54.1834	556.43
54.1978	535.45
54.2123	519.55
54.2267	522.58
54.2412	522.91
54.2556	519.67
54.2700	520.61
54.2845	535.87
54.2989	566.06
54.3134	575.83
54.3278	549.64
54.3422	524.78
54.3567	511.75
54.3711	518.87
54.3856	539.78
54.4000	511.46
54.4144	532.04
54.4289	524.17
54.4433	524.16
54.4578	542.71
54.4722	552.21
54.4866	509.12
54.5011	501.83
54.5155	519.43
54.5300	508.64
54.5444	479.72
54.5588	530.70
54.5733	523.62
54.5877	507.10
54.6022	519.45
54.6166	550.62
54.6310	521.55
54.6455	531.08
54.6599	520.29
54.6744	517.03
54.6888	527.45
54.7032	548.05
54.7177	562.28
54.7321	527.12
54.7466	509.87
54.7610	524.53
54.7754	537.94
54.7899	542.17
54.8043	550.41
54.8188	570.78
54.8332	580.79
54.8476	551.32
54.8621	576.48
54.8765	563.70
54.8910	573.94
54.9054	609.63
54.9198	575.03
54.9343	570.40
54.9487	551.60
54.9632	576.93
54.9776	597.74
54.9920	591.09
55.0065	596.12
55.0209	616.13
55.0354	583.78
55.0498	556.80
55.0642	578.91
55.0787	579.44
55.0931	574.52
55.1076	570.93
55.1220	571.86
55.1364	555.29
55.1509	547.81
55.1653	544.17
55.1798	544.74
55.1942	517.37
55.2086	536.68
55.2231	514.99
55.2375	531.33
55.2520	532.17
55.2664	526.15
55.2808	533.55
55.2953	517.39
55.3097	511.95
55.3242	529.68
55.3386	518.94
55.3530	521.60
55.3675	528.38
55.3819	515.08
55.3964	510.86
55.4108	523.19
55.4252	520.16
55.4397	534.72
55.4541	500.45
55.4686	555.15
55.4830	538.94
55.4974	538.96
55.5119	520.71
55.5263	498.36
55.5408	507.80
55.5552	549.80
55.5696	512.77
55.5841	514.41
55.5985	501.36
55.6130	518.65
55.6274	562.84
55.6418	542.19
55.6563	544.24
55.6707	532.48
55.6852	521.44
55.6996	556.08
55.7140	541.33
55.7285	535.09
55.7429	500.23
55.7574	537.52
55.7718	510.58
55.7862	518.58
55.8007	537.75
55.8151	554.11
55.8296	537.73
55.8440	526.81
55.8584	534.78
55.8729	557.84
55.8873	518.05
55.9018	561.32
55.9162	527.79
55.9306	505.56
55.9451	525.93
55.9595	497.76
55.9740	539.14
55.9884	538.85
56.0028	509.05
56.0173	499.87
56.0317	517.86
56.0462	491.39
56.0606	517.99
56.0750	561.78
56.0895	544.29
56.1039	527.36
56.1184	557.22
56.1328	519.58
56.1472	475.69
56.1617	512.28
56.1761	537.90
56.1906	526.03
56.2050	537.81
56.2194	517.31
56.2339	522.78
56.2483	551.47
56.2628	526.67
56.2772	524.41
56.2916	522.68
56.3061	532.64
56.3205	557.22
56.3350	521.78
56.3494	512.59
56.3639	538.24
56.3783	531.46
56.3927	518.22
56.4072	480.31
56.4216	541.24
56.4361	561.55
56.4505	539.40
56.4649	539.92
56.4794	561.01
56.4938	564.61
56.5083	540.05
56.5227	545.42
56.5371	505.65
56.5516	546.08
56.5660	525.21
56.5805	524.13
56.5949	482.98
56.6093	507.72
56.6238	507.83
56.6382	534.87
56.6527	508.55
56.6671	509.37
56.6815	557.15
56.6960	543.01
56.7104	522.11
56.7249	544.84
56.7393	528.78
56.7537	528.97
56.7682	528.87
56.7826	561.99
56.7971	520.55
56.8115	526.77
56.8259	540.32
56.8404	539.33
56.8548	536.17
56.8693	532.83
56.8837	553.07
56.8981	518.20
56.9126	503.68
56.9270	524.32
56.9415	547.30
56.9559	524.53
56.9703	525.51
56.9848	539.62
56.9992	522.76
57.0137	536.14
57.0281	513.94
57.0425	532.34
57.0570	545.01
57.0714	539.93
57.0859	532.16
57.1003	551.49
57.1147	528.60
57.1292	510.47
57.1436	510.51
57.1581	501.05
57.1725	490.50
57.1869	522.63
57.2014	538.17
57.2158	509.68
57.2303	530.09
57.2447	559.92
57.2591	501.79
57.2736	539.42
57.2880	559.68
57.3025	543.14
57.3169	488.12
57.3313	514.89
57.3458	534.28
57.3602	534.12
57.3747	525.28
57.3891	525.94
57.4035	532.49
57.4180	512.81
57.4324	530.33
57.4469	510.31
57.4613	532.75
57.4757	553.29
57.4902	548.02
57.5046	532.11
57.5191	524.38
57.5335	526.52
57.5479	518.78
57.5624	494.31
57.5768	498.83
57.5913	506.43
57.6057	519.75
57.6201	535.05
57.6346	530.93
57.6490	536.85
57.6635	501.44
57.6779	492.72
57.6923	519.50
57.7068	528.71
57.7212	516.84
57.7357	521.04
57.7501	536.90
57.7645	517.14
57.7790	539.51
57.7934	527.41
57.8079	511.80
57.8223	503.08
57.8367	534.67
57.8512	510.99
57.8656	519.96
57.8801	508.72
57.8945	502.70
57.9089	548.91
57.9234	558.58
57.9378	531.97
57.9523	575.24
57.9667	537.37
57.9811	574.06
57.9956	537.39
58.0100	537.63
58.0245	539.56
58.0389	506.26
58.0533	507.64
58.0678	561.01
58.0822	574.99
58.0967	576.36
58.1111	542.00
58.1255	583.39
58.1400	511.92
58.1544	495.82
58.1689	551.21
58.1833	549.14
58.1977	522.04
58.2122	541.08
58.2266	525.64
58.2411	546.49
58.2555	551.34
58.2699	582.31
58.2844	592.52
58.2988	560.36
58.3133	571.94
58.3277	560.40
58.3421	565.30
58.3566	567.24
58.3710	572.36
58.3855	556.30
58.3999	545.05
58.4143	538.32
58.4288	607.12
58.4432	588.13
58.4577	569.00
58.4721	608.11
58.4865	624.85
58.5010	625.11
58.5154	624.51
58.5299	647.44
58.5443	646.83
58.5587	630.98
58.5732	660.26
58.5876	662.71
58.6021	632.61
58.6165	630.88
58.6309	645.34
58.6454	612.96
58.6598	633.23
58.6743	640.38
58.6887	595.98
58.7031	638.33
58.7176	611.27
58.7320	599.80
58.7465	633.99
58.7609	552.40
58.7753	573.34
58.7898	586.23
58.8042	576.06
58.8187	596.93
58.8331	610.96
58.8475	584.92
58.8620	577.84
58.8764	551.30
58.8909	558.83
58.9053	594.75
58.9197	536.22
58.9342	565.64
58.9486	606.06
58.9631	565.87
58.9775	550.70
58.9919	563.60
59.0064	570.82
59.0208	588.26
59.0353	569.80
59.0497	536.58
59.0641	561.20
59.0786	549.19
59.0930	538.58
59.1075	566.74
59.1219	579.89
59.1363	556.67
59.1508	562.80
59.1652	596.13
59.1797	551.24
59.1941	539.22
59.2085	532.86
59.2230	561.38
59.2374	563.17
59.2519	536.67
59.2663	549.21
59.2807	564.94
59.2952	521.54
59.3096	552.82
59.3241	594.32
59.3385	580.59
59.3529	535.03
59.3674	564.09
59.3818	600.14
59.3963	538.48
59.4107	528.99
59.4251	583.66
59.4396	541.83
59.4540	529.33
59.4685	577.60
59.4829	563.64
59.4973	555.25
59.5118	583.91
59.5262	586.64
59.5407	567.14
59.5551	567.63
59.5695	582.67
59.5840	549.50
59.5984	544.05
59.6129	541.99
59.6273	542.25
59.6417	585.96
59.6562	560.33
59.6706	543.93
59.6851	524.66
59.6995	542.48
59.7139	529.16
59.7284	566.02
59.7428	542.19
59.7573	498.10
59.7717	518.41
59.7861	551.79
59.8006	548.19
59.8150	533.31
59.8295	544.53
59.8439	551.64
59.8583	557.72
59.8728	580.02
59.8872	527.50
59.9017	543.14
59.9161	557.23
59.9305	551.14
59.9450	565.16
59.9594	506.04
59.9739	522.65
59.9883	511.34
60.0027	564.94
60.0172	546.89
60.0316	543.14
60.0461	519.79
60.0605	551.28
60.0750	504.84
60.0894	587.71
60.1038	528.22
60.1183	547.89
60.1327	520.47
60.1472	517.93
60.1616	529.62
60.1760	566.77
60.1905	546.79
60.2049	510.86
60.2194	562.95
60.2338	544.29
60.2482	535.29
60.2627	551.94
60.2771	560.62
60.2916	551.14
60.3060	558.12
60.3204	547.16
60.3349	540.68
60.3493	544.79
60.3638	538.81
60.3782	512.58
60.3926	500.13
60.4071	484.13
60.4215	551.72
60.4360	496.35
60.4504	505.64
60.4648	529.46
60.4793	530.98
60.4937	514.27
60.5082	542.31
60.5226	537.37
60.5370	577.34
60.5515	535.09
60.5659	546.89
60.5804	546.40
60.5948	537.53
60.6092	531.51
60.6237	508.22
60.6381	516.58
60.6526	521.74
60.6670	549.89
60.6814	552.20
60.6959	552.53
60.7103	547.35
60.7248	501.69
60.7392	564.35
60.7536	550.59
60.7681	527.92
60.7825	575.13
60.7970	558.62
60.8114	517.04
60.8258	562.66
60.8403	582.67
60.8547	525.93
60.8692	534.64
60.8836	514.27
60.8980	545.08
60.9125	581.08
60.9269	580.64
60.9414	607.66
60.9558	555.03
60.9702	507.51
60.9847	530.07
60.9991	559.92
61.0136	559.29
61.0280	531.26
61.0424	557.78
61.0569	574.50
61.0713	513.68
61.0858	591.28
61.1002	507.40
61.1146	486.72
61.1291	564.21
61.1435	547.68
61.1580	563.42
61.1724	551.33
61.1868	528.67
61.2013	519.49
61.2157	539.20
61.2302	547.29
61.2446	557.41
61.2590	546.90
61.2735	521.55
61.2879	543.25
61.3024	559.23
61.3168	550.49
61.3312	547.35
61.3457	552.06
61.3601	586.52
61.3746	565.13
61.3890	527.39
61.4034	527.36
61.4179	563.18
61.4323	532.66
61.4468	558.06
61.4612	537.41
61.4756	518.78
61.4901	546.76
61.5045	545.18
61.5190	519.24
61.5334	535.47
61.5478	517.79
61.5623	503.18
61.5767	499.85
61.5912	537.03
61.6056	552.42
61.6200	517.57
61.6345	538.03
61.6489	542.97
61.6634	530.12
61.6778	527.93
61.6922	546.86
61.7067	588.40
61.7211	548.02
61.7356	544.66
61.7500	582.90
61.7644	549.40
61.7789	534.29
61.7933	538.63
61.8078	554.57
61.8222	525.05
61.8366	538.77
61.8511	539.65
61.8655	560.44
61.8800	536.55
61.8944	538.92
61.9088	541.45
61.9233	515.09
61.9377	568.73
61.9522	526.50
61.9666	504.08
61.9810	537.79
61.9955	571.78
62.0099	536.20
62.0244	545.60
62.0388	560.89
62.0532	529.90
62.0677	546.15
62.0821	546.96
62.0966	570.85
62.1110	576.94
62.1254	559.60
62.1399	547.93
62.1543	526.42
62.1688	534.62
62.1832	541.20
62.1976	564.41
62.2121	548.14
62.2265	576.84
62.2410	569.11
62.2554	561.00
62.2698	599.17
62.2843	568.87
62.2987	568.01
62.3132	568.95
62.3276	539.39
62.3420	583.51
62.3565	553.89
62.3709	575.64
62.3854	572.62
62.3998	551.86
62.4142	556.52
62.4287	591.97
62.4431	562.17
62.4576	571.16
62.4720	570.25
62.4864	560.82
62.5009	570.74
62.5153	556.88
62.5298	566.66
62.5442	567.43
62.5586	571.39
62.5731	570.10
62.5875	538.99
62.6020	558.96
62.6164	564.20
62.6308	543.05
62.6453	528.15
62.6597	530.35
62.6742	528.71
62.6886	521.73
62.7030	564.41
62.7175	562.93
62.7319	546.87
62.7464	544.07
62.7608	517.46
62.7752	545.36
62.7897	566.12
62.8041	552.23
62.8186	561.38
62.8330	569.74
62.8474	583.28
62.8619	585.94
62.8763	524.05
62.8908	539.98
62.9052	565.31
62.9196	556.18
62.9341	538.01
62.9485	567.95
62.9630	545.53
62.9774	545.25
62.9918	550.14
63.0063	540.38
63.0207	588.55
63.0352	578.30
63.0496	551.10
63.0640	569.40
63.0785	590.91
63.0929	587.68
63.1074	547.75
63.1218	559.93
63.1362	541.79
63.1507	544.98
63.1651	587.59
63.1796	590.83
63.1940	566.81
63.2084	548.09
63.2229	547.75
63.2373	550.47
63.2518	531.39
63.2662	545.32
63.2806	575.62
63.2951	578.09
63.3095	591.83
63.3240	548.00
63.3384	559.46
63.3528	582.98
63.3673	607.79
63.3817	574.71
63.3962	557.09
63.4106	555.54
63.4250	577.89
63.4395	579.31
63.4539	583.08
63.4684	577.77
63.4828	575.94
63.4972	576.24
63.5117	591.57
63.5261	578.31
63.5406	591.78
63.5550	564.89
63.5694	538.66
63.5839	561.53
63.5983	614.11
63.6128	591.59
63.6272	610.66
63.6416	596.37
63.6561	563.04
63.6705	585.59
63.6850	553.44
63.6994	604.43
63.7138	601.41
63.7283	568.25
63.7427	597.91
63.7572	605.76
63.7716	587.92
63.7861	616.56
63.8005	605.27
63.8149	605.11
63.8294	607.43
63.8438	554.11
63.8583	600.12
63.8727	616.68
63.8871	607.62
63.9016	634.08
63.9160	603.32
63.9305	597.01
63.9449	601.88
63.9593	589.48
63.9738	639.36
63.9882	634.75
64.0027	627.49
64.0171	592.83
64.0315	621.23
64.0460	624.24
64.0604	640.17
64.0749	646.78
64.0893	679.33
64.1037	678.95
64.1182	675.89
64.1326	651.58
64.1471	668.97
64.1615	651.50
64.1759	697.51
64.1904	726.35
64.2048	686.95
64.2193	728.31
64.2337	759.16
64.2481	797.42
64.2626	745.40
64.2770	787.73
64.2915	778.12
64.3059	769.15
64.3203	780.24
64.3348	789.65
64.3492	785.12
64.3637	784.35
64.3781	800.95
64.3925	766.81
64.4070	787.70
64.4214	834.85
64.4359	798.84
64.4503	775.20
64.4647	783.47
64.4792	776.23
64.4936	757.77
64.5081	764.23
64.5225	744.05
64.5369	745.11
64.5514	727.94
64.5658	781.12
64.5803	739.82
64.5947	695.38
64.6091	702.13
64.6236	703.34
64.6380	702.93
64.6525	710.61
64.6669	714.95
64.6813	722.51
64.6958	678.68
64.7102	730.88
64.7247	745.91
64.7391	733.23
64.7535	762.78
64.7680	706.27
64.7824	738.18
64.7969	780.76
64.8113	779.51
64.8257	751.81
64.8402	840.69
64.8546	880.02
64.8691	911.36
64.8835	841.86
64.8979	850.38
64.9124	867.80
64.9268	916.50
64.9413	894.32
64.9557	940.03
64.9701	1012.91
64.9846	1146.38
64.9990	1169.54
65.0135	1324.82
65.0279	1466.94
65.0423	1671.71
65.0568	2071.86
65.0712	2640.04
65.0857	3477.50
65.1001	4531.50
65.1145	5984.86
65.1290	7983.37
65.1434	9527.64
65.1579	11143.63
65.1723	11933.43
65.1867	11455.09
65.2012	9835.03
65.2156	8399.93
65.2301	6574.90
65.2445	5357.67
65.2589	4510.69
65.2734	4162.00
65.2878	4542.04
65.3023	4978.98
65.3167	5800.20
65.3311	6622.11
65.3456	7052.60
65.3600	7009.54
65.3745	6553.97
65.3889	5562.63
65.4033	4480.63
65.4178	3458.35
65.4322	2721.05
65.4467	2074.62
65.4611	1744.04
65.4755	1470.77
65.4900	1259.00
65.5044	1129.56
65.5189	1064.52
65.5333	944.61
65.5477	939.22
65.5622	968.30
65.5766	865.01
65.5911	796.96
65.6055	836.07
65.6199	767.27
65.6344	758.56
65.6488	767.95
65.6633	782.22
65.6777	721.70
65.6921	731.14
65.7066	735.26
65.7210	735.07
65.7355	689.94
65.7499	698.26
65.7643	649.62
65.7788	678.01
65.7932	674.37
65.8077	634.41
65.8221	654.82
65.8365	664.84
65.8510	653.91
65.8654	641.91
65.8799	632.03
65.8943	652.62
65.9087	649.45
65.9232	633.64
65.9376	627.31
65.9521	623.35
65.9665	611.76
65.9809	628.73
65.9954	652.44
66.0098	610.72
66.0243	621.96
66.0387	638.43
66.0531	634.65
66.0676	625.15
66.0820	642.02
66.0965	634.32
66.1109	624.01
66.1253	622.72
66.1398	589.52
66.1542	618.16
66.1687	604.71
66.1831	627.37
66.1975	587.97
66.2120	619.96
66.2264	604.72
66.2409	618.90
66.2553	626.21
66.2697	590.44
66.2842	588.65
66.2986	602.67
66.3131	626.93
66.3275	615.76
66.3419	619.15
66.3564	596.73
66.3708	623.05
66.3853	601.59
66.3997	584.39
66.4141	577.63
66.4286	608.71
66.4430	583.13
66.4575	609.70
66.4719	603.43
66.4863	571.48
66.5008	607.03
66.5152	585.35
66.5297	607.80
66.5441	584.83
66.5585	649.94
66.5730	615.51
66.5874	585.21
66.6019	594.07
66.6163	574.75
66.6307	570.22
66.6452	620.50
66.6596	615.95
66.6741	659.35
66.6885	612.10
66.7029	609.55
66.7174	601.68
66.7318	581.68
66.7463	615.89
66.7607	575.28
66.7751	574.19
66.7896	581.98
66.8040	628.63
66.8185	604.00
66.8329	574.60
66.8473	593.62
66.8618	589.70
66.8762	587.01
66.8907	560.91
66.9051	594.24
66.9195	585.87
66.9340	566.49
66.9484	590.04
66.9629	575.22
66.9773	552.34
66.9917	588.59
67.0062	580.21
67.0206	583.06
67.0351	576.96
67.0495	570.75
67.0639	582.83
67.0784	567.26
67.0928	585.40
67.1073	602.60
67.1217	591.75
67.1361	588.49
67.1506	541.34
67.1650	611.35
67.1795	606.70
67.1939	578.03
67.2083	576.18
67.2228	611.59
67.2372	613.16
67.2517	592.92
67.2661	544.88
67.2805	590.31
67.2950	543.90
67.3094	566.79
67.3239	574.30
67.3383	612.59
67.3527	600.14
67.3672	566.78
67.3816	565.59
67.3961	569.17
67.4105	585.42
67.4250	584.40
67.4394	603.68
67.4538	577.56
67.4683	588.58
67.4827	590.66
67.4972	565.11
67.5116	543.60
67.5260	566.92
67.5405	549.12
67.5549	546.20
67.5694	563.57
67.5838	567.99
67.5982	568.75
67.6127	565.68
67.6271	578.40
67.6416	574.73
67.6560	601.15
67.6704	548.76
67.6849	577.23
67.6993	610.77
67.7138	598.61
67.7282	611.55
67.7426	574.66
67.7571	594.94
67.7715	542.80
67.7860	582.41
67.8004	571.57
67.8148	604.18
67.8293	602.40
67.8437	551.68
67.8582	588.27
67.8726	612.28
67.8870	599.53
67.9015	584.77
67.9159	545.41
67.9304	578.76
67.9448	596.71
67.9592	579.78
67.9737	572.39
67.9881	569.36
68.0026	634.79
68.0170	595.31
68.0314	569.51
68.0459	573.21
68.0603	607.80
68.0748	580.41
68.0892	597.43
68.1036	567.62
68.1181	579.49
68.1325	588.72
68.1470	561.63
68.1614	552.57
68.1758	535.18
68.1903	556.08
68.2047	577.24
68.2192	582.73
68.2336	570.72
68.2480	589.42
68.2625	587.06
68.2769	580.14
68.2914	574.34
68.3058	559.20
68.3202	552.86
68.3347	560.37
68.3491	541.56
68.3636	591.05
68.3780	608.30
68.3924	599.09
68.4069	577.94
68.4213	564.55
68.4358	566.99
68.4502	534.35
68.4646	539.08
68.4791	565.19
68.4935	582.99
68.5080	582.52
68.5224	572.76
68.5368	591.37
68.5513	523.83
68.5657	565.54
68.5802	571.21
68.5946	557.95
68.6090	576.57
68.6235	562.22
68.6379	577.76
68.6524	578.77
68.6668	564.45
68.6812	533.86
68.6957	579.17
68.7101	570.15
68.7246	594.07
68.7390	586.20
68.7534	565.98
68.7679	560.20
68.7823	568.63
68.7968	566.21
68.8112	538.95
68.8256	594.93
68.8401	600.09
68.8545	588.91
68.8690	580.82
68.8834	585.97
68.8978	577.24
68.9123	619.92
68.9267	576.27
68.9412	628.14
68.9556	577.42
68.9700	579.97
68.9845	515.01
68.9989	549.19
69.0134	571.81
69.0278	600.29
69.0422	557.76
69.0567	577.37
69.0711	593.02
69.0856	604.82
69.1000	618.36
69.1144	610.88
69.1289	587.22
69.1433	536.21
69.1578	588.91
69.1722	569.52
69.1866	621.38
69.2011	600.96
69.2155	555.00
69.2300	566.07
69.2444	570.87
69.2588	562.75
69.2733	594.58
69.2877	616.62
69.3022	592.58
69.3166	559.21
69.3310	579.02
69.3455	550.87
69.3599	605.50
69.3744	597.17
69.3888	597.37
69.4032	583.50
69.4177	555.28
69.4321	573.69
69.4466	521.56
69.4610	545.21
69.4754	578.41
69.4899	600.04
69.5043	555.55
69.5188	565.99
69.5332	540.58
69.5476	569.40
69.5621	564.07
69.5765	522.30
69.5910	555.40
69.6054	537.40
69.6198	534.73
69.6343	565.56
69.6487	532.42
69.6632	580.77
69.6776	566.59
69.6920	607.24
69.7065	582.06
69.7209	616.01
69.7354	591.24
69.7498	587.13
69.7642	533.44
69.7787	573.25
69.7931	626.84
69.8076	608.54
69.8220	576.40
69.8364	598.80
69.8509	552.08
69.8653	510.68
69.8798	560.65
69.8942	558.31
69.9086	549.71
69.9231	576.87
69.9375	627.70
69.9520	586.43
69.9664	573.26
69.9808	576.27
69.9953	567.68
70.0097	565.08
70.0242	588.43
70.0386	553.15
70.0530	557.07
70.0675	615.58
70.0819	586.34
70.0964	622.48
70.1108	634.53
70.1252	622.77
70.1397	588.96
70.1541	564.52
70.1686	562.00
70.1830	626.74
70.1974	582.08
70.2119	545.82
70.2263	535.04
70.2408	536.62
70.2552	572.78
70.2696	555.13
70.2841	584.72
70.2985	561.04
70.3130	555.16
70.3274	564.85
70.3418	587.80
70.3563	595.12
70.3707	597.76
70.3852	539.93
70.3996	566.93
70.4140	554.19
70.4285	595.18
70.4429	538.08
70.4574	538.28
70.4718	615.22
70.4862	601.68
70.5007	573.04
70.5151	571.87
70.5296	566.94
70.5440	593.63
70.5584	587.85
70.5729	599.18
70.5873	540.13
70.6018	571.56
70.6162	556.16
70.6306	546.68
70.6451	569.61
70.6595	550.28
70.6740	518.65
70.6884	517.09
70.7028	592.10
70.7173	624.14
70.7317	619.65
70.7462	558.56
70.7606	567.68
70.7750	613.66
70.7895	619.04
70.8039	607.02
70.8184	629.00
70.8328	579.13
70.8472	589.00
70.8617	603.23
70.8761	571.33
70.8906	606.01
70.9050	597.60
70.9194	607.23
70.9339	636.78
70.9483	597.21
70.9628	587.84
70.9772	601.57
70.9916	565.37
71.0061	505.18
71.0205	561.73
71.0350	587.17
71.0494	581.52
71.0638	611.39
71.0783	600.07
71.0927	594.51
71.1072	586.02
71.1216	564.10
71.1361	559.89
71.1505	546.90
71.1649	589.88
71.1794	634.10
71.1938	610.97
71.2083	613.05
71.2227	611.97
71.2371	607.68
71.2516	566.42
71.2660	576.74
71.2805	609.38
71.2949	593.11
71.3093	575.14
71.3238	582.76
71.3382	591.18
71.3527	578.91
71.3671	569.41
71.3815	593.41
71.3960	572.51
71.4104	547.94
71.4249	551.47
71.4393	542.61
71.4537	574.82
71.4682	610.28
71.4826	584.44
71.4971	583.84
71.5115	597.16
71.5259	576.76
71.5404	607.70
71.5548	596.43
71.5693	554.00
71.5837	571.37
71.5981	551.20
71.6126	523.26
71.6270	574.97
71.6415	584.48
71.6559	565.36
71.6703	578.54
71.6848	574.58
71.6992	533.95
71.7137	554.46
71.7281	551.12
71.7425	574.66
71.7570	607.70
71.7714	627.33
71.7859	609.78
71.8003	598.07
71.8147	610.00
71.8292	613.37
71.8436	587.12
71.8581	570.09
71.8725	574.87
71.8869	551.73
71.9014	573.32
71.9158	583.60
71.9303	572.16
71.9447	538.27
71.9591	557.84
71.9736	560.32
71.9880	561.12
72.0025	555.37
72.0169	557.01
72.0313	607.81
72.0458	642.60
72.0602	643.84
72.0747	643.73
72.0891	651.49
72.1035	679.54
72.1180	625.42
72.1324	642.28
72.1469	599.60
72.1613	609.60
72.1757	643.33
72.1902	675.68
72.2046	631.60
72.2191	547.76
72.2335	506.05
72.2479	606.08
72.2624	637.62
72.2768	527.85
72.2913	503.50
72.3057	554.84
72.3201	551.36
72.3346	546.02
72.3490	610.26
72.3635	599.18
72.3779	532.47
72.3923	569.19
72.4068	655.13
72.4212	653.48
72.4357	625.28
72.4501	642.31
72.4645	595.75
72.4790	582.96
72.4934	569.34
72.5079	524.82
72.5223	544.38
72.5367	624.98
72.5512	594.00
72.5656	619.65
72.5801	545.59
72.5945	542.76
72.6089	643.03
72.6234	645.18
72.6378	589.31
72.6523	552.61
72.6667	673.90
72.6811	671.30
72.6956	524.59
72.7100	567.53
72.7245	608.34
72.7389	600.43
72.7533	594.50
72.7678	590.20
72.7822	601.51
72.7967	572.35
72.8111	553.57
72.8255	618.33
72.8400	625.97
72.8544	586.00
72.8689	572.84
72.8833	501.63

Result vector
22.1120	532.47
22.1264	562.41
22.1409	552.21
22.1553	496.47
22.1697	543.58
22.1842	590.86
22.1986	527.93
22.2131	566.65
22.2275	615.34
22.2419	561.30
22.2564	580.45
22.2708	571.27
22.2853	620.01
22.2997	672.80
22.3141	580.38
22.3286	514.17
22.3430	564.39
22.3575	605.78
22.3719	616.09
22.3863	575.84
22.4008	572.45
22.4152	633.36
22.4297	613.05
22.4441	636.82
22.4585	618.81
22.4730	591.56
22.4874	625.69
22.5019	621.54
22.5163	602.57
22.5307	628.28
22.5452	539.09
22.5596	660.36
22.5741	620.23
22.5885	655.92
22.6029	631.97
22.6174	528.17
22.6318	588.03
22.6463	648.75
22.6607	582.35
22.6751	570.08
22.6896	541.31
22.7040	563.95
22.7185	489.04
22.7329	538.82
22.7473	620.73
22.7618	583.63
22.7762	583.95
22.7907	568.35
22.8051	476.48
22.8195	572.49
22.8340	600.74
22.8484	585.51
22.8629	646.78
22.8773	577.91
22.8917	556.42
22.9062	553.52
22.9206	496.05
22.9351	478.68
22.9495	524.70
22.9639	559.10
22.9784	602.33
22.9928	588.61
23.0073	534.12
23.0217	601.55
23.0361	543.37
23.0506	571.48
23.0650	588.47
23.0795	482.90
23.0939	590.98
23.1083	553.21
23.1228	584.73
23.1372	564.35
23.1517	533.03
23.1661	544.53
23.1806	592.37
23.1950	549.43
23.2094	541.42
23.2239	545.29
23.2383	572.02
23.2528	556.56
23.2672	507.76
23.2816	645.73
23.2961	527.53
23.3105	534.55
23.3250	510.08
23.3394	564.88
23.3538	543.16
23.3683	554.70
23.3827	478.77
23.3972	493.68
23.4116	542.42
23.4260	582.73
23.4405	547.76
23.4549	526.69
23.4694	537.63
23.4838	603.68
23.4982	584.93
23.5127	566.22
23.5271	555.12
23.5416	567.83
23.5560	588.37
23.5704	621.27
23.5849	511.09
23.5993	598.99
23.6138	560.00
23.6282	525.69
23.6426	566.73
23.6571	598.45
23.6715	560.31
23.6860	551.35
23.7004	572.20
23.7148	601.80
23.7293	525.38
23.7437	551.72
23.7582	502.78
23.7726	518.25
23.7870	549.77
23.8015	568.00
23.8159	596.11
23.8304	513.22
23.8448	506.16
23.8592	506.25
23.8737	549.61
23.8881	536.92
23.9026	569.15
23.9170	529.21
23.9314	563.78
23.9459	496.99
23.9603	507.89
23.9748	507.68
23.9892	627.89
24.0036	533.48
24.0181	600.85
24.0325	528.21
24.0470	509.36
24.0614	588.14
24.0758	580.29
24.0903	538.18
24.1047	558.55
24.1192	566.26
24.1336	553.22
24.1480	497.24
24.1625	552.81
24.1769	581.20
24.1914	599.56
24.2058	557.53
24.2202	544.27
24.2347	595.09
24.2491	559.19
24.2636	578.80
24.2780	599.12
24.2924	516.50
24.3069	514.33
24.3213	530.82
24.3358	588.69
24.3502	578.54
24.3646	535.61
24.3791	592.61
24.3935	571.69
24.4080	627.90
24.4224	647.53
24.4368	551.42
24.4513	529.58
24.4657	537.09
24.4802	586.20
24.4946	549.80
24.5090	580.38
24.5235	508.27
24.5379	555.68
24.5524	552.61
24.5668	560.18
24.5812	564.54
24.5957	588.22
24.6101	556.26
24.6246	566.57
24.6390	538.45
24.6534	525.66
24.6679	527.40
24.6823	558.60
24.6968	535.96
24.7112	559.33
24.7256	512.76
24.7401	527.90
24.7545	522.02
24.7690	504.62
24.7834	517.55
24.7978	502.78
24.8123	543.00
24.8267	590.94
24.8412	462.73
24.8556	575.22
24.8700	595.47
24.8845	510.88
24.8989	545.49
24.9134	504.68
24.9278	503.79
24.9422	560.34
24.9567	554.65
24.9711	546.85
24.9856	508.99
25.0000	550.68
25.0144	573.51
25.0289	563.76
25.0433	621.47
25.0578	513.76
25.0722	537.42
25.0866	548.48
25.1011	549.51
25.1155	554.93
25.1300	565.06
25.1444	533.41
25.1588	533.32
25.1733	570.33
25.1877	521.70
25.2022	543.87
25.2166	541.26
25.2310	610.51
25.2455	553.96
25.2599	529.53
25.2744	531.71
25.2888	504.16
25.3032	548.40
25.3177	528.11
25.3321	537.30
25.3466	576.04
25.3610	539.07
25.3754	534.13
25.3899	546.13
25.4043	576.60
25.4188	546.47
25.4332	552.03
25.4476	535.10
25.4621	559.58
25.4765	573.15
25.4910	569.99
25.5054	551.27
25.5198	596.37
25.5343	524.95
25.5487	512.26
25.5632	523.90
25.5776	543.60
25.5920	551.64
25.6065	532.62
25.6209	536.12
25.6354	557.52
25.6498	528.78
25.6642	506.91
25.6787	521.22
25.6931	547.01
25.7076	546.55
25.7220	507.97
25.7364	544.39
25.7509	559.89
25.7653	520.76
25.7798	486.23
25.7942	540.71
25.8086	532.96
25.8231	580.30
25.8375	527.65
25.8520	508.29
25.8664	542.41
25.8808	572.63
25.8953	553.12
25.9097	542.50
25.9242	548.39
25.9386	565.94
25.9530	576.62
25.9675	539.49
25.9819	539.38
25.9964	548.35
26.0108	575.41
26.0252	567.17
26.0397	577.04
26.0541	554.18
26.0686	502.16
26.0830	541.07
26.0974	573.32
26.1119	544.51
26.1263	522.56
26.1408	505.32
26.1552	515.29
26.1696	498.96
26.1841	502.48
26.1985	547.45
26.2130	544.87
26.2274	566.77
26.2418	532.91
26.2563	523.83
26.2707	513.70
26.2852	555.15
26.2996	551.03
26.3140	545.48
26.3285	570.71
26.3429	541.81
26.3574	514.18
26.3718	529.01
26.3862	557.38
26.4007	532.54
26.4151	546.36
26.4296	532.51
26.4440	485.12
26.4584	491.85
26.4729	551.81
26.4873	535.67
26.5018	526.48
26.5162	543.90
26.5306	545.02
26.5451	528.55
26.5595	531.61
26.5740	527.00
26.5884	532.86
26.6028	577.30
26.6173	549.41
26.6317	543.58
26.6462	533.95
26.6606	543.96
26.6750	534.75
26.6895	511.75
26.7039	517.76
26.7184	528.00
26.7328	512.87
26.7472	527.35
26.7617	525.39
26.7761	545.87
26.7906	530.89
26.8050	533.84
26.8194	545.92
26.8339	544.02
26.8483	523.69
26.8628	507.48
26.8772	497.06
26.8917	533.32
26.9061	568.37
26.9205	529.52
26.9350	507.54
26.9494	546.51
26.9639	530.72
26.9783	545.09
26.9927	539.66
27.0072	502.90
27.0216	482.16
27.0361	511.32
27.0505	532.49
27.0649	552.05
27.0794	524.67
27.0938	518.29
27.1083	521.69
27.1227	505.14
27.1371	523.88
27.1516	510.96
27.1660	514.51
27.1805	515.50
27.1949	542.67
27.2093	491.64
27.2238	494.79
27.2382	542.40
27.2527	533.72
27.2671	526.15
27.2815	548.28
27.2960	536.71
27.3104	493.14
27.3249	512.70
27.3393	532.77
27.3537	514.99
27.3682	497.13
27.3826	523.63
27.3971	502.11
27.4115	516.55
27.4259	540.18
27.4404	547.44
27.4548	507.26
27.4693	535.73
27.4837	512.11
27.4981	534.79
27.5126	514.48
27.5270	517.75
27.5415	518.07
27.5559	527.90
27.5703	526.74
27.5848	511.00
27.5992	529.84
27.6137	553.28
27.6281	547.05
27.6425	527.87
27.6570	542.95
27.6714	527.23
27.6859	493.44
27.7003	518.63
27.7147	511.61
27.7292	462.10
27.7436	490.40
27.7581	506.35
27.7725	507.99
27.7869	531.25
27.8014	495.15
27.8158	521.60
27.8303	508.93
27.8447	516.97
27.8591	532.19
27.8736	544.17
27.8880	516.36
27.9025	579.62
27.9169	532.97
27.9313	532.29
27.9458	507.36
27.9602	489.00
27.9747	500.16
27.9891	525.05
28.0035	488.68
28.0180	527.60
28.0324	506.83
28.0469	536.60
28.0613	558.21
28.0757	556.49
28.0902	574.07
28.1046	460.78
28.1191	503.91
28.1335	535.39
28.1479	490.63
28.1624	532.17
28.1768	532.34
28.1913	541.48
28.2057	511.93
28.2201	540.62
28.2346	517.77
28.2490	525.98
28.2635	524.44
28.2779	526.40
28.2923	512.31
28.3068	526.93
28.3212	502.31
28.3357	552.86
28.3501	530.13
28.3645	507.61
28.3790	527.02
28.3934	490.35
28.4079	501.78
28.4223	529.90
28.4367	522.04
28.4512	513.96
28.4656	536.36
28.4801	499.98
28.4945	500.94
28.5089	503.90
28.5234	502.94
28.5378	535.24
28.5523	530.20
28.5667	573.13
28.5811	508.18
28.5956	514.23
28.6100	518.05
28.6245	519.08
28.6389	532.17
28.6533	489.33
28.6678	502.36
28.6822	497.34
28.6967	511.42
28.7111	541.86
28.7255	551.66
28.7400	507.07
28.7544	543.92
28.7689	536.79
28.7833	557.29
28.7977	513.19
28.8122	498.13
28.8266	492.57
28.8411	510.11
28.8555	516.09
28.8699	513.16
28.8844	490.07
28.8988	484.87
28.9133	520.09
28.9277	522.22
28.9421	531.12
28.9566	515.90
28.9710	518.15
28.9855	510.15
28.9999	506.00
29.0143	511.12
29.0288	559.12
29.0432	486.18
29.0577	534.99
29.0721	487.24
29.0865	527.17
29.1010	496.24
29.1154	504.81
29.1299	516.78
29.1443	516.38
29.1587	508.70
29.1732	528.14
29.1876	477.43
29.2021	517.84
29.2165	510.96
29.2309	506.58
29.2454	487.53
29.2598	500.39
29.2743	507.32
29.2887	520.86
29.3031	504.40
29.3176	505.18
29.3320	522.20
29.3465	529.38
29.3609	537.97
29.3753	500.44
29.3898	482.87
29.4042	476.66
29.4187	536.03
29.4331	505.86
29.4475	516.54
29.4620	485.32
29.4764	519.59
29.4909	497.65
29.5053	504.57
29.5197	516.77
29.5342	492.07
29.5486	501.48
29.5631	515.91
29.5775	510.12
29.5919	490.13
29.6064	512.63
29.6208	519.65
29.6353	520.50
29.6497	511.79
29.6641	527.88
29.6786	489.73
29.6930	489.22
29.7075	519.03
29.7219	495.40
29.7363	498.69
29.7508	492.04
29.7652	488.54
29.7797	485.28
29.7941	471.54
29.8085	493.78
29.8230	481.93
29.8374	501.21
29.8519	502.03
29.8663	517.65
29.8807	489.19
29.8952	511.50
29.9096	492.44
29.9241	466.77
29.9385	498.27
29.9529	463.62
29.9674	532.39
29.9818	490.91
29.9963	514.80
30.0107	510.72
30.0251	497.70
30.0396	530.40
30.0540	548.50
30.0685	534.86
30.0829	557.07
30.0973	528.56
30.1118	539.23
30.1262	523.62
30.1407	497.90
30.1551	512.05
30.1695	530.48
30.1840	497.88
30.1984	482.38
30.2129	503.63
30.2273	506.45
30.2417	499.86
30.2562	530.68
30.2706	545.96
30.2851	534.23
30.2995	506.91
30.3139	488.33
30.3284	501.72
30.3428	504.17
30.3573	490.21
30.3717	527.66
30.3861	486.80
30.4006	481.59
30.4150	545.55
30.4295	533.67
30.4439	482.16
30.4583	486.51
30.4728	514.00
30.4872	515.00
30.5017	520.08
30.5161	509.58
30.5305	535.86
30.5450	512.34
30.5594	533.54
30.5739	535.72
30.5883	503.42
30.6028	473.79
30.6172	498.09
30.6316	533.44
30.6461	513.86
30.6605	543.98
30.6750	493.09
30.6894	511.18
30.7038	533.41
30.7183	554.69
30.7327	516.54
30.7472	555.16
30.7616	531.05
30.7760	517.79
30.7905	572.62
30.8049	581.26
30.8194	586.81
30.8338	604.93
30.8482	605.12
30.8627	652.08
30.8771	656.12
30.8916	651.33
30.9060	694.79
30.9204	661.19
30.9349	683.62
30.9493	687.77
30.9638	696.47
30.9782	670.45
30.9926	646.15
31.0071	638.15
31.0215	605.14
31.0360	617.75
31.0504	594.85
31.0648	574.43
31.0793	598.75
31.0937	589.09
31.1082	533.33
31.1226	535.26
31.1370	535.99
31.1515	495.86
31.1659	548.28
31.1804	513.39
31.1948	494.19
31.2092	533.50
31.2237	517.24
31.2381	522.07
31.2526	531.09
31.2670	518.86
31.2814	547.71
31.2959	558.62
31.3103	535.35
31.3248	537.68
31.3392	516.25
31.3536	515.85
31.3681	517.64
31.3825	538.78
31.3970	534.93
31.4114	531.38
31.4258	511.53
31.4403	504.21
31.4547	533.60
31.4692	545.77
31.4836	500.34
31.4980	501.71
31.5125	514.16
31.5269	505.72
31.5414	482.70
31.5558	518.11
31.5702	559.41
31.5847	519.42
31.5991	514.36
31.6136	497.62
31.6280	506.33
31.6424	525.59
31.6569	520.04
31.6713	459.37
31.6858	518.45
31.7002	476.38
31.7146	515.72
31.7291	524.75
31.7435	486.78
31.7580	486.05
31.7724	485.27
31.7868	542.81
31.8013	479.34
31.8157	501.02
31.8302	479.32
31.8446	508.28
31.8590	532.28
31.8735	526.58
31.8879	501.72
31.9024	537.83
31.9168	549.52
31.9312	521.73
31.9457	512.98
31.9601	505.97
31.9746	496.90
31.9890	521.63
32.0034	509.12
32.0179	509.97
32.0323	494.76
32.0468	527.23
32.0612	541.97
32.0756	510.00
32.0901	526.09
32.1045	523.22
32.1190	510.95
32.1334	512.14
32.1478	476.87
32.1623	528.63
32.1767	512.67
32.1912	511.37
32.2056	499.09
32.2200	511.06
32.2345	515.67
32.2489	535.36
32.2634	534.97
32.2778	531.81
32.2922	529.68
32.3067	510.58
32.3211	459.12
32.3356	522.11
32.3500	504.08
32.3644	508.21
32.3789	493.53
32.3933	511.22
32.4078	506.36
32.4222	504.99
32.4366	503.27
32.4511	495.92
32.4655	525.17
32.4800	518.56
32.4944	496.00
32.5088	516.95
32.5233	513.22
32.5377	507.95
32.5522	518.23
32.5666	501.68
32.5810	502.00
32.5955	503.51
32.6099	520.24
32.6244	485.66
32.6388	518.17
32.6532	505.21
32.6677	499.76
32.6821	497.07
32.6966	524.67
32.7110	525.34
32.7254	511.98
32.7399	502.84
32.7543	483.48
32.7688	502.43
32.7832	503.82
32.7976	490.04
32.8121	526.36
32.8265	523.71
32.8410	498.38
32.8554	470.70
32.8698	505.31
32.8843	478.68
32.8987	534.23
32.9132	535.47
32.9276	522.13
32.9420	497.07
32.9565	510.89
32.9709	494.27
32.9854	511.56
32.9998	526.34
33.0142	528.52
33.0287	513.82
33.0431	475.25
33.0576	521.22
33.0720	545.73
33.0864	554.19
33.1009	488.46
33.1153	494.05
33.1298	506.64
33.1442	519.09
33.1586	532.76
33.1731	522.01
33.1875	478.30
33.2020	511.78
33.2164	515.55
33.2308	492.60
33.2453	495.50
33.2597	497.79
33.2742	524.94
33.2886	507.29
33.3030	526.57
33.3175	528.63
33.3319	547.70
33.3464	488.34
33.3608	477.54
33.3752	525.48
33.3897	475.44
33.4041	493.73
33.4186	510.42
33.4330	512.73
33.4474	514.03
33.4619	501.09
33.4763	476.19
33.4908	494.84
33.5052	490.62
33.5196	502.63
33.5341	544.78
33.5485	512.92
33.5630	536.17
33.5774	507.16
33.5918	510.60
33.6063	493.82
33.6207	517.10
33.6352	493.36
33.6496	521.62
33.6640	539.35
33.6785	506.04
33.6929	499.12
33.7074	519.03
33.7218	505.66
33.7362	522.72
33.7507	507.55
33.7651	535.58
33.7796	503.06
33.7940	479.93
33.8084	504.98
33.8229	521.10
33.8373	507.20
33.8518	491.12
33.8662	530.37
33.8806	495.98
33.8951	464.33
33.9095	488.24
33.9240	522.15
33.9384	490.66
33.9528	482.33
33.9673	498.03
33.9817	475.64
33.9962	498.75
34.0106	511.92
34.0250	487.14
34.0395	487.63
34.0539	502.16
34.0684	493.16
34.0828	506.08
34.0972	495.26
34.1117	475.18
34.1261	516.98
34.1406	499.09
34.1550	483.39
34.1694	540.60
34.1839	532.49
34.1983	503.82
34.2128	496.34
34.2272	502.44
34.2417	527.40
34.2561	507.58
34.2705	504.12
34.2850	501.38
34.2994	502.41
34.3139	507.81
34.3283	483.47
34.3427	493.74
34.3572	535.50
34.3716	509.66
34.3861	489.94
34.4005	503.27
34.4149	520.40
34.4294	504.21
34.4438	507.41
34.4583	526.71
34.4727	513.43
34.4871	486.42
34.5016	503.60
34.5160	489.73
34.5305	489.24
34.5449	503.78
34.5593	516.73
34.5738	512.42
34.5882	515.55
34.6027	547.12
34.6171	542.50
34.6315	530.59
34.6460	492.57
34.6604	524.20
34.6749	499.93
34.6893	497.35
34.7037	523.81
34.7182	497.47
34.7326	508.60
34.7471	498.48
34.7615	488.30
34.7759	535.09
34.7904	520.45
34.8048	484.17
34.8193	522.44
34.8337	510.40
34.8481	532.69
34.8626	547.43
34.8770	514.54
34.8915	484.89
34.9059	529.58
34.9203	498.92
34.9348	510.88
34.9492	549.51
34.9637	539.79
34.9781	551.02
34.9925	556.66
35.0070	525.75
35.0214	490.54
35.0359	520.64
35.0503	540.08
35.0647	538.17
35.0792	521.11
35.0936	520.93
35.1081	520.71
35.1225	534.16
35.1369	520.09
35.1514	463.75
35.1658	511.80
35.1803	506.50
35.1947	510.47
35.2091	490.65
35.2236	477.92
35.2380	497.86
35.2525	517.53
35.2669	512.89
35.2813	526.39
35.2958	534.64
35.3102	545.62
35.3247	525.02
35.3391	513.44
35.3535	520.25
35.3680	517.34
35.3824	518.58
35.3969	504.39
35.4113	516.91
35.4257	535.57
35.4402	522.39
35.4546	505.71
35.4691	539.88
35.4835	557.53
35.4979	512.40
35.5124	557.30
35.5268	547.08
35.5413	546.84
35.5557	555.43
35.5701	541.21
35.5846	503.77
35.5990	506.88
35.6135	505.63
35.6279	545.97
35.6423	543.12
35.6568	522.47
35.6712	499.79
35.6857	526.35
35.7001	654.92
35.7145	689.17
35.7290	651.12
35.7434	594.19
35.7579	581.94
35.7723	569.12
35.7867	619.47
35.8012	655.99
35.8156	685.16
35.8301	603.40
35.8445	590.11
35.8589	623.42
35.8734	711.07
35.8878	842.51
35.9023	987.73
35.9167	1038.83
35.9311	1410.03
35.9456	2156.96
35.9600	2338.65
35.9745	1888.30
35.9889	1983.62
36.0033	2496.10
36.0178	2622.48
36.0322	2160.81
36.0467	1883.33
36.0611	1629.27
36.0755	1495.37
36.0900	1487.33
36.1044	1233.13
36.1189	1264.92
36.1333	1201.78
36.1477	1036.78
36.1622	965.42
36.1766	943.94
36.1911	874.40
36.2055	767.38
36.2199	726.93
36.2344	694.77
36.2488	702.16
36.2633	653.23
36.2777	695.97
36.2921	719.51
36.3066	735.90
36.3210	744.98
36.3355	831.02
36.3499	804.56
36.3643	843.92
36.3788	916.71
36.3932	929.83
36.4077	993.34
36.4221	991.00
36.4365	981.07
36.4510	915.15
36.4654	940.92
36.4799	910.21
36.4943	899.88
36.5087	823.44
36.5232	773.16
36.5376	747.49
36.5521	765.74
36.5665	702.08
36.5809	702.45
36.5954	653.63
36.6098	612.39
36.6243	625.71
36.6387	602.77
36.6531	585.69
36.6676	588.99
36.6820	551.40
36.6965	598.21
36.7109	576.07
36.7253	550.32
36.7398	574.27
36.7542	501.95
36.7687	540.76
36.7831	545.54
36.7975	576.43
36.8120	597.48
36.8264	591.01
36.8409	628.78
36.8553	593.89
36.8697	602.81
36.8842	581.40
36.8986	581.94
36.9131	616.42
36.9275	601.06
36.9419	576.78
36.9564	583.40
36.9708	600.61
36.9853	544.41
36.9997	553.56
37.0141	558.58
37.0286	572.48
37.0430	543.94
37.0575	538.08
37.0719	554.13
37.0863	557.29
37.1008	544.98
37.1152	541.08
37.1297	519.02
37.1441	500.87
37.1585	533.91
37.1730	535.92
37.1874	501.86
37.2019	486.90
37.2163	504.22
37.2307	510.10
37.2452	533.24
37.2596	496.26
37.2741	496.11
37.2885	503.21
37.3029	530.12
37.3174	500.86
37.3318	518.36
37.3463	499.85
37.3607	506.38
37.3751	512.69
37.3896	521.41
37.4040	529.44
37.4185	524.75
37.4329	518.43
37.4473	488.07
37.4618	518.65
37.4762	500.52
37.4907	465.33
37.5051	494.07
37.5195	530.24
37.5340	495.08
37.5484	481.18
37.5629	510.76
37.5773	476.10
37.5917	462.49
37.6062	493.85
37.6206	505.15
37.6351	495.77
37.6495	493.00
37.6639	497.95
37.6784	497.55
37.6928	450.90
37.7073	547.09
37.7217	480.52
37.7361	474.24
37.7506	458.40
37.7650	456.11
37.7795	502.90
37.7939	498.59
37.8083	494.15
37.8228	484.78
37.8372	514.41
37.8517	495.71
37.8661	488.72
37.8805	480.61
37.8950	504.74
37.9094	499.62
37.9239	492.18
37.9383	522.50
37.9528	499.42
37.9672	470.22
37.9816	483.80
37.9961	526.09
38.0105	492.89
38.0250	490.92
38.0394	486.85
38.0538	502.50
38.0683	538.53
38.0827	541.48
38.0972	507.52
38.1116	507.85
38.1260	517.94
38.1405	537.01
38.1549	520.72
38.1694	531.78
38.1838	528.31
38.1982	493.48
38.2127	528.79
38.2271	526.23
38.2416	521.51
38.2560	508.33
38.2704	491.08
38.2849	499.31
38.2993	518.00
38.3138	506.66
38.3282	541.89
38.3426	531.83
38.3571	511.92
38.3715	528.03
38.3860	518.16
38.4004	537.88
38.4148	556.28
38.4293	599.53
38.4437	610.37
38.4582	630.94
38.4726	678.38
38.4870	742.90
38.5015	744.54
38.5159	785.04
38.5304	787.85
38.5448	818.41
38.5592	752.46
38.5737	749.67
38.5881	752.14
38.6026	716.18
38.6170	700.86
38.6314	671.23
38.6459	677.99
38.6603	661.67
38.6748	607.95
38.6892	585.40
38.7036	577.76
38.7181	525.12
38.7325	521.47
38.7470	532.36
38.7614	500.31
38.7758	521.34
38.7903	499.38
38.8047	480.54
38.8192	519.59
38.8336	531.36
38.8480	540.30
38.8625	514.52
38.8769	520.78
38.8914	510.19
38.9058	539.95
38.9202	493.75
38.9347	497.56
38.9491	499.79
38.9636	485.44
38.9780	498.02
38.9924	482.29
39.0069	503.42
39.0213	512.23
39.0358	496.44
39.0502	483.16
39.0646	526.62
39.0791	493.23
39.0935	485.52
39.1080	504.00
39.1224	498.22
39.1368	494.82
39.1513	487.31
39.1657	503.95
39.1802	513.71
39.1946	517.01
39.2090	507.56
39.2235	530.97
39.2379	503.57
39.2524	508.67
39.2668	516.03
39.2812	524.74
39.2957	499.04
39.3101	527.41
39.3246	516.03
39.3390	518.82
39.3534	499.95
39.3679	514.82
39.3823	503.87
39.3968	500.35
39.4112	506.84
39.4256	530.30
39.4401	500.97
39.4545	485.80
39.4690	511.54
39.4834	473.16
39.4978	507.73
39.5123	503.12
39.5267	509.75
39.5412	516.62
39.5556	512.67
39.5700	521.24
39.5845	528.13
39.5989	475.82
39.6134	512.95
39.6278	519.02
39.6422	512.69
39.6567	480.48
39.6711	503.83
39.6856	481.09
39.7000	465.22
39.7144	485.72
39.7289	468.02
39.7433	458.14
39.7578	493.65
39.7722	513.40
39.7866	522.01
39.8011	520.53
39.8155	512.38
39.8300	524.02
39.8444	516.33
39.8588	530.27
39.8733	493.80
39.8877	494.64
39.9022	497.00
39.9166	499.50
39.9310	506.72
39.9455	518.63
39.9599	490.39
39.9744	489.21
39.9888	555.00
40.0032	530.57
40.0177	531.73
40.0321	489.13
40.0466	499.00
40.0610	513.86
40.0754	489.33
40.0899	539.45
40.1043	511.94
40.1188	486.42
40.1332	503.25
40.1476	463.14
40.1621	521.23
40.1765	487.90
40.1910	512.39
40.2054	501.77
40.2198	500.04
40.2343	501.17
40.2487	490.23
40.2632	488.27
40.2776	470.19
40.2920	449.84
40.3065	480.95
40.3209	509.06
40.3354	504.37
40.3498	486.22
40.3642	507.86
40.3787	488.00
40.3931	497.80
40.4076	497.24
40.4220	469.52
40.4364	485.98
40.4509	472.31
40.4653	494.55
40.4798	537.27
40.4942	529.08
40.5086	464.73
40.5231	485.08
40.5375	512.81
40.5520	511.23
40.5664	510.24
40.5808	477.15
40.5953	502.19
40.6097	488.14
40.6242	497.96
40.6386	518.78
40.6530	533.19
40.6675	470.29
40.6819	490.64
40.6964	513.72
40.7108	534.63
40.7252	511.36
40.7397	505.36
40.7541	507.08
40.7686	491.33
40.7830	484.25
40.7974	477.57
40.8119	505.67
40.8263	489.36
40.8408	521.10
40.8552	504.20
40.8696	499.38
40.8841	495.02
40.8985	528.40
40.9130	524.18
40.9274	501.80
40.9418	511.88
40.9563	480.70
40.9707	454.85
40.9852	496.79
40.9996	534.69
41.0140	484.06
41.0285	497.40
41.0429	518.12
41.0574	508.05
41.0718	529.55
41.0862	525.42
41.1007	528.43
41.1151	504.29
41.1296	497.30
41.1440	497.05
41.1584	492.70
41.1729	508.96
41.1873	509.40
41.2018	501.06
41.2162	493.96
41.2306	494.23
41.2451	482.57
41.2595	502.53
41.2740	511.85
41.2884	516.94
41.3028	486.51
41.3173	502.92
41.3317	517.37
41.3462	492.64
41.3606	520.54
41.3750	515.66
41.3895	474.99
41.4039	470.79
41.4184	505.99
41.4328	522.68
41.4472	480.35
41.4617	486.66
41.4761	488.97
41.4906	486.83
41.5050	501.73
41.5194	519.03
41.5339	493.82
41.5483	464.02
41.5628	497.85
41.5772	500.09
41.5916	495.91
41.6061	518.00
41.6205	547.87
41.6350	517.07
41.6494	509.47
41.6639	490.66
41.6783	491.66
41.6927	486.01
41.7072	526.53
41.7216	519.12
41.7361	494.00
41.7505	523.60
41.7649	514.22
41.7794	512.07
41.7938	531.91
41.8083	513.55
41.8227	511.65
41.8371	489.57
41.8516	521.55
41.8660	542.59
41.8805	538.02
41.8949	570.67
41.9093	553.73
41.9238	535.88
41.9382	560.83
41.9527	544.79
41.9671	585.92
41.9815	580.01
41.9960	558.50
42.0104	552.06
42.0249	587.87
42.0393	576.99
42.0537	583.94
42.0682	584.25
42.0826	586.20
42.0971	585.50
42.1115	559.03
42.1259	596.79
42.1404	592.43
42.1548	594.24
42.1693	651.15
42.1837	679.20
42.1981	748.21
42.2126	895.51
42.2270	968.08
42.2415	1065.77
42.2559	1193.69
42.2703	1315.37
42.2848	1510.73
42.2992	1616.52
42.3137	1675.96
42.3281	1648.86
42.3425	1605.62
42.3570	1501.55
42.3714	1442.97
42.3859	1355.95
42.4003	1325.26
42.4147	1360.72
42.4292	1295.07
42.4436	1128.97
42.4581	1016.34
42.4725	924.83
42.4869	841.00
42.5014	756.13
42.5158	703.59
42.5303	661.10
42.5447	634.46
42.5591	620.02
42.5736	603.91
42.5880	571.70
42.6025	556.26
42.6169	560.24
42.6313	540.53
42.6458	541.60
42.6602	561.26
42.6747	521.77
42.6891	495.79
42.7035	551.32
42.7180	524.90
42.7324	547.63
42.7469	538.49
42.7613	534.85
42.7757	516.39
42.7902	501.73
42.8046	506.42
42.8191	504.03
42.8335	560.29
42.8479	537.92
42.8624	503.67
42.8768	531.73
42.8913	490.15
42.9057	534.89
42.9201	552.49
42.9346	569.93
42.9490	547.06
42.9635	520.27
42.9779	482.52
42.9923	492.19
43.0068	500.42
43.0212	501.75
43.0357	520.38
43.0501	524.48
43.0645	525.08
43.0790	525.44
43.0934	563.01
43.1079	529.10
43.1223	517.21
43.1367	522.25
43.1512	484.53
43.1656	532.64
43.1801	506.78
43.1945	508.81
43.2089	538.36
43.2234	536.75
43.2378	543.64
43.2523	528.81
43.2667	531.27
43.2811	540.91
43.2956	553.77
43.3100	548.27
43.3245	504.09
43.3389	516.38
43.3533	509.60
43.3678	545.37
43.3822	504.04
43.3967	510.16
43.4111	517.42
43.4255	520.23
43.4400	484.95
43.4544	523.39
43.4689	553.36
43.4833	501.30
43.4977	485.87
43.5122	499.84
43.5266	514.15
43.5411	510.42
43.5555	511.03
43.5699	507.20
43.5844	546.68
43.5988	518.37
43.6133	503.34
43.6277	486.74
43.6421	512.60
43.6566	497.78
43.6710	513.75
43.6855	504.25
43.6999	528.15
43.7143	519.03
43.7288	513.18
43.7432	521.87
43.7577	522.79
43.7721	497.10
43.7865	518.76
43.8010	529.27
43.8154	536.51
43.8299	546.02
43.8443	553.78
43.8587	537.58
43.8732	518.96
43.8876	510.80
43.9021	547.93
43.9165	509.89
43.9309	550.39
43.9454	525.39
43.9598	466.47
43.9743	495.98
43.9887	504.68
44.0031	494.89
44.0176	550.13
44.0320	514.00
44.0465	501.11
44.0609	508.86
44.0753	519.40
44.0898	579.60
44.1042	529.98
44.1187	525.91
44.1331	500.62
44.1475	506.83
44.1620	559.53
44.1764	609.72
44.1909	570.57
44.2053	644.98
44.2197	634.37
44.2342	615.54
44.2486	656.70
44.2631	638.32
44.2775	640.54
44.2919	632.11
44.3064	653.68
44.3208	654.12
44.3353	633.97
44.3497	655.80
44.3641	617.18
44.3786	590.44
44.3930	619.83
44.4075	615.45
44.4219	645.41
44.4363	629.59
44.4508	635.64
44.4652	596.66
44.4797	592.93
44.4941	589.64
44.5085	583.40
44.5230	599.48
44.5374	613.48
44.5519	583.05
44.5663	524.70
44.5807	577.86
44.5952	576.52
44.6096	568.02
44.6241	584.12
44.6385	601.11
44.6529	581.12
44.6674	580.31
44.6818	574.01
44.6963	633.47
44.7107	676.61
44.7251	699.19
44.7396	770.91
44.7540	793.46
44.7685	895.35
44.7829	882.68
44.7973	876.14
44.8118	885.77
44.8262	814.22
44.8407	768.73
44.8551	735.47
44.8695	757.83
44.8840	741.51
44.8984	751.64
44.9129	720.82
44.9273	725.11
44.9417	692.24
44.9562	662.78
44.9706	605.34
44.9851	594.93
44.9995	539.31
45.0139	556.14
45.0284	519.45
45.0428	563.21
45.0573	537.68
45.0717	484.23
45.0861	556.50
45.1006	560.01
45.1150	542.65
45.1295	538.44
45.1439	485.32
45.1583	505.21
45.1728	500.68
45.1872	499.75
45.2017	504.16
45.2161	489.63
45.2305	547.75
45.2450	503.61
45.2594	523.35
45.2739	491.41
45.2883	519.53
45.3028	501.16
45.3172	514.61
45.3316	516.97
45.3461	472.87
45.3605	500.28
45.3750	507.30
45.3894	476.72
45.4038	509.04
45.4183	504.78
45.4327	493.45
45.4472	466.71
45.4616	480.65
45.4760	497.81
45.4905	479.20
45.5049	459.42
45.5194	477.40
45.5338	520.33
45.5482	503.55
45.5627	521.67
45.5771	509.26
45.5916	514.42
45.6060	498.14
45.6204	469.05
45.6349	491.99
45.6493	525.73
45.6638	499.07
45.6782	502.46
45.6926	509.01
45.7071	499.89
45.7215	540.24
45.7360	482.09
45.7504	502.69
45.7648	519.18
45.7793	517.05
45.7937	528.34
45.8082	508.74
45.8226	500.09
45.8370	505.41
45.8515	525.84
45.8659	508.61
45.8804	500.65
45.8948	498.80
45.9092	488.38
45.9237	462.56
45.9381	505.23
45.9526	500.03
45.9670	490.76
45.9814	501.34
45.9959	518.23
46.0103	501.44
46.0248	484.62
46.0392	476.42
46.0536	500.35
46.0681	487.86
46.0825	541.26
46.0970	529.38
46.1114	515.20
46.1258	523.01
46.1403	516.26
46.1547	467.37
46.1692	468.77
46.1836	490.07
46.1980	504.88
46.2125	498.68
46.2269	532.05
46.2414	508.53
46.2558	500.28
46.2702	487.29
46.2847	493.49
46.2991	471.81
46.3136	481.97
46.3280	492.46
46.3424	503.15
46.3569	507.18
46.3713	503.61
46.3858	489.93
46.4002	510.43
46.4146	492.15
46.4291	525.12
46.4435	485.67
46.4580	505.55
46.4724	512.58
46.4868	519.33
46.5013	524.26
46.5157	517.33
46.5302	498.11
46.5446	475.21
46.5590	489.80
46.5735	493.11
46.5879	495.82
46.6024	526.81
46.6168	489.78
46.6312	480.43
46.6457	516.94
46.6601	504.79
46.6746	499.30
46.6890	514.84
46.7034	518.66
46.7179	495.35
46.7323	462.33
46.7468	504.57
46.7612	495.76
46.7756	490.54
46.7901	490.08
46.8045	518.40
46.8190	480.47
46.8334	509.30
46.8478	543.17
46.8623	542.95
46.8767	527.39
46.8912	523.81
46.9056	545.68
46.9200	499.93
46.9345	457.41
46.9489	477.77
46.9634	516.24
46.9778	514.24
46.9922	510.56
47.0067	484.66
47.0211	501.25
47.0356	515.68
47.0500	510.32
47.0644	510.14
47.0789	536.46
47.0933	546.98
47.1078	524.64
47.1222	499.31
47.1366	510.67
47.1511	454.83
47.1655	529.79
47.1800	507.79
47.1944	470.05
47.2088	480.29
47.2233	515.86
47.2377	498.78
47.2522	473.29
47.2666	500.28
47.2810	512.88
47.2955	491.36
47.3099	497.06
47.3244	513.56
47.3388	515.31
47.3532	502.48
47.3677	512.14
47.3821	539.74
47.3966	520.43
47.4110	475.10
47.4254	509.26
47.4399	503.10
47.4543	528.17
47.4688	533.59
47.4832	487.84
47.4976	528.62
47.5121	522.02
47.5265	514.40
47.5410	512.32
47.5554	533.56
47.5698	497.89
47.5843	478.07
47.5987	503.33
47.6132	516.09
47.6276	522.40
47.6420	516.23
47.6565	515.99
47.6709	500.59
47.6854	511.83
47.6998	517.43
47.7142	521.61
47.7287	501.34
47.7431	534.83
47.7576	493.02
47.7720	505.06
47.7864	511.77
47.8009	499.75
47.8153	488.76
47.8298	507.30
47.8442	491.05
47.8586	502.85
47.8731	522.49
47.8875	512.22
47.9020	510.21
47.9164	516.53
47.9308	510.47
47.9453	496.72
47.9597	473.25
47.9742	491.00
47.9886	491.01
48.0030	506.27
48.0175	504.04
48.0319	513.75
48.0464	509.00
48.0608	543.17
48.0752	513.48
48.0897	505.78
48.1041	520.45
48.1186	537.26
48.1330	516.06
48.1474	488.50
48.1619	505.31
48.1763	525.54
48.1908	482.96
48.2052	527.99
48.2196	503.73
48.2341	532.62
48.2485	534.73
48.2630	510.54
48.2774	494.26
48.2918	533.81
48.3063	513.59
48.3207	491.32
48.3352	492.95
48.3496	499.18
48.3640	518.99
48.3785	485.07
48.3929	459.94
48.4074	481.38
48.4218	519.47
48.4362	529.95
48.4507	510.80
48.4651	553.40
48.4796	549.21
48.4940	505.02
48.5084	505.81
48.5229	504.58
48.5373	542.72
48.5518	496.52
48.5662	475.10
48.5806	520.83
48.5951	533.28
48.6095	531.66
48.6240	534.37
48.6384	547.69
48.6528	499.66
48.6673	500.42
48.6817	509.06
48.6962	508.50
48.7106	518.05
48.7250	495.29
48.7395	505.37
48.7539	536.27
48.7684	487.19
48.7828	569.33
48.7972	534.57
48.8117	569.11
48.8261	587.09
48.8406	534.91
48.8550	533.43
48.8694	528.03
48.8839	516.47
48.8983	536.71
48.9128	567.87
48.9272	577.94
48.9416	573.84
48.9561	525.87
48.9705	567.99
48.9850	593.98
48.9994	552.90
49.0139	587.64
49.0283	609.17
49.0427	605.71
49.0572	667.75
49.0716	651.51
49.0861	678.25
49.1005	659.58
49.1149	777.26
49.1294	717.44
49.1438	723.09
49.1583	796.80
49.1727	874.83
49.1871	939.76
49.2016	961.98
49.2160	1055.50
49.2305	1060.80
49.2449	1200.75
49.2593	1343.40
49.2738	1359.12
49.2882	1469.48
49.3027	1578.65
49.3171	1651.35
49.3315	1698.66
49.3460	1771.66
49.3604	1754.00
49.3749	1772.05
49.3893	1819.72
49.4037	1800.95
49.4182	1781.20
49.4326	1794.16
49.4471	1675.98
49.4615	1638.19
49.4759	1539.18
49.4904	1492.90
49.5048	1414.41
49.5193	1375.34
49.5337	1318.51
49.5481	1244.96
49.5626	1144.90
49.5770	1106.24
49.5915	1005.76
49.6059	926.69
49.6203	868.33
49.6348	865.05
49.6492	764.24
49.6637	757.59
49.6781	701.06
49.6925	665.61
49.7070	684.84
49.7214	639.23
49.7359	634.06
49.7503	590.37
49.7647	565.69
49.7792	601.16
49.7936	595.96
49.8081	617.28
49.8225	600.44
49.8369	585.73
49.8514	551.47
49.8658	575.85
49.8803	578.36
49.8947	569.52
49.9091	551.43
49.9236	541.85
49.9380	528.60
49.9525	518.80
49.9669	537.47
49.9813	543.33
49.9958	511.00
50.0102	526.47
50.0247	552.34
50.0391	538.50
50.0535	555.92
50.0680	557.71
50.0824	549.15
50.0969	513.58
50.1113	511.96
50.1257	522.47
50.1402	522.88
50.1546	524.65
50.1691	507.89
50.1835	557.78
50.1979	496.84
50.2124	517.27
50.2268	526.28
50.2413	494.59
50.2557	509.46
50.2701	505.60
50.2846	531.41
50.2990	509.31
50.3135	507.14
50.3279	505.85
50.3423	505.44
50.3568	480.67
50.3712	507.94
50.3857	529.15
50.4001	497.34
50.4145	494.04
50.4290	552.84
50.4434	513.01
50.4579	510.48
50.4723	547.62
50.4867	504.47
50.5012	483.42
50.5156	538.71
50.5301	505.51
50.5445	526.89
50.5589	552.94
50.5734	525.98
50.5878	528.39
50.6023	504.18
50.6167	517.71
50.6311	567.18
50.6456	501.58
50.6600	491.54
50.6745	513.47
50.6889	508.24
50.7033	546.75
50.7178	513.07
50.7322	491.07
50.7467	493.35
50.7611	517.46
50.7755	505.32
50.7900	500.08
50.8044	505.62
50.8189	522.12
50.8333	539.58
50.8477	513.71
50.8622	533.71
50.8766	534.76
50.8911	483.83
50.9055	485.97
50.9199	520.95
50.9344	512.57
50.9488	500.49
50.9633	519.76
50.9777	504.51
50.9921	510.70
51.0066	516.78
51.0210	501.03
51.0355	538.06
51.0499	533.29
51.0643	514.97
51.0788	506.61
51.0932	500.05
51.1077	507.72
51.1221	515.27
51.1365	538.86
51.1510	485.22
51.1654	485.42
51.1799	508.18
51.1943	509.16
51.2087	495.86
51.2232	495.06
51.2376	498.51
51.2521	490.93
51.2665	500.18
51.2809	529.04
51.2954	520.01
51.3098	527.64
51.3243	517.27
51.3387	477.56
51.3531	476.68
51.3676	492.72
51.3820	479.64
51.3965	477.50
51.4109	495.42
51.4253	546.10
51.4398	509.84
51.4542	510.48
51.4687	511.97
51.4831	514.76
51.4975	534.13
51.5120	508.58
51.5264	531.71
51.5409	514.69
51.5553	546.02
51.5697	496.17
51.5842	498.97
51.5986	508.79
51.6131	505.08
51.6275	529.06
51.6419	494.96
51.6564	485.47
51.6708	497.32
51.6853	481.78
51.6997	476.76
51.7141	528.12
51.7286	523.84
51.7430	528.74
51.7575	485.58
51.7719	521.75
51.7863	549.01
51.8008	498.08
51.8152	516.56
51.8297	508.18
51.8441	491.30
51.8585	527.50
51.8730	532.86
51.8874	502.53
51.9019	517.99
51.9163	494.04
51.9307	486.25
51.9452	542.76
51.9596	495.26
51.9741	490.36
51.9885	541.99
52.0029	511.22
52.0174	524.14
52.0318	489.22
52.0463	476.28
52.0607	540.99
52.0751	509.38
52.0896	549.21
52.1040	477.74
52.1185	508.21
52.1329	511.76
52.1473	507.74
52.1618	513.05
52.1762	493.54
52.1907	462.18
52.2051	525.63
52.2195	518.85
52.2340	502.70
52.2484	535.18
52.2629	495.42
52.2773	485.64
52.2917	459.93
52.3062	480.92
52.3206	498.20
52.3351	483.29
52.3495	505.04
52.3639	506.63
52.3784	524.16
52.3928	528.27
52.4073	505.46
52.4217	499.87
52.4361	505.70
52.4506	489.03
52.4650	494.41
52.4795	509.39
52.4939	529.87
52.5083	482.56
52.5228	507.72
52.5372	519.44
52.5517	476.21
52.5661	505.02
52.5805	535.71
52.5950	543.84
52.6094	514.06
52.6239	505.00
52.6383	505.31
52.6527	497.37
52.6672	518.82
52.6816	505.95
52.6961	501.42
52.7105	546.11
52.7250	460.16
52.7394	508.08
52.7538	553.93
52.7683	548.52
52.7827	497.80
52.7972	488.47
52.8116	505.85
52.8260	528.73
52.8405	528.53
52.8549	484.14
52.8694	491.26
52.8838	510.69
52.8982	491.46
52.9127	491.97
52.9271	499.01
52.9416	519.75
52.9560	483.91
52.9704	500.55
52.9849	525.97
52.9993	500.88
53.0138	495.48
53.0282	505.97
53.0426	482.51
53.0571	509.76
53.0715	497.47
53.0860	499.20
53.1004	537.41
53.1148	536.65
53.1293	501.75
53.1437	506.05
53.1582	491.18
53.1726	494.15
53.1870	518.43
53.2015	504.29
53.2159	520.41
53.2304	501.89
53.2448	506.71
53.2592	481.97
53.2737	508.86
53.2881	504.02
53.3026	469.41
53.3170	502.20
53.3314	537.24
53.3459	527.42
53.3603	541.13
53.3748	512.71
53.3892	501.26
53.4036	468.59
53.4181	497.80
53.4325	512.34
53.4470	520.79
53.4614	513.57
53.4758	548.45
53.4903	537.13
53.5047	500.89
53.5192	465.49
53.5336	523.29
53.5480	523.20
53.5625	496.43
53.5769	497.84
53.5914	484.46
53.6058	498.60
53.6202	525.42
53.6347	558.17
53.6491	493.44
53.6636	532.99
53.6780	495.57
53.6924	471.31
53.7069	487.50
53.7213	542.98
53.7358	540.33
53.7502	497.31
53.7646	488.08
53.7791	508.09
53.7935	525.17
53.8080	519.31
53.8224	520.13
53.8368	497.63
53.8513	484.50
53.8657	480.02
53.8802	520.45
53.8946	542.37
53.9090	509.61
53.9235	476.12
53.9379	519.92
53.9524	556.28
53.9668	502.12
53.9812	501.51
53.9957	513.55
54.0101	511.58
54.0246	527.77
54.0390	507.42
54.0534	505.28
54.0679	525.76
54.0823	520.42
54.0968	499.72
54.1112	499.93
54.1256	515.19
54.1401	515.13
54.1545	534.18
54.1690	539.13
54.1834	556.43
54.1978	535.45
54.2123	519.55
54.2267	522.58
54.2412	522.91
54.2556	519.67
54.2700	520.61
54.2845	535.87
54.2989	566.06
54.3134	575.83
54.3278	549.64
54.3422	524.78
54.3567	511.75
54.3711	518.87
54.3856	539.78
54.4000	511.46
54.4144	532.04
54.4289	524.17
54.4433	524.16
54.4578	542.71
54.4722	552.21
54.4866	509.12
54.5011	501.83
54.5155	519.43
54.5300	508.64
54.5444	479.72
54.5588	530.70
54.5733	523.62
54.5877	507.10
54.6022	519.45
54.6166	550.62
54.6310	521.55
54.6455	531.08
54.6599	520.29
54.6744	517.03
54.6888	527.45
54.7032	548.05
54.7177	562.28
54.7321	527.12
54.7466	509.87
54.7610	524.53
54.7754	537.94
54.7899	542.17
54.8043	550.41
54.8188	570.78
54.8332	580.79
54.8476	551.32
54.8621	576.48
54.8765	563.70
54.8910	573.94
54.9054	609.63
54.9198	575.03
54.9343	570.40
54.9487	551.60
54.9632	576.93
54.9776	597.74
54.9920	591.09
55.0065	596.12
55.0209	616.13
55.0354	583.78
55.0498	556.80
55.0642	578.91
55.0787	579.44
55.0931	574.52
55.1076	570.93
55.1220	571.86
55.1364	555.29
55.1509	547.81
55.1653	544.17
55.1798	544.74
55.1942	517.37
55.2086	536.68
55.2231	514.99
55.2375	531.33
55.2520	532.17
55.2664	526.15
55.2808	533.55
55.2953	517.39
55.3097	511.95
55.3242	529.68
55.3386	518.94
55.3530	521.60
55.3675	528.38
55.3819	515.08
55.3964	510.86
55.4108	523.19
55.4252	520.16
55.4397	534.72
55.4541	500.45
55.4686	555.15
55.4830	538.94
55.4974	538.96
55.5119	520.71
55.5263	498.36
55.5408	507.80
55.5552	549.80
55.5696	512.77
55.5841	514.41
55.5985	501.36
55.6130	518.65
55.6274	562.84
55.6418	542.19
55.6563	544.24
55.6707	532.48
55.6852	521.44
55.6996	556.08
55.7140	541.33
55.7285	535.09
55.7429	500.23
55.7574	537.52
55.7718	510.58
55.7862	518.58
55.8007	537.75
55.8151	554.11
55.8296	537.73
55.8440	526.81
55.8584	534.78
55.8729	557.84
55.8873	518.05
55.9018	561.32
55.9162	527.79
55.9306	505.56
55.9451	525.93
55.9595	497.76
55.9740	539.14
55.9884	538.85
56.0028	509.05
56.0173	499.87
56.0317	517.86
56.0462	491.39
56.0606	517.99
56.0750	561.78
56.0895	544.29
56.1039	527.36
56.1184	557.22
56.1328	519.58
56.1472	475.69
56.1617	512.28
56.1761	537.90
56.1906	526.03
56.2050	537.81
56.2194	517.31
56.2339	522.78
56.2483	551.47
56.2628	526.67
56.2772	524.41
56.2916	522.68
56.3061	532.64
56.3205	557.22
56.3350	521.78
56.3494	512.59
56.3639	538.24
56.3783	531.46
56.3927	518.22
56.4072	480.31
56.4216	541.24
56.4361	561.55
56.4505	539.40
56.4649	539.92
56.4794	561.01
56.4938	564.61
56.5083	540.05
56.5227	545.42
56.5371	505.65
56.5516	546.08
56.5660	525.21
56.5805	524.13
56.5949	482.98
56.6093	507.72
56.6238	507.83
56.6382	534.87
56.6527	508.55
56.6671	509.37
56.6815	557.15
56.6960	543.01
56.7104	522.11
56.7249	544.84
56.7393	528.78
56.7537	528.97
56.7682	528.87
56.7826	561.99
56.7971	520.55
56.8115	526.77
56.8259	540.32
56.8404	539.33
56.8548	536.17
56.8693	532.83
56.8837	553.07
56.8981	518.20
56.9126	503.68
56.9270	524.32
56.9415	547.30
56.9559	524.53
56.9703	525.51
56.9848	539.62
56.9992	522.76
57.0137	536.14
57.0281	513.94
57.0425	532.34
57.0570	545.01
57.0714	539.93
57.0859	532.16
57.1003	551.49
57.1147	528.60
57.1292	510.47
57.1436	510.51
57.1581	501.05
57.1725	490.50
57.1869	522.63
57.2014	538.17
57.2158	509.68
57.2303	530.09
57.2447	559.92
57.2591	501.79
57.2736	539.42
57.2880	559.68
57.3025	543.14
57.3169	488.12
57.3313	514.89
57.3458	534.28
57.3602	534.12
57.3747	525.28
57.3891	525.94
57.4035	532.49
57.4180	512.81
57.4324	530.33
57.4469	510.31
57.4613	532.75
57.4757	553.29
57.4902	548.02
57.5046	532.11
57.5191	524.38
57.5335	526.52
57.5479	518.78
57.5624	494.31
57.5768	498.83
57.5913	506.43
57.6057	519.75
57.6201	535.05
57.6346	530.93
57.6490	536.85
57.6635	501.44
57.6779	492.72
57.6923	519.50
57.7068	528.71
57.7212	516.84
57.7357	521.04
57.7501	536.90
57.7645	517.14
57.7790	539.51
57.7934	527.41
57.8079	511.80
57.8223	503.08
57.8367	534.67
57.8512	510.99
57.8656	519.96
57.8801	508.72
57.8945	502.70
57.9089	548.91
57.9234	558.58
57.9378	531.97
57.9523	575.24
57.9667	537.37
57.9811	574.06
57.9956	537.39
58.0100	537.63
58.0245	539.56
58.0389	506.26
58.0533	507.64
58.0678	561.01
58.0822	574.99
58.0967	576.36
58.1111	542.00
58.1255	583.39
58.1400	511.92
58.1544	495.82
58.1689	551.21
58.1833	549.14
58.1977	522.04
58.2122	541.08
58.2266	525.64
58.2411	546.49
58.2555	551.34
58.2699	582.31
58.2844	592.52
58.2988	560.36
58.3133	571.94
58.3277	560.40
58.3421	565.30
58.3566	567.24
58.3710	572.36
58.3855	556.30
58.3999	545.05
58.4143	538.32
58.4288	607.12
58.4432	588.13
58.4577	569.00
58.4721	608.11
58.4865	624.85
58.5010	625.11
58.5154	624.51
58.5299	647.44
58.5443	646.83
58.5587	630.98
58.5732	660.26
58.5876	662.71
58.6021	632.61
58.6165	630.88
58.6309	645.34
58.6454	612.96
58.6598	633.23
58.6743	640.38
58.6887	595.98
58.7031	638.33
58.7176	611.27
58.7320	599.80
58.7465	633.99
58.7609	552.40
58.7753	573.34
58.7898	586.23
58.8042	576.06
58.8187	596.93
58.8331	610.96
58.8475	584.92
58.8620	577.84
58.8764	551.30
58.8909	558.83
58.9053	594.75
58.9197	536.22
58.9342	565.64
58.9486	606.06
58.9631	565.87
58.9775	550.70
58.9919	563.60
59.0064	570.82
59.0208	588.26
59.0353	569.80
59.0497	536.58
59.0641	561.20
59.0786	549.19
59.0930	538.58
59.1075	566.74
59.1219	579.89
59.1363	556.67
59.1508	562.80
59.1652	596.13
59.1797	551.24
59.1941	539.22
59.2085	532.86
59.2230	561.38
59.2374	563.17
59.2519	536.67
59.2663	549.21
59.2807	564.94
59.2952	521.54
59.3096	552.82
59.3241	594.32
59.3385	580.59
59.3529	535.03
59.3674	564.09
59.3818	600.14
59.3963	538.48
59.4107	528.99
59.4251	583.66
59.4396	541.83
59.4540	529.33
59.4685	577.60
59.4829	563.64
59.4973	555.25
59.5118	583.91
59.5262	586.64
59.5407	567.14
59.5551	567.63
59.5695	582.67
59.5840	549.50
59.5984	544.05
59.6129	541.99
59.6273	542.25
59.6417	585.96
59.6562	560.33
59.6706	543.93
59.6851	524.66
59.6995	542.48
59.7139	529.16
59.7284	566.02
59.7428	542.19
59.7573	498.10
59.7717	518.41
59.7861	551.79
59.8006	548.19
59.8150	533.31
59.8295	544.53
59.8439	551.64
59.8583	557.72
59.8728	580.02
59.8872	527.50
59.9017	543.14
59.9161	557.23
59.9305	551.14
59.9450	565.16
59.9594	506.04
59.9739	522.65
59.9883	511.34
60.0027	564.94
60.0172	546.89
60.0316	543.14
60.0461	519.79
60.0605	551.28
60.0750	504.84
60.0894	587.71
60.1038	528.22
60.1183	547.89
60.1327	520.47
60.1472	517.93
60.1616	529.62
60.1760	566.77
60.1905	546.79
60.2049	510.86
60.2194	562.95
60.2338	544.29
60.2482	535.29
60.2627	551.94
60.2771	560.62
60.2916	551.14
60.3060	558.12
60.3204	547.16
60.3349	540.68
60.3493	544.79
60.3638	538.81
60.3782	512.58
60.3926	500.13
60.4071	484.13
60.4215	551.72
60.4360	496.35
60.4504	505.64
60.4648	529.46
60.4793	530.98
60.4937	514.27
60.5082	542.31
60.5226	537.37
60.5370	577.34
60.5515	535.09
60.5659	546.89
60.5804	546.40
60.5948	537.53
60.6092	531.51
60.6237	508.22
60.6381	516.58
60.6526	521.74
60.6670	549.89
60.6814	552.20
60.6959	552.53
60.7103	547.35
60.7248	501.69
60.7392	564.35
60.7536	550.59
60.7681	527.92
60.7825	575.13
60.7970	558.62
60.8114	517.04
60.8258	562.66
60.8403	582.67
60.8547	525.93
60.8692	534.64
60.8836	514.27
60.8980	545.08
60.9125	581.08
60.9269	580.64
60.9414	607.66
60.9558	555.03
60.9702	507.51
60.9847	530.07
60.9991	559.92
61.0136	559.29
61.0280	531.26
61.0424	557.78
61.0569	574.50
61.0713	513.68
61.0858	591.28
61.1002	507.40
61.1146	486.72
61.1291	564.21
61.1435	547.68
61.1580	563.42
61.1724	551.33
61.1868	528.67
61.2013	519.49
61.2157	539.20
61.2302	547.29
61.2446	557.41
61.2590	546.90
61.2735	521.55
61.2879	543.25
61.3024	559.23
61.3168	550.49
61.3312	547.35
61.3457	552.06
61.3601	586.52
61.3746	565.13
61.3890	527.39
61.4034	527.36
61.4179	563.18
61.4323	532.66
61.4468	558.06
61.4612	537.41
61.4756	518.78
61.4901	546.76
61.5045	545.18
61.5190	519.24
61.5334	535.47
61.5478	517.79
61.5623	503.18
61.5767	499.85
61.5912	537.03
61.6056	552.42
61.6200	517.57
61.6345	538.03
61.6489	542.97
61.6634	530.12
61.6778	527.93
61.6922	546.86
61.7067	588.40
61.7211	548.02
61.7356	544.66
61.7500	582.90
61.7644	549.40
61.7789	534.29
61.7933	538.63
61.8078	554.57
61.8222	525.05
61.8366	538.77
61.8511	539.65
61.8655	560.44
61.8800	536.55
61.8944	538.92
61.9088	541.45
61.9233	515.09
61.9377	568.73
61.9522	526.50
61.9666	504.08
61.9810	537.79
61.9955	571.78
62.0099	536.20
62.0244	545.60
62.0388	560.89
62.0532	529.90
62.0677	546.15
62.0821	546.96
62.0966	570.85
62.1110	576.94
62.1254	559.60
62.1399	547.93
62.1543	526.42
62.1688	534.62
62.1832	541.20
62.1976	564.41
62.2121	548.14
62.2265	576.84
62.2410	569.11
62.2554	561.00
62.2698	599.17
62.2843	568.87
62.2987	568.01
62.3132	568.95
62.3276	539.39
62.3420	583.51
62.3565	553.89
62.3709	575.64
62.3854	572.62
62.3998	551.86
62.4142	556.52
62.4287	591.97
62.4431	562.17
62.4576	571.16
62.4720	570.25
62.4864	560.82
62.5009	570.74
62.5153	556.88
62.5298	566.66
62.5442	567.43
62.5586	571.39
62.5731	570.10
62.5875	538.99
62.6020	558.96
62.6164	564.20
62.6308	543.05
62.6453	528.15
62.6597	530.35
62.6742	528.71
62.6886	521.73
62.7030	564.41
62.7175	562.93
62.7319	546.87
62.7464	544.07
62.7608	517.46
62.7752	545.36
62.7897	566.12
62.8041	552.23
62.8186	561.38
62.8330	569.74
62.8474	583.28
62.8619	585.94
62.8763	524.05
62.8908	539.98
62.9052	565.31
62.9196	556.18
62.9341	538.01
62.9485	567.95
62.9630	545.53
62.9774	545.25
62.9918	550.14
63.0063	540.38
63.0207	588.55
63.0352	578.30
63.0496	551.10
63.0640	569.40
63.0785	590.91
63.0929	587.68
63.1074	547.75
63.1218	559.93
63.1362	541.79
63.1507	544.98
63.1651	587.59
63.1796	590.83
63.1940	566.81
63.2084	548.09
63.2229	547.75
63.2373	550.47
63.2518	531.39
63.2662	545.32
63.2806	575.62
63.2951	578.09
63.3095	591.83
63.3240	548.00
63.3384	559.46
63.3528	582.98
63.3673	607.79
63.3817	574.71
63.3962	557.09
63.4106	555.54
63.4250	577.89
63.4395	579.31
63.4539	583.08
63.4684	577.77
63.4828	575.94
63.4972	576.24
63.5117	591.57
63.5261	578.31
63.5406	591.78
63.5550	564.89
63.5694	538.66
63.5839	561.53
63.5983	614.11
63.6128	591.59
63.6272	610.66
63.6416	596.37
63.6561	563.04
63.6705	585.59
63.6850	553.44
63.6994	604.43
63.7138	601.41
63.7283	568.25
63.7427	597.91
63.7572	605.76
63.7716	587.92
63.7861	616.56
63.8005	605.27
63.8149	605.11
63.8294	607.43
63.8438	554.11
63.8583	600.12
63.8727	616.68
63.8871	607.62
63.9016	634.08
63.9160	603.32
63.9305	597.01
63.9449	601.88
63.9593	589.48
63.9738	639.36
63.9882	634.75
64.0027	627.49
64.0171	592.83
64.0315	621.23
64.0460	624.24
64.0604	640.17
64.0749	646.78
64.0893	679.33
64.1037	678.95
64.1182	675.89
64.1326	651.58
64.1471	668.97
64.1615	651.50
64.1759	697.51
64.1904	726.35
64.2048	686.95
64.2193	728.31
64.2337	759.16
64.2481	797.42
64.2626	745.40
64.2770	787.73
64.2915	778.12
64.3059	769.15
64.3203	780.24
64.3348	789.65
64.3492	785.12
64.3637	784.35
64.3781	800.95
64.3925	766.81
64.4070	787.70
64.4214	834.85
64.4359	798.84
64.4503	775.20
64.4647	783.47
64.4792	776.23
64.4936	757.77
64.5081	764.23
64.5225	744.05
64.5369	745.11
64.5514	727.94
64.5658	781.12
64.5803	739.82
64.5947	695.38
64.6091	702.13
64.6236	703.34
64.6380	702.93
64.6525	710.61
64.6669	714.95
64.6813	722.51
64.6958	678.68
64.7102	730.88
64.7247	745.91
64.7391	733.23
64.7535	762.78
64.7680	706.27
64.7824	738.18
64.7969	780.76
64.8113	779.51
64.8257	751.81
64.8402	840.69
64.8546	880.02
64.8691	911.36
64.8835	841.86
64.8979	850.38
64.9124	867.80
64.9268	916.50
64.9413	894.32
64.9557	940.03
64.9701	1012.91
64.9846	1146.38
64.9990	1169.54
65.0135	1324.82
65.0279	1466.94
65.0423	1671.71
65.0568	2071.86
65.0712	2640.04
65.0857	3477.50
65.1001	4531.50
65.1145	5984.86
65.1290	7983.37
65.1434	9527.64
65.1579	11143.63
65.1723	11933.43
65.1867	11455.09
65.2012	9835.03
65.2156	8399.93
65.2301	6574.90
65.2445	5357.67
65.2589	4510.69
65.2734	4162.00
65.2878	4542.04
65.3023	4978.98
65.3167	5800.20
65.3311	6622.11
65.3456	7052.60
65.3600	7009.54
65.3745	6553.97
65.3889	5562.63
65.4033	4480.63
65.4178	3458.35
65.4322	2721.05
65.4467	2074.62
65.4611	1744.04
65.4755	1470.77
65.4900	1259.00
65.5044	1129.56
65.5189	1064.52
65.5333	944.61
65.5477	939.22
65.5622	968.30
65.5766	865.01
65.5911	796.96
65.6055	836.07
65.6199	767.27
65.6344	758.56
65.6488	767.95
65.6633	782.22
65.6777	721.70
65.6921	731.14
65.7066	735.26
65.7210	735.07
65.7355	689.94
65.7499	698.26
65.7643	649.62
65.7788	678.01
65.7932	674.37
65.8077	634.41
65.8221	654.82
65.8365	664.84
65.8510	653.91
65.8654	641.91
65.8799	632.03
65.8943	652.62
65.9087	649.45
65.9232	633.64
65.9376	627.31
65.9521	623.35
65.9665	611.76
65.9809	628.73
65.9954	652.44
66.0098	610.72
66.0243	621.96
66.0387	638.43
66.0531	634.65
66.0676	625.15
66.0820	642.02
66.0965	634.32
66.1109	624.01
66.1253	622.72
66.1398	589.52
66.1542	618.16
66.1687	604.71
66.1831	627.37
66.1975	587.97
66.2120	619.96
66.2264	604.72
66.2409	618.90
66.2553	626.21
66.2697	590.44
66.2842	588.65
66.2986	602.67
66.3131	626.93
66.3275	615.76
66.3419	619.15
66.3564	596.73
66.3708	623.05
66.3853	601.59
66.3997	584.39
66.4141	577.63
66.4286	608.71
66.4430	583.13
66.4575	609.70
66.4719	603.43
66.4863	571.48
66.5008	607.03
66.5152	585.35
66.5297	607.80
66.5441	584.83
66.5585	649.94
66.5730	615.51
66.5874	585.21
66.6019	594.07
66.6163	574.75
66.6307	570.22
66.6452	620.50
66.6596	615.95
66.6741	659.35
66.6885	612.10
66.7029	609.55
66.7174	601.68
66.7318	581.68
66.7463	615.89
66.7607	575.28
66.7751	574.19
66.7896	581.98
66.8040	628.63
66.8185	604.00
66.8329	574.60
66.8473	593.62
66.8618	589.70
66.8762	587.01
66.8907	560.91
66.9051	594.24
66.9195	585.87
66.9340	566.49
66.9484	590.04
66.9629	575.22
66.9773	552.34
66.9917	588.59
67.0062	580.21
67.0206	583.06
67.0351	576.96
67.0495	570.75
67.0639	582.83
67.0784	567.26
67.0928	585.40
67.1073	602.60
67.1217	591.75
67.1361	588.49
67.1506	541.34
67.1650	611.35
67.1795	606.70
67.1939	578.03
67.2083	576.18
67.2228	611.59
67.2372	613.16
67.2517	592.92
67.2661	544.88
67.2805	590.31
67.2950	543.90
67.3094	566.79
67.3239	574.30
67.3383	612.59
67.3527	600.14
67.3672	566.78
67.3816	565.59
67.3961	569.17
67.4105	585.42
67.4250	584.40
67.4394	603.68
67.4538	577.56
67.4683	588.58
67.4827	590.66
67.4972	565.11
67.5116	543.60
67.5260	566.92
67.5405	549.12
67.5549	546.20
67.5694	563.57
67.5838	567.99
67.5982	568.75
67.6127	565.68
67.6271	578.40
67.6416	574.73
67.6560	601.15
67.6704	548.76
67.6849	577.23
67.6993	610.77
67.7138	598.61
67.7282	611.55
67.7426	574.66
67.7571	594.94
67.7715	542.80
67.7860	582.41
67.8004	571.57
67.8148	604.18
67.8293	602.40
67.8437	551.68
67.8582	588.27
67.8726	612.28
67.8870	599.53
67.9015	584.77
67.9159	545.41
67.9304	578.76
67.9448	596.71
67.9592	579.78
67.9737	572.39
67.9881	569.36
68.0026	634.79
68.0170	595.31
68.0314	569.51
68.0459	573.21
68.0603	607.80
68.0748	580.41
68.0892	597.43
68.1036	567.62
68.1181	579.49
68.1325	588.72
68.1470	561.63
68.1614	552.57
68.1758	535.18
68.1903	556.08
68.2047	577.24
68.2192	582.73
68.2336	570.72
68.2480	589.42
68.2625	587.06
68.2769	580.14
68.2914	574.34
68.3058	559.20
68.3202	552.86
68.3347	560.37
68.3491	541.56
68.3636	591.05
68.3780	608.30
68.3924	599.09
68.4069	577.94
68.4213	564.55
68.4358	566.99
68.4502	534.35
68.4646	539.08
68.4791	565.19
68.4935	582.99
68.5080	582.52
68.5224	572.76
68.5368	591.37
68.5513	523.83
68.5657	565.54
68.5802	571.21
68.5946	557.95
68.6090	576.57
68.6235	562.22
68.6379	577.76
68.6524	578.77
68.6668	564.45
68.6812	533.86
68.6957	579.17
68.7101	570.15
68.7246	594.07
68.7390	586.20
68.7534	565.98
68.7679	560.20
68.7823	568.63
68.7968	566.21
68.8112	538.95
68.8256	594.93
68.8401	600.09
68.8545	588.91
68.8690	580.82
68.8834	585.97
68.8978	577.24
68.9123	619.92
68.9267	576.27
68.9412	628.14
68.9556	577.42
68.9700	579.97
68.9845	515.01
68.9989	549.19
69.0134	571.81
69.0278	600.29
69.0422	557.76
69.0567	577.37
69.0711	593.02
69.0856	604.82
69.1000	618.36
69.1144	610.88
69.1289	587.22
69.1433	536.21
69.1578	588.91
69.1722	569.52
69.1866	621.38
69.2011	600.96
69.2155	555.00
69.2300	566.07
69.2444	570.87
69.2588	562.75
69.2733	594.58
69.2877	616.62
69.3022	592.58
69.3166	559.21
69.3310	579.02
69.3455	550.87
69.3599	605.50
69.3744	597.17
69.3888	597.37
69.4032	583.50
69.4177	555.28
69.4321	573.69
69.4466	521.56
69.4610	545.21
69.4754	578.41
69.4899	600.04
69.5043	555.55
69.5188	565.99
69.5332	540.58
69.5476	569.40
69.5621	564.07
69.5765	522.30
69.5910	555.40
69.6054	537.40
69.6198	534.73
69.6343	565.56
69.6487	532.42
69.6632	580.77
69.6776	566.59
69.6920	607.24
69.7065	582.06
69.7209	616.01
69.7354	591.24
69.7498	587.13
69.7642	533.44
69.7787	573.25
69.7931	626.84
69.8076	608.54
69.8220	576.40
69.8364	598.80
69.8509	552.08
69.8653	510.68
69.8798	560.65
69.8942	558.31
69.9086	549.71
69.9231	576.87
69.9375	627.70
69.9520	586.43
69.9664	573.26
69.9808	576.27
69.9953	567.68
70.0097	565.08
70.0242	588.43
70.0386	553.15
70.0530	557.07
70.0675	615.58
70.0819	586.34
70.0964	622.48
70.1108	634.53
70.1252	622.77
70.1397	588.96
70.1541	564.52
70.1686	562.00
70.1830	626.74
70.1974	582.08
70.2119	545.82
70.2263	535.04
70.2408	536.62
70.2552	572.78
70.2696	555.13
70.2841	584.72
70.2985	561.04
70.3130	555.16
70.3274	564.85
70.3418	587.80
70.3563	595.12
70.3707	597.76
70.3852	539.93
70.3996	566.93
70.4140	554.19
70.4285	595.18
70.4429	538.08
70.4574	538.28
70.4718	615.22
70.4862	601.68
70.5007	573.04
70.5151	571.87
70.5296	566.94
70.5440	593.63
70.5584	587.85
70.5729	599.18
70.5873	540.13
70.6018	571.56
70.6162	556.16
70.6306	546.68
70.6451	569.61
70.6595	550.28
70.6740	518.65
70.6884	517.09
70.7028	592.10
70.7173	624.14
70.7317	619.65
70.7462	558.56
70.7606	567.68
70.7750	613.66
70.7895	619.04
70.8039	607.02
70.8184	629.00
70.8328	579.13
70.8472	589.00
70.8617	603.23
70.8761	571.33
70.8906	606.01
70.9050	597.60
70.9194	607.23
70.9339	636.78
70.9483	597.21
70.9628	587.84
70.9772	601.57
70.9916	565.37
71.0061	505.18
71.0205	561.73
71.0350	587.17
71.0494	581.52
71.0638	611.39
71.0783	600.07
71.0927	594.51
71.1072	586.02
71.1216	564.10
71.1361	559.89
71.1505	546.90
71.1649	589.88
71.1794	634.10
71.1938	610.97
71.2083	613.05
71.2227	611.97
71.2371	607.68
71.2516	566.42
71.2660	576.74
71.2805	609.38
71.2949	593.11
71.3093	575.14
71.3238	582.76
71.3382	591.18
71.3527	578.91
71.3671	569.41
71.3815	593.41
71.3960	572.51
71.4104	547.94
71.4249	551.47
71.4393	542.61
71.4537	574.82
71.4682	610.28
71.4826	584.44
71.4971	583.84
71.5115	597.16
71.5259	576.76
71.5404	607.70
71.5548	596.43
71.5693	554.00
71.5837	571.37
71.5981	551.20
71.6126	523.26
71.6270	574.97
71.6415	584.48
71.6559	565.36
71.6703	578.54
71.6848	574.58
71.6992	533.95
71.7137	554.46
71.7281	551.12
71.7425	574.66
71.7570	607.70
71.7714	627.33
71.7859	609.78
71.8003	598.07
71.8147	610.00
71.8292	613.37
71.8436	587.12
71.8581	570.09
71.8725	574.87
71.8869	551.73
71.9014	573.32
71.9158	583.60
71.9303	572.16
71.9447	538.27
71.9591	557.84
71.9736	560.32
71.9880	561.12
72.0025	555.37
72.0169	557.01
72.0313	607.81
72.0458	642.60
72.0602	643.84
72.0747	643.73
72.0891	651.49
72.1035	679.54
72.1180	625.42
72.1324	642.28
72.1469	599.60
72.1613	609.60
72.1757	643.33
72.1902	675.68
72.2046	631.60
72.2191	547.76
72.2335	506.05
72.2479	606.08
72.2624	637.62
72.2768	527.85
72.2913	503.50
72.3057	554.84
72.3201	551.36
72.3346	546.02
72.3490	610.26
72.3635	599.18
72.3779	532.47
72.3923	569.19
72.4068	655.13
72.4212	653.48
72.4357	625.28
72.4501	642.31
72.4645	595.75
72.4790	582.96
72.4934	569.34
72.5079	524.82
72.5223	544.38
72.5367	624.98
72.5512	594.00
72.5656	619.65
72.5801	545.59
72.5945	542.76
72.6089	643.03
72.6234	645.18
72.6378	589.31
72.6523	552.61
72.6667	673.90
72.6811	671.30
72.6956	524.59
72.7100	567.53
72.7245	608.34
72.7389	600.43
72.7533	594.50
72.7678	590.20
72.7822	601.51
72.7967	572.35
72.8111	553.57
72.8255	618.33
72.8400	625.97
72.8544	586.00
72.8689	572.84
72.8833	501.63