2022.09.19 19:37:17
Îáðàçåö: ß÷åéêà LCoV 16-09-2022
Lambda1 = 1.54060
Lambda2 = 1.54439
Lambdam = 1.54186
R = 0.497
2Theta	I

line¹ 0 ;repeat¹ 0
22.1120	565.11
22.1264	540.39
22.1409	493.64
22.1553	597.29
22.1697	597.80
22.1842	522.18
22.1986	539.43
22.2131	536.76
22.2275	517.59
22.2419	596.19
22.2564	626.07
22.2708	595.42
22.2853	565.42
22.2997	500.05
22.3141	588.07
22.3286	521.40
22.3430	518.78
22.3575	535.52
22.3719	459.73
22.3863	512.23
22.4008	529.09
22.4152	564.40
22.4297	633.73
22.4441	548.64
22.4585	515.67
22.4730	522.14
22.4874	604.22
22.5019	608.87
22.5163	558.30
22.5307	531.66
22.5452	575.93
22.5596	550.90
22.5741	565.11
22.5885	576.93
22.6029	579.92
22.6174	542.69
22.6318	579.33
22.6463	570.57
22.6607	533.78
22.6751	500.35
22.6896	559.15
22.7040	505.37
22.7185	662.63
22.7329	654.32
22.7473	615.16
22.7618	473.23
22.7762	534.46
22.7907	618.92
22.8051	551.12
22.8195	600.70
22.8340	552.00
22.8484	530.47
22.8629	517.58
22.8773	523.37
22.8917	540.59
22.9062	536.27
22.9206	536.23
22.9351	565.09
22.9495	514.91
22.9639	471.34
22.9784	553.00
22.9928	611.73
23.0073	502.02
23.0217	491.12
23.0361	536.79
23.0506	544.22
23.0650	681.63
23.0795	558.10
23.0939	528.28
23.1083	518.20
23.1228	614.91
23.1372	558.85
23.1517	577.36
23.1661	579.35
23.1806	538.33
23.1950	522.67
23.2094	583.99
23.2239	603.67
23.2383	616.03
23.2528	539.78
23.2672	556.50
23.2816	517.33
23.2961	560.56
23.3105	577.76
23.3250	525.22
23.3394	524.75
23.3538	583.01
23.3683	567.33
23.3827	544.48
23.3972	538.01
23.4116	525.73
23.4260	543.82
23.4405	602.23
23.4549	530.24
23.4694	586.76
23.4838	587.40
23.4982	580.19
23.5127	557.69
23.5271	484.60
23.5416	553.03
23.5560	632.22
23.5704	625.19
23.5849	608.58
23.5993	501.00
23.6138	532.98
23.6282	548.40
23.6426	551.48
23.6571	601.08
23.6715	503.92
23.6860	635.42
23.7004	538.85
23.7148	587.49
23.7293	574.48
23.7437	540.37
23.7582	546.36
23.7726	540.51
23.7870	535.27
23.8015	532.65
23.8159	577.42
23.8304	512.78
23.8448	610.86
23.8592	582.63
23.8737	534.84
23.8881	544.52
23.9026	538.93
23.9170	560.78
23.9314	610.41
23.9459	540.52
23.9603	551.17
23.9748	564.75
23.9892	564.32
24.0036	570.59
24.0181	558.04
24.0325	521.52
24.0470	518.13
24.0614	572.42
24.0758	546.09
24.0903	484.16
24.1047	541.28
24.1192	542.04
24.1336	588.32
24.1480	560.49
24.1625	600.76
24.1769	587.59
24.1914	565.71
24.2058	555.97
24.2202	601.72
24.2347	623.67
24.2491	547.80
24.2636	559.11
24.2780	569.19
24.2924	580.48
24.3069	604.67
24.3213	612.82
24.3358	576.78
24.3502	564.77
24.3646	525.08
24.3791	536.32
24.3935	570.18
24.4080	561.94
24.4224	573.59
24.4368	551.44
24.4513	588.85
24.4657	576.87
24.4802	546.73
24.4946	533.75
24.5090	558.29
24.5235	492.69
24.5379	574.66
24.5524	553.93
24.5668	551.78
24.5812	575.21
24.5957	562.37
24.6101	578.70
24.6246	581.43
24.6390	569.85
24.6534	606.38
24.6679	506.60
24.6823	566.43
24.6968	580.82
24.7112	546.96
24.7256	575.88
24.7401	537.56
24.7545	528.61
24.7690	542.82
24.7834	558.25
24.7978	528.78
24.8123	545.07
24.8267	476.27
24.8412	571.04
24.8556	580.68
24.8700	520.15
24.8845	534.53
24.8989	543.78
24.9134	543.99
24.9278	559.56
24.9422	496.91
24.9567	548.47
24.9711	541.20
24.9856	497.58
25.0000	581.04
25.0144	592.24
25.0289	567.29
25.0433	553.82
25.0578	492.23
25.0722	460.08
25.0866	540.46
25.1011	559.43
25.1155	531.69
25.1300	501.82
25.1444	530.95
25.1588	537.08
25.1733	524.15
25.1877	536.10
25.2022	564.16
25.2166	534.45
25.2310	530.63
25.2455	530.13
25.2599	526.41
25.2744	530.64
25.2888	562.33
25.3032	532.00
25.3177	546.30
25.3321	550.76
25.3466	545.12
25.3610	545.59
25.3754	542.53
25.3899	539.46
25.4043	551.96
25.4188	543.67
25.4332	538.13
25.4476	538.44
25.4621	516.57
25.4765	559.17
25.4910	580.54
25.5054	530.48
25.5198	521.10
25.5343	531.70
25.5487	510.67
25.5632	582.69
25.5776	506.99
25.5920	560.06
25.6065	570.47
25.6209	542.81
25.6354	533.77
25.6498	520.06
25.6642	532.67
25.6787	538.69
25.6931	533.71
25.7076	505.78
25.7220	528.97
25.7364	537.79
25.7509	548.33
25.7653	522.09
25.7798	509.18
25.7942	515.99
25.8086	541.43
25.8231	534.76
25.8375	553.01
25.8520	536.69
25.8664	546.48
25.8808	583.01
25.8953	556.76
25.9097	524.42
25.9242	538.10
25.9386	585.61
25.9530	537.99
25.9675	534.08
25.9819	533.61
25.9964	516.89
26.0108	531.73
26.0252	526.07
26.0397	523.46
26.0541	551.93
26.0686	590.42
26.0830	568.77
26.0974	558.62
26.1119	541.89
26.1263	561.02
26.1408	558.84
26.1552	500.77
26.1696	521.05
26.1841	525.38
26.1985	532.54
26.2130	548.77
26.2274	529.51
26.2418	524.30
26.2563	531.79
26.2707	539.44
26.2852	572.75
26.2996	546.72
26.3140	526.94
26.3285	544.30
26.3429	529.32
26.3574	563.01
26.3718	559.35
26.3862	536.13
26.4007	508.31
26.4151	507.57
26.4296	515.89
26.4440	507.94
26.4584	553.51
26.4729	548.10
26.4873	530.36
26.5018	540.97
26.5162	560.38
26.5306	575.34
26.5451	565.23
26.5595	568.26
26.5740	547.95
26.5884	527.37
26.6028	556.35
26.6173	532.67
26.6317	523.66
26.6462	530.19
26.6606	533.28
26.6750	513.69
26.6895	541.81
26.7039	548.67
26.7184	513.25
26.7328	485.53
26.7472	508.68
26.7617	510.04
26.7761	541.97
26.7906	557.80
26.8050	530.76
26.8194	496.06
26.8339	516.35
26.8483	540.04
26.8628	564.38
26.8772	513.17
26.8917	498.15
26.9061	552.88
26.9205	543.16
26.9350	527.96
26.9494	517.04
26.9639	526.46
26.9783	513.92
26.9927	527.56
27.0072	531.59
27.0216	522.90
27.0361	534.25
27.0505	504.20
27.0649	490.61
27.0794	509.36
27.0938	531.64
27.1083	517.10
27.1227	526.94
27.1371	527.52
27.1516	501.70
27.1660	520.52
27.1805	521.13
27.1949	527.68
27.2093	505.77
27.2238	519.38
27.2382	511.14
27.2527	498.04
27.2671	496.30
27.2815	475.22
27.2960	512.17
27.3104	546.78
27.3249	500.52
27.3393	495.17
27.3537	505.46
27.3682	496.13
27.3826	476.83
27.3971	502.29
27.4115	509.19
27.4259	516.59
27.4404	521.83
27.4548	529.90
27.4693	540.98
27.4837	520.98
27.4981	513.86
27.5126	507.18
27.5270	496.09
27.5415	532.34
27.5559	519.22
27.5703	471.32
27.5848	482.30
27.5992	498.06
27.6137	537.99
27.6281	533.91
27.6425	539.49
27.6570	535.00
27.6714	528.97
27.6859	526.23
27.7003	535.98
27.7147	517.25
27.7292	527.03
27.7436	544.02
27.7581	554.59
27.7725	559.27
27.7869	502.22
27.8014	515.77
27.8158	509.08
27.8303	494.07
27.8447	480.73
27.8591	550.25
27.8736	534.82
27.8880	524.27
27.9025	472.20
27.9169	532.44
27.9313	505.85
27.9458	514.22
27.9602	478.56
27.9747	496.72
27.9891	535.30
28.0035	533.11
28.0180	496.47
28.0324	493.35
28.0469	502.62
28.0613	546.51
28.0757	507.76
28.0902	552.60
28.1046	525.14
28.1191	512.96
28.1335	537.66
28.1479	502.28
28.1624	478.23
28.1768	505.88
28.1913	510.89
28.2057	500.60
28.2201	491.01
28.2346	543.63
28.2490	572.14
28.2635	527.96
28.2779	522.80
28.2923	525.16
28.3068	505.82
28.3212	527.09
28.3357	529.47
28.3501	495.23
28.3645	514.76
28.3790	480.50
28.3934	507.74
28.4079	507.20
28.4223	497.63
28.4367	490.40
28.4512	498.32
28.4656	538.23
28.4801	535.99
28.4945	541.89
28.5089	519.71
28.5234	543.57
28.5378	505.78
28.5523	504.13
28.5667	518.50
28.5811	475.04
28.5956	527.62
28.6100	500.70
28.6245	463.65
28.6389	531.88
28.6533	524.36
28.6678	522.13
28.6822	540.42
28.6967	501.08
28.7111	550.28
28.7255	528.85
28.7400	522.13
28.7544	527.87
28.7689	526.46
28.7833	532.42
28.7977	520.95
28.8122	499.36
28.8266	513.75
28.8411	517.31
28.8555	510.62
28.8699	507.03
28.8844	474.46
28.8988	469.69
28.9133	481.47
28.9277	489.30
28.9421	479.72
28.9566	502.60
28.9710	483.38
28.9855	549.38
28.9999	545.61
29.0143	510.91
29.0288	494.79
29.0432	521.29
29.0577	507.11
29.0721	477.99
29.0865	470.12
29.1010	504.02
29.1154	494.50
29.1299	500.74
29.1443	474.95
29.1587	522.30
29.1732	548.36
29.1876	519.21
29.2021	496.64
29.2165	506.62
29.2309	497.15
29.2454	523.17
29.2598	479.17
29.2743	493.41
29.2887	515.60
29.3031	514.72
29.3176	520.85
29.3320	498.00
29.3465	500.47
29.3609	527.23
29.3753	487.68
29.3898	499.24
29.4042	510.05
29.4187	518.92
29.4331	519.59
29.4475	501.70
29.4620	489.53
29.4764	492.17
29.4909	516.68
29.5053	520.50
29.5197	482.07
29.5342	504.50
29.5486	516.98
29.5631	531.09
29.5775	515.51
29.5919	521.93
29.6064	498.53
29.6208	475.42
29.6353	532.72
29.6497	525.48
29.6641	510.41
29.6786	507.49
29.6930	496.35
29.7075	523.46
29.7219	493.78
29.7363	485.62
29.7508	483.43
29.7652	498.65
29.7797	494.41
29.7941	507.15
29.8085	469.01
29.8230	487.41
29.8374	535.60
29.8519	504.48
29.8663	512.21
29.8807	520.02
29.8952	513.18
29.9096	512.03
29.9241	513.79
29.9385	522.37
29.9529	514.86
29.9674	516.20
29.9818	511.50
29.9963	542.88
30.0107	546.74
30.0251	516.94
30.0396	520.42
30.0540	511.83
30.0685	534.97
30.0829	528.33
30.0973	538.66
30.1118	488.31
30.1262	510.82
30.1407	474.95
30.1551	482.79
30.1695	496.97
30.1840	515.55
30.1984	526.42
30.2129	527.07
30.2273	507.60
30.2417	507.82
30.2562	505.22
30.2706	506.19
30.2851	482.55
30.2995	484.24
30.3139	504.38
30.3284	509.73
30.3428	503.48
30.3573	505.87
30.3717	492.52
30.3861	514.57
30.4006	525.07
30.4150	511.60
30.4295	560.74
30.4439	526.58
30.4583	501.32
30.4728	504.63
30.4872	491.26
30.5017	515.36
30.5161	498.50
30.5305	490.79
30.5450	496.11
30.5594	511.78
30.5739	508.95
30.5883	513.81
30.6028	501.89
30.6172	495.35
30.6316	499.27
30.6461	538.37
30.6605	519.32
30.6750	505.14
30.6894	486.91
30.7038	528.70
30.7183	556.06
30.7327	513.77
30.7472	535.69
30.7616	499.40
30.7760	581.19
30.7905	549.11
30.8049	549.86
30.8194	600.39
30.8338	602.32
30.8482	652.90
30.8627	658.72
30.8771	659.00
30.8916	683.56
30.9060	714.63
30.9204	648.82
30.9349	665.58
30.9493	685.71
30.9638	657.21
30.9782	648.00
30.9926	640.73
31.0071	621.76
31.0215	645.03
31.0360	612.79
31.0504	562.34
31.0648	552.99
31.0793	544.37
31.0937	564.05
31.1082	565.26
31.1226	582.33
31.1370	533.13
31.1515	509.40
31.1659	550.32
31.1804	575.72
31.1948	531.32
31.2092	543.33
31.2237	521.64
31.2381	539.33
31.2526	520.63
31.2670	522.28
31.2814	545.09
31.2959	538.29
31.3103	549.33
31.3248	561.09
31.3392	534.47
31.3536	516.88
31.3681	547.18
31.3825	521.58
31.3970	511.29
31.4114	529.43
31.4258	534.42
31.4403	530.93
31.4547	507.47
31.4692	529.91
31.4836	531.31
31.4980	504.01
31.5125	480.58
31.5269	504.31
31.5414	508.43
31.5558	500.13
31.5702	497.30
31.5847	500.53
31.5991	472.68
31.6136	522.50
31.6280	498.35
31.6424	505.72
31.6569	526.80
31.6713	497.75
31.6858	490.81
31.7002	518.55
31.7146	516.00
31.7291	491.93
31.7435	506.74
31.7580	510.99
31.7724	511.68
31.7868	541.45
31.8013	522.73
31.8157	512.02
31.8302	494.66
31.8446	516.14
31.8590	512.02
31.8735	517.40
31.8879	502.69
31.9024	556.67
31.9168	551.31
31.9312	511.64
31.9457	521.51
31.9601	505.74
31.9746	531.77
31.9890	508.56
32.0034	519.27
32.0179	500.45
32.0323	531.92
32.0468	536.95
32.0612	519.12
32.0756	521.39
32.0901	545.14
32.1045	524.98
32.1190	496.86
32.1334	495.93
32.1478	493.98
32.1623	502.67
32.1767	516.37
32.1912	490.70
32.2056	481.80
32.2200	482.54
32.2345	530.09
32.2489	518.19
32.2634	502.99
32.2778	544.85
32.2922	517.32
32.3067	509.83
32.3211	476.18
32.3356	508.18
32.3500	513.49
32.3644	472.73
32.3789	508.67
32.3933	518.63
32.4078	517.49
32.4222	539.89
32.4366	517.38
32.4511	529.24
32.4655	496.41
32.4800	528.34
32.4944	530.31
32.5088	504.45
32.5233	516.88
32.5377	512.23
32.5522	525.54
32.5666	502.62
32.5810	503.94
32.5955	533.41
32.6099	538.59
32.6244	496.01
32.6388	513.38
32.6532	493.29
32.6677	520.66
32.6821	503.66
32.6966	512.49
32.7110	525.60
32.7254	498.03
32.7399	487.61
32.7543	517.38
32.7688	512.55
32.7832	527.01
32.7976	487.34
32.8121	490.38
32.8265	477.76
32.8410	508.60
32.8554	491.03
32.8698	495.62
32.8843	513.52
32.8987	522.26
32.9132	534.77
32.9276	519.64
32.9420	521.32
32.9565	481.27
32.9709	483.07
32.9854	478.42
32.9998	522.94
33.0142	495.22
33.0287	514.73
33.0431	535.74
33.0576	513.50
33.0720	509.73
33.0864	522.60
33.1009	521.40
33.1153	567.41
33.1298	563.48
33.1442	497.54
33.1586	512.82
33.1731	485.90
33.1875	514.49
33.2020	513.70
33.2164	512.48
33.2308	520.24
33.2453	523.35
33.2597	513.96
33.2742	501.74
33.2886	496.93
33.3030	524.56
33.3175	535.62
33.3319	510.73
33.3464	524.90
33.3608	524.44
33.3752	510.38
33.3897	513.48
33.4041	491.73
33.4186	515.94
33.4330	506.34
33.4474	527.59
33.4619	531.71
33.4763	491.76
33.4908	510.58
33.5052	495.34
33.5196	459.77
33.5341	500.39
33.5485	519.38
33.5630	508.53
33.5774	492.03
33.5918	516.97
33.6063	508.44
33.6207	533.79
33.6352	520.74
33.6496	518.60
33.6640	519.67
33.6785	508.01
33.6929	488.59
33.7074	496.86
33.7218	479.46
33.7362	518.44
33.7507	513.03
33.7651	528.32
33.7796	523.92
33.7940	500.62
33.8084	513.47
33.8229	498.73
33.8373	512.00
33.8518	513.92
33.8662	520.96
33.8806	515.73
33.8951	512.65
33.9095	510.36
33.9240	500.46
33.9384	522.18
33.9528	545.11
33.9673	521.60
33.9817	468.72
33.9962	500.92
34.0106	521.31
34.0250	565.23
34.0395	519.78
34.0539	486.04
34.0684	511.16
34.0828	519.03
34.0972	501.25
34.1117	479.19
34.1261	463.99
34.1406	488.34
34.1550	527.23
34.1694	522.75
34.1839	509.60
34.1983	483.44
34.2128	523.95
34.2272	489.32
34.2417	525.26
34.2561	536.82
34.2705	508.65
34.2850	534.65
34.2994	502.38
34.3139	492.36
34.3283	537.74
34.3427	552.97
34.3572	511.87
34.3716	516.84
34.3861	487.26
34.4005	505.61
34.4149	526.77
34.4294	537.13
34.4438	476.18
34.4583	505.42
34.4727	522.18
34.4871	517.56
34.5016	529.00
34.5160	497.59
34.5305	504.49
34.5449	521.76
34.5593	516.15
34.5738	509.17
34.5882	519.25
34.6027	502.66
34.6171	497.55
34.6315	502.41
34.6460	519.01
34.6604	500.08
34.6749	472.66
34.6893	496.82
34.7037	508.89
34.7182	516.03
34.7326	494.54
34.7471	478.76
34.7615	478.01
34.7759	491.69
34.7904	536.66
34.8048	517.69
34.8193	503.52
34.8337	528.34
34.8481	494.59
34.8626	546.34
34.8770	499.40
34.8915	479.05
34.9059	500.60
34.9203	494.87
34.9348	486.28
34.9492	520.62
34.9637	539.94
34.9781	539.78
34.9925	505.68
35.0070	509.67
35.0214	535.51
35.0359	506.01
35.0503	502.27
35.0647	473.22
35.0792	500.48
35.0936	502.56
35.1081	497.80
35.1225	560.87
35.1369	521.50
35.1514	486.46
35.1658	507.87
35.1803	529.87
35.1947	488.41
35.2091	516.74
35.2236	512.14
35.2380	493.40
35.2525	529.14
35.2669	487.94
35.2813	491.24
35.2958	499.34
35.3102	524.13
35.3247	530.48
35.3391	508.17
35.3535	496.27
35.3680	494.74
35.3824	532.82
35.3969	522.13
35.4113	538.91
35.4257	549.44
35.4402	529.95
35.4546	524.04
35.4691	557.84
35.4835	531.07
35.4979	530.77
35.5124	508.93
35.5268	494.71
35.5413	519.94
35.5557	518.47
35.5701	504.87
35.5846	553.42
35.5990	535.29
35.6135	520.17
35.6279	538.65
35.6423	538.06
35.6568	495.13
35.6712	516.68
35.6857	616.10
35.7001	682.86
35.7145	716.00
35.7290	665.13
35.7434	636.77
35.7579	585.19
35.7723	572.25
35.7867	646.80
35.8012	677.28
35.8156	659.98
35.8301	669.99
35.8445	588.53
35.8589	611.05
35.8734	735.79
35.8878	868.28
35.9023	996.03
35.9167	1000.79
35.9311	1364.71
35.9456	2130.69
35.9600	2367.63
35.9745	1930.61
35.9889	1959.85
36.0033	2584.71
36.0178	2718.18
36.0322	2176.22
36.0467	1884.24
36.0611	1656.39
36.0755	1629.38
36.0900	1502.50
36.1044	1270.08
36.1189	1289.24
36.1333	1248.86
36.1477	1061.84
36.1622	973.89
36.1766	910.47
36.1911	859.51
36.2055	724.12
36.2199	726.46
36.2344	676.40
36.2488	646.53
36.2633	662.71
36.2777	713.14
36.2921	761.10
36.3066	791.62
36.3210	822.47
36.3355	842.35
36.3499	876.14
36.3643	911.21
36.3788	958.58
36.3932	945.39
36.4077	972.08
36.4221	992.05
36.4365	983.97
36.4510	909.76
36.4654	895.80
36.4799	893.04
36.4943	859.57
36.5087	830.17
36.5232	759.81
36.5376	737.76
36.5521	732.92
36.5665	679.80
36.5809	633.67
36.5954	629.09
36.6098	586.01
36.6243	598.65
36.6387	640.96
36.6531	611.78
36.6676	592.40
36.6820	544.58
36.6965	558.72
36.7109	579.91
36.7253	549.52
36.7398	539.00
36.7542	562.32
36.7687	527.69
36.7831	569.67
36.7975	545.82
36.8120	546.87
36.8264	597.39
36.8409	613.53
36.8553	622.36
36.8697	617.91
36.8842	573.94
36.8986	580.74
36.9131	606.72
36.9275	624.75
36.9419	602.47
36.9564	584.76
36.9708	588.70
36.9853	584.32
36.9997	565.94
37.0141	573.78
37.0286	577.48
37.0430	564.57
37.0575	580.36
37.0719	547.49
37.0863	544.82
37.1008	508.84
37.1152	518.44
37.1297	523.79
37.1441	504.72
37.1585	522.25
37.1730	511.63
37.1874	527.97
37.2019	499.34
37.2163	528.07
37.2307	520.90
37.2452	529.20
37.2596	506.25
37.2741	527.00
37.2885	536.39
37.3029	548.58
37.3174	521.48
37.3318	500.31
37.3463	510.82
37.3607	515.53
37.3751	511.02
37.3896	472.58
37.4040	474.35
37.4185	523.42
37.4329	528.76
37.4473	505.67
37.4618	509.05
37.4762	507.51
37.4907	527.70
37.5051	511.69
37.5195	522.71
37.5340	513.89
37.5484	512.78
37.5629	503.77
37.5773	478.20
37.5917	532.76
37.6062	533.87
37.6206	494.12
37.6351	496.99
37.6495	491.53
37.6639	503.80
37.6784	515.09
37.6928	513.47
37.7073	527.12
37.7217	540.01
37.7361	497.34
37.7506	502.23
37.7650	508.71
37.7795	527.60
37.7939	518.72
37.8083	539.60
37.8228	488.06
37.8372	495.76
37.8517	476.50
37.8661	501.43
37.8805	512.14
37.8950	516.28
37.9094	468.63
37.9239	493.18
37.9383	482.68
37.9528	474.61
37.9672	511.61
37.9816	494.96
37.9961	508.32
38.0105	509.21
38.0250	499.48
38.0394	525.84
38.0538	515.77
38.0683	504.17
38.0827	511.97
38.0972	501.08
38.1116	515.08
38.1260	547.60
38.1405	500.46
38.1549	505.47
38.1694	511.81
38.1838	524.53
38.1982	511.07
38.2127	489.59
38.2271	497.52
38.2416	506.94
38.2560	521.24
38.2704	506.69
38.2849	512.11
38.2993	515.91
38.3138	534.03
38.3282	541.12
38.3426	518.64
38.3571	539.90
38.3715	518.40
38.3860	559.12
38.4004	540.87
38.4148	537.72
38.4293	582.38
38.4437	598.92
38.4582	619.41
38.4726	658.28
38.4870	698.71
38.5015	742.46
38.5159	793.40
38.5304	795.42
38.5448	823.05
38.5592	778.34
38.5737	777.65
38.5881	747.39
38.6026	712.73
38.6170	705.77
38.6314	652.68
38.6459	664.39
38.6603	651.23
38.6748	610.88
38.6892	562.47
38.7036	567.79
38.7181	531.25
38.7325	526.27
38.7470	526.45
38.7614	504.75
38.7758	550.67
38.7903	514.36
38.8047	504.14
38.8192	492.65
38.8336	529.36
38.8480	516.41
38.8625	533.74
38.8769	491.54
38.8914	525.78
38.9058	505.41
38.9202	503.09
38.9347	495.98
38.9491	520.21
38.9636	505.12
38.9780	483.25
38.9924	478.56
39.0069	479.30
39.0213	509.55
39.0358	522.73
39.0502	497.21
39.0646	523.44
39.0791	510.11
39.0935	511.70
39.1080	498.38
39.1224	475.98
39.1368	481.60
39.1513	472.24
39.1657	493.01
39.1802	540.28
39.1946	489.41
39.2090	488.00
39.2235	500.42
39.2379	519.86
39.2524	521.19
39.2668	530.32
39.2812	509.77
39.2957	515.29
39.3101	505.25
39.3246	523.43
39.3390	513.40
39.3534	509.88
39.3679	511.69
39.3823	515.20
39.3968	483.91
39.4112	523.32
39.4256	535.65
39.4401	492.15
39.4545	507.65
39.4690	502.16
39.4834	525.07
39.4978	497.00
39.5123	516.10
39.5267	543.22
39.5412	533.47
39.5556	522.99
39.5700	516.54
39.5845	543.25
39.5989	504.75
39.6134	481.39
39.6278	508.82
39.6422	503.91
39.6567	493.46
39.6711	460.23
39.6856	470.62
39.7000	483.74
39.7144	510.39
39.7289	500.55
39.7433	493.66
39.7578	492.54
39.7722	463.69
39.7866	501.58
39.8011	497.79
39.8155	458.20
39.8300	497.58
39.8444	468.33
39.8588	517.51
39.8733	515.48
39.8877	487.26
39.9022	492.60
39.9166	484.55
39.9310	453.80
39.9455	472.31
39.9599	487.20
39.9744	500.96
39.9888	499.65
40.0032	517.20
40.0177	543.40
40.0321	507.24
40.0466	476.58
40.0610	520.40
40.0754	516.32
40.0899	507.55
40.1043	492.60
40.1188	498.69
40.1332	517.98
40.1476	484.69
40.1621	479.97
40.1765	505.50
40.1910	489.30
40.2054	514.37
40.2198	509.80
40.2343	505.68
40.2487	481.89
40.2632	471.58
40.2776	497.24
40.2920	502.41
40.3065	511.04
40.3209	492.38
40.3354	524.40
40.3498	515.52
40.3642	496.16
40.3787	544.30
40.3931	520.40
40.4076	479.15
40.4220	523.26
40.4364	528.24
40.4509	490.25
40.4653	507.98
40.4798	529.77
40.4942	533.59
40.5086	516.91
40.5231	523.26
40.5375	548.28
40.5520	509.31
40.5664	504.66
40.5808	490.54
40.5953	495.86
40.6097	502.76
40.6242	477.93
40.6386	515.35
40.6530	498.58
40.6675	485.18
40.6819	529.64
40.6964	515.17
40.7108	481.44
40.7252	465.97
40.7397	481.96
40.7541	525.47
40.7686	504.11
40.7830	519.96
40.7974	486.91
40.8119	462.71
40.8263	480.95
40.8408	496.01
40.8552	522.46
40.8696	535.26
40.8841	480.63
40.8985	535.81
40.9130	475.33
40.9274	478.18
40.9418	513.98
40.9563	486.74
40.9707	505.45
40.9852	549.66
40.9996	504.30
41.0140	465.94
41.0285	489.62
41.0429	497.82
41.0574	494.14
41.0718	484.91
41.0862	527.00
41.1007	511.30
41.1151	496.01
41.1296	518.44
41.1440	509.92
41.1584	497.96
41.1729	502.11
41.1873	503.44
41.2018	485.37
41.2162	509.87
41.2306	488.83
41.2451	498.25
41.2595	495.19
41.2740	513.83
41.2884	533.55
41.3028	496.99
41.3173	463.56
41.3317	492.79
41.3462	510.98
41.3606	496.11
41.3750	486.21
41.3895	463.13
41.4039	476.37
41.4184	499.85
41.4328	486.44
41.4472	469.82
41.4617	529.67
41.4761	523.90
41.4906	488.10
41.5050	507.38
41.5194	481.11
41.5339	510.39
41.5483	475.36
41.5628	509.22
41.5772	508.85
41.5916	500.27
41.6061	516.81
41.6205	518.85
41.6350	495.20
41.6494	512.08
41.6639	472.90
41.6783	493.39
41.6927	472.68
41.7072	481.45
41.7216	527.14
41.7361	483.09
41.7505	508.35
41.7649	487.26
41.7794	524.82
41.7938	488.37
41.8083	542.24
41.8227	518.73
41.8371	491.25
41.8516	492.05
41.8660	545.42
41.8805	547.79
41.8949	525.61
41.9093	535.64
41.9238	542.79
41.9382	546.01
41.9527	545.65
41.9671	513.19
41.9815	545.88
41.9960	554.41
42.0104	537.84
42.0249	573.08
42.0393	541.23
42.0537	550.47
42.0682	563.06
42.0826	586.20
42.0971	586.18
42.1115	553.59
42.1259	583.05
42.1404	568.81
42.1548	593.93
42.1693	654.73
42.1837	709.37
42.1981	736.92
42.2126	823.90
42.2270	962.56
42.2415	1084.58
42.2559	1178.46
42.2703	1356.37
42.2848	1538.67
42.2992	1598.57
42.3137	1691.40
42.3281	1657.26
42.3425	1569.24
42.3570	1495.39
42.3714	1384.84
42.3859	1334.61
42.4003	1326.43
42.4147	1373.82
42.4292	1302.67
42.4436	1162.04
42.4581	1031.38
42.4725	952.79
42.4869	821.21
42.5014	739.76
42.5158	712.13
42.5303	696.68
42.5447	698.79
42.5591	620.66
42.5736	563.02
42.5880	554.31
42.6025	606.67
42.6169	589.59
42.6313	579.75
42.6458	524.53
42.6602	499.44
42.6747	538.19
42.6891	538.77
42.7035	527.66
42.7180	512.51
42.7324	490.06
42.7469	497.11
42.7613	528.22
42.7757	526.97
42.7902	535.88
42.8046	516.78
42.8191	523.56
42.8335	521.70
42.8479	513.19
42.8624	509.56
42.8768	516.33
42.8913	506.24
42.9057	512.06
42.9201	485.01
42.9346	503.19
42.9490	500.16
42.9635	490.42
42.9779	518.14
42.9923	527.65
43.0068	516.59
43.0212	502.80
43.0357	518.84
43.0501	517.78
43.0645	519.65
43.0790	505.62
43.0934	508.26
43.1079	523.98
43.1223	534.91
43.1367	518.85
43.1512	497.03
43.1656	514.43
43.1801	522.46
43.1945	549.12
43.2089	538.24
43.2234	551.44
43.2378	527.77
43.2523	526.58
43.2667	511.59
43.2811	539.61
43.2956	525.88
43.3100	525.00
43.3245	522.74
43.3389	537.74
43.3533	503.60
43.3678	523.63
43.3822	546.58
43.3967	521.68
43.4111	510.02
43.4255	520.58
43.4400	509.42
43.4544	476.80
43.4689	518.06
43.4833	514.37
43.4977	524.72
43.5122	501.86
43.5266	512.77
43.5411	522.61
43.5555	519.32
43.5699	530.14
43.5844	523.82
43.5988	504.54
43.6133	513.32
43.6277	506.35
43.6421	537.94
43.6566	559.50
43.6710	540.36
43.6855	505.37
43.6999	521.93
43.7143	531.49
43.7288	543.99
43.7432	484.49
43.7577	481.33
43.7721	502.10
43.7865	512.54
43.8010	514.80
43.8154	532.87
43.8299	528.82
43.8443	503.18
43.8587	525.52
43.8732	522.61
43.8876	522.24
43.9021	525.53
43.9165	542.29
43.9309	513.06
43.9454	534.50
43.9598	500.75
43.9743	526.24
43.9887	507.37
44.0031	506.81
44.0176	480.75
44.0320	494.57
44.0465	528.38
44.0609	515.32
44.0753	519.86
44.0898	558.73
44.1042	543.74
44.1187	570.22
44.1331	578.48
44.1475	529.71
44.1620	565.66
44.1764	610.79
44.1909	611.45
44.2053	624.56
44.2197	652.41
44.2342	646.06
44.2486	643.21
44.2631	612.21
44.2775	589.99
44.2919	595.41
44.3064	637.92
44.3208	632.16
44.3353	614.91
44.3497	622.40
44.3641	629.48
44.3786	607.17
44.3930	562.51
44.4075	566.31
44.4219	639.54
44.4363	604.57
44.4508	605.19
44.4652	612.81
44.4797	592.54
44.4941	600.51
44.5085	593.68
44.5230	595.09
44.5374	585.78
44.5519	593.66
44.5663	586.54
44.5807	577.84
44.5952	594.32
44.6096	564.79
44.6241	552.26
44.6385	577.67
44.6529	566.76
44.6674	587.92
44.6818	626.74
44.6963	611.09
44.7107	675.91
44.7251	718.68
44.7396	726.71
44.7540	810.69
44.7685	880.17
44.7829	904.18
44.7973	876.06
44.8118	835.86
44.8262	808.87
44.8407	777.18
44.8551	762.89
44.8695	733.78
44.8840	682.67
44.8984	732.46
44.9129	726.84
44.9273	652.40
44.9417	696.70
44.9562	670.56
44.9706	613.45
44.9851	549.84
44.9995	511.53
45.0139	521.97
45.0284	504.33
45.0428	494.93
45.0573	549.27
45.0717	503.80
45.0861	536.20
45.1006	517.74
45.1150	523.20
45.1295	537.82
45.1439	497.57
45.1583	503.92
45.1728	504.91
45.1872	508.90
45.2017	480.22
45.2161	492.87
45.2305	522.01
45.2450	536.83
45.2594	518.76
45.2739	483.40
45.2883	528.93
45.3028	517.04
45.3172	505.44
45.3316	530.52
45.3461	505.25
45.3605	516.31
45.3750	516.36
45.3894	510.65
45.4038	511.72
45.4183	512.37
45.4327	535.22
45.4472	507.81
45.4616	544.75
45.4760	546.50
45.4905	499.24
45.5049	492.31
45.5194	471.61
45.5338	511.09
45.5482	511.38
45.5627	517.35
45.5771	482.39
45.5916	506.47
45.6060	519.31
45.6204	529.86
45.6349	530.74
45.6493	487.11
45.6638	499.54
45.6782	498.68
45.6926	497.23
45.7071	491.83
45.7215	484.30
45.7360	484.60
45.7504	484.96
45.7648	505.99
45.7793	501.50
45.7937	527.49
45.8082	545.98
45.8226	515.44
45.8370	486.34
45.8515	478.07
45.8659	516.56
45.8804	500.63
45.8948	530.20
45.9092	485.12
45.9237	492.22
45.9381	505.00
45.9526	486.95
45.9670	485.69
45.9814	486.52
45.9959	518.51
46.0103	470.08
46.0248	479.13
46.0392	485.78
46.0536	457.89
46.0681	524.77
46.0825	540.61
46.0970	561.52
46.1114	483.89
46.1258	509.74
46.1403	516.96
46.1547	487.80
46.1692	507.20
46.1836	502.39
46.1980	481.50
46.2125	504.33
46.2269	521.55
46.2414	535.16
46.2558	497.15
46.2702	522.43
46.2847	544.49
46.2991	472.41
46.3136	513.24
46.3280	517.32
46.3424	499.72
46.3569	493.97
46.3713	489.85
46.3858	477.51
46.4002	494.84
46.4146	511.39
46.4291	499.54
46.4435	459.25
46.4580	488.30
46.4724	509.90
46.4868	505.19
46.5013	513.01
46.5157	509.26
46.5302	504.05
46.5446	509.15
46.5590	541.30
46.5735	496.84
46.5879	502.31
46.6024	482.63
46.6168	495.14
46.6312	476.18
46.6457	515.92
46.6601	533.34
46.6746	500.81
46.6890	506.51
46.7034	526.04
46.7179	525.44
46.7323	498.38
46.7468	529.08
46.7612	506.41
46.7756	509.59
46.7901	497.38
46.8045	480.60
46.8190	505.08
46.8334	512.51
46.8478	517.87
46.8623	533.56
46.8767	537.24
46.8912	529.44
46.9056	514.18
46.9200	514.33
46.9345	514.10
46.9489	499.15
46.9634	498.38
46.9778	504.63
46.9922	518.38
47.0067	504.88
47.0211	530.94
47.0356	515.19
47.0500	506.47
47.0644	517.83
47.0789	501.88
47.0933	519.14
47.1078	510.25
47.1222	508.52
47.1366	502.06
47.1511	487.74
47.1655	513.07
47.1800	508.07
47.1944	509.94
47.2088	524.00
47.2233	516.45
47.2377	498.48
47.2522	517.42
47.2666	513.26
47.2810	523.69
47.2955	538.31
47.3099	522.69
47.3244	523.40
47.3388	498.32
47.3532	498.18
47.3677	522.04
47.3821	534.62
47.3966	497.01
47.4110	502.31
47.4254	515.51
47.4399	487.82
47.4543	464.93
47.4688	495.02
47.4832	502.61
47.4976	525.12
47.5121	491.82
47.5265	506.66
47.5410	508.37
47.5554	509.69
47.5698	501.78
47.5843	494.61
47.5987	506.14
47.6132	533.58
47.6276	488.30
47.6420	495.78
47.6565	500.15
47.6709	501.78
47.6854	491.14
47.6998	513.88
47.7142	523.76
47.7287	507.02
47.7431	483.31
47.7576	507.44
47.7720	478.41
47.7864	504.40
47.8009	541.05
47.8153	567.18
47.8298	511.48
47.8442	494.90
47.8586	508.40
47.8731	515.11
47.8875	512.27
47.9020	507.66
47.9164	484.99
47.9308	467.30
47.9453	484.63
47.9597	482.72
47.9742	517.48
47.9886	515.67
48.0030	491.68
48.0175	523.96
48.0319	527.95
48.0464	518.63
48.0608	526.18
48.0752	495.12
48.0897	513.93
48.1041	510.39
48.1186	472.49
48.1330	507.10
48.1474	481.44
48.1619	543.19
48.1763	545.56
48.1908	522.09
48.2052	559.54
48.2196	536.75
48.2341	538.47
48.2485	523.01
48.2630	542.30
48.2774	485.03
48.2918	496.96
48.3063	486.94
48.3207	518.14
48.3352	506.69
48.3496	515.38
48.3640	498.45
48.3785	513.01
48.3929	486.09
48.4074	511.75
48.4218	537.89
48.4362	511.91
48.4507	526.24
48.4651	534.17
48.4796	507.60
48.4940	548.88
48.5084	540.98
48.5229	511.20
48.5373	532.07
48.5518	521.73
48.5662	477.83
48.5806	516.09
48.5951	546.93
48.6095	533.63
48.6240	518.40
48.6384	538.37
48.6528	519.36
48.6673	495.06
48.6817	507.55
48.6962	538.52
48.7106	553.99
48.7250	541.58
48.7395	508.92
48.7539	537.59
48.7684	529.34
48.7828	562.95
48.7972	539.79
48.8117	549.32
48.8261	548.77
48.8406	518.92
48.8550	540.88
48.8694	523.80
48.8839	548.75
48.8983	549.03
48.9128	522.56
48.9272	536.43
48.9416	570.19
48.9561	532.00
48.9705	543.88
48.9850	551.74
48.9994	564.67
49.0139	607.80
49.0283	580.17
49.0427	609.79
49.0572	619.16
49.0716	625.24
49.0861	661.29
49.1005	707.84
49.1149	692.61
49.1294	721.28
49.1438	758.54
49.1583	816.70
49.1727	865.02
49.1871	904.11
49.2016	1018.84
49.2160	1050.00
49.2305	1094.35
49.2449	1183.15
49.2593	1250.12
49.2738	1401.67
49.2882	1442.75
49.3027	1524.65
49.3171	1605.06
49.3315	1692.30
49.3460	1719.93
49.3604	1815.88
49.3749	1823.38
49.3893	1777.55
49.4037	1761.27
49.4182	1808.20
49.4326	1783.29
49.4471	1613.13
49.4615	1690.85
49.4759	1604.42
49.4904	1477.54
49.5048	1430.15
49.5193	1369.40
49.5337	1297.15
49.5481	1177.37
49.5626	1153.16
49.5770	1086.90
49.5915	950.32
49.6059	951.45
49.6203	891.97
49.6348	833.19
49.6492	783.59
49.6637	764.31
49.6781	723.68
49.6925	726.93
49.7070	681.87
49.7214	642.72
49.7359	609.89
49.7503	633.08
49.7647	573.86
49.7792	650.11
49.7936	606.03
49.8081	555.48
49.8225	552.08
49.8369	560.06
49.8514	553.85
49.8658	538.14
49.8803	546.95
49.8947	563.98
49.9091	588.16
49.9236	536.12
49.9380	557.02
49.9525	520.62
49.9669	546.73
49.9813	534.54
49.9958	546.49
50.0102	540.28
50.0247	561.14
50.0391	568.15
50.0535	517.54
50.0680	527.43
50.0824	586.90
50.0969	568.01
50.1113	523.33
50.1257	545.61
50.1402	533.33
50.1546	507.16
50.1691	535.03
50.1835	528.79
50.1979	538.45
50.2124	533.76
50.2268	456.40
50.2413	500.48
50.2557	504.55
50.2701	515.22
50.2846	505.99
50.2990	521.59
50.3135	558.77
50.3279	539.93
50.3423	483.91
50.3568	486.48
50.3712	530.56
50.3857	514.04
50.4001	497.90
50.4145	516.80
50.4290	536.81
50.4434	518.38
50.4579	505.62
50.4723	529.05
50.4867	547.23
50.5012	511.96
50.5156	518.10
50.5301	534.40
50.5445	503.93
50.5589	502.60
50.5734	481.90
50.5878	503.86
50.6023	503.93
50.6167	526.51
50.6311	501.74
50.6456	486.18
50.6600	514.90
50.6745	530.82
50.6889	498.41
50.7033	514.96
50.7178	522.43
50.7322	494.79
50.7467	497.44
50.7611	532.06
50.7755	542.67
50.7900	522.34
50.8044	517.59
50.8189	534.77
50.8333	511.24
50.8477	511.74
50.8622	513.90
50.8766	520.55
50.8911	493.11
50.9055	525.71
50.9199	545.77
50.9344	513.47
50.9488	500.18
50.9633	499.19
50.9777	494.19
50.9921	514.73
51.0066	475.51
51.0210	509.92
51.0355	526.83
51.0499	522.70
51.0643	509.62
51.0788	492.45
51.0932	528.65
51.1077	526.05
51.1221	524.71
51.1365	545.76
51.1510	532.10
51.1654	493.70
51.1799	517.71
51.1943	510.72
51.2087	526.08
51.2232	519.47
51.2376	513.67
51.2521	515.08
51.2665	493.29
51.2809	500.81
51.2954	500.22
51.3098	524.30
51.3243	560.37
51.3387	521.50
51.3531	487.65
51.3676	489.35
51.3820	479.87
51.3965	499.22
51.4109	496.79
51.4253	501.75
51.4398	498.47
51.4542	475.07
51.4687	513.86
51.4831	540.00
51.4975	538.87
51.5120	548.83
51.5264	510.16
51.5409	493.47
51.5553	498.02
51.5697	481.29
51.5842	518.30
51.5986	545.34
51.6131	512.55
51.6275	503.16
51.6419	507.53
51.6564	504.50
51.6708	484.20
51.6853	496.67
51.6997	488.27
51.7141	507.41
51.7286	498.67
51.7430	489.10
51.7575	503.22
51.7719	498.02
51.7863	508.11
51.8008	530.02
51.8152	498.31
51.8297	498.49
51.8441	509.65
51.8585	508.48
51.8730	518.83
51.8874	488.01
51.9019	475.95
51.9163	513.33
51.9307	500.48
51.9452	517.46
51.9596	476.67
51.9741	505.75
51.9885	498.33
52.0029	491.06
52.0174	480.68
52.0318	503.14
52.0463	519.76
52.0607	500.36
52.0751	511.23
52.0896	520.54
52.1040	510.34
52.1185	503.01
52.1329	496.01
52.1473	495.48
52.1618	510.29
52.1762	539.64
52.1907	525.47
52.2051	501.97
52.2195	493.47
52.2340	510.35
52.2484	477.93
52.2629	508.85
52.2773	504.07
52.2917	515.29
52.3062	508.39
52.3206	509.00
52.3351	535.59
52.3495	518.75
52.3639	467.78
52.3784	500.99
52.3928	515.36
52.4073	500.32
52.4217	495.04
52.4361	512.46
52.4506	522.88
52.4650	513.19
52.4795	511.75
52.4939	533.61
52.5083	515.44
52.5228	495.18
52.5372	481.31
52.5517	526.48
52.5661	529.74
52.5805	514.99
52.5950	566.29
52.6094	516.66
52.6239	493.87
52.6383	492.02
52.6527	511.01
52.6672	540.98
52.6816	514.72
52.6961	518.44
52.7105	532.32
52.7250	505.44
52.7394	489.32
52.7538	515.13
52.7683	487.48
52.7827	496.04
52.7972	479.80
52.8116	531.31
52.8260	498.89
52.8405	506.43
52.8549	497.99
52.8694	525.77
52.8838	513.23
52.8982	513.55
52.9127	518.71
52.9271	500.97
52.9416	494.34
52.9560	511.08
52.9704	513.12
52.9849	547.38
52.9993	553.70
53.0138	530.75
53.0282	529.68
53.0426	524.74
53.0571	491.99
53.0715	480.96
53.0860	488.83
53.1004	525.36
53.1148	529.16
53.1293	502.45
53.1437	512.66
53.1582	559.78
53.1726	521.81
53.1870	519.51
53.2015	506.62
53.2159	489.57
53.2304	499.59
53.2448	508.03
53.2592	522.35
53.2737	505.36
53.2881	492.04
53.3026	522.02
53.3170	518.27
53.3314	510.76
53.3459	530.81
53.3603	504.24
53.3748	494.53
53.3892	478.02
53.4036	501.95
53.4181	505.11
53.4325	538.29
53.4470	505.33
53.4614	495.69
53.4758	513.17
53.4903	537.81
53.5047	493.75
53.5192	503.85
53.5336	479.28
53.5480	530.75
53.5625	511.53
53.5769	523.86
53.5914	495.90
53.6058	518.02
53.6202	525.37
53.6347	528.93
53.6491	518.48
53.6636	513.09
53.6780	540.76
53.6924	519.94
53.7069	540.32
53.7213	536.39
53.7358	491.74
53.7502	527.51
53.7646	544.40
53.7791	540.68
53.7935	496.26
53.8080	519.99
53.8224	525.42
53.8368	499.66
53.8513	509.44
53.8657	556.60
53.8802	526.51
53.8946	531.00
53.9090	505.57
53.9235	488.58
53.9379	483.85
53.9524	507.23
53.9668	513.55
53.9812	527.47
53.9957	548.68
54.0101	516.67
54.0246	546.28
54.0390	522.04
54.0534	485.20
54.0679	533.97
54.0823	542.68
54.0968	508.96
54.1112	510.03
54.1256	546.75
54.1401	524.28
54.1545	496.71
54.1690	558.66
54.1834	512.20
54.1978	517.11
54.2123	517.91
54.2267	499.88
54.2412	507.68
54.2556	533.26
54.2700	528.46
54.2845	501.34
54.2989	479.32
54.3134	520.01
54.3278	518.94
54.3422	530.66
54.3567	503.07
54.3711	503.47
54.3856	506.78
54.4000	504.06
54.4144	485.06
54.4289	500.32
54.4433	492.01
54.4578	537.92
54.4722	542.15
54.4866	512.79
54.5011	509.70
54.5155	533.41
54.5300	513.08
54.5444	538.15
54.5588	521.06
54.5733	499.68
54.5877	511.22
54.6022	522.58
54.6166	529.44
54.6310	520.33
54.6455	527.65
54.6599	560.63
54.6744	514.74
54.6888	500.45
54.7032	559.41
54.7177	552.26
54.7321	518.28
54.7466	541.83
54.7610	525.22
54.7754	550.70
54.7899	547.00
54.8043	579.27
54.8188	596.14
54.8332	605.51
54.8476	576.72
54.8621	560.46
54.8765	562.45
54.8910	559.10
54.9054	615.58
54.9198	608.82
54.9343	589.83
54.9487	573.33
54.9632	562.31
54.9776	607.91
54.9920	613.88
55.0065	595.52
55.0209	568.78
55.0354	565.73
55.0498	561.76
55.0642	577.67
55.0787	564.52
55.0931	589.72
55.1076	543.16
55.1220	546.36
55.1364	537.07
55.1509	540.03
55.1653	557.21
55.1798	528.46
55.1942	544.59
55.2086	534.80
55.2231	505.04
55.2375	555.86
55.2520	533.69
55.2664	516.93
55.2808	529.72
55.2953	487.95
55.3097	523.04
55.3242	520.41
55.3386	532.91
55.3530	529.63
55.3675	514.56
55.3819	552.85
55.3964	546.46
55.4108	484.54
55.4252	540.85
55.4397	496.81
55.4541	529.54
55.4686	526.53
55.4830	536.84
55.4974	513.00
55.5119	534.48
55.5263	508.84
55.5408	536.78
55.5552	543.08
55.5696	496.05
55.5841	537.64
55.5985	526.95
55.6130	505.79
55.6274	524.97
55.6418	506.40
55.6563	520.03
55.6707	548.53
55.6852	487.52
55.6996	518.88
55.7140	571.43
55.7285	525.72
55.7429	538.74
55.7574	551.86
55.7718	525.67
55.7862	544.40
55.8007	533.83
55.8151	544.38
55.8296	501.92
55.8440	532.43
55.8584	549.52
55.8729	525.40
55.8873	500.02
55.9018	528.18
55.9162	529.19
55.9306	515.80
55.9451	544.68
55.9595	546.76
55.9740	521.89
55.9884	512.35
56.0028	555.06
56.0173	497.04
56.0317	495.22
56.0462	522.03
56.0606	507.85
56.0750	528.04
56.0895	514.37
56.1039	525.39
56.1184	556.21
56.1328	509.28
56.1472	491.14
56.1617	486.69
56.1761	539.84
56.1906	511.20
56.2050	495.04
56.2194	516.13
56.2339	540.84
56.2483	527.36
56.2628	546.39
56.2772	552.10
56.2916	496.01
56.3061	534.06
56.3205	534.80
56.3350	550.09
56.3494	568.80
56.3639	559.11
56.3783	525.79
56.3927	506.61
56.4072	525.08
56.4216	565.50
56.4361	513.64
56.4505	523.94
56.4649	509.97
56.4794	530.02
56.4938	504.19
56.5083	509.08
56.5227	514.79
56.5371	532.81
56.5516	509.12
56.5660	506.97
56.5805	482.76
56.5949	525.32
56.6093	519.34
56.6238	521.98
56.6382	525.61
56.6527	508.96
56.6671	510.92
56.6815	492.29
56.6960	546.47
56.7104	506.29
56.7249	486.74
56.7393	475.24
56.7537	496.10
56.7682	521.96
56.7826	561.33
56.7971	528.76
56.8115	542.48
56.8259	489.43
56.8404	504.55
56.8548	504.68
56.8693	547.43
56.8837	539.35
56.8981	494.45
56.9126	552.11
56.9270	528.31
56.9415	539.98
56.9559	494.79
56.9703	482.75
56.9848	496.84
56.9992	505.14
57.0137	531.83
57.0281	552.39
57.0425	554.46
57.0570	524.33
57.0714	502.51
57.0859	560.23
57.1003	537.71
57.1147	534.55
57.1292	503.53
57.1436	492.22
57.1581	509.74
57.1725	518.00
57.1869	521.23
57.2014	489.37
57.2158	520.38
57.2303	512.61
57.2447	533.54
57.2591	500.61
57.2736	524.88
57.2880	516.78
57.3025	553.12
57.3169	514.77
57.3313	521.71
57.3458	533.02
57.3602	506.78
57.3747	487.95
57.3891	514.97
57.4035	528.04
57.4180	521.33
57.4324	516.45
57.4469	511.31
57.4613	536.47
57.4757	524.26
57.4902	535.53
57.5046	497.44
57.5191	516.07
57.5335	529.15
57.5479	544.74
57.5624	556.76
57.5768	531.78
57.5913	536.78
57.6057	497.63
57.6201	541.68
57.6346	518.70
57.6490	506.86
57.6635	520.40
57.6779	547.32
57.6923	521.59
57.7068	528.59
57.7212	524.25
57.7357	517.17
57.7501	526.14
57.7645	503.68
57.7790	504.76
57.7934	502.12
57.8079	538.95
57.8223	507.87
57.8367	544.52
57.8512	544.40
57.8656	533.59
57.8801	531.26
57.8945	538.96
57.9089	563.47
57.9234	555.06
57.9378	549.07
57.9523	512.51
57.9667	523.05
57.9811	487.63
57.9956	516.28
58.0100	542.30
58.0245	574.63
58.0389	520.83
58.0533	511.99
58.0678	577.64
58.0822	561.82
58.0967	543.14
58.1111	523.88
58.1255	562.06
58.1400	533.30
58.1544	529.58
58.1689	569.37
58.1833	546.76
58.1977	519.48
58.2122	547.71
58.2266	520.50
58.2411	534.08
58.2555	533.63
58.2699	533.07
58.2844	560.39
58.2988	545.05
58.3133	547.84
58.3277	537.92
58.3421	541.90
58.3566	593.49
58.3710	595.42
58.3855	577.67
58.3999	577.66
58.4143	577.65
58.4288	589.25
58.4432	570.12
58.4577	610.91
58.4721	643.91
58.4865	681.19
58.5010	662.91
58.5154	643.17
58.5299	655.44
58.5443	672.69
58.5587	662.62
58.5732	623.49
58.5876	651.92
58.6021	650.39
58.6165	635.29
58.6309	630.80
58.6454	613.99
58.6598	618.63
58.6743	599.83
58.6887	600.36
58.7031	588.32
58.7176	608.77
58.7320	589.87
58.7465	606.18
58.7609	590.16
58.7753	562.37
58.7898	587.87
58.8042	553.92
58.8187	582.16
58.8331	555.99
58.8475	568.91
58.8620	549.10
58.8764	578.43
58.8909	528.55
58.9053	546.28
58.9197	581.15
58.9342	551.72
58.9486	544.99
58.9631	566.83
58.9775	520.54
58.9919	554.71
59.0064	554.56
59.0208	551.45
59.0353	510.92
59.0497	549.64
59.0641	569.26
59.0786	560.95
59.0930	557.19
59.1075	552.58
59.1219	550.65
59.1363	573.18
59.1508	544.98
59.1652	552.74
59.1797	570.83
59.1941	580.26
59.2085	601.12
59.2230	536.27
59.2374	546.59
59.2519	576.14
59.2663	546.43
59.2807	563.47
59.2952	569.98
59.3096	562.92
59.3241	590.32
59.3385	584.62
59.3529	564.51
59.3674	561.27
59.3818	541.77
59.3963	570.90
59.4107	596.09
59.4251	566.75
59.4396	527.96
59.4540	559.34
59.4685	579.19
59.4829	584.08
59.4973	574.11
59.5118	531.75
59.5262	525.39
59.5407	527.80
59.5551	563.81
59.5695	535.96
59.5840	540.58
59.5984	541.15
59.6129	552.68
59.6273	560.18
59.6417	546.31
59.6562	537.52
59.6706	552.18
59.6851	509.95
59.6995	538.64
59.7139	548.07
59.7284	515.91
59.7428	522.29
59.7573	565.74
59.7717	532.93
59.7861	515.77
59.8006	521.17
59.8150	588.16
59.8295	536.37
59.8439	498.61
59.8583	560.52
59.8728	572.32
59.8872	502.45
59.9017	548.02
59.9161	556.35
59.9305	489.08
59.9450	538.09
59.9594	528.37
59.9739	524.98
59.9883	535.43
60.0027	540.46
60.0172	544.32
60.0316	545.65
60.0461	503.93
60.0605	541.39
60.0750	498.38
60.0894	562.46
60.1038	512.08
60.1183	506.64
60.1327	539.04
60.1472	492.02
60.1616	538.87
60.1760	562.00
60.1905	539.95
60.2049	526.12
60.2194	537.39
60.2338	541.70
60.2482	522.84
60.2627	515.21
60.2771	566.54
60.2916	530.02
60.3060	534.36
60.3204	531.09
60.3349	552.94
60.3493	559.10
60.3638	531.17
60.3782	530.78
60.3926	528.71
60.4071	525.44
60.4215	513.82
60.4360	532.78
60.4504	529.87
60.4648	554.92
60.4793	562.26
60.4937	555.12
60.5082	510.72
60.5226	527.24
60.5370	550.81
60.5515	557.25
60.5659	529.08
60.5804	508.82
60.5948	529.93
60.6092	560.53
60.6237	557.10
60.6381	538.67
60.6526	538.01
60.6670	531.90
60.6814	510.86
60.6959	525.97
60.7103	546.60
60.7248	526.72
60.7392	509.82
60.7536	536.79
60.7681	530.57
60.7825	540.51
60.7970	541.42
60.8114	539.12
60.8258	540.08
60.8403	506.49
60.8547	531.67
60.8692	578.40
60.8836	533.26
60.8980	579.53
60.9125	604.83
60.9269	581.36
60.9414	579.57
60.9558	553.12
60.9702	547.72
60.9847	518.73
60.9991	543.34
61.0136	530.92
61.0280	566.52
61.0424	574.50
61.0569	566.89
61.0713	559.90
61.0858	538.68
61.1002	520.64
61.1146	533.19
61.1291	523.15
61.1435	528.74
61.1580	542.97
61.1724	539.77
61.1868	514.30
61.2013	491.31
61.2157	532.40
61.2302	569.94
61.2446	564.35
61.2590	559.89
61.2735	534.66
61.2879	551.24
61.3024	585.37
61.3168	572.86
61.3312	556.69
61.3457	528.37
61.3601	555.90
61.3746	520.01
61.3890	536.85
61.4034	513.79
61.4179	533.71
61.4323	548.96
61.4468	496.83
61.4612	565.60
61.4756	560.53
61.4901	559.71
61.5045	532.16
61.5190	529.33
61.5334	563.63
61.5478	545.00
61.5623	535.35
61.5767	569.52
61.5912	527.26
61.6056	548.88
61.6200	580.78
61.6345	557.42
61.6489	544.14
61.6634	537.46
61.6778	508.33
61.6922	545.14
61.7067	566.94
61.7211	538.93
61.7356	522.08
61.7500	529.04
61.7644	538.45
61.7789	537.67
61.7933	557.25
61.8078	528.36
61.8222	537.24
61.8366	553.76
61.8511	560.70
61.8655	552.28
61.8800	520.46
61.8944	595.96
61.9088	586.35
61.9233	547.85
61.9377	568.63
61.9522	534.48
61.9666	524.12
61.9810	552.26
61.9955	545.37
62.0099	535.28
62.0244	529.89
62.0388	546.72
62.0532	563.65
62.0677	582.84
62.0821	537.26
62.0966	571.46
62.1110	576.46
62.1254	557.42
62.1399	550.84
62.1543	580.66
62.1688	578.42
62.1832	561.76
62.1976	544.35
62.2121	573.12
62.2265	541.59
62.2410	560.67
62.2554	531.19
62.2698	529.17
62.2843	561.90
62.2987	523.03
62.3132	547.53
62.3276	539.45
62.3420	599.48
62.3565	581.97
62.3709	583.92
62.3854	555.42
62.3998	544.83
62.4142	540.48
62.4287	551.04
62.4431	555.76
62.4576	558.22
62.4720	571.34
62.4864	546.08
62.5009	534.29
62.5153	545.10
62.5298	548.25
62.5442	519.53
62.5586	553.88
62.5731	533.14
62.5875	538.49
62.6020	547.49
62.6164	543.07
62.6308	551.53
62.6453	561.32
62.6597	538.39
62.6742	555.66
62.6886	573.07
62.7030	583.16
62.7175	573.45
62.7319	554.73
62.7464	575.94
62.7608	534.20
62.7752	556.40
62.7897	560.02
62.8041	554.56
62.8186	561.43
62.8330	560.37
62.8474	577.14
62.8619	570.67
62.8763	554.64
62.8908	550.90
62.9052	602.11
62.9196	567.69
62.9341	534.01
62.9485	546.63
62.9630	560.16
62.9774	552.12
62.9918	546.42
63.0063	566.38
63.0207	579.39
63.0352	551.65
63.0496	556.11
63.0640	587.58
63.0785	569.65
63.0929	572.56
63.1074	559.24
63.1218	565.71
63.1362	568.27
63.1507	562.88
63.1651	580.01
63.1796	567.06
63.1940	570.93
63.2084	570.97
63.2229	603.76
63.2373	560.62
63.2518	569.98
63.2662	572.29
63.2806	611.41
63.2951	590.47
63.3095	622.54
63.3240	568.22
63.3384	568.95
63.3528	578.24
63.3673	574.35
63.3817	573.44
63.3962	569.84
63.4106	578.63
63.4250	604.99
63.4395	592.71
63.4539	573.99
63.4684	626.08
63.4828	583.75
63.4972	560.53
63.5117	588.16
63.5261	566.08
63.5406	589.52
63.5550	573.36
63.5694	606.35
63.5839	575.27
63.5983	551.30
63.6128	556.92
63.6272	578.10
63.6416	579.11
63.6561	548.57
63.6705	596.26
63.6850	573.44
63.6994	623.97
63.7138	602.25
63.7283	544.63
63.7427	588.43
63.7572	576.55
63.7716	601.33
63.7861	604.45
63.8005	594.65
63.8149	600.64
63.8294	590.00
63.8438	599.72
63.8583	592.00
63.8727	607.14
63.8871	588.05
63.9016	632.81
63.9160	628.07
63.9305	567.92
63.9449	629.41
63.9593	642.50
63.9738	597.82
63.9882	599.80
64.0027	596.40
64.0171	607.45
64.0315	647.61
64.0460	650.39
64.0604	623.83
64.0749	619.09
64.0893	646.02
64.1037	640.75
64.1182	693.49
64.1326	653.39
64.1471	625.16
64.1615	655.29
64.1759	717.54
64.1904	699.61
64.2048	726.64
64.2193	753.93
64.2337	727.38
64.2481	746.99
64.2626	801.92
64.2770	752.42
64.2915	810.63
64.3059	807.15
64.3203	788.62
64.3348	778.99
64.3492	768.40
64.3637	763.56
64.3781	811.00
64.3925	809.21
64.4070	812.06
64.4214	809.36
64.4359	774.80
64.4503	769.87
64.4647	780.08
64.4792	775.53
64.4936	762.68
64.5081	752.81
64.5225	701.98
64.5369	753.03
64.5514	757.29
64.5658	700.32
64.5803	653.26
64.5947	719.89
64.6091	726.35
64.6236	696.44
64.6380	738.77
64.6525	682.56
64.6669	676.13
64.6813	709.11
64.6958	720.23
64.7102	711.80
64.7247	723.20
64.7391	731.59
64.7535	766.10
64.7680	761.37
64.7824	713.14
64.7969	764.24
64.8113	771.76
64.8257	800.14
64.8402	854.68
64.8546	878.06
64.8691	843.28
64.8835	818.93
64.8979	832.85
64.9124	913.72
64.9268	884.01
64.9413	924.87
64.9557	964.69
64.9701	981.81
64.9846	1056.92
64.9990	1175.33
65.0135	1275.17
65.0279	1477.08
65.0423	1775.18
65.0568	2111.29
65.0712	2706.27
65.0857	3411.68
65.1001	4400.34
65.1145	6098.17
65.1290	7973.70
65.1434	9545.69
65.1579	11032.10
65.1723	11734.60
65.1867	11308.84
65.2012	10234.66
65.2156	8427.62
65.2301	6601.07
65.2445	5240.96
65.2589	4405.28
65.2734	4148.55
65.2878	4438.77
65.3023	4913.52
65.3167	5712.76
65.3311	6534.28
65.3456	6998.65
65.3600	6992.18
65.3745	6481.03
65.3889	5565.89
65.4033	4262.14
65.4178	3443.74
65.4322	2665.69
65.4467	2100.90
65.4611	1756.50
65.4755	1490.60
65.4900	1251.59
65.5044	1129.52
65.5189	1033.11
65.5333	1002.54
65.5477	963.36
65.5622	914.63
65.5766	849.87
65.5911	814.61
65.6055	833.29
65.6199	764.54
65.6344	717.75
65.6488	724.92
65.6633	765.71
65.6777	745.09
65.6921	704.68
65.7066	763.44
65.7210	681.05
65.7355	660.98
65.7499	682.31
65.7643	669.38
65.7788	681.14
65.7932	690.05
65.8077	714.89
65.8221	710.11
65.8365	687.90
65.8510	668.94
65.8654	703.98
65.8799	684.00
65.8943	652.97
65.9087	626.92
65.9232	611.92
65.9376	648.95
65.9521	633.13
65.9665	621.56
65.9809	634.81
65.9954	642.42
66.0098	639.88
66.0243	610.42
66.0387	628.18
66.0531	619.54
66.0676	639.73
66.0820	627.49
66.0965	632.46
66.1109	617.83
66.1253	643.53
66.1398	625.61
66.1542	585.44
66.1687	639.92
66.1831	649.57
66.1975	623.53
66.2120	603.79
66.2264	586.70
66.2409	601.58
66.2553	588.80
66.2697	593.81
66.2842	593.73
66.2986	602.13
66.3131	628.97
66.3275	615.81
66.3419	645.42
66.3564	616.51
66.3708	593.28
66.3853	588.69
66.3997	554.50
66.4141	608.97
66.4286	642.50
66.4430	589.92
66.4575	573.62
66.4719	568.52
66.4863	563.57
66.5008	634.62
66.5152	621.20
66.5297	595.61
66.5441	589.81
66.5585	590.94
66.5730	584.30
66.5874	605.07
66.6019	610.76
66.6163	578.64
66.6307	578.67
66.6452	592.81
66.6596	591.92
66.6741	606.30
66.6885	568.87
66.7029	583.50
66.7174	585.71
66.7318	587.84
66.7463	553.47
66.7607	537.36
66.7751	566.39
66.7896	589.38
66.8040	618.52
66.8185	623.57
66.8329	593.68
66.8473	578.69
66.8618	580.51
66.8762	559.56
66.8907	575.11
66.9051	594.89
66.9195	589.15
66.9340	621.08
66.9484	623.63
66.9629	583.16
66.9773	579.56
66.9917	580.76
67.0062	597.27
67.0206	582.04
67.0351	606.95
67.0495	578.34
67.0639	580.48
67.0784	626.62
67.0928	621.63
67.1073	570.75
67.1217	566.87
67.1361	596.75
67.1506	609.58
67.1650	614.50
67.1795	597.05
67.1939	590.65
67.2083	564.35
67.2228	549.70
67.2372	573.44
67.2517	589.60
67.2661	575.44
67.2805	611.40
67.2950	587.21
67.3094	560.43
67.3239	558.22
67.3383	652.08
67.3527	630.00
67.3672	593.02
67.3816	550.76
67.3961	570.09
67.4105	565.90
67.4250	597.75
67.4394	594.97
67.4538	595.96
67.4683	604.02
67.4827	584.97
67.4972	561.98
67.5116	558.43
67.5260	576.31
67.5405	584.13
67.5549	612.41
67.5694	583.90
67.5838	575.55
67.5982	569.37
67.6127	565.72
67.6271	576.43
67.6416	558.26
67.6560	580.35
67.6704	575.72
67.6849	564.72
67.6993	574.10
67.7138	615.80
67.7282	593.29
67.7426	552.31
67.7571	573.77
67.7715	593.99
67.7860	630.68
67.8004	579.85
67.8148	573.82
67.8293	597.21
67.8437	582.46
67.8582	603.43
67.8726	597.67
67.8870	568.41
67.9015	586.25
67.9159	571.88
67.9304	544.70
67.9448	560.51
67.9592	542.45
67.9737	508.09
67.9881	531.98
68.0026	597.61
68.0170	562.45
68.0314	607.33
68.0459	563.55
68.0603	567.18
68.0748	579.81
68.0892	575.24
68.1036	582.73
68.1181	609.93
68.1325	601.88
68.1470	546.55
68.1614	558.82
68.1758	570.80
68.1903	564.51
68.2047	547.27
68.2192	595.54
68.2336	585.39
68.2480	597.68
68.2625	523.33
68.2769	572.87
68.2914	584.99
68.3058	579.47
68.3202	597.49
68.3347	596.53
68.3491	587.43
68.3636	574.91
68.3780	592.53
68.3924	583.07
68.4069	593.79
68.4213	561.64
68.4358	596.82
68.4502	570.87
68.4646	568.10
68.4791	609.79
68.4935	529.85
68.5080	576.86
68.5224	569.45
68.5368	591.97
68.5513	611.41
68.5657	577.72
68.5802	582.21
68.5946	504.70
68.6090	601.23
68.6235	573.89
68.6379	577.80
68.6524	569.25
68.6668	559.20
68.6812	576.98
68.6957	588.41
68.7101	606.46
68.7246	605.78
68.7390	533.73
68.7534	595.66
68.7679	559.77
68.7823	623.07
68.7968	574.67
68.8112	568.41
68.8256	564.38
68.8401	586.28
68.8545	554.54
68.8690	582.60
68.8834	567.53
68.8978	654.77
68.9123	587.29
68.9267	581.46
68.9412	614.92
68.9556	583.01
68.9700	543.88
68.9845	592.01
68.9989	584.99
69.0134	614.54
69.0278	586.23
69.0422	586.35
69.0567	544.81
69.0711	541.75
69.0856	560.99
69.1000	562.43
69.1144	552.37
69.1289	618.55
69.1433	561.87
69.1578	577.84
69.1722	552.16
69.1866	556.38
69.2011	569.10
69.2155	578.37
69.2300	565.84
69.2444	564.46
69.2588	555.33
69.2733	543.68
69.2877	570.06
69.3022	580.11
69.3166	581.31
69.3310	568.83
69.3455	574.67
69.3599	616.57
69.3744	578.89
69.3888	556.06
69.4032	588.91
69.4177	603.53
69.4321	624.53
69.4466	588.24
69.4610	582.58
69.4754	599.08
69.4899	572.72
69.5043	576.26
69.5188	533.08
69.5332	536.51
69.5476	565.18
69.5621	543.79
69.5765	556.58
69.5910	574.61
69.6054	589.69
69.6198	530.58
69.6343	632.75
69.6487	582.73
69.6632	615.78
69.6776	574.16
69.6920	568.45
69.7065	585.90
69.7209	582.75
69.7354	554.25
69.7498	612.84
69.7642	569.54
69.7787	572.66
69.7931	546.70
69.8076	582.65
69.8220	558.09
69.8364	564.46
69.8509	594.16
69.8653	633.45
69.8798	553.91
69.8942	547.27
69.9086	629.63
69.9231	615.97
69.9375	540.58
69.9520	601.41
69.9664	598.24
69.9808	606.22
69.9953	597.05
70.0097	621.75
70.0242	593.01
70.0386	545.96
70.0530	539.42
70.0675	597.26
70.0819	550.56
70.0964	578.97
70.1108	646.04
70.1252	590.93
70.1397	590.13
70.1541	587.34
70.1686	590.40
70.1830	558.94
70.1974	560.40
70.2119	590.17
70.2263	563.28
70.2408	540.33
70.2552	582.70
70.2696	553.16
70.2841	511.19
70.2985	567.45
70.3130	549.68
70.3274	576.46
70.3418	557.43
70.3563	563.39
70.3707	575.67
70.3852	531.10
70.3996	533.44
70.4140	557.97
70.4285	602.59
70.4429	598.89
70.4574	578.21
70.4718	550.27
70.4862	565.26
70.5007	585.73
70.5151	596.32
70.5296	557.38
70.5440	560.51
70.5584	594.04
70.5729	555.42
70.5873	519.48
70.6018	542.04
70.6162	551.68
70.6306	572.97
70.6451	555.86
70.6595	572.59
70.6740	581.46
70.6884	575.38
70.7028	525.15
70.7173	537.91
70.7317	516.97
70.7462	559.74
70.7606	543.29
70.7750	615.25
70.7895	587.82
70.8039	566.83
70.8184	587.65
70.8328	588.09
70.8472	520.53
70.8617	593.04
70.8761	624.73
70.8906	562.42
70.9050	563.38
70.9194	582.98
70.9339	599.31
70.9483	581.90
70.9628	589.24
70.9772	589.59
70.9916	536.86
71.0061	541.67
71.0205	565.79
71.0350	614.74
71.0494	570.54
71.0638	586.36
71.0783	636.55
71.0927	639.78
71.1072	654.39
71.1216	616.80
71.1361	583.47
71.1505	586.06
71.1649	586.28
71.1794	577.36
71.1938	581.36
71.2083	628.09
71.2227	594.02
71.2371	559.78
71.2516	574.11
71.2660	613.45
71.2805	570.96
71.2949	569.16
71.3093	579.11
71.3238	593.04
71.3382	609.56
71.3527	619.75
71.3671	556.44
71.3815	474.67
71.3960	501.81
71.4104	536.99
71.4249	552.73
71.4393	597.01
71.4537	560.30
71.4682	529.94
71.4826	534.74
71.4971	574.17
71.5115	579.66
71.5259	581.42
71.5404	550.23
71.5548	569.15
71.5693	554.73
71.5837	562.94
71.5981	545.44
71.6126	559.96
71.6270	571.59
71.6415	624.36
71.6559	626.25
71.6703	562.25
71.6848	540.68
71.6992	605.29
71.7137	627.82
71.7281	537.94
71.7425	548.17
71.7570	579.17
71.7714	588.23
71.7859	571.68
71.8003	579.42
71.8147	594.90
71.8292	619.68
71.8436	583.22
71.8581	577.13
71.8725	613.10
71.8869	615.40
71.9014	678.18
71.9158	592.29
71.9303	515.20
71.9447	599.64
71.9591	581.63
71.9736	570.14
71.9880	558.65
72.0025	515.08
72.0169	483.06
72.0313	518.36
72.0458	574.06
72.0602	658.65
72.0747	638.14
72.0891	661.72
72.1035	718.49
72.1180	594.77
72.1324	561.76
72.1469	516.67
72.1613	528.16
72.1757	570.97
72.1902	611.48
72.2046	581.29
72.2191	581.81
72.2335	617.74
72.2479	578.09
72.2624	558.14
72.2768	608.20
72.2913	552.89
72.3057	531.60
72.3201	578.11
72.3346	626.57
72.3490	674.91
72.3635	573.11
72.3779	488.94
72.3923	471.42
72.4068	566.79
72.4212	585.78
72.4357	537.19
72.4501	611.09
72.4645	656.76
72.4790	542.24
72.4934	492.23
72.5079	486.49
72.5223	522.89
72.5367	583.18
72.5512	612.33
72.5656	589.05
72.5801	575.13
72.5945	639.96
72.6089	563.41
72.6234	518.31
72.6378	500.68
72.6523	546.51
72.6667	621.97
72.6811	637.31
72.6956	565.19
72.7100	565.22
72.7245	540.04
72.7389	600.43
72.7533	575.80
72.7678	567.57
72.7822	582.60
72.7967	546.54
72.8111	565.93
72.8255	637.29
72.8400	682.19
72.8544	622.62
72.8689	624.02
72.8833	593.65

Result vector
22.1120	565.11
22.1264	540.39
22.1409	493.64
22.1553	597.29
22.1697	597.80
22.1842	522.18
22.1986	539.43
22.2131	536.76
22.2275	517.59
22.2419	596.19
22.2564	626.07
22.2708	595.42
22.2853	565.42
22.2997	500.05
22.3141	588.07
22.3286	521.40
22.3430	518.78
22.3575	535.52
22.3719	459.73
22.3863	512.23
22.4008	529.09
22.4152	564.40
22.4297	633.73
22.4441	548.64
22.4585	515.67
22.4730	522.14
22.4874	604.22
22.5019	608.87
22.5163	558.30
22.5307	531.66
22.5452	575.93
22.5596	550.90
22.5741	565.11
22.5885	576.93
22.6029	579.92
22.6174	542.69
22.6318	579.33
22.6463	570.57
22.6607	533.78
22.6751	500.35
22.6896	559.15
22.7040	505.37
22.7185	662.63
22.7329	654.32
22.7473	615.16
22.7618	473.23
22.7762	534.46
22.7907	618.92
22.8051	551.12
22.8195	600.70
22.8340	552.00
22.8484	530.47
22.8629	517.58
22.8773	523.37
22.8917	540.59
22.9062	536.27
22.9206	536.23
22.9351	565.09
22.9495	514.91
22.9639	471.34
22.9784	553.00
22.9928	611.73
23.0073	502.02
23.0217	491.12
23.0361	536.79
23.0506	544.22
23.0650	681.63
23.0795	558.10
23.0939	528.28
23.1083	518.20
23.1228	614.91
23.1372	558.85
23.1517	577.36
23.1661	579.35
23.1806	538.33
23.1950	522.67
23.2094	583.99
23.2239	603.67
23.2383	616.03
23.2528	539.78
23.2672	556.50
23.2816	517.33
23.2961	560.56
23.3105	577.76
23.3250	525.22
23.3394	524.75
23.3538	583.01
23.3683	567.33
23.3827	544.48
23.3972	538.01
23.4116	525.73
23.4260	543.82
23.4405	602.23
23.4549	530.24
23.4694	586.76
23.4838	587.40
23.4982	580.19
23.5127	557.69
23.5271	484.60
23.5416	553.03
23.5560	632.22
23.5704	625.19
23.5849	608.58
23.5993	501.00
23.6138	532.98
23.6282	548.40
23.6426	551.48
23.6571	601.08
23.6715	503.92
23.6860	635.42
23.7004	538.85
23.7148	587.49
23.7293	574.48
23.7437	540.37
23.7582	546.36
23.7726	540.51
23.7870	535.27
23.8015	532.65
23.8159	577.42
23.8304	512.78
23.8448	610.86
23.8592	582.63
23.8737	534.84
23.8881	544.52
23.9026	538.93
23.9170	560.78
23.9314	610.41
23.9459	540.52
23.9603	551.17
23.9748	564.75
23.9892	564.32
24.0036	570.59
24.0181	558.04
24.0325	521.52
24.0470	518.13
24.0614	572.42
24.0758	546.09
24.0903	484.16
24.1047	541.28
24.1192	542.04
24.1336	588.32
24.1480	560.49
24.1625	600.76
24.1769	587.59
24.1914	565.71
24.2058	555.97
24.2202	601.72
24.2347	623.67
24.2491	547.80
24.2636	559.11
24.2780	569.19
24.2924	580.48
24.3069	604.67
24.3213	612.82
24.3358	576.78
24.3502	564.77
24.3646	525.08
24.3791	536.32
24.3935	570.18
24.4080	561.94
24.4224	573.59
24.4368	551.44
24.4513	588.85
24.4657	576.87
24.4802	546.73
24.4946	533.75
24.5090	558.29
24.5235	492.69
24.5379	574.66
24.5524	553.93
24.5668	551.78
24.5812	575.21
24.5957	562.37
24.6101	578.70
24.6246	581.43
24.6390	569.85
24.6534	606.38
24.6679	506.60
24.6823	566.43
24.6968	580.82
24.7112	546.96
24.7256	575.88
24.7401	537.56
24.7545	528.61
24.7690	542.82
24.7834	558.25
24.7978	528.78
24.8123	545.07
24.8267	476.27
24.8412	571.04
24.8556	580.68
24.8700	520.15
24.8845	534.53
24.8989	543.78
24.9134	543.99
24.9278	559.56
24.9422	496.91
24.9567	548.47
24.9711	541.20
24.9856	497.58
25.0000	581.04
25.0144	592.24
25.0289	567.29
25.0433	553.82
25.0578	492.23
25.0722	460.08
25.0866	540.46
25.1011	559.43
25.1155	531.69
25.1300	501.82
25.1444	530.95
25.1588	537.08
25.1733	524.15
25.1877	536.10
25.2022	564.16
25.2166	534.45
25.2310	530.63
25.2455	530.13
25.2599	526.41
25.2744	530.64
25.2888	562.33
25.3032	532.00
25.3177	546.30
25.3321	550.76
25.3466	545.12
25.3610	545.59
25.3754	542.53
25.3899	539.46
25.4043	551.96
25.4188	543.67
25.4332	538.13
25.4476	538.44
25.4621	516.57
25.4765	559.17
25.4910	580.54
25.5054	530.48
25.5198	521.10
25.5343	531.70
25.5487	510.67
25.5632	582.69
25.5776	506.99
25.5920	560.06
25.6065	570.47
25.6209	542.81
25.6354	533.77
25.6498	520.06
25.6642	532.67
25.6787	538.69
25.6931	533.71
25.7076	505.78
25.7220	528.97
25.7364	537.79
25.7509	548.33
25.7653	522.09
25.7798	509.18
25.7942	515.99
25.8086	541.43
25.8231	534.76
25.8375	553.01
25.8520	536.69
25.8664	546.48
25.8808	583.01
25.8953	556.76
25.9097	524.42
25.9242	538.10
25.9386	585.61
25.9530	537.99
25.9675	534.08
25.9819	533.61
25.9964	516.89
26.0108	531.73
26.0252	526.07
26.0397	523.46
26.0541	551.93
26.0686	590.42
26.0830	568.77
26.0974	558.62
26.1119	541.89
26.1263	561.02
26.1408	558.84
26.1552	500.77
26.1696	521.05
26.1841	525.38
26.1985	532.54
26.2130	548.77
26.2274	529.51
26.2418	524.30
26.2563	531.79
26.2707	539.44
26.2852	572.75
26.2996	546.72
26.3140	526.94
26.3285	544.30
26.3429	529.32
26.3574	563.01
26.3718	559.35
26.3862	536.13
26.4007	508.31
26.4151	507.57
26.4296	515.89
26.4440	507.94
26.4584	553.51
26.4729	548.10
26.4873	530.36
26.5018	540.97
26.5162	560.38
26.5306	575.34
26.5451	565.23
26.5595	568.26
26.5740	547.95
26.5884	527.37
26.6028	556.35
26.6173	532.67
26.6317	523.66
26.6462	530.19
26.6606	533.28
26.6750	513.69
26.6895	541.81
26.7039	548.67
26.7184	513.25
26.7328	485.53
26.7472	508.68
26.7617	510.04
26.7761	541.97
26.7906	557.80
26.8050	530.76
26.8194	496.06
26.8339	516.35
26.8483	540.04
26.8628	564.38
26.8772	513.17
26.8917	498.15
26.9061	552.88
26.9205	543.16
26.9350	527.96
26.9494	517.04
26.9639	526.46
26.9783	513.92
26.9927	527.56
27.0072	531.59
27.0216	522.90
27.0361	534.25
27.0505	504.20
27.0649	490.61
27.0794	509.36
27.0938	531.64
27.1083	517.10
27.1227	526.94
27.1371	527.52
27.1516	501.70
27.1660	520.52
27.1805	521.13
27.1949	527.68
27.2093	505.77
27.2238	519.38
27.2382	511.14
27.2527	498.04
27.2671	496.30
27.2815	475.22
27.2960	512.17
27.3104	546.78
27.3249	500.52
27.3393	495.17
27.3537	505.46
27.3682	496.13
27.3826	476.83
27.3971	502.29
27.4115	509.19
27.4259	516.59
27.4404	521.83
27.4548	529.90
27.4693	540.98
27.4837	520.98
27.4981	513.86
27.5126	507.18
27.5270	496.09
27.5415	532.34
27.5559	519.22
27.5703	471.32
27.5848	482.30
27.5992	498.06
27.6137	537.99
27.6281	533.91
27.6425	539.49
27.6570	535.00
27.6714	528.97
27.6859	526.23
27.7003	535.98
27.7147	517.25
27.7292	527.03
27.7436	544.02
27.7581	554.59
27.7725	559.27
27.7869	502.22
27.8014	515.77
27.8158	509.08
27.8303	494.07
27.8447	480.73
27.8591	550.25
27.8736	534.82
27.8880	524.27
27.9025	472.20
27.9169	532.44
27.9313	505.85
27.9458	514.22
27.9602	478.56
27.9747	496.72
27.9891	535.30
28.0035	533.11
28.0180	496.47
28.0324	493.35
28.0469	502.62
28.0613	546.51
28.0757	507.76
28.0902	552.60
28.1046	525.14
28.1191	512.96
28.1335	537.66
28.1479	502.28
28.1624	478.23
28.1768	505.88
28.1913	510.89
28.2057	500.60
28.2201	491.01
28.2346	543.63
28.2490	572.14
28.2635	527.96
28.2779	522.80
28.2923	525.16
28.3068	505.82
28.3212	527.09
28.3357	529.47
28.3501	495.23
28.3645	514.76
28.3790	480.50
28.3934	507.74
28.4079	507.20
28.4223	497.63
28.4367	490.40
28.4512	498.32
28.4656	538.23
28.4801	535.99
28.4945	541.89
28.5089	519.71
28.5234	543.57
28.5378	505.78
28.5523	504.13
28.5667	518.50
28.5811	475.04
28.5956	527.62
28.6100	500.70
28.6245	463.65
28.6389	531.88
28.6533	524.36
28.6678	522.13
28.6822	540.42
28.6967	501.08
28.7111	550.28
28.7255	528.85
28.7400	522.13
28.7544	527.87
28.7689	526.46
28.7833	532.42
28.7977	520.95
28.8122	499.36
28.8266	513.75
28.8411	517.31
28.8555	510.62
28.8699	507.03
28.8844	474.46
28.8988	469.69
28.9133	481.47
28.9277	489.30
28.9421	479.72
28.9566	502.60
28.9710	483.38
28.9855	549.38
28.9999	545.61
29.0143	510.91
29.0288	494.79
29.0432	521.29
29.0577	507.11
29.0721	477.99
29.0865	470.12
29.1010	504.02
29.1154	494.50
29.1299	500.74
29.1443	474.95
29.1587	522.30
29.1732	548.36
29.1876	519.21
29.2021	496.64
29.2165	506.62
29.2309	497.15
29.2454	523.17
29.2598	479.17
29.2743	493.41
29.2887	515.60
29.3031	514.72
29.3176	520.85
29.3320	498.00
29.3465	500.47
29.3609	527.23
29.3753	487.68
29.3898	499.24
29.4042	510.05
29.4187	518.92
29.4331	519.59
29.4475	501.70
29.4620	489.53
29.4764	492.17
29.4909	516.68
29.5053	520.50
29.5197	482.07
29.5342	504.50
29.5486	516.98
29.5631	531.09
29.5775	515.51
29.5919	521.93
29.6064	498.53
29.6208	475.42
29.6353	532.72
29.6497	525.48
29.6641	510.41
29.6786	507.49
29.6930	496.35
29.7075	523.46
29.7219	493.78
29.7363	485.62
29.7508	483.43
29.7652	498.65
29.7797	494.41
29.7941	507.15
29.8085	469.01
29.8230	487.41
29.8374	535.60
29.8519	504.48
29.8663	512.21
29.8807	520.02
29.8952	513.18
29.9096	512.03
29.9241	513.79
29.9385	522.37
29.9529	514.86
29.9674	516.20
29.9818	511.50
29.9963	542.88
30.0107	546.74
30.0251	516.94
30.0396	520.42
30.0540	511.83
30.0685	534.97
30.0829	528.33
30.0973	538.66
30.1118	488.31
30.1262	510.82
30.1407	474.95
30.1551	482.79
30.1695	496.97
30.1840	515.55
30.1984	526.42
30.2129	527.07
30.2273	507.60
30.2417	507.82
30.2562	505.22
30.2706	506.19
30.2851	482.55
30.2995	484.24
30.3139	504.38
30.3284	509.73
30.3428	503.48
30.3573	505.87
30.3717	492.52
30.3861	514.57
30.4006	525.07
30.4150	511.60
30.4295	560.74
30.4439	526.58
30.4583	501.32
30.4728	504.63
30.4872	491.26
30.5017	515.36
30.5161	498.50
30.5305	490.79
30.5450	496.11
30.5594	511.78
30.5739	508.95
30.5883	513.81
30.6028	501.89
30.6172	495.35
30.6316	499.27
30.6461	538.37
30.6605	519.32
30.6750	505.14
30.6894	486.91
30.7038	528.70
30.7183	556.06
30.7327	513.77
30.7472	535.69
30.7616	499.40
30.7760	581.19
30.7905	549.11
30.8049	549.86
30.8194	600.39
30.8338	602.32
30.8482	652.90
30.8627	658.72
30.8771	659.00
30.8916	683.56
30.9060	714.63
30.9204	648.82
30.9349	665.58
30.9493	685.71
30.9638	657.21
30.9782	648.00
30.9926	640.73
31.0071	621.76
31.0215	645.03
31.0360	612.79
31.0504	562.34
31.0648	552.99
31.0793	544.37
31.0937	564.05
31.1082	565.26
31.1226	582.33
31.1370	533.13
31.1515	509.40
31.1659	550.32
31.1804	575.72
31.1948	531.32
31.2092	543.33
31.2237	521.64
31.2381	539.33
31.2526	520.63
31.2670	522.28
31.2814	545.09
31.2959	538.29
31.3103	549.33
31.3248	561.09
31.3392	534.47
31.3536	516.88
31.3681	547.18
31.3825	521.58
31.3970	511.29
31.4114	529.43
31.4258	534.42
31.4403	530.93
31.4547	507.47
31.4692	529.91
31.4836	531.31
31.4980	504.01
31.5125	480.58
31.5269	504.31
31.5414	508.43
31.5558	500.13
31.5702	497.30
31.5847	500.53
31.5991	472.68
31.6136	522.50
31.6280	498.35
31.6424	505.72
31.6569	526.80
31.6713	497.75
31.6858	490.81
31.7002	518.55
31.7146	516.00
31.7291	491.93
31.7435	506.74
31.7580	510.99
31.7724	511.68
31.7868	541.45
31.8013	522.73
31.8157	512.02
31.8302	494.66
31.8446	516.14
31.8590	512.02
31.8735	517.40
31.8879	502.69
31.9024	556.67
31.9168	551.31
31.9312	511.64
31.9457	521.51
31.9601	505.74
31.9746	531.77
31.9890	508.56
32.0034	519.27
32.0179	500.45
32.0323	531.92
32.0468	536.95
32.0612	519.12
32.0756	521.39
32.0901	545.14
32.1045	524.98
32.1190	496.86
32.1334	495.93
32.1478	493.98
32.1623	502.67
32.1767	516.37
32.1912	490.70
32.2056	481.80
32.2200	482.54
32.2345	530.09
32.2489	518.19
32.2634	502.99
32.2778	544.85
32.2922	517.32
32.3067	509.83
32.3211	476.18
32.3356	508.18
32.3500	513.49
32.3644	472.73
32.3789	508.67
32.3933	518.63
32.4078	517.49
32.4222	539.89
32.4366	517.38
32.4511	529.24
32.4655	496.41
32.4800	528.34
32.4944	530.31
32.5088	504.45
32.5233	516.88
32.5377	512.23
32.5522	525.54
32.5666	502.62
32.5810	503.94
32.5955	533.41
32.6099	538.59
32.6244	496.01
32.6388	513.38
32.6532	493.29
32.6677	520.66
32.6821	503.66
32.6966	512.49
32.7110	525.60
32.7254	498.03
32.7399	487.61
32.7543	517.38
32.7688	512.55
32.7832	527.01
32.7976	487.34
32.8121	490.38
32.8265	477.76
32.8410	508.60
32.8554	491.03
32.8698	495.62
32.8843	513.52
32.8987	522.26
32.9132	534.77
32.9276	519.64
32.9420	521.32
32.9565	481.27
32.9709	483.07
32.9854	478.42
32.9998	522.94
33.0142	495.22
33.0287	514.73
33.0431	535.74
33.0576	513.50
33.0720	509.73
33.0864	522.60
33.1009	521.40
33.1153	567.41
33.1298	563.48
33.1442	497.54
33.1586	512.82
33.1731	485.90
33.1875	514.49
33.2020	513.70
33.2164	512.48
33.2308	520.24
33.2453	523.35
33.2597	513.96
33.2742	501.74
33.2886	496.93
33.3030	524.56
33.3175	535.62
33.3319	510.73
33.3464	524.90
33.3608	524.44
33.3752	510.38
33.3897	513.48
33.4041	491.73
33.4186	515.94
33.4330	506.34
33.4474	527.59
33.4619	531.71
33.4763	491.76
33.4908	510.58
33.5052	495.34
33.5196	459.77
33.5341	500.39
33.5485	519.38
33.5630	508.53
33.5774	492.03
33.5918	516.97
33.6063	508.44
33.6207	533.79
33.6352	520.74
33.6496	518.60
33.6640	519.67
33.6785	508.01
33.6929	488.59
33.7074	496.86
33.7218	479.46
33.7362	518.44
33.7507	513.03
33.7651	528.32
33.7796	523.92
33.7940	500.62
33.8084	513.47
33.8229	498.73
33.8373	512.00
33.8518	513.92
33.8662	520.96
33.8806	515.73
33.8951	512.65
33.9095	510.36
33.9240	500.46
33.9384	522.18
33.9528	545.11
33.9673	521.60
33.9817	468.72
33.9962	500.92
34.0106	521.31
34.0250	565.23
34.0395	519.78
34.0539	486.04
34.0684	511.16
34.0828	519.03
34.0972	501.25
34.1117	479.19
34.1261	463.99
34.1406	488.34
34.1550	527.23
34.1694	522.75
34.1839	509.60
34.1983	483.44
34.2128	523.95
34.2272	489.32
34.2417	525.26
34.2561	536.82
34.2705	508.65
34.2850	534.65
34.2994	502.38
34.3139	492.36
34.3283	537.74
34.3427	552.97
34.3572	511.87
34.3716	516.84
34.3861	487.26
34.4005	505.61
34.4149	526.77
34.4294	537.13
34.4438	476.18
34.4583	505.42
34.4727	522.18
34.4871	517.56
34.5016	529.00
34.5160	497.59
34.5305	504.49
34.5449	521.76
34.5593	516.15
34.5738	509.17
34.5882	519.25
34.6027	502.66
34.6171	497.55
34.6315	502.41
34.6460	519.01
34.6604	500.08
34.6749	472.66
34.6893	496.82
34.7037	508.89
34.7182	516.03
34.7326	494.54
34.7471	478.76
34.7615	478.01
34.7759	491.69
34.7904	536.66
34.8048	517.69
34.8193	503.52
34.8337	528.34
34.8481	494.59
34.8626	546.34
34.8770	499.40
34.8915	479.05
34.9059	500.60
34.9203	494.87
34.9348	486.28
34.9492	520.62
34.9637	539.94
34.9781	539.78
34.9925	505.68
35.0070	509.67
35.0214	535.51
35.0359	506.01
35.0503	502.27
35.0647	473.22
35.0792	500.48
35.0936	502.56
35.1081	497.80
35.1225	560.87
35.1369	521.50
35.1514	486.46
35.1658	507.87
35.1803	529.87
35.1947	488.41
35.2091	516.74
35.2236	512.14
35.2380	493.40
35.2525	529.14
35.2669	487.94
35.2813	491.24
35.2958	499.34
35.3102	524.13
35.3247	530.48
35.3391	508.17
35.3535	496.27
35.3680	494.74
35.3824	532.82
35.3969	522.13
35.4113	538.91
35.4257	549.44
35.4402	529.95
35.4546	524.04
35.4691	557.84
35.4835	531.07
35.4979	530.77
35.5124	508.93
35.5268	494.71
35.5413	519.94
35.5557	518.47
35.5701	504.87
35.5846	553.42
35.5990	535.29
35.6135	520.17
35.6279	538.65
35.6423	538.06
35.6568	495.13
35.6712	516.68
35.6857	616.10
35.7001	682.86
35.7145	716.00
35.7290	665.13
35.7434	636.77
35.7579	585.19
35.7723	572.25
35.7867	646.80
35.8012	677.28
35.8156	659.98
35.8301	669.99
35.8445	588.53
35.8589	611.05
35.8734	735.79
35.8878	868.28
35.9023	996.03
35.9167	1000.79
35.9311	1364.71
35.9456	2130.69
35.9600	2367.63
35.9745	1930.61
35.9889	1959.85
36.0033	2584.71
36.0178	2718.18
36.0322	2176.22
36.0467	1884.24
36.0611	1656.39
36.0755	1629.38
36.0900	1502.50
36.1044	1270.08
36.1189	1289.24
36.1333	1248.86
36.1477	1061.84
36.1622	973.89
36.1766	910.47
36.1911	859.51
36.2055	724.12
36.2199	726.46
36.2344	676.40
36.2488	646.53
36.2633	662.71
36.2777	713.14
36.2921	761.10
36.3066	791.62
36.3210	822.47
36.3355	842.35
36.3499	876.14
36.3643	911.21
36.3788	958.58
36.3932	945.39
36.4077	972.08
36.4221	992.05
36.4365	983.97
36.4510	909.76
36.4654	895.80
36.4799	893.04
36.4943	859.57
36.5087	830.17
36.5232	759.81
36.5376	737.76
36.5521	732.92
36.5665	679.80
36.5809	633.67
36.5954	629.09
36.6098	586.01
36.6243	598.65
36.6387	640.96
36.6531	611.78
36.6676	592.40
36.6820	544.58
36.6965	558.72
36.7109	579.91
36.7253	549.52
36.7398	539.00
36.7542	562.32
36.7687	527.69
36.7831	569.67
36.7975	545.82
36.8120	546.87
36.8264	597.39
36.8409	613.53
36.8553	622.36
36.8697	617.91
36.8842	573.94
36.8986	580.74
36.9131	606.72
36.9275	624.75
36.9419	602.47
36.9564	584.76
36.9708	588.70
36.9853	584.32
36.9997	565.94
37.0141	573.78
37.0286	577.48
37.0430	564.57
37.0575	580.36
37.0719	547.49
37.0863	544.82
37.1008	508.84
37.1152	518.44
37.1297	523.79
37.1441	504.72
37.1585	522.25
37.1730	511.63
37.1874	527.97
37.2019	499.34
37.2163	528.07
37.2307	520.90
37.2452	529.20
37.2596	506.25
37.2741	527.00
37.2885	536.39
37.3029	548.58
37.3174	521.48
37.3318	500.31
37.3463	510.82
37.3607	515.53
37.3751	511.02
37.3896	472.58
37.4040	474.35
37.4185	523.42
37.4329	528.76
37.4473	505.67
37.4618	509.05
37.4762	507.51
37.4907	527.70
37.5051	511.69
37.5195	522.71
37.5340	513.89
37.5484	512.78
37.5629	503.77
37.5773	478.20
37.5917	532.76
37.6062	533.87
37.6206	494.12
37.6351	496.99
37.6495	491.53
37.6639	503.80
37.6784	515.09
37.6928	513.47
37.7073	527.12
37.7217	540.01
37.7361	497.34
37.7506	502.23
37.7650	508.71
37.7795	527.60
37.7939	518.72
37.8083	539.60
37.8228	488.06
37.8372	495.76
37.8517	476.50
37.8661	501.43
37.8805	512.14
37.8950	516.28
37.9094	468.63
37.9239	493.18
37.9383	482.68
37.9528	474.61
37.9672	511.61
37.9816	494.96
37.9961	508.32
38.0105	509.21
38.0250	499.48
38.0394	525.84
38.0538	515.77
38.0683	504.17
38.0827	511.97
38.0972	501.08
38.1116	515.08
38.1260	547.60
38.1405	500.46
38.1549	505.47
38.1694	511.81
38.1838	524.53
38.1982	511.07
38.2127	489.59
38.2271	497.52
38.2416	506.94
38.2560	521.24
38.2704	506.69
38.2849	512.11
38.2993	515.91
38.3138	534.03
38.3282	541.12
38.3426	518.64
38.3571	539.90
38.3715	518.40
38.3860	559.12
38.4004	540.87
38.4148	537.72
38.4293	582.38
38.4437	598.92
38.4582	619.41
38.4726	658.28
38.4870	698.71
38.5015	742.46
38.5159	793.40
38.5304	795.42
38.5448	823.05
38.5592	778.34
38.5737	777.65
38.5881	747.39
38.6026	712.73
38.6170	705.77
38.6314	652.68
38.6459	664.39
38.6603	651.23
38.6748	610.88
38.6892	562.47
38.7036	567.79
38.7181	531.25
38.7325	526.27
38.7470	526.45
38.7614	504.75
38.7758	550.67
38.7903	514.36
38.8047	504.14
38.8192	492.65
38.8336	529.36
38.8480	516.41
38.8625	533.74
38.8769	491.54
38.8914	525.78
38.9058	505.41
38.9202	503.09
38.9347	495.98
38.9491	520.21
38.9636	505.12
38.9780	483.25
38.9924	478.56
39.0069	479.30
39.0213	509.55
39.0358	522.73
39.0502	497.21
39.0646	523.44
39.0791	510.11
39.0935	511.70
39.1080	498.38
39.1224	475.98
39.1368	481.60
39.1513	472.24
39.1657	493.01
39.1802	540.28
39.1946	489.41
39.2090	488.00
39.2235	500.42
39.2379	519.86
39.2524	521.19
39.2668	530.32
39.2812	509.77
39.2957	515.29
39.3101	505.25
39.3246	523.43
39.3390	513.40
39.3534	509.88
39.3679	511.69
39.3823	515.20
39.3968	483.91
39.4112	523.32
39.4256	535.65
39.4401	492.15
39.4545	507.65
39.4690	502.16
39.4834	525.07
39.4978	497.00
39.5123	516.10
39.5267	543.22
39.5412	533.47
39.5556	522.99
39.5700	516.54
39.5845	543.25
39.5989	504.75
39.6134	481.39
39.6278	508.82
39.6422	503.91
39.6567	493.46
39.6711	460.23
39.6856	470.62
39.7000	483.74
39.7144	510.39
39.7289	500.55
39.7433	493.66
39.7578	492.54
39.7722	463.69
39.7866	501.58
39.8011	497.79
39.8155	458.20
39.8300	497.58
39.8444	468.33
39.8588	517.51
39.8733	515.48
39.8877	487.26
39.9022	492.60
39.9166	484.55
39.9310	453.80
39.9455	472.31
39.9599	487.20
39.9744	500.96
39.9888	499.65
40.0032	517.20
40.0177	543.40
40.0321	507.24
40.0466	476.58
40.0610	520.40
40.0754	516.32
40.0899	507.55
40.1043	492.60
40.1188	498.69
40.1332	517.98
40.1476	484.69
40.1621	479.97
40.1765	505.50
40.1910	489.30
40.2054	514.37
40.2198	509.80
40.2343	505.68
40.2487	481.89
40.2632	471.58
40.2776	497.24
40.2920	502.41
40.3065	511.04
40.3209	492.38
40.3354	524.40
40.3498	515.52
40.3642	496.16
40.3787	544.30
40.3931	520.40
40.4076	479.15
40.4220	523.26
40.4364	528.24
40.4509	490.25
40.4653	507.98
40.4798	529.77
40.4942	533.59
40.5086	516.91
40.5231	523.26
40.5375	548.28
40.5520	509.31
40.5664	504.66
40.5808	490.54
40.5953	495.86
40.6097	502.76
40.6242	477.93
40.6386	515.35
40.6530	498.58
40.6675	485.18
40.6819	529.64
40.6964	515.17
40.7108	481.44
40.7252	465.97
40.7397	481.96
40.7541	525.47
40.7686	504.11
40.7830	519.96
40.7974	486.91
40.8119	462.71
40.8263	480.95
40.8408	496.01
40.8552	522.46
40.8696	535.26
40.8841	480.63
40.8985	535.81
40.9130	475.33
40.9274	478.18
40.9418	513.98
40.9563	486.74
40.9707	505.45
40.9852	549.66
40.9996	504.30
41.0140	465.94
41.0285	489.62
41.0429	497.82
41.0574	494.14
41.0718	484.91
41.0862	527.00
41.1007	511.30
41.1151	496.01
41.1296	518.44
41.1440	509.92
41.1584	497.96
41.1729	502.11
41.1873	503.44
41.2018	485.37
41.2162	509.87
41.2306	488.83
41.2451	498.25
41.2595	495.19
41.2740	513.83
41.2884	533.55
41.3028	496.99
41.3173	463.56
41.3317	492.79
41.3462	510.98
41.3606	496.11
41.3750	486.21
41.3895	463.13
41.4039	476.37
41.4184	499.85
41.4328	486.44
41.4472	469.82
41.4617	529.67
41.4761	523.90
41.4906	488.10
41.5050	507.38
41.5194	481.11
41.5339	510.39
41.5483	475.36
41.5628	509.22
41.5772	508.85
41.5916	500.27
41.6061	516.81
41.6205	518.85
41.6350	495.20
41.6494	512.08
41.6639	472.90
41.6783	493.39
41.6927	472.68
41.7072	481.45
41.7216	527.14
41.7361	483.09
41.7505	508.35
41.7649	487.26
41.7794	524.82
41.7938	488.37
41.8083	542.24
41.8227	518.73
41.8371	491.25
41.8516	492.05
41.8660	545.42
41.8805	547.79
41.8949	525.61
41.9093	535.64
41.9238	542.79
41.9382	546.01
41.9527	545.65
41.9671	513.19
41.9815	545.88
41.9960	554.41
42.0104	537.84
42.0249	573.08
42.0393	541.23
42.0537	550.47
42.0682	563.06
42.0826	586.20
42.0971	586.18
42.1115	553.59
42.1259	583.05
42.1404	568.81
42.1548	593.93
42.1693	654.73
42.1837	709.37
42.1981	736.92
42.2126	823.90
42.2270	962.56
42.2415	1084.58
42.2559	1178.46
42.2703	1356.37
42.2848	1538.67
42.2992	1598.57
42.3137	1691.40
42.3281	1657.26
42.3425	1569.24
42.3570	1495.39
42.3714	1384.84
42.3859	1334.61
42.4003	1326.43
42.4147	1373.82
42.4292	1302.67
42.4436	1162.04
42.4581	1031.38
42.4725	952.79
42.4869	821.21
42.5014	739.76
42.5158	712.13
42.5303	696.68
42.5447	698.79
42.5591	620.66
42.5736	563.02
42.5880	554.31
42.6025	606.67
42.6169	589.59
42.6313	579.75
42.6458	524.53
42.6602	499.44
42.6747	538.19
42.6891	538.77
42.7035	527.66
42.7180	512.51
42.7324	490.06
42.7469	497.11
42.7613	528.22
42.7757	526.97
42.7902	535.88
42.8046	516.78
42.8191	523.56
42.8335	521.70
42.8479	513.19
42.8624	509.56
42.8768	516.33
42.8913	506.24
42.9057	512.06
42.9201	485.01
42.9346	503.19
42.9490	500.16
42.9635	490.42
42.9779	518.14
42.9923	527.65
43.0068	516.59
43.0212	502.80
43.0357	518.84
43.0501	517.78
43.0645	519.65
43.0790	505.62
43.0934	508.26
43.1079	523.98
43.1223	534.91
43.1367	518.85
43.1512	497.03
43.1656	514.43
43.1801	522.46
43.1945	549.12
43.2089	538.24
43.2234	551.44
43.2378	527.77
43.2523	526.58
43.2667	511.59
43.2811	539.61
43.2956	525.88
43.3100	525.00
43.3245	522.74
43.3389	537.74
43.3533	503.60
43.3678	523.63
43.3822	546.58
43.3967	521.68
43.4111	510.02
43.4255	520.58
43.4400	509.42
43.4544	476.80
43.4689	518.06
43.4833	514.37
43.4977	524.72
43.5122	501.86
43.5266	512.77
43.5411	522.61
43.5555	519.32
43.5699	530.14
43.5844	523.82
43.5988	504.54
43.6133	513.32
43.6277	506.35
43.6421	537.94
43.6566	559.50
43.6710	540.36
43.6855	505.37
43.6999	521.93
43.7143	531.49
43.7288	543.99
43.7432	484.49
43.7577	481.33
43.7721	502.10
43.7865	512.54
43.8010	514.80
43.8154	532.87
43.8299	528.82
43.8443	503.18
43.8587	525.52
43.8732	522.61
43.8876	522.24
43.9021	525.53
43.9165	542.29
43.9309	513.06
43.9454	534.50
43.9598	500.75
43.9743	526.24
43.9887	507.37
44.0031	506.81
44.0176	480.75
44.0320	494.57
44.0465	528.38
44.0609	515.32
44.0753	519.86
44.0898	558.73
44.1042	543.74
44.1187	570.22
44.1331	578.48
44.1475	529.71
44.1620	565.66
44.1764	610.79
44.1909	611.45
44.2053	624.56
44.2197	652.41
44.2342	646.06
44.2486	643.21
44.2631	612.21
44.2775	589.99
44.2919	595.41
44.3064	637.92
44.3208	632.16
44.3353	614.91
44.3497	622.40
44.3641	629.48
44.3786	607.17
44.3930	562.51
44.4075	566.31
44.4219	639.54
44.4363	604.57
44.4508	605.19
44.4652	612.81
44.4797	592.54
44.4941	600.51
44.5085	593.68
44.5230	595.09
44.5374	585.78
44.5519	593.66
44.5663	586.54
44.5807	577.84
44.5952	594.32
44.6096	564.79
44.6241	552.26
44.6385	577.67
44.6529	566.76
44.6674	587.92
44.6818	626.74
44.6963	611.09
44.7107	675.91
44.7251	718.68
44.7396	726.71
44.7540	810.69
44.7685	880.17
44.7829	904.18
44.7973	876.06
44.8118	835.86
44.8262	808.87
44.8407	777.18
44.8551	762.89
44.8695	733.78
44.8840	682.67
44.8984	732.46
44.9129	726.84
44.9273	652.40
44.9417	696.70
44.9562	670.56
44.9706	613.45
44.9851	549.84
44.9995	511.53
45.0139	521.97
45.0284	504.33
45.0428	494.93
45.0573	549.27
45.0717	503.80
45.0861	536.20
45.1006	517.74
45.1150	523.20
45.1295	537.82
45.1439	497.57
45.1583	503.92
45.1728	504.91
45.1872	508.90
45.2017	480.22
45.2161	492.87
45.2305	522.01
45.2450	536.83
45.2594	518.76
45.2739	483.40
45.2883	528.93
45.3028	517.04
45.3172	505.44
45.3316	530.52
45.3461	505.25
45.3605	516.31
45.3750	516.36
45.3894	510.65
45.4038	511.72
45.4183	512.37
45.4327	535.22
45.4472	507.81
45.4616	544.75
45.4760	546.50
45.4905	499.24
45.5049	492.31
45.5194	471.61
45.5338	511.09
45.5482	511.38
45.5627	517.35
45.5771	482.39
45.5916	506.47
45.6060	519.31
45.6204	529.86
45.6349	530.74
45.6493	487.11
45.6638	499.54
45.6782	498.68
45.6926	497.23
45.7071	491.83
45.7215	484.30
45.7360	484.60
45.7504	484.96
45.7648	505.99
45.7793	501.50
45.7937	527.49
45.8082	545.98
45.8226	515.44
45.8370	486.34
45.8515	478.07
45.8659	516.56
45.8804	500.63
45.8948	530.20
45.9092	485.12
45.9237	492.22
45.9381	505.00
45.9526	486.95
45.9670	485.69
45.9814	486.52
45.9959	518.51
46.0103	470.08
46.0248	479.13
46.0392	485.78
46.0536	457.89
46.0681	524.77
46.0825	540.61
46.0970	561.52
46.1114	483.89
46.1258	509.74
46.1403	516.96
46.1547	487.80
46.1692	507.20
46.1836	502.39
46.1980	481.50
46.2125	504.33
46.2269	521.55
46.2414	535.16
46.2558	497.15
46.2702	522.43
46.2847	544.49
46.2991	472.41
46.3136	513.24
46.3280	517.32
46.3424	499.72
46.3569	493.97
46.3713	489.85
46.3858	477.51
46.4002	494.84
46.4146	511.39
46.4291	499.54
46.4435	459.25
46.4580	488.30
46.4724	509.90
46.4868	505.19
46.5013	513.01
46.5157	509.26
46.5302	504.05
46.5446	509.15
46.5590	541.30
46.5735	496.84
46.5879	502.31
46.6024	482.63
46.6168	495.14
46.6312	476.18
46.6457	515.92
46.6601	533.34
46.6746	500.81
46.6890	506.51
46.7034	526.04
46.7179	525.44
46.7323	498.38
46.7468	529.08
46.7612	506.41
46.7756	509.59
46.7901	497.38
46.8045	480.60
46.8190	505.08
46.8334	512.51
46.8478	517.87
46.8623	533.56
46.8767	537.24
46.8912	529.44
46.9056	514.18
46.9200	514.33
46.9345	514.10
46.9489	499.15
46.9634	498.38
46.9778	504.63
46.9922	518.38
47.0067	504.88
47.0211	530.94
47.0356	515.19
47.0500	506.47
47.0644	517.83
47.0789	501.88
47.0933	519.14
47.1078	510.25
47.1222	508.52
47.1366	502.06
47.1511	487.74
47.1655	513.07
47.1800	508.07
47.1944	509.94
47.2088	524.00
47.2233	516.45
47.2377	498.48
47.2522	517.42
47.2666	513.26
47.2810	523.69
47.2955	538.31
47.3099	522.69
47.3244	523.40
47.3388	498.32
47.3532	498.18
47.3677	522.04
47.3821	534.62
47.3966	497.01
47.4110	502.31
47.4254	515.51
47.4399	487.82
47.4543	464.93
47.4688	495.02
47.4832	502.61
47.4976	525.12
47.5121	491.82
47.5265	506.66
47.5410	508.37
47.5554	509.69
47.5698	501.78
47.5843	494.61
47.5987	506.14
47.6132	533.58
47.6276	488.30
47.6420	495.78
47.6565	500.15
47.6709	501.78
47.6854	491.14
47.6998	513.88
47.7142	523.76
47.7287	507.02
47.7431	483.31
47.7576	507.44
47.7720	478.41
47.7864	504.40
47.8009	541.05
47.8153	567.18
47.8298	511.48
47.8442	494.90
47.8586	508.40
47.8731	515.11
47.8875	512.27
47.9020	507.66
47.9164	484.99
47.9308	467.30
47.9453	484.63
47.9597	482.72
47.9742	517.48
47.9886	515.67
48.0030	491.68
48.0175	523.96
48.0319	527.95
48.0464	518.63
48.0608	526.18
48.0752	495.12
48.0897	513.93
48.1041	510.39
48.1186	472.49
48.1330	507.10
48.1474	481.44
48.1619	543.19
48.1763	545.56
48.1908	522.09
48.2052	559.54
48.2196	536.75
48.2341	538.47
48.2485	523.01
48.2630	542.30
48.2774	485.03
48.2918	496.96
48.3063	486.94
48.3207	518.14
48.3352	506.69
48.3496	515.38
48.3640	498.45
48.3785	513.01
48.3929	486.09
48.4074	511.75
48.4218	537.89
48.4362	511.91
48.4507	526.24
48.4651	534.17
48.4796	507.60
48.4940	548.88
48.5084	540.98
48.5229	511.20
48.5373	532.07
48.5518	521.73
48.5662	477.83
48.5806	516.09
48.5951	546.93
48.6095	533.63
48.6240	518.40
48.6384	538.37
48.6528	519.36
48.6673	495.06
48.6817	507.55
48.6962	538.52
48.7106	553.99
48.7250	541.58
48.7395	508.92
48.7539	537.59
48.7684	529.34
48.7828	562.95
48.7972	539.79
48.8117	549.32
48.8261	548.77
48.8406	518.92
48.8550	540.88
48.8694	523.80
48.8839	548.75
48.8983	549.03
48.9128	522.56
48.9272	536.43
48.9416	570.19
48.9561	532.00
48.9705	543.88
48.9850	551.74
48.9994	564.67
49.0139	607.80
49.0283	580.17
49.0427	609.79
49.0572	619.16
49.0716	625.24
49.0861	661.29
49.1005	707.84
49.1149	692.61
49.1294	721.28
49.1438	758.54
49.1583	816.70
49.1727	865.02
49.1871	904.11
49.2016	1018.84
49.2160	1050.00
49.2305	1094.35
49.2449	1183.15
49.2593	1250.12
49.2738	1401.67
49.2882	1442.75
49.3027	1524.65
49.3171	1605.06
49.3315	1692.30
49.3460	1719.93
49.3604	1815.88
49.3749	1823.38
49.3893	1777.55
49.4037	1761.27
49.4182	1808.20
49.4326	1783.29
49.4471	1613.13
49.4615	1690.85
49.4759	1604.42
49.4904	1477.54
49.5048	1430.15
49.5193	1369.40
49.5337	1297.15
49.5481	1177.37
49.5626	1153.16
49.5770	1086.90
49.5915	950.32
49.6059	951.45
49.6203	891.97
49.6348	833.19
49.6492	783.59
49.6637	764.31
49.6781	723.68
49.6925	726.93
49.7070	681.87
49.7214	642.72
49.7359	609.89
49.7503	633.08
49.7647	573.86
49.7792	650.11
49.7936	606.03
49.8081	555.48
49.8225	552.08
49.8369	560.06
49.8514	553.85
49.8658	538.14
49.8803	546.95
49.8947	563.98
49.9091	588.16
49.9236	536.12
49.9380	557.02
49.9525	520.62
49.9669	546.73
49.9813	534.54
49.9958	546.49
50.0102	540.28
50.0247	561.14
50.0391	568.15
50.0535	517.54
50.0680	527.43
50.0824	586.90
50.0969	568.01
50.1113	523.33
50.1257	545.61
50.1402	533.33
50.1546	507.16
50.1691	535.03
50.1835	528.79
50.1979	538.45
50.2124	533.76
50.2268	456.40
50.2413	500.48
50.2557	504.55
50.2701	515.22
50.2846	505.99
50.2990	521.59
50.3135	558.77
50.3279	539.93
50.3423	483.91
50.3568	486.48
50.3712	530.56
50.3857	514.04
50.4001	497.90
50.4145	516.80
50.4290	536.81
50.4434	518.38
50.4579	505.62
50.4723	529.05
50.4867	547.23
50.5012	511.96
50.5156	518.10
50.5301	534.40
50.5445	503.93
50.5589	502.60
50.5734	481.90
50.5878	503.86
50.6023	503.93
50.6167	526.51
50.6311	501.74
50.6456	486.18
50.6600	514.90
50.6745	530.82
50.6889	498.41
50.7033	514.96
50.7178	522.43
50.7322	494.79
50.7467	497.44
50.7611	532.06
50.7755	542.67
50.7900	522.34
50.8044	517.59
50.8189	534.77
50.8333	511.24
50.8477	511.74
50.8622	513.90
50.8766	520.55
50.8911	493.11
50.9055	525.71
50.9199	545.77
50.9344	513.47
50.9488	500.18
50.9633	499.19
50.9777	494.19
50.9921	514.73
51.0066	475.51
51.0210	509.92
51.0355	526.83
51.0499	522.70
51.0643	509.62
51.0788	492.45
51.0932	528.65
51.1077	526.05
51.1221	524.71
51.1365	545.76
51.1510	532.10
51.1654	493.70
51.1799	517.71
51.1943	510.72
51.2087	526.08
51.2232	519.47
51.2376	513.67
51.2521	515.08
51.2665	493.29
51.2809	500.81
51.2954	500.22
51.3098	524.30
51.3243	560.37
51.3387	521.50
51.3531	487.65
51.3676	489.35
51.3820	479.87
51.3965	499.22
51.4109	496.79
51.4253	501.75
51.4398	498.47
51.4542	475.07
51.4687	513.86
51.4831	540.00
51.4975	538.87
51.5120	548.83
51.5264	510.16
51.5409	493.47
51.5553	498.02
51.5697	481.29
51.5842	518.30
51.5986	545.34
51.6131	512.55
51.6275	503.16
51.6419	507.53
51.6564	504.50
51.6708	484.20
51.6853	496.67
51.6997	488.27
51.7141	507.41
51.7286	498.67
51.7430	489.10
51.7575	503.22
51.7719	498.02
51.7863	508.11
51.8008	530.02
51.8152	498.31
51.8297	498.49
51.8441	509.65
51.8585	508.48
51.8730	518.83
51.8874	488.01
51.9019	475.95
51.9163	513.33
51.9307	500.48
51.9452	517.46
51.9596	476.67
51.9741	505.75
51.9885	498.33
52.0029	491.06
52.0174	480.68
52.0318	503.14
52.0463	519.76
52.0607	500.36
52.0751	511.23
52.0896	520.54
52.1040	510.34
52.1185	503.01
52.1329	496.01
52.1473	495.48
52.1618	510.29
52.1762	539.64
52.1907	525.47
52.2051	501.97
52.2195	493.47
52.2340	510.35
52.2484	477.93
52.2629	508.85
52.2773	504.07
52.2917	515.29
52.3062	508.39
52.3206	509.00
52.3351	535.59
52.3495	518.75
52.3639	467.78
52.3784	500.99
52.3928	515.36
52.4073	500.32
52.4217	495.04
52.4361	512.46
52.4506	522.88
52.4650	513.19
52.4795	511.75
52.4939	533.61
52.5083	515.44
52.5228	495.18
52.5372	481.31
52.5517	526.48
52.5661	529.74
52.5805	514.99
52.5950	566.29
52.6094	516.66
52.6239	493.87
52.6383	492.02
52.6527	511.01
52.6672	540.98
52.6816	514.72
52.6961	518.44
52.7105	532.32
52.7250	505.44
52.7394	489.32
52.7538	515.13
52.7683	487.48
52.7827	496.04
52.7972	479.80
52.8116	531.31
52.8260	498.89
52.8405	506.43
52.8549	497.99
52.8694	525.77
52.8838	513.23
52.8982	513.55
52.9127	518.71
52.9271	500.97
52.9416	494.34
52.9560	511.08
52.9704	513.12
52.9849	547.38
52.9993	553.70
53.0138	530.75
53.0282	529.68
53.0426	524.74
53.0571	491.99
53.0715	480.96
53.0860	488.83
53.1004	525.36
53.1148	529.16
53.1293	502.45
53.1437	512.66
53.1582	559.78
53.1726	521.81
53.1870	519.51
53.2015	506.62
53.2159	489.57
53.2304	499.59
53.2448	508.03
53.2592	522.35
53.2737	505.36
53.2881	492.04
53.3026	522.02
53.3170	518.27
53.3314	510.76
53.3459	530.81
53.3603	504.24
53.3748	494.53
53.3892	478.02
53.4036	501.95
53.4181	505.11
53.4325	538.29
53.4470	505.33
53.4614	495.69
53.4758	513.17
53.4903	537.81
53.5047	493.75
53.5192	503.85
53.5336	479.28
53.5480	530.75
53.5625	511.53
53.5769	523.86
53.5914	495.90
53.6058	518.02
53.6202	525.37
53.6347	528.93
53.6491	518.48
53.6636	513.09
53.6780	540.76
53.6924	519.94
53.7069	540.32
53.7213	536.39
53.7358	491.74
53.7502	527.51
53.7646	544.40
53.7791	540.68
53.7935	496.26
53.8080	519.99
53.8224	525.42
53.8368	499.66
53.8513	509.44
53.8657	556.60
53.8802	526.51
53.8946	531.00
53.9090	505.57
53.9235	488.58
53.9379	483.85
53.9524	507.23
53.9668	513.55
53.9812	527.47
53.9957	548.68
54.0101	516.67
54.0246	546.28
54.0390	522.04
54.0534	485.20
54.0679	533.97
54.0823	542.68
54.0968	508.96
54.1112	510.03
54.1256	546.75
54.1401	524.28
54.1545	496.71
54.1690	558.66
54.1834	512.20
54.1978	517.11
54.2123	517.91
54.2267	499.88
54.2412	507.68
54.2556	533.26
54.2700	528.46
54.2845	501.34
54.2989	479.32
54.3134	520.01
54.3278	518.94
54.3422	530.66
54.3567	503.07
54.3711	503.47
54.3856	506.78
54.4000	504.06
54.4144	485.06
54.4289	500.32
54.4433	492.01
54.4578	537.92
54.4722	542.15
54.4866	512.79
54.5011	509.70
54.5155	533.41
54.5300	513.08
54.5444	538.15
54.5588	521.06
54.5733	499.68
54.5877	511.22
54.6022	522.58
54.6166	529.44
54.6310	520.33
54.6455	527.65
54.6599	560.63
54.6744	514.74
54.6888	500.45
54.7032	559.41
54.7177	552.26
54.7321	518.28
54.7466	541.83
54.7610	525.22
54.7754	550.70
54.7899	547.00
54.8043	579.27
54.8188	596.14
54.8332	605.51
54.8476	576.72
54.8621	560.46
54.8765	562.45
54.8910	559.10
54.9054	615.58
54.9198	608.82
54.9343	589.83
54.9487	573.33
54.9632	562.31
54.9776	607.91
54.9920	613.88
55.0065	595.52
55.0209	568.78
55.0354	565.73
55.0498	561.76
55.0642	577.67
55.0787	564.52
55.0931	589.72
55.1076	543.16
55.1220	546.36
55.1364	537.07
55.1509	540.03
55.1653	557.21
55.1798	528.46
55.1942	544.59
55.2086	534.80
55.2231	505.04
55.2375	555.86
55.2520	533.69
55.2664	516.93
55.2808	529.72
55.2953	487.95
55.3097	523.04
55.3242	520.41
55.3386	532.91
55.3530	529.63
55.3675	514.56
55.3819	552.85
55.3964	546.46
55.4108	484.54
55.4252	540.85
55.4397	496.81
55.4541	529.54
55.4686	526.53
55.4830	536.84
55.4974	513.00
55.5119	534.48
55.5263	508.84
55.5408	536.78
55.5552	543.08
55.5696	496.05
55.5841	537.64
55.5985	526.95
55.6130	505.79
55.6274	524.97
55.6418	506.40
55.6563	520.03
55.6707	548.53
55.6852	487.52
55.6996	518.88
55.7140	571.43
55.7285	525.72
55.7429	538.74
55.7574	551.86
55.7718	525.67
55.7862	544.40
55.8007	533.83
55.8151	544.38
55.8296	501.92
55.8440	532.43
55.8584	549.52
55.8729	525.40
55.8873	500.02
55.9018	528.18
55.9162	529.19
55.9306	515.80
55.9451	544.68
55.9595	546.76
55.9740	521.89
55.9884	512.35
56.0028	555.06
56.0173	497.04
56.0317	495.22
56.0462	522.03
56.0606	507.85
56.0750	528.04
56.0895	514.37
56.1039	525.39
56.1184	556.21
56.1328	509.28
56.1472	491.14
56.1617	486.69
56.1761	539.84
56.1906	511.20
56.2050	495.04
56.2194	516.13
56.2339	540.84
56.2483	527.36
56.2628	546.39
56.2772	552.10
56.2916	496.01
56.3061	534.06
56.3205	534.80
56.3350	550.09
56.3494	568.80
56.3639	559.11
56.3783	525.79
56.3927	506.61
56.4072	525.08
56.4216	565.50
56.4361	513.64
56.4505	523.94
56.4649	509.97
56.4794	530.02
56.4938	504.19
56.5083	509.08
56.5227	514.79
56.5371	532.81
56.5516	509.12
56.5660	506.97
56.5805	482.76
56.5949	525.32
56.6093	519.34
56.6238	521.98
56.6382	525.61
56.6527	508.96
56.6671	510.92
56.6815	492.29
56.6960	546.47
56.7104	506.29
56.7249	486.74
56.7393	475.24
56.7537	496.10
56.7682	521.96
56.7826	561.33
56.7971	528.76
56.8115	542.48
56.8259	489.43
56.8404	504.55
56.8548	504.68
56.8693	547.43
56.8837	539.35
56.8981	494.45
56.9126	552.11
56.9270	528.31
56.9415	539.98
56.9559	494.79
56.9703	482.75
56.9848	496.84
56.9992	505.14
57.0137	531.83
57.0281	552.39
57.0425	554.46
57.0570	524.33
57.0714	502.51
57.0859	560.23
57.1003	537.71
57.1147	534.55
57.1292	503.53
57.1436	492.22
57.1581	509.74
57.1725	518.00
57.1869	521.23
57.2014	489.37
57.2158	520.38
57.2303	512.61
57.2447	533.54
57.2591	500.61
57.2736	524.88
57.2880	516.78
57.3025	553.12
57.3169	514.77
57.3313	521.71
57.3458	533.02
57.3602	506.78
57.3747	487.95
57.3891	514.97
57.4035	528.04
57.4180	521.33
57.4324	516.45
57.4469	511.31
57.4613	536.47
57.4757	524.26
57.4902	535.53
57.5046	497.44
57.5191	516.07
57.5335	529.15
57.5479	544.74
57.5624	556.76
57.5768	531.78
57.5913	536.78
57.6057	497.63
57.6201	541.68
57.6346	518.70
57.6490	506.86
57.6635	520.40
57.6779	547.32
57.6923	521.59
57.7068	528.59
57.7212	524.25
57.7357	517.17
57.7501	526.14
57.7645	503.68
57.7790	504.76
57.7934	502.12
57.8079	538.95
57.8223	507.87
57.8367	544.52
57.8512	544.40
57.8656	533.59
57.8801	531.26
57.8945	538.96
57.9089	563.47
57.9234	555.06
57.9378	549.07
57.9523	512.51
57.9667	523.05
57.9811	487.63
57.9956	516.28
58.0100	542.30
58.0245	574.63
58.0389	520.83
58.0533	511.99
58.0678	577.64
58.0822	561.82
58.0967	543.14
58.1111	523.88
58.1255	562.06
58.1400	533.30
58.1544	529.58
58.1689	569.37
58.1833	546.76
58.1977	519.48
58.2122	547.71
58.2266	520.50
58.2411	534.08
58.2555	533.63
58.2699	533.07
58.2844	560.39
58.2988	545.05
58.3133	547.84
58.3277	537.92
58.3421	541.90
58.3566	593.49
58.3710	595.42
58.3855	577.67
58.3999	577.66
58.4143	577.65
58.4288	589.25
58.4432	570.12
58.4577	610.91
58.4721	643.91
58.4865	681.19
58.5010	662.91
58.5154	643.17
58.5299	655.44
58.5443	672.69
58.5587	662.62
58.5732	623.49
58.5876	651.92
58.6021	650.39
58.6165	635.29
58.6309	630.80
58.6454	613.99
58.6598	618.63
58.6743	599.83
58.6887	600.36
58.7031	588.32
58.7176	608.77
58.7320	589.87
58.7465	606.18
58.7609	590.16
58.7753	562.37
58.7898	587.87
58.8042	553.92
58.8187	582.16
58.8331	555.99
58.8475	568.91
58.8620	549.10
58.8764	578.43
58.8909	528.55
58.9053	546.28
58.9197	581.15
58.9342	551.72
58.9486	544.99
58.9631	566.83
58.9775	520.54
58.9919	554.71
59.0064	554.56
59.0208	551.45
59.0353	510.92
59.0497	549.64
59.0641	569.26
59.0786	560.95
59.0930	557.19
59.1075	552.58
59.1219	550.65
59.1363	573.18
59.1508	544.98
59.1652	552.74
59.1797	570.83
59.1941	580.26
59.2085	601.12
59.2230	536.27
59.2374	546.59
59.2519	576.14
59.2663	546.43
59.2807	563.47
59.2952	569.98
59.3096	562.92
59.3241	590.32
59.3385	584.62
59.3529	564.51
59.3674	561.27
59.3818	541.77
59.3963	570.90
59.4107	596.09
59.4251	566.75
59.4396	527.96
59.4540	559.34
59.4685	579.19
59.4829	584.08
59.4973	574.11
59.5118	531.75
59.5262	525.39
59.5407	527.80
59.5551	563.81
59.5695	535.96
59.5840	540.58
59.5984	541.15
59.6129	552.68
59.6273	560.18
59.6417	546.31
59.6562	537.52
59.6706	552.18
59.6851	509.95
59.6995	538.64
59.7139	548.07
59.7284	515.91
59.7428	522.29
59.7573	565.74
59.7717	532.93
59.7861	515.77
59.8006	521.17
59.8150	588.16
59.8295	536.37
59.8439	498.61
59.8583	560.52
59.8728	572.32
59.8872	502.45
59.9017	548.02
59.9161	556.35
59.9305	489.08
59.9450	538.09
59.9594	528.37
59.9739	524.98
59.9883	535.43
60.0027	540.46
60.0172	544.32
60.0316	545.65
60.0461	503.93
60.0605	541.39
60.0750	498.38
60.0894	562.46
60.1038	512.08
60.1183	506.64
60.1327	539.04
60.1472	492.02
60.1616	538.87
60.1760	562.00
60.1905	539.95
60.2049	526.12
60.2194	537.39
60.2338	541.70
60.2482	522.84
60.2627	515.21
60.2771	566.54
60.2916	530.02
60.3060	534.36
60.3204	531.09
60.3349	552.94
60.3493	559.10
60.3638	531.17
60.3782	530.78
60.3926	528.71
60.4071	525.44
60.4215	513.82
60.4360	532.78
60.4504	529.87
60.4648	554.92
60.4793	562.26
60.4937	555.12
60.5082	510.72
60.5226	527.24
60.5370	550.81
60.5515	557.25
60.5659	529.08
60.5804	508.82
60.5948	529.93
60.6092	560.53
60.6237	557.10
60.6381	538.67
60.6526	538.01
60.6670	531.90
60.6814	510.86
60.6959	525.97
60.7103	546.60
60.7248	526.72
60.7392	509.82
60.7536	536.79
60.7681	530.57
60.7825	540.51
60.7970	541.42
60.8114	539.12
60.8258	540.08
60.8403	506.49
60.8547	531.67
60.8692	578.40
60.8836	533.26
60.8980	579.53
60.9125	604.83
60.9269	581.36
60.9414	579.57
60.9558	553.12
60.9702	547.72
60.9847	518.73
60.9991	543.34
61.0136	530.92
61.0280	566.52
61.0424	574.50
61.0569	566.89
61.0713	559.90
61.0858	538.68
61.1002	520.64
61.1146	533.19
61.1291	523.15
61.1435	528.74
61.1580	542.97
61.1724	539.77
61.1868	514.30
61.2013	491.31
61.2157	532.40
61.2302	569.94
61.2446	564.35
61.2590	559.89
61.2735	534.66
61.2879	551.24
61.3024	585.37
61.3168	572.86
61.3312	556.69
61.3457	528.37
61.3601	555.90
61.3746	520.01
61.3890	536.85
61.4034	513.79
61.4179	533.71
61.4323	548.96
61.4468	496.83
61.4612	565.60
61.4756	560.53
61.4901	559.71
61.5045	532.16
61.5190	529.33
61.5334	563.63
61.5478	545.00
61.5623	535.35
61.5767	569.52
61.5912	527.26
61.6056	548.88
61.6200	580.78
61.6345	557.42
61.6489	544.14
61.6634	537.46
61.6778	508.33
61.6922	545.14
61.7067	566.94
61.7211	538.93
61.7356	522.08
61.7500	529.04
61.7644	538.45
61.7789	537.67
61.7933	557.25
61.8078	528.36
61.8222	537.24
61.8366	553.76
61.8511	560.70
61.8655	552.28
61.8800	520.46
61.8944	595.96
61.9088	586.35
61.9233	547.85
61.9377	568.63
61.9522	534.48
61.9666	524.12
61.9810	552.26
61.9955	545.37
62.0099	535.28
62.0244	529.89
62.0388	546.72
62.0532	563.65
62.0677	582.84
62.0821	537.26
62.0966	571.46
62.1110	576.46
62.1254	557.42
62.1399	550.84
62.1543	580.66
62.1688	578.42
62.1832	561.76
62.1976	544.35
62.2121	573.12
62.2265	541.59
62.2410	560.67
62.2554	531.19
62.2698	529.17
62.2843	561.90
62.2987	523.03
62.3132	547.53
62.3276	539.45
62.3420	599.48
62.3565	581.97
62.3709	583.92
62.3854	555.42
62.3998	544.83
62.4142	540.48
62.4287	551.04
62.4431	555.76
62.4576	558.22
62.4720	571.34
62.4864	546.08
62.5009	534.29
62.5153	545.10
62.5298	548.25
62.5442	519.53
62.5586	553.88
62.5731	533.14
62.5875	538.49
62.6020	547.49
62.6164	543.07
62.6308	551.53
62.6453	561.32
62.6597	538.39
62.6742	555.66
62.6886	573.07
62.7030	583.16
62.7175	573.45
62.7319	554.73
62.7464	575.94
62.7608	534.20
62.7752	556.40
62.7897	560.02
62.8041	554.56
62.8186	561.43
62.8330	560.37
62.8474	577.14
62.8619	570.67
62.8763	554.64
62.8908	550.90
62.9052	602.11
62.9196	567.69
62.9341	534.01
62.9485	546.63
62.9630	560.16
62.9774	552.12
62.9918	546.42
63.0063	566.38
63.0207	579.39
63.0352	551.65
63.0496	556.11
63.0640	587.58
63.0785	569.65
63.0929	572.56
63.1074	559.24
63.1218	565.71
63.1362	568.27
63.1507	562.88
63.1651	580.01
63.1796	567.06
63.1940	570.93
63.2084	570.97
63.2229	603.76
63.2373	560.62
63.2518	569.98
63.2662	572.29
63.2806	611.41
63.2951	590.47
63.3095	622.54
63.3240	568.22
63.3384	568.95
63.3528	578.24
63.3673	574.35
63.3817	573.44
63.3962	569.84
63.4106	578.63
63.4250	604.99
63.4395	592.71
63.4539	573.99
63.4684	626.08
63.4828	583.75
63.4972	560.53
63.5117	588.16
63.5261	566.08
63.5406	589.52
63.5550	573.36
63.5694	606.35
63.5839	575.27
63.5983	551.30
63.6128	556.92
63.6272	578.10
63.6416	579.11
63.6561	548.57
63.6705	596.26
63.6850	573.44
63.6994	623.97
63.7138	602.25
63.7283	544.63
63.7427	588.43
63.7572	576.55
63.7716	601.33
63.7861	604.45
63.8005	594.65
63.8149	600.64
63.8294	590.00
63.8438	599.72
63.8583	592.00
63.8727	607.14
63.8871	588.05
63.9016	632.81
63.9160	628.07
63.9305	567.92
63.9449	629.41
63.9593	642.50
63.9738	597.82
63.9882	599.80
64.0027	596.40
64.0171	607.45
64.0315	647.61
64.0460	650.39
64.0604	623.83
64.0749	619.09
64.0893	646.02
64.1037	640.75
64.1182	693.49
64.1326	653.39
64.1471	625.16
64.1615	655.29
64.1759	717.54
64.1904	699.61
64.2048	726.64
64.2193	753.93
64.2337	727.38
64.2481	746.99
64.2626	801.92
64.2770	752.42
64.2915	810.63
64.3059	807.15
64.3203	788.62
64.3348	778.99
64.3492	768.40
64.3637	763.56
64.3781	811.00
64.3925	809.21
64.4070	812.06
64.4214	809.36
64.4359	774.80
64.4503	769.87
64.4647	780.08
64.4792	775.53
64.4936	762.68
64.5081	752.81
64.5225	701.98
64.5369	753.03
64.5514	757.29
64.5658	700.32
64.5803	653.26
64.5947	719.89
64.6091	726.35
64.6236	696.44
64.6380	738.77
64.6525	682.56
64.6669	676.13
64.6813	709.11
64.6958	720.23
64.7102	711.80
64.7247	723.20
64.7391	731.59
64.7535	766.10
64.7680	761.37
64.7824	713.14
64.7969	764.24
64.8113	771.76
64.8257	800.14
64.8402	854.68
64.8546	878.06
64.8691	843.28
64.8835	818.93
64.8979	832.85
64.9124	913.72
64.9268	884.01
64.9413	924.87
64.9557	964.69
64.9701	981.81
64.9846	1056.92
64.9990	1175.33
65.0135	1275.17
65.0279	1477.08
65.0423	1775.18
65.0568	2111.29
65.0712	2706.27
65.0857	3411.68
65.1001	4400.34
65.1145	6098.17
65.1290	7973.70
65.1434	9545.69
65.1579	11032.10
65.1723	11734.60
65.1867	11308.84
65.2012	10234.66
65.2156	8427.62
65.2301	6601.07
65.2445	5240.96
65.2589	4405.28
65.2734	4148.55
65.2878	4438.77
65.3023	4913.52
65.3167	5712.76
65.3311	6534.28
65.3456	6998.65
65.3600	6992.18
65.3745	6481.03
65.3889	5565.89
65.4033	4262.14
65.4178	3443.74
65.4322	2665.69
65.4467	2100.90
65.4611	1756.50
65.4755	1490.60
65.4900	1251.59
65.5044	1129.52
65.5189	1033.11
65.5333	1002.54
65.5477	963.36
65.5622	914.63
65.5766	849.87
65.5911	814.61
65.6055	833.29
65.6199	764.54
65.6344	717.75
65.6488	724.92
65.6633	765.71
65.6777	745.09
65.6921	704.68
65.7066	763.44
65.7210	681.05
65.7355	660.98
65.7499	682.31
65.7643	669.38
65.7788	681.14
65.7932	690.05
65.8077	714.89
65.8221	710.11
65.8365	687.90
65.8510	668.94
65.8654	703.98
65.8799	684.00
65.8943	652.97
65.9087	626.92
65.9232	611.92
65.9376	648.95
65.9521	633.13
65.9665	621.56
65.9809	634.81
65.9954	642.42
66.0098	639.88
66.0243	610.42
66.0387	628.18
66.0531	619.54
66.0676	639.73
66.0820	627.49
66.0965	632.46
66.1109	617.83
66.1253	643.53
66.1398	625.61
66.1542	585.44
66.1687	639.92
66.1831	649.57
66.1975	623.53
66.2120	603.79
66.2264	586.70
66.2409	601.58
66.2553	588.80
66.2697	593.81
66.2842	593.73
66.2986	602.13
66.3131	628.97
66.3275	615.81
66.3419	645.42
66.3564	616.51
66.3708	593.28
66.3853	588.69
66.3997	554.50
66.4141	608.97
66.4286	642.50
66.4430	589.92
66.4575	573.62
66.4719	568.52
66.4863	563.57
66.5008	634.62
66.5152	621.20
66.5297	595.61
66.5441	589.81
66.5585	590.94
66.5730	584.30
66.5874	605.07
66.6019	610.76
66.6163	578.64
66.6307	578.67
66.6452	592.81
66.6596	591.92
66.6741	606.30
66.6885	568.87
66.7029	583.50
66.7174	585.71
66.7318	587.84
66.7463	553.47
66.7607	537.36
66.7751	566.39
66.7896	589.38
66.8040	618.52
66.8185	623.57
66.8329	593.68
66.8473	578.69
66.8618	580.51
66.8762	559.56
66.8907	575.11
66.9051	594.89
66.9195	589.15
66.9340	621.08
66.9484	623.63
66.9629	583.16
66.9773	579.56
66.9917	580.76
67.0062	597.27
67.0206	582.04
67.0351	606.95
67.0495	578.34
67.0639	580.48
67.0784	626.62
67.0928	621.63
67.1073	570.75
67.1217	566.87
67.1361	596.75
67.1506	609.58
67.1650	614.50
67.1795	597.05
67.1939	590.65
67.2083	564.35
67.2228	549.70
67.2372	573.44
67.2517	589.60
67.2661	575.44
67.2805	611.40
67.2950	587.21
67.3094	560.43
67.3239	558.22
67.3383	652.08
67.3527	630.00
67.3672	593.02
67.3816	550.76
67.3961	570.09
67.4105	565.90
67.4250	597.75
67.4394	594.97
67.4538	595.96
67.4683	604.02
67.4827	584.97
67.4972	561.98
67.5116	558.43
67.5260	576.31
67.5405	584.13
67.5549	612.41
67.5694	583.90
67.5838	575.55
67.5982	569.37
67.6127	565.72
67.6271	576.43
67.6416	558.26
67.6560	580.35
67.6704	575.72
67.6849	564.72
67.6993	574.10
67.7138	615.80
67.7282	593.29
67.7426	552.31
67.7571	573.77
67.7715	593.99
67.7860	630.68
67.8004	579.85
67.8148	573.82
67.8293	597.21
67.8437	582.46
67.8582	603.43
67.8726	597.67
67.8870	568.41
67.9015	586.25
67.9159	571.88
67.9304	544.70
67.9448	560.51
67.9592	542.45
67.9737	508.09
67.9881	531.98
68.0026	597.61
68.0170	562.45
68.0314	607.33
68.0459	563.55
68.0603	567.18
68.0748	579.81
68.0892	575.24
68.1036	582.73
68.1181	609.93
68.1325	601.88
68.1470	546.55
68.1614	558.82
68.1758	570.80
68.1903	564.51
68.2047	547.27
68.2192	595.54
68.2336	585.39
68.2480	597.68
68.2625	523.33
68.2769	572.87
68.2914	584.99
68.3058	579.47
68.3202	597.49
68.3347	596.53
68.3491	587.43
68.3636	574.91
68.3780	592.53
68.3924	583.07
68.4069	593.79
68.4213	561.64
68.4358	596.82
68.4502	570.87
68.4646	568.10
68.4791	609.79
68.4935	529.85
68.5080	576.86
68.5224	569.45
68.5368	591.97
68.5513	611.41
68.5657	577.72
68.5802	582.21
68.5946	504.70
68.6090	601.23
68.6235	573.89
68.6379	577.80
68.6524	569.25
68.6668	559.20
68.6812	576.98
68.6957	588.41
68.7101	606.46
68.7246	605.78
68.7390	533.73
68.7534	595.66
68.7679	559.77
68.7823	623.07
68.7968	574.67
68.8112	568.41
68.8256	564.38
68.8401	586.28
68.8545	554.54
68.8690	582.60
68.8834	567.53
68.8978	654.77
68.9123	587.29
68.9267	581.46
68.9412	614.92
68.9556	583.01
68.9700	543.88
68.9845	592.01
68.9989	584.99
69.0134	614.54
69.0278	586.23
69.0422	586.35
69.0567	544.81
69.0711	541.75
69.0856	560.99
69.1000	562.43
69.1144	552.37
69.1289	618.55
69.1433	561.87
69.1578	577.84
69.1722	552.16
69.1866	556.38
69.2011	569.10
69.2155	578.37
69.2300	565.84
69.2444	564.46
69.2588	555.33
69.2733	543.68
69.2877	570.06
69.3022	580.11
69.3166	581.31
69.3310	568.83
69.3455	574.67
69.3599	616.57
69.3744	578.89
69.3888	556.06
69.4032	588.91
69.4177	603.53
69.4321	624.53
69.4466	588.24
69.4610	582.58
69.4754	599.08
69.4899	572.72
69.5043	576.26
69.5188	533.08
69.5332	536.51
69.5476	565.18
69.5621	543.79
69.5765	556.58
69.5910	574.61
69.6054	589.69
69.6198	530.58
69.6343	632.75
69.6487	582.73
69.6632	615.78
69.6776	574.16
69.6920	568.45
69.7065	585.90
69.7209	582.75
69.7354	554.25
69.7498	612.84
69.7642	569.54
69.7787	572.66
69.7931	546.70
69.8076	582.65
69.8220	558.09
69.8364	564.46
69.8509	594.16
69.8653	633.45
69.8798	553.91
69.8942	547.27
69.9086	629.63
69.9231	615.97
69.9375	540.58
69.9520	601.41
69.9664	598.24
69.9808	606.22
69.9953	597.05
70.0097	621.75
70.0242	593.01
70.0386	545.96
70.0530	539.42
70.0675	597.26
70.0819	550.56
70.0964	578.97
70.1108	646.04
70.1252	590.93
70.1397	590.13
70.1541	587.34
70.1686	590.40
70.1830	558.94
70.1974	560.40
70.2119	590.17
70.2263	563.28
70.2408	540.33
70.2552	582.70
70.2696	553.16
70.2841	511.19
70.2985	567.45
70.3130	549.68
70.3274	576.46
70.3418	557.43
70.3563	563.39
70.3707	575.67
70.3852	531.10
70.3996	533.44
70.4140	557.97
70.4285	602.59
70.4429	598.89
70.4574	578.21
70.4718	550.27
70.4862	565.26
70.5007	585.73
70.5151	596.32
70.5296	557.38
70.5440	560.51
70.5584	594.04
70.5729	555.42
70.5873	519.48
70.6018	542.04
70.6162	551.68
70.6306	572.97
70.6451	555.86
70.6595	572.59
70.6740	581.46
70.6884	575.38
70.7028	525.15
70.7173	537.91
70.7317	516.97
70.7462	559.74
70.7606	543.29
70.7750	615.25
70.7895	587.82
70.8039	566.83
70.8184	587.65
70.8328	588.09
70.8472	520.53
70.8617	593.04
70.8761	624.73
70.8906	562.42
70.9050	563.38
70.9194	582.98
70.9339	599.31
70.9483	581.90
70.9628	589.24
70.9772	589.59
70.9916	536.86
71.0061	541.67
71.0205	565.79
71.0350	614.74
71.0494	570.54
71.0638	586.36
71.0783	636.55
71.0927	639.78
71.1072	654.39
71.1216	616.80
71.1361	583.47
71.1505	586.06
71.1649	586.28
71.1794	577.36
71.1938	581.36
71.2083	628.09
71.2227	594.02
71.2371	559.78
71.2516	574.11
71.2660	613.45
71.2805	570.96
71.2949	569.16
71.3093	579.11
71.3238	593.04
71.3382	609.56
71.3527	619.75
71.3671	556.44
71.3815	474.67
71.3960	501.81
71.4104	536.99
71.4249	552.73
71.4393	597.01
71.4537	560.30
71.4682	529.94
71.4826	534.74
71.4971	574.17
71.5115	579.66
71.5259	581.42
71.5404	550.23
71.5548	569.15
71.5693	554.73
71.5837	562.94
71.5981	545.44
71.6126	559.96
71.6270	571.59
71.6415	624.36
71.6559	626.25
71.6703	562.25
71.6848	540.68
71.6992	605.29
71.7137	627.82
71.7281	537.94
71.7425	548.17
71.7570	579.17
71.7714	588.23
71.7859	571.68
71.8003	579.42
71.8147	594.90
71.8292	619.68
71.8436	583.22
71.8581	577.13
71.8725	613.10
71.8869	615.40
71.9014	678.18
71.9158	592.29
71.9303	515.20
71.9447	599.64
71.9591	581.63
71.9736	570.14
71.9880	558.65
72.0025	515.08
72.0169	483.06
72.0313	518.36
72.0458	574.06
72.0602	658.65
72.0747	638.14
72.0891	661.72
72.1035	718.49
72.1180	594.77
72.1324	561.76
72.1469	516.67
72.1613	528.16
72.1757	570.97
72.1902	611.48
72.2046	581.29
72.2191	581.81
72.2335	617.74
72.2479	578.09
72.2624	558.14
72.2768	608.20
72.2913	552.89
72.3057	531.60
72.3201	578.11
72.3346	626.57
72.3490	674.91
72.3635	573.11
72.3779	488.94
72.3923	471.42
72.4068	566.79
72.4212	585.78
72.4357	537.19
72.4501	611.09
72.4645	656.76
72.4790	542.24
72.4934	492.23
72.5079	486.49
72.5223	522.89
72.5367	583.18
72.5512	612.33
72.5656	589.05
72.5801	575.13
72.5945	639.96
72.6089	563.41
72.6234	518.31
72.6378	500.68
72.6523	546.51
72.6667	621.97
72.6811	637.31
72.6956	565.19
72.7100	565.22
72.7245	540.04
72.7389	600.43
72.7533	575.80
72.7678	567.57
72.7822	582.60
72.7967	546.54
72.8111	565.93
72.8255	637.29
72.8400	682.19
72.8544	622.62
72.8689	624.02
72.8833	593.65