2022.09.19 19:37:17
Îáðàçåö: ß÷åéêà LCoV 16-09-2022
Lambda1 = 1.54060
Lambda2 = 1.54439
Lambdam = 1.54186
R = 0.497
2Theta	I

line¹ 0 ;repeat¹ 0
22.1120	596.40
22.1264	632.75
22.1409	566.29
22.1553	562.42
22.1697	578.15
22.1842	568.23
22.1986	537.50
22.2131	583.15
22.2275	547.10
22.2419	522.19
22.2564	556.34
22.2708	629.18
22.2853	633.29
22.2997	531.36
22.3141	516.84
22.3286	561.72
22.3430	602.31
22.3575	605.78
22.3719	596.11
22.3863	519.52
22.4008	528.30
22.4152	548.32
22.4297	674.38
22.4441	621.48
22.4585	624.56
22.4730	575.88
22.4874	575.41
22.5019	618.92
22.5163	554.23
22.5307	622.05
22.5452	535.18
22.5596	580.99
22.5741	635.53
22.5885	583.31
22.6029	620.18
22.6174	576.90
22.6318	592.06
22.6463	588.65
22.6607	628.36
22.6751	617.59
22.6896	564.61
22.7040	543.80
22.7185	591.71
22.7329	630.31
22.7473	553.39
22.7618	540.59
22.7762	547.97
22.7907	579.65
22.8051	606.66
22.8195	596.63
22.8340	599.65
22.8484	625.47
22.8629	636.90
22.8773	628.26
22.8917	579.28
22.9062	461.51
22.9206	454.25
22.9351	550.47
22.9495	611.25
22.9639	560.52
22.9784	596.78
22.9928	580.72
23.0073	610.71
23.0217	638.68
23.0361	595.50
23.0506	559.65
23.0650	541.50
23.0795	593.20
23.0939	603.90
23.1083	601.71
23.1228	552.90
23.1372	528.46
23.1517	564.59
23.1661	587.08
23.1806	597.23
23.1950	533.51
23.2094	555.54
23.2239	591.22
23.2383	608.17
23.2528	615.10
23.2672	494.61
23.2816	588.49
23.2961	562.33
23.3105	518.18
23.3250	594.27
23.3394	585.65
23.3538	577.17
23.3683	517.13
23.3827	565.72
23.3972	512.28
23.4116	500.46
23.4260	540.36
23.4405	507.96
23.4549	621.31
23.4694	582.51
23.4838	516.58
23.4982	526.64
23.5127	563.35
23.5271	530.72
23.5416	511.79
23.5560	530.39
23.5704	507.16
23.5849	596.70
23.5993	599.06
23.6138	557.16
23.6282	501.00
23.6426	567.40
23.6571	492.30
23.6715	516.71
23.6860	478.56
23.7004	563.11
23.7148	551.18
23.7293	566.70
23.7437	575.09
23.7582	522.89
23.7726	600.53
23.7870	597.59
23.8015	572.16
23.8159	532.35
23.8304	517.44
23.8448	574.62
23.8592	530.10
23.8737	610.13
23.8881	630.11
23.9026	683.95
23.9170	458.63
23.9314	510.71
23.9459	532.42
23.9603	548.11
23.9748	525.74
23.9892	567.77
24.0036	549.84
24.0181	561.73
24.0325	609.81
24.0470	604.17
24.0614	597.49
24.0758	578.92
24.0903	545.58
24.1047	562.09
24.1192	557.91
24.1336	570.42
24.1480	583.04
24.1625	620.87
24.1769	500.22
24.1914	535.50
24.2058	570.04
24.2202	568.81
24.2347	576.51
24.2491	590.36
24.2636	601.58
24.2780	607.71
24.2924	587.68
24.3069	548.09
24.3213	586.79
24.3358	572.83
24.3502	576.66
24.3646	575.95
24.3791	587.36
24.3935	610.38
24.4080	553.90
24.4224	597.66
24.4368	578.62
24.4513	546.75
24.4657	580.39
24.4802	579.14
24.4946	586.31
24.5090	571.29
24.5235	529.39
24.5379	531.64
24.5524	568.35
24.5668	623.54
24.5812	551.33
24.5957	547.95
24.6101	567.22
24.6246	615.21
24.6390	588.04
24.6534	569.81
24.6679	535.75
24.6823	534.04
24.6968	526.61
24.7112	575.06
24.7256	478.35
24.7401	561.24
24.7545	567.09
24.7690	557.33
24.7834	552.17
24.7978	536.94
24.8123	534.17
24.8267	628.87
24.8412	542.90
24.8556	547.65
24.8700	577.55
24.8845	579.18
24.8989	575.32
24.9134	554.51
24.9278	519.12
24.9422	546.37
24.9567	562.37
24.9711	521.97
24.9856	590.21
25.0000	556.15
25.0144	548.29
25.0289	492.65
25.0433	550.13
25.0578	551.25
25.0722	533.38
25.0866	581.48
25.1011	524.10
25.1155	601.42
25.1300	573.37
25.1444	526.91
25.1588	539.21
25.1733	593.11
25.1877	535.48
25.2022	559.13
25.2166	558.02
25.2310	559.46
25.2455	570.67
25.2599	564.22
25.2744	528.72
25.2888	561.65
25.3032	505.50
25.3177	554.38
25.3321	534.60
25.3466	551.54
25.3610	599.41
25.3754	527.29
25.3899	543.21
25.4043	522.64
25.4188	526.82
25.4332	531.74
25.4476	495.69
25.4621	561.32
25.4765	523.28
25.4910	530.47
25.5054	518.88
25.5198	515.07
25.5343	524.27
25.5487	532.36
25.5632	559.39
25.5776	516.22
25.5920	569.32
25.6065	565.38
25.6209	519.49
25.6354	503.33
25.6498	559.54
25.6642	582.98
25.6787	572.14
25.6931	517.09
25.7076	563.61
25.7220	550.40
25.7364	519.06
25.7509	515.23
25.7653	505.63
25.7798	526.73
25.7942	578.26
25.8086	553.55
25.8231	566.38
25.8375	529.98
25.8520	564.90
25.8664	545.46
25.8808	537.12
25.8953	554.02
25.9097	523.48
25.9242	552.20
25.9386	551.43
25.9530	503.73
25.9675	533.51
25.9819	503.64
25.9964	501.60
26.0108	568.02
26.0252	549.97
26.0397	565.11
26.0541	537.85
26.0686	577.08
26.0830	554.14
26.0974	522.83
26.1119	554.12
26.1263	518.00
26.1408	499.68
26.1552	525.68
26.1696	525.60
26.1841	538.39
26.1985	534.65
26.2130	522.92
26.2274	524.35
26.2418	542.01
26.2563	501.60
26.2707	519.90
26.2852	546.93
26.2996	502.07
26.3140	519.77
26.3285	564.31
26.3429	555.73
26.3574	515.41
26.3718	493.25
26.3862	539.89
26.4007	557.99
26.4151	543.40
26.4296	538.96
26.4440	545.01
26.4584	549.68
26.4729	539.44
26.4873	538.28
26.5018	517.43
26.5162	510.88
26.5306	549.33
26.5451	546.19
26.5595	559.49
26.5740	514.36
26.5884	540.33
26.6028	596.16
26.6173	548.92
26.6317	524.40
26.6462	507.07
26.6606	532.79
26.6750	555.12
26.6895	528.80
26.7039	525.38
26.7184	574.46
26.7328	532.59
26.7472	506.60
26.7617	511.77
26.7761	532.93
26.7906	510.61
26.8050	492.41
26.8194	535.27
26.8339	540.20
26.8483	531.45
26.8628	547.32
26.8772	523.59
26.8917	526.94
26.9061	543.64
26.9205	535.90
26.9350	504.61
26.9494	490.74
26.9639	517.90
26.9783	528.38
26.9927	518.27
27.0072	507.86
27.0216	559.01
27.0361	546.08
27.0505	551.63
27.0649	555.34
27.0794	522.36
27.0938	543.77
27.1083	536.51
27.1227	547.48
27.1371	532.42
27.1516	520.98
27.1660	529.14
27.1805	506.22
27.1949	492.30
27.2093	522.39
27.2238	520.08
27.2382	509.49
27.2527	525.59
27.2671	526.50
27.2815	523.87
27.2960	547.27
27.3104	565.38
27.3249	507.63
27.3393	500.90
27.3537	513.20
27.3682	547.24
27.3826	522.69
27.3971	531.29
27.4115	542.47
27.4259	554.65
27.4404	536.49
27.4548	512.69
27.4693	530.50
27.4837	557.75
27.4981	521.58
27.5126	551.77
27.5270	540.93
27.5415	549.73
27.5559	533.28
27.5703	511.25
27.5848	534.44
27.5992	533.05
27.6137	534.08
27.6281	519.30
27.6425	500.62
27.6570	498.42
27.6714	491.34
27.6859	525.37
27.7003	524.77
27.7147	517.21
27.7292	527.26
27.7436	531.28
27.7581	533.61
27.7725	508.03
27.7869	485.68
27.8014	502.50
27.8158	536.04
27.8303	576.19
27.8447	545.58
27.8591	523.60
27.8736	521.71
27.8880	511.57
27.9025	524.11
27.9169	493.30
27.9313	543.38
27.9458	538.75
27.9602	500.41
27.9747	489.84
27.9891	526.56
28.0035	503.94
28.0180	502.29
28.0324	512.80
28.0469	526.50
28.0613	525.34
28.0757	518.24
28.0902	518.55
28.1046	504.54
28.1191	517.39
28.1335	522.16
28.1479	479.78
28.1624	524.34
28.1768	502.14
28.1913	488.32
28.2057	504.42
28.2201	487.91
28.2346	521.53
28.2490	525.94
28.2635	521.77
28.2779	531.92
28.2923	507.44
28.3068	515.09
28.3212	506.33
28.3357	526.17
28.3501	538.44
28.3645	510.49
28.3790	519.54
28.3934	527.28
28.4079	511.98
28.4223	508.36
28.4367	494.90
28.4512	501.18
28.4656	528.49
28.4801	517.08
28.4945	498.63
28.5089	493.74
28.5234	527.24
28.5378	533.08
28.5523	508.36
28.5667	503.73
28.5811	501.75
28.5956	537.60
28.6100	506.82
28.6245	501.59
28.6389	484.17
28.6533	499.60
28.6678	514.22
28.6822	482.82
28.6967	513.27
28.7111	521.44
28.7255	483.92
28.7400	480.08
28.7544	497.73
28.7689	506.76
28.7833	491.35
28.7977	505.39
28.8122	516.08
28.8266	535.32
28.8411	508.26
28.8555	544.73
28.8699	516.50
28.8844	522.30
28.8988	510.60
28.9133	503.60
28.9277	528.04
28.9421	521.57
28.9566	543.85
28.9710	537.41
28.9855	494.93
28.9999	504.70
29.0143	538.19
29.0288	519.56
29.0432	488.85
29.0577	497.07
29.0721	485.22
29.0865	507.04
29.1010	495.15
29.1154	513.66
29.1299	508.31
29.1443	487.68
29.1587	473.22
29.1732	474.54
29.1876	492.95
29.2021	493.08
29.2165	510.79
29.2309	512.09
29.2454	504.91
29.2598	513.31
29.2743	527.25
29.2887	525.34
29.3031	524.38
29.3176	515.47
29.3320	455.62
29.3465	503.24
29.3609	505.98
29.3753	500.58
29.3898	518.90
29.4042	505.47
29.4187	500.97
29.4331	545.46
29.4475	525.34
29.4620	509.10
29.4764	498.93
29.4909	497.70
29.5053	516.35
29.5197	519.73
29.5342	509.10
29.5486	537.03
29.5631	519.01
29.5775	501.21
29.5919	508.67
29.6064	530.87
29.6208	521.07
29.6353	515.08
29.6497	501.72
29.6641	477.20
29.6786	495.49
29.6930	499.84
29.7075	506.95
29.7219	466.60
29.7363	492.66
29.7508	521.63
29.7652	491.93
29.7797	526.88
29.7941	486.03
29.8085	512.98
29.8230	477.34
29.8374	520.04
29.8519	537.77
29.8663	533.15
29.8807	481.95
29.8952	487.60
29.9096	503.54
29.9241	477.62
29.9385	494.55
29.9529	518.79
29.9674	520.27
29.9818	512.58
29.9963	507.51
30.0107	485.48
30.0251	483.52
30.0396	477.80
30.0540	476.71
30.0685	485.00
30.0829	490.17
30.0973	517.84
30.1118	526.41
30.1262	518.74
30.1407	536.55
30.1551	492.66
30.1695	515.83
30.1840	513.10
30.1984	494.30
30.2129	497.58
30.2273	523.74
30.2417	565.44
30.2562	565.86
30.2706	544.07
30.2851	532.79
30.2995	505.28
30.3139	513.51
30.3284	543.33
30.3428	529.94
30.3573	521.09
30.3717	522.47
30.3861	499.15
30.4006	528.41
30.4150	495.98
30.4295	517.48
30.4439	522.85
30.4583	513.97
30.4728	482.05
30.4872	459.63
30.5017	502.48
30.5161	498.55
30.5305	531.10
30.5450	516.36
30.5594	528.58
30.5739	514.67
30.5883	518.14
30.6028	528.45
30.6172	531.39
30.6316	533.35
30.6461	517.36
30.6605	533.66
30.6750	510.53
30.6894	499.44
30.7038	527.90
30.7183	537.65
30.7327	528.54
30.7472	517.33
30.7616	550.23
30.7760	570.46
30.7905	600.58
30.8049	607.98
30.8194	639.46
30.8338	613.34
30.8482	613.65
30.8627	682.55
30.8771	680.81
30.8916	702.21
30.9060	734.71
30.9204	715.68
30.9349	640.08
30.9493	641.94
30.9638	640.96
30.9782	636.36
30.9926	635.08
31.0071	619.08
31.0215	593.13
31.0360	584.53
31.0504	549.41
31.0648	581.86
31.0793	586.86
31.0937	582.93
31.1082	537.97
31.1226	541.30
31.1370	573.10
31.1515	552.64
31.1659	586.73
31.1804	576.23
31.1948	517.57
31.2092	540.42
31.2237	545.17
31.2381	509.70
31.2526	519.04
31.2670	505.54
31.2814	521.05
31.2959	511.89
31.3103	539.41
31.3248	527.37
31.3392	535.96
31.3536	531.86
31.3681	509.86
31.3825	531.69
31.3970	531.39
31.4114	524.01
31.4258	544.25
31.4403	528.30
31.4547	485.11
31.4692	515.04
31.4836	516.77
31.4980	534.22
31.5125	506.19
31.5269	530.98
31.5414	526.03
31.5558	487.14
31.5702	497.08
31.5847	511.49
31.5991	508.85
31.6136	518.69
31.6280	517.35
31.6424	513.64
31.6569	496.73
31.6713	478.65
31.6858	502.88
31.7002	528.16
31.7146	523.24
31.7291	527.64
31.7435	515.58
31.7580	500.81
31.7724	518.74
31.7868	539.49
31.8013	513.41
31.8157	517.43
31.8302	537.11
31.8446	526.98
31.8590	524.75
31.8735	524.22
31.8879	522.32
31.9024	529.57
31.9168	497.12
31.9312	524.26
31.9457	501.40
31.9601	496.36
31.9746	523.43
31.9890	518.85
32.0034	498.68
32.0179	517.90
32.0323	501.62
32.0468	508.49
32.0612	483.66
32.0756	531.57
32.0901	534.22
32.1045	511.68
32.1190	479.49
32.1334	531.08
32.1478	481.17
32.1623	492.69
32.1767	507.49
32.1912	505.89
32.2056	529.13
32.2200	502.32
32.2345	503.73
32.2489	493.44
32.2634	514.20
32.2778	527.07
32.2922	539.69
32.3067	493.46
32.3211	504.85
32.3356	527.66
32.3500	523.68
32.3644	507.59
32.3789	500.41
32.3933	523.23
32.4078	498.00
32.4222	508.27
32.4366	493.67
32.4511	482.13
32.4655	516.31
32.4800	532.73
32.4944	531.94
32.5088	491.87
32.5233	494.90
32.5377	524.72
32.5522	528.87
32.5666	506.34
32.5810	495.98
32.5955	517.86
32.6099	516.26
32.6244	490.19
32.6388	483.84
32.6532	476.36
32.6677	456.66
32.6821	501.85
32.6966	502.48
32.7110	516.67
32.7254	509.34
32.7399	486.62
32.7543	520.98
32.7688	502.44
32.7832	536.77
32.7976	530.53
32.8121	509.74
32.8265	487.07
32.8410	523.84
32.8554	509.10
32.8698	506.46
32.8843	471.84
32.8987	486.29
32.9132	477.64
32.9276	513.23
32.9420	517.95
32.9565	437.31
32.9709	460.45
32.9854	505.72
32.9998	493.44
33.0142	532.88
33.0287	534.86
33.0431	564.61
33.0576	511.31
33.0720	493.01
33.0864	524.25
33.1009	506.94
33.1153	546.17
33.1298	522.94
33.1442	500.29
33.1586	530.04
33.1731	497.30
33.1875	481.71
33.2020	495.52
33.2164	531.38
33.2308	515.31
33.2453	532.55
33.2597	488.99
33.2742	495.47
33.2886	498.48
33.3030	517.54
33.3175	492.71
33.3319	470.20
33.3464	527.85
33.3608	509.19
33.3752	555.26
33.3897	485.91
33.4041	513.86
33.4186	481.03
33.4330	517.12
33.4474	489.02
33.4619	495.80
33.4763	499.60
33.4908	475.52
33.5052	505.88
33.5196	496.98
33.5341	520.79
33.5485	536.95
33.5630	534.13
33.5774	492.83
33.5918	484.92
33.6063	491.55
33.6207	497.34
33.6352	531.26
33.6496	495.94
33.6640	488.20
33.6785	504.86
33.6929	528.66
33.7074	537.82
33.7218	525.49
33.7362	493.53
33.7507	495.39
33.7651	541.09
33.7796	527.51
33.7940	515.10
33.8084	499.73
33.8229	485.89
33.8373	489.82
33.8518	496.53
33.8662	504.70
33.8806	500.13
33.8951	540.53
33.9095	514.52
33.9240	504.24
33.9384	489.00
33.9528	504.19
33.9673	493.16
33.9817	444.36
33.9962	514.94
34.0106	506.17
34.0250	488.72
34.0395	477.78
34.0539	522.22
34.0684	499.31
34.0828	493.29
34.0972	476.89
34.1117	502.46
34.1261	507.76
34.1406	518.17
34.1550	503.09
34.1694	487.88
34.1839	525.84
34.1983	489.15
34.2128	501.80
34.2272	517.59
34.2417	497.31
34.2561	485.25
34.2705	510.38
34.2850	503.15
34.2994	486.69
34.3139	502.97
34.3283	522.84
34.3427	511.32
34.3572	524.21
34.3716	505.21
34.3861	484.28
34.4005	493.20
34.4149	476.80
34.4294	536.83
34.4438	479.53
34.4583	493.90
34.4727	518.77
34.4871	492.17
34.5016	490.25
34.5160	515.02
34.5305	496.81
34.5449	483.34
34.5593	468.45
34.5738	501.62
34.5882	542.50
34.6027	527.53
34.6171	530.86
34.6315	535.57
34.6460	495.68
34.6604	478.70
34.6749	482.59
34.6893	492.28
34.7037	533.54
34.7182	519.62
34.7326	482.51
34.7471	469.51
34.7615	487.53
34.7759	522.02
34.7904	508.71
34.8048	511.12
34.8193	530.99
34.8337	506.24
34.8481	493.34
34.8626	505.34
34.8770	522.01
34.8915	517.77
34.9059	501.32
34.9203	497.14
34.9348	507.21
34.9492	505.67
34.9637	510.23
34.9781	529.04
34.9925	491.60
35.0070	495.01
35.0214	506.07
35.0359	532.66
35.0503	514.95
35.0647	527.56
35.0792	528.22
35.0936	541.78
35.1081	496.66
35.1225	507.96
35.1369	505.87
35.1514	501.00
35.1658	519.75
35.1803	521.58
35.1947	490.72
35.2091	515.13
35.2236	475.41
35.2380	504.36
35.2525	525.20
35.2669	497.06
35.2813	526.18
35.2958	483.09
35.3102	519.19
35.3247	524.98
35.3391	520.27
35.3535	502.11
35.3680	520.65
35.3824	506.51
35.3969	473.25
35.4113	484.39
35.4257	526.97
35.4402	530.68
35.4546	467.76
35.4691	550.45
35.4835	537.40
35.4979	531.66
35.5124	539.69
35.5268	536.39
35.5413	554.82
35.5557	540.30
35.5701	533.59
35.5846	525.94
35.5990	533.96
35.6135	544.14
35.6279	518.59
35.6423	541.32
35.6568	506.91
35.6712	551.07
35.6857	582.13
35.7001	689.24
35.7145	755.52
35.7290	675.14
35.7434	636.56
35.7579	583.11
35.7723	606.88
35.7867	631.98
35.8012	670.88
35.8156	659.95
35.8301	614.21
35.8445	652.87
35.8589	663.58
35.8734	764.88
35.8878	835.19
35.9023	982.49
35.9167	1081.28
35.9311	1399.08
35.9456	2135.56
35.9600	2367.71
35.9745	1894.31
35.9889	1984.58
36.0033	2574.10
36.0178	2744.13
36.0322	2174.81
36.0467	1778.95
36.0611	1704.15
36.0755	1502.24
36.0900	1478.97
36.1044	1342.83
36.1189	1324.77
36.1333	1246.24
36.1477	1022.20
36.1622	1027.97
36.1766	906.39
36.1911	816.68
36.2055	725.46
36.2199	712.19
36.2344	717.05
36.2488	729.84
36.2633	740.40
36.2777	752.61
36.2921	779.09
36.3066	804.77
36.3210	867.56
36.3355	906.60
36.3499	975.59
36.3643	931.51
36.3788	917.26
36.3932	949.44
36.4077	977.12
36.4221	986.93
36.4365	1002.24
36.4510	890.26
36.4654	864.56
36.4799	792.19
36.4943	776.96
36.5087	791.31
36.5232	742.63
36.5376	734.81
36.5521	674.25
36.5665	647.97
36.5809	626.89
36.5954	634.37
36.6098	637.52
36.6243	623.78
36.6387	617.38
36.6531	569.26
36.6676	611.55
36.6820	576.39
36.6965	541.58
36.7109	566.38
36.7253	556.58
36.7398	550.49
36.7542	556.34
36.7687	558.80
36.7831	540.05
36.7975	565.49
36.8120	576.69
36.8264	591.66
36.8409	581.90
36.8553	626.37
36.8697	610.71
36.8842	594.44
36.8986	619.51
36.9131	585.41
36.9275	584.63
36.9419	602.99
36.9564	581.09
36.9708	601.75
36.9853	526.20
36.9997	539.99
37.0141	551.92
37.0286	554.01
37.0430	563.13
37.0575	540.81
37.0719	512.41
37.0863	550.26
37.1008	552.16
37.1152	554.51
37.1297	540.46
37.1441	524.16
37.1585	487.51
37.1730	509.74
37.1874	519.28
37.2019	510.01
37.2163	533.45
37.2307	526.23
37.2452	484.79
37.2596	533.50
37.2741	538.23
37.2885	558.24
37.3029	493.38
37.3174	474.12
37.3318	492.16
37.3463	502.14
37.3607	483.25
37.3751	490.94
37.3896	542.26
37.4040	528.77
37.4185	523.40
37.4329	536.68
37.4473	518.32
37.4618	504.24
37.4762	516.40
37.4907	491.22
37.5051	523.64
37.5195	511.06
37.5340	462.88
37.5484	506.90
37.5629	522.90
37.5773	522.76
37.5917	519.56
37.6062	486.34
37.6206	503.10
37.6351	539.67
37.6495	488.00
37.6639	471.11
37.6784	486.40
37.6928	484.41
37.7073	531.34
37.7217	502.01
37.7361	461.91
37.7506	482.96
37.7650	495.88
37.7795	477.16
37.7939	501.80
37.8083	503.91
37.8228	485.71
37.8372	505.29
37.8517	495.10
37.8661	533.87
37.8805	481.41
37.8950	526.55
37.9094	486.87
37.9239	527.66
37.9383	517.58
37.9528	511.92
37.9672	530.98
37.9816	533.33
37.9961	542.29
38.0105	501.35
38.0250	503.76
38.0394	548.32
38.0538	486.47
38.0683	480.21
38.0827	502.27
38.0972	503.92
38.1116	490.04
38.1260	513.18
38.1405	475.33
38.1549	475.44
38.1694	478.48
38.1838	470.97
38.1982	513.48
38.2127	487.29
38.2271	472.86
38.2416	484.56
38.2560	497.69
38.2704	520.36
38.2849	510.04
38.2993	491.61
38.3138	545.57
38.3282	537.16
38.3426	525.44
38.3571	552.23
38.3715	531.04
38.3860	513.12
38.4004	512.69
38.4148	515.51
38.4293	578.41
38.4437	565.48
38.4582	614.34
38.4726	657.35
38.4870	702.74
38.5015	705.96
38.5159	742.48
38.5304	821.28
38.5448	763.20
38.5592	746.64
38.5737	739.70
38.5881	750.82
38.6026	731.76
38.6170	700.36
38.6314	674.36
38.6459	682.92
38.6603	680.83
38.6748	637.77
38.6892	562.36
38.7036	610.70
38.7181	535.52
38.7325	517.16
38.7470	525.60
38.7614	537.80
38.7758	528.45
38.7903	544.58
38.8047	549.06
38.8192	504.69
38.8336	512.08
38.8480	500.30
38.8625	489.31
38.8769	509.84
38.8914	501.73
38.9058	511.50
38.9202	514.27
38.9347	496.25
38.9491	485.08
38.9636	467.41
38.9780	484.61
38.9924	504.43
39.0069	499.40
39.0213	494.01
39.0358	529.84
39.0502	534.52
39.0646	533.90
39.0791	524.85
39.0935	546.50
39.1080	522.62
39.1224	489.61
39.1368	535.72
39.1513	519.25
39.1657	539.29
39.1802	485.84
39.1946	476.51
39.2090	506.75
39.2235	501.90
39.2379	518.08
39.2524	501.00
39.2668	502.99
39.2812	518.98
39.2957	517.88
39.3101	521.38
39.3246	525.10
39.3390	527.49
39.3534	481.24
39.3679	475.13
39.3823	507.72
39.3968	499.95
39.4112	524.76
39.4256	508.41
39.4401	481.35
39.4545	478.70
39.4690	474.21
39.4834	527.22
39.4978	540.40
39.5123	509.04
39.5267	482.75
39.5412	493.49
39.5556	519.15
39.5700	503.97
39.5845	486.65
39.5989	483.69
39.6134	489.00
39.6278	479.46
39.6422	511.71
39.6567	491.84
39.6711	525.16
39.6856	496.80
39.7000	510.44
39.7144	504.64
39.7289	495.15
39.7433	502.81
39.7578	499.87
39.7722	484.79
39.7866	480.71
39.8011	520.99
39.8155	551.19
39.8300	523.65
39.8444	497.02
39.8588	507.06
39.8733	494.52
39.8877	481.62
39.9022	503.98
39.9166	477.72
39.9310	485.81
39.9455	516.70
39.9599	486.26
39.9744	500.05
39.9888	497.09
40.0032	514.96
40.0177	522.41
40.0321	498.57
40.0466	485.51
40.0610	510.66
40.0754	498.60
40.0899	500.12
40.1043	489.53
40.1188	481.02
40.1332	492.67
40.1476	508.95
40.1621	506.53
40.1765	502.48
40.1910	472.79
40.2054	510.14
40.2198	488.79
40.2343	475.26
40.2487	495.00
40.2632	490.07
40.2776	484.71
40.2920	490.27
40.3065	495.52
40.3209	507.88
40.3354	513.86
40.3498	509.12
40.3642	482.80
40.3787	477.08
40.3931	472.16
40.4076	498.02
40.4220	489.97
40.4364	509.71
40.4509	472.70
40.4653	489.02
40.4798	505.19
40.4942	496.58
40.5086	495.53
40.5231	503.80
40.5375	507.34
40.5520	494.39
40.5664	545.13
40.5808	507.65
40.5953	513.27
40.6097	494.74
40.6242	504.95
40.6386	510.54
40.6530	522.86
40.6675	504.40
40.6819	472.73
40.6964	526.23
40.7108	526.32
40.7252	481.35
40.7397	466.91
40.7541	521.56
40.7686	499.99
40.7830	508.12
40.7974	501.70
40.8119	483.37
40.8263	499.40
40.8408	485.48
40.8552	508.44
40.8696	572.67
40.8841	480.32
40.8985	480.11
40.9130	486.93
40.9274	499.62
40.9418	518.58
40.9563	495.83
40.9707	495.01
40.9852	526.41
40.9996	510.99
41.0140	509.56
41.0285	504.83
41.0429	536.73
41.0574	525.32
41.0718	528.56
41.0862	535.28
41.1007	523.27
41.1151	515.63
41.1296	478.09
41.1440	504.64
41.1584	475.58
41.1729	490.44
41.1873	505.89
41.2018	513.19
41.2162	514.44
41.2306	522.92
41.2451	492.99
41.2595	480.14
41.2740	499.16
41.2884	531.88
41.3028	511.30
41.3173	491.49
41.3317	499.51
41.3462	486.08
41.3606	495.77
41.3750	496.23
41.3895	449.91
41.4039	488.73
41.4184	515.58
41.4328	526.10
41.4472	518.16
41.4617	492.06
41.4761	506.44
41.4906	501.20
41.5050	485.13
41.5194	461.53
41.5339	510.45
41.5483	509.73
41.5628	484.14
41.5772	476.88
41.5916	506.85
41.6061	492.54
41.6205	527.79
41.6350	539.41
41.6494	520.25
41.6639	515.80
41.6783	480.50
41.6927	493.79
41.7072	505.72
41.7216	498.22
41.7361	493.34
41.7505	515.59
41.7649	499.98
41.7794	480.69
41.7938	499.69
41.8083	508.98
41.8227	535.29
41.8371	497.91
41.8516	523.71
41.8660	521.50
41.8805	490.81
41.8949	539.29
41.9093	559.63
41.9238	563.97
41.9382	514.39
41.9527	549.49
41.9671	521.95
41.9815	588.01
41.9960	539.56
42.0104	567.24
42.0249	561.64
42.0393	608.87
42.0537	551.89
42.0682	568.88
42.0826	568.10
42.0971	570.87
42.1115	577.08
42.1259	594.49
42.1404	622.95
42.1548	638.34
42.1693	682.55
42.1837	722.55
42.1981	723.51
42.2126	794.39
42.2270	959.50
42.2415	1180.82
42.2559	1236.31
42.2703	1387.99
42.2848	1559.45
42.2992	1628.57
42.3137	1688.67
42.3281	1682.00
42.3425	1603.47
42.3570	1468.88
42.3714	1450.81
42.3859	1376.14
42.4003	1380.32
42.4147	1370.70
42.4292	1280.72
42.4436	1144.54
42.4581	1069.87
42.4725	910.15
42.4869	780.30
42.5014	745.08
42.5158	719.74
42.5303	637.99
42.5447	613.98
42.5591	581.68
42.5736	599.19
42.5880	582.25
42.6025	539.77
42.6169	525.17
42.6313	553.63
42.6458	559.94
42.6602	545.67
42.6747	527.70
42.6891	520.81
42.7035	513.56
42.7180	526.36
42.7324	520.39
42.7469	565.87
42.7613	533.45
42.7757	536.05
42.7902	523.93
42.8046	497.77
42.8191	511.88
42.8335	535.96
42.8479	528.46
42.8624	554.32
42.8768	515.64
42.8913	499.99
42.9057	512.66
42.9201	503.12
42.9346	479.95
42.9490	473.31
42.9635	510.83
42.9779	510.03
42.9923	537.30
43.0068	521.77
43.0212	537.17
43.0357	512.33
43.0501	513.71
43.0645	529.48
43.0790	496.38
43.0934	497.25
43.1079	504.79
43.1223	515.05
43.1367	542.09
43.1512	513.49
43.1656	488.61
43.1801	503.23
43.1945	520.13
43.2089	543.86
43.2234	510.27
43.2378	535.00
43.2523	514.09
43.2667	509.61
43.2811	528.12
43.2956	488.93
43.3100	477.62
43.3245	506.27
43.3389	543.96
43.3533	533.72
43.3678	497.44
43.3822	508.93
43.3967	490.72
43.4111	529.06
43.4255	531.99
43.4400	510.40
43.4544	493.60
43.4689	534.83
43.4833	513.46
43.4977	496.66
43.5122	490.66
43.5266	507.48
43.5411	554.86
43.5555	524.26
43.5699	535.28
43.5844	523.79
43.5988	511.36
43.6133	508.11
43.6277	517.28
43.6421	544.21
43.6566	503.71
43.6710	478.67
43.6855	480.23
43.6999	502.12
43.7143	514.41
43.7288	511.46
43.7432	511.86
43.7577	493.07
43.7721	525.10
43.7865	517.06
43.8010	532.05
43.8154	514.52
43.8299	508.13
43.8443	491.37
43.8587	525.86
43.8732	569.94
43.8876	503.23
43.9021	501.20
43.9165	478.94
43.9309	524.56
43.9454	521.39
43.9598	477.55
43.9743	506.49
43.9887	541.61
44.0031	521.69
44.0176	488.64
44.0320	511.88
44.0465	512.20
44.0609	493.97
44.0753	498.69
44.0898	516.70
44.1042	530.17
44.1187	548.50
44.1331	567.68
44.1475	556.65
44.1620	561.72
44.1764	621.42
44.1909	625.13
44.2053	638.33
44.2197	631.27
44.2342	636.84
44.2486	658.24
44.2631	606.70
44.2775	613.47
44.2919	602.14
44.3064	570.90
44.3208	566.88
44.3353	615.54
44.3497	617.20
44.3641	577.40
44.3786	558.08
44.3930	588.28
44.4075	597.45
44.4219	581.93
44.4363	568.89
44.4508	579.19
44.4652	586.59
44.4797	608.29
44.4941	593.79
44.5085	553.73
44.5230	586.19
44.5374	584.31
44.5519	576.45
44.5663	587.36
44.5807	573.18
44.5952	566.45
44.6096	584.95
44.6241	544.36
44.6385	609.71
44.6529	565.16
44.6674	536.31
44.6818	575.28
44.6963	628.82
44.7107	649.38
44.7251	677.19
44.7396	730.72
44.7540	815.50
44.7685	845.51
44.7829	945.92
44.7973	897.94
44.8118	837.66
44.8262	833.49
44.8407	739.33
44.8551	718.54
44.8695	756.90
44.8840	736.43
44.8984	724.79
44.9129	718.99
44.9273	716.81
44.9417	696.04
44.9562	622.38
44.9706	560.77
44.9851	551.07
44.9995	530.60
45.0139	521.68
45.0284	578.48
45.0428	512.69
45.0573	562.56
45.0717	530.76
45.0861	537.49
45.1006	513.84
45.1150	494.72
45.1295	527.06
45.1439	514.83
45.1583	523.63
45.1728	534.46
45.1872	546.87
45.2017	471.10
45.2161	505.43
45.2305	512.18
45.2450	531.09
45.2594	484.89
45.2739	518.23
45.2883	472.66
45.3028	504.04
45.3172	509.84
45.3316	485.64
45.3461	515.41
45.3605	489.54
45.3750	520.25
45.3894	511.56
45.4038	506.55
45.4183	518.19
45.4327	474.27
45.4472	485.15
45.4616	521.93
45.4760	529.71
45.4905	524.12
45.5049	480.32
45.5194	486.26
45.5338	518.15
45.5482	515.49
45.5627	511.28
45.5771	509.67
45.5916	513.96
45.6060	524.46
45.6204	518.88
45.6349	524.20
45.6493	565.24
45.6638	527.79
45.6782	515.57
45.6926	531.60
45.7071	513.73
45.7215	551.20
45.7360	506.35
45.7504	532.65
45.7648	499.47
45.7793	517.23
45.7937	507.63
45.8082	504.92
45.8226	544.76
45.8370	514.60
45.8515	490.71
45.8659	550.22
45.8804	529.30
45.8948	519.06
45.9092	512.32
45.9237	531.84
45.9381	536.05
45.9526	532.23
45.9670	496.62
45.9814	500.83
45.9959	494.51
46.0103	517.52
46.0248	526.90
46.0392	495.97
46.0536	522.32
46.0681	527.44
46.0825	513.89
46.0970	518.36
46.1114	523.52
46.1258	504.64
46.1403	475.02
46.1547	459.79
46.1692	510.36
46.1836	511.40
46.1980	506.90
46.2125	530.27
46.2269	490.19
46.2414	499.01
46.2558	512.89
46.2702	521.03
46.2847	529.92
46.2991	504.35
46.3136	487.76
46.3280	492.85
46.3424	522.38
46.3569	506.23
46.3713	524.91
46.3858	470.39
46.4002	482.06
46.4146	508.08
46.4291	520.56
46.4435	490.64
46.4580	514.27
46.4724	526.57
46.4868	510.94
46.5013	511.46
46.5157	487.98
46.5302	461.95
46.5446	483.04
46.5590	508.10
46.5735	491.97
46.5879	514.95
46.6024	491.15
46.6168	491.00
46.6312	502.26
46.6457	493.38
46.6601	511.82
46.6746	490.54
46.6890	510.49
46.7034	507.66
46.7179	487.59
46.7323	481.30
46.7468	475.32
46.7612	480.73
46.7756	506.93
46.7901	516.84
46.8045	509.76
46.8190	514.01
46.8334	509.34
46.8478	488.47
46.8623	551.45
46.8767	545.61
46.8912	500.21
46.9056	531.94
46.9200	515.91
46.9345	513.27
46.9489	491.34
46.9634	475.39
46.9778	489.99
46.9922	508.78
47.0067	514.33
47.0211	517.90
47.0356	541.81
47.0500	534.00
47.0644	534.70
47.0789	539.58
47.0933	512.36
47.1078	487.73
47.1222	543.16
47.1366	556.25
47.1511	527.07
47.1655	523.86
47.1800	519.96
47.1944	516.19
47.2088	506.48
47.2233	498.19
47.2377	491.33
47.2522	574.66
47.2666	521.52
47.2810	495.58
47.2955	458.34
47.3099	480.50
47.3244	497.02
47.3388	495.98
47.3532	494.03
47.3677	504.33
47.3821	476.16
47.3966	479.22
47.4110	496.51
47.4254	525.81
47.4399	515.14
47.4543	492.57
47.4688	490.47
47.4832	507.66
47.4976	516.08
47.5121	504.99
47.5265	497.49
47.5410	511.24
47.5554	537.96
47.5698	502.63
47.5843	501.76
47.5987	504.36
47.6132	493.35
47.6276	491.08
47.6420	523.56
47.6565	476.13
47.6709	491.49
47.6854	487.64
47.6998	486.48
47.7142	491.63
47.7287	496.93
47.7431	519.46
47.7576	539.42
47.7720	514.08
47.7864	501.64
47.8009	537.74
47.8153	546.81
47.8298	511.60
47.8442	479.06
47.8586	497.90
47.8731	529.38
47.8875	506.44
47.9020	510.45
47.9164	529.21
47.9308	531.97
47.9453	514.40
47.9597	484.01
47.9742	475.51
47.9886	486.05
48.0030	483.31
48.0175	505.85
48.0319	528.22
48.0464	506.30
48.0608	490.63
48.0752	504.52
48.0897	525.07
48.1041	483.43
48.1186	484.33
48.1330	488.41
48.1474	486.16
48.1619	511.31
48.1763	509.86
48.1908	514.74
48.2052	518.19
48.2196	520.00
48.2341	484.32
48.2485	524.44
48.2630	460.98
48.2774	488.63
48.2918	509.32
48.3063	527.16
48.3207	504.41
48.3352	512.55
48.3496	514.27
48.3640	510.77
48.3785	518.28
48.3929	490.32
48.4074	527.58
48.4218	555.21
48.4362	518.70
48.4507	504.46
48.4651	521.11
48.4796	534.07
48.4940	481.19
48.5084	515.68
48.5229	503.74
48.5373	498.22
48.5518	529.27
48.5662	487.86
48.5806	474.81
48.5951	491.41
48.6095	530.91
48.6240	523.50
48.6384	510.61
48.6528	502.69
48.6673	521.75
48.6817	497.37
48.6962	492.94
48.7106	507.57
48.7250	487.52
48.7395	522.60
48.7539	549.93
48.7684	511.16
48.7828	535.54
48.7972	568.30
48.8117	554.03
48.8261	523.50
48.8406	519.10
48.8550	529.08
48.8694	513.03
48.8839	548.97
48.8983	552.83
48.9128	555.02
48.9272	535.23
48.9416	554.18
48.9561	543.87
48.9705	574.02
48.9850	611.47
48.9994	586.91
49.0139	586.13
49.0283	651.77
49.0427	659.86
49.0572	683.89
49.0716	675.45
49.0861	681.35
49.1005	691.63
49.1149	711.15
49.1294	743.40
49.1438	734.44
49.1583	829.98
49.1727	865.58
49.1871	908.08
49.2016	955.39
49.2160	1044.41
49.2305	1132.65
49.2449	1255.21
49.2593	1268.76
49.2738	1352.68
49.2882	1468.91
49.3027	1573.91
49.3171	1590.21
49.3315	1775.00
49.3460	1792.33
49.3604	1803.32
49.3749	1796.34
49.3893	1735.59
49.4037	1745.89
49.4182	1782.86
49.4326	1779.84
49.4471	1635.71
49.4615	1611.62
49.4759	1620.62
49.4904	1527.98
49.5048	1448.17
49.5193	1358.86
49.5337	1334.20
49.5481	1202.62
49.5626	1107.64
49.5770	1065.90
49.5915	998.56
49.6059	924.54
49.6203	868.03
49.6348	852.80
49.6492	846.14
49.6637	769.40
49.6781	669.36
49.6925	665.95
49.7070	716.59
49.7214	640.72
49.7359	640.62
49.7503	608.90
49.7647	580.54
49.7792	589.85
49.7936	571.92
49.8081	572.76
49.8225	572.13
49.8369	538.99
49.8514	562.74
49.8658	572.19
49.8803	576.51
49.8947	535.84
49.9091	557.60
49.9236	549.82
49.9380	550.44
49.9525	552.20
49.9669	534.79
49.9813	541.22
49.9958	573.77
50.0102	532.84
50.0247	510.18
50.0391	510.17
50.0535	532.02
50.0680	522.47
50.0824	551.92
50.0969	516.93
50.1113	476.74
50.1257	531.84
50.1402	532.39
50.1546	535.02
50.1691	552.65
50.1835	537.24
50.1979	508.71
50.2124	537.94
50.2268	530.53
50.2413	513.89
50.2557	535.05
50.2701	512.75
50.2846	521.03
50.2990	492.87
50.3135	497.36
50.3279	505.43
50.3423	525.65
50.3568	502.30
50.3712	495.77
50.3857	469.26
50.4001	492.51
50.4145	503.70
50.4290	532.11
50.4434	519.93
50.4579	512.29
50.4723	496.45
50.4867	519.28
50.5012	501.76
50.5156	500.82
50.5301	491.91
50.5445	518.35
50.5589	523.61
50.5734	508.43
50.5878	534.19
50.6023	482.79
50.6167	483.24
50.6311	500.85
50.6456	509.03
50.6600	509.12
50.6745	487.61
50.6889	467.31
50.7033	517.71
50.7178	514.71
50.7322	469.45
50.7467	464.96
50.7611	491.34
50.7755	496.25
50.7900	478.26
50.8044	498.09
50.8189	509.15
50.8333	519.08
50.8477	502.54
50.8622	498.48
50.8766	488.84
50.8911	506.89
50.9055	545.65
50.9199	535.69
50.9344	530.08
50.9488	473.06
50.9633	466.79
50.9777	491.51
50.9921	511.05
51.0066	485.12
51.0210	505.70
51.0355	543.73
51.0499	561.58
51.0643	542.91
51.0788	499.88
51.0932	510.66
51.1077	508.14
51.1221	512.09
51.1365	506.68
51.1510	448.14
51.1654	483.43
51.1799	506.01
51.1943	502.23
51.2087	495.94
51.2232	494.80
51.2376	509.89
51.2521	543.08
51.2665	518.84
51.2809	544.91
51.2954	515.00
51.3098	528.61
51.3243	526.71
51.3387	513.88
51.3531	510.63
51.3676	495.20
51.3820	492.30
51.3965	509.27
51.4109	506.23
51.4253	534.60
51.4398	531.90
51.4542	519.53
51.4687	520.31
51.4831	513.15
51.4975	514.90
51.5120	505.77
51.5264	501.28
51.5409	531.29
51.5553	524.39
51.5697	505.98
51.5842	493.43
51.5986	499.73
51.6131	486.58
51.6275	500.13
51.6419	499.76
51.6564	497.02
51.6708	470.09
51.6853	478.99
51.6997	513.44
51.7141	532.37
51.7286	482.79
51.7430	513.87
51.7575	519.46
51.7719	508.93
51.7863	516.43
51.8008	527.52
51.8152	530.28
51.8297	508.08
51.8441	535.83
51.8585	521.54
51.8730	528.29
51.8874	465.75
51.9019	512.22
51.9163	493.90
51.9307	481.44
51.9452	484.79
51.9596	517.53
51.9741	522.22
51.9885	576.07
52.0029	512.24
52.0174	452.38
52.0318	491.47
52.0463	484.86
52.0607	508.82
52.0751	516.77
52.0896	536.50
52.1040	527.76
52.1185	505.14
52.1329	500.07
52.1473	514.04
52.1618	490.31
52.1762	499.87
52.1907	502.54
52.2051	489.04
52.2195	511.55
52.2340	474.72
52.2484	507.20
52.2629	537.98
52.2773	517.00
52.2917	505.68
52.3062	541.22
52.3206	502.36
52.3351	509.00
52.3495	510.47
52.3639	529.61
52.3784	523.71
52.3928	496.38
52.4073	503.37
52.4217	520.56
52.4361	503.63
52.4506	515.28
52.4650	497.02
52.4795	518.91
52.4939	487.56
52.5083	502.93
52.5228	527.39
52.5372	534.61
52.5517	523.39
52.5661	569.02
52.5805	533.44
52.5950	512.44
52.6094	492.30
52.6239	522.82
52.6383	496.41
52.6527	513.49
52.6672	499.12
52.6816	510.92
52.6961	524.79
52.7105	526.79
52.7250	546.53
52.7394	524.39
52.7538	535.75
52.7683	508.46
52.7827	504.29
52.7972	510.41
52.8116	520.81
52.8260	509.44
52.8405	505.46
52.8549	483.94
52.8694	497.72
52.8838	493.29
52.8982	496.18
52.9127	511.82
52.9271	512.74
52.9416	541.73
52.9560	521.91
52.9704	534.63
52.9849	508.97
52.9993	536.31
53.0138	525.47
53.0282	514.77
53.0426	518.25
53.0571	545.05
53.0715	504.77
53.0860	505.84
53.1004	502.01
53.1148	532.20
53.1293	512.61
53.1437	489.58
53.1582	483.27
53.1726	534.32
53.1870	535.70
53.2015	529.31
53.2159	529.50
53.2304	506.79
53.2448	509.25
53.2592	530.24
53.2737	516.98
53.2881	477.01
53.3026	534.44
53.3170	508.59
53.3314	522.49
53.3459	523.71
53.3603	513.86
53.3748	485.61
53.3892	516.44
53.4036	484.79
53.4181	486.88
53.4325	539.19
53.4470	517.01
53.4614	512.26
53.4758	540.04
53.4903	538.26
53.5047	532.34
53.5192	493.01
53.5336	532.02
53.5480	516.72
53.5625	510.31
53.5769	498.23
53.5914	520.16
53.6058	515.58
53.6202	516.08
53.6347	528.71
53.6491	488.09
53.6636	508.44
53.6780	501.00
53.6924	486.11
53.7069	510.37
53.7213	482.86
53.7358	468.15
53.7502	471.53
53.7646	502.15
53.7791	518.77
53.7935	504.92
53.8080	513.87
53.8224	497.75
53.8368	513.59
53.8513	523.40
53.8657	531.22
53.8802	512.48
53.8946	548.16
53.9090	527.14
53.9235	527.41
53.9379	506.27
53.9524	501.67
53.9668	513.95
53.9812	529.72
53.9957	506.34
54.0101	517.89
54.0246	542.54
54.0390	551.74
54.0534	501.51
54.0679	510.37
54.0823	522.27
54.0968	530.42
54.1112	485.79
54.1256	519.32
54.1401	505.38
54.1545	508.96
54.1690	535.48
54.1834	499.46
54.1978	498.33
54.2123	508.84
54.2267	490.70
54.2412	523.98
54.2556	505.90
54.2700	504.53
54.2845	524.23
54.2989	505.38
54.3134	519.44
54.3278	527.34
54.3422	493.27
54.3567	503.73
54.3711	488.28
54.3856	516.78
54.4000	508.76
54.4144	497.34
54.4289	543.87
54.4433	527.86
54.4578	521.66
54.4722	537.43
54.4866	542.03
54.5011	523.44
54.5155	529.32
54.5300	531.08
54.5444	526.69
54.5588	516.81
54.5733	518.14
54.5877	516.15
54.6022	523.77
54.6166	532.41
54.6310	533.95
54.6455	540.54
54.6599	543.33
54.6744	551.58
54.6888	501.51
54.7032	535.89
54.7177	556.60
54.7321	523.44
54.7466	545.13
54.7610	536.83
54.7754	545.34
54.7899	560.42
54.8043	573.99
54.8188	554.55
54.8332	559.48
54.8476	565.21
54.8621	561.04
54.8765	547.55
54.8910	590.95
54.9054	623.24
54.9198	608.22
54.9343	607.76
54.9487	594.44
54.9632	580.21
54.9776	579.52
54.9920	591.88
55.0065	544.89
55.0209	582.10
55.0354	553.04
55.0498	529.77
55.0642	542.27
55.0787	546.45
55.0931	577.11
55.1076	556.46
55.1220	531.38
55.1364	520.67
55.1509	506.36
55.1653	525.43
55.1798	565.66
55.1942	552.88
55.2086	550.34
55.2231	562.71
55.2375	556.31
55.2520	521.11
55.2664	526.99
55.2808	543.77
55.2953	551.00
55.3097	552.34
55.3242	543.20
55.3386	552.28
55.3530	542.45
55.3675	529.21
55.3819	517.62
55.3964	496.07
55.4108	503.40
55.4252	544.66
55.4397	520.06
55.4541	498.77
55.4686	550.01
55.4830	500.49
55.4974	510.44
55.5119	538.38
55.5263	560.31
55.5408	561.53
55.5552	528.70
55.5696	510.23
55.5841	521.21
55.5985	525.40
55.6130	512.19
55.6274	514.74
55.6418	559.51
55.6563	542.95
55.6707	521.62
55.6852	520.26
55.6996	522.31
55.7140	542.68
55.7285	494.73
55.7429	519.98
55.7574	508.42
55.7718	519.22
55.7862	511.87
55.8007	509.15
55.8151	528.08
55.8296	529.64
55.8440	536.26
55.8584	541.63
55.8729	521.96
55.8873	519.39
55.9018	542.75
55.9162	498.88
55.9306	511.42
55.9451	531.93
55.9595	500.97
55.9740	498.10
55.9884	514.30
56.0028	530.83
56.0173	513.84
56.0317	556.50
56.0462	562.54
56.0606	513.09
56.0750	500.79
56.0895	558.44
56.1039	544.21
56.1184	533.89
56.1328	531.31
56.1472	516.44
56.1617	512.89
56.1761	519.75
56.1906	521.90
56.2050	490.59
56.2194	499.40
56.2339	509.87
56.2483	519.45
56.2628	502.64
56.2772	521.08
56.2916	506.47
56.3061	535.65
56.3205	529.96
56.3350	534.58
56.3494	525.69
56.3639	496.96
56.3783	501.61
56.3927	499.37
56.4072	524.08
56.4216	542.25
56.4361	543.49
56.4505	525.41
56.4649	513.00
56.4794	516.43
56.4938	519.90
56.5083	523.42
56.5227	490.33
56.5371	535.58
56.5516	518.48
56.5660	527.94
56.5805	506.17
56.5949	533.62
56.6093	525.37
56.6238	507.90
56.6382	532.96
56.6527	537.43
56.6671	510.63
56.6815	484.87
56.6960	494.11
56.7104	535.21
56.7249	554.34
56.7393	553.82
56.7537	567.57
56.7682	477.83
56.7826	502.74
56.7971	505.51
56.8115	532.95
56.8259	575.90
56.8404	536.21
56.8548	542.01
56.8693	510.98
56.8837	523.86
56.8981	528.25
56.9126	549.74
56.9270	544.34
56.9415	541.94
56.9559	538.31
56.9703	514.79
56.9848	500.84
56.9992	542.32
57.0137	504.02
57.0281	543.50
57.0425	482.18
57.0570	515.57
57.0714	526.31
57.0859	536.48
57.1003	547.23
57.1147	537.94
57.1292	531.27
57.1436	516.75
57.1581	506.51
57.1725	521.21
57.1869	533.60
57.2014	536.44
57.2158	558.63
57.2303	527.04
57.2447	503.85
57.2591	532.22
57.2736	563.67
57.2880	535.05
57.3025	488.10
57.3169	546.77
57.3313	530.21
57.3458	503.61
57.3602	572.99
57.3747	542.88
57.3891	516.20
57.4035	539.42
57.4180	557.33
57.4324	536.07
57.4469	502.81
57.4613	486.99
57.4757	556.20
57.4902	546.10
57.5046	508.29
57.5191	541.71
57.5335	549.23
57.5479	563.91
57.5624	540.48
57.5768	529.82
57.5913	526.88
57.6057	540.08
57.6201	506.62
57.6346	539.32
57.6490	539.42
57.6635	481.58
57.6779	500.48
57.6923	514.35
57.7068	517.83
57.7212	512.04
57.7357	507.24
57.7501	521.44
57.7645	481.96
57.7790	516.75
57.7934	548.08
57.8079	534.63
57.8223	530.63
57.8367	538.07
57.8512	526.94
57.8656	570.21
57.8801	508.24
57.8945	562.70
57.9089	533.41
57.9234	513.36
57.9378	528.27
57.9523	514.73
57.9667	535.53
57.9811	525.96
57.9956	527.88
58.0100	523.88
58.0245	544.44
58.0389	542.76
58.0533	479.32
58.0678	518.24
58.0822	524.62
58.0967	561.79
58.1111	524.53
58.1255	547.21
58.1400	527.23
58.1544	503.20
58.1689	549.63
58.1833	570.26
58.1977	567.73
58.2122	592.40
58.2266	563.14
58.2411	574.90
58.2555	543.30
58.2699	570.94
58.2844	578.72
58.2988	558.05
58.3133	567.80
58.3277	580.91
58.3421	582.49
58.3566	591.89
58.3710	565.07
58.3855	549.90
58.3999	576.73
58.4143	605.00
58.4288	616.75
58.4432	598.49
58.4577	615.18
58.4721	637.54
58.4865	637.90
58.5010	657.91
58.5154	630.56
58.5299	645.62
58.5443	628.49
58.5587	632.33
58.5732	628.54
58.5876	624.69
58.6021	635.52
58.6165	635.20
58.6309	623.85
58.6454	605.94
58.6598	597.13
58.6743	587.38
58.6887	559.67
58.7031	550.82
58.7176	586.58
58.7320	591.28
58.7465	598.49
58.7609	586.88
58.7753	571.99
58.7898	572.29
58.8042	570.15
58.8187	535.62
58.8331	557.10
58.8475	525.75
58.8620	555.92
58.8764	568.87
58.8909	541.95
58.9053	556.42
58.9197	548.88
58.9342	563.81
58.9486	584.51
58.9631	544.75
58.9775	528.86
58.9919	574.03
59.0064	543.40
59.0208	527.36
59.0353	560.09
59.0497	533.76
59.0641	571.16
59.0786	545.94
59.0930	544.48
59.1075	553.64
59.1219	601.33
59.1363	557.21
59.1508	509.62
59.1652	565.07
59.1797	573.66
59.1941	531.84
59.2085	540.02
59.2230	545.70
59.2374	550.35
59.2519	541.52
59.2663	543.95
59.2807	557.96
59.2952	548.47
59.3096	554.30
59.3241	537.11
59.3385	584.66
59.3529	549.87
59.3674	551.05
59.3818	550.47
59.3963	534.43
59.4107	532.82
59.4251	588.02
59.4396	584.97
59.4540	554.39
59.4685	539.44
59.4829	543.89
59.4973	551.53
59.5118	570.21
59.5262	531.55
59.5407	536.44
59.5551	554.72
59.5695	554.45
59.5840	578.66
59.5984	561.02
59.6129	578.97
59.6273	528.88
59.6417	538.08
59.6562	552.54
59.6706	551.37
59.6851	535.69
59.6995	534.09
59.7139	542.08
59.7284	560.92
59.7428	544.76
59.7573	530.37
59.7717	548.74
59.7861	565.01
59.8006	524.30
59.8150	548.94
59.8295	547.66
59.8439	533.57
59.8583	562.66
59.8728	530.73
59.8872	541.43
59.9017	544.93
59.9161	521.32
59.9305	515.61
59.9450	555.97
59.9594	540.40
59.9739	537.97
59.9883	558.06
60.0027	519.35
60.0172	520.66
60.0316	535.96
60.0461	501.47
60.0605	543.85
60.0750	550.74
60.0894	563.83
60.1038	549.63
60.1183	561.78
60.1327	575.17
60.1472	529.07
60.1616	532.60
60.1760	538.77
60.1905	525.98
60.2049	527.22
60.2194	543.15
60.2338	540.67
60.2482	601.04
60.2627	543.98
60.2771	549.14
60.2916	551.40
60.3060	540.63
60.3204	533.03
60.3349	550.58
60.3493	520.32
60.3638	570.57
60.3782	546.86
60.3926	534.61
60.4071	556.10
60.4215	559.70
60.4360	531.94
60.4504	559.77
60.4648	555.55
60.4793	549.31
60.4937	549.48
60.5082	550.94
60.5226	542.57
60.5370	546.34
60.5515	545.76
60.5659	514.52
60.5804	542.23
60.5948	533.30
60.6092	515.34
60.6237	536.51
60.6381	541.67
60.6526	542.49
60.6670	516.38
60.6814	546.98
60.6959	557.78
60.7103	540.46
60.7248	552.32
60.7392	543.61
60.7536	564.74
60.7681	522.20
60.7825	542.30
60.7970	531.78
60.8114	546.15
60.8258	548.87
60.8403	559.12
60.8547	566.52
60.8692	561.44
60.8836	568.43
60.8980	555.35
60.9125	541.64
60.9269	514.13
60.9414	587.75
60.9558	546.99
60.9702	524.84
60.9847	526.39
60.9991	550.19
61.0136	552.18
61.0280	547.45
61.0424	559.00
61.0569	535.11
61.0713	534.86
61.0858	542.09
61.1002	575.86
61.1146	549.58
61.1291	551.63
61.1435	547.45
61.1580	569.47
61.1724	557.44
61.1868	518.08
61.2013	536.09
61.2157	546.01
61.2302	550.79
61.2446	558.13
61.2590	556.43
61.2735	529.17
61.2879	581.98
61.3024	542.76
61.3168	531.37
61.3312	559.08
61.3457	574.67
61.3601	556.57
61.3746	511.31
61.3890	500.87
61.4034	527.66
61.4179	568.65
61.4323	557.84
61.4468	512.63
61.4612	542.33
61.4756	554.97
61.4901	582.68
61.5045	544.90
61.5190	527.24
61.5334	565.57
61.5478	542.89
61.5623	551.90
61.5767	531.63
61.5912	541.67
61.6056	518.58
61.6200	536.96
61.6345	550.76
61.6489	554.14
61.6634	559.97
61.6778	541.64
61.6922	562.41
61.7067	596.58
61.7211	573.57
61.7356	528.50
61.7500	549.53
61.7644	521.27
61.7789	512.82
61.7933	553.02
61.8078	556.10
61.8222	570.82
61.8366	559.91
61.8511	542.83
61.8655	542.16
61.8800	534.64
61.8944	534.68
61.9088	541.27
61.9233	558.42
61.9377	538.92
61.9522	538.03
61.9666	533.28
61.9810	531.86
61.9955	519.95
62.0099	534.42
62.0244	552.45
62.0388	529.10
62.0532	529.65
62.0677	527.08
62.0821	557.62
62.0966	535.00
62.1110	530.63
62.1254	578.62
62.1399	576.24
62.1543	545.92
62.1688	542.66
62.1832	533.67
62.1976	535.22
62.2121	546.58
62.2265	545.20
62.2410	528.18
62.2554	550.51
62.2698	557.39
62.2843	540.37
62.2987	528.82
62.3132	546.36
62.3276	582.59
62.3420	572.32
62.3565	548.75
62.3709	555.29
62.3854	544.70
62.3998	544.86
62.4142	520.90
62.4287	543.82
62.4431	557.33
62.4576	538.88
62.4720	568.38
62.4864	573.81
62.5009	527.64
62.5153	528.35
62.5298	563.17
62.5442	576.87
62.5586	558.65
62.5731	546.68
62.5875	549.09
62.6020	572.89
62.6164	570.42
62.6308	515.80
62.6453	535.07
62.6597	566.18
62.6742	577.18
62.6886	563.93
62.7030	544.42
62.7175	550.37
62.7319	574.30
62.7464	575.45
62.7608	511.86
62.7752	573.22
62.7897	550.94
62.8041	580.85
62.8186	606.13
62.8330	593.60
62.8474	556.42
62.8619	552.02
62.8763	583.63
62.8908	561.29
62.9052	549.13
62.9196	551.07
62.9341	567.43
62.9485	570.45
62.9630	564.61
62.9774	550.43
62.9918	574.77
63.0063	555.19
63.0207	573.61
63.0352	569.91
63.0496	548.05
63.0640	544.92
63.0785	568.27
63.0929	576.61
63.1074	543.94
63.1218	583.35
63.1362	584.65
63.1507	555.56
63.1651	566.65
63.1796	580.00
63.1940	567.49
63.2084	574.22
63.2229	570.21
63.2373	559.88
63.2518	566.04
63.2662	574.82
63.2806	596.97
63.2951	577.78
63.3095	587.59
63.3240	593.53
63.3384	613.05
63.3528	582.37
63.3673	600.91
63.3817	574.79
63.3962	534.10
63.4106	579.93
63.4250	595.36
63.4395	602.29
63.4539	571.82
63.4684	567.18
63.4828	579.84
63.4972	564.62
63.5117	556.02
63.5261	560.63
63.5406	586.37
63.5550	582.12
63.5694	579.51
63.5839	566.07
63.5983	624.82
63.6128	603.50
63.6272	596.73
63.6416	575.06
63.6561	575.97
63.6705	557.94
63.6850	555.91
63.6994	566.37
63.7138	580.73
63.7283	557.44
63.7427	581.88
63.7572	578.00
63.7716	599.72
63.7861	606.67
63.8005	560.94
63.8149	588.37
63.8294	584.26
63.8438	613.70
63.8583	590.12
63.8727	621.09
63.8871	613.16
63.9016	616.64
63.9160	591.24
63.9305	615.99
63.9449	619.08
63.9593	590.21
63.9738	585.63
63.9882	573.46
64.0027	613.68
64.0171	622.54
64.0315	672.67
64.0460	600.77
64.0604	634.00
64.0749	654.09
64.0893	658.14
64.1037	664.35
64.1182	681.11
64.1326	634.04
64.1471	645.37
64.1615	715.95
64.1759	665.02
64.1904	685.24
64.2048	721.72
64.2193	746.87
64.2337	782.49
64.2481	815.62
64.2626	790.70
64.2770	801.04
64.2915	744.37
64.3059	812.08
64.3203	786.66
64.3348	802.02
64.3492	759.56
64.3637	798.91
64.3781	783.73
64.3925	774.91
64.4070	817.21
64.4214	787.11
64.4359	786.64
64.4503	778.51
64.4647	716.94
64.4792	767.15
64.4936	760.37
64.5081	732.39
64.5225	708.17
64.5369	744.29
64.5514	758.65
64.5658	704.64
64.5803	725.88
64.5947	716.82
64.6091	724.09
64.6236	691.68
64.6380	748.20
64.6525	694.72
64.6669	756.62
64.6813	719.87
64.6958	715.71
64.7102	720.82
64.7247	710.99
64.7391	726.20
64.7535	717.17
64.7680	753.47
64.7824	750.76
64.7969	769.36
64.8113	808.15
64.8257	801.12
64.8402	782.68
64.8546	848.22
64.8691	790.92
64.8835	785.83
64.8979	855.29
64.9124	845.10
64.9268	854.54
64.9413	906.40
64.9557	931.02
64.9701	918.61
64.9846	1100.32
64.9990	1152.84
65.0135	1271.14
65.0279	1553.16
65.0423	1731.73
65.0568	2072.07
65.0712	2593.04
65.0857	3406.05
65.1001	4428.80
65.1145	5944.98
65.1290	7876.27
65.1434	9513.17
65.1579	10915.49
65.1723	11947.85
65.1867	11289.64
65.2012	10111.88
65.2156	8479.71
65.2301	6695.37
65.2445	5402.23
65.2589	4644.45
65.2734	4209.15
65.2878	4370.76
65.3023	4893.57
65.3167	5756.37
65.3311	6479.81
65.3456	6823.70
65.3600	6946.95
65.3745	6366.08
65.3889	5623.52
65.4033	4530.65
65.4178	3488.79
65.4322	2783.71
65.4467	2129.95
65.4611	1790.74
65.4755	1465.15
65.4900	1323.81
65.5044	1108.18
65.5189	1041.33
65.5333	974.78
65.5477	928.74
65.5622	956.92
65.5766	855.85
65.5911	807.39
65.6055	804.09
65.6199	771.45
65.6344	763.74
65.6488	720.11
65.6633	730.13
65.6777	690.21
65.6921	733.96
65.7066	783.00
65.7210	716.51
65.7355	673.54
65.7499	699.61
65.7643	692.47
65.7788	672.83
65.7932	683.43
65.8077	692.51
65.8221	665.47
65.8365	665.39
65.8510	643.12
65.8654	673.50
65.8799	654.21
65.8943	634.77
65.9087	663.73
65.9232	614.01
65.9376	622.55
65.9521	626.10
65.9665	627.44
65.9809	641.53
65.9954	647.76
66.0098	655.91
66.0243	657.53
66.0387	676.30
66.0531	652.76
66.0676	619.16
66.0820	627.92
66.0965	588.49
66.1109	597.43
66.1253	628.35
66.1398	611.50
66.1542	615.37
66.1687	625.07
66.1831	601.46
66.1975	572.12
66.2120	597.27
66.2264	620.93
66.2409	623.99
66.2553	621.74
66.2697	609.54
66.2842	579.96
66.2986	594.78
66.3131	601.24
66.3275	617.51
66.3419	610.37
66.3564	598.94
66.3708	622.36
66.3853	584.38
66.3997	621.59
66.4141	600.19
66.4286	612.33
66.4430	553.81
66.4575	571.70
66.4719	582.89
66.4863	584.31
66.5008	579.22
66.5152	584.93
66.5297	596.60
66.5441	627.29
66.5585	616.57
66.5730	592.35
66.5874	561.23
66.6019	608.76
66.6163	607.18
66.6307	575.86
66.6452	579.20
66.6596	589.72
66.6741	583.69
66.6885	574.65
66.7029	557.63
66.7174	566.83
66.7318	602.20
66.7463	559.67
66.7607	557.60
66.7751	545.86
66.7896	584.55
66.8040	590.42
66.8185	596.95
66.8329	593.76
66.8473	556.30
66.8618	592.94
66.8762	584.12
66.8907	572.19
66.9051	569.93
66.9195	585.21
66.9340	601.76
66.9484	614.98
66.9629	604.42
66.9773	598.83
66.9917	595.27
67.0062	610.39
67.0206	638.53
67.0351	608.74
67.0495	595.22
67.0639	573.84
67.0784	585.94
67.0928	608.40
67.1073	642.57
67.1217	584.49
67.1361	581.27
67.1506	554.92
67.1650	547.42
67.1795	563.36
67.1939	574.45
67.2083	577.05
67.2228	599.38
67.2372	591.00
67.2517	566.90
67.2661	578.18
67.2805	605.29
67.2950	566.40
67.3094	573.17
67.3239	570.50
67.3383	609.26
67.3527	592.71
67.3672	584.45
67.3816	590.30
67.3961	546.07
67.4105	571.65
67.4250	599.00
67.4394	572.80
67.4538	584.38
67.4683	600.94
67.4827	597.92
67.4972	575.74
67.5116	589.32
67.5260	567.79
67.5405	568.33
67.5549	575.02
67.5694	570.37
67.5838	587.04
67.5982	604.34
67.6127	560.36
67.6271	574.90
67.6416	593.05
67.6560	553.44
67.6704	550.77
67.6849	579.13
67.6993	621.00
67.7138	609.84
67.7282	590.77
67.7426	581.97
67.7571	560.95
67.7715	581.09
67.7860	585.86
67.8004	590.92
67.8148	596.61
67.8293	578.66
67.8437	573.91
67.8582	597.03
67.8726	596.16
67.8870	537.99
67.9015	586.97
67.9159	591.63
67.9304	573.51
67.9448	592.19
67.9592	553.56
67.9737	536.25
67.9881	620.55
68.0026	593.94
68.0170	592.33
68.0314	560.65
68.0459	546.84
68.0603	581.98
68.0748	596.59
68.0892	634.52
68.1036	581.84
68.1181	598.33
68.1325	581.81
68.1470	544.34
68.1614	591.89
68.1758	561.77
68.1903	519.51
68.2047	583.72
68.2192	600.95
68.2336	587.06
68.2480	594.48
68.2625	557.02
68.2769	548.26
68.2914	591.51
68.3058	597.74
68.3202	632.45
68.3347	619.02
68.3491	568.66
68.3636	632.21
68.3780	556.57
68.3924	556.81
68.4069	584.20
68.4213	573.76
68.4358	549.83
68.4502	590.13
68.4646	632.33
68.4791	577.88
68.4935	627.24
68.5080	560.22
68.5224	553.26
68.5368	568.73
68.5513	614.68
68.5657	588.44
68.5802	567.84
68.5946	575.61
68.6090	555.07
68.6235	575.37
68.6379	598.96
68.6524	577.25
68.6668	578.64
68.6812	608.24
68.6957	562.87
68.7101	592.53
68.7246	576.12
68.7390	543.85
68.7534	591.65
68.7679	553.17
68.7823	585.74
68.7968	600.51
68.8112	587.45
68.8256	596.64
68.8401	588.98
68.8545	541.79
68.8690	559.24
68.8834	588.09
68.8978	601.52
68.9123	609.46
68.9267	563.59
68.9412	553.73
68.9556	578.15
68.9700	600.08
68.9845	578.16
68.9989	539.19
69.0134	575.02
69.0278	586.76
69.0422	551.17
69.0567	547.19
69.0711	514.81
69.0856	553.41
69.1000	559.72
69.1144	616.27
69.1289	603.02
69.1433	595.05
69.1578	584.20
69.1722	605.74
69.1866	585.40
69.2011	566.61
69.2155	623.80
69.2300	601.14
69.2444	593.09
69.2588	616.36
69.2733	598.95
69.2877	563.67
69.3022	558.47
69.3166	595.58
69.3310	603.47
69.3455	585.53
69.3599	589.18
69.3744	651.07
69.3888	567.45
69.4032	654.62
69.4177	617.98
69.4321	595.09
69.4466	562.71
69.4610	588.76
69.4754	601.03
69.4899	625.61
69.5043	574.46
69.5188	635.11
69.5332	635.44
69.5476	585.77
69.5621	563.65
69.5765	562.87
69.5910	641.36
69.6054	602.44
69.6198	549.43
69.6343	615.80
69.6487	633.83
69.6632	602.47
69.6776	624.10
69.6920	599.40
69.7065	610.80
69.7209	581.68
69.7354	552.15
69.7498	639.45
69.7642	598.41
69.7787	571.39
69.7931	550.52
69.8076	611.28
69.8220	608.42
69.8364	609.53
69.8509	590.77
69.8653	580.61
69.8798	592.70
69.8942	615.01
69.9086	628.93
69.9231	601.48
69.9375	597.59
69.9520	556.67
69.9664	555.35
69.9808	588.09
69.9953	639.27
70.0097	565.51
70.0242	566.99
70.0386	544.52
70.0530	573.03
70.0675	560.20
70.0819	595.69
70.0964	632.10
70.1108	571.09
70.1252	607.26
70.1397	559.73
70.1541	578.26
70.1686	582.60
70.1830	561.11
70.1974	572.72
70.2119	587.82
70.2263	594.37
70.2408	554.43
70.2552	581.88
70.2696	610.50
70.2841	551.97
70.2985	559.69
70.3130	528.25
70.3274	572.17
70.3418	583.17
70.3563	544.92
70.3707	598.91
70.3852	542.73
70.3996	565.52
70.4140	595.73
70.4285	612.93
70.4429	586.19
70.4574	563.96
70.4718	561.57
70.4862	553.20
70.5007	570.86
70.5151	597.77
70.5296	567.76
70.5440	564.98
70.5584	647.22
70.5729	603.64
70.5873	525.95
70.6018	514.34
70.6162	572.65
70.6306	571.57
70.6451	569.29
70.6595	587.17
70.6740	535.40
70.6884	542.92
70.7028	596.17
70.7173	585.72
70.7317	583.45
70.7462	595.16
70.7606	566.37
70.7750	607.44
70.7895	607.52
70.8039	583.34
70.8184	560.08
70.8328	626.47
70.8472	552.66
70.8617	573.06
70.8761	568.56
70.8906	594.01
70.9050	601.38
70.9194	611.21
70.9339	642.49
70.9483	617.67
70.9628	564.82
70.9772	580.20
70.9916	579.13
71.0061	612.19
71.0205	597.55
71.0350	559.54
71.0494	578.86
71.0638	614.62
71.0783	571.34
71.0927	555.43
71.1072	594.26
71.1216	575.08
71.1361	586.46
71.1505	526.07
71.1649	555.82
71.1794	550.22
71.1938	533.84
71.2083	539.16
71.2227	498.74
71.2371	523.90
71.2516	599.44
71.2660	625.16
71.2805	580.29
71.2949	603.69
71.3093	565.59
71.3238	564.80
71.3382	592.85
71.3527	532.51
71.3671	517.94
71.3815	596.37
71.3960	570.96
71.4104	546.03
71.4249	586.25
71.4393	569.88
71.4537	521.48
71.4682	566.28
71.4826	579.55
71.4971	571.66
71.5115	596.12
71.5259	574.87
71.5404	602.07
71.5548	628.37
71.5693	622.49
71.5837	596.56
71.5981	574.81
71.6126	594.77
71.6270	548.51
71.6415	585.95
71.6559	618.05
71.6703	624.54
71.6848	599.28
71.6992	608.54
71.7137	549.98
71.7281	502.03
71.7425	543.22
71.7570	549.43
71.7714	561.43
71.7859	549.35
71.8003	604.28
71.8147	647.78
71.8292	604.48
71.8436	569.29
71.8581	581.46
71.8725	559.88
71.8869	531.96
71.9014	591.48
71.9158	602.32
71.9303	588.00
71.9447	605.04
71.9591	546.34
71.9736	558.73
71.9880	582.51
72.0025	589.88
72.0169	613.67
72.0313	625.29
72.0458	560.48
72.0602	505.35
72.0747	476.62
72.0891	530.72
72.1035	570.93
72.1180	521.27
72.1324	603.86
72.1469	633.26
72.1613	613.14
72.1757	669.13
72.1902	650.17
72.2046	596.20
72.2191	590.42
72.2335	594.70
72.2479	576.22
72.2624	493.60
72.2768	524.16
72.2913	572.12
72.3057	575.71
72.3201	535.48
72.3346	566.34
72.3490	594.40
72.3635	554.07
72.3779	588.65
72.3923	560.94
72.4068	514.66
72.4212	489.10
72.4357	536.66
72.4501	559.69
72.4645	583.10
72.4790	619.12
72.4934	527.36
72.5079	508.85
72.5223	501.84
72.5367	504.95
72.5512	606.19
72.5656	586.21
72.5801	591.83
72.5945	591.43
72.6089	478.05
72.6234	474.44
72.6378	568.79
72.6523	603.50
72.6667	560.00
72.6811	560.35
72.6956	564.50
72.7100	535.92
72.7245	557.12
72.7389	628.47
72.7533	654.16
72.7678	605.81
72.7822	582.11
72.7967	590.01
72.8111	600.64
72.8255	588.30
72.8400	561.69
72.8544	622.85
72.8689	629.54
72.8833	556.29

Result vector
22.1120	596.40
22.1264	632.75
22.1409	566.29
22.1553	562.42
22.1697	578.15
22.1842	568.23
22.1986	537.50
22.2131	583.15
22.2275	547.10
22.2419	522.19
22.2564	556.34
22.2708	629.18
22.2853	633.29
22.2997	531.36
22.3141	516.84
22.3286	561.72
22.3430	602.31
22.3575	605.78
22.3719	596.11
22.3863	519.52
22.4008	528.30
22.4152	548.32
22.4297	674.38
22.4441	621.48
22.4585	624.56
22.4730	575.88
22.4874	575.41
22.5019	618.92
22.5163	554.23
22.5307	622.05
22.5452	535.18
22.5596	580.99
22.5741	635.53
22.5885	583.31
22.6029	620.18
22.6174	576.90
22.6318	592.06
22.6463	588.65
22.6607	628.36
22.6751	617.59
22.6896	564.61
22.7040	543.80
22.7185	591.71
22.7329	630.31
22.7473	553.39
22.7618	540.59
22.7762	547.97
22.7907	579.65
22.8051	606.66
22.8195	596.63
22.8340	599.65
22.8484	625.47
22.8629	636.90
22.8773	628.26
22.8917	579.28
22.9062	461.51
22.9206	454.25
22.9351	550.47
22.9495	611.25
22.9639	560.52
22.9784	596.78
22.9928	580.72
23.0073	610.71
23.0217	638.68
23.0361	595.50
23.0506	559.65
23.0650	541.50
23.0795	593.20
23.0939	603.90
23.1083	601.71
23.1228	552.90
23.1372	528.46
23.1517	564.59
23.1661	587.08
23.1806	597.23
23.1950	533.51
23.2094	555.54
23.2239	591.22
23.2383	608.17
23.2528	615.10
23.2672	494.61
23.2816	588.49
23.2961	562.33
23.3105	518.18
23.3250	594.27
23.3394	585.65
23.3538	577.17
23.3683	517.13
23.3827	565.72
23.3972	512.28
23.4116	500.46
23.4260	540.36
23.4405	507.96
23.4549	621.31
23.4694	582.51
23.4838	516.58
23.4982	526.64
23.5127	563.35
23.5271	530.72
23.5416	511.79
23.5560	530.39
23.5704	507.16
23.5849	596.70
23.5993	599.06
23.6138	557.16
23.6282	501.00
23.6426	567.40
23.6571	492.30
23.6715	516.71
23.6860	478.56
23.7004	563.11
23.7148	551.18
23.7293	566.70
23.7437	575.09
23.7582	522.89
23.7726	600.53
23.7870	597.59
23.8015	572.16
23.8159	532.35
23.8304	517.44
23.8448	574.62
23.8592	530.10
23.8737	610.13
23.8881	630.11
23.9026	683.95
23.9170	458.63
23.9314	510.71
23.9459	532.42
23.9603	548.11
23.9748	525.74
23.9892	567.77
24.0036	549.84
24.0181	561.73
24.0325	609.81
24.0470	604.17
24.0614	597.49
24.0758	578.92
24.0903	545.58
24.1047	562.09
24.1192	557.91
24.1336	570.42
24.1480	583.04
24.1625	620.87
24.1769	500.22
24.1914	535.50
24.2058	570.04
24.2202	568.81
24.2347	576.51
24.2491	590.36
24.2636	601.58
24.2780	607.71
24.2924	587.68
24.3069	548.09
24.3213	586.79
24.3358	572.83
24.3502	576.66
24.3646	575.95
24.3791	587.36
24.3935	610.38
24.4080	553.90
24.4224	597.66
24.4368	578.62
24.4513	546.75
24.4657	580.39
24.4802	579.14
24.4946	586.31
24.5090	571.29
24.5235	529.39
24.5379	531.64
24.5524	568.35
24.5668	623.54
24.5812	551.33
24.5957	547.95
24.6101	567.22
24.6246	615.21
24.6390	588.04
24.6534	569.81
24.6679	535.75
24.6823	534.04
24.6968	526.61
24.7112	575.06
24.7256	478.35
24.7401	561.24
24.7545	567.09
24.7690	557.33
24.7834	552.17
24.7978	536.94
24.8123	534.17
24.8267	628.87
24.8412	542.90
24.8556	547.65
24.8700	577.55
24.8845	579.18
24.8989	575.32
24.9134	554.51
24.9278	519.12
24.9422	546.37
24.9567	562.37
24.9711	521.97
24.9856	590.21
25.0000	556.15
25.0144	548.29
25.0289	492.65
25.0433	550.13
25.0578	551.25
25.0722	533.38
25.0866	581.48
25.1011	524.10
25.1155	601.42
25.1300	573.37
25.1444	526.91
25.1588	539.21
25.1733	593.11
25.1877	535.48
25.2022	559.13
25.2166	558.02
25.2310	559.46
25.2455	570.67
25.2599	564.22
25.2744	528.72
25.2888	561.65
25.3032	505.50
25.3177	554.38
25.3321	534.60
25.3466	551.54
25.3610	599.41
25.3754	527.29
25.3899	543.21
25.4043	522.64
25.4188	526.82
25.4332	531.74
25.4476	495.69
25.4621	561.32
25.4765	523.28
25.4910	530.47
25.5054	518.88
25.5198	515.07
25.5343	524.27
25.5487	532.36
25.5632	559.39
25.5776	516.22
25.5920	569.32
25.6065	565.38
25.6209	519.49
25.6354	503.33
25.6498	559.54
25.6642	582.98
25.6787	572.14
25.6931	517.09
25.7076	563.61
25.7220	550.40
25.7364	519.06
25.7509	515.23
25.7653	505.63
25.7798	526.73
25.7942	578.26
25.8086	553.55
25.8231	566.38
25.8375	529.98
25.8520	564.90
25.8664	545.46
25.8808	537.12
25.8953	554.02
25.9097	523.48
25.9242	552.20
25.9386	551.43
25.9530	503.73
25.9675	533.51
25.9819	503.64
25.9964	501.60
26.0108	568.02
26.0252	549.97
26.0397	565.11
26.0541	537.85
26.0686	577.08
26.0830	554.14
26.0974	522.83
26.1119	554.12
26.1263	518.00
26.1408	499.68
26.1552	525.68
26.1696	525.60
26.1841	538.39
26.1985	534.65
26.2130	522.92
26.2274	524.35
26.2418	542.01
26.2563	501.60
26.2707	519.90
26.2852	546.93
26.2996	502.07
26.3140	519.77
26.3285	564.31
26.3429	555.73
26.3574	515.41
26.3718	493.25
26.3862	539.89
26.4007	557.99
26.4151	543.40
26.4296	538.96
26.4440	545.01
26.4584	549.68
26.4729	539.44
26.4873	538.28
26.5018	517.43
26.5162	510.88
26.5306	549.33
26.5451	546.19
26.5595	559.49
26.5740	514.36
26.5884	540.33
26.6028	596.16
26.6173	548.92
26.6317	524.40
26.6462	507.07
26.6606	532.79
26.6750	555.12
26.6895	528.80
26.7039	525.38
26.7184	574.46
26.7328	532.59
26.7472	506.60
26.7617	511.77
26.7761	532.93
26.7906	510.61
26.8050	492.41
26.8194	535.27
26.8339	540.20
26.8483	531.45
26.8628	547.32
26.8772	523.59
26.8917	526.94
26.9061	543.64
26.9205	535.90
26.9350	504.61
26.9494	490.74
26.9639	517.90
26.9783	528.38
26.9927	518.27
27.0072	507.86
27.0216	559.01
27.0361	546.08
27.0505	551.63
27.0649	555.34
27.0794	522.36
27.0938	543.77
27.1083	536.51
27.1227	547.48
27.1371	532.42
27.1516	520.98
27.1660	529.14
27.1805	506.22
27.1949	492.30
27.2093	522.39
27.2238	520.08
27.2382	509.49
27.2527	525.59
27.2671	526.50
27.2815	523.87
27.2960	547.27
27.3104	565.38
27.3249	507.63
27.3393	500.90
27.3537	513.20
27.3682	547.24
27.3826	522.69
27.3971	531.29
27.4115	542.47
27.4259	554.65
27.4404	536.49
27.4548	512.69
27.4693	530.50
27.4837	557.75
27.4981	521.58
27.5126	551.77
27.5270	540.93
27.5415	549.73
27.5559	533.28
27.5703	511.25
27.5848	534.44
27.5992	533.05
27.6137	534.08
27.6281	519.30
27.6425	500.62
27.6570	498.42
27.6714	491.34
27.6859	525.37
27.7003	524.77
27.7147	517.21
27.7292	527.26
27.7436	531.28
27.7581	533.61
27.7725	508.03
27.7869	485.68
27.8014	502.50
27.8158	536.04
27.8303	576.19
27.8447	545.58
27.8591	523.60
27.8736	521.71
27.8880	511.57
27.9025	524.11
27.9169	493.30
27.9313	543.38
27.9458	538.75
27.9602	500.41
27.9747	489.84
27.9891	526.56
28.0035	503.94
28.0180	502.29
28.0324	512.80
28.0469	526.50
28.0613	525.34
28.0757	518.24
28.0902	518.55
28.1046	504.54
28.1191	517.39
28.1335	522.16
28.1479	479.78
28.1624	524.34
28.1768	502.14
28.1913	488.32
28.2057	504.42
28.2201	487.91
28.2346	521.53
28.2490	525.94
28.2635	521.77
28.2779	531.92
28.2923	507.44
28.3068	515.09
28.3212	506.33
28.3357	526.17
28.3501	538.44
28.3645	510.49
28.3790	519.54
28.3934	527.28
28.4079	511.98
28.4223	508.36
28.4367	494.90
28.4512	501.18
28.4656	528.49
28.4801	517.08
28.4945	498.63
28.5089	493.74
28.5234	527.24
28.5378	533.08
28.5523	508.36
28.5667	503.73
28.5811	501.75
28.5956	537.60
28.6100	506.82
28.6245	501.59
28.6389	484.17
28.6533	499.60
28.6678	514.22
28.6822	482.82
28.6967	513.27
28.7111	521.44
28.7255	483.92
28.7400	480.08
28.7544	497.73
28.7689	506.76
28.7833	491.35
28.7977	505.39
28.8122	516.08
28.8266	535.32
28.8411	508.26
28.8555	544.73
28.8699	516.50
28.8844	522.30
28.8988	510.60
28.9133	503.60
28.9277	528.04
28.9421	521.57
28.9566	543.85
28.9710	537.41
28.9855	494.93
28.9999	504.70
29.0143	538.19
29.0288	519.56
29.0432	488.85
29.0577	497.07
29.0721	485.22
29.0865	507.04
29.1010	495.15
29.1154	513.66
29.1299	508.31
29.1443	487.68
29.1587	473.22
29.1732	474.54
29.1876	492.95
29.2021	493.08
29.2165	510.79
29.2309	512.09
29.2454	504.91
29.2598	513.31
29.2743	527.25
29.2887	525.34
29.3031	524.38
29.3176	515.47
29.3320	455.62
29.3465	503.24
29.3609	505.98
29.3753	500.58
29.3898	518.90
29.4042	505.47
29.4187	500.97
29.4331	545.46
29.4475	525.34
29.4620	509.10
29.4764	498.93
29.4909	497.70
29.5053	516.35
29.5197	519.73
29.5342	509.10
29.5486	537.03
29.5631	519.01
29.5775	501.21
29.5919	508.67
29.6064	530.87
29.6208	521.07
29.6353	515.08
29.6497	501.72
29.6641	477.20
29.6786	495.49
29.6930	499.84
29.7075	506.95
29.7219	466.60
29.7363	492.66
29.7508	521.63
29.7652	491.93
29.7797	526.88
29.7941	486.03
29.8085	512.98
29.8230	477.34
29.8374	520.04
29.8519	537.77
29.8663	533.15
29.8807	481.95
29.8952	487.60
29.9096	503.54
29.9241	477.62
29.9385	494.55
29.9529	518.79
29.9674	520.27
29.9818	512.58
29.9963	507.51
30.0107	485.48
30.0251	483.52
30.0396	477.80
30.0540	476.71
30.0685	485.00
30.0829	490.17
30.0973	517.84
30.1118	526.41
30.1262	518.74
30.1407	536.55
30.1551	492.66
30.1695	515.83
30.1840	513.10
30.1984	494.30
30.2129	497.58
30.2273	523.74
30.2417	565.44
30.2562	565.86
30.2706	544.07
30.2851	532.79
30.2995	505.28
30.3139	513.51
30.3284	543.33
30.3428	529.94
30.3573	521.09
30.3717	522.47
30.3861	499.15
30.4006	528.41
30.4150	495.98
30.4295	517.48
30.4439	522.85
30.4583	513.97
30.4728	482.05
30.4872	459.63
30.5017	502.48
30.5161	498.55
30.5305	531.10
30.5450	516.36
30.5594	528.58
30.5739	514.67
30.5883	518.14
30.6028	528.45
30.6172	531.39
30.6316	533.35
30.6461	517.36
30.6605	533.66
30.6750	510.53
30.6894	499.44
30.7038	527.90
30.7183	537.65
30.7327	528.54
30.7472	517.33
30.7616	550.23
30.7760	570.46
30.7905	600.58
30.8049	607.98
30.8194	639.46
30.8338	613.34
30.8482	613.65
30.8627	682.55
30.8771	680.81
30.8916	702.21
30.9060	734.71
30.9204	715.68
30.9349	640.08
30.9493	641.94
30.9638	640.96
30.9782	636.36
30.9926	635.08
31.0071	619.08
31.0215	593.13
31.0360	584.53
31.0504	549.41
31.0648	581.86
31.0793	586.86
31.0937	582.93
31.1082	537.97
31.1226	541.30
31.1370	573.10
31.1515	552.64
31.1659	586.73
31.1804	576.23
31.1948	517.57
31.2092	540.42
31.2237	545.17
31.2381	509.70
31.2526	519.04
31.2670	505.54
31.2814	521.05
31.2959	511.89
31.3103	539.41
31.3248	527.37
31.3392	535.96
31.3536	531.86
31.3681	509.86
31.3825	531.69
31.3970	531.39
31.4114	524.01
31.4258	544.25
31.4403	528.30
31.4547	485.11
31.4692	515.04
31.4836	516.77
31.4980	534.22
31.5125	506.19
31.5269	530.98
31.5414	526.03
31.5558	487.14
31.5702	497.08
31.5847	511.49
31.5991	508.85
31.6136	518.69
31.6280	517.35
31.6424	513.64
31.6569	496.73
31.6713	478.65
31.6858	502.88
31.7002	528.16
31.7146	523.24
31.7291	527.64
31.7435	515.58
31.7580	500.81
31.7724	518.74
31.7868	539.49
31.8013	513.41
31.8157	517.43
31.8302	537.11
31.8446	526.98
31.8590	524.75
31.8735	524.22
31.8879	522.32
31.9024	529.57
31.9168	497.12
31.9312	524.26
31.9457	501.40
31.9601	496.36
31.9746	523.43
31.9890	518.85
32.0034	498.68
32.0179	517.90
32.0323	501.62
32.0468	508.49
32.0612	483.66
32.0756	531.57
32.0901	534.22
32.1045	511.68
32.1190	479.49
32.1334	531.08
32.1478	481.17
32.1623	492.69
32.1767	507.49
32.1912	505.89
32.2056	529.13
32.2200	502.32
32.2345	503.73
32.2489	493.44
32.2634	514.20
32.2778	527.07
32.2922	539.69
32.3067	493.46
32.3211	504.85
32.3356	527.66
32.3500	523.68
32.3644	507.59
32.3789	500.41
32.3933	523.23
32.4078	498.00
32.4222	508.27
32.4366	493.67
32.4511	482.13
32.4655	516.31
32.4800	532.73
32.4944	531.94
32.5088	491.87
32.5233	494.90
32.5377	524.72
32.5522	528.87
32.5666	506.34
32.5810	495.98
32.5955	517.86
32.6099	516.26
32.6244	490.19
32.6388	483.84
32.6532	476.36
32.6677	456.66
32.6821	501.85
32.6966	502.48
32.7110	516.67
32.7254	509.34
32.7399	486.62
32.7543	520.98
32.7688	502.44
32.7832	536.77
32.7976	530.53
32.8121	509.74
32.8265	487.07
32.8410	523.84
32.8554	509.10
32.8698	506.46
32.8843	471.84
32.8987	486.29
32.9132	477.64
32.9276	513.23
32.9420	517.95
32.9565	437.31
32.9709	460.45
32.9854	505.72
32.9998	493.44
33.0142	532.88
33.0287	534.86
33.0431	564.61
33.0576	511.31
33.0720	493.01
33.0864	524.25
33.1009	506.94
33.1153	546.17
33.1298	522.94
33.1442	500.29
33.1586	530.04
33.1731	497.30
33.1875	481.71
33.2020	495.52
33.2164	531.38
33.2308	515.31
33.2453	532.55
33.2597	488.99
33.2742	495.47
33.2886	498.48
33.3030	517.54
33.3175	492.71
33.3319	470.20
33.3464	527.85
33.3608	509.19
33.3752	555.26
33.3897	485.91
33.4041	513.86
33.4186	481.03
33.4330	517.12
33.4474	489.02
33.4619	495.80
33.4763	499.60
33.4908	475.52
33.5052	505.88
33.5196	496.98
33.5341	520.79
33.5485	536.95
33.5630	534.13
33.5774	492.83
33.5918	484.92
33.6063	491.55
33.6207	497.34
33.6352	531.26
33.6496	495.94
33.6640	488.20
33.6785	504.86
33.6929	528.66
33.7074	537.82
33.7218	525.49
33.7362	493.53
33.7507	495.39
33.7651	541.09
33.7796	527.51
33.7940	515.10
33.8084	499.73
33.8229	485.89
33.8373	489.82
33.8518	496.53
33.8662	504.70
33.8806	500.13
33.8951	540.53
33.9095	514.52
33.9240	504.24
33.9384	489.00
33.9528	504.19
33.9673	493.16
33.9817	444.36
33.9962	514.94
34.0106	506.17
34.0250	488.72
34.0395	477.78
34.0539	522.22
34.0684	499.31
34.0828	493.29
34.0972	476.89
34.1117	502.46
34.1261	507.76
34.1406	518.17
34.1550	503.09
34.1694	487.88
34.1839	525.84
34.1983	489.15
34.2128	501.80
34.2272	517.59
34.2417	497.31
34.2561	485.25
34.2705	510.38
34.2850	503.15
34.2994	486.69
34.3139	502.97
34.3283	522.84
34.3427	511.32
34.3572	524.21
34.3716	505.21
34.3861	484.28
34.4005	493.20
34.4149	476.80
34.4294	536.83
34.4438	479.53
34.4583	493.90
34.4727	518.77
34.4871	492.17
34.5016	490.25
34.5160	515.02
34.5305	496.81
34.5449	483.34
34.5593	468.45
34.5738	501.62
34.5882	542.50
34.6027	527.53
34.6171	530.86
34.6315	535.57
34.6460	495.68
34.6604	478.70
34.6749	482.59
34.6893	492.28
34.7037	533.54
34.7182	519.62
34.7326	482.51
34.7471	469.51
34.7615	487.53
34.7759	522.02
34.7904	508.71
34.8048	511.12
34.8193	530.99
34.8337	506.24
34.8481	493.34
34.8626	505.34
34.8770	522.01
34.8915	517.77
34.9059	501.32
34.9203	497.14
34.9348	507.21
34.9492	505.67
34.9637	510.23
34.9781	529.04
34.9925	491.60
35.0070	495.01
35.0214	506.07
35.0359	532.66
35.0503	514.95
35.0647	527.56
35.0792	528.22
35.0936	541.78
35.1081	496.66
35.1225	507.96
35.1369	505.87
35.1514	501.00
35.1658	519.75
35.1803	521.58
35.1947	490.72
35.2091	515.13
35.2236	475.41
35.2380	504.36
35.2525	525.20
35.2669	497.06
35.2813	526.18
35.2958	483.09
35.3102	519.19
35.3247	524.98
35.3391	520.27
35.3535	502.11
35.3680	520.65
35.3824	506.51
35.3969	473.25
35.4113	484.39
35.4257	526.97
35.4402	530.68
35.4546	467.76
35.4691	550.45
35.4835	537.40
35.4979	531.66
35.5124	539.69
35.5268	536.39
35.5413	554.82
35.5557	540.30
35.5701	533.59
35.5846	525.94
35.5990	533.96
35.6135	544.14
35.6279	518.59
35.6423	541.32
35.6568	506.91
35.6712	551.07
35.6857	582.13
35.7001	689.24
35.7145	755.52
35.7290	675.14
35.7434	636.56
35.7579	583.11
35.7723	606.88
35.7867	631.98
35.8012	670.88
35.8156	659.95
35.8301	614.21
35.8445	652.87
35.8589	663.58
35.8734	764.88
35.8878	835.19
35.9023	982.49
35.9167	1081.28
35.9311	1399.08
35.9456	2135.56
35.9600	2367.71
35.9745	1894.31
35.9889	1984.58
36.0033	2574.10
36.0178	2744.13
36.0322	2174.81
36.0467	1778.95
36.0611	1704.15
36.0755	1502.24
36.0900	1478.97
36.1044	1342.83
36.1189	1324.77
36.1333	1246.24
36.1477	1022.20
36.1622	1027.97
36.1766	906.39
36.1911	816.68
36.2055	725.46
36.2199	712.19
36.2344	717.05
36.2488	729.84
36.2633	740.40
36.2777	752.61
36.2921	779.09
36.3066	804.77
36.3210	867.56
36.3355	906.60
36.3499	975.59
36.3643	931.51
36.3788	917.26
36.3932	949.44
36.4077	977.12
36.4221	986.93
36.4365	1002.24
36.4510	890.26
36.4654	864.56
36.4799	792.19
36.4943	776.96
36.5087	791.31
36.5232	742.63
36.5376	734.81
36.5521	674.25
36.5665	647.97
36.5809	626.89
36.5954	634.37
36.6098	637.52
36.6243	623.78
36.6387	617.38
36.6531	569.26
36.6676	611.55
36.6820	576.39
36.6965	541.58
36.7109	566.38
36.7253	556.58
36.7398	550.49
36.7542	556.34
36.7687	558.80
36.7831	540.05
36.7975	565.49
36.8120	576.69
36.8264	591.66
36.8409	581.90
36.8553	626.37
36.8697	610.71
36.8842	594.44
36.8986	619.51
36.9131	585.41
36.9275	584.63
36.9419	602.99
36.9564	581.09
36.9708	601.75
36.9853	526.20
36.9997	539.99
37.0141	551.92
37.0286	554.01
37.0430	563.13
37.0575	540.81
37.0719	512.41
37.0863	550.26
37.1008	552.16
37.1152	554.51
37.1297	540.46
37.1441	524.16
37.1585	487.51
37.1730	509.74
37.1874	519.28
37.2019	510.01
37.2163	533.45
37.2307	526.23
37.2452	484.79
37.2596	533.50
37.2741	538.23
37.2885	558.24
37.3029	493.38
37.3174	474.12
37.3318	492.16
37.3463	502.14
37.3607	483.25
37.3751	490.94
37.3896	542.26
37.4040	528.77
37.4185	523.40
37.4329	536.68
37.4473	518.32
37.4618	504.24
37.4762	516.40
37.4907	491.22
37.5051	523.64
37.5195	511.06
37.5340	462.88
37.5484	506.90
37.5629	522.90
37.5773	522.76
37.5917	519.56
37.6062	486.34
37.6206	503.10
37.6351	539.67
37.6495	488.00
37.6639	471.11
37.6784	486.40
37.6928	484.41
37.7073	531.34
37.7217	502.01
37.7361	461.91
37.7506	482.96
37.7650	495.88
37.7795	477.16
37.7939	501.80
37.8083	503.91
37.8228	485.71
37.8372	505.29
37.8517	495.10
37.8661	533.87
37.8805	481.41
37.8950	526.55
37.9094	486.87
37.9239	527.66
37.9383	517.58
37.9528	511.92
37.9672	530.98
37.9816	533.33
37.9961	542.29
38.0105	501.35
38.0250	503.76
38.0394	548.32
38.0538	486.47
38.0683	480.21
38.0827	502.27
38.0972	503.92
38.1116	490.04
38.1260	513.18
38.1405	475.33
38.1549	475.44
38.1694	478.48
38.1838	470.97
38.1982	513.48
38.2127	487.29
38.2271	472.86
38.2416	484.56
38.2560	497.69
38.2704	520.36
38.2849	510.04
38.2993	491.61
38.3138	545.57
38.3282	537.16
38.3426	525.44
38.3571	552.23
38.3715	531.04
38.3860	513.12
38.4004	512.69
38.4148	515.51
38.4293	578.41
38.4437	565.48
38.4582	614.34
38.4726	657.35
38.4870	702.74
38.5015	705.96
38.5159	742.48
38.5304	821.28
38.5448	763.20
38.5592	746.64
38.5737	739.70
38.5881	750.82
38.6026	731.76
38.6170	700.36
38.6314	674.36
38.6459	682.92
38.6603	680.83
38.6748	637.77
38.6892	562.36
38.7036	610.70
38.7181	535.52
38.7325	517.16
38.7470	525.60
38.7614	537.80
38.7758	528.45
38.7903	544.58
38.8047	549.06
38.8192	504.69
38.8336	512.08
38.8480	500.30
38.8625	489.31
38.8769	509.84
38.8914	501.73
38.9058	511.50
38.9202	514.27
38.9347	496.25
38.9491	485.08
38.9636	467.41
38.9780	484.61
38.9924	504.43
39.0069	499.40
39.0213	494.01
39.0358	529.84
39.0502	534.52
39.0646	533.90
39.0791	524.85
39.0935	546.50
39.1080	522.62
39.1224	489.61
39.1368	535.72
39.1513	519.25
39.1657	539.29
39.1802	485.84
39.1946	476.51
39.2090	506.75
39.2235	501.90
39.2379	518.08
39.2524	501.00
39.2668	502.99
39.2812	518.98
39.2957	517.88
39.3101	521.38
39.3246	525.10
39.3390	527.49
39.3534	481.24
39.3679	475.13
39.3823	507.72
39.3968	499.95
39.4112	524.76
39.4256	508.41
39.4401	481.35
39.4545	478.70
39.4690	474.21
39.4834	527.22
39.4978	540.40
39.5123	509.04
39.5267	482.75
39.5412	493.49
39.5556	519.15
39.5700	503.97
39.5845	486.65
39.5989	483.69
39.6134	489.00
39.6278	479.46
39.6422	511.71
39.6567	491.84
39.6711	525.16
39.6856	496.80
39.7000	510.44
39.7144	504.64
39.7289	495.15
39.7433	502.81
39.7578	499.87
39.7722	484.79
39.7866	480.71
39.8011	520.99
39.8155	551.19
39.8300	523.65
39.8444	497.02
39.8588	507.06
39.8733	494.52
39.8877	481.62
39.9022	503.98
39.9166	477.72
39.9310	485.81
39.9455	516.70
39.9599	486.26
39.9744	500.05
39.9888	497.09
40.0032	514.96
40.0177	522.41
40.0321	498.57
40.0466	485.51
40.0610	510.66
40.0754	498.60
40.0899	500.12
40.1043	489.53
40.1188	481.02
40.1332	492.67
40.1476	508.95
40.1621	506.53
40.1765	502.48
40.1910	472.79
40.2054	510.14
40.2198	488.79
40.2343	475.26
40.2487	495.00
40.2632	490.07
40.2776	484.71
40.2920	490.27
40.3065	495.52
40.3209	507.88
40.3354	513.86
40.3498	509.12
40.3642	482.80
40.3787	477.08
40.3931	472.16
40.4076	498.02
40.4220	489.97
40.4364	509.71
40.4509	472.70
40.4653	489.02
40.4798	505.19
40.4942	496.58
40.5086	495.53
40.5231	503.80
40.5375	507.34
40.5520	494.39
40.5664	545.13
40.5808	507.65
40.5953	513.27
40.6097	494.74
40.6242	504.95
40.6386	510.54
40.6530	522.86
40.6675	504.40
40.6819	472.73
40.6964	526.23
40.7108	526.32
40.7252	481.35
40.7397	466.91
40.7541	521.56
40.7686	499.99
40.7830	508.12
40.7974	501.70
40.8119	483.37
40.8263	499.40
40.8408	485.48
40.8552	508.44
40.8696	572.67
40.8841	480.32
40.8985	480.11
40.9130	486.93
40.9274	499.62
40.9418	518.58
40.9563	495.83
40.9707	495.01
40.9852	526.41
40.9996	510.99
41.0140	509.56
41.0285	504.83
41.0429	536.73
41.0574	525.32
41.0718	528.56
41.0862	535.28
41.1007	523.27
41.1151	515.63
41.1296	478.09
41.1440	504.64
41.1584	475.58
41.1729	490.44
41.1873	505.89
41.2018	513.19
41.2162	514.44
41.2306	522.92
41.2451	492.99
41.2595	480.14
41.2740	499.16
41.2884	531.88
41.3028	511.30
41.3173	491.49
41.3317	499.51
41.3462	486.08
41.3606	495.77
41.3750	496.23
41.3895	449.91
41.4039	488.73
41.4184	515.58
41.4328	526.10
41.4472	518.16
41.4617	492.06
41.4761	506.44
41.4906	501.20
41.5050	485.13
41.5194	461.53
41.5339	510.45
41.5483	509.73
41.5628	484.14
41.5772	476.88
41.5916	506.85
41.6061	492.54
41.6205	527.79
41.6350	539.41
41.6494	520.25
41.6639	515.80
41.6783	480.50
41.6927	493.79
41.7072	505.72
41.7216	498.22
41.7361	493.34
41.7505	515.59
41.7649	499.98
41.7794	480.69
41.7938	499.69
41.8083	508.98
41.8227	535.29
41.8371	497.91
41.8516	523.71
41.8660	521.50
41.8805	490.81
41.8949	539.29
41.9093	559.63
41.9238	563.97
41.9382	514.39
41.9527	549.49
41.9671	521.95
41.9815	588.01
41.9960	539.56
42.0104	567.24
42.0249	561.64
42.0393	608.87
42.0537	551.89
42.0682	568.88
42.0826	568.10
42.0971	570.87
42.1115	577.08
42.1259	594.49
42.1404	622.95
42.1548	638.34
42.1693	682.55
42.1837	722.55
42.1981	723.51
42.2126	794.39
42.2270	959.50
42.2415	1180.82
42.2559	1236.31
42.2703	1387.99
42.2848	1559.45
42.2992	1628.57
42.3137	1688.67
42.3281	1682.00
42.3425	1603.47
42.3570	1468.88
42.3714	1450.81
42.3859	1376.14
42.4003	1380.32
42.4147	1370.70
42.4292	1280.72
42.4436	1144.54
42.4581	1069.87
42.4725	910.15
42.4869	780.30
42.5014	745.08
42.5158	719.74
42.5303	637.99
42.5447	613.98
42.5591	581.68
42.5736	599.19
42.5880	582.25
42.6025	539.77
42.6169	525.17
42.6313	553.63
42.6458	559.94
42.6602	545.67
42.6747	527.70
42.6891	520.81
42.7035	513.56
42.7180	526.36
42.7324	520.39
42.7469	565.87
42.7613	533.45
42.7757	536.05
42.7902	523.93
42.8046	497.77
42.8191	511.88
42.8335	535.96
42.8479	528.46
42.8624	554.32
42.8768	515.64
42.8913	499.99
42.9057	512.66
42.9201	503.12
42.9346	479.95
42.9490	473.31
42.9635	510.83
42.9779	510.03
42.9923	537.30
43.0068	521.77
43.0212	537.17
43.0357	512.33
43.0501	513.71
43.0645	529.48
43.0790	496.38
43.0934	497.25
43.1079	504.79
43.1223	515.05
43.1367	542.09
43.1512	513.49
43.1656	488.61
43.1801	503.23
43.1945	520.13
43.2089	543.86
43.2234	510.27
43.2378	535.00
43.2523	514.09
43.2667	509.61
43.2811	528.12
43.2956	488.93
43.3100	477.62
43.3245	506.27
43.3389	543.96
43.3533	533.72
43.3678	497.44
43.3822	508.93
43.3967	490.72
43.4111	529.06
43.4255	531.99
43.4400	510.40
43.4544	493.60
43.4689	534.83
43.4833	513.46
43.4977	496.66
43.5122	490.66
43.5266	507.48
43.5411	554.86
43.5555	524.26
43.5699	535.28
43.5844	523.79
43.5988	511.36
43.6133	508.11
43.6277	517.28
43.6421	544.21
43.6566	503.71
43.6710	478.67
43.6855	480.23
43.6999	502.12
43.7143	514.41
43.7288	511.46
43.7432	511.86
43.7577	493.07
43.7721	525.10
43.7865	517.06
43.8010	532.05
43.8154	514.52
43.8299	508.13
43.8443	491.37
43.8587	525.86
43.8732	569.94
43.8876	503.23
43.9021	501.20
43.9165	478.94
43.9309	524.56
43.9454	521.39
43.9598	477.55
43.9743	506.49
43.9887	541.61
44.0031	521.69
44.0176	488.64
44.0320	511.88
44.0465	512.20
44.0609	493.97
44.0753	498.69
44.0898	516.70
44.1042	530.17
44.1187	548.50
44.1331	567.68
44.1475	556.65
44.1620	561.72
44.1764	621.42
44.1909	625.13
44.2053	638.33
44.2197	631.27
44.2342	636.84
44.2486	658.24
44.2631	606.70
44.2775	613.47
44.2919	602.14
44.3064	570.90
44.3208	566.88
44.3353	615.54
44.3497	617.20
44.3641	577.40
44.3786	558.08
44.3930	588.28
44.4075	597.45
44.4219	581.93
44.4363	568.89
44.4508	579.19
44.4652	586.59
44.4797	608.29
44.4941	593.79
44.5085	553.73
44.5230	586.19
44.5374	584.31
44.5519	576.45
44.5663	587.36
44.5807	573.18
44.5952	566.45
44.6096	584.95
44.6241	544.36
44.6385	609.71
44.6529	565.16
44.6674	536.31
44.6818	575.28
44.6963	628.82
44.7107	649.38
44.7251	677.19
44.7396	730.72
44.7540	815.50
44.7685	845.51
44.7829	945.92
44.7973	897.94
44.8118	837.66
44.8262	833.49
44.8407	739.33
44.8551	718.54
44.8695	756.90
44.8840	736.43
44.8984	724.79
44.9129	718.99
44.9273	716.81
44.9417	696.04
44.9562	622.38
44.9706	560.77
44.9851	551.07
44.9995	530.60
45.0139	521.68
45.0284	578.48
45.0428	512.69
45.0573	562.56
45.0717	530.76
45.0861	537.49
45.1006	513.84
45.1150	494.72
45.1295	527.06
45.1439	514.83
45.1583	523.63
45.1728	534.46
45.1872	546.87
45.2017	471.10
45.2161	505.43
45.2305	512.18
45.2450	531.09
45.2594	484.89
45.2739	518.23
45.2883	472.66
45.3028	504.04
45.3172	509.84
45.3316	485.64
45.3461	515.41
45.3605	489.54
45.3750	520.25
45.3894	511.56
45.4038	506.55
45.4183	518.19
45.4327	474.27
45.4472	485.15
45.4616	521.93
45.4760	529.71
45.4905	524.12
45.5049	480.32
45.5194	486.26
45.5338	518.15
45.5482	515.49
45.5627	511.28
45.5771	509.67
45.5916	513.96
45.6060	524.46
45.6204	518.88
45.6349	524.20
45.6493	565.24
45.6638	527.79
45.6782	515.57
45.6926	531.60
45.7071	513.73
45.7215	551.20
45.7360	506.35
45.7504	532.65
45.7648	499.47
45.7793	517.23
45.7937	507.63
45.8082	504.92
45.8226	544.76
45.8370	514.60
45.8515	490.71
45.8659	550.22
45.8804	529.30
45.8948	519.06
45.9092	512.32
45.9237	531.84
45.9381	536.05
45.9526	532.23
45.9670	496.62
45.9814	500.83
45.9959	494.51
46.0103	517.52
46.0248	526.90
46.0392	495.97
46.0536	522.32
46.0681	527.44
46.0825	513.89
46.0970	518.36
46.1114	523.52
46.1258	504.64
46.1403	475.02
46.1547	459.79
46.1692	510.36
46.1836	511.40
46.1980	506.90
46.2125	530.27
46.2269	490.19
46.2414	499.01
46.2558	512.89
46.2702	521.03
46.2847	529.92
46.2991	504.35
46.3136	487.76
46.3280	492.85
46.3424	522.38
46.3569	506.23
46.3713	524.91
46.3858	470.39
46.4002	482.06
46.4146	508.08
46.4291	520.56
46.4435	490.64
46.4580	514.27
46.4724	526.57
46.4868	510.94
46.5013	511.46
46.5157	487.98
46.5302	461.95
46.5446	483.04
46.5590	508.10
46.5735	491.97
46.5879	514.95
46.6024	491.15
46.6168	491.00
46.6312	502.26
46.6457	493.38
46.6601	511.82
46.6746	490.54
46.6890	510.49
46.7034	507.66
46.7179	487.59
46.7323	481.30
46.7468	475.32
46.7612	480.73
46.7756	506.93
46.7901	516.84
46.8045	509.76
46.8190	514.01
46.8334	509.34
46.8478	488.47
46.8623	551.45
46.8767	545.61
46.8912	500.21
46.9056	531.94
46.9200	515.91
46.9345	513.27
46.9489	491.34
46.9634	475.39
46.9778	489.99
46.9922	508.78
47.0067	514.33
47.0211	517.90
47.0356	541.81
47.0500	534.00
47.0644	534.70
47.0789	539.58
47.0933	512.36
47.1078	487.73
47.1222	543.16
47.1366	556.25
47.1511	527.07
47.1655	523.86
47.1800	519.96
47.1944	516.19
47.2088	506.48
47.2233	498.19
47.2377	491.33
47.2522	574.66
47.2666	521.52
47.2810	495.58
47.2955	458.34
47.3099	480.50
47.3244	497.02
47.3388	495.98
47.3532	494.03
47.3677	504.33
47.3821	476.16
47.3966	479.22
47.4110	496.51
47.4254	525.81
47.4399	515.14
47.4543	492.57
47.4688	490.47
47.4832	507.66
47.4976	516.08
47.5121	504.99
47.5265	497.49
47.5410	511.24
47.5554	537.96
47.5698	502.63
47.5843	501.76
47.5987	504.36
47.6132	493.35
47.6276	491.08
47.6420	523.56
47.6565	476.13
47.6709	491.49
47.6854	487.64
47.6998	486.48
47.7142	491.63
47.7287	496.93
47.7431	519.46
47.7576	539.42
47.7720	514.08
47.7864	501.64
47.8009	537.74
47.8153	546.81
47.8298	511.60
47.8442	479.06
47.8586	497.90
47.8731	529.38
47.8875	506.44
47.9020	510.45
47.9164	529.21
47.9308	531.97
47.9453	514.40
47.9597	484.01
47.9742	475.51
47.9886	486.05
48.0030	483.31
48.0175	505.85
48.0319	528.22
48.0464	506.30
48.0608	490.63
48.0752	504.52
48.0897	525.07
48.1041	483.43
48.1186	484.33
48.1330	488.41
48.1474	486.16
48.1619	511.31
48.1763	509.86
48.1908	514.74
48.2052	518.19
48.2196	520.00
48.2341	484.32
48.2485	524.44
48.2630	460.98
48.2774	488.63
48.2918	509.32
48.3063	527.16
48.3207	504.41
48.3352	512.55
48.3496	514.27
48.3640	510.77
48.3785	518.28
48.3929	490.32
48.4074	527.58
48.4218	555.21
48.4362	518.70
48.4507	504.46
48.4651	521.11
48.4796	534.07
48.4940	481.19
48.5084	515.68
48.5229	503.74
48.5373	498.22
48.5518	529.27
48.5662	487.86
48.5806	474.81
48.5951	491.41
48.6095	530.91
48.6240	523.50
48.6384	510.61
48.6528	502.69
48.6673	521.75
48.6817	497.37
48.6962	492.94
48.7106	507.57
48.7250	487.52
48.7395	522.60
48.7539	549.93
48.7684	511.16
48.7828	535.54
48.7972	568.30
48.8117	554.03
48.8261	523.50
48.8406	519.10
48.8550	529.08
48.8694	513.03
48.8839	548.97
48.8983	552.83
48.9128	555.02
48.9272	535.23
48.9416	554.18
48.9561	543.87
48.9705	574.02
48.9850	611.47
48.9994	586.91
49.0139	586.13
49.0283	651.77
49.0427	659.86
49.0572	683.89
49.0716	675.45
49.0861	681.35
49.1005	691.63
49.1149	711.15
49.1294	743.40
49.1438	734.44
49.1583	829.98
49.1727	865.58
49.1871	908.08
49.2016	955.39
49.2160	1044.41
49.2305	1132.65
49.2449	1255.21
49.2593	1268.76
49.2738	1352.68
49.2882	1468.91
49.3027	1573.91
49.3171	1590.21
49.3315	1775.00
49.3460	1792.33
49.3604	1803.32
49.3749	1796.34
49.3893	1735.59
49.4037	1745.89
49.4182	1782.86
49.4326	1779.84
49.4471	1635.71
49.4615	1611.62
49.4759	1620.62
49.4904	1527.98
49.5048	1448.17
49.5193	1358.86
49.5337	1334.20
49.5481	1202.62
49.5626	1107.64
49.5770	1065.90
49.5915	998.56
49.6059	924.54
49.6203	868.03
49.6348	852.80
49.6492	846.14
49.6637	769.40
49.6781	669.36
49.6925	665.95
49.7070	716.59
49.7214	640.72
49.7359	640.62
49.7503	608.90
49.7647	580.54
49.7792	589.85
49.7936	571.92
49.8081	572.76
49.8225	572.13
49.8369	538.99
49.8514	562.74
49.8658	572.19
49.8803	576.51
49.8947	535.84
49.9091	557.60
49.9236	549.82
49.9380	550.44
49.9525	552.20
49.9669	534.79
49.9813	541.22
49.9958	573.77
50.0102	532.84
50.0247	510.18
50.0391	510.17
50.0535	532.02
50.0680	522.47
50.0824	551.92
50.0969	516.93
50.1113	476.74
50.1257	531.84
50.1402	532.39
50.1546	535.02
50.1691	552.65
50.1835	537.24
50.1979	508.71
50.2124	537.94
50.2268	530.53
50.2413	513.89
50.2557	535.05
50.2701	512.75
50.2846	521.03
50.2990	492.87
50.3135	497.36
50.3279	505.43
50.3423	525.65
50.3568	502.30
50.3712	495.77
50.3857	469.26
50.4001	492.51
50.4145	503.70
50.4290	532.11
50.4434	519.93
50.4579	512.29
50.4723	496.45
50.4867	519.28
50.5012	501.76
50.5156	500.82
50.5301	491.91
50.5445	518.35
50.5589	523.61
50.5734	508.43
50.5878	534.19
50.6023	482.79
50.6167	483.24
50.6311	500.85
50.6456	509.03
50.6600	509.12
50.6745	487.61
50.6889	467.31
50.7033	517.71
50.7178	514.71
50.7322	469.45
50.7467	464.96
50.7611	491.34
50.7755	496.25
50.7900	478.26
50.8044	498.09
50.8189	509.15
50.8333	519.08
50.8477	502.54
50.8622	498.48
50.8766	488.84
50.8911	506.89
50.9055	545.65
50.9199	535.69
50.9344	530.08
50.9488	473.06
50.9633	466.79
50.9777	491.51
50.9921	511.05
51.0066	485.12
51.0210	505.70
51.0355	543.73
51.0499	561.58
51.0643	542.91
51.0788	499.88
51.0932	510.66
51.1077	508.14
51.1221	512.09
51.1365	506.68
51.1510	448.14
51.1654	483.43
51.1799	506.01
51.1943	502.23
51.2087	495.94
51.2232	494.80
51.2376	509.89
51.2521	543.08
51.2665	518.84
51.2809	544.91
51.2954	515.00
51.3098	528.61
51.3243	526.71
51.3387	513.88
51.3531	510.63
51.3676	495.20
51.3820	492.30
51.3965	509.27
51.4109	506.23
51.4253	534.60
51.4398	531.90
51.4542	519.53
51.4687	520.31
51.4831	513.15
51.4975	514.90
51.5120	505.77
51.5264	501.28
51.5409	531.29
51.5553	524.39
51.5697	505.98
51.5842	493.43
51.5986	499.73
51.6131	486.58
51.6275	500.13
51.6419	499.76
51.6564	497.02
51.6708	470.09
51.6853	478.99
51.6997	513.44
51.7141	532.37
51.7286	482.79
51.7430	513.87
51.7575	519.46
51.7719	508.93
51.7863	516.43
51.8008	527.52
51.8152	530.28
51.8297	508.08
51.8441	535.83
51.8585	521.54
51.8730	528.29
51.8874	465.75
51.9019	512.22
51.9163	493.90
51.9307	481.44
51.9452	484.79
51.9596	517.53
51.9741	522.22
51.9885	576.07
52.0029	512.24
52.0174	452.38
52.0318	491.47
52.0463	484.86
52.0607	508.82
52.0751	516.77
52.0896	536.50
52.1040	527.76
52.1185	505.14
52.1329	500.07
52.1473	514.04
52.1618	490.31
52.1762	499.87
52.1907	502.54
52.2051	489.04
52.2195	511.55
52.2340	474.72
52.2484	507.20
52.2629	537.98
52.2773	517.00
52.2917	505.68
52.3062	541.22
52.3206	502.36
52.3351	509.00
52.3495	510.47
52.3639	529.61
52.3784	523.71
52.3928	496.38
52.4073	503.37
52.4217	520.56
52.4361	503.63
52.4506	515.28
52.4650	497.02
52.4795	518.91
52.4939	487.56
52.5083	502.93
52.5228	527.39
52.5372	534.61
52.5517	523.39
52.5661	569.02
52.5805	533.44
52.5950	512.44
52.6094	492.30
52.6239	522.82
52.6383	496.41
52.6527	513.49
52.6672	499.12
52.6816	510.92
52.6961	524.79
52.7105	526.79
52.7250	546.53
52.7394	524.39
52.7538	535.75
52.7683	508.46
52.7827	504.29
52.7972	510.41
52.8116	520.81
52.8260	509.44
52.8405	505.46
52.8549	483.94
52.8694	497.72
52.8838	493.29
52.8982	496.18
52.9127	511.82
52.9271	512.74
52.9416	541.73
52.9560	521.91
52.9704	534.63
52.9849	508.97
52.9993	536.31
53.0138	525.47
53.0282	514.77
53.0426	518.25
53.0571	545.05
53.0715	504.77
53.0860	505.84
53.1004	502.01
53.1148	532.20
53.1293	512.61
53.1437	489.58
53.1582	483.27
53.1726	534.32
53.1870	535.70
53.2015	529.31
53.2159	529.50
53.2304	506.79
53.2448	509.25
53.2592	530.24
53.2737	516.98
53.2881	477.01
53.3026	534.44
53.3170	508.59
53.3314	522.49
53.3459	523.71
53.3603	513.86
53.3748	485.61
53.3892	516.44
53.4036	484.79
53.4181	486.88
53.4325	539.19
53.4470	517.01
53.4614	512.26
53.4758	540.04
53.4903	538.26
53.5047	532.34
53.5192	493.01
53.5336	532.02
53.5480	516.72
53.5625	510.31
53.5769	498.23
53.5914	520.16
53.6058	515.58
53.6202	516.08
53.6347	528.71
53.6491	488.09
53.6636	508.44
53.6780	501.00
53.6924	486.11
53.7069	510.37
53.7213	482.86
53.7358	468.15
53.7502	471.53
53.7646	502.15
53.7791	518.77
53.7935	504.92
53.8080	513.87
53.8224	497.75
53.8368	513.59
53.8513	523.40
53.8657	531.22
53.8802	512.48
53.8946	548.16
53.9090	527.14
53.9235	527.41
53.9379	506.27
53.9524	501.67
53.9668	513.95
53.9812	529.72
53.9957	506.34
54.0101	517.89
54.0246	542.54
54.0390	551.74
54.0534	501.51
54.0679	510.37
54.0823	522.27
54.0968	530.42
54.1112	485.79
54.1256	519.32
54.1401	505.38
54.1545	508.96
54.1690	535.48
54.1834	499.46
54.1978	498.33
54.2123	508.84
54.2267	490.70
54.2412	523.98
54.2556	505.90
54.2700	504.53
54.2845	524.23
54.2989	505.38
54.3134	519.44
54.3278	527.34
54.3422	493.27
54.3567	503.73
54.3711	488.28
54.3856	516.78
54.4000	508.76
54.4144	497.34
54.4289	543.87
54.4433	527.86
54.4578	521.66
54.4722	537.43
54.4866	542.03
54.5011	523.44
54.5155	529.32
54.5300	531.08
54.5444	526.69
54.5588	516.81
54.5733	518.14
54.5877	516.15
54.6022	523.77
54.6166	532.41
54.6310	533.95
54.6455	540.54
54.6599	543.33
54.6744	551.58
54.6888	501.51
54.7032	535.89
54.7177	556.60
54.7321	523.44
54.7466	545.13
54.7610	536.83
54.7754	545.34
54.7899	560.42
54.8043	573.99
54.8188	554.55
54.8332	559.48
54.8476	565.21
54.8621	561.04
54.8765	547.55
54.8910	590.95
54.9054	623.24
54.9198	608.22
54.9343	607.76
54.9487	594.44
54.9632	580.21
54.9776	579.52
54.9920	591.88
55.0065	544.89
55.0209	582.10
55.0354	553.04
55.0498	529.77
55.0642	542.27
55.0787	546.45
55.0931	577.11
55.1076	556.46
55.1220	531.38
55.1364	520.67
55.1509	506.36
55.1653	525.43
55.1798	565.66
55.1942	552.88
55.2086	550.34
55.2231	562.71
55.2375	556.31
55.2520	521.11
55.2664	526.99
55.2808	543.77
55.2953	551.00
55.3097	552.34
55.3242	543.20
55.3386	552.28
55.3530	542.45
55.3675	529.21
55.3819	517.62
55.3964	496.07
55.4108	503.40
55.4252	544.66
55.4397	520.06
55.4541	498.77
55.4686	550.01
55.4830	500.49
55.4974	510.44
55.5119	538.38
55.5263	560.31
55.5408	561.53
55.5552	528.70
55.5696	510.23
55.5841	521.21
55.5985	525.40
55.6130	512.19
55.6274	514.74
55.6418	559.51
55.6563	542.95
55.6707	521.62
55.6852	520.26
55.6996	522.31
55.7140	542.68
55.7285	494.73
55.7429	519.98
55.7574	508.42
55.7718	519.22
55.7862	511.87
55.8007	509.15
55.8151	528.08
55.8296	529.64
55.8440	536.26
55.8584	541.63
55.8729	521.96
55.8873	519.39
55.9018	542.75
55.9162	498.88
55.9306	511.42
55.9451	531.93
55.9595	500.97
55.9740	498.10
55.9884	514.30
56.0028	530.83
56.0173	513.84
56.0317	556.50
56.0462	562.54
56.0606	513.09
56.0750	500.79
56.0895	558.44
56.1039	544.21
56.1184	533.89
56.1328	531.31
56.1472	516.44
56.1617	512.89
56.1761	519.75
56.1906	521.90
56.2050	490.59
56.2194	499.40
56.2339	509.87
56.2483	519.45
56.2628	502.64
56.2772	521.08
56.2916	506.47
56.3061	535.65
56.3205	529.96
56.3350	534.58
56.3494	525.69
56.3639	496.96
56.3783	501.61
56.3927	499.37
56.4072	524.08
56.4216	542.25
56.4361	543.49
56.4505	525.41
56.4649	513.00
56.4794	516.43
56.4938	519.90
56.5083	523.42
56.5227	490.33
56.5371	535.58
56.5516	518.48
56.5660	527.94
56.5805	506.17
56.5949	533.62
56.6093	525.37
56.6238	507.90
56.6382	532.96
56.6527	537.43
56.6671	510.63
56.6815	484.87
56.6960	494.11
56.7104	535.21
56.7249	554.34
56.7393	553.82
56.7537	567.57
56.7682	477.83
56.7826	502.74
56.7971	505.51
56.8115	532.95
56.8259	575.90
56.8404	536.21
56.8548	542.01
56.8693	510.98
56.8837	523.86
56.8981	528.25
56.9126	549.74
56.9270	544.34
56.9415	541.94
56.9559	538.31
56.9703	514.79
56.9848	500.84
56.9992	542.32
57.0137	504.02
57.0281	543.50
57.0425	482.18
57.0570	515.57
57.0714	526.31
57.0859	536.48
57.1003	547.23
57.1147	537.94
57.1292	531.27
57.1436	516.75
57.1581	506.51
57.1725	521.21
57.1869	533.60
57.2014	536.44
57.2158	558.63
57.2303	527.04
57.2447	503.85
57.2591	532.22
57.2736	563.67
57.2880	535.05
57.3025	488.10
57.3169	546.77
57.3313	530.21
57.3458	503.61
57.3602	572.99
57.3747	542.88
57.3891	516.20
57.4035	539.42
57.4180	557.33
57.4324	536.07
57.4469	502.81
57.4613	486.99
57.4757	556.20
57.4902	546.10
57.5046	508.29
57.5191	541.71
57.5335	549.23
57.5479	563.91
57.5624	540.48
57.5768	529.82
57.5913	526.88
57.6057	540.08
57.6201	506.62
57.6346	539.32
57.6490	539.42
57.6635	481.58
57.6779	500.48
57.6923	514.35
57.7068	517.83
57.7212	512.04
57.7357	507.24
57.7501	521.44
57.7645	481.96
57.7790	516.75
57.7934	548.08
57.8079	534.63
57.8223	530.63
57.8367	538.07
57.8512	526.94
57.8656	570.21
57.8801	508.24
57.8945	562.70
57.9089	533.41
57.9234	513.36
57.9378	528.27
57.9523	514.73
57.9667	535.53
57.9811	525.96
57.9956	527.88
58.0100	523.88
58.0245	544.44
58.0389	542.76
58.0533	479.32
58.0678	518.24
58.0822	524.62
58.0967	561.79
58.1111	524.53
58.1255	547.21
58.1400	527.23
58.1544	503.20
58.1689	549.63
58.1833	570.26
58.1977	567.73
58.2122	592.40
58.2266	563.14
58.2411	574.90
58.2555	543.30
58.2699	570.94
58.2844	578.72
58.2988	558.05
58.3133	567.80
58.3277	580.91
58.3421	582.49
58.3566	591.89
58.3710	565.07
58.3855	549.90
58.3999	576.73
58.4143	605.00
58.4288	616.75
58.4432	598.49
58.4577	615.18
58.4721	637.54
58.4865	637.90
58.5010	657.91
58.5154	630.56
58.5299	645.62
58.5443	628.49
58.5587	632.33
58.5732	628.54
58.5876	624.69
58.6021	635.52
58.6165	635.20
58.6309	623.85
58.6454	605.94
58.6598	597.13
58.6743	587.38
58.6887	559.67
58.7031	550.82
58.7176	586.58
58.7320	591.28
58.7465	598.49
58.7609	586.88
58.7753	571.99
58.7898	572.29
58.8042	570.15
58.8187	535.62
58.8331	557.10
58.8475	525.75
58.8620	555.92
58.8764	568.87
58.8909	541.95
58.9053	556.42
58.9197	548.88
58.9342	563.81
58.9486	584.51
58.9631	544.75
58.9775	528.86
58.9919	574.03
59.0064	543.40
59.0208	527.36
59.0353	560.09
59.0497	533.76
59.0641	571.16
59.0786	545.94
59.0930	544.48
59.1075	553.64
59.1219	601.33
59.1363	557.21
59.1508	509.62
59.1652	565.07
59.1797	573.66
59.1941	531.84
59.2085	540.02
59.2230	545.70
59.2374	550.35
59.2519	541.52
59.2663	543.95
59.2807	557.96
59.2952	548.47
59.3096	554.30
59.3241	537.11
59.3385	584.66
59.3529	549.87
59.3674	551.05
59.3818	550.47
59.3963	534.43
59.4107	532.82
59.4251	588.02
59.4396	584.97
59.4540	554.39
59.4685	539.44
59.4829	543.89
59.4973	551.53
59.5118	570.21
59.5262	531.55
59.5407	536.44
59.5551	554.72
59.5695	554.45
59.5840	578.66
59.5984	561.02
59.6129	578.97
59.6273	528.88
59.6417	538.08
59.6562	552.54
59.6706	551.37
59.6851	535.69
59.6995	534.09
59.7139	542.08
59.7284	560.92
59.7428	544.76
59.7573	530.37
59.7717	548.74
59.7861	565.01
59.8006	524.30
59.8150	548.94
59.8295	547.66
59.8439	533.57
59.8583	562.66
59.8728	530.73
59.8872	541.43
59.9017	544.93
59.9161	521.32
59.9305	515.61
59.9450	555.97
59.9594	540.40
59.9739	537.97
59.9883	558.06
60.0027	519.35
60.0172	520.66
60.0316	535.96
60.0461	501.47
60.0605	543.85
60.0750	550.74
60.0894	563.83
60.1038	549.63
60.1183	561.78
60.1327	575.17
60.1472	529.07
60.1616	532.60
60.1760	538.77
60.1905	525.98
60.2049	527.22
60.2194	543.15
60.2338	540.67
60.2482	601.04
60.2627	543.98
60.2771	549.14
60.2916	551.40
60.3060	540.63
60.3204	533.03
60.3349	550.58
60.3493	520.32
60.3638	570.57
60.3782	546.86
60.3926	534.61
60.4071	556.10
60.4215	559.70
60.4360	531.94
60.4504	559.77
60.4648	555.55
60.4793	549.31
60.4937	549.48
60.5082	550.94
60.5226	542.57
60.5370	546.34
60.5515	545.76
60.5659	514.52
60.5804	542.23
60.5948	533.30
60.6092	515.34
60.6237	536.51
60.6381	541.67
60.6526	542.49
60.6670	516.38
60.6814	546.98
60.6959	557.78
60.7103	540.46
60.7248	552.32
60.7392	543.61
60.7536	564.74
60.7681	522.20
60.7825	542.30
60.7970	531.78
60.8114	546.15
60.8258	548.87
60.8403	559.12
60.8547	566.52
60.8692	561.44
60.8836	568.43
60.8980	555.35
60.9125	541.64
60.9269	514.13
60.9414	587.75
60.9558	546.99
60.9702	524.84
60.9847	526.39
60.9991	550.19
61.0136	552.18
61.0280	547.45
61.0424	559.00
61.0569	535.11
61.0713	534.86
61.0858	542.09
61.1002	575.86
61.1146	549.58
61.1291	551.63
61.1435	547.45
61.1580	569.47
61.1724	557.44
61.1868	518.08
61.2013	536.09
61.2157	546.01
61.2302	550.79
61.2446	558.13
61.2590	556.43
61.2735	529.17
61.2879	581.98
61.3024	542.76
61.3168	531.37
61.3312	559.08
61.3457	574.67
61.3601	556.57
61.3746	511.31
61.3890	500.87
61.4034	527.66
61.4179	568.65
61.4323	557.84
61.4468	512.63
61.4612	542.33
61.4756	554.97
61.4901	582.68
61.5045	544.90
61.5190	527.24
61.5334	565.57
61.5478	542.89
61.5623	551.90
61.5767	531.63
61.5912	541.67
61.6056	518.58
61.6200	536.96
61.6345	550.76
61.6489	554.14
61.6634	559.97
61.6778	541.64
61.6922	562.41
61.7067	596.58
61.7211	573.57
61.7356	528.50
61.7500	549.53
61.7644	521.27
61.7789	512.82
61.7933	553.02
61.8078	556.10
61.8222	570.82
61.8366	559.91
61.8511	542.83
61.8655	542.16
61.8800	534.64
61.8944	534.68
61.9088	541.27
61.9233	558.42
61.9377	538.92
61.9522	538.03
61.9666	533.28
61.9810	531.86
61.9955	519.95
62.0099	534.42
62.0244	552.45
62.0388	529.10
62.0532	529.65
62.0677	527.08
62.0821	557.62
62.0966	535.00
62.1110	530.63
62.1254	578.62
62.1399	576.24
62.1543	545.92
62.1688	542.66
62.1832	533.67
62.1976	535.22
62.2121	546.58
62.2265	545.20
62.2410	528.18
62.2554	550.51
62.2698	557.39
62.2843	540.37
62.2987	528.82
62.3132	546.36
62.3276	582.59
62.3420	572.32
62.3565	548.75
62.3709	555.29
62.3854	544.70
62.3998	544.86
62.4142	520.90
62.4287	543.82
62.4431	557.33
62.4576	538.88
62.4720	568.38
62.4864	573.81
62.5009	527.64
62.5153	528.35
62.5298	563.17
62.5442	576.87
62.5586	558.65
62.5731	546.68
62.5875	549.09
62.6020	572.89
62.6164	570.42
62.6308	515.80
62.6453	535.07
62.6597	566.18
62.6742	577.18
62.6886	563.93
62.7030	544.42
62.7175	550.37
62.7319	574.30
62.7464	575.45
62.7608	511.86
62.7752	573.22
62.7897	550.94
62.8041	580.85
62.8186	606.13
62.8330	593.60
62.8474	556.42
62.8619	552.02
62.8763	583.63
62.8908	561.29
62.9052	549.13
62.9196	551.07
62.9341	567.43
62.9485	570.45
62.9630	564.61
62.9774	550.43
62.9918	574.77
63.0063	555.19
63.0207	573.61
63.0352	569.91
63.0496	548.05
63.0640	544.92
63.0785	568.27
63.0929	576.61
63.1074	543.94
63.1218	583.35
63.1362	584.65
63.1507	555.56
63.1651	566.65
63.1796	580.00
63.1940	567.49
63.2084	574.22
63.2229	570.21
63.2373	559.88
63.2518	566.04
63.2662	574.82
63.2806	596.97
63.2951	577.78
63.3095	587.59
63.3240	593.53
63.3384	613.05
63.3528	582.37
63.3673	600.91
63.3817	574.79
63.3962	534.10
63.4106	579.93
63.4250	595.36
63.4395	602.29
63.4539	571.82
63.4684	567.18
63.4828	579.84
63.4972	564.62
63.5117	556.02
63.5261	560.63
63.5406	586.37
63.5550	582.12
63.5694	579.51
63.5839	566.07
63.5983	624.82
63.6128	603.50
63.6272	596.73
63.6416	575.06
63.6561	575.97
63.6705	557.94
63.6850	555.91
63.6994	566.37
63.7138	580.73
63.7283	557.44
63.7427	581.88
63.7572	578.00
63.7716	599.72
63.7861	606.67
63.8005	560.94
63.8149	588.37
63.8294	584.26
63.8438	613.70
63.8583	590.12
63.8727	621.09
63.8871	613.16
63.9016	616.64
63.9160	591.24
63.9305	615.99
63.9449	619.08
63.9593	590.21
63.9738	585.63
63.9882	573.46
64.0027	613.68
64.0171	622.54
64.0315	672.67
64.0460	600.77
64.0604	634.00
64.0749	654.09
64.0893	658.14
64.1037	664.35
64.1182	681.11
64.1326	634.04
64.1471	645.37
64.1615	715.95
64.1759	665.02
64.1904	685.24
64.2048	721.72
64.2193	746.87
64.2337	782.49
64.2481	815.62
64.2626	790.70
64.2770	801.04
64.2915	744.37
64.3059	812.08
64.3203	786.66
64.3348	802.02
64.3492	759.56
64.3637	798.91
64.3781	783.73
64.3925	774.91
64.4070	817.21
64.4214	787.11
64.4359	786.64
64.4503	778.51
64.4647	716.94
64.4792	767.15
64.4936	760.37
64.5081	732.39
64.5225	708.17
64.5369	744.29
64.5514	758.65
64.5658	704.64
64.5803	725.88
64.5947	716.82
64.6091	724.09
64.6236	691.68
64.6380	748.20
64.6525	694.72
64.6669	756.62
64.6813	719.87
64.6958	715.71
64.7102	720.82
64.7247	710.99
64.7391	726.20
64.7535	717.17
64.7680	753.47
64.7824	750.76
64.7969	769.36
64.8113	808.15
64.8257	801.12
64.8402	782.68
64.8546	848.22
64.8691	790.92
64.8835	785.83
64.8979	855.29
64.9124	845.10
64.9268	854.54
64.9413	906.40
64.9557	931.02
64.9701	918.61
64.9846	1100.32
64.9990	1152.84
65.0135	1271.14
65.0279	1553.16
65.0423	1731.73
65.0568	2072.07
65.0712	2593.04
65.0857	3406.05
65.1001	4428.80
65.1145	5944.98
65.1290	7876.27
65.1434	9513.17
65.1579	10915.49
65.1723	11947.85
65.1867	11289.64
65.2012	10111.88
65.2156	8479.71
65.2301	6695.37
65.2445	5402.23
65.2589	4644.45
65.2734	4209.15
65.2878	4370.76
65.3023	4893.57
65.3167	5756.37
65.3311	6479.81
65.3456	6823.70
65.3600	6946.95
65.3745	6366.08
65.3889	5623.52
65.4033	4530.65
65.4178	3488.79
65.4322	2783.71
65.4467	2129.95
65.4611	1790.74
65.4755	1465.15
65.4900	1323.81
65.5044	1108.18
65.5189	1041.33
65.5333	974.78
65.5477	928.74
65.5622	956.92
65.5766	855.85
65.5911	807.39
65.6055	804.09
65.6199	771.45
65.6344	763.74
65.6488	720.11
65.6633	730.13
65.6777	690.21
65.6921	733.96
65.7066	783.00
65.7210	716.51
65.7355	673.54
65.7499	699.61
65.7643	692.47
65.7788	672.83
65.7932	683.43
65.8077	692.51
65.8221	665.47
65.8365	665.39
65.8510	643.12
65.8654	673.50
65.8799	654.21
65.8943	634.77
65.9087	663.73
65.9232	614.01
65.9376	622.55
65.9521	626.10
65.9665	627.44
65.9809	641.53
65.9954	647.76
66.0098	655.91
66.0243	657.53
66.0387	676.30
66.0531	652.76
66.0676	619.16
66.0820	627.92
66.0965	588.49
66.1109	597.43
66.1253	628.35
66.1398	611.50
66.1542	615.37
66.1687	625.07
66.1831	601.46
66.1975	572.12
66.2120	597.27
66.2264	620.93
66.2409	623.99
66.2553	621.74
66.2697	609.54
66.2842	579.96
66.2986	594.78
66.3131	601.24
66.3275	617.51
66.3419	610.37
66.3564	598.94
66.3708	622.36
66.3853	584.38
66.3997	621.59
66.4141	600.19
66.4286	612.33
66.4430	553.81
66.4575	571.70
66.4719	582.89
66.4863	584.31
66.5008	579.22
66.5152	584.93
66.5297	596.60
66.5441	627.29
66.5585	616.57
66.5730	592.35
66.5874	561.23
66.6019	608.76
66.6163	607.18
66.6307	575.86
66.6452	579.20
66.6596	589.72
66.6741	583.69
66.6885	574.65
66.7029	557.63
66.7174	566.83
66.7318	602.20
66.7463	559.67
66.7607	557.60
66.7751	545.86
66.7896	584.55
66.8040	590.42
66.8185	596.95
66.8329	593.76
66.8473	556.30
66.8618	592.94
66.8762	584.12
66.8907	572.19
66.9051	569.93
66.9195	585.21
66.9340	601.76
66.9484	614.98
66.9629	604.42
66.9773	598.83
66.9917	595.27
67.0062	610.39
67.0206	638.53
67.0351	608.74
67.0495	595.22
67.0639	573.84
67.0784	585.94
67.0928	608.40
67.1073	642.57
67.1217	584.49
67.1361	581.27
67.1506	554.92
67.1650	547.42
67.1795	563.36
67.1939	574.45
67.2083	577.05
67.2228	599.38
67.2372	591.00
67.2517	566.90
67.2661	578.18
67.2805	605.29
67.2950	566.40
67.3094	573.17
67.3239	570.50
67.3383	609.26
67.3527	592.71
67.3672	584.45
67.3816	590.30
67.3961	546.07
67.4105	571.65
67.4250	599.00
67.4394	572.80
67.4538	584.38
67.4683	600.94
67.4827	597.92
67.4972	575.74
67.5116	589.32
67.5260	567.79
67.5405	568.33
67.5549	575.02
67.5694	570.37
67.5838	587.04
67.5982	604.34
67.6127	560.36
67.6271	574.90
67.6416	593.05
67.6560	553.44
67.6704	550.77
67.6849	579.13
67.6993	621.00
67.7138	609.84
67.7282	590.77
67.7426	581.97
67.7571	560.95
67.7715	581.09
67.7860	585.86
67.8004	590.92
67.8148	596.61
67.8293	578.66
67.8437	573.91
67.8582	597.03
67.8726	596.16
67.8870	537.99
67.9015	586.97
67.9159	591.63
67.9304	573.51
67.9448	592.19
67.9592	553.56
67.9737	536.25
67.9881	620.55
68.0026	593.94
68.0170	592.33
68.0314	560.65
68.0459	546.84
68.0603	581.98
68.0748	596.59
68.0892	634.52
68.1036	581.84
68.1181	598.33
68.1325	581.81
68.1470	544.34
68.1614	591.89
68.1758	561.77
68.1903	519.51
68.2047	583.72
68.2192	600.95
68.2336	587.06
68.2480	594.48
68.2625	557.02
68.2769	548.26
68.2914	591.51
68.3058	597.74
68.3202	632.45
68.3347	619.02
68.3491	568.66
68.3636	632.21
68.3780	556.57
68.3924	556.81
68.4069	584.20
68.4213	573.76
68.4358	549.83
68.4502	590.13
68.4646	632.33
68.4791	577.88
68.4935	627.24
68.5080	560.22
68.5224	553.26
68.5368	568.73
68.5513	614.68
68.5657	588.44
68.5802	567.84
68.5946	575.61
68.6090	555.07
68.6235	575.37
68.6379	598.96
68.6524	577.25
68.6668	578.64
68.6812	608.24
68.6957	562.87
68.7101	592.53
68.7246	576.12
68.7390	543.85
68.7534	591.65
68.7679	553.17
68.7823	585.74
68.7968	600.51
68.8112	587.45
68.8256	596.64
68.8401	588.98
68.8545	541.79
68.8690	559.24
68.8834	588.09
68.8978	601.52
68.9123	609.46
68.9267	563.59
68.9412	553.73
68.9556	578.15
68.9700	600.08
68.9845	578.16
68.9989	539.19
69.0134	575.02
69.0278	586.76
69.0422	551.17
69.0567	547.19
69.0711	514.81
69.0856	553.41
69.1000	559.72
69.1144	616.27
69.1289	603.02
69.1433	595.05
69.1578	584.20
69.1722	605.74
69.1866	585.40
69.2011	566.61
69.2155	623.80
69.2300	601.14
69.2444	593.09
69.2588	616.36
69.2733	598.95
69.2877	563.67
69.3022	558.47
69.3166	595.58
69.3310	603.47
69.3455	585.53
69.3599	589.18
69.3744	651.07
69.3888	567.45
69.4032	654.62
69.4177	617.98
69.4321	595.09
69.4466	562.71
69.4610	588.76
69.4754	601.03
69.4899	625.61
69.5043	574.46
69.5188	635.11
69.5332	635.44
69.5476	585.77
69.5621	563.65
69.5765	562.87
69.5910	641.36
69.6054	602.44
69.6198	549.43
69.6343	615.80
69.6487	633.83
69.6632	602.47
69.6776	624.10
69.6920	599.40
69.7065	610.80
69.7209	581.68
69.7354	552.15
69.7498	639.45
69.7642	598.41
69.7787	571.39
69.7931	550.52
69.8076	611.28
69.8220	608.42
69.8364	609.53
69.8509	590.77
69.8653	580.61
69.8798	592.70
69.8942	615.01
69.9086	628.93
69.9231	601.48
69.9375	597.59
69.9520	556.67
69.9664	555.35
69.9808	588.09
69.9953	639.27
70.0097	565.51
70.0242	566.99
70.0386	544.52
70.0530	573.03
70.0675	560.20
70.0819	595.69
70.0964	632.10
70.1108	571.09
70.1252	607.26
70.1397	559.73
70.1541	578.26
70.1686	582.60
70.1830	561.11
70.1974	572.72
70.2119	587.82
70.2263	594.37
70.2408	554.43
70.2552	581.88
70.2696	610.50
70.2841	551.97
70.2985	559.69
70.3130	528.25
70.3274	572.17
70.3418	583.17
70.3563	544.92
70.3707	598.91
70.3852	542.73
70.3996	565.52
70.4140	595.73
70.4285	612.93
70.4429	586.19
70.4574	563.96
70.4718	561.57
70.4862	553.20
70.5007	570.86
70.5151	597.77
70.5296	567.76
70.5440	564.98
70.5584	647.22
70.5729	603.64
70.5873	525.95
70.6018	514.34
70.6162	572.65
70.6306	571.57
70.6451	569.29
70.6595	587.17
70.6740	535.40
70.6884	542.92
70.7028	596.17
70.7173	585.72
70.7317	583.45
70.7462	595.16
70.7606	566.37
70.7750	607.44
70.7895	607.52
70.8039	583.34
70.8184	560.08
70.8328	626.47
70.8472	552.66
70.8617	573.06
70.8761	568.56
70.8906	594.01
70.9050	601.38
70.9194	611.21
70.9339	642.49
70.9483	617.67
70.9628	564.82
70.9772	580.20
70.9916	579.13
71.0061	612.19
71.0205	597.55
71.0350	559.54
71.0494	578.86
71.0638	614.62
71.0783	571.34
71.0927	555.43
71.1072	594.26
71.1216	575.08
71.1361	586.46
71.1505	526.07
71.1649	555.82
71.1794	550.22
71.1938	533.84
71.2083	539.16
71.2227	498.74
71.2371	523.90
71.2516	599.44
71.2660	625.16
71.2805	580.29
71.2949	603.69
71.3093	565.59
71.3238	564.80
71.3382	592.85
71.3527	532.51
71.3671	517.94
71.3815	596.37
71.3960	570.96
71.4104	546.03
71.4249	586.25
71.4393	569.88
71.4537	521.48
71.4682	566.28
71.4826	579.55
71.4971	571.66
71.5115	596.12
71.5259	574.87
71.5404	602.07
71.5548	628.37
71.5693	622.49
71.5837	596.56
71.5981	574.81
71.6126	594.77
71.6270	548.51
71.6415	585.95
71.6559	618.05
71.6703	624.54
71.6848	599.28
71.6992	608.54
71.7137	549.98
71.7281	502.03
71.7425	543.22
71.7570	549.43
71.7714	561.43
71.7859	549.35
71.8003	604.28
71.8147	647.78
71.8292	604.48
71.8436	569.29
71.8581	581.46
71.8725	559.88
71.8869	531.96
71.9014	591.48
71.9158	602.32
71.9303	588.00
71.9447	605.04
71.9591	546.34
71.9736	558.73
71.9880	582.51
72.0025	589.88
72.0169	613.67
72.0313	625.29
72.0458	560.48
72.0602	505.35
72.0747	476.62
72.0891	530.72
72.1035	570.93
72.1180	521.27
72.1324	603.86
72.1469	633.26
72.1613	613.14
72.1757	669.13
72.1902	650.17
72.2046	596.20
72.2191	590.42
72.2335	594.70
72.2479	576.22
72.2624	493.60
72.2768	524.16
72.2913	572.12
72.3057	575.71
72.3201	535.48
72.3346	566.34
72.3490	594.40
72.3635	554.07
72.3779	588.65
72.3923	560.94
72.4068	514.66
72.4212	489.10
72.4357	536.66
72.4501	559.69
72.4645	583.10
72.4790	619.12
72.4934	527.36
72.5079	508.85
72.5223	501.84
72.5367	504.95
72.5512	606.19
72.5656	586.21
72.5801	591.83
72.5945	591.43
72.6089	478.05
72.6234	474.44
72.6378	568.79
72.6523	603.50
72.6667	560.00
72.6811	560.35
72.6956	564.50
72.7100	535.92
72.7245	557.12
72.7389	628.47
72.7533	654.16
72.7678	605.81
72.7822	582.11
72.7967	590.01
72.8111	600.64
72.8255	588.30
72.8400	561.69
72.8544	622.85
72.8689	629.54
72.8833	556.29