2022.09.19 19:37:17
Îáðàçåö: ß÷åéêà LCoV 16-09-2022
Lambda1 = 1.54060
Lambda2 = 1.54439
Lambdam = 1.54186
R = 0.497
2Theta	I

line¹ 0 ;repeat¹ 0
22.1120	556.14
22.1264	612.30
22.1409	562.65
22.1553	492.87
22.1697	598.53
22.1842	535.25
22.1986	482.70
22.2131	501.09
22.2275	585.82
22.2419	547.48
22.2564	533.30
22.2708	556.74
22.2853	632.60
22.2997	647.98
22.3141	650.13
22.3286	560.58
22.3430	612.27
22.3575	582.32
22.3719	537.17
22.3863	562.80
22.4008	552.13
22.4152	595.39
22.4297	531.38
22.4441	526.02
22.4585	577.78
22.4730	595.37
22.4874	633.45
22.5019	572.68
22.5163	626.24
22.5307	542.81
22.5452	551.90
22.5596	515.69
22.5741	604.93
22.5885	555.82
22.6029	652.86
22.6174	585.38
22.6318	573.95
22.6463	554.30
22.6607	669.06
22.6751	597.59
22.6896	568.08
22.7040	582.34
22.7185	567.21
22.7329	526.71
22.7473	544.11
22.7618	481.94
22.7762	513.31
22.7907	542.63
22.8051	608.00
22.8195	560.23
22.8340	484.54
22.8484	512.13
22.8629	563.42
22.8773	534.99
22.8917	596.63
22.9062	573.65
22.9206	557.88
22.9351	529.05
22.9495	550.61
22.9639	545.16
22.9784	494.48
22.9928	527.31
23.0073	587.71
23.0217	622.66
23.0361	608.21
23.0506	614.93
23.0650	612.62
23.0795	519.29
23.0939	576.23
23.1083	515.25
23.1228	576.00
23.1372	542.91
23.1517	550.01
23.1661	577.47
23.1806	543.29
23.1950	504.41
23.2094	517.85
23.2239	511.36
23.2383	550.21
23.2528	580.09
23.2672	591.65
23.2816	582.35
23.2961	471.81
23.3105	594.50
23.3250	563.91
23.3394	559.57
23.3538	514.61
23.3683	520.12
23.3827	493.60
23.3972	582.58
23.4116	584.24
23.4260	581.97
23.4405	617.45
23.4549	568.38
23.4694	610.25
23.4838	570.34
23.4982	600.95
23.5127	563.61
23.5271	527.04
23.5416	499.28
23.5560	564.27
23.5704	587.41
23.5849	579.08
23.5993	526.41
23.6138	609.04
23.6282	556.77
23.6426	576.21
23.6571	610.17
23.6715	545.83
23.6860	573.27
23.7004	572.19
23.7148	537.11
23.7293	510.24
23.7437	563.56
23.7582	541.40
23.7726	457.73
23.7870	546.37
23.8015	546.16
23.8159	515.38
23.8304	611.86
23.8448	562.92
23.8592	601.20
23.8737	603.52
23.8881	575.55
23.9026	583.78
23.9170	546.49
23.9314	595.80
23.9459	547.07
23.9603	497.03
23.9748	510.56
23.9892	507.45
24.0036	458.14
24.0181	577.79
24.0325	568.29
24.0470	559.27
24.0614	634.37
24.0758	583.38
24.0903	610.35
24.1047	536.63
24.1192	595.03
24.1336	568.24
24.1480	554.22
24.1625	566.16
24.1769	545.74
24.1914	545.88
24.2058	549.17
24.2202	557.38
24.2347	630.47
24.2491	583.71
24.2636	575.45
24.2780	634.64
24.2924	642.97
24.3069	572.53
24.3213	551.82
24.3358	555.01
24.3502	557.47
24.3646	536.41
24.3791	503.09
24.3935	539.36
24.4080	525.69
24.4224	537.77
24.4368	522.40
24.4513	540.85
24.4657	569.40
24.4802	562.14
24.4946	572.10
24.5090	583.19
24.5235	495.68
24.5379	545.14
24.5524	547.68
24.5668	586.82
24.5812	599.54
24.5957	576.08
24.6101	560.32
24.6246	530.02
24.6390	544.55
24.6534	553.51
24.6679	563.26
24.6823	563.08
24.6968	641.67
24.7112	538.19
24.7256	580.20
24.7401	560.96
24.7545	531.79
24.7690	471.47
24.7834	521.83
24.7978	506.05
24.8123	579.42
24.8267	482.99
24.8412	540.42
24.8556	612.94
24.8700	560.54
24.8845	504.94
24.8989	479.45
24.9134	526.14
24.9278	505.53
24.9422	531.50
24.9567	548.47
24.9711	557.91
24.9856	480.56
25.0000	572.12
25.0144	531.75
25.0289	589.95
25.0433	577.11
25.0578	537.67
25.0722	538.07
25.0866	582.62
25.1011	579.37
25.1155	586.96
25.1300	559.53
25.1444	530.60
25.1588	514.77
25.1733	516.78
25.1877	536.62
25.2022	541.77
25.2166	516.51
25.2310	515.67
25.2455	572.74
25.2599	547.95
25.2744	522.46
25.2888	521.30
25.3032	527.30
25.3177	569.34
25.3321	598.57
25.3466	561.02
25.3610	513.11
25.3754	504.96
25.3899	540.88
25.4043	526.32
25.4188	511.68
25.4332	539.36
25.4476	530.10
25.4621	531.13
25.4765	556.45
25.4910	586.15
25.5054	566.20
25.5198	581.82
25.5343	566.30
25.5487	543.26
25.5632	558.43
25.5776	557.15
25.5920	570.59
25.6065	568.97
25.6209	553.42
25.6354	523.05
25.6498	554.32
25.6642	555.36
25.6787	540.85
25.6931	503.05
25.7076	564.60
25.7220	552.16
25.7364	554.85
25.7509	520.04
25.7653	514.68
25.7798	551.97
25.7942	607.57
25.8086	526.24
25.8231	562.89
25.8375	573.77
25.8520	551.43
25.8664	583.77
25.8808	535.15
25.8953	523.14
25.9097	514.98
25.9242	527.41
25.9386	530.13
25.9530	548.81
25.9675	535.10
25.9819	547.52
25.9964	565.50
26.0108	577.16
26.0252	574.45
26.0397	514.75
26.0541	492.41
26.0686	528.76
26.0830	506.64
26.0974	513.97
26.1119	558.57
26.1263	525.98
26.1408	504.41
26.1552	523.18
26.1696	555.99
26.1841	539.84
26.1985	525.93
26.2130	554.96
26.2274	560.53
26.2418	552.39
26.2563	509.25
26.2707	524.87
26.2852	529.51
26.2996	480.27
26.3140	536.86
26.3285	544.99
26.3429	514.62
26.3574	493.11
26.3718	505.87
26.3862	500.96
26.4007	515.96
26.4151	499.92
26.4296	549.58
26.4440	569.04
26.4584	563.08
26.4729	527.08
26.4873	539.33
26.5018	520.18
26.5162	515.61
26.5306	562.40
26.5451	553.08
26.5595	525.82
26.5740	524.54
26.5884	578.87
26.6028	586.59
26.6173	545.99
26.6317	567.17
26.6462	579.56
26.6606	569.30
26.6750	517.75
26.6895	509.31
26.7039	529.84
26.7184	527.94
26.7328	502.04
26.7472	562.29
26.7617	569.69
26.7761	553.43
26.7906	540.91
26.8050	515.54
26.8194	477.84
26.8339	528.48
26.8483	536.16
26.8628	511.35
26.8772	502.17
26.8917	553.12
26.9061	560.13
26.9205	509.85
26.9350	541.30
26.9494	557.45
26.9639	515.59
26.9783	518.06
26.9927	515.78
27.0072	514.30
27.0216	529.41
27.0361	548.15
27.0505	514.57
27.0649	560.57
27.0794	547.03
27.0938	536.06
27.1083	510.61
27.1227	494.85
27.1371	518.82
27.1516	528.38
27.1660	539.03
27.1805	526.70
27.1949	543.40
27.2093	513.49
27.2238	504.19
27.2382	505.08
27.2527	525.47
27.2671	514.54
27.2815	531.36
27.2960	517.71
27.3104	538.85
27.3249	535.92
27.3393	554.97
27.3537	507.03
27.3682	497.23
27.3826	496.92
27.3971	494.89
27.4115	505.32
27.4259	516.41
27.4404	505.09
27.4548	511.99
27.4693	536.91
27.4837	512.16
27.4981	526.18
27.5126	519.43
27.5270	553.50
27.5415	535.87
27.5559	536.37
27.5703	508.24
27.5848	519.52
27.5992	510.80
27.6137	525.60
27.6281	519.07
27.6425	519.52
27.6570	516.62
27.6714	513.14
27.6859	499.18
27.7003	518.81
27.7147	502.62
27.7292	507.60
27.7436	488.19
27.7581	481.45
27.7725	516.29
27.7869	518.69
27.8014	513.97
27.8158	515.50
27.8303	530.20
27.8447	524.39
27.8591	524.01
27.8736	527.94
27.8880	534.09
27.9025	523.08
27.9169	495.14
27.9313	486.55
27.9458	494.80
27.9602	517.66
27.9747	510.63
27.9891	534.77
28.0035	507.33
28.0180	499.39
28.0324	528.50
28.0469	529.72
28.0613	513.06
28.0757	495.41
28.0902	559.45
28.1046	516.50
28.1191	539.56
28.1335	552.33
28.1479	534.52
28.1624	532.30
28.1768	516.21
28.1913	480.31
28.2057	494.29
28.2201	555.70
28.2346	529.49
28.2490	521.54
28.2635	531.72
28.2779	512.77
28.2923	514.80
28.3068	513.33
28.3212	501.36
28.3357	511.28
28.3501	556.83
28.3645	514.70
28.3790	506.63
28.3934	537.77
28.4079	519.13
28.4223	510.17
28.4367	507.67
28.4512	527.52
28.4656	540.15
28.4801	535.63
28.4945	527.44
28.5089	509.63
28.5234	538.11
28.5378	534.44
28.5523	515.42
28.5667	491.67
28.5811	568.34
28.5956	502.49
28.6100	532.90
28.6245	506.24
28.6389	501.97
28.6533	476.72
28.6678	516.94
28.6822	487.40
28.6967	510.27
28.7111	501.32
28.7255	512.84
28.7400	501.05
28.7544	500.50
28.7689	520.02
28.7833	549.42
28.7977	514.76
28.8122	519.23
28.8266	529.76
28.8411	520.36
28.8555	521.97
28.8699	550.77
28.8844	489.83
28.8988	493.67
28.9133	524.50
28.9277	505.48
28.9421	560.43
28.9566	542.43
28.9710	524.31
28.9855	510.75
28.9999	508.88
29.0143	485.10
29.0288	519.58
29.0432	521.94
29.0577	537.08
29.0721	548.20
29.0865	541.55
29.1010	522.21
29.1154	498.96
29.1299	514.25
29.1443	513.15
29.1587	481.99
29.1732	533.83
29.1876	492.83
29.2021	499.77
29.2165	516.15
29.2309	545.11
29.2454	524.46
29.2598	526.65
29.2743	520.27
29.2887	503.15
29.3031	517.26
29.3176	519.43
29.3320	509.68
29.3465	509.78
29.3609	504.31
29.3753	501.23
29.3898	480.60
29.4042	500.21
29.4187	514.72
29.4331	507.87
29.4475	483.24
29.4620	506.58
29.4764	515.13
29.4909	506.85
29.5053	488.67
29.5197	501.82
29.5342	497.08
29.5486	522.04
29.5631	502.54
29.5775	518.98
29.5919	514.15
29.6064	517.72
29.6208	500.31
29.6353	495.74
29.6497	518.82
29.6641	484.54
29.6786	493.37
29.6930	529.96
29.7075	527.19
29.7219	486.45
29.7363	500.29
29.7508	496.02
29.7652	533.81
29.7797	521.24
29.7941	507.45
29.8085	489.52
29.8230	483.23
29.8374	490.34
29.8519	513.91
29.8663	532.46
29.8807	488.45
29.8952	499.49
29.9096	518.64
29.9241	522.63
29.9385	516.29
29.9529	500.09
29.9674	492.41
29.9818	484.45
29.9963	462.60
30.0107	517.61
30.0251	493.84
30.0396	476.27
30.0540	530.74
30.0685	491.89
30.0829	499.62
30.0973	509.66
30.1118	517.48
30.1262	490.24
30.1407	480.88
30.1551	505.62
30.1695	535.97
30.1840	552.65
30.1984	495.00
30.2129	525.52
30.2273	537.05
30.2417	508.36
30.2562	502.44
30.2706	477.03
30.2851	545.81
30.2995	478.72
30.3139	481.65
30.3284	523.84
30.3428	507.08
30.3573	539.37
30.3717	500.95
30.3861	477.42
30.4006	467.14
30.4150	475.58
30.4295	502.48
30.4439	478.67
30.4583	483.89
30.4728	507.45
30.4872	505.51
30.5017	491.29
30.5161	484.59
30.5305	507.25
30.5450	506.52
30.5594	514.18
30.5739	507.59
30.5883	540.63
30.6028	548.83
30.6172	523.76
30.6316	531.76
30.6461	506.39
30.6605	497.71
30.6750	500.11
30.6894	526.65
30.7038	549.64
30.7183	553.63
30.7327	544.84
30.7472	521.31
30.7616	542.09
30.7760	552.57
30.7905	577.33
30.8049	590.71
30.8194	627.83
30.8338	650.73
30.8482	661.07
30.8627	683.42
30.8771	714.08
30.8916	668.55
30.9060	681.33
30.9204	665.35
30.9349	668.82
30.9493	659.86
30.9638	630.40
30.9782	623.85
30.9926	576.45
31.0071	576.83
31.0215	567.57
31.0360	582.46
31.0504	612.15
31.0648	578.95
31.0793	549.97
31.0937	553.82
31.1082	545.26
31.1226	575.81
31.1370	548.65
31.1515	521.02
31.1659	537.76
31.1804	544.96
31.1948	515.90
31.2092	516.57
31.2237	532.51
31.2381	521.64
31.2526	517.44
31.2670	551.76
31.2814	568.47
31.2959	530.19
31.3103	543.53
31.3248	533.65
31.3392	590.77
31.3536	536.19
31.3681	517.88
31.3825	522.20
31.3970	498.24
31.4114	526.43
31.4258	568.88
31.4403	521.23
31.4547	522.40
31.4692	536.55
31.4836	525.05
31.4980	524.75
31.5125	512.28
31.5269	494.66
31.5414	492.73
31.5558	513.60
31.5702	500.25
31.5847	481.60
31.5991	505.60
31.6136	495.46
31.6280	489.65
31.6424	481.84
31.6569	494.15
31.6713	466.36
31.6858	489.07
31.7002	500.75
31.7146	534.40
31.7291	506.66
31.7435	521.45
31.7580	493.39
31.7724	490.92
31.7868	454.99
31.8013	500.23
31.8157	528.15
31.8302	503.86
31.8446	506.26
31.8590	513.61
31.8735	520.68
31.8879	512.48
31.9024	495.82
31.9168	498.37
31.9312	503.70
31.9457	527.81
31.9601	496.93
31.9746	502.32
31.9890	494.05
32.0034	507.48
32.0179	478.27
32.0323	505.90
32.0468	521.58
32.0612	531.57
32.0756	528.50
32.0901	535.86
32.1045	514.15
32.1190	540.13
32.1334	485.49
32.1478	491.69
32.1623	515.77
32.1767	497.45
32.1912	511.62
32.2056	512.51
32.2200	515.24
32.2345	515.52
32.2489	523.32
32.2634	483.41
32.2778	495.89
32.2922	489.01
32.3067	477.55
32.3211	497.26
32.3356	496.27
32.3500	497.95
32.3644	491.61
32.3789	492.14
32.3933	515.88
32.4078	515.11
32.4222	528.28
32.4366	491.03
32.4511	460.82
32.4655	536.87
32.4800	514.15
32.4944	497.78
32.5088	482.78
32.5233	476.80
32.5377	475.13
32.5522	503.95
32.5666	500.47
32.5810	532.88
32.5955	509.88
32.6099	496.69
32.6244	481.89
32.6388	479.21
32.6532	505.22
32.6677	448.66
32.6821	505.21
32.6966	470.91
32.7110	513.48
32.7254	499.96
32.7399	515.56
32.7543	508.03
32.7688	544.51
32.7832	511.17
32.7976	509.79
32.8121	522.12
32.8265	480.99
32.8410	481.04
32.8554	498.01
32.8698	519.92
32.8843	531.51
32.8987	493.39
32.9132	514.79
32.9276	445.66
32.9420	499.87
32.9565	503.28
32.9709	527.94
32.9854	518.54
32.9998	484.02
33.0142	471.08
33.0287	492.16
33.0431	477.14
33.0576	539.57
33.0720	514.32
33.0864	511.05
33.1009	486.76
33.1153	525.71
33.1298	518.38
33.1442	509.64
33.1586	513.82
33.1731	511.44
33.1875	514.25
33.2020	509.78
33.2164	506.05
33.2308	524.29
33.2453	500.94
33.2597	520.02
33.2742	492.93
33.2886	488.30
33.3030	506.81
33.3175	473.78
33.3319	463.11
33.3464	482.22
33.3608	530.51
33.3752	515.29
33.3897	507.52
33.4041	509.72
33.4186	484.02
33.4330	510.81
33.4474	512.91
33.4619	505.89
33.4763	509.28
33.4908	524.96
33.5052	494.08
33.5196	477.99
33.5341	466.97
33.5485	527.98
33.5630	543.56
33.5774	518.23
33.5918	493.34
33.6063	463.72
33.6207	482.28
33.6352	487.80
33.6496	493.82
33.6640	499.37
33.6785	486.65
33.6929	508.46
33.7074	540.08
33.7218	510.16
33.7362	500.44
33.7507	500.76
33.7651	471.44
33.7796	492.32
33.7940	496.32
33.8084	507.33
33.8229	527.65
33.8373	517.32
33.8518	495.13
33.8662	512.03
33.8806	507.39
33.8951	502.26
33.9095	499.64
33.9240	476.24
33.9384	505.33
33.9528	483.00
33.9673	511.63
33.9817	483.74
33.9962	493.71
34.0106	493.04
34.0250	500.51
34.0395	506.87
34.0539	497.21
34.0684	528.96
34.0828	547.03
34.0972	538.64
34.1117	493.45
34.1261	495.89
34.1406	476.53
34.1550	472.66
34.1694	500.51
34.1839	527.22
34.1983	527.75
34.2128	498.31
34.2272	478.02
34.2417	490.02
34.2561	484.38
34.2705	526.06
34.2850	502.30
34.2994	498.12
34.3139	515.51
34.3283	550.23
34.3427	536.85
34.3572	527.14
34.3716	511.02
34.3861	507.75
34.4005	501.25
34.4149	512.82
34.4294	503.20
34.4438	533.92
34.4583	530.07
34.4727	513.08
34.4871	518.44
34.5016	495.03
34.5160	506.14
34.5305	492.38
34.5449	491.78
34.5593	527.07
34.5738	486.99
34.5882	508.56
34.6027	538.87
34.6171	561.72
34.6315	514.12
34.6460	495.69
34.6604	504.27
34.6749	516.56
34.6893	507.18
34.7037	520.08
34.7182	511.23
34.7326	509.14
34.7471	517.71
34.7615	512.13
34.7759	517.68
34.7904	492.94
34.8048	507.23
34.8193	516.45
34.8337	512.60
34.8481	511.13
34.8626	523.08
34.8770	497.83
34.8915	464.94
34.9059	512.76
34.9203	503.02
34.9348	511.94
34.9492	520.21
34.9637	512.17
34.9781	510.73
34.9925	481.91
35.0070	482.01
35.0214	487.07
35.0359	502.65
35.0503	545.39
35.0647	550.95
35.0792	556.54
35.0936	510.87
35.1081	502.89
35.1225	546.41
35.1369	521.38
35.1514	469.38
35.1658	512.48
35.1803	510.77
35.1947	510.42
35.2091	503.43
35.2236	508.71
35.2380	489.37
35.2525	524.59
35.2669	534.88
35.2813	517.70
35.2958	513.83
35.3102	527.66
35.3247	510.58
35.3391	545.58
35.3535	516.34
35.3680	507.21
35.3824	503.07
35.3969	505.71
35.4113	477.20
35.4257	537.20
35.4402	544.50
35.4546	542.18
35.4691	527.77
35.4835	510.04
35.4979	552.15
35.5124	562.87
35.5268	561.30
35.5413	528.15
35.5557	554.06
35.5701	552.94
35.5846	557.42
35.5990	541.61
35.6135	523.32
35.6279	517.78
35.6423	503.52
35.6568	534.84
35.6712	560.73
35.6857	641.44
35.7001	682.38
35.7145	720.13
35.7290	656.19
35.7434	598.66
35.7579	596.90
35.7723	598.75
35.7867	626.31
35.8012	659.43
35.8156	663.34
35.8301	651.62
35.8445	598.04
35.8589	587.69
35.8734	717.38
35.8878	888.02
35.9023	1038.67
35.9167	1077.80
35.9311	1397.23
35.9456	2120.79
35.9600	2287.43
35.9745	1806.44
35.9889	1953.24
36.0033	2495.41
36.0178	2745.20
36.0322	2223.26
36.0467	1867.85
36.0611	1623.19
36.0755	1633.65
36.0900	1522.31
36.1044	1225.70
36.1189	1376.75
36.1333	1284.79
36.1477	1067.99
36.1622	1007.52
36.1766	950.73
36.1911	877.07
36.2055	773.03
36.2199	756.60
36.2344	742.37
36.2488	712.85
36.2633	728.29
36.2777	765.63
36.2921	811.38
36.3066	827.05
36.3210	870.76
36.3355	954.98
36.3499	937.86
36.3643	893.09
36.3788	952.88
36.3932	950.79
36.4077	973.14
36.4221	1004.17
36.4365	940.29
36.4510	859.99
36.4654	892.46
36.4799	824.85
36.4943	757.44
36.5087	764.60
36.5232	721.57
36.5376	696.54
36.5521	654.30
36.5665	617.49
36.5809	650.70
36.5954	593.83
36.6098	611.46
36.6243	562.71
36.6387	581.35
36.6531	551.51
36.6676	569.49
36.6820	550.45
36.6965	580.56
36.7109	580.88
36.7253	579.40
36.7398	531.51
36.7542	577.65
36.7687	548.47
36.7831	580.06
36.7975	570.94
36.8120	556.99
36.8264	574.05
36.8409	546.79
36.8553	588.71
36.8697	630.79
36.8842	567.16
36.8986	637.86
36.9131	638.72
36.9275	624.27
36.9419	628.05
36.9564	583.98
36.9708	580.77
36.9853	588.42
36.9997	574.74
37.0141	541.80
37.0286	547.68
37.0430	596.14
37.0575	528.77
37.0719	510.52
37.0863	510.77
37.1008	491.27
37.1152	526.09
37.1297	525.81
37.1441	493.49
37.1585	526.33
37.1730	534.76
37.1874	503.93
37.2019	475.83
37.2163	496.64
37.2307	507.96
37.2452	521.00
37.2596	458.54
37.2741	493.19
37.2885	520.03
37.3029	525.17
37.3174	494.21
37.3318	512.21
37.3463	524.80
37.3607	505.32
37.3751	514.44
37.3896	504.94
37.4040	524.79
37.4185	498.80
37.4329	561.56
37.4473	490.16
37.4618	495.91
37.4762	517.33
37.4907	524.94
37.5051	504.04
37.5195	515.57
37.5340	518.82
37.5484	496.98
37.5629	498.48
37.5773	463.96
37.5917	485.41
37.6062	522.47
37.6206	513.95
37.6351	477.96
37.6495	488.61
37.6639	486.76
37.6784	518.49
37.6928	482.12
37.7073	510.32
37.7217	540.66
37.7361	516.41
37.7506	472.08
37.7650	501.08
37.7795	519.96
37.7939	509.10
37.8083	540.73
37.8228	505.96
37.8372	486.63
37.8517	515.22
37.8661	522.46
37.8805	520.46
37.8950	505.34
37.9094	492.66
37.9239	487.38
37.9383	496.45
37.9528	554.37
37.9672	505.05
37.9816	498.35
37.9961	514.60
38.0105	482.73
38.0250	556.32
38.0394	548.41
38.0538	512.92
38.0683	520.72
38.0827	553.82
38.0972	522.85
38.1116	461.76
38.1260	508.48
38.1405	513.26
38.1549	501.95
38.1694	489.38
38.1838	518.44
38.1982	491.37
38.2127	489.05
38.2271	471.41
38.2416	521.10
38.2560	485.95
38.2704	501.73
38.2849	527.48
38.2993	475.94
38.3138	470.69
38.3282	512.97
38.3426	497.29
38.3571	510.26
38.3715	522.81
38.3860	519.31
38.4004	539.63
38.4148	570.00
38.4293	580.28
38.4437	589.05
38.4582	594.54
38.4726	643.69
38.4870	678.65
38.5015	715.51
38.5159	781.91
38.5304	799.87
38.5448	784.41
38.5592	755.02
38.5737	764.81
38.5881	745.39
38.6026	688.37
38.6170	669.13
38.6314	735.51
38.6459	654.03
38.6603	590.87
38.6748	609.93
38.6892	581.39
38.7036	570.45
38.7181	565.25
38.7325	514.29
38.7470	528.18
38.7614	522.88
38.7758	505.96
38.7903	524.98
38.8047	532.45
38.8192	524.88
38.8336	496.06
38.8480	492.27
38.8625	520.96
38.8769	529.16
38.8914	477.47
38.9058	518.43
38.9202	507.32
38.9347	505.17
38.9491	538.50
38.9636	516.33
38.9780	480.33
38.9924	499.28
39.0069	507.59
39.0213	492.86
39.0358	489.58
39.0502	494.81
39.0646	506.34
39.0791	511.99
39.0935	500.46
39.1080	481.72
39.1224	493.06
39.1368	487.37
39.1513	484.77
39.1657	516.82
39.1802	469.90
39.1946	481.08
39.2090	519.21
39.2235	524.47
39.2379	504.03
39.2524	490.64
39.2668	471.50
39.2812	499.65
39.2957	513.74
39.3101	505.07
39.3246	516.80
39.3390	519.04
39.3534	501.96
39.3679	467.22
39.3823	492.19
39.3968	509.58
39.4112	504.15
39.4256	537.47
39.4401	514.44
39.4545	491.42
39.4690	516.75
39.4834	490.21
39.4978	532.81
39.5123	499.93
39.5267	476.47
39.5412	516.03
39.5556	490.43
39.5700	485.80
39.5845	492.69
39.5989	528.11
39.6134	507.69
39.6278	523.94
39.6422	488.69
39.6567	479.48
39.6711	479.02
39.6856	531.02
39.7000	504.55
39.7144	504.40
39.7289	462.50
39.7433	483.82
39.7578	475.58
39.7722	506.35
39.7866	494.88
39.8011	467.45
39.8155	515.74
39.8300	523.56
39.8444	488.53
39.8588	499.91
39.8733	503.16
39.8877	494.25
39.9022	512.08
39.9166	509.44
39.9310	482.98
39.9455	492.83
39.9599	460.33
39.9744	460.59
39.9888	478.08
40.0032	480.41
40.0177	489.41
40.0321	502.17
40.0466	498.18
40.0610	501.29
40.0754	493.78
40.0899	535.30
40.1043	504.53
40.1188	505.99
40.1332	527.75
40.1476	485.03
40.1621	539.46
40.1765	523.33
40.1910	493.32
40.2054	491.49
40.2198	491.20
40.2343	498.56
40.2487	512.48
40.2632	505.81
40.2776	502.88
40.2920	474.37
40.3065	489.83
40.3209	494.03
40.3354	515.39
40.3498	482.22
40.3642	464.67
40.3787	476.83
40.3931	467.24
40.4076	492.66
40.4220	489.98
40.4364	483.61
40.4509	468.78
40.4653	527.37
40.4798	541.53
40.4942	517.65
40.5086	508.45
40.5231	489.72
40.5375	489.70
40.5520	467.94
40.5664	469.87
40.5808	501.43
40.5953	471.24
40.6097	479.82
40.6242	494.25
40.6386	524.49
40.6530	487.17
40.6675	473.88
40.6819	466.74
40.6964	519.90
40.7108	496.07
40.7252	526.86
40.7397	518.42
40.7541	479.55
40.7686	491.48
40.7830	500.32
40.7974	490.08
40.8119	477.75
40.8263	482.97
40.8408	503.64
40.8552	523.01
40.8696	515.32
40.8841	536.16
40.8985	541.56
40.9130	501.43
40.9274	507.58
40.9418	512.88
40.9563	469.57
40.9707	492.81
40.9852	496.67
40.9996	532.62
41.0140	484.88
41.0285	499.23
41.0429	481.68
41.0574	481.52
41.0718	503.33
41.0862	518.90
41.1007	510.70
41.1151	520.22
41.1296	472.71
41.1440	484.88
41.1584	493.79
41.1729	488.13
41.1873	485.43
41.2018	509.93
41.2162	514.82
41.2306	513.25
41.2451	486.06
41.2595	510.09
41.2740	498.72
41.2884	501.63
41.3028	488.14
41.3173	494.94
41.3317	510.23
41.3462	486.53
41.3606	511.88
41.3750	462.48
41.3895	476.28
41.4039	507.61
41.4184	512.76
41.4328	515.29
41.4472	511.74
41.4617	514.90
41.4761	513.57
41.4906	494.99
41.5050	495.45
41.5194	499.32
41.5339	481.08
41.5483	477.42
41.5628	472.83
41.5772	478.39
41.5916	482.99
41.6061	478.89
41.6205	487.99
41.6350	518.27
41.6494	523.59
41.6639	489.28
41.6783	509.98
41.6927	476.39
41.7072	470.08
41.7216	492.69
41.7361	490.38
41.7505	514.78
41.7649	502.93
41.7794	500.96
41.7938	516.24
41.8083	537.48
41.8227	518.10
41.8371	506.28
41.8516	509.76
41.8660	539.80
41.8805	534.13
41.8949	571.80
41.9093	556.70
41.9238	566.15
41.9382	565.13
41.9527	564.43
41.9671	542.96
41.9815	544.20
41.9960	545.42
42.0104	522.88
42.0249	574.23
42.0393	564.83
42.0537	582.03
42.0682	571.59
42.0826	569.76
42.0971	584.28
42.1115	575.88
42.1259	606.75
42.1404	587.09
42.1548	599.75
42.1693	616.94
42.1837	708.66
42.1981	771.07
42.2126	842.64
42.2270	946.09
42.2415	1062.79
42.2559	1226.22
42.2703	1325.49
42.2848	1465.99
42.2992	1589.52
42.3137	1644.42
42.3281	1647.88
42.3425	1625.63
42.3570	1506.58
42.3714	1437.87
42.3859	1344.56
42.4003	1321.77
42.4147	1299.51
42.4292	1309.70
42.4436	1129.02
42.4581	1005.91
42.4725	930.65
42.4869	797.62
42.5014	726.79
42.5158	694.39
42.5303	707.13
42.5447	656.60
42.5591	604.74
42.5736	616.45
42.5880	578.02
42.6025	589.01
42.6169	560.69
42.6313	556.29
42.6458	561.32
42.6602	534.58
42.6747	570.59
42.6891	532.90
42.7035	509.63
42.7180	509.78
42.7324	529.46
42.7469	520.77
42.7613	524.26
42.7757	544.44
42.7902	544.00
42.8046	524.01
42.8191	530.15
42.8335	558.00
42.8479	507.75
42.8624	493.98
42.8768	475.96
42.8913	503.30
42.9057	544.15
42.9201	523.32
42.9346	536.72
42.9490	522.34
42.9635	534.91
42.9779	524.74
42.9923	521.41
43.0068	519.18
43.0212	534.95
43.0357	528.52
43.0501	498.93
43.0645	494.76
43.0790	493.83
43.0934	529.48
43.1079	507.69
43.1223	516.31
43.1367	487.67
43.1512	511.26
43.1656	530.00
43.1801	509.98
43.1945	522.14
43.2089	502.40
43.2234	511.18
43.2378	565.51
43.2523	515.08
43.2667	528.86
43.2811	513.10
43.2956	498.45
43.3100	540.74
43.3245	532.98
43.3389	544.83
43.3533	508.91
43.3678	526.55
43.3822	491.08
43.3967	474.41
43.4111	523.82
43.4255	515.25
43.4400	504.51
43.4544	503.04
43.4689	494.03
43.4833	548.33
43.4977	538.82
43.5122	498.43
43.5266	526.12
43.5411	512.95
43.5555	528.75
43.5699	531.78
43.5844	499.81
43.5988	522.49
43.6133	482.65
43.6277	502.42
43.6421	537.13
43.6566	542.04
43.6710	509.25
43.6855	502.08
43.6999	513.55
43.7143	535.16
43.7288	522.85
43.7432	515.09
43.7577	546.93
43.7721	508.16
43.7865	528.57
43.8010	507.30
43.8154	514.38
43.8299	506.34
43.8443	515.95
43.8587	530.67
43.8732	478.32
43.8876	528.06
43.9021	537.29
43.9165	528.37
43.9309	468.86
43.9454	525.79
43.9598	511.53
43.9743	495.46
43.9887	497.91
44.0031	526.19
44.0176	548.70
44.0320	522.13
44.0465	511.71
44.0609	576.26
44.0753	526.59
44.0898	538.24
44.1042	553.92
44.1187	554.28
44.1331	589.35
44.1475	577.30
44.1620	599.39
44.1764	621.92
44.1909	576.89
44.2053	595.65
44.2197	636.57
44.2342	658.70
44.2486	635.19
44.2631	607.67
44.2775	606.36
44.2919	608.95
44.3064	585.25
44.3208	613.65
44.3353	614.62
44.3497	588.67
44.3641	558.95
44.3786	584.78
44.3930	581.97
44.4075	577.36
44.4219	583.07
44.4363	608.44
44.4508	565.81
44.4652	632.18
44.4797	611.36
44.4941	578.28
44.5085	581.47
44.5230	596.16
44.5374	581.69
44.5519	580.52
44.5663	576.75
44.5807	571.75
44.5952	563.14
44.6096	551.71
44.6241	545.27
44.6385	566.57
44.6529	612.49
44.6674	617.45
44.6818	572.51
44.6963	595.02
44.7107	658.45
44.7251	656.97
44.7396	741.77
44.7540	815.62
44.7685	861.96
44.7829	923.88
44.7973	868.68
44.8118	847.92
44.8262	777.90
44.8407	744.16
44.8551	746.94
44.8695	781.57
44.8840	741.58
44.8984	734.16
44.9129	675.03
44.9273	693.21
44.9417	646.22
44.9562	608.41
44.9706	588.07
44.9851	593.92
44.9995	504.75
45.0139	518.21
45.0284	580.90
45.0428	555.59
45.0573	554.35
45.0717	588.53
45.0861	547.62
45.1006	535.46
45.1150	537.04
45.1295	523.15
45.1439	510.52
45.1583	516.84
45.1728	538.44
45.1872	522.37
45.2017	510.04
45.2161	525.27
45.2305	500.09
45.2450	513.86
45.2594	492.96
45.2739	527.39
45.2883	532.52
45.3028	508.34
45.3172	528.31
45.3316	508.07
45.3461	515.67
45.3605	478.28
45.3750	508.51
45.3894	537.50
45.4038	532.07
45.4183	506.03
45.4327	531.88
45.4472	498.42
45.4616	492.51
45.4760	516.64
45.4905	525.14
45.5049	467.72
45.5194	489.43
45.5338	502.74
45.5482	525.65
45.5627	538.81
45.5771	525.40
45.5916	503.34
45.6060	504.92
45.6204	523.55
45.6349	492.01
45.6493	506.83
45.6638	531.07
45.6782	521.35
45.6926	487.42
45.7071	503.85
45.7215	485.86
45.7360	492.05
45.7504	518.22
45.7648	517.87
45.7793	491.52
45.7937	483.46
45.8082	534.73
45.8226	541.66
45.8370	540.65
45.8515	516.76
45.8659	557.40
45.8804	497.26
45.8948	557.52
45.9092	509.01
45.9237	490.80
45.9381	502.05
45.9526	464.03
45.9670	470.37
45.9814	483.97
45.9959	479.38
46.0103	483.33
46.0248	510.19
46.0392	486.62
46.0536	464.52
46.0681	500.21
46.0825	509.29
46.0970	529.79
46.1114	506.04
46.1258	481.78
46.1403	482.78
46.1547	518.61
46.1692	497.61
46.1836	501.95
46.1980	501.23
46.2125	498.90
46.2269	518.71
46.2414	523.20
46.2558	477.80
46.2702	519.05
46.2847	524.83
46.2991	483.34
46.3136	479.76
46.3280	512.58
46.3424	516.51
46.3569	494.92
46.3713	490.90
46.3858	476.90
46.4002	493.06
46.4146	485.23
46.4291	507.13
46.4435	500.33
46.4580	495.28
46.4724	520.18
46.4868	531.56
46.5013	475.02
46.5157	475.91
46.5302	500.71
46.5446	517.34
46.5590	506.13
46.5735	499.82
46.5879	502.03
46.6024	464.26
46.6168	482.06
46.6312	496.25
46.6457	497.96
46.6601	486.77
46.6746	502.96
46.6890	505.83
46.7034	508.91
46.7179	519.33
46.7323	494.66
46.7468	498.89
46.7612	524.73
46.7756	508.32
46.7901	527.35
46.8045	518.10
46.8190	508.49
46.8334	508.01
46.8478	509.09
46.8623	517.59
46.8767	513.94
46.8912	505.27
46.9056	506.24
46.9200	514.16
46.9345	514.11
46.9489	518.06
46.9634	503.51
46.9778	483.18
46.9922	481.47
47.0067	507.99
47.0211	563.17
47.0356	542.08
47.0500	521.52
47.0644	520.17
47.0789	478.62
47.0933	512.34
47.1078	505.97
47.1222	530.73
47.1366	510.37
47.1511	466.83
47.1655	489.79
47.1800	518.31
47.1944	512.74
47.2088	509.88
47.2233	546.57
47.2377	496.22
47.2522	491.91
47.2666	499.21
47.2810	517.18
47.2955	495.54
47.3099	515.42
47.3244	520.27
47.3388	522.99
47.3532	495.86
47.3677	484.13
47.3821	499.35
47.3966	509.05
47.4110	550.19
47.4254	551.57
47.4399	545.33
47.4543	531.93
47.4688	527.48
47.4832	513.12
47.4976	499.94
47.5121	513.30
47.5265	497.96
47.5410	491.07
47.5554	512.84
47.5698	533.04
47.5843	511.62
47.5987	518.22
47.6132	511.99
47.6276	507.23
47.6420	498.34
47.6565	497.93
47.6709	482.39
47.6854	477.84
47.6998	480.69
47.7142	548.40
47.7287	482.21
47.7431	501.86
47.7576	530.70
47.7720	491.31
47.7864	504.56
47.8009	493.98
47.8153	514.09
47.8298	490.89
47.8442	486.09
47.8586	508.22
47.8731	490.70
47.8875	487.93
47.9020	516.01
47.9164	511.44
47.9308	501.79
47.9453	516.05
47.9597	518.26
47.9742	523.08
47.9886	527.55
48.0030	499.77
48.0175	479.53
48.0319	497.64
48.0464	510.36
48.0608	504.14
48.0752	501.26
48.0897	520.04
48.1041	486.85
48.1186	532.50
48.1330	519.71
48.1474	482.44
48.1619	522.42
48.1763	520.79
48.1908	491.12
48.2052	474.64
48.2196	514.06
48.2341	506.81
48.2485	513.88
48.2630	468.99
48.2774	516.61
48.2918	530.85
48.3063	498.05
48.3207	495.60
48.3352	483.36
48.3496	495.81
48.3640	494.07
48.3785	529.31
48.3929	501.26
48.4074	471.23
48.4218	519.57
48.4362	544.83
48.4507	513.08
48.4651	535.89
48.4796	544.75
48.4940	502.49
48.5084	496.32
48.5229	507.82
48.5373	508.85
48.5518	503.79
48.5662	502.71
48.5806	516.82
48.5951	523.75
48.6095	510.85
48.6240	469.60
48.6384	523.08
48.6528	529.52
48.6673	523.91
48.6817	536.94
48.6962	517.22
48.7106	493.74
48.7250	513.40
48.7395	485.13
48.7539	498.69
48.7684	492.36
48.7828	491.27
48.7972	516.97
48.8117	533.72
48.8261	499.59
48.8406	499.73
48.8550	535.84
48.8694	525.92
48.8839	544.17
48.8983	559.60
48.9128	529.19
48.9272	574.25
48.9416	532.73
48.9561	537.02
48.9705	549.97
48.9850	550.60
48.9994	585.13
49.0139	600.61
49.0283	625.49
49.0427	616.86
49.0572	618.57
49.0716	657.21
49.0861	632.55
49.1005	696.38
49.1149	687.92
49.1294	676.56
49.1438	736.83
49.1583	797.24
49.1727	849.00
49.1871	888.39
49.2016	949.57
49.2160	1082.39
49.2305	1133.93
49.2449	1173.76
49.2593	1313.62
49.2738	1342.88
49.2882	1431.43
49.3027	1559.34
49.3171	1599.89
49.3315	1707.83
49.3460	1744.70
49.3604	1781.20
49.3749	1798.14
49.3893	1788.38
49.4037	1758.78
49.4182	1789.66
49.4326	1762.35
49.4471	1695.91
49.4615	1644.61
49.4759	1618.89
49.4904	1528.44
49.5048	1393.22
49.5193	1339.22
49.5337	1295.68
49.5481	1213.16
49.5626	1134.60
49.5770	1050.21
49.5915	1001.46
49.6059	934.04
49.6203	893.09
49.6348	851.74
49.6492	805.55
49.6637	752.33
49.6781	704.62
49.6925	676.82
49.7070	674.55
49.7214	679.54
49.7359	617.93
49.7503	599.14
49.7647	569.76
49.7792	627.54
49.7936	569.92
49.8081	569.87
49.8225	566.04
49.8369	581.90
49.8514	610.93
49.8658	572.00
49.8803	519.80
49.8947	532.86
49.9091	549.74
49.9236	522.40
49.9380	525.29
49.9525	533.81
49.9669	535.67
49.9813	539.22
49.9958	554.31
50.0102	519.44
50.0247	480.14
50.0391	504.15
50.0535	519.46
50.0680	490.56
50.0824	522.30
50.0969	533.32
50.1113	551.44
50.1257	545.75
50.1402	529.81
50.1546	529.99
50.1691	552.44
50.1835	520.33
50.1979	481.67
50.2124	509.98
50.2268	517.34
50.2413	520.33
50.2557	515.14
50.2701	487.81
50.2846	536.58
50.2990	506.25
50.3135	525.20
50.3279	528.86
50.3423	548.82
50.3568	527.38
50.3712	522.83
50.3857	500.30
50.4001	502.51
50.4145	486.88
50.4290	480.34
50.4434	494.08
50.4579	508.25
50.4723	519.63
50.4867	506.68
50.5012	485.34
50.5156	500.03
50.5301	509.03
50.5445	530.03
50.5589	509.60
50.5734	519.28
50.5878	545.72
50.6023	496.99
50.6167	496.22
50.6311	510.63
50.6456	506.89
50.6600	504.29
50.6745	520.37
50.6889	520.02
50.7033	523.39
50.7178	522.17
50.7322	460.23
50.7467	489.67
50.7611	511.38
50.7755	537.08
50.7900	540.99
50.8044	531.33
50.8189	499.68
50.8333	509.27
50.8477	518.09
50.8622	530.07
50.8766	506.54
50.8911	523.90
50.9055	521.56
50.9199	513.89
50.9344	525.06
50.9488	499.25
50.9633	509.72
50.9777	538.97
50.9921	535.53
51.0066	496.14
51.0210	516.33
51.0355	541.46
51.0499	498.02
51.0643	516.44
51.0788	531.09
51.0932	519.04
51.1077	531.55
51.1221	499.03
51.1365	486.61
51.1510	512.12
51.1654	508.16
51.1799	494.97
51.1943	503.40
51.2087	520.49
51.2232	510.42
51.2376	477.30
51.2521	511.06
51.2665	509.71
51.2809	496.39
51.2954	495.85
51.3098	526.33
51.3243	516.28
51.3387	480.41
51.3531	479.71
51.3676	492.71
51.3820	483.16
51.3965	500.93
51.4109	556.83
51.4253	520.99
51.4398	478.04
51.4542	508.40
51.4687	517.10
51.4831	509.53
51.4975	511.09
51.5120	536.84
51.5264	527.48
51.5409	501.30
51.5553	529.93
51.5697	505.31
51.5842	509.32
51.5986	506.34
51.6131	501.14
51.6275	489.50
51.6419	491.85
51.6564	505.72
51.6708	492.32
51.6853	492.58
51.6997	534.45
51.7141	506.70
51.7286	499.98
51.7430	514.23
51.7575	511.86
51.7719	508.48
51.7863	511.68
51.8008	503.81
51.8152	535.20
51.8297	529.62
51.8441	508.54
51.8585	473.44
51.8730	512.27
51.8874	502.57
51.9019	547.21
51.9163	502.89
51.9307	501.04
51.9452	542.76
51.9596	488.88
51.9741	487.87
51.9885	513.31
52.0029	521.54
52.0174	505.80
52.0318	514.93
52.0463	490.29
52.0607	534.73
52.0751	499.26
52.0896	553.45
52.1040	500.70
52.1185	523.45
52.1329	495.80
52.1473	479.96
52.1618	491.51
52.1762	492.53
52.1907	497.26
52.2051	520.11
52.2195	511.01
52.2340	486.16
52.2484	526.93
52.2629	523.48
52.2773	514.06
52.2917	533.41
52.3062	510.12
52.3206	520.41
52.3351	513.06
52.3495	518.22
52.3639	523.96
52.3784	538.14
52.3928	513.38
52.4073	507.72
52.4217	506.77
52.4361	535.24
52.4506	504.30
52.4650	524.60
52.4795	508.18
52.4939	545.56
52.5083	500.10
52.5228	547.32
52.5372	520.44
52.5517	527.39
52.5661	535.67
52.5805	501.18
52.5950	499.26
52.6094	497.67
52.6239	542.80
52.6383	503.72
52.6527	505.01
52.6672	524.02
52.6816	481.47
52.6961	507.51
52.7105	548.28
52.7250	499.24
52.7394	505.59
52.7538	524.35
52.7683	531.82
52.7827	507.31
52.7972	498.14
52.8116	550.71
52.8260	509.67
52.8405	545.04
52.8549	540.51
52.8694	489.20
52.8838	500.87
52.8982	530.75
52.9127	525.61
52.9271	527.51
52.9416	498.98
52.9560	509.40
52.9704	525.97
52.9849	512.33
52.9993	485.91
53.0138	504.75
53.0282	502.63
53.0426	492.76
53.0571	496.09
53.0715	520.20
53.0860	526.93
53.1004	527.90
53.1148	548.54
53.1293	525.77
53.1437	483.91
53.1582	513.24
53.1726	502.11
53.1870	478.68
53.2015	479.80
53.2159	547.10
53.2304	506.19
53.2448	539.10
53.2592	545.54
53.2737	516.00
53.2881	519.26
53.3026	470.93
53.3170	491.54
53.3314	518.31
53.3459	471.53
53.3603	471.14
53.3748	490.77
53.3892	526.73
53.4036	510.16
53.4181	496.56
53.4325	512.81
53.4470	490.29
53.4614	497.41
53.4758	533.82
53.4903	545.52
53.5047	523.91
53.5192	501.30
53.5336	547.15
53.5480	539.26
53.5625	499.27
53.5769	507.62
53.5914	522.31
53.6058	531.20
53.6202	538.93
53.6347	555.17
53.6491	538.95
53.6636	506.80
53.6780	524.24
53.6924	501.79
53.7069	518.00
53.7213	498.15
53.7358	523.31
53.7502	517.26
53.7646	487.42
53.7791	496.58
53.7935	486.07
53.8080	524.91
53.8224	516.45
53.8368	476.60
53.8513	508.09
53.8657	541.51
53.8802	503.96
53.8946	507.45
53.9090	514.33
53.9235	525.98
53.9379	540.01
53.9524	524.78
53.9668	529.31
53.9812	518.15
53.9957	516.13
54.0101	516.81
54.0246	511.76
54.0390	547.20
54.0534	549.28
54.0679	524.73
54.0823	535.26
54.0968	524.00
54.1112	523.34
54.1256	530.84
54.1401	515.32
54.1545	485.97
54.1690	526.40
54.1834	529.44
54.1978	485.28
54.2123	503.58
54.2267	507.83
54.2412	504.13
54.2556	517.82
54.2700	511.72
54.2845	527.23
54.2989	506.26
54.3134	531.37
54.3278	533.10
54.3422	550.14
54.3567	545.83
54.3711	530.92
54.3856	497.14
54.4000	511.69
54.4144	522.83
54.4289	524.47
54.4433	487.95
54.4578	506.03
54.4722	525.97
54.4866	555.98
54.5011	514.53
54.5155	543.08
54.5300	518.99
54.5444	527.79
54.5588	522.03
54.5733	520.18
54.5877	540.11
54.6022	536.12
54.6166	546.68
54.6310	540.31
54.6455	544.74
54.6599	540.26
54.6744	505.36
54.6888	545.48
54.7032	556.42
54.7177	575.25
54.7321	541.20
54.7466	563.87
54.7610	566.39
54.7754	570.10
54.7899	572.39
54.8043	553.64
54.8188	568.89
54.8332	556.15
54.8476	575.63
54.8621	588.23
54.8765	587.17
54.8910	556.61
54.9054	591.84
54.9198	599.26
54.9343	605.09
54.9487	591.71
54.9632	596.01
54.9776	557.40
54.9920	568.50
55.0065	576.63
55.0209	582.35
55.0354	542.30
55.0498	543.45
55.0642	566.44
55.0787	559.78
55.0931	549.09
55.1076	524.15
55.1220	523.99
55.1364	555.67
55.1509	558.88
55.1653	560.07
55.1798	524.83
55.1942	508.48
55.2086	542.90
55.2231	540.34
55.2375	515.41
55.2520	518.99
55.2664	506.94
55.2808	507.34
55.2953	509.77
55.3097	545.20
55.3242	542.54
55.3386	516.67
55.3530	530.50
55.3675	516.16
55.3819	497.66
55.3964	497.33
55.4108	528.44
55.4252	543.20
55.4397	499.23
55.4541	498.55
55.4686	513.98
55.4830	521.69
55.4974	521.07
55.5119	504.27
55.5263	499.54
55.5408	524.42
55.5552	558.10
55.5696	508.58
55.5841	528.93
55.5985	547.73
55.6130	531.61
55.6274	515.95
55.6418	547.21
55.6563	520.75
55.6707	515.68
55.6852	514.47
55.6996	534.28
55.7140	539.39
55.7285	548.45
55.7429	530.07
55.7574	517.80
55.7718	488.04
55.7862	516.62
55.8007	518.52
55.8151	539.41
55.8296	531.81
55.8440	526.22
55.8584	520.36
55.8729	518.06
55.8873	546.31
55.9018	535.85
55.9162	541.92
55.9306	515.07
55.9451	535.73
55.9595	530.10
55.9740	539.55
55.9884	518.43
56.0028	518.57
56.0173	555.80
56.0317	552.19
56.0462	522.85
56.0606	541.21
56.0750	502.22
56.0895	518.76
56.1039	541.37
56.1184	525.63
56.1328	538.26
56.1472	515.95
56.1617	509.50
56.1761	522.96
56.1906	483.59
56.2050	491.54
56.2194	525.74
56.2339	520.30
56.2483	530.17
56.2628	501.14
56.2772	505.45
56.2916	506.07
56.3061	521.48
56.3205	545.16
56.3350	487.40
56.3494	493.65
56.3639	514.68
56.3783	519.53
56.3927	497.33
56.4072	509.59
56.4216	512.90
56.4361	517.13
56.4505	510.57
56.4649	524.78
56.4794	511.38
56.4938	515.82
56.5083	513.35
56.5227	501.46
56.5371	515.37
56.5516	549.94
56.5660	534.00
56.5805	522.47
56.5949	532.31
56.6093	519.62
56.6238	524.95
56.6382	528.05
56.6527	530.24
56.6671	506.95
56.6815	517.48
56.6960	527.66
56.7104	527.89
56.7249	526.49
56.7393	548.63
56.7537	533.01
56.7682	500.29
56.7826	529.14
56.7971	516.45
56.8115	521.20
56.8259	522.65
56.8404	513.73
56.8548	523.72
56.8693	535.11
56.8837	502.50
56.8981	546.26
56.9126	546.75
56.9270	530.69
56.9415	543.13
56.9559	511.29
56.9703	524.27
56.9848	507.63
56.9992	518.11
57.0137	520.19
57.0281	521.91
57.0425	509.22
57.0570	521.14
57.0714	519.18
57.0859	536.53
57.1003	526.88
57.1147	542.02
57.1292	528.83
57.1436	523.59
57.1581	557.84
57.1725	559.03
57.1869	548.86
57.2014	528.69
57.2158	524.12
57.2303	552.41
57.2447	535.04
57.2591	493.66
57.2736	535.79
57.2880	529.69
57.3025	508.58
57.3169	520.72
57.3313	519.81
57.3458	502.52
57.3602	528.85
57.3747	511.27
57.3891	522.30
57.4035	516.34
57.4180	520.89
57.4324	526.78
57.4469	480.47
57.4613	500.50
57.4757	517.78
57.4902	505.62
57.5046	529.29
57.5191	533.51
57.5335	513.32
57.5479	517.55
57.5624	516.07
57.5768	557.08
57.5913	577.08
57.6057	557.07
57.6201	533.08
57.6346	559.80
57.6490	490.54
57.6635	535.71
57.6779	494.19
57.6923	513.09
57.7068	565.04
57.7212	541.80
57.7357	502.38
57.7501	526.71
57.7645	489.56
57.7790	509.71
57.7934	526.46
57.8079	557.57
57.8223	569.61
57.8367	541.78
57.8512	513.68
57.8656	531.42
57.8801	527.30
57.8945	557.15
57.9089	550.26
57.9234	524.68
57.9378	543.97
57.9523	512.62
57.9667	551.03
57.9811	524.69
57.9956	529.07
58.0100	516.64
58.0245	520.48
58.0389	535.32
58.0533	534.54
58.0678	552.12
58.0822	535.56
58.0967	554.85
58.1111	558.38
58.1255	591.08
58.1400	546.41
58.1544	502.13
58.1689	553.44
58.1833	541.25
58.1977	536.97
58.2122	543.92
58.2266	550.65
58.2411	547.77
58.2555	557.73
58.2699	557.74
58.2844	570.09
58.2988	585.91
58.3133	554.52
58.3277	590.19
58.3421	612.30
58.3566	585.09
58.3710	558.91
58.3855	561.32
58.3999	611.24
58.4143	661.01
58.4288	634.19
58.4432	631.46
58.4577	653.45
58.4721	655.64
58.4865	668.56
58.5010	655.48
58.5154	634.78
58.5299	631.72
58.5443	627.55
58.5587	627.89
58.5732	660.73
58.5876	640.85
58.6021	612.89
58.6165	619.92
58.6309	621.38
58.6454	589.76
58.6598	582.78
58.6743	581.92
58.6887	593.80
58.7031	604.87
58.7176	578.34
58.7320	572.40
58.7465	611.18
58.7609	586.90
58.7753	532.42
58.7898	543.71
58.8042	542.25
58.8187	601.22
58.8331	564.61
58.8475	546.69
58.8620	583.31
58.8764	560.48
58.8909	554.17
58.9053	587.25
58.9197	583.14
58.9342	534.19
58.9486	574.31
58.9631	547.52
58.9775	553.10
58.9919	567.57
59.0064	585.09
59.0208	548.69
59.0353	550.63
59.0497	553.07
59.0641	548.16
59.0786	544.98
59.0930	573.24
59.1075	578.99
59.1219	567.24
59.1363	538.84
59.1508	511.95
59.1652	528.18
59.1797	552.62
59.1941	539.21
59.2085	534.42
59.2230	523.87
59.2374	547.39
59.2519	538.32
59.2663	539.98
59.2807	540.48
59.2952	559.84
59.3096	539.57
59.3241	539.74
59.3385	573.77
59.3529	551.93
59.3674	535.06
59.3818	546.93
59.3963	565.16
59.4107	569.08
59.4251	558.32
59.4396	558.72
59.4540	563.15
59.4685	566.25
59.4829	546.10
59.4973	561.27
59.5118	556.70
59.5262	556.65
59.5407	552.95
59.5551	564.02
59.5695	556.07
59.5840	556.03
59.5984	586.63
59.6129	559.34
59.6273	499.21
59.6417	521.43
59.6562	570.03
59.6706	531.87
59.6851	551.62
59.6995	560.17
59.7139	552.01
59.7284	516.52
59.7428	527.72
59.7573	557.94
59.7717	530.85
59.7861	500.12
59.8006	511.13
59.8150	546.94
59.8295	554.74
59.8439	523.16
59.8583	557.31
59.8728	527.22
59.8872	515.16
59.9017	490.92
59.9161	524.48
59.9305	513.64
59.9450	527.24
59.9594	530.70
59.9739	540.47
59.9883	500.57
60.0027	546.07
60.0172	578.35
60.0316	560.44
60.0461	518.28
60.0605	491.72
60.0750	525.10
60.0894	564.61
60.1038	554.85
60.1183	496.87
60.1327	533.61
60.1472	492.00
60.1616	548.96
60.1760	546.84
60.1905	564.20
60.2049	517.16
60.2194	546.51
60.2338	527.43
60.2482	507.33
60.2627	504.39
60.2771	542.68
60.2916	506.89
60.3060	565.43
60.3204	556.03
60.3349	559.77
60.3493	573.38
60.3638	532.44
60.3782	539.99
60.3926	533.45
60.4071	538.52
60.4215	528.74
60.4360	538.31
60.4504	549.79
60.4648	520.08
60.4793	561.01
60.4937	555.39
60.5082	529.66
60.5226	511.77
60.5370	516.37
60.5515	527.19
60.5659	557.48
60.5804	559.57
60.5948	543.83
60.6092	563.24
60.6237	532.84
60.6381	564.28
60.6526	524.05
60.6670	530.20
60.6814	501.80
60.6959	494.79
60.7103	538.95
60.7248	535.29
60.7392	575.92
60.7536	556.58
60.7681	533.62
60.7825	541.36
60.7970	500.46
60.8114	566.28
60.8258	553.64
60.8403	521.18
60.8547	526.59
60.8692	545.07
60.8836	524.33
60.8980	564.93
60.9125	551.14
60.9269	537.54
60.9414	520.47
60.9558	539.42
60.9702	517.94
60.9847	574.04
60.9991	551.92
61.0136	548.26
61.0280	588.83
61.0424	600.97
61.0569	516.80
61.0713	532.19
61.0858	581.79
61.1002	546.39
61.1146	542.89
61.1291	529.36
61.1435	513.39
61.1580	556.46
61.1724	555.39
61.1868	562.44
61.2013	556.98
61.2157	561.82
61.2302	535.72
61.2446	532.34
61.2590	507.47
61.2735	520.14
61.2879	522.85
61.3024	525.30
61.3168	498.03
61.3312	507.40
61.3457	545.35
61.3601	534.19
61.3746	528.56
61.3890	537.86
61.4034	543.49
61.4179	549.36
61.4323	584.90
61.4468	545.48
61.4612	578.45
61.4756	535.66
61.4901	587.15
61.5045	543.61
61.5190	548.53
61.5334	555.77
61.5478	528.78
61.5623	541.20
61.5767	528.73
61.5912	565.82
61.6056	544.13
61.6200	560.64
61.6345	558.54
61.6489	530.75
61.6634	548.58
61.6778	552.39
61.6922	553.29
61.7067	557.87
61.7211	559.65
61.7356	501.66
61.7500	554.62
61.7644	574.89
61.7789	556.85
61.7933	552.41
61.8078	564.65
61.8222	569.23
61.8366	550.68
61.8511	553.36
61.8655	561.81
61.8800	520.79
61.8944	542.87
61.9088	547.16
61.9233	575.43
61.9377	558.49
61.9522	517.44
61.9666	513.29
61.9810	535.18
61.9955	572.07
62.0099	555.91
62.0244	564.52
62.0388	558.98
62.0532	523.82
62.0677	586.40
62.0821	607.41
62.0966	547.72
62.1110	560.56
62.1254	586.70
62.1399	570.91
62.1543	549.40
62.1688	531.40
62.1832	536.35
62.1976	534.02
62.2121	566.63
62.2265	574.18
62.2410	583.03
62.2554	558.62
62.2698	544.55
62.2843	514.46
62.2987	544.47
62.3132	574.04
62.3276	576.68
62.3420	551.47
62.3565	556.37
62.3709	523.06
62.3854	543.04
62.3998	558.62
62.4142	545.69
62.4287	562.48
62.4431	534.44
62.4576	554.81
62.4720	590.74
62.4864	569.96
62.5009	565.87
62.5153	560.23
62.5298	553.52
62.5442	548.81
62.5586	524.19
62.5731	538.91
62.5875	539.33
62.6020	550.61
62.6164	556.26
62.6308	551.39
62.6453	580.30
62.6597	582.42
62.6742	575.83
62.6886	556.99
62.7030	570.23
62.7175	584.09
62.7319	557.85
62.7464	586.44
62.7608	529.09
62.7752	571.78
62.7897	594.79
62.8041	545.09
62.8186	541.93
62.8330	540.52
62.8474	531.01
62.8619	559.50
62.8763	563.96
62.8908	559.85
62.9052	611.52
62.9196	563.44
62.9341	549.27
62.9485	570.25
62.9630	551.32
62.9774	545.63
62.9918	559.15
63.0063	569.40
63.0207	586.88
63.0352	571.13
63.0496	579.28
63.0640	573.56
63.0785	593.67
63.0929	589.09
63.1074	566.21
63.1218	554.94
63.1362	556.93
63.1507	537.82
63.1651	589.00
63.1796	589.78
63.1940	561.18
63.2084	551.86
63.2229	583.67
63.2373	605.33
63.2518	578.34
63.2662	550.14
63.2806	565.53
63.2951	544.19
63.3095	560.42
63.3240	556.22
63.3384	577.94
63.3528	607.96
63.3673	585.32
63.3817	584.56
63.3962	587.17
63.4106	586.79
63.4250	546.37
63.4395	535.23
63.4539	551.09
63.4684	578.75
63.4828	585.52
63.4972	575.64
63.5117	567.06
63.5261	572.93
63.5406	577.39
63.5550	557.49
63.5694	568.15
63.5839	563.74
63.5983	564.84
63.6128	568.21
63.6272	582.12
63.6416	574.33
63.6561	572.36
63.6705	586.04
63.6850	606.80
63.6994	594.63
63.7138	608.27
63.7283	584.31
63.7427	576.60
63.7572	567.63
63.7716	573.08
63.7861	616.28
63.8005	616.61
63.8149	583.21
63.8294	581.79
63.8438	566.26
63.8583	601.73
63.8727	610.14
63.8871	594.70
63.9016	617.55
63.9160	599.17
63.9305	619.16
63.9449	627.78
63.9593	604.28
63.9738	613.12
63.9882	631.05
64.0027	638.24
64.0171	646.25
64.0315	679.10
64.0460	665.39
64.0604	632.70
64.0749	689.24
64.0893	629.13
64.1037	654.42
64.1182	706.96
64.1326	707.52
64.1471	679.58
64.1615	692.96
64.1759	734.28
64.1904	728.44
64.2048	776.74
64.2193	808.64
64.2337	802.89
64.2481	776.63
64.2626	758.77
64.2770	809.27
64.2915	807.18
64.3059	760.06
64.3203	787.92
64.3348	811.04
64.3492	745.62
64.3637	794.65
64.3781	814.25
64.3925	780.26
64.4070	780.03
64.4214	817.44
64.4359	748.29
64.4503	767.28
64.4647	759.66
64.4792	719.39
64.4936	743.78
64.5081	716.03
64.5225	754.57
64.5369	734.04
64.5514	719.14
64.5658	725.80
64.5803	729.59
64.5947	679.57
64.6091	708.99
64.6236	686.30
64.6380	695.15
64.6525	711.21
64.6669	689.47
64.6813	691.09
64.6958	735.91
64.7102	691.96
64.7247	718.64
64.7391	729.16
64.7535	722.09
64.7680	745.96
64.7824	745.16
64.7969	753.31
64.8113	802.66
64.8257	742.99
64.8402	797.92
64.8546	851.67
64.8691	886.07
64.8835	850.25
64.8979	893.98
64.9124	864.91
64.9268	856.34
64.9413	893.43
64.9557	970.41
64.9701	1010.02
64.9846	1065.64
64.9990	1180.08
65.0135	1300.61
65.0279	1510.44
65.0423	1741.96
65.0568	2089.57
65.0712	2544.09
65.0857	3452.43
65.1001	4398.35
65.1145	5910.31
65.1290	7863.47
65.1434	9376.27
65.1579	11047.89
65.1723	11820.09
65.1867	11418.54
65.2012	10125.88
65.2156	8403.76
65.2301	6714.26
65.2445	5393.16
65.2589	4413.18
65.2734	4134.16
65.2878	4285.45
65.3023	4896.97
65.3167	5759.93
65.3311	6530.22
65.3456	6964.24
65.3600	6932.84
65.3745	6378.25
65.3889	5494.73
65.4033	4332.41
65.4178	3573.19
65.4322	2772.55
65.4467	2102.80
65.4611	1739.94
65.4755	1473.11
65.4900	1253.20
65.5044	1187.88
65.5189	1087.78
65.5333	1033.69
65.5477	960.97
65.5622	898.71
65.5766	852.29
65.5911	837.70
65.6055	820.69
65.6199	806.44
65.6344	770.68
65.6488	768.26
65.6633	729.98
65.6777	704.50
65.6921	713.28
65.7066	719.99
65.7210	709.41
65.7355	669.60
65.7499	649.85
65.7643	651.78
65.7788	666.39
65.7932	698.31
65.8077	706.15
65.8221	675.24
65.8365	659.60
65.8510	653.64
65.8654	662.55
65.8799	639.68
65.8943	643.39
65.9087	699.87
65.9232	662.67
65.9376	676.47
65.9521	638.30
65.9665	582.78
65.9809	645.20
65.9954	613.13
66.0098	605.49
66.0243	635.13
66.0387	605.42
66.0531	604.60
66.0676	652.04
66.0820	636.71
66.0965	645.38
66.1109	631.99
66.1253	644.31
66.1398	645.71
66.1542	632.47
66.1687	691.22
66.1831	626.52
66.1975	626.50
66.2120	629.61
66.2264	581.24
66.2409	637.68
66.2553	658.63
66.2697	639.87
66.2842	610.60
66.2986	604.76
66.3131	628.39
66.3275	604.36
66.3419	631.26
66.3564	594.46
66.3708	604.67
66.3853	625.01
66.3997	595.40
66.4141	596.45
66.4286	575.69
66.4430	549.61
66.4575	575.36
66.4719	621.84
66.4863	596.44
66.5008	581.23
66.5152	592.63
66.5297	619.58
66.5441	589.77
66.5585	573.79
66.5730	554.98
66.5874	578.09
66.6019	610.86
66.6163	571.56
66.6307	585.61
66.6452	597.03
66.6596	573.78
66.6741	596.07
66.6885	589.44
66.7029	602.77
66.7174	593.46
66.7318	589.32
66.7463	591.84
66.7607	590.97
66.7751	590.15
66.7896	569.81
66.8040	602.00
66.8185	579.97
66.8329	582.65
66.8473	595.22
66.8618	586.25
66.8762	571.93
66.8907	585.40
66.9051	602.71
66.9195	564.75
66.9340	599.36
66.9484	599.01
66.9629	595.14
66.9773	580.18
66.9917	575.00
67.0062	608.88
67.0206	640.87
67.0351	655.14
67.0495	615.69
67.0639	578.60
67.0784	588.27
67.0928	584.83
67.1073	589.41
67.1217	598.55
67.1361	586.43
67.1506	560.55
67.1650	572.81
67.1795	630.05
67.1939	603.56
67.2083	587.66
67.2228	594.70
67.2372	582.83
67.2517	598.22
67.2661	588.89
67.2805	623.16
67.2950	590.57
67.3094	596.10
67.3239	578.92
67.3383	582.88
67.3527	584.28
67.3672	594.55
67.3816	599.26
67.3961	552.62
67.4105	568.47
67.4250	580.56
67.4394	585.98
67.4538	579.65
67.4683	593.24
67.4827	575.71
67.4972	568.06
67.5116	568.40
67.5260	568.22
67.5405	579.89
67.5549	588.72
67.5694	551.79
67.5838	585.79
67.5982	566.80
67.6127	554.43
67.6271	573.13
67.6416	560.46
67.6560	569.41
67.6704	576.50
67.6849	577.05
67.6993	573.83
67.7138	588.57
67.7282	575.13
67.7426	569.72
67.7571	571.27
67.7715	585.07
67.7860	562.79
67.8004	545.53
67.8148	575.11
67.8293	607.62
67.8437	562.58
67.8582	556.49
67.8726	579.19
67.8870	583.94
67.9015	629.64
67.9159	585.07
67.9304	593.36
67.9448	576.09
67.9592	562.03
67.9737	572.77
67.9881	580.59
68.0026	588.70
68.0170	583.24
68.0314	600.21
68.0459	594.98
68.0603	591.08
68.0748	570.47
68.0892	590.43
68.1036	617.47
68.1181	609.17
68.1325	539.99
68.1470	524.18
68.1614	578.66
68.1758	560.16
68.1903	554.06
68.2047	580.27
68.2192	617.00
68.2336	615.90
68.2480	566.27
68.2625	561.00
68.2769	576.39
68.2914	553.92
68.3058	580.83
68.3202	557.06
68.3347	605.96
68.3491	582.07
68.3636	560.05
68.3780	563.98
68.3924	562.00
68.4069	576.94
68.4213	616.60
68.4358	572.56
68.4502	506.14
68.4646	547.19
68.4791	560.87
68.4935	587.36
68.5080	581.36
68.5224	580.29
68.5368	594.04
68.5513	585.25
68.5657	548.54
68.5802	552.04
68.5946	569.12
68.6090	576.51
68.6235	549.13
68.6379	552.27
68.6524	537.80
68.6668	545.32
68.6812	561.62
68.6957	574.37
68.7101	573.18
68.7246	591.97
68.7390	606.82
68.7534	633.02
68.7679	595.60
68.7823	586.84
68.7968	590.37
68.8112	554.80
68.8256	602.70
68.8401	574.55
68.8545	566.43
68.8690	587.45
68.8834	535.00
68.8978	592.56
68.9123	567.84
68.9267	576.33
68.9412	547.20
68.9556	556.56
68.9700	601.12
68.9845	602.66
68.9989	571.36
69.0134	535.17
69.0278	553.81
69.0422	554.13
69.0567	572.30
69.0711	563.81
69.0856	581.31
69.1000	578.92
69.1144	603.00
69.1289	556.48
69.1433	503.34
69.1578	554.04
69.1722	599.33
69.1866	531.75
69.2011	553.16
69.2155	564.84
69.2300	556.41
69.2444	568.75
69.2588	552.95
69.2733	557.94
69.2877	641.53
69.3022	636.71
69.3166	585.34
69.3310	610.17
69.3455	622.74
69.3599	552.97
69.3744	560.70
69.3888	548.91
69.4032	629.87
69.4177	540.08
69.4321	640.05
69.4466	538.20
69.4610	557.54
69.4754	605.04
69.4899	560.85
69.5043	554.77
69.5188	562.55
69.5332	595.40
69.5476	574.18
69.5621	573.21
69.5765	556.44
69.5910	580.50
69.6054	585.26
69.6198	560.36
69.6343	594.47
69.6487	572.84
69.6632	597.17
69.6776	568.17
69.6920	532.42
69.7065	553.16
69.7209	587.25
69.7354	589.71
69.7498	590.03
69.7642	619.38
69.7787	602.47
69.7931	599.29
69.8076	589.08
69.8220	551.36
69.8364	575.30
69.8509	594.06
69.8653	581.81
69.8798	561.71
69.8942	594.07
69.9086	623.97
69.9231	614.47
69.9375	629.24
69.9520	599.01
69.9664	596.07
69.9808	562.82
69.9953	592.14
70.0097	569.95
70.0242	552.52
70.0386	568.81
70.0530	558.78
70.0675	500.08
70.0819	561.19
70.0964	573.57
70.1108	575.84
70.1252	548.99
70.1397	549.96
70.1541	564.33
70.1686	572.17
70.1830	598.28
70.1974	591.09
70.2119	598.23
70.2263	578.75
70.2408	703.16
70.2552	589.88
70.2696	604.76
70.2841	538.64
70.2985	540.26
70.3130	539.10
70.3274	645.24
70.3418	611.46
70.3563	595.90
70.3707	578.09
70.3852	576.73
70.3996	554.52
70.4140	574.50
70.4285	630.33
70.4429	614.80
70.4574	574.16
70.4718	642.61
70.4862	606.17
70.5007	578.37
70.5151	592.10
70.5296	579.90
70.5440	534.77
70.5584	569.18
70.5729	565.91
70.5873	552.45
70.6018	568.76
70.6162	569.94
70.6306	552.68
70.6451	550.56
70.6595	575.51
70.6740	598.37
70.6884	542.52
70.7028	578.23
70.7173	605.81
70.7317	577.51
70.7462	531.60
70.7606	549.07
70.7750	596.72
70.7895	576.42
70.8039	584.57
70.8184	666.79
70.8328	653.04
70.8472	612.86
70.8617	548.28
70.8761	577.14
70.8906	581.99
70.9050	617.13
70.9194	604.78
70.9339	616.49
70.9483	607.51
70.9628	631.92
70.9772	602.48
70.9916	568.25
71.0061	530.81
71.0205	518.50
71.0350	592.69
71.0494	580.33
71.0638	575.25
71.0783	599.83
71.0927	599.72
71.1072	588.72
71.1216	588.02
71.1361	572.54
71.1505	600.37
71.1649	610.83
71.1794	629.18
71.1938	627.15
71.2083	590.99
71.2227	524.69
71.2371	558.40
71.2516	599.49
71.2660	545.97
71.2805	588.24
71.2949	557.86
71.3093	571.29
71.3238	585.01
71.3382	600.80
71.3527	641.42
71.3671	571.66
71.3815	558.67
71.3960	556.41
71.4104	518.83
71.4249	575.56
71.4393	617.66
71.4537	569.60
71.4682	565.16
71.4826	572.31
71.4971	594.88
71.5115	604.84
71.5259	601.36
71.5404	573.05
71.5548	599.82
71.5693	578.73
71.5837	577.12
71.5981	584.10
71.6126	557.08
71.6270	532.99
71.6415	543.33
71.6559	553.34
71.6703	528.54
71.6848	539.66
71.6992	604.85
71.7137	597.48
71.7281	605.53
71.7425	577.17
71.7570	545.96
71.7714	565.32
71.7859	570.13
71.8003	560.57
71.8147	603.13
71.8292	594.72
71.8436	571.11
71.8581	594.68
71.8725	604.84
71.8869	549.58
71.9014	557.97
71.9158	498.58
71.9303	531.26
71.9447	581.62
71.9591	612.35
71.9736	621.71
71.9880	581.70
72.0025	590.70
72.0169	615.31
72.0313	582.75
72.0458	521.45
72.0602	539.26
72.0747	492.84
72.0891	574.30
72.1035	659.81
72.1180	608.60
72.1324	561.78
72.1469	560.59
72.1613	591.27
72.1757	654.13
72.1902	579.17
72.2046	548.85
72.2191	577.47
72.2335	512.30
72.2479	521.92
72.2624	547.62
72.2768	590.95
72.2913	547.54
72.3057	500.33
72.3201	516.94
72.3346	535.85
72.3490	517.25
72.3635	547.61
72.3779	629.52
72.3923	609.75
72.4068	540.31
72.4212	575.13
72.4357	593.40
72.4501	544.74
72.4645	568.86
72.4790	523.10
72.4934	513.12
72.5079	530.36
72.5223	564.01
72.5367	555.97
72.5512	520.31
72.5656	581.22
72.5801	566.26
72.5945	510.94
72.6089	525.49
72.6234	539.86
72.6378	578.51
72.6523	556.41
72.6667	554.77
72.6811	508.28
72.6956	471.72
72.7100	612.11
72.7245	592.89
72.7389	534.84
72.7533	537.17
72.7678	568.65
72.7822	574.51
72.7967	588.86
72.8111	670.31
72.8255	631.11
72.8400	596.81
72.8544	605.37
72.8689	627.91
72.8833	578.80

Result vector
22.1120	556.14
22.1264	612.30
22.1409	562.65
22.1553	492.87
22.1697	598.53
22.1842	535.25
22.1986	482.70
22.2131	501.09
22.2275	585.82
22.2419	547.48
22.2564	533.30
22.2708	556.74
22.2853	632.60
22.2997	647.98
22.3141	650.13
22.3286	560.58
22.3430	612.27
22.3575	582.32
22.3719	537.17
22.3863	562.80
22.4008	552.13
22.4152	595.39
22.4297	531.38
22.4441	526.02
22.4585	577.78
22.4730	595.37
22.4874	633.45
22.5019	572.68
22.5163	626.24
22.5307	542.81
22.5452	551.90
22.5596	515.69
22.5741	604.93
22.5885	555.82
22.6029	652.86
22.6174	585.38
22.6318	573.95
22.6463	554.30
22.6607	669.06
22.6751	597.59
22.6896	568.08
22.7040	582.34
22.7185	567.21
22.7329	526.71
22.7473	544.11
22.7618	481.94
22.7762	513.31
22.7907	542.63
22.8051	608.00
22.8195	560.23
22.8340	484.54
22.8484	512.13
22.8629	563.42
22.8773	534.99
22.8917	596.63
22.9062	573.65
22.9206	557.88
22.9351	529.05
22.9495	550.61
22.9639	545.16
22.9784	494.48
22.9928	527.31
23.0073	587.71
23.0217	622.66
23.0361	608.21
23.0506	614.93
23.0650	612.62
23.0795	519.29
23.0939	576.23
23.1083	515.25
23.1228	576.00
23.1372	542.91
23.1517	550.01
23.1661	577.47
23.1806	543.29
23.1950	504.41
23.2094	517.85
23.2239	511.36
23.2383	550.21
23.2528	580.09
23.2672	591.65
23.2816	582.35
23.2961	471.81
23.3105	594.50
23.3250	563.91
23.3394	559.57
23.3538	514.61
23.3683	520.12
23.3827	493.60
23.3972	582.58
23.4116	584.24
23.4260	581.97
23.4405	617.45
23.4549	568.38
23.4694	610.25
23.4838	570.34
23.4982	600.95
23.5127	563.61
23.5271	527.04
23.5416	499.28
23.5560	564.27
23.5704	587.41
23.5849	579.08
23.5993	526.41
23.6138	609.04
23.6282	556.77
23.6426	576.21
23.6571	610.17
23.6715	545.83
23.6860	573.27
23.7004	572.19
23.7148	537.11
23.7293	510.24
23.7437	563.56
23.7582	541.40
23.7726	457.73
23.7870	546.37
23.8015	546.16
23.8159	515.38
23.8304	611.86
23.8448	562.92
23.8592	601.20
23.8737	603.52
23.8881	575.55
23.9026	583.78
23.9170	546.49
23.9314	595.80
23.9459	547.07
23.9603	497.03
23.9748	510.56
23.9892	507.45
24.0036	458.14
24.0181	577.79
24.0325	568.29
24.0470	559.27
24.0614	634.37
24.0758	583.38
24.0903	610.35
24.1047	536.63
24.1192	595.03
24.1336	568.24
24.1480	554.22
24.1625	566.16
24.1769	545.74
24.1914	545.88
24.2058	549.17
24.2202	557.38
24.2347	630.47
24.2491	583.71
24.2636	575.45
24.2780	634.64
24.2924	642.97
24.3069	572.53
24.3213	551.82
24.3358	555.01
24.3502	557.47
24.3646	536.41
24.3791	503.09
24.3935	539.36
24.4080	525.69
24.4224	537.77
24.4368	522.40
24.4513	540.85
24.4657	569.40
24.4802	562.14
24.4946	572.10
24.5090	583.19
24.5235	495.68
24.5379	545.14
24.5524	547.68
24.5668	586.82
24.5812	599.54
24.5957	576.08
24.6101	560.32
24.6246	530.02
24.6390	544.55
24.6534	553.51
24.6679	563.26
24.6823	563.08
24.6968	641.67
24.7112	538.19
24.7256	580.20
24.7401	560.96
24.7545	531.79
24.7690	471.47
24.7834	521.83
24.7978	506.05
24.8123	579.42
24.8267	482.99
24.8412	540.42
24.8556	612.94
24.8700	560.54
24.8845	504.94
24.8989	479.45
24.9134	526.14
24.9278	505.53
24.9422	531.50
24.9567	548.47
24.9711	557.91
24.9856	480.56
25.0000	572.12
25.0144	531.75
25.0289	589.95
25.0433	577.11
25.0578	537.67
25.0722	538.07
25.0866	582.62
25.1011	579.37
25.1155	586.96
25.1300	559.53
25.1444	530.60
25.1588	514.77
25.1733	516.78
25.1877	536.62
25.2022	541.77
25.2166	516.51
25.2310	515.67
25.2455	572.74
25.2599	547.95
25.2744	522.46
25.2888	521.30
25.3032	527.30
25.3177	569.34
25.3321	598.57
25.3466	561.02
25.3610	513.11
25.3754	504.96
25.3899	540.88
25.4043	526.32
25.4188	511.68
25.4332	539.36
25.4476	530.10
25.4621	531.13
25.4765	556.45
25.4910	586.15
25.5054	566.20
25.5198	581.82
25.5343	566.30
25.5487	543.26
25.5632	558.43
25.5776	557.15
25.5920	570.59
25.6065	568.97
25.6209	553.42
25.6354	523.05
25.6498	554.32
25.6642	555.36
25.6787	540.85
25.6931	503.05
25.7076	564.60
25.7220	552.16
25.7364	554.85
25.7509	520.04
25.7653	514.68
25.7798	551.97
25.7942	607.57
25.8086	526.24
25.8231	562.89
25.8375	573.77
25.8520	551.43
25.8664	583.77
25.8808	535.15
25.8953	523.14
25.9097	514.98
25.9242	527.41
25.9386	530.13
25.9530	548.81
25.9675	535.10
25.9819	547.52
25.9964	565.50
26.0108	577.16
26.0252	574.45
26.0397	514.75
26.0541	492.41
26.0686	528.76
26.0830	506.64
26.0974	513.97
26.1119	558.57
26.1263	525.98
26.1408	504.41
26.1552	523.18
26.1696	555.99
26.1841	539.84
26.1985	525.93
26.2130	554.96
26.2274	560.53
26.2418	552.39
26.2563	509.25
26.2707	524.87
26.2852	529.51
26.2996	480.27
26.3140	536.86
26.3285	544.99
26.3429	514.62
26.3574	493.11
26.3718	505.87
26.3862	500.96
26.4007	515.96
26.4151	499.92
26.4296	549.58
26.4440	569.04
26.4584	563.08
26.4729	527.08
26.4873	539.33
26.5018	520.18
26.5162	515.61
26.5306	562.40
26.5451	553.08
26.5595	525.82
26.5740	524.54
26.5884	578.87
26.6028	586.59
26.6173	545.99
26.6317	567.17
26.6462	579.56
26.6606	569.30
26.6750	517.75
26.6895	509.31
26.7039	529.84
26.7184	527.94
26.7328	502.04
26.7472	562.29
26.7617	569.69
26.7761	553.43
26.7906	540.91
26.8050	515.54
26.8194	477.84
26.8339	528.48
26.8483	536.16
26.8628	511.35
26.8772	502.17
26.8917	553.12
26.9061	560.13
26.9205	509.85
26.9350	541.30
26.9494	557.45
26.9639	515.59
26.9783	518.06
26.9927	515.78
27.0072	514.30
27.0216	529.41
27.0361	548.15
27.0505	514.57
27.0649	560.57
27.0794	547.03
27.0938	536.06
27.1083	510.61
27.1227	494.85
27.1371	518.82
27.1516	528.38
27.1660	539.03
27.1805	526.70
27.1949	543.40
27.2093	513.49
27.2238	504.19
27.2382	505.08
27.2527	525.47
27.2671	514.54
27.2815	531.36
27.2960	517.71
27.3104	538.85
27.3249	535.92
27.3393	554.97
27.3537	507.03
27.3682	497.23
27.3826	496.92
27.3971	494.89
27.4115	505.32
27.4259	516.41
27.4404	505.09
27.4548	511.99
27.4693	536.91
27.4837	512.16
27.4981	526.18
27.5126	519.43
27.5270	553.50
27.5415	535.87
27.5559	536.37
27.5703	508.24
27.5848	519.52
27.5992	510.80
27.6137	525.60
27.6281	519.07
27.6425	519.52
27.6570	516.62
27.6714	513.14
27.6859	499.18
27.7003	518.81
27.7147	502.62
27.7292	507.60
27.7436	488.19
27.7581	481.45
27.7725	516.29
27.7869	518.69
27.8014	513.97
27.8158	515.50
27.8303	530.20
27.8447	524.39
27.8591	524.01
27.8736	527.94
27.8880	534.09
27.9025	523.08
27.9169	495.14
27.9313	486.55
27.9458	494.80
27.9602	517.66
27.9747	510.63
27.9891	534.77
28.0035	507.33
28.0180	499.39
28.0324	528.50
28.0469	529.72
28.0613	513.06
28.0757	495.41
28.0902	559.45
28.1046	516.50
28.1191	539.56
28.1335	552.33
28.1479	534.52
28.1624	532.30
28.1768	516.21
28.1913	480.31
28.2057	494.29
28.2201	555.70
28.2346	529.49
28.2490	521.54
28.2635	531.72
28.2779	512.77
28.2923	514.80
28.3068	513.33
28.3212	501.36
28.3357	511.28
28.3501	556.83
28.3645	514.70
28.3790	506.63
28.3934	537.77
28.4079	519.13
28.4223	510.17
28.4367	507.67
28.4512	527.52
28.4656	540.15
28.4801	535.63
28.4945	527.44
28.5089	509.63
28.5234	538.11
28.5378	534.44
28.5523	515.42
28.5667	491.67
28.5811	568.34
28.5956	502.49
28.6100	532.90
28.6245	506.24
28.6389	501.97
28.6533	476.72
28.6678	516.94
28.6822	487.40
28.6967	510.27
28.7111	501.32
28.7255	512.84
28.7400	501.05
28.7544	500.50
28.7689	520.02
28.7833	549.42
28.7977	514.76
28.8122	519.23
28.8266	529.76
28.8411	520.36
28.8555	521.97
28.8699	550.77
28.8844	489.83
28.8988	493.67
28.9133	524.50
28.9277	505.48
28.9421	560.43
28.9566	542.43
28.9710	524.31
28.9855	510.75
28.9999	508.88
29.0143	485.10
29.0288	519.58
29.0432	521.94
29.0577	537.08
29.0721	548.20
29.0865	541.55
29.1010	522.21
29.1154	498.96
29.1299	514.25
29.1443	513.15
29.1587	481.99
29.1732	533.83
29.1876	492.83
29.2021	499.77
29.2165	516.15
29.2309	545.11
29.2454	524.46
29.2598	526.65
29.2743	520.27
29.2887	503.15
29.3031	517.26
29.3176	519.43
29.3320	509.68
29.3465	509.78
29.3609	504.31
29.3753	501.23
29.3898	480.60
29.4042	500.21
29.4187	514.72
29.4331	507.87
29.4475	483.24
29.4620	506.58
29.4764	515.13
29.4909	506.85
29.5053	488.67
29.5197	501.82
29.5342	497.08
29.5486	522.04
29.5631	502.54
29.5775	518.98
29.5919	514.15
29.6064	517.72
29.6208	500.31
29.6353	495.74
29.6497	518.82
29.6641	484.54
29.6786	493.37
29.6930	529.96
29.7075	527.19
29.7219	486.45
29.7363	500.29
29.7508	496.02
29.7652	533.81
29.7797	521.24
29.7941	507.45
29.8085	489.52
29.8230	483.23
29.8374	490.34
29.8519	513.91
29.8663	532.46
29.8807	488.45
29.8952	499.49
29.9096	518.64
29.9241	522.63
29.9385	516.29
29.9529	500.09
29.9674	492.41
29.9818	484.45
29.9963	462.60
30.0107	517.61
30.0251	493.84
30.0396	476.27
30.0540	530.74
30.0685	491.89
30.0829	499.62
30.0973	509.66
30.1118	517.48
30.1262	490.24
30.1407	480.88
30.1551	505.62
30.1695	535.97
30.1840	552.65
30.1984	495.00
30.2129	525.52
30.2273	537.05
30.2417	508.36
30.2562	502.44
30.2706	477.03
30.2851	545.81
30.2995	478.72
30.3139	481.65
30.3284	523.84
30.3428	507.08
30.3573	539.37
30.3717	500.95
30.3861	477.42
30.4006	467.14
30.4150	475.58
30.4295	502.48
30.4439	478.67
30.4583	483.89
30.4728	507.45
30.4872	505.51
30.5017	491.29
30.5161	484.59
30.5305	507.25
30.5450	506.52
30.5594	514.18
30.5739	507.59
30.5883	540.63
30.6028	548.83
30.6172	523.76
30.6316	531.76
30.6461	506.39
30.6605	497.71
30.6750	500.11
30.6894	526.65
30.7038	549.64
30.7183	553.63
30.7327	544.84
30.7472	521.31
30.7616	542.09
30.7760	552.57
30.7905	577.33
30.8049	590.71
30.8194	627.83
30.8338	650.73
30.8482	661.07
30.8627	683.42
30.8771	714.08
30.8916	668.55
30.9060	681.33
30.9204	665.35
30.9349	668.82
30.9493	659.86
30.9638	630.40
30.9782	623.85
30.9926	576.45
31.0071	576.83
31.0215	567.57
31.0360	582.46
31.0504	612.15
31.0648	578.95
31.0793	549.97
31.0937	553.82
31.1082	545.26
31.1226	575.81
31.1370	548.65
31.1515	521.02
31.1659	537.76
31.1804	544.96
31.1948	515.90
31.2092	516.57
31.2237	532.51
31.2381	521.64
31.2526	517.44
31.2670	551.76
31.2814	568.47
31.2959	530.19
31.3103	543.53
31.3248	533.65
31.3392	590.77
31.3536	536.19
31.3681	517.88
31.3825	522.20
31.3970	498.24
31.4114	526.43
31.4258	568.88
31.4403	521.23
31.4547	522.40
31.4692	536.55
31.4836	525.05
31.4980	524.75
31.5125	512.28
31.5269	494.66
31.5414	492.73
31.5558	513.60
31.5702	500.25
31.5847	481.60
31.5991	505.60
31.6136	495.46
31.6280	489.65
31.6424	481.84
31.6569	494.15
31.6713	466.36
31.6858	489.07
31.7002	500.75
31.7146	534.40
31.7291	506.66
31.7435	521.45
31.7580	493.39
31.7724	490.92
31.7868	454.99
31.8013	500.23
31.8157	528.15
31.8302	503.86
31.8446	506.26
31.8590	513.61
31.8735	520.68
31.8879	512.48
31.9024	495.82
31.9168	498.37
31.9312	503.70
31.9457	527.81
31.9601	496.93
31.9746	502.32
31.9890	494.05
32.0034	507.48
32.0179	478.27
32.0323	505.90
32.0468	521.58
32.0612	531.57
32.0756	528.50
32.0901	535.86
32.1045	514.15
32.1190	540.13
32.1334	485.49
32.1478	491.69
32.1623	515.77
32.1767	497.45
32.1912	511.62
32.2056	512.51
32.2200	515.24
32.2345	515.52
32.2489	523.32
32.2634	483.41
32.2778	495.89
32.2922	489.01
32.3067	477.55
32.3211	497.26
32.3356	496.27
32.3500	497.95
32.3644	491.61
32.3789	492.14
32.3933	515.88
32.4078	515.11
32.4222	528.28
32.4366	491.03
32.4511	460.82
32.4655	536.87
32.4800	514.15
32.4944	497.78
32.5088	482.78
32.5233	476.80
32.5377	475.13
32.5522	503.95
32.5666	500.47
32.5810	532.88
32.5955	509.88
32.6099	496.69
32.6244	481.89
32.6388	479.21
32.6532	505.22
32.6677	448.66
32.6821	505.21
32.6966	470.91
32.7110	513.48
32.7254	499.96
32.7399	515.56
32.7543	508.03
32.7688	544.51
32.7832	511.17
32.7976	509.79
32.8121	522.12
32.8265	480.99
32.8410	481.04
32.8554	498.01
32.8698	519.92
32.8843	531.51
32.8987	493.39
32.9132	514.79
32.9276	445.66
32.9420	499.87
32.9565	503.28
32.9709	527.94
32.9854	518.54
32.9998	484.02
33.0142	471.08
33.0287	492.16
33.0431	477.14
33.0576	539.57
33.0720	514.32
33.0864	511.05
33.1009	486.76
33.1153	525.71
33.1298	518.38
33.1442	509.64
33.1586	513.82
33.1731	511.44
33.1875	514.25
33.2020	509.78
33.2164	506.05
33.2308	524.29
33.2453	500.94
33.2597	520.02
33.2742	492.93
33.2886	488.30
33.3030	506.81
33.3175	473.78
33.3319	463.11
33.3464	482.22
33.3608	530.51
33.3752	515.29
33.3897	507.52
33.4041	509.72
33.4186	484.02
33.4330	510.81
33.4474	512.91
33.4619	505.89
33.4763	509.28
33.4908	524.96
33.5052	494.08
33.5196	477.99
33.5341	466.97
33.5485	527.98
33.5630	543.56
33.5774	518.23
33.5918	493.34
33.6063	463.72
33.6207	482.28
33.6352	487.80
33.6496	493.82
33.6640	499.37
33.6785	486.65
33.6929	508.46
33.7074	540.08
33.7218	510.16
33.7362	500.44
33.7507	500.76
33.7651	471.44
33.7796	492.32
33.7940	496.32
33.8084	507.33
33.8229	527.65
33.8373	517.32
33.8518	495.13
33.8662	512.03
33.8806	507.39
33.8951	502.26
33.9095	499.64
33.9240	476.24
33.9384	505.33
33.9528	483.00
33.9673	511.63
33.9817	483.74
33.9962	493.71
34.0106	493.04
34.0250	500.51
34.0395	506.87
34.0539	497.21
34.0684	528.96
34.0828	547.03
34.0972	538.64
34.1117	493.45
34.1261	495.89
34.1406	476.53
34.1550	472.66
34.1694	500.51
34.1839	527.22
34.1983	527.75
34.2128	498.31
34.2272	478.02
34.2417	490.02
34.2561	484.38
34.2705	526.06
34.2850	502.30
34.2994	498.12
34.3139	515.51
34.3283	550.23
34.3427	536.85
34.3572	527.14
34.3716	511.02
34.3861	507.75
34.4005	501.25
34.4149	512.82
34.4294	503.20
34.4438	533.92
34.4583	530.07
34.4727	513.08
34.4871	518.44
34.5016	495.03
34.5160	506.14
34.5305	492.38
34.5449	491.78
34.5593	527.07
34.5738	486.99
34.5882	508.56
34.6027	538.87
34.6171	561.72
34.6315	514.12
34.6460	495.69
34.6604	504.27
34.6749	516.56
34.6893	507.18
34.7037	520.08
34.7182	511.23
34.7326	509.14
34.7471	517.71
34.7615	512.13
34.7759	517.68
34.7904	492.94
34.8048	507.23
34.8193	516.45
34.8337	512.60
34.8481	511.13
34.8626	523.08
34.8770	497.83
34.8915	464.94
34.9059	512.76
34.9203	503.02
34.9348	511.94
34.9492	520.21
34.9637	512.17
34.9781	510.73
34.9925	481.91
35.0070	482.01
35.0214	487.07
35.0359	502.65
35.0503	545.39
35.0647	550.95
35.0792	556.54
35.0936	510.87
35.1081	502.89
35.1225	546.41
35.1369	521.38
35.1514	469.38
35.1658	512.48
35.1803	510.77
35.1947	510.42
35.2091	503.43
35.2236	508.71
35.2380	489.37
35.2525	524.59
35.2669	534.88
35.2813	517.70
35.2958	513.83
35.3102	527.66
35.3247	510.58
35.3391	545.58
35.3535	516.34
35.3680	507.21
35.3824	503.07
35.3969	505.71
35.4113	477.20
35.4257	537.20
35.4402	544.50
35.4546	542.18
35.4691	527.77
35.4835	510.04
35.4979	552.15
35.5124	562.87
35.5268	561.30
35.5413	528.15
35.5557	554.06
35.5701	552.94
35.5846	557.42
35.5990	541.61
35.6135	523.32
35.6279	517.78
35.6423	503.52
35.6568	534.84
35.6712	560.73
35.6857	641.44
35.7001	682.38
35.7145	720.13
35.7290	656.19
35.7434	598.66
35.7579	596.90
35.7723	598.75
35.7867	626.31
35.8012	659.43
35.8156	663.34
35.8301	651.62
35.8445	598.04
35.8589	587.69
35.8734	717.38
35.8878	888.02
35.9023	1038.67
35.9167	1077.80
35.9311	1397.23
35.9456	2120.79
35.9600	2287.43
35.9745	1806.44
35.9889	1953.24
36.0033	2495.41
36.0178	2745.20
36.0322	2223.26
36.0467	1867.85
36.0611	1623.19
36.0755	1633.65
36.0900	1522.31
36.1044	1225.70
36.1189	1376.75
36.1333	1284.79
36.1477	1067.99
36.1622	1007.52
36.1766	950.73
36.1911	877.07
36.2055	773.03
36.2199	756.60
36.2344	742.37
36.2488	712.85
36.2633	728.29
36.2777	765.63
36.2921	811.38
36.3066	827.05
36.3210	870.76
36.3355	954.98
36.3499	937.86
36.3643	893.09
36.3788	952.88
36.3932	950.79
36.4077	973.14
36.4221	1004.17
36.4365	940.29
36.4510	859.99
36.4654	892.46
36.4799	824.85
36.4943	757.44
36.5087	764.60
36.5232	721.57
36.5376	696.54
36.5521	654.30
36.5665	617.49
36.5809	650.70
36.5954	593.83
36.6098	611.46
36.6243	562.71
36.6387	581.35
36.6531	551.51
36.6676	569.49
36.6820	550.45
36.6965	580.56
36.7109	580.88
36.7253	579.40
36.7398	531.51
36.7542	577.65
36.7687	548.47
36.7831	580.06
36.7975	570.94
36.8120	556.99
36.8264	574.05
36.8409	546.79
36.8553	588.71
36.8697	630.79
36.8842	567.16
36.8986	637.86
36.9131	638.72
36.9275	624.27
36.9419	628.05
36.9564	583.98
36.9708	580.77
36.9853	588.42
36.9997	574.74
37.0141	541.80
37.0286	547.68
37.0430	596.14
37.0575	528.77
37.0719	510.52
37.0863	510.77
37.1008	491.27
37.1152	526.09
37.1297	525.81
37.1441	493.49
37.1585	526.33
37.1730	534.76
37.1874	503.93
37.2019	475.83
37.2163	496.64
37.2307	507.96
37.2452	521.00
37.2596	458.54
37.2741	493.19
37.2885	520.03
37.3029	525.17
37.3174	494.21
37.3318	512.21
37.3463	524.80
37.3607	505.32
37.3751	514.44
37.3896	504.94
37.4040	524.79
37.4185	498.80
37.4329	561.56
37.4473	490.16
37.4618	495.91
37.4762	517.33
37.4907	524.94
37.5051	504.04
37.5195	515.57
37.5340	518.82
37.5484	496.98
37.5629	498.48
37.5773	463.96
37.5917	485.41
37.6062	522.47
37.6206	513.95
37.6351	477.96
37.6495	488.61
37.6639	486.76
37.6784	518.49
37.6928	482.12
37.7073	510.32
37.7217	540.66
37.7361	516.41
37.7506	472.08
37.7650	501.08
37.7795	519.96
37.7939	509.10
37.8083	540.73
37.8228	505.96
37.8372	486.63
37.8517	515.22
37.8661	522.46
37.8805	520.46
37.8950	505.34
37.9094	492.66
37.9239	487.38
37.9383	496.45
37.9528	554.37
37.9672	505.05
37.9816	498.35
37.9961	514.60
38.0105	482.73
38.0250	556.32
38.0394	548.41
38.0538	512.92
38.0683	520.72
38.0827	553.82
38.0972	522.85
38.1116	461.76
38.1260	508.48
38.1405	513.26
38.1549	501.95
38.1694	489.38
38.1838	518.44
38.1982	491.37
38.2127	489.05
38.2271	471.41
38.2416	521.10
38.2560	485.95
38.2704	501.73
38.2849	527.48
38.2993	475.94
38.3138	470.69
38.3282	512.97
38.3426	497.29
38.3571	510.26
38.3715	522.81
38.3860	519.31
38.4004	539.63
38.4148	570.00
38.4293	580.28
38.4437	589.05
38.4582	594.54
38.4726	643.69
38.4870	678.65
38.5015	715.51
38.5159	781.91
38.5304	799.87
38.5448	784.41
38.5592	755.02
38.5737	764.81
38.5881	745.39
38.6026	688.37
38.6170	669.13
38.6314	735.51
38.6459	654.03
38.6603	590.87
38.6748	609.93
38.6892	581.39
38.7036	570.45
38.7181	565.25
38.7325	514.29
38.7470	528.18
38.7614	522.88
38.7758	505.96
38.7903	524.98
38.8047	532.45
38.8192	524.88
38.8336	496.06
38.8480	492.27
38.8625	520.96
38.8769	529.16
38.8914	477.47
38.9058	518.43
38.9202	507.32
38.9347	505.17
38.9491	538.50
38.9636	516.33
38.9780	480.33
38.9924	499.28
39.0069	507.59
39.0213	492.86
39.0358	489.58
39.0502	494.81
39.0646	506.34
39.0791	511.99
39.0935	500.46
39.1080	481.72
39.1224	493.06
39.1368	487.37
39.1513	484.77
39.1657	516.82
39.1802	469.90
39.1946	481.08
39.2090	519.21
39.2235	524.47
39.2379	504.03
39.2524	490.64
39.2668	471.50
39.2812	499.65
39.2957	513.74
39.3101	505.07
39.3246	516.80
39.3390	519.04
39.3534	501.96
39.3679	467.22
39.3823	492.19
39.3968	509.58
39.4112	504.15
39.4256	537.47
39.4401	514.44
39.4545	491.42
39.4690	516.75
39.4834	490.21
39.4978	532.81
39.5123	499.93
39.5267	476.47
39.5412	516.03
39.5556	490.43
39.5700	485.80
39.5845	492.69
39.5989	528.11
39.6134	507.69
39.6278	523.94
39.6422	488.69
39.6567	479.48
39.6711	479.02
39.6856	531.02
39.7000	504.55
39.7144	504.40
39.7289	462.50
39.7433	483.82
39.7578	475.58
39.7722	506.35
39.7866	494.88
39.8011	467.45
39.8155	515.74
39.8300	523.56
39.8444	488.53
39.8588	499.91
39.8733	503.16
39.8877	494.25
39.9022	512.08
39.9166	509.44
39.9310	482.98
39.9455	492.83
39.9599	460.33
39.9744	460.59
39.9888	478.08
40.0032	480.41
40.0177	489.41
40.0321	502.17
40.0466	498.18
40.0610	501.29
40.0754	493.78
40.0899	535.30
40.1043	504.53
40.1188	505.99
40.1332	527.75
40.1476	485.03
40.1621	539.46
40.1765	523.33
40.1910	493.32
40.2054	491.49
40.2198	491.20
40.2343	498.56
40.2487	512.48
40.2632	505.81
40.2776	502.88
40.2920	474.37
40.3065	489.83
40.3209	494.03
40.3354	515.39
40.3498	482.22
40.3642	464.67
40.3787	476.83
40.3931	467.24
40.4076	492.66
40.4220	489.98
40.4364	483.61
40.4509	468.78
40.4653	527.37
40.4798	541.53
40.4942	517.65
40.5086	508.45
40.5231	489.72
40.5375	489.70
40.5520	467.94
40.5664	469.87
40.5808	501.43
40.5953	471.24
40.6097	479.82
40.6242	494.25
40.6386	524.49
40.6530	487.17
40.6675	473.88
40.6819	466.74
40.6964	519.90
40.7108	496.07
40.7252	526.86
40.7397	518.42
40.7541	479.55
40.7686	491.48
40.7830	500.32
40.7974	490.08
40.8119	477.75
40.8263	482.97
40.8408	503.64
40.8552	523.01
40.8696	515.32
40.8841	536.16
40.8985	541.56
40.9130	501.43
40.9274	507.58
40.9418	512.88
40.9563	469.57
40.9707	492.81
40.9852	496.67
40.9996	532.62
41.0140	484.88
41.0285	499.23
41.0429	481.68
41.0574	481.52
41.0718	503.33
41.0862	518.90
41.1007	510.70
41.1151	520.22
41.1296	472.71
41.1440	484.88
41.1584	493.79
41.1729	488.13
41.1873	485.43
41.2018	509.93
41.2162	514.82
41.2306	513.25
41.2451	486.06
41.2595	510.09
41.2740	498.72
41.2884	501.63
41.3028	488.14
41.3173	494.94
41.3317	510.23
41.3462	486.53
41.3606	511.88
41.3750	462.48
41.3895	476.28
41.4039	507.61
41.4184	512.76
41.4328	515.29
41.4472	511.74
41.4617	514.90
41.4761	513.57
41.4906	494.99
41.5050	495.45
41.5194	499.32
41.5339	481.08
41.5483	477.42
41.5628	472.83
41.5772	478.39
41.5916	482.99
41.6061	478.89
41.6205	487.99
41.6350	518.27
41.6494	523.59
41.6639	489.28
41.6783	509.98
41.6927	476.39
41.7072	470.08
41.7216	492.69
41.7361	490.38
41.7505	514.78
41.7649	502.93
41.7794	500.96
41.7938	516.24
41.8083	537.48
41.8227	518.10
41.8371	506.28
41.8516	509.76
41.8660	539.80
41.8805	534.13
41.8949	571.80
41.9093	556.70
41.9238	566.15
41.9382	565.13
41.9527	564.43
41.9671	542.96
41.9815	544.20
41.9960	545.42
42.0104	522.88
42.0249	574.23
42.0393	564.83
42.0537	582.03
42.0682	571.59
42.0826	569.76
42.0971	584.28
42.1115	575.88
42.1259	606.75
42.1404	587.09
42.1548	599.75
42.1693	616.94
42.1837	708.66
42.1981	771.07
42.2126	842.64
42.2270	946.09
42.2415	1062.79
42.2559	1226.22
42.2703	1325.49
42.2848	1465.99
42.2992	1589.52
42.3137	1644.42
42.3281	1647.88
42.3425	1625.63
42.3570	1506.58
42.3714	1437.87
42.3859	1344.56
42.4003	1321.77
42.4147	1299.51
42.4292	1309.70
42.4436	1129.02
42.4581	1005.91
42.4725	930.65
42.4869	797.62
42.5014	726.79
42.5158	694.39
42.5303	707.13
42.5447	656.60
42.5591	604.74
42.5736	616.45
42.5880	578.02
42.6025	589.01
42.6169	560.69
42.6313	556.29
42.6458	561.32
42.6602	534.58
42.6747	570.59
42.6891	532.90
42.7035	509.63
42.7180	509.78
42.7324	529.46
42.7469	520.77
42.7613	524.26
42.7757	544.44
42.7902	544.00
42.8046	524.01
42.8191	530.15
42.8335	558.00
42.8479	507.75
42.8624	493.98
42.8768	475.96
42.8913	503.30
42.9057	544.15
42.9201	523.32
42.9346	536.72
42.9490	522.34
42.9635	534.91
42.9779	524.74
42.9923	521.41
43.0068	519.18
43.0212	534.95
43.0357	528.52
43.0501	498.93
43.0645	494.76
43.0790	493.83
43.0934	529.48
43.1079	507.69
43.1223	516.31
43.1367	487.67
43.1512	511.26
43.1656	530.00
43.1801	509.98
43.1945	522.14
43.2089	502.40
43.2234	511.18
43.2378	565.51
43.2523	515.08
43.2667	528.86
43.2811	513.10
43.2956	498.45
43.3100	540.74
43.3245	532.98
43.3389	544.83
43.3533	508.91
43.3678	526.55
43.3822	491.08
43.3967	474.41
43.4111	523.82
43.4255	515.25
43.4400	504.51
43.4544	503.04
43.4689	494.03
43.4833	548.33
43.4977	538.82
43.5122	498.43
43.5266	526.12
43.5411	512.95
43.5555	528.75
43.5699	531.78
43.5844	499.81
43.5988	522.49
43.6133	482.65
43.6277	502.42
43.6421	537.13
43.6566	542.04
43.6710	509.25
43.6855	502.08
43.6999	513.55
43.7143	535.16
43.7288	522.85
43.7432	515.09
43.7577	546.93
43.7721	508.16
43.7865	528.57
43.8010	507.30
43.8154	514.38
43.8299	506.34
43.8443	515.95
43.8587	530.67
43.8732	478.32
43.8876	528.06
43.9021	537.29
43.9165	528.37
43.9309	468.86
43.9454	525.79
43.9598	511.53
43.9743	495.46
43.9887	497.91
44.0031	526.19
44.0176	548.70
44.0320	522.13
44.0465	511.71
44.0609	576.26
44.0753	526.59
44.0898	538.24
44.1042	553.92
44.1187	554.28
44.1331	589.35
44.1475	577.30
44.1620	599.39
44.1764	621.92
44.1909	576.89
44.2053	595.65
44.2197	636.57
44.2342	658.70
44.2486	635.19
44.2631	607.67
44.2775	606.36
44.2919	608.95
44.3064	585.25
44.3208	613.65
44.3353	614.62
44.3497	588.67
44.3641	558.95
44.3786	584.78
44.3930	581.97
44.4075	577.36
44.4219	583.07
44.4363	608.44
44.4508	565.81
44.4652	632.18
44.4797	611.36
44.4941	578.28
44.5085	581.47
44.5230	596.16
44.5374	581.69
44.5519	580.52
44.5663	576.75
44.5807	571.75
44.5952	563.14
44.6096	551.71
44.6241	545.27
44.6385	566.57
44.6529	612.49
44.6674	617.45
44.6818	572.51
44.6963	595.02
44.7107	658.45
44.7251	656.97
44.7396	741.77
44.7540	815.62
44.7685	861.96
44.7829	923.88
44.7973	868.68
44.8118	847.92
44.8262	777.90
44.8407	744.16
44.8551	746.94
44.8695	781.57
44.8840	741.58
44.8984	734.16
44.9129	675.03
44.9273	693.21
44.9417	646.22
44.9562	608.41
44.9706	588.07
44.9851	593.92
44.9995	504.75
45.0139	518.21
45.0284	580.90
45.0428	555.59
45.0573	554.35
45.0717	588.53
45.0861	547.62
45.1006	535.46
45.1150	537.04
45.1295	523.15
45.1439	510.52
45.1583	516.84
45.1728	538.44
45.1872	522.37
45.2017	510.04
45.2161	525.27
45.2305	500.09
45.2450	513.86
45.2594	492.96
45.2739	527.39
45.2883	532.52
45.3028	508.34
45.3172	528.31
45.3316	508.07
45.3461	515.67
45.3605	478.28
45.3750	508.51
45.3894	537.50
45.4038	532.07
45.4183	506.03
45.4327	531.88
45.4472	498.42
45.4616	492.51
45.4760	516.64
45.4905	525.14
45.5049	467.72
45.5194	489.43
45.5338	502.74
45.5482	525.65
45.5627	538.81
45.5771	525.40
45.5916	503.34
45.6060	504.92
45.6204	523.55
45.6349	492.01
45.6493	506.83
45.6638	531.07
45.6782	521.35
45.6926	487.42
45.7071	503.85
45.7215	485.86
45.7360	492.05
45.7504	518.22
45.7648	517.87
45.7793	491.52
45.7937	483.46
45.8082	534.73
45.8226	541.66
45.8370	540.65
45.8515	516.76
45.8659	557.40
45.8804	497.26
45.8948	557.52
45.9092	509.01
45.9237	490.80
45.9381	502.05
45.9526	464.03
45.9670	470.37
45.9814	483.97
45.9959	479.38
46.0103	483.33
46.0248	510.19
46.0392	486.62
46.0536	464.52
46.0681	500.21
46.0825	509.29
46.0970	529.79
46.1114	506.04
46.1258	481.78
46.1403	482.78
46.1547	518.61
46.1692	497.61
46.1836	501.95
46.1980	501.23
46.2125	498.90
46.2269	518.71
46.2414	523.20
46.2558	477.80
46.2702	519.05
46.2847	524.83
46.2991	483.34
46.3136	479.76
46.3280	512.58
46.3424	516.51
46.3569	494.92
46.3713	490.90
46.3858	476.90
46.4002	493.06
46.4146	485.23
46.4291	507.13
46.4435	500.33
46.4580	495.28
46.4724	520.18
46.4868	531.56
46.5013	475.02
46.5157	475.91
46.5302	500.71
46.5446	517.34
46.5590	506.13
46.5735	499.82
46.5879	502.03
46.6024	464.26
46.6168	482.06
46.6312	496.25
46.6457	497.96
46.6601	486.77
46.6746	502.96
46.6890	505.83
46.7034	508.91
46.7179	519.33
46.7323	494.66
46.7468	498.89
46.7612	524.73
46.7756	508.32
46.7901	527.35
46.8045	518.10
46.8190	508.49
46.8334	508.01
46.8478	509.09
46.8623	517.59
46.8767	513.94
46.8912	505.27
46.9056	506.24
46.9200	514.16
46.9345	514.11
46.9489	518.06
46.9634	503.51
46.9778	483.18
46.9922	481.47
47.0067	507.99
47.0211	563.17
47.0356	542.08
47.0500	521.52
47.0644	520.17
47.0789	478.62
47.0933	512.34
47.1078	505.97
47.1222	530.73
47.1366	510.37
47.1511	466.83
47.1655	489.79
47.1800	518.31
47.1944	512.74
47.2088	509.88
47.2233	546.57
47.2377	496.22
47.2522	491.91
47.2666	499.21
47.2810	517.18
47.2955	495.54
47.3099	515.42
47.3244	520.27
47.3388	522.99
47.3532	495.86
47.3677	484.13
47.3821	499.35
47.3966	509.05
47.4110	550.19
47.4254	551.57
47.4399	545.33
47.4543	531.93
47.4688	527.48
47.4832	513.12
47.4976	499.94
47.5121	513.30
47.5265	497.96
47.5410	491.07
47.5554	512.84
47.5698	533.04
47.5843	511.62
47.5987	518.22
47.6132	511.99
47.6276	507.23
47.6420	498.34
47.6565	497.93
47.6709	482.39
47.6854	477.84
47.6998	480.69
47.7142	548.40
47.7287	482.21
47.7431	501.86
47.7576	530.70
47.7720	491.31
47.7864	504.56
47.8009	493.98
47.8153	514.09
47.8298	490.89
47.8442	486.09
47.8586	508.22
47.8731	490.70
47.8875	487.93
47.9020	516.01
47.9164	511.44
47.9308	501.79
47.9453	516.05
47.9597	518.26
47.9742	523.08
47.9886	527.55
48.0030	499.77
48.0175	479.53
48.0319	497.64
48.0464	510.36
48.0608	504.14
48.0752	501.26
48.0897	520.04
48.1041	486.85
48.1186	532.50
48.1330	519.71
48.1474	482.44
48.1619	522.42
48.1763	520.79
48.1908	491.12
48.2052	474.64
48.2196	514.06
48.2341	506.81
48.2485	513.88
48.2630	468.99
48.2774	516.61
48.2918	530.85
48.3063	498.05
48.3207	495.60
48.3352	483.36
48.3496	495.81
48.3640	494.07
48.3785	529.31
48.3929	501.26
48.4074	471.23
48.4218	519.57
48.4362	544.83
48.4507	513.08
48.4651	535.89
48.4796	544.75
48.4940	502.49
48.5084	496.32
48.5229	507.82
48.5373	508.85
48.5518	503.79
48.5662	502.71
48.5806	516.82
48.5951	523.75
48.6095	510.85
48.6240	469.60
48.6384	523.08
48.6528	529.52
48.6673	523.91
48.6817	536.94
48.6962	517.22
48.7106	493.74
48.7250	513.40
48.7395	485.13
48.7539	498.69
48.7684	492.36
48.7828	491.27
48.7972	516.97
48.8117	533.72
48.8261	499.59
48.8406	499.73
48.8550	535.84
48.8694	525.92
48.8839	544.17
48.8983	559.60
48.9128	529.19
48.9272	574.25
48.9416	532.73
48.9561	537.02
48.9705	549.97
48.9850	550.60
48.9994	585.13
49.0139	600.61
49.0283	625.49
49.0427	616.86
49.0572	618.57
49.0716	657.21
49.0861	632.55
49.1005	696.38
49.1149	687.92
49.1294	676.56
49.1438	736.83
49.1583	797.24
49.1727	849.00
49.1871	888.39
49.2016	949.57
49.2160	1082.39
49.2305	1133.93
49.2449	1173.76
49.2593	1313.62
49.2738	1342.88
49.2882	1431.43
49.3027	1559.34
49.3171	1599.89
49.3315	1707.83
49.3460	1744.70
49.3604	1781.20
49.3749	1798.14
49.3893	1788.38
49.4037	1758.78
49.4182	1789.66
49.4326	1762.35
49.4471	1695.91
49.4615	1644.61
49.4759	1618.89
49.4904	1528.44
49.5048	1393.22
49.5193	1339.22
49.5337	1295.68
49.5481	1213.16
49.5626	1134.60
49.5770	1050.21
49.5915	1001.46
49.6059	934.04
49.6203	893.09
49.6348	851.74
49.6492	805.55
49.6637	752.33
49.6781	704.62
49.6925	676.82
49.7070	674.55
49.7214	679.54
49.7359	617.93
49.7503	599.14
49.7647	569.76
49.7792	627.54
49.7936	569.92
49.8081	569.87
49.8225	566.04
49.8369	581.90
49.8514	610.93
49.8658	572.00
49.8803	519.80
49.8947	532.86
49.9091	549.74
49.9236	522.40
49.9380	525.29
49.9525	533.81
49.9669	535.67
49.9813	539.22
49.9958	554.31
50.0102	519.44
50.0247	480.14
50.0391	504.15
50.0535	519.46
50.0680	490.56
50.0824	522.30
50.0969	533.32
50.1113	551.44
50.1257	545.75
50.1402	529.81
50.1546	529.99
50.1691	552.44
50.1835	520.33
50.1979	481.67
50.2124	509.98
50.2268	517.34
50.2413	520.33
50.2557	515.14
50.2701	487.81
50.2846	536.58
50.2990	506.25
50.3135	525.20
50.3279	528.86
50.3423	548.82
50.3568	527.38
50.3712	522.83
50.3857	500.30
50.4001	502.51
50.4145	486.88
50.4290	480.34
50.4434	494.08
50.4579	508.25
50.4723	519.63
50.4867	506.68
50.5012	485.34
50.5156	500.03
50.5301	509.03
50.5445	530.03
50.5589	509.60
50.5734	519.28
50.5878	545.72
50.6023	496.99
50.6167	496.22
50.6311	510.63
50.6456	506.89
50.6600	504.29
50.6745	520.37
50.6889	520.02
50.7033	523.39
50.7178	522.17
50.7322	460.23
50.7467	489.67
50.7611	511.38
50.7755	537.08
50.7900	540.99
50.8044	531.33
50.8189	499.68
50.8333	509.27
50.8477	518.09
50.8622	530.07
50.8766	506.54
50.8911	523.90
50.9055	521.56
50.9199	513.89
50.9344	525.06
50.9488	499.25
50.9633	509.72
50.9777	538.97
50.9921	535.53
51.0066	496.14
51.0210	516.33
51.0355	541.46
51.0499	498.02
51.0643	516.44
51.0788	531.09
51.0932	519.04
51.1077	531.55
51.1221	499.03
51.1365	486.61
51.1510	512.12
51.1654	508.16
51.1799	494.97
51.1943	503.40
51.2087	520.49
51.2232	510.42
51.2376	477.30
51.2521	511.06
51.2665	509.71
51.2809	496.39
51.2954	495.85
51.3098	526.33
51.3243	516.28
51.3387	480.41
51.3531	479.71
51.3676	492.71
51.3820	483.16
51.3965	500.93
51.4109	556.83
51.4253	520.99
51.4398	478.04
51.4542	508.40
51.4687	517.10
51.4831	509.53
51.4975	511.09
51.5120	536.84
51.5264	527.48
51.5409	501.30
51.5553	529.93
51.5697	505.31
51.5842	509.32
51.5986	506.34
51.6131	501.14
51.6275	489.50
51.6419	491.85
51.6564	505.72
51.6708	492.32
51.6853	492.58
51.6997	534.45
51.7141	506.70
51.7286	499.98
51.7430	514.23
51.7575	511.86
51.7719	508.48
51.7863	511.68
51.8008	503.81
51.8152	535.20
51.8297	529.62
51.8441	508.54
51.8585	473.44
51.8730	512.27
51.8874	502.57
51.9019	547.21
51.9163	502.89
51.9307	501.04
51.9452	542.76
51.9596	488.88
51.9741	487.87
51.9885	513.31
52.0029	521.54
52.0174	505.80
52.0318	514.93
52.0463	490.29
52.0607	534.73
52.0751	499.26
52.0896	553.45
52.1040	500.70
52.1185	523.45
52.1329	495.80
52.1473	479.96
52.1618	491.51
52.1762	492.53
52.1907	497.26
52.2051	520.11
52.2195	511.01
52.2340	486.16
52.2484	526.93
52.2629	523.48
52.2773	514.06
52.2917	533.41
52.3062	510.12
52.3206	520.41
52.3351	513.06
52.3495	518.22
52.3639	523.96
52.3784	538.14
52.3928	513.38
52.4073	507.72
52.4217	506.77
52.4361	535.24
52.4506	504.30
52.4650	524.60
52.4795	508.18
52.4939	545.56
52.5083	500.10
52.5228	547.32
52.5372	520.44
52.5517	527.39
52.5661	535.67
52.5805	501.18
52.5950	499.26
52.6094	497.67
52.6239	542.80
52.6383	503.72
52.6527	505.01
52.6672	524.02
52.6816	481.47
52.6961	507.51
52.7105	548.28
52.7250	499.24
52.7394	505.59
52.7538	524.35
52.7683	531.82
52.7827	507.31
52.7972	498.14
52.8116	550.71
52.8260	509.67
52.8405	545.04
52.8549	540.51
52.8694	489.20
52.8838	500.87
52.8982	530.75
52.9127	525.61
52.9271	527.51
52.9416	498.98
52.9560	509.40
52.9704	525.97
52.9849	512.33
52.9993	485.91
53.0138	504.75
53.0282	502.63
53.0426	492.76
53.0571	496.09
53.0715	520.20
53.0860	526.93
53.1004	527.90
53.1148	548.54
53.1293	525.77
53.1437	483.91
53.1582	513.24
53.1726	502.11
53.1870	478.68
53.2015	479.80
53.2159	547.10
53.2304	506.19
53.2448	539.10
53.2592	545.54
53.2737	516.00
53.2881	519.26
53.3026	470.93
53.3170	491.54
53.3314	518.31
53.3459	471.53
53.3603	471.14
53.3748	490.77
53.3892	526.73
53.4036	510.16
53.4181	496.56
53.4325	512.81
53.4470	490.29
53.4614	497.41
53.4758	533.82
53.4903	545.52
53.5047	523.91
53.5192	501.30
53.5336	547.15
53.5480	539.26
53.5625	499.27
53.5769	507.62
53.5914	522.31
53.6058	531.20
53.6202	538.93
53.6347	555.17
53.6491	538.95
53.6636	506.80
53.6780	524.24
53.6924	501.79
53.7069	518.00
53.7213	498.15
53.7358	523.31
53.7502	517.26
53.7646	487.42
53.7791	496.58
53.7935	486.07
53.8080	524.91
53.8224	516.45
53.8368	476.60
53.8513	508.09
53.8657	541.51
53.8802	503.96
53.8946	507.45
53.9090	514.33
53.9235	525.98
53.9379	540.01
53.9524	524.78
53.9668	529.31
53.9812	518.15
53.9957	516.13
54.0101	516.81
54.0246	511.76
54.0390	547.20
54.0534	549.28
54.0679	524.73
54.0823	535.26
54.0968	524.00
54.1112	523.34
54.1256	530.84
54.1401	515.32
54.1545	485.97
54.1690	526.40
54.1834	529.44
54.1978	485.28
54.2123	503.58
54.2267	507.83
54.2412	504.13
54.2556	517.82
54.2700	511.72
54.2845	527.23
54.2989	506.26
54.3134	531.37
54.3278	533.10
54.3422	550.14
54.3567	545.83
54.3711	530.92
54.3856	497.14
54.4000	511.69
54.4144	522.83
54.4289	524.47
54.4433	487.95
54.4578	506.03
54.4722	525.97
54.4866	555.98
54.5011	514.53
54.5155	543.08
54.5300	518.99
54.5444	527.79
54.5588	522.03
54.5733	520.18
54.5877	540.11
54.6022	536.12
54.6166	546.68
54.6310	540.31
54.6455	544.74
54.6599	540.26
54.6744	505.36
54.6888	545.48
54.7032	556.42
54.7177	575.25
54.7321	541.20
54.7466	563.87
54.7610	566.39
54.7754	570.10
54.7899	572.39
54.8043	553.64
54.8188	568.89
54.8332	556.15
54.8476	575.63
54.8621	588.23
54.8765	587.17
54.8910	556.61
54.9054	591.84
54.9198	599.26
54.9343	605.09
54.9487	591.71
54.9632	596.01
54.9776	557.40
54.9920	568.50
55.0065	576.63
55.0209	582.35
55.0354	542.30
55.0498	543.45
55.0642	566.44
55.0787	559.78
55.0931	549.09
55.1076	524.15
55.1220	523.99
55.1364	555.67
55.1509	558.88
55.1653	560.07
55.1798	524.83
55.1942	508.48
55.2086	542.90
55.2231	540.34
55.2375	515.41
55.2520	518.99
55.2664	506.94
55.2808	507.34
55.2953	509.77
55.3097	545.20
55.3242	542.54
55.3386	516.67
55.3530	530.50
55.3675	516.16
55.3819	497.66
55.3964	497.33
55.4108	528.44
55.4252	543.20
55.4397	499.23
55.4541	498.55
55.4686	513.98
55.4830	521.69
55.4974	521.07
55.5119	504.27
55.5263	499.54
55.5408	524.42
55.5552	558.10
55.5696	508.58
55.5841	528.93
55.5985	547.73
55.6130	531.61
55.6274	515.95
55.6418	547.21
55.6563	520.75
55.6707	515.68
55.6852	514.47
55.6996	534.28
55.7140	539.39
55.7285	548.45
55.7429	530.07
55.7574	517.80
55.7718	488.04
55.7862	516.62
55.8007	518.52
55.8151	539.41
55.8296	531.81
55.8440	526.22
55.8584	520.36
55.8729	518.06
55.8873	546.31
55.9018	535.85
55.9162	541.92
55.9306	515.07
55.9451	535.73
55.9595	530.10
55.9740	539.55
55.9884	518.43
56.0028	518.57
56.0173	555.80
56.0317	552.19
56.0462	522.85
56.0606	541.21
56.0750	502.22
56.0895	518.76
56.1039	541.37
56.1184	525.63
56.1328	538.26
56.1472	515.95
56.1617	509.50
56.1761	522.96
56.1906	483.59
56.2050	491.54
56.2194	525.74
56.2339	520.30
56.2483	530.17
56.2628	501.14
56.2772	505.45
56.2916	506.07
56.3061	521.48
56.3205	545.16
56.3350	487.40
56.3494	493.65
56.3639	514.68
56.3783	519.53
56.3927	497.33
56.4072	509.59
56.4216	512.90
56.4361	517.13
56.4505	510.57
56.4649	524.78
56.4794	511.38
56.4938	515.82
56.5083	513.35
56.5227	501.46
56.5371	515.37
56.5516	549.94
56.5660	534.00
56.5805	522.47
56.5949	532.31
56.6093	519.62
56.6238	524.95
56.6382	528.05
56.6527	530.24
56.6671	506.95
56.6815	517.48
56.6960	527.66
56.7104	527.89
56.7249	526.49
56.7393	548.63
56.7537	533.01
56.7682	500.29
56.7826	529.14
56.7971	516.45
56.8115	521.20
56.8259	522.65
56.8404	513.73
56.8548	523.72
56.8693	535.11
56.8837	502.50
56.8981	546.26
56.9126	546.75
56.9270	530.69
56.9415	543.13
56.9559	511.29
56.9703	524.27
56.9848	507.63
56.9992	518.11
57.0137	520.19
57.0281	521.91
57.0425	509.22
57.0570	521.14
57.0714	519.18
57.0859	536.53
57.1003	526.88
57.1147	542.02
57.1292	528.83
57.1436	523.59
57.1581	557.84
57.1725	559.03
57.1869	548.86
57.2014	528.69
57.2158	524.12
57.2303	552.41
57.2447	535.04
57.2591	493.66
57.2736	535.79
57.2880	529.69
57.3025	508.58
57.3169	520.72
57.3313	519.81
57.3458	502.52
57.3602	528.85
57.3747	511.27
57.3891	522.30
57.4035	516.34
57.4180	520.89
57.4324	526.78
57.4469	480.47
57.4613	500.50
57.4757	517.78
57.4902	505.62
57.5046	529.29
57.5191	533.51
57.5335	513.32
57.5479	517.55
57.5624	516.07
57.5768	557.08
57.5913	577.08
57.6057	557.07
57.6201	533.08
57.6346	559.80
57.6490	490.54
57.6635	535.71
57.6779	494.19
57.6923	513.09
57.7068	565.04
57.7212	541.80
57.7357	502.38
57.7501	526.71
57.7645	489.56
57.7790	509.71
57.7934	526.46
57.8079	557.57
57.8223	569.61
57.8367	541.78
57.8512	513.68
57.8656	531.42
57.8801	527.30
57.8945	557.15
57.9089	550.26
57.9234	524.68
57.9378	543.97
57.9523	512.62
57.9667	551.03
57.9811	524.69
57.9956	529.07
58.0100	516.64
58.0245	520.48
58.0389	535.32
58.0533	534.54
58.0678	552.12
58.0822	535.56
58.0967	554.85
58.1111	558.38
58.1255	591.08
58.1400	546.41
58.1544	502.13
58.1689	553.44
58.1833	541.25
58.1977	536.97
58.2122	543.92
58.2266	550.65
58.2411	547.77
58.2555	557.73
58.2699	557.74
58.2844	570.09
58.2988	585.91
58.3133	554.52
58.3277	590.19
58.3421	612.30
58.3566	585.09
58.3710	558.91
58.3855	561.32
58.3999	611.24
58.4143	661.01
58.4288	634.19
58.4432	631.46
58.4577	653.45
58.4721	655.64
58.4865	668.56
58.5010	655.48
58.5154	634.78
58.5299	631.72
58.5443	627.55
58.5587	627.89
58.5732	660.73
58.5876	640.85
58.6021	612.89
58.6165	619.92
58.6309	621.38
58.6454	589.76
58.6598	582.78
58.6743	581.92
58.6887	593.80
58.7031	604.87
58.7176	578.34
58.7320	572.40
58.7465	611.18
58.7609	586.90
58.7753	532.42
58.7898	543.71
58.8042	542.25
58.8187	601.22
58.8331	564.61
58.8475	546.69
58.8620	583.31
58.8764	560.48
58.8909	554.17
58.9053	587.25
58.9197	583.14
58.9342	534.19
58.9486	574.31
58.9631	547.52
58.9775	553.10
58.9919	567.57
59.0064	585.09
59.0208	548.69
59.0353	550.63
59.0497	553.07
59.0641	548.16
59.0786	544.98
59.0930	573.24
59.1075	578.99
59.1219	567.24
59.1363	538.84
59.1508	511.95
59.1652	528.18
59.1797	552.62
59.1941	539.21
59.2085	534.42
59.2230	523.87
59.2374	547.39
59.2519	538.32
59.2663	539.98
59.2807	540.48
59.2952	559.84
59.3096	539.57
59.3241	539.74
59.3385	573.77
59.3529	551.93
59.3674	535.06
59.3818	546.93
59.3963	565.16
59.4107	569.08
59.4251	558.32
59.4396	558.72
59.4540	563.15
59.4685	566.25
59.4829	546.10
59.4973	561.27
59.5118	556.70
59.5262	556.65
59.5407	552.95
59.5551	564.02
59.5695	556.07
59.5840	556.03
59.5984	586.63
59.6129	559.34
59.6273	499.21
59.6417	521.43
59.6562	570.03
59.6706	531.87
59.6851	551.62
59.6995	560.17
59.7139	552.01
59.7284	516.52
59.7428	527.72
59.7573	557.94
59.7717	530.85
59.7861	500.12
59.8006	511.13
59.8150	546.94
59.8295	554.74
59.8439	523.16
59.8583	557.31
59.8728	527.22
59.8872	515.16
59.9017	490.92
59.9161	524.48
59.9305	513.64
59.9450	527.24
59.9594	530.70
59.9739	540.47
59.9883	500.57
60.0027	546.07
60.0172	578.35
60.0316	560.44
60.0461	518.28
60.0605	491.72
60.0750	525.10
60.0894	564.61
60.1038	554.85
60.1183	496.87
60.1327	533.61
60.1472	492.00
60.1616	548.96
60.1760	546.84
60.1905	564.20
60.2049	517.16
60.2194	546.51
60.2338	527.43
60.2482	507.33
60.2627	504.39
60.2771	542.68
60.2916	506.89
60.3060	565.43
60.3204	556.03
60.3349	559.77
60.3493	573.38
60.3638	532.44
60.3782	539.99
60.3926	533.45
60.4071	538.52
60.4215	528.74
60.4360	538.31
60.4504	549.79
60.4648	520.08
60.4793	561.01
60.4937	555.39
60.5082	529.66
60.5226	511.77
60.5370	516.37
60.5515	527.19
60.5659	557.48
60.5804	559.57
60.5948	543.83
60.6092	563.24
60.6237	532.84
60.6381	564.28
60.6526	524.05
60.6670	530.20
60.6814	501.80
60.6959	494.79
60.7103	538.95
60.7248	535.29
60.7392	575.92
60.7536	556.58
60.7681	533.62
60.7825	541.36
60.7970	500.46
60.8114	566.28
60.8258	553.64
60.8403	521.18
60.8547	526.59
60.8692	545.07
60.8836	524.33
60.8980	564.93
60.9125	551.14
60.9269	537.54
60.9414	520.47
60.9558	539.42
60.9702	517.94
60.9847	574.04
60.9991	551.92
61.0136	548.26
61.0280	588.83
61.0424	600.97
61.0569	516.80
61.0713	532.19
61.0858	581.79
61.1002	546.39
61.1146	542.89
61.1291	529.36
61.1435	513.39
61.1580	556.46
61.1724	555.39
61.1868	562.44
61.2013	556.98
61.2157	561.82
61.2302	535.72
61.2446	532.34
61.2590	507.47
61.2735	520.14
61.2879	522.85
61.3024	525.30
61.3168	498.03
61.3312	507.40
61.3457	545.35
61.3601	534.19
61.3746	528.56
61.3890	537.86
61.4034	543.49
61.4179	549.36
61.4323	584.90
61.4468	545.48
61.4612	578.45
61.4756	535.66
61.4901	587.15
61.5045	543.61
61.5190	548.53
61.5334	555.77
61.5478	528.78
61.5623	541.20
61.5767	528.73
61.5912	565.82
61.6056	544.13
61.6200	560.64
61.6345	558.54
61.6489	530.75
61.6634	548.58
61.6778	552.39
61.6922	553.29
61.7067	557.87
61.7211	559.65
61.7356	501.66
61.7500	554.62
61.7644	574.89
61.7789	556.85
61.7933	552.41
61.8078	564.65
61.8222	569.23
61.8366	550.68
61.8511	553.36
61.8655	561.81
61.8800	520.79
61.8944	542.87
61.9088	547.16
61.9233	575.43
61.9377	558.49
61.9522	517.44
61.9666	513.29
61.9810	535.18
61.9955	572.07
62.0099	555.91
62.0244	564.52
62.0388	558.98
62.0532	523.82
62.0677	586.40
62.0821	607.41
62.0966	547.72
62.1110	560.56
62.1254	586.70
62.1399	570.91
62.1543	549.40
62.1688	531.40
62.1832	536.35
62.1976	534.02
62.2121	566.63
62.2265	574.18
62.2410	583.03
62.2554	558.62
62.2698	544.55
62.2843	514.46
62.2987	544.47
62.3132	574.04
62.3276	576.68
62.3420	551.47
62.3565	556.37
62.3709	523.06
62.3854	543.04
62.3998	558.62
62.4142	545.69
62.4287	562.48
62.4431	534.44
62.4576	554.81
62.4720	590.74
62.4864	569.96
62.5009	565.87
62.5153	560.23
62.5298	553.52
62.5442	548.81
62.5586	524.19
62.5731	538.91
62.5875	539.33
62.6020	550.61
62.6164	556.26
62.6308	551.39
62.6453	580.30
62.6597	582.42
62.6742	575.83
62.6886	556.99
62.7030	570.23
62.7175	584.09
62.7319	557.85
62.7464	586.44
62.7608	529.09
62.7752	571.78
62.7897	594.79
62.8041	545.09
62.8186	541.93
62.8330	540.52
62.8474	531.01
62.8619	559.50
62.8763	563.96
62.8908	559.85
62.9052	611.52
62.9196	563.44
62.9341	549.27
62.9485	570.25
62.9630	551.32
62.9774	545.63
62.9918	559.15
63.0063	569.40
63.0207	586.88
63.0352	571.13
63.0496	579.28
63.0640	573.56
63.0785	593.67
63.0929	589.09
63.1074	566.21
63.1218	554.94
63.1362	556.93
63.1507	537.82
63.1651	589.00
63.1796	589.78
63.1940	561.18
63.2084	551.86
63.2229	583.67
63.2373	605.33
63.2518	578.34
63.2662	550.14
63.2806	565.53
63.2951	544.19
63.3095	560.42
63.3240	556.22
63.3384	577.94
63.3528	607.96
63.3673	585.32
63.3817	584.56
63.3962	587.17
63.4106	586.79
63.4250	546.37
63.4395	535.23
63.4539	551.09
63.4684	578.75
63.4828	585.52
63.4972	575.64
63.5117	567.06
63.5261	572.93
63.5406	577.39
63.5550	557.49
63.5694	568.15
63.5839	563.74
63.5983	564.84
63.6128	568.21
63.6272	582.12
63.6416	574.33
63.6561	572.36
63.6705	586.04
63.6850	606.80
63.6994	594.63
63.7138	608.27
63.7283	584.31
63.7427	576.60
63.7572	567.63
63.7716	573.08
63.7861	616.28
63.8005	616.61
63.8149	583.21
63.8294	581.79
63.8438	566.26
63.8583	601.73
63.8727	610.14
63.8871	594.70
63.9016	617.55
63.9160	599.17
63.9305	619.16
63.9449	627.78
63.9593	604.28
63.9738	613.12
63.9882	631.05
64.0027	638.24
64.0171	646.25
64.0315	679.10
64.0460	665.39
64.0604	632.70
64.0749	689.24
64.0893	629.13
64.1037	654.42
64.1182	706.96
64.1326	707.52
64.1471	679.58
64.1615	692.96
64.1759	734.28
64.1904	728.44
64.2048	776.74
64.2193	808.64
64.2337	802.89
64.2481	776.63
64.2626	758.77
64.2770	809.27
64.2915	807.18
64.3059	760.06
64.3203	787.92
64.3348	811.04
64.3492	745.62
64.3637	794.65
64.3781	814.25
64.3925	780.26
64.4070	780.03
64.4214	817.44
64.4359	748.29
64.4503	767.28
64.4647	759.66
64.4792	719.39
64.4936	743.78
64.5081	716.03
64.5225	754.57
64.5369	734.04
64.5514	719.14
64.5658	725.80
64.5803	729.59
64.5947	679.57
64.6091	708.99
64.6236	686.30
64.6380	695.15
64.6525	711.21
64.6669	689.47
64.6813	691.09
64.6958	735.91
64.7102	691.96
64.7247	718.64
64.7391	729.16
64.7535	722.09
64.7680	745.96
64.7824	745.16
64.7969	753.31
64.8113	802.66
64.8257	742.99
64.8402	797.92
64.8546	851.67
64.8691	886.07
64.8835	850.25
64.8979	893.98
64.9124	864.91
64.9268	856.34
64.9413	893.43
64.9557	970.41
64.9701	1010.02
64.9846	1065.64
64.9990	1180.08
65.0135	1300.61
65.0279	1510.44
65.0423	1741.96
65.0568	2089.57
65.0712	2544.09
65.0857	3452.43
65.1001	4398.35
65.1145	5910.31
65.1290	7863.47
65.1434	9376.27
65.1579	11047.89
65.1723	11820.09
65.1867	11418.54
65.2012	10125.88
65.2156	8403.76
65.2301	6714.26
65.2445	5393.16
65.2589	4413.18
65.2734	4134.16
65.2878	4285.45
65.3023	4896.97
65.3167	5759.93
65.3311	6530.22
65.3456	6964.24
65.3600	6932.84
65.3745	6378.25
65.3889	5494.73
65.4033	4332.41
65.4178	3573.19
65.4322	2772.55
65.4467	2102.80
65.4611	1739.94
65.4755	1473.11
65.4900	1253.20
65.5044	1187.88
65.5189	1087.78
65.5333	1033.69
65.5477	960.97
65.5622	898.71
65.5766	852.29
65.5911	837.70
65.6055	820.69
65.6199	806.44
65.6344	770.68
65.6488	768.26
65.6633	729.98
65.6777	704.50
65.6921	713.28
65.7066	719.99
65.7210	709.41
65.7355	669.60
65.7499	649.85
65.7643	651.78
65.7788	666.39
65.7932	698.31
65.8077	706.15
65.8221	675.24
65.8365	659.60
65.8510	653.64
65.8654	662.55
65.8799	639.68
65.8943	643.39
65.9087	699.87
65.9232	662.67
65.9376	676.47
65.9521	638.30
65.9665	582.78
65.9809	645.20
65.9954	613.13
66.0098	605.49
66.0243	635.13
66.0387	605.42
66.0531	604.60
66.0676	652.04
66.0820	636.71
66.0965	645.38
66.1109	631.99
66.1253	644.31
66.1398	645.71
66.1542	632.47
66.1687	691.22
66.1831	626.52
66.1975	626.50
66.2120	629.61
66.2264	581.24
66.2409	637.68
66.2553	658.63
66.2697	639.87
66.2842	610.60
66.2986	604.76
66.3131	628.39
66.3275	604.36
66.3419	631.26
66.3564	594.46
66.3708	604.67
66.3853	625.01
66.3997	595.40
66.4141	596.45
66.4286	575.69
66.4430	549.61
66.4575	575.36
66.4719	621.84
66.4863	596.44
66.5008	581.23
66.5152	592.63
66.5297	619.58
66.5441	589.77
66.5585	573.79
66.5730	554.98
66.5874	578.09
66.6019	610.86
66.6163	571.56
66.6307	585.61
66.6452	597.03
66.6596	573.78
66.6741	596.07
66.6885	589.44
66.7029	602.77
66.7174	593.46
66.7318	589.32
66.7463	591.84
66.7607	590.97
66.7751	590.15
66.7896	569.81
66.8040	602.00
66.8185	579.97
66.8329	582.65
66.8473	595.22
66.8618	586.25
66.8762	571.93
66.8907	585.40
66.9051	602.71
66.9195	564.75
66.9340	599.36
66.9484	599.01
66.9629	595.14
66.9773	580.18
66.9917	575.00
67.0062	608.88
67.0206	640.87
67.0351	655.14
67.0495	615.69
67.0639	578.60
67.0784	588.27
67.0928	584.83
67.1073	589.41
67.1217	598.55
67.1361	586.43
67.1506	560.55
67.1650	572.81
67.1795	630.05
67.1939	603.56
67.2083	587.66
67.2228	594.70
67.2372	582.83
67.2517	598.22
67.2661	588.89
67.2805	623.16
67.2950	590.57
67.3094	596.10
67.3239	578.92
67.3383	582.88
67.3527	584.28
67.3672	594.55
67.3816	599.26
67.3961	552.62
67.4105	568.47
67.4250	580.56
67.4394	585.98
67.4538	579.65
67.4683	593.24
67.4827	575.71
67.4972	568.06
67.5116	568.40
67.5260	568.22
67.5405	579.89
67.5549	588.72
67.5694	551.79
67.5838	585.79
67.5982	566.80
67.6127	554.43
67.6271	573.13
67.6416	560.46
67.6560	569.41
67.6704	576.50
67.6849	577.05
67.6993	573.83
67.7138	588.57
67.7282	575.13
67.7426	569.72
67.7571	571.27
67.7715	585.07
67.7860	562.79
67.8004	545.53
67.8148	575.11
67.8293	607.62
67.8437	562.58
67.8582	556.49
67.8726	579.19
67.8870	583.94
67.9015	629.64
67.9159	585.07
67.9304	593.36
67.9448	576.09
67.9592	562.03
67.9737	572.77
67.9881	580.59
68.0026	588.70
68.0170	583.24
68.0314	600.21
68.0459	594.98
68.0603	591.08
68.0748	570.47
68.0892	590.43
68.1036	617.47
68.1181	609.17
68.1325	539.99
68.1470	524.18
68.1614	578.66
68.1758	560.16
68.1903	554.06
68.2047	580.27
68.2192	617.00
68.2336	615.90
68.2480	566.27
68.2625	561.00
68.2769	576.39
68.2914	553.92
68.3058	580.83
68.3202	557.06
68.3347	605.96
68.3491	582.07
68.3636	560.05
68.3780	563.98
68.3924	562.00
68.4069	576.94
68.4213	616.60
68.4358	572.56
68.4502	506.14
68.4646	547.19
68.4791	560.87
68.4935	587.36
68.5080	581.36
68.5224	580.29
68.5368	594.04
68.5513	585.25
68.5657	548.54
68.5802	552.04
68.5946	569.12
68.6090	576.51
68.6235	549.13
68.6379	552.27
68.6524	537.80
68.6668	545.32
68.6812	561.62
68.6957	574.37
68.7101	573.18
68.7246	591.97
68.7390	606.82
68.7534	633.02
68.7679	595.60
68.7823	586.84
68.7968	590.37
68.8112	554.80
68.8256	602.70
68.8401	574.55
68.8545	566.43
68.8690	587.45
68.8834	535.00
68.8978	592.56
68.9123	567.84
68.9267	576.33
68.9412	547.20
68.9556	556.56
68.9700	601.12
68.9845	602.66
68.9989	571.36
69.0134	535.17
69.0278	553.81
69.0422	554.13
69.0567	572.30
69.0711	563.81
69.0856	581.31
69.1000	578.92
69.1144	603.00
69.1289	556.48
69.1433	503.34
69.1578	554.04
69.1722	599.33
69.1866	531.75
69.2011	553.16
69.2155	564.84
69.2300	556.41
69.2444	568.75
69.2588	552.95
69.2733	557.94
69.2877	641.53
69.3022	636.71
69.3166	585.34
69.3310	610.17
69.3455	622.74
69.3599	552.97
69.3744	560.70
69.3888	548.91
69.4032	629.87
69.4177	540.08
69.4321	640.05
69.4466	538.20
69.4610	557.54
69.4754	605.04
69.4899	560.85
69.5043	554.77
69.5188	562.55
69.5332	595.40
69.5476	574.18
69.5621	573.21
69.5765	556.44
69.5910	580.50
69.6054	585.26
69.6198	560.36
69.6343	594.47
69.6487	572.84
69.6632	597.17
69.6776	568.17
69.6920	532.42
69.7065	553.16
69.7209	587.25
69.7354	589.71
69.7498	590.03
69.7642	619.38
69.7787	602.47
69.7931	599.29
69.8076	589.08
69.8220	551.36
69.8364	575.30
69.8509	594.06
69.8653	581.81
69.8798	561.71
69.8942	594.07
69.9086	623.97
69.9231	614.47
69.9375	629.24
69.9520	599.01
69.9664	596.07
69.9808	562.82
69.9953	592.14
70.0097	569.95
70.0242	552.52
70.0386	568.81
70.0530	558.78
70.0675	500.08
70.0819	561.19
70.0964	573.57
70.1108	575.84
70.1252	548.99
70.1397	549.96
70.1541	564.33
70.1686	572.17
70.1830	598.28
70.1974	591.09
70.2119	598.23
70.2263	578.75
70.2408	703.16
70.2552	589.88
70.2696	604.76
70.2841	538.64
70.2985	540.26
70.3130	539.10
70.3274	645.24
70.3418	611.46
70.3563	595.90
70.3707	578.09
70.3852	576.73
70.3996	554.52
70.4140	574.50
70.4285	630.33
70.4429	614.80
70.4574	574.16
70.4718	642.61
70.4862	606.17
70.5007	578.37
70.5151	592.10
70.5296	579.90
70.5440	534.77
70.5584	569.18
70.5729	565.91
70.5873	552.45
70.6018	568.76
70.6162	569.94
70.6306	552.68
70.6451	550.56
70.6595	575.51
70.6740	598.37
70.6884	542.52
70.7028	578.23
70.7173	605.81
70.7317	577.51
70.7462	531.60
70.7606	549.07
70.7750	596.72
70.7895	576.42
70.8039	584.57
70.8184	666.79
70.8328	653.04
70.8472	612.86
70.8617	548.28
70.8761	577.14
70.8906	581.99
70.9050	617.13
70.9194	604.78
70.9339	616.49
70.9483	607.51
70.9628	631.92
70.9772	602.48
70.9916	568.25
71.0061	530.81
71.0205	518.50
71.0350	592.69
71.0494	580.33
71.0638	575.25
71.0783	599.83
71.0927	599.72
71.1072	588.72
71.1216	588.02
71.1361	572.54
71.1505	600.37
71.1649	610.83
71.1794	629.18
71.1938	627.15
71.2083	590.99
71.2227	524.69
71.2371	558.40
71.2516	599.49
71.2660	545.97
71.2805	588.24
71.2949	557.86
71.3093	571.29
71.3238	585.01
71.3382	600.80
71.3527	641.42
71.3671	571.66
71.3815	558.67
71.3960	556.41
71.4104	518.83
71.4249	575.56
71.4393	617.66
71.4537	569.60
71.4682	565.16
71.4826	572.31
71.4971	594.88
71.5115	604.84
71.5259	601.36
71.5404	573.05
71.5548	599.82
71.5693	578.73
71.5837	577.12
71.5981	584.10
71.6126	557.08
71.6270	532.99
71.6415	543.33
71.6559	553.34
71.6703	528.54
71.6848	539.66
71.6992	604.85
71.7137	597.48
71.7281	605.53
71.7425	577.17
71.7570	545.96
71.7714	565.32
71.7859	570.13
71.8003	560.57
71.8147	603.13
71.8292	594.72
71.8436	571.11
71.8581	594.68
71.8725	604.84
71.8869	549.58
71.9014	557.97
71.9158	498.58
71.9303	531.26
71.9447	581.62
71.9591	612.35
71.9736	621.71
71.9880	581.70
72.0025	590.70
72.0169	615.31
72.0313	582.75
72.0458	521.45
72.0602	539.26
72.0747	492.84
72.0891	574.30
72.1035	659.81
72.1180	608.60
72.1324	561.78
72.1469	560.59
72.1613	591.27
72.1757	654.13
72.1902	579.17
72.2046	548.85
72.2191	577.47
72.2335	512.30
72.2479	521.92
72.2624	547.62
72.2768	590.95
72.2913	547.54
72.3057	500.33
72.3201	516.94
72.3346	535.85
72.3490	517.25
72.3635	547.61
72.3779	629.52
72.3923	609.75
72.4068	540.31
72.4212	575.13
72.4357	593.40
72.4501	544.74
72.4645	568.86
72.4790	523.10
72.4934	513.12
72.5079	530.36
72.5223	564.01
72.5367	555.97
72.5512	520.31
72.5656	581.22
72.5801	566.26
72.5945	510.94
72.6089	525.49
72.6234	539.86
72.6378	578.51
72.6523	556.41
72.6667	554.77
72.6811	508.28
72.6956	471.72
72.7100	612.11
72.7245	592.89
72.7389	534.84
72.7533	537.17
72.7678	568.65
72.7822	574.51
72.7967	588.86
72.8111	670.31
72.8255	631.11
72.8400	596.81
72.8544	605.37
72.8689	627.91
72.8833	578.80