2022.09.19 19:37:17
Îáðàçåö: ß÷åéêà LCoV 16-09-2022
Lambda1 = 1.54060
Lambda2 = 1.54439
Lambdam = 1.54186
R = 0.497
2Theta	I

line¹ 0 ;repeat¹ 0
22.1120	622.11
22.1264	666.76
22.1409	617.81
22.1553	530.61
22.1697	550.13
22.1842	583.16
22.1986	550.18
22.2131	536.75
22.2275	553.24
22.2419	571.29
22.2564	641.78
22.2708	617.68
22.2853	618.72
22.2997	549.87
22.3141	633.74
22.3286	613.41
22.3430	627.71
22.3575	649.28
22.3719	479.71
22.3863	603.89
22.4008	651.75
22.4152	632.63
22.4297	686.65
22.4441	649.09
22.4585	619.95
22.4730	647.91
22.4874	641.16
22.5019	524.42
22.5163	578.15
22.5307	609.47
22.5452	668.29
22.5596	644.96
22.5741	613.83
22.5885	612.63
22.6029	621.10
22.6174	584.81
22.6318	501.19
22.6463	600.30
22.6607	733.11
22.6751	687.09
22.6896	561.37
22.7040	512.06
22.7185	544.00
22.7329	607.43
22.7473	640.39
22.7618	575.44
22.7762	624.37
22.7907	649.43
22.8051	587.81
22.8195	559.31
22.8340	569.43
22.8484	582.23
22.8629	551.92
22.8773	490.20
22.8917	512.02
22.9062	635.47
22.9206	531.99
22.9351	513.22
22.9495	536.26
22.9639	539.17
22.9784	553.20
22.9928	592.71
23.0073	568.63
23.0217	627.68
23.0361	575.35
23.0506	649.74
23.0650	558.51
23.0795	620.84
23.0939	630.15
23.1083	527.74
23.1228	488.74
23.1372	597.05
23.1517	503.42
23.1661	636.14
23.1806	537.90
23.1950	558.35
23.2094	563.04
23.2239	609.81
23.2383	615.17
23.2528	574.43
23.2672	626.85
23.2816	558.26
23.2961	497.05
23.3105	567.86
23.3250	526.30
23.3394	535.39
23.3538	544.24
23.3683	583.90
23.3827	553.18
23.3972	505.26
23.4116	473.30
23.4260	622.25
23.4405	582.85
23.4549	580.10
23.4694	652.35
23.4838	615.92
23.4982	502.10
23.5127	535.38
23.5271	620.14
23.5416	512.59
23.5560	525.47
23.5704	577.98
23.5849	551.22
23.5993	471.21
23.6138	653.03
23.6282	516.90
23.6426	523.61
23.6571	493.14
23.6715	516.19
23.6860	542.64
23.7004	641.99
23.7148	456.28
23.7293	522.05
23.7437	537.03
23.7582	560.61
23.7726	536.05
23.7870	576.92
23.8015	556.24
23.8159	552.10
23.8304	580.02
23.8448	549.89
23.8592	675.20
23.8737	597.46
23.8881	636.50
23.9026	530.31
23.9170	594.82
23.9314	553.90
23.9459	603.54
23.9603	568.40
23.9748	513.91
23.9892	621.23
24.0036	558.36
24.0181	519.79
24.0325	591.11
24.0470	553.03
24.0614	573.85
24.0758	575.37
24.0903	567.09
24.1047	544.66
24.1192	573.59
24.1336	579.16
24.1480	572.03
24.1625	551.17
24.1769	592.66
24.1914	586.79
24.2058	537.89
24.2202	565.63
24.2347	539.80
24.2491	543.77
24.2636	533.34
24.2780	583.23
24.2924	608.20
24.3069	606.57
24.3213	589.04
24.3358	525.92
24.3502	606.79
24.3646	516.55
24.3791	530.85
24.3935	564.71
24.4080	566.00
24.4224	568.31
24.4368	552.47
24.4513	534.07
24.4657	559.28
24.4802	558.23
24.4946	524.38
24.5090	481.82
24.5235	524.88
24.5379	569.39
24.5524	587.38
24.5668	577.98
24.5812	588.70
24.5957	586.40
24.6101	570.69
24.6246	581.53
24.6390	539.02
24.6534	553.46
24.6679	528.66
24.6823	490.03
24.6968	541.90
24.7112	482.20
24.7256	489.66
24.7401	566.07
24.7545	557.63
24.7690	520.46
24.7834	544.57
24.7978	501.97
24.8123	556.18
24.8267	546.59
24.8412	597.56
24.8556	517.98
24.8700	612.42
24.8845	608.53
24.8989	574.63
24.9134	571.87
24.9278	585.46
24.9422	562.20
24.9567	573.09
24.9711	579.23
24.9856	556.06
25.0000	596.00
25.0144	570.05
25.0289	574.56
25.0433	493.71
25.0578	561.69
25.0722	559.31
25.0866	610.89
25.1011	555.17
25.1155	560.42
25.1300	556.41
25.1444	524.48
25.1588	545.99
25.1733	545.37
25.1877	554.26
25.2022	562.36
25.2166	552.02
25.2310	537.52
25.2455	533.77
25.2599	520.33
25.2744	549.95
25.2888	532.04
25.3032	520.30
25.3177	545.73
25.3321	586.33
25.3466	538.21
25.3610	560.79
25.3754	559.61
25.3899	518.47
25.4043	562.76
25.4188	559.35
25.4332	548.10
25.4476	509.14
25.4621	547.03
25.4765	516.39
25.4910	521.37
25.5054	525.33
25.5198	568.32
25.5343	545.72
25.5487	536.98
25.5632	520.79
25.5776	488.77
25.5920	547.52
25.6065	546.66
25.6209	539.76
25.6354	542.86
25.6498	578.93
25.6642	515.27
25.6787	508.61
25.6931	516.86
25.7076	551.70
25.7220	539.93
25.7364	541.97
25.7509	558.70
25.7653	517.69
25.7798	564.91
25.7942	567.69
25.8086	545.27
25.8231	537.68
25.8375	535.80
25.8520	556.68
25.8664	561.33
25.8808	538.95
25.8953	561.10
25.9097	530.85
25.9242	543.13
25.9386	545.41
25.9530	538.11
25.9675	552.14
25.9819	557.13
25.9964	532.98
26.0108	512.98
26.0252	529.27
26.0397	520.43
26.0541	541.64
26.0686	552.69
26.0830	539.79
26.0974	513.65
26.1119	536.20
26.1263	530.87
26.1408	513.02
26.1552	506.16
26.1696	517.75
26.1841	519.42
26.1985	559.07
26.2130	557.68
26.2274	551.04
26.2418	520.55
26.2563	518.31
26.2707	532.94
26.2852	513.28
26.2996	500.50
26.3140	522.32
26.3285	528.71
26.3429	561.34
26.3574	543.27
26.3718	550.23
26.3862	546.35
26.4007	503.89
26.4151	544.62
26.4296	581.42
26.4440	534.80
26.4584	521.64
26.4729	523.69
26.4873	577.61
26.5018	577.39
26.5162	552.41
26.5306	528.43
26.5451	535.60
26.5595	558.57
26.5740	585.92
26.5884	565.09
26.6028	529.57
26.6173	512.82
26.6317	527.75
26.6462	538.96
26.6606	527.97
26.6750	537.38
26.6895	510.81
26.7039	521.01
26.7184	539.27
26.7328	518.54
26.7472	493.11
26.7617	504.25
26.7761	562.37
26.7906	517.31
26.8050	484.17
26.8194	498.06
26.8339	510.83
26.8483	492.59
26.8628	499.26
26.8772	525.38
26.8917	538.43
26.9061	533.02
26.9205	517.49
26.9350	559.25
26.9494	562.01
26.9639	533.77
26.9783	522.74
26.9927	544.18
27.0072	554.63
27.0216	537.67
27.0361	510.91
27.0505	497.79
27.0649	571.85
27.0794	549.81
27.0938	538.73
27.1083	537.32
27.1227	527.38
27.1371	522.67
27.1516	517.05
27.1660	522.07
27.1805	550.40
27.1949	517.68
27.2093	492.26
27.2238	513.99
27.2382	510.38
27.2527	483.59
27.2671	516.27
27.2815	536.11
27.2960	512.79
27.3104	526.32
27.3249	502.91
27.3393	553.24
27.3537	534.63
27.3682	508.47
27.3826	539.41
27.3971	519.36
27.4115	494.67
27.4259	519.43
27.4404	494.40
27.4548	492.51
27.4693	463.23
27.4837	511.84
27.4981	537.39
27.5126	529.03
27.5270	545.20
27.5415	536.32
27.5559	525.04
27.5703	498.97
27.5848	490.87
27.5992	550.57
27.6137	502.78
27.6281	493.78
27.6425	516.32
27.6570	532.86
27.6714	516.33
27.6859	528.99
27.7003	530.20
27.7147	541.95
27.7292	532.23
27.7436	544.94
27.7581	519.49
27.7725	501.32
27.7869	541.46
27.8014	526.86
27.8158	529.88
27.8303	539.67
27.8447	526.76
27.8591	537.41
27.8736	517.79
27.8880	511.77
27.9025	566.60
27.9169	531.12
27.9313	485.47
27.9458	500.46
27.9602	520.82
27.9747	542.08
27.9891	528.23
28.0035	497.53
28.0180	499.29
28.0324	515.32
28.0469	513.99
28.0613	541.91
28.0757	516.53
28.0902	527.57
28.1046	534.17
28.1191	515.60
28.1335	514.04
28.1479	515.54
28.1624	500.90
28.1768	528.18
28.1913	515.33
28.2057	480.22
28.2201	502.82
28.2346	536.11
28.2490	501.39
28.2635	534.98
28.2779	532.00
28.2923	535.16
28.3068	505.34
28.3212	533.25
28.3357	525.96
28.3501	505.40
28.3645	527.19
28.3790	510.46
28.3934	523.78
28.4079	509.64
28.4223	536.33
28.4367	513.13
28.4512	479.94
28.4656	508.05
28.4801	503.75
28.4945	529.55
28.5089	530.02
28.5234	510.35
28.5378	522.85
28.5523	498.92
28.5667	489.71
28.5811	515.38
28.5956	497.79
28.6100	539.75
28.6245	506.68
28.6389	516.66
28.6533	473.44
28.6678	498.64
28.6822	514.61
28.6967	484.23
28.7111	559.61
28.7255	499.80
28.7400	517.60
28.7544	492.90
28.7689	502.13
28.7833	493.28
28.7977	538.40
28.8122	510.53
28.8266	519.66
28.8411	521.29
28.8555	512.52
28.8699	543.27
28.8844	510.26
28.8988	523.01
28.9133	506.34
28.9277	478.48
28.9421	486.13
28.9566	496.63
28.9710	496.42
28.9855	493.33
28.9999	518.10
29.0143	515.05
29.0288	508.12
29.0432	464.41
29.0577	489.97
29.0721	496.26
29.0865	504.83
29.1010	483.16
29.1154	504.68
29.1299	509.86
29.1443	490.24
29.1587	491.04
29.1732	530.93
29.1876	478.30
29.2021	500.89
29.2165	486.57
29.2309	518.23
29.2454	493.55
29.2598	512.97
29.2743	514.45
29.2887	501.38
29.3031	516.03
29.3176	510.87
29.3320	500.78
29.3465	515.00
29.3609	496.14
29.3753	500.01
29.3898	529.42
29.4042	520.92
29.4187	531.05
29.4331	502.87
29.4475	515.01
29.4620	510.87
29.4764	507.66
29.4909	511.88
29.5053	493.18
29.5197	505.87
29.5342	548.73
29.5486	498.90
29.5631	506.52
29.5775	466.41
29.5919	475.17
29.6064	512.21
29.6208	496.60
29.6353	505.90
29.6497	463.37
29.6641	504.53
29.6786	499.86
29.6930	522.64
29.7075	535.18
29.7219	500.97
29.7363	480.07
29.7508	499.38
29.7652	514.56
29.7797	507.76
29.7941	496.58
29.8085	536.51
29.8230	509.77
29.8374	507.32
29.8519	480.70
29.8663	505.81
29.8807	552.34
29.8952	535.14
29.9096	505.54
29.9241	506.27
29.9385	526.05
29.9529	489.68
29.9674	506.66
29.9818	519.05
29.9963	522.96
30.0107	509.24
30.0251	511.70
30.0396	510.03
30.0540	504.85
30.0685	505.70
30.0829	500.80
30.0973	479.00
30.1118	520.51
30.1262	521.68
30.1407	504.17
30.1551	476.88
30.1695	521.92
30.1840	506.47
30.1984	492.89
30.2129	501.58
30.2273	500.93
30.2417	524.84
30.2562	539.76
30.2706	500.20
30.2851	501.59
30.2995	507.85
30.3139	476.66
30.3284	502.03
30.3428	497.28
30.3573	499.66
30.3717	485.53
30.3861	508.13
30.4006	537.49
30.4150	523.44
30.4295	519.32
30.4439	474.08
30.4583	511.40
30.4728	488.92
30.4872	494.08
30.5017	478.36
30.5161	488.91
30.5305	499.39
30.5450	473.23
30.5594	487.29
30.5739	495.11
30.5883	497.67
30.6028	493.33
30.6172	496.89
30.6316	534.44
30.6461	535.72
30.6605	509.43
30.6750	474.14
30.6894	504.09
30.7038	530.51
30.7183	536.34
30.7327	538.18
30.7472	576.37
30.7616	557.79
30.7760	582.47
30.7905	623.19
30.8049	596.19
30.8194	624.14
30.8338	612.73
30.8482	657.29
30.8627	678.18
30.8771	694.40
30.8916	653.40
30.9060	664.05
30.9204	656.15
30.9349	661.19
30.9493	636.54
30.9638	625.37
30.9782	605.75
30.9926	598.79
31.0071	572.77
31.0215	572.20
31.0360	599.90
31.0504	532.29
31.0648	543.70
31.0793	554.91
31.0937	548.08
31.1082	531.02
31.1226	540.23
31.1370	544.93
31.1515	544.14
31.1659	547.09
31.1804	517.97
31.1948	514.80
31.2092	533.41
31.2237	514.42
31.2381	522.00
31.2526	494.23
31.2670	534.53
31.2814	548.70
31.2959	538.30
31.3103	526.67
31.3248	534.93
31.3392	543.48
31.3536	506.77
31.3681	555.78
31.3825	513.66
31.3970	511.68
31.4114	507.00
31.4258	551.82
31.4403	557.52
31.4547	525.75
31.4692	542.10
31.4836	552.12
31.4980	531.36
31.5125	511.21
31.5269	510.30
31.5414	534.05
31.5558	525.36
31.5702	477.94
31.5847	468.20
31.5991	499.49
31.6136	513.58
31.6280	510.23
31.6424	500.90
31.6569	516.03
31.6713	478.67
31.6858	474.82
31.7002	491.42
31.7146	510.34
31.7291	471.46
31.7435	502.28
31.7580	520.36
31.7724	511.89
31.7868	492.33
31.8013	498.98
31.8157	538.75
31.8302	500.55
31.8446	489.35
31.8590	511.72
31.8735	514.76
31.8879	493.33
31.9024	491.12
31.9168	479.37
31.9312	474.37
31.9457	500.63
31.9601	464.71
31.9746	477.82
31.9890	535.65
32.0034	491.96
32.0179	515.90
32.0323	524.05
32.0468	501.97
32.0612	488.91
32.0756	508.50
32.0901	529.50
32.1045	521.49
32.1190	527.94
32.1334	517.90
32.1478	453.60
32.1623	496.33
32.1767	537.26
32.1912	494.00
32.2056	493.80
32.2200	514.07
32.2345	468.59
32.2489	511.50
32.2634	492.46
32.2778	511.88
32.2922	519.73
32.3067	517.07
32.3211	532.11
32.3356	488.29
32.3500	508.20
32.3644	511.84
32.3789	498.14
32.3933	505.41
32.4078	508.58
32.4222	497.03
32.4366	505.58
32.4511	487.19
32.4655	517.77
32.4800	520.63
32.4944	482.49
32.5088	509.67
32.5233	495.12
32.5377	498.68
32.5522	523.59
32.5666	483.87
32.5810	495.07
32.5955	555.81
32.6099	506.82
32.6244	507.44
32.6388	497.83
32.6532	498.82
32.6677	534.92
32.6821	495.53
32.6966	527.26
32.7110	518.96
32.7254	492.27
32.7399	475.52
32.7543	512.09
32.7688	502.64
32.7832	505.09
32.7976	514.80
32.8121	511.85
32.8265	541.42
32.8410	525.53
32.8554	498.22
32.8698	524.45
32.8843	527.45
32.8987	498.83
32.9132	512.94
32.9276	489.57
32.9420	501.37
32.9565	546.12
32.9709	502.84
32.9854	488.81
32.9998	483.66
33.0142	496.95
33.0287	517.37
33.0431	505.45
33.0576	507.72
33.0720	500.10
33.0864	512.78
33.1009	498.15
33.1153	505.05
33.1298	505.52
33.1442	491.30
33.1586	492.59
33.1731	530.43
33.1875	507.41
33.2020	489.77
33.2164	555.75
33.2308	501.95
33.2453	490.11
33.2597	492.80
33.2742	528.49
33.2886	526.90
33.3030	484.37
33.3175	483.71
33.3319	505.83
33.3464	495.51
33.3608	512.47
33.3752	493.91
33.3897	534.33
33.4041	486.73
33.4186	473.47
33.4330	496.68
33.4474	464.83
33.4619	529.55
33.4763	496.25
33.4908	517.24
33.5052	544.78
33.5196	493.04
33.5341	500.64
33.5485	484.77
33.5630	519.07
33.5774	493.41
33.5918	489.76
33.6063	530.44
33.6207	517.15
33.6352	487.57
33.6496	473.36
33.6640	522.47
33.6785	511.41
33.6929	521.49
33.7074	501.20
33.7218	511.92
33.7362	487.68
33.7507	517.31
33.7651	492.21
33.7796	523.04
33.7940	518.37
33.8084	537.72
33.8229	519.81
33.8373	524.43
33.8518	480.96
33.8662	516.41
33.8806	520.49
33.8951	548.37
33.9095	547.81
33.9240	498.89
33.9384	522.40
33.9528	511.83
33.9673	516.36
33.9817	501.02
33.9962	496.24
34.0106	521.03
34.0250	499.11
34.0395	457.00
34.0539	501.87
34.0684	534.68
34.0828	535.40
34.0972	499.62
34.1117	505.12
34.1261	522.55
34.1406	506.12
34.1550	490.09
34.1694	526.45
34.1839	526.34
34.1983	512.69
34.2128	518.10
34.2272	497.79
34.2417	493.61
34.2561	519.93
34.2705	529.85
34.2850	514.82
34.2994	508.07
34.3139	520.41
34.3283	534.33
34.3427	487.91
34.3572	469.70
34.3716	509.28
34.3861	486.83
34.4005	465.83
34.4149	500.38
34.4294	526.75
34.4438	523.51
34.4583	513.67
34.4727	542.56
34.4871	517.83
34.5016	511.20
34.5160	517.65
34.5305	485.08
34.5449	503.81
34.5593	513.46
34.5738	521.68
34.5882	495.52
34.6027	488.63
34.6171	484.19
34.6315	504.08
34.6460	498.67
34.6604	493.87
34.6749	517.61
34.6893	514.02
34.7037	532.27
34.7182	504.86
34.7326	482.58
34.7471	504.06
34.7615	493.28
34.7759	507.27
34.7904	496.52
34.8048	483.48
34.8193	481.81
34.8337	488.45
34.8481	507.66
34.8626	533.73
34.8770	509.84
34.8915	499.77
34.9059	532.87
34.9203	536.61
34.9348	524.08
34.9492	513.81
34.9637	485.58
34.9781	508.61
34.9925	526.08
35.0070	508.94
35.0214	522.69
35.0359	498.43
35.0503	505.67
35.0647	529.10
35.0792	522.47
35.0936	531.16
35.1081	512.72
35.1225	512.74
35.1369	489.32
35.1514	501.11
35.1658	515.07
35.1803	503.10
35.1947	516.08
35.2091	506.31
35.2236	491.61
35.2380	493.38
35.2525	506.41
35.2669	485.46
35.2813	516.60
35.2958	527.89
35.3102	533.94
35.3247	507.07
35.3391	530.67
35.3535	513.35
35.3680	537.30
35.3824	495.86
35.3969	495.62
35.4113	540.43
35.4257	568.03
35.4402	523.32
35.4546	551.59
35.4691	567.34
35.4835	553.53
35.4979	532.99
35.5124	547.25
35.5268	560.87
35.5413	542.12
35.5557	531.63
35.5701	552.77
35.5846	548.30
35.5990	540.18
35.6135	505.91
35.6279	508.87
35.6423	507.51
35.6568	502.41
35.6712	550.76
35.6857	563.90
35.7001	651.69
35.7145	743.34
35.7290	662.49
35.7434	568.69
35.7579	586.04
35.7723	566.94
35.7867	629.41
35.8012	678.47
35.8156	664.29
35.8301	626.68
35.8445	593.41
35.8589	651.72
35.8734	715.21
35.8878	846.71
35.9023	953.03
35.9167	1038.21
35.9311	1319.53
35.9456	2103.07
35.9600	2321.12
35.9745	2000.00
35.9889	2004.78
36.0033	2548.88
36.0178	2844.91
36.0322	2168.31
36.0467	1902.56
36.0611	1702.50
36.0755	1554.21
36.0900	1502.67
36.1044	1275.10
36.1189	1369.92
36.1333	1324.72
36.1477	1038.69
36.1622	970.83
36.1766	934.42
36.1911	834.75
36.2055	789.05
36.2199	756.54
36.2344	782.66
36.2488	754.95
36.2633	804.34
36.2777	824.59
36.2921	838.20
36.3066	906.16
36.3210	912.87
36.3355	895.52
36.3499	963.31
36.3643	928.95
36.3788	932.90
36.3932	928.83
36.4077	958.06
36.4221	936.71
36.4365	907.05
36.4510	857.17
36.4654	801.11
36.4799	775.02
36.4943	749.99
36.5087	723.92
36.5232	652.11
36.5376	710.33
36.5521	646.79
36.5665	643.47
36.5809	613.49
36.5954	588.26
36.6098	594.72
36.6243	565.55
36.6387	611.02
36.6531	563.57
36.6676	536.03
36.6820	520.24
36.6965	534.01
36.7109	569.25
36.7253	558.44
36.7398	560.47
36.7542	573.57
36.7687	554.10
36.7831	565.69
36.7975	547.16
36.8120	601.59
36.8264	580.54
36.8409	608.12
36.8553	624.23
36.8697	584.77
36.8842	617.67
36.8986	586.08
36.9131	593.79
36.9275	560.77
36.9419	588.56
36.9564	565.14
36.9708	569.42
36.9853	567.95
36.9997	555.14
37.0141	584.26
37.0286	547.59
37.0430	507.49
37.0575	516.26
37.0719	518.54
37.0863	525.49
37.1008	506.39
37.1152	516.41
37.1297	519.82
37.1441	482.34
37.1585	497.25
37.1730	526.15
37.1874	484.32
37.2019	493.91
37.2163	468.23
37.2307	487.29
37.2452	494.05
37.2596	550.41
37.2741	531.26
37.2885	497.99
37.3029	524.49
37.3174	528.64
37.3318	545.01
37.3463	502.62
37.3607	515.94
37.3751	525.24
37.3896	503.05
37.4040	495.50
37.4185	538.93
37.4329	507.94
37.4473	487.45
37.4618	528.46
37.4762	509.07
37.4907	525.29
37.5051	522.78
37.5195	522.19
37.5340	524.74
37.5484	516.22
37.5629	519.00
37.5773	519.90
37.5917	502.19
37.6062	506.34
37.6206	512.18
37.6351	509.11
37.6495	500.17
37.6639	501.95
37.6784	500.16
37.6928	469.54
37.7073	517.66
37.7217	527.43
37.7361	484.58
37.7506	481.57
37.7650	485.75
37.7795	512.60
37.7939	504.75
37.8083	502.67
37.8228	523.68
37.8372	509.91
37.8517	507.38
37.8661	501.70
37.8805	513.92
37.8950	516.67
37.9094	523.12
37.9239	496.92
37.9383	494.69
37.9528	496.84
37.9672	493.47
37.9816	489.24
37.9961	485.09
38.0105	526.25
38.0250	480.97
38.0394	528.20
38.0538	497.98
38.0683	527.55
38.0827	497.76
38.0972	499.52
38.1116	506.14
38.1260	502.69
38.1405	510.38
38.1549	474.75
38.1694	502.15
38.1838	512.20
38.1982	489.39
38.2127	499.48
38.2271	518.07
38.2416	513.68
38.2560	528.49
38.2704	487.41
38.2849	503.61
38.2993	504.58
38.3138	536.89
38.3282	543.58
38.3426	517.33
38.3571	511.58
38.3715	497.76
38.3860	543.09
38.4004	512.36
38.4148	557.87
38.4293	565.03
38.4437	558.34
38.4582	599.34
38.4726	671.36
38.4870	706.61
38.5015	711.50
38.5159	778.06
38.5304	798.94
38.5448	785.24
38.5592	800.87
38.5737	787.29
38.5881	769.38
38.6026	733.79
38.6170	707.59
38.6314	738.11
38.6459	693.79
38.6603	632.38
38.6748	621.79
38.6892	557.76
38.7036	563.39
38.7181	539.75
38.7325	514.31
38.7470	520.57
38.7614	545.56
38.7758	517.80
38.7903	509.14
38.8047	490.28
38.8192	527.22
38.8336	506.91
38.8480	522.52
38.8625	514.65
38.8769	538.41
38.8914	521.13
38.9058	531.41
38.9202	484.19
38.9347	490.31
38.9491	473.77
38.9636	495.84
38.9780	526.03
38.9924	523.14
39.0069	488.75
39.0213	493.27
39.0358	485.53
39.0502	510.77
39.0646	498.08
39.0791	517.94
39.0935	511.48
39.1080	527.33
39.1224	541.58
39.1368	520.18
39.1513	463.96
39.1657	501.54
39.1802	525.78
39.1946	486.85
39.2090	493.35
39.2235	520.25
39.2379	530.20
39.2524	512.36
39.2668	529.58
39.2812	546.22
39.2957	511.82
39.3101	499.46
39.3246	490.63
39.3390	527.28
39.3534	512.02
39.3679	515.35
39.3823	521.92
39.3968	497.71
39.4112	513.60
39.4256	535.65
39.4401	510.19
39.4545	477.46
39.4690	490.85
39.4834	467.62
39.4978	495.44
39.5123	496.24
39.5267	496.65
39.5412	507.53
39.5556	471.73
39.5700	464.98
39.5845	537.04
39.5989	513.39
39.6134	488.22
39.6278	483.18
39.6422	474.89
39.6567	463.16
39.6711	468.12
39.6856	487.89
39.7000	534.85
39.7144	518.14
39.7289	470.23
39.7433	502.95
39.7578	476.28
39.7722	513.89
39.7866	486.37
39.8011	492.34
39.8155	510.29
39.8300	525.98
39.8444	492.99
39.8588	473.79
39.8733	485.95
39.8877	515.03
39.9022	490.08
39.9166	478.70
39.9310	498.30
39.9455	507.38
39.9599	485.09
39.9744	511.45
39.9888	501.79
40.0032	479.25
40.0177	501.86
40.0321	479.23
40.0466	472.74
40.0610	533.33
40.0754	511.91
40.0899	536.99
40.1043	484.99
40.1188	476.47
40.1332	469.71
40.1476	480.56
40.1621	504.08
40.1765	528.47
40.1910	489.85
40.2054	480.98
40.2198	467.72
40.2343	488.48
40.2487	491.53
40.2632	500.12
40.2776	504.09
40.2920	519.10
40.3065	500.01
40.3209	473.98
40.3354	484.33
40.3498	472.99
40.3642	494.99
40.3787	508.72
40.3931	480.06
40.4076	493.60
40.4220	538.95
40.4364	536.13
40.4509	505.09
40.4653	511.14
40.4798	528.40
40.4942	507.23
40.5086	514.39
40.5231	497.17
40.5375	506.64
40.5520	517.96
40.5664	517.26
40.5808	463.88
40.5953	516.88
40.6097	501.22
40.6242	466.78
40.6386	500.80
40.6530	524.02
40.6675	513.14
40.6819	500.56
40.6964	534.19
40.7108	501.51
40.7252	490.47
40.7397	478.92
40.7541	496.65
40.7686	470.75
40.7830	498.62
40.7974	487.47
40.8119	498.98
40.8263	503.00
40.8408	478.24
40.8552	500.11
40.8696	491.66
40.8841	468.57
40.8985	457.80
40.9130	491.88
40.9274	472.89
40.9418	483.73
40.9563	453.71
40.9707	479.55
40.9852	495.09
40.9996	486.83
41.0140	489.62
41.0285	523.27
41.0429	560.00
41.0574	486.88
41.0718	508.64
41.0862	485.52
41.1007	499.26
41.1151	498.29
41.1296	506.71
41.1440	487.52
41.1584	488.35
41.1729	510.21
41.1873	477.50
41.2018	509.25
41.2162	504.59
41.2306	497.49
41.2451	520.97
41.2595	485.14
41.2740	507.00
41.2884	498.92
41.3028	491.10
41.3173	493.11
41.3317	509.21
41.3462	537.38
41.3606	500.18
41.3750	508.10
41.3895	518.44
41.4039	491.67
41.4184	479.25
41.4328	537.69
41.4472	479.12
41.4617	499.41
41.4761	521.64
41.4906	520.69
41.5050	485.35
41.5194	492.58
41.5339	515.01
41.5483	475.36
41.5628	487.45
41.5772	472.93
41.5916	490.76
41.6061	482.05
41.6205	463.29
41.6350	513.03
41.6494	480.72
41.6639	475.72
41.6783	464.18
41.6927	499.76
41.7072	487.13
41.7216	495.13
41.7361	488.90
41.7505	519.09
41.7649	472.77
41.7794	506.90
41.7938	484.58
41.8083	518.57
41.8227	507.45
41.8371	523.22
41.8516	500.14
41.8660	537.72
41.8805	548.53
41.8949	565.53
41.9093	534.17
41.9238	517.27
41.9382	582.94
41.9527	571.60
41.9671	535.13
41.9815	525.88
41.9960	579.75
42.0104	560.28
42.0249	549.60
42.0393	566.69
42.0537	570.82
42.0682	551.48
42.0826	552.88
42.0971	595.78
42.1115	556.51
42.1259	581.38
42.1404	582.41
42.1548	581.29
42.1693	643.69
42.1837	702.41
42.1981	802.68
42.2126	838.25
42.2270	950.71
42.2415	1075.63
42.2559	1223.92
42.2703	1365.47
42.2848	1565.55
42.2992	1621.71
42.3137	1697.63
42.3281	1690.98
42.3425	1631.07
42.3570	1457.06
42.3714	1405.74
42.3859	1361.20
42.4003	1379.61
42.4147	1347.44
42.4292	1269.50
42.4436	1122.50
42.4581	1013.00
42.4725	1027.24
42.4869	821.27
42.5014	749.66
42.5158	717.77
42.5303	666.99
42.5447	665.37
42.5591	617.59
42.5736	569.84
42.5880	534.29
42.6025	553.27
42.6169	576.33
42.6313	563.26
42.6458	553.54
42.6602	527.19
42.6747	525.33
42.6891	524.42
42.7035	527.79
42.7180	546.65
42.7324	495.24
42.7469	552.32
42.7613	535.51
42.7757	520.54
42.7902	518.42
42.8046	513.72
42.8191	515.91
42.8335	526.07
42.8479	502.50
42.8624	510.94
42.8768	505.56
42.8913	500.69
42.9057	518.49
42.9201	527.17
42.9346	554.45
42.9490	529.09
42.9635	482.75
42.9779	501.35
42.9923	523.43
43.0068	498.07
43.0212	508.86
43.0357	516.06
43.0501	526.06
43.0645	528.77
43.0790	514.45
43.0934	538.08
43.1079	506.19
43.1223	511.08
43.1367	496.08
43.1512	504.90
43.1656	500.62
43.1801	536.16
43.1945	514.70
43.2089	530.74
43.2234	544.27
43.2378	526.44
43.2523	514.71
43.2667	523.11
43.2811	537.32
43.2956	552.61
43.3100	518.70
43.3245	525.82
43.3389	532.46
43.3533	536.89
43.3678	544.41
43.3822	491.50
43.3967	505.60
43.4111	509.02
43.4255	542.00
43.4400	499.58
43.4544	507.28
43.4689	548.12
43.4833	499.82
43.4977	500.26
43.5122	465.60
43.5266	510.75
43.5411	534.14
43.5555	536.39
43.5699	515.10
43.5844	504.93
43.5988	506.67
43.6133	526.33
43.6277	490.50
43.6421	515.10
43.6566	484.25
43.6710	508.23
43.6855	491.41
43.6999	509.82
43.7143	544.36
43.7288	529.83
43.7432	521.59
43.7577	509.57
43.7721	516.89
43.7865	505.61
43.8010	524.07
43.8154	502.88
43.8299	538.48
43.8443	531.34
43.8587	504.87
43.8732	520.98
43.8876	497.61
43.9021	498.12
43.9165	524.13
43.9309	529.70
43.9454	516.67
43.9598	521.38
43.9743	512.39
43.9887	505.09
44.0031	519.11
44.0176	530.80
44.0320	521.72
44.0465	504.96
44.0609	566.56
44.0753	534.98
44.0898	561.44
44.1042	555.84
44.1187	590.04
44.1331	614.77
44.1475	608.13
44.1620	609.97
44.1764	627.53
44.1909	611.94
44.2053	606.87
44.2197	600.12
44.2342	615.10
44.2486	634.47
44.2631	611.68
44.2775	612.94
44.2919	592.65
44.3064	564.52
44.3208	567.61
44.3353	606.40
44.3497	556.61
44.3641	579.56
44.3786	604.20
44.3930	583.86
44.4075	584.15
44.4219	578.80
44.4363	578.59
44.4508	582.07
44.4652	602.18
44.4797	601.24
44.4941	619.58
44.5085	601.10
44.5230	585.10
44.5374	570.77
44.5519	592.24
44.5663	571.93
44.5807	575.61
44.5952	602.29
44.6096	609.46
44.6241	593.81
44.6385	578.69
44.6529	595.64
44.6674	609.00
44.6818	605.83
44.6963	641.83
44.7107	659.48
44.7251	671.20
44.7396	740.28
44.7540	850.23
44.7685	816.66
44.7829	876.56
44.7973	878.75
44.8118	846.94
44.8262	783.13
44.8407	750.85
44.8551	728.85
44.8695	761.04
44.8840	693.69
44.8984	737.37
44.9129	715.08
44.9273	671.11
44.9417	660.07
44.9562	583.80
44.9706	514.54
44.9851	552.33
44.9995	565.63
45.0139	521.66
45.0284	479.11
45.0428	599.89
45.0573	517.25
45.0717	533.14
45.0861	532.90
45.1006	538.33
45.1150	520.65
45.1295	524.98
45.1439	478.16
45.1583	535.62
45.1728	505.15
45.1872	495.75
45.2017	525.87
45.2161	525.01
45.2305	522.74
45.2450	565.85
45.2594	510.26
45.2739	506.36
45.2883	537.62
45.3028	535.42
45.3172	547.48
45.3316	517.02
45.3461	496.34
45.3605	508.07
45.3750	486.42
45.3894	490.30
45.4038	508.42
45.4183	492.24
45.4327	525.31
45.4472	478.32
45.4616	486.52
45.4760	509.56
45.4905	483.85
45.5049	498.57
45.5194	505.15
45.5338	518.55
45.5482	513.11
45.5627	523.20
45.5771	516.59
45.5916	493.50
45.6060	513.33
45.6204	486.59
45.6349	496.94
45.6493	495.57
45.6638	516.27
45.6782	510.89
45.6926	501.56
45.7071	536.54
45.7215	511.69
45.7360	504.65
45.7504	507.12
45.7648	488.87
45.7793	531.61
45.7937	534.36
45.8082	519.82
45.8226	528.48
45.8370	514.56
45.8515	509.46
45.8659	526.88
45.8804	516.43
45.8948	546.44
45.9092	486.21
45.9237	463.99
45.9381	472.40
45.9526	503.31
45.9670	486.23
45.9814	497.20
45.9959	500.72
46.0103	488.52
46.0248	503.09
46.0392	521.52
46.0536	504.62
46.0681	505.00
46.0825	516.82
46.0970	498.09
46.1114	478.10
46.1258	493.58
46.1403	493.33
46.1547	464.44
46.1692	509.47
46.1836	502.87
46.1980	512.64
46.2125	523.54
46.2269	489.95
46.2414	459.27
46.2558	487.83
46.2702	499.66
46.2847	497.36
46.2991	494.81
46.3136	534.63
46.3280	478.81
46.3424	508.74
46.3569	499.54
46.3713	467.51
46.3858	471.27
46.4002	483.84
46.4146	532.74
46.4291	502.94
46.4435	486.78
46.4580	498.20
46.4724	501.09
46.4868	503.93
46.5013	518.21
46.5157	483.34
46.5302	489.62
46.5446	475.64
46.5590	519.34
46.5735	507.12
46.5879	508.17
46.6024	502.09
46.6168	503.77
46.6312	491.96
46.6457	499.78
46.6601	508.21
46.6746	514.79
46.6890	499.67
46.7034	483.71
46.7179	459.41
46.7323	467.26
46.7468	510.19
46.7612	504.79
46.7756	507.10
46.7901	491.76
46.8045	491.46
46.8190	500.01
46.8334	539.35
46.8478	521.39
46.8623	515.95
46.8767	478.29
46.8912	493.36
46.9056	487.42
46.9200	472.09
46.9345	484.58
46.9489	486.83
46.9634	488.21
46.9778	505.53
46.9922	534.51
47.0067	545.52
47.0211	508.07
47.0356	488.98
47.0500	514.14
47.0644	531.08
47.0789	529.52
47.0933	514.48
47.1078	470.86
47.1222	503.34
47.1366	499.40
47.1511	487.76
47.1655	475.99
47.1800	515.61
47.1944	530.20
47.2088	496.15
47.2233	496.48
47.2377	511.30
47.2522	527.16
47.2666	496.31
47.2810	523.39
47.2955	500.80
47.3099	504.67
47.3244	498.87
47.3388	524.69
47.3532	482.85
47.3677	496.64
47.3821	494.13
47.3966	506.96
47.4110	495.24
47.4254	513.13
47.4399	509.63
47.4543	542.54
47.4688	512.19
47.4832	506.69
47.4976	551.79
47.5121	499.09
47.5265	476.05
47.5410	519.07
47.5554	522.67
47.5698	482.11
47.5843	522.79
47.5987	475.69
47.6132	491.93
47.6276	519.35
47.6420	489.26
47.6565	497.77
47.6709	460.50
47.6854	481.34
47.6998	479.17
47.7142	508.06
47.7287	479.32
47.7431	486.94
47.7576	505.86
47.7720	498.05
47.7864	503.02
47.8009	501.66
47.8153	519.26
47.8298	553.03
47.8442	504.59
47.8586	511.01
47.8731	532.73
47.8875	519.68
47.9020	485.58
47.9164	457.79
47.9308	481.47
47.9453	546.02
47.9597	487.56
47.9742	522.90
47.9886	512.31
48.0030	507.80
48.0175	503.65
48.0319	492.57
48.0464	524.13
48.0608	507.04
48.0752	481.71
48.0897	529.95
48.1041	511.85
48.1186	518.50
48.1330	493.29
48.1474	502.68
48.1619	484.40
48.1763	488.39
48.1908	488.65
48.2052	519.40
48.2196	537.31
48.2341	535.95
48.2485	517.93
48.2630	474.15
48.2774	493.17
48.2918	515.69
48.3063	497.24
48.3207	501.77
48.3352	522.79
48.3496	530.69
48.3640	501.90
48.3785	490.48
48.3929	525.73
48.4074	508.95
48.4218	499.40
48.4362	526.24
48.4507	501.87
48.4651	537.15
48.4796	533.44
48.4940	506.08
48.5084	464.97
48.5229	497.38
48.5373	520.59
48.5518	486.72
48.5662	525.55
48.5806	491.71
48.5951	508.98
48.6095	492.39
48.6240	489.16
48.6384	544.78
48.6528	553.21
48.6673	541.01
48.6817	523.20
48.6962	538.90
48.7106	557.06
48.7250	517.31
48.7395	509.35
48.7539	526.80
48.7684	505.63
48.7828	559.25
48.7972	503.72
48.8117	516.50
48.8261	539.29
48.8406	535.82
48.8550	571.01
48.8694	576.87
48.8839	555.76
48.8983	600.56
48.9128	515.71
48.9272	512.23
48.9416	531.24
48.9561	540.64
48.9705	576.92
48.9850	533.62
48.9994	574.18
49.0139	578.39
49.0283	593.14
49.0427	643.77
49.0572	667.93
49.0716	677.20
49.0861	671.09
49.1005	703.51
49.1149	713.36
49.1294	778.39
49.1438	764.98
49.1583	801.02
49.1727	861.32
49.1871	899.66
49.2016	922.98
49.2160	1023.04
49.2305	1063.81
49.2449	1186.22
49.2593	1287.29
49.2738	1435.14
49.2882	1473.77
49.3027	1586.70
49.3171	1643.66
49.3315	1750.71
49.3460	1788.08
49.3604	1777.99
49.3749	1843.05
49.3893	1818.66
49.4037	1815.33
49.4182	1776.85
49.4326	1826.87
49.4471	1723.69
49.4615	1693.07
49.4759	1574.79
49.4904	1517.47
49.5048	1409.05
49.5193	1292.04
49.5337	1324.88
49.5481	1188.30
49.5626	1155.05
49.5770	1070.08
49.5915	999.76
49.6059	956.03
49.6203	885.95
49.6348	830.32
49.6492	774.33
49.6637	765.43
49.6781	738.29
49.6925	693.25
49.7070	727.39
49.7214	637.05
49.7359	632.67
49.7503	624.20
49.7647	579.55
49.7792	602.53
49.7936	602.83
49.8081	567.30
49.8225	581.86
49.8369	576.60
49.8514	531.38
49.8658	553.70
49.8803	541.66
49.8947	557.61
49.9091	556.97
49.9236	512.25
49.9380	536.35
49.9525	525.83
49.9669	523.80
49.9813	545.87
49.9958	529.47
50.0102	531.69
50.0247	521.06
50.0391	528.96
50.0535	522.24
50.0680	572.08
50.0824	548.52
50.0969	514.30
50.1113	501.77
50.1257	527.51
50.1402	542.34
50.1546	534.04
50.1691	532.37
50.1835	520.90
50.1979	518.83
50.2124	501.74
50.2268	519.99
50.2413	516.76
50.2557	465.78
50.2701	474.70
50.2846	529.51
50.2990	517.48
50.3135	532.83
50.3279	528.20
50.3423	511.61
50.3568	514.62
50.3712	507.35
50.3857	519.35
50.4001	498.50
50.4145	480.66
50.4290	501.25
50.4434	510.33
50.4579	520.03
50.4723	532.62
50.4867	505.18
50.5012	510.67
50.5156	484.58
50.5301	522.45
50.5445	524.94
50.5589	511.31
50.5734	490.06
50.5878	503.30
50.6023	504.08
50.6167	504.47
50.6311	481.77
50.6456	487.31
50.6600	513.57
50.6745	509.20
50.6889	493.86
50.7033	543.15
50.7178	540.00
50.7322	499.32
50.7467	512.10
50.7611	518.73
50.7755	522.58
50.7900	493.96
50.8044	497.68
50.8189	510.28
50.8333	539.46
50.8477	504.62
50.8622	520.32
50.8766	495.41
50.8911	510.74
50.9055	534.97
50.9199	465.34
50.9344	475.26
50.9488	521.37
50.9633	507.73
50.9777	510.94
50.9921	517.13
51.0066	509.48
51.0210	507.99
51.0355	499.09
51.0499	522.27
51.0643	532.64
51.0788	527.31
51.0932	552.94
51.1077	490.15
51.1221	495.26
51.1365	527.20
51.1510	504.20
51.1654	526.66
51.1799	523.13
51.1943	501.74
51.2087	486.51
51.2232	513.67
51.2376	513.77
51.2521	505.43
51.2665	501.63
51.2809	542.67
51.2954	534.13
51.3098	524.47
51.3243	525.16
51.3387	505.69
51.3531	502.64
51.3676	518.17
51.3820	507.66
51.3965	483.29
51.4109	519.60
51.4253	513.02
51.4398	508.61
51.4542	508.94
51.4687	530.29
51.4831	542.99
51.4975	507.78
51.5120	492.40
51.5264	538.44
51.5409	518.87
51.5553	531.58
51.5697	481.68
51.5842	504.92
51.5986	502.82
51.6131	519.05
51.6275	506.40
51.6419	507.54
51.6564	494.87
51.6708	495.64
51.6853	524.84
51.6997	508.62
51.7141	484.04
51.7286	515.35
51.7430	512.41
51.7575	499.19
51.7719	499.29
51.7863	500.43
51.8008	507.84
51.8152	536.10
51.8297	466.03
51.8441	521.81
51.8585	501.62
51.8730	495.89
51.8874	476.93
51.9019	509.95
51.9163	507.03
51.9307	473.12
51.9452	510.73
51.9596	480.98
51.9741	518.13
51.9885	514.13
52.0029	517.58
52.0174	516.91
52.0318	498.68
52.0463	511.05
52.0607	527.13
52.0751	500.33
52.0896	492.63
52.1040	488.56
52.1185	508.44
52.1329	506.19
52.1473	517.91
52.1618	497.05
52.1762	497.61
52.1907	493.91
52.2051	483.04
52.2195	487.31
52.2340	519.24
52.2484	508.76
52.2629	508.70
52.2773	525.88
52.2917	483.01
52.3062	501.22
52.3206	515.87
52.3351	511.87
52.3495	499.97
52.3639	487.84
52.3784	497.57
52.3928	495.56
52.4073	496.69
52.4217	504.04
52.4361	492.31
52.4506	524.20
52.4650	529.74
52.4795	512.13
52.4939	509.71
52.5083	494.52
52.5228	485.56
52.5372	509.88
52.5517	509.11
52.5661	485.03
52.5805	515.24
52.5950	532.36
52.6094	487.60
52.6239	528.57
52.6383	545.30
52.6527	533.73
52.6672	487.61
52.6816	497.33
52.6961	513.37
52.7105	518.06
52.7250	547.17
52.7394	510.84
52.7538	523.54
52.7683	495.37
52.7827	527.36
52.7972	501.55
52.8116	517.62
52.8260	500.98
52.8405	511.17
52.8549	509.31
52.8694	526.08
52.8838	508.50
52.8982	506.12
52.9127	546.93
52.9271	498.16
52.9416	518.22
52.9560	493.87
52.9704	515.98
52.9849	511.17
52.9993	525.38
53.0138	483.86
53.0282	490.84
53.0426	520.26
53.0571	551.81
53.0715	484.67
53.0860	497.04
53.1004	514.33
53.1148	512.91
53.1293	497.02
53.1437	482.31
53.1582	488.24
53.1726	525.50
53.1870	528.72
53.2015	470.95
53.2159	514.15
53.2304	491.31
53.2448	502.87
53.2592	530.86
53.2737	510.51
53.2881	516.52
53.3026	502.26
53.3170	495.56
53.3314	546.95
53.3459	513.48
53.3603	496.12
53.3748	505.63
53.3892	511.84
53.4036	494.15
53.4181	468.93
53.4325	524.16
53.4470	484.64
53.4614	506.40
53.4758	503.16
53.4903	530.47
53.5047	501.46
53.5192	510.36
53.5336	529.27
53.5480	536.83
53.5625	511.87
53.5769	525.72
53.5914	504.71
53.6058	502.87
53.6202	495.41
53.6347	521.64
53.6491	490.46
53.6636	502.63
53.6780	513.55
53.6924	523.32
53.7069	541.86
53.7213	522.68
53.7358	519.85
53.7502	524.69
53.7646	526.62
53.7791	506.60
53.7935	530.10
53.8080	529.76
53.8224	503.48
53.8368	508.90
53.8513	518.19
53.8657	526.45
53.8802	503.69
53.8946	514.32
53.9090	533.36
53.9235	534.40
53.9379	496.53
53.9524	514.88
53.9668	493.74
53.9812	537.73
53.9957	552.03
54.0101	539.52
54.0246	517.78
54.0390	518.54
54.0534	539.58
54.0679	518.29
54.0823	566.26
54.0968	527.24
54.1112	548.97
54.1256	536.60
54.1401	519.31
54.1545	531.04
54.1690	506.61
54.1834	493.53
54.1978	498.29
54.2123	540.32
54.2267	529.83
54.2412	524.82
54.2556	538.84
54.2700	531.75
54.2845	519.31
54.2989	538.20
54.3134	531.75
54.3278	502.70
54.3422	481.53
54.3567	517.80
54.3711	509.08
54.3856	538.10
54.4000	532.46
54.4144	520.64
54.4289	541.31
54.4433	500.37
54.4578	494.73
54.4722	524.52
54.4866	526.22
54.5011	514.96
54.5155	538.09
54.5300	536.45
54.5444	523.31
54.5588	537.53
54.5733	517.98
54.5877	555.13
54.6022	553.90
54.6166	553.36
54.6310	541.60
54.6455	527.35
54.6599	546.93
54.6744	531.77
54.6888	560.51
54.7032	549.30
54.7177	544.01
54.7321	561.63
54.7466	561.33
54.7610	551.76
54.7754	557.64
54.7899	560.82
54.8043	570.46
54.8188	585.09
54.8332	606.44
54.8476	618.14
54.8621	597.21
54.8765	626.97
54.8910	607.89
54.9054	617.03
54.9198	595.27
54.9343	620.40
54.9487	593.36
54.9632	588.31
54.9776	593.59
54.9920	585.82
55.0065	562.47
55.0209	542.90
55.0354	540.39
55.0498	556.26
55.0642	544.59
55.0787	536.59
55.0931	558.07
55.1076	516.59
55.1220	517.61
55.1364	540.00
55.1509	534.40
55.1653	539.79
55.1798	523.03
55.1942	523.72
55.2086	509.23
55.2231	516.37
55.2375	526.83
55.2520	535.16
55.2664	516.11
55.2808	533.79
55.2953	541.51
55.3097	526.04
55.3242	540.81
55.3386	572.37
55.3530	548.23
55.3675	512.18
55.3819	501.20
55.3964	488.50
55.4108	527.05
55.4252	579.39
55.4397	533.40
55.4541	513.39
55.4686	544.63
55.4830	531.36
55.4974	503.78
55.5119	509.79
55.5263	535.63
55.5408	531.63
55.5552	505.44
55.5696	538.77
55.5841	534.99
55.5985	511.23
55.6130	538.76
55.6274	546.88
55.6418	542.88
55.6563	531.74
55.6707	515.11
55.6852	536.63
55.6996	565.56
55.7140	566.07
55.7285	550.84
55.7429	495.91
55.7574	526.99
55.7718	526.44
55.7862	541.59
55.8007	542.30
55.8151	538.97
55.8296	534.88
55.8440	532.41
55.8584	564.47
55.8729	534.22
55.8873	509.10
55.9018	562.13
55.9162	527.06
55.9306	534.94
55.9451	559.10
55.9595	492.13
55.9740	473.16
55.9884	492.98
56.0028	527.72
56.0173	535.44
56.0317	523.40
56.0462	518.67
56.0606	496.76
56.0750	538.15
56.0895	559.48
56.1039	508.46
56.1184	539.23
56.1328	531.23
56.1472	518.24
56.1617	524.31
56.1761	502.54
56.1906	505.96
56.2050	549.64
56.2194	517.67
56.2339	549.85
56.2483	536.03
56.2628	527.94
56.2772	562.49
56.2916	546.38
56.3061	489.70
56.3205	505.30
56.3350	570.70
56.3494	516.73
56.3639	516.75
56.3783	494.51
56.3927	511.09
56.4072	520.90
56.4216	534.41
56.4361	518.29
56.4505	521.92
56.4649	550.88
56.4794	531.62
56.4938	509.12
56.5083	500.88
56.5227	502.85
56.5371	511.57
56.5516	493.52
56.5660	535.17
56.5805	521.74
56.5949	526.84
56.6093	522.96
56.6238	491.85
56.6382	537.19
56.6527	524.42
56.6671	503.23
56.6815	499.81
56.6960	534.74
56.7104	533.63
56.7249	532.40
56.7393	518.06
56.7537	528.23
56.7682	503.37
56.7826	517.20
56.7971	524.72
56.8115	504.89
56.8259	532.38
56.8404	520.76
56.8548	548.00
56.8693	551.34
56.8837	499.61
56.8981	516.19
56.9126	532.14
56.9270	505.94
56.9415	547.60
56.9559	515.02
56.9703	520.70
56.9848	511.05
56.9992	488.94
57.0137	510.49
57.0281	527.84
57.0425	496.39
57.0570	480.58
57.0714	516.77
57.0859	513.74
57.1003	560.69
57.1147	506.96
57.1292	524.95
57.1436	504.48
57.1581	524.17
57.1725	511.93
57.1869	522.68
57.2014	494.61
57.2158	532.30
57.2303	542.77
57.2447	537.34
57.2591	507.95
57.2736	504.95
57.2880	515.61
57.3025	492.08
57.3169	522.86
57.3313	533.53
57.3458	519.06
57.3602	524.36
57.3747	535.38
57.3891	513.62
57.4035	493.24
57.4180	533.10
57.4324	542.81
57.4469	510.72
57.4613	520.72
57.4757	549.28
57.4902	534.11
57.5046	561.19
57.5191	551.92
57.5335	542.97
57.5479	552.06
57.5624	552.85
57.5768	519.83
57.5913	518.67
57.6057	482.52
57.6201	506.57
57.6346	510.79
57.6490	517.18
57.6635	527.79
57.6779	557.53
57.6923	540.64
57.7068	585.44
57.7212	573.25
57.7357	494.39
57.7501	521.52
57.7645	504.73
57.7790	537.65
57.7934	533.44
57.8079	541.55
57.8223	548.50
57.8367	535.61
57.8512	530.02
57.8656	520.06
57.8801	530.49
57.8945	551.38
57.9089	576.58
57.9234	535.78
57.9378	507.31
57.9523	541.09
57.9667	498.41
57.9811	517.63
57.9956	542.40
58.0100	553.01
58.0245	556.28
58.0389	531.91
58.0533	536.76
58.0678	526.96
58.0822	554.17
58.0967	519.52
58.1111	530.86
58.1255	530.02
58.1400	522.57
58.1544	521.86
58.1689	546.75
58.1833	535.93
58.1977	547.02
58.2122	564.53
58.2266	520.11
58.2411	559.85
58.2555	578.28
58.2699	554.00
58.2844	585.92
58.2988	584.71
58.3133	598.48
58.3277	583.74
58.3421	602.91
58.3566	603.54
58.3710	596.97
58.3855	595.42
58.3999	578.78
58.4143	639.77
58.4288	635.60
58.4432	605.61
58.4577	635.23
58.4721	656.25
58.4865	648.31
58.5010	610.40
58.5154	637.66
58.5299	649.91
58.5443	624.53
58.5587	649.22
58.5732	650.70
58.5876	623.78
58.6021	613.67
58.6165	622.06
58.6309	628.79
58.6454	632.05
58.6598	617.87
58.6743	576.96
58.6887	590.20
58.7031	616.46
58.7176	608.16
58.7320	611.70
58.7465	609.24
58.7609	566.32
58.7753	552.88
58.7898	586.79
58.8042	561.89
58.8187	585.32
58.8331	582.11
58.8475	555.48
58.8620	566.83
58.8764	538.17
58.8909	581.51
58.9053	601.44
58.9197	555.46
58.9342	555.81
58.9486	559.03
58.9631	533.92
58.9775	545.33
58.9919	569.35
59.0064	556.69
59.0208	571.26
59.0353	600.80
59.0497	588.16
59.0641	537.77
59.0786	523.89
59.0930	562.74
59.1075	544.49
59.1219	580.91
59.1363	576.70
59.1508	512.16
59.1652	525.00
59.1797	582.79
59.1941	573.39
59.2085	550.26
59.2230	578.55
59.2374	585.43
59.2519	551.63
59.2663	496.22
59.2807	539.15
59.2952	567.23
59.3096	529.66
59.3241	554.70
59.3385	582.08
59.3529	562.40
59.3674	560.62
59.3818	576.27
59.3963	583.67
59.4107	565.98
59.4251	571.52
59.4396	584.00
59.4540	527.46
59.4685	588.74
59.4829	586.24
59.4973	560.35
59.5118	589.02
59.5262	551.13
59.5407	533.15
59.5551	561.56
59.5695	553.46
59.5840	521.48
59.5984	499.31
59.6129	473.96
59.6273	536.94
59.6417	562.04
59.6562	569.82
59.6706	574.57
59.6851	546.13
59.6995	535.53
59.7139	534.33
59.7284	518.69
59.7428	533.92
59.7573	548.16
59.7717	528.09
59.7861	574.91
59.8006	557.09
59.8150	554.98
59.8295	553.76
59.8439	514.17
59.8583	545.46
59.8728	566.53
59.8872	526.46
59.9017	535.30
59.9161	548.01
59.9305	569.03
59.9450	548.03
59.9594	490.53
59.9739	523.85
59.9883	529.31
60.0027	567.61
60.0172	551.00
60.0316	526.43
60.0461	520.68
60.0605	504.69
60.0750	556.02
60.0894	596.36
60.1038	570.59
60.1183	538.76
60.1327	539.84
60.1472	494.60
60.1616	541.86
60.1760	533.70
60.1905	542.44
60.2049	530.35
60.2194	544.86
60.2338	538.40
60.2482	547.93
60.2627	507.18
60.2771	524.06
60.2916	517.65
60.3060	558.43
60.3204	513.73
60.3349	522.45
60.3493	526.41
60.3638	537.72
60.3782	538.49
60.3926	531.46
60.4071	559.66
60.4215	550.49
60.4360	552.95
60.4504	561.59
60.4648	563.81
60.4793	560.73
60.4937	571.72
60.5082	516.74
60.5226	524.60
60.5370	545.18
60.5515	503.82
60.5659	511.15
60.5804	510.33
60.5948	551.45
60.6092	535.13
60.6237	497.72
60.6381	506.93
60.6526	524.22
60.6670	506.41
60.6814	540.42
60.6959	528.79
60.7103	552.21
60.7248	532.55
60.7392	528.87
60.7536	525.86
60.7681	491.53
60.7825	543.63
60.7970	534.54
60.8114	564.71
60.8258	532.11
60.8403	557.76
60.8547	536.78
60.8692	563.60
60.8836	527.01
60.8980	533.19
60.9125	551.05
60.9269	549.05
60.9414	553.14
60.9558	518.65
60.9702	579.18
60.9847	524.38
60.9991	500.65
61.0136	565.50
61.0280	564.15
61.0424	554.42
61.0569	560.19
61.0713	555.29
61.0858	597.74
61.1002	535.57
61.1146	529.33
61.1291	563.22
61.1435	553.68
61.1580	511.49
61.1724	559.00
61.1868	547.66
61.2013	556.00
61.2157	571.19
61.2302	531.47
61.2446	539.87
61.2590	528.55
61.2735	545.73
61.2879	571.06
61.3024	527.85
61.3168	529.80
61.3312	535.57
61.3457	529.05
61.3601	570.41
61.3746	550.86
61.3890	545.16
61.4034	547.79
61.4179	548.96
61.4323	541.39
61.4468	502.36
61.4612	538.08
61.4756	552.13
61.4901	559.17
61.5045	534.12
61.5190	555.63
61.5334	556.00
61.5478	540.23
61.5623	554.32
61.5767	546.83
61.5912	553.30
61.6056	547.93
61.6200	556.52
61.6345	573.90
61.6489	556.20
61.6634	574.16
61.6778	541.20
61.6922	513.55
61.7067	554.95
61.7211	534.59
61.7356	522.31
61.7500	537.22
61.7644	536.20
61.7789	555.86
61.7933	543.21
61.8078	553.82
61.8222	550.45
61.8366	548.45
61.8511	543.48
61.8655	537.17
61.8800	571.56
61.8944	557.89
61.9088	582.80
61.9233	576.13
61.9377	597.23
61.9522	571.93
61.9666	546.80
61.9810	548.08
61.9955	536.69
62.0099	552.59
62.0244	535.89
62.0388	575.28
62.0532	574.03
62.0677	576.88
62.0821	556.63
62.0966	559.16
62.1110	554.63
62.1254	544.53
62.1399	534.54
62.1543	534.65
62.1688	561.34
62.1832	555.27
62.1976	555.35
62.2121	547.76
62.2265	569.22
62.2410	584.07
62.2554	567.81
62.2698	575.12
62.2843	573.17
62.2987	575.81
62.3132	539.12
62.3276	536.87
62.3420	564.36
62.3565	556.63
62.3709	551.12
62.3854	564.76
62.3998	564.77
62.4142	551.48
62.4287	569.25
62.4431	555.64
62.4576	541.83
62.4720	530.13
62.4864	543.68
62.5009	524.00
62.5153	551.68
62.5298	558.17
62.5442	554.65
62.5586	579.02
62.5731	548.48
62.5875	547.10
62.6020	562.12
62.6164	542.58
62.6308	524.91
62.6453	557.80
62.6597	544.58
62.6742	553.05
62.6886	539.70
62.7030	566.16
62.7175	602.32
62.7319	576.99
62.7464	560.02
62.7608	585.46
62.7752	624.25
62.7897	605.98
62.8041	567.96
62.8186	568.72
62.8330	577.49
62.8474	556.99
62.8619	541.19
62.8763	551.04
62.8908	531.90
62.9052	570.44
62.9196	572.08
62.9341	587.46
62.9485	628.82
62.9630	581.36
62.9774	567.16
62.9918	584.26
63.0063	550.72
63.0207	588.74
63.0352	596.06
63.0496	550.51
63.0640	555.52
63.0785	545.06
63.0929	558.18
63.1074	583.95
63.1218	597.91
63.1362	561.34
63.1507	547.22
63.1651	547.36
63.1796	562.89
63.1940	542.97
63.2084	541.87
63.2229	557.33
63.2373	580.28
63.2518	577.87
63.2662	586.14
63.2806	626.74
63.2951	595.54
63.3095	568.43
63.3240	573.31
63.3384	589.31
63.3528	550.21
63.3673	540.72
63.3817	533.75
63.3962	551.26
63.4106	531.02
63.4250	559.80
63.4395	568.45
63.4539	584.17
63.4684	600.30
63.4828	622.62
63.4972	563.04
63.5117	557.82
63.5261	562.29
63.5406	576.25
63.5550	608.46
63.5694	615.04
63.5839	579.94
63.5983	595.61
63.6128	584.27
63.6272	579.42
63.6416	591.21
63.6561	547.66
63.6705	558.36
63.6850	572.77
63.6994	607.10
63.7138	599.11
63.7283	599.34
63.7427	596.94
63.7572	603.63
63.7716	616.26
63.7861	567.02
63.8005	615.33
63.8149	630.16
63.8294	570.83
63.8438	570.70
63.8583	619.59
63.8727	654.91
63.8871	595.75
63.9016	636.62
63.9160	596.16
63.9305	616.01
63.9449	652.75
63.9593	672.11
63.9738	609.56
63.9882	591.82
64.0027	623.48
64.0171	614.38
64.0315	673.04
64.0460	668.20
64.0604	668.40
64.0749	688.72
64.0893	707.64
64.1037	656.76
64.1182	749.55
64.1326	746.60
64.1471	688.50
64.1615	752.23
64.1759	696.87
64.1904	743.87
64.2048	775.67
64.2193	784.38
64.2337	788.91
64.2481	776.05
64.2626	773.20
64.2770	768.60
64.2915	763.35
64.3059	816.33
64.3203	824.42
64.3348	839.07
64.3492	822.08
64.3637	755.41
64.3781	789.01
64.3925	806.73
64.4070	786.96
64.4214	770.04
64.4359	734.21
64.4503	721.79
64.4647	717.25
64.4792	747.72
64.4936	707.43
64.5081	687.55
64.5225	715.42
64.5369	698.19
64.5514	670.98
64.5658	669.31
64.5803	671.16
64.5947	690.25
64.6091	708.79
64.6236	655.10
64.6380	692.40
64.6525	682.47
64.6669	684.25
64.6813	705.56
64.6958	676.16
64.7102	743.34
64.7247	707.82
64.7391	707.58
64.7535	729.63
64.7680	725.47
64.7824	759.64
64.7969	752.44
64.8113	796.62
64.8257	793.84
64.8402	797.60
64.8546	874.60
64.8691	858.51
64.8835	851.40
64.8979	886.71
64.9124	884.75
64.9268	882.11
64.9413	928.24
64.9557	962.83
64.9701	999.28
64.9846	1132.09
64.9990	1175.45
65.0135	1243.65
65.0279	1362.50
65.0423	1715.53
65.0568	2034.89
65.0712	2558.02
65.0857	3321.97
65.1001	4405.08
65.1145	6051.29
65.1290	7889.28
65.1434	9416.21
65.1579	10878.23
65.1723	11895.25
65.1867	11360.32
65.2012	10112.32
65.2156	8648.69
65.2301	6679.87
65.2445	5270.20
65.2589	4494.05
65.2734	4253.77
65.2878	4342.54
65.3023	4762.01
65.3167	5591.12
65.3311	6499.08
65.3456	6914.66
65.3600	6958.69
65.3745	6376.69
65.3889	5453.77
65.4033	4462.52
65.4178	3540.30
65.4322	2865.50
65.4467	2157.92
65.4611	1739.14
65.4755	1492.75
65.4900	1300.40
65.5044	1172.14
65.5189	1106.08
65.5333	981.04
65.5477	985.50
65.5622	903.05
65.5766	863.32
65.5911	817.29
65.6055	808.36
65.6199	799.25
65.6344	807.29
65.6488	787.77
65.6633	752.22
65.6777	718.50
65.6921	731.33
65.7066	748.40
65.7210	766.64
65.7355	716.48
65.7499	682.81
65.7643	678.68
65.7788	638.50
65.7932	698.90
65.8077	663.76
65.8221	669.98
65.8365	671.85
65.8510	643.14
65.8654	649.87
65.8799	663.06
65.8943	666.70
65.9087	633.17
65.9232	635.73
65.9376	628.26
65.9521	598.20
65.9665	624.50
65.9809	635.87
65.9954	640.23
66.0098	681.80
66.0243	594.10
66.0387	656.13
66.0531	625.33
66.0676	612.25
66.0820	646.70
66.0965	634.48
66.1109	581.81
66.1253	630.49
66.1398	614.35
66.1542	609.17
66.1687	653.94
66.1831	608.65
66.1975	601.32
66.2120	642.42
66.2264	628.93
66.2409	612.59
66.2553	564.82
66.2697	591.39
66.2842	610.11
66.2986	596.06
66.3131	591.41
66.3275	597.26
66.3419	597.84
66.3564	570.25
66.3708	604.05
66.3853	575.57
66.3997	573.08
66.4141	581.30
66.4286	637.06
66.4430	615.12
66.4575	590.95
66.4719	600.35
66.4863	616.50
66.5008	607.91
66.5152	574.22
66.5297	613.32
66.5441	601.62
66.5585	600.88
66.5730	593.62
66.5874	580.81
66.6019	609.12
66.6163	601.28
66.6307	608.79
66.6452	585.28
66.6596	563.34
66.6741	569.25
66.6885	575.07
66.7029	584.82
66.7174	576.92
66.7318	553.67
66.7463	556.26
66.7607	575.36
66.7751	570.45
66.7896	568.53
66.8040	581.19
66.8185	610.05
66.8329	596.79
66.8473	590.06
66.8618	611.48
66.8762	579.80
66.8907	604.35
66.9051	599.81
66.9195	590.57
66.9340	561.32
66.9484	609.96
66.9629	589.67
66.9773	580.58
66.9917	567.63
67.0062	570.22
67.0206	576.47
67.0351	553.87
67.0495	576.62
67.0639	593.59
67.0784	578.99
67.0928	604.29
67.1073	608.44
67.1217	596.50
67.1361	574.28
67.1506	537.18
67.1650	591.92
67.1795	583.34
67.1939	571.23
67.2083	551.98
67.2228	593.59
67.2372	612.78
67.2517	594.66
67.2661	574.69
67.2805	562.82
67.2950	560.59
67.3094	552.96
67.3239	551.97
67.3383	587.54
67.3527	623.26
67.3672	600.74
67.3816	579.62
67.3961	560.49
67.4105	572.19
67.4250	597.67
67.4394	604.05
67.4538	600.86
67.4683	591.94
67.4827	605.49
67.4972	586.98
67.5116	571.50
67.5260	575.76
67.5405	573.64
67.5549	591.08
67.5694	546.93
67.5838	572.81
67.5982	572.92
67.6127	563.66
67.6271	573.98
67.6416	582.73
67.6560	616.24
67.6704	567.92
67.6849	543.62
67.6993	569.77
67.7138	582.79
67.7282	590.20
67.7426	587.35
67.7571	602.06
67.7715	563.42
67.7860	574.45
67.8004	530.33
67.8148	578.13
67.8293	589.29
67.8437	561.12
67.8582	597.68
67.8726	567.06
67.8870	548.35
67.9015	630.26
67.9159	594.28
67.9304	551.04
67.9448	593.40
67.9592	572.21
67.9737	575.06
67.9881	558.59
68.0026	536.71
68.0170	579.68
68.0314	585.15
68.0459	536.01
68.0603	625.23
68.0748	571.61
68.0892	583.23
68.1036	549.11
68.1181	600.89
68.1325	584.06
68.1470	602.61
68.1614	564.70
68.1758	608.77
68.1903	540.29
68.2047	543.71
68.2192	569.20
68.2336	566.38
68.2480	566.53
68.2625	562.24
68.2769	597.76
68.2914	569.39
68.3058	563.15
68.3202	553.06
68.3347	609.88
68.3491	587.36
68.3636	588.31
68.3780	578.23
68.3924	552.41
68.4069	612.36
68.4213	582.20
68.4358	637.63
68.4502	575.38
68.4646	536.44
68.4791	595.24
68.4935	587.11
68.5080	546.84
68.5224	564.57
68.5368	585.93
68.5513	535.64
68.5657	551.02
68.5802	545.92
68.5946	560.15
68.6090	596.96
68.6235	603.37
68.6379	587.02
68.6524	544.08
68.6668	522.62
68.6812	538.93
68.6957	557.85
68.7101	607.54
68.7246	587.64
68.7390	555.47
68.7534	587.07
68.7679	588.49
68.7823	560.25
68.7968	608.62
68.8112	591.83
68.8256	576.55
68.8401	564.67
68.8545	570.51
68.8690	528.78
68.8834	558.50
68.8978	597.54
68.9123	672.85
68.9267	535.09
68.9412	563.91
68.9556	555.35
68.9700	580.19
68.9845	562.25
68.9989	565.75
69.0134	537.63
69.0278	588.04
69.0422	562.30
69.0567	556.99
69.0711	600.73
69.0856	595.44
69.1000	600.45
69.1144	568.31
69.1289	581.21
69.1433	567.53
69.1578	563.93
69.1722	580.97
69.1866	532.24
69.2011	550.86
69.2155	596.27
69.2300	548.34
69.2444	619.73
69.2588	568.97
69.2733	577.00
69.2877	607.14
69.3022	589.12
69.3166	571.57
69.3310	599.35
69.3455	621.12
69.3599	563.43
69.3744	558.32
69.3888	560.77
69.4032	584.17
69.4177	557.70
69.4321	568.59
69.4466	590.35
69.4610	602.59
69.4754	606.41
69.4899	552.08
69.5043	553.84
69.5188	552.06
69.5332	600.06
69.5476	526.69
69.5621	556.85
69.5765	576.71
69.5910	566.34
69.6054	547.61
69.6198	531.94
69.6343	596.33
69.6487	602.98
69.6632	602.46
69.6776	583.72
69.6920	574.36
69.7065	601.87
69.7209	592.64
69.7354	572.97
69.7498	606.42
69.7642	562.28
69.7787	609.95
69.7931	572.31
69.8076	542.73
69.8220	585.58
69.8364	593.05
69.8509	543.20
69.8653	578.23
69.8798	557.42
69.8942	559.46
69.9086	613.98
69.9231	597.47
69.9375	579.42
69.9520	534.00
69.9664	552.64
69.9808	597.49
69.9953	547.74
70.0097	546.33
70.0242	567.45
70.0386	567.70
70.0530	595.99
70.0675	623.08
70.0819	561.63
70.0964	598.07
70.1108	629.39
70.1252	588.82
70.1397	544.25
70.1541	574.85
70.1686	582.30
70.1830	553.25
70.1974	581.52
70.2119	546.35
70.2263	585.26
70.2408	601.95
70.2552	581.36
70.2696	534.38
70.2841	633.64
70.2985	529.98
70.3130	552.87
70.3274	573.35
70.3418	570.87
70.3563	574.97
70.3707	570.27
70.3852	559.16
70.3996	590.35
70.4140	599.67
70.4285	555.96
70.4429	551.30
70.4574	585.65
70.4718	536.19
70.4862	526.20
70.5007	547.78
70.5151	553.16
70.5296	632.96
70.5440	581.26
70.5584	601.06
70.5729	592.01
70.5873	558.21
70.6018	562.64
70.6162	561.60
70.6306	572.54
70.6451	536.86
70.6595	549.00
70.6740	550.04
70.6884	557.09
70.7028	592.79
70.7173	537.81
70.7317	550.12
70.7462	610.19
70.7606	584.46
70.7750	591.41
70.7895	594.79
70.8039	679.38
70.8184	560.48
70.8328	616.89
70.8472	580.47
70.8617	591.85
70.8761	537.88
70.8906	536.95
70.9050	603.86
70.9194	579.97
70.9339	628.86
70.9483	626.81
70.9628	558.24
70.9772	575.81
70.9916	606.70
71.0061	572.90
71.0205	584.06
71.0350	562.24
71.0494	570.18
71.0638	544.43
71.0783	630.27
71.0927	627.47
71.1072	566.45
71.1216	577.23
71.1361	572.04
71.1505	573.80
71.1649	612.86
71.1794	588.46
71.1938	585.26
71.2083	605.49
71.2227	518.33
71.2371	525.33
71.2516	593.73
71.2660	635.90
71.2805	617.55
71.2949	588.72
71.3093	557.40
71.3238	524.64
71.3382	600.76
71.3527	580.72
71.3671	539.51
71.3815	537.72
71.3960	553.12
71.4104	530.82
71.4249	589.41
71.4393	559.04
71.4537	532.44
71.4682	602.69
71.4826	567.31
71.4971	604.80
71.5115	602.65
71.5259	565.06
71.5404	591.50
71.5548	574.80
71.5693	597.87
71.5837	654.83
71.5981	630.51
71.6126	590.26
71.6270	612.61
71.6415	586.95
71.6559	588.16
71.6703	596.04
71.6848	518.81
71.6992	567.30
71.7137	583.92
71.7281	546.31
71.7425	526.93
71.7570	562.85
71.7714	579.24
71.7859	545.58
71.8003	540.20
71.8147	573.55
71.8292	573.35
71.8436	535.11
71.8581	549.05
71.8725	563.09
71.8869	566.52
71.9014	569.17
71.9158	512.09
71.9303	544.82
71.9447	602.66
71.9591	629.07
71.9736	579.16
71.9880	586.65
72.0025	560.26
72.0169	516.74
72.0313	588.10
72.0458	607.34
72.0602	557.84
72.0747	523.66
72.0891	552.85
72.1035	658.04
72.1180	637.09
72.1324	574.78
72.1469	539.67
72.1613	589.78
72.1757	616.13
72.1902	576.56
72.2046	562.59
72.2191	490.73
72.2335	506.47
72.2479	570.39
72.2624	525.72
72.2768	541.00
72.2913	574.49
72.3057	633.74
72.3201	636.90
72.3346	576.45
72.3490	534.52
72.3635	490.81
72.3779	549.01
72.3923	600.01
72.4068	594.61
72.4212	572.78
72.4357	622.93
72.4501	575.89
72.4645	540.35
72.4790	560.88
72.4934	603.63
72.5079	610.03
72.5223	583.21
72.5367	522.67
72.5512	586.99
72.5656	604.73
72.5801	520.07
72.5945	508.43
72.6089	574.38
72.6234	522.43
72.6378	541.67
72.6523	569.86
72.6667	644.45
72.6811	659.93
72.6956	581.23
72.7100	487.40
72.7245	539.50
72.7389	592.52
72.7533	497.99
72.7678	567.06
72.7822	630.75
72.7967	604.45
72.8111	662.63
72.8255	705.66
72.8400	743.99
72.8544	716.29
72.8689	660.64
72.8833	569.64

Result vector
22.1120	622.11
22.1264	666.76
22.1409	617.81
22.1553	530.61
22.1697	550.13
22.1842	583.16
22.1986	550.18
22.2131	536.75
22.2275	553.24
22.2419	571.29
22.2564	641.78
22.2708	617.68
22.2853	618.72
22.2997	549.87
22.3141	633.74
22.3286	613.41
22.3430	627.71
22.3575	649.28
22.3719	479.71
22.3863	603.89
22.4008	651.75
22.4152	632.63
22.4297	686.65
22.4441	649.09
22.4585	619.95
22.4730	647.91
22.4874	641.16
22.5019	524.42
22.5163	578.15
22.5307	609.47
22.5452	668.29
22.5596	644.96
22.5741	613.83
22.5885	612.63
22.6029	621.10
22.6174	584.81
22.6318	501.19
22.6463	600.30
22.6607	733.11
22.6751	687.09
22.6896	561.37
22.7040	512.06
22.7185	544.00
22.7329	607.43
22.7473	640.39
22.7618	575.44
22.7762	624.37
22.7907	649.43
22.8051	587.81
22.8195	559.31
22.8340	569.43
22.8484	582.23
22.8629	551.92
22.8773	490.20
22.8917	512.02
22.9062	635.47
22.9206	531.99
22.9351	513.22
22.9495	536.26
22.9639	539.17
22.9784	553.20
22.9928	592.71
23.0073	568.63
23.0217	627.68
23.0361	575.35
23.0506	649.74
23.0650	558.51
23.0795	620.84
23.0939	630.15
23.1083	527.74
23.1228	488.74
23.1372	597.05
23.1517	503.42
23.1661	636.14
23.1806	537.90
23.1950	558.35
23.2094	563.04
23.2239	609.81
23.2383	615.17
23.2528	574.43
23.2672	626.85
23.2816	558.26
23.2961	497.05
23.3105	567.86
23.3250	526.30
23.3394	535.39
23.3538	544.24
23.3683	583.90
23.3827	553.18
23.3972	505.26
23.4116	473.30
23.4260	622.25
23.4405	582.85
23.4549	580.10
23.4694	652.35
23.4838	615.92
23.4982	502.10
23.5127	535.38
23.5271	620.14
23.5416	512.59
23.5560	525.47
23.5704	577.98
23.5849	551.22
23.5993	471.21
23.6138	653.03
23.6282	516.90
23.6426	523.61
23.6571	493.14
23.6715	516.19
23.6860	542.64
23.7004	641.99
23.7148	456.28
23.7293	522.05
23.7437	537.03
23.7582	560.61
23.7726	536.05
23.7870	576.92
23.8015	556.24
23.8159	552.10
23.8304	580.02
23.8448	549.89
23.8592	675.20
23.8737	597.46
23.8881	636.50
23.9026	530.31
23.9170	594.82
23.9314	553.90
23.9459	603.54
23.9603	568.40
23.9748	513.91
23.9892	621.23
24.0036	558.36
24.0181	519.79
24.0325	591.11
24.0470	553.03
24.0614	573.85
24.0758	575.37
24.0903	567.09
24.1047	544.66
24.1192	573.59
24.1336	579.16
24.1480	572.03
24.1625	551.17
24.1769	592.66
24.1914	586.79
24.2058	537.89
24.2202	565.63
24.2347	539.80
24.2491	543.77
24.2636	533.34
24.2780	583.23
24.2924	608.20
24.3069	606.57
24.3213	589.04
24.3358	525.92
24.3502	606.79
24.3646	516.55
24.3791	530.85
24.3935	564.71
24.4080	566.00
24.4224	568.31
24.4368	552.47
24.4513	534.07
24.4657	559.28
24.4802	558.23
24.4946	524.38
24.5090	481.82
24.5235	524.88
24.5379	569.39
24.5524	587.38
24.5668	577.98
24.5812	588.70
24.5957	586.40
24.6101	570.69
24.6246	581.53
24.6390	539.02
24.6534	553.46
24.6679	528.66
24.6823	490.03
24.6968	541.90
24.7112	482.20
24.7256	489.66
24.7401	566.07
24.7545	557.63
24.7690	520.46
24.7834	544.57
24.7978	501.97
24.8123	556.18
24.8267	546.59
24.8412	597.56
24.8556	517.98
24.8700	612.42
24.8845	608.53
24.8989	574.63
24.9134	571.87
24.9278	585.46
24.9422	562.20
24.9567	573.09
24.9711	579.23
24.9856	556.06
25.0000	596.00
25.0144	570.05
25.0289	574.56
25.0433	493.71
25.0578	561.69
25.0722	559.31
25.0866	610.89
25.1011	555.17
25.1155	560.42
25.1300	556.41
25.1444	524.48
25.1588	545.99
25.1733	545.37
25.1877	554.26
25.2022	562.36
25.2166	552.02
25.2310	537.52
25.2455	533.77
25.2599	520.33
25.2744	549.95
25.2888	532.04
25.3032	520.30
25.3177	545.73
25.3321	586.33
25.3466	538.21
25.3610	560.79
25.3754	559.61
25.3899	518.47
25.4043	562.76
25.4188	559.35
25.4332	548.10
25.4476	509.14
25.4621	547.03
25.4765	516.39
25.4910	521.37
25.5054	525.33
25.5198	568.32
25.5343	545.72
25.5487	536.98
25.5632	520.79
25.5776	488.77
25.5920	547.52
25.6065	546.66
25.6209	539.76
25.6354	542.86
25.6498	578.93
25.6642	515.27
25.6787	508.61
25.6931	516.86
25.7076	551.70
25.7220	539.93
25.7364	541.97
25.7509	558.70
25.7653	517.69
25.7798	564.91
25.7942	567.69
25.8086	545.27
25.8231	537.68
25.8375	535.80
25.8520	556.68
25.8664	561.33
25.8808	538.95
25.8953	561.10
25.9097	530.85
25.9242	543.13
25.9386	545.41
25.9530	538.11
25.9675	552.14
25.9819	557.13
25.9964	532.98
26.0108	512.98
26.0252	529.27
26.0397	520.43
26.0541	541.64
26.0686	552.69
26.0830	539.79
26.0974	513.65
26.1119	536.20
26.1263	530.87
26.1408	513.02
26.1552	506.16
26.1696	517.75
26.1841	519.42
26.1985	559.07
26.2130	557.68
26.2274	551.04
26.2418	520.55
26.2563	518.31
26.2707	532.94
26.2852	513.28
26.2996	500.50
26.3140	522.32
26.3285	528.71
26.3429	561.34
26.3574	543.27
26.3718	550.23
26.3862	546.35
26.4007	503.89
26.4151	544.62
26.4296	581.42
26.4440	534.80
26.4584	521.64
26.4729	523.69
26.4873	577.61
26.5018	577.39
26.5162	552.41
26.5306	528.43
26.5451	535.60
26.5595	558.57
26.5740	585.92
26.5884	565.09
26.6028	529.57
26.6173	512.82
26.6317	527.75
26.6462	538.96
26.6606	527.97
26.6750	537.38
26.6895	510.81
26.7039	521.01
26.7184	539.27
26.7328	518.54
26.7472	493.11
26.7617	504.25
26.7761	562.37
26.7906	517.31
26.8050	484.17
26.8194	498.06
26.8339	510.83
26.8483	492.59
26.8628	499.26
26.8772	525.38
26.8917	538.43
26.9061	533.02
26.9205	517.49
26.9350	559.25
26.9494	562.01
26.9639	533.77
26.9783	522.74
26.9927	544.18
27.0072	554.63
27.0216	537.67
27.0361	510.91
27.0505	497.79
27.0649	571.85
27.0794	549.81
27.0938	538.73
27.1083	537.32
27.1227	527.38
27.1371	522.67
27.1516	517.05
27.1660	522.07
27.1805	550.40
27.1949	517.68
27.2093	492.26
27.2238	513.99
27.2382	510.38
27.2527	483.59
27.2671	516.27
27.2815	536.11
27.2960	512.79
27.3104	526.32
27.3249	502.91
27.3393	553.24
27.3537	534.63
27.3682	508.47
27.3826	539.41
27.3971	519.36
27.4115	494.67
27.4259	519.43
27.4404	494.40
27.4548	492.51
27.4693	463.23
27.4837	511.84
27.4981	537.39
27.5126	529.03
27.5270	545.20
27.5415	536.32
27.5559	525.04
27.5703	498.97
27.5848	490.87
27.5992	550.57
27.6137	502.78
27.6281	493.78
27.6425	516.32
27.6570	532.86
27.6714	516.33
27.6859	528.99
27.7003	530.20
27.7147	541.95
27.7292	532.23
27.7436	544.94
27.7581	519.49
27.7725	501.32
27.7869	541.46
27.8014	526.86
27.8158	529.88
27.8303	539.67
27.8447	526.76
27.8591	537.41
27.8736	517.79
27.8880	511.77
27.9025	566.60
27.9169	531.12
27.9313	485.47
27.9458	500.46
27.9602	520.82
27.9747	542.08
27.9891	528.23
28.0035	497.53
28.0180	499.29
28.0324	515.32
28.0469	513.99
28.0613	541.91
28.0757	516.53
28.0902	527.57
28.1046	534.17
28.1191	515.60
28.1335	514.04
28.1479	515.54
28.1624	500.90
28.1768	528.18
28.1913	515.33
28.2057	480.22
28.2201	502.82
28.2346	536.11
28.2490	501.39
28.2635	534.98
28.2779	532.00
28.2923	535.16
28.3068	505.34
28.3212	533.25
28.3357	525.96
28.3501	505.40
28.3645	527.19
28.3790	510.46
28.3934	523.78
28.4079	509.64
28.4223	536.33
28.4367	513.13
28.4512	479.94
28.4656	508.05
28.4801	503.75
28.4945	529.55
28.5089	530.02
28.5234	510.35
28.5378	522.85
28.5523	498.92
28.5667	489.71
28.5811	515.38
28.5956	497.79
28.6100	539.75
28.6245	506.68
28.6389	516.66
28.6533	473.44
28.6678	498.64
28.6822	514.61
28.6967	484.23
28.7111	559.61
28.7255	499.80
28.7400	517.60
28.7544	492.90
28.7689	502.13
28.7833	493.28
28.7977	538.40
28.8122	510.53
28.8266	519.66
28.8411	521.29
28.8555	512.52
28.8699	543.27
28.8844	510.26
28.8988	523.01
28.9133	506.34
28.9277	478.48
28.9421	486.13
28.9566	496.63
28.9710	496.42
28.9855	493.33
28.9999	518.10
29.0143	515.05
29.0288	508.12
29.0432	464.41
29.0577	489.97
29.0721	496.26
29.0865	504.83
29.1010	483.16
29.1154	504.68
29.1299	509.86
29.1443	490.24
29.1587	491.04
29.1732	530.93
29.1876	478.30
29.2021	500.89
29.2165	486.57
29.2309	518.23
29.2454	493.55
29.2598	512.97
29.2743	514.45
29.2887	501.38
29.3031	516.03
29.3176	510.87
29.3320	500.78
29.3465	515.00
29.3609	496.14
29.3753	500.01
29.3898	529.42
29.4042	520.92
29.4187	531.05
29.4331	502.87
29.4475	515.01
29.4620	510.87
29.4764	507.66
29.4909	511.88
29.5053	493.18
29.5197	505.87
29.5342	548.73
29.5486	498.90
29.5631	506.52
29.5775	466.41
29.5919	475.17
29.6064	512.21
29.6208	496.60
29.6353	505.90
29.6497	463.37
29.6641	504.53
29.6786	499.86
29.6930	522.64
29.7075	535.18
29.7219	500.97
29.7363	480.07
29.7508	499.38
29.7652	514.56
29.7797	507.76
29.7941	496.58
29.8085	536.51
29.8230	509.77
29.8374	507.32
29.8519	480.70
29.8663	505.81
29.8807	552.34
29.8952	535.14
29.9096	505.54
29.9241	506.27
29.9385	526.05
29.9529	489.68
29.9674	506.66
29.9818	519.05
29.9963	522.96
30.0107	509.24
30.0251	511.70
30.0396	510.03
30.0540	504.85
30.0685	505.70
30.0829	500.80
30.0973	479.00
30.1118	520.51
30.1262	521.68
30.1407	504.17
30.1551	476.88
30.1695	521.92
30.1840	506.47
30.1984	492.89
30.2129	501.58
30.2273	500.93
30.2417	524.84
30.2562	539.76
30.2706	500.20
30.2851	501.59
30.2995	507.85
30.3139	476.66
30.3284	502.03
30.3428	497.28
30.3573	499.66
30.3717	485.53
30.3861	508.13
30.4006	537.49
30.4150	523.44
30.4295	519.32
30.4439	474.08
30.4583	511.40
30.4728	488.92
30.4872	494.08
30.5017	478.36
30.5161	488.91
30.5305	499.39
30.5450	473.23
30.5594	487.29
30.5739	495.11
30.5883	497.67
30.6028	493.33
30.6172	496.89
30.6316	534.44
30.6461	535.72
30.6605	509.43
30.6750	474.14
30.6894	504.09
30.7038	530.51
30.7183	536.34
30.7327	538.18
30.7472	576.37
30.7616	557.79
30.7760	582.47
30.7905	623.19
30.8049	596.19
30.8194	624.14
30.8338	612.73
30.8482	657.29
30.8627	678.18
30.8771	694.40
30.8916	653.40
30.9060	664.05
30.9204	656.15
30.9349	661.19
30.9493	636.54
30.9638	625.37
30.9782	605.75
30.9926	598.79
31.0071	572.77
31.0215	572.20
31.0360	599.90
31.0504	532.29
31.0648	543.70
31.0793	554.91
31.0937	548.08
31.1082	531.02
31.1226	540.23
31.1370	544.93
31.1515	544.14
31.1659	547.09
31.1804	517.97
31.1948	514.80
31.2092	533.41
31.2237	514.42
31.2381	522.00
31.2526	494.23
31.2670	534.53
31.2814	548.70
31.2959	538.30
31.3103	526.67
31.3248	534.93
31.3392	543.48
31.3536	506.77
31.3681	555.78
31.3825	513.66
31.3970	511.68
31.4114	507.00
31.4258	551.82
31.4403	557.52
31.4547	525.75
31.4692	542.10
31.4836	552.12
31.4980	531.36
31.5125	511.21
31.5269	510.30
31.5414	534.05
31.5558	525.36
31.5702	477.94
31.5847	468.20
31.5991	499.49
31.6136	513.58
31.6280	510.23
31.6424	500.90
31.6569	516.03
31.6713	478.67
31.6858	474.82
31.7002	491.42
31.7146	510.34
31.7291	471.46
31.7435	502.28
31.7580	520.36
31.7724	511.89
31.7868	492.33
31.8013	498.98
31.8157	538.75
31.8302	500.55
31.8446	489.35
31.8590	511.72
31.8735	514.76
31.8879	493.33
31.9024	491.12
31.9168	479.37
31.9312	474.37
31.9457	500.63
31.9601	464.71
31.9746	477.82
31.9890	535.65
32.0034	491.96
32.0179	515.90
32.0323	524.05
32.0468	501.97
32.0612	488.91
32.0756	508.50
32.0901	529.50
32.1045	521.49
32.1190	527.94
32.1334	517.90
32.1478	453.60
32.1623	496.33
32.1767	537.26
32.1912	494.00
32.2056	493.80
32.2200	514.07
32.2345	468.59
32.2489	511.50
32.2634	492.46
32.2778	511.88
32.2922	519.73
32.3067	517.07
32.3211	532.11
32.3356	488.29
32.3500	508.20
32.3644	511.84
32.3789	498.14
32.3933	505.41
32.4078	508.58
32.4222	497.03
32.4366	505.58
32.4511	487.19
32.4655	517.77
32.4800	520.63
32.4944	482.49
32.5088	509.67
32.5233	495.12
32.5377	498.68
32.5522	523.59
32.5666	483.87
32.5810	495.07
32.5955	555.81
32.6099	506.82
32.6244	507.44
32.6388	497.83
32.6532	498.82
32.6677	534.92
32.6821	495.53
32.6966	527.26
32.7110	518.96
32.7254	492.27
32.7399	475.52
32.7543	512.09
32.7688	502.64
32.7832	505.09
32.7976	514.80
32.8121	511.85
32.8265	541.42
32.8410	525.53
32.8554	498.22
32.8698	524.45
32.8843	527.45
32.8987	498.83
32.9132	512.94
32.9276	489.57
32.9420	501.37
32.9565	546.12
32.9709	502.84
32.9854	488.81
32.9998	483.66
33.0142	496.95
33.0287	517.37
33.0431	505.45
33.0576	507.72
33.0720	500.10
33.0864	512.78
33.1009	498.15
33.1153	505.05
33.1298	505.52
33.1442	491.30
33.1586	492.59
33.1731	530.43
33.1875	507.41
33.2020	489.77
33.2164	555.75
33.2308	501.95
33.2453	490.11
33.2597	492.80
33.2742	528.49
33.2886	526.90
33.3030	484.37
33.3175	483.71
33.3319	505.83
33.3464	495.51
33.3608	512.47
33.3752	493.91
33.3897	534.33
33.4041	486.73
33.4186	473.47
33.4330	496.68
33.4474	464.83
33.4619	529.55
33.4763	496.25
33.4908	517.24
33.5052	544.78
33.5196	493.04
33.5341	500.64
33.5485	484.77
33.5630	519.07
33.5774	493.41
33.5918	489.76
33.6063	530.44
33.6207	517.15
33.6352	487.57
33.6496	473.36
33.6640	522.47
33.6785	511.41
33.6929	521.49
33.7074	501.20
33.7218	511.92
33.7362	487.68
33.7507	517.31
33.7651	492.21
33.7796	523.04
33.7940	518.37
33.8084	537.72
33.8229	519.81
33.8373	524.43
33.8518	480.96
33.8662	516.41
33.8806	520.49
33.8951	548.37
33.9095	547.81
33.9240	498.89
33.9384	522.40
33.9528	511.83
33.9673	516.36
33.9817	501.02
33.9962	496.24
34.0106	521.03
34.0250	499.11
34.0395	457.00
34.0539	501.87
34.0684	534.68
34.0828	535.40
34.0972	499.62
34.1117	505.12
34.1261	522.55
34.1406	506.12
34.1550	490.09
34.1694	526.45
34.1839	526.34
34.1983	512.69
34.2128	518.10
34.2272	497.79
34.2417	493.61
34.2561	519.93
34.2705	529.85
34.2850	514.82
34.2994	508.07
34.3139	520.41
34.3283	534.33
34.3427	487.91
34.3572	469.70
34.3716	509.28
34.3861	486.83
34.4005	465.83
34.4149	500.38
34.4294	526.75
34.4438	523.51
34.4583	513.67
34.4727	542.56
34.4871	517.83
34.5016	511.20
34.5160	517.65
34.5305	485.08
34.5449	503.81
34.5593	513.46
34.5738	521.68
34.5882	495.52
34.6027	488.63
34.6171	484.19
34.6315	504.08
34.6460	498.67
34.6604	493.87
34.6749	517.61
34.6893	514.02
34.7037	532.27
34.7182	504.86
34.7326	482.58
34.7471	504.06
34.7615	493.28
34.7759	507.27
34.7904	496.52
34.8048	483.48
34.8193	481.81
34.8337	488.45
34.8481	507.66
34.8626	533.73
34.8770	509.84
34.8915	499.77
34.9059	532.87
34.9203	536.61
34.9348	524.08
34.9492	513.81
34.9637	485.58
34.9781	508.61
34.9925	526.08
35.0070	508.94
35.0214	522.69
35.0359	498.43
35.0503	505.67
35.0647	529.10
35.0792	522.47
35.0936	531.16
35.1081	512.72
35.1225	512.74
35.1369	489.32
35.1514	501.11
35.1658	515.07
35.1803	503.10
35.1947	516.08
35.2091	506.31
35.2236	491.61
35.2380	493.38
35.2525	506.41
35.2669	485.46
35.2813	516.60
35.2958	527.89
35.3102	533.94
35.3247	507.07
35.3391	530.67
35.3535	513.35
35.3680	537.30
35.3824	495.86
35.3969	495.62
35.4113	540.43
35.4257	568.03
35.4402	523.32
35.4546	551.59
35.4691	567.34
35.4835	553.53
35.4979	532.99
35.5124	547.25
35.5268	560.87
35.5413	542.12
35.5557	531.63
35.5701	552.77
35.5846	548.30
35.5990	540.18
35.6135	505.91
35.6279	508.87
35.6423	507.51
35.6568	502.41
35.6712	550.76
35.6857	563.90
35.7001	651.69
35.7145	743.34
35.7290	662.49
35.7434	568.69
35.7579	586.04
35.7723	566.94
35.7867	629.41
35.8012	678.47
35.8156	664.29
35.8301	626.68
35.8445	593.41
35.8589	651.72
35.8734	715.21
35.8878	846.71
35.9023	953.03
35.9167	1038.21
35.9311	1319.53
35.9456	2103.07
35.9600	2321.12
35.9745	2000.00
35.9889	2004.78
36.0033	2548.88
36.0178	2844.91
36.0322	2168.31
36.0467	1902.56
36.0611	1702.50
36.0755	1554.21
36.0900	1502.67
36.1044	1275.10
36.1189	1369.92
36.1333	1324.72
36.1477	1038.69
36.1622	970.83
36.1766	934.42
36.1911	834.75
36.2055	789.05
36.2199	756.54
36.2344	782.66
36.2488	754.95
36.2633	804.34
36.2777	824.59
36.2921	838.20
36.3066	906.16
36.3210	912.87
36.3355	895.52
36.3499	963.31
36.3643	928.95
36.3788	932.90
36.3932	928.83
36.4077	958.06
36.4221	936.71
36.4365	907.05
36.4510	857.17
36.4654	801.11
36.4799	775.02
36.4943	749.99
36.5087	723.92
36.5232	652.11
36.5376	710.33
36.5521	646.79
36.5665	643.47
36.5809	613.49
36.5954	588.26
36.6098	594.72
36.6243	565.55
36.6387	611.02
36.6531	563.57
36.6676	536.03
36.6820	520.24
36.6965	534.01
36.7109	569.25
36.7253	558.44
36.7398	560.47
36.7542	573.57
36.7687	554.10
36.7831	565.69
36.7975	547.16
36.8120	601.59
36.8264	580.54
36.8409	608.12
36.8553	624.23
36.8697	584.77
36.8842	617.67
36.8986	586.08
36.9131	593.79
36.9275	560.77
36.9419	588.56
36.9564	565.14
36.9708	569.42
36.9853	567.95
36.9997	555.14
37.0141	584.26
37.0286	547.59
37.0430	507.49
37.0575	516.26
37.0719	518.54
37.0863	525.49
37.1008	506.39
37.1152	516.41
37.1297	519.82
37.1441	482.34
37.1585	497.25
37.1730	526.15
37.1874	484.32
37.2019	493.91
37.2163	468.23
37.2307	487.29
37.2452	494.05
37.2596	550.41
37.2741	531.26
37.2885	497.99
37.3029	524.49
37.3174	528.64
37.3318	545.01
37.3463	502.62
37.3607	515.94
37.3751	525.24
37.3896	503.05
37.4040	495.50
37.4185	538.93
37.4329	507.94
37.4473	487.45
37.4618	528.46
37.4762	509.07
37.4907	525.29
37.5051	522.78
37.5195	522.19
37.5340	524.74
37.5484	516.22
37.5629	519.00
37.5773	519.90
37.5917	502.19
37.6062	506.34
37.6206	512.18
37.6351	509.11
37.6495	500.17
37.6639	501.95
37.6784	500.16
37.6928	469.54
37.7073	517.66
37.7217	527.43
37.7361	484.58
37.7506	481.57
37.7650	485.75
37.7795	512.60
37.7939	504.75
37.8083	502.67
37.8228	523.68
37.8372	509.91
37.8517	507.38
37.8661	501.70
37.8805	513.92
37.8950	516.67
37.9094	523.12
37.9239	496.92
37.9383	494.69
37.9528	496.84
37.9672	493.47
37.9816	489.24
37.9961	485.09
38.0105	526.25
38.0250	480.97
38.0394	528.20
38.0538	497.98
38.0683	527.55
38.0827	497.76
38.0972	499.52
38.1116	506.14
38.1260	502.69
38.1405	510.38
38.1549	474.75
38.1694	502.15
38.1838	512.20
38.1982	489.39
38.2127	499.48
38.2271	518.07
38.2416	513.68
38.2560	528.49
38.2704	487.41
38.2849	503.61
38.2993	504.58
38.3138	536.89
38.3282	543.58
38.3426	517.33
38.3571	511.58
38.3715	497.76
38.3860	543.09
38.4004	512.36
38.4148	557.87
38.4293	565.03
38.4437	558.34
38.4582	599.34
38.4726	671.36
38.4870	706.61
38.5015	711.50
38.5159	778.06
38.5304	798.94
38.5448	785.24
38.5592	800.87
38.5737	787.29
38.5881	769.38
38.6026	733.79
38.6170	707.59
38.6314	738.11
38.6459	693.79
38.6603	632.38
38.6748	621.79
38.6892	557.76
38.7036	563.39
38.7181	539.75
38.7325	514.31
38.7470	520.57
38.7614	545.56
38.7758	517.80
38.7903	509.14
38.8047	490.28
38.8192	527.22
38.8336	506.91
38.8480	522.52
38.8625	514.65
38.8769	538.41
38.8914	521.13
38.9058	531.41
38.9202	484.19
38.9347	490.31
38.9491	473.77
38.9636	495.84
38.9780	526.03
38.9924	523.14
39.0069	488.75
39.0213	493.27
39.0358	485.53
39.0502	510.77
39.0646	498.08
39.0791	517.94
39.0935	511.48
39.1080	527.33
39.1224	541.58
39.1368	520.18
39.1513	463.96
39.1657	501.54
39.1802	525.78
39.1946	486.85
39.2090	493.35
39.2235	520.25
39.2379	530.20
39.2524	512.36
39.2668	529.58
39.2812	546.22
39.2957	511.82
39.3101	499.46
39.3246	490.63
39.3390	527.28
39.3534	512.02
39.3679	515.35
39.3823	521.92
39.3968	497.71
39.4112	513.60
39.4256	535.65
39.4401	510.19
39.4545	477.46
39.4690	490.85
39.4834	467.62
39.4978	495.44
39.5123	496.24
39.5267	496.65
39.5412	507.53
39.5556	471.73
39.5700	464.98
39.5845	537.04
39.5989	513.39
39.6134	488.22
39.6278	483.18
39.6422	474.89
39.6567	463.16
39.6711	468.12
39.6856	487.89
39.7000	534.85
39.7144	518.14
39.7289	470.23
39.7433	502.95
39.7578	476.28
39.7722	513.89
39.7866	486.37
39.8011	492.34
39.8155	510.29
39.8300	525.98
39.8444	492.99
39.8588	473.79
39.8733	485.95
39.8877	515.03
39.9022	490.08
39.9166	478.70
39.9310	498.30
39.9455	507.38
39.9599	485.09
39.9744	511.45
39.9888	501.79
40.0032	479.25
40.0177	501.86
40.0321	479.23
40.0466	472.74
40.0610	533.33
40.0754	511.91
40.0899	536.99
40.1043	484.99
40.1188	476.47
40.1332	469.71
40.1476	480.56
40.1621	504.08
40.1765	528.47
40.1910	489.85
40.2054	480.98
40.2198	467.72
40.2343	488.48
40.2487	491.53
40.2632	500.12
40.2776	504.09
40.2920	519.10
40.3065	500.01
40.3209	473.98
40.3354	484.33
40.3498	472.99
40.3642	494.99
40.3787	508.72
40.3931	480.06
40.4076	493.60
40.4220	538.95
40.4364	536.13
40.4509	505.09
40.4653	511.14
40.4798	528.40
40.4942	507.23
40.5086	514.39
40.5231	497.17
40.5375	506.64
40.5520	517.96
40.5664	517.26
40.5808	463.88
40.5953	516.88
40.6097	501.22
40.6242	466.78
40.6386	500.80
40.6530	524.02
40.6675	513.14
40.6819	500.56
40.6964	534.19
40.7108	501.51
40.7252	490.47
40.7397	478.92
40.7541	496.65
40.7686	470.75
40.7830	498.62
40.7974	487.47
40.8119	498.98
40.8263	503.00
40.8408	478.24
40.8552	500.11
40.8696	491.66
40.8841	468.57
40.8985	457.80
40.9130	491.88
40.9274	472.89
40.9418	483.73
40.9563	453.71
40.9707	479.55
40.9852	495.09
40.9996	486.83
41.0140	489.62
41.0285	523.27
41.0429	560.00
41.0574	486.88
41.0718	508.64
41.0862	485.52
41.1007	499.26
41.1151	498.29
41.1296	506.71
41.1440	487.52
41.1584	488.35
41.1729	510.21
41.1873	477.50
41.2018	509.25
41.2162	504.59
41.2306	497.49
41.2451	520.97
41.2595	485.14
41.2740	507.00
41.2884	498.92
41.3028	491.10
41.3173	493.11
41.3317	509.21
41.3462	537.38
41.3606	500.18
41.3750	508.10
41.3895	518.44
41.4039	491.67
41.4184	479.25
41.4328	537.69
41.4472	479.12
41.4617	499.41
41.4761	521.64
41.4906	520.69
41.5050	485.35
41.5194	492.58
41.5339	515.01
41.5483	475.36
41.5628	487.45
41.5772	472.93
41.5916	490.76
41.6061	482.05
41.6205	463.29
41.6350	513.03
41.6494	480.72
41.6639	475.72
41.6783	464.18
41.6927	499.76
41.7072	487.13
41.7216	495.13
41.7361	488.90
41.7505	519.09
41.7649	472.77
41.7794	506.90
41.7938	484.58
41.8083	518.57
41.8227	507.45
41.8371	523.22
41.8516	500.14
41.8660	537.72
41.8805	548.53
41.8949	565.53
41.9093	534.17
41.9238	517.27
41.9382	582.94
41.9527	571.60
41.9671	535.13
41.9815	525.88
41.9960	579.75
42.0104	560.28
42.0249	549.60
42.0393	566.69
42.0537	570.82
42.0682	551.48
42.0826	552.88
42.0971	595.78
42.1115	556.51
42.1259	581.38
42.1404	582.41
42.1548	581.29
42.1693	643.69
42.1837	702.41
42.1981	802.68
42.2126	838.25
42.2270	950.71
42.2415	1075.63
42.2559	1223.92
42.2703	1365.47
42.2848	1565.55
42.2992	1621.71
42.3137	1697.63
42.3281	1690.98
42.3425	1631.07
42.3570	1457.06
42.3714	1405.74
42.3859	1361.20
42.4003	1379.61
42.4147	1347.44
42.4292	1269.50
42.4436	1122.50
42.4581	1013.00
42.4725	1027.24
42.4869	821.27
42.5014	749.66
42.5158	717.77
42.5303	666.99
42.5447	665.37
42.5591	617.59
42.5736	569.84
42.5880	534.29
42.6025	553.27
42.6169	576.33
42.6313	563.26
42.6458	553.54
42.6602	527.19
42.6747	525.33
42.6891	524.42
42.7035	527.79
42.7180	546.65
42.7324	495.24
42.7469	552.32
42.7613	535.51
42.7757	520.54
42.7902	518.42
42.8046	513.72
42.8191	515.91
42.8335	526.07
42.8479	502.50
42.8624	510.94
42.8768	505.56
42.8913	500.69
42.9057	518.49
42.9201	527.17
42.9346	554.45
42.9490	529.09
42.9635	482.75
42.9779	501.35
42.9923	523.43
43.0068	498.07
43.0212	508.86
43.0357	516.06
43.0501	526.06
43.0645	528.77
43.0790	514.45
43.0934	538.08
43.1079	506.19
43.1223	511.08
43.1367	496.08
43.1512	504.90
43.1656	500.62
43.1801	536.16
43.1945	514.70
43.2089	530.74
43.2234	544.27
43.2378	526.44
43.2523	514.71
43.2667	523.11
43.2811	537.32
43.2956	552.61
43.3100	518.70
43.3245	525.82
43.3389	532.46
43.3533	536.89
43.3678	544.41
43.3822	491.50
43.3967	505.60
43.4111	509.02
43.4255	542.00
43.4400	499.58
43.4544	507.28
43.4689	548.12
43.4833	499.82
43.4977	500.26
43.5122	465.60
43.5266	510.75
43.5411	534.14
43.5555	536.39
43.5699	515.10
43.5844	504.93
43.5988	506.67
43.6133	526.33
43.6277	490.50
43.6421	515.10
43.6566	484.25
43.6710	508.23
43.6855	491.41
43.6999	509.82
43.7143	544.36
43.7288	529.83
43.7432	521.59
43.7577	509.57
43.7721	516.89
43.7865	505.61
43.8010	524.07
43.8154	502.88
43.8299	538.48
43.8443	531.34
43.8587	504.87
43.8732	520.98
43.8876	497.61
43.9021	498.12
43.9165	524.13
43.9309	529.70
43.9454	516.67
43.9598	521.38
43.9743	512.39
43.9887	505.09
44.0031	519.11
44.0176	530.80
44.0320	521.72
44.0465	504.96
44.0609	566.56
44.0753	534.98
44.0898	561.44
44.1042	555.84
44.1187	590.04
44.1331	614.77
44.1475	608.13
44.1620	609.97
44.1764	627.53
44.1909	611.94
44.2053	606.87
44.2197	600.12
44.2342	615.10
44.2486	634.47
44.2631	611.68
44.2775	612.94
44.2919	592.65
44.3064	564.52
44.3208	567.61
44.3353	606.40
44.3497	556.61
44.3641	579.56
44.3786	604.20
44.3930	583.86
44.4075	584.15
44.4219	578.80
44.4363	578.59
44.4508	582.07
44.4652	602.18
44.4797	601.24
44.4941	619.58
44.5085	601.10
44.5230	585.10
44.5374	570.77
44.5519	592.24
44.5663	571.93
44.5807	575.61
44.5952	602.29
44.6096	609.46
44.6241	593.81
44.6385	578.69
44.6529	595.64
44.6674	609.00
44.6818	605.83
44.6963	641.83
44.7107	659.48
44.7251	671.20
44.7396	740.28
44.7540	850.23
44.7685	816.66
44.7829	876.56
44.7973	878.75
44.8118	846.94
44.8262	783.13
44.8407	750.85
44.8551	728.85
44.8695	761.04
44.8840	693.69
44.8984	737.37
44.9129	715.08
44.9273	671.11
44.9417	660.07
44.9562	583.80
44.9706	514.54
44.9851	552.33
44.9995	565.63
45.0139	521.66
45.0284	479.11
45.0428	599.89
45.0573	517.25
45.0717	533.14
45.0861	532.90
45.1006	538.33
45.1150	520.65
45.1295	524.98
45.1439	478.16
45.1583	535.62
45.1728	505.15
45.1872	495.75
45.2017	525.87
45.2161	525.01
45.2305	522.74
45.2450	565.85
45.2594	510.26
45.2739	506.36
45.2883	537.62
45.3028	535.42
45.3172	547.48
45.3316	517.02
45.3461	496.34
45.3605	508.07
45.3750	486.42
45.3894	490.30
45.4038	508.42
45.4183	492.24
45.4327	525.31
45.4472	478.32
45.4616	486.52
45.4760	509.56
45.4905	483.85
45.5049	498.57
45.5194	505.15
45.5338	518.55
45.5482	513.11
45.5627	523.20
45.5771	516.59
45.5916	493.50
45.6060	513.33
45.6204	486.59
45.6349	496.94
45.6493	495.57
45.6638	516.27
45.6782	510.89
45.6926	501.56
45.7071	536.54
45.7215	511.69
45.7360	504.65
45.7504	507.12
45.7648	488.87
45.7793	531.61
45.7937	534.36
45.8082	519.82
45.8226	528.48
45.8370	514.56
45.8515	509.46
45.8659	526.88
45.8804	516.43
45.8948	546.44
45.9092	486.21
45.9237	463.99
45.9381	472.40
45.9526	503.31
45.9670	486.23
45.9814	497.20
45.9959	500.72
46.0103	488.52
46.0248	503.09
46.0392	521.52
46.0536	504.62
46.0681	505.00
46.0825	516.82
46.0970	498.09
46.1114	478.10
46.1258	493.58
46.1403	493.33
46.1547	464.44
46.1692	509.47
46.1836	502.87
46.1980	512.64
46.2125	523.54
46.2269	489.95
46.2414	459.27
46.2558	487.83
46.2702	499.66
46.2847	497.36
46.2991	494.81
46.3136	534.63
46.3280	478.81
46.3424	508.74
46.3569	499.54
46.3713	467.51
46.3858	471.27
46.4002	483.84
46.4146	532.74
46.4291	502.94
46.4435	486.78
46.4580	498.20
46.4724	501.09
46.4868	503.93
46.5013	518.21
46.5157	483.34
46.5302	489.62
46.5446	475.64
46.5590	519.34
46.5735	507.12
46.5879	508.17
46.6024	502.09
46.6168	503.77
46.6312	491.96
46.6457	499.78
46.6601	508.21
46.6746	514.79
46.6890	499.67
46.7034	483.71
46.7179	459.41
46.7323	467.26
46.7468	510.19
46.7612	504.79
46.7756	507.10
46.7901	491.76
46.8045	491.46
46.8190	500.01
46.8334	539.35
46.8478	521.39
46.8623	515.95
46.8767	478.29
46.8912	493.36
46.9056	487.42
46.9200	472.09
46.9345	484.58
46.9489	486.83
46.9634	488.21
46.9778	505.53
46.9922	534.51
47.0067	545.52
47.0211	508.07
47.0356	488.98
47.0500	514.14
47.0644	531.08
47.0789	529.52
47.0933	514.48
47.1078	470.86
47.1222	503.34
47.1366	499.40
47.1511	487.76
47.1655	475.99
47.1800	515.61
47.1944	530.20
47.2088	496.15
47.2233	496.48
47.2377	511.30
47.2522	527.16
47.2666	496.31
47.2810	523.39
47.2955	500.80
47.3099	504.67
47.3244	498.87
47.3388	524.69
47.3532	482.85
47.3677	496.64
47.3821	494.13
47.3966	506.96
47.4110	495.24
47.4254	513.13
47.4399	509.63
47.4543	542.54
47.4688	512.19
47.4832	506.69
47.4976	551.79
47.5121	499.09
47.5265	476.05
47.5410	519.07
47.5554	522.67
47.5698	482.11
47.5843	522.79
47.5987	475.69
47.6132	491.93
47.6276	519.35
47.6420	489.26
47.6565	497.77
47.6709	460.50
47.6854	481.34
47.6998	479.17
47.7142	508.06
47.7287	479.32
47.7431	486.94
47.7576	505.86
47.7720	498.05
47.7864	503.02
47.8009	501.66
47.8153	519.26
47.8298	553.03
47.8442	504.59
47.8586	511.01
47.8731	532.73
47.8875	519.68
47.9020	485.58
47.9164	457.79
47.9308	481.47
47.9453	546.02
47.9597	487.56
47.9742	522.90
47.9886	512.31
48.0030	507.80
48.0175	503.65
48.0319	492.57
48.0464	524.13
48.0608	507.04
48.0752	481.71
48.0897	529.95
48.1041	511.85
48.1186	518.50
48.1330	493.29
48.1474	502.68
48.1619	484.40
48.1763	488.39
48.1908	488.65
48.2052	519.40
48.2196	537.31
48.2341	535.95
48.2485	517.93
48.2630	474.15
48.2774	493.17
48.2918	515.69
48.3063	497.24
48.3207	501.77
48.3352	522.79
48.3496	530.69
48.3640	501.90
48.3785	490.48
48.3929	525.73
48.4074	508.95
48.4218	499.40
48.4362	526.24
48.4507	501.87
48.4651	537.15
48.4796	533.44
48.4940	506.08
48.5084	464.97
48.5229	497.38
48.5373	520.59
48.5518	486.72
48.5662	525.55
48.5806	491.71
48.5951	508.98
48.6095	492.39
48.6240	489.16
48.6384	544.78
48.6528	553.21
48.6673	541.01
48.6817	523.20
48.6962	538.90
48.7106	557.06
48.7250	517.31
48.7395	509.35
48.7539	526.80
48.7684	505.63
48.7828	559.25
48.7972	503.72
48.8117	516.50
48.8261	539.29
48.8406	535.82
48.8550	571.01
48.8694	576.87
48.8839	555.76
48.8983	600.56
48.9128	515.71
48.9272	512.23
48.9416	531.24
48.9561	540.64
48.9705	576.92
48.9850	533.62
48.9994	574.18
49.0139	578.39
49.0283	593.14
49.0427	643.77
49.0572	667.93
49.0716	677.20
49.0861	671.09
49.1005	703.51
49.1149	713.36
49.1294	778.39
49.1438	764.98
49.1583	801.02
49.1727	861.32
49.1871	899.66
49.2016	922.98
49.2160	1023.04
49.2305	1063.81
49.2449	1186.22
49.2593	1287.29
49.2738	1435.14
49.2882	1473.77
49.3027	1586.70
49.3171	1643.66
49.3315	1750.71
49.3460	1788.08
49.3604	1777.99
49.3749	1843.05
49.3893	1818.66
49.4037	1815.33
49.4182	1776.85
49.4326	1826.87
49.4471	1723.69
49.4615	1693.07
49.4759	1574.79
49.4904	1517.47
49.5048	1409.05
49.5193	1292.04
49.5337	1324.88
49.5481	1188.30
49.5626	1155.05
49.5770	1070.08
49.5915	999.76
49.6059	956.03
49.6203	885.95
49.6348	830.32
49.6492	774.33
49.6637	765.43
49.6781	738.29
49.6925	693.25
49.7070	727.39
49.7214	637.05
49.7359	632.67
49.7503	624.20
49.7647	579.55
49.7792	602.53
49.7936	602.83
49.8081	567.30
49.8225	581.86
49.8369	576.60
49.8514	531.38
49.8658	553.70
49.8803	541.66
49.8947	557.61
49.9091	556.97
49.9236	512.25
49.9380	536.35
49.9525	525.83
49.9669	523.80
49.9813	545.87
49.9958	529.47
50.0102	531.69
50.0247	521.06
50.0391	528.96
50.0535	522.24
50.0680	572.08
50.0824	548.52
50.0969	514.30
50.1113	501.77
50.1257	527.51
50.1402	542.34
50.1546	534.04
50.1691	532.37
50.1835	520.90
50.1979	518.83
50.2124	501.74
50.2268	519.99
50.2413	516.76
50.2557	465.78
50.2701	474.70
50.2846	529.51
50.2990	517.48
50.3135	532.83
50.3279	528.20
50.3423	511.61
50.3568	514.62
50.3712	507.35
50.3857	519.35
50.4001	498.50
50.4145	480.66
50.4290	501.25
50.4434	510.33
50.4579	520.03
50.4723	532.62
50.4867	505.18
50.5012	510.67
50.5156	484.58
50.5301	522.45
50.5445	524.94
50.5589	511.31
50.5734	490.06
50.5878	503.30
50.6023	504.08
50.6167	504.47
50.6311	481.77
50.6456	487.31
50.6600	513.57
50.6745	509.20
50.6889	493.86
50.7033	543.15
50.7178	540.00
50.7322	499.32
50.7467	512.10
50.7611	518.73
50.7755	522.58
50.7900	493.96
50.8044	497.68
50.8189	510.28
50.8333	539.46
50.8477	504.62
50.8622	520.32
50.8766	495.41
50.8911	510.74
50.9055	534.97
50.9199	465.34
50.9344	475.26
50.9488	521.37
50.9633	507.73
50.9777	510.94
50.9921	517.13
51.0066	509.48
51.0210	507.99
51.0355	499.09
51.0499	522.27
51.0643	532.64
51.0788	527.31
51.0932	552.94
51.1077	490.15
51.1221	495.26
51.1365	527.20
51.1510	504.20
51.1654	526.66
51.1799	523.13
51.1943	501.74
51.2087	486.51
51.2232	513.67
51.2376	513.77
51.2521	505.43
51.2665	501.63
51.2809	542.67
51.2954	534.13
51.3098	524.47
51.3243	525.16
51.3387	505.69
51.3531	502.64
51.3676	518.17
51.3820	507.66
51.3965	483.29
51.4109	519.60
51.4253	513.02
51.4398	508.61
51.4542	508.94
51.4687	530.29
51.4831	542.99
51.4975	507.78
51.5120	492.40
51.5264	538.44
51.5409	518.87
51.5553	531.58
51.5697	481.68
51.5842	504.92
51.5986	502.82
51.6131	519.05
51.6275	506.40
51.6419	507.54
51.6564	494.87
51.6708	495.64
51.6853	524.84
51.6997	508.62
51.7141	484.04
51.7286	515.35
51.7430	512.41
51.7575	499.19
51.7719	499.29
51.7863	500.43
51.8008	507.84
51.8152	536.10
51.8297	466.03
51.8441	521.81
51.8585	501.62
51.8730	495.89
51.8874	476.93
51.9019	509.95
51.9163	507.03
51.9307	473.12
51.9452	510.73
51.9596	480.98
51.9741	518.13
51.9885	514.13
52.0029	517.58
52.0174	516.91
52.0318	498.68
52.0463	511.05
52.0607	527.13
52.0751	500.33
52.0896	492.63
52.1040	488.56
52.1185	508.44
52.1329	506.19
52.1473	517.91
52.1618	497.05
52.1762	497.61
52.1907	493.91
52.2051	483.04
52.2195	487.31
52.2340	519.24
52.2484	508.76
52.2629	508.70
52.2773	525.88
52.2917	483.01
52.3062	501.22
52.3206	515.87
52.3351	511.87
52.3495	499.97
52.3639	487.84
52.3784	497.57
52.3928	495.56
52.4073	496.69
52.4217	504.04
52.4361	492.31
52.4506	524.20
52.4650	529.74
52.4795	512.13
52.4939	509.71
52.5083	494.52
52.5228	485.56
52.5372	509.88
52.5517	509.11
52.5661	485.03
52.5805	515.24
52.5950	532.36
52.6094	487.60
52.6239	528.57
52.6383	545.30
52.6527	533.73
52.6672	487.61
52.6816	497.33
52.6961	513.37
52.7105	518.06
52.7250	547.17
52.7394	510.84
52.7538	523.54
52.7683	495.37
52.7827	527.36
52.7972	501.55
52.8116	517.62
52.8260	500.98
52.8405	511.17
52.8549	509.31
52.8694	526.08
52.8838	508.50
52.8982	506.12
52.9127	546.93
52.9271	498.16
52.9416	518.22
52.9560	493.87
52.9704	515.98
52.9849	511.17
52.9993	525.38
53.0138	483.86
53.0282	490.84
53.0426	520.26
53.0571	551.81
53.0715	484.67
53.0860	497.04
53.1004	514.33
53.1148	512.91
53.1293	497.02
53.1437	482.31
53.1582	488.24
53.1726	525.50
53.1870	528.72
53.2015	470.95
53.2159	514.15
53.2304	491.31
53.2448	502.87
53.2592	530.86
53.2737	510.51
53.2881	516.52
53.3026	502.26
53.3170	495.56
53.3314	546.95
53.3459	513.48
53.3603	496.12
53.3748	505.63
53.3892	511.84
53.4036	494.15
53.4181	468.93
53.4325	524.16
53.4470	484.64
53.4614	506.40
53.4758	503.16
53.4903	530.47
53.5047	501.46
53.5192	510.36
53.5336	529.27
53.5480	536.83
53.5625	511.87
53.5769	525.72
53.5914	504.71
53.6058	502.87
53.6202	495.41
53.6347	521.64
53.6491	490.46
53.6636	502.63
53.6780	513.55
53.6924	523.32
53.7069	541.86
53.7213	522.68
53.7358	519.85
53.7502	524.69
53.7646	526.62
53.7791	506.60
53.7935	530.10
53.8080	529.76
53.8224	503.48
53.8368	508.90
53.8513	518.19
53.8657	526.45
53.8802	503.69
53.8946	514.32
53.9090	533.36
53.9235	534.40
53.9379	496.53
53.9524	514.88
53.9668	493.74
53.9812	537.73
53.9957	552.03
54.0101	539.52
54.0246	517.78
54.0390	518.54
54.0534	539.58
54.0679	518.29
54.0823	566.26
54.0968	527.24
54.1112	548.97
54.1256	536.60
54.1401	519.31
54.1545	531.04
54.1690	506.61
54.1834	493.53
54.1978	498.29
54.2123	540.32
54.2267	529.83
54.2412	524.82
54.2556	538.84
54.2700	531.75
54.2845	519.31
54.2989	538.20
54.3134	531.75
54.3278	502.70
54.3422	481.53
54.3567	517.80
54.3711	509.08
54.3856	538.10
54.4000	532.46
54.4144	520.64
54.4289	541.31
54.4433	500.37
54.4578	494.73
54.4722	524.52
54.4866	526.22
54.5011	514.96
54.5155	538.09
54.5300	536.45
54.5444	523.31
54.5588	537.53
54.5733	517.98
54.5877	555.13
54.6022	553.90
54.6166	553.36
54.6310	541.60
54.6455	527.35
54.6599	546.93
54.6744	531.77
54.6888	560.51
54.7032	549.30
54.7177	544.01
54.7321	561.63
54.7466	561.33
54.7610	551.76
54.7754	557.64
54.7899	560.82
54.8043	570.46
54.8188	585.09
54.8332	606.44
54.8476	618.14
54.8621	597.21
54.8765	626.97
54.8910	607.89
54.9054	617.03
54.9198	595.27
54.9343	620.40
54.9487	593.36
54.9632	588.31
54.9776	593.59
54.9920	585.82
55.0065	562.47
55.0209	542.90
55.0354	540.39
55.0498	556.26
55.0642	544.59
55.0787	536.59
55.0931	558.07
55.1076	516.59
55.1220	517.61
55.1364	540.00
55.1509	534.40
55.1653	539.79
55.1798	523.03
55.1942	523.72
55.2086	509.23
55.2231	516.37
55.2375	526.83
55.2520	535.16
55.2664	516.11
55.2808	533.79
55.2953	541.51
55.3097	526.04
55.3242	540.81
55.3386	572.37
55.3530	548.23
55.3675	512.18
55.3819	501.20
55.3964	488.50
55.4108	527.05
55.4252	579.39
55.4397	533.40
55.4541	513.39
55.4686	544.63
55.4830	531.36
55.4974	503.78
55.5119	509.79
55.5263	535.63
55.5408	531.63
55.5552	505.44
55.5696	538.77
55.5841	534.99
55.5985	511.23
55.6130	538.76
55.6274	546.88
55.6418	542.88
55.6563	531.74
55.6707	515.11
55.6852	536.63
55.6996	565.56
55.7140	566.07
55.7285	550.84
55.7429	495.91
55.7574	526.99
55.7718	526.44
55.7862	541.59
55.8007	542.30
55.8151	538.97
55.8296	534.88
55.8440	532.41
55.8584	564.47
55.8729	534.22
55.8873	509.10
55.9018	562.13
55.9162	527.06
55.9306	534.94
55.9451	559.10
55.9595	492.13
55.9740	473.16
55.9884	492.98
56.0028	527.72
56.0173	535.44
56.0317	523.40
56.0462	518.67
56.0606	496.76
56.0750	538.15
56.0895	559.48
56.1039	508.46
56.1184	539.23
56.1328	531.23
56.1472	518.24
56.1617	524.31
56.1761	502.54
56.1906	505.96
56.2050	549.64
56.2194	517.67
56.2339	549.85
56.2483	536.03
56.2628	527.94
56.2772	562.49
56.2916	546.38
56.3061	489.70
56.3205	505.30
56.3350	570.70
56.3494	516.73
56.3639	516.75
56.3783	494.51
56.3927	511.09
56.4072	520.90
56.4216	534.41
56.4361	518.29
56.4505	521.92
56.4649	550.88
56.4794	531.62
56.4938	509.12
56.5083	500.88
56.5227	502.85
56.5371	511.57
56.5516	493.52
56.5660	535.17
56.5805	521.74
56.5949	526.84
56.6093	522.96
56.6238	491.85
56.6382	537.19
56.6527	524.42
56.6671	503.23
56.6815	499.81
56.6960	534.74
56.7104	533.63
56.7249	532.40
56.7393	518.06
56.7537	528.23
56.7682	503.37
56.7826	517.20
56.7971	524.72
56.8115	504.89
56.8259	532.38
56.8404	520.76
56.8548	548.00
56.8693	551.34
56.8837	499.61
56.8981	516.19
56.9126	532.14
56.9270	505.94
56.9415	547.60
56.9559	515.02
56.9703	520.70
56.9848	511.05
56.9992	488.94
57.0137	510.49
57.0281	527.84
57.0425	496.39
57.0570	480.58
57.0714	516.77
57.0859	513.74
57.1003	560.69
57.1147	506.96
57.1292	524.95
57.1436	504.48
57.1581	524.17
57.1725	511.93
57.1869	522.68
57.2014	494.61
57.2158	532.30
57.2303	542.77
57.2447	537.34
57.2591	507.95
57.2736	504.95
57.2880	515.61
57.3025	492.08
57.3169	522.86
57.3313	533.53
57.3458	519.06
57.3602	524.36
57.3747	535.38
57.3891	513.62
57.4035	493.24
57.4180	533.10
57.4324	542.81
57.4469	510.72
57.4613	520.72
57.4757	549.28
57.4902	534.11
57.5046	561.19
57.5191	551.92
57.5335	542.97
57.5479	552.06
57.5624	552.85
57.5768	519.83
57.5913	518.67
57.6057	482.52
57.6201	506.57
57.6346	510.79
57.6490	517.18
57.6635	527.79
57.6779	557.53
57.6923	540.64
57.7068	585.44
57.7212	573.25
57.7357	494.39
57.7501	521.52
57.7645	504.73
57.7790	537.65
57.7934	533.44
57.8079	541.55
57.8223	548.50
57.8367	535.61
57.8512	530.02
57.8656	520.06
57.8801	530.49
57.8945	551.38
57.9089	576.58
57.9234	535.78
57.9378	507.31
57.9523	541.09
57.9667	498.41
57.9811	517.63
57.9956	542.40
58.0100	553.01
58.0245	556.28
58.0389	531.91
58.0533	536.76
58.0678	526.96
58.0822	554.17
58.0967	519.52
58.1111	530.86
58.1255	530.02
58.1400	522.57
58.1544	521.86
58.1689	546.75
58.1833	535.93
58.1977	547.02
58.2122	564.53
58.2266	520.11
58.2411	559.85
58.2555	578.28
58.2699	554.00
58.2844	585.92
58.2988	584.71
58.3133	598.48
58.3277	583.74
58.3421	602.91
58.3566	603.54
58.3710	596.97
58.3855	595.42
58.3999	578.78
58.4143	639.77
58.4288	635.60
58.4432	605.61
58.4577	635.23
58.4721	656.25
58.4865	648.31
58.5010	610.40
58.5154	637.66
58.5299	649.91
58.5443	624.53
58.5587	649.22
58.5732	650.70
58.5876	623.78
58.6021	613.67
58.6165	622.06
58.6309	628.79
58.6454	632.05
58.6598	617.87
58.6743	576.96
58.6887	590.20
58.7031	616.46
58.7176	608.16
58.7320	611.70
58.7465	609.24
58.7609	566.32
58.7753	552.88
58.7898	586.79
58.8042	561.89
58.8187	585.32
58.8331	582.11
58.8475	555.48
58.8620	566.83
58.8764	538.17
58.8909	581.51
58.9053	601.44
58.9197	555.46
58.9342	555.81
58.9486	559.03
58.9631	533.92
58.9775	545.33
58.9919	569.35
59.0064	556.69
59.0208	571.26
59.0353	600.80
59.0497	588.16
59.0641	537.77
59.0786	523.89
59.0930	562.74
59.1075	544.49
59.1219	580.91
59.1363	576.70
59.1508	512.16
59.1652	525.00
59.1797	582.79
59.1941	573.39
59.2085	550.26
59.2230	578.55
59.2374	585.43
59.2519	551.63
59.2663	496.22
59.2807	539.15
59.2952	567.23
59.3096	529.66
59.3241	554.70
59.3385	582.08
59.3529	562.40
59.3674	560.62
59.3818	576.27
59.3963	583.67
59.4107	565.98
59.4251	571.52
59.4396	584.00
59.4540	527.46
59.4685	588.74
59.4829	586.24
59.4973	560.35
59.5118	589.02
59.5262	551.13
59.5407	533.15
59.5551	561.56
59.5695	553.46
59.5840	521.48
59.5984	499.31
59.6129	473.96
59.6273	536.94
59.6417	562.04
59.6562	569.82
59.6706	574.57
59.6851	546.13
59.6995	535.53
59.7139	534.33
59.7284	518.69
59.7428	533.92
59.7573	548.16
59.7717	528.09
59.7861	574.91
59.8006	557.09
59.8150	554.98
59.8295	553.76
59.8439	514.17
59.8583	545.46
59.8728	566.53
59.8872	526.46
59.9017	535.30
59.9161	548.01
59.9305	569.03
59.9450	548.03
59.9594	490.53
59.9739	523.85
59.9883	529.31
60.0027	567.61
60.0172	551.00
60.0316	526.43
60.0461	520.68
60.0605	504.69
60.0750	556.02
60.0894	596.36
60.1038	570.59
60.1183	538.76
60.1327	539.84
60.1472	494.60
60.1616	541.86
60.1760	533.70
60.1905	542.44
60.2049	530.35
60.2194	544.86
60.2338	538.40
60.2482	547.93
60.2627	507.18
60.2771	524.06
60.2916	517.65
60.3060	558.43
60.3204	513.73
60.3349	522.45
60.3493	526.41
60.3638	537.72
60.3782	538.49
60.3926	531.46
60.4071	559.66
60.4215	550.49
60.4360	552.95
60.4504	561.59
60.4648	563.81
60.4793	560.73
60.4937	571.72
60.5082	516.74
60.5226	524.60
60.5370	545.18
60.5515	503.82
60.5659	511.15
60.5804	510.33
60.5948	551.45
60.6092	535.13
60.6237	497.72
60.6381	506.93
60.6526	524.22
60.6670	506.41
60.6814	540.42
60.6959	528.79
60.7103	552.21
60.7248	532.55
60.7392	528.87
60.7536	525.86
60.7681	491.53
60.7825	543.63
60.7970	534.54
60.8114	564.71
60.8258	532.11
60.8403	557.76
60.8547	536.78
60.8692	563.60
60.8836	527.01
60.8980	533.19
60.9125	551.05
60.9269	549.05
60.9414	553.14
60.9558	518.65
60.9702	579.18
60.9847	524.38
60.9991	500.65
61.0136	565.50
61.0280	564.15
61.0424	554.42
61.0569	560.19
61.0713	555.29
61.0858	597.74
61.1002	535.57
61.1146	529.33
61.1291	563.22
61.1435	553.68
61.1580	511.49
61.1724	559.00
61.1868	547.66
61.2013	556.00
61.2157	571.19
61.2302	531.47
61.2446	539.87
61.2590	528.55
61.2735	545.73
61.2879	571.06
61.3024	527.85
61.3168	529.80
61.3312	535.57
61.3457	529.05
61.3601	570.41
61.3746	550.86
61.3890	545.16
61.4034	547.79
61.4179	548.96
61.4323	541.39
61.4468	502.36
61.4612	538.08
61.4756	552.13
61.4901	559.17
61.5045	534.12
61.5190	555.63
61.5334	556.00
61.5478	540.23
61.5623	554.32
61.5767	546.83
61.5912	553.30
61.6056	547.93
61.6200	556.52
61.6345	573.90
61.6489	556.20
61.6634	574.16
61.6778	541.20
61.6922	513.55
61.7067	554.95
61.7211	534.59
61.7356	522.31
61.7500	537.22
61.7644	536.20
61.7789	555.86
61.7933	543.21
61.8078	553.82
61.8222	550.45
61.8366	548.45
61.8511	543.48
61.8655	537.17
61.8800	571.56
61.8944	557.89
61.9088	582.80
61.9233	576.13
61.9377	597.23
61.9522	571.93
61.9666	546.80
61.9810	548.08
61.9955	536.69
62.0099	552.59
62.0244	535.89
62.0388	575.28
62.0532	574.03
62.0677	576.88
62.0821	556.63
62.0966	559.16
62.1110	554.63
62.1254	544.53
62.1399	534.54
62.1543	534.65
62.1688	561.34
62.1832	555.27
62.1976	555.35
62.2121	547.76
62.2265	569.22
62.2410	584.07
62.2554	567.81
62.2698	575.12
62.2843	573.17
62.2987	575.81
62.3132	539.12
62.3276	536.87
62.3420	564.36
62.3565	556.63
62.3709	551.12
62.3854	564.76
62.3998	564.77
62.4142	551.48
62.4287	569.25
62.4431	555.64
62.4576	541.83
62.4720	530.13
62.4864	543.68
62.5009	524.00
62.5153	551.68
62.5298	558.17
62.5442	554.65
62.5586	579.02
62.5731	548.48
62.5875	547.10
62.6020	562.12
62.6164	542.58
62.6308	524.91
62.6453	557.80
62.6597	544.58
62.6742	553.05
62.6886	539.70
62.7030	566.16
62.7175	602.32
62.7319	576.99
62.7464	560.02
62.7608	585.46
62.7752	624.25
62.7897	605.98
62.8041	567.96
62.8186	568.72
62.8330	577.49
62.8474	556.99
62.8619	541.19
62.8763	551.04
62.8908	531.90
62.9052	570.44
62.9196	572.08
62.9341	587.46
62.9485	628.82
62.9630	581.36
62.9774	567.16
62.9918	584.26
63.0063	550.72
63.0207	588.74
63.0352	596.06
63.0496	550.51
63.0640	555.52
63.0785	545.06
63.0929	558.18
63.1074	583.95
63.1218	597.91
63.1362	561.34
63.1507	547.22
63.1651	547.36
63.1796	562.89
63.1940	542.97
63.2084	541.87
63.2229	557.33
63.2373	580.28
63.2518	577.87
63.2662	586.14
63.2806	626.74
63.2951	595.54
63.3095	568.43
63.3240	573.31
63.3384	589.31
63.3528	550.21
63.3673	540.72
63.3817	533.75
63.3962	551.26
63.4106	531.02
63.4250	559.80
63.4395	568.45
63.4539	584.17
63.4684	600.30
63.4828	622.62
63.4972	563.04
63.5117	557.82
63.5261	562.29
63.5406	576.25
63.5550	608.46
63.5694	615.04
63.5839	579.94
63.5983	595.61
63.6128	584.27
63.6272	579.42
63.6416	591.21
63.6561	547.66
63.6705	558.36
63.6850	572.77
63.6994	607.10
63.7138	599.11
63.7283	599.34
63.7427	596.94
63.7572	603.63
63.7716	616.26
63.7861	567.02
63.8005	615.33
63.8149	630.16
63.8294	570.83
63.8438	570.70
63.8583	619.59
63.8727	654.91
63.8871	595.75
63.9016	636.62
63.9160	596.16
63.9305	616.01
63.9449	652.75
63.9593	672.11
63.9738	609.56
63.9882	591.82
64.0027	623.48
64.0171	614.38
64.0315	673.04
64.0460	668.20
64.0604	668.40
64.0749	688.72
64.0893	707.64
64.1037	656.76
64.1182	749.55
64.1326	746.60
64.1471	688.50
64.1615	752.23
64.1759	696.87
64.1904	743.87
64.2048	775.67
64.2193	784.38
64.2337	788.91
64.2481	776.05
64.2626	773.20
64.2770	768.60
64.2915	763.35
64.3059	816.33
64.3203	824.42
64.3348	839.07
64.3492	822.08
64.3637	755.41
64.3781	789.01
64.3925	806.73
64.4070	786.96
64.4214	770.04
64.4359	734.21
64.4503	721.79
64.4647	717.25
64.4792	747.72
64.4936	707.43
64.5081	687.55
64.5225	715.42
64.5369	698.19
64.5514	670.98
64.5658	669.31
64.5803	671.16
64.5947	690.25
64.6091	708.79
64.6236	655.10
64.6380	692.40
64.6525	682.47
64.6669	684.25
64.6813	705.56
64.6958	676.16
64.7102	743.34
64.7247	707.82
64.7391	707.58
64.7535	729.63
64.7680	725.47
64.7824	759.64
64.7969	752.44
64.8113	796.62
64.8257	793.84
64.8402	797.60
64.8546	874.60
64.8691	858.51
64.8835	851.40
64.8979	886.71
64.9124	884.75
64.9268	882.11
64.9413	928.24
64.9557	962.83
64.9701	999.28
64.9846	1132.09
64.9990	1175.45
65.0135	1243.65
65.0279	1362.50
65.0423	1715.53
65.0568	2034.89
65.0712	2558.02
65.0857	3321.97
65.1001	4405.08
65.1145	6051.29
65.1290	7889.28
65.1434	9416.21
65.1579	10878.23
65.1723	11895.25
65.1867	11360.32
65.2012	10112.32
65.2156	8648.69
65.2301	6679.87
65.2445	5270.20
65.2589	4494.05
65.2734	4253.77
65.2878	4342.54
65.3023	4762.01
65.3167	5591.12
65.3311	6499.08
65.3456	6914.66
65.3600	6958.69
65.3745	6376.69
65.3889	5453.77
65.4033	4462.52
65.4178	3540.30
65.4322	2865.50
65.4467	2157.92
65.4611	1739.14
65.4755	1492.75
65.4900	1300.40
65.5044	1172.14
65.5189	1106.08
65.5333	981.04
65.5477	985.50
65.5622	903.05
65.5766	863.32
65.5911	817.29
65.6055	808.36
65.6199	799.25
65.6344	807.29
65.6488	787.77
65.6633	752.22
65.6777	718.50
65.6921	731.33
65.7066	748.40
65.7210	766.64
65.7355	716.48
65.7499	682.81
65.7643	678.68
65.7788	638.50
65.7932	698.90
65.8077	663.76
65.8221	669.98
65.8365	671.85
65.8510	643.14
65.8654	649.87
65.8799	663.06
65.8943	666.70
65.9087	633.17
65.9232	635.73
65.9376	628.26
65.9521	598.20
65.9665	624.50
65.9809	635.87
65.9954	640.23
66.0098	681.80
66.0243	594.10
66.0387	656.13
66.0531	625.33
66.0676	612.25
66.0820	646.70
66.0965	634.48
66.1109	581.81
66.1253	630.49
66.1398	614.35
66.1542	609.17
66.1687	653.94
66.1831	608.65
66.1975	601.32
66.2120	642.42
66.2264	628.93
66.2409	612.59
66.2553	564.82
66.2697	591.39
66.2842	610.11
66.2986	596.06
66.3131	591.41
66.3275	597.26
66.3419	597.84
66.3564	570.25
66.3708	604.05
66.3853	575.57
66.3997	573.08
66.4141	581.30
66.4286	637.06
66.4430	615.12
66.4575	590.95
66.4719	600.35
66.4863	616.50
66.5008	607.91
66.5152	574.22
66.5297	613.32
66.5441	601.62
66.5585	600.88
66.5730	593.62
66.5874	580.81
66.6019	609.12
66.6163	601.28
66.6307	608.79
66.6452	585.28
66.6596	563.34
66.6741	569.25
66.6885	575.07
66.7029	584.82
66.7174	576.92
66.7318	553.67
66.7463	556.26
66.7607	575.36
66.7751	570.45
66.7896	568.53
66.8040	581.19
66.8185	610.05
66.8329	596.79
66.8473	590.06
66.8618	611.48
66.8762	579.80
66.8907	604.35
66.9051	599.81
66.9195	590.57
66.9340	561.32
66.9484	609.96
66.9629	589.67
66.9773	580.58
66.9917	567.63
67.0062	570.22
67.0206	576.47
67.0351	553.87
67.0495	576.62
67.0639	593.59
67.0784	578.99
67.0928	604.29
67.1073	608.44
67.1217	596.50
67.1361	574.28
67.1506	537.18
67.1650	591.92
67.1795	583.34
67.1939	571.23
67.2083	551.98
67.2228	593.59
67.2372	612.78
67.2517	594.66
67.2661	574.69
67.2805	562.82
67.2950	560.59
67.3094	552.96
67.3239	551.97
67.3383	587.54
67.3527	623.26
67.3672	600.74
67.3816	579.62
67.3961	560.49
67.4105	572.19
67.4250	597.67
67.4394	604.05
67.4538	600.86
67.4683	591.94
67.4827	605.49
67.4972	586.98
67.5116	571.50
67.5260	575.76
67.5405	573.64
67.5549	591.08
67.5694	546.93
67.5838	572.81
67.5982	572.92
67.6127	563.66
67.6271	573.98
67.6416	582.73
67.6560	616.24
67.6704	567.92
67.6849	543.62
67.6993	569.77
67.7138	582.79
67.7282	590.20
67.7426	587.35
67.7571	602.06
67.7715	563.42
67.7860	574.45
67.8004	530.33
67.8148	578.13
67.8293	589.29
67.8437	561.12
67.8582	597.68
67.8726	567.06
67.8870	548.35
67.9015	630.26
67.9159	594.28
67.9304	551.04
67.9448	593.40
67.9592	572.21
67.9737	575.06
67.9881	558.59
68.0026	536.71
68.0170	579.68
68.0314	585.15
68.0459	536.01
68.0603	625.23
68.0748	571.61
68.0892	583.23
68.1036	549.11
68.1181	600.89
68.1325	584.06
68.1470	602.61
68.1614	564.70
68.1758	608.77
68.1903	540.29
68.2047	543.71
68.2192	569.20
68.2336	566.38
68.2480	566.53
68.2625	562.24
68.2769	597.76
68.2914	569.39
68.3058	563.15
68.3202	553.06
68.3347	609.88
68.3491	587.36
68.3636	588.31
68.3780	578.23
68.3924	552.41
68.4069	612.36
68.4213	582.20
68.4358	637.63
68.4502	575.38
68.4646	536.44
68.4791	595.24
68.4935	587.11
68.5080	546.84
68.5224	564.57
68.5368	585.93
68.5513	535.64
68.5657	551.02
68.5802	545.92
68.5946	560.15
68.6090	596.96
68.6235	603.37
68.6379	587.02
68.6524	544.08
68.6668	522.62
68.6812	538.93
68.6957	557.85
68.7101	607.54
68.7246	587.64
68.7390	555.47
68.7534	587.07
68.7679	588.49
68.7823	560.25
68.7968	608.62
68.8112	591.83
68.8256	576.55
68.8401	564.67
68.8545	570.51
68.8690	528.78
68.8834	558.50
68.8978	597.54
68.9123	672.85
68.9267	535.09
68.9412	563.91
68.9556	555.35
68.9700	580.19
68.9845	562.25
68.9989	565.75
69.0134	537.63
69.0278	588.04
69.0422	562.30
69.0567	556.99
69.0711	600.73
69.0856	595.44
69.1000	600.45
69.1144	568.31
69.1289	581.21
69.1433	567.53
69.1578	563.93
69.1722	580.97
69.1866	532.24
69.2011	550.86
69.2155	596.27
69.2300	548.34
69.2444	619.73
69.2588	568.97
69.2733	577.00
69.2877	607.14
69.3022	589.12
69.3166	571.57
69.3310	599.35
69.3455	621.12
69.3599	563.43
69.3744	558.32
69.3888	560.77
69.4032	584.17
69.4177	557.70
69.4321	568.59
69.4466	590.35
69.4610	602.59
69.4754	606.41
69.4899	552.08
69.5043	553.84
69.5188	552.06
69.5332	600.06
69.5476	526.69
69.5621	556.85
69.5765	576.71
69.5910	566.34
69.6054	547.61
69.6198	531.94
69.6343	596.33
69.6487	602.98
69.6632	602.46
69.6776	583.72
69.6920	574.36
69.7065	601.87
69.7209	592.64
69.7354	572.97
69.7498	606.42
69.7642	562.28
69.7787	609.95
69.7931	572.31
69.8076	542.73
69.8220	585.58
69.8364	593.05
69.8509	543.20
69.8653	578.23
69.8798	557.42
69.8942	559.46
69.9086	613.98
69.9231	597.47
69.9375	579.42
69.9520	534.00
69.9664	552.64
69.9808	597.49
69.9953	547.74
70.0097	546.33
70.0242	567.45
70.0386	567.70
70.0530	595.99
70.0675	623.08
70.0819	561.63
70.0964	598.07
70.1108	629.39
70.1252	588.82
70.1397	544.25
70.1541	574.85
70.1686	582.30
70.1830	553.25
70.1974	581.52
70.2119	546.35
70.2263	585.26
70.2408	601.95
70.2552	581.36
70.2696	534.38
70.2841	633.64
70.2985	529.98
70.3130	552.87
70.3274	573.35
70.3418	570.87
70.3563	574.97
70.3707	570.27
70.3852	559.16
70.3996	590.35
70.4140	599.67
70.4285	555.96
70.4429	551.30
70.4574	585.65
70.4718	536.19
70.4862	526.20
70.5007	547.78
70.5151	553.16
70.5296	632.96
70.5440	581.26
70.5584	601.06
70.5729	592.01
70.5873	558.21
70.6018	562.64
70.6162	561.60
70.6306	572.54
70.6451	536.86
70.6595	549.00
70.6740	550.04
70.6884	557.09
70.7028	592.79
70.7173	537.81
70.7317	550.12
70.7462	610.19
70.7606	584.46
70.7750	591.41
70.7895	594.79
70.8039	679.38
70.8184	560.48
70.8328	616.89
70.8472	580.47
70.8617	591.85
70.8761	537.88
70.8906	536.95
70.9050	603.86
70.9194	579.97
70.9339	628.86
70.9483	626.81
70.9628	558.24
70.9772	575.81
70.9916	606.70
71.0061	572.90
71.0205	584.06
71.0350	562.24
71.0494	570.18
71.0638	544.43
71.0783	630.27
71.0927	627.47
71.1072	566.45
71.1216	577.23
71.1361	572.04
71.1505	573.80
71.1649	612.86
71.1794	588.46
71.1938	585.26
71.2083	605.49
71.2227	518.33
71.2371	525.33
71.2516	593.73
71.2660	635.90
71.2805	617.55
71.2949	588.72
71.3093	557.40
71.3238	524.64
71.3382	600.76
71.3527	580.72
71.3671	539.51
71.3815	537.72
71.3960	553.12
71.4104	530.82
71.4249	589.41
71.4393	559.04
71.4537	532.44
71.4682	602.69
71.4826	567.31
71.4971	604.80
71.5115	602.65
71.5259	565.06
71.5404	591.50
71.5548	574.80
71.5693	597.87
71.5837	654.83
71.5981	630.51
71.6126	590.26
71.6270	612.61
71.6415	586.95
71.6559	588.16
71.6703	596.04
71.6848	518.81
71.6992	567.30
71.7137	583.92
71.7281	546.31
71.7425	526.93
71.7570	562.85
71.7714	579.24
71.7859	545.58
71.8003	540.20
71.8147	573.55
71.8292	573.35
71.8436	535.11
71.8581	549.05
71.8725	563.09
71.8869	566.52
71.9014	569.17
71.9158	512.09
71.9303	544.82
71.9447	602.66
71.9591	629.07
71.9736	579.16
71.9880	586.65
72.0025	560.26
72.0169	516.74
72.0313	588.10
72.0458	607.34
72.0602	557.84
72.0747	523.66
72.0891	552.85
72.1035	658.04
72.1180	637.09
72.1324	574.78
72.1469	539.67
72.1613	589.78
72.1757	616.13
72.1902	576.56
72.2046	562.59
72.2191	490.73
72.2335	506.47
72.2479	570.39
72.2624	525.72
72.2768	541.00
72.2913	574.49
72.3057	633.74
72.3201	636.90
72.3346	576.45
72.3490	534.52
72.3635	490.81
72.3779	549.01
72.3923	600.01
72.4068	594.61
72.4212	572.78
72.4357	622.93
72.4501	575.89
72.4645	540.35
72.4790	560.88
72.4934	603.63
72.5079	610.03
72.5223	583.21
72.5367	522.67
72.5512	586.99
72.5656	604.73
72.5801	520.07
72.5945	508.43
72.6089	574.38
72.6234	522.43
72.6378	541.67
72.6523	569.86
72.6667	644.45
72.6811	659.93
72.6956	581.23
72.7100	487.40
72.7245	539.50
72.7389	592.52
72.7533	497.99
72.7678	567.06
72.7822	630.75
72.7967	604.45
72.8111	662.63
72.8255	705.66
72.8400	743.99
72.8544	716.29
72.8689	660.64
72.8833	569.64