2022.09.19 19:37:17
Îáðàçåö: ß÷åéêà LCoV 16-09-2022
Lambda1 = 1.54060
Lambda2 = 1.54439
Lambdam = 1.54186
R = 0.497
2Theta	I

line¹ 0 ;repeat¹ 0
22.1120	598.10
22.1264	598.10
22.1409	567.58
22.1553	498.35
22.1697	562.00
22.1842	593.55
22.1986	549.75
22.2131	626.09
22.2275	583.14
22.2419	582.40
22.2564	593.03
22.2708	478.56
22.2853	580.05
22.2997	570.94
22.3141	618.36
22.3286	558.98
22.3430	540.19
22.3575	541.78
22.3719	593.88
22.3863	587.34
22.4008	560.91
22.4152	596.98
22.4297	655.98
22.4441	595.80
22.4585	580.83
22.4730	611.95
22.4874	567.70
22.5019	671.77
22.5163	631.79
22.5307	614.08
22.5452	496.79
22.5596	556.13
22.5741	591.04
22.5885	550.64
22.6029	601.10
22.6174	538.16
22.6318	540.95
22.6463	486.37
22.6607	525.37
22.6751	568.09
22.6896	589.83
22.7040	609.37
22.7185	581.91
22.7329	531.26
22.7473	510.17
22.7618	598.89
22.7762	559.94
22.7907	642.91
22.8051	639.07
22.8195	564.03
22.8340	603.39
22.8484	532.15
22.8629	595.42
22.8773	657.05
22.8917	659.91
22.9062	632.60
22.9206	554.99
22.9351	534.80
22.9495	572.01
22.9639	642.53
22.9784	650.25
22.9928	568.18
23.0073	531.89
23.0217	540.59
23.0361	547.54
23.0506	563.80
23.0650	555.99
23.0795	594.83
23.0939	585.56
23.1083	503.87
23.1228	550.82
23.1372	598.22
23.1517	547.35
23.1661	602.08
23.1806	521.12
23.1950	456.21
23.2094	508.63
23.2239	507.91
23.2383	530.19
23.2528	589.67
23.2672	600.62
23.2816	515.64
23.2961	590.82
23.3105	537.79
23.3250	548.76
23.3394	515.20
23.3538	524.50
23.3683	532.45
23.3827	614.24
23.3972	587.43
23.4116	632.45
23.4260	582.21
23.4405	555.77
23.4549	532.90
23.4694	529.77
23.4838	528.45
23.4982	549.61
23.5127	535.42
23.5271	574.75
23.5416	650.35
23.5560	630.02
23.5704	594.68
23.5849	623.87
23.5993	536.59
23.6138	549.46
23.6282	553.66
23.6426	510.71
23.6571	539.85
23.6715	499.41
23.6860	509.67
23.7004	592.32
23.7148	522.80
23.7293	613.16
23.7437	536.04
23.7582	561.00
23.7726	522.04
23.7870	478.83
23.8015	611.26
23.8159	547.52
23.8304	631.14
23.8448	548.79
23.8592	623.09
23.8737	549.41
23.8881	574.80
23.9026	557.13
23.9170	564.65
23.9314	512.71
23.9459	545.37
23.9603	489.56
23.9748	523.92
23.9892	543.77
24.0036	619.04
24.0181	601.76
24.0325	612.01
24.0470	560.18
24.0614	621.64
24.0758	609.61
24.0903	566.29
24.1047	539.51
24.1192	544.85
24.1336	587.99
24.1480	548.02
24.1625	562.63
24.1769	548.75
24.1914	563.85
24.2058	586.93
24.2202	585.61
24.2347	596.33
24.2491	574.60
24.2636	559.94
24.2780	595.87
24.2924	557.01
24.3069	573.81
24.3213	546.49
24.3358	549.49
24.3502	564.24
24.3646	552.26
24.3791	586.99
24.3935	548.03
24.4080	502.81
24.4224	545.61
24.4368	462.78
24.4513	482.80
24.4657	539.12
24.4802	596.74
24.4946	558.29
24.5090	515.59
24.5235	552.68
24.5379	562.07
24.5524	567.23
24.5668	597.71
24.5812	574.47
24.5957	622.82
24.6101	571.34
24.6246	513.52
24.6390	590.99
24.6534	581.11
24.6679	530.05
24.6823	588.08
24.6968	537.87
24.7112	542.64
24.7256	558.09
24.7401	548.62
24.7545	519.64
24.7690	519.99
24.7834	552.90
24.7978	557.40
24.8123	555.38
24.8267	523.16
24.8412	587.10
24.8556	553.94
24.8700	579.41
24.8845	519.02
24.8989	532.07
24.9134	554.94
24.9278	564.46
24.9422	498.61
24.9567	496.75
24.9711	513.99
24.9856	516.02
25.0000	575.41
25.0144	560.24
25.0289	498.06
25.0433	590.85
25.0578	535.22
25.0722	509.36
25.0866	560.50
25.1011	552.46
25.1155	587.04
25.1300	553.04
25.1444	504.62
25.1588	501.26
25.1733	530.68
25.1877	548.22
25.2022	559.30
25.2166	552.20
25.2310	534.11
25.2455	546.85
25.2599	521.83
25.2744	568.28
25.2888	537.94
25.3032	572.76
25.3177	587.39
25.3321	587.24
25.3466	572.12
25.3610	549.76
25.3754	524.08
25.3899	526.95
25.4043	554.46
25.4188	604.74
25.4332	548.35
25.4476	533.92
25.4621	512.20
25.4765	556.44
25.4910	529.68
25.5054	547.72
25.5198	564.58
25.5343	561.54
25.5487	577.48
25.5632	577.43
25.5776	536.68
25.5920	534.82
25.6065	502.94
25.6209	534.84
25.6354	545.57
25.6498	546.36
25.6642	522.50
25.6787	512.10
25.6931	524.22
25.7076	527.00
25.7220	511.30
25.7364	514.44
25.7509	558.28
25.7653	491.32
25.7798	541.21
25.7942	547.35
25.8086	517.92
25.8231	551.25
25.8375	554.86
25.8520	580.79
25.8664	574.77
25.8808	554.55
25.8953	567.06
25.9097	542.78
25.9242	516.28
25.9386	551.99
25.9530	511.53
25.9675	531.25
25.9819	562.09
25.9964	557.00
26.0108	511.66
26.0252	559.82
26.0397	561.89
26.0541	514.46
26.0686	552.44
26.0830	575.32
26.0974	547.58
26.1119	543.43
26.1263	566.14
26.1408	546.31
26.1552	541.81
26.1696	522.68
26.1841	546.75
26.1985	525.69
26.2130	502.02
26.2274	497.06
26.2418	532.02
26.2563	512.85
26.2707	542.45
26.2852	553.60
26.2996	543.80
26.3140	534.77
26.3285	528.93
26.3429	522.20
26.3574	566.26
26.3718	543.03
26.3862	520.41
26.4007	486.12
26.4151	516.58
26.4296	527.65
26.4440	526.83
26.4584	526.96
26.4729	521.48
26.4873	546.02
26.5018	537.89
26.5162	514.79
26.5306	504.72
26.5451	528.08
26.5595	523.11
26.5740	517.19
26.5884	543.71
26.6028	538.53
26.6173	540.55
26.6317	530.00
26.6462	538.10
26.6606	535.55
26.6750	530.33
26.6895	526.40
26.7039	542.31
26.7184	537.19
26.7328	513.90
26.7472	500.91
26.7617	506.60
26.7761	518.39
26.7906	509.74
26.8050	501.74
26.8194	522.15
26.8339	499.77
26.8483	510.10
26.8628	557.87
26.8772	529.80
26.8917	529.45
26.9061	550.54
26.9205	541.01
26.9350	532.34
26.9494	528.02
26.9639	508.43
26.9783	503.42
26.9927	523.28
27.0072	496.53
27.0216	521.13
27.0361	528.18
27.0505	529.40
27.0649	513.87
27.0794	498.43
27.0938	508.19
27.1083	522.86
27.1227	530.85
27.1371	513.36
27.1516	511.80
27.1660	501.98
27.1805	500.99
27.1949	504.91
27.2093	501.01
27.2238	518.52
27.2382	526.18
27.2527	517.34
27.2671	521.21
27.2815	504.51
27.2960	488.63
27.3104	500.92
27.3249	509.80
27.3393	516.75
27.3537	477.86
27.3682	523.00
27.3826	536.90
27.3971	516.78
27.4115	522.44
27.4259	523.95
27.4404	518.72
27.4548	509.13
27.4693	523.44
27.4837	543.21
27.4981	540.60
27.5126	538.68
27.5270	517.63
27.5415	509.41
27.5559	517.54
27.5703	508.50
27.5848	527.95
27.5992	527.89
27.6137	514.36
27.6281	504.53
27.6425	519.18
27.6570	534.77
27.6714	547.84
27.6859	529.08
27.7003	546.01
27.7147	539.84
27.7292	529.07
27.7436	522.49
27.7581	530.44
27.7725	542.46
27.7869	528.01
27.8014	553.34
27.8158	531.49
27.8303	549.03
27.8447	529.95
27.8591	532.93
27.8736	515.71
27.8880	522.79
27.9025	526.70
27.9169	532.31
27.9313	496.72
27.9458	538.98
27.9602	520.38
27.9747	526.61
27.9891	525.74
28.0035	524.18
28.0180	498.08
28.0324	492.48
28.0469	480.89
28.0613	554.90
28.0757	507.48
28.0902	528.68
28.1046	518.98
28.1191	516.52
28.1335	500.29
28.1479	495.97
28.1624	552.44
28.1768	526.43
28.1913	519.92
28.2057	513.24
28.2201	486.64
28.2346	544.51
28.2490	511.53
28.2635	476.45
28.2779	477.36
28.2923	512.54
28.3068	523.32
28.3212	536.88
28.3357	496.65
28.3501	478.02
28.3645	490.14
28.3790	494.28
28.3934	506.62
28.4079	531.47
28.4223	527.43
28.4367	509.69
28.4512	509.89
28.4656	524.58
28.4801	529.84
28.4945	532.75
28.5089	542.85
28.5234	513.81
28.5378	541.23
28.5523	526.45
28.5667	502.37
28.5811	523.13
28.5956	525.71
28.6100	539.52
28.6245	521.38
28.6389	511.34
28.6533	500.27
28.6678	498.84
28.6822	502.43
28.6967	498.00
28.7111	496.16
28.7255	484.16
28.7400	531.77
28.7544	556.83
28.7689	506.82
28.7833	533.60
28.7977	566.32
28.8122	530.20
28.8266	516.35
28.8411	511.38
28.8555	543.27
28.8699	505.48
28.8844	511.15
28.8988	480.43
28.9133	550.11
28.9277	477.36
28.9421	526.63
28.9566	539.75
28.9710	509.64
28.9855	515.80
28.9999	533.07
29.0143	515.99
29.0288	456.62
29.0432	533.06
29.0577	538.55
29.0721	499.52
29.0865	545.55
29.1010	526.66
29.1154	527.12
29.1299	525.43
29.1443	483.39
29.1587	524.21
29.1732	525.41
29.1876	494.44
29.2021	481.66
29.2165	535.65
29.2309	520.12
29.2454	538.26
29.2598	544.16
29.2743	522.67
29.2887	506.63
29.3031	506.87
29.3176	517.90
29.3320	509.14
29.3465	512.49
29.3609	513.08
29.3753	535.69
29.3898	520.14
29.4042	477.80
29.4187	483.19
29.4331	498.85
29.4475	509.13
29.4620	500.50
29.4764	495.68
29.4909	495.65
29.5053	482.10
29.5197	490.51
29.5342	511.19
29.5486	498.05
29.5631	535.80
29.5775	493.94
29.5919	504.07
29.6064	509.90
29.6208	497.88
29.6353	539.84
29.6497	509.73
29.6641	550.95
29.6786	500.21
29.6930	484.12
29.7075	551.83
29.7219	525.00
29.7363	496.16
29.7508	514.72
29.7652	511.58
29.7797	547.07
29.7941	505.80
29.8085	514.92
29.8230	539.77
29.8374	501.20
29.8519	524.53
29.8663	541.34
29.8807	495.53
29.8952	511.89
29.9096	510.28
29.9241	506.01
29.9385	501.24
29.9529	482.05
29.9674	507.50
29.9818	503.32
29.9963	516.82
30.0107	489.73
30.0251	503.92
30.0396	522.89
30.0540	507.44
30.0685	505.84
30.0829	481.85
30.0973	497.58
30.1118	488.14
30.1262	514.94
30.1407	516.70
30.1551	508.12
30.1695	518.36
30.1840	516.91
30.1984	514.27
30.2129	525.45
30.2273	505.80
30.2417	494.35
30.2562	495.84
30.2706	529.61
30.2851	519.55
30.2995	506.48
30.3139	521.20
30.3284	556.48
30.3428	544.85
30.3573	535.80
30.3717	501.15
30.3861	498.70
30.4006	491.23
30.4150	510.87
30.4295	486.86
30.4439	483.22
30.4583	521.28
30.4728	491.48
30.4872	514.49
30.5017	528.26
30.5161	530.09
30.5305	522.59
30.5450	517.27
30.5594	517.88
30.5739	492.77
30.5883	512.96
30.6028	534.17
30.6172	515.38
30.6316	482.19
30.6461	474.13
30.6605	499.80
30.6750	517.34
30.6894	529.79
30.7038	536.57
30.7183	554.51
30.7327	535.21
30.7472	562.88
30.7616	566.62
30.7760	613.33
30.7905	606.77
30.8049	595.89
30.8194	644.84
30.8338	723.21
30.8482	704.77
30.8627	701.57
30.8771	691.46
30.8916	657.23
30.9060	680.10
30.9204	657.41
30.9349	617.20
30.9493	613.00
30.9638	617.10
30.9782	604.63
30.9926	581.64
31.0071	552.72
31.0215	522.02
31.0360	558.28
31.0504	543.17
31.0648	545.41
31.0793	531.22
31.0937	533.39
31.1082	548.24
31.1226	504.47
31.1370	489.95
31.1515	494.85
31.1659	555.03
31.1804	556.99
31.1948	545.53
31.2092	575.05
31.2237	550.07
31.2381	532.04
31.2526	522.82
31.2670	526.94
31.2814	571.63
31.2959	517.47
31.3103	531.32
31.3248	558.78
31.3392	533.57
31.3536	540.79
31.3681	517.77
31.3825	535.28
31.3970	536.48
31.4114	520.14
31.4258	542.76
31.4403	518.94
31.4547	528.06
31.4692	498.39
31.4836	498.89
31.4980	494.28
31.5125	516.64
31.5269	532.77
31.5414	524.87
31.5558	550.66
31.5702	501.82
31.5847	484.14
31.5991	502.12
31.6136	500.40
31.6280	532.55
31.6424	512.57
31.6569	499.56
31.6713	465.52
31.6858	532.02
31.7002	538.51
31.7146	529.78
31.7291	504.00
31.7435	501.33
31.7580	504.02
31.7724	536.46
31.7868	525.83
31.8013	530.03
31.8157	561.36
31.8302	519.85
31.8446	521.33
31.8590	508.40
31.8735	509.72
31.8879	492.29
31.9024	512.84
31.9168	540.93
31.9312	528.79
31.9457	521.75
31.9601	476.46
31.9746	485.61
31.9890	521.96
32.0034	522.78
32.0179	504.31
32.0323	538.76
32.0468	525.49
32.0612	513.44
32.0756	523.18
32.0901	530.57
32.1045	492.60
32.1190	485.81
32.1334	515.32
32.1478	483.19
32.1623	510.21
32.1767	518.71
32.1912	502.30
32.2056	510.72
32.2200	504.05
32.2345	524.81
32.2489	509.88
32.2634	468.27
32.2778	505.47
32.2922	470.21
32.3067	453.00
32.3211	466.41
32.3356	526.62
32.3500	496.68
32.3644	499.22
32.3789	516.10
32.3933	491.18
32.4078	505.38
32.4222	520.40
32.4366	520.28
32.4511	485.20
32.4655	500.75
32.4800	542.92
32.4944	524.64
32.5088	526.18
32.5233	481.48
32.5377	480.41
32.5522	514.09
32.5666	481.38
32.5810	537.63
32.5955	502.21
32.6099	515.90
32.6244	523.75
32.6388	535.80
32.6532	497.76
32.6677	465.24
32.6821	475.95
32.6966	469.46
32.7110	474.52
32.7254	502.40
32.7399	487.50
32.7543	499.16
32.7688	503.94
32.7832	529.95
32.7976	532.58
32.8121	531.11
32.8265	532.35
32.8410	512.42
32.8554	499.65
32.8698	486.26
32.8843	494.50
32.8987	519.59
32.9132	512.10
32.9276	500.18
32.9420	530.67
32.9565	500.40
32.9709	493.46
32.9854	502.65
32.9998	535.63
33.0142	528.40
33.0287	532.19
33.0431	502.48
33.0576	490.67
33.0720	513.93
33.0864	502.62
33.1009	529.98
33.1153	513.64
33.1298	513.68
33.1442	490.33
33.1586	528.01
33.1731	527.44
33.1875	517.15
33.2020	497.93
33.2164	512.74
33.2308	488.49
33.2453	521.96
33.2597	527.67
33.2742	528.33
33.2886	537.18
33.3030	509.61
33.3175	535.75
33.3319	526.02
33.3464	507.42
33.3608	475.30
33.3752	481.66
33.3897	480.37
33.4041	518.15
33.4186	511.04
33.4330	518.24
33.4474	492.36
33.4619	492.07
33.4763	497.27
33.4908	508.82
33.5052	472.66
33.5196	518.31
33.5341	536.22
33.5485	472.97
33.5630	461.66
33.5774	477.28
33.5918	516.32
33.6063	505.97
33.6207	503.17
33.6352	545.84
33.6496	492.72
33.6640	513.66
33.6785	488.69
33.6929	487.98
33.7074	543.93
33.7218	504.94
33.7362	490.30
33.7507	503.38
33.7651	501.80
33.7796	511.18
33.7940	485.31
33.8084	501.18
33.8229	496.35
33.8373	511.29
33.8518	533.46
33.8662	511.25
33.8806	505.04
33.8951	502.04
33.9095	504.43
33.9240	522.16
33.9384	485.07
33.9528	507.09
33.9673	508.33
33.9817	525.16
33.9962	507.70
34.0106	519.57
34.0250	476.76
34.0395	487.23
34.0539	510.08
34.0684	474.08
34.0828	499.52
34.0972	527.01
34.1117	521.17
34.1261	519.52
34.1406	477.69
34.1550	496.12
34.1694	531.87
34.1839	488.53
34.1983	494.08
34.2128	547.56
34.2272	563.16
34.2417	551.24
34.2561	506.58
34.2705	512.40
34.2850	543.50
34.2994	479.10
34.3139	477.98
34.3283	505.61
34.3427	496.91
34.3572	512.59
34.3716	509.69
34.3861	477.15
34.4005	469.28
34.4149	500.01
34.4294	496.62
34.4438	479.17
34.4583	467.98
34.4727	497.33
34.4871	510.69
34.5016	502.25
34.5160	497.50
34.5305	524.84
34.5449	499.99
34.5593	489.66
34.5738	483.76
34.5882	495.04
34.6027	532.98
34.6171	492.57
34.6315	499.22
34.6460	502.27
34.6604	490.81
34.6749	521.94
34.6893	530.14
34.7037	515.48
34.7182	492.03
34.7326	465.05
34.7471	491.53
34.7615	485.87
34.7759	519.45
34.7904	494.98
34.8048	513.47
34.8193	530.69
34.8337	516.51
34.8481	489.73
34.8626	485.25
34.8770	486.18
34.8915	503.91
34.9059	517.43
34.9203	520.46
34.9348	548.52
34.9492	530.79
34.9637	502.90
34.9781	527.51
34.9925	506.94
35.0070	532.29
35.0214	521.71
35.0359	497.47
35.0503	486.24
35.0647	515.62
35.0792	541.95
35.0936	523.32
35.1081	513.54
35.1225	518.34
35.1369	509.19
35.1514	499.37
35.1658	538.02
35.1803	518.45
35.1947	485.87
35.2091	531.33
35.2236	536.54
35.2380	499.41
35.2525	509.40
35.2669	496.38
35.2813	492.51
35.2958	526.39
35.3102	532.62
35.3247	518.98
35.3391	536.70
35.3535	511.89
35.3680	525.74
35.3824	487.39
35.3969	497.32
35.4113	530.96
35.4257	546.71
35.4402	528.47
35.4546	532.19
35.4691	557.83
35.4835	541.87
35.4979	515.16
35.5124	539.80
35.5268	554.91
35.5413	558.38
35.5557	561.12
35.5701	561.15
35.5846	551.96
35.5990	551.01
35.6135	515.78
35.6279	495.60
35.6423	514.23
35.6568	519.62
35.6712	522.59
35.6857	601.94
35.7001	647.69
35.7145	687.03
35.7290	651.65
35.7434	616.86
35.7579	611.48
35.7723	600.01
35.7867	632.20
35.8012	624.23
35.8156	670.27
35.8301	618.66
35.8445	614.89
35.8589	626.87
35.8734	722.10
35.8878	846.63
35.9023	982.48
35.9167	1061.51
35.9311	1384.27
35.9456	2080.37
35.9600	2398.55
35.9745	1916.45
35.9889	1998.93
36.0033	2654.10
36.0178	3018.94
36.0322	2296.17
36.0467	1792.41
36.0611	1669.18
36.0755	1649.71
36.0900	1612.84
36.1044	1307.56
36.1189	1379.79
36.1333	1314.23
36.1477	1046.52
36.1622	1090.41
36.1766	1008.00
36.1911	888.18
36.2055	825.01
36.2199	798.30
36.2344	807.82
36.2488	828.27
36.2633	840.04
36.2777	830.34
36.2921	854.40
36.3066	917.40
36.3210	946.11
36.3355	965.86
36.3499	988.88
36.3643	961.30
36.3788	918.85
36.3932	907.40
36.4077	877.70
36.4221	863.01
36.4365	862.41
36.4510	812.20
36.4654	802.01
36.4799	773.26
36.4943	709.34
36.5087	678.51
36.5232	651.14
36.5376	653.96
36.5521	631.69
36.5665	622.23
36.5809	615.54
36.5954	607.91
36.6098	582.07
36.6243	591.08
36.6387	598.40
36.6531	551.73
36.6676	545.28
36.6820	495.84
36.6965	526.19
36.7109	562.33
36.7253	526.09
36.7398	555.86
36.7542	552.11
36.7687	554.55
36.7831	551.39
36.7975	561.43
36.8120	556.73
36.8264	589.78
36.8409	574.47
36.8553	593.62
36.8697	580.55
36.8842	589.06
36.8986	580.92
36.9131	570.90
36.9275	554.73
36.9419	604.61
36.9564	571.72
36.9708	560.23
36.9853	586.46
36.9997	608.21
37.0141	560.06
37.0286	523.43
37.0430	558.42
37.0575	560.96
37.0719	513.07
37.0863	538.29
37.1008	541.44
37.1152	537.77
37.1297	534.76
37.1441	492.02
37.1585	541.52
37.1730	522.83
37.1874	512.13
37.2019	506.01
37.2163	502.16
37.2307	481.53
37.2452	497.80
37.2596	503.54
37.2741	517.31
37.2885	519.94
37.3029	517.39
37.3174	489.96
37.3318	513.75
37.3463	487.76
37.3607	511.36
37.3751	499.44
37.3896	497.68
37.4040	484.32
37.4185	492.90
37.4329	540.72
37.4473	533.81
37.4618	512.80
37.4762	511.28
37.4907	509.66
37.5051	526.99
37.5195	483.82
37.5340	469.40
37.5484	541.46
37.5629	525.59
37.5773	510.38
37.5917	505.19
37.6062	499.84
37.6206	500.66
37.6351	490.98
37.6495	490.16
37.6639	495.54
37.6784	518.27
37.6928	488.03
37.7073	513.33
37.7217	524.52
37.7361	492.65
37.7506	515.39
37.7650	489.34
37.7795	526.71
37.7939	499.32
37.8083	502.37
37.8228	511.53
37.8372	516.93
37.8517	516.57
37.8661	509.60
37.8805	513.45
37.8950	528.42
37.9094	524.86
37.9239	483.95
37.9383	489.83
37.9528	527.90
37.9672	533.50
37.9816	478.71
37.9961	517.73
38.0105	502.22
38.0250	505.58
38.0394	486.56
38.0538	522.42
38.0683	566.28
38.0827	513.59
38.0972	494.09
38.1116	495.14
38.1260	492.30
38.1405	494.15
38.1549	499.79
38.1694	509.00
38.1838	503.20
38.1982	491.42
38.2127	523.35
38.2271	504.59
38.2416	507.92
38.2560	522.25
38.2704	488.85
38.2849	501.13
38.2993	518.10
38.3138	522.92
38.3282	496.96
38.3426	525.62
38.3571	522.60
38.3715	539.61
38.3860	534.76
38.4004	535.00
38.4148	538.50
38.4293	599.52
38.4437	564.33
38.4582	574.43
38.4726	640.26
38.4870	703.63
38.5015	730.34
38.5159	802.34
38.5304	809.02
38.5448	821.83
38.5592	780.05
38.5737	759.70
38.5881	753.13
38.6026	710.63
38.6170	718.95
38.6314	711.64
38.6459	684.33
38.6603	639.80
38.6748	600.22
38.6892	573.38
38.7036	579.73
38.7181	539.71
38.7325	515.88
38.7470	513.51
38.7614	519.24
38.7758	522.80
38.7903	533.19
38.8047	493.37
38.8192	495.22
38.8336	526.07
38.8480	495.51
38.8625	520.72
38.8769	508.50
38.8914	486.32
38.9058	502.77
38.9202	499.80
38.9347	508.86
38.9491	499.93
38.9636	492.44
38.9780	472.03
38.9924	484.68
39.0069	493.38
39.0213	498.78
39.0358	519.24
39.0502	518.53
39.0646	483.97
39.0791	515.08
39.0935	530.96
39.1080	481.13
39.1224	519.88
39.1368	480.62
39.1513	482.71
39.1657	499.32
39.1802	501.69
39.1946	498.35
39.2090	521.71
39.2235	523.73
39.2379	506.47
39.2524	503.09
39.2668	493.89
39.2812	514.85
39.2957	510.72
39.3101	533.65
39.3246	536.14
39.3390	512.24
39.3534	526.96
39.3679	522.32
39.3823	498.94
39.3968	527.52
39.4112	513.99
39.4256	513.03
39.4401	504.91
39.4545	487.76
39.4690	523.73
39.4834	495.23
39.4978	501.90
39.5123	504.17
39.5267	508.64
39.5412	533.27
39.5556	492.33
39.5700	472.22
39.5845	482.54
39.5989	521.77
39.6134	536.42
39.6278	532.86
39.6422	524.31
39.6567	510.57
39.6711	474.80
39.6856	486.04
39.7000	500.98
39.7144	485.75
39.7289	492.43
39.7433	473.89
39.7578	501.03
39.7722	491.71
39.7866	502.36
39.8011	486.81
39.8155	524.83
39.8300	549.46
39.8444	536.70
39.8588	531.35
39.8733	516.08
39.8877	503.84
39.9022	521.65
39.9166	494.07
39.9310	483.28
39.9455	493.79
39.9599	482.64
39.9744	501.86
39.9888	509.39
40.0032	506.76
40.0177	460.50
40.0321	502.56
40.0466	446.64
40.0610	508.37
40.0754	524.02
40.0899	506.52
40.1043	501.86
40.1188	509.22
40.1332	499.13
40.1476	495.79
40.1621	514.04
40.1765	485.79
40.1910	516.50
40.2054	492.87
40.2198	476.96
40.2343	462.95
40.2487	489.01
40.2632	453.07
40.2776	474.12
40.2920	487.90
40.3065	489.68
40.3209	509.15
40.3354	508.95
40.3498	500.27
40.3642	491.45
40.3787	490.10
40.3931	465.64
40.4076	477.15
40.4220	466.58
40.4364	481.78
40.4509	481.18
40.4653	535.89
40.4798	534.81
40.4942	539.52
40.5086	469.53
40.5231	474.28
40.5375	524.00
40.5520	523.75
40.5664	499.32
40.5808	486.98
40.5953	496.38
40.6097	507.80
40.6242	496.80
40.6386	483.34
40.6530	516.59
40.6675	530.07
40.6819	531.35
40.6964	471.21
40.7108	489.60
40.7252	478.05
40.7397	489.75
40.7541	490.67
40.7686	488.48
40.7830	497.21
40.7974	461.66
40.8119	481.99
40.8263	469.90
40.8408	490.64
40.8552	506.58
40.8696	526.00
40.8841	478.88
40.8985	487.62
40.9130	492.28
40.9274	541.71
40.9418	505.14
40.9563	488.94
40.9707	508.57
40.9852	493.58
40.9996	499.76
41.0140	493.05
41.0285	506.72
41.0429	494.11
41.0574	477.83
41.0718	485.51
41.0862	521.74
41.1007	460.00
41.1151	481.77
41.1296	515.43
41.1440	484.08
41.1584	474.54
41.1729	528.02
41.1873	493.27
41.2018	480.14
41.2162	467.88
41.2306	471.05
41.2451	490.63
41.2595	478.84
41.2740	501.59
41.2884	508.42
41.3028	505.03
41.3173	493.95
41.3317	539.48
41.3462	533.26
41.3606	484.53
41.3750	531.36
41.3895	526.71
41.4039	500.32
41.4184	513.86
41.4328	522.62
41.4472	495.52
41.4617	526.84
41.4761	534.00
41.4906	518.94
41.5050	540.52
41.5194	525.21
41.5339	514.40
41.5483	526.72
41.5628	500.69
41.5772	499.51
41.5916	513.97
41.6061	510.85
41.6205	513.16
41.6350	527.81
41.6494	477.76
41.6639	481.27
41.6783	494.55
41.6927	493.83
41.7072	488.81
41.7216	496.51
41.7361	512.00
41.7505	511.12
41.7649	488.90
41.7794	494.96
41.7938	501.32
41.8083	525.26
41.8227	503.38
41.8371	499.56
41.8516	521.94
41.8660	534.69
41.8805	503.70
41.8949	547.17
41.9093	560.40
41.9238	551.75
41.9382	631.77
41.9527	557.13
41.9671	536.16
41.9815	566.88
41.9960	587.50
42.0104	583.31
42.0249	585.37
42.0393	567.21
42.0537	561.67
42.0682	547.53
42.0826	574.77
42.0971	631.92
42.1115	610.23
42.1259	609.04
42.1404	595.38
42.1548	585.40
42.1693	635.97
42.1837	698.95
42.1981	742.11
42.2126	832.38
42.2270	970.56
42.2415	1079.20
42.2559	1233.06
42.2703	1387.24
42.2848	1508.79
42.2992	1594.85
42.3137	1678.32
42.3281	1650.71
42.3425	1594.94
42.3570	1525.96
42.3714	1446.64
42.3859	1362.23
42.4003	1315.89
42.4147	1287.35
42.4292	1311.90
42.4436	1159.46
42.4581	1050.52
42.4725	957.20
42.4869	858.01
42.5014	739.38
42.5158	666.51
42.5303	640.69
42.5447	632.52
42.5591	639.58
42.5736	618.37
42.5880	577.15
42.6025	576.99
42.6169	566.46
42.6313	551.27
42.6458	570.69
42.6602	534.36
42.6747	527.25
42.6891	528.59
42.7035	565.93
42.7180	570.04
42.7324	527.95
42.7469	525.10
42.7613	512.51
42.7757	526.89
42.7902	538.88
42.8046	517.88
42.8191	516.55
42.8335	524.12
42.8479	537.40
42.8624	535.27
42.8768	522.74
42.8913	515.85
42.9057	505.36
42.9201	493.05
42.9346	527.58
42.9490	496.94
42.9635	519.68
42.9779	522.07
42.9923	509.00
43.0068	531.31
43.0212	514.53
43.0357	490.29
43.0501	491.96
43.0645	530.77
43.0790	535.23
43.0934	523.67
43.1079	526.55
43.1223	535.52
43.1367	506.93
43.1512	507.46
43.1656	537.46
43.1801	552.92
43.1945	545.44
43.2089	522.00
43.2234	528.80
43.2378	557.54
43.2523	557.49
43.2667	531.63
43.2811	508.85
43.2956	517.64
43.3100	531.75
43.3245	562.80
43.3389	542.08
43.3533	549.02
43.3678	527.27
43.3822	503.37
43.3967	492.43
43.4111	509.39
43.4255	529.57
43.4400	542.42
43.4544	534.89
43.4689	499.49
43.4833	503.44
43.4977	507.62
43.5122	488.57
43.5266	505.74
43.5411	539.21
43.5555	524.53
43.5699	535.54
43.5844	545.46
43.5988	532.26
43.6133	513.03
43.6277	519.83
43.6421	517.44
43.6566	494.45
43.6710	493.18
43.6855	499.72
43.6999	547.90
43.7143	531.84
43.7288	510.45
43.7432	506.69
43.7577	500.67
43.7721	528.47
43.7865	527.58
43.8010	555.60
43.8154	589.59
43.8299	539.92
43.8443	488.85
43.8587	509.44
43.8732	571.18
43.8876	517.82
43.9021	503.98
43.9165	523.32
43.9309	527.96
43.9454	530.70
43.9598	523.13
43.9743	480.92
43.9887	510.32
44.0031	517.31
44.0176	551.17
44.0320	577.03
44.0465	527.89
44.0609	514.17
44.0753	575.53
44.0898	577.61
44.1042	577.38
44.1187	594.90
44.1331	613.11
44.1475	584.32
44.1620	621.73
44.1764	643.29
44.1909	631.51
44.2053	604.66
44.2197	624.66
44.2342	656.63
44.2486	623.08
44.2631	623.49
44.2775	580.55
44.2919	566.28
44.3064	573.35
44.3208	623.41
44.3353	603.69
44.3497	577.40
44.3641	519.18
44.3786	570.88
44.3930	544.80
44.4075	565.77
44.4219	549.39
44.4363	613.25
44.4508	601.56
44.4652	574.04
44.4797	605.48
44.4941	614.61
44.5085	591.39
44.5230	566.65
44.5374	592.56
44.5519	552.73
44.5663	587.17
44.5807	554.53
44.5952	605.96
44.6096	606.29
44.6241	574.27
44.6385	599.06
44.6529	560.50
44.6674	582.75
44.6818	595.45
44.6963	604.92
44.7107	679.79
44.7251	686.67
44.7396	723.57
44.7540	806.90
44.7685	839.32
44.7829	867.24
44.7973	879.91
44.8118	837.99
44.8262	796.06
44.8407	799.35
44.8551	784.55
44.8695	768.34
44.8840	755.32
44.8984	762.87
44.9129	731.55
44.9273	631.05
44.9417	695.60
44.9562	623.02
44.9706	622.54
44.9851	600.11
44.9995	599.30
45.0139	567.67
45.0284	545.87
45.0428	496.60
45.0573	532.88
45.0717	523.03
45.0861	550.31
45.1006	574.84
45.1150	561.00
45.1295	537.19
45.1439	515.69
45.1583	518.00
45.1728	535.80
45.1872	492.82
45.2017	477.40
45.2161	470.09
45.2305	495.24
45.2450	571.29
45.2594	517.23
45.2739	495.15
45.2883	525.08
45.3028	545.46
45.3172	516.38
45.3316	544.66
45.3461	504.96
45.3605	515.89
45.3750	504.78
45.3894	506.30
45.4038	537.80
45.4183	503.85
45.4327	521.59
45.4472	532.17
45.4616	500.26
45.4760	542.89
45.4905	514.78
45.5049	492.40
45.5194	515.01
45.5338	527.05
45.5482	493.22
45.5627	489.58
45.5771	491.10
45.5916	481.61
45.6060	491.97
45.6204	538.40
45.6349	552.90
45.6493	511.06
45.6638	501.38
45.6782	514.57
45.6926	507.37
45.7071	513.78
45.7215	508.68
45.7360	507.77
45.7504	498.62
45.7648	511.40
45.7793	509.76
45.7937	499.52
45.8082	542.12
45.8226	516.94
45.8370	551.37
45.8515	498.69
45.8659	524.26
45.8804	493.53
45.8948	496.31
45.9092	511.62
45.9237	503.85
45.9381	529.76
45.9526	561.20
45.9670	527.43
45.9814	518.23
45.9959	537.58
46.0103	493.40
46.0248	486.12
46.0392	493.49
46.0536	501.47
46.0681	493.70
46.0825	486.23
46.0970	483.68
46.1114	498.04
46.1258	520.59
46.1403	499.21
46.1547	508.34
46.1692	523.26
46.1836	495.86
46.1980	488.56
46.2125	497.02
46.2269	474.01
46.2414	471.06
46.2558	518.43
46.2702	533.21
46.2847	514.37
46.2991	518.18
46.3136	510.28
46.3280	505.44
46.3424	548.55
46.3569	545.49
46.3713	494.63
46.3858	482.17
46.4002	495.86
46.4146	505.04
46.4291	494.77
46.4435	529.93
46.4580	490.49
46.4724	477.89
46.4868	524.87
46.5013	461.41
46.5157	464.99
46.5302	488.17
46.5446	506.49
46.5590	498.63
46.5735	492.82
46.5879	500.62
46.6024	488.15
46.6168	496.84
46.6312	486.37
46.6457	512.58
46.6601	508.22
46.6746	529.52
46.6890	513.28
46.7034	500.99
46.7179	484.92
46.7323	510.41
46.7468	517.45
46.7612	510.59
46.7756	493.98
46.7901	512.22
46.8045	526.91
46.8190	524.12
46.8334	516.75
46.8478	504.19
46.8623	510.48
46.8767	516.99
46.8912	468.26
46.9056	492.03
46.9200	501.85
46.9345	493.35
46.9489	501.39
46.9634	474.42
46.9778	501.43
46.9922	530.81
47.0067	512.27
47.0211	548.72
47.0356	534.88
47.0500	509.07
47.0644	529.73
47.0789	541.34
47.0933	537.97
47.1078	521.82
47.1222	509.87
47.1366	515.54
47.1511	473.93
47.1655	481.42
47.1800	486.02
47.1944	475.88
47.2088	518.68
47.2233	505.04
47.2377	498.41
47.2522	527.07
47.2666	508.74
47.2810	521.50
47.2955	503.51
47.3099	536.31
47.3244	525.20
47.3388	510.73
47.3532	525.37
47.3677	532.13
47.3821	512.87
47.3966	494.18
47.4110	484.42
47.4254	511.07
47.4399	532.47
47.4543	492.11
47.4688	456.21
47.4832	513.02
47.4976	535.56
47.5121	495.58
47.5265	518.54
47.5410	476.79
47.5554	535.93
47.5698	495.71
47.5843	500.31
47.5987	498.62
47.6132	488.97
47.6276	491.23
47.6420	477.25
47.6565	494.10
47.6709	455.18
47.6854	489.89
47.6998	505.37
47.7142	520.83
47.7287	504.18
47.7431	514.94
47.7576	500.67
47.7720	518.31
47.7864	547.30
47.8009	482.17
47.8153	494.37
47.8298	517.45
47.8442	525.36
47.8586	519.19
47.8731	497.89
47.8875	495.24
47.9020	531.91
47.9164	511.77
47.9308	556.74
47.9453	534.85
47.9597	516.86
47.9742	512.95
47.9886	491.70
48.0030	496.75
48.0175	511.36
48.0319	503.47
48.0464	501.72
48.0608	492.84
48.0752	533.52
48.0897	496.65
48.1041	491.12
48.1186	495.85
48.1330	520.98
48.1474	485.60
48.1619	510.94
48.1763	508.19
48.1908	520.21
48.2052	496.07
48.2196	505.62
48.2341	507.66
48.2485	490.75
48.2630	488.52
48.2774	482.12
48.2918	527.02
48.3063	492.62
48.3207	520.38
48.3352	545.94
48.3496	498.44
48.3640	520.62
48.3785	506.94
48.3929	484.08
48.4074	507.35
48.4218	531.07
48.4362	536.55
48.4507	525.48
48.4651	537.50
48.4796	519.90
48.4940	493.88
48.5084	528.07
48.5229	519.69
48.5373	509.26
48.5518	501.45
48.5662	466.07
48.5806	524.84
48.5951	501.57
48.6095	519.71
48.6240	478.73
48.6384	534.66
48.6528	496.31
48.6673	487.54
48.6817	493.29
48.6962	485.57
48.7106	519.78
48.7250	513.60
48.7395	528.12
48.7539	512.01
48.7684	519.38
48.7828	546.76
48.7972	518.32
48.8117	535.31
48.8261	518.78
48.8406	555.17
48.8550	563.46
48.8694	544.46
48.8839	555.43
48.8983	542.14
48.9128	556.45
48.9272	478.50
48.9416	592.15
48.9561	541.25
48.9705	518.42
48.9850	523.22
48.9994	566.37
49.0139	588.18
49.0283	615.24
49.0427	599.93
49.0572	616.68
49.0716	607.80
49.0861	685.63
49.1005	692.93
49.1149	702.19
49.1294	757.99
49.1438	752.33
49.1583	811.38
49.1727	835.24
49.1871	921.51
49.2016	968.45
49.2160	1025.75
49.2305	1111.11
49.2449	1200.36
49.2593	1254.58
49.2738	1411.99
49.2882	1490.61
49.3027	1511.33
49.3171	1658.38
49.3315	1802.48
49.3460	1743.20
49.3604	1781.58
49.3749	1858.51
49.3893	1734.86
49.4037	1755.07
49.4182	1836.28
49.4326	1837.31
49.4471	1688.85
49.4615	1650.44
49.4759	1642.11
49.4904	1581.79
49.5048	1426.31
49.5193	1408.56
49.5337	1329.01
49.5481	1196.22
49.5626	1131.19
49.5770	1057.90
49.5915	917.86
49.6059	918.73
49.6203	878.02
49.6348	819.87
49.6492	804.79
49.6637	775.71
49.6781	718.06
49.6925	697.61
49.7070	687.17
49.7214	636.87
49.7359	625.24
49.7503	631.93
49.7647	596.09
49.7792	611.84
49.7936	619.28
49.8081	626.97
49.8225	589.36
49.8369	553.26
49.8514	569.49
49.8658	566.94
49.8803	531.69
49.8947	559.90
49.9091	595.07
49.9236	547.42
49.9380	559.65
49.9525	523.20
49.9669	567.27
49.9813	585.57
49.9958	543.53
50.0102	521.98
50.0247	538.25
50.0391	519.14
50.0535	527.22
50.0680	567.57
50.0824	520.35
50.0969	550.63
50.1113	538.39
50.1257	520.87
50.1402	513.91
50.1546	507.02
50.1691	514.39
50.1835	527.90
50.1979	541.57
50.2124	525.58
50.2268	486.06
50.2413	518.28
50.2557	496.83
50.2701	529.49
50.2846	504.61
50.2990	503.70
50.3135	511.48
50.3279	533.45
50.3423	542.92
50.3568	509.80
50.3712	512.60
50.3857	510.36
50.4001	506.30
50.4145	490.53
50.4290	524.68
50.4434	527.05
50.4579	513.41
50.4723	521.96
50.4867	520.99
50.5012	503.62
50.5156	479.68
50.5301	511.97
50.5445	476.54
50.5589	495.56
50.5734	493.37
50.5878	506.33
50.6023	484.12
50.6167	528.52
50.6311	505.61
50.6456	541.77
50.6600	554.68
50.6745	537.35
50.6889	524.05
50.7033	529.25
50.7178	514.23
50.7322	470.30
50.7467	506.13
50.7611	509.24
50.7755	506.70
50.7900	503.47
50.8044	497.08
50.8189	506.56
50.8333	528.23
50.8477	506.71
50.8622	529.32
50.8766	526.13
50.8911	489.37
50.9055	488.35
50.9199	469.48
50.9344	505.12
50.9488	509.74
50.9633	479.01
50.9777	496.02
50.9921	502.86
51.0066	532.95
51.0210	525.75
51.0355	506.91
51.0499	507.94
51.0643	516.55
51.0788	501.10
51.0932	511.49
51.1077	492.63
51.1221	521.00
51.1365	533.04
51.1510	473.37
51.1654	519.49
51.1799	531.02
51.1943	506.88
51.2087	509.19
51.2232	496.57
51.2376	506.24
51.2521	508.14
51.2665	498.91
51.2809	527.48
51.2954	529.72
51.3098	505.64
51.3243	501.88
51.3387	530.88
51.3531	492.09
51.3676	515.56
51.3820	510.67
51.3965	534.44
51.4109	508.59
51.4253	555.42
51.4398	509.54
51.4542	521.91
51.4687	542.90
51.4831	523.41
51.4975	492.55
51.5120	496.58
51.5264	497.63
51.5409	506.02
51.5553	514.94
51.5697	522.41
51.5842	506.37
51.5986	494.44
51.6131	500.56
51.6275	532.29
51.6419	496.93
51.6564	489.63
51.6708	495.63
51.6853	527.28
51.6997	541.28
51.7141	522.79
51.7286	503.23
51.7430	512.31
51.7575	495.57
51.7719	481.99
51.7863	510.67
51.8008	471.52
51.8152	532.95
51.8297	515.90
51.8441	530.05
51.8585	535.50
51.8730	494.49
51.8874	503.18
51.9019	488.18
51.9163	514.83
51.9307	513.78
51.9452	492.17
51.9596	489.90
51.9741	496.70
51.9885	494.07
52.0029	502.46
52.0174	530.11
52.0318	518.45
52.0463	511.54
52.0607	497.51
52.0751	503.68
52.0896	580.43
52.1040	547.31
52.1185	498.98
52.1329	502.66
52.1473	506.33
52.1618	519.61
52.1762	519.22
52.1907	519.39
52.2051	491.79
52.2195	529.51
52.2340	512.04
52.2484	541.24
52.2629	527.12
52.2773	519.45
52.2917	492.48
52.3062	509.15
52.3206	524.68
52.3351	535.86
52.3495	535.30
52.3639	542.08
52.3784	507.86
52.3928	512.47
52.4073	515.46
52.4217	507.14
52.4361	514.24
52.4506	485.35
52.4650	515.48
52.4795	533.42
52.4939	515.15
52.5083	497.10
52.5228	506.42
52.5372	510.26
52.5517	524.39
52.5661	519.20
52.5805	495.71
52.5950	537.39
52.6094	549.98
52.6239	509.24
52.6383	523.69
52.6527	494.35
52.6672	504.34
52.6816	487.77
52.6961	521.74
52.7105	564.21
52.7250	523.55
52.7394	532.36
52.7538	516.05
52.7683	523.21
52.7827	528.19
52.7972	527.77
52.8116	531.89
52.8260	549.41
52.8405	528.09
52.8549	488.46
52.8694	518.64
52.8838	512.68
52.8982	529.82
52.9127	533.38
52.9271	507.11
52.9416	465.06
52.9560	505.66
52.9704	554.42
52.9849	552.24
52.9993	513.24
53.0138	522.79
53.0282	506.41
53.0426	528.76
53.0571	525.82
53.0715	481.64
53.0860	531.26
53.1004	527.26
53.1148	510.60
53.1293	539.18
53.1437	497.43
53.1582	526.02
53.1726	515.78
53.1870	506.21
53.2015	526.50
53.2159	501.62
53.2304	500.01
53.2448	506.22
53.2592	490.67
53.2737	523.06
53.2881	540.55
53.3026	522.50
53.3170	511.95
53.3314	526.07
53.3459	535.89
53.3603	514.29
53.3748	521.46
53.3892	508.86
53.4036	498.56
53.4181	534.52
53.4325	542.60
53.4470	510.81
53.4614	542.46
53.4758	542.21
53.4903	507.33
53.5047	512.23
53.5192	502.26
53.5336	518.07
53.5480	564.87
53.5625	529.73
53.5769	505.89
53.5914	511.93
53.6058	507.47
53.6202	526.72
53.6347	528.91
53.6491	498.98
53.6636	515.63
53.6780	536.01
53.6924	498.73
53.7069	554.59
53.7213	518.21
53.7358	507.53
53.7502	504.60
53.7646	539.38
53.7791	517.85
53.7935	514.53
53.8080	531.42
53.8224	521.15
53.8368	512.02
53.8513	517.54
53.8657	517.15
53.8802	510.46
53.8946	480.58
53.9090	533.67
53.9235	513.06
53.9379	531.22
53.9524	523.25
53.9668	519.92
53.9812	501.78
53.9957	496.60
54.0101	490.13
54.0246	483.94
54.0390	471.59
54.0534	507.73
54.0679	534.18
54.0823	505.07
54.0968	520.51
54.1112	498.68
54.1256	508.69
54.1401	495.22
54.1545	495.95
54.1690	498.96
54.1834	532.49
54.1978	522.74
54.2123	541.38
54.2267	497.30
54.2412	507.84
54.2556	516.39
54.2700	518.26
54.2845	502.90
54.2989	512.69
54.3134	535.56
54.3278	546.91
54.3422	544.18
54.3567	531.61
54.3711	528.99
54.3856	517.15
54.4000	520.66
54.4144	488.81
54.4289	523.71
54.4433	525.95
54.4578	532.83
54.4722	532.30
54.4866	514.03
54.5011	546.77
54.5155	533.82
54.5300	527.20
54.5444	506.88
54.5588	523.03
54.5733	521.44
54.5877	515.00
54.6022	550.78
54.6166	562.15
54.6310	546.37
54.6455	552.20
54.6599	537.55
54.6744	568.25
54.6888	538.09
54.7032	558.07
54.7177	582.50
54.7321	556.57
54.7466	530.54
54.7610	556.83
54.7754	546.21
54.7899	558.44
54.8043	578.82
54.8188	574.10
54.8332	569.80
54.8476	575.66
54.8621	582.22
54.8765	605.93
54.8910	571.76
54.9054	554.27
54.9198	513.43
54.9343	554.16
54.9487	562.82
54.9632	568.74
54.9776	580.87
54.9920	529.42
55.0065	540.28
55.0209	568.33
55.0354	561.44
55.0498	550.66
55.0642	545.84
55.0787	543.96
55.0931	565.17
55.1076	538.68
55.1220	566.01
55.1364	521.54
55.1509	514.98
55.1653	524.44
55.1798	518.38
55.1942	511.27
55.2086	511.19
55.2231	551.45
55.2375	522.17
55.2520	476.11
55.2664	483.16
55.2808	528.98
55.2953	508.19
55.3097	535.62
55.3242	551.49
55.3386	546.64
55.3530	537.79
55.3675	523.84
55.3819	525.62
55.3964	519.54
55.4108	474.61
55.4252	506.98
55.4397	502.48
55.4541	551.82
55.4686	557.35
55.4830	537.97
55.4974	545.71
55.5119	547.83
55.5263	536.60
55.5408	550.40
55.5552	532.91
55.5696	527.33
55.5841	530.49
55.5985	526.15
55.6130	504.98
55.6274	531.47
55.6418	519.36
55.6563	533.47
55.6707	534.35
55.6852	519.17
55.6996	558.17
55.7140	545.26
55.7285	503.81
55.7429	495.59
55.7574	515.49
55.7718	528.63
55.7862	542.33
55.8007	527.91
55.8151	543.24
55.8296	528.00
55.8440	521.05
55.8584	534.10
55.8729	540.57
55.8873	532.95
55.9018	553.74
55.9162	544.35
55.9306	492.41
55.9451	542.19
55.9595	540.53
55.9740	552.09
55.9884	578.53
56.0028	497.91
56.0173	535.99
56.0317	486.25
56.0462	485.31
56.0606	557.59
56.0750	549.07
56.0895	555.79
56.1039	533.12
56.1184	498.78
56.1328	510.95
56.1472	528.48
56.1617	541.18
56.1761	503.88
56.1906	535.16
56.2050	520.91
56.2194	525.37
56.2339	522.29
56.2483	523.49
56.2628	500.44
56.2772	550.83
56.2916	515.68
56.3061	497.62
56.3205	504.07
56.3350	530.86
56.3494	543.22
56.3639	545.10
56.3783	542.24
56.3927	505.11
56.4072	526.24
56.4216	535.65
56.4361	520.42
56.4505	503.77
56.4649	501.60
56.4794	549.82
56.4938	511.41
56.5083	488.67
56.5227	510.03
56.5371	503.10
56.5516	543.39
56.5660	529.20
56.5805	513.76
56.5949	478.22
56.6093	503.49
56.6238	499.19
56.6382	508.67
56.6527	533.62
56.6671	518.39
56.6815	515.79
56.6960	508.78
56.7104	505.76
56.7249	522.60
56.7393	547.74
56.7537	543.18
56.7682	503.20
56.7826	478.68
56.7971	533.91
56.8115	521.30
56.8259	533.14
56.8404	517.09
56.8548	526.22
56.8693	520.02
56.8837	524.74
56.8981	525.64
56.9126	534.33
56.9270	515.94
56.9415	492.96
56.9559	502.47
56.9703	547.93
56.9848	510.24
56.9992	528.27
57.0137	537.43
57.0281	539.74
57.0425	514.54
57.0570	488.69
57.0714	523.43
57.0859	540.72
57.1003	572.67
57.1147	559.27
57.1292	540.37
57.1436	519.25
57.1581	511.45
57.1725	542.01
57.1869	548.33
57.2014	549.88
57.2158	540.34
57.2303	520.89
57.2447	518.18
57.2591	521.74
57.2736	481.46
57.2880	497.98
57.3025	501.81
57.3169	512.14
57.3313	515.45
57.3458	498.63
57.3602	494.57
57.3747	502.40
57.3891	509.86
57.4035	524.34
57.4180	528.81
57.4324	538.76
57.4469	522.25
57.4613	548.27
57.4757	555.65
57.4902	501.68
57.5046	519.10
57.5191	504.22
57.5335	527.86
57.5479	532.32
57.5624	539.07
57.5768	532.68
57.5913	533.68
57.6057	507.13
57.6201	550.44
57.6346	512.07
57.6490	495.58
57.6635	544.50
57.6779	519.75
57.6923	520.54
57.7068	529.25
57.7212	503.95
57.7357	537.29
57.7501	541.73
57.7645	528.23
57.7790	536.75
57.7934	524.31
57.8079	524.34
57.8223	513.02
57.8367	551.21
57.8512	516.29
57.8656	536.09
57.8801	572.06
57.8945	540.12
57.9089	527.27
57.9234	535.66
57.9378	515.91
57.9523	535.94
57.9667	505.72
57.9811	515.39
57.9956	529.54
58.0100	516.49
58.0245	531.71
58.0389	564.21
58.0533	538.12
58.0678	543.03
58.0822	542.41
58.0967	558.96
58.1111	540.57
58.1255	545.52
58.1400	556.56
58.1544	536.34
58.1689	546.29
58.1833	521.52
58.1977	539.77
58.2122	559.77
58.2266	589.06
58.2411	586.40
58.2555	579.03
58.2699	562.98
58.2844	574.22
58.2988	577.69
58.3133	598.39
58.3277	638.07
58.3421	652.77
58.3566	608.74
58.3710	618.72
58.3855	582.42
58.3999	596.90
58.4143	633.09
58.4288	630.77
58.4432	586.05
58.4577	623.25
58.4721	636.17
58.4865	645.15
58.5010	655.13
58.5154	632.35
58.5299	619.27
58.5443	616.87
58.5587	621.75
58.5732	656.73
58.5876	627.54
58.6021	623.11
58.6165	609.93
58.6309	609.58
58.6454	602.58
58.6598	605.02
58.6743	591.10
58.6887	591.88
58.7031	598.15
58.7176	597.81
58.7320	592.32
58.7465	574.87
58.7609	535.00
58.7753	598.11
58.7898	578.11
58.8042	530.83
58.8187	515.07
58.8331	534.38
58.8475	547.46
58.8620	551.30
58.8764	548.84
58.8909	523.64
58.9053	544.88
58.9197	561.52
58.9342	566.14
58.9486	504.13
58.9631	508.39
58.9775	552.51
58.9919	550.30
59.0064	555.54
59.0208	540.17
59.0353	531.56
59.0497	523.10
59.0641	548.86
59.0786	584.69
59.0930	568.18
59.1075	523.56
59.1219	530.68
59.1363	566.23
59.1508	523.85
59.1652	519.53
59.1797	528.24
59.1941	531.01
59.2085	569.92
59.2230	561.77
59.2374	561.53
59.2519	526.91
59.2663	558.70
59.2807	561.85
59.2952	536.78
59.3096	556.42
59.3241	561.20
59.3385	621.49
59.3529	575.35
59.3674	541.95
59.3818	547.39
59.3963	539.76
59.4107	567.66
59.4251	561.91
59.4396	528.77
59.4540	542.68
59.4685	559.90
59.4829	564.12
59.4973	575.74
59.5118	558.51
59.5262	571.74
59.5407	598.34
59.5551	587.06
59.5695	546.82
59.5840	571.66
59.5984	565.33
59.6129	569.10
59.6273	573.05
59.6417	571.82
59.6562	524.15
59.6706	556.09
59.6851	513.79
59.6995	515.12
59.7139	563.97
59.7284	532.17
59.7428	524.42
59.7573	565.46
59.7717	572.55
59.7861	519.96
59.8006	528.36
59.8150	554.94
59.8295	569.77
59.8439	543.61
59.8583	541.46
59.8728	529.67
59.8872	522.85
59.9017	574.72
59.9161	571.40
59.9305	517.15
59.9450	484.78
59.9594	526.53
59.9739	523.98
59.9883	576.00
60.0027	547.63
60.0172	557.57
60.0316	565.55
60.0461	550.77
60.0605	549.51
60.0750	583.95
60.0894	564.54
60.1038	554.18
60.1183	561.78
60.1327	541.08
60.1472	540.92
60.1616	571.00
60.1760	565.44
60.1905	538.15
60.2049	529.48
60.2194	533.22
60.2338	534.55
60.2482	582.16
60.2627	554.30
60.2771	522.61
60.2916	549.51
60.3060	538.98
60.3204	535.41
60.3349	515.17
60.3493	522.55
60.3638	530.80
60.3782	544.45
60.3926	537.97
60.4071	540.20
60.4215	557.73
60.4360	514.08
60.4504	503.73
60.4648	514.26
60.4793	549.32
60.4937	541.27
60.5082	533.16
60.5226	534.32
60.5370	536.12
60.5515	537.44
60.5659	576.32
60.5804	542.91
60.5948	518.55
60.6092	495.09
60.6237	538.01
60.6381	533.36
60.6526	513.56
60.6670	542.88
60.6814	507.12
60.6959	482.48
60.7103	519.94
60.7248	518.61
60.7392	528.56
60.7536	540.00
60.7681	555.30
60.7825	533.21
60.7970	547.77
60.8114	550.84
60.8258	538.79
60.8403	569.68
60.8547	566.53
60.8692	542.17
60.8836	564.57
60.8980	535.94
60.9125	549.84
60.9269	506.39
60.9414	574.72
60.9558	543.37
60.9702	532.89
60.9847	559.96
60.9991	523.84
61.0136	538.74
61.0280	542.96
61.0424	508.31
61.0569	529.05
61.0713	564.51
61.0858	530.18
61.1002	511.76
61.1146	579.91
61.1291	574.04
61.1435	535.57
61.1580	575.04
61.1724	564.32
61.1868	517.31
61.2013	545.18
61.2157	543.79
61.2302	593.11
61.2446	546.24
61.2590	486.95
61.2735	491.86
61.2879	526.04
61.3024	491.77
61.3168	538.12
61.3312	531.64
61.3457	548.63
61.3601	541.80
61.3746	494.45
61.3890	541.41
61.4034	558.56
61.4179	533.18
61.4323	566.14
61.4468	546.80
61.4612	541.59
61.4756	555.97
61.4901	555.74
61.5045	543.16
61.5190	528.13
61.5334	523.91
61.5478	506.70
61.5623	532.72
61.5767	522.20
61.5912	528.70
61.6056	513.66
61.6200	553.78
61.6345	543.67
61.6489	577.84
61.6634	559.97
61.6778	535.00
61.6922	520.23
61.7067	536.77
61.7211	592.83
61.7356	562.45
61.7500	589.00
61.7644	532.59
61.7789	571.14
61.7933	549.63
61.8078	558.62
61.8222	538.19
61.8366	541.72
61.8511	564.70
61.8655	567.82
61.8800	554.64
61.8944	528.81
61.9088	556.21
61.9233	552.02
61.9377	525.94
61.9522	530.25
61.9666	511.26
61.9810	545.85
61.9955	590.32
62.0099	517.06
62.0244	557.75
62.0388	565.13
62.0532	553.02
62.0677	540.26
62.0821	525.33
62.0966	565.96
62.1110	559.69
62.1254	555.18
62.1399	536.20
62.1543	557.73
62.1688	544.31
62.1832	570.08
62.1976	577.13
62.2121	597.05
62.2265	556.52
62.2410	546.09
62.2554	556.14
62.2698	568.02
62.2843	552.72
62.2987	531.82
62.3132	543.71
62.3276	537.36
62.3420	543.86
62.3565	557.71
62.3709	568.61
62.3854	547.46
62.3998	546.55
62.4142	542.27
62.4287	553.09
62.4431	567.41
62.4576	531.43
62.4720	552.96
62.4864	569.22
62.5009	550.68
62.5153	538.88
62.5298	571.28
62.5442	561.09
62.5586	557.49
62.5731	524.88
62.5875	527.96
62.6020	562.87
62.6164	588.93
62.6308	554.57
62.6453	533.54
62.6597	552.20
62.6742	561.83
62.6886	553.32
62.7030	540.01
62.7175	550.54
62.7319	569.15
62.7464	544.13
62.7608	537.87
62.7752	590.67
62.7897	567.70
62.8041	564.58
62.8186	548.38
62.8330	563.37
62.8474	555.81
62.8619	538.24
62.8763	540.05
62.8908	558.44
62.9052	560.95
62.9196	554.25
62.9341	546.09
62.9485	546.44
62.9630	527.26
62.9774	586.65
62.9918	576.04
63.0063	587.50
63.0207	626.50
63.0352	620.18
63.0496	570.57
63.0640	559.81
63.0785	588.98
63.0929	593.06
63.1074	622.71
63.1218	626.14
63.1362	558.72
63.1507	546.53
63.1651	576.84
63.1796	559.85
63.1940	548.77
63.2084	549.42
63.2229	552.33
63.2373	557.78
63.2518	582.55
63.2662	571.29
63.2806	554.99
63.2951	576.26
63.3095	570.54
63.3240	536.38
63.3384	591.92
63.3528	576.24
63.3673	584.20
63.3817	554.83
63.3962	542.08
63.4106	538.38
63.4250	570.11
63.4395	564.25
63.4539	570.59
63.4684	598.00
63.4828	559.76
63.4972	582.72
63.5117	580.67
63.5261	583.35
63.5406	576.45
63.5550	589.82
63.5694	592.01
63.5839	578.92
63.5983	585.65
63.6128	562.87
63.6272	585.38
63.6416	567.69
63.6561	585.47
63.6705	607.01
63.6850	592.68
63.6994	588.74
63.7138	572.39
63.7283	579.80
63.7427	598.61
63.7572	596.27
63.7716	630.40
63.7861	601.35
63.8005	597.22
63.8149	623.62
63.8294	583.82
63.8438	595.34
63.8583	630.35
63.8727	615.77
63.8871	613.32
63.9016	679.59
63.9160	605.96
63.9305	589.09
63.9449	645.25
63.9593	625.00
63.9738	617.26
63.9882	624.04
64.0027	630.29
64.0171	634.18
64.0315	619.89
64.0460	650.67
64.0604	673.60
64.0749	670.84
64.0893	728.35
64.1037	695.70
64.1182	658.44
64.1326	770.52
64.1471	727.02
64.1615	749.44
64.1759	739.23
64.1904	732.89
64.2048	778.66
64.2193	787.33
64.2337	827.67
64.2481	778.87
64.2626	769.45
64.2770	778.33
64.2915	777.91
64.3059	774.78
64.3203	753.23
64.3348	777.20
64.3492	778.05
64.3637	815.86
64.3781	772.38
64.3925	785.00
64.4070	746.10
64.4214	777.43
64.4359	746.20
64.4503	714.99
64.4647	687.94
64.4792	730.75
64.4936	701.56
64.5081	726.97
64.5225	694.83
64.5369	720.89
64.5514	707.40
64.5658	697.42
64.5803	690.20
64.5947	654.59
64.6091	659.66
64.6236	662.64
64.6380	663.76
64.6525	663.48
64.6669	641.56
64.6813	708.36
64.6958	687.81
64.7102	735.54
64.7247	666.31
64.7391	682.81
64.7535	726.63
64.7680	700.78
64.7824	728.70
64.7969	776.09
64.8113	811.01
64.8257	756.70
64.8402	815.58
64.8546	832.82
64.8691	862.15
64.8835	859.53
64.8979	912.47
64.9124	853.98
64.9268	877.27
64.9413	902.00
64.9557	963.99
64.9701	1067.53
64.9846	1016.66
64.9990	1161.80
65.0135	1289.15
65.0279	1441.76
65.0423	1650.79
65.0568	2085.53
65.0712	2527.44
65.0857	3320.92
65.1001	4386.58
65.1145	6049.48
65.1290	7767.84
65.1434	9468.97
65.1579	11139.99
65.1723	11695.15
65.1867	11168.79
65.2012	9908.29
65.2156	8359.08
65.2301	6672.07
65.2445	5322.95
65.2589	4449.74
65.2734	4070.47
65.2878	4330.69
65.3023	4922.93
65.3167	5797.84
65.3311	6437.36
65.3456	6953.10
65.3600	6839.31
65.3745	6295.81
65.3889	5451.42
65.4033	4499.52
65.4178	3464.55
65.4322	2831.13
65.4467	2093.45
65.4611	1735.08
65.4755	1480.12
65.4900	1338.03
65.5044	1163.27
65.5189	1037.45
65.5333	992.48
65.5477	935.23
65.5622	910.45
65.5766	812.80
65.5911	822.17
65.6055	793.24
65.6199	766.78
65.6344	796.37
65.6488	731.13
65.6633	755.61
65.6777	731.28
65.6921	743.49
65.7066	710.60
65.7210	704.51
65.7355	698.83
65.7499	691.97
65.7643	689.85
65.7788	675.12
65.7932	686.32
65.8077	635.04
65.8221	625.01
65.8365	627.20
65.8510	656.27
65.8654	686.54
65.8799	675.64
65.8943	632.05
65.9087	621.71
65.9232	630.30
65.9376	655.06
65.9521	614.73
65.9665	640.02
65.9809	639.00
65.9954	635.64
66.0098	646.81
66.0243	670.11
66.0387	641.73
66.0531	600.72
66.0676	643.19
66.0820	612.13
66.0965	613.06
66.1109	590.24
66.1253	644.42
66.1398	652.96
66.1542	632.25
66.1687	603.33
66.1831	594.84
66.1975	587.37
66.2120	571.38
66.2264	592.68
66.2409	640.03
66.2553	583.61
66.2697	597.46
66.2842	595.21
66.2986	597.57
66.3131	631.80
66.3275	608.98
66.3419	605.37
66.3564	603.16
66.3708	604.48
66.3853	590.72
66.3997	600.08
66.4141	596.55
66.4286	617.52
66.4430	590.75
66.4575	606.56
66.4719	613.13
66.4863	611.78
66.5008	610.49
66.5152	619.98
66.5297	593.45
66.5441	565.62
66.5585	610.94
66.5730	609.03
66.5874	635.00
66.6019	618.51
66.6163	584.02
66.6307	598.12
66.6452	594.78
66.6596	597.43
66.6741	573.87
66.6885	592.59
66.7029	590.04
66.7174	595.55
66.7318	563.03
66.7463	589.65
66.7607	600.96
66.7751	577.33
66.7896	608.02
66.8040	595.60
66.8185	604.33
66.8329	624.92
66.8473	602.55
66.8618	611.98
66.8762	606.36
66.8907	630.28
66.9051	597.53
66.9195	578.03
66.9340	581.32
66.9484	624.78
66.9629	594.39
66.9773	566.67
66.9917	552.54
67.0062	568.54
67.0206	596.90
67.0351	613.29
67.0495	604.25
67.0639	590.83
67.0784	589.35
67.0928	611.35
67.1073	619.14
67.1217	620.31
67.1361	583.71
67.1506	555.33
67.1650	559.08
67.1795	556.12
67.1939	594.00
67.2083	588.41
67.2228	572.17
67.2372	599.17
67.2517	601.31
67.2661	571.29
67.2805	612.17
67.2950	612.64
67.3094	572.60
67.3239	582.66
67.3383	615.30
67.3527	577.08
67.3672	593.72
67.3816	572.99
67.3961	550.55
67.4105	561.29
67.4250	564.09
67.4394	572.74
67.4538	576.16
67.4683	604.71
67.4827	595.18
67.4972	579.59
67.5116	600.03
67.5260	606.66
67.5405	575.88
67.5549	597.73
67.5694	603.96
67.5838	558.47
67.5982	578.26
67.6127	557.67
67.6271	560.96
67.6416	570.01
67.6560	591.11
67.6704	550.08
67.6849	555.93
67.6993	578.58
67.7138	579.95
67.7282	576.78
67.7426	575.37
67.7571	579.69
67.7715	569.39
67.7860	578.26
67.8004	582.09
67.8148	583.83
67.8293	578.27
67.8437	563.45
67.8582	555.06
67.8726	582.28
67.8870	569.34
67.9015	604.26
67.9159	595.18
67.9304	529.35
67.9448	594.59
67.9592	560.97
67.9737	563.69
67.9881	531.16
68.0026	570.91
68.0170	582.86
68.0314	579.38
68.0459	583.12
68.0603	563.18
68.0748	537.30
68.0892	581.08
68.1036	605.95
68.1181	593.94
68.1325	651.18
68.1470	578.78
68.1614	547.79
68.1758	567.48
68.1903	574.71
68.2047	570.69
68.2192	596.27
68.2336	580.18
68.2480	552.86
68.2625	573.44
68.2769	557.68
68.2914	570.97
68.3058	576.85
68.3202	579.70
68.3347	602.58
68.3491	574.78
68.3636	605.80
68.3780	584.47
68.3924	568.15
68.4069	587.23
68.4213	574.78
68.4358	549.91
68.4502	578.23
68.4646	582.92
68.4791	614.89
68.4935	599.23
68.5080	606.20
68.5224	585.04
68.5368	575.32
68.5513	575.12
68.5657	593.63
68.5802	560.74
68.5946	532.64
68.6090	581.25
68.6235	612.00
68.6379	567.53
68.6524	534.83
68.6668	579.18
68.6812	576.75
68.6957	558.59
68.7101	601.43
68.7246	571.46
68.7390	558.05
68.7534	521.73
68.7679	563.56
68.7823	547.70
68.7968	534.11
68.8112	583.38
68.8256	548.99
68.8401	569.94
68.8545	598.22
68.8690	582.65
68.8834	570.18
68.8978	538.17
68.9123	556.95
68.9267	575.18
68.9412	595.45
68.9556	587.30
68.9700	566.06
68.9845	630.03
68.9989	585.27
69.0134	558.82
69.0278	568.46
69.0422	594.62
69.0567	568.90
69.0711	586.99
69.0856	543.96
69.1000	621.76
69.1144	604.36
69.1289	592.88
69.1433	571.43
69.1578	605.52
69.1722	541.87
69.1866	568.10
69.2011	615.38
69.2155	630.50
69.2300	562.42
69.2444	560.26
69.2588	534.49
69.2733	538.29
69.2877	547.12
69.3022	534.28
69.3166	539.20
69.3310	545.62
69.3455	593.07
69.3599	589.11
69.3744	589.45
69.3888	547.74
69.4032	549.29
69.4177	573.11
69.4321	613.46
69.4466	578.72
69.4610	578.67
69.4754	599.69
69.4899	549.56
69.5043	551.43
69.5188	592.13
69.5332	569.66
69.5476	560.69
69.5621	593.62
69.5765	536.17
69.5910	613.76
69.6054	576.84
69.6198	521.52
69.6343	583.88
69.6487	635.77
69.6632	611.49
69.6776	608.85
69.6920	604.26
69.7065	575.73
69.7209	556.34
69.7354	538.35
69.7498	527.73
69.7642	546.98
69.7787	542.33
69.7931	580.80
69.8076	601.81
69.8220	625.48
69.8364	590.52
69.8509	600.36
69.8653	561.57
69.8798	545.72
69.8942	575.55
69.9086	617.03
69.9231	572.55
69.9375	556.21
69.9520	549.76
69.9664	567.77
69.9808	575.62
69.9953	572.65
70.0097	613.03
70.0242	588.47
70.0386	562.91
70.0530	599.04
70.0675	552.24
70.0819	591.26
70.0964	612.44
70.1108	540.51
70.1252	576.72
70.1397	547.77
70.1541	586.06
70.1686	576.47
70.1830	575.98
70.1974	552.81
70.2119	598.62
70.2263	567.18
70.2408	561.54
70.2552	544.19
70.2696	564.98
70.2841	544.50
70.2985	558.20
70.3130	550.31
70.3274	610.40
70.3418	618.61
70.3563	552.17
70.3707	542.55
70.3852	535.40
70.3996	517.17
70.4140	559.16
70.4285	599.81
70.4429	540.60
70.4574	563.48
70.4718	623.27
70.4862	628.62
70.5007	575.20
70.5151	563.82
70.5296	540.48
70.5440	555.70
70.5584	550.07
70.5729	578.63
70.5873	566.06
70.6018	534.20
70.6162	564.78
70.6306	548.24
70.6451	605.86
70.6595	529.45
70.6740	593.26
70.6884	566.10
70.7028	624.90
70.7173	636.45
70.7317	607.22
70.7462	571.70
70.7606	562.12
70.7750	585.77
70.7895	644.30
70.8039	651.60
70.8184	555.77
70.8328	591.60
70.8472	572.84
70.8617	576.69
70.8761	595.07
70.8906	599.72
70.9050	627.93
70.9194	572.21
70.9339	536.29
70.9483	593.72
70.9628	581.63
70.9772	575.55
70.9916	557.31
71.0061	555.35
71.0205	516.14
71.0350	537.20
71.0494	614.68
71.0638	617.01
71.0783	602.22
71.0927	593.63
71.1072	576.71
71.1216	528.99
71.1361	535.85
71.1505	552.04
71.1649	560.47
71.1794	625.44
71.1938	595.69
71.2083	567.36
71.2227	520.27
71.2371	501.32
71.2516	567.92
71.2660	524.45
71.2805	522.11
71.2949	614.76
71.3093	639.35
71.3238	557.82
71.3382	546.04
71.3527	562.30
71.3671	595.57
71.3815	584.36
71.3960	622.42
71.4104	649.53
71.4249	645.57
71.4393	606.76
71.4537	598.29
71.4682	590.98
71.4826	624.05
71.4971	628.01
71.5115	628.56
71.5259	601.99
71.5404	603.21
71.5548	604.81
71.5693	555.49
71.5837	511.76
71.5981	535.62
71.6126	589.77
71.6270	569.86
71.6415	625.72
71.6559	554.92
71.6703	557.25
71.6848	580.87
71.6992	592.07
71.7137	595.44
71.7281	559.36
71.7425	539.82
71.7570	560.79
71.7714	591.66
71.7859	556.67
71.8003	563.45
71.8147	597.14
71.8292	558.97
71.8436	553.33
71.8581	602.57
71.8725	606.55
71.8869	578.60
71.9014	560.95
71.9158	582.08
71.9303	561.31
71.9447	578.35
71.9591	565.16
71.9736	581.83
71.9880	606.26
72.0025	556.99
72.0169	549.59
72.0313	582.52
72.0458	554.63
72.0602	576.42
72.0747	595.99
72.0891	578.01
72.1035	579.77
72.1180	574.30
72.1324	644.10
72.1469	578.83
72.1613	496.07
72.1757	547.04
72.1902	599.04
72.2046	599.55
72.2191	580.83
72.2335	531.01
72.2479	522.36
72.2624	574.42
72.2768	602.62
72.2913	556.85
72.3057	523.20
72.3201	518.03
72.3346	561.54
72.3490	555.45
72.3635	578.86
72.3779	534.84
72.3923	544.27
72.4068	560.20
72.4212	563.59
72.4357	563.59
72.4501	533.04
72.4645	540.49
72.4790	587.19
72.4934	572.13
72.5079	569.76
72.5223	514.17
72.5367	543.33
72.5512	583.18
72.5656	544.50
72.5801	494.77
72.5945	560.91
72.6089	576.53
72.6234	506.26
72.6378	544.35
72.6523	582.10
72.6667	590.01
72.6811	560.91
72.6956	539.68
72.7100	561.26
72.7245	585.87
72.7389	661.90
72.7533	685.07
72.7678	641.77
72.7822	636.01
72.7967	623.24
72.8111	609.60
72.8255	640.06
72.8400	642.16
72.8544	618.39
72.8689	651.72
72.8833	567.04

Result vector
22.1120	598.10
22.1264	598.10
22.1409	567.58
22.1553	498.35
22.1697	562.00
22.1842	593.55
22.1986	549.75
22.2131	626.09
22.2275	583.14
22.2419	582.40
22.2564	593.03
22.2708	478.56
22.2853	580.05
22.2997	570.94
22.3141	618.36
22.3286	558.98
22.3430	540.19
22.3575	541.78
22.3719	593.88
22.3863	587.34
22.4008	560.91
22.4152	596.98
22.4297	655.98
22.4441	595.80
22.4585	580.83
22.4730	611.95
22.4874	567.70
22.5019	671.77
22.5163	631.79
22.5307	614.08
22.5452	496.79
22.5596	556.13
22.5741	591.04
22.5885	550.64
22.6029	601.10
22.6174	538.16
22.6318	540.95
22.6463	486.37
22.6607	525.37
22.6751	568.09
22.6896	589.83
22.7040	609.37
22.7185	581.91
22.7329	531.26
22.7473	510.17
22.7618	598.89
22.7762	559.94
22.7907	642.91
22.8051	639.07
22.8195	564.03
22.8340	603.39
22.8484	532.15
22.8629	595.42
22.8773	657.05
22.8917	659.91
22.9062	632.60
22.9206	554.99
22.9351	534.80
22.9495	572.01
22.9639	642.53
22.9784	650.25
22.9928	568.18
23.0073	531.89
23.0217	540.59
23.0361	547.54
23.0506	563.80
23.0650	555.99
23.0795	594.83
23.0939	585.56
23.1083	503.87
23.1228	550.82
23.1372	598.22
23.1517	547.35
23.1661	602.08
23.1806	521.12
23.1950	456.21
23.2094	508.63
23.2239	507.91
23.2383	530.19
23.2528	589.67
23.2672	600.62
23.2816	515.64
23.2961	590.82
23.3105	537.79
23.3250	548.76
23.3394	515.20
23.3538	524.50
23.3683	532.45
23.3827	614.24
23.3972	587.43
23.4116	632.45
23.4260	582.21
23.4405	555.77
23.4549	532.90
23.4694	529.77
23.4838	528.45
23.4982	549.61
23.5127	535.42
23.5271	574.75
23.5416	650.35
23.5560	630.02
23.5704	594.68
23.5849	623.87
23.5993	536.59
23.6138	549.46
23.6282	553.66
23.6426	510.71
23.6571	539.85
23.6715	499.41
23.6860	509.67
23.7004	592.32
23.7148	522.80
23.7293	613.16
23.7437	536.04
23.7582	561.00
23.7726	522.04
23.7870	478.83
23.8015	611.26
23.8159	547.52
23.8304	631.14
23.8448	548.79
23.8592	623.09
23.8737	549.41
23.8881	574.80
23.9026	557.13
23.9170	564.65
23.9314	512.71
23.9459	545.37
23.9603	489.56
23.9748	523.92
23.9892	543.77
24.0036	619.04
24.0181	601.76
24.0325	612.01
24.0470	560.18
24.0614	621.64
24.0758	609.61
24.0903	566.29
24.1047	539.51
24.1192	544.85
24.1336	587.99
24.1480	548.02
24.1625	562.63
24.1769	548.75
24.1914	563.85
24.2058	586.93
24.2202	585.61
24.2347	596.33
24.2491	574.60
24.2636	559.94
24.2780	595.87
24.2924	557.01
24.3069	573.81
24.3213	546.49
24.3358	549.49
24.3502	564.24
24.3646	552.26
24.3791	586.99
24.3935	548.03
24.4080	502.81
24.4224	545.61
24.4368	462.78
24.4513	482.80
24.4657	539.12
24.4802	596.74
24.4946	558.29
24.5090	515.59
24.5235	552.68
24.5379	562.07
24.5524	567.23
24.5668	597.71
24.5812	574.47
24.5957	622.82
24.6101	571.34
24.6246	513.52
24.6390	590.99
24.6534	581.11
24.6679	530.05
24.6823	588.08
24.6968	537.87
24.7112	542.64
24.7256	558.09
24.7401	548.62
24.7545	519.64
24.7690	519.99
24.7834	552.90
24.7978	557.40
24.8123	555.38
24.8267	523.16
24.8412	587.10
24.8556	553.94
24.8700	579.41
24.8845	519.02
24.8989	532.07
24.9134	554.94
24.9278	564.46
24.9422	498.61
24.9567	496.75
24.9711	513.99
24.9856	516.02
25.0000	575.41
25.0144	560.24
25.0289	498.06
25.0433	590.85
25.0578	535.22
25.0722	509.36
25.0866	560.50
25.1011	552.46
25.1155	587.04
25.1300	553.04
25.1444	504.62
25.1588	501.26
25.1733	530.68
25.1877	548.22
25.2022	559.30
25.2166	552.20
25.2310	534.11
25.2455	546.85
25.2599	521.83
25.2744	568.28
25.2888	537.94
25.3032	572.76
25.3177	587.39
25.3321	587.24
25.3466	572.12
25.3610	549.76
25.3754	524.08
25.3899	526.95
25.4043	554.46
25.4188	604.74
25.4332	548.35
25.4476	533.92
25.4621	512.20
25.4765	556.44
25.4910	529.68
25.5054	547.72
25.5198	564.58
25.5343	561.54
25.5487	577.48
25.5632	577.43
25.5776	536.68
25.5920	534.82
25.6065	502.94
25.6209	534.84
25.6354	545.57
25.6498	546.36
25.6642	522.50
25.6787	512.10
25.6931	524.22
25.7076	527.00
25.7220	511.30
25.7364	514.44
25.7509	558.28
25.7653	491.32
25.7798	541.21
25.7942	547.35
25.8086	517.92
25.8231	551.25
25.8375	554.86
25.8520	580.79
25.8664	574.77
25.8808	554.55
25.8953	567.06
25.9097	542.78
25.9242	516.28
25.9386	551.99
25.9530	511.53
25.9675	531.25
25.9819	562.09
25.9964	557.00
26.0108	511.66
26.0252	559.82
26.0397	561.89
26.0541	514.46
26.0686	552.44
26.0830	575.32
26.0974	547.58
26.1119	543.43
26.1263	566.14
26.1408	546.31
26.1552	541.81
26.1696	522.68
26.1841	546.75
26.1985	525.69
26.2130	502.02
26.2274	497.06
26.2418	532.02
26.2563	512.85
26.2707	542.45
26.2852	553.60
26.2996	543.80
26.3140	534.77
26.3285	528.93
26.3429	522.20
26.3574	566.26
26.3718	543.03
26.3862	520.41
26.4007	486.12
26.4151	516.58
26.4296	527.65
26.4440	526.83
26.4584	526.96
26.4729	521.48
26.4873	546.02
26.5018	537.89
26.5162	514.79
26.5306	504.72
26.5451	528.08
26.5595	523.11
26.5740	517.19
26.5884	543.71
26.6028	538.53
26.6173	540.55
26.6317	530.00
26.6462	538.10
26.6606	535.55
26.6750	530.33
26.6895	526.40
26.7039	542.31
26.7184	537.19
26.7328	513.90
26.7472	500.91
26.7617	506.60
26.7761	518.39
26.7906	509.74
26.8050	501.74
26.8194	522.15
26.8339	499.77
26.8483	510.10
26.8628	557.87
26.8772	529.80
26.8917	529.45
26.9061	550.54
26.9205	541.01
26.9350	532.34
26.9494	528.02
26.9639	508.43
26.9783	503.42
26.9927	523.28
27.0072	496.53
27.0216	521.13
27.0361	528.18
27.0505	529.40
27.0649	513.87
27.0794	498.43
27.0938	508.19
27.1083	522.86
27.1227	530.85
27.1371	513.36
27.1516	511.80
27.1660	501.98
27.1805	500.99
27.1949	504.91
27.2093	501.01
27.2238	518.52
27.2382	526.18
27.2527	517.34
27.2671	521.21
27.2815	504.51
27.2960	488.63
27.3104	500.92
27.3249	509.80
27.3393	516.75
27.3537	477.86
27.3682	523.00
27.3826	536.90
27.3971	516.78
27.4115	522.44
27.4259	523.95
27.4404	518.72
27.4548	509.13
27.4693	523.44
27.4837	543.21
27.4981	540.60
27.5126	538.68
27.5270	517.63
27.5415	509.41
27.5559	517.54
27.5703	508.50
27.5848	527.95
27.5992	527.89
27.6137	514.36
27.6281	504.53
27.6425	519.18
27.6570	534.77
27.6714	547.84
27.6859	529.08
27.7003	546.01
27.7147	539.84
27.7292	529.07
27.7436	522.49
27.7581	530.44
27.7725	542.46
27.7869	528.01
27.8014	553.34
27.8158	531.49
27.8303	549.03
27.8447	529.95
27.8591	532.93
27.8736	515.71
27.8880	522.79
27.9025	526.70
27.9169	532.31
27.9313	496.72
27.9458	538.98
27.9602	520.38
27.9747	526.61
27.9891	525.74
28.0035	524.18
28.0180	498.08
28.0324	492.48
28.0469	480.89
28.0613	554.90
28.0757	507.48
28.0902	528.68
28.1046	518.98
28.1191	516.52
28.1335	500.29
28.1479	495.97
28.1624	552.44
28.1768	526.43
28.1913	519.92
28.2057	513.24
28.2201	486.64
28.2346	544.51
28.2490	511.53
28.2635	476.45
28.2779	477.36
28.2923	512.54
28.3068	523.32
28.3212	536.88
28.3357	496.65
28.3501	478.02
28.3645	490.14
28.3790	494.28
28.3934	506.62
28.4079	531.47
28.4223	527.43
28.4367	509.69
28.4512	509.89
28.4656	524.58
28.4801	529.84
28.4945	532.75
28.5089	542.85
28.5234	513.81
28.5378	541.23
28.5523	526.45
28.5667	502.37
28.5811	523.13
28.5956	525.71
28.6100	539.52
28.6245	521.38
28.6389	511.34
28.6533	500.27
28.6678	498.84
28.6822	502.43
28.6967	498.00
28.7111	496.16
28.7255	484.16
28.7400	531.77
28.7544	556.83
28.7689	506.82
28.7833	533.60
28.7977	566.32
28.8122	530.20
28.8266	516.35
28.8411	511.38
28.8555	543.27
28.8699	505.48
28.8844	511.15
28.8988	480.43
28.9133	550.11
28.9277	477.36
28.9421	526.63
28.9566	539.75
28.9710	509.64
28.9855	515.80
28.9999	533.07
29.0143	515.99
29.0288	456.62
29.0432	533.06
29.0577	538.55
29.0721	499.52
29.0865	545.55
29.1010	526.66
29.1154	527.12
29.1299	525.43
29.1443	483.39
29.1587	524.21
29.1732	525.41
29.1876	494.44
29.2021	481.66
29.2165	535.65
29.2309	520.12
29.2454	538.26
29.2598	544.16
29.2743	522.67
29.2887	506.63
29.3031	506.87
29.3176	517.90
29.3320	509.14
29.3465	512.49
29.3609	513.08
29.3753	535.69
29.3898	520.14
29.4042	477.80
29.4187	483.19
29.4331	498.85
29.4475	509.13
29.4620	500.50
29.4764	495.68
29.4909	495.65
29.5053	482.10
29.5197	490.51
29.5342	511.19
29.5486	498.05
29.5631	535.80
29.5775	493.94
29.5919	504.07
29.6064	509.90
29.6208	497.88
29.6353	539.84
29.6497	509.73
29.6641	550.95
29.6786	500.21
29.6930	484.12
29.7075	551.83
29.7219	525.00
29.7363	496.16
29.7508	514.72
29.7652	511.58
29.7797	547.07
29.7941	505.80
29.8085	514.92
29.8230	539.77
29.8374	501.20
29.8519	524.53
29.8663	541.34
29.8807	495.53
29.8952	511.89
29.9096	510.28
29.9241	506.01
29.9385	501.24
29.9529	482.05
29.9674	507.50
29.9818	503.32
29.9963	516.82
30.0107	489.73
30.0251	503.92
30.0396	522.89
30.0540	507.44
30.0685	505.84
30.0829	481.85
30.0973	497.58
30.1118	488.14
30.1262	514.94
30.1407	516.70
30.1551	508.12
30.1695	518.36
30.1840	516.91
30.1984	514.27
30.2129	525.45
30.2273	505.80
30.2417	494.35
30.2562	495.84
30.2706	529.61
30.2851	519.55
30.2995	506.48
30.3139	521.20
30.3284	556.48
30.3428	544.85
30.3573	535.80
30.3717	501.15
30.3861	498.70
30.4006	491.23
30.4150	510.87
30.4295	486.86
30.4439	483.22
30.4583	521.28
30.4728	491.48
30.4872	514.49
30.5017	528.26
30.5161	530.09
30.5305	522.59
30.5450	517.27
30.5594	517.88
30.5739	492.77
30.5883	512.96
30.6028	534.17
30.6172	515.38
30.6316	482.19
30.6461	474.13
30.6605	499.80
30.6750	517.34
30.6894	529.79
30.7038	536.57
30.7183	554.51
30.7327	535.21
30.7472	562.88
30.7616	566.62
30.7760	613.33
30.7905	606.77
30.8049	595.89
30.8194	644.84
30.8338	723.21
30.8482	704.77
30.8627	701.57
30.8771	691.46
30.8916	657.23
30.9060	680.10
30.9204	657.41
30.9349	617.20
30.9493	613.00
30.9638	617.10
30.9782	604.63
30.9926	581.64
31.0071	552.72
31.0215	522.02
31.0360	558.28
31.0504	543.17
31.0648	545.41
31.0793	531.22
31.0937	533.39
31.1082	548.24
31.1226	504.47
31.1370	489.95
31.1515	494.85
31.1659	555.03
31.1804	556.99
31.1948	545.53
31.2092	575.05
31.2237	550.07
31.2381	532.04
31.2526	522.82
31.2670	526.94
31.2814	571.63
31.2959	517.47
31.3103	531.32
31.3248	558.78
31.3392	533.57
31.3536	540.79
31.3681	517.77
31.3825	535.28
31.3970	536.48
31.4114	520.14
31.4258	542.76
31.4403	518.94
31.4547	528.06
31.4692	498.39
31.4836	498.89
31.4980	494.28
31.5125	516.64
31.5269	532.77
31.5414	524.87
31.5558	550.66
31.5702	501.82
31.5847	484.14
31.5991	502.12
31.6136	500.40
31.6280	532.55
31.6424	512.57
31.6569	499.56
31.6713	465.52
31.6858	532.02
31.7002	538.51
31.7146	529.78
31.7291	504.00
31.7435	501.33
31.7580	504.02
31.7724	536.46
31.7868	525.83
31.8013	530.03
31.8157	561.36
31.8302	519.85
31.8446	521.33
31.8590	508.40
31.8735	509.72
31.8879	492.29
31.9024	512.84
31.9168	540.93
31.9312	528.79
31.9457	521.75
31.9601	476.46
31.9746	485.61
31.9890	521.96
32.0034	522.78
32.0179	504.31
32.0323	538.76
32.0468	525.49
32.0612	513.44
32.0756	523.18
32.0901	530.57
32.1045	492.60
32.1190	485.81
32.1334	515.32
32.1478	483.19
32.1623	510.21
32.1767	518.71
32.1912	502.30
32.2056	510.72
32.2200	504.05
32.2345	524.81
32.2489	509.88
32.2634	468.27
32.2778	505.47
32.2922	470.21
32.3067	453.00
32.3211	466.41
32.3356	526.62
32.3500	496.68
32.3644	499.22
32.3789	516.10
32.3933	491.18
32.4078	505.38
32.4222	520.40
32.4366	520.28
32.4511	485.20
32.4655	500.75
32.4800	542.92
32.4944	524.64
32.5088	526.18
32.5233	481.48
32.5377	480.41
32.5522	514.09
32.5666	481.38
32.5810	537.63
32.5955	502.21
32.6099	515.90
32.6244	523.75
32.6388	535.80
32.6532	497.76
32.6677	465.24
32.6821	475.95
32.6966	469.46
32.7110	474.52
32.7254	502.40
32.7399	487.50
32.7543	499.16
32.7688	503.94
32.7832	529.95
32.7976	532.58
32.8121	531.11
32.8265	532.35
32.8410	512.42
32.8554	499.65
32.8698	486.26
32.8843	494.50
32.8987	519.59
32.9132	512.10
32.9276	500.18
32.9420	530.67
32.9565	500.40
32.9709	493.46
32.9854	502.65
32.9998	535.63
33.0142	528.40
33.0287	532.19
33.0431	502.48
33.0576	490.67
33.0720	513.93
33.0864	502.62
33.1009	529.98
33.1153	513.64
33.1298	513.68
33.1442	490.33
33.1586	528.01
33.1731	527.44
33.1875	517.15
33.2020	497.93
33.2164	512.74
33.2308	488.49
33.2453	521.96
33.2597	527.67
33.2742	528.33
33.2886	537.18
33.3030	509.61
33.3175	535.75
33.3319	526.02
33.3464	507.42
33.3608	475.30
33.3752	481.66
33.3897	480.37
33.4041	518.15
33.4186	511.04
33.4330	518.24
33.4474	492.36
33.4619	492.07
33.4763	497.27
33.4908	508.82
33.5052	472.66
33.5196	518.31
33.5341	536.22
33.5485	472.97
33.5630	461.66
33.5774	477.28
33.5918	516.32
33.6063	505.97
33.6207	503.17
33.6352	545.84
33.6496	492.72
33.6640	513.66
33.6785	488.69
33.6929	487.98
33.7074	543.93
33.7218	504.94
33.7362	490.30
33.7507	503.38
33.7651	501.80
33.7796	511.18
33.7940	485.31
33.8084	501.18
33.8229	496.35
33.8373	511.29
33.8518	533.46
33.8662	511.25
33.8806	505.04
33.8951	502.04
33.9095	504.43
33.9240	522.16
33.9384	485.07
33.9528	507.09
33.9673	508.33
33.9817	525.16
33.9962	507.70
34.0106	519.57
34.0250	476.76
34.0395	487.23
34.0539	510.08
34.0684	474.08
34.0828	499.52
34.0972	527.01
34.1117	521.17
34.1261	519.52
34.1406	477.69
34.1550	496.12
34.1694	531.87
34.1839	488.53
34.1983	494.08
34.2128	547.56
34.2272	563.16
34.2417	551.24
34.2561	506.58
34.2705	512.40
34.2850	543.50
34.2994	479.10
34.3139	477.98
34.3283	505.61
34.3427	496.91
34.3572	512.59
34.3716	509.69
34.3861	477.15
34.4005	469.28
34.4149	500.01
34.4294	496.62
34.4438	479.17
34.4583	467.98
34.4727	497.33
34.4871	510.69
34.5016	502.25
34.5160	497.50
34.5305	524.84
34.5449	499.99
34.5593	489.66
34.5738	483.76
34.5882	495.04
34.6027	532.98
34.6171	492.57
34.6315	499.22
34.6460	502.27
34.6604	490.81
34.6749	521.94
34.6893	530.14
34.7037	515.48
34.7182	492.03
34.7326	465.05
34.7471	491.53
34.7615	485.87
34.7759	519.45
34.7904	494.98
34.8048	513.47
34.8193	530.69
34.8337	516.51
34.8481	489.73
34.8626	485.25
34.8770	486.18
34.8915	503.91
34.9059	517.43
34.9203	520.46
34.9348	548.52
34.9492	530.79
34.9637	502.90
34.9781	527.51
34.9925	506.94
35.0070	532.29
35.0214	521.71
35.0359	497.47
35.0503	486.24
35.0647	515.62
35.0792	541.95
35.0936	523.32
35.1081	513.54
35.1225	518.34
35.1369	509.19
35.1514	499.37
35.1658	538.02
35.1803	518.45
35.1947	485.87
35.2091	531.33
35.2236	536.54
35.2380	499.41
35.2525	509.40
35.2669	496.38
35.2813	492.51
35.2958	526.39
35.3102	532.62
35.3247	518.98
35.3391	536.70
35.3535	511.89
35.3680	525.74
35.3824	487.39
35.3969	497.32
35.4113	530.96
35.4257	546.71
35.4402	528.47
35.4546	532.19
35.4691	557.83
35.4835	541.87
35.4979	515.16
35.5124	539.80
35.5268	554.91
35.5413	558.38
35.5557	561.12
35.5701	561.15
35.5846	551.96
35.5990	551.01
35.6135	515.78
35.6279	495.60
35.6423	514.23
35.6568	519.62
35.6712	522.59
35.6857	601.94
35.7001	647.69
35.7145	687.03
35.7290	651.65
35.7434	616.86
35.7579	611.48
35.7723	600.01
35.7867	632.20
35.8012	624.23
35.8156	670.27
35.8301	618.66
35.8445	614.89
35.8589	626.87
35.8734	722.10
35.8878	846.63
35.9023	982.48
35.9167	1061.51
35.9311	1384.27
35.9456	2080.37
35.9600	2398.55
35.9745	1916.45
35.9889	1998.93
36.0033	2654.10
36.0178	3018.94
36.0322	2296.17
36.0467	1792.41
36.0611	1669.18
36.0755	1649.71
36.0900	1612.84
36.1044	1307.56
36.1189	1379.79
36.1333	1314.23
36.1477	1046.52
36.1622	1090.41
36.1766	1008.00
36.1911	888.18
36.2055	825.01
36.2199	798.30
36.2344	807.82
36.2488	828.27
36.2633	840.04
36.2777	830.34
36.2921	854.40
36.3066	917.40
36.3210	946.11
36.3355	965.86
36.3499	988.88
36.3643	961.30
36.3788	918.85
36.3932	907.40
36.4077	877.70
36.4221	863.01
36.4365	862.41
36.4510	812.20
36.4654	802.01
36.4799	773.26
36.4943	709.34
36.5087	678.51
36.5232	651.14
36.5376	653.96
36.5521	631.69
36.5665	622.23
36.5809	615.54
36.5954	607.91
36.6098	582.07
36.6243	591.08
36.6387	598.40
36.6531	551.73
36.6676	545.28
36.6820	495.84
36.6965	526.19
36.7109	562.33
36.7253	526.09
36.7398	555.86
36.7542	552.11
36.7687	554.55
36.7831	551.39
36.7975	561.43
36.8120	556.73
36.8264	589.78
36.8409	574.47
36.8553	593.62
36.8697	580.55
36.8842	589.06
36.8986	580.92
36.9131	570.90
36.9275	554.73
36.9419	604.61
36.9564	571.72
36.9708	560.23
36.9853	586.46
36.9997	608.21
37.0141	560.06
37.0286	523.43
37.0430	558.42
37.0575	560.96
37.0719	513.07
37.0863	538.29
37.1008	541.44
37.1152	537.77
37.1297	534.76
37.1441	492.02
37.1585	541.52
37.1730	522.83
37.1874	512.13
37.2019	506.01
37.2163	502.16
37.2307	481.53
37.2452	497.80
37.2596	503.54
37.2741	517.31
37.2885	519.94
37.3029	517.39
37.3174	489.96
37.3318	513.75
37.3463	487.76
37.3607	511.36
37.3751	499.44
37.3896	497.68
37.4040	484.32
37.4185	492.90
37.4329	540.72
37.4473	533.81
37.4618	512.80
37.4762	511.28
37.4907	509.66
37.5051	526.99
37.5195	483.82
37.5340	469.40
37.5484	541.46
37.5629	525.59
37.5773	510.38
37.5917	505.19
37.6062	499.84
37.6206	500.66
37.6351	490.98
37.6495	490.16
37.6639	495.54
37.6784	518.27
37.6928	488.03
37.7073	513.33
37.7217	524.52
37.7361	492.65
37.7506	515.39
37.7650	489.34
37.7795	526.71
37.7939	499.32
37.8083	502.37
37.8228	511.53
37.8372	516.93
37.8517	516.57
37.8661	509.60
37.8805	513.45
37.8950	528.42
37.9094	524.86
37.9239	483.95
37.9383	489.83
37.9528	527.90
37.9672	533.50
37.9816	478.71
37.9961	517.73
38.0105	502.22
38.0250	505.58
38.0394	486.56
38.0538	522.42
38.0683	566.28
38.0827	513.59
38.0972	494.09
38.1116	495.14
38.1260	492.30
38.1405	494.15
38.1549	499.79
38.1694	509.00
38.1838	503.20
38.1982	491.42
38.2127	523.35
38.2271	504.59
38.2416	507.92
38.2560	522.25
38.2704	488.85
38.2849	501.13
38.2993	518.10
38.3138	522.92
38.3282	496.96
38.3426	525.62
38.3571	522.60
38.3715	539.61
38.3860	534.76
38.4004	535.00
38.4148	538.50
38.4293	599.52
38.4437	564.33
38.4582	574.43
38.4726	640.26
38.4870	703.63
38.5015	730.34
38.5159	802.34
38.5304	809.02
38.5448	821.83
38.5592	780.05
38.5737	759.70
38.5881	753.13
38.6026	710.63
38.6170	718.95
38.6314	711.64
38.6459	684.33
38.6603	639.80
38.6748	600.22
38.6892	573.38
38.7036	579.73
38.7181	539.71
38.7325	515.88
38.7470	513.51
38.7614	519.24
38.7758	522.80
38.7903	533.19
38.8047	493.37
38.8192	495.22
38.8336	526.07
38.8480	495.51
38.8625	520.72
38.8769	508.50
38.8914	486.32
38.9058	502.77
38.9202	499.80
38.9347	508.86
38.9491	499.93
38.9636	492.44
38.9780	472.03
38.9924	484.68
39.0069	493.38
39.0213	498.78
39.0358	519.24
39.0502	518.53
39.0646	483.97
39.0791	515.08
39.0935	530.96
39.1080	481.13
39.1224	519.88
39.1368	480.62
39.1513	482.71
39.1657	499.32
39.1802	501.69
39.1946	498.35
39.2090	521.71
39.2235	523.73
39.2379	506.47
39.2524	503.09
39.2668	493.89
39.2812	514.85
39.2957	510.72
39.3101	533.65
39.3246	536.14
39.3390	512.24
39.3534	526.96
39.3679	522.32
39.3823	498.94
39.3968	527.52
39.4112	513.99
39.4256	513.03
39.4401	504.91
39.4545	487.76
39.4690	523.73
39.4834	495.23
39.4978	501.90
39.5123	504.17
39.5267	508.64
39.5412	533.27
39.5556	492.33
39.5700	472.22
39.5845	482.54
39.5989	521.77
39.6134	536.42
39.6278	532.86
39.6422	524.31
39.6567	510.57
39.6711	474.80
39.6856	486.04
39.7000	500.98
39.7144	485.75
39.7289	492.43
39.7433	473.89
39.7578	501.03
39.7722	491.71
39.7866	502.36
39.8011	486.81
39.8155	524.83
39.8300	549.46
39.8444	536.70
39.8588	531.35
39.8733	516.08
39.8877	503.84
39.9022	521.65
39.9166	494.07
39.9310	483.28
39.9455	493.79
39.9599	482.64
39.9744	501.86
39.9888	509.39
40.0032	506.76
40.0177	460.50
40.0321	502.56
40.0466	446.64
40.0610	508.37
40.0754	524.02
40.0899	506.52
40.1043	501.86
40.1188	509.22
40.1332	499.13
40.1476	495.79
40.1621	514.04
40.1765	485.79
40.1910	516.50
40.2054	492.87
40.2198	476.96
40.2343	462.95
40.2487	489.01
40.2632	453.07
40.2776	474.12
40.2920	487.90
40.3065	489.68
40.3209	509.15
40.3354	508.95
40.3498	500.27
40.3642	491.45
40.3787	490.10
40.3931	465.64
40.4076	477.15
40.4220	466.58
40.4364	481.78
40.4509	481.18
40.4653	535.89
40.4798	534.81
40.4942	539.52
40.5086	469.53
40.5231	474.28
40.5375	524.00
40.5520	523.75
40.5664	499.32
40.5808	486.98
40.5953	496.38
40.6097	507.80
40.6242	496.80
40.6386	483.34
40.6530	516.59
40.6675	530.07
40.6819	531.35
40.6964	471.21
40.7108	489.60
40.7252	478.05
40.7397	489.75
40.7541	490.67
40.7686	488.48
40.7830	497.21
40.7974	461.66
40.8119	481.99
40.8263	469.90
40.8408	490.64
40.8552	506.58
40.8696	526.00
40.8841	478.88
40.8985	487.62
40.9130	492.28
40.9274	541.71
40.9418	505.14
40.9563	488.94
40.9707	508.57
40.9852	493.58
40.9996	499.76
41.0140	493.05
41.0285	506.72
41.0429	494.11
41.0574	477.83
41.0718	485.51
41.0862	521.74
41.1007	460.00
41.1151	481.77
41.1296	515.43
41.1440	484.08
41.1584	474.54
41.1729	528.02
41.1873	493.27
41.2018	480.14
41.2162	467.88
41.2306	471.05
41.2451	490.63
41.2595	478.84
41.2740	501.59
41.2884	508.42
41.3028	505.03
41.3173	493.95
41.3317	539.48
41.3462	533.26
41.3606	484.53
41.3750	531.36
41.3895	526.71
41.4039	500.32
41.4184	513.86
41.4328	522.62
41.4472	495.52
41.4617	526.84
41.4761	534.00
41.4906	518.94
41.5050	540.52
41.5194	525.21
41.5339	514.40
41.5483	526.72
41.5628	500.69
41.5772	499.51
41.5916	513.97
41.6061	510.85
41.6205	513.16
41.6350	527.81
41.6494	477.76
41.6639	481.27
41.6783	494.55
41.6927	493.83
41.7072	488.81
41.7216	496.51
41.7361	512.00
41.7505	511.12
41.7649	488.90
41.7794	494.96
41.7938	501.32
41.8083	525.26
41.8227	503.38
41.8371	499.56
41.8516	521.94
41.8660	534.69
41.8805	503.70
41.8949	547.17
41.9093	560.40
41.9238	551.75
41.9382	631.77
41.9527	557.13
41.9671	536.16
41.9815	566.88
41.9960	587.50
42.0104	583.31
42.0249	585.37
42.0393	567.21
42.0537	561.67
42.0682	547.53
42.0826	574.77
42.0971	631.92
42.1115	610.23
42.1259	609.04
42.1404	595.38
42.1548	585.40
42.1693	635.97
42.1837	698.95
42.1981	742.11
42.2126	832.38
42.2270	970.56
42.2415	1079.20
42.2559	1233.06
42.2703	1387.24
42.2848	1508.79
42.2992	1594.85
42.3137	1678.32
42.3281	1650.71
42.3425	1594.94
42.3570	1525.96
42.3714	1446.64
42.3859	1362.23
42.4003	1315.89
42.4147	1287.35
42.4292	1311.90
42.4436	1159.46
42.4581	1050.52
42.4725	957.20
42.4869	858.01
42.5014	739.38
42.5158	666.51
42.5303	640.69
42.5447	632.52
42.5591	639.58
42.5736	618.37
42.5880	577.15
42.6025	576.99
42.6169	566.46
42.6313	551.27
42.6458	570.69
42.6602	534.36
42.6747	527.25
42.6891	528.59
42.7035	565.93
42.7180	570.04
42.7324	527.95
42.7469	525.10
42.7613	512.51
42.7757	526.89
42.7902	538.88
42.8046	517.88
42.8191	516.55
42.8335	524.12
42.8479	537.40
42.8624	535.27
42.8768	522.74
42.8913	515.85
42.9057	505.36
42.9201	493.05
42.9346	527.58
42.9490	496.94
42.9635	519.68
42.9779	522.07
42.9923	509.00
43.0068	531.31
43.0212	514.53
43.0357	490.29
43.0501	491.96
43.0645	530.77
43.0790	535.23
43.0934	523.67
43.1079	526.55
43.1223	535.52
43.1367	506.93
43.1512	507.46
43.1656	537.46
43.1801	552.92
43.1945	545.44
43.2089	522.00
43.2234	528.80
43.2378	557.54
43.2523	557.49
43.2667	531.63
43.2811	508.85
43.2956	517.64
43.3100	531.75
43.3245	562.80
43.3389	542.08
43.3533	549.02
43.3678	527.27
43.3822	503.37
43.3967	492.43
43.4111	509.39
43.4255	529.57
43.4400	542.42
43.4544	534.89
43.4689	499.49
43.4833	503.44
43.4977	507.62
43.5122	488.57
43.5266	505.74
43.5411	539.21
43.5555	524.53
43.5699	535.54
43.5844	545.46
43.5988	532.26
43.6133	513.03
43.6277	519.83
43.6421	517.44
43.6566	494.45
43.6710	493.18
43.6855	499.72
43.6999	547.90
43.7143	531.84
43.7288	510.45
43.7432	506.69
43.7577	500.67
43.7721	528.47
43.7865	527.58
43.8010	555.60
43.8154	589.59
43.8299	539.92
43.8443	488.85
43.8587	509.44
43.8732	571.18
43.8876	517.82
43.9021	503.98
43.9165	523.32
43.9309	527.96
43.9454	530.70
43.9598	523.13
43.9743	480.92
43.9887	510.32
44.0031	517.31
44.0176	551.17
44.0320	577.03
44.0465	527.89
44.0609	514.17
44.0753	575.53
44.0898	577.61
44.1042	577.38
44.1187	594.90
44.1331	613.11
44.1475	584.32
44.1620	621.73
44.1764	643.29
44.1909	631.51
44.2053	604.66
44.2197	624.66
44.2342	656.63
44.2486	623.08
44.2631	623.49
44.2775	580.55
44.2919	566.28
44.3064	573.35
44.3208	623.41
44.3353	603.69
44.3497	577.40
44.3641	519.18
44.3786	570.88
44.3930	544.80
44.4075	565.77
44.4219	549.39
44.4363	613.25
44.4508	601.56
44.4652	574.04
44.4797	605.48
44.4941	614.61
44.5085	591.39
44.5230	566.65
44.5374	592.56
44.5519	552.73
44.5663	587.17
44.5807	554.53
44.5952	605.96
44.6096	606.29
44.6241	574.27
44.6385	599.06
44.6529	560.50
44.6674	582.75
44.6818	595.45
44.6963	604.92
44.7107	679.79
44.7251	686.67
44.7396	723.57
44.7540	806.90
44.7685	839.32
44.7829	867.24
44.7973	879.91
44.8118	837.99
44.8262	796.06
44.8407	799.35
44.8551	784.55
44.8695	768.34
44.8840	755.32
44.8984	762.87
44.9129	731.55
44.9273	631.05
44.9417	695.60
44.9562	623.02
44.9706	622.54
44.9851	600.11
44.9995	599.30
45.0139	567.67
45.0284	545.87
45.0428	496.60
45.0573	532.88
45.0717	523.03
45.0861	550.31
45.1006	574.84
45.1150	561.00
45.1295	537.19
45.1439	515.69
45.1583	518.00
45.1728	535.80
45.1872	492.82
45.2017	477.40
45.2161	470.09
45.2305	495.24
45.2450	571.29
45.2594	517.23
45.2739	495.15
45.2883	525.08
45.3028	545.46
45.3172	516.38
45.3316	544.66
45.3461	504.96
45.3605	515.89
45.3750	504.78
45.3894	506.30
45.4038	537.80
45.4183	503.85
45.4327	521.59
45.4472	532.17
45.4616	500.26
45.4760	542.89
45.4905	514.78
45.5049	492.40
45.5194	515.01
45.5338	527.05
45.5482	493.22
45.5627	489.58
45.5771	491.10
45.5916	481.61
45.6060	491.97
45.6204	538.40
45.6349	552.90
45.6493	511.06
45.6638	501.38
45.6782	514.57
45.6926	507.37
45.7071	513.78
45.7215	508.68
45.7360	507.77
45.7504	498.62
45.7648	511.40
45.7793	509.76
45.7937	499.52
45.8082	542.12
45.8226	516.94
45.8370	551.37
45.8515	498.69
45.8659	524.26
45.8804	493.53
45.8948	496.31
45.9092	511.62
45.9237	503.85
45.9381	529.76
45.9526	561.20
45.9670	527.43
45.9814	518.23
45.9959	537.58
46.0103	493.40
46.0248	486.12
46.0392	493.49
46.0536	501.47
46.0681	493.70
46.0825	486.23
46.0970	483.68
46.1114	498.04
46.1258	520.59
46.1403	499.21
46.1547	508.34
46.1692	523.26
46.1836	495.86
46.1980	488.56
46.2125	497.02
46.2269	474.01
46.2414	471.06
46.2558	518.43
46.2702	533.21
46.2847	514.37
46.2991	518.18
46.3136	510.28
46.3280	505.44
46.3424	548.55
46.3569	545.49
46.3713	494.63
46.3858	482.17
46.4002	495.86
46.4146	505.04
46.4291	494.77
46.4435	529.93
46.4580	490.49
46.4724	477.89
46.4868	524.87
46.5013	461.41
46.5157	464.99
46.5302	488.17
46.5446	506.49
46.5590	498.63
46.5735	492.82
46.5879	500.62
46.6024	488.15
46.6168	496.84
46.6312	486.37
46.6457	512.58
46.6601	508.22
46.6746	529.52
46.6890	513.28
46.7034	500.99
46.7179	484.92
46.7323	510.41
46.7468	517.45
46.7612	510.59
46.7756	493.98
46.7901	512.22
46.8045	526.91
46.8190	524.12
46.8334	516.75
46.8478	504.19
46.8623	510.48
46.8767	516.99
46.8912	468.26
46.9056	492.03
46.9200	501.85
46.9345	493.35
46.9489	501.39
46.9634	474.42
46.9778	501.43
46.9922	530.81
47.0067	512.27
47.0211	548.72
47.0356	534.88
47.0500	509.07
47.0644	529.73
47.0789	541.34
47.0933	537.97
47.1078	521.82
47.1222	509.87
47.1366	515.54
47.1511	473.93
47.1655	481.42
47.1800	486.02
47.1944	475.88
47.2088	518.68
47.2233	505.04
47.2377	498.41
47.2522	527.07
47.2666	508.74
47.2810	521.50
47.2955	503.51
47.3099	536.31
47.3244	525.20
47.3388	510.73
47.3532	525.37
47.3677	532.13
47.3821	512.87
47.3966	494.18
47.4110	484.42
47.4254	511.07
47.4399	532.47
47.4543	492.11
47.4688	456.21
47.4832	513.02
47.4976	535.56
47.5121	495.58
47.5265	518.54
47.5410	476.79
47.5554	535.93
47.5698	495.71
47.5843	500.31
47.5987	498.62
47.6132	488.97
47.6276	491.23
47.6420	477.25
47.6565	494.10
47.6709	455.18
47.6854	489.89
47.6998	505.37
47.7142	520.83
47.7287	504.18
47.7431	514.94
47.7576	500.67
47.7720	518.31
47.7864	547.30
47.8009	482.17
47.8153	494.37
47.8298	517.45
47.8442	525.36
47.8586	519.19
47.8731	497.89
47.8875	495.24
47.9020	531.91
47.9164	511.77
47.9308	556.74
47.9453	534.85
47.9597	516.86
47.9742	512.95
47.9886	491.70
48.0030	496.75
48.0175	511.36
48.0319	503.47
48.0464	501.72
48.0608	492.84
48.0752	533.52
48.0897	496.65
48.1041	491.12
48.1186	495.85
48.1330	520.98
48.1474	485.60
48.1619	510.94
48.1763	508.19
48.1908	520.21
48.2052	496.07
48.2196	505.62
48.2341	507.66
48.2485	490.75
48.2630	488.52
48.2774	482.12
48.2918	527.02
48.3063	492.62
48.3207	520.38
48.3352	545.94
48.3496	498.44
48.3640	520.62
48.3785	506.94
48.3929	484.08
48.4074	507.35
48.4218	531.07
48.4362	536.55
48.4507	525.48
48.4651	537.50
48.4796	519.90
48.4940	493.88
48.5084	528.07
48.5229	519.69
48.5373	509.26
48.5518	501.45
48.5662	466.07
48.5806	524.84
48.5951	501.57
48.6095	519.71
48.6240	478.73
48.6384	534.66
48.6528	496.31
48.6673	487.54
48.6817	493.29
48.6962	485.57
48.7106	519.78
48.7250	513.60
48.7395	528.12
48.7539	512.01
48.7684	519.38
48.7828	546.76
48.7972	518.32
48.8117	535.31
48.8261	518.78
48.8406	555.17
48.8550	563.46
48.8694	544.46
48.8839	555.43
48.8983	542.14
48.9128	556.45
48.9272	478.50
48.9416	592.15
48.9561	541.25
48.9705	518.42
48.9850	523.22
48.9994	566.37
49.0139	588.18
49.0283	615.24
49.0427	599.93
49.0572	616.68
49.0716	607.80
49.0861	685.63
49.1005	692.93
49.1149	702.19
49.1294	757.99
49.1438	752.33
49.1583	811.38
49.1727	835.24
49.1871	921.51
49.2016	968.45
49.2160	1025.75
49.2305	1111.11
49.2449	1200.36
49.2593	1254.58
49.2738	1411.99
49.2882	1490.61
49.3027	1511.33
49.3171	1658.38
49.3315	1802.48
49.3460	1743.20
49.3604	1781.58
49.3749	1858.51
49.3893	1734.86
49.4037	1755.07
49.4182	1836.28
49.4326	1837.31
49.4471	1688.85
49.4615	1650.44
49.4759	1642.11
49.4904	1581.79
49.5048	1426.31
49.5193	1408.56
49.5337	1329.01
49.5481	1196.22
49.5626	1131.19
49.5770	1057.90
49.5915	917.86
49.6059	918.73
49.6203	878.02
49.6348	819.87
49.6492	804.79
49.6637	775.71
49.6781	718.06
49.6925	697.61
49.7070	687.17
49.7214	636.87
49.7359	625.24
49.7503	631.93
49.7647	596.09
49.7792	611.84
49.7936	619.28
49.8081	626.97
49.8225	589.36
49.8369	553.26
49.8514	569.49
49.8658	566.94
49.8803	531.69
49.8947	559.90
49.9091	595.07
49.9236	547.42
49.9380	559.65
49.9525	523.20
49.9669	567.27
49.9813	585.57
49.9958	543.53
50.0102	521.98
50.0247	538.25
50.0391	519.14
50.0535	527.22
50.0680	567.57
50.0824	520.35
50.0969	550.63
50.1113	538.39
50.1257	520.87
50.1402	513.91
50.1546	507.02
50.1691	514.39
50.1835	527.90
50.1979	541.57
50.2124	525.58
50.2268	486.06
50.2413	518.28
50.2557	496.83
50.2701	529.49
50.2846	504.61
50.2990	503.70
50.3135	511.48
50.3279	533.45
50.3423	542.92
50.3568	509.80
50.3712	512.60
50.3857	510.36
50.4001	506.30
50.4145	490.53
50.4290	524.68
50.4434	527.05
50.4579	513.41
50.4723	521.96
50.4867	520.99
50.5012	503.62
50.5156	479.68
50.5301	511.97
50.5445	476.54
50.5589	495.56
50.5734	493.37
50.5878	506.33
50.6023	484.12
50.6167	528.52
50.6311	505.61
50.6456	541.77
50.6600	554.68
50.6745	537.35
50.6889	524.05
50.7033	529.25
50.7178	514.23
50.7322	470.30
50.7467	506.13
50.7611	509.24
50.7755	506.70
50.7900	503.47
50.8044	497.08
50.8189	506.56
50.8333	528.23
50.8477	506.71
50.8622	529.32
50.8766	526.13
50.8911	489.37
50.9055	488.35
50.9199	469.48
50.9344	505.12
50.9488	509.74
50.9633	479.01
50.9777	496.02
50.9921	502.86
51.0066	532.95
51.0210	525.75
51.0355	506.91
51.0499	507.94
51.0643	516.55
51.0788	501.10
51.0932	511.49
51.1077	492.63
51.1221	521.00
51.1365	533.04
51.1510	473.37
51.1654	519.49
51.1799	531.02
51.1943	506.88
51.2087	509.19
51.2232	496.57
51.2376	506.24
51.2521	508.14
51.2665	498.91
51.2809	527.48
51.2954	529.72
51.3098	505.64
51.3243	501.88
51.3387	530.88
51.3531	492.09
51.3676	515.56
51.3820	510.67
51.3965	534.44
51.4109	508.59
51.4253	555.42
51.4398	509.54
51.4542	521.91
51.4687	542.90
51.4831	523.41
51.4975	492.55
51.5120	496.58
51.5264	497.63
51.5409	506.02
51.5553	514.94
51.5697	522.41
51.5842	506.37
51.5986	494.44
51.6131	500.56
51.6275	532.29
51.6419	496.93
51.6564	489.63
51.6708	495.63
51.6853	527.28
51.6997	541.28
51.7141	522.79
51.7286	503.23
51.7430	512.31
51.7575	495.57
51.7719	481.99
51.7863	510.67
51.8008	471.52
51.8152	532.95
51.8297	515.90
51.8441	530.05
51.8585	535.50
51.8730	494.49
51.8874	503.18
51.9019	488.18
51.9163	514.83
51.9307	513.78
51.9452	492.17
51.9596	489.90
51.9741	496.70
51.9885	494.07
52.0029	502.46
52.0174	530.11
52.0318	518.45
52.0463	511.54
52.0607	497.51
52.0751	503.68
52.0896	580.43
52.1040	547.31
52.1185	498.98
52.1329	502.66
52.1473	506.33
52.1618	519.61
52.1762	519.22
52.1907	519.39
52.2051	491.79
52.2195	529.51
52.2340	512.04
52.2484	541.24
52.2629	527.12
52.2773	519.45
52.2917	492.48
52.3062	509.15
52.3206	524.68
52.3351	535.86
52.3495	535.30
52.3639	542.08
52.3784	507.86
52.3928	512.47
52.4073	515.46
52.4217	507.14
52.4361	514.24
52.4506	485.35
52.4650	515.48
52.4795	533.42
52.4939	515.15
52.5083	497.10
52.5228	506.42
52.5372	510.26
52.5517	524.39
52.5661	519.20
52.5805	495.71
52.5950	537.39
52.6094	549.98
52.6239	509.24
52.6383	523.69
52.6527	494.35
52.6672	504.34
52.6816	487.77
52.6961	521.74
52.7105	564.21
52.7250	523.55
52.7394	532.36
52.7538	516.05
52.7683	523.21
52.7827	528.19
52.7972	527.77
52.8116	531.89
52.8260	549.41
52.8405	528.09
52.8549	488.46
52.8694	518.64
52.8838	512.68
52.8982	529.82
52.9127	533.38
52.9271	507.11
52.9416	465.06
52.9560	505.66
52.9704	554.42
52.9849	552.24
52.9993	513.24
53.0138	522.79
53.0282	506.41
53.0426	528.76
53.0571	525.82
53.0715	481.64
53.0860	531.26
53.1004	527.26
53.1148	510.60
53.1293	539.18
53.1437	497.43
53.1582	526.02
53.1726	515.78
53.1870	506.21
53.2015	526.50
53.2159	501.62
53.2304	500.01
53.2448	506.22
53.2592	490.67
53.2737	523.06
53.2881	540.55
53.3026	522.50
53.3170	511.95
53.3314	526.07
53.3459	535.89
53.3603	514.29
53.3748	521.46
53.3892	508.86
53.4036	498.56
53.4181	534.52
53.4325	542.60
53.4470	510.81
53.4614	542.46
53.4758	542.21
53.4903	507.33
53.5047	512.23
53.5192	502.26
53.5336	518.07
53.5480	564.87
53.5625	529.73
53.5769	505.89
53.5914	511.93
53.6058	507.47
53.6202	526.72
53.6347	528.91
53.6491	498.98
53.6636	515.63
53.6780	536.01
53.6924	498.73
53.7069	554.59
53.7213	518.21
53.7358	507.53
53.7502	504.60
53.7646	539.38
53.7791	517.85
53.7935	514.53
53.8080	531.42
53.8224	521.15
53.8368	512.02
53.8513	517.54
53.8657	517.15
53.8802	510.46
53.8946	480.58
53.9090	533.67
53.9235	513.06
53.9379	531.22
53.9524	523.25
53.9668	519.92
53.9812	501.78
53.9957	496.60
54.0101	490.13
54.0246	483.94
54.0390	471.59
54.0534	507.73
54.0679	534.18
54.0823	505.07
54.0968	520.51
54.1112	498.68
54.1256	508.69
54.1401	495.22
54.1545	495.95
54.1690	498.96
54.1834	532.49
54.1978	522.74
54.2123	541.38
54.2267	497.30
54.2412	507.84
54.2556	516.39
54.2700	518.26
54.2845	502.90
54.2989	512.69
54.3134	535.56
54.3278	546.91
54.3422	544.18
54.3567	531.61
54.3711	528.99
54.3856	517.15
54.4000	520.66
54.4144	488.81
54.4289	523.71
54.4433	525.95
54.4578	532.83
54.4722	532.30
54.4866	514.03
54.5011	546.77
54.5155	533.82
54.5300	527.20
54.5444	506.88
54.5588	523.03
54.5733	521.44
54.5877	515.00
54.6022	550.78
54.6166	562.15
54.6310	546.37
54.6455	552.20
54.6599	537.55
54.6744	568.25
54.6888	538.09
54.7032	558.07
54.7177	582.50
54.7321	556.57
54.7466	530.54
54.7610	556.83
54.7754	546.21
54.7899	558.44
54.8043	578.82
54.8188	574.10
54.8332	569.80
54.8476	575.66
54.8621	582.22
54.8765	605.93
54.8910	571.76
54.9054	554.27
54.9198	513.43
54.9343	554.16
54.9487	562.82
54.9632	568.74
54.9776	580.87
54.9920	529.42
55.0065	540.28
55.0209	568.33
55.0354	561.44
55.0498	550.66
55.0642	545.84
55.0787	543.96
55.0931	565.17
55.1076	538.68
55.1220	566.01
55.1364	521.54
55.1509	514.98
55.1653	524.44
55.1798	518.38
55.1942	511.27
55.2086	511.19
55.2231	551.45
55.2375	522.17
55.2520	476.11
55.2664	483.16
55.2808	528.98
55.2953	508.19
55.3097	535.62
55.3242	551.49
55.3386	546.64
55.3530	537.79
55.3675	523.84
55.3819	525.62
55.3964	519.54
55.4108	474.61
55.4252	506.98
55.4397	502.48
55.4541	551.82
55.4686	557.35
55.4830	537.97
55.4974	545.71
55.5119	547.83
55.5263	536.60
55.5408	550.40
55.5552	532.91
55.5696	527.33
55.5841	530.49
55.5985	526.15
55.6130	504.98
55.6274	531.47
55.6418	519.36
55.6563	533.47
55.6707	534.35
55.6852	519.17
55.6996	558.17
55.7140	545.26
55.7285	503.81
55.7429	495.59
55.7574	515.49
55.7718	528.63
55.7862	542.33
55.8007	527.91
55.8151	543.24
55.8296	528.00
55.8440	521.05
55.8584	534.10
55.8729	540.57
55.8873	532.95
55.9018	553.74
55.9162	544.35
55.9306	492.41
55.9451	542.19
55.9595	540.53
55.9740	552.09
55.9884	578.53
56.0028	497.91
56.0173	535.99
56.0317	486.25
56.0462	485.31
56.0606	557.59
56.0750	549.07
56.0895	555.79
56.1039	533.12
56.1184	498.78
56.1328	510.95
56.1472	528.48
56.1617	541.18
56.1761	503.88
56.1906	535.16
56.2050	520.91
56.2194	525.37
56.2339	522.29
56.2483	523.49
56.2628	500.44
56.2772	550.83
56.2916	515.68
56.3061	497.62
56.3205	504.07
56.3350	530.86
56.3494	543.22
56.3639	545.10
56.3783	542.24
56.3927	505.11
56.4072	526.24
56.4216	535.65
56.4361	520.42
56.4505	503.77
56.4649	501.60
56.4794	549.82
56.4938	511.41
56.5083	488.67
56.5227	510.03
56.5371	503.10
56.5516	543.39
56.5660	529.20
56.5805	513.76
56.5949	478.22
56.6093	503.49
56.6238	499.19
56.6382	508.67
56.6527	533.62
56.6671	518.39
56.6815	515.79
56.6960	508.78
56.7104	505.76
56.7249	522.60
56.7393	547.74
56.7537	543.18
56.7682	503.20
56.7826	478.68
56.7971	533.91
56.8115	521.30
56.8259	533.14
56.8404	517.09
56.8548	526.22
56.8693	520.02
56.8837	524.74
56.8981	525.64
56.9126	534.33
56.9270	515.94
56.9415	492.96
56.9559	502.47
56.9703	547.93
56.9848	510.24
56.9992	528.27
57.0137	537.43
57.0281	539.74
57.0425	514.54
57.0570	488.69
57.0714	523.43
57.0859	540.72
57.1003	572.67
57.1147	559.27
57.1292	540.37
57.1436	519.25
57.1581	511.45
57.1725	542.01
57.1869	548.33
57.2014	549.88
57.2158	540.34
57.2303	520.89
57.2447	518.18
57.2591	521.74
57.2736	481.46
57.2880	497.98
57.3025	501.81
57.3169	512.14
57.3313	515.45
57.3458	498.63
57.3602	494.57
57.3747	502.40
57.3891	509.86
57.4035	524.34
57.4180	528.81
57.4324	538.76
57.4469	522.25
57.4613	548.27
57.4757	555.65
57.4902	501.68
57.5046	519.10
57.5191	504.22
57.5335	527.86
57.5479	532.32
57.5624	539.07
57.5768	532.68
57.5913	533.68
57.6057	507.13
57.6201	550.44
57.6346	512.07
57.6490	495.58
57.6635	544.50
57.6779	519.75
57.6923	520.54
57.7068	529.25
57.7212	503.95
57.7357	537.29
57.7501	541.73
57.7645	528.23
57.7790	536.75
57.7934	524.31
57.8079	524.34
57.8223	513.02
57.8367	551.21
57.8512	516.29
57.8656	536.09
57.8801	572.06
57.8945	540.12
57.9089	527.27
57.9234	535.66
57.9378	515.91
57.9523	535.94
57.9667	505.72
57.9811	515.39
57.9956	529.54
58.0100	516.49
58.0245	531.71
58.0389	564.21
58.0533	538.12
58.0678	543.03
58.0822	542.41
58.0967	558.96
58.1111	540.57
58.1255	545.52
58.1400	556.56
58.1544	536.34
58.1689	546.29
58.1833	521.52
58.1977	539.77
58.2122	559.77
58.2266	589.06
58.2411	586.40
58.2555	579.03
58.2699	562.98
58.2844	574.22
58.2988	577.69
58.3133	598.39
58.3277	638.07
58.3421	652.77
58.3566	608.74
58.3710	618.72
58.3855	582.42
58.3999	596.90
58.4143	633.09
58.4288	630.77
58.4432	586.05
58.4577	623.25
58.4721	636.17
58.4865	645.15
58.5010	655.13
58.5154	632.35
58.5299	619.27
58.5443	616.87
58.5587	621.75
58.5732	656.73
58.5876	627.54
58.6021	623.11
58.6165	609.93
58.6309	609.58
58.6454	602.58
58.6598	605.02
58.6743	591.10
58.6887	591.88
58.7031	598.15
58.7176	597.81
58.7320	592.32
58.7465	574.87
58.7609	535.00
58.7753	598.11
58.7898	578.11
58.8042	530.83
58.8187	515.07
58.8331	534.38
58.8475	547.46
58.8620	551.30
58.8764	548.84
58.8909	523.64
58.9053	544.88
58.9197	561.52
58.9342	566.14
58.9486	504.13
58.9631	508.39
58.9775	552.51
58.9919	550.30
59.0064	555.54
59.0208	540.17
59.0353	531.56
59.0497	523.10
59.0641	548.86
59.0786	584.69
59.0930	568.18
59.1075	523.56
59.1219	530.68
59.1363	566.23
59.1508	523.85
59.1652	519.53
59.1797	528.24
59.1941	531.01
59.2085	569.92
59.2230	561.77
59.2374	561.53
59.2519	526.91
59.2663	558.70
59.2807	561.85
59.2952	536.78
59.3096	556.42
59.3241	561.20
59.3385	621.49
59.3529	575.35
59.3674	541.95
59.3818	547.39
59.3963	539.76
59.4107	567.66
59.4251	561.91
59.4396	528.77
59.4540	542.68
59.4685	559.90
59.4829	564.12
59.4973	575.74
59.5118	558.51
59.5262	571.74
59.5407	598.34
59.5551	587.06
59.5695	546.82
59.5840	571.66
59.5984	565.33
59.6129	569.10
59.6273	573.05
59.6417	571.82
59.6562	524.15
59.6706	556.09
59.6851	513.79
59.6995	515.12
59.7139	563.97
59.7284	532.17
59.7428	524.42
59.7573	565.46
59.7717	572.55
59.7861	519.96
59.8006	528.36
59.8150	554.94
59.8295	569.77
59.8439	543.61
59.8583	541.46
59.8728	529.67
59.8872	522.85
59.9017	574.72
59.9161	571.40
59.9305	517.15
59.9450	484.78
59.9594	526.53
59.9739	523.98
59.9883	576.00
60.0027	547.63
60.0172	557.57
60.0316	565.55
60.0461	550.77
60.0605	549.51
60.0750	583.95
60.0894	564.54
60.1038	554.18
60.1183	561.78
60.1327	541.08
60.1472	540.92
60.1616	571.00
60.1760	565.44
60.1905	538.15
60.2049	529.48
60.2194	533.22
60.2338	534.55
60.2482	582.16
60.2627	554.30
60.2771	522.61
60.2916	549.51
60.3060	538.98
60.3204	535.41
60.3349	515.17
60.3493	522.55
60.3638	530.80
60.3782	544.45
60.3926	537.97
60.4071	540.20
60.4215	557.73
60.4360	514.08
60.4504	503.73
60.4648	514.26
60.4793	549.32
60.4937	541.27
60.5082	533.16
60.5226	534.32
60.5370	536.12
60.5515	537.44
60.5659	576.32
60.5804	542.91
60.5948	518.55
60.6092	495.09
60.6237	538.01
60.6381	533.36
60.6526	513.56
60.6670	542.88
60.6814	507.12
60.6959	482.48
60.7103	519.94
60.7248	518.61
60.7392	528.56
60.7536	540.00
60.7681	555.30
60.7825	533.21
60.7970	547.77
60.8114	550.84
60.8258	538.79
60.8403	569.68
60.8547	566.53
60.8692	542.17
60.8836	564.57
60.8980	535.94
60.9125	549.84
60.9269	506.39
60.9414	574.72
60.9558	543.37
60.9702	532.89
60.9847	559.96
60.9991	523.84
61.0136	538.74
61.0280	542.96
61.0424	508.31
61.0569	529.05
61.0713	564.51
61.0858	530.18
61.1002	511.76
61.1146	579.91
61.1291	574.04
61.1435	535.57
61.1580	575.04
61.1724	564.32
61.1868	517.31
61.2013	545.18
61.2157	543.79
61.2302	593.11
61.2446	546.24
61.2590	486.95
61.2735	491.86
61.2879	526.04
61.3024	491.77
61.3168	538.12
61.3312	531.64
61.3457	548.63
61.3601	541.80
61.3746	494.45
61.3890	541.41
61.4034	558.56
61.4179	533.18
61.4323	566.14
61.4468	546.80
61.4612	541.59
61.4756	555.97
61.4901	555.74
61.5045	543.16
61.5190	528.13
61.5334	523.91
61.5478	506.70
61.5623	532.72
61.5767	522.20
61.5912	528.70
61.6056	513.66
61.6200	553.78
61.6345	543.67
61.6489	577.84
61.6634	559.97
61.6778	535.00
61.6922	520.23
61.7067	536.77
61.7211	592.83
61.7356	562.45
61.7500	589.00
61.7644	532.59
61.7789	571.14
61.7933	549.63
61.8078	558.62
61.8222	538.19
61.8366	541.72
61.8511	564.70
61.8655	567.82
61.8800	554.64
61.8944	528.81
61.9088	556.21
61.9233	552.02
61.9377	525.94
61.9522	530.25
61.9666	511.26
61.9810	545.85
61.9955	590.32
62.0099	517.06
62.0244	557.75
62.0388	565.13
62.0532	553.02
62.0677	540.26
62.0821	525.33
62.0966	565.96
62.1110	559.69
62.1254	555.18
62.1399	536.20
62.1543	557.73
62.1688	544.31
62.1832	570.08
62.1976	577.13
62.2121	597.05
62.2265	556.52
62.2410	546.09
62.2554	556.14
62.2698	568.02
62.2843	552.72
62.2987	531.82
62.3132	543.71
62.3276	537.36
62.3420	543.86
62.3565	557.71
62.3709	568.61
62.3854	547.46
62.3998	546.55
62.4142	542.27
62.4287	553.09
62.4431	567.41
62.4576	531.43
62.4720	552.96
62.4864	569.22
62.5009	550.68
62.5153	538.88
62.5298	571.28
62.5442	561.09
62.5586	557.49
62.5731	524.88
62.5875	527.96
62.6020	562.87
62.6164	588.93
62.6308	554.57
62.6453	533.54
62.6597	552.20
62.6742	561.83
62.6886	553.32
62.7030	540.01
62.7175	550.54
62.7319	569.15
62.7464	544.13
62.7608	537.87
62.7752	590.67
62.7897	567.70
62.8041	564.58
62.8186	548.38
62.8330	563.37
62.8474	555.81
62.8619	538.24
62.8763	540.05
62.8908	558.44
62.9052	560.95
62.9196	554.25
62.9341	546.09
62.9485	546.44
62.9630	527.26
62.9774	586.65
62.9918	576.04
63.0063	587.50
63.0207	626.50
63.0352	620.18
63.0496	570.57
63.0640	559.81
63.0785	588.98
63.0929	593.06
63.1074	622.71
63.1218	626.14
63.1362	558.72
63.1507	546.53
63.1651	576.84
63.1796	559.85
63.1940	548.77
63.2084	549.42
63.2229	552.33
63.2373	557.78
63.2518	582.55
63.2662	571.29
63.2806	554.99
63.2951	576.26
63.3095	570.54
63.3240	536.38
63.3384	591.92
63.3528	576.24
63.3673	584.20
63.3817	554.83
63.3962	542.08
63.4106	538.38
63.4250	570.11
63.4395	564.25
63.4539	570.59
63.4684	598.00
63.4828	559.76
63.4972	582.72
63.5117	580.67
63.5261	583.35
63.5406	576.45
63.5550	589.82
63.5694	592.01
63.5839	578.92
63.5983	585.65
63.6128	562.87
63.6272	585.38
63.6416	567.69
63.6561	585.47
63.6705	607.01
63.6850	592.68
63.6994	588.74
63.7138	572.39
63.7283	579.80
63.7427	598.61
63.7572	596.27
63.7716	630.40
63.7861	601.35
63.8005	597.22
63.8149	623.62
63.8294	583.82
63.8438	595.34
63.8583	630.35
63.8727	615.77
63.8871	613.32
63.9016	679.59
63.9160	605.96
63.9305	589.09
63.9449	645.25
63.9593	625.00
63.9738	617.26
63.9882	624.04
64.0027	630.29
64.0171	634.18
64.0315	619.89
64.0460	650.67
64.0604	673.60
64.0749	670.84
64.0893	728.35
64.1037	695.70
64.1182	658.44
64.1326	770.52
64.1471	727.02
64.1615	749.44
64.1759	739.23
64.1904	732.89
64.2048	778.66
64.2193	787.33
64.2337	827.67
64.2481	778.87
64.2626	769.45
64.2770	778.33
64.2915	777.91
64.3059	774.78
64.3203	753.23
64.3348	777.20
64.3492	778.05
64.3637	815.86
64.3781	772.38
64.3925	785.00
64.4070	746.10
64.4214	777.43
64.4359	746.20
64.4503	714.99
64.4647	687.94
64.4792	730.75
64.4936	701.56
64.5081	726.97
64.5225	694.83
64.5369	720.89
64.5514	707.40
64.5658	697.42
64.5803	690.20
64.5947	654.59
64.6091	659.66
64.6236	662.64
64.6380	663.76
64.6525	663.48
64.6669	641.56
64.6813	708.36
64.6958	687.81
64.7102	735.54
64.7247	666.31
64.7391	682.81
64.7535	726.63
64.7680	700.78
64.7824	728.70
64.7969	776.09
64.8113	811.01
64.8257	756.70
64.8402	815.58
64.8546	832.82
64.8691	862.15
64.8835	859.53
64.8979	912.47
64.9124	853.98
64.9268	877.27
64.9413	902.00
64.9557	963.99
64.9701	1067.53
64.9846	1016.66
64.9990	1161.80
65.0135	1289.15
65.0279	1441.76
65.0423	1650.79
65.0568	2085.53
65.0712	2527.44
65.0857	3320.92
65.1001	4386.58
65.1145	6049.48
65.1290	7767.84
65.1434	9468.97
65.1579	11139.99
65.1723	11695.15
65.1867	11168.79
65.2012	9908.29
65.2156	8359.08
65.2301	6672.07
65.2445	5322.95
65.2589	4449.74
65.2734	4070.47
65.2878	4330.69
65.3023	4922.93
65.3167	5797.84
65.3311	6437.36
65.3456	6953.10
65.3600	6839.31
65.3745	6295.81
65.3889	5451.42
65.4033	4499.52
65.4178	3464.55
65.4322	2831.13
65.4467	2093.45
65.4611	1735.08
65.4755	1480.12
65.4900	1338.03
65.5044	1163.27
65.5189	1037.45
65.5333	992.48
65.5477	935.23
65.5622	910.45
65.5766	812.80
65.5911	822.17
65.6055	793.24
65.6199	766.78
65.6344	796.37
65.6488	731.13
65.6633	755.61
65.6777	731.28
65.6921	743.49
65.7066	710.60
65.7210	704.51
65.7355	698.83
65.7499	691.97
65.7643	689.85
65.7788	675.12
65.7932	686.32
65.8077	635.04
65.8221	625.01
65.8365	627.20
65.8510	656.27
65.8654	686.54
65.8799	675.64
65.8943	632.05
65.9087	621.71
65.9232	630.30
65.9376	655.06
65.9521	614.73
65.9665	640.02
65.9809	639.00
65.9954	635.64
66.0098	646.81
66.0243	670.11
66.0387	641.73
66.0531	600.72
66.0676	643.19
66.0820	612.13
66.0965	613.06
66.1109	590.24
66.1253	644.42
66.1398	652.96
66.1542	632.25
66.1687	603.33
66.1831	594.84
66.1975	587.37
66.2120	571.38
66.2264	592.68
66.2409	640.03
66.2553	583.61
66.2697	597.46
66.2842	595.21
66.2986	597.57
66.3131	631.80
66.3275	608.98
66.3419	605.37
66.3564	603.16
66.3708	604.48
66.3853	590.72
66.3997	600.08
66.4141	596.55
66.4286	617.52
66.4430	590.75
66.4575	606.56
66.4719	613.13
66.4863	611.78
66.5008	610.49
66.5152	619.98
66.5297	593.45
66.5441	565.62
66.5585	610.94
66.5730	609.03
66.5874	635.00
66.6019	618.51
66.6163	584.02
66.6307	598.12
66.6452	594.78
66.6596	597.43
66.6741	573.87
66.6885	592.59
66.7029	590.04
66.7174	595.55
66.7318	563.03
66.7463	589.65
66.7607	600.96
66.7751	577.33
66.7896	608.02
66.8040	595.60
66.8185	604.33
66.8329	624.92
66.8473	602.55
66.8618	611.98
66.8762	606.36
66.8907	630.28
66.9051	597.53
66.9195	578.03
66.9340	581.32
66.9484	624.78
66.9629	594.39
66.9773	566.67
66.9917	552.54
67.0062	568.54
67.0206	596.90
67.0351	613.29
67.0495	604.25
67.0639	590.83
67.0784	589.35
67.0928	611.35
67.1073	619.14
67.1217	620.31
67.1361	583.71
67.1506	555.33
67.1650	559.08
67.1795	556.12
67.1939	594.00
67.2083	588.41
67.2228	572.17
67.2372	599.17
67.2517	601.31
67.2661	571.29
67.2805	612.17
67.2950	612.64
67.3094	572.60
67.3239	582.66
67.3383	615.30
67.3527	577.08
67.3672	593.72
67.3816	572.99
67.3961	550.55
67.4105	561.29
67.4250	564.09
67.4394	572.74
67.4538	576.16
67.4683	604.71
67.4827	595.18
67.4972	579.59
67.5116	600.03
67.5260	606.66
67.5405	575.88
67.5549	597.73
67.5694	603.96
67.5838	558.47
67.5982	578.26
67.6127	557.67
67.6271	560.96
67.6416	570.01
67.6560	591.11
67.6704	550.08
67.6849	555.93
67.6993	578.58
67.7138	579.95
67.7282	576.78
67.7426	575.37
67.7571	579.69
67.7715	569.39
67.7860	578.26
67.8004	582.09
67.8148	583.83
67.8293	578.27
67.8437	563.45
67.8582	555.06
67.8726	582.28
67.8870	569.34
67.9015	604.26
67.9159	595.18
67.9304	529.35
67.9448	594.59
67.9592	560.97
67.9737	563.69
67.9881	531.16
68.0026	570.91
68.0170	582.86
68.0314	579.38
68.0459	583.12
68.0603	563.18
68.0748	537.30
68.0892	581.08
68.1036	605.95
68.1181	593.94
68.1325	651.18
68.1470	578.78
68.1614	547.79
68.1758	567.48
68.1903	574.71
68.2047	570.69
68.2192	596.27
68.2336	580.18
68.2480	552.86
68.2625	573.44
68.2769	557.68
68.2914	570.97
68.3058	576.85
68.3202	579.70
68.3347	602.58
68.3491	574.78
68.3636	605.80
68.3780	584.47
68.3924	568.15
68.4069	587.23
68.4213	574.78
68.4358	549.91
68.4502	578.23
68.4646	582.92
68.4791	614.89
68.4935	599.23
68.5080	606.20
68.5224	585.04
68.5368	575.32
68.5513	575.12
68.5657	593.63
68.5802	560.74
68.5946	532.64
68.6090	581.25
68.6235	612.00
68.6379	567.53
68.6524	534.83
68.6668	579.18
68.6812	576.75
68.6957	558.59
68.7101	601.43
68.7246	571.46
68.7390	558.05
68.7534	521.73
68.7679	563.56
68.7823	547.70
68.7968	534.11
68.8112	583.38
68.8256	548.99
68.8401	569.94
68.8545	598.22
68.8690	582.65
68.8834	570.18
68.8978	538.17
68.9123	556.95
68.9267	575.18
68.9412	595.45
68.9556	587.30
68.9700	566.06
68.9845	630.03
68.9989	585.27
69.0134	558.82
69.0278	568.46
69.0422	594.62
69.0567	568.90
69.0711	586.99
69.0856	543.96
69.1000	621.76
69.1144	604.36
69.1289	592.88
69.1433	571.43
69.1578	605.52
69.1722	541.87
69.1866	568.10
69.2011	615.38
69.2155	630.50
69.2300	562.42
69.2444	560.26
69.2588	534.49
69.2733	538.29
69.2877	547.12
69.3022	534.28
69.3166	539.20
69.3310	545.62
69.3455	593.07
69.3599	589.11
69.3744	589.45
69.3888	547.74
69.4032	549.29
69.4177	573.11
69.4321	613.46
69.4466	578.72
69.4610	578.67
69.4754	599.69
69.4899	549.56
69.5043	551.43
69.5188	592.13
69.5332	569.66
69.5476	560.69
69.5621	593.62
69.5765	536.17
69.5910	613.76
69.6054	576.84
69.6198	521.52
69.6343	583.88
69.6487	635.77
69.6632	611.49
69.6776	608.85
69.6920	604.26
69.7065	575.73
69.7209	556.34
69.7354	538.35
69.7498	527.73
69.7642	546.98
69.7787	542.33
69.7931	580.80
69.8076	601.81
69.8220	625.48
69.8364	590.52
69.8509	600.36
69.8653	561.57
69.8798	545.72
69.8942	575.55
69.9086	617.03
69.9231	572.55
69.9375	556.21
69.9520	549.76
69.9664	567.77
69.9808	575.62
69.9953	572.65
70.0097	613.03
70.0242	588.47
70.0386	562.91
70.0530	599.04
70.0675	552.24
70.0819	591.26
70.0964	612.44
70.1108	540.51
70.1252	576.72
70.1397	547.77
70.1541	586.06
70.1686	576.47
70.1830	575.98
70.1974	552.81
70.2119	598.62
70.2263	567.18
70.2408	561.54
70.2552	544.19
70.2696	564.98
70.2841	544.50
70.2985	558.20
70.3130	550.31
70.3274	610.40
70.3418	618.61
70.3563	552.17
70.3707	542.55
70.3852	535.40
70.3996	517.17
70.4140	559.16
70.4285	599.81
70.4429	540.60
70.4574	563.48
70.4718	623.27
70.4862	628.62
70.5007	575.20
70.5151	563.82
70.5296	540.48
70.5440	555.70
70.5584	550.07
70.5729	578.63
70.5873	566.06
70.6018	534.20
70.6162	564.78
70.6306	548.24
70.6451	605.86
70.6595	529.45
70.6740	593.26
70.6884	566.10
70.7028	624.90
70.7173	636.45
70.7317	607.22
70.7462	571.70
70.7606	562.12
70.7750	585.77
70.7895	644.30
70.8039	651.60
70.8184	555.77
70.8328	591.60
70.8472	572.84
70.8617	576.69
70.8761	595.07
70.8906	599.72
70.9050	627.93
70.9194	572.21
70.9339	536.29
70.9483	593.72
70.9628	581.63
70.9772	575.55
70.9916	557.31
71.0061	555.35
71.0205	516.14
71.0350	537.20
71.0494	614.68
71.0638	617.01
71.0783	602.22
71.0927	593.63
71.1072	576.71
71.1216	528.99
71.1361	535.85
71.1505	552.04
71.1649	560.47
71.1794	625.44
71.1938	595.69
71.2083	567.36
71.2227	520.27
71.2371	501.32
71.2516	567.92
71.2660	524.45
71.2805	522.11
71.2949	614.76
71.3093	639.35
71.3238	557.82
71.3382	546.04
71.3527	562.30
71.3671	595.57
71.3815	584.36
71.3960	622.42
71.4104	649.53
71.4249	645.57
71.4393	606.76
71.4537	598.29
71.4682	590.98
71.4826	624.05
71.4971	628.01
71.5115	628.56
71.5259	601.99
71.5404	603.21
71.5548	604.81
71.5693	555.49
71.5837	511.76
71.5981	535.62
71.6126	589.77
71.6270	569.86
71.6415	625.72
71.6559	554.92
71.6703	557.25
71.6848	580.87
71.6992	592.07
71.7137	595.44
71.7281	559.36
71.7425	539.82
71.7570	560.79
71.7714	591.66
71.7859	556.67
71.8003	563.45
71.8147	597.14
71.8292	558.97
71.8436	553.33
71.8581	602.57
71.8725	606.55
71.8869	578.60
71.9014	560.95
71.9158	582.08
71.9303	561.31
71.9447	578.35
71.9591	565.16
71.9736	581.83
71.9880	606.26
72.0025	556.99
72.0169	549.59
72.0313	582.52
72.0458	554.63
72.0602	576.42
72.0747	595.99
72.0891	578.01
72.1035	579.77
72.1180	574.30
72.1324	644.10
72.1469	578.83
72.1613	496.07
72.1757	547.04
72.1902	599.04
72.2046	599.55
72.2191	580.83
72.2335	531.01
72.2479	522.36
72.2624	574.42
72.2768	602.62
72.2913	556.85
72.3057	523.20
72.3201	518.03
72.3346	561.54
72.3490	555.45
72.3635	578.86
72.3779	534.84
72.3923	544.27
72.4068	560.20
72.4212	563.59
72.4357	563.59
72.4501	533.04
72.4645	540.49
72.4790	587.19
72.4934	572.13
72.5079	569.76
72.5223	514.17
72.5367	543.33
72.5512	583.18
72.5656	544.50
72.5801	494.77
72.5945	560.91
72.6089	576.53
72.6234	506.26
72.6378	544.35
72.6523	582.10
72.6667	590.01
72.6811	560.91
72.6956	539.68
72.7100	561.26
72.7245	585.87
72.7389	661.90
72.7533	685.07
72.7678	641.77
72.7822	636.01
72.7967	623.24
72.8111	609.60
72.8255	640.06
72.8400	642.16
72.8544	618.39
72.8689	651.72
72.8833	567.04