2022.09.19 19:37:17
Îáðàçåö: ß÷åéêà LCoV 16-09-2022
Lambda1 = 1.54060
Lambda2 = 1.54439
Lambdam = 1.54186
R = 0.497
2Theta	I

line¹ 0 ;repeat¹ 0
22.1120	441.46
22.1264	499.30
22.1409	495.87
22.1553	582.55
22.1697	504.42
22.1842	593.18
22.1986	517.18
22.2131	562.06
22.2275	594.66
22.2419	666.70
22.2564	574.31
22.2708	549.81
22.2853	562.80
22.2997	558.30
22.3141	618.36
22.3286	578.97
22.3430	613.41
22.3575	567.75
22.3719	541.83
22.3863	612.58
22.4008	542.20
22.4152	663.65
22.4297	644.49
22.4441	638.35
22.4585	576.63
22.4730	599.22
22.4874	617.73
22.5019	571.88
22.5163	648.89
22.5307	550.09
22.5452	557.31
22.5596	484.41
22.5741	587.03
22.5885	635.82
22.6029	538.19
22.6174	641.08
22.6318	622.04
22.6463	614.95
22.6607	660.56
22.6751	621.61
22.6896	624.15
22.7040	536.33
22.7185	534.62
22.7329	530.97
22.7473	563.40
22.7618	552.26
22.7762	569.34
22.7907	559.03
22.8051	564.34
22.8195	642.20
22.8340	559.12
22.8484	559.67
22.8629	628.07
22.8773	562.14
22.8917	598.24
22.9062	669.97
22.9206	524.77
22.9351	527.66
22.9495	537.57
22.9639	595.02
22.9784	651.07
22.9928	643.67
23.0073	522.76
23.0217	600.72
23.0361	631.02
23.0506	638.56
23.0650	596.28
23.0795	516.21
23.0939	522.77
23.1083	574.83
23.1228	577.46
23.1372	549.66
23.1517	497.27
23.1661	557.59
23.1806	589.84
23.1950	555.00
23.2094	616.80
23.2239	557.88
23.2383	590.11
23.2528	603.29
23.2672	519.16
23.2816	538.93
23.2961	514.41
23.3105	603.02
23.3250	548.00
23.3394	498.38
23.3538	542.94
23.3683	576.44
23.3827	521.03
23.3972	527.03
23.4116	540.62
23.4260	586.65
23.4405	622.38
23.4549	553.04
23.4694	597.18
23.4838	550.34
23.4982	544.54
23.5127	543.60
23.5271	588.27
23.5416	564.65
23.5560	525.69
23.5704	608.55
23.5849	568.92
23.5993	589.41
23.6138	581.50
23.6282	524.20
23.6426	516.16
23.6571	556.57
23.6715	509.17
23.6860	565.49
23.7004	558.77
23.7148	543.72
23.7293	553.67
23.7437	583.91
23.7582	591.59
23.7726	550.98
23.7870	524.44
23.8015	552.95
23.8159	512.30
23.8304	505.03
23.8448	582.55
23.8592	600.27
23.8737	591.43
23.8881	590.08
23.9026	508.61
23.9170	521.31
23.9314	585.29
23.9459	578.04
23.9603	550.33
23.9748	584.74
23.9892	550.52
24.0036	564.35
24.0181	579.78
24.0325	584.44
24.0470	538.35
24.0614	601.83
24.0758	513.89
24.0903	525.89
24.1047	544.98
24.1192	589.84
24.1336	564.05
24.1480	572.96
24.1625	611.23
24.1769	609.48
24.1914	623.86
24.2058	600.60
24.2202	526.97
24.2347	553.60
24.2491	597.98
24.2636	504.60
24.2780	608.00
24.2924	537.87
24.3069	506.99
24.3213	533.06
24.3358	548.16
24.3502	559.47
24.3646	564.68
24.3791	545.01
24.3935	519.29
24.4080	510.20
24.4224	560.55
24.4368	534.45
24.4513	528.94
24.4657	572.91
24.4802	527.84
24.4946	545.90
24.5090	570.96
24.5235	596.65
24.5379	585.07
24.5524	581.18
24.5668	560.09
24.5812	628.01
24.5957	601.54
24.6101	590.70
24.6246	558.33
24.6390	552.02
24.6534	585.87
24.6679	546.73
24.6823	509.06
24.6968	551.76
24.7112	542.43
24.7256	535.15
24.7401	507.62
24.7545	554.88
24.7690	541.66
24.7834	637.52
24.7978	537.60
24.8123	591.37
24.8267	557.67
24.8412	570.48
24.8556	590.25
24.8700	555.49
24.8845	550.02
24.8989	569.35
24.9134	535.24
24.9278	557.52
24.9422	535.47
24.9567	574.96
24.9711	558.26
24.9856	541.89
25.0000	573.07
25.0144	526.57
25.0289	520.46
25.0433	567.53
25.0578	629.42
25.0722	582.25
25.0866	573.46
25.1011	558.06
25.1155	577.83
25.1300	578.42
25.1444	553.55
25.1588	536.41
25.1733	583.52
25.1877	499.04
25.2022	543.17
25.2166	543.04
25.2310	552.51
25.2455	519.77
25.2599	549.41
25.2744	555.71
25.2888	581.23
25.3032	535.74
25.3177	549.08
25.3321	521.74
25.3466	527.64
25.3610	538.55
25.3754	524.22
25.3899	511.71
25.4043	524.46
25.4188	564.98
25.4332	569.92
25.4476	546.31
25.4621	529.39
25.4765	528.76
25.4910	529.95
25.5054	543.75
25.5198	516.87
25.5343	537.26
25.5487	500.28
25.5632	561.55
25.5776	563.30
25.5920	519.90
25.6065	541.74
25.6209	531.96
25.6354	530.53
25.6498	537.44
25.6642	540.06
25.6787	559.23
25.6931	590.62
25.7076	559.60
25.7220	562.52
25.7364	558.14
25.7509	549.54
25.7653	534.64
25.7798	517.27
25.7942	512.34
25.8086	501.71
25.8231	503.95
25.8375	530.77
25.8520	570.57
25.8664	568.28
25.8808	518.38
25.8953	545.07
25.9097	568.81
25.9242	557.84
25.9386	549.84
25.9530	512.14
25.9675	519.14
25.9819	505.44
25.9964	525.21
26.0108	525.49
26.0252	543.28
26.0397	522.96
26.0541	543.29
26.0686	529.18
26.0830	607.02
26.0974	533.50
26.1119	544.92
26.1263	566.43
26.1408	541.74
26.1552	525.25
26.1696	526.36
26.1841	550.28
26.1985	552.77
26.2130	555.28
26.2274	556.87
26.2418	551.27
26.2563	518.19
26.2707	517.92
26.2852	551.63
26.2996	522.27
26.3140	501.50
26.3285	540.40
26.3429	548.59
26.3574	564.75
26.3718	553.29
26.3862	506.20
26.4007	522.39
26.4151	520.80
26.4296	540.59
26.4440	528.17
26.4584	500.37
26.4729	527.09
26.4873	522.91
26.5018	554.67
26.5162	585.37
26.5306	563.30
26.5451	568.94
26.5595	520.59
26.5740	499.71
26.5884	551.69
26.6028	548.11
26.6173	536.89
26.6317	547.81
26.6462	536.57
26.6606	533.92
26.6750	543.80
26.6895	522.71
26.7039	536.88
26.7184	553.19
26.7328	536.86
26.7472	526.47
26.7617	510.61
26.7761	546.50
26.7906	559.71
26.8050	515.09
26.8194	486.49
26.8339	498.20
26.8483	534.20
26.8628	521.09
26.8772	518.74
26.8917	529.96
26.9061	542.82
26.9205	551.77
26.9350	532.73
26.9494	520.81
26.9639	536.66
26.9783	495.49
26.9927	537.72
27.0072	558.05
27.0216	552.49
27.0361	527.75
27.0505	530.87
27.0649	515.47
27.0794	516.97
27.0938	533.23
27.1083	510.80
27.1227	527.29
27.1371	505.45
27.1516	485.67
27.1660	517.18
27.1805	520.95
27.1949	530.69
27.2093	492.72
27.2238	534.35
27.2382	532.87
27.2527	543.27
27.2671	543.33
27.2815	521.90
27.2960	521.88
27.3104	520.97
27.3249	524.85
27.3393	500.33
27.3537	519.19
27.3682	515.93
27.3826	542.87
27.3971	510.75
27.4115	519.20
27.4259	564.44
27.4404	519.94
27.4548	478.64
27.4693	534.16
27.4837	532.19
27.4981	565.10
27.5126	555.69
27.5270	510.61
27.5415	516.64
27.5559	517.93
27.5703	491.08
27.5848	500.13
27.5992	507.07
27.6137	504.68
27.6281	499.82
27.6425	504.50
27.6570	508.58
27.6714	501.37
27.6859	507.58
27.7003	537.91
27.7147	549.98
27.7292	534.67
27.7436	491.08
27.7581	514.41
27.7725	533.26
27.7869	492.42
27.8014	523.14
27.8158	552.14
27.8303	495.76
27.8447	521.10
27.8591	534.00
27.8736	533.69
27.8880	490.81
27.9025	521.27
27.9169	509.96
27.9313	540.39
27.9458	493.67
27.9602	511.04
27.9747	499.77
27.9891	502.88
28.0035	518.16
28.0180	508.21
28.0324	536.42
28.0469	541.66
28.0613	539.04
28.0757	521.27
28.0902	517.90
28.1046	501.54
28.1191	512.48
28.1335	528.40
28.1479	508.76
28.1624	530.90
28.1768	478.25
28.1913	493.22
28.2057	512.81
28.2201	516.84
28.2346	506.11
28.2490	523.73
28.2635	501.39
28.2779	532.16
28.2923	543.23
28.3068	523.47
28.3212	500.86
28.3357	526.53
28.3501	545.36
28.3645	533.72
28.3790	527.39
28.3934	513.09
28.4079	491.37
28.4223	513.86
28.4367	541.76
28.4512	529.00
28.4656	520.47
28.4801	534.20
28.4945	521.77
28.5089	484.51
28.5234	537.06
28.5378	539.00
28.5523	541.17
28.5667	502.76
28.5811	501.31
28.5956	492.17
28.6100	505.66
28.6245	503.93
28.6389	513.43
28.6533	508.90
28.6678	507.86
28.6822	515.93
28.6967	536.60
28.7111	522.11
28.7255	526.63
28.7400	521.82
28.7544	529.33
28.7689	539.65
28.7833	510.48
28.7977	489.52
28.8122	522.60
28.8266	503.82
28.8411	540.86
28.8555	499.70
28.8699	544.75
28.8844	501.27
28.8988	473.61
28.9133	504.07
28.9277	507.85
28.9421	503.42
28.9566	486.43
28.9710	463.07
28.9855	522.68
28.9999	518.25
29.0143	474.40
29.0288	496.31
29.0432	499.92
29.0577	503.44
29.0721	497.76
29.0865	510.34
29.1010	545.17
29.1154	514.96
29.1299	493.32
29.1443	464.31
29.1587	498.54
29.1732	510.74
29.1876	520.41
29.2021	524.87
29.2165	510.11
29.2309	487.10
29.2454	504.74
29.2598	507.26
29.2743	514.62
29.2887	489.89
29.3031	501.65
29.3176	491.74
29.3320	526.31
29.3465	513.62
29.3609	517.83
29.3753	506.23
29.3898	503.95
29.4042	498.93
29.4187	504.60
29.4331	510.37
29.4475	511.53
29.4620	522.02
29.4764	524.25
29.4909	522.42
29.5053	491.01
29.5197	529.92
29.5342	532.87
29.5486	513.54
29.5631	544.18
29.5775	512.96
29.5919	501.37
29.6064	517.08
29.6208	535.81
29.6353	510.14
29.6497	492.39
29.6641	492.65
29.6786	478.04
29.6930	485.51
29.7075	511.17
29.7219	556.30
29.7363	491.80
29.7508	519.54
29.7652	535.85
29.7797	502.55
29.7941	535.99
29.8085	506.96
29.8230	522.12
29.8374	519.64
29.8519	498.66
29.8663	541.18
29.8807	536.65
29.8952	504.98
29.9096	504.05
29.9241	487.88
29.9385	522.49
29.9529	492.01
29.9674	507.04
29.9818	524.36
29.9963	539.69
30.0107	532.22
30.0251	521.79
30.0396	464.37
30.0540	493.68
30.0685	495.75
30.0829	505.61
30.0973	522.75
30.1118	517.97
30.1262	536.12
30.1407	504.46
30.1551	486.70
30.1695	529.83
30.1840	516.65
30.1984	524.50
30.2129	514.84
30.2273	481.40
30.2417	489.61
30.2562	506.57
30.2706	492.34
30.2851	482.07
30.2995	507.76
30.3139	514.66
30.3284	510.43
30.3428	514.76
30.3573	508.28
30.3717	505.87
30.3861	486.62
30.4006	510.53
30.4150	502.32
30.4295	517.65
30.4439	466.59
30.4583	515.85
30.4728	531.58
30.4872	481.70
30.5017	506.25
30.5161	533.39
30.5305	516.15
30.5450	517.61
30.5594	510.46
30.5739	517.25
30.5883	527.05
30.6028	541.93
30.6172	507.23
30.6316	509.26
30.6461	498.90
30.6605	556.45
30.6750	553.05
30.6894	575.51
30.7038	608.63
30.7183	571.73
30.7327	545.43
30.7472	591.81
30.7616	614.21
30.7760	639.91
30.7905	634.25
30.8049	649.31
30.8194	701.64
30.8338	668.55
30.8482	650.87
30.8627	688.41
30.8771	669.52
30.8916	683.44
30.9060	702.70
30.9204	630.77
30.9349	631.40
30.9493	612.02
30.9638	625.13
30.9782	636.49
30.9926	623.84
31.0071	577.67
31.0215	557.31
31.0360	540.89
31.0504	561.78
31.0648	581.15
31.0793	552.09
31.0937	545.51
31.1082	533.22
31.1226	573.13
31.1370	530.68
31.1515	529.74
31.1659	528.45
31.1804	521.69
31.1948	534.05
31.2092	510.92
31.2237	519.50
31.2381	526.27
31.2526	546.66
31.2670	545.50
31.2814	558.89
31.2959	538.25
31.3103	521.22
31.3248	529.62
31.3392	548.26
31.3536	547.76
31.3681	533.79
31.3825	521.16
31.3970	505.71
31.4114	512.94
31.4258	509.83
31.4403	529.18
31.4547	546.57
31.4692	529.47
31.4836	518.87
31.4980	509.16
31.5125	493.66
31.5269	522.64
31.5414	514.23
31.5558	520.39
31.5702	496.23
31.5847	492.04
31.5991	505.81
31.6136	503.96
31.6280	478.23
31.6424	484.77
31.6569	486.32
31.6713	488.90
31.6858	511.45
31.7002	511.25
31.7146	506.64
31.7291	486.81
31.7435	485.64
31.7580	489.41
31.7724	513.53
31.7868	514.42
31.8013	490.44
31.8157	495.25
31.8302	508.93
31.8446	526.60
31.8590	546.09
31.8735	537.26
31.8879	508.80
31.9024	505.79
31.9168	510.05
31.9312	515.42
31.9457	505.39
31.9601	518.70
31.9746	504.87
31.9890	511.54
32.0034	501.47
32.0179	524.88
32.0323	501.39
32.0468	471.43
32.0612	507.61
32.0756	551.24
32.0901	546.76
32.1045	494.79
32.1190	485.64
32.1334	512.55
32.1478	518.42
32.1623	523.51
32.1767	482.99
32.1912	509.79
32.2056	500.15
32.2200	522.28
32.2345	507.95
32.2489	489.83
32.2634	532.69
32.2778	541.20
32.2922	497.05
32.3067	487.54
32.3211	490.02
32.3356	488.90
32.3500	505.37
32.3644	492.54
32.3789	514.07
32.3933	507.70
32.4078	521.04
32.4222	520.43
32.4366	502.51
32.4511	472.98
32.4655	473.17
32.4800	504.08
32.4944	527.18
32.5088	476.05
32.5233	496.24
32.5377	501.94
32.5522	499.40
32.5666	494.88
32.5810	524.03
32.5955	491.05
32.6099	470.34
32.6244	499.52
32.6388	527.19
32.6532	506.39
32.6677	502.96
32.6821	509.55
32.6966	518.07
32.7110	499.30
32.7254	532.88
32.7399	493.86
32.7543	501.66
32.7688	495.17
32.7832	486.24
32.7976	482.18
32.8121	497.82
32.8265	519.84
32.8410	505.82
32.8554	515.35
32.8698	502.00
32.8843	524.97
32.8987	493.57
32.9132	505.57
32.9276	488.02
32.9420	507.63
32.9565	497.96
32.9709	531.93
32.9854	524.31
32.9998	524.69
33.0142	512.28
33.0287	506.73
33.0431	494.57
33.0576	525.48
33.0720	550.86
33.0864	533.62
33.1009	485.07
33.1153	550.69
33.1298	509.79
33.1442	492.13
33.1586	507.23
33.1731	530.65
33.1875	518.23
33.2020	490.95
33.2164	493.54
33.2308	501.80
33.2453	513.70
33.2597	487.95
33.2742	505.71
33.2886	468.96
33.3030	512.58
33.3175	513.63
33.3319	494.18
33.3464	497.48
33.3608	507.11
33.3752	491.34
33.3897	503.96
33.4041	501.75
33.4186	518.61
33.4330	530.02
33.4474	464.99
33.4619	476.36
33.4763	514.32
33.4908	525.61
33.5052	522.45
33.5196	489.02
33.5341	508.08
33.5485	492.58
33.5630	510.57
33.5774	500.49
33.5918	495.17
33.6063	473.05
33.6207	492.46
33.6352	520.06
33.6496	493.48
33.6640	512.66
33.6785	490.93
33.6929	521.87
33.7074	541.44
33.7218	488.40
33.7362	489.50
33.7507	542.98
33.7651	512.23
33.7796	486.97
33.7940	473.26
33.8084	528.40
33.8229	496.86
33.8373	528.28
33.8518	496.96
33.8662	483.33
33.8806	465.63
33.8951	498.21
33.9095	524.02
33.9240	514.12
33.9384	504.98
33.9528	501.97
33.9673	479.22
33.9817	487.44
33.9962	506.59
34.0106	515.84
34.0250	507.71
34.0395	473.34
34.0539	472.09
34.0684	513.07
34.0828	505.15
34.0972	523.45
34.1117	509.22
34.1261	523.35
34.1406	490.45
34.1550	504.32
34.1694	520.62
34.1839	495.13
34.1983	502.76
34.2128	509.39
34.2272	517.39
34.2417	519.58
34.2561	531.25
34.2705	524.42
34.2850	513.23
34.2994	492.38
34.3139	496.47
34.3283	505.16
34.3427	504.42
34.3572	506.82
34.3716	482.75
34.3861	500.43
34.4005	515.65
34.4149	524.10
34.4294	499.27
34.4438	501.78
34.4583	494.97
34.4727	526.32
34.4871	508.08
34.5016	513.97
34.5160	512.29
34.5305	505.33
34.5449	515.08
34.5593	460.91
34.5738	476.16
34.5882	508.90
34.6027	504.98
34.6171	493.90
34.6315	527.81
34.6460	521.46
34.6604	486.20
34.6749	511.62
34.6893	512.82
34.7037	524.48
34.7182	492.87
34.7326	510.32
34.7471	490.05
34.7615	497.00
34.7759	497.48
34.7904	503.23
34.8048	483.17
34.8193	489.26
34.8337	531.35
34.8481	506.82
34.8626	524.79
34.8770	529.52
34.8915	531.01
34.9059	527.49
34.9203	499.50
34.9348	496.54
34.9492	504.61
34.9637	490.95
34.9781	494.45
34.9925	491.20
35.0070	521.27
35.0214	507.46
35.0359	496.74
35.0503	500.21
35.0647	516.89
35.0792	533.18
35.0936	550.55
35.1081	512.49
35.1225	498.98
35.1369	530.82
35.1514	519.68
35.1658	530.44
35.1803	481.29
35.1947	522.15
35.2091	548.49
35.2236	491.50
35.2380	515.85
35.2525	533.11
35.2669	516.02
35.2813	484.21
35.2958	468.12
35.3102	504.24
35.3247	534.37
35.3391	522.54
35.3535	527.23
35.3680	526.13
35.3824	508.32
35.3969	505.41
35.4113	510.11
35.4257	505.09
35.4402	522.32
35.4546	494.22
35.4691	567.53
35.4835	562.37
35.4979	509.38
35.5124	512.85
35.5268	524.10
35.5413	550.60
35.5557	571.79
35.5701	528.88
35.5846	529.74
35.5990	523.41
35.6135	521.19
35.6279	538.87
35.6423	548.96
35.6568	515.76
35.6712	535.18
35.6857	589.11
35.7001	710.50
35.7145	725.50
35.7290	669.45
35.7434	671.59
35.7579	601.98
35.7723	628.68
35.7867	660.55
35.8012	658.97
35.8156	682.98
35.8301	617.98
35.8445	560.78
35.8589	604.09
35.8734	718.96
35.8878	896.31
35.9023	983.43
35.9167	1048.43
35.9311	1425.87
35.9456	2104.96
35.9600	2324.83
35.9745	1955.65
35.9889	1935.84
36.0033	2519.51
36.0178	2910.07
36.0322	2292.72
36.0467	1897.65
36.0611	1671.64
36.0755	1565.33
36.0900	1598.08
36.1044	1334.71
36.1189	1423.35
36.1333	1262.42
36.1477	1093.69
36.1622	1020.59
36.1766	955.31
36.1911	912.63
36.2055	811.37
36.2199	834.72
36.2344	845.37
36.2488	860.24
36.2633	844.48
36.2777	862.86
36.2921	867.77
36.3066	900.80
36.3210	905.85
36.3355	982.79
36.3499	957.23
36.3643	972.24
36.3788	964.48
36.3932	920.89
36.4077	831.38
36.4221	839.49
36.4365	809.31
36.4510	749.96
36.4654	772.10
36.4799	764.45
36.4943	687.20
36.5087	660.02
36.5232	660.25
36.5376	652.09
36.5521	658.72
36.5665	610.86
36.5809	559.35
36.5954	573.55
36.6098	535.58
36.6243	541.56
36.6387	565.14
36.6531	592.62
36.6676	559.88
36.6820	571.82
36.6965	552.11
36.7109	505.86
36.7253	560.44
36.7398	532.05
36.7542	536.87
36.7687	535.11
36.7831	582.17
36.7975	564.88
36.8120	581.41
36.8264	581.17
36.8409	615.08
36.8553	596.36
36.8697	590.67
36.8842	576.42
36.8986	617.28
36.9131	624.55
36.9275	612.34
36.9419	576.41
36.9564	552.60
36.9708	605.54
36.9853	556.81
36.9997	562.24
37.0141	530.01
37.0286	580.69
37.0430	528.52
37.0575	532.44
37.0719	572.54
37.0863	565.95
37.1008	514.96
37.1152	539.96
37.1297	540.44
37.1441	472.65
37.1585	489.38
37.1730	511.48
37.1874	531.44
37.2019	515.82
37.2163	518.98
37.2307	504.47
37.2452	521.36
37.2596	506.97
37.2741	506.35
37.2885	503.94
37.3029	508.75
37.3174	458.34
37.3318	505.98
37.3463	524.74
37.3607	516.98
37.3751	505.32
37.3896	483.49
37.4040	478.74
37.4185	512.18
37.4329	490.37
37.4473	481.98
37.4618	492.06
37.4762	477.04
37.4907	527.42
37.5051	514.04
37.5195	511.64
37.5340	497.75
37.5484	484.93
37.5629	459.54
37.5773	506.19
37.5917	488.48
37.6062	488.12
37.6206	518.51
37.6351	498.35
37.6495	491.30
37.6639	534.62
37.6784	522.26
37.6928	475.56
37.7073	497.00
37.7217	506.08
37.7361	507.71
37.7506	505.66
37.7650	511.12
37.7795	512.98
37.7939	502.48
37.8083	488.33
37.8228	525.78
37.8372	498.69
37.8517	501.95
37.8661	522.43
37.8805	500.61
37.8950	495.98
37.9094	550.71
37.9239	514.33
37.9383	513.98
37.9528	481.15
37.9672	516.73
37.9816	518.07
37.9961	526.56
38.0105	546.72
38.0250	525.18
38.0394	500.56
38.0538	485.45
38.0683	510.49
38.0827	513.61
38.0972	503.20
38.1116	498.23
38.1260	519.34
38.1405	499.79
38.1549	492.94
38.1694	514.58
38.1838	517.37
38.1982	521.04
38.2127	496.64
38.2271	499.52
38.2416	519.04
38.2560	504.21
38.2704	493.23
38.2849	498.67
38.2993	519.13
38.3138	538.03
38.3282	508.13
38.3426	523.82
38.3571	515.83
38.3715	562.43
38.3860	563.14
38.4004	524.85
38.4148	539.12
38.4293	561.63
38.4437	570.80
38.4582	605.65
38.4726	672.29
38.4870	670.97
38.5015	668.04
38.5159	750.11
38.5304	790.91
38.5448	770.13
38.5592	802.42
38.5737	728.79
38.5881	742.44
38.6026	723.41
38.6170	687.63
38.6314	706.97
38.6459	681.19
38.6603	649.14
38.6748	626.68
38.6892	596.03
38.7036	581.98
38.7181	580.26
38.7325	536.48
38.7470	534.06
38.7614	531.53
38.7758	546.68
38.7903	515.13
38.8047	492.32
38.8192	527.75
38.8336	487.89
38.8480	506.73
38.8625	535.87
38.8769	528.00
38.8914	512.12
38.9058	506.26
38.9202	500.92
38.9347	514.32
38.9491	507.33
38.9636	496.81
38.9780	509.93
38.9924	501.37
39.0069	491.28
39.0213	500.89
39.0358	509.04
39.0502	480.48
39.0646	508.79
39.0791	483.64
39.0935	481.93
39.1080	510.54
39.1224	503.26
39.1368	503.19
39.1513	485.14
39.1657	481.70
39.1802	500.33
39.1946	522.36
39.2090	513.56
39.2235	503.36
39.2379	473.63
39.2524	508.46
39.2668	515.87
39.2812	518.44
39.2957	510.86
39.3101	512.40
39.3246	515.57
39.3390	495.81
39.3534	502.98
39.3679	512.59
39.3823	488.14
39.3968	473.30
39.4112	489.32
39.4256	500.61
39.4401	515.88
39.4545	526.57
39.4690	524.43
39.4834	527.03
39.4978	524.05
39.5123	476.03
39.5267	501.54
39.5412	502.05
39.5556	498.61
39.5700	523.91
39.5845	537.27
39.5989	477.69
39.6134	491.19
39.6278	488.16
39.6422	487.82
39.6567	521.24
39.6711	491.60
39.6856	498.90
39.7000	488.47
39.7144	515.41
39.7289	476.40
39.7433	520.52
39.7578	500.71
39.7722	493.24
39.7866	477.82
39.8011	504.21
39.8155	530.87
39.8300	527.37
39.8444	510.33
39.8588	520.60
39.8733	506.24
39.8877	480.92
39.9022	534.97
39.9166	499.54
39.9310	493.10
39.9455	478.94
39.9599	464.78
39.9744	469.28
39.9888	505.46
40.0032	492.41
40.0177	531.44
40.0321	489.58
40.0466	479.31
40.0610	491.19
40.0754	488.80
40.0899	530.91
40.1043	520.41
40.1188	495.47
40.1332	515.72
40.1476	464.94
40.1621	501.45
40.1765	495.00
40.1910	460.93
40.2054	497.56
40.2198	507.54
40.2343	507.57
40.2487	488.20
40.2632	515.00
40.2776	538.63
40.2920	518.13
40.3065	496.90
40.3209	497.59
40.3354	477.71
40.3498	511.53
40.3642	475.72
40.3787	456.41
40.3931	507.52
40.4076	522.29
40.4220	488.26
40.4364	519.08
40.4509	503.63
40.4653	519.77
40.4798	484.47
40.4942	474.55
40.5086	479.68
40.5231	491.87
40.5375	523.73
40.5520	489.37
40.5664	475.40
40.5808	528.94
40.5953	532.04
40.6097	519.78
40.6242	487.01
40.6386	490.87
40.6530	477.60
40.6675	499.14
40.6819	519.04
40.6964	501.64
40.7108	462.88
40.7252	513.62
40.7397	501.61
40.7541	532.46
40.7686	506.12
40.7830	489.52
40.7974	501.81
40.8119	500.89
40.8263	487.28
40.8408	499.92
40.8552	498.43
40.8696	514.37
40.8841	476.76
40.8985	509.46
40.9130	489.04
40.9274	473.66
40.9418	492.37
40.9563	497.63
40.9707	497.69
40.9852	507.52
40.9996	463.62
41.0140	480.41
41.0285	530.68
41.0429	494.38
41.0574	500.40
41.0718	489.72
41.0862	510.35
41.1007	508.84
41.1151	508.84
41.1296	522.41
41.1440	489.91
41.1584	521.38
41.1729	528.08
41.1873	515.76
41.2018	484.51
41.2162	487.11
41.2306	473.54
41.2451	457.68
41.2595	494.05
41.2740	533.17
41.2884	466.94
41.3028	489.32
41.3173	488.32
41.3317	493.33
41.3462	485.29
41.3606	519.16
41.3750	488.95
41.3895	510.90
41.4039	485.95
41.4184	493.24
41.4328	522.50
41.4472	501.87
41.4617	525.38
41.4761	487.73
41.4906	485.48
41.5050	496.25
41.5194	494.91
41.5339	489.50
41.5483	541.01
41.5628	498.10
41.5772	504.57
41.5916	530.38
41.6061	515.99
41.6205	486.21
41.6350	505.57
41.6494	496.87
41.6639	481.88
41.6783	495.43
41.6927	509.56
41.7072	506.45
41.7216	536.09
41.7361	505.18
41.7505	509.10
41.7649	503.88
41.7794	482.09
41.7938	500.35
41.8083	482.04
41.8227	487.19
41.8371	476.53
41.8516	484.59
41.8660	532.45
41.8805	517.00
41.8949	542.65
41.9093	505.09
41.9238	517.12
41.9382	560.78
41.9527	524.35
41.9671	516.85
41.9815	522.06
41.9960	577.23
42.0104	572.12
42.0249	564.71
42.0393	563.34
42.0537	562.97
42.0682	577.64
42.0826	560.19
42.0971	631.54
42.1115	593.87
42.1259	583.90
42.1404	567.66
42.1548	611.69
42.1693	651.85
42.1837	717.89
42.1981	737.44
42.2126	875.20
42.2270	985.44
42.2415	1130.40
42.2559	1247.78
42.2703	1340.57
42.2848	1478.58
42.2992	1603.93
42.3137	1697.51
42.3281	1663.30
42.3425	1581.93
42.3570	1475.46
42.3714	1447.76
42.3859	1375.65
42.4003	1340.52
42.4147	1330.79
42.4292	1337.86
42.4436	1171.92
42.4581	1045.08
42.4725	936.56
42.4869	847.38
42.5014	733.03
42.5158	709.63
42.5303	689.03
42.5447	628.98
42.5591	585.34
42.5736	560.25
42.5880	567.32
42.6025	603.93
42.6169	574.20
42.6313	527.03
42.6458	540.05
42.6602	534.30
42.6747	530.88
42.6891	517.39
42.7035	503.60
42.7180	502.54
42.7324	518.25
42.7469	500.44
42.7613	497.67
42.7757	476.47
42.7902	513.63
42.8046	519.73
42.8191	505.95
42.8335	518.03
42.8479	541.74
42.8624	545.27
42.8768	520.03
42.8913	498.02
42.9057	499.61
42.9201	510.87
42.9346	528.43
42.9490	499.55
42.9635	492.13
42.9779	523.12
42.9923	541.68
43.0068	524.18
43.0212	508.21
43.0357	515.61
43.0501	507.75
43.0645	517.90
43.0790	514.14
43.0934	535.80
43.1079	530.77
43.1223	512.35
43.1367	492.92
43.1512	476.88
43.1656	523.48
43.1801	538.14
43.1945	471.80
43.2089	527.28
43.2234	527.52
43.2378	556.76
43.2523	548.95
43.2667	531.06
43.2811	517.40
43.2956	501.74
43.3100	536.28
43.3245	512.68
43.3389	538.10
43.3533	502.35
43.3678	506.18
43.3822	533.44
43.3967	508.01
43.4111	479.84
43.4255	564.67
43.4400	561.46
43.4544	516.28
43.4689	530.24
43.4833	551.89
43.4977	522.33
43.5122	523.70
43.5266	506.38
43.5411	531.70
43.5555	537.90
43.5699	514.33
43.5844	536.86
43.5988	507.49
43.6133	516.79
43.6277	538.36
43.6421	530.65
43.6566	519.14
43.6710	496.94
43.6855	503.83
43.6999	509.59
43.7143	519.27
43.7288	532.17
43.7432	510.17
43.7577	525.69
43.7721	515.48
43.7865	517.29
43.8010	540.29
43.8154	530.57
43.8299	543.89
43.8443	506.58
43.8587	518.96
43.8732	550.47
43.8876	509.58
43.9021	545.88
43.9165	512.43
43.9309	522.98
43.9454	548.38
43.9598	531.96
43.9743	539.14
43.9887	498.65
44.0031	501.59
44.0176	552.47
44.0320	537.67
44.0465	515.58
44.0609	564.13
44.0753	563.30
44.0898	588.24
44.1042	585.86
44.1187	595.45
44.1331	575.73
44.1475	600.20
44.1620	641.27
44.1764	643.06
44.1909	616.41
44.2053	590.13
44.2197	619.18
44.2342	597.08
44.2486	605.39
44.2631	541.44
44.2775	598.80
44.2919	571.92
44.3064	570.07
44.3208	620.97
44.3353	624.76
44.3497	589.92
44.3641	589.23
44.3786	575.47
44.3930	561.74
44.4075	525.14
44.4219	569.06
44.4363	601.75
44.4508	580.57
44.4652	589.37
44.4797	585.14
44.4941	565.86
44.5085	555.19
44.5230	562.78
44.5374	558.33
44.5519	591.51
44.5663	603.36
44.5807	615.44
44.5952	575.90
44.6096	585.20
44.6241	549.72
44.6385	584.89
44.6529	588.13
44.6674	590.53
44.6818	581.48
44.6963	612.38
44.7107	637.55
44.7251	639.98
44.7396	728.19
44.7540	791.90
44.7685	830.66
44.7829	872.53
44.7973	853.62
44.8118	825.64
44.8262	809.93
44.8407	784.06
44.8551	722.38
44.8695	735.20
44.8840	725.72
44.8984	740.34
44.9129	673.83
44.9273	665.59
44.9417	617.42
44.9562	594.37
44.9706	589.88
44.9851	576.53
44.9995	558.85
45.0139	500.25
45.0284	540.39
45.0428	518.68
45.0573	541.88
45.0717	490.20
45.0861	521.57
45.1006	487.80
45.1150	503.75
45.1295	520.33
45.1439	475.47
45.1583	494.99
45.1728	558.42
45.1872	502.18
45.2017	481.66
45.2161	528.87
45.2305	545.68
45.2450	516.52
45.2594	509.75
45.2739	507.10
45.2883	485.80
45.3028	499.98
45.3172	492.66
45.3316	478.31
45.3461	506.44
45.3605	481.43
45.3750	478.07
45.3894	499.11
45.4038	518.06
45.4183	529.44
45.4327	536.56
45.4472	477.48
45.4616	489.28
45.4760	487.03
45.4905	508.62
45.5049	498.12
45.5194	510.57
45.5338	532.13
45.5482	515.35
45.5627	525.11
45.5771	520.20
45.5916	458.02
45.6060	502.07
45.6204	488.00
45.6349	537.06
45.6493	537.02
45.6638	573.66
45.6782	501.84
45.6926	501.71
45.7071	517.67
45.7215	524.33
45.7360	491.44
45.7504	520.84
45.7648	517.16
45.7793	479.58
45.7937	490.55
45.8082	494.32
45.8226	491.23
45.8370	530.90
45.8515	509.81
45.8659	506.59
45.8804	492.66
45.8948	520.19
45.9092	526.30
45.9237	520.98
45.9381	511.21
45.9526	475.64
45.9670	523.39
45.9814	546.84
45.9959	504.00
46.0103	500.42
46.0248	481.98
46.0392	507.29
46.0536	513.29
46.0681	493.15
46.0825	492.71
46.0970	492.74
46.1114	520.21
46.1258	535.95
46.1403	506.43
46.1547	494.51
46.1692	514.04
46.1836	504.63
46.1980	505.20
46.2125	495.73
46.2269	511.35
46.2414	521.45
46.2558	485.75
46.2702	488.85
46.2847	487.35
46.2991	480.10
46.3136	508.79
46.3280	531.90
46.3424	511.64
46.3569	505.81
46.3713	467.83
46.3858	491.12
46.4002	489.24
46.4146	515.74
46.4291	536.78
46.4435	515.96
46.4580	515.56
46.4724	550.08
46.4868	506.46
46.5013	496.65
46.5157	520.81
46.5302	527.26
46.5446	525.07
46.5590	520.12
46.5735	482.73
46.5879	531.71
46.6024	510.32
46.6168	499.77
46.6312	519.59
46.6457	500.90
46.6601	478.49
46.6746	487.93
46.6890	501.33
46.7034	500.86
46.7179	511.04
46.7323	502.19
46.7468	516.71
46.7612	537.45
46.7756	525.15
46.7901	548.31
46.8045	519.52
46.8190	501.93
46.8334	482.43
46.8478	498.04
46.8623	495.43
46.8767	496.87
46.8912	518.48
46.9056	548.90
46.9200	516.01
46.9345	536.71
46.9489	533.86
46.9634	512.10
46.9778	494.03
46.9922	504.12
47.0067	498.40
47.0211	505.22
47.0356	480.33
47.0500	526.01
47.0644	514.40
47.0789	492.55
47.0933	514.91
47.1078	522.42
47.1222	524.92
47.1366	518.98
47.1511	503.26
47.1655	522.52
47.1800	537.17
47.1944	487.59
47.2088	517.20
47.2233	507.28
47.2377	483.26
47.2522	508.31
47.2666	514.19
47.2810	488.60
47.2955	471.35
47.3099	488.71
47.3244	517.43
47.3388	530.32
47.3532	523.84
47.3677	475.57
47.3821	489.72
47.3966	502.45
47.4110	498.85
47.4254	526.74
47.4399	521.15
47.4543	498.02
47.4688	491.18
47.4832	512.36
47.4976	531.63
47.5121	514.20
47.5265	501.94
47.5410	495.17
47.5554	510.34
47.5698	503.81
47.5843	493.58
47.5987	466.60
47.6132	506.53
47.6276	487.62
47.6420	490.71
47.6565	526.19
47.6709	519.83
47.6854	461.60
47.6998	504.35
47.7142	530.98
47.7287	527.93
47.7431	515.08
47.7576	485.77
47.7720	489.02
47.7864	535.46
47.8009	523.93
47.8153	498.79
47.8298	510.22
47.8442	499.15
47.8586	528.36
47.8731	535.90
47.8875	492.41
47.9020	502.18
47.9164	515.94
47.9308	511.52
47.9453	505.71
47.9597	523.62
47.9742	480.01
47.9886	509.03
48.0030	503.73
48.0175	507.61
48.0319	530.39
48.0464	498.36
48.0608	497.44
48.0752	519.22
48.0897	514.46
48.1041	513.79
48.1186	542.71
48.1330	516.89
48.1474	490.02
48.1619	504.23
48.1763	502.25
48.1908	520.01
48.2052	490.90
48.2196	498.35
48.2341	490.80
48.2485	510.42
48.2630	485.07
48.2774	468.42
48.2918	481.97
48.3063	519.41
48.3207	516.05
48.3352	515.62
48.3496	512.40
48.3640	489.26
48.3785	525.97
48.3929	518.17
48.4074	490.17
48.4218	488.04
48.4362	501.77
48.4507	517.22
48.4651	485.24
48.4796	497.59
48.4940	520.22
48.5084	482.07
48.5229	494.99
48.5373	495.92
48.5518	512.34
48.5662	502.75
48.5806	507.37
48.5951	507.28
48.6095	512.44
48.6240	494.83
48.6384	490.76
48.6528	541.65
48.6673	495.87
48.6817	508.53
48.6962	496.10
48.7106	529.73
48.7250	562.84
48.7395	519.41
48.7539	530.25
48.7684	508.60
48.7828	546.63
48.7972	504.82
48.8117	524.26
48.8261	538.18
48.8406	559.34
48.8550	526.25
48.8694	547.51
48.8839	517.32
48.8983	525.78
48.9128	531.57
48.9272	555.33
48.9416	581.25
48.9561	560.43
48.9705	579.55
48.9850	588.50
48.9994	565.65
49.0139	570.27
49.0283	625.41
49.0427	630.28
49.0572	604.90
49.0716	621.46
49.0861	706.48
49.1005	711.98
49.1149	717.18
49.1294	737.57
49.1438	751.65
49.1583	811.84
49.1727	890.85
49.1871	914.08
49.2016	981.92
49.2160	1028.37
49.2305	1096.64
49.2449	1225.20
49.2593	1264.43
49.2738	1355.58
49.2882	1461.38
49.3027	1537.96
49.3171	1645.41
49.3315	1719.70
49.3460	1717.98
49.3604	1815.96
49.3749	1798.02
49.3893	1825.60
49.4037	1754.83
49.4182	1813.89
49.4326	1818.73
49.4471	1705.36
49.4615	1660.23
49.4759	1602.77
49.4904	1525.73
49.5048	1462.29
49.5193	1335.88
49.5337	1237.91
49.5481	1174.77
49.5626	1123.32
49.5770	1057.77
49.5915	998.28
49.6059	940.66
49.6203	862.84
49.6348	873.74
49.6492	782.52
49.6637	731.54
49.6781	716.56
49.6925	693.50
49.7070	711.63
49.7214	631.62
49.7359	586.09
49.7503	614.22
49.7647	609.80
49.7792	622.95
49.7936	608.22
49.8081	588.84
49.8225	545.25
49.8369	543.31
49.8514	550.80
49.8658	587.18
49.8803	554.39
49.8947	590.40
49.9091	580.27
49.9236	568.22
49.9380	551.81
49.9525	557.34
49.9669	538.82
49.9813	517.56
49.9958	529.12
50.0102	534.23
50.0247	520.28
50.0391	533.16
50.0535	551.42
50.0680	531.85
50.0824	525.24
50.0969	518.25
50.1113	524.18
50.1257	523.94
50.1402	506.28
50.1546	508.85
50.1691	555.96
50.1835	529.91
50.1979	495.94
50.2124	510.88
50.2268	510.34
50.2413	517.37
50.2557	544.30
50.2701	526.27
50.2846	540.72
50.2990	500.16
50.3135	486.79
50.3279	509.57
50.3423	517.89
50.3568	519.77
50.3712	503.76
50.3857	496.52
50.4001	496.97
50.4145	521.60
50.4290	539.38
50.4434	520.31
50.4579	496.83
50.4723	520.70
50.4867	533.17
50.5012	491.43
50.5156	500.00
50.5301	499.59
50.5445	507.77
50.5589	527.52
50.5734	509.51
50.5878	508.10
50.6023	517.76
50.6167	518.92
50.6311	515.11
50.6456	511.28
50.6600	506.87
50.6745	514.20
50.6889	499.86
50.7033	502.33
50.7178	564.60
50.7322	533.07
50.7467	550.13
50.7611	549.05
50.7755	525.20
50.7900	518.68
50.8044	500.04
50.8189	493.56
50.8333	510.15
50.8477	498.38
50.8622	508.54
50.8766	517.40
50.8911	537.45
50.9055	503.26
50.9199	463.72
50.9344	493.18
50.9488	509.41
50.9633	493.38
50.9777	500.74
50.9921	485.02
51.0066	487.98
51.0210	522.33
51.0355	545.92
51.0499	505.07
51.0643	468.58
51.0788	492.46
51.0932	526.47
51.1077	529.19
51.1221	509.16
51.1365	524.18
51.1510	513.33
51.1654	525.22
51.1799	485.93
51.1943	507.06
51.2087	529.84
51.2232	530.64
51.2376	533.88
51.2521	508.42
51.2665	506.76
51.2809	531.84
51.2954	513.38
51.3098	518.73
51.3243	502.92
51.3387	516.83
51.3531	505.04
51.3676	509.30
51.3820	486.02
51.3965	486.80
51.4109	498.44
51.4253	520.47
51.4398	539.81
51.4542	520.03
51.4687	490.48
51.4831	499.51
51.4975	508.93
51.5120	495.48
51.5264	499.13
51.5409	488.37
51.5553	504.18
51.5697	469.29
51.5842	513.98
51.5986	483.57
51.6131	494.98
51.6275	516.71
51.6419	524.77
51.6564	531.14
51.6708	536.77
51.6853	499.84
51.6997	479.01
51.7141	512.30
51.7286	516.31
51.7430	522.34
51.7575	510.10
51.7719	481.64
51.7863	521.77
51.8008	525.51
51.8152	492.00
51.8297	500.31
51.8441	488.87
51.8585	524.69
51.8730	501.28
51.8874	485.76
51.9019	546.60
51.9163	510.82
51.9307	519.63
51.9452	526.27
51.9596	525.75
51.9741	506.45
51.9885	533.31
52.0029	521.47
52.0174	529.77
52.0318	524.31
52.0463	506.11
52.0607	496.52
52.0751	523.37
52.0896	531.19
52.1040	495.67
52.1185	503.35
52.1329	525.39
52.1473	478.20
52.1618	498.60
52.1762	513.88
52.1907	471.42
52.2051	492.82
52.2195	518.01
52.2340	519.20
52.2484	519.95
52.2629	501.07
52.2773	540.76
52.2917	505.63
52.3062	480.58
52.3206	523.18
52.3351	510.22
52.3495	509.14
52.3639	489.02
52.3784	512.29
52.3928	510.72
52.4073	492.30
52.4217	493.30
52.4361	501.65
52.4506	489.80
52.4650	497.91
52.4795	501.97
52.4939	522.86
52.5083	541.39
52.5228	500.64
52.5372	506.59
52.5517	500.70
52.5661	517.02
52.5805	506.24
52.5950	510.69
52.6094	497.96
52.6239	479.99
52.6383	494.81
52.6527	519.20
52.6672	506.14
52.6816	523.47
52.6961	519.73
52.7105	602.80
52.7250	536.96
52.7394	531.82
52.7538	515.47
52.7683	539.41
52.7827	542.43
52.7972	523.82
52.8116	512.38
52.8260	507.89
52.8405	540.18
52.8549	518.06
52.8694	501.40
52.8838	474.06
52.8982	486.92
52.9127	492.81
52.9271	508.00
52.9416	515.36
52.9560	512.73
52.9704	494.51
52.9849	504.95
52.9993	478.46
53.0138	541.24
53.0282	498.40
53.0426	508.83
53.0571	504.15
53.0715	515.83
53.0860	514.56
53.1004	508.14
53.1148	519.83
53.1293	558.09
53.1437	482.29
53.1582	484.41
53.1726	520.99
53.1870	506.50
53.2015	517.97
53.2159	538.10
53.2304	500.84
53.2448	518.07
53.2592	554.51
53.2737	524.62
53.2881	539.58
53.3026	510.99
53.3170	522.88
53.3314	537.10
53.3459	499.09
53.3603	521.00
53.3748	523.95
53.3892	483.17
53.4036	479.65
53.4181	505.11
53.4325	543.33
53.4470	506.37
53.4614	495.84
53.4758	506.17
53.4903	508.75
53.5047	521.36
53.5192	529.05
53.5336	527.96
53.5480	526.43
53.5625	529.83
53.5769	498.01
53.5914	498.68
53.6058	515.29
53.6202	553.50
53.6347	517.99
53.6491	515.51
53.6636	540.78
53.6780	525.01
53.6924	552.94
53.7069	524.01
53.7213	499.83
53.7358	507.91
53.7502	510.03
53.7646	504.34
53.7791	534.50
53.7935	504.62
53.8080	522.57
53.8224	530.22
53.8368	521.44
53.8513	528.13
53.8657	506.20
53.8802	513.86
53.8946	513.07
53.9090	518.67
53.9235	530.39
53.9379	515.18
53.9524	467.42
53.9668	481.30
53.9812	513.80
53.9957	499.11
54.0101	480.74
54.0246	494.23
54.0390	502.90
54.0534	498.32
54.0679	508.94
54.0823	532.80
54.0968	513.88
54.1112	551.54
54.1256	506.35
54.1401	462.83
54.1545	469.11
54.1690	514.11
54.1834	493.21
54.1978	489.17
54.2123	498.61
54.2267	508.22
54.2412	501.28
54.2556	513.96
54.2700	489.07
54.2845	496.16
54.2989	501.27
54.3134	523.18
54.3278	559.98
54.3422	541.18
54.3567	526.10
54.3711	514.00
54.3856	481.07
54.4000	491.62
54.4144	498.34
54.4289	529.95
54.4433	537.61
54.4578	520.57
54.4722	509.52
54.4866	525.60
54.5011	529.48
54.5155	532.01
54.5300	529.69
54.5444	531.27
54.5588	505.45
54.5733	501.90
54.5877	501.13
54.6022	522.77
54.6166	541.26
54.6310	546.43
54.6455	560.81
54.6599	515.92
54.6744	531.25
54.6888	538.91
54.7032	571.68
54.7177	571.34
54.7321	543.39
54.7466	521.46
54.7610	558.79
54.7754	538.79
54.7899	558.65
54.8043	579.40
54.8188	579.24
54.8332	566.35
54.8476	592.66
54.8621	576.68
54.8765	560.07
54.8910	555.83
54.9054	607.41
54.9198	592.58
54.9343	577.69
54.9487	555.41
54.9632	553.03
54.9776	545.68
54.9920	547.28
55.0065	559.97
55.0209	551.00
55.0354	539.40
55.0498	567.39
55.0642	542.60
55.0787	529.86
55.0931	548.12
55.1076	541.25
55.1220	547.62
55.1364	540.54
55.1509	519.68
55.1653	526.22
55.1798	538.32
55.1942	537.31
55.2086	542.97
55.2231	517.53
55.2375	510.92
55.2520	503.89
55.2664	502.42
55.2808	524.45
55.2953	528.20
55.3097	531.38
55.3242	511.51
55.3386	539.54
55.3530	534.66
55.3675	516.84
55.3819	515.28
55.3964	495.57
55.4108	547.56
55.4252	521.52
55.4397	527.25
55.4541	508.20
55.4686	510.92
55.4830	506.98
55.4974	518.91
55.5119	507.42
55.5263	546.36
55.5408	524.46
55.5552	519.83
55.5696	512.87
55.5841	504.67
55.5985	540.02
55.6130	538.31
55.6274	524.18
55.6418	508.67
55.6563	521.69
55.6707	522.85
55.6852	532.17
55.6996	535.46
55.7140	542.29
55.7285	511.69
55.7429	495.31
55.7574	508.05
55.7718	513.94
55.7862	536.99
55.8007	553.88
55.8151	539.81
55.8296	547.66
55.8440	511.03
55.8584	546.45
55.8729	530.16
55.8873	539.98
55.9018	556.22
55.9162	536.95
55.9306	512.99
55.9451	517.46
55.9595	501.67
55.9740	535.91
55.9884	524.93
56.0028	501.33
56.0173	501.90
56.0317	529.28
56.0462	536.87
56.0606	539.97
56.0750	527.39
56.0895	511.11
56.1039	477.50
56.1184	536.96
56.1328	548.73
56.1472	516.68
56.1617	519.69
56.1761	501.49
56.1906	486.73
56.2050	518.59
56.2194	553.91
56.2339	513.41
56.2483	536.98
56.2628	491.58
56.2772	506.39
56.2916	538.34
56.3061	499.29
56.3205	517.90
56.3350	519.85
56.3494	511.21
56.3639	518.41
56.3783	509.02
56.3927	520.86
56.4072	519.36
56.4216	523.01
56.4361	528.25
56.4505	511.94
56.4649	524.28
56.4794	530.18
56.4938	514.54
56.5083	519.92
56.5227	549.04
56.5371	534.51
56.5516	477.80
56.5660	497.06
56.5805	560.16
56.5949	538.87
56.6093	527.61
56.6238	538.92
56.6382	523.05
56.6527	510.91
56.6671	528.49
56.6815	524.33
56.6960	552.50
56.7104	562.44
56.7249	499.75
56.7393	515.76
56.7537	505.86
56.7682	525.86
56.7826	509.31
56.7971	514.41
56.8115	533.94
56.8259	562.46
56.8404	534.37
56.8548	513.09
56.8693	521.64
56.8837	512.12
56.8981	570.62
56.9126	525.23
56.9270	489.37
56.9415	539.27
56.9559	510.88
56.9703	535.92
56.9848	539.72
56.9992	551.27
57.0137	526.67
57.0281	530.47
57.0425	521.12
57.0570	535.20
57.0714	514.06
57.0859	531.46
57.1003	532.01
57.1147	532.73
57.1292	535.04
57.1436	528.41
57.1581	536.89
57.1725	525.97
57.1869	537.11
57.2014	549.46
57.2158	517.95
57.2303	570.30
57.2447	542.64
57.2591	509.09
57.2736	496.02
57.2880	515.34
57.3025	537.73
57.3169	513.11
57.3313	527.80
57.3458	524.52
57.3602	527.41
57.3747	518.79
57.3891	502.25
57.4035	499.00
57.4180	520.64
57.4324	530.77
57.4469	522.92
57.4613	514.79
57.4757	545.64
57.4902	504.46
57.5046	526.33
57.5191	529.47
57.5335	529.81
57.5479	525.50
57.5624	500.72
57.5768	537.23
57.5913	525.73
57.6057	525.04
57.6201	526.56
57.6346	537.54
57.6490	526.70
57.6635	528.14
57.6779	530.76
57.6923	485.39
57.7068	521.68
57.7212	551.90
57.7357	538.94
57.7501	530.97
57.7645	527.33
57.7790	529.09
57.7934	517.41
57.8079	533.24
57.8223	542.18
57.8367	533.01
57.8512	533.53
57.8656	504.91
57.8801	531.29
57.8945	576.42
57.9089	522.60
57.9234	550.36
57.9378	558.58
57.9523	548.52
57.9667	498.56
57.9811	526.35
57.9956	553.43
58.0100	525.51
58.0245	509.11
58.0389	530.77
58.0533	541.74
58.0678	554.46
58.0822	547.66
58.0967	555.87
58.1111	522.08
58.1255	539.16
58.1400	529.98
58.1544	512.80
58.1689	523.15
58.1833	530.24
58.1977	552.77
58.2122	574.33
58.2266	545.89
58.2411	585.92
58.2555	583.93
58.2699	601.28
58.2844	599.78
58.2988	631.07
58.3133	605.65
58.3277	632.88
58.3421	617.78
58.3566	630.22
58.3710	632.79
58.3855	630.58
58.3999	597.89
58.4143	614.04
58.4288	646.33
58.4432	611.65
58.4577	602.20
58.4721	651.78
58.4865	642.99
58.5010	642.60
58.5154	624.04
58.5299	610.43
58.5443	610.56
58.5587	625.81
58.5732	598.38
58.5876	580.09
58.6021	589.92
58.6165	573.90
58.6309	578.60
58.6454	577.28
58.6598	607.47
58.6743	561.35
58.6887	583.15
58.7031	595.50
58.7176	599.03
58.7320	545.49
58.7465	555.96
58.7609	514.55
58.7753	535.63
58.7898	568.40
58.8042	559.12
58.8187	576.82
58.8331	586.67
58.8475	591.09
58.8620	589.01
58.8764	571.50
58.8909	561.90
58.9053	568.71
58.9197	567.34
58.9342	536.97
58.9486	543.52
58.9631	536.47
58.9775	539.10
58.9919	551.46
59.0064	543.64
59.0208	554.29
59.0353	572.75
59.0497	530.97
59.0641	563.71
59.0786	563.96
59.0930	545.26
59.1075	527.19
59.1219	540.84
59.1363	551.80
59.1508	524.80
59.1652	557.52
59.1797	549.62
59.1941	537.00
59.2085	529.23
59.2230	526.06
59.2374	544.08
59.2519	587.37
59.2663	527.08
59.2807	537.49
59.2952	560.07
59.3096	566.66
59.3241	565.35
59.3385	555.36
59.3529	590.08
59.3674	594.98
59.3818	562.47
59.3963	563.64
59.4107	546.39
59.4251	547.11
59.4396	578.10
59.4540	574.82
59.4685	566.25
59.4829	575.90
59.4973	559.19
59.5118	535.98
59.5262	591.08
59.5407	582.90
59.5551	520.92
59.5695	557.61
59.5840	558.62
59.5984	544.76
59.6129	559.39
59.6273	517.71
59.6417	506.30
59.6562	526.87
59.6706	562.72
59.6851	531.76
59.6995	507.87
59.7139	553.66
59.7284	538.32
59.7428	556.57
59.7573	563.00
59.7717	537.12
59.7861	544.12
59.8006	552.77
59.8150	590.18
59.8295	553.36
59.8439	528.04
59.8583	566.64
59.8728	570.08
59.8872	514.07
59.9017	552.71
59.9161	533.85
59.9305	540.64
59.9450	569.66
59.9594	573.68
59.9739	543.41
59.9883	540.69
60.0027	560.42
60.0172	548.85
60.0316	546.63
60.0461	531.40
60.0605	572.26
60.0750	547.57
60.0894	570.05
60.1038	514.68
60.1183	559.96
60.1327	584.94
60.1472	527.39
60.1616	563.79
60.1760	538.75
60.1905	560.63
60.2049	509.21
60.2194	516.90
60.2338	549.58
60.2482	531.89
60.2627	522.88
60.2771	534.21
60.2916	509.59
60.3060	487.33
60.3204	524.03
60.3349	538.24
60.3493	542.35
60.3638	536.48
60.3782	550.97
60.3926	522.80
60.4071	550.10
60.4215	522.38
60.4360	514.26
60.4504	543.50
60.4648	530.07
60.4793	525.86
60.4937	544.31
60.5082	553.83
60.5226	510.06
60.5370	541.75
60.5515	533.34
60.5659	531.92
60.5804	543.96
60.5948	536.80
60.6092	544.04
60.6237	543.06
60.6381	518.24
60.6526	546.57
60.6670	526.09
60.6814	507.02
60.6959	526.60
60.7103	515.50
60.7248	516.85
60.7392	507.10
60.7536	509.01
60.7681	539.93
60.7825	562.09
60.7970	534.18
60.8114	579.36
60.8258	543.08
60.8403	559.50
60.8547	560.31
60.8692	532.54
60.8836	560.69
60.8980	552.01
60.9125	554.39
60.9269	538.21
60.9414	568.65
60.9558	476.31
60.9702	533.06
60.9847	531.83
60.9991	574.30
61.0136	533.26
61.0280	528.68
61.0424	516.05
61.0569	529.39
61.0713	571.98
61.0858	587.61
61.1002	563.60
61.1146	541.63
61.1291	580.62
61.1435	535.95
61.1580	523.91
61.1724	566.17
61.1868	523.19
61.2013	484.75
61.2157	569.33
61.2302	537.35
61.2446	574.91
61.2590	562.26
61.2735	518.80
61.2879	550.28
61.3024	535.32
61.3168	547.42
61.3312	565.79
61.3457	565.75
61.3601	538.55
61.3746	550.30
61.3890	517.86
61.4034	534.99
61.4179	567.14
61.4323	564.51
61.4468	550.31
61.4612	550.58
61.4756	544.16
61.4901	557.14
61.5045	538.89
61.5190	525.31
61.5334	539.93
61.5478	508.84
61.5623	593.76
61.5767	544.33
61.5912	540.01
61.6056	559.70
61.6200	542.51
61.6345	536.40
61.6489	554.13
61.6634	520.34
61.6778	538.41
61.6922	534.55
61.7067	534.98
61.7211	522.95
61.7356	512.16
61.7500	560.41
61.7644	561.05
61.7789	555.93
61.7933	518.05
61.8078	537.82
61.8222	535.04
61.8366	542.80
61.8511	553.75
61.8655	598.86
61.8800	562.79
61.8944	566.74
61.9088	555.08
61.9233	521.14
61.9377	576.41
61.9522	559.86
61.9666	519.27
61.9810	545.53
61.9955	574.46
62.0099	583.75
62.0244	552.48
62.0388	560.17
62.0532	566.11
62.0677	586.04
62.0821	556.79
62.0966	552.28
62.1110	548.40
62.1254	561.37
62.1399	544.88
62.1543	534.14
62.1688	560.19
62.1832	567.32
62.1976	611.34
62.2121	591.54
62.2265	548.17
62.2410	577.98
62.2554	557.75
62.2698	555.01
62.2843	540.06
62.2987	542.62
62.3132	571.69
62.3276	575.55
62.3420	558.02
62.3565	587.30
62.3709	589.40
62.3854	566.53
62.3998	527.80
62.4142	548.62
62.4287	588.42
62.4431	557.53
62.4576	540.63
62.4720	574.82
62.4864	578.82
62.5009	543.80
62.5153	564.18
62.5298	567.70
62.5442	534.11
62.5586	561.66
62.5731	563.88
62.5875	563.77
62.6020	566.86
62.6164	533.97
62.6308	536.97
62.6453	543.29
62.6597	558.22
62.6742	539.11
62.6886	517.51
62.7030	524.66
62.7175	573.79
62.7319	564.99
62.7464	555.01
62.7608	561.29
62.7752	576.10
62.7897	586.09
62.8041	584.98
62.8186	578.52
62.8330	570.21
62.8474	565.27
62.8619	546.93
62.8763	546.81
62.8908	541.50
62.9052	565.33
62.9196	549.29
62.9341	568.22
62.9485	545.05
62.9630	546.47
62.9774	578.94
62.9918	548.57
63.0063	532.45
63.0207	556.73
63.0352	566.90
63.0496	557.18
63.0640	564.50
63.0785	572.91
63.0929	610.25
63.1074	564.64
63.1218	541.05
63.1362	538.66
63.1507	562.30
63.1651	577.46
63.1796	555.32
63.1940	551.59
63.2084	565.64
63.2229	579.31
63.2373	579.25
63.2518	544.68
63.2662	543.11
63.2806	598.49
63.2951	592.45
63.3095	610.85
63.3240	583.87
63.3384	581.39
63.3528	585.58
63.3673	584.31
63.3817	550.65
63.3962	550.44
63.4106	549.40
63.4250	578.48
63.4395	582.27
63.4539	601.98
63.4684	604.11
63.4828	605.97
63.4972	568.56
63.5117	570.17
63.5261	585.10
63.5406	611.32
63.5550	603.15
63.5694	598.42
63.5839	594.81
63.5983	561.91
63.6128	579.89
63.6272	576.02
63.6416	583.46
63.6561	574.49
63.6705	581.64
63.6850	607.46
63.6994	591.29
63.7138	637.54
63.7283	596.77
63.7427	569.72
63.7572	586.29
63.7716	620.28
63.7861	593.51
63.8005	561.70
63.8149	598.60
63.8294	618.90
63.8438	615.94
63.8583	605.87
63.8727	641.97
63.8871	652.17
63.9016	649.23
63.9160	639.50
63.9305	617.80
63.9449	660.05
63.9593	660.08
63.9738	633.64
63.9882	642.85
64.0027	635.47
64.0171	658.32
64.0315	685.80
64.0460	731.43
64.0604	707.72
64.0749	727.41
64.0893	766.51
64.1037	706.32
64.1182	755.60
64.1326	767.81
64.1471	739.37
64.1615	754.29
64.1759	802.10
64.1904	747.45
64.2048	800.70
64.2193	827.75
64.2337	791.58
64.2481	791.12
64.2626	790.01
64.2770	811.45
64.2915	780.40
64.3059	825.77
64.3203	758.81
64.3348	779.54
64.3492	805.84
64.3637	760.81
64.3781	756.88
64.3925	683.78
64.4070	722.02
64.4214	706.36
64.4359	742.25
64.4503	687.07
64.4647	699.87
64.4792	672.03
64.4936	702.95
64.5081	686.89
64.5225	708.94
64.5369	716.18
64.5514	724.40
64.5658	660.50
64.5803	652.19
64.5947	644.89
64.6091	698.06
64.6236	671.37
64.6380	684.69
64.6525	672.99
64.6669	674.89
64.6813	668.61
64.6958	657.59
64.7102	695.53
64.7247	691.18
64.7391	680.88
64.7535	696.04
64.7680	727.21
64.7824	734.14
64.7969	737.35
64.8113	724.03
64.8257	765.07
64.8402	815.43
64.8546	828.43
64.8691	822.08
64.8835	814.52
64.8979	852.87
64.9124	873.56
64.9268	903.08
64.9413	963.46
64.9557	987.55
64.9701	992.35
64.9846	1007.99
64.9990	1164.96
65.0135	1261.11
65.0279	1426.68
65.0423	1649.09
65.0568	2093.45
65.0712	2609.37
65.0857	3383.64
65.1001	4426.85
65.1145	5894.17
65.1290	7743.81
65.1434	9256.16
65.1579	11008.79
65.1723	11672.96
65.1867	11155.32
65.2012	9973.81
65.2156	8307.17
65.2301	6596.16
65.2445	5304.97
65.2589	4367.87
65.2734	4211.14
65.2878	4402.34
65.3023	4843.94
65.3167	5609.96
65.3311	6480.19
65.3456	6953.90
65.3600	7014.89
65.3745	6401.68
65.3889	5505.87
65.4033	4486.79
65.4178	3526.32
65.4322	2844.44
65.4467	2114.74
65.4611	1747.63
65.4755	1455.50
65.4900	1275.59
65.5044	1142.58
65.5189	1020.86
65.5333	991.75
65.5477	933.24
65.5622	882.73
65.5766	891.21
65.5911	831.19
65.6055	791.46
65.6199	807.37
65.6344	816.37
65.6488	768.90
65.6633	716.21
65.6777	718.97
65.6921	709.97
65.7066	702.63
65.7210	692.05
65.7355	666.25
65.7499	694.29
65.7643	658.35
65.7788	720.40
65.7932	648.90
65.8077	677.88
65.8221	639.57
65.8365	642.10
65.8510	707.16
65.8654	657.31
65.8799	622.11
65.8943	662.99
65.9087	681.80
65.9232	639.53
65.9376	643.60
65.9521	655.33
65.9665	616.52
65.9809	619.83
65.9954	586.45
66.0098	614.43
66.0243	635.25
66.0387	621.66
66.0531	635.16
66.0676	645.45
66.0820	646.14
66.0965	647.88
66.1109	643.67
66.1253	651.60
66.1398	627.22
66.1542	614.51
66.1687	621.14
66.1831	617.54
66.1975	592.70
66.2120	610.62
66.2264	626.20
66.2409	624.34
66.2553	610.14
66.2697	606.14
66.2842	645.48
66.2986	621.70
66.3131	592.45
66.3275	595.85
66.3419	593.47
66.3564	642.34
66.3708	606.28
66.3853	588.70
66.3997	595.68
66.4141	553.20
66.4286	565.65
66.4430	584.27
66.4575	586.55
66.4719	581.81
66.4863	565.61
66.5008	585.05
66.5152	571.65
66.5297	577.07
66.5441	561.07
66.5585	560.93
66.5730	559.75
66.5874	604.29
66.6019	582.72
66.6163	589.37
66.6307	595.26
66.6452	612.62
66.6596	562.49
66.6741	584.38
66.6885	611.40
66.7029	599.57
66.7174	597.55
66.7318	585.88
66.7463	562.02
66.7607	595.48
66.7751	597.87
66.7896	591.15
66.8040	609.24
66.8185	594.73
66.8329	584.74
66.8473	606.68
66.8618	644.07
66.8762	637.81
66.8907	616.32
66.9051	607.07
66.9195	575.56
66.9340	571.64
66.9484	600.18
66.9629	581.04
66.9773	594.99
66.9917	603.42
67.0062	564.71
67.0206	616.76
67.0351	607.78
67.0495	594.36
67.0639	605.81
67.0784	631.44
67.0928	608.44
67.1073	574.32
67.1217	598.99
67.1361	588.68
67.1506	570.66
67.1650	577.86
67.1795	579.29
67.1939	563.72
67.2083	567.32
67.2228	571.80
67.2372	596.83
67.2517	593.97
67.2661	576.37
67.2805	554.75
67.2950	535.18
67.3094	596.05
67.3239	592.19
67.3383	590.22
67.3527	576.73
67.3672	543.40
67.3816	549.78
67.3961	574.04
67.4105	561.94
67.4250	575.23
67.4394	574.12
67.4538	566.49
67.4683	591.10
67.4827	577.99
67.4972	578.91
67.5116	612.01
67.5260	606.76
67.5405	557.82
67.5549	559.80
67.5694	585.55
67.5838	613.76
67.5982	578.03
67.6127	595.38
67.6271	588.09
67.6416	584.26
67.6560	578.88
67.6704	557.10
67.6849	546.06
67.6993	596.28
67.7138	582.41
67.7282	556.42
67.7426	545.01
67.7571	574.09
67.7715	576.86
67.7860	558.60
67.8004	573.43
67.8148	601.21
67.8293	542.88
67.8437	594.97
67.8582	602.90
67.8726	582.97
67.8870	570.85
67.9015	577.47
67.9159	579.10
67.9304	600.58
67.9448	621.58
67.9592	550.28
67.9737	559.53
67.9881	532.79
68.0026	568.44
68.0170	576.39
68.0314	581.08
68.0459	550.77
68.0603	565.64
68.0748	526.77
68.0892	537.76
68.1036	533.14
68.1181	586.51
68.1325	600.39
68.1470	545.56
68.1614	579.26
68.1758	584.91
68.1903	583.03
68.2047	558.64
68.2192	573.22
68.2336	565.50
68.2480	578.89
68.2625	603.23
68.2769	585.84
68.2914	610.01
68.3058	581.96
68.3202	606.02
68.3347	618.51
68.3491	575.49
68.3636	578.34
68.3780	579.94
68.3924	580.10
68.4069	617.16
68.4213	588.38
68.4358	593.24
68.4502	537.98
68.4646	604.08
68.4791	611.25
68.4935	550.62
68.5080	572.19
68.5224	596.18
68.5368	582.10
68.5513	560.81
68.5657	580.92
68.5802	544.97
68.5946	587.76
68.6090	548.77
68.6235	571.26
68.6379	586.29
68.6524	564.05
68.6668	590.89
68.6812	587.18
68.6957	548.47
68.7101	541.70
68.7246	543.29
68.7390	597.06
68.7534	597.33
68.7679	572.58
68.7823	607.93
68.7968	548.95
68.8112	578.33
68.8256	533.56
68.8401	563.46
68.8545	598.36
68.8690	563.90
68.8834	560.53
68.8978	583.04
68.9123	584.26
68.9267	601.84
68.9412	571.09
68.9556	578.15
68.9700	561.41
68.9845	572.20
68.9989	564.07
69.0134	554.08
69.0278	585.61
69.0422	594.99
69.0567	568.61
69.0711	597.19
69.0856	605.40
69.1000	568.96
69.1144	567.75
69.1289	556.85
69.1433	594.06
69.1578	523.06
69.1722	577.30
69.1866	560.89
69.2011	556.13
69.2155	603.06
69.2300	535.25
69.2444	609.85
69.2588	566.88
69.2733	640.69
69.2877	578.71
69.3022	554.19
69.3166	579.56
69.3310	594.38
69.3455	638.20
69.3599	615.27
69.3744	518.39
69.3888	564.11
69.4032	598.32
69.4177	599.29
69.4321	629.28
69.4466	617.88
69.4610	606.15
69.4754	611.25
69.4899	582.54
69.5043	620.85
69.5188	588.88
69.5332	584.69
69.5476	567.80
69.5621	571.46
69.5765	582.36
69.5910	585.42
69.6054	593.68
69.6198	600.42
69.6343	619.75
69.6487	582.26
69.6632	525.83
69.6776	542.90
69.6920	604.39
69.7065	596.47
69.7209	587.19
69.7354	614.56
69.7498	643.60
69.7642	583.33
69.7787	590.85
69.7931	578.75
69.8076	629.99
69.8220	594.55
69.8364	626.07
69.8509	574.28
69.8653	602.00
69.8798	582.05
69.8942	563.94
69.9086	555.17
69.9231	586.36
69.9375	545.70
69.9520	612.35
69.9664	601.08
69.9808	546.84
69.9953	569.75
70.0097	546.61
70.0242	597.85
70.0386	596.86
70.0530	543.41
70.0675	591.33
70.0819	568.09
70.0964	617.53
70.1108	546.79
70.1252	593.40
70.1397	516.46
70.1541	529.24
70.1686	591.40
70.1830	541.21
70.1974	555.22
70.2119	576.45
70.2263	578.75
70.2408	639.08
70.2552	598.75
70.2696	587.77
70.2841	599.66
70.2985	562.62
70.3130	592.67
70.3274	587.29
70.3418	592.91
70.3563	602.21
70.3707	576.44
70.3852	578.42
70.3996	571.70
70.4140	578.69
70.4285	597.19
70.4429	560.97
70.4574	559.90
70.4718	627.45
70.4862	568.86
70.5007	524.12
70.5151	546.61
70.5296	601.62
70.5440	593.26
70.5584	626.13
70.5729	594.23
70.5873	546.53
70.6018	564.26
70.6162	568.52
70.6306	564.43
70.6451	616.00
70.6595	598.44
70.6740	544.68
70.6884	552.48
70.7028	568.83
70.7173	595.04
70.7317	523.47
70.7462	549.74
70.7606	538.12
70.7750	572.49
70.7895	577.63
70.8039	588.85
70.8184	587.42
70.8328	574.66
70.8472	590.44
70.8617	586.17
70.8761	539.14
70.8906	580.65
70.9050	606.90
70.9194	606.55
70.9339	617.83
70.9483	601.82
70.9628	592.99
70.9772	569.99
70.9916	560.57
71.0061	575.11
71.0205	621.82
71.0350	609.72
71.0494	603.09
71.0638	615.28
71.0783	593.26
71.0927	639.43
71.1072	611.02
71.1216	583.41
71.1361	561.34
71.1505	520.16
71.1649	546.21
71.1794	562.68
71.1938	594.57
71.2083	568.39
71.2227	577.01
71.2371	538.13
71.2516	568.84
71.2660	627.79
71.2805	580.59
71.2949	555.67
71.3093	559.23
71.3238	558.50
71.3382	583.70
71.3527	546.12
71.3671	569.22
71.3815	569.57
71.3960	541.05
71.4104	557.05
71.4249	595.88
71.4393	600.79
71.4537	577.94
71.4682	614.78
71.4826	575.45
71.4971	572.12
71.5115	549.30
71.5259	552.32
71.5404	549.49
71.5548	595.20
71.5693	587.12
71.5837	562.32
71.5981	592.30
71.6126	608.01
71.6270	576.89
71.6415	591.09
71.6559	611.48
71.6703	573.89
71.6848	574.07
71.6992	571.23
71.7137	561.68
71.7281	534.73
71.7425	541.63
71.7570	560.02
71.7714	616.67
71.7859	593.43
71.8003	499.30
71.8147	570.69
71.8292	597.46
71.8436	640.96
71.8581	630.52
71.8725	554.93
71.8869	556.70
71.9014	551.49
71.9158	538.60
71.9303	580.84
71.9447	575.86
71.9591	566.86
71.9736	590.85
71.9880	612.02
72.0025	555.34
72.0169	582.39
72.0313	571.37
72.0458	446.78
72.0602	465.96
72.0747	506.29
72.0891	572.86
72.1035	592.54
72.1180	624.06
72.1324	619.60
72.1469	634.18
72.1613	590.50
72.1757	582.17
72.1902	566.52
72.2046	548.18
72.2191	513.76
72.2335	545.37
72.2479	573.59
72.2624	565.67
72.2768	561.87
72.2913	632.60
72.3057	623.10
72.3201	588.24
72.3346	595.76
72.3490	593.05
72.3635	500.01
72.3779	516.14
72.3923	535.28
72.4068	548.78
72.4212	596.24
72.4357	547.38
72.4501	526.49
72.4645	553.05
72.4790	585.90
72.4934	621.60
72.5079	698.41
72.5223	584.70
72.5367	563.13
72.5512	614.08
72.5656	587.48
72.5801	528.53
72.5945	458.63
72.6089	438.33
72.6234	495.29
72.6378	579.94
72.6523	582.83
72.6667	584.78
72.6811	623.26
72.6956	581.58
72.7100	580.29
72.7245	622.00
72.7389	640.16
72.7533	666.55
72.7678	613.01
72.7822	593.22
72.7967	543.60
72.8111	552.91
72.8255	646.87
72.8400	651.54
72.8544	596.81
72.8689	570.16
72.8833	543.99

Result vector
22.1120	441.46
22.1264	499.30
22.1409	495.87
22.1553	582.55
22.1697	504.42
22.1842	593.18
22.1986	517.18
22.2131	562.06
22.2275	594.66
22.2419	666.70
22.2564	574.31
22.2708	549.81
22.2853	562.80
22.2997	558.30
22.3141	618.36
22.3286	578.97
22.3430	613.41
22.3575	567.75
22.3719	541.83
22.3863	612.58
22.4008	542.20
22.4152	663.65
22.4297	644.49
22.4441	638.35
22.4585	576.63
22.4730	599.22
22.4874	617.73
22.5019	571.88
22.5163	648.89
22.5307	550.09
22.5452	557.31
22.5596	484.41
22.5741	587.03
22.5885	635.82
22.6029	538.19
22.6174	641.08
22.6318	622.04
22.6463	614.95
22.6607	660.56
22.6751	621.61
22.6896	624.15
22.7040	536.33
22.7185	534.62
22.7329	530.97
22.7473	563.40
22.7618	552.26
22.7762	569.34
22.7907	559.03
22.8051	564.34
22.8195	642.20
22.8340	559.12
22.8484	559.67
22.8629	628.07
22.8773	562.14
22.8917	598.24
22.9062	669.97
22.9206	524.77
22.9351	527.66
22.9495	537.57
22.9639	595.02
22.9784	651.07
22.9928	643.67
23.0073	522.76
23.0217	600.72
23.0361	631.02
23.0506	638.56
23.0650	596.28
23.0795	516.21
23.0939	522.77
23.1083	574.83
23.1228	577.46
23.1372	549.66
23.1517	497.27
23.1661	557.59
23.1806	589.84
23.1950	555.00
23.2094	616.80
23.2239	557.88
23.2383	590.11
23.2528	603.29
23.2672	519.16
23.2816	538.93
23.2961	514.41
23.3105	603.02
23.3250	548.00
23.3394	498.38
23.3538	542.94
23.3683	576.44
23.3827	521.03
23.3972	527.03
23.4116	540.62
23.4260	586.65
23.4405	622.38
23.4549	553.04
23.4694	597.18
23.4838	550.34
23.4982	544.54
23.5127	543.60
23.5271	588.27
23.5416	564.65
23.5560	525.69
23.5704	608.55
23.5849	568.92
23.5993	589.41
23.6138	581.50
23.6282	524.20
23.6426	516.16
23.6571	556.57
23.6715	509.17
23.6860	565.49
23.7004	558.77
23.7148	543.72
23.7293	553.67
23.7437	583.91
23.7582	591.59
23.7726	550.98
23.7870	524.44
23.8015	552.95
23.8159	512.30
23.8304	505.03
23.8448	582.55
23.8592	600.27
23.8737	591.43
23.8881	590.08
23.9026	508.61
23.9170	521.31
23.9314	585.29
23.9459	578.04
23.9603	550.33
23.9748	584.74
23.9892	550.52
24.0036	564.35
24.0181	579.78
24.0325	584.44
24.0470	538.35
24.0614	601.83
24.0758	513.89
24.0903	525.89
24.1047	544.98
24.1192	589.84
24.1336	564.05
24.1480	572.96
24.1625	611.23
24.1769	609.48
24.1914	623.86
24.2058	600.60
24.2202	526.97
24.2347	553.60
24.2491	597.98
24.2636	504.60
24.2780	608.00
24.2924	537.87
24.3069	506.99
24.3213	533.06
24.3358	548.16
24.3502	559.47
24.3646	564.68
24.3791	545.01
24.3935	519.29
24.4080	510.20
24.4224	560.55
24.4368	534.45
24.4513	528.94
24.4657	572.91
24.4802	527.84
24.4946	545.90
24.5090	570.96
24.5235	596.65
24.5379	585.07
24.5524	581.18
24.5668	560.09
24.5812	628.01
24.5957	601.54
24.6101	590.70
24.6246	558.33
24.6390	552.02
24.6534	585.87
24.6679	546.73
24.6823	509.06
24.6968	551.76
24.7112	542.43
24.7256	535.15
24.7401	507.62
24.7545	554.88
24.7690	541.66
24.7834	637.52
24.7978	537.60
24.8123	591.37
24.8267	557.67
24.8412	570.48
24.8556	590.25
24.8700	555.49
24.8845	550.02
24.8989	569.35
24.9134	535.24
24.9278	557.52
24.9422	535.47
24.9567	574.96
24.9711	558.26
24.9856	541.89
25.0000	573.07
25.0144	526.57
25.0289	520.46
25.0433	567.53
25.0578	629.42
25.0722	582.25
25.0866	573.46
25.1011	558.06
25.1155	577.83
25.1300	578.42
25.1444	553.55
25.1588	536.41
25.1733	583.52
25.1877	499.04
25.2022	543.17
25.2166	543.04
25.2310	552.51
25.2455	519.77
25.2599	549.41
25.2744	555.71
25.2888	581.23
25.3032	535.74
25.3177	549.08
25.3321	521.74
25.3466	527.64
25.3610	538.55
25.3754	524.22
25.3899	511.71
25.4043	524.46
25.4188	564.98
25.4332	569.92
25.4476	546.31
25.4621	529.39
25.4765	528.76
25.4910	529.95
25.5054	543.75
25.5198	516.87
25.5343	537.26
25.5487	500.28
25.5632	561.55
25.5776	563.30
25.5920	519.90
25.6065	541.74
25.6209	531.96
25.6354	530.53
25.6498	537.44
25.6642	540.06
25.6787	559.23
25.6931	590.62
25.7076	559.60
25.7220	562.52
25.7364	558.14
25.7509	549.54
25.7653	534.64
25.7798	517.27
25.7942	512.34
25.8086	501.71
25.8231	503.95
25.8375	530.77
25.8520	570.57
25.8664	568.28
25.8808	518.38
25.8953	545.07
25.9097	568.81
25.9242	557.84
25.9386	549.84
25.9530	512.14
25.9675	519.14
25.9819	505.44
25.9964	525.21
26.0108	525.49
26.0252	543.28
26.0397	522.96
26.0541	543.29
26.0686	529.18
26.0830	607.02
26.0974	533.50
26.1119	544.92
26.1263	566.43
26.1408	541.74
26.1552	525.25
26.1696	526.36
26.1841	550.28
26.1985	552.77
26.2130	555.28
26.2274	556.87
26.2418	551.27
26.2563	518.19
26.2707	517.92
26.2852	551.63
26.2996	522.27
26.3140	501.50
26.3285	540.40
26.3429	548.59
26.3574	564.75
26.3718	553.29
26.3862	506.20
26.4007	522.39
26.4151	520.80
26.4296	540.59
26.4440	528.17
26.4584	500.37
26.4729	527.09
26.4873	522.91
26.5018	554.67
26.5162	585.37
26.5306	563.30
26.5451	568.94
26.5595	520.59
26.5740	499.71
26.5884	551.69
26.6028	548.11
26.6173	536.89
26.6317	547.81
26.6462	536.57
26.6606	533.92
26.6750	543.80
26.6895	522.71
26.7039	536.88
26.7184	553.19
26.7328	536.86
26.7472	526.47
26.7617	510.61
26.7761	546.50
26.7906	559.71
26.8050	515.09
26.8194	486.49
26.8339	498.20
26.8483	534.20
26.8628	521.09
26.8772	518.74
26.8917	529.96
26.9061	542.82
26.9205	551.77
26.9350	532.73
26.9494	520.81
26.9639	536.66
26.9783	495.49
26.9927	537.72
27.0072	558.05
27.0216	552.49
27.0361	527.75
27.0505	530.87
27.0649	515.47
27.0794	516.97
27.0938	533.23
27.1083	510.80
27.1227	527.29
27.1371	505.45
27.1516	485.67
27.1660	517.18
27.1805	520.95
27.1949	530.69
27.2093	492.72
27.2238	534.35
27.2382	532.87
27.2527	543.27
27.2671	543.33
27.2815	521.90
27.2960	521.88
27.3104	520.97
27.3249	524.85
27.3393	500.33
27.3537	519.19
27.3682	515.93
27.3826	542.87
27.3971	510.75
27.4115	519.20
27.4259	564.44
27.4404	519.94
27.4548	478.64
27.4693	534.16
27.4837	532.19
27.4981	565.10
27.5126	555.69
27.5270	510.61
27.5415	516.64
27.5559	517.93
27.5703	491.08
27.5848	500.13
27.5992	507.07
27.6137	504.68
27.6281	499.82
27.6425	504.50
27.6570	508.58
27.6714	501.37
27.6859	507.58
27.7003	537.91
27.7147	549.98
27.7292	534.67
27.7436	491.08
27.7581	514.41
27.7725	533.26
27.7869	492.42
27.8014	523.14
27.8158	552.14
27.8303	495.76
27.8447	521.10
27.8591	534.00
27.8736	533.69
27.8880	490.81
27.9025	521.27
27.9169	509.96
27.9313	540.39
27.9458	493.67
27.9602	511.04
27.9747	499.77
27.9891	502.88
28.0035	518.16
28.0180	508.21
28.0324	536.42
28.0469	541.66
28.0613	539.04
28.0757	521.27
28.0902	517.90
28.1046	501.54
28.1191	512.48
28.1335	528.40
28.1479	508.76
28.1624	530.90
28.1768	478.25
28.1913	493.22
28.2057	512.81
28.2201	516.84
28.2346	506.11
28.2490	523.73
28.2635	501.39
28.2779	532.16
28.2923	543.23
28.3068	523.47
28.3212	500.86
28.3357	526.53
28.3501	545.36
28.3645	533.72
28.3790	527.39
28.3934	513.09
28.4079	491.37
28.4223	513.86
28.4367	541.76
28.4512	529.00
28.4656	520.47
28.4801	534.20
28.4945	521.77
28.5089	484.51
28.5234	537.06
28.5378	539.00
28.5523	541.17
28.5667	502.76
28.5811	501.31
28.5956	492.17
28.6100	505.66
28.6245	503.93
28.6389	513.43
28.6533	508.90
28.6678	507.86
28.6822	515.93
28.6967	536.60
28.7111	522.11
28.7255	526.63
28.7400	521.82
28.7544	529.33
28.7689	539.65
28.7833	510.48
28.7977	489.52
28.8122	522.60
28.8266	503.82
28.8411	540.86
28.8555	499.70
28.8699	544.75
28.8844	501.27
28.8988	473.61
28.9133	504.07
28.9277	507.85
28.9421	503.42
28.9566	486.43
28.9710	463.07
28.9855	522.68
28.9999	518.25
29.0143	474.40
29.0288	496.31
29.0432	499.92
29.0577	503.44
29.0721	497.76
29.0865	510.34
29.1010	545.17
29.1154	514.96
29.1299	493.32
29.1443	464.31
29.1587	498.54
29.1732	510.74
29.1876	520.41
29.2021	524.87
29.2165	510.11
29.2309	487.10
29.2454	504.74
29.2598	507.26
29.2743	514.62
29.2887	489.89
29.3031	501.65
29.3176	491.74
29.3320	526.31
29.3465	513.62
29.3609	517.83
29.3753	506.23
29.3898	503.95
29.4042	498.93
29.4187	504.60
29.4331	510.37
29.4475	511.53
29.4620	522.02
29.4764	524.25
29.4909	522.42
29.5053	491.01
29.5197	529.92
29.5342	532.87
29.5486	513.54
29.5631	544.18
29.5775	512.96
29.5919	501.37
29.6064	517.08
29.6208	535.81
29.6353	510.14
29.6497	492.39
29.6641	492.65
29.6786	478.04
29.6930	485.51
29.7075	511.17
29.7219	556.30
29.7363	491.80
29.7508	519.54
29.7652	535.85
29.7797	502.55
29.7941	535.99
29.8085	506.96
29.8230	522.12
29.8374	519.64
29.8519	498.66
29.8663	541.18
29.8807	536.65
29.8952	504.98
29.9096	504.05
29.9241	487.88
29.9385	522.49
29.9529	492.01
29.9674	507.04
29.9818	524.36
29.9963	539.69
30.0107	532.22
30.0251	521.79
30.0396	464.37
30.0540	493.68
30.0685	495.75
30.0829	505.61
30.0973	522.75
30.1118	517.97
30.1262	536.12
30.1407	504.46
30.1551	486.70
30.1695	529.83
30.1840	516.65
30.1984	524.50
30.2129	514.84
30.2273	481.40
30.2417	489.61
30.2562	506.57
30.2706	492.34
30.2851	482.07
30.2995	507.76
30.3139	514.66
30.3284	510.43
30.3428	514.76
30.3573	508.28
30.3717	505.87
30.3861	486.62
30.4006	510.53
30.4150	502.32
30.4295	517.65
30.4439	466.59
30.4583	515.85
30.4728	531.58
30.4872	481.70
30.5017	506.25
30.5161	533.39
30.5305	516.15
30.5450	517.61
30.5594	510.46
30.5739	517.25
30.5883	527.05
30.6028	541.93
30.6172	507.23
30.6316	509.26
30.6461	498.90
30.6605	556.45
30.6750	553.05
30.6894	575.51
30.7038	608.63
30.7183	571.73
30.7327	545.43
30.7472	591.81
30.7616	614.21
30.7760	639.91
30.7905	634.25
30.8049	649.31
30.8194	701.64
30.8338	668.55
30.8482	650.87
30.8627	688.41
30.8771	669.52
30.8916	683.44
30.9060	702.70
30.9204	630.77
30.9349	631.40
30.9493	612.02
30.9638	625.13
30.9782	636.49
30.9926	623.84
31.0071	577.67
31.0215	557.31
31.0360	540.89
31.0504	561.78
31.0648	581.15
31.0793	552.09
31.0937	545.51
31.1082	533.22
31.1226	573.13
31.1370	530.68
31.1515	529.74
31.1659	528.45
31.1804	521.69
31.1948	534.05
31.2092	510.92
31.2237	519.50
31.2381	526.27
31.2526	546.66
31.2670	545.50
31.2814	558.89
31.2959	538.25
31.3103	521.22
31.3248	529.62
31.3392	548.26
31.3536	547.76
31.3681	533.79
31.3825	521.16
31.3970	505.71
31.4114	512.94
31.4258	509.83
31.4403	529.18
31.4547	546.57
31.4692	529.47
31.4836	518.87
31.4980	509.16
31.5125	493.66
31.5269	522.64
31.5414	514.23
31.5558	520.39
31.5702	496.23
31.5847	492.04
31.5991	505.81
31.6136	503.96
31.6280	478.23
31.6424	484.77
31.6569	486.32
31.6713	488.90
31.6858	511.45
31.7002	511.25
31.7146	506.64
31.7291	486.81
31.7435	485.64
31.7580	489.41
31.7724	513.53
31.7868	514.42
31.8013	490.44
31.8157	495.25
31.8302	508.93
31.8446	526.60
31.8590	546.09
31.8735	537.26
31.8879	508.80
31.9024	505.79
31.9168	510.05
31.9312	515.42
31.9457	505.39
31.9601	518.70
31.9746	504.87
31.9890	511.54
32.0034	501.47
32.0179	524.88
32.0323	501.39
32.0468	471.43
32.0612	507.61
32.0756	551.24
32.0901	546.76
32.1045	494.79
32.1190	485.64
32.1334	512.55
32.1478	518.42
32.1623	523.51
32.1767	482.99
32.1912	509.79
32.2056	500.15
32.2200	522.28
32.2345	507.95
32.2489	489.83
32.2634	532.69
32.2778	541.20
32.2922	497.05
32.3067	487.54
32.3211	490.02
32.3356	488.90
32.3500	505.37
32.3644	492.54
32.3789	514.07
32.3933	507.70
32.4078	521.04
32.4222	520.43
32.4366	502.51
32.4511	472.98
32.4655	473.17
32.4800	504.08
32.4944	527.18
32.5088	476.05
32.5233	496.24
32.5377	501.94
32.5522	499.40
32.5666	494.88
32.5810	524.03
32.5955	491.05
32.6099	470.34
32.6244	499.52
32.6388	527.19
32.6532	506.39
32.6677	502.96
32.6821	509.55
32.6966	518.07
32.7110	499.30
32.7254	532.88
32.7399	493.86
32.7543	501.66
32.7688	495.17
32.7832	486.24
32.7976	482.18
32.8121	497.82
32.8265	519.84
32.8410	505.82
32.8554	515.35
32.8698	502.00
32.8843	524.97
32.8987	493.57
32.9132	505.57
32.9276	488.02
32.9420	507.63
32.9565	497.96
32.9709	531.93
32.9854	524.31
32.9998	524.69
33.0142	512.28
33.0287	506.73
33.0431	494.57
33.0576	525.48
33.0720	550.86
33.0864	533.62
33.1009	485.07
33.1153	550.69
33.1298	509.79
33.1442	492.13
33.1586	507.23
33.1731	530.65
33.1875	518.23
33.2020	490.95
33.2164	493.54
33.2308	501.80
33.2453	513.70
33.2597	487.95
33.2742	505.71
33.2886	468.96
33.3030	512.58
33.3175	513.63
33.3319	494.18
33.3464	497.48
33.3608	507.11
33.3752	491.34
33.3897	503.96
33.4041	501.75
33.4186	518.61
33.4330	530.02
33.4474	464.99
33.4619	476.36
33.4763	514.32
33.4908	525.61
33.5052	522.45
33.5196	489.02
33.5341	508.08
33.5485	492.58
33.5630	510.57
33.5774	500.49
33.5918	495.17
33.6063	473.05
33.6207	492.46
33.6352	520.06
33.6496	493.48
33.6640	512.66
33.6785	490.93
33.6929	521.87
33.7074	541.44
33.7218	488.40
33.7362	489.50
33.7507	542.98
33.7651	512.23
33.7796	486.97
33.7940	473.26
33.8084	528.40
33.8229	496.86
33.8373	528.28
33.8518	496.96
33.8662	483.33
33.8806	465.63
33.8951	498.21
33.9095	524.02
33.9240	514.12
33.9384	504.98
33.9528	501.97
33.9673	479.22
33.9817	487.44
33.9962	506.59
34.0106	515.84
34.0250	507.71
34.0395	473.34
34.0539	472.09
34.0684	513.07
34.0828	505.15
34.0972	523.45
34.1117	509.22
34.1261	523.35
34.1406	490.45
34.1550	504.32
34.1694	520.62
34.1839	495.13
34.1983	502.76
34.2128	509.39
34.2272	517.39
34.2417	519.58
34.2561	531.25
34.2705	524.42
34.2850	513.23
34.2994	492.38
34.3139	496.47
34.3283	505.16
34.3427	504.42
34.3572	506.82
34.3716	482.75
34.3861	500.43
34.4005	515.65
34.4149	524.10
34.4294	499.27
34.4438	501.78
34.4583	494.97
34.4727	526.32
34.4871	508.08
34.5016	513.97
34.5160	512.29
34.5305	505.33
34.5449	515.08
34.5593	460.91
34.5738	476.16
34.5882	508.90
34.6027	504.98
34.6171	493.90
34.6315	527.81
34.6460	521.46
34.6604	486.20
34.6749	511.62
34.6893	512.82
34.7037	524.48
34.7182	492.87
34.7326	510.32
34.7471	490.05
34.7615	497.00
34.7759	497.48
34.7904	503.23
34.8048	483.17
34.8193	489.26
34.8337	531.35
34.8481	506.82
34.8626	524.79
34.8770	529.52
34.8915	531.01
34.9059	527.49
34.9203	499.50
34.9348	496.54
34.9492	504.61
34.9637	490.95
34.9781	494.45
34.9925	491.20
35.0070	521.27
35.0214	507.46
35.0359	496.74
35.0503	500.21
35.0647	516.89
35.0792	533.18
35.0936	550.55
35.1081	512.49
35.1225	498.98
35.1369	530.82
35.1514	519.68
35.1658	530.44
35.1803	481.29
35.1947	522.15
35.2091	548.49
35.2236	491.50
35.2380	515.85
35.2525	533.11
35.2669	516.02
35.2813	484.21
35.2958	468.12
35.3102	504.24
35.3247	534.37
35.3391	522.54
35.3535	527.23
35.3680	526.13
35.3824	508.32
35.3969	505.41
35.4113	510.11
35.4257	505.09
35.4402	522.32
35.4546	494.22
35.4691	567.53
35.4835	562.37
35.4979	509.38
35.5124	512.85
35.5268	524.10
35.5413	550.60
35.5557	571.79
35.5701	528.88
35.5846	529.74
35.5990	523.41
35.6135	521.19
35.6279	538.87
35.6423	548.96
35.6568	515.76
35.6712	535.18
35.6857	589.11
35.7001	710.50
35.7145	725.50
35.7290	669.45
35.7434	671.59
35.7579	601.98
35.7723	628.68
35.7867	660.55
35.8012	658.97
35.8156	682.98
35.8301	617.98
35.8445	560.78
35.8589	604.09
35.8734	718.96
35.8878	896.31
35.9023	983.43
35.9167	1048.43
35.9311	1425.87
35.9456	2104.96
35.9600	2324.83
35.9745	1955.65
35.9889	1935.84
36.0033	2519.51
36.0178	2910.07
36.0322	2292.72
36.0467	1897.65
36.0611	1671.64
36.0755	1565.33
36.0900	1598.08
36.1044	1334.71
36.1189	1423.35
36.1333	1262.42
36.1477	1093.69
36.1622	1020.59
36.1766	955.31
36.1911	912.63
36.2055	811.37
36.2199	834.72
36.2344	845.37
36.2488	860.24
36.2633	844.48
36.2777	862.86
36.2921	867.77
36.3066	900.80
36.3210	905.85
36.3355	982.79
36.3499	957.23
36.3643	972.24
36.3788	964.48
36.3932	920.89
36.4077	831.38
36.4221	839.49
36.4365	809.31
36.4510	749.96
36.4654	772.10
36.4799	764.45
36.4943	687.20
36.5087	660.02
36.5232	660.25
36.5376	652.09
36.5521	658.72
36.5665	610.86
36.5809	559.35
36.5954	573.55
36.6098	535.58
36.6243	541.56
36.6387	565.14
36.6531	592.62
36.6676	559.88
36.6820	571.82
36.6965	552.11
36.7109	505.86
36.7253	560.44
36.7398	532.05
36.7542	536.87
36.7687	535.11
36.7831	582.17
36.7975	564.88
36.8120	581.41
36.8264	581.17
36.8409	615.08
36.8553	596.36
36.8697	590.67
36.8842	576.42
36.8986	617.28
36.9131	624.55
36.9275	612.34
36.9419	576.41
36.9564	552.60
36.9708	605.54
36.9853	556.81
36.9997	562.24
37.0141	530.01
37.0286	580.69
37.0430	528.52
37.0575	532.44
37.0719	572.54
37.0863	565.95
37.1008	514.96
37.1152	539.96
37.1297	540.44
37.1441	472.65
37.1585	489.38
37.1730	511.48
37.1874	531.44
37.2019	515.82
37.2163	518.98
37.2307	504.47
37.2452	521.36
37.2596	506.97
37.2741	506.35
37.2885	503.94
37.3029	508.75
37.3174	458.34
37.3318	505.98
37.3463	524.74
37.3607	516.98
37.3751	505.32
37.3896	483.49
37.4040	478.74
37.4185	512.18
37.4329	490.37
37.4473	481.98
37.4618	492.06
37.4762	477.04
37.4907	527.42
37.5051	514.04
37.5195	511.64
37.5340	497.75
37.5484	484.93
37.5629	459.54
37.5773	506.19
37.5917	488.48
37.6062	488.12
37.6206	518.51
37.6351	498.35
37.6495	491.30
37.6639	534.62
37.6784	522.26
37.6928	475.56
37.7073	497.00
37.7217	506.08
37.7361	507.71
37.7506	505.66
37.7650	511.12
37.7795	512.98
37.7939	502.48
37.8083	488.33
37.8228	525.78
37.8372	498.69
37.8517	501.95
37.8661	522.43
37.8805	500.61
37.8950	495.98
37.9094	550.71
37.9239	514.33
37.9383	513.98
37.9528	481.15
37.9672	516.73
37.9816	518.07
37.9961	526.56
38.0105	546.72
38.0250	525.18
38.0394	500.56
38.0538	485.45
38.0683	510.49
38.0827	513.61
38.0972	503.20
38.1116	498.23
38.1260	519.34
38.1405	499.79
38.1549	492.94
38.1694	514.58
38.1838	517.37
38.1982	521.04
38.2127	496.64
38.2271	499.52
38.2416	519.04
38.2560	504.21
38.2704	493.23
38.2849	498.67
38.2993	519.13
38.3138	538.03
38.3282	508.13
38.3426	523.82
38.3571	515.83
38.3715	562.43
38.3860	563.14
38.4004	524.85
38.4148	539.12
38.4293	561.63
38.4437	570.80
38.4582	605.65
38.4726	672.29
38.4870	670.97
38.5015	668.04
38.5159	750.11
38.5304	790.91
38.5448	770.13
38.5592	802.42
38.5737	728.79
38.5881	742.44
38.6026	723.41
38.6170	687.63
38.6314	706.97
38.6459	681.19
38.6603	649.14
38.6748	626.68
38.6892	596.03
38.7036	581.98
38.7181	580.26
38.7325	536.48
38.7470	534.06
38.7614	531.53
38.7758	546.68
38.7903	515.13
38.8047	492.32
38.8192	527.75
38.8336	487.89
38.8480	506.73
38.8625	535.87
38.8769	528.00
38.8914	512.12
38.9058	506.26
38.9202	500.92
38.9347	514.32
38.9491	507.33
38.9636	496.81
38.9780	509.93
38.9924	501.37
39.0069	491.28
39.0213	500.89
39.0358	509.04
39.0502	480.48
39.0646	508.79
39.0791	483.64
39.0935	481.93
39.1080	510.54
39.1224	503.26
39.1368	503.19
39.1513	485.14
39.1657	481.70
39.1802	500.33
39.1946	522.36
39.2090	513.56
39.2235	503.36
39.2379	473.63
39.2524	508.46
39.2668	515.87
39.2812	518.44
39.2957	510.86
39.3101	512.40
39.3246	515.57
39.3390	495.81
39.3534	502.98
39.3679	512.59
39.3823	488.14
39.3968	473.30
39.4112	489.32
39.4256	500.61
39.4401	515.88
39.4545	526.57
39.4690	524.43
39.4834	527.03
39.4978	524.05
39.5123	476.03
39.5267	501.54
39.5412	502.05
39.5556	498.61
39.5700	523.91
39.5845	537.27
39.5989	477.69
39.6134	491.19
39.6278	488.16
39.6422	487.82
39.6567	521.24
39.6711	491.60
39.6856	498.90
39.7000	488.47
39.7144	515.41
39.7289	476.40
39.7433	520.52
39.7578	500.71
39.7722	493.24
39.7866	477.82
39.8011	504.21
39.8155	530.87
39.8300	527.37
39.8444	510.33
39.8588	520.60
39.8733	506.24
39.8877	480.92
39.9022	534.97
39.9166	499.54
39.9310	493.10
39.9455	478.94
39.9599	464.78
39.9744	469.28
39.9888	505.46
40.0032	492.41
40.0177	531.44
40.0321	489.58
40.0466	479.31
40.0610	491.19
40.0754	488.80
40.0899	530.91
40.1043	520.41
40.1188	495.47
40.1332	515.72
40.1476	464.94
40.1621	501.45
40.1765	495.00
40.1910	460.93
40.2054	497.56
40.2198	507.54
40.2343	507.57
40.2487	488.20
40.2632	515.00
40.2776	538.63
40.2920	518.13
40.3065	496.90
40.3209	497.59
40.3354	477.71
40.3498	511.53
40.3642	475.72
40.3787	456.41
40.3931	507.52
40.4076	522.29
40.4220	488.26
40.4364	519.08
40.4509	503.63
40.4653	519.77
40.4798	484.47
40.4942	474.55
40.5086	479.68
40.5231	491.87
40.5375	523.73
40.5520	489.37
40.5664	475.40
40.5808	528.94
40.5953	532.04
40.6097	519.78
40.6242	487.01
40.6386	490.87
40.6530	477.60
40.6675	499.14
40.6819	519.04
40.6964	501.64
40.7108	462.88
40.7252	513.62
40.7397	501.61
40.7541	532.46
40.7686	506.12
40.7830	489.52
40.7974	501.81
40.8119	500.89
40.8263	487.28
40.8408	499.92
40.8552	498.43
40.8696	514.37
40.8841	476.76
40.8985	509.46
40.9130	489.04
40.9274	473.66
40.9418	492.37
40.9563	497.63
40.9707	497.69
40.9852	507.52
40.9996	463.62
41.0140	480.41
41.0285	530.68
41.0429	494.38
41.0574	500.40
41.0718	489.72
41.0862	510.35
41.1007	508.84
41.1151	508.84
41.1296	522.41
41.1440	489.91
41.1584	521.38
41.1729	528.08
41.1873	515.76
41.2018	484.51
41.2162	487.11
41.2306	473.54
41.2451	457.68
41.2595	494.05
41.2740	533.17
41.2884	466.94
41.3028	489.32
41.3173	488.32
41.3317	493.33
41.3462	485.29
41.3606	519.16
41.3750	488.95
41.3895	510.90
41.4039	485.95
41.4184	493.24
41.4328	522.50
41.4472	501.87
41.4617	525.38
41.4761	487.73
41.4906	485.48
41.5050	496.25
41.5194	494.91
41.5339	489.50
41.5483	541.01
41.5628	498.10
41.5772	504.57
41.5916	530.38
41.6061	515.99
41.6205	486.21
41.6350	505.57
41.6494	496.87
41.6639	481.88
41.6783	495.43
41.6927	509.56
41.7072	506.45
41.7216	536.09
41.7361	505.18
41.7505	509.10
41.7649	503.88
41.7794	482.09
41.7938	500.35
41.8083	482.04
41.8227	487.19
41.8371	476.53
41.8516	484.59
41.8660	532.45
41.8805	517.00
41.8949	542.65
41.9093	505.09
41.9238	517.12
41.9382	560.78
41.9527	524.35
41.9671	516.85
41.9815	522.06
41.9960	577.23
42.0104	572.12
42.0249	564.71
42.0393	563.34
42.0537	562.97
42.0682	577.64
42.0826	560.19
42.0971	631.54
42.1115	593.87
42.1259	583.90
42.1404	567.66
42.1548	611.69
42.1693	651.85
42.1837	717.89
42.1981	737.44
42.2126	875.20
42.2270	985.44
42.2415	1130.40
42.2559	1247.78
42.2703	1340.57
42.2848	1478.58
42.2992	1603.93
42.3137	1697.51
42.3281	1663.30
42.3425	1581.93
42.3570	1475.46
42.3714	1447.76
42.3859	1375.65
42.4003	1340.52
42.4147	1330.79
42.4292	1337.86
42.4436	1171.92
42.4581	1045.08
42.4725	936.56
42.4869	847.38
42.5014	733.03
42.5158	709.63
42.5303	689.03
42.5447	628.98
42.5591	585.34
42.5736	560.25
42.5880	567.32
42.6025	603.93
42.6169	574.20
42.6313	527.03
42.6458	540.05
42.6602	534.30
42.6747	530.88
42.6891	517.39
42.7035	503.60
42.7180	502.54
42.7324	518.25
42.7469	500.44
42.7613	497.67
42.7757	476.47
42.7902	513.63
42.8046	519.73
42.8191	505.95
42.8335	518.03
42.8479	541.74
42.8624	545.27
42.8768	520.03
42.8913	498.02
42.9057	499.61
42.9201	510.87
42.9346	528.43
42.9490	499.55
42.9635	492.13
42.9779	523.12
42.9923	541.68
43.0068	524.18
43.0212	508.21
43.0357	515.61
43.0501	507.75
43.0645	517.90
43.0790	514.14
43.0934	535.80
43.1079	530.77
43.1223	512.35
43.1367	492.92
43.1512	476.88
43.1656	523.48
43.1801	538.14
43.1945	471.80
43.2089	527.28
43.2234	527.52
43.2378	556.76
43.2523	548.95
43.2667	531.06
43.2811	517.40
43.2956	501.74
43.3100	536.28
43.3245	512.68
43.3389	538.10
43.3533	502.35
43.3678	506.18
43.3822	533.44
43.3967	508.01
43.4111	479.84
43.4255	564.67
43.4400	561.46
43.4544	516.28
43.4689	530.24
43.4833	551.89
43.4977	522.33
43.5122	523.70
43.5266	506.38
43.5411	531.70
43.5555	537.90
43.5699	514.33
43.5844	536.86
43.5988	507.49
43.6133	516.79
43.6277	538.36
43.6421	530.65
43.6566	519.14
43.6710	496.94
43.6855	503.83
43.6999	509.59
43.7143	519.27
43.7288	532.17
43.7432	510.17
43.7577	525.69
43.7721	515.48
43.7865	517.29
43.8010	540.29
43.8154	530.57
43.8299	543.89
43.8443	506.58
43.8587	518.96
43.8732	550.47
43.8876	509.58
43.9021	545.88
43.9165	512.43
43.9309	522.98
43.9454	548.38
43.9598	531.96
43.9743	539.14
43.9887	498.65
44.0031	501.59
44.0176	552.47
44.0320	537.67
44.0465	515.58
44.0609	564.13
44.0753	563.30
44.0898	588.24
44.1042	585.86
44.1187	595.45
44.1331	575.73
44.1475	600.20
44.1620	641.27
44.1764	643.06
44.1909	616.41
44.2053	590.13
44.2197	619.18
44.2342	597.08
44.2486	605.39
44.2631	541.44
44.2775	598.80
44.2919	571.92
44.3064	570.07
44.3208	620.97
44.3353	624.76
44.3497	589.92
44.3641	589.23
44.3786	575.47
44.3930	561.74
44.4075	525.14
44.4219	569.06
44.4363	601.75
44.4508	580.57
44.4652	589.37
44.4797	585.14
44.4941	565.86
44.5085	555.19
44.5230	562.78
44.5374	558.33
44.5519	591.51
44.5663	603.36
44.5807	615.44
44.5952	575.90
44.6096	585.20
44.6241	549.72
44.6385	584.89
44.6529	588.13
44.6674	590.53
44.6818	581.48
44.6963	612.38
44.7107	637.55
44.7251	639.98
44.7396	728.19
44.7540	791.90
44.7685	830.66
44.7829	872.53
44.7973	853.62
44.8118	825.64
44.8262	809.93
44.8407	784.06
44.8551	722.38
44.8695	735.20
44.8840	725.72
44.8984	740.34
44.9129	673.83
44.9273	665.59
44.9417	617.42
44.9562	594.37
44.9706	589.88
44.9851	576.53
44.9995	558.85
45.0139	500.25
45.0284	540.39
45.0428	518.68
45.0573	541.88
45.0717	490.20
45.0861	521.57
45.1006	487.80
45.1150	503.75
45.1295	520.33
45.1439	475.47
45.1583	494.99
45.1728	558.42
45.1872	502.18
45.2017	481.66
45.2161	528.87
45.2305	545.68
45.2450	516.52
45.2594	509.75
45.2739	507.10
45.2883	485.80
45.3028	499.98
45.3172	492.66
45.3316	478.31
45.3461	506.44
45.3605	481.43
45.3750	478.07
45.3894	499.11
45.4038	518.06
45.4183	529.44
45.4327	536.56
45.4472	477.48
45.4616	489.28
45.4760	487.03
45.4905	508.62
45.5049	498.12
45.5194	510.57
45.5338	532.13
45.5482	515.35
45.5627	525.11
45.5771	520.20
45.5916	458.02
45.6060	502.07
45.6204	488.00
45.6349	537.06
45.6493	537.02
45.6638	573.66
45.6782	501.84
45.6926	501.71
45.7071	517.67
45.7215	524.33
45.7360	491.44
45.7504	520.84
45.7648	517.16
45.7793	479.58
45.7937	490.55
45.8082	494.32
45.8226	491.23
45.8370	530.90
45.8515	509.81
45.8659	506.59
45.8804	492.66
45.8948	520.19
45.9092	526.30
45.9237	520.98
45.9381	511.21
45.9526	475.64
45.9670	523.39
45.9814	546.84
45.9959	504.00
46.0103	500.42
46.0248	481.98
46.0392	507.29
46.0536	513.29
46.0681	493.15
46.0825	492.71
46.0970	492.74
46.1114	520.21
46.1258	535.95
46.1403	506.43
46.1547	494.51
46.1692	514.04
46.1836	504.63
46.1980	505.20
46.2125	495.73
46.2269	511.35
46.2414	521.45
46.2558	485.75
46.2702	488.85
46.2847	487.35
46.2991	480.10
46.3136	508.79
46.3280	531.90
46.3424	511.64
46.3569	505.81
46.3713	467.83
46.3858	491.12
46.4002	489.24
46.4146	515.74
46.4291	536.78
46.4435	515.96
46.4580	515.56
46.4724	550.08
46.4868	506.46
46.5013	496.65
46.5157	520.81
46.5302	527.26
46.5446	525.07
46.5590	520.12
46.5735	482.73
46.5879	531.71
46.6024	510.32
46.6168	499.77
46.6312	519.59
46.6457	500.90
46.6601	478.49
46.6746	487.93
46.6890	501.33
46.7034	500.86
46.7179	511.04
46.7323	502.19
46.7468	516.71
46.7612	537.45
46.7756	525.15
46.7901	548.31
46.8045	519.52
46.8190	501.93
46.8334	482.43
46.8478	498.04
46.8623	495.43
46.8767	496.87
46.8912	518.48
46.9056	548.90
46.9200	516.01
46.9345	536.71
46.9489	533.86
46.9634	512.10
46.9778	494.03
46.9922	504.12
47.0067	498.40
47.0211	505.22
47.0356	480.33
47.0500	526.01
47.0644	514.40
47.0789	492.55
47.0933	514.91
47.1078	522.42
47.1222	524.92
47.1366	518.98
47.1511	503.26
47.1655	522.52
47.1800	537.17
47.1944	487.59
47.2088	517.20
47.2233	507.28
47.2377	483.26
47.2522	508.31
47.2666	514.19
47.2810	488.60
47.2955	471.35
47.3099	488.71
47.3244	517.43
47.3388	530.32
47.3532	523.84
47.3677	475.57
47.3821	489.72
47.3966	502.45
47.4110	498.85
47.4254	526.74
47.4399	521.15
47.4543	498.02
47.4688	491.18
47.4832	512.36
47.4976	531.63
47.5121	514.20
47.5265	501.94
47.5410	495.17
47.5554	510.34
47.5698	503.81
47.5843	493.58
47.5987	466.60
47.6132	506.53
47.6276	487.62
47.6420	490.71
47.6565	526.19
47.6709	519.83
47.6854	461.60
47.6998	504.35
47.7142	530.98
47.7287	527.93
47.7431	515.08
47.7576	485.77
47.7720	489.02
47.7864	535.46
47.8009	523.93
47.8153	498.79
47.8298	510.22
47.8442	499.15
47.8586	528.36
47.8731	535.90
47.8875	492.41
47.9020	502.18
47.9164	515.94
47.9308	511.52
47.9453	505.71
47.9597	523.62
47.9742	480.01
47.9886	509.03
48.0030	503.73
48.0175	507.61
48.0319	530.39
48.0464	498.36
48.0608	497.44
48.0752	519.22
48.0897	514.46
48.1041	513.79
48.1186	542.71
48.1330	516.89
48.1474	490.02
48.1619	504.23
48.1763	502.25
48.1908	520.01
48.2052	490.90
48.2196	498.35
48.2341	490.80
48.2485	510.42
48.2630	485.07
48.2774	468.42
48.2918	481.97
48.3063	519.41
48.3207	516.05
48.3352	515.62
48.3496	512.40
48.3640	489.26
48.3785	525.97
48.3929	518.17
48.4074	490.17
48.4218	488.04
48.4362	501.77
48.4507	517.22
48.4651	485.24
48.4796	497.59
48.4940	520.22
48.5084	482.07
48.5229	494.99
48.5373	495.92
48.5518	512.34
48.5662	502.75
48.5806	507.37
48.5951	507.28
48.6095	512.44
48.6240	494.83
48.6384	490.76
48.6528	541.65
48.6673	495.87
48.6817	508.53
48.6962	496.10
48.7106	529.73
48.7250	562.84
48.7395	519.41
48.7539	530.25
48.7684	508.60
48.7828	546.63
48.7972	504.82
48.8117	524.26
48.8261	538.18
48.8406	559.34
48.8550	526.25
48.8694	547.51
48.8839	517.32
48.8983	525.78
48.9128	531.57
48.9272	555.33
48.9416	581.25
48.9561	560.43
48.9705	579.55
48.9850	588.50
48.9994	565.65
49.0139	570.27
49.0283	625.41
49.0427	630.28
49.0572	604.90
49.0716	621.46
49.0861	706.48
49.1005	711.98
49.1149	717.18
49.1294	737.57
49.1438	751.65
49.1583	811.84
49.1727	890.85
49.1871	914.08
49.2016	981.92
49.2160	1028.37
49.2305	1096.64
49.2449	1225.20
49.2593	1264.43
49.2738	1355.58
49.2882	1461.38
49.3027	1537.96
49.3171	1645.41
49.3315	1719.70
49.3460	1717.98
49.3604	1815.96
49.3749	1798.02
49.3893	1825.60
49.4037	1754.83
49.4182	1813.89
49.4326	1818.73
49.4471	1705.36
49.4615	1660.23
49.4759	1602.77
49.4904	1525.73
49.5048	1462.29
49.5193	1335.88
49.5337	1237.91
49.5481	1174.77
49.5626	1123.32
49.5770	1057.77
49.5915	998.28
49.6059	940.66
49.6203	862.84
49.6348	873.74
49.6492	782.52
49.6637	731.54
49.6781	716.56
49.6925	693.50
49.7070	711.63
49.7214	631.62
49.7359	586.09
49.7503	614.22
49.7647	609.80
49.7792	622.95
49.7936	608.22
49.8081	588.84
49.8225	545.25
49.8369	543.31
49.8514	550.80
49.8658	587.18
49.8803	554.39
49.8947	590.40
49.9091	580.27
49.9236	568.22
49.9380	551.81
49.9525	557.34
49.9669	538.82
49.9813	517.56
49.9958	529.12
50.0102	534.23
50.0247	520.28
50.0391	533.16
50.0535	551.42
50.0680	531.85
50.0824	525.24
50.0969	518.25
50.1113	524.18
50.1257	523.94
50.1402	506.28
50.1546	508.85
50.1691	555.96
50.1835	529.91
50.1979	495.94
50.2124	510.88
50.2268	510.34
50.2413	517.37
50.2557	544.30
50.2701	526.27
50.2846	540.72
50.2990	500.16
50.3135	486.79
50.3279	509.57
50.3423	517.89
50.3568	519.77
50.3712	503.76
50.3857	496.52
50.4001	496.97
50.4145	521.60
50.4290	539.38
50.4434	520.31
50.4579	496.83
50.4723	520.70
50.4867	533.17
50.5012	491.43
50.5156	500.00
50.5301	499.59
50.5445	507.77
50.5589	527.52
50.5734	509.51
50.5878	508.10
50.6023	517.76
50.6167	518.92
50.6311	515.11
50.6456	511.28
50.6600	506.87
50.6745	514.20
50.6889	499.86
50.7033	502.33
50.7178	564.60
50.7322	533.07
50.7467	550.13
50.7611	549.05
50.7755	525.20
50.7900	518.68
50.8044	500.04
50.8189	493.56
50.8333	510.15
50.8477	498.38
50.8622	508.54
50.8766	517.40
50.8911	537.45
50.9055	503.26
50.9199	463.72
50.9344	493.18
50.9488	509.41
50.9633	493.38
50.9777	500.74
50.9921	485.02
51.0066	487.98
51.0210	522.33
51.0355	545.92
51.0499	505.07
51.0643	468.58
51.0788	492.46
51.0932	526.47
51.1077	529.19
51.1221	509.16
51.1365	524.18
51.1510	513.33
51.1654	525.22
51.1799	485.93
51.1943	507.06
51.2087	529.84
51.2232	530.64
51.2376	533.88
51.2521	508.42
51.2665	506.76
51.2809	531.84
51.2954	513.38
51.3098	518.73
51.3243	502.92
51.3387	516.83
51.3531	505.04
51.3676	509.30
51.3820	486.02
51.3965	486.80
51.4109	498.44
51.4253	520.47
51.4398	539.81
51.4542	520.03
51.4687	490.48
51.4831	499.51
51.4975	508.93
51.5120	495.48
51.5264	499.13
51.5409	488.37
51.5553	504.18
51.5697	469.29
51.5842	513.98
51.5986	483.57
51.6131	494.98
51.6275	516.71
51.6419	524.77
51.6564	531.14
51.6708	536.77
51.6853	499.84
51.6997	479.01
51.7141	512.30
51.7286	516.31
51.7430	522.34
51.7575	510.10
51.7719	481.64
51.7863	521.77
51.8008	525.51
51.8152	492.00
51.8297	500.31
51.8441	488.87
51.8585	524.69
51.8730	501.28
51.8874	485.76
51.9019	546.60
51.9163	510.82
51.9307	519.63
51.9452	526.27
51.9596	525.75
51.9741	506.45
51.9885	533.31
52.0029	521.47
52.0174	529.77
52.0318	524.31
52.0463	506.11
52.0607	496.52
52.0751	523.37
52.0896	531.19
52.1040	495.67
52.1185	503.35
52.1329	525.39
52.1473	478.20
52.1618	498.60
52.1762	513.88
52.1907	471.42
52.2051	492.82
52.2195	518.01
52.2340	519.20
52.2484	519.95
52.2629	501.07
52.2773	540.76
52.2917	505.63
52.3062	480.58
52.3206	523.18
52.3351	510.22
52.3495	509.14
52.3639	489.02
52.3784	512.29
52.3928	510.72
52.4073	492.30
52.4217	493.30
52.4361	501.65
52.4506	489.80
52.4650	497.91
52.4795	501.97
52.4939	522.86
52.5083	541.39
52.5228	500.64
52.5372	506.59
52.5517	500.70
52.5661	517.02
52.5805	506.24
52.5950	510.69
52.6094	497.96
52.6239	479.99
52.6383	494.81
52.6527	519.20
52.6672	506.14
52.6816	523.47
52.6961	519.73
52.7105	602.80
52.7250	536.96
52.7394	531.82
52.7538	515.47
52.7683	539.41
52.7827	542.43
52.7972	523.82
52.8116	512.38
52.8260	507.89
52.8405	540.18
52.8549	518.06
52.8694	501.40
52.8838	474.06
52.8982	486.92
52.9127	492.81
52.9271	508.00
52.9416	515.36
52.9560	512.73
52.9704	494.51
52.9849	504.95
52.9993	478.46
53.0138	541.24
53.0282	498.40
53.0426	508.83
53.0571	504.15
53.0715	515.83
53.0860	514.56
53.1004	508.14
53.1148	519.83
53.1293	558.09
53.1437	482.29
53.1582	484.41
53.1726	520.99
53.1870	506.50
53.2015	517.97
53.2159	538.10
53.2304	500.84
53.2448	518.07
53.2592	554.51
53.2737	524.62
53.2881	539.58
53.3026	510.99
53.3170	522.88
53.3314	537.10
53.3459	499.09
53.3603	521.00
53.3748	523.95
53.3892	483.17
53.4036	479.65
53.4181	505.11
53.4325	543.33
53.4470	506.37
53.4614	495.84
53.4758	506.17
53.4903	508.75
53.5047	521.36
53.5192	529.05
53.5336	527.96
53.5480	526.43
53.5625	529.83
53.5769	498.01
53.5914	498.68
53.6058	515.29
53.6202	553.50
53.6347	517.99
53.6491	515.51
53.6636	540.78
53.6780	525.01
53.6924	552.94
53.7069	524.01
53.7213	499.83
53.7358	507.91
53.7502	510.03
53.7646	504.34
53.7791	534.50
53.7935	504.62
53.8080	522.57
53.8224	530.22
53.8368	521.44
53.8513	528.13
53.8657	506.20
53.8802	513.86
53.8946	513.07
53.9090	518.67
53.9235	530.39
53.9379	515.18
53.9524	467.42
53.9668	481.30
53.9812	513.80
53.9957	499.11
54.0101	480.74
54.0246	494.23
54.0390	502.90
54.0534	498.32
54.0679	508.94
54.0823	532.80
54.0968	513.88
54.1112	551.54
54.1256	506.35
54.1401	462.83
54.1545	469.11
54.1690	514.11
54.1834	493.21
54.1978	489.17
54.2123	498.61
54.2267	508.22
54.2412	501.28
54.2556	513.96
54.2700	489.07
54.2845	496.16
54.2989	501.27
54.3134	523.18
54.3278	559.98
54.3422	541.18
54.3567	526.10
54.3711	514.00
54.3856	481.07
54.4000	491.62
54.4144	498.34
54.4289	529.95
54.4433	537.61
54.4578	520.57
54.4722	509.52
54.4866	525.60
54.5011	529.48
54.5155	532.01
54.5300	529.69
54.5444	531.27
54.5588	505.45
54.5733	501.90
54.5877	501.13
54.6022	522.77
54.6166	541.26
54.6310	546.43
54.6455	560.81
54.6599	515.92
54.6744	531.25
54.6888	538.91
54.7032	571.68
54.7177	571.34
54.7321	543.39
54.7466	521.46
54.7610	558.79
54.7754	538.79
54.7899	558.65
54.8043	579.40
54.8188	579.24
54.8332	566.35
54.8476	592.66
54.8621	576.68
54.8765	560.07
54.8910	555.83
54.9054	607.41
54.9198	592.58
54.9343	577.69
54.9487	555.41
54.9632	553.03
54.9776	545.68
54.9920	547.28
55.0065	559.97
55.0209	551.00
55.0354	539.40
55.0498	567.39
55.0642	542.60
55.0787	529.86
55.0931	548.12
55.1076	541.25
55.1220	547.62
55.1364	540.54
55.1509	519.68
55.1653	526.22
55.1798	538.32
55.1942	537.31
55.2086	542.97
55.2231	517.53
55.2375	510.92
55.2520	503.89
55.2664	502.42
55.2808	524.45
55.2953	528.20
55.3097	531.38
55.3242	511.51
55.3386	539.54
55.3530	534.66
55.3675	516.84
55.3819	515.28
55.3964	495.57
55.4108	547.56
55.4252	521.52
55.4397	527.25
55.4541	508.20
55.4686	510.92
55.4830	506.98
55.4974	518.91
55.5119	507.42
55.5263	546.36
55.5408	524.46
55.5552	519.83
55.5696	512.87
55.5841	504.67
55.5985	540.02
55.6130	538.31
55.6274	524.18
55.6418	508.67
55.6563	521.69
55.6707	522.85
55.6852	532.17
55.6996	535.46
55.7140	542.29
55.7285	511.69
55.7429	495.31
55.7574	508.05
55.7718	513.94
55.7862	536.99
55.8007	553.88
55.8151	539.81
55.8296	547.66
55.8440	511.03
55.8584	546.45
55.8729	530.16
55.8873	539.98
55.9018	556.22
55.9162	536.95
55.9306	512.99
55.9451	517.46
55.9595	501.67
55.9740	535.91
55.9884	524.93
56.0028	501.33
56.0173	501.90
56.0317	529.28
56.0462	536.87
56.0606	539.97
56.0750	527.39
56.0895	511.11
56.1039	477.50
56.1184	536.96
56.1328	548.73
56.1472	516.68
56.1617	519.69
56.1761	501.49
56.1906	486.73
56.2050	518.59
56.2194	553.91
56.2339	513.41
56.2483	536.98
56.2628	491.58
56.2772	506.39
56.2916	538.34
56.3061	499.29
56.3205	517.90
56.3350	519.85
56.3494	511.21
56.3639	518.41
56.3783	509.02
56.3927	520.86
56.4072	519.36
56.4216	523.01
56.4361	528.25
56.4505	511.94
56.4649	524.28
56.4794	530.18
56.4938	514.54
56.5083	519.92
56.5227	549.04
56.5371	534.51
56.5516	477.80
56.5660	497.06
56.5805	560.16
56.5949	538.87
56.6093	527.61
56.6238	538.92
56.6382	523.05
56.6527	510.91
56.6671	528.49
56.6815	524.33
56.6960	552.50
56.7104	562.44
56.7249	499.75
56.7393	515.76
56.7537	505.86
56.7682	525.86
56.7826	509.31
56.7971	514.41
56.8115	533.94
56.8259	562.46
56.8404	534.37
56.8548	513.09
56.8693	521.64
56.8837	512.12
56.8981	570.62
56.9126	525.23
56.9270	489.37
56.9415	539.27
56.9559	510.88
56.9703	535.92
56.9848	539.72
56.9992	551.27
57.0137	526.67
57.0281	530.47
57.0425	521.12
57.0570	535.20
57.0714	514.06
57.0859	531.46
57.1003	532.01
57.1147	532.73
57.1292	535.04
57.1436	528.41
57.1581	536.89
57.1725	525.97
57.1869	537.11
57.2014	549.46
57.2158	517.95
57.2303	570.30
57.2447	542.64
57.2591	509.09
57.2736	496.02
57.2880	515.34
57.3025	537.73
57.3169	513.11
57.3313	527.80
57.3458	524.52
57.3602	527.41
57.3747	518.79
57.3891	502.25
57.4035	499.00
57.4180	520.64
57.4324	530.77
57.4469	522.92
57.4613	514.79
57.4757	545.64
57.4902	504.46
57.5046	526.33
57.5191	529.47
57.5335	529.81
57.5479	525.50
57.5624	500.72
57.5768	537.23
57.5913	525.73
57.6057	525.04
57.6201	526.56
57.6346	537.54
57.6490	526.70
57.6635	528.14
57.6779	530.76
57.6923	485.39
57.7068	521.68
57.7212	551.90
57.7357	538.94
57.7501	530.97
57.7645	527.33
57.7790	529.09
57.7934	517.41
57.8079	533.24
57.8223	542.18
57.8367	533.01
57.8512	533.53
57.8656	504.91
57.8801	531.29
57.8945	576.42
57.9089	522.60
57.9234	550.36
57.9378	558.58
57.9523	548.52
57.9667	498.56
57.9811	526.35
57.9956	553.43
58.0100	525.51
58.0245	509.11
58.0389	530.77
58.0533	541.74
58.0678	554.46
58.0822	547.66
58.0967	555.87
58.1111	522.08
58.1255	539.16
58.1400	529.98
58.1544	512.80
58.1689	523.15
58.1833	530.24
58.1977	552.77
58.2122	574.33
58.2266	545.89
58.2411	585.92
58.2555	583.93
58.2699	601.28
58.2844	599.78
58.2988	631.07
58.3133	605.65
58.3277	632.88
58.3421	617.78
58.3566	630.22
58.3710	632.79
58.3855	630.58
58.3999	597.89
58.4143	614.04
58.4288	646.33
58.4432	611.65
58.4577	602.20
58.4721	651.78
58.4865	642.99
58.5010	642.60
58.5154	624.04
58.5299	610.43
58.5443	610.56
58.5587	625.81
58.5732	598.38
58.5876	580.09
58.6021	589.92
58.6165	573.90
58.6309	578.60
58.6454	577.28
58.6598	607.47
58.6743	561.35
58.6887	583.15
58.7031	595.50
58.7176	599.03
58.7320	545.49
58.7465	555.96
58.7609	514.55
58.7753	535.63
58.7898	568.40
58.8042	559.12
58.8187	576.82
58.8331	586.67
58.8475	591.09
58.8620	589.01
58.8764	571.50
58.8909	561.90
58.9053	568.71
58.9197	567.34
58.9342	536.97
58.9486	543.52
58.9631	536.47
58.9775	539.10
58.9919	551.46
59.0064	543.64
59.0208	554.29
59.0353	572.75
59.0497	530.97
59.0641	563.71
59.0786	563.96
59.0930	545.26
59.1075	527.19
59.1219	540.84
59.1363	551.80
59.1508	524.80
59.1652	557.52
59.1797	549.62
59.1941	537.00
59.2085	529.23
59.2230	526.06
59.2374	544.08
59.2519	587.37
59.2663	527.08
59.2807	537.49
59.2952	560.07
59.3096	566.66
59.3241	565.35
59.3385	555.36
59.3529	590.08
59.3674	594.98
59.3818	562.47
59.3963	563.64
59.4107	546.39
59.4251	547.11
59.4396	578.10
59.4540	574.82
59.4685	566.25
59.4829	575.90
59.4973	559.19
59.5118	535.98
59.5262	591.08
59.5407	582.90
59.5551	520.92
59.5695	557.61
59.5840	558.62
59.5984	544.76
59.6129	559.39
59.6273	517.71
59.6417	506.30
59.6562	526.87
59.6706	562.72
59.6851	531.76
59.6995	507.87
59.7139	553.66
59.7284	538.32
59.7428	556.57
59.7573	563.00
59.7717	537.12
59.7861	544.12
59.8006	552.77
59.8150	590.18
59.8295	553.36
59.8439	528.04
59.8583	566.64
59.8728	570.08
59.8872	514.07
59.9017	552.71
59.9161	533.85
59.9305	540.64
59.9450	569.66
59.9594	573.68
59.9739	543.41
59.9883	540.69
60.0027	560.42
60.0172	548.85
60.0316	546.63
60.0461	531.40
60.0605	572.26
60.0750	547.57
60.0894	570.05
60.1038	514.68
60.1183	559.96
60.1327	584.94
60.1472	527.39
60.1616	563.79
60.1760	538.75
60.1905	560.63
60.2049	509.21
60.2194	516.90
60.2338	549.58
60.2482	531.89
60.2627	522.88
60.2771	534.21
60.2916	509.59
60.3060	487.33
60.3204	524.03
60.3349	538.24
60.3493	542.35
60.3638	536.48
60.3782	550.97
60.3926	522.80
60.4071	550.10
60.4215	522.38
60.4360	514.26
60.4504	543.50
60.4648	530.07
60.4793	525.86
60.4937	544.31
60.5082	553.83
60.5226	510.06
60.5370	541.75
60.5515	533.34
60.5659	531.92
60.5804	543.96
60.5948	536.80
60.6092	544.04
60.6237	543.06
60.6381	518.24
60.6526	546.57
60.6670	526.09
60.6814	507.02
60.6959	526.60
60.7103	515.50
60.7248	516.85
60.7392	507.10
60.7536	509.01
60.7681	539.93
60.7825	562.09
60.7970	534.18
60.8114	579.36
60.8258	543.08
60.8403	559.50
60.8547	560.31
60.8692	532.54
60.8836	560.69
60.8980	552.01
60.9125	554.39
60.9269	538.21
60.9414	568.65
60.9558	476.31
60.9702	533.06
60.9847	531.83
60.9991	574.30
61.0136	533.26
61.0280	528.68
61.0424	516.05
61.0569	529.39
61.0713	571.98
61.0858	587.61
61.1002	563.60
61.1146	541.63
61.1291	580.62
61.1435	535.95
61.1580	523.91
61.1724	566.17
61.1868	523.19
61.2013	484.75
61.2157	569.33
61.2302	537.35
61.2446	574.91
61.2590	562.26
61.2735	518.80
61.2879	550.28
61.3024	535.32
61.3168	547.42
61.3312	565.79
61.3457	565.75
61.3601	538.55
61.3746	550.30
61.3890	517.86
61.4034	534.99
61.4179	567.14
61.4323	564.51
61.4468	550.31
61.4612	550.58
61.4756	544.16
61.4901	557.14
61.5045	538.89
61.5190	525.31
61.5334	539.93
61.5478	508.84
61.5623	593.76
61.5767	544.33
61.5912	540.01
61.6056	559.70
61.6200	542.51
61.6345	536.40
61.6489	554.13
61.6634	520.34
61.6778	538.41
61.6922	534.55
61.7067	534.98
61.7211	522.95
61.7356	512.16
61.7500	560.41
61.7644	561.05
61.7789	555.93
61.7933	518.05
61.8078	537.82
61.8222	535.04
61.8366	542.80
61.8511	553.75
61.8655	598.86
61.8800	562.79
61.8944	566.74
61.9088	555.08
61.9233	521.14
61.9377	576.41
61.9522	559.86
61.9666	519.27
61.9810	545.53
61.9955	574.46
62.0099	583.75
62.0244	552.48
62.0388	560.17
62.0532	566.11
62.0677	586.04
62.0821	556.79
62.0966	552.28
62.1110	548.40
62.1254	561.37
62.1399	544.88
62.1543	534.14
62.1688	560.19
62.1832	567.32
62.1976	611.34
62.2121	591.54
62.2265	548.17
62.2410	577.98
62.2554	557.75
62.2698	555.01
62.2843	540.06
62.2987	542.62
62.3132	571.69
62.3276	575.55
62.3420	558.02
62.3565	587.30
62.3709	589.40
62.3854	566.53
62.3998	527.80
62.4142	548.62
62.4287	588.42
62.4431	557.53
62.4576	540.63
62.4720	574.82
62.4864	578.82
62.5009	543.80
62.5153	564.18
62.5298	567.70
62.5442	534.11
62.5586	561.66
62.5731	563.88
62.5875	563.77
62.6020	566.86
62.6164	533.97
62.6308	536.97
62.6453	543.29
62.6597	558.22
62.6742	539.11
62.6886	517.51
62.7030	524.66
62.7175	573.79
62.7319	564.99
62.7464	555.01
62.7608	561.29
62.7752	576.10
62.7897	586.09
62.8041	584.98
62.8186	578.52
62.8330	570.21
62.8474	565.27
62.8619	546.93
62.8763	546.81
62.8908	541.50
62.9052	565.33
62.9196	549.29
62.9341	568.22
62.9485	545.05
62.9630	546.47
62.9774	578.94
62.9918	548.57
63.0063	532.45
63.0207	556.73
63.0352	566.90
63.0496	557.18
63.0640	564.50
63.0785	572.91
63.0929	610.25
63.1074	564.64
63.1218	541.05
63.1362	538.66
63.1507	562.30
63.1651	577.46
63.1796	555.32
63.1940	551.59
63.2084	565.64
63.2229	579.31
63.2373	579.25
63.2518	544.68
63.2662	543.11
63.2806	598.49
63.2951	592.45
63.3095	610.85
63.3240	583.87
63.3384	581.39
63.3528	585.58
63.3673	584.31
63.3817	550.65
63.3962	550.44
63.4106	549.40
63.4250	578.48
63.4395	582.27
63.4539	601.98
63.4684	604.11
63.4828	605.97
63.4972	568.56
63.5117	570.17
63.5261	585.10
63.5406	611.32
63.5550	603.15
63.5694	598.42
63.5839	594.81
63.5983	561.91
63.6128	579.89
63.6272	576.02
63.6416	583.46
63.6561	574.49
63.6705	581.64
63.6850	607.46
63.6994	591.29
63.7138	637.54
63.7283	596.77
63.7427	569.72
63.7572	586.29
63.7716	620.28
63.7861	593.51
63.8005	561.70
63.8149	598.60
63.8294	618.90
63.8438	615.94
63.8583	605.87
63.8727	641.97
63.8871	652.17
63.9016	649.23
63.9160	639.50
63.9305	617.80
63.9449	660.05
63.9593	660.08
63.9738	633.64
63.9882	642.85
64.0027	635.47
64.0171	658.32
64.0315	685.80
64.0460	731.43
64.0604	707.72
64.0749	727.41
64.0893	766.51
64.1037	706.32
64.1182	755.60
64.1326	767.81
64.1471	739.37
64.1615	754.29
64.1759	802.10
64.1904	747.45
64.2048	800.70
64.2193	827.75
64.2337	791.58
64.2481	791.12
64.2626	790.01
64.2770	811.45
64.2915	780.40
64.3059	825.77
64.3203	758.81
64.3348	779.54
64.3492	805.84
64.3637	760.81
64.3781	756.88
64.3925	683.78
64.4070	722.02
64.4214	706.36
64.4359	742.25
64.4503	687.07
64.4647	699.87
64.4792	672.03
64.4936	702.95
64.5081	686.89
64.5225	708.94
64.5369	716.18
64.5514	724.40
64.5658	660.50
64.5803	652.19
64.5947	644.89
64.6091	698.06
64.6236	671.37
64.6380	684.69
64.6525	672.99
64.6669	674.89
64.6813	668.61
64.6958	657.59
64.7102	695.53
64.7247	691.18
64.7391	680.88
64.7535	696.04
64.7680	727.21
64.7824	734.14
64.7969	737.35
64.8113	724.03
64.8257	765.07
64.8402	815.43
64.8546	828.43
64.8691	822.08
64.8835	814.52
64.8979	852.87
64.9124	873.56
64.9268	903.08
64.9413	963.46
64.9557	987.55
64.9701	992.35
64.9846	1007.99
64.9990	1164.96
65.0135	1261.11
65.0279	1426.68
65.0423	1649.09
65.0568	2093.45
65.0712	2609.37
65.0857	3383.64
65.1001	4426.85
65.1145	5894.17
65.1290	7743.81
65.1434	9256.16
65.1579	11008.79
65.1723	11672.96
65.1867	11155.32
65.2012	9973.81
65.2156	8307.17
65.2301	6596.16
65.2445	5304.97
65.2589	4367.87
65.2734	4211.14
65.2878	4402.34
65.3023	4843.94
65.3167	5609.96
65.3311	6480.19
65.3456	6953.90
65.3600	7014.89
65.3745	6401.68
65.3889	5505.87
65.4033	4486.79
65.4178	3526.32
65.4322	2844.44
65.4467	2114.74
65.4611	1747.63
65.4755	1455.50
65.4900	1275.59
65.5044	1142.58
65.5189	1020.86
65.5333	991.75
65.5477	933.24
65.5622	882.73
65.5766	891.21
65.5911	831.19
65.6055	791.46
65.6199	807.37
65.6344	816.37
65.6488	768.90
65.6633	716.21
65.6777	718.97
65.6921	709.97
65.7066	702.63
65.7210	692.05
65.7355	666.25
65.7499	694.29
65.7643	658.35
65.7788	720.40
65.7932	648.90
65.8077	677.88
65.8221	639.57
65.8365	642.10
65.8510	707.16
65.8654	657.31
65.8799	622.11
65.8943	662.99
65.9087	681.80
65.9232	639.53
65.9376	643.60
65.9521	655.33
65.9665	616.52
65.9809	619.83
65.9954	586.45
66.0098	614.43
66.0243	635.25
66.0387	621.66
66.0531	635.16
66.0676	645.45
66.0820	646.14
66.0965	647.88
66.1109	643.67
66.1253	651.60
66.1398	627.22
66.1542	614.51
66.1687	621.14
66.1831	617.54
66.1975	592.70
66.2120	610.62
66.2264	626.20
66.2409	624.34
66.2553	610.14
66.2697	606.14
66.2842	645.48
66.2986	621.70
66.3131	592.45
66.3275	595.85
66.3419	593.47
66.3564	642.34
66.3708	606.28
66.3853	588.70
66.3997	595.68
66.4141	553.20
66.4286	565.65
66.4430	584.27
66.4575	586.55
66.4719	581.81
66.4863	565.61
66.5008	585.05
66.5152	571.65
66.5297	577.07
66.5441	561.07
66.5585	560.93
66.5730	559.75
66.5874	604.29
66.6019	582.72
66.6163	589.37
66.6307	595.26
66.6452	612.62
66.6596	562.49
66.6741	584.38
66.6885	611.40
66.7029	599.57
66.7174	597.55
66.7318	585.88
66.7463	562.02
66.7607	595.48
66.7751	597.87
66.7896	591.15
66.8040	609.24
66.8185	594.73
66.8329	584.74
66.8473	606.68
66.8618	644.07
66.8762	637.81
66.8907	616.32
66.9051	607.07
66.9195	575.56
66.9340	571.64
66.9484	600.18
66.9629	581.04
66.9773	594.99
66.9917	603.42
67.0062	564.71
67.0206	616.76
67.0351	607.78
67.0495	594.36
67.0639	605.81
67.0784	631.44
67.0928	608.44
67.1073	574.32
67.1217	598.99
67.1361	588.68
67.1506	570.66
67.1650	577.86
67.1795	579.29
67.1939	563.72
67.2083	567.32
67.2228	571.80
67.2372	596.83
67.2517	593.97
67.2661	576.37
67.2805	554.75
67.2950	535.18
67.3094	596.05
67.3239	592.19
67.3383	590.22
67.3527	576.73
67.3672	543.40
67.3816	549.78
67.3961	574.04
67.4105	561.94
67.4250	575.23
67.4394	574.12
67.4538	566.49
67.4683	591.10
67.4827	577.99
67.4972	578.91
67.5116	612.01
67.5260	606.76
67.5405	557.82
67.5549	559.80
67.5694	585.55
67.5838	613.76
67.5982	578.03
67.6127	595.38
67.6271	588.09
67.6416	584.26
67.6560	578.88
67.6704	557.10
67.6849	546.06
67.6993	596.28
67.7138	582.41
67.7282	556.42
67.7426	545.01
67.7571	574.09
67.7715	576.86
67.7860	558.60
67.8004	573.43
67.8148	601.21
67.8293	542.88
67.8437	594.97
67.8582	602.90
67.8726	582.97
67.8870	570.85
67.9015	577.47
67.9159	579.10
67.9304	600.58
67.9448	621.58
67.9592	550.28
67.9737	559.53
67.9881	532.79
68.0026	568.44
68.0170	576.39
68.0314	581.08
68.0459	550.77
68.0603	565.64
68.0748	526.77
68.0892	537.76
68.1036	533.14
68.1181	586.51
68.1325	600.39
68.1470	545.56
68.1614	579.26
68.1758	584.91
68.1903	583.03
68.2047	558.64
68.2192	573.22
68.2336	565.50
68.2480	578.89
68.2625	603.23
68.2769	585.84
68.2914	610.01
68.3058	581.96
68.3202	606.02
68.3347	618.51
68.3491	575.49
68.3636	578.34
68.3780	579.94
68.3924	580.10
68.4069	617.16
68.4213	588.38
68.4358	593.24
68.4502	537.98
68.4646	604.08
68.4791	611.25
68.4935	550.62
68.5080	572.19
68.5224	596.18
68.5368	582.10
68.5513	560.81
68.5657	580.92
68.5802	544.97
68.5946	587.76
68.6090	548.77
68.6235	571.26
68.6379	586.29
68.6524	564.05
68.6668	590.89
68.6812	587.18
68.6957	548.47
68.7101	541.70
68.7246	543.29
68.7390	597.06
68.7534	597.33
68.7679	572.58
68.7823	607.93
68.7968	548.95
68.8112	578.33
68.8256	533.56
68.8401	563.46
68.8545	598.36
68.8690	563.90
68.8834	560.53
68.8978	583.04
68.9123	584.26
68.9267	601.84
68.9412	571.09
68.9556	578.15
68.9700	561.41
68.9845	572.20
68.9989	564.07
69.0134	554.08
69.0278	585.61
69.0422	594.99
69.0567	568.61
69.0711	597.19
69.0856	605.40
69.1000	568.96
69.1144	567.75
69.1289	556.85
69.1433	594.06
69.1578	523.06
69.1722	577.30
69.1866	560.89
69.2011	556.13
69.2155	603.06
69.2300	535.25
69.2444	609.85
69.2588	566.88
69.2733	640.69
69.2877	578.71
69.3022	554.19
69.3166	579.56
69.3310	594.38
69.3455	638.20
69.3599	615.27
69.3744	518.39
69.3888	564.11
69.4032	598.32
69.4177	599.29
69.4321	629.28
69.4466	617.88
69.4610	606.15
69.4754	611.25
69.4899	582.54
69.5043	620.85
69.5188	588.88
69.5332	584.69
69.5476	567.80
69.5621	571.46
69.5765	582.36
69.5910	585.42
69.6054	593.68
69.6198	600.42
69.6343	619.75
69.6487	582.26
69.6632	525.83
69.6776	542.90
69.6920	604.39
69.7065	596.47
69.7209	587.19
69.7354	614.56
69.7498	643.60
69.7642	583.33
69.7787	590.85
69.7931	578.75
69.8076	629.99
69.8220	594.55
69.8364	626.07
69.8509	574.28
69.8653	602.00
69.8798	582.05
69.8942	563.94
69.9086	555.17
69.9231	586.36
69.9375	545.70
69.9520	612.35
69.9664	601.08
69.9808	546.84
69.9953	569.75
70.0097	546.61
70.0242	597.85
70.0386	596.86
70.0530	543.41
70.0675	591.33
70.0819	568.09
70.0964	617.53
70.1108	546.79
70.1252	593.40
70.1397	516.46
70.1541	529.24
70.1686	591.40
70.1830	541.21
70.1974	555.22
70.2119	576.45
70.2263	578.75
70.2408	639.08
70.2552	598.75
70.2696	587.77
70.2841	599.66
70.2985	562.62
70.3130	592.67
70.3274	587.29
70.3418	592.91
70.3563	602.21
70.3707	576.44
70.3852	578.42
70.3996	571.70
70.4140	578.69
70.4285	597.19
70.4429	560.97
70.4574	559.90
70.4718	627.45
70.4862	568.86
70.5007	524.12
70.5151	546.61
70.5296	601.62
70.5440	593.26
70.5584	626.13
70.5729	594.23
70.5873	546.53
70.6018	564.26
70.6162	568.52
70.6306	564.43
70.6451	616.00
70.6595	598.44
70.6740	544.68
70.6884	552.48
70.7028	568.83
70.7173	595.04
70.7317	523.47
70.7462	549.74
70.7606	538.12
70.7750	572.49
70.7895	577.63
70.8039	588.85
70.8184	587.42
70.8328	574.66
70.8472	590.44
70.8617	586.17
70.8761	539.14
70.8906	580.65
70.9050	606.90
70.9194	606.55
70.9339	617.83
70.9483	601.82
70.9628	592.99
70.9772	569.99
70.9916	560.57
71.0061	575.11
71.0205	621.82
71.0350	609.72
71.0494	603.09
71.0638	615.28
71.0783	593.26
71.0927	639.43
71.1072	611.02
71.1216	583.41
71.1361	561.34
71.1505	520.16
71.1649	546.21
71.1794	562.68
71.1938	594.57
71.2083	568.39
71.2227	577.01
71.2371	538.13
71.2516	568.84
71.2660	627.79
71.2805	580.59
71.2949	555.67
71.3093	559.23
71.3238	558.50
71.3382	583.70
71.3527	546.12
71.3671	569.22
71.3815	569.57
71.3960	541.05
71.4104	557.05
71.4249	595.88
71.4393	600.79
71.4537	577.94
71.4682	614.78
71.4826	575.45
71.4971	572.12
71.5115	549.30
71.5259	552.32
71.5404	549.49
71.5548	595.20
71.5693	587.12
71.5837	562.32
71.5981	592.30
71.6126	608.01
71.6270	576.89
71.6415	591.09
71.6559	611.48
71.6703	573.89
71.6848	574.07
71.6992	571.23
71.7137	561.68
71.7281	534.73
71.7425	541.63
71.7570	560.02
71.7714	616.67
71.7859	593.43
71.8003	499.30
71.8147	570.69
71.8292	597.46
71.8436	640.96
71.8581	630.52
71.8725	554.93
71.8869	556.70
71.9014	551.49
71.9158	538.60
71.9303	580.84
71.9447	575.86
71.9591	566.86
71.9736	590.85
71.9880	612.02
72.0025	555.34
72.0169	582.39
72.0313	571.37
72.0458	446.78
72.0602	465.96
72.0747	506.29
72.0891	572.86
72.1035	592.54
72.1180	624.06
72.1324	619.60
72.1469	634.18
72.1613	590.50
72.1757	582.17
72.1902	566.52
72.2046	548.18
72.2191	513.76
72.2335	545.37
72.2479	573.59
72.2624	565.67
72.2768	561.87
72.2913	632.60
72.3057	623.10
72.3201	588.24
72.3346	595.76
72.3490	593.05
72.3635	500.01
72.3779	516.14
72.3923	535.28
72.4068	548.78
72.4212	596.24
72.4357	547.38
72.4501	526.49
72.4645	553.05
72.4790	585.90
72.4934	621.60
72.5079	698.41
72.5223	584.70
72.5367	563.13
72.5512	614.08
72.5656	587.48
72.5801	528.53
72.5945	458.63
72.6089	438.33
72.6234	495.29
72.6378	579.94
72.6523	582.83
72.6667	584.78
72.6811	623.26
72.6956	581.58
72.7100	580.29
72.7245	622.00
72.7389	640.16
72.7533	666.55
72.7678	613.01
72.7822	593.22
72.7967	543.60
72.8111	552.91
72.8255	646.87
72.8400	651.54
72.8544	596.81
72.8689	570.16
72.8833	543.99