2022.09.19 19:37:17
Îáðàçåö: ß÷åéêà LCoV 16-09-2022
Lambda1 = 1.54060
Lambda2 = 1.54439
Lambdam = 1.54186
R = 0.497
2Theta	I

line¹ 0 ;repeat¹ 0
22.1120	481.72
22.1264	566.98
22.1409	577.09
22.1553	533.31
22.1697	538.26
22.1842	560.53
22.1986	553.62
22.2131	573.17
22.2275	578.53
22.2419	469.65
22.2564	488.51
22.2708	604.24
22.2853	601.12
22.2997	550.95
22.3141	592.81
22.3286	629.80
22.3430	519.52
22.3575	557.50
22.3719	590.01
22.3863	533.65
22.4008	493.83
22.4152	552.51
22.4297	628.00
22.4441	584.68
22.4585	524.85
22.4730	629.10
22.4874	689.06
22.5019	558.28
22.5163	530.15
22.5307	600.67
22.5452	629.71
22.5596	556.32
22.5741	577.91
22.5885	631.65
22.6029	583.87
22.6174	578.74
22.6318	528.51
22.6463	521.70
22.6607	572.53
22.6751	518.34
22.6896	572.34
22.7040	561.41
22.7185	523.98
22.7329	555.75
22.7473	510.72
22.7618	555.39
22.7762	608.44
22.7907	626.57
22.8051	580.59
22.8195	543.41
22.8340	564.05
22.8484	641.12
22.8629	626.97
22.8773	616.48
22.8917	465.76
22.9062	454.33
22.9206	586.56
22.9351	606.82
22.9495	547.94
22.9639	511.68
22.9784	570.36
22.9928	620.18
23.0073	570.17
23.0217	624.56
23.0361	571.93
23.0506	582.86
23.0650	530.70
23.0795	538.18
23.0939	572.41
23.1083	548.15
23.1228	587.94
23.1372	543.12
23.1517	538.81
23.1661	532.85
23.1806	643.14
23.1950	590.93
23.2094	550.26
23.2239	577.14
23.2383	604.36
23.2528	553.96
23.2672	531.34
23.2816	533.97
23.2961	478.64
23.3105	573.77
23.3250	586.50
23.3394	503.09
23.3538	519.77
23.3683	541.46
23.3827	553.50
23.3972	522.71
23.4116	528.47
23.4260	534.75
23.4405	527.82
23.4549	519.11
23.4694	544.52
23.4838	522.00
23.4982	548.58
23.5127	495.83
23.5271	551.03
23.5416	588.18
23.5560	656.37
23.5704	548.74
23.5849	554.99
23.5993	638.78
23.6138	544.34
23.6282	552.43
23.6426	506.55
23.6571	540.50
23.6715	607.64
23.6860	596.24
23.7004	575.33
23.7148	517.86
23.7293	518.31
23.7437	606.48
23.7582	618.26
23.7726	560.84
23.7870	592.83
23.8015	593.73
23.8159	559.25
23.8304	601.01
23.8448	533.38
23.8592	599.55
23.8737	552.80
23.8881	500.64
23.9026	593.06
23.9170	532.27
23.9314	470.02
23.9459	554.99
23.9603	559.46
23.9748	575.06
23.9892	575.20
24.0036	617.28
24.0181	574.56
24.0325	511.86
24.0470	541.76
24.0614	538.72
24.0758	554.88
24.0903	550.06
24.1047	565.97
24.1192	547.71
24.1336	545.40
24.1480	542.29
24.1625	550.78
24.1769	587.15
24.1914	590.89
24.2058	562.10
24.2202	566.10
24.2347	631.27
24.2491	628.20
24.2636	583.29
24.2780	591.97
24.2924	534.41
24.3069	548.39
24.3213	584.46
24.3358	584.59
24.3502	577.27
24.3646	561.49
24.3791	480.13
24.3935	527.56
24.4080	516.03
24.4224	565.52
24.4368	525.59
24.4513	496.55
24.4657	557.05
24.4802	519.80
24.4946	558.53
24.5090	549.46
24.5235	573.99
24.5379	559.43
24.5524	491.19
24.5668	541.92
24.5812	528.52
24.5957	594.18
24.6101	568.01
24.6246	571.79
24.6390	583.92
24.6534	552.41
24.6679	535.67
24.6823	491.66
24.6968	554.51
24.7112	554.52
24.7256	537.30
24.7401	527.93
24.7545	547.70
24.7690	514.60
24.7834	548.53
24.7978	541.72
24.8123	517.74
24.8267	544.56
24.8412	551.93
24.8556	571.63
24.8700	519.17
24.8845	593.18
24.8989	571.86
24.9134	515.98
24.9278	568.96
24.9422	530.91
24.9567	516.25
24.9711	500.71
24.9856	514.90
25.0000	577.22
25.0144	544.39
25.0289	571.62
25.0433	540.18
25.0578	502.12
25.0722	524.23
25.0866	542.14
25.1011	533.13
25.1155	598.91
25.1300	571.80
25.1444	531.87
25.1588	537.37
25.1733	583.50
25.1877	518.01
25.2022	526.40
25.2166	559.95
25.2310	545.68
25.2455	549.54
25.2599	510.35
25.2744	561.29
25.2888	548.90
25.3032	551.15
25.3177	556.20
25.3321	550.17
25.3466	528.09
25.3610	535.00
25.3754	555.09
25.3899	554.02
25.4043	543.93
25.4188	542.66
25.4332	512.19
25.4476	564.19
25.4621	542.47
25.4765	527.00
25.4910	573.72
25.5054	584.70
25.5198	557.12
25.5343	554.92
25.5487	523.99
25.5632	518.37
25.5776	553.09
25.5920	524.31
25.6065	542.08
25.6209	522.21
25.6354	529.31
25.6498	533.89
25.6642	544.80
25.6787	561.73
25.6931	537.43
25.7076	568.85
25.7220	553.86
25.7364	541.21
25.7509	562.05
25.7653	514.39
25.7798	526.17
25.7942	544.94
25.8086	549.29
25.8231	533.66
25.8375	548.77
25.8520	567.53
25.8664	561.71
25.8808	551.15
25.8953	542.55
25.9097	541.26
25.9242	532.82
25.9386	553.97
25.9530	496.46
25.9675	512.93
25.9819	559.56
25.9964	539.56
26.0108	526.54
26.0252	525.56
26.0397	523.52
26.0541	571.06
26.0686	539.56
26.0830	537.69
26.0974	510.94
26.1119	539.42
26.1263	554.52
26.1408	554.65
26.1552	533.81
26.1696	541.39
26.1841	495.47
26.1985	515.88
26.2130	551.60
26.2274	534.85
26.2418	547.89
26.2563	520.52
26.2707	498.91
26.2852	509.62
26.2996	500.84
26.3140	522.52
26.3285	509.05
26.3429	507.27
26.3574	532.18
26.3718	496.26
26.3862	494.68
26.4007	517.01
26.4151	553.58
26.4296	568.93
26.4440	530.11
26.4584	503.73
26.4729	532.02
26.4873	530.65
26.5018	547.04
26.5162	556.94
26.5306	544.10
26.5451	527.76
26.5595	515.17
26.5740	518.32
26.5884	544.49
26.6028	568.11
26.6173	530.31
26.6317	529.98
26.6462	552.21
26.6606	529.17
26.6750	507.87
26.6895	507.93
26.7039	509.08
26.7184	522.45
26.7328	512.45
26.7472	515.59
26.7617	561.87
26.7761	569.68
26.7906	515.09
26.8050	502.07
26.8194	533.42
26.8339	541.57
26.8483	503.45
26.8628	516.10
26.8772	531.81
26.8917	551.31
26.9061	556.78
26.9205	550.19
26.9350	545.96
26.9494	530.81
26.9639	524.76
26.9783	534.25
26.9927	535.32
27.0072	524.50
27.0216	532.16
27.0361	513.74
27.0505	538.09
27.0649	537.84
27.0794	488.87
27.0938	512.24
27.1083	527.48
27.1227	510.24
27.1371	508.55
27.1516	479.90
27.1660	517.74
27.1805	523.33
27.1949	510.24
27.2093	541.58
27.2238	515.22
27.2382	529.85
27.2527	505.88
27.2671	539.84
27.2815	519.57
27.2960	525.96
27.3104	562.60
27.3249	544.52
27.3393	528.94
27.3537	504.13
27.3682	514.38
27.3826	518.67
27.3971	487.48
27.4115	499.72
27.4259	563.61
27.4404	568.45
27.4548	535.14
27.4693	554.04
27.4837	548.33
27.4981	487.60
27.5126	514.22
27.5270	548.69
27.5415	512.13
27.5559	528.65
27.5703	535.93
27.5848	525.63
27.5992	530.49
27.6137	500.29
27.6281	494.20
27.6425	502.20
27.6570	526.51
27.6714	513.18
27.6859	500.11
27.7003	505.27
27.7147	526.35
27.7292	543.66
27.7436	509.65
27.7581	462.49
27.7725	511.52
27.7869	544.37
27.8014	542.77
27.8158	511.47
27.8303	479.39
27.8447	530.65
27.8591	507.39
27.8736	533.41
27.8880	517.43
27.9025	494.34
27.9169	484.58
27.9313	535.24
27.9458	533.50
27.9602	516.82
27.9747	543.48
27.9891	521.07
28.0035	513.98
28.0180	502.36
28.0324	523.86
28.0469	521.52
28.0613	551.61
28.0757	498.26
28.0902	553.31
28.1046	516.90
28.1191	531.92
28.1335	516.58
28.1479	496.00
28.1624	506.99
28.1768	507.72
28.1913	500.34
28.2057	495.79
28.2201	520.19
28.2346	510.70
28.2490	492.55
28.2635	504.90
28.2779	549.41
28.2923	561.35
28.3068	567.86
28.3212	504.89
28.3357	501.87
28.3501	512.46
28.3645	505.09
28.3790	491.53
28.3934	485.80
28.4079	510.82
28.4223	524.45
28.4367	545.86
28.4512	521.71
28.4656	507.00
28.4801	506.99
28.4945	532.09
28.5089	506.57
28.5234	513.15
28.5378	553.52
28.5523	554.63
28.5667	526.53
28.5811	511.17
28.5956	523.97
28.6100	539.52
28.6245	501.65
28.6389	476.93
28.6533	513.63
28.6678	517.70
28.6822	519.08
28.6967	498.56
28.7111	523.33
28.7255	507.01
28.7400	519.96
28.7544	526.50
28.7689	515.00
28.7833	508.04
28.7977	511.76
28.8122	540.74
28.8266	478.12
28.8411	507.85
28.8555	491.19
28.8699	478.42
28.8844	514.62
28.8988	560.18
28.9133	485.74
28.9277	505.77
28.9421	531.37
28.9566	482.33
28.9710	517.12
28.9855	486.56
28.9999	505.84
29.0143	507.98
29.0288	512.53
29.0432	508.19
29.0577	482.87
29.0721	496.00
29.0865	520.76
29.1010	513.41
29.1154	501.46
29.1299	511.58
29.1443	471.69
29.1587	506.74
29.1732	487.68
29.1876	541.81
29.2021	513.23
29.2165	527.71
29.2309	503.26
29.2454	538.98
29.2598	521.81
29.2743	507.08
29.2887	521.61
29.3031	496.62
29.3176	513.63
29.3320	493.11
29.3465	517.12
29.3609	515.87
29.3753	517.18
29.3898	499.99
29.4042	502.82
29.4187	532.28
29.4331	521.91
29.4475	493.94
29.4620	514.83
29.4764	523.36
29.4909	504.45
29.5053	525.59
29.5197	482.87
29.5342	503.77
29.5486	516.35
29.5631	504.37
29.5775	491.18
29.5919	495.63
29.6064	505.53
29.6208	497.58
29.6353	519.85
29.6497	479.07
29.6641	479.89
29.6786	489.50
29.6930	485.75
29.7075	506.76
29.7219	495.00
29.7363	503.50
29.7508	485.24
29.7652	498.80
29.7797	507.85
29.7941	501.13
29.8085	508.13
29.8230	537.85
29.8374	518.04
29.8519	488.99
29.8663	505.56
29.8807	483.28
29.8952	479.18
29.9096	514.24
29.9241	484.29
29.9385	526.80
29.9529	497.63
29.9674	459.97
29.9818	512.72
29.9963	516.71
30.0107	491.99
30.0251	482.68
30.0396	508.42
30.0540	513.65
30.0685	482.65
30.0829	518.08
30.0973	510.53
30.1118	516.09
30.1262	497.11
30.1407	480.61
30.1551	488.85
30.1695	515.24
30.1840	512.47
30.1984	474.53
30.2129	499.29
30.2273	525.93
30.2417	534.57
30.2562	519.53
30.2706	490.69
30.2851	545.70
30.2995	476.18
30.3139	482.13
30.3284	516.77
30.3428	530.00
30.3573	537.17
30.3717	511.02
30.3861	490.71
30.4006	491.06
30.4150	510.83
30.4295	523.73
30.4439	490.12
30.4583	511.10
30.4728	526.80
30.4872	505.97
30.5017	510.57
30.5161	505.03
30.5305	510.00
30.5450	515.62
30.5594	519.36
30.5739	539.11
30.5883	540.99
30.6028	524.41
30.6172	503.65
30.6316	515.55
30.6461	514.73
30.6605	524.01
30.6750	507.95
30.6894	521.94
30.7038	550.78
30.7183	545.05
30.7327	551.34
30.7472	587.57
30.7616	618.23
30.7760	629.18
30.7905	645.35
30.8049	661.14
30.8194	676.17
30.8338	676.74
30.8482	671.93
30.8627	669.78
30.8771	659.77
30.8916	639.97
30.9060	689.76
30.9204	651.75
30.9349	656.51
30.9493	635.75
30.9638	630.24
30.9782	603.89
30.9926	611.58
31.0071	568.98
31.0215	555.59
31.0360	556.84
31.0504	566.80
31.0648	530.32
31.0793	517.07
31.0937	534.26
31.1082	570.14
31.1226	532.76
31.1370	505.79
31.1515	506.04
31.1659	523.48
31.1804	531.74
31.1948	506.41
31.2092	498.33
31.2237	501.85
31.2381	482.07
31.2526	481.99
31.2670	501.92
31.2814	509.39
31.2959	523.93
31.3103	546.54
31.3248	555.82
31.3392	537.08
31.3536	558.13
31.3681	561.00
31.3825	516.50
31.3970	514.55
31.4114	500.07
31.4258	517.70
31.4403	497.90
31.4547	504.91
31.4692	482.81
31.4836	495.52
31.4980	506.48
31.5125	482.23
31.5269	487.65
31.5414	504.16
31.5558	491.02
31.5702	530.86
31.5847	526.26
31.5991	510.37
31.6136	466.36
31.6280	471.50
31.6424	535.85
31.6569	517.39
31.6713	503.72
31.6858	503.45
31.7002	510.10
31.7146	538.50
31.7291	496.64
31.7435	489.83
31.7580	523.28
31.7724	510.94
31.7868	504.96
31.8013	513.36
31.8157	519.72
31.8302	509.33
31.8446	488.86
31.8590	503.56
31.8735	478.98
31.8879	475.92
31.9024	530.44
31.9168	517.73
31.9312	493.54
31.9457	509.39
31.9601	504.45
31.9746	514.52
31.9890	487.91
32.0034	505.18
32.0179	529.10
32.0323	543.22
32.0468	495.37
32.0612	520.97
32.0756	503.64
32.0901	516.21
32.1045	518.91
32.1190	499.91
32.1334	499.74
32.1478	495.37
32.1623	543.32
32.1767	510.86
32.1912	495.67
32.2056	480.43
32.2200	507.57
32.2345	497.14
32.2489	517.45
32.2634	513.29
32.2778	467.36
32.2922	496.99
32.3067	476.56
32.3211	508.19
32.3356	516.63
32.3500	501.06
32.3644	504.95
32.3789	506.61
32.3933	462.29
32.4078	476.30
32.4222	507.59
32.4366	523.81
32.4511	525.38
32.4655	516.11
32.4800	489.51
32.4944	481.12
32.5088	508.07
32.5233	518.34
32.5377	498.19
32.5522	498.11
32.5666	529.05
32.5810	484.96
32.5955	497.42
32.6099	481.75
32.6244	480.17
32.6388	480.30
32.6532	491.37
32.6677	490.88
32.6821	475.75
32.6966	479.30
32.7110	481.84
32.7254	488.90
32.7399	477.62
32.7543	502.62
32.7688	506.44
32.7832	489.50
32.7976	489.83
32.8121	487.19
32.8265	523.12
32.8410	499.73
32.8554	499.42
32.8698	531.66
32.8843	537.48
32.8987	505.36
32.9132	518.99
32.9276	529.60
32.9420	502.36
32.9565	486.80
32.9709	482.85
32.9854	502.63
32.9998	523.85
33.0142	486.30
33.0287	518.17
33.0431	541.10
33.0576	533.11
33.0720	508.57
33.0864	520.22
33.1009	538.77
33.1153	481.72
33.1298	519.14
33.1442	486.71
33.1586	473.69
33.1731	493.81
33.1875	513.23
33.2020	518.74
33.2164	507.38
33.2308	517.52
33.2453	518.53
33.2597	506.26
33.2742	506.58
33.2886	488.27
33.3030	508.11
33.3175	504.92
33.3319	498.72
33.3464	496.56
33.3608	500.77
33.3752	479.86
33.3897	469.12
33.4041	466.24
33.4186	550.99
33.4330	541.89
33.4474	514.60
33.4619	523.16
33.4763	528.75
33.4908	542.71
33.5052	512.23
33.5196	488.64
33.5341	531.45
33.5485	545.23
33.5630	487.57
33.5774	518.92
33.5918	489.51
33.6063	505.76
33.6207	495.85
33.6352	520.01
33.6496	502.60
33.6640	476.55
33.6785	478.63
33.6929	493.69
33.7074	481.71
33.7218	483.50
33.7362	507.54
33.7507	513.14
33.7651	471.27
33.7796	522.04
33.7940	489.17
33.8084	520.53
33.8229	499.38
33.8373	516.13
33.8518	484.43
33.8662	484.47
33.8806	488.95
33.8951	510.86
33.9095	524.19
33.9240	515.80
33.9384	520.98
33.9528	512.35
33.9673	510.38
33.9817	509.60
33.9962	552.59
34.0106	502.35
34.0250	507.92
34.0395	462.24
34.0539	461.92
34.0684	547.81
34.0828	526.08
34.0972	505.19
34.1117	512.43
34.1261	519.61
34.1406	517.26
34.1550	538.76
34.1694	558.22
34.1839	500.98
34.1983	502.16
34.2128	511.40
34.2272	530.87
34.2417	508.75
34.2561	505.41
34.2705	490.48
34.2850	466.60
34.2994	486.73
34.3139	512.13
34.3283	519.56
34.3427	477.35
34.3572	490.07
34.3716	513.02
34.3861	503.25
34.4005	512.01
34.4149	493.04
34.4294	520.63
34.4438	511.82
34.4583	498.15
34.4727	524.24
34.4871	519.78
34.5016	501.58
34.5160	487.37
34.5305	518.07
34.5449	511.03
34.5593	477.86
34.5738	503.78
34.5882	498.64
34.6027	489.59
34.6171	517.75
34.6315	492.65
34.6460	499.32
34.6604	491.59
34.6749	507.93
34.6893	477.57
34.7037	490.51
34.7182	481.57
34.7326	510.42
34.7471	506.87
34.7615	521.92
34.7759	561.85
34.7904	536.12
34.8048	512.88
34.8193	491.87
34.8337	493.76
34.8481	487.83
34.8626	514.91
34.8770	525.75
34.8915	512.89
34.9059	523.14
34.9203	518.51
34.9348	506.89
34.9492	517.66
34.9637	487.41
34.9781	491.09
34.9925	540.64
35.0070	514.00
35.0214	528.87
35.0359	522.62
35.0503	498.90
35.0647	509.14
35.0792	507.33
35.0936	495.16
35.1081	507.79
35.1225	524.55
35.1369	515.27
35.1514	494.51
35.1658	515.95
35.1803	544.29
35.1947	490.39
35.2091	507.05
35.2236	496.19
35.2380	500.05
35.2525	530.39
35.2669	488.08
35.2813	513.04
35.2958	484.70
35.3102	490.81
35.3247	492.48
35.3391	496.81
35.3535	518.86
35.3680	487.45
35.3824	482.99
35.3969	502.36
35.4113	486.20
35.4257	505.74
35.4402	493.59
35.4546	528.71
35.4691	552.08
35.4835	546.10
35.4979	562.80
35.5124	540.17
35.5268	544.40
35.5413	537.57
35.5557	553.54
35.5701	535.23
35.5846	515.04
35.5990	518.33
35.6135	508.43
35.6279	515.66
35.6423	544.22
35.6568	544.79
35.6712	546.49
35.6857	573.28
35.7001	641.95
35.7145	688.60
35.7290	646.82
35.7434	607.59
35.7579	609.59
35.7723	574.27
35.7867	633.77
35.8012	694.42
35.8156	656.60
35.8301	671.98
35.8445	649.85
35.8589	647.26
35.8734	754.86
35.8878	843.27
35.9023	1005.21
35.9167	1071.10
35.9311	1359.87
35.9456	2059.60
35.9600	2359.39
35.9745	1963.30
35.9889	2027.62
36.0033	2673.02
36.0178	3056.86
36.0322	2324.39
36.0467	1871.62
36.0611	1661.18
36.0755	1723.17
36.0900	1570.20
36.1044	1281.48
36.1189	1377.84
36.1333	1327.92
36.1477	1087.17
36.1622	1080.94
36.1766	1039.58
36.1911	934.08
36.2055	845.91
36.2199	846.06
36.2344	821.34
36.2488	857.79
36.2633	825.72
36.2777	871.50
36.2921	919.55
36.3066	900.82
36.3210	928.75
36.3355	952.75
36.3499	919.10
36.3643	909.38
36.3788	904.75
36.3932	880.11
36.4077	846.06
36.4221	829.21
36.4365	794.72
36.4510	794.13
36.4654	733.82
36.4799	714.12
36.4943	690.66
36.5087	712.44
36.5232	646.04
36.5376	635.36
36.5521	603.43
36.5665	571.30
36.5809	552.43
36.5954	568.73
36.6098	551.29
36.6243	564.33
36.6387	604.92
36.6531	555.53
36.6676	532.45
36.6820	541.15
36.6965	557.98
36.7109	559.96
36.7253	522.21
36.7398	516.23
36.7542	576.44
36.7687	547.43
36.7831	553.21
36.7975	547.85
36.8120	592.66
36.8264	564.02
36.8409	584.34
36.8553	600.68
36.8697	640.59
36.8842	603.63
36.8986	592.96
36.9131	599.90
36.9275	594.20
36.9419	581.60
36.9564	555.87
36.9708	600.00
36.9853	551.15
36.9997	527.38
37.0141	527.87
37.0286	488.49
37.0430	524.23
37.0575	542.21
37.0719	517.80
37.0863	516.23
37.1008	554.66
37.1152	529.29
37.1297	515.07
37.1441	531.36
37.1585	519.22
37.1730	489.99
37.1874	537.84
37.2019	511.65
37.2163	500.31
37.2307	482.16
37.2452	514.11
37.2596	504.00
37.2741	514.88
37.2885	502.07
37.3029	524.91
37.3174	518.57
37.3318	523.39
37.3463	487.12
37.3607	487.88
37.3751	484.94
37.3896	515.34
37.4040	504.89
37.4185	536.58
37.4329	563.79
37.4473	494.42
37.4618	495.90
37.4762	501.74
37.4907	528.79
37.5051	515.37
37.5195	526.51
37.5340	525.08
37.5484	489.96
37.5629	490.94
37.5773	481.72
37.5917	496.97
37.6062	522.81
37.6206	506.42
37.6351	521.48
37.6495	494.22
37.6639	485.79
37.6784	495.97
37.6928	494.31
37.7073	531.44
37.7217	528.88
37.7361	508.84
37.7506	508.83
37.7650	482.31
37.7795	513.63
37.7939	502.57
37.8083	474.11
37.8228	500.12
37.8372	514.14
37.8517	521.29
37.8661	507.02
37.8805	522.25
37.8950	512.47
37.9094	529.56
37.9239	524.81
37.9383	491.52
37.9528	490.85
37.9672	491.22
37.9816	494.68
37.9961	530.73
38.0105	495.32
38.0250	494.99
38.0394	526.04
38.0538	520.83
38.0683	524.18
38.0827	494.37
38.0972	460.59
38.1116	510.00
38.1260	520.86
38.1405	480.92
38.1549	500.46
38.1694	505.65
38.1838	507.42
38.1982	509.60
38.2127	540.48
38.2271	514.51
38.2416	496.15
38.2560	511.75
38.2704	522.09
38.2849	521.14
38.2993	506.02
38.3138	512.42
38.3282	524.18
38.3426	536.45
38.3571	516.16
38.3715	531.99
38.3860	539.05
38.4004	526.83
38.4148	551.58
38.4293	592.78
38.4437	587.67
38.4582	613.98
38.4726	652.79
38.4870	666.94
38.5015	708.85
38.5159	786.04
38.5304	827.66
38.5448	813.53
38.5592	798.54
38.5737	753.38
38.5881	762.93
38.6026	670.86
38.6170	689.70
38.6314	670.00
38.6459	624.90
38.6603	632.55
38.6748	629.70
38.6892	561.61
38.7036	552.33
38.7181	542.85
38.7325	508.20
38.7470	526.58
38.7614	499.16
38.7758	505.00
38.7903	482.42
38.8047	518.67
38.8192	519.64
38.8336	495.39
38.8480	492.85
38.8625	525.55
38.8769	534.93
38.8914	492.83
38.9058	499.17
38.9202	519.33
38.9347	548.51
38.9491	536.07
38.9636	529.66
38.9780	511.52
38.9924	517.92
39.0069	501.12
39.0213	496.15
39.0358	513.88
39.0502	520.27
39.0646	506.21
39.0791	499.50
39.0935	500.48
39.1080	510.58
39.1224	509.86
39.1368	489.28
39.1513	489.86
39.1657	500.64
39.1802	494.13
39.1946	484.61
39.2090	502.43
39.2235	496.76
39.2379	522.92
39.2524	488.50
39.2668	480.32
39.2812	517.27
39.2957	517.44
39.3101	531.32
39.3246	511.47
39.3390	520.45
39.3534	513.18
39.3679	517.33
39.3823	505.09
39.3968	504.85
39.4112	498.69
39.4256	484.05
39.4401	498.53
39.4545	531.27
39.4690	488.36
39.4834	498.88
39.4978	508.96
39.5123	508.61
39.5267	495.41
39.5412	513.74
39.5556	503.34
39.5700	477.81
39.5845	472.22
39.5989	498.49
39.6134	545.11
39.6278	494.66
39.6422	485.35
39.6567	468.97
39.6711	475.62
39.6856	507.70
39.7000	508.05
39.7144	523.36
39.7289	518.55
39.7433	490.62
39.7578	508.64
39.7722	503.19
39.7866	494.05
39.8011	486.87
39.8155	472.64
39.8300	473.42
39.8444	499.63
39.8588	510.87
39.8733	509.30
39.8877	467.88
39.9022	491.34
39.9166	530.93
39.9310	526.03
39.9455	513.81
39.9599	488.82
39.9744	496.36
39.9888	515.20
40.0032	495.28
40.0177	481.96
40.0321	496.01
40.0466	481.15
40.0610	535.11
40.0754	510.66
40.0899	494.88
40.1043	489.05
40.1188	504.74
40.1332	534.98
40.1476	525.96
40.1621	507.10
40.1765	487.14
40.1910	493.35
40.2054	487.91
40.2198	492.31
40.2343	523.15
40.2487	508.34
40.2632	469.34
40.2776	499.64
40.2920	482.37
40.3065	486.54
40.3209	484.26
40.3354	510.83
40.3498	484.83
40.3642	492.45
40.3787	469.77
40.3931	441.14
40.4076	451.04
40.4220	506.36
40.4364	499.58
40.4509	475.35
40.4653	510.43
40.4798	477.61
40.4942	493.97
40.5086	472.62
40.5231	461.42
40.5375	480.87
40.5520	505.91
40.5664	483.70
40.5808	520.02
40.5953	475.63
40.6097	493.54
40.6242	528.21
40.6386	491.42
40.6530	464.71
40.6675	496.66
40.6819	503.13
40.6964	501.11
40.7108	495.24
40.7252	478.76
40.7397	508.67
40.7541	483.66
40.7686	483.12
40.7830	507.06
40.7974	528.20
40.8119	521.42
40.8263	516.94
40.8408	512.66
40.8552	480.49
40.8696	517.32
40.8841	506.96
40.8985	481.08
40.9130	476.10
40.9274	491.03
40.9418	510.75
40.9563	453.82
40.9707	468.07
40.9852	520.94
40.9996	470.13
41.0140	528.42
41.0285	521.15
41.0429	515.37
41.0574	480.25
41.0718	506.33
41.0862	503.01
41.1007	488.43
41.1151	507.18
41.1296	536.05
41.1440	491.12
41.1584	499.79
41.1729	509.25
41.1873	501.06
41.2018	472.68
41.2162	497.35
41.2306	505.02
41.2451	518.69
41.2595	482.22
41.2740	482.21
41.2884	536.32
41.3028	497.68
41.3173	499.52
41.3317	524.83
41.3462	487.25
41.3606	475.22
41.3750	492.62
41.3895	518.13
41.4039	484.12
41.4184	523.06
41.4328	519.50
41.4472	459.24
41.4617	509.63
41.4761	500.81
41.4906	501.98
41.5050	517.65
41.5194	465.50
41.5339	487.68
41.5483	508.60
41.5628	511.18
41.5772	486.45
41.5916	492.05
41.6061	536.77
41.6205	487.81
41.6350	500.62
41.6494	498.69
41.6639	496.78
41.6783	515.16
41.6927	491.30
41.7072	513.56
41.7216	487.97
41.7361	469.75
41.7505	510.14
41.7649	491.71
41.7794	504.88
41.7938	496.70
41.8083	524.49
41.8227	543.95
41.8371	524.50
41.8516	547.71
41.8660	529.81
41.8805	530.97
41.8949	556.26
41.9093	593.62
41.9238	565.11
41.9382	569.36
41.9527	580.33
41.9671	575.56
41.9815	568.52
41.9960	565.12
42.0104	539.12
42.0249	578.26
42.0393	552.59
42.0537	559.21
42.0682	554.00
42.0826	599.69
42.0971	577.82
42.1115	579.95
42.1259	606.66
42.1404	581.37
42.1548	600.97
42.1693	637.19
42.1837	680.91
42.1981	729.13
42.2126	826.30
42.2270	959.92
42.2415	1067.87
42.2559	1229.56
42.2703	1393.91
42.2848	1546.59
42.2992	1637.30
42.3137	1686.90
42.3281	1616.67
42.3425	1550.03
42.3570	1488.94
42.3714	1429.44
42.3859	1361.00
42.4003	1324.54
42.4147	1338.08
42.4292	1302.75
42.4436	1213.49
42.4581	1053.58
42.4725	955.04
42.4869	881.53
42.5014	785.84
42.5158	713.31
42.5303	675.40
42.5447	653.79
42.5591	630.78
42.5736	581.37
42.5880	559.74
42.6025	589.26
42.6169	563.21
42.6313	533.40
42.6458	530.29
42.6602	508.20
42.6747	523.19
42.6891	535.99
42.7035	548.85
42.7180	509.23
42.7324	523.13
42.7469	531.68
42.7613	529.76
42.7757	529.48
42.7902	526.84
42.8046	525.15
42.8191	530.94
42.8335	498.34
42.8479	494.50
42.8624	514.99
42.8768	512.90
42.8913	492.66
42.9057	533.53
42.9201	502.64
42.9346	508.25
42.9490	518.32
42.9635	504.36
42.9779	501.05
42.9923	497.66
43.0068	497.29
43.0212	497.78
43.0357	497.58
43.0501	513.89
43.0645	523.40
43.0790	502.27
43.0934	521.88
43.1079	513.88
43.1223	505.28
43.1367	503.73
43.1512	507.07
43.1656	570.63
43.1801	549.18
43.1945	503.33
43.2089	498.47
43.2234	503.31
43.2378	519.35
43.2523	525.54
43.2667	515.01
43.2811	536.86
43.2956	514.07
43.3100	514.96
43.3245	503.50
43.3389	540.99
43.3533	525.45
43.3678	537.84
43.3822	546.57
43.3967	506.30
43.4111	491.65
43.4255	504.25
43.4400	507.29
43.4544	502.67
43.4689	526.83
43.4833	545.58
43.4977	532.15
43.5122	501.44
43.5266	494.31
43.5411	524.04
43.5555	523.29
43.5699	511.62
43.5844	510.39
43.5988	541.62
43.6133	507.77
43.6277	508.98
43.6421	521.76
43.6566	527.46
43.6710	538.86
43.6855	527.29
43.6999	565.30
43.7143	526.50
43.7288	500.25
43.7432	537.80
43.7577	498.03
43.7721	527.75
43.7865	553.58
43.8010	524.58
43.8154	534.24
43.8299	521.90
43.8443	529.64
43.8587	556.77
43.8732	553.73
43.8876	534.52
43.9021	575.94
43.9165	525.33
43.9309	534.12
43.9454	518.27
43.9598	494.76
43.9743	532.96
43.9887	549.48
44.0031	573.46
44.0176	543.34
44.0320	577.63
44.0465	582.68
44.0609	576.90
44.0753	595.46
44.0898	622.76
44.1042	603.65
44.1187	609.43
44.1331	597.41
44.1475	593.22
44.1620	660.28
44.1764	633.73
44.1909	627.88
44.2053	624.70
44.2197	628.95
44.2342	607.82
44.2486	580.38
44.2631	582.89
44.2775	579.32
44.2919	570.12
44.3064	573.71
44.3208	546.74
44.3353	535.27
44.3497	540.82
44.3641	578.40
44.3786	532.09
44.3930	554.24
44.4075	560.60
44.4219	588.12
44.4363	585.77
44.4508	541.74
44.4652	578.51
44.4797	586.65
44.4941	561.24
44.5085	594.26
44.5230	565.58
44.5374	556.89
44.5519	562.86
44.5663	598.38
44.5807	592.42
44.5952	572.31
44.6096	537.40
44.6241	547.31
44.6385	563.43
44.6529	575.80
44.6674	592.51
44.6818	562.07
44.6963	586.19
44.7107	638.67
44.7251	670.73
44.7396	712.76
44.7540	797.51
44.7685	813.97
44.7829	871.07
44.7973	908.62
44.8118	856.50
44.8262	825.25
44.8407	784.23
44.8551	751.03
44.8695	745.04
44.8840	733.58
44.8984	720.35
44.9129	666.56
44.9273	704.94
44.9417	693.79
44.9562	640.45
44.9706	617.35
44.9851	575.66
44.9995	528.40
45.0139	552.14
45.0284	563.29
45.0428	527.58
45.0573	482.08
45.0717	517.46
45.0861	507.67
45.1006	524.69
45.1150	535.49
45.1295	545.41
45.1439	503.58
45.1583	465.24
45.1728	487.47
45.1872	520.11
45.2017	501.70
45.2161	515.91
45.2305	503.90
45.2450	509.79
45.2594	516.43
45.2739	528.78
45.2883	516.79
45.3028	496.44
45.3172	456.80
45.3316	506.73
45.3461	500.20
45.3605	551.24
45.3750	513.20
45.3894	513.27
45.4038	512.90
45.4183	557.71
45.4327	529.22
45.4472	512.09
45.4616	494.62
45.4760	503.11
45.4905	483.31
45.5049	515.69
45.5194	500.43
45.5338	491.77
45.5482	473.13
45.5627	499.37
45.5771	496.99
45.5916	510.00
45.6060	512.02
45.6204	478.71
45.6349	477.75
45.6493	476.47
45.6638	468.39
45.6782	494.03
45.6926	505.56
45.7071	477.63
45.7215	497.32
45.7360	489.10
45.7504	527.79
45.7648	510.50
45.7793	486.14
45.7937	480.15
45.8082	504.24
45.8226	501.15
45.8370	541.65
45.8515	508.46
45.8659	493.63
45.8804	504.20
45.8948	480.94
45.9092	504.38
45.9237	506.10
45.9381	523.00
45.9526	474.47
45.9670	501.35
45.9814	483.70
45.9959	488.79
46.0103	498.09
46.0248	520.78
46.0392	493.84
46.0536	499.75
46.0681	477.22
46.0825	514.64
46.0970	498.10
46.1114	475.76
46.1258	508.92
46.1403	515.55
46.1547	496.19
46.1692	528.71
46.1836	481.29
46.1980	483.57
46.2125	486.05
46.2269	490.12
46.2414	516.07
46.2558	509.52
46.2702	515.51
46.2847	528.76
46.2991	494.18
46.3136	485.83
46.3280	507.74
46.3424	499.72
46.3569	464.81
46.3713	503.98
46.3858	473.40
46.4002	507.02
46.4146	511.49
46.4291	488.53
46.4435	497.71
46.4580	489.51
46.4724	533.99
46.4868	493.34
46.5013	507.01
46.5157	508.91
46.5302	459.31
46.5446	452.52
46.5590	504.31
46.5735	506.52
46.5879	504.59
46.6024	475.83
46.6168	477.05
46.6312	480.63
46.6457	495.14
46.6601	509.22
46.6746	497.92
46.6890	495.86
46.7034	515.90
46.7179	488.79
46.7323	497.13
46.7468	534.56
46.7612	506.23
46.7756	511.83
46.7901	515.15
46.8045	501.50
46.8190	513.32
46.8334	491.61
46.8478	491.63
46.8623	535.53
46.8767	549.13
46.8912	483.67
46.9056	481.69
46.9200	498.19
46.9345	531.93
46.9489	490.90
46.9634	508.64
46.9778	571.52
46.9922	521.73
47.0067	493.45
47.0211	496.02
47.0356	524.64
47.0500	512.40
47.0644	500.99
47.0789	494.94
47.0933	502.62
47.1078	481.93
47.1222	502.27
47.1366	507.19
47.1511	482.71
47.1655	452.45
47.1800	514.13
47.1944	470.06
47.2088	499.15
47.2233	497.75
47.2377	473.15
47.2522	489.81
47.2666	519.77
47.2810	507.10
47.2955	487.03
47.3099	507.48
47.3244	530.46
47.3388	486.91
47.3532	496.39
47.3677	493.28
47.3821	496.03
47.3966	493.41
47.4110	474.57
47.4254	492.50
47.4399	518.48
47.4543	489.07
47.4688	519.49
47.4832	521.70
47.4976	523.46
47.5121	534.45
47.5265	499.29
47.5410	501.20
47.5554	507.19
47.5698	510.90
47.5843	497.33
47.5987	502.55
47.6132	505.71
47.6276	470.35
47.6420	514.17
47.6565	473.45
47.6709	486.17
47.6854	480.28
47.6998	496.86
47.7142	510.11
47.7287	463.50
47.7431	484.61
47.7576	506.45
47.7720	488.25
47.7864	494.06
47.8009	490.12
47.8153	505.51
47.8298	482.83
47.8442	493.57
47.8586	496.24
47.8731	504.06
47.8875	475.71
47.9020	517.87
47.9164	493.40
47.9308	485.17
47.9453	485.85
47.9597	477.29
47.9742	453.90
47.9886	487.81
48.0030	503.57
48.0175	508.53
48.0319	493.81
48.0464	500.52
48.0608	534.10
48.0752	561.76
48.0897	540.21
48.1041	527.22
48.1186	495.46
48.1330	498.76
48.1474	479.09
48.1619	510.98
48.1763	505.19
48.1908	496.18
48.2052	533.01
48.2196	501.08
48.2341	482.49
48.2485	498.25
48.2630	521.33
48.2774	498.07
48.2918	482.75
48.3063	499.80
48.3207	521.78
48.3352	499.51
48.3496	516.30
48.3640	521.45
48.3785	514.21
48.3929	454.02
48.4074	489.00
48.4218	504.24
48.4362	520.48
48.4507	498.22
48.4651	517.87
48.4796	500.04
48.4940	509.12
48.5084	520.71
48.5229	517.56
48.5373	547.47
48.5518	487.81
48.5662	547.84
48.5806	555.71
48.5951	507.17
48.6095	509.76
48.6240	528.78
48.6384	548.68
48.6528	528.63
48.6673	515.27
48.6817	481.37
48.6962	504.36
48.7106	544.66
48.7250	547.49
48.7395	515.47
48.7539	564.12
48.7684	535.03
48.7828	539.55
48.7972	533.51
48.8117	532.59
48.8261	557.86
48.8406	573.02
48.8550	546.74
48.8694	536.64
48.8839	552.55
48.8983	554.54
48.9128	505.08
48.9272	540.18
48.9416	565.19
48.9561	573.66
48.9705	589.11
48.9850	550.71
48.9994	569.02
49.0139	601.28
49.0283	643.44
49.0427	599.92
49.0572	570.49
49.0716	635.18
49.0861	684.95
49.1005	701.17
49.1149	709.58
49.1294	764.33
49.1438	724.20
49.1583	776.97
49.1727	845.69
49.1871	904.50
49.2016	984.63
49.2160	1092.33
49.2305	1121.32
49.2449	1257.96
49.2593	1294.03
49.2738	1375.16
49.2882	1491.46
49.3027	1594.48
49.3171	1649.32
49.3315	1713.37
49.3460	1757.46
49.3604	1806.29
49.3749	1727.66
49.3893	1816.04
49.4037	1858.34
49.4182	1812.45
49.4326	1787.30
49.4471	1704.51
49.4615	1643.01
49.4759	1603.65
49.4904	1488.33
49.5048	1420.85
49.5193	1335.45
49.5337	1261.65
49.5481	1222.88
49.5626	1121.17
49.5770	1041.08
49.5915	1014.26
49.6059	996.09
49.6203	882.28
49.6348	810.10
49.6492	757.98
49.6637	756.40
49.6781	689.55
49.6925	650.89
49.7070	685.33
49.7214	664.61
49.7359	627.46
49.7503	638.80
49.7647	586.49
49.7792	594.04
49.7936	587.23
49.8081	581.45
49.8225	601.46
49.8369	576.10
49.8514	533.29
49.8658	561.95
49.8803	573.21
49.8947	540.70
49.9091	541.18
49.9236	533.54
49.9380	584.90
49.9525	556.96
49.9669	547.12
49.9813	538.39
49.9958	567.74
50.0102	543.94
50.0247	550.33
50.0391	533.57
50.0535	499.45
50.0680	501.45
50.0824	522.29
50.0969	502.62
50.1113	535.81
50.1257	552.83
50.1402	523.51
50.1546	510.87
50.1691	531.45
50.1835	533.16
50.1979	499.72
50.2124	521.18
50.2268	509.73
50.2413	547.53
50.2557	545.21
50.2701	537.05
50.2846	537.48
50.2990	511.99
50.3135	507.68
50.3279	481.99
50.3423	480.51
50.3568	499.97
50.3712	504.33
50.3857	506.50
50.4001	507.54
50.4145	494.53
50.4290	519.41
50.4434	479.32
50.4579	520.11
50.4723	542.87
50.4867	530.49
50.5012	501.69
50.5156	494.57
50.5301	480.59
50.5445	500.53
50.5589	501.09
50.5734	474.41
50.5878	487.32
50.6023	519.73
50.6167	523.99
50.6311	530.23
50.6456	525.50
50.6600	468.81
50.6745	485.26
50.6889	478.40
50.7033	488.14
50.7178	487.62
50.7322	509.80
50.7467	545.76
50.7611	506.57
50.7755	480.66
50.7900	520.96
50.8044	520.35
50.8189	499.80
50.8333	495.49
50.8477	496.45
50.8622	486.97
50.8766	490.05
50.8911	489.97
50.9055	521.62
50.9199	505.56
50.9344	526.36
50.9488	538.25
50.9633	510.81
50.9777	476.39
50.9921	472.06
51.0066	521.25
51.0210	526.87
51.0355	518.52
51.0499	506.67
51.0643	520.14
51.0788	518.99
51.0932	513.86
51.1077	500.80
51.1221	511.74
51.1365	495.67
51.1510	501.65
51.1654	507.03
51.1799	481.42
51.1943	465.09
51.2087	510.77
51.2232	526.71
51.2376	521.87
51.2521	517.65
51.2665	531.55
51.2809	507.48
51.2954	498.94
51.3098	529.53
51.3243	527.39
51.3387	533.74
51.3531	516.78
51.3676	521.88
51.3820	511.58
51.3965	497.28
51.4109	500.22
51.4253	542.67
51.4398	508.02
51.4542	488.95
51.4687	498.20
51.4831	508.18
51.4975	504.18
51.5120	525.59
51.5264	547.12
51.5409	497.72
51.5553	518.65
51.5697	521.25
51.5842	495.90
51.5986	514.32
51.6131	505.19
51.6275	495.38
51.6419	485.93
51.6564	529.40
51.6708	510.92
51.6853	482.95
51.6997	527.83
51.7141	534.27
51.7286	543.80
51.7430	553.22
51.7575	505.53
51.7719	502.48
51.7863	511.90
51.8008	521.30
51.8152	505.42
51.8297	517.13
51.8441	523.58
51.8585	502.91
51.8730	507.51
51.8874	487.70
51.9019	533.04
51.9163	518.30
51.9307	492.56
51.9452	513.62
51.9596	495.27
51.9741	487.01
51.9885	527.94
52.0029	524.73
52.0174	504.99
52.0318	518.03
52.0463	479.28
52.0607	498.66
52.0751	510.91
52.0896	535.00
52.1040	529.45
52.1185	521.81
52.1329	518.85
52.1473	498.19
52.1618	505.32
52.1762	500.94
52.1907	530.61
52.2051	483.94
52.2195	484.67
52.2340	481.26
52.2484	496.29
52.2629	471.96
52.2773	516.03
52.2917	519.79
52.3062	537.78
52.3206	520.58
52.3351	519.89
52.3495	494.67
52.3639	526.30
52.3784	530.65
52.3928	519.74
52.4073	512.82
52.4217	540.94
52.4361	518.90
52.4506	510.06
52.4650	474.91
52.4795	537.59
52.4939	518.73
52.5083	476.56
52.5228	488.04
52.5372	490.48
52.5517	520.59
52.5661	523.53
52.5805	493.05
52.5950	489.48
52.6094	507.47
52.6239	486.19
52.6383	503.20
52.6527	505.58
52.6672	510.77
52.6816	493.94
52.6961	495.43
52.7105	522.56
52.7250	538.99
52.7394	490.99
52.7538	495.43
52.7683	508.78
52.7827	538.46
52.7972	497.16
52.8116	534.46
52.8260	568.88
52.8405	518.11
52.8549	510.43
52.8694	504.21
52.8838	512.67
52.8982	498.62
52.9127	519.06
52.9271	531.47
52.9416	526.42
52.9560	501.20
52.9704	505.82
52.9849	520.66
52.9993	499.74
53.0138	485.44
53.0282	520.71
53.0426	500.09
53.0571	552.73
53.0715	527.45
53.0860	501.20
53.1004	494.74
53.1148	494.62
53.1293	547.10
53.1437	491.20
53.1582	508.65
53.1726	494.92
53.1870	448.24
53.2015	488.00
53.2159	508.29
53.2304	487.54
53.2448	503.23
53.2592	530.93
53.2737	510.65
53.2881	486.67
53.3026	503.30
53.3170	510.74
53.3314	518.07
53.3459	511.10
53.3603	516.41
53.3748	536.23
53.3892	491.05
53.4036	491.63
53.4181	541.78
53.4325	551.87
53.4470	504.96
53.4614	529.21
53.4758	526.65
53.4903	508.89
53.5047	497.13
53.5192	523.46
53.5336	556.32
53.5480	527.34
53.5625	512.73
53.5769	507.19
53.5914	515.26
53.6058	475.48
53.6202	497.87
53.6347	519.74
53.6491	490.95
53.6636	490.76
53.6780	507.61
53.6924	520.05
53.7069	503.04
53.7213	508.95
53.7358	529.81
53.7502	519.57
53.7646	528.64
53.7791	542.42
53.7935	532.19
53.8080	501.77
53.8224	479.12
53.8368	502.79
53.8513	511.71
53.8657	537.23
53.8802	522.02
53.8946	495.41
53.9090	505.35
53.9235	542.19
53.9379	519.34
53.9524	505.71
53.9668	493.24
53.9812	483.99
53.9957	501.05
54.0101	509.11
54.0246	492.74
54.0390	518.27
54.0534	528.98
54.0679	522.04
54.0823	494.39
54.0968	511.30
54.1112	516.30
54.1256	498.51
54.1401	503.91
54.1545	504.82
54.1690	508.03
54.1834	506.25
54.1978	512.09
54.2123	537.39
54.2267	491.40
54.2412	514.68
54.2556	547.24
54.2700	525.16
54.2845	502.35
54.2989	514.09
54.3134	542.88
54.3278	504.89
54.3422	525.43
54.3567	519.72
54.3711	517.89
54.3856	528.79
54.4000	518.59
54.4144	544.86
54.4289	533.19
54.4433	502.83
54.4578	509.58
54.4722	524.53
54.4866	533.12
54.5011	528.41
54.5155	493.89
54.5300	547.66
54.5444	548.38
54.5588	529.60
54.5733	494.03
54.5877	551.26
54.6022	540.93
54.6166	560.61
54.6310	546.39
54.6455	541.06
54.6599	553.61
54.6744	535.66
54.6888	572.32
54.7032	597.48
54.7177	583.89
54.7321	575.37
54.7466	544.06
54.7610	560.41
54.7754	583.62
54.7899	562.28
54.8043	571.53
54.8188	587.72
54.8332	598.94
54.8476	604.31
54.8621	595.82
54.8765	590.04
54.8910	601.93
54.9054	596.97
54.9198	571.56
54.9343	576.43
54.9487	550.66
54.9632	556.43
54.9776	571.60
54.9920	578.55
55.0065	561.84
55.0209	589.14
55.0354	576.42
55.0498	541.33
55.0642	536.81
55.0787	555.40
55.0931	554.45
55.1076	517.27
55.1220	547.07
55.1364	538.44
55.1509	496.85
55.1653	547.95
55.1798	536.64
55.1942	499.11
55.2086	518.60
55.2231	512.56
55.2375	521.20
55.2520	535.59
55.2664	552.01
55.2808	550.91
55.2953	496.61
55.3097	536.01
55.3242	550.80
55.3386	541.97
55.3530	529.38
55.3675	512.77
55.3819	502.75
55.3964	506.35
55.4108	512.61
55.4252	536.31
55.4397	545.68
55.4541	557.64
55.4686	535.68
55.4830	537.27
55.4974	504.65
55.5119	515.80
55.5263	527.79
55.5408	536.42
55.5552	527.40
55.5696	497.94
55.5841	511.86
55.5985	517.64
55.6130	528.86
55.6274	520.78
55.6418	529.67
55.6563	525.28
55.6707	524.36
55.6852	561.68
55.6996	541.25
55.7140	535.36
55.7285	536.29
55.7429	510.26
55.7574	487.67
55.7718	537.94
55.7862	533.51
55.8007	547.02
55.8151	539.19
55.8296	547.20
55.8440	512.51
55.8584	552.97
55.8729	535.90
55.8873	549.77
55.9018	569.13
55.9162	526.41
55.9306	533.72
55.9451	546.31
55.9595	503.94
55.9740	495.53
55.9884	505.77
56.0028	505.07
56.0173	493.01
56.0317	469.53
56.0462	511.98
56.0606	535.42
56.0750	504.70
56.0895	540.57
56.1039	474.61
56.1184	509.54
56.1328	512.46
56.1472	492.15
56.1617	501.08
56.1761	492.49
56.1906	506.41
56.2050	514.88
56.2194	520.12
56.2339	548.95
56.2483	542.58
56.2628	533.86
56.2772	530.45
56.2916	536.06
56.3061	515.30
56.3205	513.35
56.3350	507.68
56.3494	523.83
56.3639	513.10
56.3783	508.18
56.3927	528.05
56.4072	524.68
56.4216	534.74
56.4361	512.44
56.4505	537.34
56.4649	544.74
56.4794	516.69
56.4938	526.43
56.5083	516.87
56.5227	534.73
56.5371	557.08
56.5516	535.12
56.5660	512.37
56.5805	554.15
56.5949	500.77
56.6093	514.02
56.6238	521.95
56.6382	509.15
56.6527	532.59
56.6671	535.41
56.6815	539.31
56.6960	549.11
56.7104	538.90
56.7249	518.46
56.7393	534.47
56.7537	555.23
56.7682	522.01
56.7826	547.65
56.7971	559.59
56.8115	525.37
56.8259	544.51
56.8404	523.01
56.8548	508.33
56.8693	528.15
56.8837	507.05
56.8981	523.86
56.9126	520.20
56.9270	519.20
56.9415	551.25
56.9559	522.97
56.9703	540.55
56.9848	521.86
56.9992	525.86
57.0137	510.22
57.0281	480.76
57.0425	505.22
57.0570	522.01
57.0714	490.53
57.0859	527.45
57.1003	505.64
57.1147	508.85
57.1292	489.21
57.1436	485.73
57.1581	537.60
57.1725	546.55
57.1869	518.93
57.2014	526.05
57.2158	532.97
57.2303	522.68
57.2447	528.99
57.2591	512.92
57.2736	532.48
57.2880	516.85
57.3025	529.88
57.3169	507.84
57.3313	527.09
57.3458	514.20
57.3602	528.29
57.3747	532.61
57.3891	522.02
57.4035	520.84
57.4180	500.29
57.4324	530.49
57.4469	489.94
57.4613	528.90
57.4757	540.28
57.4902	551.54
57.5046	523.00
57.5191	531.79
57.5335	526.78
57.5479	510.94
57.5624	536.33
57.5768	542.30
57.5913	539.39
57.6057	527.92
57.6201	535.81
57.6346	538.49
57.6490	503.33
57.6635	536.91
57.6779	535.44
57.6923	540.98
57.7068	535.63
57.7212	530.35
57.7357	514.31
57.7501	489.30
57.7645	519.74
57.7790	541.56
57.7934	525.54
57.8079	544.62
57.8223	548.88
57.8367	538.44
57.8512	535.87
57.8656	547.37
57.8801	510.14
57.8945	532.67
57.9089	516.29
57.9234	527.95
57.9378	546.14
57.9523	562.98
57.9667	545.10
57.9811	515.21
57.9956	518.47
58.0100	516.01
58.0245	511.81
58.0389	517.36
58.0533	526.36
58.0678	541.11
58.0822	513.85
58.0967	543.10
58.1111	557.83
58.1255	534.23
58.1400	523.09
58.1544	542.25
58.1689	544.74
58.1833	569.22
58.1977	562.71
58.2122	572.57
58.2266	552.33
58.2411	575.56
58.2555	613.86
58.2699	587.49
58.2844	573.51
58.2988	607.85
58.3133	621.47
58.3277	590.01
58.3421	608.44
58.3566	633.22
58.3710	629.34
58.3855	600.76
58.3999	589.45
58.4143	617.61
58.4288	687.04
58.4432	647.53
58.4577	656.15
58.4721	659.44
58.4865	622.31
58.5010	647.10
58.5154	620.03
58.5299	625.08
58.5443	630.35
58.5587	625.37
58.5732	622.00
58.5876	576.67
58.6021	605.87
58.6165	631.93
58.6309	622.25
58.6454	607.12
58.6598	588.84
58.6743	580.76
58.6887	585.89
58.7031	569.92
58.7176	541.46
58.7320	513.73
58.7465	536.93
58.7609	537.67
58.7753	549.69
58.7898	579.00
58.8042	547.37
58.8187	590.18
58.8331	534.57
58.8475	530.42
58.8620	557.99
58.8764	526.00
58.8909	525.67
58.9053	542.54
58.9197	540.26
58.9342	561.59
58.9486	568.34
58.9631	530.41
58.9775	532.07
58.9919	521.54
59.0064	517.36
59.0208	553.63
59.0353	524.32
59.0497	517.59
59.0641	547.63
59.0786	538.41
59.0930	533.90
59.1075	592.03
59.1219	581.87
59.1363	559.34
59.1508	549.52
59.1652	546.87
59.1797	537.99
59.1941	529.03
59.2085	545.93
59.2230	561.74
59.2374	571.71
59.2519	523.10
59.2663	515.83
59.2807	560.76
59.2952	550.51
59.3096	557.57
59.3241	554.44
59.3385	559.07
59.3529	552.81
59.3674	528.03
59.3818	532.00
59.3963	550.83
59.4107	567.53
59.4251	565.98
59.4396	574.13
59.4540	602.12
59.4685	568.97
59.4829	564.39
59.4973	566.63
59.5118	567.07
59.5262	556.36
59.5407	572.44
59.5551	585.52
59.5695	544.54
59.5840	551.71
59.5984	551.38
59.6129	548.19
59.6273	563.22
59.6417	538.59
59.6562	550.65
59.6706	534.56
59.6851	553.34
59.6995	536.76
59.7139	542.82
59.7284	538.25
59.7428	512.38
59.7573	508.41
59.7717	519.76
59.7861	521.98
59.8006	524.55
59.8150	573.63
59.8295	550.65
59.8439	530.17
59.8583	538.46
59.8728	563.81
59.8872	568.52
59.9017	517.17
59.9161	534.07
59.9305	546.02
59.9450	535.61
59.9594	518.09
59.9739	570.09
59.9883	526.89
60.0027	528.27
60.0172	504.66
60.0316	525.42
60.0461	511.23
60.0605	550.69
60.0750	521.33
60.0894	520.39
60.1038	518.99
60.1183	539.94
60.1327	490.18
60.1472	494.64
60.1616	534.13
60.1760	555.44
60.1905	540.24
60.2049	536.19
60.2194	511.02
60.2338	504.49
60.2482	554.73
60.2627	539.77
60.2771	532.40
60.2916	529.92
60.3060	547.70
60.3204	514.47
60.3349	562.34
60.3493	527.94
60.3638	573.76
60.3782	540.13
60.3926	536.32
60.4071	520.86
60.4215	535.26
60.4360	544.01
60.4504	495.09
60.4648	541.09
60.4793	543.53
60.4937	543.90
60.5082	540.41
60.5226	540.46
60.5370	542.25
60.5515	536.01
60.5659	566.69
60.5804	527.09
60.5948	574.00
60.6092	516.75
60.6237	523.17
60.6381	563.64
60.6526	529.41
60.6670	532.89
60.6814	527.58
60.6959	572.69
60.7103	580.27
60.7248	534.05
60.7392	517.92
60.7536	562.37
60.7681	542.78
60.7825	542.96
60.7970	538.76
60.8114	566.36
60.8258	569.30
60.8403	543.91
60.8547	558.93
60.8692	542.78
60.8836	531.29
60.8980	543.31
60.9125	571.20
60.9269	565.88
60.9414	554.17
60.9558	585.38
60.9702	532.94
60.9847	558.55
60.9991	516.55
61.0136	559.74
61.0280	527.47
61.0424	512.98
61.0569	523.72
61.0713	564.81
61.0858	563.19
61.1002	536.01
61.1146	554.99
61.1291	559.15
61.1435	517.33
61.1580	516.14
61.1724	539.12
61.1868	523.98
61.2013	535.26
61.2157	543.59
61.2302	541.80
61.2446	514.77
61.2590	516.41
61.2735	555.56
61.2879	562.17
61.3024	570.07
61.3168	534.08
61.3312	548.51
61.3457	572.07
61.3601	575.56
61.3746	504.37
61.3890	533.14
61.4034	538.43
61.4179	555.25
61.4323	570.39
61.4468	524.66
61.4612	510.68
61.4756	544.85
61.4901	544.66
61.5045	535.61
61.5190	510.82
61.5334	546.44
61.5478	531.36
61.5623	552.91
61.5767	543.57
61.5912	568.59
61.6056	537.37
61.6200	550.96
61.6345	565.25
61.6489	505.29
61.6634	528.86
61.6778	555.18
61.6922	547.60
61.7067	571.39
61.7211	540.14
61.7356	552.42
61.7500	559.51
61.7644	595.16
61.7789	567.46
61.7933	541.74
61.8078	576.19
61.8222	594.05
61.8366	560.76
61.8511	560.67
61.8655	567.81
61.8800	584.79
61.8944	603.75
61.9088	548.17
61.9233	525.13
61.9377	582.36
61.9522	564.00
61.9666	555.06
61.9810	593.36
61.9955	571.16
62.0099	541.93
62.0244	528.29
62.0388	532.53
62.0532	535.78
62.0677	541.73
62.0821	525.91
62.0966	546.56
62.1110	560.48
62.1254	550.06
62.1399	543.12
62.1543	518.91
62.1688	537.51
62.1832	543.47
62.1976	550.70
62.2121	565.52
62.2265	590.58
62.2410	543.65
62.2554	526.51
62.2698	556.18
62.2843	556.79
62.2987	555.28
62.3132	547.59
62.3276	569.25
62.3420	547.09
62.3565	529.65
62.3709	580.70
62.3854	563.19
62.3998	555.11
62.4142	567.77
62.4287	591.93
62.4431	579.24
62.4576	540.81
62.4720	577.54
62.4864	554.00
62.5009	566.46
62.5153	554.26
62.5298	561.09
62.5442	530.93
62.5586	569.74
62.5731	535.53
62.5875	551.65
62.6020	537.89
62.6164	544.35
62.6308	543.29
62.6453	537.25
62.6597	586.10
62.6742	552.08
62.6886	520.61
62.7030	583.59
62.7175	587.21
62.7319	524.16
62.7464	525.37
62.7608	536.43
62.7752	594.26
62.7897	573.19
62.8041	563.20
62.8186	566.69
62.8330	601.51
62.8474	560.95
62.8619	526.14
62.8763	562.38
62.8908	557.80
62.9052	534.68
62.9196	536.64
62.9341	545.81
62.9485	540.33
62.9630	536.02
62.9774	547.21
62.9918	563.04
63.0063	573.73
63.0207	595.67
63.0352	557.16
63.0496	543.26
63.0640	579.76
63.0785	538.64
63.0929	564.07
63.1074	547.00
63.1218	573.56
63.1362	572.92
63.1507	535.26
63.1651	551.57
63.1796	549.28
63.1940	559.98
63.2084	544.73
63.2229	559.77
63.2373	574.28
63.2518	562.47
63.2662	550.09
63.2806	561.41
63.2951	510.90
63.3095	593.31
63.3240	619.29
63.3384	595.06
63.3528	566.72
63.3673	575.91
63.3817	575.34
63.3962	561.90
63.4106	566.03
63.4250	603.55
63.4395	586.48
63.4539	585.57
63.4684	574.48
63.4828	552.10
63.4972	565.14
63.5117	556.86
63.5261	577.20
63.5406	570.25
63.5550	563.01
63.5694	546.83
63.5839	609.26
63.5983	560.17
63.6128	598.59
63.6272	561.32
63.6416	609.58
63.6561	567.37
63.6705	587.65
63.6850	572.24
63.6994	572.13
63.7138	653.74
63.7283	583.12
63.7427	567.19
63.7572	576.12
63.7716	612.76
63.7861	636.35
63.8005	586.36
63.8149	633.73
63.8294	576.09
63.8438	582.75
63.8583	617.44
63.8727	608.19
63.8871	573.94
63.9016	670.68
63.9160	640.73
63.9305	609.87
63.9449	638.80
63.9593	663.80
63.9738	632.36
63.9882	677.38
64.0027	667.82
64.0171	710.24
64.0315	709.42
64.0460	725.11
64.0604	712.26
64.0749	740.00
64.0893	744.42
64.1037	726.91
64.1182	765.19
64.1326	733.24
64.1471	763.18
64.1615	746.34
64.1759	765.24
64.1904	743.64
64.2048	749.92
64.2193	788.80
64.2337	818.37
64.2481	746.64
64.2626	761.18
64.2770	752.82
64.2915	727.57
64.3059	739.29
64.3203	742.33
64.3348	795.02
64.3492	791.22
64.3637	777.13
64.3781	758.62
64.3925	702.89
64.4070	697.53
64.4214	708.86
64.4359	716.45
64.4503	702.26
64.4647	722.61
64.4792	662.79
64.4936	684.68
64.5081	665.92
64.5225	667.13
64.5369	661.48
64.5514	700.24
64.5658	653.55
64.5803	686.51
64.5947	655.62
64.6091	671.92
64.6236	672.79
64.6380	661.53
64.6525	642.59
64.6669	650.39
64.6813	660.39
64.6958	688.93
64.7102	707.51
64.7247	718.34
64.7391	685.19
64.7535	670.64
64.7680	710.56
64.7824	707.76
64.7969	759.03
64.8113	803.28
64.8257	837.31
64.8402	800.09
64.8546	819.07
64.8691	844.66
64.8835	803.97
64.8979	851.41
64.9124	873.41
64.9268	909.60
64.9413	943.77
64.9557	934.46
64.9701	1022.87
64.9846	1082.43
64.9990	1186.98
65.0135	1226.27
65.0279	1471.25
65.0423	1673.26
65.0568	2125.18
65.0712	2605.01
65.0857	3296.90
65.1001	4325.09
65.1145	6025.66
65.1290	7732.49
65.1434	9526.71
65.1579	10869.98
65.1723	11830.88
65.1867	11441.43
65.2012	10232.21
65.2156	8431.44
65.2301	6765.94
65.2445	5347.86
65.2589	4418.32
65.2734	4195.09
65.2878	4294.17
65.3023	4858.43
65.3167	5692.64
65.3311	6532.35
65.3456	6938.82
65.3600	6857.72
65.3745	6431.25
65.3889	5647.54
65.4033	4403.92
65.4178	3524.11
65.4322	2744.83
65.4467	2112.22
65.4611	1767.65
65.4755	1450.62
65.4900	1234.97
65.5044	1144.28
65.5189	1101.44
65.5333	1019.71
65.5477	964.30
65.5622	934.71
65.5766	897.58
65.5911	817.32
65.6055	793.07
65.6199	781.42
65.6344	800.07
65.6488	758.74
65.6633	754.95
65.6777	735.94
65.6921	700.99
65.7066	750.36
65.7210	702.52
65.7355	703.45
65.7499	667.94
65.7643	646.78
65.7788	642.62
65.7932	682.64
65.8077	680.42
65.8221	672.27
65.8365	645.36
65.8510	639.04
65.8654	641.50
65.8799	634.17
65.8943	675.72
65.9087	663.94
65.9232	666.14
65.9376	680.50
65.9521	653.98
65.9665	655.58
65.9809	622.49
65.9954	590.80
66.0098	631.76
66.0243	624.45
66.0387	653.95
66.0531	605.26
66.0676	669.00
66.0820	660.89
66.0965	618.53
66.1109	596.11
66.1253	595.30
66.1398	610.40
66.1542	638.88
66.1687	613.89
66.1831	631.13
66.1975	637.85
66.2120	651.66
66.2264	647.76
66.2409	633.84
66.2553	588.40
66.2697	597.88
66.2842	595.11
66.2986	609.96
66.3131	587.69
66.3275	588.52
66.3419	618.04
66.3564	593.88
66.3708	592.57
66.3853	597.54
66.3997	578.36
66.4141	583.68
66.4286	590.93
66.4430	547.52
66.4575	558.91
66.4719	602.01
66.4863	595.03
66.5008	600.40
66.5152	625.74
66.5297	619.84
66.5441	618.26
66.5585	633.82
66.5730	597.30
66.5874	592.25
66.6019	600.84
66.6163	621.37
66.6307	629.45
66.6452	599.01
66.6596	574.82
66.6741	595.21
66.6885	559.63
66.7029	593.37
66.7174	592.80
66.7318	573.60
66.7463	591.49
66.7607	583.77
66.7751	578.92
66.7896	586.40
66.8040	597.74
66.8185	633.05
66.8329	591.80
66.8473	563.99
66.8618	591.31
66.8762	593.70
66.8907	581.99
66.9051	609.60
66.9195	601.82
66.9340	578.84
66.9484	579.15
66.9629	573.87
66.9773	561.97
66.9917	560.66
67.0062	581.80
67.0206	589.44
67.0351	565.03
67.0495	555.15
67.0639	601.57
67.0784	574.74
67.0928	582.60
67.1073	568.03
67.1217	605.03
67.1361	576.32
67.1506	573.48
67.1650	576.30
67.1795	582.59
67.1939	592.46
67.2083	580.93
67.2228	592.99
67.2372	593.39
67.2517	567.20
67.2661	545.82
67.2805	622.02
67.2950	593.09
67.3094	560.26
67.3239	584.19
67.3383	587.67
67.3527	572.64
67.3672	566.61
67.3816	589.09
67.3961	550.42
67.4105	558.90
67.4250	565.56
67.4394	589.54
67.4538	561.14
67.4683	580.10
67.4827	590.20
67.4972	584.20
67.5116	587.29
67.5260	583.73
67.5405	611.36
67.5549	577.67
67.5694	606.09
67.5838	570.57
67.5982	537.14
67.6127	561.40
67.6271	561.37
67.6416	571.93
67.6560	575.19
67.6704	576.25
67.6849	584.31
67.6993	566.55
67.7138	574.78
67.7282	615.41
67.7426	570.59
67.7571	570.77
67.7715	552.17
67.7860	563.85
67.8004	547.15
67.8148	573.29
67.8293	584.60
67.8437	587.13
67.8582	544.24
67.8726	570.07
67.8870	589.78
67.9015	609.35
67.9159	538.93
67.9304	543.50
67.9448	567.15
67.9592	590.42
67.9737	552.02
67.9881	554.95
68.0026	569.63
68.0170	618.56
68.0314	583.76
68.0459	560.37
68.0603	598.54
68.0748	580.25
68.0892	604.58
68.1036	579.10
68.1181	540.60
68.1325	600.60
68.1470	532.63
68.1614	556.57
68.1758	552.40
68.1903	593.30
68.2047	578.29
68.2192	563.00
68.2336	548.41
68.2480	593.56
68.2625	585.92
68.2769	534.65
68.2914	541.95
68.3058	578.00
68.3202	548.10
68.3347	610.74
68.3491	578.57
68.3636	569.90
68.3780	593.08
68.3924	577.96
68.4069	565.06
68.4213	583.05
68.4358	542.36
68.4502	552.76
68.4646	603.57
68.4791	543.61
68.4935	582.16
68.5080	596.60
68.5224	591.30
68.5368	558.77
68.5513	561.57
68.5657	602.97
68.5802	551.00
68.5946	564.26
68.6090	554.90
68.6235	541.34
68.6379	579.74
68.6524	550.72
68.6668	570.05
68.6812	573.57
68.6957	534.68
68.7101	576.01
68.7246	636.34
68.7390	607.97
68.7534	567.44
68.7679	561.67
68.7823	577.87
68.7968	581.52
68.8112	553.69
68.8256	564.39
68.8401	578.92
68.8545	545.42
68.8690	575.18
68.8834	579.34
68.8978	575.50
68.9123	615.57
68.9267	580.20
68.9412	585.95
68.9556	597.55
68.9700	572.43
68.9845	598.74
68.9989	555.72
69.0134	587.69
69.0278	615.29
69.0422	541.55
69.0567	512.94
69.0711	549.98
69.0856	604.82
69.1000	589.30
69.1144	600.55
69.1289	557.74
69.1433	561.84
69.1578	546.31
69.1722	589.20
69.1866	555.96
69.2011	541.66
69.2155	580.03
69.2300	591.13
69.2444	558.48
69.2588	593.21
69.2733	567.20
69.2877	565.75
69.3022	593.25
69.3166	571.14
69.3310	561.71
69.3455	545.76
69.3599	576.45
69.3744	567.91
69.3888	587.24
69.4032	549.28
69.4177	562.53
69.4321	594.22
69.4466	555.66
69.4610	588.00
69.4754	626.21
69.4899	620.60
69.5043	620.28
69.5188	562.41
69.5332	562.27
69.5476	594.65
69.5621	586.10
69.5765	551.34
69.5910	579.37
69.6054	606.51
69.6198	593.74
69.6343	597.21
69.6487	537.87
69.6632	574.95
69.6776	536.61
69.6920	593.17
69.7065	604.09
69.7209	582.78
69.7354	570.51
69.7498	589.87
69.7642	574.64
69.7787	559.18
69.7931	583.69
69.8076	575.12
69.8220	581.24
69.8364	584.76
69.8509	580.08
69.8653	563.11
69.8798	613.70
69.8942	619.76
69.9086	605.37
69.9231	563.94
69.9375	579.21
69.9520	572.05
69.9664	509.53
69.9808	550.56
69.9953	600.52
70.0097	582.23
70.0242	562.91
70.0386	579.25
70.0530	529.41
70.0675	615.77
70.0819	605.36
70.0964	581.61
70.1108	576.01
70.1252	569.88
70.1397	550.96
70.1541	556.33
70.1686	578.94
70.1830	543.77
70.1974	573.79
70.2119	595.15
70.2263	584.64
70.2408	609.74
70.2552	606.03
70.2696	564.68
70.2841	574.90
70.2985	583.48
70.3130	535.59
70.3274	522.30
70.3418	606.06
70.3563	597.66
70.3707	614.21
70.3852	532.94
70.3996	559.32
70.4140	526.92
70.4285	635.11
70.4429	576.51
70.4574	525.49
70.4718	569.89
70.4862	555.37
70.5007	603.50
70.5151	587.93
70.5296	577.27
70.5440	577.25
70.5584	546.66
70.5729	620.88
70.5873	608.64
70.6018	549.22
70.6162	557.10
70.6306	617.20
70.6451	638.20
70.6595	539.40
70.6740	564.21
70.6884	524.44
70.7028	570.55
70.7173	592.34
70.7317	544.78
70.7462	599.08
70.7606	591.28
70.7750	565.15
70.7895	595.28
70.8039	547.07
70.8184	537.29
70.8328	580.61
70.8472	590.17
70.8617	569.87
70.8761	590.19
70.8906	570.54
70.9050	647.54
70.9194	605.62
70.9339	591.44
70.9483	582.56
70.9628	553.19
70.9772	621.28
70.9916	633.03
71.0061	608.89
71.0205	573.62
71.0350	562.61
71.0494	544.88
71.0638	562.34
71.0783	607.61
71.0927	651.97
71.1072	602.08
71.1216	575.92
71.1361	598.41
71.1505	513.72
71.1649	513.80
71.1794	595.40
71.1938	590.34
71.2083	547.81
71.2227	537.68
71.2371	555.48
71.2516	601.44
71.2660	599.68
71.2805	552.65
71.2949	538.59
71.3093	583.75
71.3238	580.53
71.3382	545.37
71.3527	581.84
71.3671	596.18
71.3815	614.63
71.3960	620.98
71.4104	550.54
71.4249	593.51
71.4393	600.84
71.4537	539.59
71.4682	585.70
71.4826	649.47
71.4971	629.69
71.5115	608.63
71.5259	567.97
71.5404	584.60
71.5548	608.15
71.5693	569.21
71.5837	555.79
71.5981	536.70
71.6126	542.67
71.6270	582.94
71.6415	570.84
71.6559	594.14
71.6703	560.97
71.6848	481.59
71.6992	538.79
71.7137	590.37
71.7281	575.70
71.7425	593.77
71.7570	591.65
71.7714	598.09
71.7859	636.32
71.8003	662.76
71.8147	621.40
71.8292	591.20
71.8436	585.29
71.8581	548.80
71.8725	600.13
71.8869	572.44
71.9014	564.06
71.9158	593.81
71.9303	516.06
71.9447	556.47
71.9591	624.64
71.9736	587.80
71.9880	517.69
72.0025	573.46
72.0169	584.13
72.0313	605.41
72.0458	633.45
72.0602	560.81
72.0747	503.31
72.0891	560.96
72.1035	631.90
72.1180	638.52
72.1324	527.87
72.1469	501.83
72.1613	540.79
72.1757	590.48
72.1902	642.33
72.2046	614.23
72.2191	531.49
72.2335	565.52
72.2479	580.76
72.2624	604.40
72.2768	599.90
72.2913	595.92
72.3057	535.46
72.3201	564.03
72.3346	645.46
72.3490	648.50
72.3635	579.25
72.3779	513.47
72.3923	561.82
72.4068	582.92
72.4212	576.40
72.4357	579.54
72.4501	590.49
72.4645	595.27
72.4790	550.80
72.4934	531.21
72.5079	578.51
72.5223	613.24
72.5367	537.18
72.5512	563.98
72.5656	556.00
72.5801	529.64
72.5945	548.13
72.6089	490.99
72.6234	528.71
72.6378	580.49
72.6523	581.37
72.6667	641.94
72.6811	634.59
72.6956	608.52
72.7100	580.32
72.7245	557.12
72.7389	586.41
72.7533	592.72
72.7678	589.44
72.7822	537.18
72.7967	538.25
72.8111	541.86
72.8255	591.92
72.8400	652.20
72.8544	622.76
72.8689	603.27
72.8833	597.10

Result vector
22.1120	481.72
22.1264	566.98
22.1409	577.09
22.1553	533.31
22.1697	538.26
22.1842	560.53
22.1986	553.62
22.2131	573.17
22.2275	578.53
22.2419	469.65
22.2564	488.51
22.2708	604.24
22.2853	601.12
22.2997	550.95
22.3141	592.81
22.3286	629.80
22.3430	519.52
22.3575	557.50
22.3719	590.01
22.3863	533.65
22.4008	493.83
22.4152	552.51
22.4297	628.00
22.4441	584.68
22.4585	524.85
22.4730	629.10
22.4874	689.06
22.5019	558.28
22.5163	530.15
22.5307	600.67
22.5452	629.71
22.5596	556.32
22.5741	577.91
22.5885	631.65
22.6029	583.87
22.6174	578.74
22.6318	528.51
22.6463	521.70
22.6607	572.53
22.6751	518.34
22.6896	572.34
22.7040	561.41
22.7185	523.98
22.7329	555.75
22.7473	510.72
22.7618	555.39
22.7762	608.44
22.7907	626.57
22.8051	580.59
22.8195	543.41
22.8340	564.05
22.8484	641.12
22.8629	626.97
22.8773	616.48
22.8917	465.76
22.9062	454.33
22.9206	586.56
22.9351	606.82
22.9495	547.94
22.9639	511.68
22.9784	570.36
22.9928	620.18
23.0073	570.17
23.0217	624.56
23.0361	571.93
23.0506	582.86
23.0650	530.70
23.0795	538.18
23.0939	572.41
23.1083	548.15
23.1228	587.94
23.1372	543.12
23.1517	538.81
23.1661	532.85
23.1806	643.14
23.1950	590.93
23.2094	550.26
23.2239	577.14
23.2383	604.36
23.2528	553.96
23.2672	531.34
23.2816	533.97
23.2961	478.64
23.3105	573.77
23.3250	586.50
23.3394	503.09
23.3538	519.77
23.3683	541.46
23.3827	553.50
23.3972	522.71
23.4116	528.47
23.4260	534.75
23.4405	527.82
23.4549	519.11
23.4694	544.52
23.4838	522.00
23.4982	548.58
23.5127	495.83
23.5271	551.03
23.5416	588.18
23.5560	656.37
23.5704	548.74
23.5849	554.99
23.5993	638.78
23.6138	544.34
23.6282	552.43
23.6426	506.55
23.6571	540.50
23.6715	607.64
23.6860	596.24
23.7004	575.33
23.7148	517.86
23.7293	518.31
23.7437	606.48
23.7582	618.26
23.7726	560.84
23.7870	592.83
23.8015	593.73
23.8159	559.25
23.8304	601.01
23.8448	533.38
23.8592	599.55
23.8737	552.80
23.8881	500.64
23.9026	593.06
23.9170	532.27
23.9314	470.02
23.9459	554.99
23.9603	559.46
23.9748	575.06
23.9892	575.20
24.0036	617.28
24.0181	574.56
24.0325	511.86
24.0470	541.76
24.0614	538.72
24.0758	554.88
24.0903	550.06
24.1047	565.97
24.1192	547.71
24.1336	545.40
24.1480	542.29
24.1625	550.78
24.1769	587.15
24.1914	590.89
24.2058	562.10
24.2202	566.10
24.2347	631.27
24.2491	628.20
24.2636	583.29
24.2780	591.97
24.2924	534.41
24.3069	548.39
24.3213	584.46
24.3358	584.59
24.3502	577.27
24.3646	561.49
24.3791	480.13
24.3935	527.56
24.4080	516.03
24.4224	565.52
24.4368	525.59
24.4513	496.55
24.4657	557.05
24.4802	519.80
24.4946	558.53
24.5090	549.46
24.5235	573.99
24.5379	559.43
24.5524	491.19
24.5668	541.92
24.5812	528.52
24.5957	594.18
24.6101	568.01
24.6246	571.79
24.6390	583.92
24.6534	552.41
24.6679	535.67
24.6823	491.66
24.6968	554.51
24.7112	554.52
24.7256	537.30
24.7401	527.93
24.7545	547.70
24.7690	514.60
24.7834	548.53
24.7978	541.72
24.8123	517.74
24.8267	544.56
24.8412	551.93
24.8556	571.63
24.8700	519.17
24.8845	593.18
24.8989	571.86
24.9134	515.98
24.9278	568.96
24.9422	530.91
24.9567	516.25
24.9711	500.71
24.9856	514.90
25.0000	577.22
25.0144	544.39
25.0289	571.62
25.0433	540.18
25.0578	502.12
25.0722	524.23
25.0866	542.14
25.1011	533.13
25.1155	598.91
25.1300	571.80
25.1444	531.87
25.1588	537.37
25.1733	583.50
25.1877	518.01
25.2022	526.40
25.2166	559.95
25.2310	545.68
25.2455	549.54
25.2599	510.35
25.2744	561.29
25.2888	548.90
25.3032	551.15
25.3177	556.20
25.3321	550.17
25.3466	528.09
25.3610	535.00
25.3754	555.09
25.3899	554.02
25.4043	543.93
25.4188	542.66
25.4332	512.19
25.4476	564.19
25.4621	542.47
25.4765	527.00
25.4910	573.72
25.5054	584.70
25.5198	557.12
25.5343	554.92
25.5487	523.99
25.5632	518.37
25.5776	553.09
25.5920	524.31
25.6065	542.08
25.6209	522.21
25.6354	529.31
25.6498	533.89
25.6642	544.80
25.6787	561.73
25.6931	537.43
25.7076	568.85
25.7220	553.86
25.7364	541.21
25.7509	562.05
25.7653	514.39
25.7798	526.17
25.7942	544.94
25.8086	549.29
25.8231	533.66
25.8375	548.77
25.8520	567.53
25.8664	561.71
25.8808	551.15
25.8953	542.55
25.9097	541.26
25.9242	532.82
25.9386	553.97
25.9530	496.46
25.9675	512.93
25.9819	559.56
25.9964	539.56
26.0108	526.54
26.0252	525.56
26.0397	523.52
26.0541	571.06
26.0686	539.56
26.0830	537.69
26.0974	510.94
26.1119	539.42
26.1263	554.52
26.1408	554.65
26.1552	533.81
26.1696	541.39
26.1841	495.47
26.1985	515.88
26.2130	551.60
26.2274	534.85
26.2418	547.89
26.2563	520.52
26.2707	498.91
26.2852	509.62
26.2996	500.84
26.3140	522.52
26.3285	509.05
26.3429	507.27
26.3574	532.18
26.3718	496.26
26.3862	494.68
26.4007	517.01
26.4151	553.58
26.4296	568.93
26.4440	530.11
26.4584	503.73
26.4729	532.02
26.4873	530.65
26.5018	547.04
26.5162	556.94
26.5306	544.10
26.5451	527.76
26.5595	515.17
26.5740	518.32
26.5884	544.49
26.6028	568.11
26.6173	530.31
26.6317	529.98
26.6462	552.21
26.6606	529.17
26.6750	507.87
26.6895	507.93
26.7039	509.08
26.7184	522.45
26.7328	512.45
26.7472	515.59
26.7617	561.87
26.7761	569.68
26.7906	515.09
26.8050	502.07
26.8194	533.42
26.8339	541.57
26.8483	503.45
26.8628	516.10
26.8772	531.81
26.8917	551.31
26.9061	556.78
26.9205	550.19
26.9350	545.96
26.9494	530.81
26.9639	524.76
26.9783	534.25
26.9927	535.32
27.0072	524.50
27.0216	532.16
27.0361	513.74
27.0505	538.09
27.0649	537.84
27.0794	488.87
27.0938	512.24
27.1083	527.48
27.1227	510.24
27.1371	508.55
27.1516	479.90
27.1660	517.74
27.1805	523.33
27.1949	510.24
27.2093	541.58
27.2238	515.22
27.2382	529.85
27.2527	505.88
27.2671	539.84
27.2815	519.57
27.2960	525.96
27.3104	562.60
27.3249	544.52
27.3393	528.94
27.3537	504.13
27.3682	514.38
27.3826	518.67
27.3971	487.48
27.4115	499.72
27.4259	563.61
27.4404	568.45
27.4548	535.14
27.4693	554.04
27.4837	548.33
27.4981	487.60
27.5126	514.22
27.5270	548.69
27.5415	512.13
27.5559	528.65
27.5703	535.93
27.5848	525.63
27.5992	530.49
27.6137	500.29
27.6281	494.20
27.6425	502.20
27.6570	526.51
27.6714	513.18
27.6859	500.11
27.7003	505.27
27.7147	526.35
27.7292	543.66
27.7436	509.65
27.7581	462.49
27.7725	511.52
27.7869	544.37
27.8014	542.77
27.8158	511.47
27.8303	479.39
27.8447	530.65
27.8591	507.39
27.8736	533.41
27.8880	517.43
27.9025	494.34
27.9169	484.58
27.9313	535.24
27.9458	533.50
27.9602	516.82
27.9747	543.48
27.9891	521.07
28.0035	513.98
28.0180	502.36
28.0324	523.86
28.0469	521.52
28.0613	551.61
28.0757	498.26
28.0902	553.31
28.1046	516.90
28.1191	531.92
28.1335	516.58
28.1479	496.00
28.1624	506.99
28.1768	507.72
28.1913	500.34
28.2057	495.79
28.2201	520.19
28.2346	510.70
28.2490	492.55
28.2635	504.90
28.2779	549.41
28.2923	561.35
28.3068	567.86
28.3212	504.89
28.3357	501.87
28.3501	512.46
28.3645	505.09
28.3790	491.53
28.3934	485.80
28.4079	510.82
28.4223	524.45
28.4367	545.86
28.4512	521.71
28.4656	507.00
28.4801	506.99
28.4945	532.09
28.5089	506.57
28.5234	513.15
28.5378	553.52
28.5523	554.63
28.5667	526.53
28.5811	511.17
28.5956	523.97
28.6100	539.52
28.6245	501.65
28.6389	476.93
28.6533	513.63
28.6678	517.70
28.6822	519.08
28.6967	498.56
28.7111	523.33
28.7255	507.01
28.7400	519.96
28.7544	526.50
28.7689	515.00
28.7833	508.04
28.7977	511.76
28.8122	540.74
28.8266	478.12
28.8411	507.85
28.8555	491.19
28.8699	478.42
28.8844	514.62
28.8988	560.18
28.9133	485.74
28.9277	505.77
28.9421	531.37
28.9566	482.33
28.9710	517.12
28.9855	486.56
28.9999	505.84
29.0143	507.98
29.0288	512.53
29.0432	508.19
29.0577	482.87
29.0721	496.00
29.0865	520.76
29.1010	513.41
29.1154	501.46
29.1299	511.58
29.1443	471.69
29.1587	506.74
29.1732	487.68
29.1876	541.81
29.2021	513.23
29.2165	527.71
29.2309	503.26
29.2454	538.98
29.2598	521.81
29.2743	507.08
29.2887	521.61
29.3031	496.62
29.3176	513.63
29.3320	493.11
29.3465	517.12
29.3609	515.87
29.3753	517.18
29.3898	499.99
29.4042	502.82
29.4187	532.28
29.4331	521.91
29.4475	493.94
29.4620	514.83
29.4764	523.36
29.4909	504.45
29.5053	525.59
29.5197	482.87
29.5342	503.77
29.5486	516.35
29.5631	504.37
29.5775	491.18
29.5919	495.63
29.6064	505.53
29.6208	497.58
29.6353	519.85
29.6497	479.07
29.6641	479.89
29.6786	489.50
29.6930	485.75
29.7075	506.76
29.7219	495.00
29.7363	503.50
29.7508	485.24
29.7652	498.80
29.7797	507.85
29.7941	501.13
29.8085	508.13
29.8230	537.85
29.8374	518.04
29.8519	488.99
29.8663	505.56
29.8807	483.28
29.8952	479.18
29.9096	514.24
29.9241	484.29
29.9385	526.80
29.9529	497.63
29.9674	459.97
29.9818	512.72
29.9963	516.71
30.0107	491.99
30.0251	482.68
30.0396	508.42
30.0540	513.65
30.0685	482.65
30.0829	518.08
30.0973	510.53
30.1118	516.09
30.1262	497.11
30.1407	480.61
30.1551	488.85
30.1695	515.24
30.1840	512.47
30.1984	474.53
30.2129	499.29
30.2273	525.93
30.2417	534.57
30.2562	519.53
30.2706	490.69
30.2851	545.70
30.2995	476.18
30.3139	482.13
30.3284	516.77
30.3428	530.00
30.3573	537.17
30.3717	511.02
30.3861	490.71
30.4006	491.06
30.4150	510.83
30.4295	523.73
30.4439	490.12
30.4583	511.10
30.4728	526.80
30.4872	505.97
30.5017	510.57
30.5161	505.03
30.5305	510.00
30.5450	515.62
30.5594	519.36
30.5739	539.11
30.5883	540.99
30.6028	524.41
30.6172	503.65
30.6316	515.55
30.6461	514.73
30.6605	524.01
30.6750	507.95
30.6894	521.94
30.7038	550.78
30.7183	545.05
30.7327	551.34
30.7472	587.57
30.7616	618.23
30.7760	629.18
30.7905	645.35
30.8049	661.14
30.8194	676.17
30.8338	676.74
30.8482	671.93
30.8627	669.78
30.8771	659.77
30.8916	639.97
30.9060	689.76
30.9204	651.75
30.9349	656.51
30.9493	635.75
30.9638	630.24
30.9782	603.89
30.9926	611.58
31.0071	568.98
31.0215	555.59
31.0360	556.84
31.0504	566.80
31.0648	530.32
31.0793	517.07
31.0937	534.26
31.1082	570.14
31.1226	532.76
31.1370	505.79
31.1515	506.04
31.1659	523.48
31.1804	531.74
31.1948	506.41
31.2092	498.33
31.2237	501.85
31.2381	482.07
31.2526	481.99
31.2670	501.92
31.2814	509.39
31.2959	523.93
31.3103	546.54
31.3248	555.82
31.3392	537.08
31.3536	558.13
31.3681	561.00
31.3825	516.50
31.3970	514.55
31.4114	500.07
31.4258	517.70
31.4403	497.90
31.4547	504.91
31.4692	482.81
31.4836	495.52
31.4980	506.48
31.5125	482.23
31.5269	487.65
31.5414	504.16
31.5558	491.02
31.5702	530.86
31.5847	526.26
31.5991	510.37
31.6136	466.36
31.6280	471.50
31.6424	535.85
31.6569	517.39
31.6713	503.72
31.6858	503.45
31.7002	510.10
31.7146	538.50
31.7291	496.64
31.7435	489.83
31.7580	523.28
31.7724	510.94
31.7868	504.96
31.8013	513.36
31.8157	519.72
31.8302	509.33
31.8446	488.86
31.8590	503.56
31.8735	478.98
31.8879	475.92
31.9024	530.44
31.9168	517.73
31.9312	493.54
31.9457	509.39
31.9601	504.45
31.9746	514.52
31.9890	487.91
32.0034	505.18
32.0179	529.10
32.0323	543.22
32.0468	495.37
32.0612	520.97
32.0756	503.64
32.0901	516.21
32.1045	518.91
32.1190	499.91
32.1334	499.74
32.1478	495.37
32.1623	543.32
32.1767	510.86
32.1912	495.67
32.2056	480.43
32.2200	507.57
32.2345	497.14
32.2489	517.45
32.2634	513.29
32.2778	467.36
32.2922	496.99
32.3067	476.56
32.3211	508.19
32.3356	516.63
32.3500	501.06
32.3644	504.95
32.3789	506.61
32.3933	462.29
32.4078	476.30
32.4222	507.59
32.4366	523.81
32.4511	525.38
32.4655	516.11
32.4800	489.51
32.4944	481.12
32.5088	508.07
32.5233	518.34
32.5377	498.19
32.5522	498.11
32.5666	529.05
32.5810	484.96
32.5955	497.42
32.6099	481.75
32.6244	480.17
32.6388	480.30
32.6532	491.37
32.6677	490.88
32.6821	475.75
32.6966	479.30
32.7110	481.84
32.7254	488.90
32.7399	477.62
32.7543	502.62
32.7688	506.44
32.7832	489.50
32.7976	489.83
32.8121	487.19
32.8265	523.12
32.8410	499.73
32.8554	499.42
32.8698	531.66
32.8843	537.48
32.8987	505.36
32.9132	518.99
32.9276	529.60
32.9420	502.36
32.9565	486.80
32.9709	482.85
32.9854	502.63
32.9998	523.85
33.0142	486.30
33.0287	518.17
33.0431	541.10
33.0576	533.11
33.0720	508.57
33.0864	520.22
33.1009	538.77
33.1153	481.72
33.1298	519.14
33.1442	486.71
33.1586	473.69
33.1731	493.81
33.1875	513.23
33.2020	518.74
33.2164	507.38
33.2308	517.52
33.2453	518.53
33.2597	506.26
33.2742	506.58
33.2886	488.27
33.3030	508.11
33.3175	504.92
33.3319	498.72
33.3464	496.56
33.3608	500.77
33.3752	479.86
33.3897	469.12
33.4041	466.24
33.4186	550.99
33.4330	541.89
33.4474	514.60
33.4619	523.16
33.4763	528.75
33.4908	542.71
33.5052	512.23
33.5196	488.64
33.5341	531.45
33.5485	545.23
33.5630	487.57
33.5774	518.92
33.5918	489.51
33.6063	505.76
33.6207	495.85
33.6352	520.01
33.6496	502.60
33.6640	476.55
33.6785	478.63
33.6929	493.69
33.7074	481.71
33.7218	483.50
33.7362	507.54
33.7507	513.14
33.7651	471.27
33.7796	522.04
33.7940	489.17
33.8084	520.53
33.8229	499.38
33.8373	516.13
33.8518	484.43
33.8662	484.47
33.8806	488.95
33.8951	510.86
33.9095	524.19
33.9240	515.80
33.9384	520.98
33.9528	512.35
33.9673	510.38
33.9817	509.60
33.9962	552.59
34.0106	502.35
34.0250	507.92
34.0395	462.24
34.0539	461.92
34.0684	547.81
34.0828	526.08
34.0972	505.19
34.1117	512.43
34.1261	519.61
34.1406	517.26
34.1550	538.76
34.1694	558.22
34.1839	500.98
34.1983	502.16
34.2128	511.40
34.2272	530.87
34.2417	508.75
34.2561	505.41
34.2705	490.48
34.2850	466.60
34.2994	486.73
34.3139	512.13
34.3283	519.56
34.3427	477.35
34.3572	490.07
34.3716	513.02
34.3861	503.25
34.4005	512.01
34.4149	493.04
34.4294	520.63
34.4438	511.82
34.4583	498.15
34.4727	524.24
34.4871	519.78
34.5016	501.58
34.5160	487.37
34.5305	518.07
34.5449	511.03
34.5593	477.86
34.5738	503.78
34.5882	498.64
34.6027	489.59
34.6171	517.75
34.6315	492.65
34.6460	499.32
34.6604	491.59
34.6749	507.93
34.6893	477.57
34.7037	490.51
34.7182	481.57
34.7326	510.42
34.7471	506.87
34.7615	521.92
34.7759	561.85
34.7904	536.12
34.8048	512.88
34.8193	491.87
34.8337	493.76
34.8481	487.83
34.8626	514.91
34.8770	525.75
34.8915	512.89
34.9059	523.14
34.9203	518.51
34.9348	506.89
34.9492	517.66
34.9637	487.41
34.9781	491.09
34.9925	540.64
35.0070	514.00
35.0214	528.87
35.0359	522.62
35.0503	498.90
35.0647	509.14
35.0792	507.33
35.0936	495.16
35.1081	507.79
35.1225	524.55
35.1369	515.27
35.1514	494.51
35.1658	515.95
35.1803	544.29
35.1947	490.39
35.2091	507.05
35.2236	496.19
35.2380	500.05
35.2525	530.39
35.2669	488.08
35.2813	513.04
35.2958	484.70
35.3102	490.81
35.3247	492.48
35.3391	496.81
35.3535	518.86
35.3680	487.45
35.3824	482.99
35.3969	502.36
35.4113	486.20
35.4257	505.74
35.4402	493.59
35.4546	528.71
35.4691	552.08
35.4835	546.10
35.4979	562.80
35.5124	540.17
35.5268	544.40
35.5413	537.57
35.5557	553.54
35.5701	535.23
35.5846	515.04
35.5990	518.33
35.6135	508.43
35.6279	515.66
35.6423	544.22
35.6568	544.79
35.6712	546.49
35.6857	573.28
35.7001	641.95
35.7145	688.60
35.7290	646.82
35.7434	607.59
35.7579	609.59
35.7723	574.27
35.7867	633.77
35.8012	694.42
35.8156	656.60
35.8301	671.98
35.8445	649.85
35.8589	647.26
35.8734	754.86
35.8878	843.27
35.9023	1005.21
35.9167	1071.10
35.9311	1359.87
35.9456	2059.60
35.9600	2359.39
35.9745	1963.30
35.9889	2027.62
36.0033	2673.02
36.0178	3056.86
36.0322	2324.39
36.0467	1871.62
36.0611	1661.18
36.0755	1723.17
36.0900	1570.20
36.1044	1281.48
36.1189	1377.84
36.1333	1327.92
36.1477	1087.17
36.1622	1080.94
36.1766	1039.58
36.1911	934.08
36.2055	845.91
36.2199	846.06
36.2344	821.34
36.2488	857.79
36.2633	825.72
36.2777	871.50
36.2921	919.55
36.3066	900.82
36.3210	928.75
36.3355	952.75
36.3499	919.10
36.3643	909.38
36.3788	904.75
36.3932	880.11
36.4077	846.06
36.4221	829.21
36.4365	794.72
36.4510	794.13
36.4654	733.82
36.4799	714.12
36.4943	690.66
36.5087	712.44
36.5232	646.04
36.5376	635.36
36.5521	603.43
36.5665	571.30
36.5809	552.43
36.5954	568.73
36.6098	551.29
36.6243	564.33
36.6387	604.92
36.6531	555.53
36.6676	532.45
36.6820	541.15
36.6965	557.98
36.7109	559.96
36.7253	522.21
36.7398	516.23
36.7542	576.44
36.7687	547.43
36.7831	553.21
36.7975	547.85
36.8120	592.66
36.8264	564.02
36.8409	584.34
36.8553	600.68
36.8697	640.59
36.8842	603.63
36.8986	592.96
36.9131	599.90
36.9275	594.20
36.9419	581.60
36.9564	555.87
36.9708	600.00
36.9853	551.15
36.9997	527.38
37.0141	527.87
37.0286	488.49
37.0430	524.23
37.0575	542.21
37.0719	517.80
37.0863	516.23
37.1008	554.66
37.1152	529.29
37.1297	515.07
37.1441	531.36
37.1585	519.22
37.1730	489.99
37.1874	537.84
37.2019	511.65
37.2163	500.31
37.2307	482.16
37.2452	514.11
37.2596	504.00
37.2741	514.88
37.2885	502.07
37.3029	524.91
37.3174	518.57
37.3318	523.39
37.3463	487.12
37.3607	487.88
37.3751	484.94
37.3896	515.34
37.4040	504.89
37.4185	536.58
37.4329	563.79
37.4473	494.42
37.4618	495.90
37.4762	501.74
37.4907	528.79
37.5051	515.37
37.5195	526.51
37.5340	525.08
37.5484	489.96
37.5629	490.94
37.5773	481.72
37.5917	496.97
37.6062	522.81
37.6206	506.42
37.6351	521.48
37.6495	494.22
37.6639	485.79
37.6784	495.97
37.6928	494.31
37.7073	531.44
37.7217	528.88
37.7361	508.84
37.7506	508.83
37.7650	482.31
37.7795	513.63
37.7939	502.57
37.8083	474.11
37.8228	500.12
37.8372	514.14
37.8517	521.29
37.8661	507.02
37.8805	522.25
37.8950	512.47
37.9094	529.56
37.9239	524.81
37.9383	491.52
37.9528	490.85
37.9672	491.22
37.9816	494.68
37.9961	530.73
38.0105	495.32
38.0250	494.99
38.0394	526.04
38.0538	520.83
38.0683	524.18
38.0827	494.37
38.0972	460.59
38.1116	510.00
38.1260	520.86
38.1405	480.92
38.1549	500.46
38.1694	505.65
38.1838	507.42
38.1982	509.60
38.2127	540.48
38.2271	514.51
38.2416	496.15
38.2560	511.75
38.2704	522.09
38.2849	521.14
38.2993	506.02
38.3138	512.42
38.3282	524.18
38.3426	536.45
38.3571	516.16
38.3715	531.99
38.3860	539.05
38.4004	526.83
38.4148	551.58
38.4293	592.78
38.4437	587.67
38.4582	613.98
38.4726	652.79
38.4870	666.94
38.5015	708.85
38.5159	786.04
38.5304	827.66
38.5448	813.53
38.5592	798.54
38.5737	753.38
38.5881	762.93
38.6026	670.86
38.6170	689.70
38.6314	670.00
38.6459	624.90
38.6603	632.55
38.6748	629.70
38.6892	561.61
38.7036	552.33
38.7181	542.85
38.7325	508.20
38.7470	526.58
38.7614	499.16
38.7758	505.00
38.7903	482.42
38.8047	518.67
38.8192	519.64
38.8336	495.39
38.8480	492.85
38.8625	525.55
38.8769	534.93
38.8914	492.83
38.9058	499.17
38.9202	519.33
38.9347	548.51
38.9491	536.07
38.9636	529.66
38.9780	511.52
38.9924	517.92
39.0069	501.12
39.0213	496.15
39.0358	513.88
39.0502	520.27
39.0646	506.21
39.0791	499.50
39.0935	500.48
39.1080	510.58
39.1224	509.86
39.1368	489.28
39.1513	489.86
39.1657	500.64
39.1802	494.13
39.1946	484.61
39.2090	502.43
39.2235	496.76
39.2379	522.92
39.2524	488.50
39.2668	480.32
39.2812	517.27
39.2957	517.44
39.3101	531.32
39.3246	511.47
39.3390	520.45
39.3534	513.18
39.3679	517.33
39.3823	505.09
39.3968	504.85
39.4112	498.69
39.4256	484.05
39.4401	498.53
39.4545	531.27
39.4690	488.36
39.4834	498.88
39.4978	508.96
39.5123	508.61
39.5267	495.41
39.5412	513.74
39.5556	503.34
39.5700	477.81
39.5845	472.22
39.5989	498.49
39.6134	545.11
39.6278	494.66
39.6422	485.35
39.6567	468.97
39.6711	475.62
39.6856	507.70
39.7000	508.05
39.7144	523.36
39.7289	518.55
39.7433	490.62
39.7578	508.64
39.7722	503.19
39.7866	494.05
39.8011	486.87
39.8155	472.64
39.8300	473.42
39.8444	499.63
39.8588	510.87
39.8733	509.30
39.8877	467.88
39.9022	491.34
39.9166	530.93
39.9310	526.03
39.9455	513.81
39.9599	488.82
39.9744	496.36
39.9888	515.20
40.0032	495.28
40.0177	481.96
40.0321	496.01
40.0466	481.15
40.0610	535.11
40.0754	510.66
40.0899	494.88
40.1043	489.05
40.1188	504.74
40.1332	534.98
40.1476	525.96
40.1621	507.10
40.1765	487.14
40.1910	493.35
40.2054	487.91
40.2198	492.31
40.2343	523.15
40.2487	508.34
40.2632	469.34
40.2776	499.64
40.2920	482.37
40.3065	486.54
40.3209	484.26
40.3354	510.83
40.3498	484.83
40.3642	492.45
40.3787	469.77
40.3931	441.14
40.4076	451.04
40.4220	506.36
40.4364	499.58
40.4509	475.35
40.4653	510.43
40.4798	477.61
40.4942	493.97
40.5086	472.62
40.5231	461.42
40.5375	480.87
40.5520	505.91
40.5664	483.70
40.5808	520.02
40.5953	475.63
40.6097	493.54
40.6242	528.21
40.6386	491.42
40.6530	464.71
40.6675	496.66
40.6819	503.13
40.6964	501.11
40.7108	495.24
40.7252	478.76
40.7397	508.67
40.7541	483.66
40.7686	483.12
40.7830	507.06
40.7974	528.20
40.8119	521.42
40.8263	516.94
40.8408	512.66
40.8552	480.49
40.8696	517.32
40.8841	506.96
40.8985	481.08
40.9130	476.10
40.9274	491.03
40.9418	510.75
40.9563	453.82
40.9707	468.07
40.9852	520.94
40.9996	470.13
41.0140	528.42
41.0285	521.15
41.0429	515.37
41.0574	480.25
41.0718	506.33
41.0862	503.01
41.1007	488.43
41.1151	507.18
41.1296	536.05
41.1440	491.12
41.1584	499.79
41.1729	509.25
41.1873	501.06
41.2018	472.68
41.2162	497.35
41.2306	505.02
41.2451	518.69
41.2595	482.22
41.2740	482.21
41.2884	536.32
41.3028	497.68
41.3173	499.52
41.3317	524.83
41.3462	487.25
41.3606	475.22
41.3750	492.62
41.3895	518.13
41.4039	484.12
41.4184	523.06
41.4328	519.50
41.4472	459.24
41.4617	509.63
41.4761	500.81
41.4906	501.98
41.5050	517.65
41.5194	465.50
41.5339	487.68
41.5483	508.60
41.5628	511.18
41.5772	486.45
41.5916	492.05
41.6061	536.77
41.6205	487.81
41.6350	500.62
41.6494	498.69
41.6639	496.78
41.6783	515.16
41.6927	491.30
41.7072	513.56
41.7216	487.97
41.7361	469.75
41.7505	510.14
41.7649	491.71
41.7794	504.88
41.7938	496.70
41.8083	524.49
41.8227	543.95
41.8371	524.50
41.8516	547.71
41.8660	529.81
41.8805	530.97
41.8949	556.26
41.9093	593.62
41.9238	565.11
41.9382	569.36
41.9527	580.33
41.9671	575.56
41.9815	568.52
41.9960	565.12
42.0104	539.12
42.0249	578.26
42.0393	552.59
42.0537	559.21
42.0682	554.00
42.0826	599.69
42.0971	577.82
42.1115	579.95
42.1259	606.66
42.1404	581.37
42.1548	600.97
42.1693	637.19
42.1837	680.91
42.1981	729.13
42.2126	826.30
42.2270	959.92
42.2415	1067.87
42.2559	1229.56
42.2703	1393.91
42.2848	1546.59
42.2992	1637.30
42.3137	1686.90
42.3281	1616.67
42.3425	1550.03
42.3570	1488.94
42.3714	1429.44
42.3859	1361.00
42.4003	1324.54
42.4147	1338.08
42.4292	1302.75
42.4436	1213.49
42.4581	1053.58
42.4725	955.04
42.4869	881.53
42.5014	785.84
42.5158	713.31
42.5303	675.40
42.5447	653.79
42.5591	630.78
42.5736	581.37
42.5880	559.74
42.6025	589.26
42.6169	563.21
42.6313	533.40
42.6458	530.29
42.6602	508.20
42.6747	523.19
42.6891	535.99
42.7035	548.85
42.7180	509.23
42.7324	523.13
42.7469	531.68
42.7613	529.76
42.7757	529.48
42.7902	526.84
42.8046	525.15
42.8191	530.94
42.8335	498.34
42.8479	494.50
42.8624	514.99
42.8768	512.90
42.8913	492.66
42.9057	533.53
42.9201	502.64
42.9346	508.25
42.9490	518.32
42.9635	504.36
42.9779	501.05
42.9923	497.66
43.0068	497.29
43.0212	497.78
43.0357	497.58
43.0501	513.89
43.0645	523.40
43.0790	502.27
43.0934	521.88
43.1079	513.88
43.1223	505.28
43.1367	503.73
43.1512	507.07
43.1656	570.63
43.1801	549.18
43.1945	503.33
43.2089	498.47
43.2234	503.31
43.2378	519.35
43.2523	525.54
43.2667	515.01
43.2811	536.86
43.2956	514.07
43.3100	514.96
43.3245	503.50
43.3389	540.99
43.3533	525.45
43.3678	537.84
43.3822	546.57
43.3967	506.30
43.4111	491.65
43.4255	504.25
43.4400	507.29
43.4544	502.67
43.4689	526.83
43.4833	545.58
43.4977	532.15
43.5122	501.44
43.5266	494.31
43.5411	524.04
43.5555	523.29
43.5699	511.62
43.5844	510.39
43.5988	541.62
43.6133	507.77
43.6277	508.98
43.6421	521.76
43.6566	527.46
43.6710	538.86
43.6855	527.29
43.6999	565.30
43.7143	526.50
43.7288	500.25
43.7432	537.80
43.7577	498.03
43.7721	527.75
43.7865	553.58
43.8010	524.58
43.8154	534.24
43.8299	521.90
43.8443	529.64
43.8587	556.77
43.8732	553.73
43.8876	534.52
43.9021	575.94
43.9165	525.33
43.9309	534.12
43.9454	518.27
43.9598	494.76
43.9743	532.96
43.9887	549.48
44.0031	573.46
44.0176	543.34
44.0320	577.63
44.0465	582.68
44.0609	576.90
44.0753	595.46
44.0898	622.76
44.1042	603.65
44.1187	609.43
44.1331	597.41
44.1475	593.22
44.1620	660.28
44.1764	633.73
44.1909	627.88
44.2053	624.70
44.2197	628.95
44.2342	607.82
44.2486	580.38
44.2631	582.89
44.2775	579.32
44.2919	570.12
44.3064	573.71
44.3208	546.74
44.3353	535.27
44.3497	540.82
44.3641	578.40
44.3786	532.09
44.3930	554.24
44.4075	560.60
44.4219	588.12
44.4363	585.77
44.4508	541.74
44.4652	578.51
44.4797	586.65
44.4941	561.24
44.5085	594.26
44.5230	565.58
44.5374	556.89
44.5519	562.86
44.5663	598.38
44.5807	592.42
44.5952	572.31
44.6096	537.40
44.6241	547.31
44.6385	563.43
44.6529	575.80
44.6674	592.51
44.6818	562.07
44.6963	586.19
44.7107	638.67
44.7251	670.73
44.7396	712.76
44.7540	797.51
44.7685	813.97
44.7829	871.07
44.7973	908.62
44.8118	856.50
44.8262	825.25
44.8407	784.23
44.8551	751.03
44.8695	745.04
44.8840	733.58
44.8984	720.35
44.9129	666.56
44.9273	704.94
44.9417	693.79
44.9562	640.45
44.9706	617.35
44.9851	575.66
44.9995	528.40
45.0139	552.14
45.0284	563.29
45.0428	527.58
45.0573	482.08
45.0717	517.46
45.0861	507.67
45.1006	524.69
45.1150	535.49
45.1295	545.41
45.1439	503.58
45.1583	465.24
45.1728	487.47
45.1872	520.11
45.2017	501.70
45.2161	515.91
45.2305	503.90
45.2450	509.79
45.2594	516.43
45.2739	528.78
45.2883	516.79
45.3028	496.44
45.3172	456.80
45.3316	506.73
45.3461	500.20
45.3605	551.24
45.3750	513.20
45.3894	513.27
45.4038	512.90
45.4183	557.71
45.4327	529.22
45.4472	512.09
45.4616	494.62
45.4760	503.11
45.4905	483.31
45.5049	515.69
45.5194	500.43
45.5338	491.77
45.5482	473.13
45.5627	499.37
45.5771	496.99
45.5916	510.00
45.6060	512.02
45.6204	478.71
45.6349	477.75
45.6493	476.47
45.6638	468.39
45.6782	494.03
45.6926	505.56
45.7071	477.63
45.7215	497.32
45.7360	489.10
45.7504	527.79
45.7648	510.50
45.7793	486.14
45.7937	480.15
45.8082	504.24
45.8226	501.15
45.8370	541.65
45.8515	508.46
45.8659	493.63
45.8804	504.20
45.8948	480.94
45.9092	504.38
45.9237	506.10
45.9381	523.00
45.9526	474.47
45.9670	501.35
45.9814	483.70
45.9959	488.79
46.0103	498.09
46.0248	520.78
46.0392	493.84
46.0536	499.75
46.0681	477.22
46.0825	514.64
46.0970	498.10
46.1114	475.76
46.1258	508.92
46.1403	515.55
46.1547	496.19
46.1692	528.71
46.1836	481.29
46.1980	483.57
46.2125	486.05
46.2269	490.12
46.2414	516.07
46.2558	509.52
46.2702	515.51
46.2847	528.76
46.2991	494.18
46.3136	485.83
46.3280	507.74
46.3424	499.72
46.3569	464.81
46.3713	503.98
46.3858	473.40
46.4002	507.02
46.4146	511.49
46.4291	488.53
46.4435	497.71
46.4580	489.51
46.4724	533.99
46.4868	493.34
46.5013	507.01
46.5157	508.91
46.5302	459.31
46.5446	452.52
46.5590	504.31
46.5735	506.52
46.5879	504.59
46.6024	475.83
46.6168	477.05
46.6312	480.63
46.6457	495.14
46.6601	509.22
46.6746	497.92
46.6890	495.86
46.7034	515.90
46.7179	488.79
46.7323	497.13
46.7468	534.56
46.7612	506.23
46.7756	511.83
46.7901	515.15
46.8045	501.50
46.8190	513.32
46.8334	491.61
46.8478	491.63
46.8623	535.53
46.8767	549.13
46.8912	483.67
46.9056	481.69
46.9200	498.19
46.9345	531.93
46.9489	490.90
46.9634	508.64
46.9778	571.52
46.9922	521.73
47.0067	493.45
47.0211	496.02
47.0356	524.64
47.0500	512.40
47.0644	500.99
47.0789	494.94
47.0933	502.62
47.1078	481.93
47.1222	502.27
47.1366	507.19
47.1511	482.71
47.1655	452.45
47.1800	514.13
47.1944	470.06
47.2088	499.15
47.2233	497.75
47.2377	473.15
47.2522	489.81
47.2666	519.77
47.2810	507.10
47.2955	487.03
47.3099	507.48
47.3244	530.46
47.3388	486.91
47.3532	496.39
47.3677	493.28
47.3821	496.03
47.3966	493.41
47.4110	474.57
47.4254	492.50
47.4399	518.48
47.4543	489.07
47.4688	519.49
47.4832	521.70
47.4976	523.46
47.5121	534.45
47.5265	499.29
47.5410	501.20
47.5554	507.19
47.5698	510.90
47.5843	497.33
47.5987	502.55
47.6132	505.71
47.6276	470.35
47.6420	514.17
47.6565	473.45
47.6709	486.17
47.6854	480.28
47.6998	496.86
47.7142	510.11
47.7287	463.50
47.7431	484.61
47.7576	506.45
47.7720	488.25
47.7864	494.06
47.8009	490.12
47.8153	505.51
47.8298	482.83
47.8442	493.57
47.8586	496.24
47.8731	504.06
47.8875	475.71
47.9020	517.87
47.9164	493.40
47.9308	485.17
47.9453	485.85
47.9597	477.29
47.9742	453.90
47.9886	487.81
48.0030	503.57
48.0175	508.53
48.0319	493.81
48.0464	500.52
48.0608	534.10
48.0752	561.76
48.0897	540.21
48.1041	527.22
48.1186	495.46
48.1330	498.76
48.1474	479.09
48.1619	510.98
48.1763	505.19
48.1908	496.18
48.2052	533.01
48.2196	501.08
48.2341	482.49
48.2485	498.25
48.2630	521.33
48.2774	498.07
48.2918	482.75
48.3063	499.80
48.3207	521.78
48.3352	499.51
48.3496	516.30
48.3640	521.45
48.3785	514.21
48.3929	454.02
48.4074	489.00
48.4218	504.24
48.4362	520.48
48.4507	498.22
48.4651	517.87
48.4796	500.04
48.4940	509.12
48.5084	520.71
48.5229	517.56
48.5373	547.47
48.5518	487.81
48.5662	547.84
48.5806	555.71
48.5951	507.17
48.6095	509.76
48.6240	528.78
48.6384	548.68
48.6528	528.63
48.6673	515.27
48.6817	481.37
48.6962	504.36
48.7106	544.66
48.7250	547.49
48.7395	515.47
48.7539	564.12
48.7684	535.03
48.7828	539.55
48.7972	533.51
48.8117	532.59
48.8261	557.86
48.8406	573.02
48.8550	546.74
48.8694	536.64
48.8839	552.55
48.8983	554.54
48.9128	505.08
48.9272	540.18
48.9416	565.19
48.9561	573.66
48.9705	589.11
48.9850	550.71
48.9994	569.02
49.0139	601.28
49.0283	643.44
49.0427	599.92
49.0572	570.49
49.0716	635.18
49.0861	684.95
49.1005	701.17
49.1149	709.58
49.1294	764.33
49.1438	724.20
49.1583	776.97
49.1727	845.69
49.1871	904.50
49.2016	984.63
49.2160	1092.33
49.2305	1121.32
49.2449	1257.96
49.2593	1294.03
49.2738	1375.16
49.2882	1491.46
49.3027	1594.48
49.3171	1649.32
49.3315	1713.37
49.3460	1757.46
49.3604	1806.29
49.3749	1727.66
49.3893	1816.04
49.4037	1858.34
49.4182	1812.45
49.4326	1787.30
49.4471	1704.51
49.4615	1643.01
49.4759	1603.65
49.4904	1488.33
49.5048	1420.85
49.5193	1335.45
49.5337	1261.65
49.5481	1222.88
49.5626	1121.17
49.5770	1041.08
49.5915	1014.26
49.6059	996.09
49.6203	882.28
49.6348	810.10
49.6492	757.98
49.6637	756.40
49.6781	689.55
49.6925	650.89
49.7070	685.33
49.7214	664.61
49.7359	627.46
49.7503	638.80
49.7647	586.49
49.7792	594.04
49.7936	587.23
49.8081	581.45
49.8225	601.46
49.8369	576.10
49.8514	533.29
49.8658	561.95
49.8803	573.21
49.8947	540.70
49.9091	541.18
49.9236	533.54
49.9380	584.90
49.9525	556.96
49.9669	547.12
49.9813	538.39
49.9958	567.74
50.0102	543.94
50.0247	550.33
50.0391	533.57
50.0535	499.45
50.0680	501.45
50.0824	522.29
50.0969	502.62
50.1113	535.81
50.1257	552.83
50.1402	523.51
50.1546	510.87
50.1691	531.45
50.1835	533.16
50.1979	499.72
50.2124	521.18
50.2268	509.73
50.2413	547.53
50.2557	545.21
50.2701	537.05
50.2846	537.48
50.2990	511.99
50.3135	507.68
50.3279	481.99
50.3423	480.51
50.3568	499.97
50.3712	504.33
50.3857	506.50
50.4001	507.54
50.4145	494.53
50.4290	519.41
50.4434	479.32
50.4579	520.11
50.4723	542.87
50.4867	530.49
50.5012	501.69
50.5156	494.57
50.5301	480.59
50.5445	500.53
50.5589	501.09
50.5734	474.41
50.5878	487.32
50.6023	519.73
50.6167	523.99
50.6311	530.23
50.6456	525.50
50.6600	468.81
50.6745	485.26
50.6889	478.40
50.7033	488.14
50.7178	487.62
50.7322	509.80
50.7467	545.76
50.7611	506.57
50.7755	480.66
50.7900	520.96
50.8044	520.35
50.8189	499.80
50.8333	495.49
50.8477	496.45
50.8622	486.97
50.8766	490.05
50.8911	489.97
50.9055	521.62
50.9199	505.56
50.9344	526.36
50.9488	538.25
50.9633	510.81
50.9777	476.39
50.9921	472.06
51.0066	521.25
51.0210	526.87
51.0355	518.52
51.0499	506.67
51.0643	520.14
51.0788	518.99
51.0932	513.86
51.1077	500.80
51.1221	511.74
51.1365	495.67
51.1510	501.65
51.1654	507.03
51.1799	481.42
51.1943	465.09
51.2087	510.77
51.2232	526.71
51.2376	521.87
51.2521	517.65
51.2665	531.55
51.2809	507.48
51.2954	498.94
51.3098	529.53
51.3243	527.39
51.3387	533.74
51.3531	516.78
51.3676	521.88
51.3820	511.58
51.3965	497.28
51.4109	500.22
51.4253	542.67
51.4398	508.02
51.4542	488.95
51.4687	498.20
51.4831	508.18
51.4975	504.18
51.5120	525.59
51.5264	547.12
51.5409	497.72
51.5553	518.65
51.5697	521.25
51.5842	495.90
51.5986	514.32
51.6131	505.19
51.6275	495.38
51.6419	485.93
51.6564	529.40
51.6708	510.92
51.6853	482.95
51.6997	527.83
51.7141	534.27
51.7286	543.80
51.7430	553.22
51.7575	505.53
51.7719	502.48
51.7863	511.90
51.8008	521.30
51.8152	505.42
51.8297	517.13
51.8441	523.58
51.8585	502.91
51.8730	507.51
51.8874	487.70
51.9019	533.04
51.9163	518.30
51.9307	492.56
51.9452	513.62
51.9596	495.27
51.9741	487.01
51.9885	527.94
52.0029	524.73
52.0174	504.99
52.0318	518.03
52.0463	479.28
52.0607	498.66
52.0751	510.91
52.0896	535.00
52.1040	529.45
52.1185	521.81
52.1329	518.85
52.1473	498.19
52.1618	505.32
52.1762	500.94
52.1907	530.61
52.2051	483.94
52.2195	484.67
52.2340	481.26
52.2484	496.29
52.2629	471.96
52.2773	516.03
52.2917	519.79
52.3062	537.78
52.3206	520.58
52.3351	519.89
52.3495	494.67
52.3639	526.30
52.3784	530.65
52.3928	519.74
52.4073	512.82
52.4217	540.94
52.4361	518.90
52.4506	510.06
52.4650	474.91
52.4795	537.59
52.4939	518.73
52.5083	476.56
52.5228	488.04
52.5372	490.48
52.5517	520.59
52.5661	523.53
52.5805	493.05
52.5950	489.48
52.6094	507.47
52.6239	486.19
52.6383	503.20
52.6527	505.58
52.6672	510.77
52.6816	493.94
52.6961	495.43
52.7105	522.56
52.7250	538.99
52.7394	490.99
52.7538	495.43
52.7683	508.78
52.7827	538.46
52.7972	497.16
52.8116	534.46
52.8260	568.88
52.8405	518.11
52.8549	510.43
52.8694	504.21
52.8838	512.67
52.8982	498.62
52.9127	519.06
52.9271	531.47
52.9416	526.42
52.9560	501.20
52.9704	505.82
52.9849	520.66
52.9993	499.74
53.0138	485.44
53.0282	520.71
53.0426	500.09
53.0571	552.73
53.0715	527.45
53.0860	501.20
53.1004	494.74
53.1148	494.62
53.1293	547.10
53.1437	491.20
53.1582	508.65
53.1726	494.92
53.1870	448.24
53.2015	488.00
53.2159	508.29
53.2304	487.54
53.2448	503.23
53.2592	530.93
53.2737	510.65
53.2881	486.67
53.3026	503.30
53.3170	510.74
53.3314	518.07
53.3459	511.10
53.3603	516.41
53.3748	536.23
53.3892	491.05
53.4036	491.63
53.4181	541.78
53.4325	551.87
53.4470	504.96
53.4614	529.21
53.4758	526.65
53.4903	508.89
53.5047	497.13
53.5192	523.46
53.5336	556.32
53.5480	527.34
53.5625	512.73
53.5769	507.19
53.5914	515.26
53.6058	475.48
53.6202	497.87
53.6347	519.74
53.6491	490.95
53.6636	490.76
53.6780	507.61
53.6924	520.05
53.7069	503.04
53.7213	508.95
53.7358	529.81
53.7502	519.57
53.7646	528.64
53.7791	542.42
53.7935	532.19
53.8080	501.77
53.8224	479.12
53.8368	502.79
53.8513	511.71
53.8657	537.23
53.8802	522.02
53.8946	495.41
53.9090	505.35
53.9235	542.19
53.9379	519.34
53.9524	505.71
53.9668	493.24
53.9812	483.99
53.9957	501.05
54.0101	509.11
54.0246	492.74
54.0390	518.27
54.0534	528.98
54.0679	522.04
54.0823	494.39
54.0968	511.30
54.1112	516.30
54.1256	498.51
54.1401	503.91
54.1545	504.82
54.1690	508.03
54.1834	506.25
54.1978	512.09
54.2123	537.39
54.2267	491.40
54.2412	514.68
54.2556	547.24
54.2700	525.16
54.2845	502.35
54.2989	514.09
54.3134	542.88
54.3278	504.89
54.3422	525.43
54.3567	519.72
54.3711	517.89
54.3856	528.79
54.4000	518.59
54.4144	544.86
54.4289	533.19
54.4433	502.83
54.4578	509.58
54.4722	524.53
54.4866	533.12
54.5011	528.41
54.5155	493.89
54.5300	547.66
54.5444	548.38
54.5588	529.60
54.5733	494.03
54.5877	551.26
54.6022	540.93
54.6166	560.61
54.6310	546.39
54.6455	541.06
54.6599	553.61
54.6744	535.66
54.6888	572.32
54.7032	597.48
54.7177	583.89
54.7321	575.37
54.7466	544.06
54.7610	560.41
54.7754	583.62
54.7899	562.28
54.8043	571.53
54.8188	587.72
54.8332	598.94
54.8476	604.31
54.8621	595.82
54.8765	590.04
54.8910	601.93
54.9054	596.97
54.9198	571.56
54.9343	576.43
54.9487	550.66
54.9632	556.43
54.9776	571.60
54.9920	578.55
55.0065	561.84
55.0209	589.14
55.0354	576.42
55.0498	541.33
55.0642	536.81
55.0787	555.40
55.0931	554.45
55.1076	517.27
55.1220	547.07
55.1364	538.44
55.1509	496.85
55.1653	547.95
55.1798	536.64
55.1942	499.11
55.2086	518.60
55.2231	512.56
55.2375	521.20
55.2520	535.59
55.2664	552.01
55.2808	550.91
55.2953	496.61
55.3097	536.01
55.3242	550.80
55.3386	541.97
55.3530	529.38
55.3675	512.77
55.3819	502.75
55.3964	506.35
55.4108	512.61
55.4252	536.31
55.4397	545.68
55.4541	557.64
55.4686	535.68
55.4830	537.27
55.4974	504.65
55.5119	515.80
55.5263	527.79
55.5408	536.42
55.5552	527.40
55.5696	497.94
55.5841	511.86
55.5985	517.64
55.6130	528.86
55.6274	520.78
55.6418	529.67
55.6563	525.28
55.6707	524.36
55.6852	561.68
55.6996	541.25
55.7140	535.36
55.7285	536.29
55.7429	510.26
55.7574	487.67
55.7718	537.94
55.7862	533.51
55.8007	547.02
55.8151	539.19
55.8296	547.20
55.8440	512.51
55.8584	552.97
55.8729	535.90
55.8873	549.77
55.9018	569.13
55.9162	526.41
55.9306	533.72
55.9451	546.31
55.9595	503.94
55.9740	495.53
55.9884	505.77
56.0028	505.07
56.0173	493.01
56.0317	469.53
56.0462	511.98
56.0606	535.42
56.0750	504.70
56.0895	540.57
56.1039	474.61
56.1184	509.54
56.1328	512.46
56.1472	492.15
56.1617	501.08
56.1761	492.49
56.1906	506.41
56.2050	514.88
56.2194	520.12
56.2339	548.95
56.2483	542.58
56.2628	533.86
56.2772	530.45
56.2916	536.06
56.3061	515.30
56.3205	513.35
56.3350	507.68
56.3494	523.83
56.3639	513.10
56.3783	508.18
56.3927	528.05
56.4072	524.68
56.4216	534.74
56.4361	512.44
56.4505	537.34
56.4649	544.74
56.4794	516.69
56.4938	526.43
56.5083	516.87
56.5227	534.73
56.5371	557.08
56.5516	535.12
56.5660	512.37
56.5805	554.15
56.5949	500.77
56.6093	514.02
56.6238	521.95
56.6382	509.15
56.6527	532.59
56.6671	535.41
56.6815	539.31
56.6960	549.11
56.7104	538.90
56.7249	518.46
56.7393	534.47
56.7537	555.23
56.7682	522.01
56.7826	547.65
56.7971	559.59
56.8115	525.37
56.8259	544.51
56.8404	523.01
56.8548	508.33
56.8693	528.15
56.8837	507.05
56.8981	523.86
56.9126	520.20
56.9270	519.20
56.9415	551.25
56.9559	522.97
56.9703	540.55
56.9848	521.86
56.9992	525.86
57.0137	510.22
57.0281	480.76
57.0425	505.22
57.0570	522.01
57.0714	490.53
57.0859	527.45
57.1003	505.64
57.1147	508.85
57.1292	489.21
57.1436	485.73
57.1581	537.60
57.1725	546.55
57.1869	518.93
57.2014	526.05
57.2158	532.97
57.2303	522.68
57.2447	528.99
57.2591	512.92
57.2736	532.48
57.2880	516.85
57.3025	529.88
57.3169	507.84
57.3313	527.09
57.3458	514.20
57.3602	528.29
57.3747	532.61
57.3891	522.02
57.4035	520.84
57.4180	500.29
57.4324	530.49
57.4469	489.94
57.4613	528.90
57.4757	540.28
57.4902	551.54
57.5046	523.00
57.5191	531.79
57.5335	526.78
57.5479	510.94
57.5624	536.33
57.5768	542.30
57.5913	539.39
57.6057	527.92
57.6201	535.81
57.6346	538.49
57.6490	503.33
57.6635	536.91
57.6779	535.44
57.6923	540.98
57.7068	535.63
57.7212	530.35
57.7357	514.31
57.7501	489.30
57.7645	519.74
57.7790	541.56
57.7934	525.54
57.8079	544.62
57.8223	548.88
57.8367	538.44
57.8512	535.87
57.8656	547.37
57.8801	510.14
57.8945	532.67
57.9089	516.29
57.9234	527.95
57.9378	546.14
57.9523	562.98
57.9667	545.10
57.9811	515.21
57.9956	518.47
58.0100	516.01
58.0245	511.81
58.0389	517.36
58.0533	526.36
58.0678	541.11
58.0822	513.85
58.0967	543.10
58.1111	557.83
58.1255	534.23
58.1400	523.09
58.1544	542.25
58.1689	544.74
58.1833	569.22
58.1977	562.71
58.2122	572.57
58.2266	552.33
58.2411	575.56
58.2555	613.86
58.2699	587.49
58.2844	573.51
58.2988	607.85
58.3133	621.47
58.3277	590.01
58.3421	608.44
58.3566	633.22
58.3710	629.34
58.3855	600.76
58.3999	589.45
58.4143	617.61
58.4288	687.04
58.4432	647.53
58.4577	656.15
58.4721	659.44
58.4865	622.31
58.5010	647.10
58.5154	620.03
58.5299	625.08
58.5443	630.35
58.5587	625.37
58.5732	622.00
58.5876	576.67
58.6021	605.87
58.6165	631.93
58.6309	622.25
58.6454	607.12
58.6598	588.84
58.6743	580.76
58.6887	585.89
58.7031	569.92
58.7176	541.46
58.7320	513.73
58.7465	536.93
58.7609	537.67
58.7753	549.69
58.7898	579.00
58.8042	547.37
58.8187	590.18
58.8331	534.57
58.8475	530.42
58.8620	557.99
58.8764	526.00
58.8909	525.67
58.9053	542.54
58.9197	540.26
58.9342	561.59
58.9486	568.34
58.9631	530.41
58.9775	532.07
58.9919	521.54
59.0064	517.36
59.0208	553.63
59.0353	524.32
59.0497	517.59
59.0641	547.63
59.0786	538.41
59.0930	533.90
59.1075	592.03
59.1219	581.87
59.1363	559.34
59.1508	549.52
59.1652	546.87
59.1797	537.99
59.1941	529.03
59.2085	545.93
59.2230	561.74
59.2374	571.71
59.2519	523.10
59.2663	515.83
59.2807	560.76
59.2952	550.51
59.3096	557.57
59.3241	554.44
59.3385	559.07
59.3529	552.81
59.3674	528.03
59.3818	532.00
59.3963	550.83
59.4107	567.53
59.4251	565.98
59.4396	574.13
59.4540	602.12
59.4685	568.97
59.4829	564.39
59.4973	566.63
59.5118	567.07
59.5262	556.36
59.5407	572.44
59.5551	585.52
59.5695	544.54
59.5840	551.71
59.5984	551.38
59.6129	548.19
59.6273	563.22
59.6417	538.59
59.6562	550.65
59.6706	534.56
59.6851	553.34
59.6995	536.76
59.7139	542.82
59.7284	538.25
59.7428	512.38
59.7573	508.41
59.7717	519.76
59.7861	521.98
59.8006	524.55
59.8150	573.63
59.8295	550.65
59.8439	530.17
59.8583	538.46
59.8728	563.81
59.8872	568.52
59.9017	517.17
59.9161	534.07
59.9305	546.02
59.9450	535.61
59.9594	518.09
59.9739	570.09
59.9883	526.89
60.0027	528.27
60.0172	504.66
60.0316	525.42
60.0461	511.23
60.0605	550.69
60.0750	521.33
60.0894	520.39
60.1038	518.99
60.1183	539.94
60.1327	490.18
60.1472	494.64
60.1616	534.13
60.1760	555.44
60.1905	540.24
60.2049	536.19
60.2194	511.02
60.2338	504.49
60.2482	554.73
60.2627	539.77
60.2771	532.40
60.2916	529.92
60.3060	547.70
60.3204	514.47
60.3349	562.34
60.3493	527.94
60.3638	573.76
60.3782	540.13
60.3926	536.32
60.4071	520.86
60.4215	535.26
60.4360	544.01
60.4504	495.09
60.4648	541.09
60.4793	543.53
60.4937	543.90
60.5082	540.41
60.5226	540.46
60.5370	542.25
60.5515	536.01
60.5659	566.69
60.5804	527.09
60.5948	574.00
60.6092	516.75
60.6237	523.17
60.6381	563.64
60.6526	529.41
60.6670	532.89
60.6814	527.58
60.6959	572.69
60.7103	580.27
60.7248	534.05
60.7392	517.92
60.7536	562.37
60.7681	542.78
60.7825	542.96
60.7970	538.76
60.8114	566.36
60.8258	569.30
60.8403	543.91
60.8547	558.93
60.8692	542.78
60.8836	531.29
60.8980	543.31
60.9125	571.20
60.9269	565.88
60.9414	554.17
60.9558	585.38
60.9702	532.94
60.9847	558.55
60.9991	516.55
61.0136	559.74
61.0280	527.47
61.0424	512.98
61.0569	523.72
61.0713	564.81
61.0858	563.19
61.1002	536.01
61.1146	554.99
61.1291	559.15
61.1435	517.33
61.1580	516.14
61.1724	539.12
61.1868	523.98
61.2013	535.26
61.2157	543.59
61.2302	541.80
61.2446	514.77
61.2590	516.41
61.2735	555.56
61.2879	562.17
61.3024	570.07
61.3168	534.08
61.3312	548.51
61.3457	572.07
61.3601	575.56
61.3746	504.37
61.3890	533.14
61.4034	538.43
61.4179	555.25
61.4323	570.39
61.4468	524.66
61.4612	510.68
61.4756	544.85
61.4901	544.66
61.5045	535.61
61.5190	510.82
61.5334	546.44
61.5478	531.36
61.5623	552.91
61.5767	543.57
61.5912	568.59
61.6056	537.37
61.6200	550.96
61.6345	565.25
61.6489	505.29
61.6634	528.86
61.6778	555.18
61.6922	547.60
61.7067	571.39
61.7211	540.14
61.7356	552.42
61.7500	559.51
61.7644	595.16
61.7789	567.46
61.7933	541.74
61.8078	576.19
61.8222	594.05
61.8366	560.76
61.8511	560.67
61.8655	567.81
61.8800	584.79
61.8944	603.75
61.9088	548.17
61.9233	525.13
61.9377	582.36
61.9522	564.00
61.9666	555.06
61.9810	593.36
61.9955	571.16
62.0099	541.93
62.0244	528.29
62.0388	532.53
62.0532	535.78
62.0677	541.73
62.0821	525.91
62.0966	546.56
62.1110	560.48
62.1254	550.06
62.1399	543.12
62.1543	518.91
62.1688	537.51
62.1832	543.47
62.1976	550.70
62.2121	565.52
62.2265	590.58
62.2410	543.65
62.2554	526.51
62.2698	556.18
62.2843	556.79
62.2987	555.28
62.3132	547.59
62.3276	569.25
62.3420	547.09
62.3565	529.65
62.3709	580.70
62.3854	563.19
62.3998	555.11
62.4142	567.77
62.4287	591.93
62.4431	579.24
62.4576	540.81
62.4720	577.54
62.4864	554.00
62.5009	566.46
62.5153	554.26
62.5298	561.09
62.5442	530.93
62.5586	569.74
62.5731	535.53
62.5875	551.65
62.6020	537.89
62.6164	544.35
62.6308	543.29
62.6453	537.25
62.6597	586.10
62.6742	552.08
62.6886	520.61
62.7030	583.59
62.7175	587.21
62.7319	524.16
62.7464	525.37
62.7608	536.43
62.7752	594.26
62.7897	573.19
62.8041	563.20
62.8186	566.69
62.8330	601.51
62.8474	560.95
62.8619	526.14
62.8763	562.38
62.8908	557.80
62.9052	534.68
62.9196	536.64
62.9341	545.81
62.9485	540.33
62.9630	536.02
62.9774	547.21
62.9918	563.04
63.0063	573.73
63.0207	595.67
63.0352	557.16
63.0496	543.26
63.0640	579.76
63.0785	538.64
63.0929	564.07
63.1074	547.00
63.1218	573.56
63.1362	572.92
63.1507	535.26
63.1651	551.57
63.1796	549.28
63.1940	559.98
63.2084	544.73
63.2229	559.77
63.2373	574.28
63.2518	562.47
63.2662	550.09
63.2806	561.41
63.2951	510.90
63.3095	593.31
63.3240	619.29
63.3384	595.06
63.3528	566.72
63.3673	575.91
63.3817	575.34
63.3962	561.90
63.4106	566.03
63.4250	603.55
63.4395	586.48
63.4539	585.57
63.4684	574.48
63.4828	552.10
63.4972	565.14
63.5117	556.86
63.5261	577.20
63.5406	570.25
63.5550	563.01
63.5694	546.83
63.5839	609.26
63.5983	560.17
63.6128	598.59
63.6272	561.32
63.6416	609.58
63.6561	567.37
63.6705	587.65
63.6850	572.24
63.6994	572.13
63.7138	653.74
63.7283	583.12
63.7427	567.19
63.7572	576.12
63.7716	612.76
63.7861	636.35
63.8005	586.36
63.8149	633.73
63.8294	576.09
63.8438	582.75
63.8583	617.44
63.8727	608.19
63.8871	573.94
63.9016	670.68
63.9160	640.73
63.9305	609.87
63.9449	638.80
63.9593	663.80
63.9738	632.36
63.9882	677.38
64.0027	667.82
64.0171	710.24
64.0315	709.42
64.0460	725.11
64.0604	712.26
64.0749	740.00
64.0893	744.42
64.1037	726.91
64.1182	765.19
64.1326	733.24
64.1471	763.18
64.1615	746.34
64.1759	765.24
64.1904	743.64
64.2048	749.92
64.2193	788.80
64.2337	818.37
64.2481	746.64
64.2626	761.18
64.2770	752.82
64.2915	727.57
64.3059	739.29
64.3203	742.33
64.3348	795.02
64.3492	791.22
64.3637	777.13
64.3781	758.62
64.3925	702.89
64.4070	697.53
64.4214	708.86
64.4359	716.45
64.4503	702.26
64.4647	722.61
64.4792	662.79
64.4936	684.68
64.5081	665.92
64.5225	667.13
64.5369	661.48
64.5514	700.24
64.5658	653.55
64.5803	686.51
64.5947	655.62
64.6091	671.92
64.6236	672.79
64.6380	661.53
64.6525	642.59
64.6669	650.39
64.6813	660.39
64.6958	688.93
64.7102	707.51
64.7247	718.34
64.7391	685.19
64.7535	670.64
64.7680	710.56
64.7824	707.76
64.7969	759.03
64.8113	803.28
64.8257	837.31
64.8402	800.09
64.8546	819.07
64.8691	844.66
64.8835	803.97
64.8979	851.41
64.9124	873.41
64.9268	909.60
64.9413	943.77
64.9557	934.46
64.9701	1022.87
64.9846	1082.43
64.9990	1186.98
65.0135	1226.27
65.0279	1471.25
65.0423	1673.26
65.0568	2125.18
65.0712	2605.01
65.0857	3296.90
65.1001	4325.09
65.1145	6025.66
65.1290	7732.49
65.1434	9526.71
65.1579	10869.98
65.1723	11830.88
65.1867	11441.43
65.2012	10232.21
65.2156	8431.44
65.2301	6765.94
65.2445	5347.86
65.2589	4418.32
65.2734	4195.09
65.2878	4294.17
65.3023	4858.43
65.3167	5692.64
65.3311	6532.35
65.3456	6938.82
65.3600	6857.72
65.3745	6431.25
65.3889	5647.54
65.4033	4403.92
65.4178	3524.11
65.4322	2744.83
65.4467	2112.22
65.4611	1767.65
65.4755	1450.62
65.4900	1234.97
65.5044	1144.28
65.5189	1101.44
65.5333	1019.71
65.5477	964.30
65.5622	934.71
65.5766	897.58
65.5911	817.32
65.6055	793.07
65.6199	781.42
65.6344	800.07
65.6488	758.74
65.6633	754.95
65.6777	735.94
65.6921	700.99
65.7066	750.36
65.7210	702.52
65.7355	703.45
65.7499	667.94
65.7643	646.78
65.7788	642.62
65.7932	682.64
65.8077	680.42
65.8221	672.27
65.8365	645.36
65.8510	639.04
65.8654	641.50
65.8799	634.17
65.8943	675.72
65.9087	663.94
65.9232	666.14
65.9376	680.50
65.9521	653.98
65.9665	655.58
65.9809	622.49
65.9954	590.80
66.0098	631.76
66.0243	624.45
66.0387	653.95
66.0531	605.26
66.0676	669.00
66.0820	660.89
66.0965	618.53
66.1109	596.11
66.1253	595.30
66.1398	610.40
66.1542	638.88
66.1687	613.89
66.1831	631.13
66.1975	637.85
66.2120	651.66
66.2264	647.76
66.2409	633.84
66.2553	588.40
66.2697	597.88
66.2842	595.11
66.2986	609.96
66.3131	587.69
66.3275	588.52
66.3419	618.04
66.3564	593.88
66.3708	592.57
66.3853	597.54
66.3997	578.36
66.4141	583.68
66.4286	590.93
66.4430	547.52
66.4575	558.91
66.4719	602.01
66.4863	595.03
66.5008	600.40
66.5152	625.74
66.5297	619.84
66.5441	618.26
66.5585	633.82
66.5730	597.30
66.5874	592.25
66.6019	600.84
66.6163	621.37
66.6307	629.45
66.6452	599.01
66.6596	574.82
66.6741	595.21
66.6885	559.63
66.7029	593.37
66.7174	592.80
66.7318	573.60
66.7463	591.49
66.7607	583.77
66.7751	578.92
66.7896	586.40
66.8040	597.74
66.8185	633.05
66.8329	591.80
66.8473	563.99
66.8618	591.31
66.8762	593.70
66.8907	581.99
66.9051	609.60
66.9195	601.82
66.9340	578.84
66.9484	579.15
66.9629	573.87
66.9773	561.97
66.9917	560.66
67.0062	581.80
67.0206	589.44
67.0351	565.03
67.0495	555.15
67.0639	601.57
67.0784	574.74
67.0928	582.60
67.1073	568.03
67.1217	605.03
67.1361	576.32
67.1506	573.48
67.1650	576.30
67.1795	582.59
67.1939	592.46
67.2083	580.93
67.2228	592.99
67.2372	593.39
67.2517	567.20
67.2661	545.82
67.2805	622.02
67.2950	593.09
67.3094	560.26
67.3239	584.19
67.3383	587.67
67.3527	572.64
67.3672	566.61
67.3816	589.09
67.3961	550.42
67.4105	558.90
67.4250	565.56
67.4394	589.54
67.4538	561.14
67.4683	580.10
67.4827	590.20
67.4972	584.20
67.5116	587.29
67.5260	583.73
67.5405	611.36
67.5549	577.67
67.5694	606.09
67.5838	570.57
67.5982	537.14
67.6127	561.40
67.6271	561.37
67.6416	571.93
67.6560	575.19
67.6704	576.25
67.6849	584.31
67.6993	566.55
67.7138	574.78
67.7282	615.41
67.7426	570.59
67.7571	570.77
67.7715	552.17
67.7860	563.85
67.8004	547.15
67.8148	573.29
67.8293	584.60
67.8437	587.13
67.8582	544.24
67.8726	570.07
67.8870	589.78
67.9015	609.35
67.9159	538.93
67.9304	543.50
67.9448	567.15
67.9592	590.42
67.9737	552.02
67.9881	554.95
68.0026	569.63
68.0170	618.56
68.0314	583.76
68.0459	560.37
68.0603	598.54
68.0748	580.25
68.0892	604.58
68.1036	579.10
68.1181	540.60
68.1325	600.60
68.1470	532.63
68.1614	556.57
68.1758	552.40
68.1903	593.30
68.2047	578.29
68.2192	563.00
68.2336	548.41
68.2480	593.56
68.2625	585.92
68.2769	534.65
68.2914	541.95
68.3058	578.00
68.3202	548.10
68.3347	610.74
68.3491	578.57
68.3636	569.90
68.3780	593.08
68.3924	577.96
68.4069	565.06
68.4213	583.05
68.4358	542.36
68.4502	552.76
68.4646	603.57
68.4791	543.61
68.4935	582.16
68.5080	596.60
68.5224	591.30
68.5368	558.77
68.5513	561.57
68.5657	602.97
68.5802	551.00
68.5946	564.26
68.6090	554.90
68.6235	541.34
68.6379	579.74
68.6524	550.72
68.6668	570.05
68.6812	573.57
68.6957	534.68
68.7101	576.01
68.7246	636.34
68.7390	607.97
68.7534	567.44
68.7679	561.67
68.7823	577.87
68.7968	581.52
68.8112	553.69
68.8256	564.39
68.8401	578.92
68.8545	545.42
68.8690	575.18
68.8834	579.34
68.8978	575.50
68.9123	615.57
68.9267	580.20
68.9412	585.95
68.9556	597.55
68.9700	572.43
68.9845	598.74
68.9989	555.72
69.0134	587.69
69.0278	615.29
69.0422	541.55
69.0567	512.94
69.0711	549.98
69.0856	604.82
69.1000	589.30
69.1144	600.55
69.1289	557.74
69.1433	561.84
69.1578	546.31
69.1722	589.20
69.1866	555.96
69.2011	541.66
69.2155	580.03
69.2300	591.13
69.2444	558.48
69.2588	593.21
69.2733	567.20
69.2877	565.75
69.3022	593.25
69.3166	571.14
69.3310	561.71
69.3455	545.76
69.3599	576.45
69.3744	567.91
69.3888	587.24
69.4032	549.28
69.4177	562.53
69.4321	594.22
69.4466	555.66
69.4610	588.00
69.4754	626.21
69.4899	620.60
69.5043	620.28
69.5188	562.41
69.5332	562.27
69.5476	594.65
69.5621	586.10
69.5765	551.34
69.5910	579.37
69.6054	606.51
69.6198	593.74
69.6343	597.21
69.6487	537.87
69.6632	574.95
69.6776	536.61
69.6920	593.17
69.7065	604.09
69.7209	582.78
69.7354	570.51
69.7498	589.87
69.7642	574.64
69.7787	559.18
69.7931	583.69
69.8076	575.12
69.8220	581.24
69.8364	584.76
69.8509	580.08
69.8653	563.11
69.8798	613.70
69.8942	619.76
69.9086	605.37
69.9231	563.94
69.9375	579.21
69.9520	572.05
69.9664	509.53
69.9808	550.56
69.9953	600.52
70.0097	582.23
70.0242	562.91
70.0386	579.25
70.0530	529.41
70.0675	615.77
70.0819	605.36
70.0964	581.61
70.1108	576.01
70.1252	569.88
70.1397	550.96
70.1541	556.33
70.1686	578.94
70.1830	543.77
70.1974	573.79
70.2119	595.15
70.2263	584.64
70.2408	609.74
70.2552	606.03
70.2696	564.68
70.2841	574.90
70.2985	583.48
70.3130	535.59
70.3274	522.30
70.3418	606.06
70.3563	597.66
70.3707	614.21
70.3852	532.94
70.3996	559.32
70.4140	526.92
70.4285	635.11
70.4429	576.51
70.4574	525.49
70.4718	569.89
70.4862	555.37
70.5007	603.50
70.5151	587.93
70.5296	577.27
70.5440	577.25
70.5584	546.66
70.5729	620.88
70.5873	608.64
70.6018	549.22
70.6162	557.10
70.6306	617.20
70.6451	638.20
70.6595	539.40
70.6740	564.21
70.6884	524.44
70.7028	570.55
70.7173	592.34
70.7317	544.78
70.7462	599.08
70.7606	591.28
70.7750	565.15
70.7895	595.28
70.8039	547.07
70.8184	537.29
70.8328	580.61
70.8472	590.17
70.8617	569.87
70.8761	590.19
70.8906	570.54
70.9050	647.54
70.9194	605.62
70.9339	591.44
70.9483	582.56
70.9628	553.19
70.9772	621.28
70.9916	633.03
71.0061	608.89
71.0205	573.62
71.0350	562.61
71.0494	544.88
71.0638	562.34
71.0783	607.61
71.0927	651.97
71.1072	602.08
71.1216	575.92
71.1361	598.41
71.1505	513.72
71.1649	513.80
71.1794	595.40
71.1938	590.34
71.2083	547.81
71.2227	537.68
71.2371	555.48
71.2516	601.44
71.2660	599.68
71.2805	552.65
71.2949	538.59
71.3093	583.75
71.3238	580.53
71.3382	545.37
71.3527	581.84
71.3671	596.18
71.3815	614.63
71.3960	620.98
71.4104	550.54
71.4249	593.51
71.4393	600.84
71.4537	539.59
71.4682	585.70
71.4826	649.47
71.4971	629.69
71.5115	608.63
71.5259	567.97
71.5404	584.60
71.5548	608.15
71.5693	569.21
71.5837	555.79
71.5981	536.70
71.6126	542.67
71.6270	582.94
71.6415	570.84
71.6559	594.14
71.6703	560.97
71.6848	481.59
71.6992	538.79
71.7137	590.37
71.7281	575.70
71.7425	593.77
71.7570	591.65
71.7714	598.09
71.7859	636.32
71.8003	662.76
71.8147	621.40
71.8292	591.20
71.8436	585.29
71.8581	548.80
71.8725	600.13
71.8869	572.44
71.9014	564.06
71.9158	593.81
71.9303	516.06
71.9447	556.47
71.9591	624.64
71.9736	587.80
71.9880	517.69
72.0025	573.46
72.0169	584.13
72.0313	605.41
72.0458	633.45
72.0602	560.81
72.0747	503.31
72.0891	560.96
72.1035	631.90
72.1180	638.52
72.1324	527.87
72.1469	501.83
72.1613	540.79
72.1757	590.48
72.1902	642.33
72.2046	614.23
72.2191	531.49
72.2335	565.52
72.2479	580.76
72.2624	604.40
72.2768	599.90
72.2913	595.92
72.3057	535.46
72.3201	564.03
72.3346	645.46
72.3490	648.50
72.3635	579.25
72.3779	513.47
72.3923	561.82
72.4068	582.92
72.4212	576.40
72.4357	579.54
72.4501	590.49
72.4645	595.27
72.4790	550.80
72.4934	531.21
72.5079	578.51
72.5223	613.24
72.5367	537.18
72.5512	563.98
72.5656	556.00
72.5801	529.64
72.5945	548.13
72.6089	490.99
72.6234	528.71
72.6378	580.49
72.6523	581.37
72.6667	641.94
72.6811	634.59
72.6956	608.52
72.7100	580.32
72.7245	557.12
72.7389	586.41
72.7533	592.72
72.7678	589.44
72.7822	537.18
72.7967	538.25
72.8111	541.86
72.8255	591.92
72.8400	652.20
72.8544	622.76
72.8689	603.27
72.8833	597.10