2022.09.19 19:37:17
Îáðàçåö: ß÷åéêà LCoV 16-09-2022
Lambda1 = 1.54060
Lambda2 = 1.54439
Lambdam = 1.54186
R = 0.497
2Theta	I

line¹ 0 ;repeat¹ 0
22.1120	493.24
22.1264	443.85
22.1409	491.53
22.1553	525.85
22.1697	618.11
22.1842	544.81
22.1986	529.86
22.2131	509.53
22.2275	536.37
22.2419	580.50
22.2564	653.25
22.2708	584.36
22.2853	606.77
22.2997	453.24
22.3141	555.22
22.3286	625.31
22.3430	607.26
22.3575	584.72
22.3719	600.72
22.3863	533.70
22.4008	515.62
22.4152	492.74
22.4297	672.10
22.4441	669.41
22.4585	550.19
22.4730	504.11
22.4874	626.43
22.5019	640.76
22.5163	564.30
22.5307	595.05
22.5452	594.21
22.5596	613.83
22.5741	595.93
22.5885	536.60
22.6029	519.73
22.6174	612.65
22.6318	542.10
22.6463	591.54
22.6607	682.77
22.6751	561.33
22.6896	512.07
22.7040	564.96
22.7185	671.58
22.7329	638.24
22.7473	510.53
22.7618	532.22
22.7762	565.22
22.7907	568.92
22.8051	551.37
22.8195	626.42
22.8340	552.00
22.8484	552.31
22.8629	614.01
22.8773	610.81
22.8917	533.48
22.9062	579.40
22.9206	513.30
22.9351	487.36
22.9495	525.95
22.9639	589.67
22.9784	544.93
22.9928	519.48
23.0073	476.75
23.0217	557.51
23.0361	543.67
23.0506	450.61
23.0650	595.60
23.0795	486.16
23.0939	581.64
23.1083	585.22
23.1228	497.92
23.1372	524.81
23.1517	559.57
23.1661	514.72
23.1806	549.20
23.1950	577.65
23.2094	529.12
23.2239	515.31
23.2383	614.68
23.2528	500.98
23.2672	534.18
23.2816	547.96
23.2961	574.17
23.3105	624.45
23.3250	513.63
23.3394	538.44
23.3538	598.21
23.3683	577.64
23.3827	558.52
23.3972	593.90
23.4116	512.61
23.4260	599.97
23.4405	535.95
23.4549	576.58
23.4694	567.11
23.4838	593.16
23.4982	542.46
23.5127	538.79
23.5271	636.05
23.5416	559.92
23.5560	580.54
23.5704	593.59
23.5849	573.46
23.5993	549.01
23.6138	586.61
23.6282	497.44
23.6426	573.06
23.6571	552.41
23.6715	582.42
23.6860	558.73
23.7004	623.47
23.7148	585.15
23.7293	535.89
23.7437	564.96
23.7582	592.20
23.7726	505.81
23.7870	542.04
23.8015	545.39
23.8159	550.19
23.8304	527.23
23.8448	541.82
23.8592	612.79
23.8737	569.55
23.8881	578.19
23.9026	595.73
23.9170	544.46
23.9314	579.96
23.9459	527.18
23.9603	580.82
23.9748	536.70
23.9892	548.83
24.0036	561.54
24.0181	530.46
24.0325	522.89
24.0470	539.46
24.0614	585.94
24.0758	547.32
24.0903	561.27
24.1047	552.30
24.1192	537.18
24.1336	613.44
24.1480	545.01
24.1625	568.37
24.1769	531.45
24.1914	529.31
24.2058	581.52
24.2202	574.90
24.2347	621.28
24.2491	550.83
24.2636	619.44
24.2780	633.97
24.2924	588.34
24.3069	580.51
24.3213	597.80
24.3358	631.43
24.3502	586.82
24.3646	578.09
24.3791	592.20
24.3935	572.05
24.4080	515.61
24.4224	549.71
24.4368	526.49
24.4513	559.86
24.4657	526.26
24.4802	547.97
24.4946	477.56
24.5090	549.77
24.5235	538.18
24.5379	596.60
24.5524	596.91
24.5668	562.79
24.5812	541.73
24.5957	532.69
24.6101	535.48
24.6246	526.57
24.6390	581.50
24.6534	613.72
24.6679	533.46
24.6823	549.70
24.6968	535.19
24.7112	564.13
24.7256	537.73
24.7401	505.47
24.7545	538.16
24.7690	577.65
24.7834	578.14
24.7978	528.03
24.8123	537.86
24.8267	507.32
24.8412	501.75
24.8556	579.45
24.8700	607.94
24.8845	532.79
24.8989	516.98
24.9134	547.38
24.9278	556.27
24.9422	561.28
24.9567	512.68
24.9711	518.47
24.9856	533.83
25.0000	552.73
25.0144	568.03
25.0289	525.98
25.0433	547.52
25.0578	543.77
25.0722	557.98
25.0866	554.42
25.1011	529.65
25.1155	528.18
25.1300	508.89
25.1444	520.69
25.1588	498.19
25.1733	574.67
25.1877	529.09
25.2022	506.59
25.2166	543.85
25.2310	569.44
25.2455	580.42
25.2599	548.49
25.2744	529.38
25.2888	569.89
25.3032	534.47
25.3177	566.44
25.3321	567.93
25.3466	564.24
25.3610	522.82
25.3754	529.35
25.3899	529.99
25.4043	537.27
25.4188	554.51
25.4332	577.52
25.4476	540.69
25.4621	484.15
25.4765	485.80
25.4910	546.64
25.5054	609.28
25.5198	611.66
25.5343	558.35
25.5487	561.61
25.5632	541.31
25.5776	537.43
25.5920	525.29
25.6065	534.97
25.6209	554.65
25.6354	540.97
25.6498	513.72
25.6642	501.14
25.6787	506.59
25.6931	541.12
25.7076	534.44
25.7220	524.90
25.7364	576.58
25.7509	562.96
25.7653	523.56
25.7798	563.70
25.7942	574.48
25.8086	562.84
25.8231	559.18
25.8375	539.45
25.8520	545.63
25.8664	529.75
25.8808	552.38
25.8953	525.16
25.9097	536.70
25.9242	525.03
25.9386	557.89
25.9530	525.13
25.9675	495.80
25.9819	540.34
25.9964	530.30
26.0108	539.74
26.0252	511.50
26.0397	539.36
26.0541	555.66
26.0686	527.21
26.0830	519.25
26.0974	527.41
26.1119	524.90
26.1263	550.42
26.1408	519.17
26.1552	511.40
26.1696	540.11
26.1841	560.03
26.1985	529.50
26.2130	512.43
26.2274	486.89
26.2418	525.43
26.2563	523.66
26.2707	499.58
26.2852	527.29
26.2996	548.24
26.3140	535.08
26.3285	523.75
26.3429	528.09
26.3574	542.88
26.3718	527.35
26.3862	550.80
26.4007	530.61
26.4151	486.65
26.4296	520.06
26.4440	535.27
26.4584	523.31
26.4729	516.36
26.4873	541.64
26.5018	513.96
26.5162	492.81
26.5306	557.39
26.5451	549.89
26.5595	532.68
26.5740	522.42
26.5884	532.95
26.6028	553.45
26.6173	528.04
26.6317	531.76
26.6462	530.29
26.6606	492.84
26.6750	505.72
26.6895	490.84
26.7039	548.85
26.7184	539.06
26.7328	529.71
26.7472	524.43
26.7617	502.58
26.7761	533.25
26.7906	568.87
26.8050	503.72
26.8194	490.03
26.8339	511.81
26.8483	534.95
26.8628	547.42
26.8772	555.10
26.8917	567.25
26.9061	545.31
26.9205	511.81
26.9350	538.50
26.9494	521.17
26.9639	487.46
26.9783	490.53
26.9927	554.68
27.0072	509.76
27.0216	482.33
27.0361	503.35
27.0505	524.53
27.0649	516.65
27.0794	511.37
27.0938	533.24
27.1083	509.09
27.1227	532.09
27.1371	518.36
27.1516	520.80
27.1660	551.30
27.1805	525.24
27.1949	509.41
27.2093	519.32
27.2238	562.45
27.2382	578.56
27.2527	524.20
27.2671	523.21
27.2815	517.76
27.2960	511.40
27.3104	539.02
27.3249	522.02
27.3393	557.67
27.3537	548.61
27.3682	510.13
27.3826	500.58
27.3971	523.97
27.4115	514.64
27.4259	528.35
27.4404	512.04
27.4548	501.12
27.4693	518.07
27.4837	537.80
27.4981	544.96
27.5126	534.40
27.5270	533.33
27.5415	502.06
27.5559	483.64
27.5703	510.53
27.5848	540.78
27.5992	557.36
27.6137	520.68
27.6281	492.37
27.6425	516.11
27.6570	527.04
27.6714	537.12
27.6859	477.79
27.7003	493.33
27.7147	519.38
27.7292	496.89
27.7436	518.51
27.7581	525.20
27.7725	524.33
27.7869	536.10
27.8014	562.66
27.8158	536.29
27.8303	532.81
27.8447	545.37
27.8591	523.69
27.8736	527.57
27.8880	502.12
27.9025	548.11
27.9169	524.22
27.9313	517.37
27.9458	525.42
27.9602	501.76
27.9747	529.26
27.9891	518.22
28.0035	498.99
28.0180	481.96
28.0324	505.21
28.0469	528.83
28.0613	535.90
28.0757	547.42
28.0902	497.67
28.1046	504.52
28.1191	553.63
28.1335	531.19
28.1479	508.10
28.1624	480.05
28.1768	512.69
28.1913	493.58
28.2057	518.11
28.2201	514.09
28.2346	479.58
28.2490	511.49
28.2635	516.35
28.2779	493.60
28.2923	479.79
28.3068	507.61
28.3212	530.11
28.3357	536.54
28.3501	521.62
28.3645	513.12
28.3790	540.51
28.3934	548.69
28.4079	530.54
28.4223	536.07
28.4367	503.46
28.4512	546.54
28.4656	534.65
28.4801	522.09
28.4945	542.57
28.5089	527.81
28.5234	520.85
28.5378	515.31
28.5523	546.60
28.5667	499.67
28.5811	504.22
28.5956	522.30
28.6100	520.16
28.6245	496.29
28.6389	516.63
28.6533	504.84
28.6678	492.22
28.6822	493.02
28.6967	517.10
28.7111	502.91
28.7255	481.01
28.7400	490.68
28.7544	504.29
28.7689	480.36
28.7833	515.91
28.7977	521.74
28.8122	528.63
28.8266	519.80
28.8411	482.24
28.8555	496.69
28.8699	518.19
28.8844	507.78
28.8988	509.02
28.9133	514.26
28.9277	488.74
28.9421	535.88
28.9566	494.03
28.9710	495.84
28.9855	520.28
28.9999	490.40
29.0143	510.15
29.0288	502.69
29.0432	501.99
29.0577	521.36
29.0721	481.68
29.0865	502.63
29.1010	528.76
29.1154	521.72
29.1299	532.60
29.1443	511.17
29.1587	523.75
29.1732	523.05
29.1876	514.98
29.2021	496.68
29.2165	517.88
29.2309	517.08
29.2454	489.37
29.2598	495.89
29.2743	484.57
29.2887	521.65
29.3031	506.13
29.3176	504.97
29.3320	546.95
29.3465	483.37
29.3609	542.54
29.3753	526.01
29.3898	493.69
29.4042	495.68
29.4187	475.30
29.4331	510.14
29.4475	498.93
29.4620	532.80
29.4764	519.16
29.4909	496.85
29.5053	507.65
29.5197	482.57
29.5342	504.38
29.5486	509.63
29.5631	498.21
29.5775	509.91
29.5919	512.30
29.6064	496.93
29.6208	517.01
29.6353	534.14
29.6497	472.53
29.6641	526.92
29.6786	474.49
29.6930	498.29
29.7075	525.02
29.7219	498.35
29.7363	500.91
29.7508	501.92
29.7652	494.47
29.7797	537.34
29.7941	522.86
29.8085	492.29
29.8230	505.25
29.8374	474.23
29.8519	481.49
29.8663	503.10
29.8807	529.00
29.8952	491.43
29.9096	505.99
29.9241	524.76
29.9385	507.12
29.9529	502.57
29.9674	487.02
29.9818	461.97
29.9963	493.83
30.0107	485.44
30.0251	510.44
30.0396	503.36
30.0540	517.89
30.0685	514.49
30.0829	493.96
30.0973	519.94
30.1118	499.58
30.1262	522.31
30.1407	486.43
30.1551	485.77
30.1695	484.66
30.1840	502.94
30.1984	472.74
30.2129	495.66
30.2273	545.51
30.2417	531.22
30.2562	508.53
30.2706	508.93
30.2851	516.41
30.2995	507.12
30.3139	491.43
30.3284	497.54
30.3428	516.07
30.3573	512.32
30.3717	532.87
30.3861	506.39
30.4006	482.54
30.4150	491.40
30.4295	504.75
30.4439	482.38
30.4583	519.90
30.4728	512.12
30.4872	497.94
30.5017	512.76
30.5161	510.30
30.5305	515.24
30.5450	525.46
30.5594	526.54
30.5739	510.94
30.5883	504.21
30.6028	494.22
30.6172	521.11
30.6316	546.52
30.6461	545.10
30.6605	533.40
30.6750	512.19
30.6894	529.70
30.7038	563.13
30.7183	562.58
30.7327	608.36
30.7472	622.43
30.7616	622.11
30.7760	623.41
30.7905	658.32
30.8049	636.15
30.8194	639.20
30.8338	659.96
30.8482	700.13
30.8627	656.23
30.8771	665.22
30.8916	681.78
30.9060	638.00
30.9204	625.09
30.9349	610.60
30.9493	617.98
30.9638	613.84
30.9782	570.59
30.9926	569.14
31.0071	573.31
31.0215	559.43
31.0360	534.80
31.0504	548.99
31.0648	528.06
31.0793	533.38
31.0937	521.99
31.1082	530.65
31.1226	531.87
31.1370	532.39
31.1515	524.58
31.1659	566.97
31.1804	536.44
31.1948	520.27
31.2092	524.53
31.2237	521.56
31.2381	548.49
31.2526	536.00
31.2670	524.48
31.2814	522.69
31.2959	497.94
31.3103	546.99
31.3248	541.60
31.3392	549.63
31.3536	533.91
31.3681	561.47
31.3825	538.35
31.3970	545.53
31.4114	525.05
31.4258	531.89
31.4403	492.21
31.4547	505.29
31.4692	557.65
31.4836	517.30
31.4980	497.60
31.5125	493.62
31.5269	506.07
31.5414	509.37
31.5558	488.54
31.5702	515.71
31.5847	509.64
31.5991	490.56
31.6136	503.66
31.6280	517.21
31.6424	501.45
31.6569	480.44
31.6713	495.21
31.6858	469.52
31.7002	474.48
31.7146	477.93
31.7291	490.22
31.7435	489.59
31.7580	514.44
31.7724	506.76
31.7868	495.87
31.8013	494.16
31.8157	499.63
31.8302	502.70
31.8446	497.32
31.8590	508.28
31.8735	516.49
31.8879	527.13
31.9024	495.74
31.9168	470.35
31.9312	515.14
31.9457	514.21
31.9601	501.15
31.9746	550.04
31.9890	506.57
32.0034	498.36
32.0179	501.55
32.0323	506.54
32.0468	464.06
32.0612	498.95
32.0756	480.58
32.0901	515.67
32.1045	499.92
32.1190	518.64
32.1334	491.09
32.1478	477.87
32.1623	487.08
32.1767	550.13
32.1912	520.64
32.2056	486.06
32.2200	497.66
32.2345	504.38
32.2489	455.21
32.2634	487.06
32.2778	488.13
32.2922	484.57
32.3067	509.45
32.3211	503.97
32.3356	496.56
32.3500	529.13
32.3644	481.74
32.3789	504.26
32.3933	491.76
32.4078	548.70
32.4222	541.48
32.4366	498.70
32.4511	470.32
32.4655	501.78
32.4800	509.20
32.4944	499.80
32.5088	541.65
32.5233	499.29
32.5377	517.06
32.5522	516.57
32.5666	464.88
32.5810	475.27
32.5955	523.69
32.6099	542.26
32.6244	495.54
32.6388	524.09
32.6532	504.58
32.6677	510.50
32.6821	500.78
32.6966	530.18
32.7110	542.33
32.7254	525.77
32.7399	532.38
32.7543	511.88
32.7688	509.28
32.7832	501.42
32.7976	500.51
32.8121	503.48
32.8265	517.87
32.8410	508.06
32.8554	499.95
32.8698	521.14
32.8843	528.24
32.8987	499.45
32.9132	529.51
32.9276	515.27
32.9420	504.86
32.9565	483.12
32.9709	514.91
32.9854	505.11
32.9998	494.98
33.0142	508.62
33.0287	486.81
33.0431	463.04
33.0576	517.23
33.0720	516.09
33.0864	520.29
33.1009	486.09
33.1153	494.95
33.1298	535.91
33.1442	528.83
33.1586	536.93
33.1731	515.81
33.1875	508.81
33.2020	499.42
33.2164	488.15
33.2308	499.85
33.2453	493.42
33.2597	508.61
33.2742	545.77
33.2886	507.57
33.3030	507.04
33.3175	534.93
33.3319	486.39
33.3464	526.65
33.3608	512.58
33.3752	521.98
33.3897	564.43
33.4041	517.74
33.4186	540.56
33.4330	533.23
33.4474	543.76
33.4619	495.32
33.4763	509.69
33.4908	553.48
33.5052	496.62
33.5196	488.82
33.5341	507.49
33.5485	522.80
33.5630	514.19
33.5774	501.35
33.5918	500.10
33.6063	519.12
33.6207	520.89
33.6352	501.87
33.6496	489.47
33.6640	501.32
33.6785	509.40
33.6929	498.63
33.7074	512.76
33.7218	510.76
33.7362	480.59
33.7507	519.87
33.7651	514.97
33.7796	491.62
33.7940	522.75
33.8084	521.80
33.8229	504.34
33.8373	544.27
33.8518	524.59
33.8662	545.77
33.8806	533.55
33.8951	519.58
33.9095	527.83
33.9240	506.04
33.9384	494.52
33.9528	484.94
33.9673	518.60
33.9817	512.48
33.9962	552.13
34.0106	491.21
34.0250	500.62
34.0395	521.65
34.0539	498.87
34.0684	506.41
34.0828	481.10
34.0972	517.16
34.1117	523.35
34.1261	515.48
34.1406	513.34
34.1550	497.52
34.1694	515.34
34.1839	507.47
34.1983	518.43
34.2128	496.59
34.2272	516.13
34.2417	506.60
34.2561	497.93
34.2705	485.61
34.2850	527.19
34.2994	503.22
34.3139	518.04
34.3283	509.59
34.3427	506.46
34.3572	506.44
34.3716	498.84
34.3861	496.43
34.4005	480.49
34.4149	512.60
34.4294	564.71
34.4438	517.21
34.4583	506.07
34.4727	504.84
34.4871	515.57
34.5016	528.03
34.5160	506.66
34.5305	474.16
34.5449	477.63
34.5593	523.12
34.5738	530.20
34.5882	510.25
34.6027	501.21
34.6171	525.10
34.6315	502.84
34.6460	500.37
34.6604	504.49
34.6749	492.37
34.6893	499.15
34.7037	535.65
34.7182	504.34
34.7326	514.75
34.7471	501.84
34.7615	486.13
34.7759	503.74
34.7904	504.28
34.8048	507.89
34.8193	533.30
34.8337	535.15
34.8481	512.70
34.8626	495.27
34.8770	536.04
34.8915	495.86
34.9059	475.37
34.9203	471.18
34.9348	512.21
34.9492	520.57
34.9637	503.06
34.9781	506.89
34.9925	519.68
35.0070	465.78
35.0214	482.42
35.0359	495.74
35.0503	492.44
35.0647	517.37
35.0792	522.44
35.0936	528.79
35.1081	500.67
35.1225	531.95
35.1369	494.20
35.1514	478.44
35.1658	502.59
35.1803	533.76
35.1947	483.52
35.2091	457.13
35.2236	516.35
35.2380	527.10
35.2525	480.86
35.2669	500.66
35.2813	508.66
35.2958	487.48
35.3102	513.40
35.3247	533.48
35.3391	489.42
35.3535	516.30
35.3680	530.44
35.3824	536.90
35.3969	502.03
35.4113	510.75
35.4257	522.83
35.4402	501.00
35.4546	517.96
35.4691	568.18
35.4835	574.28
35.4979	510.39
35.5124	531.86
35.5268	543.40
35.5413	572.02
35.5557	568.07
35.5701	553.83
35.5846	533.87
35.5990	546.47
35.6135	550.17
35.6279	491.37
35.6423	499.28
35.6568	513.41
35.6712	554.51
35.6857	598.33
35.7001	710.09
35.7145	732.55
35.7290	679.60
35.7434	637.79
35.7579	562.16
35.7723	599.31
35.7867	625.07
35.8012	685.17
35.8156	694.50
35.8301	645.71
35.8445	611.90
35.8589	655.17
35.8734	737.70
35.8878	886.93
35.9023	989.11
35.9167	1030.82
35.9311	1272.14
35.9456	2029.78
35.9600	2382.55
35.9745	1904.62
35.9889	1972.06
36.0033	2631.48
36.0178	3092.94
36.0322	2391.99
36.0467	1869.10
36.0611	1729.14
36.0755	1635.01
36.0900	1601.08
36.1044	1278.64
36.1189	1424.44
36.1333	1367.04
36.1477	1139.68
36.1622	1078.28
36.1766	1075.17
36.1911	989.78
36.2055	896.82
36.2199	872.83
36.2344	875.93
36.2488	885.39
36.2633	891.17
36.2777	910.84
36.2921	917.34
36.3066	948.55
36.3210	979.92
36.3355	940.89
36.3499	955.32
36.3643	918.28
36.3788	854.46
36.3932	847.45
36.4077	834.89
36.4221	836.84
36.4365	807.45
36.4510	782.83
36.4654	749.06
36.4799	705.09
36.4943	701.70
36.5087	638.06
36.5232	602.02
36.5376	618.78
36.5521	618.41
36.5665	600.72
36.5809	555.12
36.5954	550.84
36.6098	584.26
36.6243	549.38
36.6387	531.31
36.6531	530.52
36.6676	507.77
36.6820	528.73
36.6965	528.02
36.7109	552.02
36.7253	511.36
36.7398	533.79
36.7542	566.90
36.7687	532.83
36.7831	546.97
36.7975	567.84
36.8120	554.68
36.8264	509.36
36.8409	558.84
36.8553	583.83
36.8697	585.41
36.8842	603.64
36.8986	555.64
36.9131	530.59
36.9275	579.90
36.9419	573.85
36.9564	574.94
36.9708	571.91
36.9853	576.04
36.9997	545.44
37.0141	555.68
37.0286	553.59
37.0430	579.48
37.0575	538.00
37.0719	586.45
37.0863	542.28
37.1008	533.95
37.1152	518.49
37.1297	513.95
37.1441	510.04
37.1585	528.35
37.1730	534.92
37.1874	494.91
37.2019	498.46
37.2163	498.01
37.2307	512.60
37.2452	525.27
37.2596	515.51
37.2741	523.00
37.2885	534.32
37.3029	510.92
37.3174	468.35
37.3318	529.53
37.3463	521.91
37.3607	495.84
37.3751	515.58
37.3896	474.54
37.4040	502.39
37.4185	531.01
37.4329	542.83
37.4473	483.52
37.4618	507.87
37.4762	533.05
37.4907	505.77
37.5051	485.14
37.5195	508.28
37.5340	497.95
37.5484	485.47
37.5629	505.61
37.5773	503.95
37.5917	519.23
37.6062	503.09
37.6206	461.65
37.6351	487.54
37.6495	479.41
37.6639	478.43
37.6784	483.04
37.6928	470.10
37.7073	484.25
37.7217	499.14
37.7361	493.72
37.7506	507.79
37.7650	497.14
37.7795	519.05
37.7939	465.28
37.8083	503.63
37.8228	553.70
37.8372	539.81
37.8517	500.68
37.8661	526.87
37.8805	492.84
37.8950	505.93
37.9094	499.62
37.9239	537.83
37.9383	522.28
37.9528	491.41
37.9672	477.09
37.9816	504.56
37.9961	482.78
38.0105	506.02
38.0250	511.91
38.0394	497.54
38.0538	485.50
38.0683	526.95
38.0827	513.28
38.0972	483.64
38.1116	500.92
38.1260	519.78
38.1405	503.76
38.1549	504.34
38.1694	517.88
38.1838	502.59
38.1982	493.71
38.2127	515.42
38.2271	494.78
38.2416	517.17
38.2560	493.93
38.2704	484.82
38.2849	512.12
38.2993	511.63
38.3138	524.23
38.3282	534.31
38.3426	508.07
38.3571	505.75
38.3715	516.50
38.3860	489.04
38.4004	550.42
38.4148	535.71
38.4293	556.50
38.4437	594.32
38.4582	608.73
38.4726	628.38
38.4870	693.84
38.5015	733.82
38.5159	759.58
38.5304	779.12
38.5448	767.63
38.5592	818.50
38.5737	779.48
38.5881	774.49
38.6026	756.75
38.6170	758.25
38.6314	687.14
38.6459	659.95
38.6603	620.24
38.6748	617.03
38.6892	563.07
38.7036	555.63
38.7181	550.57
38.7325	540.62
38.7470	533.26
38.7614	544.84
38.7758	552.94
38.7903	528.70
38.8047	507.26
38.8192	537.51
38.8336	533.80
38.8480	508.27
38.8625	513.52
38.8769	518.94
38.8914	538.04
38.9058	553.45
38.9202	520.59
38.9347	516.88
38.9491	524.74
38.9636	498.14
38.9780	504.90
38.9924	495.90
39.0069	485.22
39.0213	492.47
39.0358	514.19
39.0502	517.71
39.0646	531.00
39.0791	516.97
39.0935	500.75
39.1080	536.64
39.1224	516.33
39.1368	494.45
39.1513	498.02
39.1657	500.59
39.1802	498.85
39.1946	495.56
39.2090	510.35
39.2235	503.48
39.2379	503.47
39.2524	504.75
39.2668	503.53
39.2812	548.08
39.2957	524.62
39.3101	505.32
39.3246	471.93
39.3390	487.79
39.3534	501.56
39.3679	501.22
39.3823	510.01
39.3968	498.21
39.4112	479.97
39.4256	504.52
39.4401	488.84
39.4545	476.61
39.4690	519.08
39.4834	512.52
39.4978	510.30
39.5123	534.51
39.5267	505.53
39.5412	480.13
39.5556	495.89
39.5700	491.03
39.5845	494.93
39.5989	486.71
39.6134	490.15
39.6278	479.52
39.6422	489.26
39.6567	509.32
39.6711	509.83
39.6856	517.61
39.7000	525.50
39.7144	517.93
39.7289	489.00
39.7433	497.41
39.7578	496.83
39.7722	505.57
39.7866	503.54
39.8011	513.77
39.8155	529.52
39.8300	522.52
39.8444	494.34
39.8588	508.62
39.8733	513.61
39.8877	487.28
39.9022	480.76
39.9166	492.04
39.9310	517.99
39.9455	533.92
39.9599	504.42
39.9744	487.19
39.9888	481.80
40.0032	472.18
40.0177	481.45
40.0321	498.09
40.0466	495.66
40.0610	509.32
40.0754	509.52
40.0899	491.42
40.1043	466.45
40.1188	509.50
40.1332	540.97
40.1476	497.29
40.1621	526.08
40.1765	506.76
40.1910	518.43
40.2054	460.74
40.2198	486.99
40.2343	518.68
40.2487	502.89
40.2632	466.93
40.2776	494.93
40.2920	481.26
40.3065	509.19
40.3209	505.07
40.3354	521.34
40.3498	500.40
40.3642	485.26
40.3787	471.48
40.3931	488.18
40.4076	495.43
40.4220	506.56
40.4364	472.54
40.4509	469.46
40.4653	493.63
40.4798	517.85
40.4942	461.63
40.5086	481.17
40.5231	473.31
40.5375	437.36
40.5520	469.85
40.5664	478.72
40.5808	454.98
40.5953	500.94
40.6097	529.56
40.6242	478.28
40.6386	496.69
40.6530	508.72
40.6675	459.88
40.6819	484.39
40.6964	514.89
40.7108	496.50
40.7252	489.22
40.7397	492.11
40.7541	529.80
40.7686	505.47
40.7830	498.56
40.7974	502.96
40.8119	494.53
40.8263	516.28
40.8408	513.61
40.8552	498.74
40.8696	487.49
40.8841	506.49
40.8985	514.18
40.9130	534.20
40.9274	514.41
40.9418	504.37
40.9563	444.51
40.9707	500.69
40.9852	497.37
40.9996	512.14
41.0140	489.62
41.0285	489.58
41.0429	494.16
41.0574	534.85
41.0718	543.66
41.0862	528.67
41.1007	531.48
41.1151	484.68
41.1296	491.84
41.1440	487.45
41.1584	474.08
41.1729	503.93
41.1873	504.84
41.2018	479.23
41.2162	476.85
41.2306	529.32
41.2451	528.93
41.2595	513.53
41.2740	496.95
41.2884	489.68
41.3028	480.42
41.3173	501.96
41.3317	529.57
41.3462	484.63
41.3606	505.73
41.3750	517.16
41.3895	477.87
41.4039	491.19
41.4184	508.25
41.4328	492.06
41.4472	486.27
41.4617	495.74
41.4761	487.85
41.4906	491.18
41.5050	476.92
41.5194	485.57
41.5339	522.19
41.5483	522.01
41.5628	492.57
41.5772	484.48
41.5916	475.30
41.6061	507.38
41.6205	509.29
41.6350	504.87
41.6494	479.34
41.6639	481.98
41.6783	479.58
41.6927	490.59
41.7072	521.72
41.7216	490.80
41.7361	515.59
41.7505	502.32
41.7649	491.13
41.7794	474.96
41.7938	489.90
41.8083	499.58
41.8227	518.06
41.8371	468.03
41.8516	513.37
41.8660	546.93
41.8805	513.29
41.8949	524.58
41.9093	541.37
41.9238	551.25
41.9382	584.85
41.9527	571.12
41.9671	553.51
41.9815	573.08
41.9960	593.34
42.0104	588.02
42.0249	538.44
42.0393	577.10
42.0537	574.47
42.0682	556.07
42.0826	579.79
42.0971	619.73
42.1115	596.66
42.1259	587.74
42.1404	603.60
42.1548	625.06
42.1693	634.54
42.1837	701.51
42.1981	729.67
42.2126	835.48
42.2270	959.09
42.2415	1068.38
42.2559	1211.10
42.2703	1385.70
42.2848	1521.18
42.2992	1641.24
42.3137	1686.20
42.3281	1616.04
42.3425	1559.51
42.3570	1525.72
42.3714	1406.22
42.3859	1371.78
42.4003	1353.99
42.4147	1363.66
42.4292	1286.06
42.4436	1129.20
42.4581	1009.75
42.4725	907.47
42.4869	840.29
42.5014	777.11
42.5158	679.85
42.5303	675.16
42.5447	669.96
42.5591	615.59
42.5736	593.80
42.5880	601.78
42.6025	611.84
42.6169	578.48
42.6313	551.81
42.6458	552.15
42.6602	544.58
42.6747	515.15
42.6891	528.52
42.7035	548.20
42.7180	551.35
42.7324	524.73
42.7469	536.05
42.7613	538.94
42.7757	552.84
42.7902	550.42
42.8046	504.72
42.8191	503.17
42.8335	496.95
42.8479	496.90
42.8624	493.82
42.8768	504.38
42.8913	500.49
42.9057	523.45
42.9201	490.08
42.9346	487.00
42.9490	496.53
42.9635	490.64
42.9779	505.14
42.9923	511.30
43.0068	480.21
43.0212	498.68
43.0357	504.76
43.0501	492.60
43.0645	510.47
43.0790	551.89
43.0934	527.79
43.1079	510.04
43.1223	502.54
43.1367	531.34
43.1512	511.88
43.1656	519.30
43.1801	525.10
43.1945	496.82
43.2089	493.41
43.2234	510.23
43.2378	507.16
43.2523	536.34
43.2667	502.27
43.2811	533.68
43.2956	504.62
43.3100	526.17
43.3245	529.38
43.3389	519.50
43.3533	509.77
43.3678	519.99
43.3822	497.95
43.3967	499.99
43.4111	506.81
43.4255	545.83
43.4400	522.99
43.4544	510.66
43.4689	521.78
43.4833	515.26
43.4977	507.94
43.5122	497.47
43.5266	515.48
43.5411	534.55
43.5555	526.40
43.5699	484.86
43.5844	541.99
43.5988	555.15
43.6133	517.16
43.6277	493.94
43.6421	514.22
43.6566	544.35
43.6710	515.30
43.6855	500.19
43.6999	495.82
43.7143	529.29
43.7288	524.12
43.7432	541.76
43.7577	506.47
43.7721	524.58
43.7865	546.90
43.8010	554.97
43.8154	533.20
43.8299	547.56
43.8443	540.77
43.8587	539.04
43.8732	528.37
43.8876	546.70
43.9021	524.14
43.9165	528.59
43.9309	532.42
43.9454	537.10
43.9598	550.97
43.9743	498.40
43.9887	547.93
44.0031	557.91
44.0176	577.20
44.0320	563.20
44.0465	560.51
44.0609	563.46
44.0753	596.50
44.0898	610.16
44.1042	587.82
44.1187	617.81
44.1331	618.28
44.1475	611.83
44.1620	621.99
44.1764	619.01
44.1909	605.30
44.2053	582.98
44.2197	582.06
44.2342	559.63
44.2486	579.32
44.2631	549.99
44.2775	550.45
44.2919	540.59
44.3064	569.41
44.3208	556.08
44.3353	563.38
44.3497	526.34
44.3641	587.78
44.3786	563.54
44.3930	548.27
44.4075	585.64
44.4219	617.05
44.4363	579.28
44.4508	598.25
44.4652	595.45
44.4797	584.89
44.4941	586.08
44.5085	601.80
44.5230	605.60
44.5374	604.53
44.5519	563.60
44.5663	556.23
44.5807	574.83
44.5952	594.63
44.6096	560.78
44.6241	566.38
44.6385	600.37
44.6529	582.03
44.6674	590.66
44.6818	617.67
44.6963	635.63
44.7107	684.95
44.7251	688.29
44.7396	716.52
44.7540	829.82
44.7685	829.72
44.7829	880.17
44.7973	890.37
44.8118	860.64
44.8262	809.26
44.8407	791.79
44.8551	791.42
44.8695	752.89
44.8840	731.22
44.8984	731.72
44.9129	757.63
44.9273	701.68
44.9417	632.15
44.9562	618.63
44.9706	557.10
44.9851	583.25
44.9995	554.64
45.0139	530.50
45.0284	550.64
45.0428	534.21
45.0573	536.56
45.0717	496.70
45.0861	545.89
45.1006	502.27
45.1150	514.50
45.1295	555.96
45.1439	508.64
45.1583	495.73
45.1728	524.40
45.1872	484.88
45.2017	521.24
45.2161	516.14
45.2305	536.67
45.2450	534.04
45.2594	507.06
45.2739	505.27
45.2883	488.06
45.3028	479.08
45.3172	512.91
45.3316	525.93
45.3461	518.83
45.3605	482.80
45.3750	494.25
45.3894	507.92
45.4038	496.42
45.4183	500.69
45.4327	506.98
45.4472	482.95
45.4616	476.71
45.4760	497.24
45.4905	489.60
45.5049	487.97
45.5194	486.99
45.5338	513.44
45.5482	506.36
45.5627	519.04
45.5771	480.19
45.5916	505.37
45.6060	505.81
45.6204	504.74
45.6349	513.17
45.6493	512.19
45.6638	504.95
45.6782	497.73
45.6926	504.69
45.7071	538.72
45.7215	503.72
45.7360	487.65
45.7504	546.15
45.7648	504.68
45.7793	502.06
45.7937	502.96
45.8082	488.08
45.8226	513.47
45.8370	519.59
45.8515	489.64
45.8659	481.24
45.8804	501.90
45.8948	476.84
45.9092	458.69
45.9237	487.89
45.9381	464.21
45.9526	470.19
45.9670	523.89
45.9814	500.86
45.9959	502.72
46.0103	490.38
46.0248	521.38
46.0392	502.55
46.0536	487.83
46.0681	496.51
46.0825	519.69
46.0970	512.75
46.1114	503.28
46.1258	514.64
46.1403	483.80
46.1547	471.54
46.1692	504.81
46.1836	561.16
46.1980	506.99
46.2125	500.03
46.2269	482.57
46.2414	503.70
46.2558	494.12
46.2702	505.33
46.2847	517.36
46.2991	519.39
46.3136	496.09
46.3280	528.69
46.3424	550.44
46.3569	547.94
46.3713	483.03
46.3858	474.91
46.4002	517.33
46.4146	522.93
46.4291	528.13
46.4435	493.87
46.4580	518.67
46.4724	500.69
46.4868	489.97
46.5013	515.79
46.5157	502.68
46.5302	521.38
46.5446	529.70
46.5590	497.40
46.5735	503.77
46.5879	489.70
46.6024	482.59
46.6168	494.17
46.6312	478.51
46.6457	472.38
46.6601	470.47
46.6746	491.15
46.6890	489.53
46.7034	485.97
46.7179	502.43
46.7323	517.02
46.7468	504.99
46.7612	484.51
46.7756	501.60
46.7901	506.23
46.8045	509.37
46.8190	498.30
46.8334	495.40
46.8478	519.43
46.8623	536.80
46.8767	529.38
46.8912	532.78
46.9056	552.02
46.9200	510.92
46.9345	512.83
46.9489	514.69
46.9634	493.13
46.9778	518.08
46.9922	551.21
47.0067	515.95
47.0211	531.65
47.0356	550.76
47.0500	516.64
47.0644	518.92
47.0789	507.30
47.0933	513.80
47.1078	538.56
47.1222	539.09
47.1366	524.48
47.1511	506.84
47.1655	530.84
47.1800	544.77
47.1944	484.62
47.2088	487.18
47.2233	529.44
47.2377	502.20
47.2522	508.02
47.2666	505.84
47.2810	492.14
47.2955	496.35
47.3099	495.32
47.3244	539.91
47.3388	536.73
47.3532	526.86
47.3677	511.29
47.3821	518.62
47.3966	525.51
47.4110	498.08
47.4254	527.01
47.4399	513.81
47.4543	507.48
47.4688	502.80
47.4832	534.41
47.4976	530.68
47.5121	474.47
47.5265	504.13
47.5410	488.26
47.5554	527.81
47.5698	522.59
47.5843	490.72
47.5987	497.69
47.6132	500.14
47.6276	500.24
47.6420	513.61
47.6565	518.12
47.6709	499.89
47.6854	488.55
47.6998	490.73
47.7142	517.15
47.7287	488.84
47.7431	457.95
47.7576	482.11
47.7720	526.03
47.7864	531.65
47.8009	510.69
47.8153	513.94
47.8298	502.84
47.8442	504.55
47.8586	504.60
47.8731	477.44
47.8875	475.52
47.9020	481.65
47.9164	533.31
47.9308	534.15
47.9453	564.31
47.9597	488.18
47.9742	504.25
47.9886	483.59
48.0030	480.69
48.0175	461.91
48.0319	521.86
48.0464	530.38
48.0608	521.07
48.0752	509.48
48.0897	515.97
48.1041	505.91
48.1186	501.54
48.1330	518.59
48.1474	522.32
48.1619	514.18
48.1763	485.28
48.1908	506.49
48.2052	498.96
48.2196	517.34
48.2341	522.33
48.2485	475.72
48.2630	483.00
48.2774	525.95
48.2918	502.26
48.3063	521.70
48.3207	531.44
48.3352	500.16
48.3496	522.93
48.3640	514.53
48.3785	554.03
48.3929	503.77
48.4074	479.23
48.4218	514.87
48.4362	520.83
48.4507	527.81
48.4651	517.80
48.4796	497.24
48.4940	518.75
48.5084	509.76
48.5229	543.82
48.5373	539.42
48.5518	500.24
48.5662	494.64
48.5806	510.87
48.5951	532.77
48.6095	509.77
48.6240	523.45
48.6384	547.70
48.6528	531.81
48.6673	506.97
48.6817	537.56
48.6962	519.16
48.7106	539.29
48.7250	503.90
48.7395	522.47
48.7539	545.69
48.7684	541.51
48.7828	517.70
48.7972	511.45
48.8117	540.05
48.8261	553.19
48.8406	558.30
48.8550	559.29
48.8694	574.02
48.8839	561.59
48.8983	531.86
48.9128	534.40
48.9272	536.85
48.9416	556.88
48.9561	567.28
48.9705	592.74
48.9850	572.13
48.9994	601.29
49.0139	560.17
49.0283	623.52
49.0427	597.18
49.0572	609.43
49.0716	640.97
49.0861	721.19
49.1005	693.30
49.1149	695.42
49.1294	745.48
49.1438	770.03
49.1583	860.36
49.1727	842.14
49.1871	905.21
49.2016	959.19
49.2160	1041.89
49.2305	1096.02
49.2449	1268.71
49.2593	1285.91
49.2738	1336.19
49.2882	1474.52
49.3027	1568.99
49.3171	1683.95
49.3315	1764.77
49.3460	1816.02
49.3604	1875.35
49.3749	1846.25
49.3893	1819.97
49.4037	1714.93
49.4182	1787.58
49.4326	1825.39
49.4471	1749.31
49.4615	1693.79
49.4759	1618.27
49.4904	1531.11
49.5048	1444.22
49.5193	1355.81
49.5337	1261.74
49.5481	1210.56
49.5626	1138.66
49.5770	1043.63
49.5915	954.09
49.6059	971.97
49.6203	860.94
49.6348	799.95
49.6492	791.29
49.6637	739.36
49.6781	718.36
49.6925	677.09
49.7070	673.79
49.7214	630.39
49.7359	622.49
49.7503	617.58
49.7647	584.81
49.7792	622.82
49.7936	610.20
49.8081	565.41
49.8225	504.47
49.8369	538.21
49.8514	570.86
49.8658	597.55
49.8803	553.31
49.8947	571.43
49.9091	569.96
49.9236	537.10
49.9380	530.99
49.9525	541.98
49.9669	504.12
49.9813	518.41
49.9958	530.62
50.0102	515.23
50.0247	480.70
50.0391	490.42
50.0535	511.33
50.0680	541.39
50.0824	549.26
50.0969	515.46
50.1113	504.41
50.1257	528.68
50.1402	489.04
50.1546	493.63
50.1691	515.76
50.1835	531.05
50.1979	509.80
50.2124	535.02
50.2268	530.27
50.2413	538.00
50.2557	497.82
50.2701	510.18
50.2846	495.82
50.2990	498.09
50.3135	515.59
50.3279	537.19
50.3423	507.20
50.3568	528.35
50.3712	501.15
50.3857	521.53
50.4001	501.78
50.4145	519.93
50.4290	548.69
50.4434	528.72
50.4579	549.59
50.4723	513.65
50.4867	494.64
50.5012	509.00
50.5156	502.19
50.5301	514.89
50.5445	523.95
50.5589	497.89
50.5734	498.94
50.5878	491.54
50.6023	522.61
50.6167	522.56
50.6311	516.04
50.6456	494.71
50.6600	472.45
50.6745	508.03
50.6889	509.67
50.7033	514.96
50.7178	480.09
50.7322	461.60
50.7467	517.10
50.7611	523.72
50.7755	529.93
50.7900	547.44
50.8044	508.44
50.8189	514.57
50.8333	523.16
50.8477	500.37
50.8622	529.73
50.8766	512.27
50.8911	495.99
50.9055	514.05
50.9199	512.76
50.9344	495.36
50.9488	498.82
50.9633	513.97
50.9777	507.95
50.9921	511.49
51.0066	496.66
51.0210	477.13
51.0355	491.12
51.0499	506.56
51.0643	487.35
51.0788	456.55
51.0932	502.20
51.1077	508.05
51.1221	501.34
51.1365	512.66
51.1510	494.14
51.1654	509.88
51.1799	512.10
51.1943	504.43
51.2087	503.16
51.2232	508.22
51.2376	526.52
51.2521	512.65
51.2665	520.74
51.2809	527.64
51.2954	522.02
51.3098	530.10
51.3243	511.40
51.3387	507.24
51.3531	466.95
51.3676	466.02
51.3820	493.56
51.3965	498.25
51.4109	516.98
51.4253	518.27
51.4398	491.60
51.4542	507.24
51.4687	518.82
51.4831	492.59
51.4975	498.83
51.5120	505.15
51.5264	513.24
51.5409	472.25
51.5553	479.79
51.5697	511.82
51.5842	515.96
51.5986	512.94
51.6131	503.58
51.6275	505.61
51.6419	511.49
51.6564	509.87
51.6708	483.20
51.6853	509.42
51.6997	505.55
51.7141	531.94
51.7286	469.67
51.7430	510.83
51.7575	509.58
51.7719	517.15
51.7863	492.43
51.8008	500.16
51.8152	504.75
51.8297	513.17
51.8441	480.26
51.8585	513.59
51.8730	539.04
51.8874	493.90
51.9019	518.74
51.9163	478.72
51.9307	496.31
51.9452	531.89
51.9596	542.06
51.9741	493.47
51.9885	524.16
52.0029	519.35
52.0174	522.49
52.0318	547.76
52.0463	548.49
52.0607	531.74
52.0751	546.56
52.0896	548.58
52.1040	538.03
52.1185	559.23
52.1329	550.85
52.1473	503.49
52.1618	492.09
52.1762	503.18
52.1907	474.83
52.2051	524.19
52.2195	536.38
52.2340	513.29
52.2484	528.51
52.2629	518.37
52.2773	502.15
52.2917	491.12
52.3062	494.84
52.3206	529.84
52.3351	503.10
52.3495	477.58
52.3639	516.78
52.3784	488.21
52.3928	484.32
52.4073	476.30
52.4217	516.80
52.4361	504.19
52.4506	484.07
52.4650	511.70
52.4795	500.62
52.4939	508.00
52.5083	509.42
52.5228	516.96
52.5372	529.17
52.5517	544.85
52.5661	525.03
52.5805	512.92
52.5950	511.26
52.6094	520.26
52.6239	498.75
52.6383	492.97
52.6527	498.00
52.6672	489.73
52.6816	529.34
52.6961	500.67
52.7105	507.78
52.7250	498.26
52.7394	506.72
52.7538	502.11
52.7683	531.40
52.7827	511.88
52.7972	498.93
52.8116	507.28
52.8260	516.29
52.8405	486.66
52.8549	498.55
52.8694	494.22
52.8838	476.50
52.8982	454.72
52.9127	483.90
52.9271	512.01
52.9416	487.73
52.9560	509.76
52.9704	481.40
52.9849	505.43
52.9993	481.06
53.0138	533.79
53.0282	496.59
53.0426	540.67
53.0571	482.92
53.0715	504.27
53.0860	534.96
53.1004	531.12
53.1148	526.63
53.1293	543.52
53.1437	499.80
53.1582	503.00
53.1726	492.72
53.1870	522.46
53.2015	502.48
53.2159	475.93
53.2304	495.78
53.2448	525.55
53.2592	496.11
53.2737	503.54
53.2881	540.00
53.3026	477.37
53.3170	482.08
53.3314	499.43
53.3459	534.62
53.3603	569.40
53.3748	522.55
53.3892	508.64
53.4036	455.01
53.4181	474.55
53.4325	533.74
53.4470	539.64
53.4614	580.81
53.4758	534.73
53.4903	509.30
53.5047	512.15
53.5192	506.68
53.5336	507.83
53.5480	499.11
53.5625	506.15
53.5769	504.99
53.5914	496.24
53.6058	509.96
53.6202	499.89
53.6347	529.70
53.6491	509.92
53.6636	511.40
53.6780	498.18
53.6924	525.54
53.7069	538.72
53.7213	524.65
53.7358	494.96
53.7502	502.15
53.7646	504.67
53.7791	539.61
53.7935	533.24
53.8080	531.59
53.8224	531.93
53.8368	504.78
53.8513	466.67
53.8657	492.25
53.8802	490.55
53.8946	496.21
53.9090	514.74
53.9235	486.26
53.9379	520.43
53.9524	536.40
53.9668	521.08
53.9812	517.19
53.9957	526.31
54.0101	501.04
54.0246	499.72
54.0390	505.17
54.0534	496.95
54.0679	525.70
54.0823	475.67
54.0968	491.27
54.1112	496.59
54.1256	528.31
54.1401	543.91
54.1545	527.73
54.1690	502.01
54.1834	529.97
54.1978	476.72
54.2123	495.91
54.2267	522.33
54.2412	527.79
54.2556	490.04
54.2700	493.23
54.2845	519.11
54.2989	532.86
54.3134	515.15
54.3278	511.25
54.3422	562.69
54.3567	536.62
54.3711	470.98
54.3856	481.17
54.4000	508.92
54.4144	527.65
54.4289	545.71
54.4433	536.90
54.4578	511.00
54.4722	516.54
54.4866	514.11
54.5011	524.26
54.5155	515.29
54.5300	560.68
54.5444	553.18
54.5588	539.07
54.5733	555.81
54.5877	539.65
54.6022	529.74
54.6166	562.25
54.6310	573.34
54.6455	592.06
54.6599	581.88
54.6744	550.03
54.6888	551.03
54.7032	590.73
54.7177	587.03
54.7321	551.38
54.7466	595.47
54.7610	547.90
54.7754	569.80
54.7899	544.16
54.8043	584.11
54.8188	602.32
54.8332	587.34
54.8476	554.84
54.8621	573.30
54.8765	564.78
54.8910	572.17
54.9054	589.94
54.9198	551.29
54.9343	550.99
54.9487	562.53
54.9632	548.30
54.9776	539.84
54.9920	525.31
55.0065	517.47
55.0209	531.17
55.0354	504.95
55.0498	487.41
55.0642	523.15
55.0787	524.00
55.0931	572.10
55.1076	526.57
55.1220	545.44
55.1364	555.42
55.1509	517.68
55.1653	500.41
55.1798	521.21
55.1942	523.87
55.2086	515.22
55.2231	564.09
55.2375	524.40
55.2520	510.62
55.2664	507.83
55.2808	504.12
55.2953	543.08
55.3097	519.58
55.3242	469.00
55.3386	511.40
55.3530	543.06
55.3675	529.81
55.3819	499.69
55.3964	506.19
55.4108	501.65
55.4252	496.05
55.4397	526.04
55.4541	515.51
55.4686	554.48
55.4830	557.77
55.4974	530.86
55.5119	520.82
55.5263	522.10
55.5408	515.90
55.5552	507.27
55.5696	520.49
55.5841	525.23
55.5985	526.58
55.6130	495.20
55.6274	523.86
55.6418	531.36
55.6563	498.65
55.6707	515.57
55.6852	525.68
55.6996	534.63
55.7140	546.75
55.7285	534.41
55.7429	533.33
55.7574	529.89
55.7718	553.08
55.7862	535.98
55.8007	533.07
55.8151	533.11
55.8296	528.45
55.8440	527.73
55.8584	521.66
55.8729	538.80
55.8873	530.18
55.9018	549.77
55.9162	541.47
55.9306	516.81
55.9451	521.27
55.9595	524.40
55.9740	525.36
55.9884	531.09
56.0028	511.49
56.0173	471.73
56.0317	512.17
56.0462	516.17
56.0606	532.51
56.0750	492.85
56.0895	517.00
56.1039	520.28
56.1184	485.96
56.1328	514.91
56.1472	493.97
56.1617	513.45
56.1761	535.10
56.1906	516.59
56.2050	519.15
56.2194	534.90
56.2339	505.47
56.2483	529.52
56.2628	489.30
56.2772	510.76
56.2916	501.78
56.3061	505.76
56.3205	503.96
56.3350	509.98
56.3494	518.61
56.3639	523.98
56.3783	548.28
56.3927	495.05
56.4072	499.30
56.4216	483.62
56.4361	516.54
56.4505	521.03
56.4649	533.77
56.4794	525.33
56.4938	542.16
56.5083	527.76
56.5227	532.54
56.5371	554.17
56.5516	514.75
56.5660	501.92
56.5805	528.44
56.5949	512.64
56.6093	511.08
56.6238	510.60
56.6382	576.17
56.6527	526.06
56.6671	530.11
56.6815	501.34
56.6960	512.01
56.7104	559.30
56.7249	526.99
56.7393	497.30
56.7537	510.61
56.7682	503.79
56.7826	503.41
56.7971	495.72
56.8115	516.92
56.8259	528.83
56.8404	514.70
56.8548	535.42
56.8693	547.29
56.8837	541.65
56.8981	499.80
56.9126	515.80
56.9270	508.13
56.9415	526.90
56.9559	494.42
56.9703	536.54
56.9848	517.30
56.9992	513.26
57.0137	531.49
57.0281	504.83
57.0425	493.60
57.0570	474.36
57.0714	512.04
57.0859	531.26
57.1003	517.92
57.1147	525.00
57.1292	540.79
57.1436	511.38
57.1581	510.44
57.1725	512.97
57.1869	527.55
57.2014	497.43
57.2158	505.13
57.2303	456.86
57.2447	527.24
57.2591	526.91
57.2736	541.41
57.2880	551.18
57.3025	530.96
57.3169	514.10
57.3313	541.54
57.3458	562.38
57.3602	490.38
57.3747	530.26
57.3891	527.73
57.4035	511.91
57.4180	546.90
57.4324	548.55
57.4469	511.50
57.4613	534.90
57.4757	508.13
57.4902	542.09
57.5046	549.18
57.5191	539.35
57.5335	516.80
57.5479	523.78
57.5624	535.59
57.5768	502.41
57.5913	540.50
57.6057	538.77
57.6201	574.59
57.6346	543.69
57.6490	563.20
57.6635	531.00
57.6779	503.76
57.6923	524.25
57.7068	495.05
57.7212	534.24
57.7357	513.05
57.7501	513.76
57.7645	537.25
57.7790	521.50
57.7934	514.54
57.8079	536.50
57.8223	539.58
57.8367	526.18
57.8512	530.00
57.8656	530.20
57.8801	536.98
57.8945	565.49
57.9089	547.12
57.9234	540.29
57.9378	532.01
57.9523	523.59
57.9667	523.36
57.9811	566.96
57.9956	566.54
58.0100	563.98
58.0245	572.82
58.0389	537.09
58.0533	531.49
58.0678	534.36
58.0822	550.88
58.0967	541.40
58.1111	545.19
58.1255	564.11
58.1400	556.73
58.1544	555.38
58.1689	548.36
58.1833	565.08
58.1977	560.12
58.2122	561.75
58.2266	580.19
58.2411	588.14
58.2555	606.79
58.2699	578.67
58.2844	611.08
58.2988	632.35
58.3133	644.64
58.3277	624.52
58.3421	660.33
58.3566	633.11
58.3710	589.39
58.3855	611.25
58.3999	640.66
58.4143	675.42
58.4288	678.56
58.4432	614.85
58.4577	613.39
58.4721	641.20
58.4865	623.86
58.5010	646.79
58.5154	624.26
58.5299	610.65
58.5443	644.76
58.5587	629.82
58.5732	562.76
58.5876	593.03
58.6021	565.54
58.6165	591.11
58.6309	594.00
58.6454	601.80
58.6598	587.26
58.6743	576.77
58.6887	545.81
58.7031	575.72
58.7176	582.78
58.7320	594.30
58.7465	601.58
58.7609	530.78
58.7753	556.17
58.7898	562.12
58.8042	535.88
58.8187	558.03
58.8331	539.21
58.8475	498.61
58.8620	556.72
58.8764	554.69
58.8909	527.70
58.9053	545.84
58.9197	552.60
58.9342	531.50
58.9486	537.85
58.9631	547.40
58.9775	539.83
58.9919	539.47
59.0064	585.85
59.0208	548.91
59.0353	527.31
59.0497	522.30
59.0641	526.23
59.0786	531.83
59.0930	551.16
59.1075	488.69
59.1219	511.18
59.1363	520.80
59.1508	548.67
59.1652	538.45
59.1797	564.40
59.1941	541.58
59.2085	531.73
59.2230	517.16
59.2374	528.45
59.2519	532.56
59.2663	548.05
59.2807	575.24
59.2952	535.46
59.3096	567.57
59.3241	552.41
59.3385	591.17
59.3529	571.19
59.3674	551.89
59.3818	547.98
59.3963	551.84
59.4107	559.47
59.4251	568.05
59.4396	550.25
59.4540	540.39
59.4685	568.48
59.4829	550.00
59.4973	549.63
59.5118	557.35
59.5262	577.70
59.5407	557.48
59.5551	566.59
59.5695	516.15
59.5840	546.75
59.5984	576.62
59.6129	577.50
59.6273	552.57
59.6417	550.26
59.6562	519.69
59.6706	525.02
59.6851	534.57
59.6995	545.24
59.7139	566.26
59.7284	516.25
59.7428	569.13
59.7573	514.28
59.7717	482.95
59.7861	535.24
59.8006	528.16
59.8150	551.44
59.8295	543.62
59.8439	543.57
59.8583	544.11
59.8728	569.49
59.8872	554.05
59.9017	547.08
59.9161	547.79
59.9305	521.02
59.9450	530.57
59.9594	493.78
59.9739	531.24
59.9883	542.04
60.0027	502.02
60.0172	538.16
60.0316	587.56
60.0461	527.57
60.0605	543.88
60.0750	549.50
60.0894	592.37
60.1038	527.63
60.1183	552.49
60.1327	547.31
60.1472	518.00
60.1616	502.23
60.1760	536.56
60.1905	572.09
60.2049	556.78
60.2194	562.97
60.2338	536.72
60.2482	550.15
60.2627	540.82
60.2771	531.82
60.2916	541.39
60.3060	538.14
60.3204	578.01
60.3349	517.89
60.3493	507.48
60.3638	508.50
60.3782	527.43
60.3926	531.87
60.4071	556.09
60.4215	585.29
60.4360	547.89
60.4504	506.72
60.4648	573.52
60.4793	557.28
60.4937	543.91
60.5082	549.32
60.5226	533.39
60.5370	520.69
60.5515	544.16
60.5659	561.58
60.5804	524.48
60.5948	523.97
60.6092	553.09
60.6237	517.17
60.6381	555.80
60.6526	541.99
60.6670	523.13
60.6814	556.05
60.6959	566.55
60.7103	579.22
60.7248	543.60
60.7392	477.56
60.7536	541.36
60.7681	535.90
60.7825	535.54
60.7970	554.86
60.8114	536.58
60.8258	537.82
60.8403	564.62
60.8547	566.25
60.8692	557.62
60.8836	519.53
60.8980	524.59
60.9125	525.35
60.9269	508.17
60.9414	543.06
60.9558	558.92
60.9702	549.08
60.9847	537.36
60.9991	526.48
61.0136	543.96
61.0280	541.19
61.0424	546.20
61.0569	574.00
61.0713	559.79
61.0858	508.33
61.1002	569.05
61.1146	515.33
61.1291	559.28
61.1435	499.36
61.1580	524.05
61.1724	583.52
61.1868	544.39
61.2013	498.79
61.2157	562.82
61.2302	528.80
61.2446	525.41
61.2590	523.76
61.2735	557.11
61.2879	557.21
61.3024	547.12
61.3168	538.14
61.3312	569.83
61.3457	561.29
61.3601	564.06
61.3746	545.49
61.3890	552.93
61.4034	518.20
61.4179	528.05
61.4323	559.06
61.4468	519.36
61.4612	581.48
61.4756	593.94
61.4901	566.98
61.5045	527.54
61.5190	489.58
61.5334	541.70
61.5478	550.12
61.5623	569.31
61.5767	542.25
61.5912	559.01
61.6056	552.02
61.6200	552.79
61.6345	541.24
61.6489	555.24
61.6634	556.33
61.6778	540.40
61.6922	522.37
61.7067	568.17
61.7211	558.44
61.7356	530.88
61.7500	520.36
61.7644	525.10
61.7789	555.92
61.7933	586.01
61.8078	547.29
61.8222	566.88
61.8366	575.68
61.8511	565.19
61.8655	553.98
61.8800	532.30
61.8944	549.59
61.9088	557.42
61.9233	546.38
61.9377	542.04
61.9522	564.39
61.9666	557.19
61.9810	547.94
61.9955	542.80
62.0099	575.80
62.0244	561.00
62.0388	543.29
62.0532	542.64
62.0677	558.27
62.0821	546.20
62.0966	523.95
62.1110	556.61
62.1254	557.41
62.1399	555.37
62.1543	545.60
62.1688	565.24
62.1832	521.66
62.1976	493.19
62.2121	562.96
62.2265	549.26
62.2410	565.72
62.2554	528.03
62.2698	534.70
62.2843	533.14
62.2987	542.39
62.3132	545.28
62.3276	544.47
62.3420	552.60
62.3565	510.16
62.3709	538.69
62.3854	532.98
62.3998	515.54
62.4142	537.79
62.4287	573.85
62.4431	563.72
62.4576	546.47
62.4720	544.94
62.4864	569.63
62.5009	558.12
62.5153	545.06
62.5298	554.32
62.5442	574.76
62.5586	584.80
62.5731	544.98
62.5875	555.68
62.6020	557.45
62.6164	540.09
62.6308	552.17
62.6453	549.69
62.6597	543.95
62.6742	492.37
62.6886	535.86
62.7030	552.49
62.7175	538.47
62.7319	524.39
62.7464	537.81
62.7608	525.38
62.7752	551.18
62.7897	563.40
62.8041	560.62
62.8186	574.19
62.8330	596.02
62.8474	558.31
62.8619	561.76
62.8763	564.84
62.8908	523.09
62.9052	549.84
62.9196	554.67
62.9341	550.15
62.9485	534.88
62.9630	537.80
62.9774	536.31
62.9918	564.66
63.0063	547.65
63.0207	546.34
63.0352	572.31
63.0496	585.83
63.0640	560.34
63.0785	553.56
63.0929	587.74
63.1074	592.12
63.1218	587.78
63.1362	562.10
63.1507	543.37
63.1651	542.92
63.1796	553.97
63.1940	548.31
63.2084	565.72
63.2229	591.77
63.2373	580.16
63.2518	543.75
63.2662	561.87
63.2806	602.71
63.2951	564.81
63.3095	587.14
63.3240	560.24
63.3384	602.12
63.3528	587.24
63.3673	580.35
63.3817	547.57
63.3962	563.18
63.4106	551.79
63.4250	570.89
63.4395	577.26
63.4539	542.17
63.4684	580.59
63.4828	577.65
63.4972	571.25
63.5117	597.13
63.5261	574.20
63.5406	573.35
63.5550	594.95
63.5694	602.55
63.5839	585.21
63.5983	569.86
63.6128	579.55
63.6272	569.25
63.6416	605.34
63.6561	597.46
63.6705	578.02
63.6850	606.38
63.6994	572.31
63.7138	596.31
63.7283	562.16
63.7427	560.75
63.7572	588.37
63.7716	596.90
63.7861	583.40
63.8005	580.22
63.8149	588.85
63.8294	593.25
63.8438	601.91
63.8583	633.20
63.8727	628.89
63.8871	608.58
63.9016	663.24
63.9160	657.42
63.9305	625.66
63.9449	702.75
63.9593	675.38
63.9738	669.00
63.9882	670.08
64.0027	678.75
64.0171	682.28
64.0315	724.87
64.0460	678.04
64.0604	678.69
64.0749	665.82
64.0893	701.85
64.1037	722.31
64.1182	750.53
64.1326	768.80
64.1471	769.92
64.1615	789.53
64.1759	778.41
64.1904	735.36
64.2048	750.64
64.2193	818.05
64.2337	782.40
64.2481	779.20
64.2626	768.97
64.2770	791.79
64.2915	769.91
64.3059	767.09
64.3203	762.86
64.3348	781.34
64.3492	780.57
64.3637	748.49
64.3781	727.54
64.3925	703.47
64.4070	698.76
64.4214	692.63
64.4359	708.95
64.4503	671.98
64.4647	689.30
64.4792	666.80
64.4936	678.73
64.5081	675.44
64.5225	661.05
64.5369	669.43
64.5514	676.94
64.5658	671.08
64.5803	666.91
64.5947	658.73
64.6091	652.89
64.6236	624.85
64.6380	640.83
64.6525	683.97
64.6669	669.64
64.6813	643.96
64.6958	682.03
64.7102	696.79
64.7247	689.11
64.7391	737.51
64.7535	711.12
64.7680	702.07
64.7824	718.34
64.7969	765.83
64.8113	779.71
64.8257	778.84
64.8402	803.06
64.8546	851.24
64.8691	863.49
64.8835	816.93
64.8979	872.93
64.9124	882.03
64.9268	892.82
64.9413	876.74
64.9557	837.67
64.9701	978.91
64.9846	1087.81
64.9990	1197.60
65.0135	1177.21
65.0279	1491.10
65.0423	1667.46
65.0568	1999.78
65.0712	2641.71
65.0857	3373.29
65.1001	4467.86
65.1145	5967.75
65.1290	7862.45
65.1434	9358.05
65.1579	11049.40
65.1723	11818.05
65.1867	11332.07
65.2012	10092.74
65.2156	8477.27
65.2301	6739.88
65.2445	5340.34
65.2589	4537.62
65.2734	4230.04
65.2878	4443.01
65.3023	4876.13
65.3167	5673.81
65.3311	6485.54
65.3456	6991.61
65.3600	6891.96
65.3745	6408.92
65.3889	5449.28
65.4033	4420.72
65.4178	3550.70
65.4322	2809.01
65.4467	2118.11
65.4611	1755.61
65.4755	1496.79
65.4900	1315.33
65.5044	1150.94
65.5189	1110.79
65.5333	985.74
65.5477	960.01
65.5622	891.63
65.5766	893.54
65.5911	809.96
65.6055	816.29
65.6199	768.34
65.6344	747.17
65.6488	741.73
65.6633	724.39
65.6777	715.03
65.6921	682.69
65.7066	746.05
65.7210	731.65
65.7355	659.95
65.7499	655.51
65.7643	657.65
65.7788	687.97
65.7932	715.24
65.8077	663.89
65.8221	654.09
65.8365	626.87
65.8510	648.32
65.8654	670.86
65.8799	665.73
65.8943	675.98
65.9087	721.48
65.9232	656.28
65.9376	642.71
65.9521	634.80
65.9665	625.83
65.9809	619.92
65.9954	644.44
66.0098	667.34
66.0243	637.65
66.0387	638.87
66.0531	628.97
66.0676	640.64
66.0820	634.61
66.0965	655.74
66.1109	587.44
66.1253	602.28
66.1398	631.93
66.1542	608.25
66.1687	598.89
66.1831	632.99
66.1975	605.96
66.2120	601.66
66.2264	628.57
66.2409	638.67
66.2553	636.73
66.2697	615.05
66.2842	652.41
66.2986	620.80
66.3131	620.16
66.3275	607.02
66.3419	610.83
66.3564	645.40
66.3708	617.39
66.3853	591.91
66.3997	559.56
66.4141	584.12
66.4286	630.29
66.4430	619.33
66.4575	629.29
66.4719	609.75
66.4863	614.19
66.5008	600.70
66.5152	596.07
66.5297	636.22
66.5441	623.24
66.5585	583.54
66.5730	569.93
66.5874	593.86
66.6019	608.59
66.6163	599.43
66.6307	605.06
66.6452	615.20
66.6596	572.21
66.6741	573.91
66.6885	576.57
66.7029	624.50
66.7174	577.81
66.7318	549.69
66.7463	590.59
66.7607	566.82
66.7751	582.70
66.7896	598.59
66.8040	582.57
66.8185	597.20
66.8329	586.23
66.8473	572.45
66.8618	591.54
66.8762	608.44
66.8907	584.68
66.9051	601.18
66.9195	604.39
66.9340	596.53
66.9484	590.88
66.9629	569.82
66.9773	548.70
66.9917	564.06
67.0062	570.19
67.0206	606.09
67.0351	606.48
67.0495	574.28
67.0639	586.94
67.0784	562.25
67.0928	603.45
67.1073	567.48
67.1217	572.53
67.1361	579.68
67.1506	587.64
67.1650	586.63
67.1795	559.74
67.1939	561.14
67.2083	587.94
67.2228	593.57
67.2372	574.61
67.2517	541.86
67.2661	552.13
67.2805	563.82
67.2950	587.78
67.3094	596.43
67.3239	605.02
67.3383	597.74
67.3527	554.13
67.3672	588.75
67.3816	580.63
67.3961	552.47
67.4105	589.95
67.4250	599.60
67.4394	586.32
67.4538	571.92
67.4683	580.16
67.4827	605.04
67.4972	575.14
67.5116	554.98
67.5260	593.91
67.5405	609.21
67.5549	576.83
67.5694	572.13
67.5838	586.32
67.5982	588.31
67.6127	575.92
67.6271	573.11
67.6416	583.15
67.6560	564.62
67.6704	583.21
67.6849	568.32
67.6993	592.82
67.7138	612.39
67.7282	582.79
67.7426	584.63
67.7571	578.08
67.7715	575.45
67.7860	626.04
67.8004	593.08
67.8148	564.12
67.8293	564.45
67.8437	559.95
67.8582	584.54
67.8726	590.05
67.8870	624.52
67.9015	590.75
67.9159	577.11
67.9304	570.69
67.9448	591.97
67.9592	579.79
67.9737	571.40
67.9881	527.58
68.0026	574.28
68.0170	587.89
68.0314	581.72
68.0459	604.31
68.0603	600.25
68.0748	616.71
68.0892	614.12
68.1036	532.89
68.1181	609.97
68.1325	562.67
68.1470	517.42
68.1614	549.32
68.1758	586.62
68.1903	563.42
68.2047	578.02
68.2192	598.31
68.2336	588.45
68.2480	622.95
68.2625	568.33
68.2769	574.27
68.2914	561.14
68.3058	562.98
68.3202	570.06
68.3347	568.84
68.3491	568.54
68.3636	566.04
68.3780	541.48
68.3924	582.71
68.4069	633.84
68.4213	571.56
68.4358	571.36
68.4502	529.42
68.4646	559.56
68.4791	585.61
68.4935	588.10
68.5080	555.00
68.5224	518.80
68.5368	540.51
68.5513	521.22
68.5657	579.86
68.5802	565.19
68.5946	584.20
68.6090	607.39
68.6235	591.10
68.6379	564.56
68.6524	535.61
68.6668	529.52
68.6812	569.85
68.6957	554.59
68.7101	565.64
68.7246	568.79
68.7390	575.02
68.7534	568.40
68.7679	578.31
68.7823	584.81
68.7968	580.76
68.8112	554.37
68.8256	595.96
68.8401	591.14
68.8545	596.44
68.8690	574.81
68.8834	514.23
68.8978	535.43
68.9123	526.22
68.9267	538.68
68.9412	547.32
68.9556	610.90
68.9700	577.03
68.9845	590.39
68.9989	563.84
69.0134	581.10
69.0278	610.98
69.0422	563.22
69.0567	608.03
69.0711	565.42
69.0856	555.05
69.1000	563.20
69.1144	624.49
69.1289	579.88
69.1433	570.86
69.1578	563.58
69.1722	614.57
69.1866	554.77
69.2011	634.18
69.2155	609.85
69.2300	606.81
69.2444	617.94
69.2588	609.32
69.2733	564.00
69.2877	575.51
69.3022	564.58
69.3166	596.41
69.3310	556.52
69.3455	591.20
69.3599	606.58
69.3744	617.29
69.3888	562.15
69.4032	566.95
69.4177	582.16
69.4321	619.00
69.4466	572.79
69.4610	602.43
69.4754	536.21
69.4899	547.07
69.5043	572.10
69.5188	572.26
69.5332	630.47
69.5476	599.32
69.5621	522.63
69.5765	599.41
69.5910	594.37
69.6054	599.42
69.6198	569.39
69.6343	625.29
69.6487	586.32
69.6632	547.21
69.6776	546.94
69.6920	575.19
69.7065	613.78
69.7209	578.40
69.7354	552.92
69.7498	584.73
69.7642	595.65
69.7787	582.80
69.7931	559.56
69.8076	571.66
69.8220	596.15
69.8364	574.01
69.8509	575.50
69.8653	608.88
69.8798	600.47
69.8942	584.39
69.9086	566.87
69.9231	607.45
69.9375	568.09
69.9520	528.75
69.9664	534.32
69.9808	536.28
69.9953	613.22
70.0097	611.38
70.0242	546.57
70.0386	550.27
70.0530	585.08
70.0675	617.04
70.0819	565.71
70.0964	555.57
70.1108	531.32
70.1252	584.17
70.1397	548.44
70.1541	555.09
70.1686	572.77
70.1830	599.06
70.1974	575.00
70.2119	628.70
70.2263	595.41
70.2408	599.69
70.2552	599.13
70.2696	607.49
70.2841	516.18
70.2985	556.26
70.3130	606.28
70.3274	495.16
70.3418	565.34
70.3563	579.42
70.3707	562.78
70.3852	542.18
70.3996	568.97
70.4140	603.37
70.4285	589.38
70.4429	535.40
70.4574	587.63
70.4718	594.19
70.4862	565.28
70.5007	550.62
70.5151	599.74
70.5296	587.59
70.5440	540.58
70.5584	570.67
70.5729	581.06
70.5873	579.48
70.6018	536.06
70.6162	565.34
70.6306	572.79
70.6451	568.71
70.6595	596.34
70.6740	620.12
70.6884	541.03
70.7028	578.72
70.7173	564.74
70.7317	522.88
70.7462	567.25
70.7606	598.00
70.7750	580.21
70.7895	562.26
70.8039	596.26
70.8184	595.53
70.8328	612.18
70.8472	562.18
70.8617	559.66
70.8761	568.12
70.8906	617.95
70.9050	604.00
70.9194	570.58
70.9339	536.84
70.9483	613.65
70.9628	595.61
70.9772	542.11
70.9916	568.70
71.0061	556.80
71.0205	611.59
71.0350	581.27
71.0494	516.33
71.0638	520.36
71.0783	562.88
71.0927	548.64
71.1072	557.92
71.1216	568.62
71.1361	605.45
71.1505	585.68
71.1649	612.53
71.1794	607.42
71.1938	609.10
71.2083	638.89
71.2227	572.49
71.2371	609.24
71.2516	643.14
71.2660	570.05
71.2805	523.59
71.2949	582.21
71.3093	633.04
71.3238	597.24
71.3382	596.98
71.3527	572.45
71.3671	590.87
71.3815	569.42
71.3960	554.11
71.4104	532.40
71.4249	533.06
71.4393	585.61
71.4537	615.98
71.4682	555.22
71.4826	521.57
71.4971	536.73
71.5115	534.74
71.5259	540.19
71.5404	550.93
71.5548	579.96
71.5693	561.63
71.5837	577.75
71.5981	602.18
71.6126	569.07
71.6270	563.83
71.6415	572.01
71.6559	566.22
71.6703	617.58
71.6848	647.57
71.6992	646.51
71.7137	625.79
71.7281	594.13
71.7425	564.09
71.7570	655.26
71.7714	639.98
71.7859	612.19
71.8003	601.95
71.8147	627.31
71.8292	627.62
71.8436	551.35
71.8581	554.25
71.8725	591.01
71.8869	605.75
71.9014	604.58
71.9158	598.10
71.9303	588.11
71.9447	567.62
71.9591	552.87
71.9736	571.12
71.9880	596.43
72.0025	574.26
72.0169	562.76
72.0313	554.60
72.0458	554.45
72.0602	642.00
72.0747	661.15
72.0891	653.05
72.1035	683.75
72.1180	602.68
72.1324	589.00
72.1469	543.59
72.1613	568.42
72.1757	618.46
72.1902	628.11
72.2046	560.24
72.2191	551.61
72.2335	561.16
72.2479	574.20
72.2624	538.20
72.2768	561.04
72.2913	574.30
72.3057	571.47
72.3201	586.88
72.3346	551.08
72.3490	564.94
72.3635	560.91
72.3779	526.42
72.3923	529.67
72.4068	525.88
72.4212	553.98
72.4357	607.00
72.4501	521.23
72.4645	563.02
72.4790	578.04
72.4934	561.69
72.5079	592.35
72.5223	566.58
72.5367	571.22
72.5512	648.98
72.5656	612.06
72.5801	497.62
72.5945	499.80
72.6089	534.48
72.6234	516.68
72.6378	538.25
72.6523	516.16
72.6667	526.19
72.6811	571.50
72.6956	562.51
72.7100	550.66
72.7245	549.03
72.7389	640.34
72.7533	655.76
72.7678	565.93
72.7822	524.90
72.7967	523.26
72.8111	650.47
72.8255	680.53
72.8400	581.86
72.8544	476.04
72.8689	533.92
72.8833	595.00

Result vector
22.1120	493.24
22.1264	443.85
22.1409	491.53
22.1553	525.85
22.1697	618.11
22.1842	544.81
22.1986	529.86
22.2131	509.53
22.2275	536.37
22.2419	580.50
22.2564	653.25
22.2708	584.36
22.2853	606.77
22.2997	453.24
22.3141	555.22
22.3286	625.31
22.3430	607.26
22.3575	584.72
22.3719	600.72
22.3863	533.70
22.4008	515.62
22.4152	492.74
22.4297	672.10
22.4441	669.41
22.4585	550.19
22.4730	504.11
22.4874	626.43
22.5019	640.76
22.5163	564.30
22.5307	595.05
22.5452	594.21
22.5596	613.83
22.5741	595.93
22.5885	536.60
22.6029	519.73
22.6174	612.65
22.6318	542.10
22.6463	591.54
22.6607	682.77
22.6751	561.33
22.6896	512.07
22.7040	564.96
22.7185	671.58
22.7329	638.24
22.7473	510.53
22.7618	532.22
22.7762	565.22
22.7907	568.92
22.8051	551.37
22.8195	626.42
22.8340	552.00
22.8484	552.31
22.8629	614.01
22.8773	610.81
22.8917	533.48
22.9062	579.40
22.9206	513.30
22.9351	487.36
22.9495	525.95
22.9639	589.67
22.9784	544.93
22.9928	519.48
23.0073	476.75
23.0217	557.51
23.0361	543.67
23.0506	450.61
23.0650	595.60
23.0795	486.16
23.0939	581.64
23.1083	585.22
23.1228	497.92
23.1372	524.81
23.1517	559.57
23.1661	514.72
23.1806	549.20
23.1950	577.65
23.2094	529.12
23.2239	515.31
23.2383	614.68
23.2528	500.98
23.2672	534.18
23.2816	547.96
23.2961	574.17
23.3105	624.45
23.3250	513.63
23.3394	538.44
23.3538	598.21
23.3683	577.64
23.3827	558.52
23.3972	593.90
23.4116	512.61
23.4260	599.97
23.4405	535.95
23.4549	576.58
23.4694	567.11
23.4838	593.16
23.4982	542.46
23.5127	538.79
23.5271	636.05
23.5416	559.92
23.5560	580.54
23.5704	593.59
23.5849	573.46
23.5993	549.01
23.6138	586.61
23.6282	497.44
23.6426	573.06
23.6571	552.41
23.6715	582.42
23.6860	558.73
23.7004	623.47
23.7148	585.15
23.7293	535.89
23.7437	564.96
23.7582	592.20
23.7726	505.81
23.7870	542.04
23.8015	545.39
23.8159	550.19
23.8304	527.23
23.8448	541.82
23.8592	612.79
23.8737	569.55
23.8881	578.19
23.9026	595.73
23.9170	544.46
23.9314	579.96
23.9459	527.18
23.9603	580.82
23.9748	536.70
23.9892	548.83
24.0036	561.54
24.0181	530.46
24.0325	522.89
24.0470	539.46
24.0614	585.94
24.0758	547.32
24.0903	561.27
24.1047	552.30
24.1192	537.18
24.1336	613.44
24.1480	545.01
24.1625	568.37
24.1769	531.45
24.1914	529.31
24.2058	581.52
24.2202	574.90
24.2347	621.28
24.2491	550.83
24.2636	619.44
24.2780	633.97
24.2924	588.34
24.3069	580.51
24.3213	597.80
24.3358	631.43
24.3502	586.82
24.3646	578.09
24.3791	592.20
24.3935	572.05
24.4080	515.61
24.4224	549.71
24.4368	526.49
24.4513	559.86
24.4657	526.26
24.4802	547.97
24.4946	477.56
24.5090	549.77
24.5235	538.18
24.5379	596.60
24.5524	596.91
24.5668	562.79
24.5812	541.73
24.5957	532.69
24.6101	535.48
24.6246	526.57
24.6390	581.50
24.6534	613.72
24.6679	533.46
24.6823	549.70
24.6968	535.19
24.7112	564.13
24.7256	537.73
24.7401	505.47
24.7545	538.16
24.7690	577.65
24.7834	578.14
24.7978	528.03
24.8123	537.86
24.8267	507.32
24.8412	501.75
24.8556	579.45
24.8700	607.94
24.8845	532.79
24.8989	516.98
24.9134	547.38
24.9278	556.27
24.9422	561.28
24.9567	512.68
24.9711	518.47
24.9856	533.83
25.0000	552.73
25.0144	568.03
25.0289	525.98
25.0433	547.52
25.0578	543.77
25.0722	557.98
25.0866	554.42
25.1011	529.65
25.1155	528.18
25.1300	508.89
25.1444	520.69
25.1588	498.19
25.1733	574.67
25.1877	529.09
25.2022	506.59
25.2166	543.85
25.2310	569.44
25.2455	580.42
25.2599	548.49
25.2744	529.38
25.2888	569.89
25.3032	534.47
25.3177	566.44
25.3321	567.93
25.3466	564.24
25.3610	522.82
25.3754	529.35
25.3899	529.99
25.4043	537.27
25.4188	554.51
25.4332	577.52
25.4476	540.69
25.4621	484.15
25.4765	485.80
25.4910	546.64
25.5054	609.28
25.5198	611.66
25.5343	558.35
25.5487	561.61
25.5632	541.31
25.5776	537.43
25.5920	525.29
25.6065	534.97
25.6209	554.65
25.6354	540.97
25.6498	513.72
25.6642	501.14
25.6787	506.59
25.6931	541.12
25.7076	534.44
25.7220	524.90
25.7364	576.58
25.7509	562.96
25.7653	523.56
25.7798	563.70
25.7942	574.48
25.8086	562.84
25.8231	559.18
25.8375	539.45
25.8520	545.63
25.8664	529.75
25.8808	552.38
25.8953	525.16
25.9097	536.70
25.9242	525.03
25.9386	557.89
25.9530	525.13
25.9675	495.80
25.9819	540.34
25.9964	530.30
26.0108	539.74
26.0252	511.50
26.0397	539.36
26.0541	555.66
26.0686	527.21
26.0830	519.25
26.0974	527.41
26.1119	524.90
26.1263	550.42
26.1408	519.17
26.1552	511.40
26.1696	540.11
26.1841	560.03
26.1985	529.50
26.2130	512.43
26.2274	486.89
26.2418	525.43
26.2563	523.66
26.2707	499.58
26.2852	527.29
26.2996	548.24
26.3140	535.08
26.3285	523.75
26.3429	528.09
26.3574	542.88
26.3718	527.35
26.3862	550.80
26.4007	530.61
26.4151	486.65
26.4296	520.06
26.4440	535.27
26.4584	523.31
26.4729	516.36
26.4873	541.64
26.5018	513.96
26.5162	492.81
26.5306	557.39
26.5451	549.89
26.5595	532.68
26.5740	522.42
26.5884	532.95
26.6028	553.45
26.6173	528.04
26.6317	531.76
26.6462	530.29
26.6606	492.84
26.6750	505.72
26.6895	490.84
26.7039	548.85
26.7184	539.06
26.7328	529.71
26.7472	524.43
26.7617	502.58
26.7761	533.25
26.7906	568.87
26.8050	503.72
26.8194	490.03
26.8339	511.81
26.8483	534.95
26.8628	547.42
26.8772	555.10
26.8917	567.25
26.9061	545.31
26.9205	511.81
26.9350	538.50
26.9494	521.17
26.9639	487.46
26.9783	490.53
26.9927	554.68
27.0072	509.76
27.0216	482.33
27.0361	503.35
27.0505	524.53
27.0649	516.65
27.0794	511.37
27.0938	533.24
27.1083	509.09
27.1227	532.09
27.1371	518.36
27.1516	520.80
27.1660	551.30
27.1805	525.24
27.1949	509.41
27.2093	519.32
27.2238	562.45
27.2382	578.56
27.2527	524.20
27.2671	523.21
27.2815	517.76
27.2960	511.40
27.3104	539.02
27.3249	522.02
27.3393	557.67
27.3537	548.61
27.3682	510.13
27.3826	500.58
27.3971	523.97
27.4115	514.64
27.4259	528.35
27.4404	512.04
27.4548	501.12
27.4693	518.07
27.4837	537.80
27.4981	544.96
27.5126	534.40
27.5270	533.33
27.5415	502.06
27.5559	483.64
27.5703	510.53
27.5848	540.78
27.5992	557.36
27.6137	520.68
27.6281	492.37
27.6425	516.11
27.6570	527.04
27.6714	537.12
27.6859	477.79
27.7003	493.33
27.7147	519.38
27.7292	496.89
27.7436	518.51
27.7581	525.20
27.7725	524.33
27.7869	536.10
27.8014	562.66
27.8158	536.29
27.8303	532.81
27.8447	545.37
27.8591	523.69
27.8736	527.57
27.8880	502.12
27.9025	548.11
27.9169	524.22
27.9313	517.37
27.9458	525.42
27.9602	501.76
27.9747	529.26
27.9891	518.22
28.0035	498.99
28.0180	481.96
28.0324	505.21
28.0469	528.83
28.0613	535.90
28.0757	547.42
28.0902	497.67
28.1046	504.52
28.1191	553.63
28.1335	531.19
28.1479	508.10
28.1624	480.05
28.1768	512.69
28.1913	493.58
28.2057	518.11
28.2201	514.09
28.2346	479.58
28.2490	511.49
28.2635	516.35
28.2779	493.60
28.2923	479.79
28.3068	507.61
28.3212	530.11
28.3357	536.54
28.3501	521.62
28.3645	513.12
28.3790	540.51
28.3934	548.69
28.4079	530.54
28.4223	536.07
28.4367	503.46
28.4512	546.54
28.4656	534.65
28.4801	522.09
28.4945	542.57
28.5089	527.81
28.5234	520.85
28.5378	515.31
28.5523	546.60
28.5667	499.67
28.5811	504.22
28.5956	522.30
28.6100	520.16
28.6245	496.29
28.6389	516.63
28.6533	504.84
28.6678	492.22
28.6822	493.02
28.6967	517.10
28.7111	502.91
28.7255	481.01
28.7400	490.68
28.7544	504.29
28.7689	480.36
28.7833	515.91
28.7977	521.74
28.8122	528.63
28.8266	519.80
28.8411	482.24
28.8555	496.69
28.8699	518.19
28.8844	507.78
28.8988	509.02
28.9133	514.26
28.9277	488.74
28.9421	535.88
28.9566	494.03
28.9710	495.84
28.9855	520.28
28.9999	490.40
29.0143	510.15
29.0288	502.69
29.0432	501.99
29.0577	521.36
29.0721	481.68
29.0865	502.63
29.1010	528.76
29.1154	521.72
29.1299	532.60
29.1443	511.17
29.1587	523.75
29.1732	523.05
29.1876	514.98
29.2021	496.68
29.2165	517.88
29.2309	517.08
29.2454	489.37
29.2598	495.89
29.2743	484.57
29.2887	521.65
29.3031	506.13
29.3176	504.97
29.3320	546.95
29.3465	483.37
29.3609	542.54
29.3753	526.01
29.3898	493.69
29.4042	495.68
29.4187	475.30
29.4331	510.14
29.4475	498.93
29.4620	532.80
29.4764	519.16
29.4909	496.85
29.5053	507.65
29.5197	482.57
29.5342	504.38
29.5486	509.63
29.5631	498.21
29.5775	509.91
29.5919	512.30
29.6064	496.93
29.6208	517.01
29.6353	534.14
29.6497	472.53
29.6641	526.92
29.6786	474.49
29.6930	498.29
29.7075	525.02
29.7219	498.35
29.7363	500.91
29.7508	501.92
29.7652	494.47
29.7797	537.34
29.7941	522.86
29.8085	492.29
29.8230	505.25
29.8374	474.23
29.8519	481.49
29.8663	503.10
29.8807	529.00
29.8952	491.43
29.9096	505.99
29.9241	524.76
29.9385	507.12
29.9529	502.57
29.9674	487.02
29.9818	461.97
29.9963	493.83
30.0107	485.44
30.0251	510.44
30.0396	503.36
30.0540	517.89
30.0685	514.49
30.0829	493.96
30.0973	519.94
30.1118	499.58
30.1262	522.31
30.1407	486.43
30.1551	485.77
30.1695	484.66
30.1840	502.94
30.1984	472.74
30.2129	495.66
30.2273	545.51
30.2417	531.22
30.2562	508.53
30.2706	508.93
30.2851	516.41
30.2995	507.12
30.3139	491.43
30.3284	497.54
30.3428	516.07
30.3573	512.32
30.3717	532.87
30.3861	506.39
30.4006	482.54
30.4150	491.40
30.4295	504.75
30.4439	482.38
30.4583	519.90
30.4728	512.12
30.4872	497.94
30.5017	512.76
30.5161	510.30
30.5305	515.24
30.5450	525.46
30.5594	526.54
30.5739	510.94
30.5883	504.21
30.6028	494.22
30.6172	521.11
30.6316	546.52
30.6461	545.10
30.6605	533.40
30.6750	512.19
30.6894	529.70
30.7038	563.13
30.7183	562.58
30.7327	608.36
30.7472	622.43
30.7616	622.11
30.7760	623.41
30.7905	658.32
30.8049	636.15
30.8194	639.20
30.8338	659.96
30.8482	700.13
30.8627	656.23
30.8771	665.22
30.8916	681.78
30.9060	638.00
30.9204	625.09
30.9349	610.60
30.9493	617.98
30.9638	613.84
30.9782	570.59
30.9926	569.14
31.0071	573.31
31.0215	559.43
31.0360	534.80
31.0504	548.99
31.0648	528.06
31.0793	533.38
31.0937	521.99
31.1082	530.65
31.1226	531.87
31.1370	532.39
31.1515	524.58
31.1659	566.97
31.1804	536.44
31.1948	520.27
31.2092	524.53
31.2237	521.56
31.2381	548.49
31.2526	536.00
31.2670	524.48
31.2814	522.69
31.2959	497.94
31.3103	546.99
31.3248	541.60
31.3392	549.63
31.3536	533.91
31.3681	561.47
31.3825	538.35
31.3970	545.53
31.4114	525.05
31.4258	531.89
31.4403	492.21
31.4547	505.29
31.4692	557.65
31.4836	517.30
31.4980	497.60
31.5125	493.62
31.5269	506.07
31.5414	509.37
31.5558	488.54
31.5702	515.71
31.5847	509.64
31.5991	490.56
31.6136	503.66
31.6280	517.21
31.6424	501.45
31.6569	480.44
31.6713	495.21
31.6858	469.52
31.7002	474.48
31.7146	477.93
31.7291	490.22
31.7435	489.59
31.7580	514.44
31.7724	506.76
31.7868	495.87
31.8013	494.16
31.8157	499.63
31.8302	502.70
31.8446	497.32
31.8590	508.28
31.8735	516.49
31.8879	527.13
31.9024	495.74
31.9168	470.35
31.9312	515.14
31.9457	514.21
31.9601	501.15
31.9746	550.04
31.9890	506.57
32.0034	498.36
32.0179	501.55
32.0323	506.54
32.0468	464.06
32.0612	498.95
32.0756	480.58
32.0901	515.67
32.1045	499.92
32.1190	518.64
32.1334	491.09
32.1478	477.87
32.1623	487.08
32.1767	550.13
32.1912	520.64
32.2056	486.06
32.2200	497.66
32.2345	504.38
32.2489	455.21
32.2634	487.06
32.2778	488.13
32.2922	484.57
32.3067	509.45
32.3211	503.97
32.3356	496.56
32.3500	529.13
32.3644	481.74
32.3789	504.26
32.3933	491.76
32.4078	548.70
32.4222	541.48
32.4366	498.70
32.4511	470.32
32.4655	501.78
32.4800	509.20
32.4944	499.80
32.5088	541.65
32.5233	499.29
32.5377	517.06
32.5522	516.57
32.5666	464.88
32.5810	475.27
32.5955	523.69
32.6099	542.26
32.6244	495.54
32.6388	524.09
32.6532	504.58
32.6677	510.50
32.6821	500.78
32.6966	530.18
32.7110	542.33
32.7254	525.77
32.7399	532.38
32.7543	511.88
32.7688	509.28
32.7832	501.42
32.7976	500.51
32.8121	503.48
32.8265	517.87
32.8410	508.06
32.8554	499.95
32.8698	521.14
32.8843	528.24
32.8987	499.45
32.9132	529.51
32.9276	515.27
32.9420	504.86
32.9565	483.12
32.9709	514.91
32.9854	505.11
32.9998	494.98
33.0142	508.62
33.0287	486.81
33.0431	463.04
33.0576	517.23
33.0720	516.09
33.0864	520.29
33.1009	486.09
33.1153	494.95
33.1298	535.91
33.1442	528.83
33.1586	536.93
33.1731	515.81
33.1875	508.81
33.2020	499.42
33.2164	488.15
33.2308	499.85
33.2453	493.42
33.2597	508.61
33.2742	545.77
33.2886	507.57
33.3030	507.04
33.3175	534.93
33.3319	486.39
33.3464	526.65
33.3608	512.58
33.3752	521.98
33.3897	564.43
33.4041	517.74
33.4186	540.56
33.4330	533.23
33.4474	543.76
33.4619	495.32
33.4763	509.69
33.4908	553.48
33.5052	496.62
33.5196	488.82
33.5341	507.49
33.5485	522.80
33.5630	514.19
33.5774	501.35
33.5918	500.10
33.6063	519.12
33.6207	520.89
33.6352	501.87
33.6496	489.47
33.6640	501.32
33.6785	509.40
33.6929	498.63
33.7074	512.76
33.7218	510.76
33.7362	480.59
33.7507	519.87
33.7651	514.97
33.7796	491.62
33.7940	522.75
33.8084	521.80
33.8229	504.34
33.8373	544.27
33.8518	524.59
33.8662	545.77
33.8806	533.55
33.8951	519.58
33.9095	527.83
33.9240	506.04
33.9384	494.52
33.9528	484.94
33.9673	518.60
33.9817	512.48
33.9962	552.13
34.0106	491.21
34.0250	500.62
34.0395	521.65
34.0539	498.87
34.0684	506.41
34.0828	481.10
34.0972	517.16
34.1117	523.35
34.1261	515.48
34.1406	513.34
34.1550	497.52
34.1694	515.34
34.1839	507.47
34.1983	518.43
34.2128	496.59
34.2272	516.13
34.2417	506.60
34.2561	497.93
34.2705	485.61
34.2850	527.19
34.2994	503.22
34.3139	518.04
34.3283	509.59
34.3427	506.46
34.3572	506.44
34.3716	498.84
34.3861	496.43
34.4005	480.49
34.4149	512.60
34.4294	564.71
34.4438	517.21
34.4583	506.07
34.4727	504.84
34.4871	515.57
34.5016	528.03
34.5160	506.66
34.5305	474.16
34.5449	477.63
34.5593	523.12
34.5738	530.20
34.5882	510.25
34.6027	501.21
34.6171	525.10
34.6315	502.84
34.6460	500.37
34.6604	504.49
34.6749	492.37
34.6893	499.15
34.7037	535.65
34.7182	504.34
34.7326	514.75
34.7471	501.84
34.7615	486.13
34.7759	503.74
34.7904	504.28
34.8048	507.89
34.8193	533.30
34.8337	535.15
34.8481	512.70
34.8626	495.27
34.8770	536.04
34.8915	495.86
34.9059	475.37
34.9203	471.18
34.9348	512.21
34.9492	520.57
34.9637	503.06
34.9781	506.89
34.9925	519.68
35.0070	465.78
35.0214	482.42
35.0359	495.74
35.0503	492.44
35.0647	517.37
35.0792	522.44
35.0936	528.79
35.1081	500.67
35.1225	531.95
35.1369	494.20
35.1514	478.44
35.1658	502.59
35.1803	533.76
35.1947	483.52
35.2091	457.13
35.2236	516.35
35.2380	527.10
35.2525	480.86
35.2669	500.66
35.2813	508.66
35.2958	487.48
35.3102	513.40
35.3247	533.48
35.3391	489.42
35.3535	516.30
35.3680	530.44
35.3824	536.90
35.3969	502.03
35.4113	510.75
35.4257	522.83
35.4402	501.00
35.4546	517.96
35.4691	568.18
35.4835	574.28
35.4979	510.39
35.5124	531.86
35.5268	543.40
35.5413	572.02
35.5557	568.07
35.5701	553.83
35.5846	533.87
35.5990	546.47
35.6135	550.17
35.6279	491.37
35.6423	499.28
35.6568	513.41
35.6712	554.51
35.6857	598.33
35.7001	710.09
35.7145	732.55
35.7290	679.60
35.7434	637.79
35.7579	562.16
35.7723	599.31
35.7867	625.07
35.8012	685.17
35.8156	694.50
35.8301	645.71
35.8445	611.90
35.8589	655.17
35.8734	737.70
35.8878	886.93
35.9023	989.11
35.9167	1030.82
35.9311	1272.14
35.9456	2029.78
35.9600	2382.55
35.9745	1904.62
35.9889	1972.06
36.0033	2631.48
36.0178	3092.94
36.0322	2391.99
36.0467	1869.10
36.0611	1729.14
36.0755	1635.01
36.0900	1601.08
36.1044	1278.64
36.1189	1424.44
36.1333	1367.04
36.1477	1139.68
36.1622	1078.28
36.1766	1075.17
36.1911	989.78
36.2055	896.82
36.2199	872.83
36.2344	875.93
36.2488	885.39
36.2633	891.17
36.2777	910.84
36.2921	917.34
36.3066	948.55
36.3210	979.92
36.3355	940.89
36.3499	955.32
36.3643	918.28
36.3788	854.46
36.3932	847.45
36.4077	834.89
36.4221	836.84
36.4365	807.45
36.4510	782.83
36.4654	749.06
36.4799	705.09
36.4943	701.70
36.5087	638.06
36.5232	602.02
36.5376	618.78
36.5521	618.41
36.5665	600.72
36.5809	555.12
36.5954	550.84
36.6098	584.26
36.6243	549.38
36.6387	531.31
36.6531	530.52
36.6676	507.77
36.6820	528.73
36.6965	528.02
36.7109	552.02
36.7253	511.36
36.7398	533.79
36.7542	566.90
36.7687	532.83
36.7831	546.97
36.7975	567.84
36.8120	554.68
36.8264	509.36
36.8409	558.84
36.8553	583.83
36.8697	585.41
36.8842	603.64
36.8986	555.64
36.9131	530.59
36.9275	579.90
36.9419	573.85
36.9564	574.94
36.9708	571.91
36.9853	576.04
36.9997	545.44
37.0141	555.68
37.0286	553.59
37.0430	579.48
37.0575	538.00
37.0719	586.45
37.0863	542.28
37.1008	533.95
37.1152	518.49
37.1297	513.95
37.1441	510.04
37.1585	528.35
37.1730	534.92
37.1874	494.91
37.2019	498.46
37.2163	498.01
37.2307	512.60
37.2452	525.27
37.2596	515.51
37.2741	523.00
37.2885	534.32
37.3029	510.92
37.3174	468.35
37.3318	529.53
37.3463	521.91
37.3607	495.84
37.3751	515.58
37.3896	474.54
37.4040	502.39
37.4185	531.01
37.4329	542.83
37.4473	483.52
37.4618	507.87
37.4762	533.05
37.4907	505.77
37.5051	485.14
37.5195	508.28
37.5340	497.95
37.5484	485.47
37.5629	505.61
37.5773	503.95
37.5917	519.23
37.6062	503.09
37.6206	461.65
37.6351	487.54
37.6495	479.41
37.6639	478.43
37.6784	483.04
37.6928	470.10
37.7073	484.25
37.7217	499.14
37.7361	493.72
37.7506	507.79
37.7650	497.14
37.7795	519.05
37.7939	465.28
37.8083	503.63
37.8228	553.70
37.8372	539.81
37.8517	500.68
37.8661	526.87
37.8805	492.84
37.8950	505.93
37.9094	499.62
37.9239	537.83
37.9383	522.28
37.9528	491.41
37.9672	477.09
37.9816	504.56
37.9961	482.78
38.0105	506.02
38.0250	511.91
38.0394	497.54
38.0538	485.50
38.0683	526.95
38.0827	513.28
38.0972	483.64
38.1116	500.92
38.1260	519.78
38.1405	503.76
38.1549	504.34
38.1694	517.88
38.1838	502.59
38.1982	493.71
38.2127	515.42
38.2271	494.78
38.2416	517.17
38.2560	493.93
38.2704	484.82
38.2849	512.12
38.2993	511.63
38.3138	524.23
38.3282	534.31
38.3426	508.07
38.3571	505.75
38.3715	516.50
38.3860	489.04
38.4004	550.42
38.4148	535.71
38.4293	556.50
38.4437	594.32
38.4582	608.73
38.4726	628.38
38.4870	693.84
38.5015	733.82
38.5159	759.58
38.5304	779.12
38.5448	767.63
38.5592	818.50
38.5737	779.48
38.5881	774.49
38.6026	756.75
38.6170	758.25
38.6314	687.14
38.6459	659.95
38.6603	620.24
38.6748	617.03
38.6892	563.07
38.7036	555.63
38.7181	550.57
38.7325	540.62
38.7470	533.26
38.7614	544.84
38.7758	552.94
38.7903	528.70
38.8047	507.26
38.8192	537.51
38.8336	533.80
38.8480	508.27
38.8625	513.52
38.8769	518.94
38.8914	538.04
38.9058	553.45
38.9202	520.59
38.9347	516.88
38.9491	524.74
38.9636	498.14
38.9780	504.90
38.9924	495.90
39.0069	485.22
39.0213	492.47
39.0358	514.19
39.0502	517.71
39.0646	531.00
39.0791	516.97
39.0935	500.75
39.1080	536.64
39.1224	516.33
39.1368	494.45
39.1513	498.02
39.1657	500.59
39.1802	498.85
39.1946	495.56
39.2090	510.35
39.2235	503.48
39.2379	503.47
39.2524	504.75
39.2668	503.53
39.2812	548.08
39.2957	524.62
39.3101	505.32
39.3246	471.93
39.3390	487.79
39.3534	501.56
39.3679	501.22
39.3823	510.01
39.3968	498.21
39.4112	479.97
39.4256	504.52
39.4401	488.84
39.4545	476.61
39.4690	519.08
39.4834	512.52
39.4978	510.30
39.5123	534.51
39.5267	505.53
39.5412	480.13
39.5556	495.89
39.5700	491.03
39.5845	494.93
39.5989	486.71
39.6134	490.15
39.6278	479.52
39.6422	489.26
39.6567	509.32
39.6711	509.83
39.6856	517.61
39.7000	525.50
39.7144	517.93
39.7289	489.00
39.7433	497.41
39.7578	496.83
39.7722	505.57
39.7866	503.54
39.8011	513.77
39.8155	529.52
39.8300	522.52
39.8444	494.34
39.8588	508.62
39.8733	513.61
39.8877	487.28
39.9022	480.76
39.9166	492.04
39.9310	517.99
39.9455	533.92
39.9599	504.42
39.9744	487.19
39.9888	481.80
40.0032	472.18
40.0177	481.45
40.0321	498.09
40.0466	495.66
40.0610	509.32
40.0754	509.52
40.0899	491.42
40.1043	466.45
40.1188	509.50
40.1332	540.97
40.1476	497.29
40.1621	526.08
40.1765	506.76
40.1910	518.43
40.2054	460.74
40.2198	486.99
40.2343	518.68
40.2487	502.89
40.2632	466.93
40.2776	494.93
40.2920	481.26
40.3065	509.19
40.3209	505.07
40.3354	521.34
40.3498	500.40
40.3642	485.26
40.3787	471.48
40.3931	488.18
40.4076	495.43
40.4220	506.56
40.4364	472.54
40.4509	469.46
40.4653	493.63
40.4798	517.85
40.4942	461.63
40.5086	481.17
40.5231	473.31
40.5375	437.36
40.5520	469.85
40.5664	478.72
40.5808	454.98
40.5953	500.94
40.6097	529.56
40.6242	478.28
40.6386	496.69
40.6530	508.72
40.6675	459.88
40.6819	484.39
40.6964	514.89
40.7108	496.50
40.7252	489.22
40.7397	492.11
40.7541	529.80
40.7686	505.47
40.7830	498.56
40.7974	502.96
40.8119	494.53
40.8263	516.28
40.8408	513.61
40.8552	498.74
40.8696	487.49
40.8841	506.49
40.8985	514.18
40.9130	534.20
40.9274	514.41
40.9418	504.37
40.9563	444.51
40.9707	500.69
40.9852	497.37
40.9996	512.14
41.0140	489.62
41.0285	489.58
41.0429	494.16
41.0574	534.85
41.0718	543.66
41.0862	528.67
41.1007	531.48
41.1151	484.68
41.1296	491.84
41.1440	487.45
41.1584	474.08
41.1729	503.93
41.1873	504.84
41.2018	479.23
41.2162	476.85
41.2306	529.32
41.2451	528.93
41.2595	513.53
41.2740	496.95
41.2884	489.68
41.3028	480.42
41.3173	501.96
41.3317	529.57
41.3462	484.63
41.3606	505.73
41.3750	517.16
41.3895	477.87
41.4039	491.19
41.4184	508.25
41.4328	492.06
41.4472	486.27
41.4617	495.74
41.4761	487.85
41.4906	491.18
41.5050	476.92
41.5194	485.57
41.5339	522.19
41.5483	522.01
41.5628	492.57
41.5772	484.48
41.5916	475.30
41.6061	507.38
41.6205	509.29
41.6350	504.87
41.6494	479.34
41.6639	481.98
41.6783	479.58
41.6927	490.59
41.7072	521.72
41.7216	490.80
41.7361	515.59
41.7505	502.32
41.7649	491.13
41.7794	474.96
41.7938	489.90
41.8083	499.58
41.8227	518.06
41.8371	468.03
41.8516	513.37
41.8660	546.93
41.8805	513.29
41.8949	524.58
41.9093	541.37
41.9238	551.25
41.9382	584.85
41.9527	571.12
41.9671	553.51
41.9815	573.08
41.9960	593.34
42.0104	588.02
42.0249	538.44
42.0393	577.10
42.0537	574.47
42.0682	556.07
42.0826	579.79
42.0971	619.73
42.1115	596.66
42.1259	587.74
42.1404	603.60
42.1548	625.06
42.1693	634.54
42.1837	701.51
42.1981	729.67
42.2126	835.48
42.2270	959.09
42.2415	1068.38
42.2559	1211.10
42.2703	1385.70
42.2848	1521.18
42.2992	1641.24
42.3137	1686.20
42.3281	1616.04
42.3425	1559.51
42.3570	1525.72
42.3714	1406.22
42.3859	1371.78
42.4003	1353.99
42.4147	1363.66
42.4292	1286.06
42.4436	1129.20
42.4581	1009.75
42.4725	907.47
42.4869	840.29
42.5014	777.11
42.5158	679.85
42.5303	675.16
42.5447	669.96
42.5591	615.59
42.5736	593.80
42.5880	601.78
42.6025	611.84
42.6169	578.48
42.6313	551.81
42.6458	552.15
42.6602	544.58
42.6747	515.15
42.6891	528.52
42.7035	548.20
42.7180	551.35
42.7324	524.73
42.7469	536.05
42.7613	538.94
42.7757	552.84
42.7902	550.42
42.8046	504.72
42.8191	503.17
42.8335	496.95
42.8479	496.90
42.8624	493.82
42.8768	504.38
42.8913	500.49
42.9057	523.45
42.9201	490.08
42.9346	487.00
42.9490	496.53
42.9635	490.64
42.9779	505.14
42.9923	511.30
43.0068	480.21
43.0212	498.68
43.0357	504.76
43.0501	492.60
43.0645	510.47
43.0790	551.89
43.0934	527.79
43.1079	510.04
43.1223	502.54
43.1367	531.34
43.1512	511.88
43.1656	519.30
43.1801	525.10
43.1945	496.82
43.2089	493.41
43.2234	510.23
43.2378	507.16
43.2523	536.34
43.2667	502.27
43.2811	533.68
43.2956	504.62
43.3100	526.17
43.3245	529.38
43.3389	519.50
43.3533	509.77
43.3678	519.99
43.3822	497.95
43.3967	499.99
43.4111	506.81
43.4255	545.83
43.4400	522.99
43.4544	510.66
43.4689	521.78
43.4833	515.26
43.4977	507.94
43.5122	497.47
43.5266	515.48
43.5411	534.55
43.5555	526.40
43.5699	484.86
43.5844	541.99
43.5988	555.15
43.6133	517.16
43.6277	493.94
43.6421	514.22
43.6566	544.35
43.6710	515.30
43.6855	500.19
43.6999	495.82
43.7143	529.29
43.7288	524.12
43.7432	541.76
43.7577	506.47
43.7721	524.58
43.7865	546.90
43.8010	554.97
43.8154	533.20
43.8299	547.56
43.8443	540.77
43.8587	539.04
43.8732	528.37
43.8876	546.70
43.9021	524.14
43.9165	528.59
43.9309	532.42
43.9454	537.10
43.9598	550.97
43.9743	498.40
43.9887	547.93
44.0031	557.91
44.0176	577.20
44.0320	563.20
44.0465	560.51
44.0609	563.46
44.0753	596.50
44.0898	610.16
44.1042	587.82
44.1187	617.81
44.1331	618.28
44.1475	611.83
44.1620	621.99
44.1764	619.01
44.1909	605.30
44.2053	582.98
44.2197	582.06
44.2342	559.63
44.2486	579.32
44.2631	549.99
44.2775	550.45
44.2919	540.59
44.3064	569.41
44.3208	556.08
44.3353	563.38
44.3497	526.34
44.3641	587.78
44.3786	563.54
44.3930	548.27
44.4075	585.64
44.4219	617.05
44.4363	579.28
44.4508	598.25
44.4652	595.45
44.4797	584.89
44.4941	586.08
44.5085	601.80
44.5230	605.60
44.5374	604.53
44.5519	563.60
44.5663	556.23
44.5807	574.83
44.5952	594.63
44.6096	560.78
44.6241	566.38
44.6385	600.37
44.6529	582.03
44.6674	590.66
44.6818	617.67
44.6963	635.63
44.7107	684.95
44.7251	688.29
44.7396	716.52
44.7540	829.82
44.7685	829.72
44.7829	880.17
44.7973	890.37
44.8118	860.64
44.8262	809.26
44.8407	791.79
44.8551	791.42
44.8695	752.89
44.8840	731.22
44.8984	731.72
44.9129	757.63
44.9273	701.68
44.9417	632.15
44.9562	618.63
44.9706	557.10
44.9851	583.25
44.9995	554.64
45.0139	530.50
45.0284	550.64
45.0428	534.21
45.0573	536.56
45.0717	496.70
45.0861	545.89
45.1006	502.27
45.1150	514.50
45.1295	555.96
45.1439	508.64
45.1583	495.73
45.1728	524.40
45.1872	484.88
45.2017	521.24
45.2161	516.14
45.2305	536.67
45.2450	534.04
45.2594	507.06
45.2739	505.27
45.2883	488.06
45.3028	479.08
45.3172	512.91
45.3316	525.93
45.3461	518.83
45.3605	482.80
45.3750	494.25
45.3894	507.92
45.4038	496.42
45.4183	500.69
45.4327	506.98
45.4472	482.95
45.4616	476.71
45.4760	497.24
45.4905	489.60
45.5049	487.97
45.5194	486.99
45.5338	513.44
45.5482	506.36
45.5627	519.04
45.5771	480.19
45.5916	505.37
45.6060	505.81
45.6204	504.74
45.6349	513.17
45.6493	512.19
45.6638	504.95
45.6782	497.73
45.6926	504.69
45.7071	538.72
45.7215	503.72
45.7360	487.65
45.7504	546.15
45.7648	504.68
45.7793	502.06
45.7937	502.96
45.8082	488.08
45.8226	513.47
45.8370	519.59
45.8515	489.64
45.8659	481.24
45.8804	501.90
45.8948	476.84
45.9092	458.69
45.9237	487.89
45.9381	464.21
45.9526	470.19
45.9670	523.89
45.9814	500.86
45.9959	502.72
46.0103	490.38
46.0248	521.38
46.0392	502.55
46.0536	487.83
46.0681	496.51
46.0825	519.69
46.0970	512.75
46.1114	503.28
46.1258	514.64
46.1403	483.80
46.1547	471.54
46.1692	504.81
46.1836	561.16
46.1980	506.99
46.2125	500.03
46.2269	482.57
46.2414	503.70
46.2558	494.12
46.2702	505.33
46.2847	517.36
46.2991	519.39
46.3136	496.09
46.3280	528.69
46.3424	550.44
46.3569	547.94
46.3713	483.03
46.3858	474.91
46.4002	517.33
46.4146	522.93
46.4291	528.13
46.4435	493.87
46.4580	518.67
46.4724	500.69
46.4868	489.97
46.5013	515.79
46.5157	502.68
46.5302	521.38
46.5446	529.70
46.5590	497.40
46.5735	503.77
46.5879	489.70
46.6024	482.59
46.6168	494.17
46.6312	478.51
46.6457	472.38
46.6601	470.47
46.6746	491.15
46.6890	489.53
46.7034	485.97
46.7179	502.43
46.7323	517.02
46.7468	504.99
46.7612	484.51
46.7756	501.60
46.7901	506.23
46.8045	509.37
46.8190	498.30
46.8334	495.40
46.8478	519.43
46.8623	536.80
46.8767	529.38
46.8912	532.78
46.9056	552.02
46.9200	510.92
46.9345	512.83
46.9489	514.69
46.9634	493.13
46.9778	518.08
46.9922	551.21
47.0067	515.95
47.0211	531.65
47.0356	550.76
47.0500	516.64
47.0644	518.92
47.0789	507.30
47.0933	513.80
47.1078	538.56
47.1222	539.09
47.1366	524.48
47.1511	506.84
47.1655	530.84
47.1800	544.77
47.1944	484.62
47.2088	487.18
47.2233	529.44
47.2377	502.20
47.2522	508.02
47.2666	505.84
47.2810	492.14
47.2955	496.35
47.3099	495.32
47.3244	539.91
47.3388	536.73
47.3532	526.86
47.3677	511.29
47.3821	518.62
47.3966	525.51
47.4110	498.08
47.4254	527.01
47.4399	513.81
47.4543	507.48
47.4688	502.80
47.4832	534.41
47.4976	530.68
47.5121	474.47
47.5265	504.13
47.5410	488.26
47.5554	527.81
47.5698	522.59
47.5843	490.72
47.5987	497.69
47.6132	500.14
47.6276	500.24
47.6420	513.61
47.6565	518.12
47.6709	499.89
47.6854	488.55
47.6998	490.73
47.7142	517.15
47.7287	488.84
47.7431	457.95
47.7576	482.11
47.7720	526.03
47.7864	531.65
47.8009	510.69
47.8153	513.94
47.8298	502.84
47.8442	504.55
47.8586	504.60
47.8731	477.44
47.8875	475.52
47.9020	481.65
47.9164	533.31
47.9308	534.15
47.9453	564.31
47.9597	488.18
47.9742	504.25
47.9886	483.59
48.0030	480.69
48.0175	461.91
48.0319	521.86
48.0464	530.38
48.0608	521.07
48.0752	509.48
48.0897	515.97
48.1041	505.91
48.1186	501.54
48.1330	518.59
48.1474	522.32
48.1619	514.18
48.1763	485.28
48.1908	506.49
48.2052	498.96
48.2196	517.34
48.2341	522.33
48.2485	475.72
48.2630	483.00
48.2774	525.95
48.2918	502.26
48.3063	521.70
48.3207	531.44
48.3352	500.16
48.3496	522.93
48.3640	514.53
48.3785	554.03
48.3929	503.77
48.4074	479.23
48.4218	514.87
48.4362	520.83
48.4507	527.81
48.4651	517.80
48.4796	497.24
48.4940	518.75
48.5084	509.76
48.5229	543.82
48.5373	539.42
48.5518	500.24
48.5662	494.64
48.5806	510.87
48.5951	532.77
48.6095	509.77
48.6240	523.45
48.6384	547.70
48.6528	531.81
48.6673	506.97
48.6817	537.56
48.6962	519.16
48.7106	539.29
48.7250	503.90
48.7395	522.47
48.7539	545.69
48.7684	541.51
48.7828	517.70
48.7972	511.45
48.8117	540.05
48.8261	553.19
48.8406	558.30
48.8550	559.29
48.8694	574.02
48.8839	561.59
48.8983	531.86
48.9128	534.40
48.9272	536.85
48.9416	556.88
48.9561	567.28
48.9705	592.74
48.9850	572.13
48.9994	601.29
49.0139	560.17
49.0283	623.52
49.0427	597.18
49.0572	609.43
49.0716	640.97
49.0861	721.19
49.1005	693.30
49.1149	695.42
49.1294	745.48
49.1438	770.03
49.1583	860.36
49.1727	842.14
49.1871	905.21
49.2016	959.19
49.2160	1041.89
49.2305	1096.02
49.2449	1268.71
49.2593	1285.91
49.2738	1336.19
49.2882	1474.52
49.3027	1568.99
49.3171	1683.95
49.3315	1764.77
49.3460	1816.02
49.3604	1875.35
49.3749	1846.25
49.3893	1819.97
49.4037	1714.93
49.4182	1787.58
49.4326	1825.39
49.4471	1749.31
49.4615	1693.79
49.4759	1618.27
49.4904	1531.11
49.5048	1444.22
49.5193	1355.81
49.5337	1261.74
49.5481	1210.56
49.5626	1138.66
49.5770	1043.63
49.5915	954.09
49.6059	971.97
49.6203	860.94
49.6348	799.95
49.6492	791.29
49.6637	739.36
49.6781	718.36
49.6925	677.09
49.7070	673.79
49.7214	630.39
49.7359	622.49
49.7503	617.58
49.7647	584.81
49.7792	622.82
49.7936	610.20
49.8081	565.41
49.8225	504.47
49.8369	538.21
49.8514	570.86
49.8658	597.55
49.8803	553.31
49.8947	571.43
49.9091	569.96
49.9236	537.10
49.9380	530.99
49.9525	541.98
49.9669	504.12
49.9813	518.41
49.9958	530.62
50.0102	515.23
50.0247	480.70
50.0391	490.42
50.0535	511.33
50.0680	541.39
50.0824	549.26
50.0969	515.46
50.1113	504.41
50.1257	528.68
50.1402	489.04
50.1546	493.63
50.1691	515.76
50.1835	531.05
50.1979	509.80
50.2124	535.02
50.2268	530.27
50.2413	538.00
50.2557	497.82
50.2701	510.18
50.2846	495.82
50.2990	498.09
50.3135	515.59
50.3279	537.19
50.3423	507.20
50.3568	528.35
50.3712	501.15
50.3857	521.53
50.4001	501.78
50.4145	519.93
50.4290	548.69
50.4434	528.72
50.4579	549.59
50.4723	513.65
50.4867	494.64
50.5012	509.00
50.5156	502.19
50.5301	514.89
50.5445	523.95
50.5589	497.89
50.5734	498.94
50.5878	491.54
50.6023	522.61
50.6167	522.56
50.6311	516.04
50.6456	494.71
50.6600	472.45
50.6745	508.03
50.6889	509.67
50.7033	514.96
50.7178	480.09
50.7322	461.60
50.7467	517.10
50.7611	523.72
50.7755	529.93
50.7900	547.44
50.8044	508.44
50.8189	514.57
50.8333	523.16
50.8477	500.37
50.8622	529.73
50.8766	512.27
50.8911	495.99
50.9055	514.05
50.9199	512.76
50.9344	495.36
50.9488	498.82
50.9633	513.97
50.9777	507.95
50.9921	511.49
51.0066	496.66
51.0210	477.13
51.0355	491.12
51.0499	506.56
51.0643	487.35
51.0788	456.55
51.0932	502.20
51.1077	508.05
51.1221	501.34
51.1365	512.66
51.1510	494.14
51.1654	509.88
51.1799	512.10
51.1943	504.43
51.2087	503.16
51.2232	508.22
51.2376	526.52
51.2521	512.65
51.2665	520.74
51.2809	527.64
51.2954	522.02
51.3098	530.10
51.3243	511.40
51.3387	507.24
51.3531	466.95
51.3676	466.02
51.3820	493.56
51.3965	498.25
51.4109	516.98
51.4253	518.27
51.4398	491.60
51.4542	507.24
51.4687	518.82
51.4831	492.59
51.4975	498.83
51.5120	505.15
51.5264	513.24
51.5409	472.25
51.5553	479.79
51.5697	511.82
51.5842	515.96
51.5986	512.94
51.6131	503.58
51.6275	505.61
51.6419	511.49
51.6564	509.87
51.6708	483.20
51.6853	509.42
51.6997	505.55
51.7141	531.94
51.7286	469.67
51.7430	510.83
51.7575	509.58
51.7719	517.15
51.7863	492.43
51.8008	500.16
51.8152	504.75
51.8297	513.17
51.8441	480.26
51.8585	513.59
51.8730	539.04
51.8874	493.90
51.9019	518.74
51.9163	478.72
51.9307	496.31
51.9452	531.89
51.9596	542.06
51.9741	493.47
51.9885	524.16
52.0029	519.35
52.0174	522.49
52.0318	547.76
52.0463	548.49
52.0607	531.74
52.0751	546.56
52.0896	548.58
52.1040	538.03
52.1185	559.23
52.1329	550.85
52.1473	503.49
52.1618	492.09
52.1762	503.18
52.1907	474.83
52.2051	524.19
52.2195	536.38
52.2340	513.29
52.2484	528.51
52.2629	518.37
52.2773	502.15
52.2917	491.12
52.3062	494.84
52.3206	529.84
52.3351	503.10
52.3495	477.58
52.3639	516.78
52.3784	488.21
52.3928	484.32
52.4073	476.30
52.4217	516.80
52.4361	504.19
52.4506	484.07
52.4650	511.70
52.4795	500.62
52.4939	508.00
52.5083	509.42
52.5228	516.96
52.5372	529.17
52.5517	544.85
52.5661	525.03
52.5805	512.92
52.5950	511.26
52.6094	520.26
52.6239	498.75
52.6383	492.97
52.6527	498.00
52.6672	489.73
52.6816	529.34
52.6961	500.67
52.7105	507.78
52.7250	498.26
52.7394	506.72
52.7538	502.11
52.7683	531.40
52.7827	511.88
52.7972	498.93
52.8116	507.28
52.8260	516.29
52.8405	486.66
52.8549	498.55
52.8694	494.22
52.8838	476.50
52.8982	454.72
52.9127	483.90
52.9271	512.01
52.9416	487.73
52.9560	509.76
52.9704	481.40
52.9849	505.43
52.9993	481.06
53.0138	533.79
53.0282	496.59
53.0426	540.67
53.0571	482.92
53.0715	504.27
53.0860	534.96
53.1004	531.12
53.1148	526.63
53.1293	543.52
53.1437	499.80
53.1582	503.00
53.1726	492.72
53.1870	522.46
53.2015	502.48
53.2159	475.93
53.2304	495.78
53.2448	525.55
53.2592	496.11
53.2737	503.54
53.2881	540.00
53.3026	477.37
53.3170	482.08
53.3314	499.43
53.3459	534.62
53.3603	569.40
53.3748	522.55
53.3892	508.64
53.4036	455.01
53.4181	474.55
53.4325	533.74
53.4470	539.64
53.4614	580.81
53.4758	534.73
53.4903	509.30
53.5047	512.15
53.5192	506.68
53.5336	507.83
53.5480	499.11
53.5625	506.15
53.5769	504.99
53.5914	496.24
53.6058	509.96
53.6202	499.89
53.6347	529.70
53.6491	509.92
53.6636	511.40
53.6780	498.18
53.6924	525.54
53.7069	538.72
53.7213	524.65
53.7358	494.96
53.7502	502.15
53.7646	504.67
53.7791	539.61
53.7935	533.24
53.8080	531.59
53.8224	531.93
53.8368	504.78
53.8513	466.67
53.8657	492.25
53.8802	490.55
53.8946	496.21
53.9090	514.74
53.9235	486.26
53.9379	520.43
53.9524	536.40
53.9668	521.08
53.9812	517.19
53.9957	526.31
54.0101	501.04
54.0246	499.72
54.0390	505.17
54.0534	496.95
54.0679	525.70
54.0823	475.67
54.0968	491.27
54.1112	496.59
54.1256	528.31
54.1401	543.91
54.1545	527.73
54.1690	502.01
54.1834	529.97
54.1978	476.72
54.2123	495.91
54.2267	522.33
54.2412	527.79
54.2556	490.04
54.2700	493.23
54.2845	519.11
54.2989	532.86
54.3134	515.15
54.3278	511.25
54.3422	562.69
54.3567	536.62
54.3711	470.98
54.3856	481.17
54.4000	508.92
54.4144	527.65
54.4289	545.71
54.4433	536.90
54.4578	511.00
54.4722	516.54
54.4866	514.11
54.5011	524.26
54.5155	515.29
54.5300	560.68
54.5444	553.18
54.5588	539.07
54.5733	555.81
54.5877	539.65
54.6022	529.74
54.6166	562.25
54.6310	573.34
54.6455	592.06
54.6599	581.88
54.6744	550.03
54.6888	551.03
54.7032	590.73
54.7177	587.03
54.7321	551.38
54.7466	595.47
54.7610	547.90
54.7754	569.80
54.7899	544.16
54.8043	584.11
54.8188	602.32
54.8332	587.34
54.8476	554.84
54.8621	573.30
54.8765	564.78
54.8910	572.17
54.9054	589.94
54.9198	551.29
54.9343	550.99
54.9487	562.53
54.9632	548.30
54.9776	539.84
54.9920	525.31
55.0065	517.47
55.0209	531.17
55.0354	504.95
55.0498	487.41
55.0642	523.15
55.0787	524.00
55.0931	572.10
55.1076	526.57
55.1220	545.44
55.1364	555.42
55.1509	517.68
55.1653	500.41
55.1798	521.21
55.1942	523.87
55.2086	515.22
55.2231	564.09
55.2375	524.40
55.2520	510.62
55.2664	507.83
55.2808	504.12
55.2953	543.08
55.3097	519.58
55.3242	469.00
55.3386	511.40
55.3530	543.06
55.3675	529.81
55.3819	499.69
55.3964	506.19
55.4108	501.65
55.4252	496.05
55.4397	526.04
55.4541	515.51
55.4686	554.48
55.4830	557.77
55.4974	530.86
55.5119	520.82
55.5263	522.10
55.5408	515.90
55.5552	507.27
55.5696	520.49
55.5841	525.23
55.5985	526.58
55.6130	495.20
55.6274	523.86
55.6418	531.36
55.6563	498.65
55.6707	515.57
55.6852	525.68
55.6996	534.63
55.7140	546.75
55.7285	534.41
55.7429	533.33
55.7574	529.89
55.7718	553.08
55.7862	535.98
55.8007	533.07
55.8151	533.11
55.8296	528.45
55.8440	527.73
55.8584	521.66
55.8729	538.80
55.8873	530.18
55.9018	549.77
55.9162	541.47
55.9306	516.81
55.9451	521.27
55.9595	524.40
55.9740	525.36
55.9884	531.09
56.0028	511.49
56.0173	471.73
56.0317	512.17
56.0462	516.17
56.0606	532.51
56.0750	492.85
56.0895	517.00
56.1039	520.28
56.1184	485.96
56.1328	514.91
56.1472	493.97
56.1617	513.45
56.1761	535.10
56.1906	516.59
56.2050	519.15
56.2194	534.90
56.2339	505.47
56.2483	529.52
56.2628	489.30
56.2772	510.76
56.2916	501.78
56.3061	505.76
56.3205	503.96
56.3350	509.98
56.3494	518.61
56.3639	523.98
56.3783	548.28
56.3927	495.05
56.4072	499.30
56.4216	483.62
56.4361	516.54
56.4505	521.03
56.4649	533.77
56.4794	525.33
56.4938	542.16
56.5083	527.76
56.5227	532.54
56.5371	554.17
56.5516	514.75
56.5660	501.92
56.5805	528.44
56.5949	512.64
56.6093	511.08
56.6238	510.60
56.6382	576.17
56.6527	526.06
56.6671	530.11
56.6815	501.34
56.6960	512.01
56.7104	559.30
56.7249	526.99
56.7393	497.30
56.7537	510.61
56.7682	503.79
56.7826	503.41
56.7971	495.72
56.8115	516.92
56.8259	528.83
56.8404	514.70
56.8548	535.42
56.8693	547.29
56.8837	541.65
56.8981	499.80
56.9126	515.80
56.9270	508.13
56.9415	526.90
56.9559	494.42
56.9703	536.54
56.9848	517.30
56.9992	513.26
57.0137	531.49
57.0281	504.83
57.0425	493.60
57.0570	474.36
57.0714	512.04
57.0859	531.26
57.1003	517.92
57.1147	525.00
57.1292	540.79
57.1436	511.38
57.1581	510.44
57.1725	512.97
57.1869	527.55
57.2014	497.43
57.2158	505.13
57.2303	456.86
57.2447	527.24
57.2591	526.91
57.2736	541.41
57.2880	551.18
57.3025	530.96
57.3169	514.10
57.3313	541.54
57.3458	562.38
57.3602	490.38
57.3747	530.26
57.3891	527.73
57.4035	511.91
57.4180	546.90
57.4324	548.55
57.4469	511.50
57.4613	534.90
57.4757	508.13
57.4902	542.09
57.5046	549.18
57.5191	539.35
57.5335	516.80
57.5479	523.78
57.5624	535.59
57.5768	502.41
57.5913	540.50
57.6057	538.77
57.6201	574.59
57.6346	543.69
57.6490	563.20
57.6635	531.00
57.6779	503.76
57.6923	524.25
57.7068	495.05
57.7212	534.24
57.7357	513.05
57.7501	513.76
57.7645	537.25
57.7790	521.50
57.7934	514.54
57.8079	536.50
57.8223	539.58
57.8367	526.18
57.8512	530.00
57.8656	530.20
57.8801	536.98
57.8945	565.49
57.9089	547.12
57.9234	540.29
57.9378	532.01
57.9523	523.59
57.9667	523.36
57.9811	566.96
57.9956	566.54
58.0100	563.98
58.0245	572.82
58.0389	537.09
58.0533	531.49
58.0678	534.36
58.0822	550.88
58.0967	541.40
58.1111	545.19
58.1255	564.11
58.1400	556.73
58.1544	555.38
58.1689	548.36
58.1833	565.08
58.1977	560.12
58.2122	561.75
58.2266	580.19
58.2411	588.14
58.2555	606.79
58.2699	578.67
58.2844	611.08
58.2988	632.35
58.3133	644.64
58.3277	624.52
58.3421	660.33
58.3566	633.11
58.3710	589.39
58.3855	611.25
58.3999	640.66
58.4143	675.42
58.4288	678.56
58.4432	614.85
58.4577	613.39
58.4721	641.20
58.4865	623.86
58.5010	646.79
58.5154	624.26
58.5299	610.65
58.5443	644.76
58.5587	629.82
58.5732	562.76
58.5876	593.03
58.6021	565.54
58.6165	591.11
58.6309	594.00
58.6454	601.80
58.6598	587.26
58.6743	576.77
58.6887	545.81
58.7031	575.72
58.7176	582.78
58.7320	594.30
58.7465	601.58
58.7609	530.78
58.7753	556.17
58.7898	562.12
58.8042	535.88
58.8187	558.03
58.8331	539.21
58.8475	498.61
58.8620	556.72
58.8764	554.69
58.8909	527.70
58.9053	545.84
58.9197	552.60
58.9342	531.50
58.9486	537.85
58.9631	547.40
58.9775	539.83
58.9919	539.47
59.0064	585.85
59.0208	548.91
59.0353	527.31
59.0497	522.30
59.0641	526.23
59.0786	531.83
59.0930	551.16
59.1075	488.69
59.1219	511.18
59.1363	520.80
59.1508	548.67
59.1652	538.45
59.1797	564.40
59.1941	541.58
59.2085	531.73
59.2230	517.16
59.2374	528.45
59.2519	532.56
59.2663	548.05
59.2807	575.24
59.2952	535.46
59.3096	567.57
59.3241	552.41
59.3385	591.17
59.3529	571.19
59.3674	551.89
59.3818	547.98
59.3963	551.84
59.4107	559.47
59.4251	568.05
59.4396	550.25
59.4540	540.39
59.4685	568.48
59.4829	550.00
59.4973	549.63
59.5118	557.35
59.5262	577.70
59.5407	557.48
59.5551	566.59
59.5695	516.15
59.5840	546.75
59.5984	576.62
59.6129	577.50
59.6273	552.57
59.6417	550.26
59.6562	519.69
59.6706	525.02
59.6851	534.57
59.6995	545.24
59.7139	566.26
59.7284	516.25
59.7428	569.13
59.7573	514.28
59.7717	482.95
59.7861	535.24
59.8006	528.16
59.8150	551.44
59.8295	543.62
59.8439	543.57
59.8583	544.11
59.8728	569.49
59.8872	554.05
59.9017	547.08
59.9161	547.79
59.9305	521.02
59.9450	530.57
59.9594	493.78
59.9739	531.24
59.9883	542.04
60.0027	502.02
60.0172	538.16
60.0316	587.56
60.0461	527.57
60.0605	543.88
60.0750	549.50
60.0894	592.37
60.1038	527.63
60.1183	552.49
60.1327	547.31
60.1472	518.00
60.1616	502.23
60.1760	536.56
60.1905	572.09
60.2049	556.78
60.2194	562.97
60.2338	536.72
60.2482	550.15
60.2627	540.82
60.2771	531.82
60.2916	541.39
60.3060	538.14
60.3204	578.01
60.3349	517.89
60.3493	507.48
60.3638	508.50
60.3782	527.43
60.3926	531.87
60.4071	556.09
60.4215	585.29
60.4360	547.89
60.4504	506.72
60.4648	573.52
60.4793	557.28
60.4937	543.91
60.5082	549.32
60.5226	533.39
60.5370	520.69
60.5515	544.16
60.5659	561.58
60.5804	524.48
60.5948	523.97
60.6092	553.09
60.6237	517.17
60.6381	555.80
60.6526	541.99
60.6670	523.13
60.6814	556.05
60.6959	566.55
60.7103	579.22
60.7248	543.60
60.7392	477.56
60.7536	541.36
60.7681	535.90
60.7825	535.54
60.7970	554.86
60.8114	536.58
60.8258	537.82
60.8403	564.62
60.8547	566.25
60.8692	557.62
60.8836	519.53
60.8980	524.59
60.9125	525.35
60.9269	508.17
60.9414	543.06
60.9558	558.92
60.9702	549.08
60.9847	537.36
60.9991	526.48
61.0136	543.96
61.0280	541.19
61.0424	546.20
61.0569	574.00
61.0713	559.79
61.0858	508.33
61.1002	569.05
61.1146	515.33
61.1291	559.28
61.1435	499.36
61.1580	524.05
61.1724	583.52
61.1868	544.39
61.2013	498.79
61.2157	562.82
61.2302	528.80
61.2446	525.41
61.2590	523.76
61.2735	557.11
61.2879	557.21
61.3024	547.12
61.3168	538.14
61.3312	569.83
61.3457	561.29
61.3601	564.06
61.3746	545.49
61.3890	552.93
61.4034	518.20
61.4179	528.05
61.4323	559.06
61.4468	519.36
61.4612	581.48
61.4756	593.94
61.4901	566.98
61.5045	527.54
61.5190	489.58
61.5334	541.70
61.5478	550.12
61.5623	569.31
61.5767	542.25
61.5912	559.01
61.6056	552.02
61.6200	552.79
61.6345	541.24
61.6489	555.24
61.6634	556.33
61.6778	540.40
61.6922	522.37
61.7067	568.17
61.7211	558.44
61.7356	530.88
61.7500	520.36
61.7644	525.10
61.7789	555.92
61.7933	586.01
61.8078	547.29
61.8222	566.88
61.8366	575.68
61.8511	565.19
61.8655	553.98
61.8800	532.30
61.8944	549.59
61.9088	557.42
61.9233	546.38
61.9377	542.04
61.9522	564.39
61.9666	557.19
61.9810	547.94
61.9955	542.80
62.0099	575.80
62.0244	561.00
62.0388	543.29
62.0532	542.64
62.0677	558.27
62.0821	546.20
62.0966	523.95
62.1110	556.61
62.1254	557.41
62.1399	555.37
62.1543	545.60
62.1688	565.24
62.1832	521.66
62.1976	493.19
62.2121	562.96
62.2265	549.26
62.2410	565.72
62.2554	528.03
62.2698	534.70
62.2843	533.14
62.2987	542.39
62.3132	545.28
62.3276	544.47
62.3420	552.60
62.3565	510.16
62.3709	538.69
62.3854	532.98
62.3998	515.54
62.4142	537.79
62.4287	573.85
62.4431	563.72
62.4576	546.47
62.4720	544.94
62.4864	569.63
62.5009	558.12
62.5153	545.06
62.5298	554.32
62.5442	574.76
62.5586	584.80
62.5731	544.98
62.5875	555.68
62.6020	557.45
62.6164	540.09
62.6308	552.17
62.6453	549.69
62.6597	543.95
62.6742	492.37
62.6886	535.86
62.7030	552.49
62.7175	538.47
62.7319	524.39
62.7464	537.81
62.7608	525.38
62.7752	551.18
62.7897	563.40
62.8041	560.62
62.8186	574.19
62.8330	596.02
62.8474	558.31
62.8619	561.76
62.8763	564.84
62.8908	523.09
62.9052	549.84
62.9196	554.67
62.9341	550.15
62.9485	534.88
62.9630	537.80
62.9774	536.31
62.9918	564.66
63.0063	547.65
63.0207	546.34
63.0352	572.31
63.0496	585.83
63.0640	560.34
63.0785	553.56
63.0929	587.74
63.1074	592.12
63.1218	587.78
63.1362	562.10
63.1507	543.37
63.1651	542.92
63.1796	553.97
63.1940	548.31
63.2084	565.72
63.2229	591.77
63.2373	580.16
63.2518	543.75
63.2662	561.87
63.2806	602.71
63.2951	564.81
63.3095	587.14
63.3240	560.24
63.3384	602.12
63.3528	587.24
63.3673	580.35
63.3817	547.57
63.3962	563.18
63.4106	551.79
63.4250	570.89
63.4395	577.26
63.4539	542.17
63.4684	580.59
63.4828	577.65
63.4972	571.25
63.5117	597.13
63.5261	574.20
63.5406	573.35
63.5550	594.95
63.5694	602.55
63.5839	585.21
63.5983	569.86
63.6128	579.55
63.6272	569.25
63.6416	605.34
63.6561	597.46
63.6705	578.02
63.6850	606.38
63.6994	572.31
63.7138	596.31
63.7283	562.16
63.7427	560.75
63.7572	588.37
63.7716	596.90
63.7861	583.40
63.8005	580.22
63.8149	588.85
63.8294	593.25
63.8438	601.91
63.8583	633.20
63.8727	628.89
63.8871	608.58
63.9016	663.24
63.9160	657.42
63.9305	625.66
63.9449	702.75
63.9593	675.38
63.9738	669.00
63.9882	670.08
64.0027	678.75
64.0171	682.28
64.0315	724.87
64.0460	678.04
64.0604	678.69
64.0749	665.82
64.0893	701.85
64.1037	722.31
64.1182	750.53
64.1326	768.80
64.1471	769.92
64.1615	789.53
64.1759	778.41
64.1904	735.36
64.2048	750.64
64.2193	818.05
64.2337	782.40
64.2481	779.20
64.2626	768.97
64.2770	791.79
64.2915	769.91
64.3059	767.09
64.3203	762.86
64.3348	781.34
64.3492	780.57
64.3637	748.49
64.3781	727.54
64.3925	703.47
64.4070	698.76
64.4214	692.63
64.4359	708.95
64.4503	671.98
64.4647	689.30
64.4792	666.80
64.4936	678.73
64.5081	675.44
64.5225	661.05
64.5369	669.43
64.5514	676.94
64.5658	671.08
64.5803	666.91
64.5947	658.73
64.6091	652.89
64.6236	624.85
64.6380	640.83
64.6525	683.97
64.6669	669.64
64.6813	643.96
64.6958	682.03
64.7102	696.79
64.7247	689.11
64.7391	737.51
64.7535	711.12
64.7680	702.07
64.7824	718.34
64.7969	765.83
64.8113	779.71
64.8257	778.84
64.8402	803.06
64.8546	851.24
64.8691	863.49
64.8835	816.93
64.8979	872.93
64.9124	882.03
64.9268	892.82
64.9413	876.74
64.9557	837.67
64.9701	978.91
64.9846	1087.81
64.9990	1197.60
65.0135	1177.21
65.0279	1491.10
65.0423	1667.46
65.0568	1999.78
65.0712	2641.71
65.0857	3373.29
65.1001	4467.86
65.1145	5967.75
65.1290	7862.45
65.1434	9358.05
65.1579	11049.40
65.1723	11818.05
65.1867	11332.07
65.2012	10092.74
65.2156	8477.27
65.2301	6739.88
65.2445	5340.34
65.2589	4537.62
65.2734	4230.04
65.2878	4443.01
65.3023	4876.13
65.3167	5673.81
65.3311	6485.54
65.3456	6991.61
65.3600	6891.96
65.3745	6408.92
65.3889	5449.28
65.4033	4420.72
65.4178	3550.70
65.4322	2809.01
65.4467	2118.11
65.4611	1755.61
65.4755	1496.79
65.4900	1315.33
65.5044	1150.94
65.5189	1110.79
65.5333	985.74
65.5477	960.01
65.5622	891.63
65.5766	893.54
65.5911	809.96
65.6055	816.29
65.6199	768.34
65.6344	747.17
65.6488	741.73
65.6633	724.39
65.6777	715.03
65.6921	682.69
65.7066	746.05
65.7210	731.65
65.7355	659.95
65.7499	655.51
65.7643	657.65
65.7788	687.97
65.7932	715.24
65.8077	663.89
65.8221	654.09
65.8365	626.87
65.8510	648.32
65.8654	670.86
65.8799	665.73
65.8943	675.98
65.9087	721.48
65.9232	656.28
65.9376	642.71
65.9521	634.80
65.9665	625.83
65.9809	619.92
65.9954	644.44
66.0098	667.34
66.0243	637.65
66.0387	638.87
66.0531	628.97
66.0676	640.64
66.0820	634.61
66.0965	655.74
66.1109	587.44
66.1253	602.28
66.1398	631.93
66.1542	608.25
66.1687	598.89
66.1831	632.99
66.1975	605.96
66.2120	601.66
66.2264	628.57
66.2409	638.67
66.2553	636.73
66.2697	615.05
66.2842	652.41
66.2986	620.80
66.3131	620.16
66.3275	607.02
66.3419	610.83
66.3564	645.40
66.3708	617.39
66.3853	591.91
66.3997	559.56
66.4141	584.12
66.4286	630.29
66.4430	619.33
66.4575	629.29
66.4719	609.75
66.4863	614.19
66.5008	600.70
66.5152	596.07
66.5297	636.22
66.5441	623.24
66.5585	583.54
66.5730	569.93
66.5874	593.86
66.6019	608.59
66.6163	599.43
66.6307	605.06
66.6452	615.20
66.6596	572.21
66.6741	573.91
66.6885	576.57
66.7029	624.50
66.7174	577.81
66.7318	549.69
66.7463	590.59
66.7607	566.82
66.7751	582.70
66.7896	598.59
66.8040	582.57
66.8185	597.20
66.8329	586.23
66.8473	572.45
66.8618	591.54
66.8762	608.44
66.8907	584.68
66.9051	601.18
66.9195	604.39
66.9340	596.53
66.9484	590.88
66.9629	569.82
66.9773	548.70
66.9917	564.06
67.0062	570.19
67.0206	606.09
67.0351	606.48
67.0495	574.28
67.0639	586.94
67.0784	562.25
67.0928	603.45
67.1073	567.48
67.1217	572.53
67.1361	579.68
67.1506	587.64
67.1650	586.63
67.1795	559.74
67.1939	561.14
67.2083	587.94
67.2228	593.57
67.2372	574.61
67.2517	541.86
67.2661	552.13
67.2805	563.82
67.2950	587.78
67.3094	596.43
67.3239	605.02
67.3383	597.74
67.3527	554.13
67.3672	588.75
67.3816	580.63
67.3961	552.47
67.4105	589.95
67.4250	599.60
67.4394	586.32
67.4538	571.92
67.4683	580.16
67.4827	605.04
67.4972	575.14
67.5116	554.98
67.5260	593.91
67.5405	609.21
67.5549	576.83
67.5694	572.13
67.5838	586.32
67.5982	588.31
67.6127	575.92
67.6271	573.11
67.6416	583.15
67.6560	564.62
67.6704	583.21
67.6849	568.32
67.6993	592.82
67.7138	612.39
67.7282	582.79
67.7426	584.63
67.7571	578.08
67.7715	575.45
67.7860	626.04
67.8004	593.08
67.8148	564.12
67.8293	564.45
67.8437	559.95
67.8582	584.54
67.8726	590.05
67.8870	624.52
67.9015	590.75
67.9159	577.11
67.9304	570.69
67.9448	591.97
67.9592	579.79
67.9737	571.40
67.9881	527.58
68.0026	574.28
68.0170	587.89
68.0314	581.72
68.0459	604.31
68.0603	600.25
68.0748	616.71
68.0892	614.12
68.1036	532.89
68.1181	609.97
68.1325	562.67
68.1470	517.42
68.1614	549.32
68.1758	586.62
68.1903	563.42
68.2047	578.02
68.2192	598.31
68.2336	588.45
68.2480	622.95
68.2625	568.33
68.2769	574.27
68.2914	561.14
68.3058	562.98
68.3202	570.06
68.3347	568.84
68.3491	568.54
68.3636	566.04
68.3780	541.48
68.3924	582.71
68.4069	633.84
68.4213	571.56
68.4358	571.36
68.4502	529.42
68.4646	559.56
68.4791	585.61
68.4935	588.10
68.5080	555.00
68.5224	518.80
68.5368	540.51
68.5513	521.22
68.5657	579.86
68.5802	565.19
68.5946	584.20
68.6090	607.39
68.6235	591.10
68.6379	564.56
68.6524	535.61
68.6668	529.52
68.6812	569.85
68.6957	554.59
68.7101	565.64
68.7246	568.79
68.7390	575.02
68.7534	568.40
68.7679	578.31
68.7823	584.81
68.7968	580.76
68.8112	554.37
68.8256	595.96
68.8401	591.14
68.8545	596.44
68.8690	574.81
68.8834	514.23
68.8978	535.43
68.9123	526.22
68.9267	538.68
68.9412	547.32
68.9556	610.90
68.9700	577.03
68.9845	590.39
68.9989	563.84
69.0134	581.10
69.0278	610.98
69.0422	563.22
69.0567	608.03
69.0711	565.42
69.0856	555.05
69.1000	563.20
69.1144	624.49
69.1289	579.88
69.1433	570.86
69.1578	563.58
69.1722	614.57
69.1866	554.77
69.2011	634.18
69.2155	609.85
69.2300	606.81
69.2444	617.94
69.2588	609.32
69.2733	564.00
69.2877	575.51
69.3022	564.58
69.3166	596.41
69.3310	556.52
69.3455	591.20
69.3599	606.58
69.3744	617.29
69.3888	562.15
69.4032	566.95
69.4177	582.16
69.4321	619.00
69.4466	572.79
69.4610	602.43
69.4754	536.21
69.4899	547.07
69.5043	572.10
69.5188	572.26
69.5332	630.47
69.5476	599.32
69.5621	522.63
69.5765	599.41
69.5910	594.37
69.6054	599.42
69.6198	569.39
69.6343	625.29
69.6487	586.32
69.6632	547.21
69.6776	546.94
69.6920	575.19
69.7065	613.78
69.7209	578.40
69.7354	552.92
69.7498	584.73
69.7642	595.65
69.7787	582.80
69.7931	559.56
69.8076	571.66
69.8220	596.15
69.8364	574.01
69.8509	575.50
69.8653	608.88
69.8798	600.47
69.8942	584.39
69.9086	566.87
69.9231	607.45
69.9375	568.09
69.9520	528.75
69.9664	534.32
69.9808	536.28
69.9953	613.22
70.0097	611.38
70.0242	546.57
70.0386	550.27
70.0530	585.08
70.0675	617.04
70.0819	565.71
70.0964	555.57
70.1108	531.32
70.1252	584.17
70.1397	548.44
70.1541	555.09
70.1686	572.77
70.1830	599.06
70.1974	575.00
70.2119	628.70
70.2263	595.41
70.2408	599.69
70.2552	599.13
70.2696	607.49
70.2841	516.18
70.2985	556.26
70.3130	606.28
70.3274	495.16
70.3418	565.34
70.3563	579.42
70.3707	562.78
70.3852	542.18
70.3996	568.97
70.4140	603.37
70.4285	589.38
70.4429	535.40
70.4574	587.63
70.4718	594.19
70.4862	565.28
70.5007	550.62
70.5151	599.74
70.5296	587.59
70.5440	540.58
70.5584	570.67
70.5729	581.06
70.5873	579.48
70.6018	536.06
70.6162	565.34
70.6306	572.79
70.6451	568.71
70.6595	596.34
70.6740	620.12
70.6884	541.03
70.7028	578.72
70.7173	564.74
70.7317	522.88
70.7462	567.25
70.7606	598.00
70.7750	580.21
70.7895	562.26
70.8039	596.26
70.8184	595.53
70.8328	612.18
70.8472	562.18
70.8617	559.66
70.8761	568.12
70.8906	617.95
70.9050	604.00
70.9194	570.58
70.9339	536.84
70.9483	613.65
70.9628	595.61
70.9772	542.11
70.9916	568.70
71.0061	556.80
71.0205	611.59
71.0350	581.27
71.0494	516.33
71.0638	520.36
71.0783	562.88
71.0927	548.64
71.1072	557.92
71.1216	568.62
71.1361	605.45
71.1505	585.68
71.1649	612.53
71.1794	607.42
71.1938	609.10
71.2083	638.89
71.2227	572.49
71.2371	609.24
71.2516	643.14
71.2660	570.05
71.2805	523.59
71.2949	582.21
71.3093	633.04
71.3238	597.24
71.3382	596.98
71.3527	572.45
71.3671	590.87
71.3815	569.42
71.3960	554.11
71.4104	532.40
71.4249	533.06
71.4393	585.61
71.4537	615.98
71.4682	555.22
71.4826	521.57
71.4971	536.73
71.5115	534.74
71.5259	540.19
71.5404	550.93
71.5548	579.96
71.5693	561.63
71.5837	577.75
71.5981	602.18
71.6126	569.07
71.6270	563.83
71.6415	572.01
71.6559	566.22
71.6703	617.58
71.6848	647.57
71.6992	646.51
71.7137	625.79
71.7281	594.13
71.7425	564.09
71.7570	655.26
71.7714	639.98
71.7859	612.19
71.8003	601.95
71.8147	627.31
71.8292	627.62
71.8436	551.35
71.8581	554.25
71.8725	591.01
71.8869	605.75
71.9014	604.58
71.9158	598.10
71.9303	588.11
71.9447	567.62
71.9591	552.87
71.9736	571.12
71.9880	596.43
72.0025	574.26
72.0169	562.76
72.0313	554.60
72.0458	554.45
72.0602	642.00
72.0747	661.15
72.0891	653.05
72.1035	683.75
72.1180	602.68
72.1324	589.00
72.1469	543.59
72.1613	568.42
72.1757	618.46
72.1902	628.11
72.2046	560.24
72.2191	551.61
72.2335	561.16
72.2479	574.20
72.2624	538.20
72.2768	561.04
72.2913	574.30
72.3057	571.47
72.3201	586.88
72.3346	551.08
72.3490	564.94
72.3635	560.91
72.3779	526.42
72.3923	529.67
72.4068	525.88
72.4212	553.98
72.4357	607.00
72.4501	521.23
72.4645	563.02
72.4790	578.04
72.4934	561.69
72.5079	592.35
72.5223	566.58
72.5367	571.22
72.5512	648.98
72.5656	612.06
72.5801	497.62
72.5945	499.80
72.6089	534.48
72.6234	516.68
72.6378	538.25
72.6523	516.16
72.6667	526.19
72.6811	571.50
72.6956	562.51
72.7100	550.66
72.7245	549.03
72.7389	640.34
72.7533	655.76
72.7678	565.93
72.7822	524.90
72.7967	523.26
72.8111	650.47
72.8255	680.53
72.8400	581.86
72.8544	476.04
72.8689	533.92
72.8833	595.00