2022.09.19 19:37:17
Îáðàçåö: ß÷åéêà LCoV 16-09-2022
Lambda1 = 1.54060
Lambda2 = 1.54439
Lambdam = 1.54186
R = 0.497
2Theta	I

line¹ 0 ;repeat¹ 0
22.1120	505.21
22.1264	678.61
22.1409	637.41
22.1553	544.72
22.1697	622.20
22.1842	648.37
22.1986	570.12
22.2131	565.12
22.2275	617.26
22.2419	565.88
22.2564	539.05
22.2708	540.98
22.2853	525.56
22.2997	473.97
22.3141	575.09
22.3286	567.40
22.3430	560.18
22.3575	576.57
22.3719	523.73
22.3863	520.61
22.4008	467.36
22.4152	525.32
22.4297	648.31
22.4441	583.91
22.4585	595.41
22.4730	596.19
22.4874	575.09
22.5019	549.11
22.5163	523.13
22.5307	625.45
22.5452	563.93
22.5596	589.97
22.5741	603.20
22.5885	582.99
22.6029	619.59
22.6174	595.69
22.6318	537.57
22.6463	521.55
22.6607	527.40
22.6751	594.84
22.6896	563.35
22.7040	574.74
22.7185	595.95
22.7329	468.72
22.7473	586.41
22.7618	547.13
22.7762	533.29
22.7907	674.19
22.8051	634.91
22.8195	566.63
22.8340	576.28
22.8484	549.48
22.8629	629.93
22.8773	651.03
22.8917	533.39
22.9062	539.15
22.9206	580.81
22.9351	596.78
22.9495	526.36
22.9639	518.53
22.9784	597.18
22.9928	489.19
23.0073	493.15
23.0217	630.80
23.0361	523.15
23.0506	557.21
23.0650	577.88
23.0795	503.41
23.0939	559.26
23.1083	502.49
23.1228	497.23
23.1372	587.52
23.1517	520.98
23.1661	579.33
23.1806	602.87
23.1950	528.20
23.2094	604.43
23.2239	583.72
23.2383	547.23
23.2528	545.24
23.2672	537.73
23.2816	578.85
23.2961	560.29
23.3105	544.58
23.3250	445.56
23.3394	536.96
23.3538	552.26
23.3683	532.43
23.3827	520.93
23.3972	522.41
23.4116	528.08
23.4260	538.44
23.4405	544.17
23.4549	510.96
23.4694	551.15
23.4838	558.11
23.4982	520.80
23.5127	547.94
23.5271	584.91
23.5416	494.81
23.5560	533.60
23.5704	538.99
23.5849	565.19
23.5993	563.75
23.6138	541.83
23.6282	538.34
23.6426	544.28
23.6571	551.05
23.6715	513.78
23.6860	577.88
23.7004	497.74
23.7148	532.39
23.7293	583.64
23.7437	515.09
23.7582	584.18
23.7726	636.48
23.7870	544.72
23.8015	501.23
23.8159	519.67
23.8304	587.27
23.8448	530.63
23.8592	510.56
23.8737	505.63
23.8881	556.90
23.9026	559.25
23.9170	558.81
23.9314	480.23
23.9459	516.85
23.9603	502.10
23.9748	570.67
23.9892	525.26
24.0036	540.63
24.0181	542.53
24.0325	525.57
24.0470	649.71
24.0614	512.84
24.0758	521.12
24.0903	548.14
24.1047	564.45
24.1192	530.52
24.1336	554.22
24.1480	554.66
24.1625	606.88
24.1769	598.84
24.1914	533.25
24.2058	570.46
24.2202	593.13
24.2347	645.43
24.2491	583.62
24.2636	522.09
24.2780	562.22
24.2924	573.67
24.3069	605.64
24.3213	538.08
24.3358	559.11
24.3502	549.11
24.3646	524.20
24.3791	505.18
24.3935	560.04
24.4080	542.01
24.4224	575.06
24.4368	604.14
24.4513	578.23
24.4657	493.51
24.4802	540.25
24.4946	530.04
24.5090	595.39
24.5235	570.62
24.5379	584.60
24.5524	561.60
24.5668	541.86
24.5812	579.98
24.5957	550.67
24.6101	563.00
24.6246	618.73
24.6390	595.38
24.6534	620.26
24.6679	560.10
24.6823	532.80
24.6968	554.76
24.7112	546.92
24.7256	535.42
24.7401	550.28
24.7545	504.78
24.7690	527.25
24.7834	576.34
24.7978	527.03
24.8123	545.55
24.8267	591.57
24.8412	572.66
24.8556	489.82
24.8700	489.65
24.8845	507.46
24.8989	524.89
24.9134	562.62
24.9278	545.04
24.9422	515.83
24.9567	545.02
24.9711	572.18
24.9856	567.14
25.0000	526.33
25.0144	492.20
25.0289	547.86
25.0433	569.57
25.0578	566.76
25.0722	538.43
25.0866	603.01
25.1011	531.99
25.1155	567.50
25.1300	531.98
25.1444	473.09
25.1588	526.34
25.1733	540.22
25.1877	554.94
25.2022	525.92
25.2166	534.45
25.2310	555.59
25.2455	554.15
25.2599	527.87
25.2744	545.44
25.2888	519.83
25.3032	531.21
25.3177	561.21
25.3321	538.35
25.3466	556.33
25.3610	543.23
25.3754	569.72
25.3899	507.17
25.4043	524.15
25.4188	581.33
25.4332	564.73
25.4476	528.57
25.4621	487.28
25.4765	515.41
25.4910	531.94
25.5054	527.85
25.5198	542.04
25.5343	544.73
25.5487	521.25
25.5632	512.79
25.5776	558.05
25.5920	553.11
25.6065	556.12
25.6209	487.24
25.6354	518.54
25.6498	554.64
25.6642	552.10
25.6787	543.48
25.6931	538.48
25.7076	554.73
25.7220	562.57
25.7364	526.14
25.7509	557.08
25.7653	553.77
25.7798	536.60
25.7942	516.78
25.8086	543.26
25.8231	548.40
25.8375	503.41
25.8520	513.90
25.8664	565.28
25.8808	565.21
25.8953	547.22
25.9097	539.22
25.9242	533.63
25.9386	542.83
25.9530	519.03
25.9675	551.30
25.9819	540.65
25.9964	530.47
26.0108	531.17
26.0252	517.83
26.0397	568.06
26.0541	581.38
26.0686	549.79
26.0830	541.02
26.0974	544.43
26.1119	540.13
26.1263	514.74
26.1408	533.69
26.1552	541.90
26.1696	547.16
26.1841	525.47
26.1985	505.67
26.2130	553.72
26.2274	565.48
26.2418	518.94
26.2563	550.12
26.2707	504.88
26.2852	524.97
26.2996	542.22
26.3140	536.73
26.3285	523.55
26.3429	531.02
26.3574	517.21
26.3718	498.27
26.3862	558.46
26.4007	561.95
26.4151	508.79
26.4296	490.79
26.4440	491.32
26.4584	524.71
26.4729	589.85
26.4873	572.04
26.5018	558.63
26.5162	531.10
26.5306	545.58
26.5451	543.31
26.5595	543.62
26.5740	565.54
26.5884	552.04
26.6028	571.12
26.6173	553.94
26.6317	552.68
26.6462	531.49
26.6606	522.73
26.6750	509.03
26.6895	544.04
26.7039	582.11
26.7184	550.11
26.7328	512.38
26.7472	511.49
26.7617	565.80
26.7761	532.23
26.7906	519.23
26.8050	515.84
26.8194	522.47
26.8339	519.85
26.8483	541.85
26.8628	527.83
26.8772	536.75
26.8917	550.93
26.9061	529.90
26.9205	496.78
26.9350	542.46
26.9494	552.05
26.9639	532.48
26.9783	513.25
26.9927	501.52
27.0072	510.61
27.0216	506.40
27.0361	504.19
27.0505	508.81
27.0649	534.32
27.0794	568.50
27.0938	549.09
27.1083	514.33
27.1227	566.15
27.1371	550.45
27.1516	481.50
27.1660	517.28
27.1805	501.42
27.1949	525.51
27.2093	513.50
27.2238	520.19
27.2382	512.12
27.2527	517.77
27.2671	514.89
27.2815	526.01
27.2960	470.25
27.3104	493.06
27.3249	516.30
27.3393	538.41
27.3537	532.27
27.3682	497.03
27.3826	513.97
27.3971	517.31
27.4115	500.63
27.4259	511.05
27.4404	519.07
27.4548	521.22
27.4693	543.79
27.4837	533.44
27.4981	532.53
27.5126	523.90
27.5270	543.75
27.5415	507.71
27.5559	515.15
27.5703	479.02
27.5848	516.44
27.5992	499.35
27.6137	525.28
27.6281	532.47
27.6425	516.51
27.6570	533.06
27.6714	502.84
27.6859	483.25
27.7003	516.61
27.7147	516.44
27.7292	502.66
27.7436	516.40
27.7581	501.45
27.7725	477.50
27.7869	533.49
27.8014	516.91
27.8158	540.59
27.8303	512.65
27.8447	506.95
27.8591	545.05
27.8736	548.53
27.8880	528.58
27.9025	517.53
27.9169	502.75
27.9313	524.67
27.9458	507.70
27.9602	505.70
27.9747	566.66
27.9891	530.53
28.0035	485.96
28.0180	500.20
28.0324	506.19
28.0469	510.60
28.0613	522.54
28.0757	523.36
28.0902	513.86
28.1046	514.14
28.1191	511.15
28.1335	521.86
28.1479	500.45
28.1624	516.84
28.1768	560.37
28.1913	505.86
28.2057	511.24
28.2201	526.58
28.2346	488.98
28.2490	515.60
28.2635	527.00
28.2779	506.11
28.2923	513.35
28.3068	536.55
28.3212	525.54
28.3357	522.60
28.3501	511.62
28.3645	541.14
28.3790	486.41
28.3934	523.63
28.4079	545.38
28.4223	544.19
28.4367	515.24
28.4512	524.80
28.4656	509.66
28.4801	519.53
28.4945	536.14
28.5089	536.89
28.5234	516.25
28.5378	497.19
28.5523	534.71
28.5667	527.45
28.5811	512.58
28.5956	492.22
28.6100	496.11
28.6245	493.82
28.6389	538.13
28.6533	520.20
28.6678	515.03
28.6822	529.19
28.6967	511.14
28.7111	545.25
28.7255	514.49
28.7400	519.45
28.7544	516.13
28.7689	478.41
28.7833	527.02
28.7977	498.67
28.8122	493.64
28.8266	513.65
28.8411	531.20
28.8555	526.60
28.8699	528.97
28.8844	501.13
28.8988	512.23
28.9133	544.08
28.9277	519.64
28.9421	524.53
28.9566	469.78
28.9710	468.94
28.9855	500.62
28.9999	520.34
29.0143	541.85
29.0288	505.79
29.0432	492.76
29.0577	507.19
29.0721	508.35
29.0865	519.76
29.1010	501.41
29.1154	565.23
29.1299	520.08
29.1443	490.70
29.1587	517.86
29.1732	517.54
29.1876	502.52
29.2021	520.32
29.2165	512.50
29.2309	511.84
29.2454	490.60
29.2598	513.66
29.2743	505.79
29.2887	502.84
29.3031	495.92
29.3176	524.47
29.3320	505.26
29.3465	485.77
29.3609	484.17
29.3753	487.54
29.3898	480.87
29.4042	483.94
29.4187	549.61
29.4331	523.35
29.4475	505.06
29.4620	500.08
29.4764	474.11
29.4909	495.06
29.5053	509.68
29.5197	482.84
29.5342	507.48
29.5486	514.37
29.5631	513.16
29.5775	515.89
29.5919	498.03
29.6064	540.56
29.6208	533.76
29.6353	531.07
29.6497	543.97
29.6641	504.72
29.6786	507.70
29.6930	518.19
29.7075	505.97
29.7219	468.59
29.7363	483.72
29.7508	505.89
29.7652	493.34
29.7797	478.40
29.7941	494.18
29.8085	499.21
29.8230	500.36
29.8374	529.07
29.8519	493.85
29.8663	539.74
29.8807	532.75
29.8952	502.73
29.9096	503.91
29.9241	484.16
29.9385	518.33
29.9529	512.44
29.9674	517.29
29.9818	462.42
29.9963	474.47
30.0107	498.20
30.0251	558.11
30.0396	498.25
30.0540	472.64
30.0685	503.25
30.0829	522.01
30.0973	551.28
30.1118	517.38
30.1262	519.30
30.1407	503.30
30.1551	501.80
30.1695	494.85
30.1840	492.35
30.1984	481.45
30.2129	483.29
30.2273	499.45
30.2417	497.95
30.2562	492.29
30.2706	532.42
30.2851	516.73
30.2995	479.55
30.3139	477.69
30.3284	459.84
30.3428	508.37
30.3573	532.94
30.3717	508.05
30.3861	479.47
30.4006	480.69
30.4150	512.09
30.4295	509.74
30.4439	513.13
30.4583	536.69
30.4728	564.82
30.4872	497.57
30.5017	500.02
30.5161	517.85
30.5305	531.35
30.5450	504.68
30.5594	490.26
30.5739	511.85
30.5883	523.23
30.6028	540.41
30.6172	524.25
30.6316	531.11
30.6461	533.01
30.6605	555.73
30.6750	530.02
30.6894	530.75
30.7038	600.57
30.7183	582.34
30.7327	577.21
30.7472	595.75
30.7616	626.34
30.7760	644.92
30.7905	619.33
30.8049	652.72
30.8194	664.84
30.8338	664.75
30.8482	654.25
30.8627	671.54
30.8771	657.92
30.8916	653.79
30.9060	695.66
30.9204	657.01
30.9349	590.71
30.9493	624.18
30.9638	583.85
30.9782	551.93
30.9926	563.41
31.0071	558.05
31.0215	588.77
31.0360	551.62
31.0504	574.82
31.0648	569.92
31.0793	507.27
31.0937	532.84
31.1082	548.54
31.1226	537.22
31.1370	536.23
31.1515	486.77
31.1659	537.65
31.1804	536.42
31.1948	542.15
31.2092	522.79
31.2237	509.22
31.2381	556.13
31.2526	532.66
31.2670	544.86
31.2814	523.25
31.2959	527.79
31.3103	547.22
31.3248	567.26
31.3392	541.90
31.3536	556.49
31.3681	521.95
31.3825	514.45
31.3970	514.26
31.4114	498.34
31.4258	516.13
31.4403	520.18
31.4547	513.75
31.4692	521.12
31.4836	532.71
31.4980	522.47
31.5125	526.43
31.5269	548.38
31.5414	524.95
31.5558	512.74
31.5702	491.37
31.5847	518.27
31.5991	510.32
31.6136	496.61
31.6280	536.96
31.6424	550.27
31.6569	527.57
31.6713	503.80
31.6858	491.15
31.7002	517.25
31.7146	519.25
31.7291	499.26
31.7435	492.34
31.7580	519.40
31.7724	518.32
31.7868	513.49
31.8013	484.08
31.8157	517.00
31.8302	504.16
31.8446	489.98
31.8590	524.40
31.8735	519.15
31.8879	538.95
31.9024	503.74
31.9168	500.79
31.9312	527.89
31.9457	527.36
31.9601	511.70
31.9746	500.51
31.9890	485.54
32.0034	491.31
32.0179	502.72
32.0323	469.69
32.0468	485.87
32.0612	506.55
32.0756	544.55
32.0901	535.23
32.1045	497.51
32.1190	496.72
32.1334	501.63
32.1478	502.96
32.1623	516.73
32.1767	506.93
32.1912	557.35
32.2056	487.66
32.2200	494.49
32.2345	508.46
32.2489	493.05
32.2634	528.03
32.2778	555.35
32.2922	498.45
32.3067	498.87
32.3211	492.05
32.3356	509.54
32.3500	539.13
32.3644	521.40
32.3789	518.10
32.3933	491.16
32.4078	502.57
32.4222	515.24
32.4366	526.58
32.4511	502.29
32.4655	526.12
32.4800	540.67
32.4944	517.34
32.5088	517.51
32.5233	483.90
32.5377	520.69
32.5522	496.62
32.5666	518.64
32.5810	486.22
32.5955	484.83
32.6099	527.84
32.6244	473.04
32.6388	515.40
32.6532	520.67
32.6677	497.23
32.6821	493.10
32.6966	519.12
32.7110	520.85
32.7254	493.40
32.7399	527.27
32.7543	543.70
32.7688	525.25
32.7832	502.38
32.7976	493.56
32.8121	473.11
32.8265	520.98
32.8410	519.29
32.8554	512.64
32.8698	530.90
32.8843	487.92
32.8987	513.59
32.9132	511.48
32.9276	480.32
32.9420	519.67
32.9565	498.69
32.9709	508.54
32.9854	520.48
32.9998	511.49
33.0142	481.27
33.0287	469.00
33.0431	494.14
33.0576	516.31
33.0720	478.56
33.0864	530.03
33.1009	544.76
33.1153	520.22
33.1298	490.87
33.1442	471.38
33.1586	516.01
33.1731	529.04
33.1875	534.42
33.2020	487.53
33.2164	468.96
33.2308	505.32
33.2453	511.65
33.2597	510.64
33.2742	496.29
33.2886	534.34
33.3030	476.46
33.3175	500.43
33.3319	521.58
33.3464	499.37
33.3608	505.18
33.3752	498.74
33.3897	517.91
33.4041	521.65
33.4186	514.81
33.4330	512.29
33.4474	498.75
33.4619	523.25
33.4763	536.00
33.4908	531.21
33.5052	461.22
33.5196	525.17
33.5341	502.24
33.5485	506.06
33.5630	488.16
33.5774	512.27
33.5918	537.33
33.6063	527.02
33.6207	503.67
33.6352	511.62
33.6496	508.11
33.6640	503.51
33.6785	491.30
33.6929	489.06
33.7074	535.15
33.7218	511.34
33.7362	474.87
33.7507	484.31
33.7651	496.12
33.7796	496.05
33.7940	489.24
33.8084	544.81
33.8229	489.69
33.8373	495.44
33.8518	478.76
33.8662	521.79
33.8806	481.13
33.8951	509.85
33.9095	506.36
33.9240	508.95
33.9384	501.29
33.9528	460.39
33.9673	481.30
33.9817	494.54
33.9962	480.76
34.0106	506.44
34.0250	507.44
34.0395	533.59
34.0539	503.55
34.0684	527.88
34.0828	541.44
34.0972	507.34
34.1117	509.45
34.1261	484.63
34.1406	498.52
34.1550	496.49
34.1694	516.14
34.1839	499.57
34.1983	489.16
34.2128	522.25
34.2272	526.68
34.2417	503.23
34.2561	501.30
34.2705	525.57
34.2850	507.12
34.2994	525.25
34.3139	519.02
34.3283	505.89
34.3427	534.50
34.3572	510.57
34.3716	517.94
34.3861	514.15
34.4005	514.69
34.4149	526.38
34.4294	523.96
34.4438	495.88
34.4583	486.78
34.4727	508.49
34.4871	516.95
34.5016	492.78
34.5160	490.40
34.5305	504.65
34.5449	500.22
34.5593	499.60
34.5738	477.30
34.5882	506.51
34.6027	485.51
34.6171	532.63
34.6315	496.73
34.6460	511.72
34.6604	540.23
34.6749	539.67
34.6893	507.37
34.7037	525.25
34.7182	526.79
34.7326	499.59
34.7471	484.45
34.7615	472.72
34.7759	529.74
34.7904	510.11
34.8048	516.26
34.8193	525.18
34.8337	498.86
34.8481	489.34
34.8626	517.18
34.8770	507.70
34.8915	480.87
34.9059	555.76
34.9203	504.97
34.9348	477.43
34.9492	494.81
34.9637	512.88
34.9781	476.02
34.9925	491.66
35.0070	494.40
35.0214	486.65
35.0359	519.21
35.0503	516.97
35.0647	519.46
35.0792	516.49
35.0936	528.22
35.1081	490.70
35.1225	504.47
35.1369	492.51
35.1514	506.19
35.1658	508.17
35.1803	519.97
35.1947	463.21
35.2091	505.73
35.2236	496.10
35.2380	533.96
35.2525	522.97
35.2669	489.05
35.2813	494.68
35.2958	516.11
35.3102	567.45
35.3247	515.94
35.3391	513.27
35.3535	481.53
35.3680	494.48
35.3824	476.75
35.3969	515.18
35.4113	505.98
35.4257	517.92
35.4402	492.37
35.4546	524.21
35.4691	550.74
35.4835	538.90
35.4979	538.78
35.5124	518.34
35.5268	570.57
35.5413	590.74
35.5557	587.50
35.5701	562.85
35.5846	531.93
35.5990	529.88
35.6135	495.76
35.6279	495.84
35.6423	540.61
35.6568	548.00
35.6712	538.30
35.6857	588.94
35.7001	671.47
35.7145	690.75
35.7290	666.11
35.7434	596.35
35.7579	558.30
35.7723	569.64
35.7867	610.95
35.8012	672.98
35.8156	677.95
35.8301	649.19
35.8445	617.02
35.8589	628.57
35.8734	738.24
35.8878	872.97
35.9023	942.18
35.9167	1005.36
35.9311	1275.98
35.9456	2032.27
35.9600	2353.36
35.9745	1905.57
35.9889	2007.86
36.0033	2783.21
36.0178	3120.96
36.0322	2372.92
36.0467	1922.03
36.0611	1769.30
36.0755	1715.73
36.0900	1633.86
36.1044	1375.64
36.1189	1470.14
36.1333	1314.54
36.1477	1145.24
36.1622	1130.93
36.1766	1129.66
36.1911	988.50
36.2055	928.12
36.2199	927.69
36.2344	898.56
36.2488	904.04
36.2633	896.73
36.2777	936.18
36.2921	936.81
36.3066	970.07
36.3210	998.68
36.3355	994.42
36.3499	942.66
36.3643	885.20
36.3788	845.69
36.3932	793.08
36.4077	751.35
36.4221	746.08
36.4365	739.59
36.4510	750.31
36.4654	692.17
36.4799	650.74
36.4943	621.72
36.5087	615.45
36.5232	618.73
36.5376	623.52
36.5521	571.70
36.5665	601.91
36.5809	573.09
36.5954	585.15
36.6098	587.70
36.6243	563.51
36.6387	541.21
36.6531	531.42
36.6676	533.50
36.6820	538.93
36.6965	521.38
36.7109	560.36
36.7253	546.28
36.7398	533.39
36.7542	507.55
36.7687	541.44
36.7831	510.82
36.7975	571.69
36.8120	604.45
36.8264	585.28
36.8409	608.62
36.8553	576.69
36.8697	576.45
36.8842	600.10
36.8986	622.25
36.9131	557.96
36.9275	545.42
36.9419	631.26
36.9564	594.79
36.9708	580.91
36.9853	564.26
36.9997	583.38
37.0141	544.42
37.0286	536.01
37.0430	520.67
37.0575	537.80
37.0719	553.66
37.0863	527.27
37.1008	513.96
37.1152	530.99
37.1297	512.49
37.1441	515.49
37.1585	557.30
37.1730	534.38
37.1874	524.00
37.2019	521.66
37.2163	512.98
37.2307	511.71
37.2452	480.11
37.2596	505.87
37.2741	526.20
37.2885	541.35
37.3029	490.07
37.3174	458.37
37.3318	550.21
37.3463	519.68
37.3607	532.08
37.3751	514.31
37.3896	499.77
37.4040	505.30
37.4185	508.10
37.4329	536.52
37.4473	514.14
37.4618	512.67
37.4762	546.30
37.4907	515.24
37.5051	503.52
37.5195	493.83
37.5340	506.51
37.5484	519.70
37.5629	509.06
37.5773	504.63
37.5917	512.00
37.6062	515.72
37.6206	513.55
37.6351	468.05
37.6495	495.45
37.6639	499.68
37.6784	492.41
37.6928	482.38
37.7073	529.02
37.7217	479.74
37.7361	459.95
37.7506	495.84
37.7650	513.99
37.7795	510.68
37.7939	506.13
37.8083	492.14
37.8228	493.58
37.8372	500.60
37.8517	477.00
37.8661	523.13
37.8805	487.74
37.8950	531.77
37.9094	558.94
37.9239	477.00
37.9383	493.76
37.9528	525.25
37.9672	522.00
37.9816	504.99
37.9961	506.58
38.0105	507.30
38.0250	508.45
38.0394	516.90
38.0538	502.48
38.0683	532.57
38.0827	527.27
38.0972	529.65
38.1116	540.87
38.1260	494.71
38.1405	481.81
38.1549	508.82
38.1694	531.90
38.1838	507.43
38.1982	502.48
38.2127	463.03
38.2271	489.98
38.2416	517.68
38.2560	487.48
38.2704	500.88
38.2849	534.91
38.2993	490.56
38.3138	522.20
38.3282	537.38
38.3426	507.35
38.3571	517.36
38.3715	496.38
38.3860	539.43
38.4004	496.97
38.4148	542.82
38.4293	583.83
38.4437	556.74
38.4582	613.62
38.4726	646.00
38.4870	698.34
38.5015	737.80
38.5159	772.65
38.5304	824.48
38.5448	815.17
38.5592	780.88
38.5737	794.25
38.5881	749.62
38.6026	729.34
38.6170	698.06
38.6314	663.51
38.6459	640.54
38.6603	652.82
38.6748	586.54
38.6892	559.57
38.7036	550.51
38.7181	541.24
38.7325	533.33
38.7470	524.07
38.7614	523.31
38.7758	498.23
38.7903	511.90
38.8047	503.95
38.8192	536.79
38.8336	482.13
38.8480	518.23
38.8625	504.07
38.8769	524.03
38.8914	495.52
38.9058	512.54
38.9202	482.39
38.9347	489.63
38.9491	513.42
38.9636	487.88
38.9780	479.94
38.9924	506.60
39.0069	502.36
39.0213	515.06
39.0358	510.95
39.0502	508.45
39.0646	531.28
39.0791	555.62
39.0935	533.05
39.1080	507.89
39.1224	505.17
39.1368	491.45
39.1513	462.17
39.1657	495.44
39.1802	519.00
39.1946	515.85
39.2090	500.76
39.2235	491.81
39.2379	519.80
39.2524	501.96
39.2668	517.21
39.2812	552.14
39.2957	530.44
39.3101	547.10
39.3246	562.78
39.3390	506.34
39.3534	501.17
39.3679	518.66
39.3823	483.09
39.3968	502.37
39.4112	497.44
39.4256	553.01
39.4401	518.26
39.4545	500.40
39.4690	505.97
39.4834	525.65
39.4978	511.76
39.5123	505.69
39.5267	513.66
39.5412	532.38
39.5556	494.07
39.5700	476.08
39.5845	482.98
39.5989	483.60
39.6134	508.74
39.6278	481.79
39.6422	487.91
39.6567	514.71
39.6711	501.99
39.6856	500.62
39.7000	498.88
39.7144	514.59
39.7289	518.95
39.7433	497.82
39.7578	507.88
39.7722	520.61
39.7866	529.48
39.8011	477.16
39.8155	489.92
39.8300	517.79
39.8444	474.44
39.8588	510.91
39.8733	492.55
39.8877	465.68
39.9022	484.26
39.9166	487.53
39.9310	485.32
39.9455	509.90
39.9599	514.09
39.9744	500.06
39.9888	521.82
40.0032	508.65
40.0177	479.63
40.0321	482.15
40.0466	484.15
40.0610	505.69
40.0754	479.75
40.0899	493.01
40.1043	487.67
40.1188	510.36
40.1332	491.63
40.1476	471.26
40.1621	503.64
40.1765	532.02
40.1910	492.55
40.2054	466.54
40.2198	483.00
40.2343	479.92
40.2487	521.29
40.2632	508.06
40.2776	525.80
40.2920	476.70
40.3065	505.15
40.3209	501.29
40.3354	470.73
40.3498	466.40
40.3642	499.99
40.3787	496.63
40.3931	457.18
40.4076	503.12
40.4220	486.57
40.4364	482.70
40.4509	464.45
40.4653	504.89
40.4798	473.14
40.4942	509.93
40.5086	497.75
40.5231	491.58
40.5375	527.12
40.5520	514.97
40.5664	507.67
40.5808	481.42
40.5953	519.51
40.6097	502.57
40.6242	476.44
40.6386	509.65
40.6530	518.75
40.6675	491.35
40.6819	510.53
40.6964	486.43
40.7108	517.01
40.7252	472.36
40.7397	490.76
40.7541	498.61
40.7686	504.00
40.7830	525.66
40.7974	519.87
40.8119	479.54
40.8263	485.99
40.8408	514.87
40.8552	505.23
40.8696	497.93
40.8841	488.84
40.8985	517.67
40.9130	479.89
40.9274	524.93
40.9418	566.27
40.9563	525.20
40.9707	484.76
40.9852	514.91
40.9996	516.32
41.0140	463.59
41.0285	479.77
41.0429	476.22
41.0574	515.91
41.0718	476.45
41.0862	467.86
41.1007	497.26
41.1151	469.68
41.1296	490.89
41.1440	488.83
41.1584	539.17
41.1729	516.07
41.1873	498.22
41.2018	483.33
41.2162	494.97
41.2306	491.46
41.2451	499.59
41.2595	493.32
41.2740	496.99
41.2884	515.49
41.3028	501.07
41.3173	536.99
41.3317	511.30
41.3462	513.30
41.3606	515.92
41.3750	512.34
41.3895	472.33
41.4039	503.32
41.4184	491.30
41.4328	485.79
41.4472	512.09
41.4617	486.96
41.4761	520.48
41.4906	495.61
41.5050	489.28
41.5194	482.16
41.5339	521.10
41.5483	513.28
41.5628	500.82
41.5772	509.14
41.5916	499.61
41.6061	507.15
41.6205	505.53
41.6350	490.16
41.6494	529.30
41.6639	495.07
41.6783	445.64
41.6927	512.58
41.7072	495.00
41.7216	499.95
41.7361	489.97
41.7505	516.24
41.7649	478.60
41.7794	508.68
41.7938	486.64
41.8083	502.65
41.8227	516.11
41.8371	522.19
41.8516	469.81
41.8660	534.74
41.8805	540.93
41.8949	537.74
41.9093	561.80
41.9238	534.39
41.9382	562.29
41.9527	589.06
41.9671	568.49
41.9815	576.41
41.9960	579.62
42.0104	568.05
42.0249	565.27
42.0393	541.35
42.0537	596.95
42.0682	605.87
42.0826	607.46
42.0971	579.74
42.1115	578.42
42.1259	587.81
42.1404	593.48
42.1548	599.82
42.1693	648.68
42.1837	711.75
42.1981	760.78
42.2126	814.88
42.2270	923.78
42.2415	1076.42
42.2559	1205.90
42.2703	1390.37
42.2848	1527.83
42.2992	1588.80
42.3137	1695.87
42.3281	1712.00
42.3425	1570.69
42.3570	1507.06
42.3714	1408.72
42.3859	1370.17
42.4003	1360.91
42.4147	1342.80
42.4292	1358.03
42.4436	1205.41
42.4581	1061.12
42.4725	980.89
42.4869	883.07
42.5014	777.86
42.5158	746.84
42.5303	697.41
42.5447	621.14
42.5591	600.89
42.5736	603.96
42.5880	579.18
42.6025	577.11
42.6169	567.52
42.6313	568.02
42.6458	573.34
42.6602	568.50
42.6747	522.07
42.6891	501.41
42.7035	542.40
42.7180	529.58
42.7324	508.06
42.7469	510.39
42.7613	508.00
42.7757	522.19
42.7902	489.67
42.8046	501.48
42.8191	537.15
42.8335	503.01
42.8479	507.30
42.8624	554.71
42.8768	518.22
42.8913	539.43
42.9057	502.49
42.9201	487.54
42.9346	534.94
42.9490	524.49
42.9635	477.99
42.9779	481.61
42.9923	542.02
43.0068	543.08
43.0212	519.51
43.0357	464.84
43.0501	489.93
43.0645	521.16
43.0790	525.38
43.0934	521.16
43.1079	510.97
43.1223	538.23
43.1367	508.37
43.1512	493.84
43.1656	545.49
43.1801	546.79
43.1945	545.89
43.2089	545.51
43.2234	527.35
43.2378	532.11
43.2523	535.18
43.2667	532.57
43.2811	510.85
43.2956	504.62
43.3100	566.99
43.3245	559.11
43.3389	534.41
43.3533	528.67
43.3678	523.41
43.3822	494.36
43.3967	511.07
43.4111	534.90
43.4255	560.26
43.4400	530.40
43.4544	483.19
43.4689	512.33
43.4833	529.97
43.4977	489.93
43.5122	508.46
43.5266	558.20
43.5411	516.43
43.5555	529.79
43.5699	533.66
43.5844	507.37
43.5988	543.83
43.6133	523.16
43.6277	499.56
43.6421	524.58
43.6566	518.63
43.6710	474.37
43.6855	535.60
43.6999	554.74
43.7143	526.38
43.7288	504.29
43.7432	502.38
43.7577	513.30
43.7721	514.63
43.7865	525.11
43.8010	531.93
43.8154	542.14
43.8299	523.78
43.8443	516.62
43.8587	515.69
43.8732	493.69
43.8876	508.56
43.9021	510.94
43.9165	506.46
43.9309	520.31
43.9454	523.39
43.9598	560.45
43.9743	502.72
43.9887	527.06
44.0031	564.35
44.0176	552.54
44.0320	542.28
44.0465	584.40
44.0609	596.05
44.0753	604.64
44.0898	585.36
44.1042	618.02
44.1187	637.87
44.1331	594.02
44.1475	565.26
44.1620	574.18
44.1764	579.55
44.1909	610.75
44.2053	624.30
44.2197	610.44
44.2342	563.90
44.2486	590.77
44.2631	542.06
44.2775	561.44
44.2919	557.46
44.3064	558.50
44.3208	574.09
44.3353	573.21
44.3497	572.60
44.3641	557.30
44.3786	525.35
44.3930	534.83
44.4075	516.47
44.4219	572.51
44.4363	565.87
44.4508	593.88
44.4652	549.32
44.4797	582.90
44.4941	551.39
44.5085	546.73
44.5230	584.07
44.5374	609.99
44.5519	595.98
44.5663	577.73
44.5807	554.13
44.5952	578.58
44.6096	605.81
44.6241	588.67
44.6385	584.31
44.6529	597.96
44.6674	567.89
44.6818	609.63
44.6963	610.38
44.7107	654.21
44.7251	706.66
44.7396	755.25
44.7540	797.69
44.7685	826.15
44.7829	903.84
44.7973	900.05
44.8118	869.28
44.8262	835.38
44.8407	728.60
44.8551	722.86
44.8695	731.45
44.8840	745.66
44.8984	775.91
44.9129	755.45
44.9273	680.26
44.9417	684.30
44.9562	584.50
44.9706	585.97
44.9851	618.62
44.9995	565.68
45.0139	566.16
45.0284	517.68
45.0428	529.30
45.0573	546.87
45.0717	507.75
45.0861	544.01
45.1006	521.70
45.1150	534.21
45.1295	538.53
45.1439	520.73
45.1583	532.87
45.1728	546.13
45.1872	515.95
45.2017	502.75
45.2161	508.45
45.2305	497.30
45.2450	509.84
45.2594	512.41
45.2739	488.95
45.2883	506.85
45.3028	501.00
45.3172	529.51
45.3316	541.30
45.3461	550.11
45.3605	512.34
45.3750	488.28
45.3894	532.56
45.4038	485.08
45.4183	475.34
45.4327	499.19
45.4472	491.92
45.4616	521.16
45.4760	524.24
45.4905	494.97
45.5049	494.24
45.5194	511.34
45.5338	506.82
45.5482	521.47
45.5627	499.11
45.5771	496.48
45.5916	527.40
45.6060	516.82
45.6204	513.89
45.6349	529.13
45.6493	471.41
45.6638	508.89
45.6782	518.73
45.6926	487.99
45.7071	493.25
45.7215	510.45
45.7360	520.43
45.7504	542.63
45.7648	522.54
45.7793	517.59
45.7937	497.83
45.8082	517.21
45.8226	504.12
45.8370	500.23
45.8515	516.56
45.8659	526.30
45.8804	492.10
45.8948	501.80
45.9092	510.94
45.9237	500.01
45.9381	503.90
45.9526	505.27
45.9670	517.02
45.9814	483.73
45.9959	498.20
46.0103	506.95
46.0248	535.15
46.0392	511.65
46.0536	510.11
46.0681	523.43
46.0825	510.37
46.0970	518.45
46.1114	474.75
46.1258	510.32
46.1403	494.10
46.1547	530.75
46.1692	523.78
46.1836	532.46
46.1980	482.66
46.2125	498.98
46.2269	484.15
46.2414	512.00
46.2558	483.59
46.2702	469.54
46.2847	520.77
46.2991	502.42
46.3136	504.66
46.3280	497.30
46.3424	525.91
46.3569	504.18
46.3713	504.01
46.3858	518.46
46.4002	479.62
46.4146	476.46
46.4291	483.08
46.4435	479.36
46.4580	484.05
46.4724	526.44
46.4868	517.45
46.5013	538.55
46.5157	492.74
46.5302	498.28
46.5446	487.98
46.5590	517.74
46.5735	501.14
46.5879	528.41
46.6024	518.69
46.6168	519.88
46.6312	520.52
46.6457	521.71
46.6601	490.14
46.6746	478.71
46.6890	489.11
46.7034	517.42
46.7179	523.19
46.7323	521.90
46.7468	478.29
46.7612	488.50
46.7756	491.71
46.7901	513.72
46.8045	509.74
46.8190	505.36
46.8334	475.43
46.8478	515.20
46.8623	526.46
46.8767	528.92
46.8912	495.05
46.9056	527.43
46.9200	508.42
46.9345	517.79
46.9489	499.70
46.9634	488.46
46.9778	495.34
46.9922	488.22
47.0067	510.39
47.0211	514.72
47.0356	523.50
47.0500	521.95
47.0644	513.90
47.0789	525.60
47.0933	525.71
47.1078	520.24
47.1222	520.01
47.1366	537.12
47.1511	486.38
47.1655	473.69
47.1800	482.66
47.1944	487.84
47.2088	489.43
47.2233	525.40
47.2377	539.25
47.2522	492.27
47.2666	498.20
47.2810	518.34
47.2955	511.01
47.3099	504.23
47.3244	480.69
47.3388	500.62
47.3532	485.89
47.3677	479.82
47.3821	504.21
47.3966	516.53
47.4110	489.21
47.4254	510.45
47.4399	477.48
47.4543	478.10
47.4688	530.57
47.4832	489.54
47.4976	472.18
47.5121	485.70
47.5265	509.25
47.5410	525.96
47.5554	509.45
47.5698	486.58
47.5843	506.49
47.5987	504.13
47.6132	488.85
47.6276	518.37
47.6420	547.12
47.6565	518.79
47.6709	526.09
47.6854	498.30
47.6998	496.49
47.7142	487.87
47.7287	503.83
47.7431	494.20
47.7576	500.98
47.7720	512.02
47.7864	486.54
47.8009	481.41
47.8153	514.47
47.8298	512.23
47.8442	530.17
47.8586	485.48
47.8731	525.62
47.8875	524.48
47.9020	533.55
47.9164	505.94
47.9308	474.56
47.9453	503.37
47.9597	491.95
47.9742	498.71
47.9886	468.07
48.0030	443.97
48.0175	517.62
48.0319	485.59
48.0464	461.59
48.0608	495.53
48.0752	480.12
48.0897	546.91
48.1041	509.38
48.1186	503.73
48.1330	541.85
48.1474	540.77
48.1619	516.67
48.1763	526.17
48.1908	535.56
48.2052	526.52
48.2196	510.46
48.2341	515.17
48.2485	512.25
48.2630	516.77
48.2774	507.67
48.2918	487.86
48.3063	546.01
48.3207	498.93
48.3352	505.58
48.3496	544.49
48.3640	489.21
48.3785	496.26
48.3929	489.10
48.4074	509.01
48.4218	496.27
48.4362	514.66
48.4507	519.16
48.4651	497.41
48.4796	551.78
48.4940	491.45
48.5084	487.72
48.5229	477.54
48.5373	496.34
48.5518	481.31
48.5662	497.64
48.5806	516.96
48.5951	513.89
48.6095	540.00
48.6240	542.69
48.6384	536.24
48.6528	498.68
48.6673	524.01
48.6817	493.35
48.6962	503.77
48.7106	539.30
48.7250	546.38
48.7395	533.77
48.7539	512.24
48.7684	467.69
48.7828	526.10
48.7972	524.47
48.8117	546.93
48.8261	521.95
48.8406	559.61
48.8550	550.15
48.8694	519.19
48.8839	528.18
48.8983	561.40
48.9128	569.49
48.9272	563.03
48.9416	551.51
48.9561	550.43
48.9705	544.56
48.9850	546.54
48.9994	576.00
49.0139	590.65
49.0283	584.64
49.0427	585.23
49.0572	581.28
49.0716	616.38
49.0861	695.53
49.1005	664.34
49.1149	708.29
49.1294	761.97
49.1438	736.49
49.1583	786.00
49.1727	838.00
49.1871	947.20
49.2016	913.47
49.2160	1067.40
49.2305	1121.15
49.2449	1209.90
49.2593	1318.15
49.2738	1421.56
49.2882	1458.42
49.3027	1571.89
49.3171	1683.82
49.3315	1749.37
49.3460	1801.95
49.3604	1805.66
49.3749	1818.09
49.3893	1842.47
49.4037	1792.50
49.4182	1792.35
49.4326	1822.57
49.4471	1765.04
49.4615	1676.12
49.4759	1577.63
49.4904	1524.89
49.5048	1416.56
49.5193	1327.01
49.5337	1291.49
49.5481	1210.62
49.5626	1136.72
49.5770	1100.02
49.5915	1017.05
49.6059	935.52
49.6203	838.92
49.6348	810.21
49.6492	820.68
49.6637	792.94
49.6781	703.65
49.6925	704.23
49.7070	742.32
49.7214	664.47
49.7359	605.39
49.7503	600.59
49.7647	596.01
49.7792	606.97
49.7936	604.92
49.8081	569.70
49.8225	590.73
49.8369	568.67
49.8514	543.07
49.8658	547.58
49.8803	555.02
49.8947	542.95
49.9091	556.45
49.9236	542.52
49.9380	537.65
49.9525	525.79
49.9669	525.33
49.9813	549.75
49.9958	523.67
50.0102	552.77
50.0247	510.66
50.0391	531.54
50.0535	511.25
50.0680	508.79
50.0824	557.80
50.0969	540.37
50.1113	555.80
50.1257	544.60
50.1402	533.11
50.1546	489.54
50.1691	509.51
50.1835	515.74
50.1979	517.16
50.2124	473.78
50.2268	508.93
50.2413	542.76
50.2557	504.88
50.2701	488.70
50.2846	509.45
50.2990	496.97
50.3135	538.91
50.3279	503.54
50.3423	524.64
50.3568	490.30
50.3712	499.16
50.3857	530.83
50.4001	524.94
50.4145	529.18
50.4290	540.32
50.4434	512.37
50.4579	531.33
50.4723	560.99
50.4867	546.76
50.5012	494.82
50.5156	495.66
50.5301	489.00
50.5445	505.71
50.5589	508.12
50.5734	502.14
50.5878	508.90
50.6023	537.27
50.6167	517.22
50.6311	504.75
50.6456	527.13
50.6600	543.64
50.6745	503.53
50.6889	505.25
50.7033	505.90
50.7178	492.61
50.7322	487.53
50.7467	471.39
50.7611	474.49
50.7755	500.09
50.7900	487.35
50.8044	501.28
50.8189	508.05
50.8333	517.61
50.8477	498.34
50.8622	531.88
50.8766	526.40
50.8911	528.65
50.9055	537.02
50.9199	489.54
50.9344	502.20
50.9488	541.80
50.9633	516.85
50.9777	498.31
50.9921	511.21
51.0066	490.77
51.0210	496.07
51.0355	527.53
51.0499	506.46
51.0643	516.82
51.0788	533.51
51.0932	548.71
51.1077	514.58
51.1221	519.77
51.1365	521.78
51.1510	474.96
51.1654	498.30
51.1799	503.54
51.1943	508.32
51.2087	506.77
51.2232	488.41
51.2376	491.82
51.2521	488.48
51.2665	507.47
51.2809	505.66
51.2954	531.92
51.3098	527.29
51.3243	497.03
51.3387	513.52
51.3531	531.87
51.3676	521.04
51.3820	494.81
51.3965	503.43
51.4109	512.47
51.4253	526.10
51.4398	504.36
51.4542	529.19
51.4687	541.09
51.4831	513.39
51.4975	487.95
51.5120	489.93
51.5264	529.74
51.5409	524.76
51.5553	516.19
51.5697	497.83
51.5842	505.68
51.5986	495.22
51.6131	467.16
51.6275	531.01
51.6419	528.25
51.6564	506.69
51.6708	510.85
51.6853	520.76
51.6997	515.39
51.7141	518.07
51.7286	495.23
51.7430	489.23
51.7575	535.44
51.7719	532.03
51.7863	501.12
51.8008	495.60
51.8152	534.00
51.8297	535.52
51.8441	518.63
51.8585	537.77
51.8730	531.06
51.8874	511.91
51.9019	517.76
51.9163	495.09
51.9307	506.47
51.9452	539.39
51.9596	496.83
51.9741	482.50
51.9885	501.47
52.0029	498.58
52.0174	514.44
52.0318	516.89
52.0463	502.13
52.0607	505.27
52.0751	514.92
52.0896	544.73
52.1040	540.77
52.1185	514.10
52.1329	506.40
52.1473	498.21
52.1618	489.32
52.1762	501.25
52.1907	508.12
52.2051	496.78
52.2195	495.60
52.2340	502.95
52.2484	537.90
52.2629	500.95
52.2773	506.61
52.2917	516.83
52.3062	511.59
52.3206	525.56
52.3351	510.26
52.3495	550.93
52.3639	518.19
52.3784	515.52
52.3928	508.85
52.4073	504.03
52.4217	526.76
52.4361	517.19
52.4506	493.48
52.4650	498.49
52.4795	503.88
52.4939	544.88
52.5083	509.34
52.5228	510.93
52.5372	509.76
52.5517	475.84
52.5661	485.94
52.5805	527.32
52.5950	510.61
52.6094	539.18
52.6239	522.39
52.6383	521.73
52.6527	519.95
52.6672	529.22
52.6816	507.92
52.6961	490.48
52.7105	520.95
52.7250	530.35
52.7394	521.94
52.7538	470.04
52.7683	470.17
52.7827	522.66
52.7972	516.38
52.8116	519.21
52.8260	526.25
52.8405	519.77
52.8549	525.25
52.8694	546.54
52.8838	513.87
52.8982	524.21
52.9127	534.15
52.9271	521.81
52.9416	527.38
52.9560	491.25
52.9704	506.05
52.9849	492.81
52.9993	481.01
53.0138	500.71
53.0282	547.51
53.0426	478.72
53.0571	515.58
53.0715	535.80
53.0860	537.74
53.1004	488.19
53.1148	535.08
53.1293	525.07
53.1437	486.45
53.1582	502.09
53.1726	533.40
53.1870	463.12
53.2015	499.21
53.2159	516.13
53.2304	481.24
53.2448	524.86
53.2592	516.84
53.2737	510.14
53.2881	512.57
53.3026	490.97
53.3170	488.03
53.3314	514.75
53.3459	512.55
53.3603	485.95
53.3748	494.95
53.3892	518.95
53.4036	507.34
53.4181	524.33
53.4325	504.20
53.4470	506.17
53.4614	540.43
53.4758	527.15
53.4903	516.99
53.5047	526.31
53.5192	534.86
53.5336	535.14
53.5480	477.30
53.5625	513.05
53.5769	514.90
53.5914	527.59
53.6058	528.91
53.6202	518.05
53.6347	517.38
53.6491	487.00
53.6636	523.53
53.6780	487.94
53.6924	499.58
53.7069	550.33
53.7213	536.77
53.7358	500.92
53.7502	503.17
53.7646	506.11
53.7791	544.01
53.7935	519.88
53.8080	506.54
53.8224	510.25
53.8368	504.52
53.8513	497.62
53.8657	475.41
53.8802	511.70
53.8946	530.17
53.9090	527.65
53.9235	524.98
53.9379	514.44
53.9524	511.64
53.9668	551.13
53.9812	524.01
53.9957	537.86
54.0101	536.43
54.0246	495.69
54.0390	516.24
54.0534	533.09
54.0679	506.43
54.0823	524.28
54.0968	519.49
54.1112	477.72
54.1256	517.94
54.1401	553.81
54.1545	537.42
54.1690	528.62
54.1834	521.83
54.1978	504.75
54.2123	529.27
54.2267	520.76
54.2412	534.77
54.2556	515.37
54.2700	524.95
54.2845	524.36
54.2989	547.13
54.3134	535.83
54.3278	545.69
54.3422	519.37
54.3567	559.99
54.3711	539.38
54.3856	532.52
54.4000	497.54
54.4144	542.59
54.4289	552.83
54.4433	514.40
54.4578	552.99
54.4722	528.37
54.4866	525.62
54.5011	542.80
54.5155	546.00
54.5300	565.46
54.5444	547.43
54.5588	560.79
54.5733	559.91
54.5877	548.80
54.6022	564.20
54.6166	575.58
54.6310	549.91
54.6455	570.30
54.6599	582.59
54.6744	555.99
54.6888	547.20
54.7032	548.72
54.7177	592.01
54.7321	544.74
54.7466	567.40
54.7610	592.04
54.7754	581.99
54.7899	596.59
54.8043	568.97
54.8188	588.24
54.8332	600.98
54.8476	580.83
54.8621	588.14
54.8765	583.61
54.8910	551.16
54.9054	594.11
54.9198	569.77
54.9343	539.09
54.9487	529.60
54.9632	520.49
54.9776	551.42
54.9920	570.61
55.0065	512.98
55.0209	525.52
55.0354	560.61
55.0498	525.52
55.0642	523.47
55.0787	527.80
55.0931	537.87
55.1076	531.24
55.1220	515.74
55.1364	521.57
55.1509	505.91
55.1653	568.36
55.1798	536.27
55.1942	533.48
55.2086	510.31
55.2231	513.68
55.2375	520.86
55.2520	513.01
55.2664	521.31
55.2808	510.72
55.2953	494.57
55.3097	515.47
55.3242	515.62
55.3386	559.32
55.3530	544.52
55.3675	513.28
55.3819	531.31
55.3964	504.93
55.4108	509.48
55.4252	549.46
55.4397	545.61
55.4541	544.82
55.4686	536.63
55.4830	524.94
55.4974	525.66
55.5119	516.73
55.5263	537.09
55.5408	553.24
55.5552	526.64
55.5696	525.61
55.5841	501.03
55.5985	549.89
55.6130	528.14
55.6274	518.72
55.6418	502.93
55.6563	553.93
55.6707	528.50
55.6852	509.12
55.6996	510.86
55.7140	563.87
55.7285	530.11
55.7429	567.48
55.7574	518.78
55.7718	529.67
55.7862	518.31
55.8007	507.71
55.8151	501.59
55.8296	531.64
55.8440	550.08
55.8584	562.73
55.8729	496.73
55.8873	507.25
55.9018	527.83
55.9162	501.24
55.9306	531.45
55.9451	532.29
55.9595	504.43
55.9740	500.98
55.9884	499.51
56.0028	504.39
56.0173	526.73
56.0317	543.09
56.0462	519.89
56.0606	531.63
56.0750	542.23
56.0895	536.69
56.1039	534.04
56.1184	548.95
56.1328	557.11
56.1472	495.71
56.1617	522.67
56.1761	525.01
56.1906	507.52
56.2050	502.57
56.2194	513.37
56.2339	549.20
56.2483	526.19
56.2628	501.61
56.2772	506.53
56.2916	509.70
56.3061	537.32
56.3205	539.19
56.3350	535.38
56.3494	507.63
56.3639	488.90
56.3783	541.70
56.3927	509.69
56.4072	521.92
56.4216	515.05
56.4361	523.24
56.4505	518.11
56.4649	539.75
56.4794	530.75
56.4938	534.62
56.5083	535.21
56.5227	539.76
56.5371	546.12
56.5516	513.99
56.5660	484.42
56.5805	522.48
56.5949	523.20
56.6093	518.34
56.6238	525.82
56.6382	496.83
56.6527	573.35
56.6671	531.77
56.6815	510.10
56.6960	533.03
56.7104	553.41
56.7249	550.67
56.7393	526.68
56.7537	518.84
56.7682	509.87
56.7826	497.22
56.7971	532.28
56.8115	524.98
56.8259	529.97
56.8404	546.43
56.8548	539.17
56.8693	522.12
56.8837	495.33
56.8981	561.12
56.9126	530.17
56.9270	504.21
56.9415	529.58
56.9559	512.91
56.9703	532.27
56.9848	502.52
56.9992	512.44
57.0137	509.70
57.0281	542.21
57.0425	541.15
57.0570	509.37
57.0714	542.68
57.0859	556.74
57.1003	493.78
57.1147	507.78
57.1292	511.67
57.1436	516.64
57.1581	541.55
57.1725	527.43
57.1869	541.90
57.2014	539.12
57.2158	523.83
57.2303	498.12
57.2447	563.58
57.2591	539.24
57.2736	510.00
57.2880	532.62
57.3025	530.66
57.3169	537.54
57.3313	535.63
57.3458	512.68
57.3602	514.25
57.3747	533.73
57.3891	504.54
57.4035	529.60
57.4180	511.19
57.4324	540.00
57.4469	520.78
57.4613	510.88
57.4757	515.92
57.4902	531.22
57.5046	522.91
57.5191	513.56
57.5335	516.89
57.5479	520.53
57.5624	538.34
57.5768	521.53
57.5913	530.52
57.6057	540.19
57.6201	496.03
57.6346	550.72
57.6490	506.79
57.6635	502.81
57.6779	502.95
57.6923	498.74
57.7068	540.74
57.7212	544.83
57.7357	518.77
57.7501	557.42
57.7645	517.60
57.7790	545.41
57.7934	515.19
57.8079	517.86
57.8223	534.30
57.8367	531.57
57.8512	535.28
57.8656	553.67
57.8801	541.35
57.8945	564.43
57.9089	543.62
57.9234	551.17
57.9378	542.21
57.9523	552.50
57.9667	554.95
57.9811	536.71
57.9956	550.98
58.0100	534.16
58.0245	538.95
58.0389	532.68
58.0533	546.32
58.0678	549.58
58.0822	533.99
58.0967	561.45
58.1111	540.16
58.1255	543.25
58.1400	533.82
58.1544	566.98
58.1689	596.64
58.1833	588.02
58.1977	548.88
58.2122	593.39
58.2266	609.26
58.2411	631.81
58.2555	625.52
58.2699	618.37
58.2844	638.59
58.2988	668.84
58.3133	631.88
58.3277	622.52
58.3421	637.41
58.3566	625.47
58.3710	621.85
58.3855	625.08
58.3999	607.39
58.4143	639.89
58.4288	656.00
58.4432	637.05
58.4577	638.65
58.4721	630.96
58.4865	615.52
58.5010	613.76
58.5154	621.70
58.5299	613.32
58.5443	619.73
58.5587	621.79
58.5732	596.82
58.5876	590.82
58.6021	589.06
58.6165	583.34
58.6309	611.43
58.6454	595.57
58.6598	567.55
58.6743	579.56
58.6887	549.55
58.7031	595.79
58.7176	581.32
58.7320	548.69
58.7465	533.31
58.7609	542.13
58.7753	548.69
58.7898	516.13
58.8042	532.14
58.8187	559.52
58.8331	574.77
58.8475	554.18
58.8620	587.11
58.8764	569.74
58.8909	544.75
58.9053	557.07
58.9197	531.04
58.9342	548.46
58.9486	568.39
58.9631	568.88
58.9775	546.01
58.9919	528.94
59.0064	535.51
59.0208	542.21
59.0353	571.89
59.0497	569.11
59.0641	588.55
59.0786	558.06
59.0930	537.92
59.1075	504.23
59.1219	540.74
59.1363	518.46
59.1508	513.41
59.1652	543.17
59.1797	533.46
59.1941	534.46
59.2085	531.52
59.2230	504.97
59.2374	548.92
59.2519	563.28
59.2663	565.83
59.2807	557.91
59.2952	550.48
59.3096	542.63
59.3241	566.84
59.3385	594.88
59.3529	612.64
59.3674	580.23
59.3818	559.97
59.3963	554.91
59.4107	539.41
59.4251	574.30
59.4396	553.75
59.4540	569.13
59.4685	563.61
59.4829	544.17
59.4973	525.24
59.5118	544.81
59.5262	562.91
59.5407	561.10
59.5551	559.49
59.5695	557.10
59.5840	539.81
59.5984	567.91
59.6129	550.02
59.6273	525.48
59.6417	545.29
59.6562	544.74
59.6706	558.19
59.6851	530.42
59.6995	533.92
59.7139	564.48
59.7284	559.15
59.7428	562.61
59.7573	547.57
59.7717	547.40
59.7861	509.40
59.8006	501.95
59.8150	548.95
59.8295	553.46
59.8439	488.99
59.8583	524.49
59.8728	533.67
59.8872	523.64
59.9017	521.33
59.9161	524.91
59.9305	533.42
59.9450	599.23
59.9594	533.12
59.9739	523.89
59.9883	579.57
60.0027	526.10
60.0172	553.26
60.0316	568.80
60.0461	496.91
60.0605	534.57
60.0750	503.63
60.0894	535.72
60.1038	534.33
60.1183	524.33
60.1327	563.09
60.1472	524.72
60.1616	540.51
60.1760	523.29
60.1905	508.87
60.2049	530.56
60.2194	549.26
60.2338	556.90
60.2482	536.36
60.2627	534.83
60.2771	545.04
60.2916	517.34
60.3060	531.88
60.3204	522.00
60.3349	553.56
60.3493	545.04
60.3638	538.45
60.3782	525.46
60.3926	520.76
60.4071	517.76
60.4215	548.84
60.4360	560.78
60.4504	527.00
60.4648	562.33
60.4793	558.30
60.4937	561.82
60.5082	519.90
60.5226	532.90
60.5370	548.09
60.5515	553.93
60.5659	556.36
60.5804	546.76
60.5948	538.25
60.6092	508.97
60.6237	490.76
60.6381	557.19
60.6526	539.35
60.6670	520.29
60.6814	544.66
60.6959	519.41
60.7103	564.06
60.7248	548.79
60.7392	501.73
60.7536	531.19
60.7681	525.61
60.7825	531.59
60.7970	521.11
60.8114	546.84
60.8258	553.53
60.8403	504.33
60.8547	517.83
60.8692	553.33
60.8836	555.08
60.8980	581.54
60.9125	567.38
60.9269	571.04
60.9414	520.44
60.9558	573.83
60.9702	545.00
60.9847	553.04
60.9991	576.79
61.0136	563.41
61.0280	593.21
61.0424	546.55
61.0569	545.89
61.0713	532.00
61.0858	554.17
61.1002	564.05
61.1146	573.94
61.1291	572.90
61.1435	553.95
61.1580	520.81
61.1724	552.26
61.1868	541.74
61.2013	561.69
61.2157	551.47
61.2302	540.58
61.2446	536.10
61.2590	558.71
61.2735	524.99
61.2879	555.97
61.3024	529.30
61.3168	531.36
61.3312	553.93
61.3457	566.60
61.3601	533.20
61.3746	533.25
61.3890	520.04
61.4034	512.66
61.4179	548.05
61.4323	570.59
61.4468	573.16
61.4612	560.44
61.4756	562.77
61.4901	506.43
61.5045	551.96
61.5190	545.58
61.5334	547.08
61.5478	566.89
61.5623	577.49
61.5767	524.11
61.5912	535.86
61.6056	540.65
61.6200	534.02
61.6345	541.36
61.6489	569.14
61.6634	563.41
61.6778	533.39
61.6922	538.25
61.7067	554.12
61.7211	486.47
61.7356	535.75
61.7500	559.53
61.7644	516.85
61.7789	588.79
61.7933	553.70
61.8078	562.74
61.8222	512.86
61.8366	516.58
61.8511	558.61
61.8655	561.13
61.8800	514.53
61.8944	530.80
61.9088	548.51
61.9233	581.88
61.9377	557.34
61.9522	553.92
61.9666	557.21
61.9810	591.31
61.9955	536.21
62.0099	538.15
62.0244	539.16
62.0388	476.17
62.0532	515.64
62.0677	579.19
62.0821	546.88
62.0966	578.29
62.1110	584.28
62.1254	579.57
62.1399	577.20
62.1543	574.56
62.1688	541.75
62.1832	551.60
62.1976	545.94
62.2121	529.46
62.2265	534.00
62.2410	538.46
62.2554	532.34
62.2698	571.39
62.2843	574.61
62.2987	521.13
62.3132	520.12
62.3276	517.10
62.3420	513.32
62.3565	522.51
62.3709	534.29
62.3854	541.06
62.3998	554.88
62.4142	512.93
62.4287	570.25
62.4431	531.72
62.4576	534.73
62.4720	541.43
62.4864	547.23
62.5009	545.40
62.5153	538.83
62.5298	561.00
62.5442	540.86
62.5586	552.14
62.5731	557.90
62.5875	543.77
62.6020	560.38
62.6164	541.99
62.6308	562.89
62.6453	559.85
62.6597	577.60
62.6742	573.61
62.6886	559.00
62.7030	539.67
62.7175	550.10
62.7319	543.78
62.7464	563.12
62.7608	558.81
62.7752	557.21
62.7897	549.08
62.8041	560.84
62.8186	563.98
62.8330	557.77
62.8474	572.39
62.8619	557.57
62.8763	563.55
62.8908	536.77
62.9052	610.84
62.9196	579.16
62.9341	565.44
62.9485	584.89
62.9630	543.24
62.9774	559.33
62.9918	563.97
63.0063	574.79
63.0207	576.69
63.0352	537.62
63.0496	528.78
63.0640	567.36
63.0785	548.97
63.0929	581.25
63.1074	600.58
63.1218	570.08
63.1362	569.63
63.1507	558.83
63.1651	554.93
63.1796	561.99
63.1940	570.73
63.2084	563.30
63.2229	593.98
63.2373	593.45
63.2518	552.91
63.2662	561.08
63.2806	560.69
63.2951	570.36
63.3095	573.53
63.3240	553.03
63.3384	565.71
63.3528	610.73
63.3673	566.75
63.3817	576.00
63.3962	595.17
63.4106	543.29
63.4250	598.97
63.4395	554.52
63.4539	577.23
63.4684	569.20
63.4828	594.73
63.4972	575.04
63.5117	584.00
63.5261	586.99
63.5406	609.74
63.5550	634.90
63.5694	592.55
63.5839	559.93
63.5983	549.38
63.6128	591.19
63.6272	599.75
63.6416	572.61
63.6561	580.18
63.6705	574.56
63.6850	595.08
63.6994	587.41
63.7138	562.80
63.7283	585.13
63.7427	598.31
63.7572	582.57
63.7716	596.79
63.7861	546.93
63.8005	579.52
63.8149	591.22
63.8294	668.01
63.8438	643.39
63.8583	674.40
63.8727	631.63
63.8871	627.79
63.9016	690.48
63.9160	665.22
63.9305	704.98
63.9449	691.71
63.9593	706.66
63.9738	661.96
63.9882	701.09
64.0027	693.63
64.0171	717.52
64.0315	725.18
64.0460	713.35
64.0604	772.71
64.0749	796.06
64.0893	799.09
64.1037	768.66
64.1182	736.80
64.1326	739.51
64.1471	783.21
64.1615	778.82
64.1759	779.93
64.1904	770.48
64.2048	768.52
64.2193	747.99
64.2337	802.00
64.2481	790.22
64.2626	749.86
64.2770	753.71
64.2915	744.02
64.3059	701.99
64.3203	799.76
64.3348	755.84
64.3492	729.54
64.3637	729.52
64.3781	718.42
64.3925	688.49
64.4070	707.06
64.4214	715.07
64.4359	722.64
64.4503	683.09
64.4647	665.48
64.4792	643.44
64.4936	671.74
64.5081	674.34
64.5225	624.17
64.5369	636.03
64.5514	645.92
64.5658	711.34
64.5803	705.60
64.5947	616.31
64.6091	622.93
64.6236	659.00
64.6380	694.32
64.6525	671.28
64.6669	651.04
64.6813	679.10
64.6958	686.33
64.7102	690.13
64.7247	666.09
64.7391	691.09
64.7535	690.62
64.7680	703.89
64.7824	693.59
64.7969	698.93
64.8113	793.08
64.8257	753.49
64.8402	761.31
64.8546	795.64
64.8691	881.02
64.8835	843.47
64.8979	823.39
64.9124	848.88
64.9268	864.46
64.9413	920.31
64.9557	883.72
64.9701	903.69
64.9846	1026.25
64.9990	1112.68
65.0135	1262.18
65.0279	1412.03
65.0423	1642.07
65.0568	2052.32
65.0712	2523.44
65.0857	3305.33
65.1001	4296.95
65.1145	5846.96
65.1290	7711.77
65.1434	9379.18
65.1579	10904.20
65.1723	11746.40
65.1867	11258.52
65.2012	10026.42
65.2156	8394.00
65.2301	6681.32
65.2445	5468.31
65.2589	4507.38
65.2734	4200.77
65.2878	4322.70
65.3023	4847.54
65.3167	5761.00
65.3311	6506.78
65.3456	7001.16
65.3600	6965.79
65.3745	6357.16
65.3889	5512.40
65.4033	4473.95
65.4178	3544.47
65.4322	2787.82
65.4467	2086.11
65.4611	1730.59
65.4755	1448.91
65.4900	1268.27
65.5044	1138.55
65.5189	1078.41
65.5333	1001.41
65.5477	955.92
65.5622	888.58
65.5766	832.69
65.5911	831.73
65.6055	772.64
65.6199	725.76
65.6344	775.38
65.6488	800.59
65.6633	735.43
65.6777	768.28
65.6921	696.08
65.7066	669.71
65.7210	628.07
65.7355	688.26
65.7499	719.10
65.7643	665.49
65.7788	653.28
65.7932	638.65
65.8077	651.63
65.8221	662.11
65.8365	693.32
65.8510	652.12
65.8654	675.05
65.8799	658.86
65.8943	638.51
65.9087	677.06
65.9232	658.61
65.9376	650.86
65.9521	624.16
65.9665	637.46
65.9809	633.06
65.9954	609.18
66.0098	614.48
66.0243	643.72
66.0387	649.00
66.0531	626.65
66.0676	636.36
66.0820	625.77
66.0965	627.64
66.1109	640.70
66.1253	641.46
66.1398	597.32
66.1542	626.50
66.1687	628.27
66.1831	641.15
66.1975	627.46
66.2120	653.43
66.2264	611.60
66.2409	593.09
66.2553	605.71
66.2697	631.50
66.2842	610.55
66.2986	612.76
66.3131	608.50
66.3275	595.07
66.3419	640.02
66.3564	623.10
66.3708	617.43
66.3853	600.88
66.3997	596.35
66.4141	603.24
66.4286	626.71
66.4430	606.54
66.4575	624.56
66.4719	604.84
66.4863	590.72
66.5008	594.26
66.5152	631.43
66.5297	600.09
66.5441	595.45
66.5585	604.89
66.5730	580.16
66.5874	604.40
66.6019	571.99
66.6163	577.54
66.6307	604.46
66.6452	598.32
66.6596	578.20
66.6741	561.44
66.6885	561.40
66.7029	608.85
66.7174	593.87
66.7318	544.44
66.7463	589.40
66.7607	609.25
66.7751	609.30
66.7896	598.40
66.8040	590.40
66.8185	607.26
66.8329	592.46
66.8473	596.45
66.8618	593.66
66.8762	590.65
66.8907	570.84
66.9051	567.43
66.9195	575.47
66.9340	599.93
66.9484	612.06
66.9629	570.44
66.9773	551.89
66.9917	563.04
67.0062	579.67
67.0206	570.22
67.0351	595.21
67.0495	600.79
67.0639	572.27
67.0784	587.32
67.0928	609.53
67.1073	590.07
67.1217	578.17
67.1361	581.20
67.1506	563.64
67.1650	623.13
67.1795	585.93
67.1939	569.83
67.2083	573.07
67.2228	575.02
67.2372	585.81
67.2517	597.56
67.2661	575.30
67.2805	599.04
67.2950	583.69
67.3094	564.07
67.3239	581.42
67.3383	565.02
67.3527	598.74
67.3672	591.03
67.3816	567.53
67.3961	574.05
67.4105	559.21
67.4250	611.31
67.4394	547.87
67.4538	548.64
67.4683	594.69
67.4827	632.80
67.4972	600.00
67.5116	577.02
67.5260	602.94
67.5405	613.17
67.5549	592.93
67.5694	564.63
67.5838	554.42
67.5982	582.24
67.6127	540.99
67.6271	541.28
67.6416	552.15
67.6560	540.20
67.6704	554.89
67.6849	542.86
67.6993	569.91
67.7138	601.90
67.7282	574.59
67.7426	559.69
67.7571	596.05
67.7715	571.87
67.7860	565.72
67.8004	540.50
67.8148	570.73
67.8293	593.66
67.8437	566.17
67.8582	582.66
67.8726	600.62
67.8870	595.04
67.9015	636.61
67.9159	582.74
67.9304	599.15
67.9448	587.04
67.9592	559.77
67.9737	581.08
67.9881	582.72
68.0026	567.92
68.0170	595.42
68.0314	573.43
68.0459	557.67
68.0603	606.39
68.0748	595.05
68.0892	600.85
68.1036	548.23
68.1181	574.62
68.1325	611.36
68.1470	569.42
68.1614	588.81
68.1758	612.56
68.1903	591.91
68.2047	591.07
68.2192	596.33
68.2336	582.63
68.2480	545.54
68.2625	559.02
68.2769	563.31
68.2914	542.70
68.3058	560.20
68.3202	578.14
68.3347	578.43
68.3491	525.31
68.3636	550.97
68.3780	577.51
68.3924	564.27
68.4069	590.66
68.4213	610.07
68.4358	610.04
68.4502	533.75
68.4646	541.51
68.4791	596.01
68.4935	571.54
68.5080	588.00
68.5224	597.49
68.5368	540.40
68.5513	555.71
68.5657	549.84
68.5802	544.91
68.5946	592.30
68.6090	569.15
68.6235	550.31
68.6379	529.69
68.6524	603.68
68.6668	586.54
68.6812	572.54
68.6957	563.84
68.7101	616.16
68.7246	554.13
68.7390	559.69
68.7534	593.78
68.7679	585.89
68.7823	560.46
68.7968	605.57
68.8112	552.67
68.8256	595.02
68.8401	562.05
68.8545	587.01
68.8690	564.80
68.8834	562.60
68.8978	567.93
68.9123	647.01
68.9267	525.88
68.9412	567.60
68.9556	557.99
68.9700	554.37
68.9845	598.57
68.9989	550.84
69.0134	547.25
69.0278	545.32
69.0422	537.85
69.0567	528.90
69.0711	528.84
69.0856	593.56
69.1000	605.69
69.1144	571.54
69.1289	655.15
69.1433	579.74
69.1578	592.81
69.1722	614.03
69.1866	562.34
69.2011	580.14
69.2155	523.62
69.2300	550.83
69.2444	591.13
69.2588	572.41
69.2733	579.05
69.2877	605.25
69.3022	575.78
69.3166	577.92
69.3310	561.79
69.3455	563.90
69.3599	670.33
69.3744	605.89
69.3888	597.62
69.4032	576.76
69.4177	549.87
69.4321	508.53
69.4466	553.70
69.4610	612.90
69.4754	634.99
69.4899	588.33
69.5043	574.76
69.5188	602.91
69.5332	566.15
69.5476	613.98
69.5621	594.89
69.5765	517.32
69.5910	549.02
69.6054	541.26
69.6198	576.49
69.6343	578.75
69.6487	563.21
69.6632	579.65
69.6776	610.92
69.6920	543.11
69.7065	574.62
69.7209	593.40
69.7354	577.33
69.7498	600.58
69.7642	555.19
69.7787	573.36
69.7931	584.52
69.8076	596.28
69.8220	601.70
69.8364	610.88
69.8509	613.32
69.8653	565.01
69.8798	558.75
69.8942	580.69
69.9086	630.51
69.9231	586.93
69.9375	554.35
69.9520	615.21
69.9664	613.12
69.9808	592.03
69.9953	568.26
70.0097	585.00
70.0242	588.02
70.0386	553.29
70.0530	534.04
70.0675	543.03
70.0819	570.62
70.0964	617.30
70.1108	627.22
70.1252	588.05
70.1397	560.92
70.1541	567.53
70.1686	572.22
70.1830	621.67
70.1974	547.03
70.2119	577.40
70.2263	519.37
70.2408	533.16
70.2552	553.51
70.2696	592.15
70.2841	541.26
70.2985	525.53
70.3130	545.57
70.3274	603.55
70.3418	584.39
70.3563	554.64
70.3707	624.60
70.3852	579.63
70.3996	582.97
70.4140	563.93
70.4285	639.28
70.4429	604.55
70.4574	589.52
70.4718	522.29
70.4862	614.88
70.5007	607.29
70.5151	613.32
70.5296	557.68
70.5440	555.66
70.5584	556.96
70.5729	571.97
70.5873	595.70
70.6018	566.60
70.6162	589.26
70.6306	567.17
70.6451	573.57
70.6595	543.76
70.6740	622.04
70.6884	554.80
70.7028	595.39
70.7173	603.88
70.7317	585.44
70.7462	579.25
70.7606	581.26
70.7750	589.42
70.7895	610.20
70.8039	580.18
70.8184	562.23
70.8328	568.86
70.8472	588.37
70.8617	588.60
70.8761	635.72
70.8906	616.97
70.9050	607.45
70.9194	598.87
70.9339	645.82
70.9483	598.23
70.9628	597.91
70.9772	590.09
70.9916	536.45
71.0061	513.81
71.0205	555.40
71.0350	613.95
71.0494	570.92
71.0638	532.47
71.0783	598.85
71.0927	621.29
71.1072	607.46
71.1216	577.28
71.1361	578.35
71.1505	585.56
71.1649	598.21
71.1794	602.92
71.1938	597.90
71.2083	559.69
71.2227	570.46
71.2371	600.01
71.2516	569.39
71.2660	588.28
71.2805	584.41
71.2949	558.34
71.3093	561.49
71.3238	555.35
71.3382	557.97
71.3527	564.94
71.3671	591.96
71.3815	555.71
71.3960	540.13
71.4104	533.85
71.4249	566.36
71.4393	537.55
71.4537	519.08
71.4682	598.01
71.4826	617.49
71.4971	543.08
71.5115	547.31
71.5259	553.84
71.5404	556.32
71.5548	573.82
71.5693	535.80
71.5837	566.58
71.5981	596.70
71.6126	578.98
71.6270	575.19
71.6415	585.82
71.6559	549.95
71.6703	578.23
71.6848	656.43
71.6992	657.05
71.7137	582.75
71.7281	584.19
71.7425	617.19
71.7570	610.27
71.7714	619.59
71.7859	616.35
71.8003	624.09
71.8147	602.99
71.8292	558.06
71.8436	550.62
71.8581	499.02
71.8725	523.18
71.8869	560.80
71.9014	598.10
71.9158	593.09
71.9303	616.54
71.9447	697.93
71.9591	728.53
71.9736	663.65
71.9880	601.32
72.0025	594.83
72.0169	594.02
72.0313	523.45
72.0458	489.58
72.0602	550.11
72.0747	572.98
72.0891	603.73
72.1035	654.76
72.1180	635.76
72.1324	682.53
72.1469	586.67
72.1613	489.55
72.1757	512.69
72.1902	575.93
72.2046	538.69
72.2191	564.07
72.2335	583.24
72.2479	574.65
72.2624	572.16
72.2768	561.37
72.2913	565.17
72.3057	632.60
72.3201	599.38
72.3346	528.39
72.3490	496.95
72.3635	516.88
72.3779	535.86
72.3923	512.57
72.4068	500.61
72.4212	564.67
72.4357	564.39
72.4501	477.58
72.4645	508.67
72.4790	543.16
72.4934	556.56
72.5079	565.08
72.5223	566.58
72.5367	491.64
72.5512	523.63
72.5656	645.18
72.5801	600.95
72.5945	529.98
72.6089	534.12
72.6234	598.45
72.6378	590.57
72.6523	538.43
72.6667	580.11
72.6811	586.07
72.6956	569.87
72.7100	609.42
72.7245	611.03
72.7389	600.97
72.7533	544.00
72.7678	563.97
72.7822	637.86
72.7967	613.95
72.8111	550.78
72.8255	623.23
72.8400	586.15
72.8544	552.09
72.8689	556.79
72.8833	551.84

Result vector
22.1120	505.21
22.1264	678.61
22.1409	637.41
22.1553	544.72
22.1697	622.20
22.1842	648.37
22.1986	570.12
22.2131	565.12
22.2275	617.26
22.2419	565.88
22.2564	539.05
22.2708	540.98
22.2853	525.56
22.2997	473.97
22.3141	575.09
22.3286	567.40
22.3430	560.18
22.3575	576.57
22.3719	523.73
22.3863	520.61
22.4008	467.36
22.4152	525.32
22.4297	648.31
22.4441	583.91
22.4585	595.41
22.4730	596.19
22.4874	575.09
22.5019	549.11
22.5163	523.13
22.5307	625.45
22.5452	563.93
22.5596	589.97
22.5741	603.20
22.5885	582.99
22.6029	619.59
22.6174	595.69
22.6318	537.57
22.6463	521.55
22.6607	527.40
22.6751	594.84
22.6896	563.35
22.7040	574.74
22.7185	595.95
22.7329	468.72
22.7473	586.41
22.7618	547.13
22.7762	533.29
22.7907	674.19
22.8051	634.91
22.8195	566.63
22.8340	576.28
22.8484	549.48
22.8629	629.93
22.8773	651.03
22.8917	533.39
22.9062	539.15
22.9206	580.81
22.9351	596.78
22.9495	526.36
22.9639	518.53
22.9784	597.18
22.9928	489.19
23.0073	493.15
23.0217	630.80
23.0361	523.15
23.0506	557.21
23.0650	577.88
23.0795	503.41
23.0939	559.26
23.1083	502.49
23.1228	497.23
23.1372	587.52
23.1517	520.98
23.1661	579.33
23.1806	602.87
23.1950	528.20
23.2094	604.43
23.2239	583.72
23.2383	547.23
23.2528	545.24
23.2672	537.73
23.2816	578.85
23.2961	560.29
23.3105	544.58
23.3250	445.56
23.3394	536.96
23.3538	552.26
23.3683	532.43
23.3827	520.93
23.3972	522.41
23.4116	528.08
23.4260	538.44
23.4405	544.17
23.4549	510.96
23.4694	551.15
23.4838	558.11
23.4982	520.80
23.5127	547.94
23.5271	584.91
23.5416	494.81
23.5560	533.60
23.5704	538.99
23.5849	565.19
23.5993	563.75
23.6138	541.83
23.6282	538.34
23.6426	544.28
23.6571	551.05
23.6715	513.78
23.6860	577.88
23.7004	497.74
23.7148	532.39
23.7293	583.64
23.7437	515.09
23.7582	584.18
23.7726	636.48
23.7870	544.72
23.8015	501.23
23.8159	519.67
23.8304	587.27
23.8448	530.63
23.8592	510.56
23.8737	505.63
23.8881	556.90
23.9026	559.25
23.9170	558.81
23.9314	480.23
23.9459	516.85
23.9603	502.10
23.9748	570.67
23.9892	525.26
24.0036	540.63
24.0181	542.53
24.0325	525.57
24.0470	649.71
24.0614	512.84
24.0758	521.12
24.0903	548.14
24.1047	564.45
24.1192	530.52
24.1336	554.22
24.1480	554.66
24.1625	606.88
24.1769	598.84
24.1914	533.25
24.2058	570.46
24.2202	593.13
24.2347	645.43
24.2491	583.62
24.2636	522.09
24.2780	562.22
24.2924	573.67
24.3069	605.64
24.3213	538.08
24.3358	559.11
24.3502	549.11
24.3646	524.20
24.3791	505.18
24.3935	560.04
24.4080	542.01
24.4224	575.06
24.4368	604.14
24.4513	578.23
24.4657	493.51
24.4802	540.25
24.4946	530.04
24.5090	595.39
24.5235	570.62
24.5379	584.60
24.5524	561.60
24.5668	541.86
24.5812	579.98
24.5957	550.67
24.6101	563.00
24.6246	618.73
24.6390	595.38
24.6534	620.26
24.6679	560.10
24.6823	532.80
24.6968	554.76
24.7112	546.92
24.7256	535.42
24.7401	550.28
24.7545	504.78
24.7690	527.25
24.7834	576.34
24.7978	527.03
24.8123	545.55
24.8267	591.57
24.8412	572.66
24.8556	489.82
24.8700	489.65
24.8845	507.46
24.8989	524.89
24.9134	562.62
24.9278	545.04
24.9422	515.83
24.9567	545.02
24.9711	572.18
24.9856	567.14
25.0000	526.33
25.0144	492.20
25.0289	547.86
25.0433	569.57
25.0578	566.76
25.0722	538.43
25.0866	603.01
25.1011	531.99
25.1155	567.50
25.1300	531.98
25.1444	473.09
25.1588	526.34
25.1733	540.22
25.1877	554.94
25.2022	525.92
25.2166	534.45
25.2310	555.59
25.2455	554.15
25.2599	527.87
25.2744	545.44
25.2888	519.83
25.3032	531.21
25.3177	561.21
25.3321	538.35
25.3466	556.33
25.3610	543.23
25.3754	569.72
25.3899	507.17
25.4043	524.15
25.4188	581.33
25.4332	564.73
25.4476	528.57
25.4621	487.28
25.4765	515.41
25.4910	531.94
25.5054	527.85
25.5198	542.04
25.5343	544.73
25.5487	521.25
25.5632	512.79
25.5776	558.05
25.5920	553.11
25.6065	556.12
25.6209	487.24
25.6354	518.54
25.6498	554.64
25.6642	552.10
25.6787	543.48
25.6931	538.48
25.7076	554.73
25.7220	562.57
25.7364	526.14
25.7509	557.08
25.7653	553.77
25.7798	536.60
25.7942	516.78
25.8086	543.26
25.8231	548.40
25.8375	503.41
25.8520	513.90
25.8664	565.28
25.8808	565.21
25.8953	547.22
25.9097	539.22
25.9242	533.63
25.9386	542.83
25.9530	519.03
25.9675	551.30
25.9819	540.65
25.9964	530.47
26.0108	531.17
26.0252	517.83
26.0397	568.06
26.0541	581.38
26.0686	549.79
26.0830	541.02
26.0974	544.43
26.1119	540.13
26.1263	514.74
26.1408	533.69
26.1552	541.90
26.1696	547.16
26.1841	525.47
26.1985	505.67
26.2130	553.72
26.2274	565.48
26.2418	518.94
26.2563	550.12
26.2707	504.88
26.2852	524.97
26.2996	542.22
26.3140	536.73
26.3285	523.55
26.3429	531.02
26.3574	517.21
26.3718	498.27
26.3862	558.46
26.4007	561.95
26.4151	508.79
26.4296	490.79
26.4440	491.32
26.4584	524.71
26.4729	589.85
26.4873	572.04
26.5018	558.63
26.5162	531.10
26.5306	545.58
26.5451	543.31
26.5595	543.62
26.5740	565.54
26.5884	552.04
26.6028	571.12
26.6173	553.94
26.6317	552.68
26.6462	531.49
26.6606	522.73
26.6750	509.03
26.6895	544.04
26.7039	582.11
26.7184	550.11
26.7328	512.38
26.7472	511.49
26.7617	565.80
26.7761	532.23
26.7906	519.23
26.8050	515.84
26.8194	522.47
26.8339	519.85
26.8483	541.85
26.8628	527.83
26.8772	536.75
26.8917	550.93
26.9061	529.90
26.9205	496.78
26.9350	542.46
26.9494	552.05
26.9639	532.48
26.9783	513.25
26.9927	501.52
27.0072	510.61
27.0216	506.40
27.0361	504.19
27.0505	508.81
27.0649	534.32
27.0794	568.50
27.0938	549.09
27.1083	514.33
27.1227	566.15
27.1371	550.45
27.1516	481.50
27.1660	517.28
27.1805	501.42
27.1949	525.51
27.2093	513.50
27.2238	520.19
27.2382	512.12
27.2527	517.77
27.2671	514.89
27.2815	526.01
27.2960	470.25
27.3104	493.06
27.3249	516.30
27.3393	538.41
27.3537	532.27
27.3682	497.03
27.3826	513.97
27.3971	517.31
27.4115	500.63
27.4259	511.05
27.4404	519.07
27.4548	521.22
27.4693	543.79
27.4837	533.44
27.4981	532.53
27.5126	523.90
27.5270	543.75
27.5415	507.71
27.5559	515.15
27.5703	479.02
27.5848	516.44
27.5992	499.35
27.6137	525.28
27.6281	532.47
27.6425	516.51
27.6570	533.06
27.6714	502.84
27.6859	483.25
27.7003	516.61
27.7147	516.44
27.7292	502.66
27.7436	516.40
27.7581	501.45
27.7725	477.50
27.7869	533.49
27.8014	516.91
27.8158	540.59
27.8303	512.65
27.8447	506.95
27.8591	545.05
27.8736	548.53
27.8880	528.58
27.9025	517.53
27.9169	502.75
27.9313	524.67
27.9458	507.70
27.9602	505.70
27.9747	566.66
27.9891	530.53
28.0035	485.96
28.0180	500.20
28.0324	506.19
28.0469	510.60
28.0613	522.54
28.0757	523.36
28.0902	513.86
28.1046	514.14
28.1191	511.15
28.1335	521.86
28.1479	500.45
28.1624	516.84
28.1768	560.37
28.1913	505.86
28.2057	511.24
28.2201	526.58
28.2346	488.98
28.2490	515.60
28.2635	527.00
28.2779	506.11
28.2923	513.35
28.3068	536.55
28.3212	525.54
28.3357	522.60
28.3501	511.62
28.3645	541.14
28.3790	486.41
28.3934	523.63
28.4079	545.38
28.4223	544.19
28.4367	515.24
28.4512	524.80
28.4656	509.66
28.4801	519.53
28.4945	536.14
28.5089	536.89
28.5234	516.25
28.5378	497.19
28.5523	534.71
28.5667	527.45
28.5811	512.58
28.5956	492.22
28.6100	496.11
28.6245	493.82
28.6389	538.13
28.6533	520.20
28.6678	515.03
28.6822	529.19
28.6967	511.14
28.7111	545.25
28.7255	514.49
28.7400	519.45
28.7544	516.13
28.7689	478.41
28.7833	527.02
28.7977	498.67
28.8122	493.64
28.8266	513.65
28.8411	531.20
28.8555	526.60
28.8699	528.97
28.8844	501.13
28.8988	512.23
28.9133	544.08
28.9277	519.64
28.9421	524.53
28.9566	469.78
28.9710	468.94
28.9855	500.62
28.9999	520.34
29.0143	541.85
29.0288	505.79
29.0432	492.76
29.0577	507.19
29.0721	508.35
29.0865	519.76
29.1010	501.41
29.1154	565.23
29.1299	520.08
29.1443	490.70
29.1587	517.86
29.1732	517.54
29.1876	502.52
29.2021	520.32
29.2165	512.50
29.2309	511.84
29.2454	490.60
29.2598	513.66
29.2743	505.79
29.2887	502.84
29.3031	495.92
29.3176	524.47
29.3320	505.26
29.3465	485.77
29.3609	484.17
29.3753	487.54
29.3898	480.87
29.4042	483.94
29.4187	549.61
29.4331	523.35
29.4475	505.06
29.4620	500.08
29.4764	474.11
29.4909	495.06
29.5053	509.68
29.5197	482.84
29.5342	507.48
29.5486	514.37
29.5631	513.16
29.5775	515.89
29.5919	498.03
29.6064	540.56
29.6208	533.76
29.6353	531.07
29.6497	543.97
29.6641	504.72
29.6786	507.70
29.6930	518.19
29.7075	505.97
29.7219	468.59
29.7363	483.72
29.7508	505.89
29.7652	493.34
29.7797	478.40
29.7941	494.18
29.8085	499.21
29.8230	500.36
29.8374	529.07
29.8519	493.85
29.8663	539.74
29.8807	532.75
29.8952	502.73
29.9096	503.91
29.9241	484.16
29.9385	518.33
29.9529	512.44
29.9674	517.29
29.9818	462.42
29.9963	474.47
30.0107	498.20
30.0251	558.11
30.0396	498.25
30.0540	472.64
30.0685	503.25
30.0829	522.01
30.0973	551.28
30.1118	517.38
30.1262	519.30
30.1407	503.30
30.1551	501.80
30.1695	494.85
30.1840	492.35
30.1984	481.45
30.2129	483.29
30.2273	499.45
30.2417	497.95
30.2562	492.29
30.2706	532.42
30.2851	516.73
30.2995	479.55
30.3139	477.69
30.3284	459.84
30.3428	508.37
30.3573	532.94
30.3717	508.05
30.3861	479.47
30.4006	480.69
30.4150	512.09
30.4295	509.74
30.4439	513.13
30.4583	536.69
30.4728	564.82
30.4872	497.57
30.5017	500.02
30.5161	517.85
30.5305	531.35
30.5450	504.68
30.5594	490.26
30.5739	511.85
30.5883	523.23
30.6028	540.41
30.6172	524.25
30.6316	531.11
30.6461	533.01
30.6605	555.73
30.6750	530.02
30.6894	530.75
30.7038	600.57
30.7183	582.34
30.7327	577.21
30.7472	595.75
30.7616	626.34
30.7760	644.92
30.7905	619.33
30.8049	652.72
30.8194	664.84
30.8338	664.75
30.8482	654.25
30.8627	671.54
30.8771	657.92
30.8916	653.79
30.9060	695.66
30.9204	657.01
30.9349	590.71
30.9493	624.18
30.9638	583.85
30.9782	551.93
30.9926	563.41
31.0071	558.05
31.0215	588.77
31.0360	551.62
31.0504	574.82
31.0648	569.92
31.0793	507.27
31.0937	532.84
31.1082	548.54
31.1226	537.22
31.1370	536.23
31.1515	486.77
31.1659	537.65
31.1804	536.42
31.1948	542.15
31.2092	522.79
31.2237	509.22
31.2381	556.13
31.2526	532.66
31.2670	544.86
31.2814	523.25
31.2959	527.79
31.3103	547.22
31.3248	567.26
31.3392	541.90
31.3536	556.49
31.3681	521.95
31.3825	514.45
31.3970	514.26
31.4114	498.34
31.4258	516.13
31.4403	520.18
31.4547	513.75
31.4692	521.12
31.4836	532.71
31.4980	522.47
31.5125	526.43
31.5269	548.38
31.5414	524.95
31.5558	512.74
31.5702	491.37
31.5847	518.27
31.5991	510.32
31.6136	496.61
31.6280	536.96
31.6424	550.27
31.6569	527.57
31.6713	503.80
31.6858	491.15
31.7002	517.25
31.7146	519.25
31.7291	499.26
31.7435	492.34
31.7580	519.40
31.7724	518.32
31.7868	513.49
31.8013	484.08
31.8157	517.00
31.8302	504.16
31.8446	489.98
31.8590	524.40
31.8735	519.15
31.8879	538.95
31.9024	503.74
31.9168	500.79
31.9312	527.89
31.9457	527.36
31.9601	511.70
31.9746	500.51
31.9890	485.54
32.0034	491.31
32.0179	502.72
32.0323	469.69
32.0468	485.87
32.0612	506.55
32.0756	544.55
32.0901	535.23
32.1045	497.51
32.1190	496.72
32.1334	501.63
32.1478	502.96
32.1623	516.73
32.1767	506.93
32.1912	557.35
32.2056	487.66
32.2200	494.49
32.2345	508.46
32.2489	493.05
32.2634	528.03
32.2778	555.35
32.2922	498.45
32.3067	498.87
32.3211	492.05
32.3356	509.54
32.3500	539.13
32.3644	521.40
32.3789	518.10
32.3933	491.16
32.4078	502.57
32.4222	515.24
32.4366	526.58
32.4511	502.29
32.4655	526.12
32.4800	540.67
32.4944	517.34
32.5088	517.51
32.5233	483.90
32.5377	520.69
32.5522	496.62
32.5666	518.64
32.5810	486.22
32.5955	484.83
32.6099	527.84
32.6244	473.04
32.6388	515.40
32.6532	520.67
32.6677	497.23
32.6821	493.10
32.6966	519.12
32.7110	520.85
32.7254	493.40
32.7399	527.27
32.7543	543.70
32.7688	525.25
32.7832	502.38
32.7976	493.56
32.8121	473.11
32.8265	520.98
32.8410	519.29
32.8554	512.64
32.8698	530.90
32.8843	487.92
32.8987	513.59
32.9132	511.48
32.9276	480.32
32.9420	519.67
32.9565	498.69
32.9709	508.54
32.9854	520.48
32.9998	511.49
33.0142	481.27
33.0287	469.00
33.0431	494.14
33.0576	516.31
33.0720	478.56
33.0864	530.03
33.1009	544.76
33.1153	520.22
33.1298	490.87
33.1442	471.38
33.1586	516.01
33.1731	529.04
33.1875	534.42
33.2020	487.53
33.2164	468.96
33.2308	505.32
33.2453	511.65
33.2597	510.64
33.2742	496.29
33.2886	534.34
33.3030	476.46
33.3175	500.43
33.3319	521.58
33.3464	499.37
33.3608	505.18
33.3752	498.74
33.3897	517.91
33.4041	521.65
33.4186	514.81
33.4330	512.29
33.4474	498.75
33.4619	523.25
33.4763	536.00
33.4908	531.21
33.5052	461.22
33.5196	525.17
33.5341	502.24
33.5485	506.06
33.5630	488.16
33.5774	512.27
33.5918	537.33
33.6063	527.02
33.6207	503.67
33.6352	511.62
33.6496	508.11
33.6640	503.51
33.6785	491.30
33.6929	489.06
33.7074	535.15
33.7218	511.34
33.7362	474.87
33.7507	484.31
33.7651	496.12
33.7796	496.05
33.7940	489.24
33.8084	544.81
33.8229	489.69
33.8373	495.44
33.8518	478.76
33.8662	521.79
33.8806	481.13
33.8951	509.85
33.9095	506.36
33.9240	508.95
33.9384	501.29
33.9528	460.39
33.9673	481.30
33.9817	494.54
33.9962	480.76
34.0106	506.44
34.0250	507.44
34.0395	533.59
34.0539	503.55
34.0684	527.88
34.0828	541.44
34.0972	507.34
34.1117	509.45
34.1261	484.63
34.1406	498.52
34.1550	496.49
34.1694	516.14
34.1839	499.57
34.1983	489.16
34.2128	522.25
34.2272	526.68
34.2417	503.23
34.2561	501.30
34.2705	525.57
34.2850	507.12
34.2994	525.25
34.3139	519.02
34.3283	505.89
34.3427	534.50
34.3572	510.57
34.3716	517.94
34.3861	514.15
34.4005	514.69
34.4149	526.38
34.4294	523.96
34.4438	495.88
34.4583	486.78
34.4727	508.49
34.4871	516.95
34.5016	492.78
34.5160	490.40
34.5305	504.65
34.5449	500.22
34.5593	499.60
34.5738	477.30
34.5882	506.51
34.6027	485.51
34.6171	532.63
34.6315	496.73
34.6460	511.72
34.6604	540.23
34.6749	539.67
34.6893	507.37
34.7037	525.25
34.7182	526.79
34.7326	499.59
34.7471	484.45
34.7615	472.72
34.7759	529.74
34.7904	510.11
34.8048	516.26
34.8193	525.18
34.8337	498.86
34.8481	489.34
34.8626	517.18
34.8770	507.70
34.8915	480.87
34.9059	555.76
34.9203	504.97
34.9348	477.43
34.9492	494.81
34.9637	512.88
34.9781	476.02
34.9925	491.66
35.0070	494.40
35.0214	486.65
35.0359	519.21
35.0503	516.97
35.0647	519.46
35.0792	516.49
35.0936	528.22
35.1081	490.70
35.1225	504.47
35.1369	492.51
35.1514	506.19
35.1658	508.17
35.1803	519.97
35.1947	463.21
35.2091	505.73
35.2236	496.10
35.2380	533.96
35.2525	522.97
35.2669	489.05
35.2813	494.68
35.2958	516.11
35.3102	567.45
35.3247	515.94
35.3391	513.27
35.3535	481.53
35.3680	494.48
35.3824	476.75
35.3969	515.18
35.4113	505.98
35.4257	517.92
35.4402	492.37
35.4546	524.21
35.4691	550.74
35.4835	538.90
35.4979	538.78
35.5124	518.34
35.5268	570.57
35.5413	590.74
35.5557	587.50
35.5701	562.85
35.5846	531.93
35.5990	529.88
35.6135	495.76
35.6279	495.84
35.6423	540.61
35.6568	548.00
35.6712	538.30
35.6857	588.94
35.7001	671.47
35.7145	690.75
35.7290	666.11
35.7434	596.35
35.7579	558.30
35.7723	569.64
35.7867	610.95
35.8012	672.98
35.8156	677.95
35.8301	649.19
35.8445	617.02
35.8589	628.57
35.8734	738.24
35.8878	872.97
35.9023	942.18
35.9167	1005.36
35.9311	1275.98
35.9456	2032.27
35.9600	2353.36
35.9745	1905.57
35.9889	2007.86
36.0033	2783.21
36.0178	3120.96
36.0322	2372.92
36.0467	1922.03
36.0611	1769.30
36.0755	1715.73
36.0900	1633.86
36.1044	1375.64
36.1189	1470.14
36.1333	1314.54
36.1477	1145.24
36.1622	1130.93
36.1766	1129.66
36.1911	988.50
36.2055	928.12
36.2199	927.69
36.2344	898.56
36.2488	904.04
36.2633	896.73
36.2777	936.18
36.2921	936.81
36.3066	970.07
36.3210	998.68
36.3355	994.42
36.3499	942.66
36.3643	885.20
36.3788	845.69
36.3932	793.08
36.4077	751.35
36.4221	746.08
36.4365	739.59
36.4510	750.31
36.4654	692.17
36.4799	650.74
36.4943	621.72
36.5087	615.45
36.5232	618.73
36.5376	623.52
36.5521	571.70
36.5665	601.91
36.5809	573.09
36.5954	585.15
36.6098	587.70
36.6243	563.51
36.6387	541.21
36.6531	531.42
36.6676	533.50
36.6820	538.93
36.6965	521.38
36.7109	560.36
36.7253	546.28
36.7398	533.39
36.7542	507.55
36.7687	541.44
36.7831	510.82
36.7975	571.69
36.8120	604.45
36.8264	585.28
36.8409	608.62
36.8553	576.69
36.8697	576.45
36.8842	600.10
36.8986	622.25
36.9131	557.96
36.9275	545.42
36.9419	631.26
36.9564	594.79
36.9708	580.91
36.9853	564.26
36.9997	583.38
37.0141	544.42
37.0286	536.01
37.0430	520.67
37.0575	537.80
37.0719	553.66
37.0863	527.27
37.1008	513.96
37.1152	530.99
37.1297	512.49
37.1441	515.49
37.1585	557.30
37.1730	534.38
37.1874	524.00
37.2019	521.66
37.2163	512.98
37.2307	511.71
37.2452	480.11
37.2596	505.87
37.2741	526.20
37.2885	541.35
37.3029	490.07
37.3174	458.37
37.3318	550.21
37.3463	519.68
37.3607	532.08
37.3751	514.31
37.3896	499.77
37.4040	505.30
37.4185	508.10
37.4329	536.52
37.4473	514.14
37.4618	512.67
37.4762	546.30
37.4907	515.24
37.5051	503.52
37.5195	493.83
37.5340	506.51
37.5484	519.70
37.5629	509.06
37.5773	504.63
37.5917	512.00
37.6062	515.72
37.6206	513.55
37.6351	468.05
37.6495	495.45
37.6639	499.68
37.6784	492.41
37.6928	482.38
37.7073	529.02
37.7217	479.74
37.7361	459.95
37.7506	495.84
37.7650	513.99
37.7795	510.68
37.7939	506.13
37.8083	492.14
37.8228	493.58
37.8372	500.60
37.8517	477.00
37.8661	523.13
37.8805	487.74
37.8950	531.77
37.9094	558.94
37.9239	477.00
37.9383	493.76
37.9528	525.25
37.9672	522.00
37.9816	504.99
37.9961	506.58
38.0105	507.30
38.0250	508.45
38.0394	516.90
38.0538	502.48
38.0683	532.57
38.0827	527.27
38.0972	529.65
38.1116	540.87
38.1260	494.71
38.1405	481.81
38.1549	508.82
38.1694	531.90
38.1838	507.43
38.1982	502.48
38.2127	463.03
38.2271	489.98
38.2416	517.68
38.2560	487.48
38.2704	500.88
38.2849	534.91
38.2993	490.56
38.3138	522.20
38.3282	537.38
38.3426	507.35
38.3571	517.36
38.3715	496.38
38.3860	539.43
38.4004	496.97
38.4148	542.82
38.4293	583.83
38.4437	556.74
38.4582	613.62
38.4726	646.00
38.4870	698.34
38.5015	737.80
38.5159	772.65
38.5304	824.48
38.5448	815.17
38.5592	780.88
38.5737	794.25
38.5881	749.62
38.6026	729.34
38.6170	698.06
38.6314	663.51
38.6459	640.54
38.6603	652.82
38.6748	586.54
38.6892	559.57
38.7036	550.51
38.7181	541.24
38.7325	533.33
38.7470	524.07
38.7614	523.31
38.7758	498.23
38.7903	511.90
38.8047	503.95
38.8192	536.79
38.8336	482.13
38.8480	518.23
38.8625	504.07
38.8769	524.03
38.8914	495.52
38.9058	512.54
38.9202	482.39
38.9347	489.63
38.9491	513.42
38.9636	487.88
38.9780	479.94
38.9924	506.60
39.0069	502.36
39.0213	515.06
39.0358	510.95
39.0502	508.45
39.0646	531.28
39.0791	555.62
39.0935	533.05
39.1080	507.89
39.1224	505.17
39.1368	491.45
39.1513	462.17
39.1657	495.44
39.1802	519.00
39.1946	515.85
39.2090	500.76
39.2235	491.81
39.2379	519.80
39.2524	501.96
39.2668	517.21
39.2812	552.14
39.2957	530.44
39.3101	547.10
39.3246	562.78
39.3390	506.34
39.3534	501.17
39.3679	518.66
39.3823	483.09
39.3968	502.37
39.4112	497.44
39.4256	553.01
39.4401	518.26
39.4545	500.40
39.4690	505.97
39.4834	525.65
39.4978	511.76
39.5123	505.69
39.5267	513.66
39.5412	532.38
39.5556	494.07
39.5700	476.08
39.5845	482.98
39.5989	483.60
39.6134	508.74
39.6278	481.79
39.6422	487.91
39.6567	514.71
39.6711	501.99
39.6856	500.62
39.7000	498.88
39.7144	514.59
39.7289	518.95
39.7433	497.82
39.7578	507.88
39.7722	520.61
39.7866	529.48
39.8011	477.16
39.8155	489.92
39.8300	517.79
39.8444	474.44
39.8588	510.91
39.8733	492.55
39.8877	465.68
39.9022	484.26
39.9166	487.53
39.9310	485.32
39.9455	509.90
39.9599	514.09
39.9744	500.06
39.9888	521.82
40.0032	508.65
40.0177	479.63
40.0321	482.15
40.0466	484.15
40.0610	505.69
40.0754	479.75
40.0899	493.01
40.1043	487.67
40.1188	510.36
40.1332	491.63
40.1476	471.26
40.1621	503.64
40.1765	532.02
40.1910	492.55
40.2054	466.54
40.2198	483.00
40.2343	479.92
40.2487	521.29
40.2632	508.06
40.2776	525.80
40.2920	476.70
40.3065	505.15
40.3209	501.29
40.3354	470.73
40.3498	466.40
40.3642	499.99
40.3787	496.63
40.3931	457.18
40.4076	503.12
40.4220	486.57
40.4364	482.70
40.4509	464.45
40.4653	504.89
40.4798	473.14
40.4942	509.93
40.5086	497.75
40.5231	491.58
40.5375	527.12
40.5520	514.97
40.5664	507.67
40.5808	481.42
40.5953	519.51
40.6097	502.57
40.6242	476.44
40.6386	509.65
40.6530	518.75
40.6675	491.35
40.6819	510.53
40.6964	486.43
40.7108	517.01
40.7252	472.36
40.7397	490.76
40.7541	498.61
40.7686	504.00
40.7830	525.66
40.7974	519.87
40.8119	479.54
40.8263	485.99
40.8408	514.87
40.8552	505.23
40.8696	497.93
40.8841	488.84
40.8985	517.67
40.9130	479.89
40.9274	524.93
40.9418	566.27
40.9563	525.20
40.9707	484.76
40.9852	514.91
40.9996	516.32
41.0140	463.59
41.0285	479.77
41.0429	476.22
41.0574	515.91
41.0718	476.45
41.0862	467.86
41.1007	497.26
41.1151	469.68
41.1296	490.89
41.1440	488.83
41.1584	539.17
41.1729	516.07
41.1873	498.22
41.2018	483.33
41.2162	494.97
41.2306	491.46
41.2451	499.59
41.2595	493.32
41.2740	496.99
41.2884	515.49
41.3028	501.07
41.3173	536.99
41.3317	511.30
41.3462	513.30
41.3606	515.92
41.3750	512.34
41.3895	472.33
41.4039	503.32
41.4184	491.30
41.4328	485.79
41.4472	512.09
41.4617	486.96
41.4761	520.48
41.4906	495.61
41.5050	489.28
41.5194	482.16
41.5339	521.10
41.5483	513.28
41.5628	500.82
41.5772	509.14
41.5916	499.61
41.6061	507.15
41.6205	505.53
41.6350	490.16
41.6494	529.30
41.6639	495.07
41.6783	445.64
41.6927	512.58
41.7072	495.00
41.7216	499.95
41.7361	489.97
41.7505	516.24
41.7649	478.60
41.7794	508.68
41.7938	486.64
41.8083	502.65
41.8227	516.11
41.8371	522.19
41.8516	469.81
41.8660	534.74
41.8805	540.93
41.8949	537.74
41.9093	561.80
41.9238	534.39
41.9382	562.29
41.9527	589.06
41.9671	568.49
41.9815	576.41
41.9960	579.62
42.0104	568.05
42.0249	565.27
42.0393	541.35
42.0537	596.95
42.0682	605.87
42.0826	607.46
42.0971	579.74
42.1115	578.42
42.1259	587.81
42.1404	593.48
42.1548	599.82
42.1693	648.68
42.1837	711.75
42.1981	760.78
42.2126	814.88
42.2270	923.78
42.2415	1076.42
42.2559	1205.90
42.2703	1390.37
42.2848	1527.83
42.2992	1588.80
42.3137	1695.87
42.3281	1712.00
42.3425	1570.69
42.3570	1507.06
42.3714	1408.72
42.3859	1370.17
42.4003	1360.91
42.4147	1342.80
42.4292	1358.03
42.4436	1205.41
42.4581	1061.12
42.4725	980.89
42.4869	883.07
42.5014	777.86
42.5158	746.84
42.5303	697.41
42.5447	621.14
42.5591	600.89
42.5736	603.96
42.5880	579.18
42.6025	577.11
42.6169	567.52
42.6313	568.02
42.6458	573.34
42.6602	568.50
42.6747	522.07
42.6891	501.41
42.7035	542.40
42.7180	529.58
42.7324	508.06
42.7469	510.39
42.7613	508.00
42.7757	522.19
42.7902	489.67
42.8046	501.48
42.8191	537.15
42.8335	503.01
42.8479	507.30
42.8624	554.71
42.8768	518.22
42.8913	539.43
42.9057	502.49
42.9201	487.54
42.9346	534.94
42.9490	524.49
42.9635	477.99
42.9779	481.61
42.9923	542.02
43.0068	543.08
43.0212	519.51
43.0357	464.84
43.0501	489.93
43.0645	521.16
43.0790	525.38
43.0934	521.16
43.1079	510.97
43.1223	538.23
43.1367	508.37
43.1512	493.84
43.1656	545.49
43.1801	546.79
43.1945	545.89
43.2089	545.51
43.2234	527.35
43.2378	532.11
43.2523	535.18
43.2667	532.57
43.2811	510.85
43.2956	504.62
43.3100	566.99
43.3245	559.11
43.3389	534.41
43.3533	528.67
43.3678	523.41
43.3822	494.36
43.3967	511.07
43.4111	534.90
43.4255	560.26
43.4400	530.40
43.4544	483.19
43.4689	512.33
43.4833	529.97
43.4977	489.93
43.5122	508.46
43.5266	558.20
43.5411	516.43
43.5555	529.79
43.5699	533.66
43.5844	507.37
43.5988	543.83
43.6133	523.16
43.6277	499.56
43.6421	524.58
43.6566	518.63
43.6710	474.37
43.6855	535.60
43.6999	554.74
43.7143	526.38
43.7288	504.29
43.7432	502.38
43.7577	513.30
43.7721	514.63
43.7865	525.11
43.8010	531.93
43.8154	542.14
43.8299	523.78
43.8443	516.62
43.8587	515.69
43.8732	493.69
43.8876	508.56
43.9021	510.94
43.9165	506.46
43.9309	520.31
43.9454	523.39
43.9598	560.45
43.9743	502.72
43.9887	527.06
44.0031	564.35
44.0176	552.54
44.0320	542.28
44.0465	584.40
44.0609	596.05
44.0753	604.64
44.0898	585.36
44.1042	618.02
44.1187	637.87
44.1331	594.02
44.1475	565.26
44.1620	574.18
44.1764	579.55
44.1909	610.75
44.2053	624.30
44.2197	610.44
44.2342	563.90
44.2486	590.77
44.2631	542.06
44.2775	561.44
44.2919	557.46
44.3064	558.50
44.3208	574.09
44.3353	573.21
44.3497	572.60
44.3641	557.30
44.3786	525.35
44.3930	534.83
44.4075	516.47
44.4219	572.51
44.4363	565.87
44.4508	593.88
44.4652	549.32
44.4797	582.90
44.4941	551.39
44.5085	546.73
44.5230	584.07
44.5374	609.99
44.5519	595.98
44.5663	577.73
44.5807	554.13
44.5952	578.58
44.6096	605.81
44.6241	588.67
44.6385	584.31
44.6529	597.96
44.6674	567.89
44.6818	609.63
44.6963	610.38
44.7107	654.21
44.7251	706.66
44.7396	755.25
44.7540	797.69
44.7685	826.15
44.7829	903.84
44.7973	900.05
44.8118	869.28
44.8262	835.38
44.8407	728.60
44.8551	722.86
44.8695	731.45
44.8840	745.66
44.8984	775.91
44.9129	755.45
44.9273	680.26
44.9417	684.30
44.9562	584.50
44.9706	585.97
44.9851	618.62
44.9995	565.68
45.0139	566.16
45.0284	517.68
45.0428	529.30
45.0573	546.87
45.0717	507.75
45.0861	544.01
45.1006	521.70
45.1150	534.21
45.1295	538.53
45.1439	520.73
45.1583	532.87
45.1728	546.13
45.1872	515.95
45.2017	502.75
45.2161	508.45
45.2305	497.30
45.2450	509.84
45.2594	512.41
45.2739	488.95
45.2883	506.85
45.3028	501.00
45.3172	529.51
45.3316	541.30
45.3461	550.11
45.3605	512.34
45.3750	488.28
45.3894	532.56
45.4038	485.08
45.4183	475.34
45.4327	499.19
45.4472	491.92
45.4616	521.16
45.4760	524.24
45.4905	494.97
45.5049	494.24
45.5194	511.34
45.5338	506.82
45.5482	521.47
45.5627	499.11
45.5771	496.48
45.5916	527.40
45.6060	516.82
45.6204	513.89
45.6349	529.13
45.6493	471.41
45.6638	508.89
45.6782	518.73
45.6926	487.99
45.7071	493.25
45.7215	510.45
45.7360	520.43
45.7504	542.63
45.7648	522.54
45.7793	517.59
45.7937	497.83
45.8082	517.21
45.8226	504.12
45.8370	500.23
45.8515	516.56
45.8659	526.30
45.8804	492.10
45.8948	501.80
45.9092	510.94
45.9237	500.01
45.9381	503.90
45.9526	505.27
45.9670	517.02
45.9814	483.73
45.9959	498.20
46.0103	506.95
46.0248	535.15
46.0392	511.65
46.0536	510.11
46.0681	523.43
46.0825	510.37
46.0970	518.45
46.1114	474.75
46.1258	510.32
46.1403	494.10
46.1547	530.75
46.1692	523.78
46.1836	532.46
46.1980	482.66
46.2125	498.98
46.2269	484.15
46.2414	512.00
46.2558	483.59
46.2702	469.54
46.2847	520.77
46.2991	502.42
46.3136	504.66
46.3280	497.30
46.3424	525.91
46.3569	504.18
46.3713	504.01
46.3858	518.46
46.4002	479.62
46.4146	476.46
46.4291	483.08
46.4435	479.36
46.4580	484.05
46.4724	526.44
46.4868	517.45
46.5013	538.55
46.5157	492.74
46.5302	498.28
46.5446	487.98
46.5590	517.74
46.5735	501.14
46.5879	528.41
46.6024	518.69
46.6168	519.88
46.6312	520.52
46.6457	521.71
46.6601	490.14
46.6746	478.71
46.6890	489.11
46.7034	517.42
46.7179	523.19
46.7323	521.90
46.7468	478.29
46.7612	488.50
46.7756	491.71
46.7901	513.72
46.8045	509.74
46.8190	505.36
46.8334	475.43
46.8478	515.20
46.8623	526.46
46.8767	528.92
46.8912	495.05
46.9056	527.43
46.9200	508.42
46.9345	517.79
46.9489	499.70
46.9634	488.46
46.9778	495.34
46.9922	488.22
47.0067	510.39
47.0211	514.72
47.0356	523.50
47.0500	521.95
47.0644	513.90
47.0789	525.60
47.0933	525.71
47.1078	520.24
47.1222	520.01
47.1366	537.12
47.1511	486.38
47.1655	473.69
47.1800	482.66
47.1944	487.84
47.2088	489.43
47.2233	525.40
47.2377	539.25
47.2522	492.27
47.2666	498.20
47.2810	518.34
47.2955	511.01
47.3099	504.23
47.3244	480.69
47.3388	500.62
47.3532	485.89
47.3677	479.82
47.3821	504.21
47.3966	516.53
47.4110	489.21
47.4254	510.45
47.4399	477.48
47.4543	478.10
47.4688	530.57
47.4832	489.54
47.4976	472.18
47.5121	485.70
47.5265	509.25
47.5410	525.96
47.5554	509.45
47.5698	486.58
47.5843	506.49
47.5987	504.13
47.6132	488.85
47.6276	518.37
47.6420	547.12
47.6565	518.79
47.6709	526.09
47.6854	498.30
47.6998	496.49
47.7142	487.87
47.7287	503.83
47.7431	494.20
47.7576	500.98
47.7720	512.02
47.7864	486.54
47.8009	481.41
47.8153	514.47
47.8298	512.23
47.8442	530.17
47.8586	485.48
47.8731	525.62
47.8875	524.48
47.9020	533.55
47.9164	505.94
47.9308	474.56
47.9453	503.37
47.9597	491.95
47.9742	498.71
47.9886	468.07
48.0030	443.97
48.0175	517.62
48.0319	485.59
48.0464	461.59
48.0608	495.53
48.0752	480.12
48.0897	546.91
48.1041	509.38
48.1186	503.73
48.1330	541.85
48.1474	540.77
48.1619	516.67
48.1763	526.17
48.1908	535.56
48.2052	526.52
48.2196	510.46
48.2341	515.17
48.2485	512.25
48.2630	516.77
48.2774	507.67
48.2918	487.86
48.3063	546.01
48.3207	498.93
48.3352	505.58
48.3496	544.49
48.3640	489.21
48.3785	496.26
48.3929	489.10
48.4074	509.01
48.4218	496.27
48.4362	514.66
48.4507	519.16
48.4651	497.41
48.4796	551.78
48.4940	491.45
48.5084	487.72
48.5229	477.54
48.5373	496.34
48.5518	481.31
48.5662	497.64
48.5806	516.96
48.5951	513.89
48.6095	540.00
48.6240	542.69
48.6384	536.24
48.6528	498.68
48.6673	524.01
48.6817	493.35
48.6962	503.77
48.7106	539.30
48.7250	546.38
48.7395	533.77
48.7539	512.24
48.7684	467.69
48.7828	526.10
48.7972	524.47
48.8117	546.93
48.8261	521.95
48.8406	559.61
48.8550	550.15
48.8694	519.19
48.8839	528.18
48.8983	561.40
48.9128	569.49
48.9272	563.03
48.9416	551.51
48.9561	550.43
48.9705	544.56
48.9850	546.54
48.9994	576.00
49.0139	590.65
49.0283	584.64
49.0427	585.23
49.0572	581.28
49.0716	616.38
49.0861	695.53
49.1005	664.34
49.1149	708.29
49.1294	761.97
49.1438	736.49
49.1583	786.00
49.1727	838.00
49.1871	947.20
49.2016	913.47
49.2160	1067.40
49.2305	1121.15
49.2449	1209.90
49.2593	1318.15
49.2738	1421.56
49.2882	1458.42
49.3027	1571.89
49.3171	1683.82
49.3315	1749.37
49.3460	1801.95
49.3604	1805.66
49.3749	1818.09
49.3893	1842.47
49.4037	1792.50
49.4182	1792.35
49.4326	1822.57
49.4471	1765.04
49.4615	1676.12
49.4759	1577.63
49.4904	1524.89
49.5048	1416.56
49.5193	1327.01
49.5337	1291.49
49.5481	1210.62
49.5626	1136.72
49.5770	1100.02
49.5915	1017.05
49.6059	935.52
49.6203	838.92
49.6348	810.21
49.6492	820.68
49.6637	792.94
49.6781	703.65
49.6925	704.23
49.7070	742.32
49.7214	664.47
49.7359	605.39
49.7503	600.59
49.7647	596.01
49.7792	606.97
49.7936	604.92
49.8081	569.70
49.8225	590.73
49.8369	568.67
49.8514	543.07
49.8658	547.58
49.8803	555.02
49.8947	542.95
49.9091	556.45
49.9236	542.52
49.9380	537.65
49.9525	525.79
49.9669	525.33
49.9813	549.75
49.9958	523.67
50.0102	552.77
50.0247	510.66
50.0391	531.54
50.0535	511.25
50.0680	508.79
50.0824	557.80
50.0969	540.37
50.1113	555.80
50.1257	544.60
50.1402	533.11
50.1546	489.54
50.1691	509.51
50.1835	515.74
50.1979	517.16
50.2124	473.78
50.2268	508.93
50.2413	542.76
50.2557	504.88
50.2701	488.70
50.2846	509.45
50.2990	496.97
50.3135	538.91
50.3279	503.54
50.3423	524.64
50.3568	490.30
50.3712	499.16
50.3857	530.83
50.4001	524.94
50.4145	529.18
50.4290	540.32
50.4434	512.37
50.4579	531.33
50.4723	560.99
50.4867	546.76
50.5012	494.82
50.5156	495.66
50.5301	489.00
50.5445	505.71
50.5589	508.12
50.5734	502.14
50.5878	508.90
50.6023	537.27
50.6167	517.22
50.6311	504.75
50.6456	527.13
50.6600	543.64
50.6745	503.53
50.6889	505.25
50.7033	505.90
50.7178	492.61
50.7322	487.53
50.7467	471.39
50.7611	474.49
50.7755	500.09
50.7900	487.35
50.8044	501.28
50.8189	508.05
50.8333	517.61
50.8477	498.34
50.8622	531.88
50.8766	526.40
50.8911	528.65
50.9055	537.02
50.9199	489.54
50.9344	502.20
50.9488	541.80
50.9633	516.85
50.9777	498.31
50.9921	511.21
51.0066	490.77
51.0210	496.07
51.0355	527.53
51.0499	506.46
51.0643	516.82
51.0788	533.51
51.0932	548.71
51.1077	514.58
51.1221	519.77
51.1365	521.78
51.1510	474.96
51.1654	498.30
51.1799	503.54
51.1943	508.32
51.2087	506.77
51.2232	488.41
51.2376	491.82
51.2521	488.48
51.2665	507.47
51.2809	505.66
51.2954	531.92
51.3098	527.29
51.3243	497.03
51.3387	513.52
51.3531	531.87
51.3676	521.04
51.3820	494.81
51.3965	503.43
51.4109	512.47
51.4253	526.10
51.4398	504.36
51.4542	529.19
51.4687	541.09
51.4831	513.39
51.4975	487.95
51.5120	489.93
51.5264	529.74
51.5409	524.76
51.5553	516.19
51.5697	497.83
51.5842	505.68
51.5986	495.22
51.6131	467.16
51.6275	531.01
51.6419	528.25
51.6564	506.69
51.6708	510.85
51.6853	520.76
51.6997	515.39
51.7141	518.07
51.7286	495.23
51.7430	489.23
51.7575	535.44
51.7719	532.03
51.7863	501.12
51.8008	495.60
51.8152	534.00
51.8297	535.52
51.8441	518.63
51.8585	537.77
51.8730	531.06
51.8874	511.91
51.9019	517.76
51.9163	495.09
51.9307	506.47
51.9452	539.39
51.9596	496.83
51.9741	482.50
51.9885	501.47
52.0029	498.58
52.0174	514.44
52.0318	516.89
52.0463	502.13
52.0607	505.27
52.0751	514.92
52.0896	544.73
52.1040	540.77
52.1185	514.10
52.1329	506.40
52.1473	498.21
52.1618	489.32
52.1762	501.25
52.1907	508.12
52.2051	496.78
52.2195	495.60
52.2340	502.95
52.2484	537.90
52.2629	500.95
52.2773	506.61
52.2917	516.83
52.3062	511.59
52.3206	525.56
52.3351	510.26
52.3495	550.93
52.3639	518.19
52.3784	515.52
52.3928	508.85
52.4073	504.03
52.4217	526.76
52.4361	517.19
52.4506	493.48
52.4650	498.49
52.4795	503.88
52.4939	544.88
52.5083	509.34
52.5228	510.93
52.5372	509.76
52.5517	475.84
52.5661	485.94
52.5805	527.32
52.5950	510.61
52.6094	539.18
52.6239	522.39
52.6383	521.73
52.6527	519.95
52.6672	529.22
52.6816	507.92
52.6961	490.48
52.7105	520.95
52.7250	530.35
52.7394	521.94
52.7538	470.04
52.7683	470.17
52.7827	522.66
52.7972	516.38
52.8116	519.21
52.8260	526.25
52.8405	519.77
52.8549	525.25
52.8694	546.54
52.8838	513.87
52.8982	524.21
52.9127	534.15
52.9271	521.81
52.9416	527.38
52.9560	491.25
52.9704	506.05
52.9849	492.81
52.9993	481.01
53.0138	500.71
53.0282	547.51
53.0426	478.72
53.0571	515.58
53.0715	535.80
53.0860	537.74
53.1004	488.19
53.1148	535.08
53.1293	525.07
53.1437	486.45
53.1582	502.09
53.1726	533.40
53.1870	463.12
53.2015	499.21
53.2159	516.13
53.2304	481.24
53.2448	524.86
53.2592	516.84
53.2737	510.14
53.2881	512.57
53.3026	490.97
53.3170	488.03
53.3314	514.75
53.3459	512.55
53.3603	485.95
53.3748	494.95
53.3892	518.95
53.4036	507.34
53.4181	524.33
53.4325	504.20
53.4470	506.17
53.4614	540.43
53.4758	527.15
53.4903	516.99
53.5047	526.31
53.5192	534.86
53.5336	535.14
53.5480	477.30
53.5625	513.05
53.5769	514.90
53.5914	527.59
53.6058	528.91
53.6202	518.05
53.6347	517.38
53.6491	487.00
53.6636	523.53
53.6780	487.94
53.6924	499.58
53.7069	550.33
53.7213	536.77
53.7358	500.92
53.7502	503.17
53.7646	506.11
53.7791	544.01
53.7935	519.88
53.8080	506.54
53.8224	510.25
53.8368	504.52
53.8513	497.62
53.8657	475.41
53.8802	511.70
53.8946	530.17
53.9090	527.65
53.9235	524.98
53.9379	514.44
53.9524	511.64
53.9668	551.13
53.9812	524.01
53.9957	537.86
54.0101	536.43
54.0246	495.69
54.0390	516.24
54.0534	533.09
54.0679	506.43
54.0823	524.28
54.0968	519.49
54.1112	477.72
54.1256	517.94
54.1401	553.81
54.1545	537.42
54.1690	528.62
54.1834	521.83
54.1978	504.75
54.2123	529.27
54.2267	520.76
54.2412	534.77
54.2556	515.37
54.2700	524.95
54.2845	524.36
54.2989	547.13
54.3134	535.83
54.3278	545.69
54.3422	519.37
54.3567	559.99
54.3711	539.38
54.3856	532.52
54.4000	497.54
54.4144	542.59
54.4289	552.83
54.4433	514.40
54.4578	552.99
54.4722	528.37
54.4866	525.62
54.5011	542.80
54.5155	546.00
54.5300	565.46
54.5444	547.43
54.5588	560.79
54.5733	559.91
54.5877	548.80
54.6022	564.20
54.6166	575.58
54.6310	549.91
54.6455	570.30
54.6599	582.59
54.6744	555.99
54.6888	547.20
54.7032	548.72
54.7177	592.01
54.7321	544.74
54.7466	567.40
54.7610	592.04
54.7754	581.99
54.7899	596.59
54.8043	568.97
54.8188	588.24
54.8332	600.98
54.8476	580.83
54.8621	588.14
54.8765	583.61
54.8910	551.16
54.9054	594.11
54.9198	569.77
54.9343	539.09
54.9487	529.60
54.9632	520.49
54.9776	551.42
54.9920	570.61
55.0065	512.98
55.0209	525.52
55.0354	560.61
55.0498	525.52
55.0642	523.47
55.0787	527.80
55.0931	537.87
55.1076	531.24
55.1220	515.74
55.1364	521.57
55.1509	505.91
55.1653	568.36
55.1798	536.27
55.1942	533.48
55.2086	510.31
55.2231	513.68
55.2375	520.86
55.2520	513.01
55.2664	521.31
55.2808	510.72
55.2953	494.57
55.3097	515.47
55.3242	515.62
55.3386	559.32
55.3530	544.52
55.3675	513.28
55.3819	531.31
55.3964	504.93
55.4108	509.48
55.4252	549.46
55.4397	545.61
55.4541	544.82
55.4686	536.63
55.4830	524.94
55.4974	525.66
55.5119	516.73
55.5263	537.09
55.5408	553.24
55.5552	526.64
55.5696	525.61
55.5841	501.03
55.5985	549.89
55.6130	528.14
55.6274	518.72
55.6418	502.93
55.6563	553.93
55.6707	528.50
55.6852	509.12
55.6996	510.86
55.7140	563.87
55.7285	530.11
55.7429	567.48
55.7574	518.78
55.7718	529.67
55.7862	518.31
55.8007	507.71
55.8151	501.59
55.8296	531.64
55.8440	550.08
55.8584	562.73
55.8729	496.73
55.8873	507.25
55.9018	527.83
55.9162	501.24
55.9306	531.45
55.9451	532.29
55.9595	504.43
55.9740	500.98
55.9884	499.51
56.0028	504.39
56.0173	526.73
56.0317	543.09
56.0462	519.89
56.0606	531.63
56.0750	542.23
56.0895	536.69
56.1039	534.04
56.1184	548.95
56.1328	557.11
56.1472	495.71
56.1617	522.67
56.1761	525.01
56.1906	507.52
56.2050	502.57
56.2194	513.37
56.2339	549.20
56.2483	526.19
56.2628	501.61
56.2772	506.53
56.2916	509.70
56.3061	537.32
56.3205	539.19
56.3350	535.38
56.3494	507.63
56.3639	488.90
56.3783	541.70
56.3927	509.69
56.4072	521.92
56.4216	515.05
56.4361	523.24
56.4505	518.11
56.4649	539.75
56.4794	530.75
56.4938	534.62
56.5083	535.21
56.5227	539.76
56.5371	546.12
56.5516	513.99
56.5660	484.42
56.5805	522.48
56.5949	523.20
56.6093	518.34
56.6238	525.82
56.6382	496.83
56.6527	573.35
56.6671	531.77
56.6815	510.10
56.6960	533.03
56.7104	553.41
56.7249	550.67
56.7393	526.68
56.7537	518.84
56.7682	509.87
56.7826	497.22
56.7971	532.28
56.8115	524.98
56.8259	529.97
56.8404	546.43
56.8548	539.17
56.8693	522.12
56.8837	495.33
56.8981	561.12
56.9126	530.17
56.9270	504.21
56.9415	529.58
56.9559	512.91
56.9703	532.27
56.9848	502.52
56.9992	512.44
57.0137	509.70
57.0281	542.21
57.0425	541.15
57.0570	509.37
57.0714	542.68
57.0859	556.74
57.1003	493.78
57.1147	507.78
57.1292	511.67
57.1436	516.64
57.1581	541.55
57.1725	527.43
57.1869	541.90
57.2014	539.12
57.2158	523.83
57.2303	498.12
57.2447	563.58
57.2591	539.24
57.2736	510.00
57.2880	532.62
57.3025	530.66
57.3169	537.54
57.3313	535.63
57.3458	512.68
57.3602	514.25
57.3747	533.73
57.3891	504.54
57.4035	529.60
57.4180	511.19
57.4324	540.00
57.4469	520.78
57.4613	510.88
57.4757	515.92
57.4902	531.22
57.5046	522.91
57.5191	513.56
57.5335	516.89
57.5479	520.53
57.5624	538.34
57.5768	521.53
57.5913	530.52
57.6057	540.19
57.6201	496.03
57.6346	550.72
57.6490	506.79
57.6635	502.81
57.6779	502.95
57.6923	498.74
57.7068	540.74
57.7212	544.83
57.7357	518.77
57.7501	557.42
57.7645	517.60
57.7790	545.41
57.7934	515.19
57.8079	517.86
57.8223	534.30
57.8367	531.57
57.8512	535.28
57.8656	553.67
57.8801	541.35
57.8945	564.43
57.9089	543.62
57.9234	551.17
57.9378	542.21
57.9523	552.50
57.9667	554.95
57.9811	536.71
57.9956	550.98
58.0100	534.16
58.0245	538.95
58.0389	532.68
58.0533	546.32
58.0678	549.58
58.0822	533.99
58.0967	561.45
58.1111	540.16
58.1255	543.25
58.1400	533.82
58.1544	566.98
58.1689	596.64
58.1833	588.02
58.1977	548.88
58.2122	593.39
58.2266	609.26
58.2411	631.81
58.2555	625.52
58.2699	618.37
58.2844	638.59
58.2988	668.84
58.3133	631.88
58.3277	622.52
58.3421	637.41
58.3566	625.47
58.3710	621.85
58.3855	625.08
58.3999	607.39
58.4143	639.89
58.4288	656.00
58.4432	637.05
58.4577	638.65
58.4721	630.96
58.4865	615.52
58.5010	613.76
58.5154	621.70
58.5299	613.32
58.5443	619.73
58.5587	621.79
58.5732	596.82
58.5876	590.82
58.6021	589.06
58.6165	583.34
58.6309	611.43
58.6454	595.57
58.6598	567.55
58.6743	579.56
58.6887	549.55
58.7031	595.79
58.7176	581.32
58.7320	548.69
58.7465	533.31
58.7609	542.13
58.7753	548.69
58.7898	516.13
58.8042	532.14
58.8187	559.52
58.8331	574.77
58.8475	554.18
58.8620	587.11
58.8764	569.74
58.8909	544.75
58.9053	557.07
58.9197	531.04
58.9342	548.46
58.9486	568.39
58.9631	568.88
58.9775	546.01
58.9919	528.94
59.0064	535.51
59.0208	542.21
59.0353	571.89
59.0497	569.11
59.0641	588.55
59.0786	558.06
59.0930	537.92
59.1075	504.23
59.1219	540.74
59.1363	518.46
59.1508	513.41
59.1652	543.17
59.1797	533.46
59.1941	534.46
59.2085	531.52
59.2230	504.97
59.2374	548.92
59.2519	563.28
59.2663	565.83
59.2807	557.91
59.2952	550.48
59.3096	542.63
59.3241	566.84
59.3385	594.88
59.3529	612.64
59.3674	580.23
59.3818	559.97
59.3963	554.91
59.4107	539.41
59.4251	574.30
59.4396	553.75
59.4540	569.13
59.4685	563.61
59.4829	544.17
59.4973	525.24
59.5118	544.81
59.5262	562.91
59.5407	561.10
59.5551	559.49
59.5695	557.10
59.5840	539.81
59.5984	567.91
59.6129	550.02
59.6273	525.48
59.6417	545.29
59.6562	544.74
59.6706	558.19
59.6851	530.42
59.6995	533.92
59.7139	564.48
59.7284	559.15
59.7428	562.61
59.7573	547.57
59.7717	547.40
59.7861	509.40
59.8006	501.95
59.8150	548.95
59.8295	553.46
59.8439	488.99
59.8583	524.49
59.8728	533.67
59.8872	523.64
59.9017	521.33
59.9161	524.91
59.9305	533.42
59.9450	599.23
59.9594	533.12
59.9739	523.89
59.9883	579.57
60.0027	526.10
60.0172	553.26
60.0316	568.80
60.0461	496.91
60.0605	534.57
60.0750	503.63
60.0894	535.72
60.1038	534.33
60.1183	524.33
60.1327	563.09
60.1472	524.72
60.1616	540.51
60.1760	523.29
60.1905	508.87
60.2049	530.56
60.2194	549.26
60.2338	556.90
60.2482	536.36
60.2627	534.83
60.2771	545.04
60.2916	517.34
60.3060	531.88
60.3204	522.00
60.3349	553.56
60.3493	545.04
60.3638	538.45
60.3782	525.46
60.3926	520.76
60.4071	517.76
60.4215	548.84
60.4360	560.78
60.4504	527.00
60.4648	562.33
60.4793	558.30
60.4937	561.82
60.5082	519.90
60.5226	532.90
60.5370	548.09
60.5515	553.93
60.5659	556.36
60.5804	546.76
60.5948	538.25
60.6092	508.97
60.6237	490.76
60.6381	557.19
60.6526	539.35
60.6670	520.29
60.6814	544.66
60.6959	519.41
60.7103	564.06
60.7248	548.79
60.7392	501.73
60.7536	531.19
60.7681	525.61
60.7825	531.59
60.7970	521.11
60.8114	546.84
60.8258	553.53
60.8403	504.33
60.8547	517.83
60.8692	553.33
60.8836	555.08
60.8980	581.54
60.9125	567.38
60.9269	571.04
60.9414	520.44
60.9558	573.83
60.9702	545.00
60.9847	553.04
60.9991	576.79
61.0136	563.41
61.0280	593.21
61.0424	546.55
61.0569	545.89
61.0713	532.00
61.0858	554.17
61.1002	564.05
61.1146	573.94
61.1291	572.90
61.1435	553.95
61.1580	520.81
61.1724	552.26
61.1868	541.74
61.2013	561.69
61.2157	551.47
61.2302	540.58
61.2446	536.10
61.2590	558.71
61.2735	524.99
61.2879	555.97
61.3024	529.30
61.3168	531.36
61.3312	553.93
61.3457	566.60
61.3601	533.20
61.3746	533.25
61.3890	520.04
61.4034	512.66
61.4179	548.05
61.4323	570.59
61.4468	573.16
61.4612	560.44
61.4756	562.77
61.4901	506.43
61.5045	551.96
61.5190	545.58
61.5334	547.08
61.5478	566.89
61.5623	577.49
61.5767	524.11
61.5912	535.86
61.6056	540.65
61.6200	534.02
61.6345	541.36
61.6489	569.14
61.6634	563.41
61.6778	533.39
61.6922	538.25
61.7067	554.12
61.7211	486.47
61.7356	535.75
61.7500	559.53
61.7644	516.85
61.7789	588.79
61.7933	553.70
61.8078	562.74
61.8222	512.86
61.8366	516.58
61.8511	558.61
61.8655	561.13
61.8800	514.53
61.8944	530.80
61.9088	548.51
61.9233	581.88
61.9377	557.34
61.9522	553.92
61.9666	557.21
61.9810	591.31
61.9955	536.21
62.0099	538.15
62.0244	539.16
62.0388	476.17
62.0532	515.64
62.0677	579.19
62.0821	546.88
62.0966	578.29
62.1110	584.28
62.1254	579.57
62.1399	577.20
62.1543	574.56
62.1688	541.75
62.1832	551.60
62.1976	545.94
62.2121	529.46
62.2265	534.00
62.2410	538.46
62.2554	532.34
62.2698	571.39
62.2843	574.61
62.2987	521.13
62.3132	520.12
62.3276	517.10
62.3420	513.32
62.3565	522.51
62.3709	534.29
62.3854	541.06
62.3998	554.88
62.4142	512.93
62.4287	570.25
62.4431	531.72
62.4576	534.73
62.4720	541.43
62.4864	547.23
62.5009	545.40
62.5153	538.83
62.5298	561.00
62.5442	540.86
62.5586	552.14
62.5731	557.90
62.5875	543.77
62.6020	560.38
62.6164	541.99
62.6308	562.89
62.6453	559.85
62.6597	577.60
62.6742	573.61
62.6886	559.00
62.7030	539.67
62.7175	550.10
62.7319	543.78
62.7464	563.12
62.7608	558.81
62.7752	557.21
62.7897	549.08
62.8041	560.84
62.8186	563.98
62.8330	557.77
62.8474	572.39
62.8619	557.57
62.8763	563.55
62.8908	536.77
62.9052	610.84
62.9196	579.16
62.9341	565.44
62.9485	584.89
62.9630	543.24
62.9774	559.33
62.9918	563.97
63.0063	574.79
63.0207	576.69
63.0352	537.62
63.0496	528.78
63.0640	567.36
63.0785	548.97
63.0929	581.25
63.1074	600.58
63.1218	570.08
63.1362	569.63
63.1507	558.83
63.1651	554.93
63.1796	561.99
63.1940	570.73
63.2084	563.30
63.2229	593.98
63.2373	593.45
63.2518	552.91
63.2662	561.08
63.2806	560.69
63.2951	570.36
63.3095	573.53
63.3240	553.03
63.3384	565.71
63.3528	610.73
63.3673	566.75
63.3817	576.00
63.3962	595.17
63.4106	543.29
63.4250	598.97
63.4395	554.52
63.4539	577.23
63.4684	569.20
63.4828	594.73
63.4972	575.04
63.5117	584.00
63.5261	586.99
63.5406	609.74
63.5550	634.90
63.5694	592.55
63.5839	559.93
63.5983	549.38
63.6128	591.19
63.6272	599.75
63.6416	572.61
63.6561	580.18
63.6705	574.56
63.6850	595.08
63.6994	587.41
63.7138	562.80
63.7283	585.13
63.7427	598.31
63.7572	582.57
63.7716	596.79
63.7861	546.93
63.8005	579.52
63.8149	591.22
63.8294	668.01
63.8438	643.39
63.8583	674.40
63.8727	631.63
63.8871	627.79
63.9016	690.48
63.9160	665.22
63.9305	704.98
63.9449	691.71
63.9593	706.66
63.9738	661.96
63.9882	701.09
64.0027	693.63
64.0171	717.52
64.0315	725.18
64.0460	713.35
64.0604	772.71
64.0749	796.06
64.0893	799.09
64.1037	768.66
64.1182	736.80
64.1326	739.51
64.1471	783.21
64.1615	778.82
64.1759	779.93
64.1904	770.48
64.2048	768.52
64.2193	747.99
64.2337	802.00
64.2481	790.22
64.2626	749.86
64.2770	753.71
64.2915	744.02
64.3059	701.99
64.3203	799.76
64.3348	755.84
64.3492	729.54
64.3637	729.52
64.3781	718.42
64.3925	688.49
64.4070	707.06
64.4214	715.07
64.4359	722.64
64.4503	683.09
64.4647	665.48
64.4792	643.44
64.4936	671.74
64.5081	674.34
64.5225	624.17
64.5369	636.03
64.5514	645.92
64.5658	711.34
64.5803	705.60
64.5947	616.31
64.6091	622.93
64.6236	659.00
64.6380	694.32
64.6525	671.28
64.6669	651.04
64.6813	679.10
64.6958	686.33
64.7102	690.13
64.7247	666.09
64.7391	691.09
64.7535	690.62
64.7680	703.89
64.7824	693.59
64.7969	698.93
64.8113	793.08
64.8257	753.49
64.8402	761.31
64.8546	795.64
64.8691	881.02
64.8835	843.47
64.8979	823.39
64.9124	848.88
64.9268	864.46
64.9413	920.31
64.9557	883.72
64.9701	903.69
64.9846	1026.25
64.9990	1112.68
65.0135	1262.18
65.0279	1412.03
65.0423	1642.07
65.0568	2052.32
65.0712	2523.44
65.0857	3305.33
65.1001	4296.95
65.1145	5846.96
65.1290	7711.77
65.1434	9379.18
65.1579	10904.20
65.1723	11746.40
65.1867	11258.52
65.2012	10026.42
65.2156	8394.00
65.2301	6681.32
65.2445	5468.31
65.2589	4507.38
65.2734	4200.77
65.2878	4322.70
65.3023	4847.54
65.3167	5761.00
65.3311	6506.78
65.3456	7001.16
65.3600	6965.79
65.3745	6357.16
65.3889	5512.40
65.4033	4473.95
65.4178	3544.47
65.4322	2787.82
65.4467	2086.11
65.4611	1730.59
65.4755	1448.91
65.4900	1268.27
65.5044	1138.55
65.5189	1078.41
65.5333	1001.41
65.5477	955.92
65.5622	888.58
65.5766	832.69
65.5911	831.73
65.6055	772.64
65.6199	725.76
65.6344	775.38
65.6488	800.59
65.6633	735.43
65.6777	768.28
65.6921	696.08
65.7066	669.71
65.7210	628.07
65.7355	688.26
65.7499	719.10
65.7643	665.49
65.7788	653.28
65.7932	638.65
65.8077	651.63
65.8221	662.11
65.8365	693.32
65.8510	652.12
65.8654	675.05
65.8799	658.86
65.8943	638.51
65.9087	677.06
65.9232	658.61
65.9376	650.86
65.9521	624.16
65.9665	637.46
65.9809	633.06
65.9954	609.18
66.0098	614.48
66.0243	643.72
66.0387	649.00
66.0531	626.65
66.0676	636.36
66.0820	625.77
66.0965	627.64
66.1109	640.70
66.1253	641.46
66.1398	597.32
66.1542	626.50
66.1687	628.27
66.1831	641.15
66.1975	627.46
66.2120	653.43
66.2264	611.60
66.2409	593.09
66.2553	605.71
66.2697	631.50
66.2842	610.55
66.2986	612.76
66.3131	608.50
66.3275	595.07
66.3419	640.02
66.3564	623.10
66.3708	617.43
66.3853	600.88
66.3997	596.35
66.4141	603.24
66.4286	626.71
66.4430	606.54
66.4575	624.56
66.4719	604.84
66.4863	590.72
66.5008	594.26
66.5152	631.43
66.5297	600.09
66.5441	595.45
66.5585	604.89
66.5730	580.16
66.5874	604.40
66.6019	571.99
66.6163	577.54
66.6307	604.46
66.6452	598.32
66.6596	578.20
66.6741	561.44
66.6885	561.40
66.7029	608.85
66.7174	593.87
66.7318	544.44
66.7463	589.40
66.7607	609.25
66.7751	609.30
66.7896	598.40
66.8040	590.40
66.8185	607.26
66.8329	592.46
66.8473	596.45
66.8618	593.66
66.8762	590.65
66.8907	570.84
66.9051	567.43
66.9195	575.47
66.9340	599.93
66.9484	612.06
66.9629	570.44
66.9773	551.89
66.9917	563.04
67.0062	579.67
67.0206	570.22
67.0351	595.21
67.0495	600.79
67.0639	572.27
67.0784	587.32
67.0928	609.53
67.1073	590.07
67.1217	578.17
67.1361	581.20
67.1506	563.64
67.1650	623.13
67.1795	585.93
67.1939	569.83
67.2083	573.07
67.2228	575.02
67.2372	585.81
67.2517	597.56
67.2661	575.30
67.2805	599.04
67.2950	583.69
67.3094	564.07
67.3239	581.42
67.3383	565.02
67.3527	598.74
67.3672	591.03
67.3816	567.53
67.3961	574.05
67.4105	559.21
67.4250	611.31
67.4394	547.87
67.4538	548.64
67.4683	594.69
67.4827	632.80
67.4972	600.00
67.5116	577.02
67.5260	602.94
67.5405	613.17
67.5549	592.93
67.5694	564.63
67.5838	554.42
67.5982	582.24
67.6127	540.99
67.6271	541.28
67.6416	552.15
67.6560	540.20
67.6704	554.89
67.6849	542.86
67.6993	569.91
67.7138	601.90
67.7282	574.59
67.7426	559.69
67.7571	596.05
67.7715	571.87
67.7860	565.72
67.8004	540.50
67.8148	570.73
67.8293	593.66
67.8437	566.17
67.8582	582.66
67.8726	600.62
67.8870	595.04
67.9015	636.61
67.9159	582.74
67.9304	599.15
67.9448	587.04
67.9592	559.77
67.9737	581.08
67.9881	582.72
68.0026	567.92
68.0170	595.42
68.0314	573.43
68.0459	557.67
68.0603	606.39
68.0748	595.05
68.0892	600.85
68.1036	548.23
68.1181	574.62
68.1325	611.36
68.1470	569.42
68.1614	588.81
68.1758	612.56
68.1903	591.91
68.2047	591.07
68.2192	596.33
68.2336	582.63
68.2480	545.54
68.2625	559.02
68.2769	563.31
68.2914	542.70
68.3058	560.20
68.3202	578.14
68.3347	578.43
68.3491	525.31
68.3636	550.97
68.3780	577.51
68.3924	564.27
68.4069	590.66
68.4213	610.07
68.4358	610.04
68.4502	533.75
68.4646	541.51
68.4791	596.01
68.4935	571.54
68.5080	588.00
68.5224	597.49
68.5368	540.40
68.5513	555.71
68.5657	549.84
68.5802	544.91
68.5946	592.30
68.6090	569.15
68.6235	550.31
68.6379	529.69
68.6524	603.68
68.6668	586.54
68.6812	572.54
68.6957	563.84
68.7101	616.16
68.7246	554.13
68.7390	559.69
68.7534	593.78
68.7679	585.89
68.7823	560.46
68.7968	605.57
68.8112	552.67
68.8256	595.02
68.8401	562.05
68.8545	587.01
68.8690	564.80
68.8834	562.60
68.8978	567.93
68.9123	647.01
68.9267	525.88
68.9412	567.60
68.9556	557.99
68.9700	554.37
68.9845	598.57
68.9989	550.84
69.0134	547.25
69.0278	545.32
69.0422	537.85
69.0567	528.90
69.0711	528.84
69.0856	593.56
69.1000	605.69
69.1144	571.54
69.1289	655.15
69.1433	579.74
69.1578	592.81
69.1722	614.03
69.1866	562.34
69.2011	580.14
69.2155	523.62
69.2300	550.83
69.2444	591.13
69.2588	572.41
69.2733	579.05
69.2877	605.25
69.3022	575.78
69.3166	577.92
69.3310	561.79
69.3455	563.90
69.3599	670.33
69.3744	605.89
69.3888	597.62
69.4032	576.76
69.4177	549.87
69.4321	508.53
69.4466	553.70
69.4610	612.90
69.4754	634.99
69.4899	588.33
69.5043	574.76
69.5188	602.91
69.5332	566.15
69.5476	613.98
69.5621	594.89
69.5765	517.32
69.5910	549.02
69.6054	541.26
69.6198	576.49
69.6343	578.75
69.6487	563.21
69.6632	579.65
69.6776	610.92
69.6920	543.11
69.7065	574.62
69.7209	593.40
69.7354	577.33
69.7498	600.58
69.7642	555.19
69.7787	573.36
69.7931	584.52
69.8076	596.28
69.8220	601.70
69.8364	610.88
69.8509	613.32
69.8653	565.01
69.8798	558.75
69.8942	580.69
69.9086	630.51
69.9231	586.93
69.9375	554.35
69.9520	615.21
69.9664	613.12
69.9808	592.03
69.9953	568.26
70.0097	585.00
70.0242	588.02
70.0386	553.29
70.0530	534.04
70.0675	543.03
70.0819	570.62
70.0964	617.30
70.1108	627.22
70.1252	588.05
70.1397	560.92
70.1541	567.53
70.1686	572.22
70.1830	621.67
70.1974	547.03
70.2119	577.40
70.2263	519.37
70.2408	533.16
70.2552	553.51
70.2696	592.15
70.2841	541.26
70.2985	525.53
70.3130	545.57
70.3274	603.55
70.3418	584.39
70.3563	554.64
70.3707	624.60
70.3852	579.63
70.3996	582.97
70.4140	563.93
70.4285	639.28
70.4429	604.55
70.4574	589.52
70.4718	522.29
70.4862	614.88
70.5007	607.29
70.5151	613.32
70.5296	557.68
70.5440	555.66
70.5584	556.96
70.5729	571.97
70.5873	595.70
70.6018	566.60
70.6162	589.26
70.6306	567.17
70.6451	573.57
70.6595	543.76
70.6740	622.04
70.6884	554.80
70.7028	595.39
70.7173	603.88
70.7317	585.44
70.7462	579.25
70.7606	581.26
70.7750	589.42
70.7895	610.20
70.8039	580.18
70.8184	562.23
70.8328	568.86
70.8472	588.37
70.8617	588.60
70.8761	635.72
70.8906	616.97
70.9050	607.45
70.9194	598.87
70.9339	645.82
70.9483	598.23
70.9628	597.91
70.9772	590.09
70.9916	536.45
71.0061	513.81
71.0205	555.40
71.0350	613.95
71.0494	570.92
71.0638	532.47
71.0783	598.85
71.0927	621.29
71.1072	607.46
71.1216	577.28
71.1361	578.35
71.1505	585.56
71.1649	598.21
71.1794	602.92
71.1938	597.90
71.2083	559.69
71.2227	570.46
71.2371	600.01
71.2516	569.39
71.2660	588.28
71.2805	584.41
71.2949	558.34
71.3093	561.49
71.3238	555.35
71.3382	557.97
71.3527	564.94
71.3671	591.96
71.3815	555.71
71.3960	540.13
71.4104	533.85
71.4249	566.36
71.4393	537.55
71.4537	519.08
71.4682	598.01
71.4826	617.49
71.4971	543.08
71.5115	547.31
71.5259	553.84
71.5404	556.32
71.5548	573.82
71.5693	535.80
71.5837	566.58
71.5981	596.70
71.6126	578.98
71.6270	575.19
71.6415	585.82
71.6559	549.95
71.6703	578.23
71.6848	656.43
71.6992	657.05
71.7137	582.75
71.7281	584.19
71.7425	617.19
71.7570	610.27
71.7714	619.59
71.7859	616.35
71.8003	624.09
71.8147	602.99
71.8292	558.06
71.8436	550.62
71.8581	499.02
71.8725	523.18
71.8869	560.80
71.9014	598.10
71.9158	593.09
71.9303	616.54
71.9447	697.93
71.9591	728.53
71.9736	663.65
71.9880	601.32
72.0025	594.83
72.0169	594.02
72.0313	523.45
72.0458	489.58
72.0602	550.11
72.0747	572.98
72.0891	603.73
72.1035	654.76
72.1180	635.76
72.1324	682.53
72.1469	586.67
72.1613	489.55
72.1757	512.69
72.1902	575.93
72.2046	538.69
72.2191	564.07
72.2335	583.24
72.2479	574.65
72.2624	572.16
72.2768	561.37
72.2913	565.17
72.3057	632.60
72.3201	599.38
72.3346	528.39
72.3490	496.95
72.3635	516.88
72.3779	535.86
72.3923	512.57
72.4068	500.61
72.4212	564.67
72.4357	564.39
72.4501	477.58
72.4645	508.67
72.4790	543.16
72.4934	556.56
72.5079	565.08
72.5223	566.58
72.5367	491.64
72.5512	523.63
72.5656	645.18
72.5801	600.95
72.5945	529.98
72.6089	534.12
72.6234	598.45
72.6378	590.57
72.6523	538.43
72.6667	580.11
72.6811	586.07
72.6956	569.87
72.7100	609.42
72.7245	611.03
72.7389	600.97
72.7533	544.00
72.7678	563.97
72.7822	637.86
72.7967	613.95
72.8111	550.78
72.8255	623.23
72.8400	586.15
72.8544	552.09
72.8689	556.79
72.8833	551.84