2022.09.19 19:37:16
Îáðàçåö: ß÷åéêà LCoV 16-09-2022
Lambda1 = 1.54060
Lambda2 = 1.54439
Lambdam = 1.54186
R = 0.497
2Theta	I

line¹ 0 ;repeat¹ 0
22.1120	585.41
22.1264	576.76
22.1409	506.90
22.1553	488.02
22.1697	554.28
22.1842	621.93
22.1986	544.40
22.2131	604.99
22.2275	624.92
22.2419	523.70
22.2564	501.90
22.2708	583.17
22.2853	608.80
22.2997	558.18
22.3141	537.97
22.3286	611.14
22.3430	583.06
22.3575	519.18
22.3719	572.76
22.3863	547.13
22.4008	570.09
22.4152	545.19
22.4297	617.69
22.4441	716.18
22.4585	553.23
22.4730	626.82
22.4874	659.51
22.5019	562.87
22.5163	541.30
22.5307	544.59
22.5452	490.54
22.5596	587.26
22.5741	601.35
22.5885	561.51
22.6029	591.73
22.6174	557.84
22.6318	544.26
22.6463	545.26
22.6607	621.02
22.6751	545.85
22.6896	620.08
22.7040	637.90
22.7185	574.02
22.7329	529.00
22.7473	630.74
22.7618	586.42
22.7762	563.43
22.7907	561.07
22.8051	600.91
22.8195	580.63
22.8340	549.26
22.8484	541.82
22.8629	497.48
22.8773	511.87
22.8917	540.63
22.9062	562.15
22.9206	527.63
22.9351	524.88
22.9495	501.52
22.9639	572.26
22.9784	548.05
22.9928	517.22
23.0073	586.16
23.0217	597.86
23.0361	489.65
23.0506	557.42
23.0650	579.93
23.0795	543.33
23.0939	526.12
23.1083	517.96
23.1228	536.16
23.1372	552.53
23.1517	479.05
23.1661	511.51
23.1806	511.00
23.1950	514.36
23.2094	578.55
23.2239	556.63
23.2383	543.47
23.2528	533.91
23.2672	632.67
23.2816	577.24
23.2961	535.49
23.3105	564.23
23.3250	568.99
23.3394	507.07
23.3538	530.21
23.3683	547.88
23.3827	498.71
23.3972	442.93
23.4116	562.40
23.4260	566.38
23.4405	561.06
23.4549	583.05
23.4694	580.15
23.4838	503.37
23.4982	507.03
23.5127	541.11
23.5271	615.19
23.5416	663.21
23.5560	646.43
23.5704	613.79
23.5849	584.97
23.5993	579.34
23.6138	482.43
23.6282	491.32
23.6426	523.34
23.6571	564.87
23.6715	565.18
23.6860	589.11
23.7004	579.27
23.7148	616.84
23.7293	550.12
23.7437	566.53
23.7582	557.45
23.7726	556.07
23.7870	593.13
23.8015	564.11
23.8159	583.71
23.8304	583.54
23.8448	542.04
23.8592	571.85
23.8737	543.40
23.8881	529.04
23.9026	549.89
23.9170	557.13
23.9314	489.17
23.9459	465.99
23.9603	544.66
23.9748	560.07
23.9892	549.26
24.0036	575.55
24.0181	524.86
24.0325	598.48
24.0470	568.51
24.0614	560.46
24.0758	575.92
24.0903	587.56
24.1047	551.02
24.1192	581.56
24.1336	605.65
24.1480	589.49
24.1625	570.96
24.1769	555.02
24.1914	550.71
24.2058	582.24
24.2202	536.43
24.2347	602.21
24.2491	628.61
24.2636	565.98
24.2780	540.93
24.2924	563.63
24.3069	632.81
24.3213	564.15
24.3358	529.45
24.3502	561.12
24.3646	577.43
24.3791	570.49
24.3935	581.04
24.4080	572.18
24.4224	580.14
24.4368	575.06
24.4513	543.88
24.4657	556.07
24.4802	549.46
24.4946	581.99
24.5090	515.87
24.5235	577.04
24.5379	544.31
24.5524	567.50
24.5668	572.52
24.5812	507.26
24.5957	591.95
24.6101	528.15
24.6246	564.96
24.6390	582.12
24.6534	532.93
24.6679	519.63
24.6823	588.08
24.6968	586.65
24.7112	539.12
24.7256	530.84
24.7401	537.91
24.7545	566.09
24.7690	548.06
24.7834	554.46
24.7978	531.03
24.8123	521.63
24.8267	544.52
24.8412	582.06
24.8556	569.18
24.8700	559.88
24.8845	507.81
24.8989	529.33
24.9134	539.75
24.9278	559.69
24.9422	491.85
24.9567	491.89
24.9711	548.68
24.9856	566.24
25.0000	554.74
25.0144	543.63
25.0289	582.90
25.0433	598.97
25.0578	530.62
25.0722	527.43
25.0866	583.73
25.1011	566.16
25.1155	541.60
25.1300	580.08
25.1444	497.14
25.1588	526.78
25.1733	576.68
25.1877	558.02
25.2022	537.38
25.2166	527.95
25.2310	522.49
25.2455	526.20
25.2599	556.18
25.2744	552.68
25.2888	590.13
25.3032	549.55
25.3177	520.36
25.3321	567.77
25.3466	537.59
25.3610	564.18
25.3754	478.37
25.3899	522.87
25.4043	511.56
25.4188	539.04
25.4332	532.23
25.4476	512.98
25.4621	557.47
25.4765	552.20
25.4910	546.31
25.5054	578.69
25.5198	522.78
25.5343	563.64
25.5487	560.50
25.5632	531.88
25.5776	574.38
25.5920	537.79
25.6065	533.59
25.6209	514.10
25.6354	562.75
25.6498	546.04
25.6642	556.77
25.6787	525.22
25.6931	509.00
25.7076	552.26
25.7220	552.94
25.7364	524.64
25.7509	517.10
25.7653	531.81
25.7798	582.69
25.7942	554.20
25.8086	539.51
25.8231	528.33
25.8375	565.00
25.8520	540.87
25.8664	528.03
25.8808	543.06
25.8953	535.18
25.9097	575.68
25.9242	551.25
25.9386	531.39
25.9530	535.14
25.9675	522.75
25.9819	518.08
25.9964	505.09
26.0108	526.67
26.0252	525.64
26.0397	489.70
26.0541	509.04
26.0686	525.63
26.0830	531.74
26.0974	508.16
26.1119	533.02
26.1263	562.28
26.1408	558.37
26.1552	537.23
26.1696	521.28
26.1841	510.77
26.1985	537.12
26.2130	533.36
26.2274	513.74
26.2418	537.38
26.2563	517.68
26.2707	547.20
26.2852	525.74
26.2996	519.19
26.3140	521.51
26.3285	521.13
26.3429	530.19
26.3574	543.20
26.3718	552.31
26.3862	545.35
26.4007	490.68
26.4151	527.11
26.4296	549.51
26.4440	533.29
26.4584	517.81
26.4729	522.84
26.4873	552.67
26.5018	551.36
26.5162	512.90
26.5306	547.75
26.5451	553.51
26.5595	544.05
26.5740	533.05
26.5884	545.70
26.6028	554.74
26.6173	515.51
26.6317	526.69
26.6462	536.26
26.6606	551.93
26.6750	533.13
26.6895	560.46
26.7039	532.86
26.7184	559.27
26.7328	524.88
26.7472	510.20
26.7617	558.75
26.7761	544.43
26.7906	533.52
26.8050	538.81
26.8194	532.39
26.8339	525.97
26.8483	485.80
26.8628	495.21
26.8772	548.40
26.8917	541.77
26.9061	524.50
26.9205	544.63
26.9350	555.74
26.9494	535.66
26.9639	475.18
26.9783	497.92
26.9927	517.90
27.0072	529.71
27.0216	520.13
27.0361	506.98
27.0505	547.06
27.0649	520.95
27.0794	536.14
27.0938	530.66
27.1083	520.87
27.1227	517.54
27.1371	516.83
27.1516	491.74
27.1660	509.40
27.1805	533.40
27.1949	511.52
27.2093	499.14
27.2238	516.86
27.2382	536.98
27.2527	520.62
27.2671	505.59
27.2815	515.82
27.2960	514.31
27.3104	516.69
27.3249	499.31
27.3393	534.58
27.3537	518.07
27.3682	532.17
27.3826	533.39
27.3971	539.69
27.4115	523.45
27.4259	537.97
27.4404	519.11
27.4548	525.73
27.4693	528.71
27.4837	539.52
27.4981	536.18
27.5126	526.11
27.5270	526.06
27.5415	540.11
27.5559	551.92
27.5703	514.26
27.5848	510.67
27.5992	552.35
27.6137	522.95
27.6281	508.12
27.6425	541.16
27.6570	529.61
27.6714	516.63
27.6859	519.59
27.7003	518.24
27.7147	555.13
27.7292	511.78
27.7436	506.36
27.7581	513.11
27.7725	548.96
27.7869	528.59
27.8014	517.54
27.8158	519.83
27.8303	513.30
27.8447	521.53
27.8591	535.93
27.8736	538.95
27.8880	506.16
27.9025	518.37
27.9169	488.18
27.9313	485.56
27.9458	563.51
27.9602	504.46
27.9747	537.68
27.9891	538.96
28.0035	521.97
28.0180	532.90
28.0324	539.25
28.0469	502.75
28.0613	481.44
28.0757	500.01
28.0902	549.72
28.1046	499.23
28.1191	549.48
28.1335	534.47
28.1479	488.40
28.1624	493.75
28.1768	502.57
28.1913	512.69
28.2057	502.09
28.2201	519.72
28.2346	560.41
28.2490	544.68
28.2635	501.76
28.2779	506.83
28.2923	515.79
28.3068	531.70
28.3212	527.38
28.3357	535.97
28.3501	522.60
28.3645	527.53
28.3790	488.52
28.3934	504.53
28.4079	513.82
28.4223	528.51
28.4367	525.30
28.4512	533.60
28.4656	513.74
28.4801	549.79
28.4945	551.24
28.5089	509.25
28.5234	502.38
28.5378	508.39
28.5523	502.43
28.5667	522.00
28.5811	518.14
28.5956	499.60
28.6100	510.67
28.6245	502.44
28.6389	497.99
28.6533	516.00
28.6678	531.62
28.6822	564.22
28.6967	511.85
28.7111	552.61
28.7255	517.61
28.7400	516.62
28.7544	477.09
28.7689	512.58
28.7833	520.87
28.7977	536.63
28.8122	546.78
28.8266	512.66
28.8411	546.31
28.8555	525.89
28.8699	522.00
28.8844	511.27
28.8988	528.28
28.9133	498.42
28.9277	487.64
28.9421	558.61
28.9566	531.63
28.9710	502.05
28.9855	498.72
28.9999	532.31
29.0143	511.74
29.0288	490.88
29.0432	504.51
29.0577	488.04
29.0721	520.38
29.0865	487.13
29.1010	546.10
29.1154	514.68
29.1299	496.08
29.1443	484.03
29.1587	500.97
29.1732	482.79
29.1876	485.88
29.2021	501.50
29.2165	497.78
29.2309	481.89
29.2454	515.72
29.2598	523.93
29.2743	527.95
29.2887	529.59
29.3031	534.92
29.3176	498.44
29.3320	517.12
29.3465	513.19
29.3609	494.25
29.3753	481.55
29.3898	522.36
29.4042	492.18
29.4187	531.92
29.4331	529.65
29.4475	507.49
29.4620	503.00
29.4764	547.70
29.4909	519.65
29.5053	507.32
29.5197	509.62
29.5342	545.39
29.5486	497.52
29.5631	518.17
29.5775	489.75
29.5919	503.39
29.6064	510.73
29.6208	500.57
29.6353	506.54
29.6497	521.26
29.6641	469.95
29.6786	486.36
29.6930	494.36
29.7075	529.68
29.7219	510.60
29.7363	509.28
29.7508	500.40
29.7652	511.36
29.7797	511.58
29.7941	476.44
29.8085	494.67
29.8230	537.22
29.8374	502.24
29.8519	512.16
29.8663	527.84
29.8807	525.33
29.8952	507.61
29.9096	530.92
29.9241	557.68
29.9385	529.49
29.9529	481.25
29.9674	531.86
29.9818	532.34
29.9963	521.95
30.0107	448.15
30.0251	457.03
30.0396	483.46
30.0540	503.81
30.0685	514.95
30.0829	497.89
30.0973	514.98
30.1118	529.48
30.1262	516.02
30.1407	499.36
30.1551	503.76
30.1695	498.66
30.1840	492.33
30.1984	522.59
30.2129	495.82
30.2273	499.38
30.2417	543.44
30.2562	511.91
30.2706	515.34
30.2851	530.52
30.2995	521.43
30.3139	501.23
30.3284	495.72
30.3428	518.74
30.3573	527.02
30.3717	524.52
30.3861	515.75
30.4006	517.92
30.4150	509.80
30.4295	563.68
30.4439	547.03
30.4583	536.70
30.4728	572.70
30.4872	514.40
30.5017	527.20
30.5161	563.47
30.5305	581.24
30.5450	624.97
30.5594	621.90
30.5739	657.53
30.5883	672.24
30.6028	748.64
30.6172	766.36
30.6316	742.28
30.6461	719.24
30.6605	710.87
30.6750	730.64
30.6894	711.00
30.7038	702.85
30.7183	644.09
30.7327	599.38
30.7472	575.72
30.7616	570.26
30.7760	560.71
30.7905	555.61
30.8049	512.44
30.8194	541.04
30.8338	536.87
30.8482	552.77
30.8627	536.27
30.8771	528.76
30.8916	547.80
30.9060	550.93
30.9204	495.58
30.9349	509.76
30.9493	498.46
30.9638	509.23
30.9782	522.57
30.9926	524.23
31.0071	500.73
31.0215	519.33
31.0360	513.68
31.0504	501.18
31.0648	520.55
31.0793	543.14
31.0937	534.81
31.1082	544.33
31.1226	532.83
31.1370	499.35
31.1515	475.75
31.1659	541.58
31.1804	506.24
31.1948	513.58
31.2092	508.56
31.2237	513.59
31.2381	527.22
31.2526	522.64
31.2670	470.93
31.2814	521.31
31.2959	531.02
31.3103	559.37
31.3248	535.28
31.3392	550.82
31.3536	540.85
31.3681	511.19
31.3825	524.30
31.3970	532.87
31.4114	504.49
31.4258	523.43
31.4403	539.00
31.4547	480.38
31.4692	494.73
31.4836	523.51
31.4980	491.68
31.5125	495.00
31.5269	468.86
31.5414	494.27
31.5558	527.24
31.5702	495.24
31.5847	504.48
31.5991	506.16
31.6136	509.17
31.6280	494.96
31.6424	488.87
31.6569	484.35
31.6713	495.86
31.6858	496.13
31.7002	511.81
31.7146	508.58
31.7291	526.95
31.7435	540.22
31.7580	546.04
31.7724	503.31
31.7868	489.96
31.8013	537.84
31.8157	520.78
31.8302	510.59
31.8446	501.37
31.8590	532.21
31.8735	502.81
31.8879	518.99
31.9024	538.96
31.9168	535.70
31.9312	481.64
31.9457	504.23
31.9601	545.84
31.9746	510.47
31.9890	533.09
32.0034	485.94
32.0179	537.00
32.0323	534.02
32.0468	488.33
32.0612	491.16
32.0756	488.38
32.0901	496.50
32.1045	492.97
32.1190	502.45
32.1334	507.98
32.1478	469.51
32.1623	502.98
32.1767	512.95
32.1912	507.36
32.2056	488.46
32.2200	486.26
32.2345	508.81
32.2489	518.66
32.2634	499.17
32.2778	526.08
32.2922	459.29
32.3067	517.69
32.3211	512.14
32.3356	541.68
32.3500	502.68
32.3644	489.84
32.3789	484.50
32.3933	491.05
32.4078	509.00
32.4222	527.54
32.4366	519.90
32.4511	477.46
32.4655	495.91
32.4800	486.24
32.4944	508.18
32.5088	487.44
32.5233	508.35
32.5377	526.33
32.5522	475.94
32.5666	477.14
32.5810	471.45
32.5955	492.41
32.6099	508.19
32.6244	490.59
32.6388	543.28
32.6532	514.24
32.6677	500.62
32.6821	520.83
32.6966	518.72
32.7110	515.01
32.7254	508.51
32.7399	506.13
32.7543	506.36
32.7688	507.52
32.7832	499.45
32.7976	495.02
32.8121	506.68
32.8265	479.15
32.8410	501.32
32.8554	495.35
32.8698	482.08
32.8843	496.86
32.8987	568.81
32.9132	506.41
32.9276	525.93
32.9420	493.68
32.9565	499.22
32.9709	500.68
32.9854	477.11
32.9998	511.93
33.0142	513.83
33.0287	514.25
33.0431	443.71
33.0576	502.29
33.0720	461.56
33.0864	494.27
33.1009	506.66
33.1153	502.93
33.1298	503.84
33.1442	493.38
33.1586	532.02
33.1731	469.09
33.1875	496.02
33.2020	483.35
33.2164	508.88
33.2308	525.74
33.2453	530.62
33.2597	516.62
33.2742	510.25
33.2886	490.70
33.3030	491.89
33.3175	523.96
33.3319	500.23
33.3464	515.27
33.3608	511.81
33.3752	500.29
33.3897	479.96
33.4041	516.65
33.4186	515.71
33.4330	494.70
33.4474	512.76
33.4619	540.81
33.4763	541.54
33.4908	532.66
33.5052	469.64
33.5196	505.26
33.5341	507.56
33.5485	489.24
33.5630	505.71
33.5774	531.82
33.5918	512.54
33.6063	494.70
33.6207	502.71
33.6352	494.72
33.6496	503.15
33.6640	505.15
33.6785	507.09
33.6929	509.16
33.7074	517.41
33.7218	507.49
33.7362	510.15
33.7507	518.59
33.7651	482.56
33.7796	481.81
33.7940	505.19
33.8084	487.04
33.8229	522.72
33.8373	546.03
33.8518	511.56
33.8662	514.92
33.8806	494.83
33.8951	526.68
33.9095	513.36
33.9240	493.96
33.9384	500.68
33.9528	530.37
33.9673	485.18
33.9817	493.53
33.9962	526.01
34.0106	477.14
34.0250	513.81
34.0395	514.68
34.0539	492.63
34.0684	524.20
34.0828	520.75
34.0972	537.92
34.1117	529.71
34.1261	500.69
34.1406	486.68
34.1550	513.39
34.1694	505.22
34.1839	489.24
34.1983	493.54
34.2128	471.67
34.2272	519.44
34.2417	503.51
34.2561	494.02
34.2705	515.16
34.2850	476.59
34.2994	462.43
34.3139	489.41
34.3283	498.61
34.3427	482.10
34.3572	492.83
34.3716	501.02
34.3861	488.57
34.4005	487.04
34.4149	482.58
34.4294	491.35
34.4438	489.11
34.4583	493.32
34.4727	522.33
34.4871	495.16
34.5016	524.55
34.5160	520.52
34.5305	508.17
34.5449	511.73
34.5593	512.57
34.5738	517.24
34.5882	509.24
34.6027	502.44
34.6171	501.71
34.6315	529.57
34.6460	509.20
34.6604	481.95
34.6749	485.93
34.6893	480.26
34.7037	499.74
34.7182	501.50
34.7326	482.59
34.7471	502.94
34.7615	498.51
34.7759	483.77
34.7904	536.33
34.8048	563.66
34.8193	519.55
34.8337	525.44
34.8481	496.47
34.8626	511.67
34.8770	526.96
34.8915	486.89
34.9059	488.09
34.9203	457.97
34.9348	484.52
34.9492	478.83
34.9637	509.25
34.9781	482.34
34.9925	494.16
35.0070	491.42
35.0214	499.72
35.0359	493.70
35.0503	516.21
35.0647	519.08
35.0792	513.40
35.0936	529.63
35.1081	521.09
35.1225	547.03
35.1369	518.73
35.1514	487.78
35.1658	486.07
35.1803	486.61
35.1947	486.38
35.2091	513.83
35.2236	520.48
35.2380	521.99
35.2525	501.53
35.2669	473.80
35.2813	514.10
35.2958	494.17
35.3102	520.85
35.3247	524.23
35.3391	505.09
35.3535	469.28
35.3680	538.51
35.3824	504.13
35.3969	524.28
35.4113	504.49
35.4257	569.20
35.4402	551.11
35.4546	538.20
35.4691	512.12
35.4835	531.92
35.4979	489.32
35.5124	503.33
35.5268	507.04
35.5413	527.60
35.5557	522.50
35.5701	515.46
35.5846	504.58
35.5990	496.76
35.6135	494.27
35.6279	517.66
35.6423	546.29
35.6568	530.12
35.6712	563.37
35.6857	583.26
35.7001	692.73
35.7145	699.58
35.7290	684.40
35.7434	618.96
35.7579	609.04
35.7723	563.66
35.7867	591.44
35.8012	689.90
35.8156	679.58
35.8301	625.33
35.8445	630.97
35.8589	655.49
35.8734	749.00
35.8878	894.85
35.9023	1018.83
35.9167	1122.67
35.9311	1377.27
35.9456	1961.45
35.9600	2405.10
35.9745	2190.38
35.9889	2121.97
36.0033	2471.11
36.0178	2740.49
36.0322	2512.97
36.0467	2447.37
36.0611	2293.63
36.0755	2110.30
36.0900	2017.01
36.1044	1919.67
36.1189	1725.65
36.1333	1540.60
36.1477	1345.40
36.1622	1312.97
36.1766	1203.73
36.1911	966.42
36.2055	841.28
36.2199	781.96
36.2344	728.44
36.2488	649.54
36.2633	637.33
36.2777	604.27
36.2921	601.38
36.3066	611.01
36.3210	560.30
36.3355	553.31
36.3499	553.25
36.3643	585.25
36.3788	595.72
36.3932	528.33
36.4077	519.34
36.4221	564.40
36.4365	600.20
36.4510	574.22
36.4654	540.16
36.4799	569.17
36.4943	580.95
36.5087	514.27
36.5232	549.96
36.5376	565.94
36.5521	530.41
36.5665	529.40
36.5809	515.24
36.5954	517.13
36.6098	530.99
36.6243	510.69
36.6387	517.66
36.6531	508.73
36.6676	465.03
36.6820	510.19
36.6965	509.89
36.7109	539.03
36.7253	529.71
36.7398	572.93
36.7542	552.53
36.7687	518.21
36.7831	538.22
36.7975	555.03
36.8120	617.47
36.8264	578.67
36.8409	575.57
36.8553	608.10
36.8697	617.73
36.8842	593.96
36.8986	602.30
36.9131	595.32
36.9275	640.06
36.9419	611.34
36.9564	593.81
36.9708	587.40
36.9853	577.63
36.9997	578.45
37.0141	542.69
37.0286	542.20
37.0430	532.97
37.0575	539.03
37.0719	512.66
37.0863	496.86
37.1008	536.70
37.1152	540.50
37.1297	517.69
37.1441	511.35
37.1585	508.47
37.1730	511.27
37.1874	517.42
37.2019	483.00
37.2163	498.22
37.2307	523.10
37.2452	521.55
37.2596	492.27
37.2741	488.01
37.2885	492.58
37.3029	504.03
37.3174	489.99
37.3318	563.74
37.3463	503.11
37.3607	506.01
37.3751	501.95
37.3896	473.75
37.4040	490.86
37.4185	486.63
37.4329	497.60
37.4473	500.08
37.4618	469.09
37.4762	499.98
37.4907	532.01
37.5051	485.54
37.5195	519.70
37.5340	540.76
37.5484	517.13
37.5629	488.09
37.5773	464.61
37.5917	482.25
37.6062	483.31
37.6206	491.00
37.6351	503.27
37.6495	497.89
37.6639	483.45
37.6784	505.34
37.6928	549.16
37.7073	488.66
37.7217	509.10
37.7361	510.53
37.7506	501.12
37.7650	511.95
37.7795	519.60
37.7939	517.65
37.8083	546.97
37.8228	535.08
37.8372	516.75
37.8517	458.09
37.8661	501.73
37.8805	504.24
37.8950	501.26
37.9094	476.15
37.9239	495.63
37.9383	511.66
37.9528	502.11
37.9672	466.42
37.9816	492.73
37.9961	514.98
38.0105	515.40
38.0250	530.87
38.0394	537.37
38.0538	516.42
38.0683	521.80
38.0827	539.95
38.0972	520.02
38.1116	505.75
38.1260	519.73
38.1405	496.18
38.1549	498.41
38.1694	492.35
38.1838	515.68
38.1982	519.19
38.2127	494.66
38.2271	482.66
38.2416	502.92
38.2560	532.83
38.2704	503.98
38.2849	514.51
38.2993	501.01
38.3138	500.27
38.3282	513.65
38.3426	518.34
38.3571	552.88
38.3715	535.02
38.3860	548.76
38.4004	552.62
38.4148	569.63
38.4293	585.39
38.4437	573.01
38.4582	606.90
38.4726	652.49
38.4870	688.23
38.5015	715.74
38.5159	767.95
38.5304	805.07
38.5448	822.26
38.5592	738.99
38.5737	750.65
38.5881	724.22
38.6026	723.09
38.6170	743.49
38.6314	683.70
38.6459	658.77
38.6603	611.92
38.6748	593.40
38.6892	581.56
38.7036	566.82
38.7181	554.49
38.7325	525.56
38.7470	536.99
38.7614	566.30
38.7758	531.30
38.7903	513.17
38.8047	501.61
38.8192	542.53
38.8336	539.68
38.8480	515.39
38.8625	528.37
38.8769	517.73
38.8914	501.02
38.9058	521.14
38.9202	503.18
38.9347	484.90
38.9491	486.14
38.9636	491.08
38.9780	474.06
38.9924	520.03
39.0069	510.66
39.0213	531.88
39.0358	543.45
39.0502	490.84
39.0646	510.20
39.0791	515.90
39.0935	525.91
39.1080	491.90
39.1224	477.74
39.1368	477.43
39.1513	499.60
39.1657	518.82
39.1802	502.89
39.1946	487.11
39.2090	468.40
39.2235	465.62
39.2379	501.26
39.2524	486.33
39.2668	502.40
39.2812	527.78
39.2957	501.84
39.3101	514.22
39.3246	498.57
39.3390	489.00
39.3534	515.14
39.3679	508.57
39.3823	511.57
39.3968	485.50
39.4112	509.09
39.4256	542.72
39.4401	532.92
39.4545	526.33
39.4690	521.16
39.4834	513.34
39.4978	491.63
39.5123	519.07
39.5267	493.43
39.5412	517.94
39.5556	515.23
39.5700	525.39
39.5845	540.69
39.5989	485.22
39.6134	492.74
39.6278	480.49
39.6422	508.32
39.6567	527.81
39.6711	488.97
39.6856	512.17
39.7000	509.66
39.7144	497.39
39.7289	511.14
39.7433	508.04
39.7578	488.40
39.7722	506.87
39.7866	520.58
39.8011	519.73
39.8155	490.60
39.8300	500.82
39.8444	493.99
39.8588	534.11
39.8733	517.29
39.8877	501.89
39.9022	539.68
39.9166	516.68
39.9310	488.31
39.9455	472.99
39.9599	500.09
39.9744	497.42
39.9888	505.80
40.0032	478.46
40.0177	500.45
40.0321	523.01
40.0466	523.08
40.0610	526.07
40.0754	496.87
40.0899	498.12
40.1043	502.53
40.1188	500.64
40.1332	482.20
40.1476	452.77
40.1621	479.93
40.1765	484.81
40.1910	510.97
40.2054	530.21
40.2198	499.85
40.2343	498.06
40.2487	513.73
40.2632	512.22
40.2776	532.16
40.2920	513.79
40.3065	497.76
40.3209	479.62
40.3354	508.00
40.3498	538.06
40.3642	499.63
40.3787	494.13
40.3931	495.67
40.4076	504.63
40.4220	507.95
40.4364	496.02
40.4509	483.79
40.4653	497.86
40.4798	514.99
40.4942	504.34
40.5086	485.44
40.5231	505.37
40.5375	476.60
40.5520	530.97
40.5664	482.53
40.5808	515.73
40.5953	534.28
40.6097	501.34
40.6242	509.20
40.6386	525.10
40.6530	470.76
40.6675	498.54
40.6819	526.33
40.6964	505.54
40.7108	495.20
40.7252	490.99
40.7397	462.81
40.7541	517.45
40.7686	492.39
40.7830	490.91
40.7974	475.82
40.8119	491.78
40.8263	505.36
40.8408	492.51
40.8552	503.44
40.8696	518.94
40.8841	515.21
40.8985	525.52
40.9130	507.96
40.9274	475.83
40.9418	503.51
40.9563	482.64
40.9707	510.63
40.9852	547.16
40.9996	504.83
41.0140	527.60
41.0285	544.07
41.0429	515.46
41.0574	532.09
41.0718	522.78
41.0862	537.82
41.1007	538.88
41.1151	476.97
41.1296	520.15
41.1440	500.76
41.1584	499.15
41.1729	511.49
41.1873	482.74
41.2018	477.03
41.2162	516.56
41.2306	528.79
41.2451	500.22
41.2595	517.97
41.2740	530.57
41.2884	493.21
41.3028	501.92
41.3173	489.96
41.3317	519.05
41.3462	501.97
41.3606	498.20
41.3750	522.69
41.3895	508.20
41.4039	488.67
41.4184	500.44
41.4328	516.86
41.4472	473.72
41.4617	513.90
41.4761	502.32
41.4906	508.53
41.5050	491.40
41.5194	524.04
41.5339	493.78
41.5483	506.69
41.5628	507.19
41.5772	513.05
41.5916	540.73
41.6061	508.02
41.6205	484.08
41.6350	524.57
41.6494	502.15
41.6639	458.26
41.6783	438.75
41.6927	508.05
41.7072	542.41
41.7216	514.65
41.7361	463.85
41.7505	479.92
41.7649	509.21
41.7794	522.02
41.7938	523.61
41.8083	524.43
41.8227	520.77
41.8371	531.89
41.8516	508.30
41.8660	548.78
41.8805	577.19
41.8949	537.47
41.9093	573.02
41.9238	537.30
41.9382	570.65
41.9527	579.68
41.9671	622.20
41.9815	597.83
41.9960	550.23
42.0104	579.17
42.0249	560.32
42.0393	588.92
42.0537	573.92
42.0682	589.04
42.0826	573.97
42.0971	614.83
42.1115	596.90
42.1259	605.29
42.1404	579.00
42.1548	614.50
42.1693	645.61
42.1837	697.44
42.1981	752.90
42.2126	827.98
42.2270	898.95
42.2415	992.75
42.2559	1140.65
42.2703	1340.18
42.2848	1480.85
42.2992	1604.64
42.3137	1631.60
42.3281	1653.06
42.3425	1551.09
42.3570	1527.72
42.3714	1427.52
42.3859	1362.89
42.4003	1320.54
42.4147	1316.20
42.4292	1296.94
42.4436	1143.37
42.4581	1043.29
42.4725	943.86
42.4869	850.85
42.5014	766.11
42.5158	723.84
42.5303	676.95
42.5447	639.03
42.5591	632.32
42.5736	584.38
42.5880	553.26
42.6025	597.55
42.6169	502.92
42.6313	540.71
42.6458	539.29
42.6602	545.42
42.6747	539.55
42.6891	526.33
42.7035	552.07
42.7180	538.28
42.7324	528.56
42.7469	545.33
42.7613	528.58
42.7757	524.24
42.7902	534.11
42.8046	504.86
42.8191	520.25
42.8335	503.25
42.8479	508.18
42.8624	539.41
42.8768	534.36
42.8913	539.34
42.9057	529.57
42.9201	487.95
42.9346	499.84
42.9490	509.61
42.9635	492.08
42.9779	472.53
42.9923	468.77
43.0068	491.03
43.0212	489.30
43.0357	500.62
43.0501	503.76
43.0645	508.89
43.0790	502.50
43.0934	531.62
43.1079	528.85
43.1223	512.65
43.1367	522.05
43.1512	480.78
43.1656	519.82
43.1801	515.06
43.1945	504.90
43.2089	537.11
43.2234	532.04
43.2378	557.94
43.2523	513.77
43.2667	490.84
43.2811	504.61
43.2956	521.76
43.3100	535.81
43.3245	516.07
43.3389	521.69
43.3533	556.65
43.3678	489.85
43.3822	500.71
43.3967	515.59
43.4111	541.75
43.4255	560.42
43.4400	536.10
43.4544	499.82
43.4689	525.05
43.4833	489.68
43.4977	517.25
43.5122	499.74
43.5266	525.21
43.5411	502.58
43.5555	490.14
43.5699	509.23
43.5844	505.09
43.5988	501.13
43.6133	532.75
43.6277	502.33
43.6421	524.21
43.6566	542.78
43.6710	518.17
43.6855	523.20
43.6999	554.27
43.7143	547.27
43.7288	522.48
43.7432	587.81
43.7577	632.49
43.7721	573.27
43.7865	639.88
43.8010	655.06
43.8154	644.24
43.8299	672.07
43.8443	654.36
43.8587	685.00
43.8732	630.97
43.8876	596.09
43.9021	594.99
43.9165	598.88
43.9309	603.33
43.9454	617.12
43.9598	571.71
43.9743	573.63
43.9887	564.63
44.0031	554.39
44.0176	524.81
44.0320	522.02
44.0465	542.96
44.0609	572.55
44.0753	558.25
44.0898	560.13
44.1042	544.57
44.1187	525.16
44.1331	536.91
44.1475	502.20
44.1620	524.55
44.1764	514.14
44.1909	497.58
44.2053	554.20
44.2197	551.86
44.2342	525.12
44.2486	509.21
44.2631	502.17
44.2775	518.83
44.2919	528.90
44.3064	533.63
44.3208	515.30
44.3353	507.86
44.3497	535.49
44.3641	509.25
44.3786	549.11
44.3930	571.02
44.4075	536.78
44.4219	582.29
44.4363	558.83
44.4508	562.81
44.4652	603.78
44.4797	606.27
44.4941	602.42
44.5085	573.58
44.5230	571.79
44.5374	587.21
44.5519	579.73
44.5663	577.36
44.5807	580.84
44.5952	591.18
44.6096	591.36
44.6241	578.12
44.6385	612.52
44.6529	570.94
44.6674	590.47
44.6818	590.99
44.6963	609.27
44.7107	704.07
44.7251	705.47
44.7396	697.86
44.7540	801.89
44.7685	847.61
44.7829	871.22
44.7973	895.97
44.8118	854.65
44.8262	822.43
44.8407	803.66
44.8551	730.25
44.8695	743.99
44.8840	731.19
44.8984	727.25
44.9129	719.62
44.9273	707.97
44.9417	641.17
44.9562	603.36
44.9706	538.83
44.9851	546.41
44.9995	550.96
45.0139	580.14
45.0284	585.84
45.0428	515.42
45.0573	508.85
45.0717	532.48
45.0861	549.95
45.1006	542.74
45.1150	511.24
45.1295	546.92
45.1439	516.00
45.1583	538.29
45.1728	540.29
45.1872	532.10
45.2017	515.73
45.2161	528.42
45.2305	504.21
45.2450	528.31
45.2594	520.12
45.2739	489.55
45.2883	514.94
45.3028	510.96
45.3172	531.07
45.3316	520.21
45.3461	507.77
45.3605	495.73
45.3750	515.49
45.3894	514.19
45.4038	506.69
45.4183	502.27
45.4327	550.81
45.4472	505.85
45.4616	519.03
45.4760	533.89
45.4905	499.93
45.5049	497.13
45.5194	514.59
45.5338	515.71
45.5482	520.15
45.5627	478.89
45.5771	519.66
45.5916	508.30
45.6060	526.94
45.6204	488.34
45.6349	505.43
45.6493	543.32
45.6638	522.18
45.6782	495.68
45.6926	504.41
45.7071	527.08
45.7215	493.33
45.7360	517.11
45.7504	511.54
45.7648	492.64
45.7793	524.21
45.7937	485.48
45.8082	514.54
45.8226	546.00
45.8370	544.79
45.8515	520.27
45.8659	515.74
45.8804	493.31
45.8948	493.72
45.9092	531.29
45.9237	464.15
45.9381	481.88
45.9526	534.42
45.9670	533.09
45.9814	494.10
45.9959	486.80
46.0103	469.20
46.0248	503.95
46.0392	504.73
46.0536	548.54
46.0681	540.30
46.0825	495.92
46.0970	501.31
46.1114	519.53
46.1258	496.66
46.1403	483.98
46.1547	502.83
46.1692	507.66
46.1836	494.62
46.1980	487.11
46.2125	483.44
46.2269	502.66
46.2414	514.87
46.2558	513.48
46.2702	491.79
46.2847	495.33
46.2991	527.79
46.3136	519.07
46.3280	504.67
46.3424	501.88
46.3569	493.24
46.3713	523.12
46.3858	559.80
46.4002	517.44
46.4146	469.23
46.4291	483.79
46.4435	473.31
46.4580	535.38
46.4724	519.57
46.4868	514.27
46.5013	504.41
46.5157	454.72
46.5302	496.19
46.5446	512.55
46.5590	509.91
46.5735	509.62
46.5879	520.36
46.6024	513.04
46.6168	524.84
46.6312	503.29
46.6457	512.57
46.6601	535.30
46.6746	526.62
46.6890	505.48
46.7034	494.59
46.7179	521.35
46.7323	475.82
46.7468	466.21
46.7612	514.28
46.7756	503.45
46.7901	501.65
46.8045	520.31
46.8190	508.17
46.8334	527.86
46.8478	544.91
46.8623	526.02
46.8767	527.30
46.8912	548.41
46.9056	535.76
46.9200	481.89
46.9345	492.21
46.9489	514.38
46.9634	511.48
46.9778	498.68
46.9922	500.73
47.0067	493.16
47.0211	512.54
47.0356	508.71
47.0500	491.35
47.0644	537.18
47.0789	544.19
47.0933	547.20
47.1078	512.56
47.1222	501.67
47.1366	500.09
47.1511	490.00
47.1655	532.05
47.1800	526.88
47.1944	495.46
47.2088	531.53
47.2233	556.49
47.2377	527.49
47.2522	499.96
47.2666	506.72
47.2810	506.80
47.2955	459.87
47.3099	512.86
47.3244	513.79
47.3388	508.49
47.3532	476.94
47.3677	487.25
47.3821	514.05
47.3966	478.71
47.4110	493.80
47.4254	523.38
47.4399	491.72
47.4543	489.81
47.4688	515.47
47.4832	506.50
47.4976	487.90
47.5121	479.96
47.5265	477.81
47.5410	498.80
47.5554	539.04
47.5698	556.81
47.5843	506.36
47.5987	526.65
47.6132	516.04
47.6276	503.14
47.6420	504.50
47.6565	496.24
47.6709	491.59
47.6854	499.06
47.6998	524.39
47.7142	506.39
47.7287	510.43
47.7431	487.69
47.7576	491.64
47.7720	510.03
47.7864	547.79
47.8009	531.70
47.8153	544.14
47.8298	488.40
47.8442	486.40
47.8586	490.47
47.8731	500.32
47.8875	492.50
47.9020	547.09
47.9164	535.47
47.9308	532.49
47.9453	514.45
47.9597	495.43
47.9742	512.22
47.9886	507.03
48.0030	538.52
48.0175	511.84
48.0319	497.54
48.0464	487.33
48.0608	512.04
48.0752	487.42
48.0897	530.76
48.1041	520.32
48.1186	508.07
48.1330	490.54
48.1474	456.30
48.1619	496.21
48.1763	504.29
48.1908	517.90
48.2052	513.91
48.2196	474.15
48.2341	516.63
48.2485	522.45
48.2630	510.28
48.2774	514.28
48.2918	516.59
48.3063	559.39
48.3207	513.20
48.3352	553.67
48.3496	511.29
48.3640	522.22
48.3785	531.49
48.3929	531.55
48.4074	516.74
48.4218	503.23
48.4362	517.10
48.4507	511.41
48.4651	491.64
48.4796	513.44
48.4940	509.36
48.5084	472.66
48.5229	504.57
48.5373	539.34
48.5518	514.78
48.5662	512.92
48.5806	503.57
48.5951	507.21
48.6095	497.53
48.6240	522.27
48.6384	502.27
48.6528	492.35
48.6673	503.16
48.6817	535.30
48.6962	542.85
48.7106	562.42
48.7250	526.28
48.7395	523.97
48.7539	526.28
48.7684	500.15
48.7828	544.25
48.7972	563.18
48.8117	516.12
48.8261	551.53
48.8406	561.82
48.8550	522.67
48.8694	564.63
48.8839	579.97
48.8983	546.39
48.9128	555.32
48.9272	523.57
48.9416	555.67
48.9561	523.81
48.9705	540.62
48.9850	588.19
48.9994	583.24
49.0139	589.79
49.0283	577.18
49.0427	593.28
49.0572	629.40
49.0716	658.63
49.0861	682.60
49.1005	683.51
49.1149	720.47
49.1294	774.56
49.1438	743.54
49.1583	748.29
49.1727	838.12
49.1871	832.08
49.2016	887.68
49.2160	999.78
49.2305	1055.79
49.2449	1188.62
49.2593	1201.79
49.2738	1354.49
49.2882	1371.59
49.3027	1481.70
49.3171	1556.20
49.3315	1644.58
49.3460	1728.33
49.3604	1723.65
49.3749	1760.76
49.3893	1799.43
49.4037	1772.80
49.4182	1699.06
49.4326	1691.14
49.4471	1693.23
49.4615	1592.44
49.4759	1623.78
49.4904	1471.91
49.5048	1415.64
49.5193	1380.61
49.5337	1257.41
49.5481	1211.17
49.5626	1113.34
49.5770	1077.50
49.5915	987.63
49.6059	917.34
49.6203	906.44
49.6348	835.58
49.6492	784.29
49.6637	773.99
49.6781	739.94
49.6925	703.00
49.7070	682.17
49.7214	647.37
49.7359	657.53
49.7503	604.51
49.7647	614.20
49.7792	596.79
49.7936	577.52
49.8081	608.22
49.8225	592.80
49.8369	557.56
49.8514	558.47
49.8658	556.02
49.8803	559.98
49.8947	581.31
49.9091	545.23
49.9236	516.72
49.9380	545.78
49.9525	583.19
49.9669	541.23
49.9813	543.30
49.9958	553.73
50.0102	501.04
50.0247	484.06
50.0391	548.09
50.0535	553.80
50.0680	542.21
50.0824	534.49
50.0969	555.93
50.1113	530.67
50.1257	514.75
50.1402	510.86
50.1546	512.95
50.1691	516.19
50.1835	498.53
50.1979	497.41
50.2124	520.66
50.2268	511.67
50.2413	494.22
50.2557	524.73
50.2701	514.49
50.2846	505.69
50.2990	533.04
50.3135	527.53
50.3279	538.81
50.3423	527.22
50.3568	523.18
50.3712	516.68
50.3857	524.19
50.4001	508.05
50.4145	495.11
50.4290	525.04
50.4434	506.85
50.4579	515.86
50.4723	512.46
50.4867	535.38
50.5012	487.93
50.5156	538.35
50.5301	564.03
50.5445	500.12
50.5589	498.77
50.5734	493.20
50.5878	521.13
50.6023	523.14
50.6167	518.77
50.6311	522.10
50.6456	511.79
50.6600	500.31
50.6745	504.77
50.6889	494.48
50.7033	535.38
50.7178	545.37
50.7322	528.10
50.7467	530.34
50.7611	508.05
50.7755	513.36
50.7900	518.35
50.8044	506.92
50.8189	492.43
50.8333	504.28
50.8477	487.70
50.8622	526.48
50.8766	512.53
50.8911	488.76
50.9055	481.24
50.9199	484.99
50.9344	496.83
50.9488	527.82
50.9633	526.90
50.9777	466.75
50.9921	501.09
51.0066	527.05
51.0210	516.73
51.0355	519.62
51.0499	503.35
51.0643	498.09
51.0788	539.17
51.0932	567.16
51.1077	537.64
51.1221	510.34
51.1365	521.55
51.1510	511.30
51.1654	519.69
51.1799	482.49
51.1943	484.80
51.2087	494.35
51.2232	509.26
51.2376	499.50
51.2521	511.12
51.2665	516.29
51.2809	511.18
51.2954	490.92
51.3098	505.30
51.3243	507.83
51.3387	553.83
51.3531	527.00
51.3676	495.88
51.3820	494.77
51.3965	489.32
51.4109	504.33
51.4253	513.40
51.4398	483.99
51.4542	522.99
51.4687	524.87
51.4831	537.02
51.4975	487.68
51.5120	464.71
51.5264	488.07
51.5409	514.80
51.5553	515.81
51.5697	513.87
51.5842	520.48
51.5986	514.75
51.6131	486.60
51.6275	492.70
51.6419	498.68
51.6564	491.43
51.6708	512.25
51.6853	515.33
51.6997	516.79
51.7141	503.09
51.7286	500.78
51.7430	496.68
51.7575	504.75
51.7719	500.60
51.7863	511.49
51.8008	481.85
51.8152	509.47
51.8297	502.40
51.8441	507.16
51.8585	518.02
51.8730	493.14
51.8874	512.62
51.9019	462.74
51.9163	481.37
51.9307	480.57
51.9452	524.33
51.9596	530.12
51.9741	530.15
51.9885	552.79
52.0029	486.21
52.0174	482.81
52.0318	521.72
52.0463	476.53
52.0607	507.53
52.0751	525.53
52.0896	519.94
52.1040	488.32
52.1185	523.72
52.1329	532.48
52.1473	516.90
52.1618	526.39
52.1762	539.55
52.1907	519.83
52.2051	491.46
52.2195	513.21
52.2340	502.17
52.2484	532.22
52.2629	525.47
52.2773	533.50
52.2917	469.15
52.3062	521.80
52.3206	537.58
52.3351	548.29
52.3495	546.50
52.3639	524.35
52.3784	540.29
52.3928	506.78
52.4073	518.23
52.4217	518.39
52.4361	519.15
52.4506	512.65
52.4650	518.07
52.4795	527.91
52.4939	530.85
52.5083	532.06
52.5228	515.19
52.5372	541.87
52.5517	539.61
52.5661	536.96
52.5805	522.87
52.5950	547.74
52.6094	574.67
52.6239	505.78
52.6383	532.96
52.6527	496.07
52.6672	508.27
52.6816	523.17
52.6961	501.98
52.7105	511.66
52.7250	544.58
52.7394	506.35
52.7538	531.36
52.7683	487.11
52.7827	517.72
52.7972	529.66
52.8116	500.42
52.8260	503.04
52.8405	483.20
52.8549	523.21
52.8694	554.37
52.8838	518.38
52.8982	514.65
52.9127	511.57
52.9271	543.94
52.9416	552.77
52.9560	523.73
52.9704	523.16
52.9849	561.76
52.9993	563.01
53.0138	561.02
53.0282	533.75
53.0426	507.62
53.0571	511.60
53.0715	534.29
53.0860	543.51
53.1004	486.26
53.1148	537.06
53.1293	528.68
53.1437	503.64
53.1582	528.25
53.1726	489.43
53.1870	502.38
53.2015	493.81
53.2159	492.08
53.2304	542.44
53.2448	526.89
53.2592	489.49
53.2737	552.00
53.2881	525.21
53.3026	509.79
53.3170	512.56
53.3314	557.17
53.3459	534.16
53.3603	506.13
53.3748	501.34
53.3892	507.40
53.4036	530.37
53.4181	515.11
53.4325	542.40
53.4470	521.68
53.4614	476.95
53.4758	526.03
53.4903	500.68
53.5047	505.04
53.5192	508.01
53.5336	575.39
53.5480	539.44
53.5625	551.62
53.5769	527.37
53.5914	561.67
53.6058	528.01
53.6202	521.74
53.6347	498.65
53.6491	532.77
53.6636	509.63
53.6780	503.93
53.6924	522.35
53.7069	484.55
53.7213	494.41
53.7358	484.31
53.7502	505.05
53.7646	535.74
53.7791	512.85
53.7935	518.31
53.8080	505.13
53.8224	521.57
53.8368	514.09
53.8513	504.13
53.8657	495.89
53.8802	478.25
53.8946	533.06
53.9090	549.86
53.9235	504.17
53.9379	509.11
53.9524	533.90
53.9668	510.42
53.9812	533.56
53.9957	543.79
54.0101	520.67
54.0246	537.42
54.0390	524.89
54.0534	501.89
54.0679	510.10
54.0823	524.31
54.0968	535.53
54.1112	545.97
54.1256	526.67
54.1401	512.10
54.1545	524.23
54.1690	556.64
54.1834	541.17
54.1978	555.02
54.2123	563.71
54.2267	538.93
54.2412	536.06
54.2556	551.01
54.2700	561.13
54.2845	592.54
54.2989	530.91
54.3134	580.15
54.3278	606.97
54.3422	600.79
54.3567	612.20
54.3711	642.25
54.3856	616.79
54.4000	628.59
54.4144	601.12
54.4289	609.78
54.4433	568.42
54.4578	600.54
54.4722	623.07
54.4866	570.36
54.5011	553.07
54.5155	547.87
54.5300	545.21
54.5444	577.62
54.5588	563.77
54.5733	589.11
54.5877	578.73
54.6022	548.99
54.6166	522.80
54.6310	535.70
54.6455	529.34
54.6599	534.25
54.6744	531.91
54.6888	525.89
54.7032	518.13
54.7177	567.89
54.7321	535.52
54.7466	536.86
54.7610	541.20
54.7754	541.51
54.7899	522.44
54.8043	532.82
54.8188	525.20
54.8332	537.50
54.8476	518.95
54.8621	533.17
54.8765	519.22
54.8910	508.23
54.9054	508.40
54.9198	528.92
54.9343	495.83
54.9487	494.36
54.9632	532.94
54.9776	543.38
54.9920	523.97
55.0065	497.67
55.0209	538.01
55.0354	510.85
55.0498	511.42
55.0642	491.68
55.0787	504.49
55.0931	518.55
55.1076	495.12
55.1220	503.65
55.1364	493.81
55.1509	489.33
55.1653	533.49
55.1798	534.42
55.1942	517.46
55.2086	524.97
55.2231	516.83
55.2375	537.51
55.2520	512.94
55.2664	518.81
55.2808	554.63
55.2953	494.11
55.3097	494.91
55.3242	509.24
55.3386	524.89
55.3530	501.63
55.3675	510.09
55.3819	520.77
55.3964	505.74
55.4108	503.02
55.4252	523.35
55.4397	528.82
55.4541	507.37
55.4686	534.39
55.4830	501.24
55.4974	490.03
55.5119	521.64
55.5263	534.48
55.5408	546.40
55.5552	529.40
55.5696	542.66
55.5841	533.84
55.5985	527.76
55.6130	532.04
55.6274	526.56
55.6418	499.44
55.6563	518.31
55.6707	516.35
55.6852	535.58
55.6996	544.12
55.7140	553.36
55.7285	527.80
55.7429	532.62
55.7574	548.83
55.7718	557.18
55.7862	530.50
55.8007	516.64
55.8151	516.58
55.8296	538.12
55.8440	542.24
55.8584	549.46
55.8729	505.59
55.8873	525.98
55.9018	515.05
55.9162	512.12
55.9306	506.46
55.9451	530.33
55.9595	493.90
55.9740	494.99
55.9884	496.59
56.0028	513.85
56.0173	523.29
56.0317	554.08
56.0462	556.89
56.0606	526.38
56.0750	502.88
56.0895	540.52
56.1039	549.81
56.1184	544.96
56.1328	551.31
56.1472	510.86
56.1617	507.11
56.1761	548.97
56.1906	502.70
56.2050	486.59
56.2194	519.84
56.2339	508.47
56.2483	514.29
56.2628	528.62
56.2772	537.62
56.2916	488.85
56.3061	539.36
56.3205	508.78
56.3350	537.39
56.3494	546.43
56.3639	512.82
56.3783	494.22
56.3927	497.90
56.4072	498.62
56.4216	519.84
56.4361	539.26
56.4505	527.87
56.4649	480.98
56.4794	536.15
56.4938	527.41
56.5083	508.09
56.5227	508.94
56.5371	500.59
56.5516	532.56
56.5660	488.59
56.5805	533.74
56.5949	533.11
56.6093	522.04
56.6238	511.01
56.6382	546.27
56.6527	502.44
56.6671	503.45
56.6815	558.83
56.6960	528.18
56.7104	533.78
56.7249	493.31
56.7393	522.23
56.7537	532.11
56.7682	479.11
56.7826	530.79
56.7971	532.82
56.8115	487.25
56.8259	524.02
56.8404	552.89
56.8548	509.19
56.8693	492.05
56.8837	510.22
56.8981	545.44
56.9126	512.15
56.9270	544.25
56.9415	531.51
56.9559	509.39
56.9703	505.65
56.9848	523.13
56.9992	526.64
57.0137	551.98
57.0281	541.23
57.0425	551.91
57.0570	498.14
57.0714	560.53
57.0859	540.14
57.1003	517.28
57.1147	553.48
57.1292	544.84
57.1436	466.41
57.1581	514.85
57.1725	526.12
57.1869	511.73
57.2014	515.19
57.2158	550.24
57.2303	533.55
57.2447	547.16
57.2591	513.22
57.2736	529.47
57.2880	575.03
57.3025	516.50
57.3169	513.58
57.3313	535.46
57.3458	530.01
57.3602	537.23
57.3747	503.75
57.3891	509.58
57.4035	501.28
57.4180	525.44
57.4324	500.99
57.4469	493.10
57.4613	543.95
57.4757	524.12
57.4902	534.08
57.5046	537.35
57.5191	528.43
57.5335	535.98
57.5479	537.68
57.5624	538.07
57.5768	539.19
57.5913	506.58
57.6057	522.28
57.6201	553.47
57.6346	541.09
57.6490	516.76
57.6635	525.44
57.6779	538.96
57.6923	516.81
57.7068	569.50
57.7212	580.07
57.7357	514.67
57.7501	554.89
57.7645	525.53
57.7790	557.82
57.7934	546.27
57.8079	552.16
57.8223	546.20
57.8367	566.75
57.8512	585.31
57.8656	602.97
57.8801	626.59
57.8945	631.68
57.9089	670.21
57.9234	634.08
57.9378	660.33
57.9523	683.76
57.9667	726.19
57.9811	700.55
57.9956	709.25
58.0100	723.78
58.0245	688.16
58.0389	705.04
58.0533	677.37
58.0678	632.59
58.0822	654.92
58.0967	724.03
58.1111	707.61
58.1255	693.53
58.1400	664.10
58.1544	645.48
58.1689	636.89
58.1833	604.15
58.1977	575.08
58.2122	601.08
58.2266	619.30
58.2411	585.07
58.2555	537.01
58.2699	574.86
58.2844	579.20
58.2988	541.89
58.3133	527.37
58.3277	520.51
58.3421	592.75
58.3566	569.98
58.3710	533.85
58.3855	537.93
58.3999	544.82
58.4143	532.04
58.4288	558.21
58.4432	530.48
58.4577	538.19
58.4721	582.23
58.4865	568.05
58.5010	534.30
58.5154	507.33
58.5299	504.07
58.5443	493.58
58.5587	537.82
58.5732	519.95
58.5876	542.99
58.6021	549.92
58.6165	510.99
58.6309	524.57
58.6454	534.86
58.6598	512.09
58.6743	510.56
58.6887	518.92
58.7031	518.81
58.7176	535.01
58.7320	533.01
58.7465	552.16
58.7609	540.80
58.7753	518.27
58.7898	524.57
58.8042	530.92
58.8187	527.34
58.8331	564.37
58.8475	543.35
58.8620	539.73
58.8764	514.22
58.8909	502.01
58.9053	517.85
58.9197	491.66
58.9342	525.54
58.9486	545.04
58.9631	507.20
58.9775	489.57
58.9919	506.72
59.0064	518.97
59.0208	589.29
59.0353	580.02
59.0497	537.46
59.0641	556.35
59.0786	529.90
59.0930	524.50
59.1075	529.47
59.1219	516.71
59.1363	542.17
59.1508	550.29
59.1652	561.29
59.1797	550.33
59.1941	512.44
59.2085	535.66
59.2230	540.63
59.2374	549.02
59.2519	550.13
59.2663	531.67
59.2807	575.31
59.2952	564.27
59.3096	567.01
59.3241	550.34
59.3385	541.78
59.3529	551.92
59.3674	568.77
59.3818	565.19
59.3963	537.58
59.4107	542.23
59.4251	604.09
59.4396	580.02
59.4540	581.89
59.4685	576.68
59.4829	578.94
59.4973	572.56
59.5118	550.97
59.5262	537.68
59.5407	537.46
59.5551	577.46
59.5695	548.23
59.5840	544.31
59.5984	565.65
59.6129	554.87
59.6273	553.22
59.6417	542.98
59.6562	528.69
59.6706	520.56
59.6851	517.97
59.6995	569.48
59.7139	531.85
59.7284	523.83
59.7428	529.44
59.7573	528.35
59.7717	523.54
59.7861	499.74
59.8006	544.45
59.8150	544.12
59.8295	521.65
59.8439	528.55
59.8583	547.02
59.8728	527.91
59.8872	523.97
59.9017	558.76
59.9161	588.54
59.9305	546.48
59.9450	535.79
59.9594	521.05
59.9739	521.45
59.9883	536.35
60.0027	552.57
60.0172	555.87
60.0316	584.65
60.0461	541.72
60.0605	550.53
60.0750	514.98
60.0894	562.24
60.1038	563.98
60.1183	542.32
60.1327	548.81
60.1472	525.25
60.1616	549.83
60.1760	539.94
60.1905	531.39
60.2049	519.62
60.2194	547.51
60.2338	539.55
60.2482	556.52
60.2627	531.50
60.2771	550.84
60.2916	540.01
60.3060	535.39
60.3204	561.30
60.3349	581.10
60.3493	499.45
60.3638	524.05
60.3782	543.57
60.3926	551.50
60.4071	494.65
60.4215	545.64
60.4360	559.95
60.4504	518.06
60.4648	524.99
60.4793	517.71
60.4937	489.92
60.5082	477.41
60.5226	548.18
60.5370	542.27
60.5515	554.76
60.5659	532.33
60.5804	526.50
60.5948	531.21
60.6092	538.80
60.6237	507.39
60.6381	555.98
60.6526	523.63
60.6670	512.66
60.6814	534.10
60.6959	538.59
60.7103	538.61
60.7248	537.44
60.7392	552.29
60.7536	528.64
60.7681	513.75
60.7825	551.83
60.7970	518.16
60.8114	594.36
60.8258	547.38
60.8403	556.38
60.8547	583.10
60.8692	539.58
60.8836	517.54
60.8980	536.83
60.9125	540.01
60.9269	538.89
60.9414	552.76
60.9558	522.60
60.9702	517.62
60.9847	539.12
60.9991	547.59
61.0136	528.55
61.0280	540.43
61.0424	524.71
61.0569	544.00
61.0713	565.42
61.0858	543.70
61.1002	518.04
61.1146	528.70
61.1291	559.48
61.1435	538.07
61.1580	533.36
61.1724	516.30
61.1868	540.71
61.2013	511.00
61.2157	530.16
61.2302	535.22
61.2446	508.84
61.2590	529.29
61.2735	518.51
61.2879	541.74
61.3024	524.31
61.3168	532.91
61.3312	535.74
61.3457	541.19
61.3601	552.21
61.3746	548.48
61.3890	559.71
61.4034	562.60
61.4179	552.51
61.4323	544.12
61.4468	527.13
61.4612	532.24
61.4756	564.85
61.4901	537.15
61.5045	540.43
61.5190	532.81
61.5334	561.50
61.5478	541.05
61.5623	540.14
61.5767	539.98
61.5912	541.97
61.6056	548.65
61.6200	522.19
61.6345	546.63
61.6489	553.74
61.6634	551.53
61.6778	529.63
61.6922	511.56
61.7067	560.76
61.7211	546.71
61.7356	547.84
61.7500	549.89
61.7644	544.90
61.7789	579.42
61.7933	529.03
61.8078	526.82
61.8222	539.97
61.8366	598.19
61.8511	548.20
61.8655	550.19
61.8800	534.63
61.8944	560.42
61.9088	546.44
61.9233	531.39
61.9377	529.90
61.9522	536.48
61.9666	532.33
61.9810	557.33
61.9955	554.16
62.0099	532.85
62.0244	609.45
62.0388	566.31
62.0532	555.20
62.0677	586.80
62.0821	579.07
62.0966	565.02
62.1110	529.74
62.1254	527.25
62.1399	549.56
62.1543	544.11
62.1688	561.81
62.1832	562.00
62.1976	573.26
62.2121	572.32
62.2265	503.87
62.2410	548.50
62.2554	522.93
62.2698	526.26
62.2843	513.72
62.2987	539.35
62.3132	552.82
62.3276	562.90
62.3420	563.18
62.3565	528.87
62.3709	561.57
62.3854	538.64
62.3998	485.44
62.4142	522.61
62.4287	577.45
62.4431	535.55
62.4576	527.71
62.4720	580.17
62.4864	540.33
62.5009	553.25
62.5153	537.17
62.5298	592.78
62.5442	568.87
62.5586	586.59
62.5731	593.47
62.5875	591.99
62.6020	571.56
62.6164	563.27
62.6308	540.96
62.6453	543.98
62.6597	552.76
62.6742	566.98
62.6886	556.57
62.7030	584.93
62.7175	552.14
62.7319	550.02
62.7464	541.77
62.7608	540.05
62.7752	529.75
62.7897	581.52
62.8041	625.98
62.8186	582.19
62.8330	530.84
62.8474	546.11
62.8619	581.73
62.8763	548.92
62.8908	545.08
62.9052	562.21
62.9196	594.64
62.9341	568.54
62.9485	577.44
62.9630	591.85
62.9774	600.11
62.9918	536.88
63.0063	542.93
63.0207	522.24
63.0352	555.69
63.0496	564.44
63.0640	611.67
63.0785	555.82
63.0929	570.30
63.1074	580.34
63.1218	573.59
63.1362	595.79
63.1507	550.31
63.1651	599.28
63.1796	546.63
63.1940	571.89
63.2084	571.65
63.2229	575.19
63.2373	578.39
63.2518	586.01
63.2662	573.61
63.2806	583.16
63.2951	556.96
63.3095	567.84
63.3240	581.52
63.3384	597.74
63.3528	616.83
63.3673	600.48
63.3817	609.15
63.3962	596.58
63.4106	578.07
63.4250	633.56
63.4395	603.11
63.4539	603.51
63.4684	634.48
63.4828	649.03
63.4972	606.52
63.5117	615.92
63.5261	629.84
63.5406	672.16
63.5550	685.72
63.5694	689.54
63.5839	704.96
63.5983	712.59
63.6128	802.04
63.6272	859.93
63.6416	926.17
63.6561	960.99
63.6705	927.31
63.6850	903.06
63.6994	885.59
63.7138	919.80
63.7283	827.97
63.7427	801.03
63.7572	771.61
63.7716	791.37
63.7861	789.31
63.8005	778.35
63.8149	798.23
63.8294	772.65
63.8438	777.52
63.8583	798.78
63.8727	793.44
63.8871	780.57
63.9016	800.00
63.9160	740.36
63.9305	715.03
63.9449	670.94
63.9593	634.23
63.9738	646.27
63.9882	650.44
64.0027	682.16
64.0171	619.70
64.0315	616.70
64.0460	675.68
64.0604	616.76
64.0749	601.56
64.0893	625.84
64.1037	616.91
64.1182	649.29
64.1326	634.65
64.1471	570.66
64.1615	639.64
64.1759	619.01
64.1904	604.66
64.2048	603.79
64.2193	641.93
64.2337	630.08
64.2481	624.49
64.2626	599.83
64.2770	615.54
64.2915	592.35
64.3059	603.02
64.3203	617.52
64.3348	628.12
64.3492	595.48
64.3637	589.55
64.3781	583.96
64.3925	613.09
64.4070	562.79
64.4214	609.70
64.4359	642.72
64.4503	614.01
64.4647	599.48
64.4792	652.91
64.4936	611.25
64.5081	626.61
64.5225	622.28
64.5369	639.75
64.5514	628.15
64.5658	624.61
64.5803	689.45
64.5947	647.15
64.6091	650.12
64.6236	644.42
64.6380	639.12
64.6525	604.57
64.6669	647.60
64.6813	672.36
64.6958	682.36
64.7102	726.03
64.7247	704.96
64.7391	662.25
64.7535	686.88
64.7680	703.81
64.7824	709.81
64.7969	725.81
64.8113	755.26
64.8257	778.39
64.8402	780.53
64.8546	792.50
64.8691	816.84
64.8835	825.43
64.8979	847.03
64.9124	802.17
64.9268	857.32
64.9413	941.69
64.9557	936.97
64.9701	982.03
64.9846	1012.19
64.9990	1081.95
65.0135	1292.03
65.0279	1445.22
65.0423	1686.30
65.0568	2105.24
65.0712	2499.04
65.0857	3425.49
65.1001	4480.17
65.1145	6035.27
65.1290	7917.83
65.1434	9619.60
65.1579	11097.33
65.1723	11942.69
65.1867	11503.45
65.2012	10204.75
65.2156	8542.38
65.2301	6693.77
65.2445	5377.53
65.2589	4522.83
65.2734	4232.27
65.2878	4476.67
65.3023	5012.50
65.3167	5716.01
65.3311	6553.14
65.3456	7153.55
65.3600	7128.37
65.3745	6586.99
65.3889	5693.57
65.4033	4480.26
65.4178	3559.08
65.4322	2826.43
65.4467	2142.74
65.4611	1793.45
65.4755	1506.84
65.4900	1295.41
65.5044	1151.25
65.5189	1061.65
65.5333	1007.21
65.5477	918.06
65.5622	865.31
65.5766	887.84
65.5911	836.53
65.6055	837.41
65.6199	765.08
65.6344	754.55
65.6488	759.19
65.6633	803.22
65.6777	771.36
65.6921	692.20
65.7066	731.72
65.7210	724.01
65.7355	691.02
65.7499	668.63
65.7643	653.52
65.7788	659.75
65.7932	670.68
65.8077	693.59
65.8221	660.94
65.8365	676.35
65.8510	700.59
65.8654	679.31
65.8799	650.68
65.8943	689.83
65.9087	684.00
65.9232	625.97
65.9376	648.68
65.9521	630.39
65.9665	623.12
65.9809	609.22
65.9954	617.32
66.0098	635.91
66.0243	631.97
66.0387	626.52
66.0531	618.26
66.0676	636.42
66.0820	654.27
66.0965	630.20
66.1109	605.04
66.1253	634.04
66.1398	595.01
66.1542	598.21
66.1687	619.31
66.1831	597.79
66.1975	575.45
66.2120	568.19
66.2264	614.36
66.2409	626.01
66.2553	606.88
66.2697	591.10
66.2842	569.38
66.2986	597.34
66.3131	610.54
66.3275	629.17
66.3419	630.61
66.3564	614.29
66.3708	596.03
66.3853	587.83
66.3997	595.50
66.4141	590.74
66.4286	600.50
66.4430	591.85
66.4575	612.55
66.4719	642.28
66.4863	612.85
66.5008	598.53
66.5152	566.84
66.5297	611.00
66.5441	594.13
66.5585	615.45
66.5730	600.68
66.5874	619.60
66.6019	601.18
66.6163	585.74
66.6307	595.64
66.6452	579.86
66.6596	572.28
66.6741	598.27
66.6885	561.73
66.7029	601.29
66.7174	574.55
66.7318	556.01
66.7463	623.97
66.7607	596.80
66.7751	591.18
66.7896	599.73
66.8040	585.61
66.8185	595.07
66.8329	597.47
66.8473	583.79
66.8618	620.86
66.8762	571.94
66.8907	567.79
66.9051	633.77
66.9195	612.11
66.9340	583.94
66.9484	595.38
66.9629	599.79
66.9773	590.78
66.9917	584.92
67.0062	574.99
67.0206	591.06
67.0351	597.84
67.0495	563.26
67.0639	594.15
67.0784	595.27
67.0928	547.91
67.1073	562.40
67.1217	601.95
67.1361	586.60
67.1506	578.44
67.1650	579.32
67.1795	597.34
67.1939	582.97
67.2083	571.48
67.2228	578.99
67.2372	571.23
67.2517	573.37
67.2661	566.67
67.2805	613.78
67.2950	586.65
67.3094	599.25
67.3239	595.20
67.3383	562.48
67.3527	579.37
67.3672	570.30
67.3816	545.84
67.3961	585.01
67.4105	585.58
67.4250	587.10
67.4394	602.38
67.4538	593.74
67.4683	597.69
67.4827	578.19
67.4972	564.52
67.5116	567.03
67.5260	601.34
67.5405	566.25
67.5549	568.50
67.5694	562.57
67.5838	549.60
67.5982	553.04
67.6127	547.77
67.6271	587.73
67.6416	573.00
67.6560	578.96
67.6704	585.87
67.6849	560.88
67.6993	566.46
67.7138	558.83
67.7282	579.00
67.7426	551.85
67.7571	573.03
67.7715	567.30
67.7860	605.86
67.8004	544.86
67.8148	568.79
67.8293	577.01
67.8437	589.08
67.8582	558.84
67.8726	574.67
67.8870	544.00
67.9015	579.62
67.9159	590.42
67.9304	574.48
67.9448	584.15
67.9592	566.96
67.9737	622.37
67.9881	603.72
68.0026	560.56
68.0170	588.88
68.0314	558.62
68.0459	543.13
68.0603	569.47
68.0748	557.50
68.0892	560.54
68.1036	585.05
68.1181	549.29
68.1325	578.56
68.1470	546.19
68.1614	588.06
68.1758	570.62
68.1903	589.10
68.2047	561.04
68.2192	562.19
68.2336	570.32
68.2480	561.58
68.2625	572.19
68.2769	583.86
68.2914	577.53
68.3058	548.02
68.3202	548.14
68.3347	611.59
68.3491	613.97
68.3636	630.63
68.3780	553.05
68.3924	558.41
68.4069	585.02
68.4213	583.89
68.4358	583.29
68.4502	577.14
68.4646	581.11
68.4791	568.91
68.4935	565.51
68.5080	577.97
68.5224	586.13
68.5368	587.73
68.5513	546.91
68.5657	550.32
68.5802	602.43
68.5946	572.93
68.6090	542.95
68.6235	551.55
68.6379	578.16
68.6524	556.51
68.6668	578.69
68.6812	544.20
68.6957	558.96
68.7101	554.21
68.7246	586.42
68.7390	574.87
68.7534	596.10
68.7679	605.22
68.7823	574.41
68.7968	569.78
68.8112	553.18
68.8256	566.28
68.8401	572.59
68.8545	575.12
68.8690	572.38
68.8834	512.55
68.8978	540.00
68.9123	572.49
68.9267	554.01
68.9412	581.28
68.9556	562.13
68.9700	516.08
68.9845	599.88
68.9989	598.06
69.0134	632.89
69.0278	597.06
69.0422	571.66
69.0567	565.15
69.0711	632.26
69.0856	585.28
69.1000	584.50
69.1144	589.70
69.1289	607.77
69.1433	590.43
69.1578	578.43
69.1722	587.33
69.1866	627.95
69.2011	600.92
69.2155	568.15
69.2300	575.74
69.2444	549.70
69.2588	562.28
69.2733	572.88
69.2877	589.39
69.3022	552.39
69.3166	553.43
69.3310	577.42
69.3455	567.08
69.3599	534.24
69.3744	529.99
69.3888	577.77
69.4032	550.97
69.4177	560.10
69.4321	580.55
69.4466	525.41
69.4610	509.23
69.4754	592.19
69.4899	579.01
69.5043	542.06
69.5188	560.53
69.5332	562.95
69.5476	565.46
69.5621	551.21
69.5765	533.23
69.5910	540.14
69.6054	603.75
69.6198	605.76
69.6343	556.50
69.6487	566.45
69.6632	564.63
69.6776	551.57
69.6920	548.89
69.7065	576.23
69.7209	572.20
69.7354	577.50
69.7498	533.27
69.7642	605.76
69.7787	607.00
69.7931	596.60
69.8076	562.85
69.8220	540.75
69.8364	605.85
69.8509	540.93
69.8653	559.76
69.8798	592.89
69.8942	627.99
69.9086	596.31
69.9231	579.47
69.9375	611.57
69.9520	564.72
69.9664	560.06
69.9808	564.35
69.9953	596.58
70.0097	514.09
70.0242	569.38
70.0386	557.11
70.0530	548.59
70.0675	572.09
70.0819	552.16
70.0964	536.05
70.1108	531.50
70.1252	601.40
70.1397	595.30
70.1541	588.75
70.1686	554.59
70.1830	585.50
70.1974	562.39
70.2119	593.79
70.2263	593.53
70.2408	599.77
70.2552	573.84
70.2696	539.63
70.2841	623.93
70.2985	531.84
70.3130	533.03
70.3274	587.49
70.3418	581.03
70.3563	616.92
70.3707	629.46
70.3852	590.94
70.3996	572.69
70.4140	596.21
70.4285	630.78
70.4429	564.30
70.4574	553.93
70.4718	585.86
70.4862	555.90
70.5007	563.36
70.5151	566.84
70.5296	553.41
70.5440	587.45
70.5584	554.25
70.5729	572.30
70.5873	558.94
70.6018	596.72
70.6162	567.94
70.6306	552.66
70.6451	554.07
70.6595	540.37
70.6740	525.56
70.6884	554.50
70.7028	543.69
70.7173	575.94
70.7317	599.69
70.7462	572.53
70.7606	550.53
70.7750	546.07
70.7895	557.80
70.8039	584.52
70.8184	585.73
70.8328	614.16
70.8472	566.63
70.8617	588.42
70.8761	583.01
70.8906	616.39
70.9050	573.30
70.9194	590.76
70.9339	591.00
70.9483	587.96
70.9628	593.11
70.9772	577.57
70.9916	599.54
71.0061	564.71
71.0205	535.93
71.0350	582.83
71.0494	543.38
71.0638	509.42
71.0783	553.32
71.0927	632.88
71.1072	649.97
71.1216	598.38
71.1361	568.00
71.1505	623.39
71.1649	618.62
71.1794	653.17
71.1938	644.13
71.2083	631.76
71.2227	593.12
71.2371	613.04
71.2516	635.50
71.2660	611.17
71.2805	563.69
71.2949	543.13
71.3093	577.84
71.3238	554.39
71.3382	572.58
71.3527	543.28
71.3671	534.31
71.3815	558.04
71.3960	600.95
71.4104	590.21
71.4249	606.38
71.4393	608.31
71.4537	606.21
71.4682	591.21
71.4826	628.18
71.4971	617.07
71.5115	568.29
71.5259	536.39
71.5404	568.68
71.5548	558.18
71.5693	580.62
71.5837	595.37
71.5981	605.34
71.6126	592.98
71.6270	603.19
71.6415	612.17
71.6559	604.84
71.6703	613.00
71.6848	589.95
71.6992	558.08
71.7137	502.76
71.7281	583.76
71.7425	577.67
71.7570	547.17
71.7714	619.98
71.7859	601.90
71.8003	564.96
71.8147	585.85
71.8292	593.22
71.8436	546.57
71.8581	550.27
71.8725	562.93
71.8869	568.01
71.9014	649.85
71.9158	627.34
71.9303	635.53
71.9447	706.77
71.9591	641.73
71.9736	544.84
71.9880	568.48
72.0025	524.95
72.0169	552.83
72.0313	574.49
72.0458	501.08
72.0602	532.26
72.0747	627.76
72.0891	691.39
72.1035	606.74
72.1180	616.98
72.1324	648.93
72.1469	587.51
72.1613	597.74
72.1757	623.51
72.1902	600.40
72.2046	563.59
72.2191	577.97
72.2335	593.31
72.2479	579.43
72.2624	576.50
72.2768	619.95
72.2913	638.56
72.3057	602.85
72.3201	633.33
72.3346	626.82
72.3490	555.14
72.3635	560.84
72.3779	548.50
72.3923	505.64
72.4068	546.34
72.4212	553.40
72.4357	563.59
72.4501	589.44
72.4645	631.55
72.4790	624.27
72.4934	589.78
72.5079	536.54
72.5223	516.93
72.5367	504.01
72.5512	526.17
72.5656	623.75
72.5801	556.76
72.5945	558.92
72.6089	561.43
72.6234	535.39
72.6378	526.37
72.6523	584.09
72.6667	603.29
72.6811	642.68
72.6956	622.36
72.7100	602.24
72.7245	527.47
72.7389	525.14
72.7533	572.57
72.7678	568.46
72.7822	582.99
72.7967	538.92
72.8111	557.80
72.8255	642.83
72.8400	623.22
72.8544	597.87
72.8689	564.41
72.8833	547.64

Result vector
22.1120	585.41
22.1264	576.76
22.1409	506.90
22.1553	488.02
22.1697	554.28
22.1842	621.93
22.1986	544.40
22.2131	604.99
22.2275	624.92
22.2419	523.70
22.2564	501.90
22.2708	583.17
22.2853	608.80
22.2997	558.18
22.3141	537.97
22.3286	611.14
22.3430	583.06
22.3575	519.18
22.3719	572.76
22.3863	547.13
22.4008	570.09
22.4152	545.19
22.4297	617.69
22.4441	716.18
22.4585	553.23
22.4730	626.82
22.4874	659.51
22.5019	562.87
22.5163	541.30
22.5307	544.59
22.5452	490.54
22.5596	587.26
22.5741	601.35
22.5885	561.51
22.6029	591.73
22.6174	557.84
22.6318	544.26
22.6463	545.26
22.6607	621.02
22.6751	545.85
22.6896	620.08
22.7040	637.90
22.7185	574.02
22.7329	529.00
22.7473	630.74
22.7618	586.42
22.7762	563.43
22.7907	561.07
22.8051	600.91
22.8195	580.63
22.8340	549.26
22.8484	541.82
22.8629	497.48
22.8773	511.87
22.8917	540.63
22.9062	562.15
22.9206	527.63
22.9351	524.88
22.9495	501.52
22.9639	572.26
22.9784	548.05
22.9928	517.22
23.0073	586.16
23.0217	597.86
23.0361	489.65
23.0506	557.42
23.0650	579.93
23.0795	543.33
23.0939	526.12
23.1083	517.96
23.1228	536.16
23.1372	552.53
23.1517	479.05
23.1661	511.51
23.1806	511.00
23.1950	514.36
23.2094	578.55
23.2239	556.63
23.2383	543.47
23.2528	533.91
23.2672	632.67
23.2816	577.24
23.2961	535.49
23.3105	564.23
23.3250	568.99
23.3394	507.07
23.3538	530.21
23.3683	547.88
23.3827	498.71
23.3972	442.93
23.4116	562.40
23.4260	566.38
23.4405	561.06
23.4549	583.05
23.4694	580.15
23.4838	503.37
23.4982	507.03
23.5127	541.11
23.5271	615.19
23.5416	663.21
23.5560	646.43
23.5704	613.79
23.5849	584.97
23.5993	579.34
23.6138	482.43
23.6282	491.32
23.6426	523.34
23.6571	564.87
23.6715	565.18
23.6860	589.11
23.7004	579.27
23.7148	616.84
23.7293	550.12
23.7437	566.53
23.7582	557.45
23.7726	556.07
23.7870	593.13
23.8015	564.11
23.8159	583.71
23.8304	583.54
23.8448	542.04
23.8592	571.85
23.8737	543.40
23.8881	529.04
23.9026	549.89
23.9170	557.13
23.9314	489.17
23.9459	465.99
23.9603	544.66
23.9748	560.07
23.9892	549.26
24.0036	575.55
24.0181	524.86
24.0325	598.48
24.0470	568.51
24.0614	560.46
24.0758	575.92
24.0903	587.56
24.1047	551.02
24.1192	581.56
24.1336	605.65
24.1480	589.49
24.1625	570.96
24.1769	555.02
24.1914	550.71
24.2058	582.24
24.2202	536.43
24.2347	602.21
24.2491	628.61
24.2636	565.98
24.2780	540.93
24.2924	563.63
24.3069	632.81
24.3213	564.15
24.3358	529.45
24.3502	561.12
24.3646	577.43
24.3791	570.49
24.3935	581.04
24.4080	572.18
24.4224	580.14
24.4368	575.06
24.4513	543.88
24.4657	556.07
24.4802	549.46
24.4946	581.99
24.5090	515.87
24.5235	577.04
24.5379	544.31
24.5524	567.50
24.5668	572.52
24.5812	507.26
24.5957	591.95
24.6101	528.15
24.6246	564.96
24.6390	582.12
24.6534	532.93
24.6679	519.63
24.6823	588.08
24.6968	586.65
24.7112	539.12
24.7256	530.84
24.7401	537.91
24.7545	566.09
24.7690	548.06
24.7834	554.46
24.7978	531.03
24.8123	521.63
24.8267	544.52
24.8412	582.06
24.8556	569.18
24.8700	559.88
24.8845	507.81
24.8989	529.33
24.9134	539.75
24.9278	559.69
24.9422	491.85
24.9567	491.89
24.9711	548.68
24.9856	566.24
25.0000	554.74
25.0144	543.63
25.0289	582.90
25.0433	598.97
25.0578	530.62
25.0722	527.43
25.0866	583.73
25.1011	566.16
25.1155	541.60
25.1300	580.08
25.1444	497.14
25.1588	526.78
25.1733	576.68
25.1877	558.02
25.2022	537.38
25.2166	527.95
25.2310	522.49
25.2455	526.20
25.2599	556.18
25.2744	552.68
25.2888	590.13
25.3032	549.55
25.3177	520.36
25.3321	567.77
25.3466	537.59
25.3610	564.18
25.3754	478.37
25.3899	522.87
25.4043	511.56
25.4188	539.04
25.4332	532.23
25.4476	512.98
25.4621	557.47
25.4765	552.20
25.4910	546.31
25.5054	578.69
25.5198	522.78
25.5343	563.64
25.5487	560.50
25.5632	531.88
25.5776	574.38
25.5920	537.79
25.6065	533.59
25.6209	514.10
25.6354	562.75
25.6498	546.04
25.6642	556.77
25.6787	525.22
25.6931	509.00
25.7076	552.26
25.7220	552.94
25.7364	524.64
25.7509	517.10
25.7653	531.81
25.7798	582.69
25.7942	554.20
25.8086	539.51
25.8231	528.33
25.8375	565.00
25.8520	540.87
25.8664	528.03
25.8808	543.06
25.8953	535.18
25.9097	575.68
25.9242	551.25
25.9386	531.39
25.9530	535.14
25.9675	522.75
25.9819	518.08
25.9964	505.09
26.0108	526.67
26.0252	525.64
26.0397	489.70
26.0541	509.04
26.0686	525.63
26.0830	531.74
26.0974	508.16
26.1119	533.02
26.1263	562.28
26.1408	558.37
26.1552	537.23
26.1696	521.28
26.1841	510.77
26.1985	537.12
26.2130	533.36
26.2274	513.74
26.2418	537.38
26.2563	517.68
26.2707	547.20
26.2852	525.74
26.2996	519.19
26.3140	521.51
26.3285	521.13
26.3429	530.19
26.3574	543.20
26.3718	552.31
26.3862	545.35
26.4007	490.68
26.4151	527.11
26.4296	549.51
26.4440	533.29
26.4584	517.81
26.4729	522.84
26.4873	552.67
26.5018	551.36
26.5162	512.90
26.5306	547.75
26.5451	553.51
26.5595	544.05
26.5740	533.05
26.5884	545.70
26.6028	554.74
26.6173	515.51
26.6317	526.69
26.6462	536.26
26.6606	551.93
26.6750	533.13
26.6895	560.46
26.7039	532.86
26.7184	559.27
26.7328	524.88
26.7472	510.20
26.7617	558.75
26.7761	544.43
26.7906	533.52
26.8050	538.81
26.8194	532.39
26.8339	525.97
26.8483	485.80
26.8628	495.21
26.8772	548.40
26.8917	541.77
26.9061	524.50
26.9205	544.63
26.9350	555.74
26.9494	535.66
26.9639	475.18
26.9783	497.92
26.9927	517.90
27.0072	529.71
27.0216	520.13
27.0361	506.98
27.0505	547.06
27.0649	520.95
27.0794	536.14
27.0938	530.66
27.1083	520.87
27.1227	517.54
27.1371	516.83
27.1516	491.74
27.1660	509.40
27.1805	533.40
27.1949	511.52
27.2093	499.14
27.2238	516.86
27.2382	536.98
27.2527	520.62
27.2671	505.59
27.2815	515.82
27.2960	514.31
27.3104	516.69
27.3249	499.31
27.3393	534.58
27.3537	518.07
27.3682	532.17
27.3826	533.39
27.3971	539.69
27.4115	523.45
27.4259	537.97
27.4404	519.11
27.4548	525.73
27.4693	528.71
27.4837	539.52
27.4981	536.18
27.5126	526.11
27.5270	526.06
27.5415	540.11
27.5559	551.92
27.5703	514.26
27.5848	510.67
27.5992	552.35
27.6137	522.95
27.6281	508.12
27.6425	541.16
27.6570	529.61
27.6714	516.63
27.6859	519.59
27.7003	518.24
27.7147	555.13
27.7292	511.78
27.7436	506.36
27.7581	513.11
27.7725	548.96
27.7869	528.59
27.8014	517.54
27.8158	519.83
27.8303	513.30
27.8447	521.53
27.8591	535.93
27.8736	538.95
27.8880	506.16
27.9025	518.37
27.9169	488.18
27.9313	485.56
27.9458	563.51
27.9602	504.46
27.9747	537.68
27.9891	538.96
28.0035	521.97
28.0180	532.90
28.0324	539.25
28.0469	502.75
28.0613	481.44
28.0757	500.01
28.0902	549.72
28.1046	499.23
28.1191	549.48
28.1335	534.47
28.1479	488.40
28.1624	493.75
28.1768	502.57
28.1913	512.69
28.2057	502.09
28.2201	519.72
28.2346	560.41
28.2490	544.68
28.2635	501.76
28.2779	506.83
28.2923	515.79
28.3068	531.70
28.3212	527.38
28.3357	535.97
28.3501	522.60
28.3645	527.53
28.3790	488.52
28.3934	504.53
28.4079	513.82
28.4223	528.51
28.4367	525.30
28.4512	533.60
28.4656	513.74
28.4801	549.79
28.4945	551.24
28.5089	509.25
28.5234	502.38
28.5378	508.39
28.5523	502.43
28.5667	522.00
28.5811	518.14
28.5956	499.60
28.6100	510.67
28.6245	502.44
28.6389	497.99
28.6533	516.00
28.6678	531.62
28.6822	564.22
28.6967	511.85
28.7111	552.61
28.7255	517.61
28.7400	516.62
28.7544	477.09
28.7689	512.58
28.7833	520.87
28.7977	536.63
28.8122	546.78
28.8266	512.66
28.8411	546.31
28.8555	525.89
28.8699	522.00
28.8844	511.27
28.8988	528.28
28.9133	498.42
28.9277	487.64
28.9421	558.61
28.9566	531.63
28.9710	502.05
28.9855	498.72
28.9999	532.31
29.0143	511.74
29.0288	490.88
29.0432	504.51
29.0577	488.04
29.0721	520.38
29.0865	487.13
29.1010	546.10
29.1154	514.68
29.1299	496.08
29.1443	484.03
29.1587	500.97
29.1732	482.79
29.1876	485.88
29.2021	501.50
29.2165	497.78
29.2309	481.89
29.2454	515.72
29.2598	523.93
29.2743	527.95
29.2887	529.59
29.3031	534.92
29.3176	498.44
29.3320	517.12
29.3465	513.19
29.3609	494.25
29.3753	481.55
29.3898	522.36
29.4042	492.18
29.4187	531.92
29.4331	529.65
29.4475	507.49
29.4620	503.00
29.4764	547.70
29.4909	519.65
29.5053	507.32
29.5197	509.62
29.5342	545.39
29.5486	497.52
29.5631	518.17
29.5775	489.75
29.5919	503.39
29.6064	510.73
29.6208	500.57
29.6353	506.54
29.6497	521.26
29.6641	469.95
29.6786	486.36
29.6930	494.36
29.7075	529.68
29.7219	510.60
29.7363	509.28
29.7508	500.40
29.7652	511.36
29.7797	511.58
29.7941	476.44
29.8085	494.67
29.8230	537.22
29.8374	502.24
29.8519	512.16
29.8663	527.84
29.8807	525.33
29.8952	507.61
29.9096	530.92
29.9241	557.68
29.9385	529.49
29.9529	481.25
29.9674	531.86
29.9818	532.34
29.9963	521.95
30.0107	448.15
30.0251	457.03
30.0396	483.46
30.0540	503.81
30.0685	514.95
30.0829	497.89
30.0973	514.98
30.1118	529.48
30.1262	516.02
30.1407	499.36
30.1551	503.76
30.1695	498.66
30.1840	492.33
30.1984	522.59
30.2129	495.82
30.2273	499.38
30.2417	543.44
30.2562	511.91
30.2706	515.34
30.2851	530.52
30.2995	521.43
30.3139	501.23
30.3284	495.72
30.3428	518.74
30.3573	527.02
30.3717	524.52
30.3861	515.75
30.4006	517.92
30.4150	509.80
30.4295	563.68
30.4439	547.03
30.4583	536.70
30.4728	572.70
30.4872	514.40
30.5017	527.20
30.5161	563.47
30.5305	581.24
30.5450	624.97
30.5594	621.90
30.5739	657.53
30.5883	672.24
30.6028	748.64
30.6172	766.36
30.6316	742.28
30.6461	719.24
30.6605	710.87
30.6750	730.64
30.6894	711.00
30.7038	702.85
30.7183	644.09
30.7327	599.38
30.7472	575.72
30.7616	570.26
30.7760	560.71
30.7905	555.61
30.8049	512.44
30.8194	541.04
30.8338	536.87
30.8482	552.77
30.8627	536.27
30.8771	528.76
30.8916	547.80
30.9060	550.93
30.9204	495.58
30.9349	509.76
30.9493	498.46
30.9638	509.23
30.9782	522.57
30.9926	524.23
31.0071	500.73
31.0215	519.33
31.0360	513.68
31.0504	501.18
31.0648	520.55
31.0793	543.14
31.0937	534.81
31.1082	544.33
31.1226	532.83
31.1370	499.35
31.1515	475.75
31.1659	541.58
31.1804	506.24
31.1948	513.58
31.2092	508.56
31.2237	513.59
31.2381	527.22
31.2526	522.64
31.2670	470.93
31.2814	521.31
31.2959	531.02
31.3103	559.37
31.3248	535.28
31.3392	550.82
31.3536	540.85
31.3681	511.19
31.3825	524.30
31.3970	532.87
31.4114	504.49
31.4258	523.43
31.4403	539.00
31.4547	480.38
31.4692	494.73
31.4836	523.51
31.4980	491.68
31.5125	495.00
31.5269	468.86
31.5414	494.27
31.5558	527.24
31.5702	495.24
31.5847	504.48
31.5991	506.16
31.6136	509.17
31.6280	494.96
31.6424	488.87
31.6569	484.35
31.6713	495.86
31.6858	496.13
31.7002	511.81
31.7146	508.58
31.7291	526.95
31.7435	540.22
31.7580	546.04
31.7724	503.31
31.7868	489.96
31.8013	537.84
31.8157	520.78
31.8302	510.59
31.8446	501.37
31.8590	532.21
31.8735	502.81
31.8879	518.99
31.9024	538.96
31.9168	535.70
31.9312	481.64
31.9457	504.23
31.9601	545.84
31.9746	510.47
31.9890	533.09
32.0034	485.94
32.0179	537.00
32.0323	534.02
32.0468	488.33
32.0612	491.16
32.0756	488.38
32.0901	496.50
32.1045	492.97
32.1190	502.45
32.1334	507.98
32.1478	469.51
32.1623	502.98
32.1767	512.95
32.1912	507.36
32.2056	488.46
32.2200	486.26
32.2345	508.81
32.2489	518.66
32.2634	499.17
32.2778	526.08
32.2922	459.29
32.3067	517.69
32.3211	512.14
32.3356	541.68
32.3500	502.68
32.3644	489.84
32.3789	484.50
32.3933	491.05
32.4078	509.00
32.4222	527.54
32.4366	519.90
32.4511	477.46
32.4655	495.91
32.4800	486.24
32.4944	508.18
32.5088	487.44
32.5233	508.35
32.5377	526.33
32.5522	475.94
32.5666	477.14
32.5810	471.45
32.5955	492.41
32.6099	508.19
32.6244	490.59
32.6388	543.28
32.6532	514.24
32.6677	500.62
32.6821	520.83
32.6966	518.72
32.7110	515.01
32.7254	508.51
32.7399	506.13
32.7543	506.36
32.7688	507.52
32.7832	499.45
32.7976	495.02
32.8121	506.68
32.8265	479.15
32.8410	501.32
32.8554	495.35
32.8698	482.08
32.8843	496.86
32.8987	568.81
32.9132	506.41
32.9276	525.93
32.9420	493.68
32.9565	499.22
32.9709	500.68
32.9854	477.11
32.9998	511.93
33.0142	513.83
33.0287	514.25
33.0431	443.71
33.0576	502.29
33.0720	461.56
33.0864	494.27
33.1009	506.66
33.1153	502.93
33.1298	503.84
33.1442	493.38
33.1586	532.02
33.1731	469.09
33.1875	496.02
33.2020	483.35
33.2164	508.88
33.2308	525.74
33.2453	530.62
33.2597	516.62
33.2742	510.25
33.2886	490.70
33.3030	491.89
33.3175	523.96
33.3319	500.23
33.3464	515.27
33.3608	511.81
33.3752	500.29
33.3897	479.96
33.4041	516.65
33.4186	515.71
33.4330	494.70
33.4474	512.76
33.4619	540.81
33.4763	541.54
33.4908	532.66
33.5052	469.64
33.5196	505.26
33.5341	507.56
33.5485	489.24
33.5630	505.71
33.5774	531.82
33.5918	512.54
33.6063	494.70
33.6207	502.71
33.6352	494.72
33.6496	503.15
33.6640	505.15
33.6785	507.09
33.6929	509.16
33.7074	517.41
33.7218	507.49
33.7362	510.15
33.7507	518.59
33.7651	482.56
33.7796	481.81
33.7940	505.19
33.8084	487.04
33.8229	522.72
33.8373	546.03
33.8518	511.56
33.8662	514.92
33.8806	494.83
33.8951	526.68
33.9095	513.36
33.9240	493.96
33.9384	500.68
33.9528	530.37
33.9673	485.18
33.9817	493.53
33.9962	526.01
34.0106	477.14
34.0250	513.81
34.0395	514.68
34.0539	492.63
34.0684	524.20
34.0828	520.75
34.0972	537.92
34.1117	529.71
34.1261	500.69
34.1406	486.68
34.1550	513.39
34.1694	505.22
34.1839	489.24
34.1983	493.54
34.2128	471.67
34.2272	519.44
34.2417	503.51
34.2561	494.02
34.2705	515.16
34.2850	476.59
34.2994	462.43
34.3139	489.41
34.3283	498.61
34.3427	482.10
34.3572	492.83
34.3716	501.02
34.3861	488.57
34.4005	487.04
34.4149	482.58
34.4294	491.35
34.4438	489.11
34.4583	493.32
34.4727	522.33
34.4871	495.16
34.5016	524.55
34.5160	520.52
34.5305	508.17
34.5449	511.73
34.5593	512.57
34.5738	517.24
34.5882	509.24
34.6027	502.44
34.6171	501.71
34.6315	529.57
34.6460	509.20
34.6604	481.95
34.6749	485.93
34.6893	480.26
34.7037	499.74
34.7182	501.50
34.7326	482.59
34.7471	502.94
34.7615	498.51
34.7759	483.77
34.7904	536.33
34.8048	563.66
34.8193	519.55
34.8337	525.44
34.8481	496.47
34.8626	511.67
34.8770	526.96
34.8915	486.89
34.9059	488.09
34.9203	457.97
34.9348	484.52
34.9492	478.83
34.9637	509.25
34.9781	482.34
34.9925	494.16
35.0070	491.42
35.0214	499.72
35.0359	493.70
35.0503	516.21
35.0647	519.08
35.0792	513.40
35.0936	529.63
35.1081	521.09
35.1225	547.03
35.1369	518.73
35.1514	487.78
35.1658	486.07
35.1803	486.61
35.1947	486.38
35.2091	513.83
35.2236	520.48
35.2380	521.99
35.2525	501.53
35.2669	473.80
35.2813	514.10
35.2958	494.17
35.3102	520.85
35.3247	524.23
35.3391	505.09
35.3535	469.28
35.3680	538.51
35.3824	504.13
35.3969	524.28
35.4113	504.49
35.4257	569.20
35.4402	551.11
35.4546	538.20
35.4691	512.12
35.4835	531.92
35.4979	489.32
35.5124	503.33
35.5268	507.04
35.5413	527.60
35.5557	522.50
35.5701	515.46
35.5846	504.58
35.5990	496.76
35.6135	494.27
35.6279	517.66
35.6423	546.29
35.6568	530.12
35.6712	563.37
35.6857	583.26
35.7001	692.73
35.7145	699.58
35.7290	684.40
35.7434	618.96
35.7579	609.04
35.7723	563.66
35.7867	591.44
35.8012	689.90
35.8156	679.58
35.8301	625.33
35.8445	630.97
35.8589	655.49
35.8734	749.00
35.8878	894.85
35.9023	1018.83
35.9167	1122.67
35.9311	1377.27
35.9456	1961.45
35.9600	2405.10
35.9745	2190.38
35.9889	2121.97
36.0033	2471.11
36.0178	2740.49
36.0322	2512.97
36.0467	2447.37
36.0611	2293.63
36.0755	2110.30
36.0900	2017.01
36.1044	1919.67
36.1189	1725.65
36.1333	1540.60
36.1477	1345.40
36.1622	1312.97
36.1766	1203.73
36.1911	966.42
36.2055	841.28
36.2199	781.96
36.2344	728.44
36.2488	649.54
36.2633	637.33
36.2777	604.27
36.2921	601.38
36.3066	611.01
36.3210	560.30
36.3355	553.31
36.3499	553.25
36.3643	585.25
36.3788	595.72
36.3932	528.33
36.4077	519.34
36.4221	564.40
36.4365	600.20
36.4510	574.22
36.4654	540.16
36.4799	569.17
36.4943	580.95
36.5087	514.27
36.5232	549.96
36.5376	565.94
36.5521	530.41
36.5665	529.40
36.5809	515.24
36.5954	517.13
36.6098	530.99
36.6243	510.69
36.6387	517.66
36.6531	508.73
36.6676	465.03
36.6820	510.19
36.6965	509.89
36.7109	539.03
36.7253	529.71
36.7398	572.93
36.7542	552.53
36.7687	518.21
36.7831	538.22
36.7975	555.03
36.8120	617.47
36.8264	578.67
36.8409	575.57
36.8553	608.10
36.8697	617.73
36.8842	593.96
36.8986	602.30
36.9131	595.32
36.9275	640.06
36.9419	611.34
36.9564	593.81
36.9708	587.40
36.9853	577.63
36.9997	578.45
37.0141	542.69
37.0286	542.20
37.0430	532.97
37.0575	539.03
37.0719	512.66
37.0863	496.86
37.1008	536.70
37.1152	540.50
37.1297	517.69
37.1441	511.35
37.1585	508.47
37.1730	511.27
37.1874	517.42
37.2019	483.00
37.2163	498.22
37.2307	523.10
37.2452	521.55
37.2596	492.27
37.2741	488.01
37.2885	492.58
37.3029	504.03
37.3174	489.99
37.3318	563.74
37.3463	503.11
37.3607	506.01
37.3751	501.95
37.3896	473.75
37.4040	490.86
37.4185	486.63
37.4329	497.60
37.4473	500.08
37.4618	469.09
37.4762	499.98
37.4907	532.01
37.5051	485.54
37.5195	519.70
37.5340	540.76
37.5484	517.13
37.5629	488.09
37.5773	464.61
37.5917	482.25
37.6062	483.31
37.6206	491.00
37.6351	503.27
37.6495	497.89
37.6639	483.45
37.6784	505.34
37.6928	549.16
37.7073	488.66
37.7217	509.10
37.7361	510.53
37.7506	501.12
37.7650	511.95
37.7795	519.60
37.7939	517.65
37.8083	546.97
37.8228	535.08
37.8372	516.75
37.8517	458.09
37.8661	501.73
37.8805	504.24
37.8950	501.26
37.9094	476.15
37.9239	495.63
37.9383	511.66
37.9528	502.11
37.9672	466.42
37.9816	492.73
37.9961	514.98
38.0105	515.40
38.0250	530.87
38.0394	537.37
38.0538	516.42
38.0683	521.80
38.0827	539.95
38.0972	520.02
38.1116	505.75
38.1260	519.73
38.1405	496.18
38.1549	498.41
38.1694	492.35
38.1838	515.68
38.1982	519.19
38.2127	494.66
38.2271	482.66
38.2416	502.92
38.2560	532.83
38.2704	503.98
38.2849	514.51
38.2993	501.01
38.3138	500.27
38.3282	513.65
38.3426	518.34
38.3571	552.88
38.3715	535.02
38.3860	548.76
38.4004	552.62
38.4148	569.63
38.4293	585.39
38.4437	573.01
38.4582	606.90
38.4726	652.49
38.4870	688.23
38.5015	715.74
38.5159	767.95
38.5304	805.07
38.5448	822.26
38.5592	738.99
38.5737	750.65
38.5881	724.22
38.6026	723.09
38.6170	743.49
38.6314	683.70
38.6459	658.77
38.6603	611.92
38.6748	593.40
38.6892	581.56
38.7036	566.82
38.7181	554.49
38.7325	525.56
38.7470	536.99
38.7614	566.30
38.7758	531.30
38.7903	513.17
38.8047	501.61
38.8192	542.53
38.8336	539.68
38.8480	515.39
38.8625	528.37
38.8769	517.73
38.8914	501.02
38.9058	521.14
38.9202	503.18
38.9347	484.90
38.9491	486.14
38.9636	491.08
38.9780	474.06
38.9924	520.03
39.0069	510.66
39.0213	531.88
39.0358	543.45
39.0502	490.84
39.0646	510.20
39.0791	515.90
39.0935	525.91
39.1080	491.90
39.1224	477.74
39.1368	477.43
39.1513	499.60
39.1657	518.82
39.1802	502.89
39.1946	487.11
39.2090	468.40
39.2235	465.62
39.2379	501.26
39.2524	486.33
39.2668	502.40
39.2812	527.78
39.2957	501.84
39.3101	514.22
39.3246	498.57
39.3390	489.00
39.3534	515.14
39.3679	508.57
39.3823	511.57
39.3968	485.50
39.4112	509.09
39.4256	542.72
39.4401	532.92
39.4545	526.33
39.4690	521.16
39.4834	513.34
39.4978	491.63
39.5123	519.07
39.5267	493.43
39.5412	517.94
39.5556	515.23
39.5700	525.39
39.5845	540.69
39.5989	485.22
39.6134	492.74
39.6278	480.49
39.6422	508.32
39.6567	527.81
39.6711	488.97
39.6856	512.17
39.7000	509.66
39.7144	497.39
39.7289	511.14
39.7433	508.04
39.7578	488.40
39.7722	506.87
39.7866	520.58
39.8011	519.73
39.8155	490.60
39.8300	500.82
39.8444	493.99
39.8588	534.11
39.8733	517.29
39.8877	501.89
39.9022	539.68
39.9166	516.68
39.9310	488.31
39.9455	472.99
39.9599	500.09
39.9744	497.42
39.9888	505.80
40.0032	478.46
40.0177	500.45
40.0321	523.01
40.0466	523.08
40.0610	526.07
40.0754	496.87
40.0899	498.12
40.1043	502.53
40.1188	500.64
40.1332	482.20
40.1476	452.77
40.1621	479.93
40.1765	484.81
40.1910	510.97
40.2054	530.21
40.2198	499.85
40.2343	498.06
40.2487	513.73
40.2632	512.22
40.2776	532.16
40.2920	513.79
40.3065	497.76
40.3209	479.62
40.3354	508.00
40.3498	538.06
40.3642	499.63
40.3787	494.13
40.3931	495.67
40.4076	504.63
40.4220	507.95
40.4364	496.02
40.4509	483.79
40.4653	497.86
40.4798	514.99
40.4942	504.34
40.5086	485.44
40.5231	505.37
40.5375	476.60
40.5520	530.97
40.5664	482.53
40.5808	515.73
40.5953	534.28
40.6097	501.34
40.6242	509.20
40.6386	525.10
40.6530	470.76
40.6675	498.54
40.6819	526.33
40.6964	505.54
40.7108	495.20
40.7252	490.99
40.7397	462.81
40.7541	517.45
40.7686	492.39
40.7830	490.91
40.7974	475.82
40.8119	491.78
40.8263	505.36
40.8408	492.51
40.8552	503.44
40.8696	518.94
40.8841	515.21
40.8985	525.52
40.9130	507.96
40.9274	475.83
40.9418	503.51
40.9563	482.64
40.9707	510.63
40.9852	547.16
40.9996	504.83
41.0140	527.60
41.0285	544.07
41.0429	515.46
41.0574	532.09
41.0718	522.78
41.0862	537.82
41.1007	538.88
41.1151	476.97
41.1296	520.15
41.1440	500.76
41.1584	499.15
41.1729	511.49
41.1873	482.74
41.2018	477.03
41.2162	516.56
41.2306	528.79
41.2451	500.22
41.2595	517.97
41.2740	530.57
41.2884	493.21
41.3028	501.92
41.3173	489.96
41.3317	519.05
41.3462	501.97
41.3606	498.20
41.3750	522.69
41.3895	508.20
41.4039	488.67
41.4184	500.44
41.4328	516.86
41.4472	473.72
41.4617	513.90
41.4761	502.32
41.4906	508.53
41.5050	491.40
41.5194	524.04
41.5339	493.78
41.5483	506.69
41.5628	507.19
41.5772	513.05
41.5916	540.73
41.6061	508.02
41.6205	484.08
41.6350	524.57
41.6494	502.15
41.6639	458.26
41.6783	438.75
41.6927	508.05
41.7072	542.41
41.7216	514.65
41.7361	463.85
41.7505	479.92
41.7649	509.21
41.7794	522.02
41.7938	523.61
41.8083	524.43
41.8227	520.77
41.8371	531.89
41.8516	508.30
41.8660	548.78
41.8805	577.19
41.8949	537.47
41.9093	573.02
41.9238	537.30
41.9382	570.65
41.9527	579.68
41.9671	622.20
41.9815	597.83
41.9960	550.23
42.0104	579.17
42.0249	560.32
42.0393	588.92
42.0537	573.92
42.0682	589.04
42.0826	573.97
42.0971	614.83
42.1115	596.90
42.1259	605.29
42.1404	579.00
42.1548	614.50
42.1693	645.61
42.1837	697.44
42.1981	752.90
42.2126	827.98
42.2270	898.95
42.2415	992.75
42.2559	1140.65
42.2703	1340.18
42.2848	1480.85
42.2992	1604.64
42.3137	1631.60
42.3281	1653.06
42.3425	1551.09
42.3570	1527.72
42.3714	1427.52
42.3859	1362.89
42.4003	1320.54
42.4147	1316.20
42.4292	1296.94
42.4436	1143.37
42.4581	1043.29
42.4725	943.86
42.4869	850.85
42.5014	766.11
42.5158	723.84
42.5303	676.95
42.5447	639.03
42.5591	632.32
42.5736	584.38
42.5880	553.26
42.6025	597.55
42.6169	502.92
42.6313	540.71
42.6458	539.29
42.6602	545.42
42.6747	539.55
42.6891	526.33
42.7035	552.07
42.7180	538.28
42.7324	528.56
42.7469	545.33
42.7613	528.58
42.7757	524.24
42.7902	534.11
42.8046	504.86
42.8191	520.25
42.8335	503.25
42.8479	508.18
42.8624	539.41
42.8768	534.36
42.8913	539.34
42.9057	529.57
42.9201	487.95
42.9346	499.84
42.9490	509.61
42.9635	492.08
42.9779	472.53
42.9923	468.77
43.0068	491.03
43.0212	489.30
43.0357	500.62
43.0501	503.76
43.0645	508.89
43.0790	502.50
43.0934	531.62
43.1079	528.85
43.1223	512.65
43.1367	522.05
43.1512	480.78
43.1656	519.82
43.1801	515.06
43.1945	504.90
43.2089	537.11
43.2234	532.04
43.2378	557.94
43.2523	513.77
43.2667	490.84
43.2811	504.61
43.2956	521.76
43.3100	535.81
43.3245	516.07
43.3389	521.69
43.3533	556.65
43.3678	489.85
43.3822	500.71
43.3967	515.59
43.4111	541.75
43.4255	560.42
43.4400	536.10
43.4544	499.82
43.4689	525.05
43.4833	489.68
43.4977	517.25
43.5122	499.74
43.5266	525.21
43.5411	502.58
43.5555	490.14
43.5699	509.23
43.5844	505.09
43.5988	501.13
43.6133	532.75
43.6277	502.33
43.6421	524.21
43.6566	542.78
43.6710	518.17
43.6855	523.20
43.6999	554.27
43.7143	547.27
43.7288	522.48
43.7432	587.81
43.7577	632.49
43.7721	573.27
43.7865	639.88
43.8010	655.06
43.8154	644.24
43.8299	672.07
43.8443	654.36
43.8587	685.00
43.8732	630.97
43.8876	596.09
43.9021	594.99
43.9165	598.88
43.9309	603.33
43.9454	617.12
43.9598	571.71
43.9743	573.63
43.9887	564.63
44.0031	554.39
44.0176	524.81
44.0320	522.02
44.0465	542.96
44.0609	572.55
44.0753	558.25
44.0898	560.13
44.1042	544.57
44.1187	525.16
44.1331	536.91
44.1475	502.20
44.1620	524.55
44.1764	514.14
44.1909	497.58
44.2053	554.20
44.2197	551.86
44.2342	525.12
44.2486	509.21
44.2631	502.17
44.2775	518.83
44.2919	528.90
44.3064	533.63
44.3208	515.30
44.3353	507.86
44.3497	535.49
44.3641	509.25
44.3786	549.11
44.3930	571.02
44.4075	536.78
44.4219	582.29
44.4363	558.83
44.4508	562.81
44.4652	603.78
44.4797	606.27
44.4941	602.42
44.5085	573.58
44.5230	571.79
44.5374	587.21
44.5519	579.73
44.5663	577.36
44.5807	580.84
44.5952	591.18
44.6096	591.36
44.6241	578.12
44.6385	612.52
44.6529	570.94
44.6674	590.47
44.6818	590.99
44.6963	609.27
44.7107	704.07
44.7251	705.47
44.7396	697.86
44.7540	801.89
44.7685	847.61
44.7829	871.22
44.7973	895.97
44.8118	854.65
44.8262	822.43
44.8407	803.66
44.8551	730.25
44.8695	743.99
44.8840	731.19
44.8984	727.25
44.9129	719.62
44.9273	707.97
44.9417	641.17
44.9562	603.36
44.9706	538.83
44.9851	546.41
44.9995	550.96
45.0139	580.14
45.0284	585.84
45.0428	515.42
45.0573	508.85
45.0717	532.48
45.0861	549.95
45.1006	542.74
45.1150	511.24
45.1295	546.92
45.1439	516.00
45.1583	538.29
45.1728	540.29
45.1872	532.10
45.2017	515.73
45.2161	528.42
45.2305	504.21
45.2450	528.31
45.2594	520.12
45.2739	489.55
45.2883	514.94
45.3028	510.96
45.3172	531.07
45.3316	520.21
45.3461	507.77
45.3605	495.73
45.3750	515.49
45.3894	514.19
45.4038	506.69
45.4183	502.27
45.4327	550.81
45.4472	505.85
45.4616	519.03
45.4760	533.89
45.4905	499.93
45.5049	497.13
45.5194	514.59
45.5338	515.71
45.5482	520.15
45.5627	478.89
45.5771	519.66
45.5916	508.30
45.6060	526.94
45.6204	488.34
45.6349	505.43
45.6493	543.32
45.6638	522.18
45.6782	495.68
45.6926	504.41
45.7071	527.08
45.7215	493.33
45.7360	517.11
45.7504	511.54
45.7648	492.64
45.7793	524.21
45.7937	485.48
45.8082	514.54
45.8226	546.00
45.8370	544.79
45.8515	520.27
45.8659	515.74
45.8804	493.31
45.8948	493.72
45.9092	531.29
45.9237	464.15
45.9381	481.88
45.9526	534.42
45.9670	533.09
45.9814	494.10
45.9959	486.80
46.0103	469.20
46.0248	503.95
46.0392	504.73
46.0536	548.54
46.0681	540.30
46.0825	495.92
46.0970	501.31
46.1114	519.53
46.1258	496.66
46.1403	483.98
46.1547	502.83
46.1692	507.66
46.1836	494.62
46.1980	487.11
46.2125	483.44
46.2269	502.66
46.2414	514.87
46.2558	513.48
46.2702	491.79
46.2847	495.33
46.2991	527.79
46.3136	519.07
46.3280	504.67
46.3424	501.88
46.3569	493.24
46.3713	523.12
46.3858	559.80
46.4002	517.44
46.4146	469.23
46.4291	483.79
46.4435	473.31
46.4580	535.38
46.4724	519.57
46.4868	514.27
46.5013	504.41
46.5157	454.72
46.5302	496.19
46.5446	512.55
46.5590	509.91
46.5735	509.62
46.5879	520.36
46.6024	513.04
46.6168	524.84
46.6312	503.29
46.6457	512.57
46.6601	535.30
46.6746	526.62
46.6890	505.48
46.7034	494.59
46.7179	521.35
46.7323	475.82
46.7468	466.21
46.7612	514.28
46.7756	503.45
46.7901	501.65
46.8045	520.31
46.8190	508.17
46.8334	527.86
46.8478	544.91
46.8623	526.02
46.8767	527.30
46.8912	548.41
46.9056	535.76
46.9200	481.89
46.9345	492.21
46.9489	514.38
46.9634	511.48
46.9778	498.68
46.9922	500.73
47.0067	493.16
47.0211	512.54
47.0356	508.71
47.0500	491.35
47.0644	537.18
47.0789	544.19
47.0933	547.20
47.1078	512.56
47.1222	501.67
47.1366	500.09
47.1511	490.00
47.1655	532.05
47.1800	526.88
47.1944	495.46
47.2088	531.53
47.2233	556.49
47.2377	527.49
47.2522	499.96
47.2666	506.72
47.2810	506.80
47.2955	459.87
47.3099	512.86
47.3244	513.79
47.3388	508.49
47.3532	476.94
47.3677	487.25
47.3821	514.05
47.3966	478.71
47.4110	493.80
47.4254	523.38
47.4399	491.72
47.4543	489.81
47.4688	515.47
47.4832	506.50
47.4976	487.90
47.5121	479.96
47.5265	477.81
47.5410	498.80
47.5554	539.04
47.5698	556.81
47.5843	506.36
47.5987	526.65
47.6132	516.04
47.6276	503.14
47.6420	504.50
47.6565	496.24
47.6709	491.59
47.6854	499.06
47.6998	524.39
47.7142	506.39
47.7287	510.43
47.7431	487.69
47.7576	491.64
47.7720	510.03
47.7864	547.79
47.8009	531.70
47.8153	544.14
47.8298	488.40
47.8442	486.40
47.8586	490.47
47.8731	500.32
47.8875	492.50
47.9020	547.09
47.9164	535.47
47.9308	532.49
47.9453	514.45
47.9597	495.43
47.9742	512.22
47.9886	507.03
48.0030	538.52
48.0175	511.84
48.0319	497.54
48.0464	487.33
48.0608	512.04
48.0752	487.42
48.0897	530.76
48.1041	520.32
48.1186	508.07
48.1330	490.54
48.1474	456.30
48.1619	496.21
48.1763	504.29
48.1908	517.90
48.2052	513.91
48.2196	474.15
48.2341	516.63
48.2485	522.45
48.2630	510.28
48.2774	514.28
48.2918	516.59
48.3063	559.39
48.3207	513.20
48.3352	553.67
48.3496	511.29
48.3640	522.22
48.3785	531.49
48.3929	531.55
48.4074	516.74
48.4218	503.23
48.4362	517.10
48.4507	511.41
48.4651	491.64
48.4796	513.44
48.4940	509.36
48.5084	472.66
48.5229	504.57
48.5373	539.34
48.5518	514.78
48.5662	512.92
48.5806	503.57
48.5951	507.21
48.6095	497.53
48.6240	522.27
48.6384	502.27
48.6528	492.35
48.6673	503.16
48.6817	535.30
48.6962	542.85
48.7106	562.42
48.7250	526.28
48.7395	523.97
48.7539	526.28
48.7684	500.15
48.7828	544.25
48.7972	563.18
48.8117	516.12
48.8261	551.53
48.8406	561.82
48.8550	522.67
48.8694	564.63
48.8839	579.97
48.8983	546.39
48.9128	555.32
48.9272	523.57
48.9416	555.67
48.9561	523.81
48.9705	540.62
48.9850	588.19
48.9994	583.24
49.0139	589.79
49.0283	577.18
49.0427	593.28
49.0572	629.40
49.0716	658.63
49.0861	682.60
49.1005	683.51
49.1149	720.47
49.1294	774.56
49.1438	743.54
49.1583	748.29
49.1727	838.12
49.1871	832.08
49.2016	887.68
49.2160	999.78
49.2305	1055.79
49.2449	1188.62
49.2593	1201.79
49.2738	1354.49
49.2882	1371.59
49.3027	1481.70
49.3171	1556.20
49.3315	1644.58
49.3460	1728.33
49.3604	1723.65
49.3749	1760.76
49.3893	1799.43
49.4037	1772.80
49.4182	1699.06
49.4326	1691.14
49.4471	1693.23
49.4615	1592.44
49.4759	1623.78
49.4904	1471.91
49.5048	1415.64
49.5193	1380.61
49.5337	1257.41
49.5481	1211.17
49.5626	1113.34
49.5770	1077.50
49.5915	987.63
49.6059	917.34
49.6203	906.44
49.6348	835.58
49.6492	784.29
49.6637	773.99
49.6781	739.94
49.6925	703.00
49.7070	682.17
49.7214	647.37
49.7359	657.53
49.7503	604.51
49.7647	614.20
49.7792	596.79
49.7936	577.52
49.8081	608.22
49.8225	592.80
49.8369	557.56
49.8514	558.47
49.8658	556.02
49.8803	559.98
49.8947	581.31
49.9091	545.23
49.9236	516.72
49.9380	545.78
49.9525	583.19
49.9669	541.23
49.9813	543.30
49.9958	553.73
50.0102	501.04
50.0247	484.06
50.0391	548.09
50.0535	553.80
50.0680	542.21
50.0824	534.49
50.0969	555.93
50.1113	530.67
50.1257	514.75
50.1402	510.86
50.1546	512.95
50.1691	516.19
50.1835	498.53
50.1979	497.41
50.2124	520.66
50.2268	511.67
50.2413	494.22
50.2557	524.73
50.2701	514.49
50.2846	505.69
50.2990	533.04
50.3135	527.53
50.3279	538.81
50.3423	527.22
50.3568	523.18
50.3712	516.68
50.3857	524.19
50.4001	508.05
50.4145	495.11
50.4290	525.04
50.4434	506.85
50.4579	515.86
50.4723	512.46
50.4867	535.38
50.5012	487.93
50.5156	538.35
50.5301	564.03
50.5445	500.12
50.5589	498.77
50.5734	493.20
50.5878	521.13
50.6023	523.14
50.6167	518.77
50.6311	522.10
50.6456	511.79
50.6600	500.31
50.6745	504.77
50.6889	494.48
50.7033	535.38
50.7178	545.37
50.7322	528.10
50.7467	530.34
50.7611	508.05
50.7755	513.36
50.7900	518.35
50.8044	506.92
50.8189	492.43
50.8333	504.28
50.8477	487.70
50.8622	526.48
50.8766	512.53
50.8911	488.76
50.9055	481.24
50.9199	484.99
50.9344	496.83
50.9488	527.82
50.9633	526.90
50.9777	466.75
50.9921	501.09
51.0066	527.05
51.0210	516.73
51.0355	519.62
51.0499	503.35
51.0643	498.09
51.0788	539.17
51.0932	567.16
51.1077	537.64
51.1221	510.34
51.1365	521.55
51.1510	511.30
51.1654	519.69
51.1799	482.49
51.1943	484.80
51.2087	494.35
51.2232	509.26
51.2376	499.50
51.2521	511.12
51.2665	516.29
51.2809	511.18
51.2954	490.92
51.3098	505.30
51.3243	507.83
51.3387	553.83
51.3531	527.00
51.3676	495.88
51.3820	494.77
51.3965	489.32
51.4109	504.33
51.4253	513.40
51.4398	483.99
51.4542	522.99
51.4687	524.87
51.4831	537.02
51.4975	487.68
51.5120	464.71
51.5264	488.07
51.5409	514.80
51.5553	515.81
51.5697	513.87
51.5842	520.48
51.5986	514.75
51.6131	486.60
51.6275	492.70
51.6419	498.68
51.6564	491.43
51.6708	512.25
51.6853	515.33
51.6997	516.79
51.7141	503.09
51.7286	500.78
51.7430	496.68
51.7575	504.75
51.7719	500.60
51.7863	511.49
51.8008	481.85
51.8152	509.47
51.8297	502.40
51.8441	507.16
51.8585	518.02
51.8730	493.14
51.8874	512.62
51.9019	462.74
51.9163	481.37
51.9307	480.57
51.9452	524.33
51.9596	530.12
51.9741	530.15
51.9885	552.79
52.0029	486.21
52.0174	482.81
52.0318	521.72
52.0463	476.53
52.0607	507.53
52.0751	525.53
52.0896	519.94
52.1040	488.32
52.1185	523.72
52.1329	532.48
52.1473	516.90
52.1618	526.39
52.1762	539.55
52.1907	519.83
52.2051	491.46
52.2195	513.21
52.2340	502.17
52.2484	532.22
52.2629	525.47
52.2773	533.50
52.2917	469.15
52.3062	521.80
52.3206	537.58
52.3351	548.29
52.3495	546.50
52.3639	524.35
52.3784	540.29
52.3928	506.78
52.4073	518.23
52.4217	518.39
52.4361	519.15
52.4506	512.65
52.4650	518.07
52.4795	527.91
52.4939	530.85
52.5083	532.06
52.5228	515.19
52.5372	541.87
52.5517	539.61
52.5661	536.96
52.5805	522.87
52.5950	547.74
52.6094	574.67
52.6239	505.78
52.6383	532.96
52.6527	496.07
52.6672	508.27
52.6816	523.17
52.6961	501.98
52.7105	511.66
52.7250	544.58
52.7394	506.35
52.7538	531.36
52.7683	487.11
52.7827	517.72
52.7972	529.66
52.8116	500.42
52.8260	503.04
52.8405	483.20
52.8549	523.21
52.8694	554.37
52.8838	518.38
52.8982	514.65
52.9127	511.57
52.9271	543.94
52.9416	552.77
52.9560	523.73
52.9704	523.16
52.9849	561.76
52.9993	563.01
53.0138	561.02
53.0282	533.75
53.0426	507.62
53.0571	511.60
53.0715	534.29
53.0860	543.51
53.1004	486.26
53.1148	537.06
53.1293	528.68
53.1437	503.64
53.1582	528.25
53.1726	489.43
53.1870	502.38
53.2015	493.81
53.2159	492.08
53.2304	542.44
53.2448	526.89
53.2592	489.49
53.2737	552.00
53.2881	525.21
53.3026	509.79
53.3170	512.56
53.3314	557.17
53.3459	534.16
53.3603	506.13
53.3748	501.34
53.3892	507.40
53.4036	530.37
53.4181	515.11
53.4325	542.40
53.4470	521.68
53.4614	476.95
53.4758	526.03
53.4903	500.68
53.5047	505.04
53.5192	508.01
53.5336	575.39
53.5480	539.44
53.5625	551.62
53.5769	527.37
53.5914	561.67
53.6058	528.01
53.6202	521.74
53.6347	498.65
53.6491	532.77
53.6636	509.63
53.6780	503.93
53.6924	522.35
53.7069	484.55
53.7213	494.41
53.7358	484.31
53.7502	505.05
53.7646	535.74
53.7791	512.85
53.7935	518.31
53.8080	505.13
53.8224	521.57
53.8368	514.09
53.8513	504.13
53.8657	495.89
53.8802	478.25
53.8946	533.06
53.9090	549.86
53.9235	504.17
53.9379	509.11
53.9524	533.90
53.9668	510.42
53.9812	533.56
53.9957	543.79
54.0101	520.67
54.0246	537.42
54.0390	524.89
54.0534	501.89
54.0679	510.10
54.0823	524.31
54.0968	535.53
54.1112	545.97
54.1256	526.67
54.1401	512.10
54.1545	524.23
54.1690	556.64
54.1834	541.17
54.1978	555.02
54.2123	563.71
54.2267	538.93
54.2412	536.06
54.2556	551.01
54.2700	561.13
54.2845	592.54
54.2989	530.91
54.3134	580.15
54.3278	606.97
54.3422	600.79
54.3567	612.20
54.3711	642.25
54.3856	616.79
54.4000	628.59
54.4144	601.12
54.4289	609.78
54.4433	568.42
54.4578	600.54
54.4722	623.07
54.4866	570.36
54.5011	553.07
54.5155	547.87
54.5300	545.21
54.5444	577.62
54.5588	563.77
54.5733	589.11
54.5877	578.73
54.6022	548.99
54.6166	522.80
54.6310	535.70
54.6455	529.34
54.6599	534.25
54.6744	531.91
54.6888	525.89
54.7032	518.13
54.7177	567.89
54.7321	535.52
54.7466	536.86
54.7610	541.20
54.7754	541.51
54.7899	522.44
54.8043	532.82
54.8188	525.20
54.8332	537.50
54.8476	518.95
54.8621	533.17
54.8765	519.22
54.8910	508.23
54.9054	508.40
54.9198	528.92
54.9343	495.83
54.9487	494.36
54.9632	532.94
54.9776	543.38
54.9920	523.97
55.0065	497.67
55.0209	538.01
55.0354	510.85
55.0498	511.42
55.0642	491.68
55.0787	504.49
55.0931	518.55
55.1076	495.12
55.1220	503.65
55.1364	493.81
55.1509	489.33
55.1653	533.49
55.1798	534.42
55.1942	517.46
55.2086	524.97
55.2231	516.83
55.2375	537.51
55.2520	512.94
55.2664	518.81
55.2808	554.63
55.2953	494.11
55.3097	494.91
55.3242	509.24
55.3386	524.89
55.3530	501.63
55.3675	510.09
55.3819	520.77
55.3964	505.74
55.4108	503.02
55.4252	523.35
55.4397	528.82
55.4541	507.37
55.4686	534.39
55.4830	501.24
55.4974	490.03
55.5119	521.64
55.5263	534.48
55.5408	546.40
55.5552	529.40
55.5696	542.66
55.5841	533.84
55.5985	527.76
55.6130	532.04
55.6274	526.56
55.6418	499.44
55.6563	518.31
55.6707	516.35
55.6852	535.58
55.6996	544.12
55.7140	553.36
55.7285	527.80
55.7429	532.62
55.7574	548.83
55.7718	557.18
55.7862	530.50
55.8007	516.64
55.8151	516.58
55.8296	538.12
55.8440	542.24
55.8584	549.46
55.8729	505.59
55.8873	525.98
55.9018	515.05
55.9162	512.12
55.9306	506.46
55.9451	530.33
55.9595	493.90
55.9740	494.99
55.9884	496.59
56.0028	513.85
56.0173	523.29
56.0317	554.08
56.0462	556.89
56.0606	526.38
56.0750	502.88
56.0895	540.52
56.1039	549.81
56.1184	544.96
56.1328	551.31
56.1472	510.86
56.1617	507.11
56.1761	548.97
56.1906	502.70
56.2050	486.59
56.2194	519.84
56.2339	508.47
56.2483	514.29
56.2628	528.62
56.2772	537.62
56.2916	488.85
56.3061	539.36
56.3205	508.78
56.3350	537.39
56.3494	546.43
56.3639	512.82
56.3783	494.22
56.3927	497.90
56.4072	498.62
56.4216	519.84
56.4361	539.26
56.4505	527.87
56.4649	480.98
56.4794	536.15
56.4938	527.41
56.5083	508.09
56.5227	508.94
56.5371	500.59
56.5516	532.56
56.5660	488.59
56.5805	533.74
56.5949	533.11
56.6093	522.04
56.6238	511.01
56.6382	546.27
56.6527	502.44
56.6671	503.45
56.6815	558.83
56.6960	528.18
56.7104	533.78
56.7249	493.31
56.7393	522.23
56.7537	532.11
56.7682	479.11
56.7826	530.79
56.7971	532.82
56.8115	487.25
56.8259	524.02
56.8404	552.89
56.8548	509.19
56.8693	492.05
56.8837	510.22
56.8981	545.44
56.9126	512.15
56.9270	544.25
56.9415	531.51
56.9559	509.39
56.9703	505.65
56.9848	523.13
56.9992	526.64
57.0137	551.98
57.0281	541.23
57.0425	551.91
57.0570	498.14
57.0714	560.53
57.0859	540.14
57.1003	517.28
57.1147	553.48
57.1292	544.84
57.1436	466.41
57.1581	514.85
57.1725	526.12
57.1869	511.73
57.2014	515.19
57.2158	550.24
57.2303	533.55
57.2447	547.16
57.2591	513.22
57.2736	529.47
57.2880	575.03
57.3025	516.50
57.3169	513.58
57.3313	535.46
57.3458	530.01
57.3602	537.23
57.3747	503.75
57.3891	509.58
57.4035	501.28
57.4180	525.44
57.4324	500.99
57.4469	493.10
57.4613	543.95
57.4757	524.12
57.4902	534.08
57.5046	537.35
57.5191	528.43
57.5335	535.98
57.5479	537.68
57.5624	538.07
57.5768	539.19
57.5913	506.58
57.6057	522.28
57.6201	553.47
57.6346	541.09
57.6490	516.76
57.6635	525.44
57.6779	538.96
57.6923	516.81
57.7068	569.50
57.7212	580.07
57.7357	514.67
57.7501	554.89
57.7645	525.53
57.7790	557.82
57.7934	546.27
57.8079	552.16
57.8223	546.20
57.8367	566.75
57.8512	585.31
57.8656	602.97
57.8801	626.59
57.8945	631.68
57.9089	670.21
57.9234	634.08
57.9378	660.33
57.9523	683.76
57.9667	726.19
57.9811	700.55
57.9956	709.25
58.0100	723.78
58.0245	688.16
58.0389	705.04
58.0533	677.37
58.0678	632.59
58.0822	654.92
58.0967	724.03
58.1111	707.61
58.1255	693.53
58.1400	664.10
58.1544	645.48
58.1689	636.89
58.1833	604.15
58.1977	575.08
58.2122	601.08
58.2266	619.30
58.2411	585.07
58.2555	537.01
58.2699	574.86
58.2844	579.20
58.2988	541.89
58.3133	527.37
58.3277	520.51
58.3421	592.75
58.3566	569.98
58.3710	533.85
58.3855	537.93
58.3999	544.82
58.4143	532.04
58.4288	558.21
58.4432	530.48
58.4577	538.19
58.4721	582.23
58.4865	568.05
58.5010	534.30
58.5154	507.33
58.5299	504.07
58.5443	493.58
58.5587	537.82
58.5732	519.95
58.5876	542.99
58.6021	549.92
58.6165	510.99
58.6309	524.57
58.6454	534.86
58.6598	512.09
58.6743	510.56
58.6887	518.92
58.7031	518.81
58.7176	535.01
58.7320	533.01
58.7465	552.16
58.7609	540.80
58.7753	518.27
58.7898	524.57
58.8042	530.92
58.8187	527.34
58.8331	564.37
58.8475	543.35
58.8620	539.73
58.8764	514.22
58.8909	502.01
58.9053	517.85
58.9197	491.66
58.9342	525.54
58.9486	545.04
58.9631	507.20
58.9775	489.57
58.9919	506.72
59.0064	518.97
59.0208	589.29
59.0353	580.02
59.0497	537.46
59.0641	556.35
59.0786	529.90
59.0930	524.50
59.1075	529.47
59.1219	516.71
59.1363	542.17
59.1508	550.29
59.1652	561.29
59.1797	550.33
59.1941	512.44
59.2085	535.66
59.2230	540.63
59.2374	549.02
59.2519	550.13
59.2663	531.67
59.2807	575.31
59.2952	564.27
59.3096	567.01
59.3241	550.34
59.3385	541.78
59.3529	551.92
59.3674	568.77
59.3818	565.19
59.3963	537.58
59.4107	542.23
59.4251	604.09
59.4396	580.02
59.4540	581.89
59.4685	576.68
59.4829	578.94
59.4973	572.56
59.5118	550.97
59.5262	537.68
59.5407	537.46
59.5551	577.46
59.5695	548.23
59.5840	544.31
59.5984	565.65
59.6129	554.87
59.6273	553.22
59.6417	542.98
59.6562	528.69
59.6706	520.56
59.6851	517.97
59.6995	569.48
59.7139	531.85
59.7284	523.83
59.7428	529.44
59.7573	528.35
59.7717	523.54
59.7861	499.74
59.8006	544.45
59.8150	544.12
59.8295	521.65
59.8439	528.55
59.8583	547.02
59.8728	527.91
59.8872	523.97
59.9017	558.76
59.9161	588.54
59.9305	546.48
59.9450	535.79
59.9594	521.05
59.9739	521.45
59.9883	536.35
60.0027	552.57
60.0172	555.87
60.0316	584.65
60.0461	541.72
60.0605	550.53
60.0750	514.98
60.0894	562.24
60.1038	563.98
60.1183	542.32
60.1327	548.81
60.1472	525.25
60.1616	549.83
60.1760	539.94
60.1905	531.39
60.2049	519.62
60.2194	547.51
60.2338	539.55
60.2482	556.52
60.2627	531.50
60.2771	550.84
60.2916	540.01
60.3060	535.39
60.3204	561.30
60.3349	581.10
60.3493	499.45
60.3638	524.05
60.3782	543.57
60.3926	551.50
60.4071	494.65
60.4215	545.64
60.4360	559.95
60.4504	518.06
60.4648	524.99
60.4793	517.71
60.4937	489.92
60.5082	477.41
60.5226	548.18
60.5370	542.27
60.5515	554.76
60.5659	532.33
60.5804	526.50
60.5948	531.21
60.6092	538.80
60.6237	507.39
60.6381	555.98
60.6526	523.63
60.6670	512.66
60.6814	534.10
60.6959	538.59
60.7103	538.61
60.7248	537.44
60.7392	552.29
60.7536	528.64
60.7681	513.75
60.7825	551.83
60.7970	518.16
60.8114	594.36
60.8258	547.38
60.8403	556.38
60.8547	583.10
60.8692	539.58
60.8836	517.54
60.8980	536.83
60.9125	540.01
60.9269	538.89
60.9414	552.76
60.9558	522.60
60.9702	517.62
60.9847	539.12
60.9991	547.59
61.0136	528.55
61.0280	540.43
61.0424	524.71
61.0569	544.00
61.0713	565.42
61.0858	543.70
61.1002	518.04
61.1146	528.70
61.1291	559.48
61.1435	538.07
61.1580	533.36
61.1724	516.30
61.1868	540.71
61.2013	511.00
61.2157	530.16
61.2302	535.22
61.2446	508.84
61.2590	529.29
61.2735	518.51
61.2879	541.74
61.3024	524.31
61.3168	532.91
61.3312	535.74
61.3457	541.19
61.3601	552.21
61.3746	548.48
61.3890	559.71
61.4034	562.60
61.4179	552.51
61.4323	544.12
61.4468	527.13
61.4612	532.24
61.4756	564.85
61.4901	537.15
61.5045	540.43
61.5190	532.81
61.5334	561.50
61.5478	541.05
61.5623	540.14
61.5767	539.98
61.5912	541.97
61.6056	548.65
61.6200	522.19
61.6345	546.63
61.6489	553.74
61.6634	551.53
61.6778	529.63
61.6922	511.56
61.7067	560.76
61.7211	546.71
61.7356	547.84
61.7500	549.89
61.7644	544.90
61.7789	579.42
61.7933	529.03
61.8078	526.82
61.8222	539.97
61.8366	598.19
61.8511	548.20
61.8655	550.19
61.8800	534.63
61.8944	560.42
61.9088	546.44
61.9233	531.39
61.9377	529.90
61.9522	536.48
61.9666	532.33
61.9810	557.33
61.9955	554.16
62.0099	532.85
62.0244	609.45
62.0388	566.31
62.0532	555.20
62.0677	586.80
62.0821	579.07
62.0966	565.02
62.1110	529.74
62.1254	527.25
62.1399	549.56
62.1543	544.11
62.1688	561.81
62.1832	562.00
62.1976	573.26
62.2121	572.32
62.2265	503.87
62.2410	548.50
62.2554	522.93
62.2698	526.26
62.2843	513.72
62.2987	539.35
62.3132	552.82
62.3276	562.90
62.3420	563.18
62.3565	528.87
62.3709	561.57
62.3854	538.64
62.3998	485.44
62.4142	522.61
62.4287	577.45
62.4431	535.55
62.4576	527.71
62.4720	580.17
62.4864	540.33
62.5009	553.25
62.5153	537.17
62.5298	592.78
62.5442	568.87
62.5586	586.59
62.5731	593.47
62.5875	591.99
62.6020	571.56
62.6164	563.27
62.6308	540.96
62.6453	543.98
62.6597	552.76
62.6742	566.98
62.6886	556.57
62.7030	584.93
62.7175	552.14
62.7319	550.02
62.7464	541.77
62.7608	540.05
62.7752	529.75
62.7897	581.52
62.8041	625.98
62.8186	582.19
62.8330	530.84
62.8474	546.11
62.8619	581.73
62.8763	548.92
62.8908	545.08
62.9052	562.21
62.9196	594.64
62.9341	568.54
62.9485	577.44
62.9630	591.85
62.9774	600.11
62.9918	536.88
63.0063	542.93
63.0207	522.24
63.0352	555.69
63.0496	564.44
63.0640	611.67
63.0785	555.82
63.0929	570.30
63.1074	580.34
63.1218	573.59
63.1362	595.79
63.1507	550.31
63.1651	599.28
63.1796	546.63
63.1940	571.89
63.2084	571.65
63.2229	575.19
63.2373	578.39
63.2518	586.01
63.2662	573.61
63.2806	583.16
63.2951	556.96
63.3095	567.84
63.3240	581.52
63.3384	597.74
63.3528	616.83
63.3673	600.48
63.3817	609.15
63.3962	596.58
63.4106	578.07
63.4250	633.56
63.4395	603.11
63.4539	603.51
63.4684	634.48
63.4828	649.03
63.4972	606.52
63.5117	615.92
63.5261	629.84
63.5406	672.16
63.5550	685.72
63.5694	689.54
63.5839	704.96
63.5983	712.59
63.6128	802.04
63.6272	859.93
63.6416	926.17
63.6561	960.99
63.6705	927.31
63.6850	903.06
63.6994	885.59
63.7138	919.80
63.7283	827.97
63.7427	801.03
63.7572	771.61
63.7716	791.37
63.7861	789.31
63.8005	778.35
63.8149	798.23
63.8294	772.65
63.8438	777.52
63.8583	798.78
63.8727	793.44
63.8871	780.57
63.9016	800.00
63.9160	740.36
63.9305	715.03
63.9449	670.94
63.9593	634.23
63.9738	646.27
63.9882	650.44
64.0027	682.16
64.0171	619.70
64.0315	616.70
64.0460	675.68
64.0604	616.76
64.0749	601.56
64.0893	625.84
64.1037	616.91
64.1182	649.29
64.1326	634.65
64.1471	570.66
64.1615	639.64
64.1759	619.01
64.1904	604.66
64.2048	603.79
64.2193	641.93
64.2337	630.08
64.2481	624.49
64.2626	599.83
64.2770	615.54
64.2915	592.35
64.3059	603.02
64.3203	617.52
64.3348	628.12
64.3492	595.48
64.3637	589.55
64.3781	583.96
64.3925	613.09
64.4070	562.79
64.4214	609.70
64.4359	642.72
64.4503	614.01
64.4647	599.48
64.4792	652.91
64.4936	611.25
64.5081	626.61
64.5225	622.28
64.5369	639.75
64.5514	628.15
64.5658	624.61
64.5803	689.45
64.5947	647.15
64.6091	650.12
64.6236	644.42
64.6380	639.12
64.6525	604.57
64.6669	647.60
64.6813	672.36
64.6958	682.36
64.7102	726.03
64.7247	704.96
64.7391	662.25
64.7535	686.88
64.7680	703.81
64.7824	709.81
64.7969	725.81
64.8113	755.26
64.8257	778.39
64.8402	780.53
64.8546	792.50
64.8691	816.84
64.8835	825.43
64.8979	847.03
64.9124	802.17
64.9268	857.32
64.9413	941.69
64.9557	936.97
64.9701	982.03
64.9846	1012.19
64.9990	1081.95
65.0135	1292.03
65.0279	1445.22
65.0423	1686.30
65.0568	2105.24
65.0712	2499.04
65.0857	3425.49
65.1001	4480.17
65.1145	6035.27
65.1290	7917.83
65.1434	9619.60
65.1579	11097.33
65.1723	11942.69
65.1867	11503.45
65.2012	10204.75
65.2156	8542.38
65.2301	6693.77
65.2445	5377.53
65.2589	4522.83
65.2734	4232.27
65.2878	4476.67
65.3023	5012.50
65.3167	5716.01
65.3311	6553.14
65.3456	7153.55
65.3600	7128.37
65.3745	6586.99
65.3889	5693.57
65.4033	4480.26
65.4178	3559.08
65.4322	2826.43
65.4467	2142.74
65.4611	1793.45
65.4755	1506.84
65.4900	1295.41
65.5044	1151.25
65.5189	1061.65
65.5333	1007.21
65.5477	918.06
65.5622	865.31
65.5766	887.84
65.5911	836.53
65.6055	837.41
65.6199	765.08
65.6344	754.55
65.6488	759.19
65.6633	803.22
65.6777	771.36
65.6921	692.20
65.7066	731.72
65.7210	724.01
65.7355	691.02
65.7499	668.63
65.7643	653.52
65.7788	659.75
65.7932	670.68
65.8077	693.59
65.8221	660.94
65.8365	676.35
65.8510	700.59
65.8654	679.31
65.8799	650.68
65.8943	689.83
65.9087	684.00
65.9232	625.97
65.9376	648.68
65.9521	630.39
65.9665	623.12
65.9809	609.22
65.9954	617.32
66.0098	635.91
66.0243	631.97
66.0387	626.52
66.0531	618.26
66.0676	636.42
66.0820	654.27
66.0965	630.20
66.1109	605.04
66.1253	634.04
66.1398	595.01
66.1542	598.21
66.1687	619.31
66.1831	597.79
66.1975	575.45
66.2120	568.19
66.2264	614.36
66.2409	626.01
66.2553	606.88
66.2697	591.10
66.2842	569.38
66.2986	597.34
66.3131	610.54
66.3275	629.17
66.3419	630.61
66.3564	614.29
66.3708	596.03
66.3853	587.83
66.3997	595.50
66.4141	590.74
66.4286	600.50
66.4430	591.85
66.4575	612.55
66.4719	642.28
66.4863	612.85
66.5008	598.53
66.5152	566.84
66.5297	611.00
66.5441	594.13
66.5585	615.45
66.5730	600.68
66.5874	619.60
66.6019	601.18
66.6163	585.74
66.6307	595.64
66.6452	579.86
66.6596	572.28
66.6741	598.27
66.6885	561.73
66.7029	601.29
66.7174	574.55
66.7318	556.01
66.7463	623.97
66.7607	596.80
66.7751	591.18
66.7896	599.73
66.8040	585.61
66.8185	595.07
66.8329	597.47
66.8473	583.79
66.8618	620.86
66.8762	571.94
66.8907	567.79
66.9051	633.77
66.9195	612.11
66.9340	583.94
66.9484	595.38
66.9629	599.79
66.9773	590.78
66.9917	584.92
67.0062	574.99
67.0206	591.06
67.0351	597.84
67.0495	563.26
67.0639	594.15
67.0784	595.27
67.0928	547.91
67.1073	562.40
67.1217	601.95
67.1361	586.60
67.1506	578.44
67.1650	579.32
67.1795	597.34
67.1939	582.97
67.2083	571.48
67.2228	578.99
67.2372	571.23
67.2517	573.37
67.2661	566.67
67.2805	613.78
67.2950	586.65
67.3094	599.25
67.3239	595.20
67.3383	562.48
67.3527	579.37
67.3672	570.30
67.3816	545.84
67.3961	585.01
67.4105	585.58
67.4250	587.10
67.4394	602.38
67.4538	593.74
67.4683	597.69
67.4827	578.19
67.4972	564.52
67.5116	567.03
67.5260	601.34
67.5405	566.25
67.5549	568.50
67.5694	562.57
67.5838	549.60
67.5982	553.04
67.6127	547.77
67.6271	587.73
67.6416	573.00
67.6560	578.96
67.6704	585.87
67.6849	560.88
67.6993	566.46
67.7138	558.83
67.7282	579.00
67.7426	551.85
67.7571	573.03
67.7715	567.30
67.7860	605.86
67.8004	544.86
67.8148	568.79
67.8293	577.01
67.8437	589.08
67.8582	558.84
67.8726	574.67
67.8870	544.00
67.9015	579.62
67.9159	590.42
67.9304	574.48
67.9448	584.15
67.9592	566.96
67.9737	622.37
67.9881	603.72
68.0026	560.56
68.0170	588.88
68.0314	558.62
68.0459	543.13
68.0603	569.47
68.0748	557.50
68.0892	560.54
68.1036	585.05
68.1181	549.29
68.1325	578.56
68.1470	546.19
68.1614	588.06
68.1758	570.62
68.1903	589.10
68.2047	561.04
68.2192	562.19
68.2336	570.32
68.2480	561.58
68.2625	572.19
68.2769	583.86
68.2914	577.53
68.3058	548.02
68.3202	548.14
68.3347	611.59
68.3491	613.97
68.3636	630.63
68.3780	553.05
68.3924	558.41
68.4069	585.02
68.4213	583.89
68.4358	583.29
68.4502	577.14
68.4646	581.11
68.4791	568.91
68.4935	565.51
68.5080	577.97
68.5224	586.13
68.5368	587.73
68.5513	546.91
68.5657	550.32
68.5802	602.43
68.5946	572.93
68.6090	542.95
68.6235	551.55
68.6379	578.16
68.6524	556.51
68.6668	578.69
68.6812	544.20
68.6957	558.96
68.7101	554.21
68.7246	586.42
68.7390	574.87
68.7534	596.10
68.7679	605.22
68.7823	574.41
68.7968	569.78
68.8112	553.18
68.8256	566.28
68.8401	572.59
68.8545	575.12
68.8690	572.38
68.8834	512.55
68.8978	540.00
68.9123	572.49
68.9267	554.01
68.9412	581.28
68.9556	562.13
68.9700	516.08
68.9845	599.88
68.9989	598.06
69.0134	632.89
69.0278	597.06
69.0422	571.66
69.0567	565.15
69.0711	632.26
69.0856	585.28
69.1000	584.50
69.1144	589.70
69.1289	607.77
69.1433	590.43
69.1578	578.43
69.1722	587.33
69.1866	627.95
69.2011	600.92
69.2155	568.15
69.2300	575.74
69.2444	549.70
69.2588	562.28
69.2733	572.88
69.2877	589.39
69.3022	552.39
69.3166	553.43
69.3310	577.42
69.3455	567.08
69.3599	534.24
69.3744	529.99
69.3888	577.77
69.4032	550.97
69.4177	560.10
69.4321	580.55
69.4466	525.41
69.4610	509.23
69.4754	592.19
69.4899	579.01
69.5043	542.06
69.5188	560.53
69.5332	562.95
69.5476	565.46
69.5621	551.21
69.5765	533.23
69.5910	540.14
69.6054	603.75
69.6198	605.76
69.6343	556.50
69.6487	566.45
69.6632	564.63
69.6776	551.57
69.6920	548.89
69.7065	576.23
69.7209	572.20
69.7354	577.50
69.7498	533.27
69.7642	605.76
69.7787	607.00
69.7931	596.60
69.8076	562.85
69.8220	540.75
69.8364	605.85
69.8509	540.93
69.8653	559.76
69.8798	592.89
69.8942	627.99
69.9086	596.31
69.9231	579.47
69.9375	611.57
69.9520	564.72
69.9664	560.06
69.9808	564.35
69.9953	596.58
70.0097	514.09
70.0242	569.38
70.0386	557.11
70.0530	548.59
70.0675	572.09
70.0819	552.16
70.0964	536.05
70.1108	531.50
70.1252	601.40
70.1397	595.30
70.1541	588.75
70.1686	554.59
70.1830	585.50
70.1974	562.39
70.2119	593.79
70.2263	593.53
70.2408	599.77
70.2552	573.84
70.2696	539.63
70.2841	623.93
70.2985	531.84
70.3130	533.03
70.3274	587.49
70.3418	581.03
70.3563	616.92
70.3707	629.46
70.3852	590.94
70.3996	572.69
70.4140	596.21
70.4285	630.78
70.4429	564.30
70.4574	553.93
70.4718	585.86
70.4862	555.90
70.5007	563.36
70.5151	566.84
70.5296	553.41
70.5440	587.45
70.5584	554.25
70.5729	572.30
70.5873	558.94
70.6018	596.72
70.6162	567.94
70.6306	552.66
70.6451	554.07
70.6595	540.37
70.6740	525.56
70.6884	554.50
70.7028	543.69
70.7173	575.94
70.7317	599.69
70.7462	572.53
70.7606	550.53
70.7750	546.07
70.7895	557.80
70.8039	584.52
70.8184	585.73
70.8328	614.16
70.8472	566.63
70.8617	588.42
70.8761	583.01
70.8906	616.39
70.9050	573.30
70.9194	590.76
70.9339	591.00
70.9483	587.96
70.9628	593.11
70.9772	577.57
70.9916	599.54
71.0061	564.71
71.0205	535.93
71.0350	582.83
71.0494	543.38
71.0638	509.42
71.0783	553.32
71.0927	632.88
71.1072	649.97
71.1216	598.38
71.1361	568.00
71.1505	623.39
71.1649	618.62
71.1794	653.17
71.1938	644.13
71.2083	631.76
71.2227	593.12
71.2371	613.04
71.2516	635.50
71.2660	611.17
71.2805	563.69
71.2949	543.13
71.3093	577.84
71.3238	554.39
71.3382	572.58
71.3527	543.28
71.3671	534.31
71.3815	558.04
71.3960	600.95
71.4104	590.21
71.4249	606.38
71.4393	608.31
71.4537	606.21
71.4682	591.21
71.4826	628.18
71.4971	617.07
71.5115	568.29
71.5259	536.39
71.5404	568.68
71.5548	558.18
71.5693	580.62
71.5837	595.37
71.5981	605.34
71.6126	592.98
71.6270	603.19
71.6415	612.17
71.6559	604.84
71.6703	613.00
71.6848	589.95
71.6992	558.08
71.7137	502.76
71.7281	583.76
71.7425	577.67
71.7570	547.17
71.7714	619.98
71.7859	601.90
71.8003	564.96
71.8147	585.85
71.8292	593.22
71.8436	546.57
71.8581	550.27
71.8725	562.93
71.8869	568.01
71.9014	649.85
71.9158	627.34
71.9303	635.53
71.9447	706.77
71.9591	641.73
71.9736	544.84
71.9880	568.48
72.0025	524.95
72.0169	552.83
72.0313	574.49
72.0458	501.08
72.0602	532.26
72.0747	627.76
72.0891	691.39
72.1035	606.74
72.1180	616.98
72.1324	648.93
72.1469	587.51
72.1613	597.74
72.1757	623.51
72.1902	600.40
72.2046	563.59
72.2191	577.97
72.2335	593.31
72.2479	579.43
72.2624	576.50
72.2768	619.95
72.2913	638.56
72.3057	602.85
72.3201	633.33
72.3346	626.82
72.3490	555.14
72.3635	560.84
72.3779	548.50
72.3923	505.64
72.4068	546.34
72.4212	553.40
72.4357	563.59
72.4501	589.44
72.4645	631.55
72.4790	624.27
72.4934	589.78
72.5079	536.54
72.5223	516.93
72.5367	504.01
72.5512	526.17
72.5656	623.75
72.5801	556.76
72.5945	558.92
72.6089	561.43
72.6234	535.39
72.6378	526.37
72.6523	584.09
72.6667	603.29
72.6811	642.68
72.6956	622.36
72.7100	602.24
72.7245	527.47
72.7389	525.14
72.7533	572.57
72.7678	568.46
72.7822	582.99
72.7967	538.92
72.8111	557.80
72.8255	642.83
72.8400	623.22
72.8544	597.87
72.8689	564.41
72.8833	547.64