2022.09.19 19:37:17
Îáðàçåö: ß÷åéêà LCoV 16-09-2022
Lambda1 = 1.54060
Lambda2 = 1.54439
Lambdam = 1.54186
R = 0.497
2Theta	I

line¹ 0 ;repeat¹ 0
22.1120	511.34
22.1264	452.16
22.1409	591.41
22.1553	650.76
22.1697	533.37
22.1842	491.85
22.1986	522.23
22.2131	419.05
22.2275	479.26
22.2419	571.27
22.2564	580.06
22.2708	550.95
22.2853	551.29
22.2997	525.27
22.3141	561.71
22.3286	583.86
22.3430	518.32
22.3575	539.57
22.3719	664.78
22.3863	608.41
22.4008	548.62
22.4152	564.79
22.4297	657.13
22.4441	604.23
22.4585	610.37
22.4730	580.84
22.4874	573.19
22.5019	544.45
22.5163	535.55
22.5307	560.19
22.5452	542.45
22.5596	562.07
22.5741	565.44
22.5885	604.80
22.6029	619.26
22.6174	544.80
22.6318	625.63
22.6463	603.70
22.6607	515.10
22.6751	549.59
22.6896	542.14
22.7040	490.42
22.7185	618.55
22.7329	632.20
22.7473	572.86
22.7618	512.18
22.7762	553.72
22.7907	566.25
22.8051	539.12
22.8195	546.56
22.8340	570.62
22.8484	565.35
22.8629	631.09
22.8773	582.10
22.8917	517.64
22.9062	556.40
22.9206	523.32
22.9351	539.16
22.9495	543.38
22.9639	583.52
22.9784	616.96
22.9928	579.56
23.0073	552.23
23.0217	557.18
23.0361	608.77
23.0506	563.17
23.0650	565.00
23.0795	488.91
23.0939	591.78
23.1083	583.58
23.1228	566.41
23.1372	580.21
23.1517	555.50
23.1661	564.53
23.1806	578.24
23.1950	544.18
23.2094	543.79
23.2239	609.48
23.2383	548.29
23.2528	593.44
23.2672	560.39
23.2816	601.20
23.2961	566.66
23.3105	587.79
23.3250	530.97
23.3394	573.72
23.3538	587.88
23.3683	594.51
23.3827	512.64
23.3972	591.85
23.4116	502.85
23.4260	540.55
23.4405	524.86
23.4549	571.64
23.4694	581.13
23.4838	538.47
23.4982	574.35
23.5127	573.55
23.5271	564.78
23.5416	604.60
23.5560	638.08
23.5704	549.15
23.5849	526.13
23.5993	481.30
23.6138	541.41
23.6282	483.19
23.6426	572.56
23.6571	537.33
23.6715	570.18
23.6860	577.84
23.7004	513.55
23.7148	592.92
23.7293	587.17
23.7437	572.36
23.7582	541.03
23.7726	544.46
23.7870	625.10
23.8015	550.02
23.8159	529.76
23.8304	573.12
23.8448	527.80
23.8592	589.43
23.8737	544.04
23.8881	512.57
23.9026	646.03
23.9170	507.11
23.9314	560.85
23.9459	556.35
23.9603	505.39
23.9748	573.65
23.9892	623.48
24.0036	572.20
24.0181	540.02
24.0325	629.54
24.0470	604.02
24.0614	503.89
24.0758	606.58
24.0903	570.18
24.1047	561.53
24.1192	530.15
24.1336	525.46
24.1480	543.97
24.1625	630.46
24.1769	569.94
24.1914	574.92
24.2058	551.69
24.2202	639.94
24.2347	597.97
24.2491	627.05
24.2636	555.04
24.2780	571.08
24.2924	592.95
24.3069	542.65
24.3213	561.86
24.3358	580.69
24.3502	561.36
24.3646	517.91
24.3791	562.82
24.3935	517.85
24.4080	537.68
24.4224	566.46
24.4368	560.52
24.4513	563.59
24.4657	565.62
24.4802	578.55
24.4946	532.09
24.5090	565.18
24.5235	512.32
24.5379	506.85
24.5524	586.11
24.5668	600.59
24.5812	566.08
24.5957	630.14
24.6101	577.31
24.6246	523.56
24.6390	597.21
24.6534	554.29
24.6679	560.10
24.6823	527.23
24.6968	508.61
24.7112	577.03
24.7256	538.55
24.7401	561.42
24.7545	544.01
24.7690	538.50
24.7834	544.97
24.7978	545.68
24.8123	573.29
24.8267	548.11
24.8412	545.58
24.8556	565.89
24.8700	562.86
24.8845	518.30
24.8989	609.13
24.9134	577.97
24.9278	498.41
24.9422	536.62
24.9567	547.81
24.9711	519.04
24.9856	537.01
25.0000	506.64
25.0144	578.38
25.0289	607.39
25.0433	534.96
25.0578	524.31
25.0722	523.05
25.0866	538.83
25.1011	539.60
25.1155	560.69
25.1300	562.86
25.1444	508.14
25.1588	509.28
25.1733	525.90
25.1877	561.41
25.2022	530.69
25.2166	547.92
25.2310	522.25
25.2455	556.68
25.2599	521.94
25.2744	554.92
25.2888	549.96
25.3032	564.65
25.3177	546.61
25.3321	553.42
25.3466	532.12
25.3610	555.42
25.3754	532.86
25.3899	525.56
25.4043	526.87
25.4188	559.48
25.4332	582.15
25.4476	545.94
25.4621	538.84
25.4765	530.47
25.4910	534.65
25.5054	530.64
25.5198	518.28
25.5343	569.90
25.5487	529.13
25.5632	558.56
25.5776	499.21
25.5920	537.65
25.6065	548.96
25.6209	539.61
25.6354	540.92
25.6498	527.17
25.6642	513.82
25.6787	546.20
25.6931	535.81
25.7076	580.68
25.7220	532.74
25.7364	536.30
25.7509	548.49
25.7653	585.83
25.7798	560.40
25.7942	505.55
25.8086	536.15
25.8231	567.46
25.8375	557.22
25.8520	540.82
25.8664	533.46
25.8808	520.79
25.8953	520.96
25.9097	551.75
25.9242	537.29
25.9386	530.77
25.9530	570.34
25.9675	517.77
25.9819	535.68
25.9964	538.16
26.0108	520.71
26.0252	522.65
26.0397	565.32
26.0541	578.31
26.0686	586.15
26.0830	561.92
26.0974	544.00
26.1119	524.90
26.1263	541.24
26.1408	543.39
26.1552	528.57
26.1696	555.49
26.1841	526.22
26.1985	525.89
26.2130	533.54
26.2274	518.83
26.2418	514.58
26.2563	493.89
26.2707	505.67
26.2852	525.11
26.2996	512.51
26.3140	521.22
26.3285	506.42
26.3429	543.30
26.3574	546.61
26.3718	547.13
26.3862	530.22
26.4007	497.70
26.4151	529.90
26.4296	538.89
26.4440	523.49
26.4584	528.82
26.4729	556.25
26.4873	535.18
26.5018	522.20
26.5162	521.53
26.5306	542.25
26.5451	552.28
26.5595	535.69
26.5740	549.57
26.5884	536.01
26.6028	541.74
26.6173	528.75
26.6317	517.59
26.6462	539.67
26.6606	566.23
26.6750	566.45
26.6895	514.25
26.7039	547.86
26.7184	521.97
26.7328	527.25
26.7472	518.75
26.7617	526.82
26.7761	545.46
26.7906	551.44
26.8050	575.77
26.8194	527.28
26.8339	511.25
26.8483	528.07
26.8628	544.97
26.8772	539.33
26.8917	553.77
26.9061	557.01
26.9205	506.09
26.9350	517.92
26.9494	549.79
26.9639	559.37
26.9783	519.75
26.9927	497.61
27.0072	501.79
27.0216	512.86
27.0361	523.44
27.0505	574.46
27.0649	540.09
27.0794	502.33
27.0938	524.47
27.1083	517.92
27.1227	525.53
27.1371	537.58
27.1516	500.62
27.1660	504.02
27.1805	505.51
27.1949	468.56
27.2093	528.89
27.2238	530.00
27.2382	522.32
27.2527	529.52
27.2671	539.64
27.2815	570.59
27.2960	545.47
27.3104	538.36
27.3249	518.91
27.3393	524.16
27.3537	508.14
27.3682	513.22
27.3826	505.76
27.3971	507.21
27.4115	522.24
27.4259	540.58
27.4404	538.74
27.4548	546.46
27.4693	555.38
27.4837	502.22
27.4981	495.58
27.5126	508.65
27.5270	534.46
27.5415	525.65
27.5559	555.36
27.5703	509.62
27.5848	523.69
27.5992	564.10
27.6137	525.71
27.6281	526.98
27.6425	520.97
27.6570	510.68
27.6714	504.66
27.6859	540.99
27.7003	573.33
27.7147	518.52
27.7292	482.44
27.7436	499.54
27.7581	513.52
27.7725	483.46
27.7869	561.70
27.8014	546.37
27.8158	565.80
27.8303	531.40
27.8447	541.99
27.8591	555.16
27.8736	532.08
27.8880	539.51
27.9025	549.80
27.9169	556.71
27.9313	547.19
27.9458	555.23
27.9602	495.32
27.9747	490.34
27.9891	469.33
28.0035	512.05
28.0180	468.89
28.0324	501.49
28.0469	522.05
28.0613	491.94
28.0757	492.20
28.0902	545.50
28.1046	546.95
28.1191	517.20
28.1335	515.97
28.1479	553.78
28.1624	537.97
28.1768	501.87
28.1913	531.50
28.2057	530.36
28.2201	515.06
28.2346	524.57
28.2490	532.83
28.2635	540.58
28.2779	521.54
28.2923	513.98
28.3068	497.42
28.3212	509.89
28.3357	539.70
28.3501	512.04
28.3645	486.52
28.3790	525.72
28.3934	526.43
28.4079	495.69
28.4223	517.02
28.4367	504.54
28.4512	500.40
28.4656	521.50
28.4801	532.66
28.4945	533.35
28.5089	524.86
28.5234	480.61
28.5378	491.00
28.5523	526.12
28.5667	531.82
28.5811	484.07
28.5956	517.53
28.6100	503.46
28.6245	493.63
28.6389	501.16
28.6533	508.90
28.6678	501.48
28.6822	498.22
28.6967	514.46
28.7111	541.63
28.7255	509.43
28.7400	471.57
28.7544	488.38
28.7689	503.62
28.7833	527.15
28.7977	523.06
28.8122	497.73
28.8266	512.59
28.8411	519.84
28.8555	531.70
28.8699	494.13
28.8844	481.89
28.8988	494.02
28.9133	514.41
28.9277	522.81
28.9421	487.67
28.9566	502.73
28.9710	505.03
28.9855	499.07
28.9999	482.85
29.0143	480.94
29.0288	490.19
29.0432	514.96
29.0577	504.43
29.0721	529.79
29.0865	531.79
29.1010	523.13
29.1154	530.46
29.1299	486.95
29.1443	494.71
29.1587	507.37
29.1732	546.05
29.1876	489.97
29.2021	466.58
29.2165	490.65
29.2309	501.22
29.2454	493.84
29.2598	512.08
29.2743	539.28
29.2887	507.30
29.3031	512.12
29.3176	525.26
29.3320	517.93
29.3465	513.38
29.3609	498.27
29.3753	508.18
29.3898	477.72
29.4042	486.49
29.4187	512.54
29.4331	527.87
29.4475	513.05
29.4620	505.20
29.4764	521.80
29.4909	537.72
29.5053	538.71
29.5197	506.99
29.5342	484.29
29.5486	512.66
29.5631	505.71
29.5775	466.85
29.5919	480.79
29.6064	492.34
29.6208	496.98
29.6353	521.17
29.6497	500.64
29.6641	509.82
29.6786	504.58
29.6930	498.59
29.7075	499.96
29.7219	525.21
29.7363	496.20
29.7508	503.45
29.7652	507.49
29.7797	540.77
29.7941	528.80
29.8085	494.34
29.8230	497.19
29.8374	527.06
29.8519	514.16
29.8663	514.31
29.8807	491.60
29.8952	485.41
29.9096	492.27
29.9241	516.72
29.9385	521.37
29.9529	523.37
29.9674	510.21
29.9818	511.46
29.9963	490.95
30.0107	474.47
30.0251	506.53
30.0396	511.29
30.0540	504.91
30.0685	543.26
30.0829	503.92
30.0973	508.22
30.1118	476.54
30.1262	509.84
30.1407	507.91
30.1551	501.99
30.1695	507.46
30.1840	505.17
30.1984	490.36
30.2129	499.51
30.2273	516.21
30.2417	515.46
30.2562	502.45
30.2706	497.32
30.2851	495.35
30.2995	519.26
30.3139	506.37
30.3284	504.99
30.3428	514.17
30.3573	493.30
30.3717	520.02
30.3861	505.44
30.4006	524.42
30.4150	483.26
30.4295	524.86
30.4439	502.50
30.4583	510.07
30.4728	539.43
30.4872	518.05
30.5017	527.83
30.5161	531.21
30.5305	520.93
30.5450	524.92
30.5594	530.67
30.5739	482.39
30.5883	492.63
30.6028	527.76
30.6172	553.15
30.6316	552.65
30.6461	554.11
30.6605	541.97
30.6750	555.52
30.6894	566.94
30.7038	580.88
30.7183	589.69
30.7327	617.15
30.7472	634.63
30.7616	625.18
30.7760	670.69
30.7905	663.06
30.8049	672.22
30.8194	713.73
30.8338	689.78
30.8482	634.13
30.8627	664.66
30.8771	678.51
30.8916	644.21
30.9060	665.66
30.9204	597.21
30.9349	596.60
30.9493	613.47
30.9638	602.46
30.9782	590.92
30.9926	573.13
31.0071	555.40
31.0215	530.19
31.0360	537.48
31.0504	538.99
31.0648	535.85
31.0793	552.39
31.0937	538.34
31.1082	514.98
31.1226	541.96
31.1370	523.12
31.1515	527.97
31.1659	526.44
31.1804	505.34
31.1948	501.14
31.2092	535.98
31.2237	546.99
31.2381	554.90
31.2526	535.74
31.2670	515.12
31.2814	523.83
31.2959	508.15
31.3103	509.23
31.3248	538.43
31.3392	551.27
31.3536	546.83
31.3681	510.99
31.3825	518.98
31.3970	510.09
31.4114	518.63
31.4258	533.72
31.4403	508.38
31.4547	540.08
31.4692	555.62
31.4836	533.45
31.4980	515.98
31.5125	491.77
31.5269	509.63
31.5414	524.08
31.5558	509.61
31.5702	488.95
31.5847	536.74
31.5991	474.04
31.6136	485.48
31.6280	488.19
31.6424	491.91
31.6569	497.39
31.6713	510.12
31.6858	482.63
31.7002	486.45
31.7146	519.43
31.7291	504.02
31.7435	514.60
31.7580	532.19
31.7724	507.50
31.7868	507.82
31.8013	487.46
31.8157	526.24
31.8302	500.72
31.8446	538.71
31.8590	504.28
31.8735	514.67
31.8879	514.02
31.9024	547.74
31.9168	514.38
31.9312	531.78
31.9457	508.08
31.9601	521.57
31.9746	489.99
31.9890	502.47
32.0034	492.70
32.0179	492.41
32.0323	489.03
32.0468	499.51
32.0612	483.46
32.0756	477.62
32.0901	506.07
32.1045	477.56
32.1190	494.61
32.1334	483.35
32.1478	446.13
32.1623	496.72
32.1767	500.76
32.1912	541.29
32.2056	476.63
32.2200	476.66
32.2345	494.62
32.2489	493.93
32.2634	495.59
32.2778	516.56
32.2922	506.00
32.3067	502.19
32.3211	490.39
32.3356	507.58
32.3500	500.57
32.3644	493.24
32.3789	514.62
32.3933	499.98
32.4078	490.10
32.4222	494.91
32.4366	506.76
32.4511	488.32
32.4655	507.71
32.4800	506.44
32.4944	493.55
32.5088	500.37
32.5233	492.95
32.5377	481.02
32.5522	541.63
32.5666	511.60
32.5810	499.49
32.5955	484.78
32.6099	538.59
32.6244	504.66
32.6388	513.96
32.6532	511.20
32.6677	508.31
32.6821	531.69
32.6966	477.36
32.7110	513.00
32.7254	499.02
32.7399	498.78
32.7543	497.19
32.7688	453.56
32.7832	522.89
32.7976	480.19
32.8121	488.50
32.8265	505.25
32.8410	473.54
32.8554	516.82
32.8698	502.92
32.8843	493.19
32.8987	517.64
32.9132	481.12
32.9276	495.29
32.9420	492.72
32.9565	457.97
32.9709	479.32
32.9854	463.27
32.9998	540.73
33.0142	489.31
33.0287	489.26
33.0431	503.30
33.0576	519.73
33.0720	480.47
33.0864	484.39
33.1009	485.65
33.1153	482.67
33.1298	505.42
33.1442	489.51
33.1586	503.85
33.1731	488.69
33.1875	496.85
33.2020	493.43
33.2164	484.98
33.2308	480.97
33.2453	495.26
33.2597	501.34
33.2742	543.65
33.2886	510.48
33.3030	496.31
33.3175	487.95
33.3319	515.50
33.3464	507.40
33.3608	527.11
33.3752	491.85
33.3897	487.14
33.4041	489.36
33.4186	480.94
33.4330	515.09
33.4474	516.50
33.4619	486.12
33.4763	523.48
33.4908	503.25
33.5052	516.10
33.5196	508.09
33.5341	492.23
33.5485	500.49
33.5630	474.31
33.5774	478.64
33.5918	475.91
33.6063	503.59
33.6207	516.47
33.6352	511.59
33.6496	505.45
33.6640	502.15
33.6785	491.26
33.6929	462.27
33.7074	511.93
33.7218	535.38
33.7362	524.83
33.7507	517.64
33.7651	494.97
33.7796	497.34
33.7940	489.49
33.8084	506.96
33.8229	543.48
33.8373	510.62
33.8518	477.73
33.8662	499.51
33.8806	494.02
33.8951	519.98
33.9095	505.44
33.9240	490.45
33.9384	528.76
33.9528	510.60
33.9673	483.03
33.9817	469.28
33.9962	510.53
34.0106	506.27
34.0250	507.26
34.0395	506.68
34.0539	538.47
34.0684	466.41
34.0828	482.24
34.0972	525.57
34.1117	490.72
34.1261	529.34
34.1406	487.04
34.1550	489.16
34.1694	508.48
34.1839	488.67
34.1983	486.41
34.2128	521.74
34.2272	513.99
34.2417	516.20
34.2561	496.33
34.2705	502.84
34.2850	529.15
34.2994	501.60
34.3139	492.30
34.3283	492.15
34.3427	534.99
34.3572	524.80
34.3716	499.59
34.3861	488.31
34.4005	481.30
34.4149	495.53
34.4294	508.51
34.4438	466.64
34.4583	485.42
34.4727	513.16
34.4871	507.43
34.5016	492.16
34.5160	502.85
34.5305	484.75
34.5449	501.06
34.5593	472.20
34.5738	498.83
34.5882	495.74
34.6027	488.71
34.6171	486.14
34.6315	497.55
34.6460	506.18
34.6604	493.90
34.6749	503.85
34.6893	508.83
34.7037	524.23
34.7182	513.02
34.7326	534.65
34.7471	538.00
34.7615	519.10
34.7759	510.86
34.7904	515.32
34.8048	516.51
34.8193	512.84
34.8337	511.31
34.8481	498.69
34.8626	524.92
34.8770	509.98
34.8915	496.02
34.9059	496.02
34.9203	502.10
34.9348	518.61
34.9492	505.00
34.9637	491.16
34.9781	488.39
34.9925	512.01
35.0070	534.21
35.0214	523.87
35.0359	545.81
35.0503	512.33
35.0647	518.74
35.0792	503.88
35.0936	493.43
35.1081	494.35
35.1225	532.42
35.1369	504.33
35.1514	501.29
35.1658	506.20
35.1803	513.31
35.1947	489.79
35.2091	502.87
35.2236	517.74
35.2380	500.00
35.2525	502.23
35.2669	494.82
35.2813	503.79
35.2958	478.41
35.3102	524.53
35.3247	522.79
35.3391	520.03
35.3535	536.51
35.3680	500.92
35.3824	515.20
35.3969	499.98
35.4113	499.09
35.4257	526.73
35.4402	520.36
35.4546	517.97
35.4691	545.56
35.4835	531.58
35.4979	521.44
35.5124	543.41
35.5268	520.42
35.5413	543.25
35.5557	546.17
35.5701	516.20
35.5846	536.69
35.5990	513.31
35.6135	520.58
35.6279	539.92
35.6423	519.78
35.6568	544.53
35.6712	498.66
35.6857	560.86
35.7001	650.70
35.7145	719.36
35.7290	628.54
35.7434	612.30
35.7579	591.56
35.7723	591.72
35.7867	628.05
35.8012	667.09
35.8156	695.61
35.8301	669.14
35.8445	645.06
35.8589	625.29
35.8734	729.01
35.8878	843.63
35.9023	981.85
35.9167	1076.52
35.9311	1316.98
35.9456	1969.80
35.9600	2294.28
35.9745	1896.36
35.9889	1926.63
36.0033	2645.07
36.0178	3155.78
36.0322	2446.94
36.0467	1942.96
36.0611	1703.73
36.0755	1556.41
36.0900	1543.61
36.1044	1314.56
36.1189	1402.15
36.1333	1349.61
36.1477	1142.67
36.1622	1152.77
36.1766	1099.92
36.1911	1034.44
36.2055	965.30
36.2199	937.42
36.2344	941.16
36.2488	922.47
36.2633	922.62
36.2777	989.96
36.2921	946.12
36.3066	946.83
36.3210	1009.05
36.3355	1006.55
36.3499	972.42
36.3643	866.52
36.3788	796.08
36.3932	801.55
36.4077	766.13
36.4221	740.99
36.4365	693.25
36.4510	700.98
36.4654	673.17
36.4799	668.40
36.4943	618.24
36.5087	586.49
36.5232	591.28
36.5376	568.16
36.5521	556.62
36.5665	559.64
36.5809	592.70
36.5954	554.87
36.6098	502.99
36.6243	542.38
36.6387	539.49
36.6531	529.86
36.6676	528.75
36.6820	524.39
36.6965	574.29
36.7109	575.96
36.7253	551.25
36.7398	558.17
36.7542	578.39
36.7687	545.62
36.7831	535.54
36.7975	538.55
36.8120	586.72
36.8264	595.16
36.8409	621.86
36.8553	613.70
36.8697	628.63
36.8842	622.46
36.8986	601.58
36.9131	616.63
36.9275	550.56
36.9419	589.24
36.9564	541.20
36.9708	514.93
36.9853	556.88
36.9997	553.28
37.0141	533.67
37.0286	545.36
37.0430	547.45
37.0575	510.56
37.0719	543.22
37.0863	553.05
37.1008	532.71
37.1152	539.60
37.1297	521.71
37.1441	504.63
37.1585	511.18
37.1730	498.70
37.1874	499.49
37.2019	518.87
37.2163	487.12
37.2307	514.57
37.2452	516.18
37.2596	492.96
37.2741	507.34
37.2885	552.06
37.3029	492.62
37.3174	481.11
37.3318	527.58
37.3463	527.30
37.3607	515.26
37.3751	534.04
37.3896	508.01
37.4040	509.17
37.4185	516.44
37.4329	487.80
37.4473	517.73
37.4618	531.11
37.4762	497.26
37.4907	504.96
37.5051	511.36
37.5195	519.23
37.5340	510.51
37.5484	534.34
37.5629	517.44
37.5773	529.16
37.5917	547.07
37.6062	516.38
37.6206	525.52
37.6351	521.19
37.6495	518.53
37.6639	516.87
37.6784	526.97
37.6928	504.36
37.7073	495.93
37.7217	530.82
37.7361	505.43
37.7506	500.00
37.7650	508.10
37.7795	502.37
37.7939	522.98
37.8083	507.03
37.8228	475.69
37.8372	501.93
37.8517	478.42
37.8661	504.52
37.8805	509.38
37.8950	490.96
37.9094	544.79
37.9239	492.86
37.9383	510.61
37.9528	485.97
37.9672	481.06
37.9816	524.78
37.9961	512.10
38.0105	474.41
38.0250	493.45
38.0394	501.01
38.0538	494.91
38.0683	521.39
38.0827	516.09
38.0972	510.18
38.1116	487.57
38.1260	458.78
38.1405	472.40
38.1549	489.90
38.1694	494.14
38.1838	493.57
38.1982	509.13
38.2127	535.90
38.2271	515.01
38.2416	506.11
38.2560	509.68
38.2704	514.83
38.2849	513.82
38.2993	516.70
38.3138	494.03
38.3282	518.75
38.3426	516.93
38.3571	499.89
38.3715	531.44
38.3860	505.38
38.4004	526.88
38.4148	583.43
38.4293	581.61
38.4437	555.34
38.4582	597.87
38.4726	637.69
38.4870	679.92
38.5015	751.40
38.5159	759.96
38.5304	774.36
38.5448	830.10
38.5592	791.03
38.5737	801.23
38.5881	764.47
38.6026	714.29
38.6170	723.58
38.6314	706.95
38.6459	652.98
38.6603	664.62
38.6748	645.27
38.6892	580.76
38.7036	584.41
38.7181	576.13
38.7325	542.91
38.7470	540.90
38.7614	527.95
38.7758	532.41
38.7903	490.13
38.8047	500.41
38.8192	499.92
38.8336	512.54
38.8480	521.71
38.8625	474.97
38.8769	483.13
38.8914	518.83
38.9058	535.29
38.9202	511.01
38.9347	495.74
38.9491	521.84
38.9636	516.56
38.9780	513.62
38.9924	476.90
39.0069	516.20
39.0213	510.53
39.0358	511.63
39.0502	513.76
39.0646	529.18
39.0791	499.27
39.0935	510.81
39.1080	517.48
39.1224	509.99
39.1368	481.46
39.1513	481.59
39.1657	507.78
39.1802	523.56
39.1946	502.16
39.2090	510.88
39.2235	511.62
39.2379	501.20
39.2524	513.18
39.2668	494.93
39.2812	506.35
39.2957	506.75
39.3101	478.04
39.3246	512.29
39.3390	536.85
39.3534	499.12
39.3679	501.63
39.3823	481.12
39.3968	495.82
39.4112	473.08
39.4256	515.38
39.4401	477.36
39.4545	470.89
39.4690	479.98
39.4834	530.75
39.4978	492.12
39.5123	497.58
39.5267	525.89
39.5412	538.94
39.5556	507.25
39.5700	489.40
39.5845	496.21
39.5989	503.25
39.6134	510.55
39.6278	476.70
39.6422	517.70
39.6567	534.47
39.6711	531.27
39.6856	484.23
39.7000	510.42
39.7144	511.30
39.7289	491.93
39.7433	482.47
39.7578	475.75
39.7722	504.97
39.7866	525.49
39.8011	546.92
39.8155	527.73
39.8300	462.83
39.8444	464.72
39.8588	510.28
39.8733	499.78
39.8877	512.11
39.9022	483.36
39.9166	473.97
39.9310	525.45
39.9455	507.46
39.9599	510.08
39.9744	501.38
39.9888	504.64
40.0032	514.12
40.0177	503.40
40.0321	492.64
40.0466	483.61
40.0610	515.82
40.0754	478.80
40.0899	515.50
40.1043	498.29
40.1188	499.25
40.1332	510.40
40.1476	474.33
40.1621	499.99
40.1765	497.93
40.1910	484.25
40.2054	482.96
40.2198	489.33
40.2343	463.71
40.2487	494.99
40.2632	480.64
40.2776	473.04
40.2920	474.52
40.3065	494.29
40.3209	499.70
40.3354	508.70
40.3498	497.26
40.3642	487.13
40.3787	515.82
40.3931	489.49
40.4076	485.45
40.4220	499.62
40.4364	492.86
40.4509	494.46
40.4653	519.00
40.4798	510.33
40.4942	503.87
40.5086	502.09
40.5231	485.01
40.5375	487.80
40.5520	463.72
40.5664	481.56
40.5808	488.66
40.5953	487.86
40.6097	495.57
40.6242	514.06
40.6386	498.11
40.6530	496.09
40.6675	485.43
40.6819	530.55
40.6964	513.30
40.7108	515.39
40.7252	477.85
40.7397	500.93
40.7541	484.83
40.7686	499.83
40.7830	525.55
40.7974	491.62
40.8119	505.59
40.8263	507.78
40.8408	479.11
40.8552	480.78
40.8696	511.68
40.8841	495.89
40.8985	497.61
40.9130	500.29
40.9274	508.82
40.9418	491.84
40.9563	527.89
40.9707	514.48
40.9852	480.47
40.9996	479.10
41.0140	479.89
41.0285	495.33
41.0429	487.83
41.0574	477.30
41.0718	481.71
41.0862	513.49
41.1007	495.35
41.1151	496.30
41.1296	525.73
41.1440	487.17
41.1584	487.81
41.1729	489.64
41.1873	490.30
41.2018	496.03
41.2162	516.15
41.2306	505.66
41.2451	515.66
41.2595	522.02
41.2740	496.35
41.2884	493.47
41.3028	511.47
41.3173	504.06
41.3317	475.78
41.3462	499.54
41.3606	472.53
41.3750	496.63
41.3895	504.61
41.4039	497.84
41.4184	474.59
41.4328	517.32
41.4472	497.77
41.4617	493.73
41.4761	529.84
41.4906	508.13
41.5050	505.09
41.5194	518.29
41.5339	493.42
41.5483	510.17
41.5628	498.56
41.5772	496.52
41.5916	528.01
41.6061	534.26
41.6205	479.46
41.6350	451.85
41.6494	495.49
41.6639	527.38
41.6783	505.00
41.6927	538.58
41.7072	489.74
41.7216	496.48
41.7361	493.57
41.7505	481.70
41.7649	477.49
41.7794	494.20
41.7938	489.17
41.8083	481.42
41.8227	480.86
41.8371	483.05
41.8516	495.98
41.8660	528.61
41.8805	502.96
41.8949	557.43
41.9093	568.54
41.9238	528.99
41.9382	534.82
41.9527	574.59
41.9671	566.37
41.9815	581.97
41.9960	561.89
42.0104	568.51
42.0249	572.39
42.0393	534.26
42.0537	565.02
42.0682	596.56
42.0826	577.45
42.0971	607.99
42.1115	564.54
42.1259	577.60
42.1404	591.59
42.1548	613.34
42.1693	650.04
42.1837	712.55
42.1981	794.55
42.2126	854.57
42.2270	932.74
42.2415	1091.95
42.2559	1244.10
42.2703	1362.47
42.2848	1563.63
42.2992	1676.36
42.3137	1746.48
42.3281	1725.81
42.3425	1647.90
42.3570	1544.01
42.3714	1420.59
42.3859	1350.39
42.4003	1364.30
42.4147	1321.39
42.4292	1326.65
42.4436	1179.87
42.4581	1063.52
42.4725	949.00
42.4869	860.14
42.5014	771.67
42.5158	750.89
42.5303	727.16
42.5447	657.08
42.5591	604.72
42.5736	574.77
42.5880	580.93
42.6025	572.06
42.6169	587.30
42.6313	542.29
42.6458	530.72
42.6602	557.00
42.6747	542.47
42.6891	524.06
42.7035	534.24
42.7180	520.28
42.7324	508.63
42.7469	513.88
42.7613	519.78
42.7757	537.02
42.7902	534.78
42.8046	517.21
42.8191	526.12
42.8335	528.20
42.8479	555.82
42.8624	529.26
42.8768	523.03
42.8913	527.22
42.9057	551.60
42.9201	512.90
42.9346	503.14
42.9490	522.17
42.9635	502.63
42.9779	492.18
42.9923	509.24
43.0068	528.64
43.0212	514.02
43.0357	526.91
43.0501	529.22
43.0645	525.42
43.0790	497.07
43.0934	508.06
43.1079	502.86
43.1223	488.69
43.1367	457.55
43.1512	484.09
43.1656	514.39
43.1801	552.55
43.1945	514.17
43.2089	522.39
43.2234	538.73
43.2378	573.26
43.2523	550.59
43.2667	524.83
43.2811	541.46
43.2956	521.13
43.3100	497.04
43.3245	522.26
43.3389	516.79
43.3533	512.35
43.3678	492.68
43.3822	488.91
43.3967	506.84
43.4111	517.58
43.4255	538.28
43.4400	501.06
43.4544	477.72
43.4689	516.17
43.4833	522.71
43.4977	495.06
43.5122	478.54
43.5266	533.66
43.5411	497.97
43.5555	534.25
43.5699	511.80
43.5844	500.61
43.5988	525.17
43.6133	505.44
43.6277	508.31
43.6421	519.09
43.6566	497.38
43.6710	510.88
43.6855	497.41
43.6999	524.98
43.7143	526.85
43.7288	512.46
43.7432	531.28
43.7577	539.72
43.7721	518.17
43.7865	550.36
43.8010	530.77
43.8154	569.23
43.8299	525.90
43.8443	513.33
43.8587	513.55
43.8732	508.18
43.8876	486.09
43.9021	520.43
43.9165	511.31
43.9309	554.98
43.9454	514.60
43.9598	524.88
43.9743	553.65
43.9887	574.22
44.0031	571.89
44.0176	568.66
44.0320	573.70
44.0465	561.50
44.0609	521.78
44.0753	585.16
44.0898	648.56
44.1042	588.95
44.1187	608.62
44.1331	607.47
44.1475	559.93
44.1620	622.66
44.1764	628.10
44.1909	614.44
44.2053	602.30
44.2197	585.17
44.2342	573.27
44.2486	564.33
44.2631	571.59
44.2775	575.92
44.2919	524.86
44.3064	559.95
44.3208	559.50
44.3353	546.10
44.3497	540.82
44.3641	556.25
44.3786	612.46
44.3930	564.23
44.4075	516.75
44.4219	568.95
44.4363	557.27
44.4508	575.29
44.4652	566.95
44.4797	598.89
44.4941	580.73
44.5085	557.53
44.5230	593.21
44.5374	572.18
44.5519	582.43
44.5663	591.00
44.5807	536.16
44.5952	575.20
44.6096	596.85
44.6241	596.31
44.6385	601.36
44.6529	574.21
44.6674	588.01
44.6818	620.40
44.6963	607.13
44.7107	628.83
44.7251	685.45
44.7396	718.73
44.7540	758.49
44.7685	851.52
44.7829	908.10
44.7973	875.33
44.8118	864.92
44.8262	821.95
44.8407	802.27
44.8551	754.07
44.8695	763.56
44.8840	761.80
44.8984	758.45
44.9129	736.22
44.9273	697.27
44.9417	695.70
44.9562	630.29
44.9706	552.67
44.9851	564.90
44.9995	516.58
45.0139	533.65
45.0284	526.20
45.0428	515.15
45.0573	489.79
45.0717	519.52
45.0861	542.83
45.1006	514.18
45.1150	539.06
45.1295	529.37
45.1439	487.07
45.1583	480.94
45.1728	502.58
45.1872	484.94
45.2017	517.56
45.2161	505.24
45.2305	502.47
45.2450	541.93
45.2594	506.70
45.2739	522.13
45.2883	517.82
45.3028	534.47
45.3172	528.44
45.3316	529.02
45.3461	546.51
45.3605	522.69
45.3750	503.08
45.3894	514.03
45.4038	491.91
45.4183	532.57
45.4327	519.72
45.4472	476.49
45.4616	495.42
45.4760	474.97
45.4905	471.82
45.5049	455.97
45.5194	481.58
45.5338	502.89
45.5482	497.78
45.5627	499.75
45.5771	496.49
45.5916	509.40
45.6060	513.74
45.6204	499.98
45.6349	482.89
45.6493	475.81
45.6638	482.92
45.6782	497.61
45.6926	509.84
45.7071	519.42
45.7215	502.07
45.7360	489.44
45.7504	533.24
45.7648	521.99
45.7793	505.27
45.7937	535.00
45.8082	499.52
45.8226	511.50
45.8370	515.66
45.8515	478.14
45.8659	497.95
45.8804	510.93
45.8948	487.35
45.9092	519.86
45.9237	513.79
45.9381	511.31
45.9526	482.52
45.9670	504.94
45.9814	470.22
45.9959	528.93
46.0103	504.24
46.0248	523.16
46.0392	490.74
46.0536	465.11
46.0681	495.08
46.0825	515.93
46.0970	511.30
46.1114	506.10
46.1258	501.95
46.1403	470.07
46.1547	463.34
46.1692	521.72
46.1836	489.27
46.1980	483.40
46.2125	496.93
46.2269	474.77
46.2414	489.34
46.2558	516.44
46.2702	523.81
46.2847	525.32
46.2991	513.26
46.3136	496.83
46.3280	514.17
46.3424	505.74
46.3569	496.15
46.3713	510.73
46.3858	477.47
46.4002	479.65
46.4146	478.40
46.4291	512.25
46.4435	514.87
46.4580	504.96
46.4724	493.20
46.4868	483.35
46.5013	484.99
46.5157	505.22
46.5302	523.06
46.5446	501.32
46.5590	490.79
46.5735	483.98
46.5879	495.76
46.6024	503.78
46.6168	479.75
46.6312	512.48
46.6457	497.07
46.6601	515.83
46.6746	517.62
46.6890	516.57
46.7034	524.60
46.7179	501.33
46.7323	466.87
46.7468	493.00
46.7612	500.13
46.7756	498.14
46.7901	507.13
46.8045	467.90
46.8190	475.74
46.8334	492.24
46.8478	503.79
46.8623	515.03
46.8767	515.72
46.8912	514.49
46.9056	510.68
46.9200	536.28
46.9345	509.62
46.9489	484.53
46.9634	494.55
46.9778	516.48
46.9922	519.69
47.0067	506.89
47.0211	505.44
47.0356	481.97
47.0500	502.88
47.0644	497.28
47.0789	515.99
47.0933	557.34
47.1078	537.35
47.1222	511.42
47.1366	505.44
47.1511	494.91
47.1655	505.75
47.1800	518.95
47.1944	522.21
47.2088	524.75
47.2233	531.69
47.2377	506.00
47.2522	513.38
47.2666	507.94
47.2810	523.77
47.2955	499.35
47.3099	512.82
47.3244	522.52
47.3388	534.38
47.3532	520.25
47.3677	512.13
47.3821	507.80
47.3966	502.59
47.4110	509.97
47.4254	552.96
47.4399	517.56
47.4543	520.69
47.4688	521.59
47.4832	525.89
47.4976	487.14
47.5121	504.60
47.5265	526.64
47.5410	507.23
47.5554	505.15
47.5698	491.76
47.5843	510.72
47.5987	485.76
47.6132	470.39
47.6276	517.09
47.6420	535.88
47.6565	504.02
47.6709	510.33
47.6854	490.07
47.6998	514.72
47.7142	510.73
47.7287	506.56
47.7431	500.47
47.7576	517.23
47.7720	516.26
47.7864	520.61
47.8009	529.56
47.8153	513.00
47.8298	479.17
47.8442	509.71
47.8586	485.09
47.8731	496.89
47.8875	526.66
47.9020	551.85
47.9164	485.96
47.9308	490.56
47.9453	514.32
47.9597	499.43
47.9742	520.36
47.9886	537.80
48.0030	500.64
48.0175	544.67
48.0319	528.64
48.0464	503.51
48.0608	488.08
48.0752	501.87
48.0897	522.65
48.1041	522.23
48.1186	515.93
48.1330	508.52
48.1474	495.25
48.1619	492.79
48.1763	519.42
48.1908	504.35
48.2052	484.98
48.2196	524.52
48.2341	523.45
48.2485	539.06
48.2630	501.52
48.2774	547.14
48.2918	499.79
48.3063	511.56
48.3207	509.96
48.3352	531.92
48.3496	509.07
48.3640	521.43
48.3785	524.40
48.3929	525.19
48.4074	528.05
48.4218	542.02
48.4362	547.75
48.4507	531.45
48.4651	491.23
48.4796	551.31
48.4940	508.00
48.5084	476.56
48.5229	511.67
48.5373	506.65
48.5518	541.45
48.5662	549.80
48.5806	507.58
48.5951	488.92
48.6095	499.02
48.6240	522.53
48.6384	526.70
48.6528	515.89
48.6673	510.18
48.6817	527.65
48.6962	500.42
48.7106	532.46
48.7250	518.06
48.7395	534.85
48.7539	523.18
48.7684	537.87
48.7828	545.59
48.7972	515.44
48.8117	523.78
48.8261	508.53
48.8406	492.25
48.8550	539.00
48.8694	554.45
48.8839	505.35
48.8983	548.09
48.9128	529.76
48.9272	555.39
48.9416	571.81
48.9561	579.39
48.9705	579.83
48.9850	580.78
48.9994	559.98
49.0139	610.71
49.0283	600.99
49.0427	605.40
49.0572	607.91
49.0716	618.37
49.0861	661.51
49.1005	669.93
49.1149	695.12
49.1294	728.58
49.1438	792.06
49.1583	821.42
49.1727	824.34
49.1871	876.15
49.2016	971.02
49.2160	1012.09
49.2305	1088.23
49.2449	1223.98
49.2593	1275.19
49.2738	1383.60
49.2882	1433.69
49.3027	1583.14
49.3171	1723.85
49.3315	1790.24
49.3460	1876.14
49.3604	1808.51
49.3749	1875.79
49.3893	1818.86
49.4037	1797.08
49.4182	1801.74
49.4326	1825.85
49.4471	1639.90
49.4615	1584.51
49.4759	1595.88
49.4904	1549.97
49.5048	1396.30
49.5193	1334.36
49.5337	1252.33
49.5481	1147.53
49.5626	1107.14
49.5770	1048.47
49.5915	985.50
49.6059	956.79
49.6203	888.61
49.6348	848.40
49.6492	793.91
49.6637	754.10
49.6781	720.38
49.6925	682.39
49.7070	668.22
49.7214	651.91
49.7359	637.64
49.7503	608.12
49.7647	600.71
49.7792	602.89
49.7936	602.52
49.8081	585.02
49.8225	568.21
49.8369	553.24
49.8514	582.43
49.8658	589.44
49.8803	526.60
49.8947	564.93
49.9091	565.34
49.9236	523.51
49.9380	542.69
49.9525	504.56
49.9669	548.06
49.9813	550.87
49.9958	561.68
50.0102	552.85
50.0247	530.35
50.0391	507.64
50.0535	518.06
50.0680	544.04
50.0824	514.82
50.0969	492.62
50.1113	533.80
50.1257	557.69
50.1402	541.21
50.1546	501.10
50.1691	543.45
50.1835	536.70
50.1979	501.20
50.2124	513.95
50.2268	509.43
50.2413	509.34
50.2557	529.27
50.2701	529.05
50.2846	526.51
50.2990	510.99
50.3135	509.98
50.3279	498.97
50.3423	475.40
50.3568	503.22
50.3712	552.65
50.3857	503.48
50.4001	489.01
50.4145	504.42
50.4290	522.51
50.4434	505.99
50.4579	510.45
50.4723	548.72
50.4867	503.28
50.5012	509.47
50.5156	501.84
50.5301	529.78
50.5445	514.45
50.5589	496.73
50.5734	524.42
50.5878	518.83
50.6023	535.99
50.6167	509.22
50.6311	462.73
50.6456	507.73
50.6600	538.12
50.6745	534.54
50.6889	532.54
50.7033	483.23
50.7178	517.60
50.7322	507.22
50.7467	501.33
50.7611	518.91
50.7755	497.91
50.7900	499.38
50.8044	514.14
50.8189	532.09
50.8333	544.98
50.8477	506.84
50.8622	516.59
50.8766	532.46
50.8911	523.53
50.9055	482.35
50.9199	500.86
50.9344	542.09
50.9488	537.67
50.9633	493.30
50.9777	503.31
50.9921	506.95
51.0066	516.61
51.0210	504.81
51.0355	474.88
51.0499	504.02
51.0643	547.92
51.0788	583.54
51.0932	546.17
51.1077	539.96
51.1221	509.44
51.1365	497.64
51.1510	491.25
51.1654	489.94
51.1799	523.13
51.1943	483.52
51.2087	510.95
51.2232	532.72
51.2376	535.94
51.2521	512.06
51.2665	500.53
51.2809	496.06
51.2954	520.84
51.3098	519.25
51.3243	539.14
51.3387	522.13
51.3531	508.80
51.3676	510.60
51.3820	530.03
51.3965	507.27
51.4109	493.91
51.4253	501.57
51.4398	522.29
51.4542	501.37
51.4687	521.37
51.4831	526.69
51.4975	527.37
51.5120	498.09
51.5264	481.01
51.5409	513.95
51.5553	513.10
51.5697	530.04
51.5842	521.94
51.5986	506.55
51.6131	533.73
51.6275	485.63
51.6419	498.50
51.6564	505.38
51.6708	464.06
51.6853	502.35
51.6997	494.71
51.7141	517.63
51.7286	520.03
51.7430	523.23
51.7575	520.20
51.7719	506.64
51.7863	537.13
51.8008	518.04
51.8152	508.37
51.8297	521.21
51.8441	483.81
51.8585	506.72
51.8730	529.15
51.8874	519.29
51.9019	518.05
51.9163	500.05
51.9307	476.44
51.9452	523.59
51.9596	482.05
51.9741	479.73
51.9885	479.91
52.0029	530.07
52.0174	493.89
52.0318	496.98
52.0463	528.24
52.0607	524.22
52.0751	502.16
52.0896	494.27
52.1040	496.54
52.1185	532.04
52.1329	554.80
52.1473	497.73
52.1618	528.42
52.1762	547.68
52.1907	499.93
52.2051	491.68
52.2195	495.82
52.2340	500.07
52.2484	494.51
52.2629	527.26
52.2773	504.36
52.2917	533.04
52.3062	523.77
52.3206	493.60
52.3351	486.59
52.3495	538.61
52.3639	535.42
52.3784	493.44
52.3928	529.62
52.4073	526.48
52.4217	512.68
52.4361	489.60
52.4506	513.50
52.4650	522.56
52.4795	498.85
52.4939	522.26
52.5083	484.30
52.5228	484.85
52.5372	534.95
52.5517	510.19
52.5661	518.89
52.5805	521.86
52.5950	540.51
52.6094	531.31
52.6239	518.48
52.6383	518.99
52.6527	497.80
52.6672	510.87
52.6816	563.07
52.6961	526.05
52.7105	563.41
52.7250	506.37
52.7394	517.79
52.7538	527.86
52.7683	486.32
52.7827	524.68
52.7972	528.20
52.8116	494.77
52.8260	492.62
52.8405	505.43
52.8549	514.05
52.8694	515.44
52.8838	499.68
52.8982	499.29
52.9127	527.01
52.9271	522.74
52.9416	546.10
52.9560	506.81
52.9704	528.04
52.9849	508.85
52.9993	555.00
53.0138	521.71
53.0282	516.22
53.0426	552.66
53.0571	514.50
53.0715	517.04
53.0860	513.52
53.1004	520.02
53.1148	499.10
53.1293	524.78
53.1437	486.89
53.1582	507.51
53.1726	525.16
53.1870	528.01
53.2015	494.41
53.2159	531.89
53.2304	530.86
53.2448	504.15
53.2592	498.18
53.2737	504.90
53.2881	495.61
53.3026	530.94
53.3170	519.85
53.3314	525.51
53.3459	511.13
53.3603	515.77
53.3748	504.07
53.3892	470.83
53.4036	504.07
53.4181	523.88
53.4325	542.17
53.4470	501.32
53.4614	540.08
53.4758	502.00
53.4903	539.39
53.5047	529.95
53.5192	517.86
53.5336	513.34
53.5480	528.42
53.5625	521.09
53.5769	521.99
53.5914	517.31
53.6058	497.50
53.6202	505.27
53.6347	521.39
53.6491	494.49
53.6636	521.15
53.6780	517.96
53.6924	490.56
53.7069	512.52
53.7213	502.38
53.7358	517.04
53.7502	513.98
53.7646	510.52
53.7791	510.70
53.7935	486.17
53.8080	513.75
53.8224	515.58
53.8368	557.51
53.8513	555.84
53.8657	532.15
53.8802	508.53
53.8946	500.45
53.9090	515.30
53.9235	514.91
53.9379	501.41
53.9524	528.84
53.9668	518.65
53.9812	524.82
53.9957	492.27
54.0101	519.42
54.0246	533.78
54.0390	529.12
54.0534	500.65
54.0679	523.45
54.0823	505.72
54.0968	569.70
54.1112	515.14
54.1256	505.13
54.1401	522.36
54.1545	509.21
54.1690	516.30
54.1834	536.15
54.1978	484.40
54.2123	524.31
54.2267	526.26
54.2412	542.18
54.2556	526.78
54.2700	539.79
54.2845	536.01
54.2989	513.92
54.3134	498.52
54.3278	529.24
54.3422	537.52
54.3567	515.34
54.3711	509.95
54.3856	521.72
54.4000	487.38
54.4144	519.14
54.4289	499.47
54.4433	525.72
54.4578	574.85
54.4722	556.39
54.4866	546.96
54.5011	529.91
54.5155	534.53
54.5300	541.48
54.5444	562.74
54.5588	557.87
54.5733	571.77
54.5877	572.00
54.6022	567.21
54.6166	534.86
54.6310	524.68
54.6455	556.34
54.6599	573.64
54.6744	552.72
54.6888	553.84
54.7032	546.74
54.7177	542.52
54.7321	553.26
54.7466	556.32
54.7610	552.73
54.7754	574.07
54.7899	575.57
54.8043	595.54
54.8188	584.79
54.8332	574.94
54.8476	546.50
54.8621	596.76
54.8765	543.91
54.8910	542.79
54.9054	587.39
54.9198	589.75
54.9343	591.65
54.9487	565.52
54.9632	555.28
54.9776	546.74
54.9920	545.85
55.0065	540.44
55.0209	510.38
55.0354	519.87
55.0498	537.24
55.0642	500.21
55.0787	519.96
55.0931	549.92
55.1076	546.46
55.1220	573.00
55.1364	549.15
55.1509	514.84
55.1653	532.49
55.1798	556.87
55.1942	515.13
55.2086	514.02
55.2231	539.72
55.2375	544.06
55.2520	508.41
55.2664	523.05
55.2808	514.53
55.2953	513.72
55.3097	541.33
55.3242	538.65
55.3386	527.09
55.3530	495.78
55.3675	478.36
55.3819	502.91
55.3964	511.54
55.4108	529.92
55.4252	504.90
55.4397	530.25
55.4541	542.41
55.4686	532.03
55.4830	530.74
55.4974	517.17
55.5119	492.69
55.5263	549.11
55.5408	532.39
55.5552	522.95
55.5696	521.63
55.5841	506.61
55.5985	530.70
55.6130	519.31
55.6274	549.82
55.6418	537.42
55.6563	526.67
55.6707	504.62
55.6852	513.75
55.6996	493.17
55.7140	546.62
55.7285	533.78
55.7429	501.84
55.7574	497.93
55.7718	520.74
55.7862	520.76
55.8007	498.29
55.8151	498.44
55.8296	531.40
55.8440	510.82
55.8584	538.85
55.8729	546.08
55.8873	534.19
55.9018	571.55
55.9162	544.46
55.9306	512.43
55.9451	521.61
55.9595	495.56
55.9740	492.58
55.9884	570.49
56.0028	506.39
56.0173	502.07
56.0317	510.83
56.0462	499.84
56.0606	505.56
56.0750	549.03
56.0895	542.60
56.1039	532.71
56.1184	550.62
56.1328	539.74
56.1472	493.50
56.1617	496.87
56.1761	495.75
56.1906	518.11
56.2050	554.77
56.2194	526.83
56.2339	519.87
56.2483	547.68
56.2628	554.85
56.2772	534.63
56.2916	540.41
56.3061	535.50
56.3205	565.06
56.3350	519.68
56.3494	504.86
56.3639	505.07
56.3783	544.40
56.3927	563.57
56.4072	514.65
56.4216	526.63
56.4361	519.17
56.4505	507.80
56.4649	499.83
56.4794	541.26
56.4938	518.01
56.5083	494.79
56.5227	522.28
56.5371	504.31
56.5516	563.15
56.5660	505.17
56.5805	492.51
56.5949	501.36
56.6093	507.64
56.6238	506.21
56.6382	537.59
56.6527	512.53
56.6671	511.05
56.6815	505.15
56.6960	525.26
56.7104	529.13
56.7249	512.58
56.7393	483.64
56.7537	503.12
56.7682	490.69
56.7826	497.62
56.7971	522.45
56.8115	500.68
56.8259	499.93
56.8404	531.58
56.8548	502.84
56.8693	517.39
56.8837	504.03
56.8981	593.12
56.9126	489.82
56.9270	480.03
56.9415	519.68
56.9559	527.72
56.9703	540.69
56.9848	534.61
56.9992	545.26
57.0137	537.97
57.0281	535.04
57.0425	522.65
57.0570	535.10
57.0714	532.84
57.0859	528.81
57.1003	575.86
57.1147	544.96
57.1292	540.76
57.1436	507.30
57.1581	490.95
57.1725	515.52
57.1869	522.26
57.2014	505.36
57.2158	491.74
57.2303	511.61
57.2447	552.96
57.2591	553.21
57.2736	526.50
57.2880	565.23
57.3025	538.55
57.3169	521.60
57.3313	533.62
57.3458	527.95
57.3602	537.89
57.3747	520.88
57.3891	515.41
57.4035	499.35
57.4180	547.12
57.4324	538.37
57.4469	490.26
57.4613	534.68
57.4757	564.56
57.4902	528.95
57.5046	524.87
57.5191	515.78
57.5335	536.92
57.5479	531.81
57.5624	521.10
57.5768	492.23
57.5913	507.68
57.6057	526.87
57.6201	538.76
57.6346	521.07
57.6490	488.69
57.6635	520.95
57.6779	495.74
57.6923	507.54
57.7068	527.88
57.7212	537.91
57.7357	541.10
57.7501	515.70
57.7645	527.51
57.7790	519.09
57.7934	537.60
57.8079	546.73
57.8223	529.25
57.8367	530.93
57.8512	513.83
57.8656	560.14
57.8801	545.03
57.8945	526.77
57.9089	559.17
57.9234	533.92
57.9378	550.22
57.9523	562.30
57.9667	532.88
57.9811	531.93
57.9956	540.43
58.0100	517.82
58.0245	535.61
58.0389	548.76
58.0533	518.83
58.0678	548.65
58.0822	568.25
58.0967	560.74
58.1111	554.09
58.1255	602.40
58.1400	562.25
58.1544	553.55
58.1689	555.31
58.1833	565.35
58.1977	602.80
58.2122	624.16
58.2266	597.51
58.2411	605.65
58.2555	596.28
58.2699	598.02
58.2844	656.40
58.2988	627.12
58.3133	607.92
58.3277	607.73
58.3421	643.79
58.3566	617.71
58.3710	652.70
58.3855	633.76
58.3999	646.61
58.4143	624.23
58.4288	682.54
58.4432	650.62
58.4577	582.33
58.4721	616.73
58.4865	622.19
58.5010	635.45
58.5154	633.34
58.5299	617.73
58.5443	607.37
58.5587	587.82
58.5732	587.00
58.5876	576.61
58.6021	563.64
58.6165	529.89
58.6309	555.47
58.6454	619.96
58.6598	576.68
58.6743	596.08
58.6887	573.30
58.7031	543.05
58.7176	548.79
58.7320	555.20
58.7465	577.00
58.7609	532.32
58.7753	560.75
58.7898	514.81
58.8042	511.84
58.8187	551.39
58.8331	567.59
58.8475	553.42
58.8620	524.87
58.8764	543.71
58.8909	535.64
58.9053	569.97
58.9197	534.30
58.9342	536.92
58.9486	543.18
58.9631	549.88
58.9775	531.83
58.9919	510.73
59.0064	523.02
59.0208	541.93
59.0353	522.26
59.0497	476.95
59.0641	541.22
59.0786	562.25
59.0930	552.04
59.1075	539.37
59.1219	524.75
59.1363	564.70
59.1508	518.71
59.1652	543.32
59.1797	588.38
59.1941	579.88
59.2085	564.37
59.2230	542.10
59.2374	562.82
59.2519	559.75
59.2663	548.83
59.2807	558.90
59.2952	520.57
59.3096	551.18
59.3241	551.77
59.3385	555.36
59.3529	551.17
59.3674	553.22
59.3818	601.51
59.3963	559.89
59.4107	543.97
59.4251	582.07
59.4396	571.28
59.4540	565.41
59.4685	603.39
59.4829	587.17
59.4973	585.05
59.5118	578.36
59.5262	550.52
59.5407	547.44
59.5551	557.87
59.5695	543.60
59.5840	536.51
59.5984	557.20
59.6129	566.85
59.6273	544.44
59.6417	538.17
59.6562	544.33
59.6706	557.13
59.6851	563.39
59.6995	544.86
59.7139	549.74
59.7284	505.35
59.7428	526.85
59.7573	533.74
59.7717	557.80
59.7861	543.21
59.8006	508.52
59.8150	499.48
59.8295	527.33
59.8439	515.96
59.8583	566.66
59.8728	556.11
59.8872	551.49
59.9017	578.98
59.9161	531.62
59.9305	548.73
59.9450	537.27
59.9594	504.13
59.9739	494.13
59.9883	545.35
60.0027	547.71
60.0172	555.08
60.0316	600.67
60.0461	538.86
60.0605	566.14
60.0750	567.04
60.0894	580.49
60.1038	557.44
60.1183	577.00
60.1327	540.46
60.1472	511.76
60.1616	537.95
60.1760	544.13
60.1905	520.01
60.2049	585.47
60.2194	571.69
60.2338	546.78
60.2482	535.26
60.2627	525.76
60.2771	541.89
60.2916	545.51
60.3060	547.64
60.3204	538.20
60.3349	549.17
60.3493	521.45
60.3638	544.31
60.3782	524.33
60.3926	505.80
60.4071	537.22
60.4215	527.93
60.4360	534.10
60.4504	511.19
60.4648	536.39
60.4793	531.95
60.4937	567.99
60.5082	550.46
60.5226	543.37
60.5370	533.10
60.5515	557.61
60.5659	549.03
60.5804	528.56
60.5948	561.14
60.6092	536.09
60.6237	537.59
60.6381	543.37
60.6526	529.69
60.6670	541.18
60.6814	537.35
60.6959	545.49
60.7103	572.23
60.7248	540.91
60.7392	530.58
60.7536	490.82
60.7681	543.18
60.7825	558.80
60.7970	520.89
60.8114	552.83
60.8258	521.33
60.8403	528.30
60.8547	570.49
60.8692	574.40
60.8836	574.40
60.8980	534.17
60.9125	544.47
60.9269	548.51
60.9414	534.13
60.9558	506.03
60.9702	514.93
60.9847	563.09
60.9991	527.88
61.0136	551.62
61.0280	516.28
61.0424	510.64
61.0569	528.14
61.0713	574.73
61.0858	560.13
61.1002	546.24
61.1146	573.55
61.1291	569.02
61.1435	539.86
61.1580	512.01
61.1724	557.65
61.1868	562.20
61.2013	545.37
61.2157	574.80
61.2302	542.71
61.2446	545.32
61.2590	543.34
61.2735	522.99
61.2879	536.18
61.3024	588.03
61.3168	583.24
61.3312	590.93
61.3457	560.09
61.3601	520.06
61.3746	551.51
61.3890	546.31
61.4034	522.50
61.4179	534.07
61.4323	578.77
61.4468	533.90
61.4612	540.24
61.4756	565.24
61.4901	540.86
61.5045	585.84
61.5190	543.79
61.5334	544.83
61.5478	557.61
61.5623	537.17
61.5767	554.82
61.5912	553.16
61.6056	550.93
61.6200	546.38
61.6345	561.80
61.6489	554.02
61.6634	577.00
61.6778	584.25
61.6922	579.51
61.7067	560.15
61.7211	566.65
61.7356	510.94
61.7500	558.64
61.7644	564.46
61.7789	556.69
61.7933	553.71
61.8078	546.68
61.8222	560.81
61.8366	560.24
61.8511	563.49
61.8655	557.97
61.8800	505.97
61.8944	560.85
61.9088	562.32
61.9233	567.69
61.9377	574.54
61.9522	564.07
61.9666	578.37
61.9810	571.99
61.9955	533.87
62.0099	549.56
62.0244	577.75
62.0388	548.98
62.0532	551.82
62.0677	572.46
62.0821	581.38
62.0966	569.74
62.1110	584.59
62.1254	587.45
62.1399	537.83
62.1543	514.17
62.1688	564.40
62.1832	563.15
62.1976	535.02
62.2121	565.86
62.2265	565.00
62.2410	541.52
62.2554	538.27
62.2698	550.35
62.2843	549.59
62.2987	566.26
62.3132	558.53
62.3276	547.42
62.3420	560.44
62.3565	517.19
62.3709	527.19
62.3854	557.79
62.3998	541.78
62.4142	520.93
62.4287	526.89
62.4431	540.89
62.4576	533.10
62.4720	606.95
62.4864	550.35
62.5009	521.44
62.5153	550.95
62.5298	564.68
62.5442	566.32
62.5586	565.25
62.5731	575.92
62.5875	564.16
62.6020	550.78
62.6164	569.20
62.6308	547.33
62.6453	530.57
62.6597	535.34
62.6742	553.26
62.6886	552.67
62.7030	565.12
62.7175	558.05
62.7319	553.53
62.7464	562.54
62.7608	550.85
62.7752	545.08
62.7897	523.24
62.8041	558.85
62.8186	564.64
62.8330	536.23
62.8474	556.75
62.8619	563.00
62.8763	543.22
62.8908	513.82
62.9052	585.28
62.9196	578.63
62.9341	605.40
62.9485	578.28
62.9630	521.66
62.9774	556.17
62.9918	603.14
63.0063	601.19
63.0207	575.62
63.0352	552.10
63.0496	565.39
63.0640	548.17
63.0785	557.75
63.0929	564.91
63.1074	578.20
63.1218	583.65
63.1362	569.79
63.1507	547.20
63.1651	562.92
63.1796	577.85
63.1940	563.97
63.2084	563.67
63.2229	571.80
63.2373	540.64
63.2518	572.14
63.2662	550.52
63.2806	561.10
63.2951	562.10
63.3095	539.96
63.3240	562.34
63.3384	559.73
63.3528	585.21
63.3673	577.24
63.3817	578.52
63.3962	568.26
63.4106	557.42
63.4250	585.07
63.4395	603.22
63.4539	591.13
63.4684	587.66
63.4828	576.75
63.4972	589.87
63.5117	570.25
63.5261	576.22
63.5406	564.27
63.5550	582.35
63.5694	571.88
63.5839	567.83
63.5983	623.33
63.6128	589.10
63.6272	571.68
63.6416	582.08
63.6561	582.39
63.6705	572.08
63.6850	576.60
63.6994	593.92
63.7138	646.16
63.7283	596.28
63.7427	638.56
63.7572	602.12
63.7716	612.37
63.7861	639.42
63.8005	612.67
63.8149	655.41
63.8294	643.74
63.8438	606.08
63.8583	640.62
63.8727	678.91
63.8871	632.20
63.9016	662.14
63.9160	729.20
63.9305	681.14
63.9449	730.47
63.9593	685.06
63.9738	742.41
63.9882	712.55
64.0027	733.73
64.0171	698.46
64.0315	767.59
64.0460	755.47
64.0604	758.02
64.0749	720.57
64.0893	755.71
64.1037	751.69
64.1182	778.23
64.1326	762.70
64.1471	739.60
64.1615	783.03
64.1759	788.07
64.1904	774.99
64.2048	719.81
64.2193	746.26
64.2337	741.02
64.2481	741.77
64.2626	747.81
64.2770	718.94
64.2915	691.14
64.3059	690.22
64.3203	721.39
64.3348	753.75
64.3492	722.47
64.3637	752.09
64.3781	700.07
64.3925	708.39
64.4070	696.38
64.4214	676.73
64.4359	632.82
64.4503	642.28
64.4647	634.48
64.4792	638.60
64.4936	632.32
64.5081	633.38
64.5225	647.49
64.5369	627.93
64.5514	629.67
64.5658	669.58
64.5803	643.13
64.5947	656.48
64.6091	642.29
64.6236	676.23
64.6380	683.32
64.6525	697.91
64.6669	669.11
64.6813	630.13
64.6958	678.28
64.7102	724.35
64.7247	678.52
64.7391	675.49
64.7535	693.88
64.7680	713.45
64.7824	749.64
64.7969	748.39
64.8113	771.37
64.8257	767.62
64.8402	841.39
64.8546	811.08
64.8691	827.60
64.8835	848.99
64.8979	851.82
64.9124	879.85
64.9268	901.31
64.9413	855.05
64.9557	862.43
64.9701	962.76
64.9846	1030.66
64.9990	1075.02
65.0135	1192.10
65.0279	1382.47
65.0423	1566.27
65.0568	1972.00
65.0712	2506.61
65.0857	3278.24
65.1001	4320.94
65.1145	5845.75
65.1290	7642.51
65.1434	9490.66
65.1579	11118.26
65.1723	11720.17
65.1867	11453.57
65.2012	10332.64
65.2156	8538.25
65.2301	6718.83
65.2445	5411.63
65.2589	4521.64
65.2734	4142.37
65.2878	4336.43
65.3023	4819.99
65.3167	5653.88
65.3311	6412.98
65.3456	6990.20
65.3600	7024.83
65.3745	6444.08
65.3889	5440.53
65.4033	4452.43
65.4178	3522.25
65.4322	2800.27
65.4467	2135.77
65.4611	1733.88
65.4755	1489.15
65.4900	1273.73
65.5044	1118.84
65.5189	1052.62
65.5333	1022.62
65.5477	922.35
65.5622	830.10
65.5766	819.23
65.5911	852.29
65.6055	814.11
65.6199	758.78
65.6344	774.16
65.6488	778.47
65.6633	770.99
65.6777	705.54
65.6921	692.37
65.7066	725.92
65.7210	663.13
65.7355	679.15
65.7499	708.09
65.7643	688.69
65.7788	671.38
65.7932	678.51
65.8077	674.02
65.8221	662.93
65.8365	641.97
65.8510	644.20
65.8654	663.80
65.8799	646.92
65.8943	643.37
65.9087	667.62
65.9232	667.12
65.9376	658.75
65.9521	612.74
65.9665	610.49
65.9809	620.34
65.9954	625.12
66.0098	610.51
66.0243	583.29
66.0387	630.63
66.0531	596.86
66.0676	630.57
66.0820	617.49
66.0965	612.10
66.1109	650.40
66.1253	645.30
66.1398	607.72
66.1542	587.73
66.1687	603.19
66.1831	589.93
66.1975	625.90
66.2120	644.71
66.2264	607.06
66.2409	629.13
66.2553	640.63
66.2697	591.58
66.2842	613.47
66.2986	563.77
66.3131	575.84
66.3275	593.89
66.3419	624.25
66.3564	629.61
66.3708	627.06
66.3853	620.70
66.3997	585.45
66.4141	591.65
66.4286	622.33
66.4430	596.87
66.4575	610.81
66.4719	607.04
66.4863	625.13
66.5008	620.52
66.5152	594.30
66.5297	582.92
66.5441	615.90
66.5585	596.49
66.5730	571.52
66.5874	583.78
66.6019	612.13
66.6163	585.07
66.6307	569.44
66.6452	570.95
66.6596	576.34
66.6741	599.26
66.6885	591.67
66.7029	600.40
66.7174	621.65
66.7318	615.61
66.7463	611.40
66.7607	607.24
66.7751	607.55
66.7896	592.51
66.8040	615.59
66.8185	612.16
66.8329	578.63
66.8473	584.41
66.8618	600.51
66.8762	603.35
66.8907	598.51
66.9051	612.75
66.9195	563.14
66.9340	574.69
66.9484	581.15
66.9629	564.32
66.9773	561.56
66.9917	584.72
67.0062	617.58
67.0206	545.92
67.0351	556.30
67.0495	567.25
67.0639	594.50
67.0784	575.22
67.0928	600.92
67.1073	597.14
67.1217	616.24
67.1361	600.46
67.1506	568.53
67.1650	594.79
67.1795	611.02
67.1939	585.41
67.2083	575.66
67.2228	592.66
67.2372	594.56
67.2517	583.29
67.2661	549.80
67.2805	607.95
67.2950	600.82
67.3094	587.06
67.3239	589.65
67.3383	576.08
67.3527	541.95
67.3672	571.39
67.3816	602.61
67.3961	574.93
67.4105	588.48
67.4250	596.39
67.4394	557.58
67.4538	576.30
67.4683	599.31
67.4827	600.02
67.4972	556.33
67.5116	594.71
67.5260	582.09
67.5405	606.11
67.5549	602.23
67.5694	575.89
67.5838	565.48
67.5982	588.44
67.6127	596.80
67.6271	570.19
67.6416	583.47
67.6560	615.82
67.6704	597.64
67.6849	564.27
67.6993	605.14
67.7138	621.37
67.7282	569.58
67.7426	560.17
67.7571	553.50
67.7715	587.64
67.7860	591.38
67.8004	582.25
67.8148	570.00
67.8293	574.72
67.8437	589.16
67.8582	569.54
67.8726	550.70
67.8870	560.76
67.9015	595.79
67.9159	618.64
67.9304	536.89
67.9448	549.56
67.9592	534.58
67.9737	562.89
67.9881	577.39
68.0026	578.86
68.0170	561.48
68.0314	570.86
68.0459	608.86
68.0603	564.67
68.0748	572.63
68.0892	583.98
68.1036	586.59
68.1181	595.33
68.1325	578.40
68.1470	562.56
68.1614	585.52
68.1758	596.85
68.1903	588.91
68.2047	541.95
68.2192	579.69
68.2336	580.82
68.2480	572.05
68.2625	560.49
68.2769	534.25
68.2914	574.06
68.3058	553.31
68.3202	557.95
68.3347	574.62
68.3491	596.42
68.3636	603.74
68.3780	597.53
68.3924	568.80
68.4069	566.92
68.4213	594.56
68.4358	588.73
68.4502	573.95
68.4646	620.26
68.4791	559.49
68.4935	580.98
68.5080	549.65
68.5224	574.15
68.5368	624.10
68.5513	630.82
68.5657	565.71
68.5802	602.70
68.5946	582.33
68.6090	619.14
68.6235	538.09
68.6379	582.40
68.6524	574.00
68.6668	615.31
68.6812	575.61
68.6957	582.25
68.7101	618.44
68.7246	568.02
68.7390	569.36
68.7534	580.62
68.7679	583.15
68.7823	577.92
68.7968	583.72
68.8112	580.69
68.8256	583.79
68.8401	586.42
68.8545	536.42
68.8690	603.34
68.8834	594.21
68.8978	566.42
68.9123	526.39
68.9267	536.47
68.9412	562.27
68.9556	600.49
68.9700	582.39
68.9845	540.03
68.9989	507.29
69.0134	541.70
69.0278	587.86
69.0422	573.30
69.0567	595.71
69.0711	579.82
69.0856	637.13
69.1000	588.16
69.1144	599.23
69.1289	596.30
69.1433	576.54
69.1578	593.29
69.1722	568.94
69.1866	584.16
69.2011	564.88
69.2155	615.13
69.2300	567.91
69.2444	599.42
69.2588	599.11
69.2733	600.12
69.2877	551.46
69.3022	580.24
69.3166	548.24
69.3310	556.25
69.3455	571.70
69.3599	582.71
69.3744	525.45
69.3888	546.77
69.4032	564.51
69.4177	583.74
69.4321	546.16
69.4466	597.72
69.4610	538.41
69.4754	554.32
69.4899	599.14
69.5043	558.44
69.5188	573.60
69.5332	553.32
69.5476	582.19
69.5621	571.99
69.5765	577.05
69.5910	591.65
69.6054	562.11
69.6198	575.08
69.6343	607.42
69.6487	596.37
69.6632	581.43
69.6776	583.87
69.6920	544.94
69.7065	620.67
69.7209	568.19
69.7354	530.78
69.7498	580.75
69.7642	584.17
69.7787	557.29
69.7931	579.92
69.8076	594.55
69.8220	554.34
69.8364	566.26
69.8509	593.45
69.8653	575.36
69.8798	597.32
69.8942	570.76
69.9086	618.60
69.9231	546.41
69.9375	554.39
69.9520	574.99
69.9664	522.18
69.9808	534.95
69.9953	537.62
70.0097	546.29
70.0242	606.43
70.0386	606.60
70.0530	564.42
70.0675	594.48
70.0819	597.03
70.0964	667.14
70.1108	609.14
70.1252	567.55
70.1397	505.65
70.1541	578.16
70.1686	566.65
70.1830	590.68
70.1974	536.25
70.2119	539.03
70.2263	536.76
70.2408	496.04
70.2552	537.17
70.2696	573.20
70.2841	544.91
70.2985	547.12
70.3130	565.47
70.3274	575.87
70.3418	544.55
70.3563	569.82
70.3707	522.10
70.3852	529.14
70.3996	539.01
70.4140	600.78
70.4285	596.17
70.4429	586.89
70.4574	590.55
70.4718	597.62
70.4862	578.29
70.5007	545.82
70.5151	491.62
70.5296	513.84
70.5440	565.79
70.5584	563.72
70.5729	568.17
70.5873	535.52
70.6018	536.59
70.6162	562.94
70.6306	549.73
70.6451	540.69
70.6595	604.62
70.6740	578.67
70.6884	536.24
70.7028	582.38
70.7173	592.99
70.7317	537.15
70.7462	582.57
70.7606	577.69
70.7750	606.83
70.7895	598.47
70.8039	642.19
70.8184	636.11
70.8328	615.02
70.8472	543.58
70.8617	591.75
70.8761	564.31
70.8906	530.59
70.9050	552.52
70.9194	562.63
70.9339	574.77
70.9483	608.03
70.9628	570.87
70.9772	535.65
70.9916	590.14
71.0061	602.58
71.0205	590.15
71.0350	572.41
71.0494	574.37
71.0638	559.58
71.0783	615.50
71.0927	626.73
71.1072	594.13
71.1216	534.66
71.1361	530.59
71.1505	548.63
71.1649	513.67
71.1794	536.92
71.1938	605.36
71.2083	566.64
71.2227	548.33
71.2371	621.19
71.2516	614.88
71.2660	599.01
71.2805	588.50
71.2949	564.17
71.3093	516.69
71.3238	559.16
71.3382	596.51
71.3527	549.13
71.3671	540.52
71.3815	549.77
71.3960	547.28
71.4104	599.13
71.4249	606.56
71.4393	559.77
71.4537	571.21
71.4682	637.70
71.4826	610.17
71.4971	567.11
71.5115	575.00
71.5259	558.83
71.5404	548.05
71.5548	595.63
71.5693	615.86
71.5837	578.33
71.5981	562.70
71.6126	597.15
71.6270	600.24
71.6415	572.52
71.6559	595.18
71.6703	599.85
71.6848	623.59
71.6992	624.86
71.7137	579.73
71.7281	569.69
71.7425	545.66
71.7570	546.64
71.7714	514.33
71.7859	570.39
71.8003	618.40
71.8147	583.93
71.8292	586.68
71.8436	627.95
71.8581	626.13
71.8725	608.52
71.8869	569.88
71.9014	555.77
71.9158	550.85
71.9303	569.13
71.9447	541.36
71.9591	616.81
71.9736	623.01
71.9880	488.83
72.0025	478.96
72.0169	485.52
72.0313	524.11
72.0458	525.88
72.0602	550.11
72.0747	592.51
72.0891	603.45
72.1035	581.78
72.1180	554.35
72.1324	605.35
72.1469	554.51
72.1613	528.88
72.1757	544.24
72.1902	565.79
72.2046	551.25
72.2191	640.75
72.2335	617.78
72.2479	573.68
72.2624	599.38
72.2768	623.65
72.2913	577.08
72.3057	599.23
72.3201	640.36
72.3346	591.30
72.3490	552.42
72.3635	571.71
72.3779	584.54
72.3923	600.46
72.4068	606.20
72.4212	590.76
72.4357	570.65
72.4501	554.99
72.4645	569.25
72.4790	620.64
72.4934	617.08
72.5079	637.92
72.5223	575.74
72.5367	525.47
72.5512	511.83
72.5656	565.62
72.5801	592.68
72.5945	501.23
72.6089	540.40
72.6234	639.61
72.6378	617.16
72.6523	611.37
72.6667	633.16
72.6811	584.43
72.6956	616.78
72.7100	632.43
72.7245	615.35
72.7389	601.33
72.7533	585.52
72.7678	608.71
72.7822	611.55
72.7967	594.89
72.8111	629.40
72.8255	663.91
72.8400	693.74
72.8544	667.48
72.8689	574.37
72.8833	551.54

Result vector
22.1120	511.34
22.1264	452.16
22.1409	591.41
22.1553	650.76
22.1697	533.37
22.1842	491.85
22.1986	522.23
22.2131	419.05
22.2275	479.26
22.2419	571.27
22.2564	580.06
22.2708	550.95
22.2853	551.29
22.2997	525.27
22.3141	561.71
22.3286	583.86
22.3430	518.32
22.3575	539.57
22.3719	664.78
22.3863	608.41
22.4008	548.62
22.4152	564.79
22.4297	657.13
22.4441	604.23
22.4585	610.37
22.4730	580.84
22.4874	573.19
22.5019	544.45
22.5163	535.55
22.5307	560.19
22.5452	542.45
22.5596	562.07
22.5741	565.44
22.5885	604.80
22.6029	619.26
22.6174	544.80
22.6318	625.63
22.6463	603.70
22.6607	515.10
22.6751	549.59
22.6896	542.14
22.7040	490.42
22.7185	618.55
22.7329	632.20
22.7473	572.86
22.7618	512.18
22.7762	553.72
22.7907	566.25
22.8051	539.12
22.8195	546.56
22.8340	570.62
22.8484	565.35
22.8629	631.09
22.8773	582.10
22.8917	517.64
22.9062	556.40
22.9206	523.32
22.9351	539.16
22.9495	543.38
22.9639	583.52
22.9784	616.96
22.9928	579.56
23.0073	552.23
23.0217	557.18
23.0361	608.77
23.0506	563.17
23.0650	565.00
23.0795	488.91
23.0939	591.78
23.1083	583.58
23.1228	566.41
23.1372	580.21
23.1517	555.50
23.1661	564.53
23.1806	578.24
23.1950	544.18
23.2094	543.79
23.2239	609.48
23.2383	548.29
23.2528	593.44
23.2672	560.39
23.2816	601.20
23.2961	566.66
23.3105	587.79
23.3250	530.97
23.3394	573.72
23.3538	587.88
23.3683	594.51
23.3827	512.64
23.3972	591.85
23.4116	502.85
23.4260	540.55
23.4405	524.86
23.4549	571.64
23.4694	581.13
23.4838	538.47
23.4982	574.35
23.5127	573.55
23.5271	564.78
23.5416	604.60
23.5560	638.08
23.5704	549.15
23.5849	526.13
23.5993	481.30
23.6138	541.41
23.6282	483.19
23.6426	572.56
23.6571	537.33
23.6715	570.18
23.6860	577.84
23.7004	513.55
23.7148	592.92
23.7293	587.17
23.7437	572.36
23.7582	541.03
23.7726	544.46
23.7870	625.10
23.8015	550.02
23.8159	529.76
23.8304	573.12
23.8448	527.80
23.8592	589.43
23.8737	544.04
23.8881	512.57
23.9026	646.03
23.9170	507.11
23.9314	560.85
23.9459	556.35
23.9603	505.39
23.9748	573.65
23.9892	623.48
24.0036	572.20
24.0181	540.02
24.0325	629.54
24.0470	604.02
24.0614	503.89
24.0758	606.58
24.0903	570.18
24.1047	561.53
24.1192	530.15
24.1336	525.46
24.1480	543.97
24.1625	630.46
24.1769	569.94
24.1914	574.92
24.2058	551.69
24.2202	639.94
24.2347	597.97
24.2491	627.05
24.2636	555.04
24.2780	571.08
24.2924	592.95
24.3069	542.65
24.3213	561.86
24.3358	580.69
24.3502	561.36
24.3646	517.91
24.3791	562.82
24.3935	517.85
24.4080	537.68
24.4224	566.46
24.4368	560.52
24.4513	563.59
24.4657	565.62
24.4802	578.55
24.4946	532.09
24.5090	565.18
24.5235	512.32
24.5379	506.85
24.5524	586.11
24.5668	600.59
24.5812	566.08
24.5957	630.14
24.6101	577.31
24.6246	523.56
24.6390	597.21
24.6534	554.29
24.6679	560.10
24.6823	527.23
24.6968	508.61
24.7112	577.03
24.7256	538.55
24.7401	561.42
24.7545	544.01
24.7690	538.50
24.7834	544.97
24.7978	545.68
24.8123	573.29
24.8267	548.11
24.8412	545.58
24.8556	565.89
24.8700	562.86
24.8845	518.30
24.8989	609.13
24.9134	577.97
24.9278	498.41
24.9422	536.62
24.9567	547.81
24.9711	519.04
24.9856	537.01
25.0000	506.64
25.0144	578.38
25.0289	607.39
25.0433	534.96
25.0578	524.31
25.0722	523.05
25.0866	538.83
25.1011	539.60
25.1155	560.69
25.1300	562.86
25.1444	508.14
25.1588	509.28
25.1733	525.90
25.1877	561.41
25.2022	530.69
25.2166	547.92
25.2310	522.25
25.2455	556.68
25.2599	521.94
25.2744	554.92
25.2888	549.96
25.3032	564.65
25.3177	546.61
25.3321	553.42
25.3466	532.12
25.3610	555.42
25.3754	532.86
25.3899	525.56
25.4043	526.87
25.4188	559.48
25.4332	582.15
25.4476	545.94
25.4621	538.84
25.4765	530.47
25.4910	534.65
25.5054	530.64
25.5198	518.28
25.5343	569.90
25.5487	529.13
25.5632	558.56
25.5776	499.21
25.5920	537.65
25.6065	548.96
25.6209	539.61
25.6354	540.92
25.6498	527.17
25.6642	513.82
25.6787	546.20
25.6931	535.81
25.7076	580.68
25.7220	532.74
25.7364	536.30
25.7509	548.49
25.7653	585.83
25.7798	560.40
25.7942	505.55
25.8086	536.15
25.8231	567.46
25.8375	557.22
25.8520	540.82
25.8664	533.46
25.8808	520.79
25.8953	520.96
25.9097	551.75
25.9242	537.29
25.9386	530.77
25.9530	570.34
25.9675	517.77
25.9819	535.68
25.9964	538.16
26.0108	520.71
26.0252	522.65
26.0397	565.32
26.0541	578.31
26.0686	586.15
26.0830	561.92
26.0974	544.00
26.1119	524.90
26.1263	541.24
26.1408	543.39
26.1552	528.57
26.1696	555.49
26.1841	526.22
26.1985	525.89
26.2130	533.54
26.2274	518.83
26.2418	514.58
26.2563	493.89
26.2707	505.67
26.2852	525.11
26.2996	512.51
26.3140	521.22
26.3285	506.42
26.3429	543.30
26.3574	546.61
26.3718	547.13
26.3862	530.22
26.4007	497.70
26.4151	529.90
26.4296	538.89
26.4440	523.49
26.4584	528.82
26.4729	556.25
26.4873	535.18
26.5018	522.20
26.5162	521.53
26.5306	542.25
26.5451	552.28
26.5595	535.69
26.5740	549.57
26.5884	536.01
26.6028	541.74
26.6173	528.75
26.6317	517.59
26.6462	539.67
26.6606	566.23
26.6750	566.45
26.6895	514.25
26.7039	547.86
26.7184	521.97
26.7328	527.25
26.7472	518.75
26.7617	526.82
26.7761	545.46
26.7906	551.44
26.8050	575.77
26.8194	527.28
26.8339	511.25
26.8483	528.07
26.8628	544.97
26.8772	539.33
26.8917	553.77
26.9061	557.01
26.9205	506.09
26.9350	517.92
26.9494	549.79
26.9639	559.37
26.9783	519.75
26.9927	497.61
27.0072	501.79
27.0216	512.86
27.0361	523.44
27.0505	574.46
27.0649	540.09
27.0794	502.33
27.0938	524.47
27.1083	517.92
27.1227	525.53
27.1371	537.58
27.1516	500.62
27.1660	504.02
27.1805	505.51
27.1949	468.56
27.2093	528.89
27.2238	530.00
27.2382	522.32
27.2527	529.52
27.2671	539.64
27.2815	570.59
27.2960	545.47
27.3104	538.36
27.3249	518.91
27.3393	524.16
27.3537	508.14
27.3682	513.22
27.3826	505.76
27.3971	507.21
27.4115	522.24
27.4259	540.58
27.4404	538.74
27.4548	546.46
27.4693	555.38
27.4837	502.22
27.4981	495.58
27.5126	508.65
27.5270	534.46
27.5415	525.65
27.5559	555.36
27.5703	509.62
27.5848	523.69
27.5992	564.10
27.6137	525.71
27.6281	526.98
27.6425	520.97
27.6570	510.68
27.6714	504.66
27.6859	540.99
27.7003	573.33
27.7147	518.52
27.7292	482.44
27.7436	499.54
27.7581	513.52
27.7725	483.46
27.7869	561.70
27.8014	546.37
27.8158	565.80
27.8303	531.40
27.8447	541.99
27.8591	555.16
27.8736	532.08
27.8880	539.51
27.9025	549.80
27.9169	556.71
27.9313	547.19
27.9458	555.23
27.9602	495.32
27.9747	490.34
27.9891	469.33
28.0035	512.05
28.0180	468.89
28.0324	501.49
28.0469	522.05
28.0613	491.94
28.0757	492.20
28.0902	545.50
28.1046	546.95
28.1191	517.20
28.1335	515.97
28.1479	553.78
28.1624	537.97
28.1768	501.87
28.1913	531.50
28.2057	530.36
28.2201	515.06
28.2346	524.57
28.2490	532.83
28.2635	540.58
28.2779	521.54
28.2923	513.98
28.3068	497.42
28.3212	509.89
28.3357	539.70
28.3501	512.04
28.3645	486.52
28.3790	525.72
28.3934	526.43
28.4079	495.69
28.4223	517.02
28.4367	504.54
28.4512	500.40
28.4656	521.50
28.4801	532.66
28.4945	533.35
28.5089	524.86
28.5234	480.61
28.5378	491.00
28.5523	526.12
28.5667	531.82
28.5811	484.07
28.5956	517.53
28.6100	503.46
28.6245	493.63
28.6389	501.16
28.6533	508.90
28.6678	501.48
28.6822	498.22
28.6967	514.46
28.7111	541.63
28.7255	509.43
28.7400	471.57
28.7544	488.38
28.7689	503.62
28.7833	527.15
28.7977	523.06
28.8122	497.73
28.8266	512.59
28.8411	519.84
28.8555	531.70
28.8699	494.13
28.8844	481.89
28.8988	494.02
28.9133	514.41
28.9277	522.81
28.9421	487.67
28.9566	502.73
28.9710	505.03
28.9855	499.07
28.9999	482.85
29.0143	480.94
29.0288	490.19
29.0432	514.96
29.0577	504.43
29.0721	529.79
29.0865	531.79
29.1010	523.13
29.1154	530.46
29.1299	486.95
29.1443	494.71
29.1587	507.37
29.1732	546.05
29.1876	489.97
29.2021	466.58
29.2165	490.65
29.2309	501.22
29.2454	493.84
29.2598	512.08
29.2743	539.28
29.2887	507.30
29.3031	512.12
29.3176	525.26
29.3320	517.93
29.3465	513.38
29.3609	498.27
29.3753	508.18
29.3898	477.72
29.4042	486.49
29.4187	512.54
29.4331	527.87
29.4475	513.05
29.4620	505.20
29.4764	521.80
29.4909	537.72
29.5053	538.71
29.5197	506.99
29.5342	484.29
29.5486	512.66
29.5631	505.71
29.5775	466.85
29.5919	480.79
29.6064	492.34
29.6208	496.98
29.6353	521.17
29.6497	500.64
29.6641	509.82
29.6786	504.58
29.6930	498.59
29.7075	499.96
29.7219	525.21
29.7363	496.20
29.7508	503.45
29.7652	507.49
29.7797	540.77
29.7941	528.80
29.8085	494.34
29.8230	497.19
29.8374	527.06
29.8519	514.16
29.8663	514.31
29.8807	491.60
29.8952	485.41
29.9096	492.27
29.9241	516.72
29.9385	521.37
29.9529	523.37
29.9674	510.21
29.9818	511.46
29.9963	490.95
30.0107	474.47
30.0251	506.53
30.0396	511.29
30.0540	504.91
30.0685	543.26
30.0829	503.92
30.0973	508.22
30.1118	476.54
30.1262	509.84
30.1407	507.91
30.1551	501.99
30.1695	507.46
30.1840	505.17
30.1984	490.36
30.2129	499.51
30.2273	516.21
30.2417	515.46
30.2562	502.45
30.2706	497.32
30.2851	495.35
30.2995	519.26
30.3139	506.37
30.3284	504.99
30.3428	514.17
30.3573	493.30
30.3717	520.02
30.3861	505.44
30.4006	524.42
30.4150	483.26
30.4295	524.86
30.4439	502.50
30.4583	510.07
30.4728	539.43
30.4872	518.05
30.5017	527.83
30.5161	531.21
30.5305	520.93
30.5450	524.92
30.5594	530.67
30.5739	482.39
30.5883	492.63
30.6028	527.76
30.6172	553.15
30.6316	552.65
30.6461	554.11
30.6605	541.97
30.6750	555.52
30.6894	566.94
30.7038	580.88
30.7183	589.69
30.7327	617.15
30.7472	634.63
30.7616	625.18
30.7760	670.69
30.7905	663.06
30.8049	672.22
30.8194	713.73
30.8338	689.78
30.8482	634.13
30.8627	664.66
30.8771	678.51
30.8916	644.21
30.9060	665.66
30.9204	597.21
30.9349	596.60
30.9493	613.47
30.9638	602.46
30.9782	590.92
30.9926	573.13
31.0071	555.40
31.0215	530.19
31.0360	537.48
31.0504	538.99
31.0648	535.85
31.0793	552.39
31.0937	538.34
31.1082	514.98
31.1226	541.96
31.1370	523.12
31.1515	527.97
31.1659	526.44
31.1804	505.34
31.1948	501.14
31.2092	535.98
31.2237	546.99
31.2381	554.90
31.2526	535.74
31.2670	515.12
31.2814	523.83
31.2959	508.15
31.3103	509.23
31.3248	538.43
31.3392	551.27
31.3536	546.83
31.3681	510.99
31.3825	518.98
31.3970	510.09
31.4114	518.63
31.4258	533.72
31.4403	508.38
31.4547	540.08
31.4692	555.62
31.4836	533.45
31.4980	515.98
31.5125	491.77
31.5269	509.63
31.5414	524.08
31.5558	509.61
31.5702	488.95
31.5847	536.74
31.5991	474.04
31.6136	485.48
31.6280	488.19
31.6424	491.91
31.6569	497.39
31.6713	510.12
31.6858	482.63
31.7002	486.45
31.7146	519.43
31.7291	504.02
31.7435	514.60
31.7580	532.19
31.7724	507.50
31.7868	507.82
31.8013	487.46
31.8157	526.24
31.8302	500.72
31.8446	538.71
31.8590	504.28
31.8735	514.67
31.8879	514.02
31.9024	547.74
31.9168	514.38
31.9312	531.78
31.9457	508.08
31.9601	521.57
31.9746	489.99
31.9890	502.47
32.0034	492.70
32.0179	492.41
32.0323	489.03
32.0468	499.51
32.0612	483.46
32.0756	477.62
32.0901	506.07
32.1045	477.56
32.1190	494.61
32.1334	483.35
32.1478	446.13
32.1623	496.72
32.1767	500.76
32.1912	541.29
32.2056	476.63
32.2200	476.66
32.2345	494.62
32.2489	493.93
32.2634	495.59
32.2778	516.56
32.2922	506.00
32.3067	502.19
32.3211	490.39
32.3356	507.58
32.3500	500.57
32.3644	493.24
32.3789	514.62
32.3933	499.98
32.4078	490.10
32.4222	494.91
32.4366	506.76
32.4511	488.32
32.4655	507.71
32.4800	506.44
32.4944	493.55
32.5088	500.37
32.5233	492.95
32.5377	481.02
32.5522	541.63
32.5666	511.60
32.5810	499.49
32.5955	484.78
32.6099	538.59
32.6244	504.66
32.6388	513.96
32.6532	511.20
32.6677	508.31
32.6821	531.69
32.6966	477.36
32.7110	513.00
32.7254	499.02
32.7399	498.78
32.7543	497.19
32.7688	453.56
32.7832	522.89
32.7976	480.19
32.8121	488.50
32.8265	505.25
32.8410	473.54
32.8554	516.82
32.8698	502.92
32.8843	493.19
32.8987	517.64
32.9132	481.12
32.9276	495.29
32.9420	492.72
32.9565	457.97
32.9709	479.32
32.9854	463.27
32.9998	540.73
33.0142	489.31
33.0287	489.26
33.0431	503.30
33.0576	519.73
33.0720	480.47
33.0864	484.39
33.1009	485.65
33.1153	482.67
33.1298	505.42
33.1442	489.51
33.1586	503.85
33.1731	488.69
33.1875	496.85
33.2020	493.43
33.2164	484.98
33.2308	480.97
33.2453	495.26
33.2597	501.34
33.2742	543.65
33.2886	510.48
33.3030	496.31
33.3175	487.95
33.3319	515.50
33.3464	507.40
33.3608	527.11
33.3752	491.85
33.3897	487.14
33.4041	489.36
33.4186	480.94
33.4330	515.09
33.4474	516.50
33.4619	486.12
33.4763	523.48
33.4908	503.25
33.5052	516.10
33.5196	508.09
33.5341	492.23
33.5485	500.49
33.5630	474.31
33.5774	478.64
33.5918	475.91
33.6063	503.59
33.6207	516.47
33.6352	511.59
33.6496	505.45
33.6640	502.15
33.6785	491.26
33.6929	462.27
33.7074	511.93
33.7218	535.38
33.7362	524.83
33.7507	517.64
33.7651	494.97
33.7796	497.34
33.7940	489.49
33.8084	506.96
33.8229	543.48
33.8373	510.62
33.8518	477.73
33.8662	499.51
33.8806	494.02
33.8951	519.98
33.9095	505.44
33.9240	490.45
33.9384	528.76
33.9528	510.60
33.9673	483.03
33.9817	469.28
33.9962	510.53
34.0106	506.27
34.0250	507.26
34.0395	506.68
34.0539	538.47
34.0684	466.41
34.0828	482.24
34.0972	525.57
34.1117	490.72
34.1261	529.34
34.1406	487.04
34.1550	489.16
34.1694	508.48
34.1839	488.67
34.1983	486.41
34.2128	521.74
34.2272	513.99
34.2417	516.20
34.2561	496.33
34.2705	502.84
34.2850	529.15
34.2994	501.60
34.3139	492.30
34.3283	492.15
34.3427	534.99
34.3572	524.80
34.3716	499.59
34.3861	488.31
34.4005	481.30
34.4149	495.53
34.4294	508.51
34.4438	466.64
34.4583	485.42
34.4727	513.16
34.4871	507.43
34.5016	492.16
34.5160	502.85
34.5305	484.75
34.5449	501.06
34.5593	472.20
34.5738	498.83
34.5882	495.74
34.6027	488.71
34.6171	486.14
34.6315	497.55
34.6460	506.18
34.6604	493.90
34.6749	503.85
34.6893	508.83
34.7037	524.23
34.7182	513.02
34.7326	534.65
34.7471	538.00
34.7615	519.10
34.7759	510.86
34.7904	515.32
34.8048	516.51
34.8193	512.84
34.8337	511.31
34.8481	498.69
34.8626	524.92
34.8770	509.98
34.8915	496.02
34.9059	496.02
34.9203	502.10
34.9348	518.61
34.9492	505.00
34.9637	491.16
34.9781	488.39
34.9925	512.01
35.0070	534.21
35.0214	523.87
35.0359	545.81
35.0503	512.33
35.0647	518.74
35.0792	503.88
35.0936	493.43
35.1081	494.35
35.1225	532.42
35.1369	504.33
35.1514	501.29
35.1658	506.20
35.1803	513.31
35.1947	489.79
35.2091	502.87
35.2236	517.74
35.2380	500.00
35.2525	502.23
35.2669	494.82
35.2813	503.79
35.2958	478.41
35.3102	524.53
35.3247	522.79
35.3391	520.03
35.3535	536.51
35.3680	500.92
35.3824	515.20
35.3969	499.98
35.4113	499.09
35.4257	526.73
35.4402	520.36
35.4546	517.97
35.4691	545.56
35.4835	531.58
35.4979	521.44
35.5124	543.41
35.5268	520.42
35.5413	543.25
35.5557	546.17
35.5701	516.20
35.5846	536.69
35.5990	513.31
35.6135	520.58
35.6279	539.92
35.6423	519.78
35.6568	544.53
35.6712	498.66
35.6857	560.86
35.7001	650.70
35.7145	719.36
35.7290	628.54
35.7434	612.30
35.7579	591.56
35.7723	591.72
35.7867	628.05
35.8012	667.09
35.8156	695.61
35.8301	669.14
35.8445	645.06
35.8589	625.29
35.8734	729.01
35.8878	843.63
35.9023	981.85
35.9167	1076.52
35.9311	1316.98
35.9456	1969.80
35.9600	2294.28
35.9745	1896.36
35.9889	1926.63
36.0033	2645.07
36.0178	3155.78
36.0322	2446.94
36.0467	1942.96
36.0611	1703.73
36.0755	1556.41
36.0900	1543.61
36.1044	1314.56
36.1189	1402.15
36.1333	1349.61
36.1477	1142.67
36.1622	1152.77
36.1766	1099.92
36.1911	1034.44
36.2055	965.30
36.2199	937.42
36.2344	941.16
36.2488	922.47
36.2633	922.62
36.2777	989.96
36.2921	946.12
36.3066	946.83
36.3210	1009.05
36.3355	1006.55
36.3499	972.42
36.3643	866.52
36.3788	796.08
36.3932	801.55
36.4077	766.13
36.4221	740.99
36.4365	693.25
36.4510	700.98
36.4654	673.17
36.4799	668.40
36.4943	618.24
36.5087	586.49
36.5232	591.28
36.5376	568.16
36.5521	556.62
36.5665	559.64
36.5809	592.70
36.5954	554.87
36.6098	502.99
36.6243	542.38
36.6387	539.49
36.6531	529.86
36.6676	528.75
36.6820	524.39
36.6965	574.29
36.7109	575.96
36.7253	551.25
36.7398	558.17
36.7542	578.39
36.7687	545.62
36.7831	535.54
36.7975	538.55
36.8120	586.72
36.8264	595.16
36.8409	621.86
36.8553	613.70
36.8697	628.63
36.8842	622.46
36.8986	601.58
36.9131	616.63
36.9275	550.56
36.9419	589.24
36.9564	541.20
36.9708	514.93
36.9853	556.88
36.9997	553.28
37.0141	533.67
37.0286	545.36
37.0430	547.45
37.0575	510.56
37.0719	543.22
37.0863	553.05
37.1008	532.71
37.1152	539.60
37.1297	521.71
37.1441	504.63
37.1585	511.18
37.1730	498.70
37.1874	499.49
37.2019	518.87
37.2163	487.12
37.2307	514.57
37.2452	516.18
37.2596	492.96
37.2741	507.34
37.2885	552.06
37.3029	492.62
37.3174	481.11
37.3318	527.58
37.3463	527.30
37.3607	515.26
37.3751	534.04
37.3896	508.01
37.4040	509.17
37.4185	516.44
37.4329	487.80
37.4473	517.73
37.4618	531.11
37.4762	497.26
37.4907	504.96
37.5051	511.36
37.5195	519.23
37.5340	510.51
37.5484	534.34
37.5629	517.44
37.5773	529.16
37.5917	547.07
37.6062	516.38
37.6206	525.52
37.6351	521.19
37.6495	518.53
37.6639	516.87
37.6784	526.97
37.6928	504.36
37.7073	495.93
37.7217	530.82
37.7361	505.43
37.7506	500.00
37.7650	508.10
37.7795	502.37
37.7939	522.98
37.8083	507.03
37.8228	475.69
37.8372	501.93
37.8517	478.42
37.8661	504.52
37.8805	509.38
37.8950	490.96
37.9094	544.79
37.9239	492.86
37.9383	510.61
37.9528	485.97
37.9672	481.06
37.9816	524.78
37.9961	512.10
38.0105	474.41
38.0250	493.45
38.0394	501.01
38.0538	494.91
38.0683	521.39
38.0827	516.09
38.0972	510.18
38.1116	487.57
38.1260	458.78
38.1405	472.40
38.1549	489.90
38.1694	494.14
38.1838	493.57
38.1982	509.13
38.2127	535.90
38.2271	515.01
38.2416	506.11
38.2560	509.68
38.2704	514.83
38.2849	513.82
38.2993	516.70
38.3138	494.03
38.3282	518.75
38.3426	516.93
38.3571	499.89
38.3715	531.44
38.3860	505.38
38.4004	526.88
38.4148	583.43
38.4293	581.61
38.4437	555.34
38.4582	597.87
38.4726	637.69
38.4870	679.92
38.5015	751.40
38.5159	759.96
38.5304	774.36
38.5448	830.10
38.5592	791.03
38.5737	801.23
38.5881	764.47
38.6026	714.29
38.6170	723.58
38.6314	706.95
38.6459	652.98
38.6603	664.62
38.6748	645.27
38.6892	580.76
38.7036	584.41
38.7181	576.13
38.7325	542.91
38.7470	540.90
38.7614	527.95
38.7758	532.41
38.7903	490.13
38.8047	500.41
38.8192	499.92
38.8336	512.54
38.8480	521.71
38.8625	474.97
38.8769	483.13
38.8914	518.83
38.9058	535.29
38.9202	511.01
38.9347	495.74
38.9491	521.84
38.9636	516.56
38.9780	513.62
38.9924	476.90
39.0069	516.20
39.0213	510.53
39.0358	511.63
39.0502	513.76
39.0646	529.18
39.0791	499.27
39.0935	510.81
39.1080	517.48
39.1224	509.99
39.1368	481.46
39.1513	481.59
39.1657	507.78
39.1802	523.56
39.1946	502.16
39.2090	510.88
39.2235	511.62
39.2379	501.20
39.2524	513.18
39.2668	494.93
39.2812	506.35
39.2957	506.75
39.3101	478.04
39.3246	512.29
39.3390	536.85
39.3534	499.12
39.3679	501.63
39.3823	481.12
39.3968	495.82
39.4112	473.08
39.4256	515.38
39.4401	477.36
39.4545	470.89
39.4690	479.98
39.4834	530.75
39.4978	492.12
39.5123	497.58
39.5267	525.89
39.5412	538.94
39.5556	507.25
39.5700	489.40
39.5845	496.21
39.5989	503.25
39.6134	510.55
39.6278	476.70
39.6422	517.70
39.6567	534.47
39.6711	531.27
39.6856	484.23
39.7000	510.42
39.7144	511.30
39.7289	491.93
39.7433	482.47
39.7578	475.75
39.7722	504.97
39.7866	525.49
39.8011	546.92
39.8155	527.73
39.8300	462.83
39.8444	464.72
39.8588	510.28
39.8733	499.78
39.8877	512.11
39.9022	483.36
39.9166	473.97
39.9310	525.45
39.9455	507.46
39.9599	510.08
39.9744	501.38
39.9888	504.64
40.0032	514.12
40.0177	503.40
40.0321	492.64
40.0466	483.61
40.0610	515.82
40.0754	478.80
40.0899	515.50
40.1043	498.29
40.1188	499.25
40.1332	510.40
40.1476	474.33
40.1621	499.99
40.1765	497.93
40.1910	484.25
40.2054	482.96
40.2198	489.33
40.2343	463.71
40.2487	494.99
40.2632	480.64
40.2776	473.04
40.2920	474.52
40.3065	494.29
40.3209	499.70
40.3354	508.70
40.3498	497.26
40.3642	487.13
40.3787	515.82
40.3931	489.49
40.4076	485.45
40.4220	499.62
40.4364	492.86
40.4509	494.46
40.4653	519.00
40.4798	510.33
40.4942	503.87
40.5086	502.09
40.5231	485.01
40.5375	487.80
40.5520	463.72
40.5664	481.56
40.5808	488.66
40.5953	487.86
40.6097	495.57
40.6242	514.06
40.6386	498.11
40.6530	496.09
40.6675	485.43
40.6819	530.55
40.6964	513.30
40.7108	515.39
40.7252	477.85
40.7397	500.93
40.7541	484.83
40.7686	499.83
40.7830	525.55
40.7974	491.62
40.8119	505.59
40.8263	507.78
40.8408	479.11
40.8552	480.78
40.8696	511.68
40.8841	495.89
40.8985	497.61
40.9130	500.29
40.9274	508.82
40.9418	491.84
40.9563	527.89
40.9707	514.48
40.9852	480.47
40.9996	479.10
41.0140	479.89
41.0285	495.33
41.0429	487.83
41.0574	477.30
41.0718	481.71
41.0862	513.49
41.1007	495.35
41.1151	496.30
41.1296	525.73
41.1440	487.17
41.1584	487.81
41.1729	489.64
41.1873	490.30
41.2018	496.03
41.2162	516.15
41.2306	505.66
41.2451	515.66
41.2595	522.02
41.2740	496.35
41.2884	493.47
41.3028	511.47
41.3173	504.06
41.3317	475.78
41.3462	499.54
41.3606	472.53
41.3750	496.63
41.3895	504.61
41.4039	497.84
41.4184	474.59
41.4328	517.32
41.4472	497.77
41.4617	493.73
41.4761	529.84
41.4906	508.13
41.5050	505.09
41.5194	518.29
41.5339	493.42
41.5483	510.17
41.5628	498.56
41.5772	496.52
41.5916	528.01
41.6061	534.26
41.6205	479.46
41.6350	451.85
41.6494	495.49
41.6639	527.38
41.6783	505.00
41.6927	538.58
41.7072	489.74
41.7216	496.48
41.7361	493.57
41.7505	481.70
41.7649	477.49
41.7794	494.20
41.7938	489.17
41.8083	481.42
41.8227	480.86
41.8371	483.05
41.8516	495.98
41.8660	528.61
41.8805	502.96
41.8949	557.43
41.9093	568.54
41.9238	528.99
41.9382	534.82
41.9527	574.59
41.9671	566.37
41.9815	581.97
41.9960	561.89
42.0104	568.51
42.0249	572.39
42.0393	534.26
42.0537	565.02
42.0682	596.56
42.0826	577.45
42.0971	607.99
42.1115	564.54
42.1259	577.60
42.1404	591.59
42.1548	613.34
42.1693	650.04
42.1837	712.55
42.1981	794.55
42.2126	854.57
42.2270	932.74
42.2415	1091.95
42.2559	1244.10
42.2703	1362.47
42.2848	1563.63
42.2992	1676.36
42.3137	1746.48
42.3281	1725.81
42.3425	1647.90
42.3570	1544.01
42.3714	1420.59
42.3859	1350.39
42.4003	1364.30
42.4147	1321.39
42.4292	1326.65
42.4436	1179.87
42.4581	1063.52
42.4725	949.00
42.4869	860.14
42.5014	771.67
42.5158	750.89
42.5303	727.16
42.5447	657.08
42.5591	604.72
42.5736	574.77
42.5880	580.93
42.6025	572.06
42.6169	587.30
42.6313	542.29
42.6458	530.72
42.6602	557.00
42.6747	542.47
42.6891	524.06
42.7035	534.24
42.7180	520.28
42.7324	508.63
42.7469	513.88
42.7613	519.78
42.7757	537.02
42.7902	534.78
42.8046	517.21
42.8191	526.12
42.8335	528.20
42.8479	555.82
42.8624	529.26
42.8768	523.03
42.8913	527.22
42.9057	551.60
42.9201	512.90
42.9346	503.14
42.9490	522.17
42.9635	502.63
42.9779	492.18
42.9923	509.24
43.0068	528.64
43.0212	514.02
43.0357	526.91
43.0501	529.22
43.0645	525.42
43.0790	497.07
43.0934	508.06
43.1079	502.86
43.1223	488.69
43.1367	457.55
43.1512	484.09
43.1656	514.39
43.1801	552.55
43.1945	514.17
43.2089	522.39
43.2234	538.73
43.2378	573.26
43.2523	550.59
43.2667	524.83
43.2811	541.46
43.2956	521.13
43.3100	497.04
43.3245	522.26
43.3389	516.79
43.3533	512.35
43.3678	492.68
43.3822	488.91
43.3967	506.84
43.4111	517.58
43.4255	538.28
43.4400	501.06
43.4544	477.72
43.4689	516.17
43.4833	522.71
43.4977	495.06
43.5122	478.54
43.5266	533.66
43.5411	497.97
43.5555	534.25
43.5699	511.80
43.5844	500.61
43.5988	525.17
43.6133	505.44
43.6277	508.31
43.6421	519.09
43.6566	497.38
43.6710	510.88
43.6855	497.41
43.6999	524.98
43.7143	526.85
43.7288	512.46
43.7432	531.28
43.7577	539.72
43.7721	518.17
43.7865	550.36
43.8010	530.77
43.8154	569.23
43.8299	525.90
43.8443	513.33
43.8587	513.55
43.8732	508.18
43.8876	486.09
43.9021	520.43
43.9165	511.31
43.9309	554.98
43.9454	514.60
43.9598	524.88
43.9743	553.65
43.9887	574.22
44.0031	571.89
44.0176	568.66
44.0320	573.70
44.0465	561.50
44.0609	521.78
44.0753	585.16
44.0898	648.56
44.1042	588.95
44.1187	608.62
44.1331	607.47
44.1475	559.93
44.1620	622.66
44.1764	628.10
44.1909	614.44
44.2053	602.30
44.2197	585.17
44.2342	573.27
44.2486	564.33
44.2631	571.59
44.2775	575.92
44.2919	524.86
44.3064	559.95
44.3208	559.50
44.3353	546.10
44.3497	540.82
44.3641	556.25
44.3786	612.46
44.3930	564.23
44.4075	516.75
44.4219	568.95
44.4363	557.27
44.4508	575.29
44.4652	566.95
44.4797	598.89
44.4941	580.73
44.5085	557.53
44.5230	593.21
44.5374	572.18
44.5519	582.43
44.5663	591.00
44.5807	536.16
44.5952	575.20
44.6096	596.85
44.6241	596.31
44.6385	601.36
44.6529	574.21
44.6674	588.01
44.6818	620.40
44.6963	607.13
44.7107	628.83
44.7251	685.45
44.7396	718.73
44.7540	758.49
44.7685	851.52
44.7829	908.10
44.7973	875.33
44.8118	864.92
44.8262	821.95
44.8407	802.27
44.8551	754.07
44.8695	763.56
44.8840	761.80
44.8984	758.45
44.9129	736.22
44.9273	697.27
44.9417	695.70
44.9562	630.29
44.9706	552.67
44.9851	564.90
44.9995	516.58
45.0139	533.65
45.0284	526.20
45.0428	515.15
45.0573	489.79
45.0717	519.52
45.0861	542.83
45.1006	514.18
45.1150	539.06
45.1295	529.37
45.1439	487.07
45.1583	480.94
45.1728	502.58
45.1872	484.94
45.2017	517.56
45.2161	505.24
45.2305	502.47
45.2450	541.93
45.2594	506.70
45.2739	522.13
45.2883	517.82
45.3028	534.47
45.3172	528.44
45.3316	529.02
45.3461	546.51
45.3605	522.69
45.3750	503.08
45.3894	514.03
45.4038	491.91
45.4183	532.57
45.4327	519.72
45.4472	476.49
45.4616	495.42
45.4760	474.97
45.4905	471.82
45.5049	455.97
45.5194	481.58
45.5338	502.89
45.5482	497.78
45.5627	499.75
45.5771	496.49
45.5916	509.40
45.6060	513.74
45.6204	499.98
45.6349	482.89
45.6493	475.81
45.6638	482.92
45.6782	497.61
45.6926	509.84
45.7071	519.42
45.7215	502.07
45.7360	489.44
45.7504	533.24
45.7648	521.99
45.7793	505.27
45.7937	535.00
45.8082	499.52
45.8226	511.50
45.8370	515.66
45.8515	478.14
45.8659	497.95
45.8804	510.93
45.8948	487.35
45.9092	519.86
45.9237	513.79
45.9381	511.31
45.9526	482.52
45.9670	504.94
45.9814	470.22
45.9959	528.93
46.0103	504.24
46.0248	523.16
46.0392	490.74
46.0536	465.11
46.0681	495.08
46.0825	515.93
46.0970	511.30
46.1114	506.10
46.1258	501.95
46.1403	470.07
46.1547	463.34
46.1692	521.72
46.1836	489.27
46.1980	483.40
46.2125	496.93
46.2269	474.77
46.2414	489.34
46.2558	516.44
46.2702	523.81
46.2847	525.32
46.2991	513.26
46.3136	496.83
46.3280	514.17
46.3424	505.74
46.3569	496.15
46.3713	510.73
46.3858	477.47
46.4002	479.65
46.4146	478.40
46.4291	512.25
46.4435	514.87
46.4580	504.96
46.4724	493.20
46.4868	483.35
46.5013	484.99
46.5157	505.22
46.5302	523.06
46.5446	501.32
46.5590	490.79
46.5735	483.98
46.5879	495.76
46.6024	503.78
46.6168	479.75
46.6312	512.48
46.6457	497.07
46.6601	515.83
46.6746	517.62
46.6890	516.57
46.7034	524.60
46.7179	501.33
46.7323	466.87
46.7468	493.00
46.7612	500.13
46.7756	498.14
46.7901	507.13
46.8045	467.90
46.8190	475.74
46.8334	492.24
46.8478	503.79
46.8623	515.03
46.8767	515.72
46.8912	514.49
46.9056	510.68
46.9200	536.28
46.9345	509.62
46.9489	484.53
46.9634	494.55
46.9778	516.48
46.9922	519.69
47.0067	506.89
47.0211	505.44
47.0356	481.97
47.0500	502.88
47.0644	497.28
47.0789	515.99
47.0933	557.34
47.1078	537.35
47.1222	511.42
47.1366	505.44
47.1511	494.91
47.1655	505.75
47.1800	518.95
47.1944	522.21
47.2088	524.75
47.2233	531.69
47.2377	506.00
47.2522	513.38
47.2666	507.94
47.2810	523.77
47.2955	499.35
47.3099	512.82
47.3244	522.52
47.3388	534.38
47.3532	520.25
47.3677	512.13
47.3821	507.80
47.3966	502.59
47.4110	509.97
47.4254	552.96
47.4399	517.56
47.4543	520.69
47.4688	521.59
47.4832	525.89
47.4976	487.14
47.5121	504.60
47.5265	526.64
47.5410	507.23
47.5554	505.15
47.5698	491.76
47.5843	510.72
47.5987	485.76
47.6132	470.39
47.6276	517.09
47.6420	535.88
47.6565	504.02
47.6709	510.33
47.6854	490.07
47.6998	514.72
47.7142	510.73
47.7287	506.56
47.7431	500.47
47.7576	517.23
47.7720	516.26
47.7864	520.61
47.8009	529.56
47.8153	513.00
47.8298	479.17
47.8442	509.71
47.8586	485.09
47.8731	496.89
47.8875	526.66
47.9020	551.85
47.9164	485.96
47.9308	490.56
47.9453	514.32
47.9597	499.43
47.9742	520.36
47.9886	537.80
48.0030	500.64
48.0175	544.67
48.0319	528.64
48.0464	503.51
48.0608	488.08
48.0752	501.87
48.0897	522.65
48.1041	522.23
48.1186	515.93
48.1330	508.52
48.1474	495.25
48.1619	492.79
48.1763	519.42
48.1908	504.35
48.2052	484.98
48.2196	524.52
48.2341	523.45
48.2485	539.06
48.2630	501.52
48.2774	547.14
48.2918	499.79
48.3063	511.56
48.3207	509.96
48.3352	531.92
48.3496	509.07
48.3640	521.43
48.3785	524.40
48.3929	525.19
48.4074	528.05
48.4218	542.02
48.4362	547.75
48.4507	531.45
48.4651	491.23
48.4796	551.31
48.4940	508.00
48.5084	476.56
48.5229	511.67
48.5373	506.65
48.5518	541.45
48.5662	549.80
48.5806	507.58
48.5951	488.92
48.6095	499.02
48.6240	522.53
48.6384	526.70
48.6528	515.89
48.6673	510.18
48.6817	527.65
48.6962	500.42
48.7106	532.46
48.7250	518.06
48.7395	534.85
48.7539	523.18
48.7684	537.87
48.7828	545.59
48.7972	515.44
48.8117	523.78
48.8261	508.53
48.8406	492.25
48.8550	539.00
48.8694	554.45
48.8839	505.35
48.8983	548.09
48.9128	529.76
48.9272	555.39
48.9416	571.81
48.9561	579.39
48.9705	579.83
48.9850	580.78
48.9994	559.98
49.0139	610.71
49.0283	600.99
49.0427	605.40
49.0572	607.91
49.0716	618.37
49.0861	661.51
49.1005	669.93
49.1149	695.12
49.1294	728.58
49.1438	792.06
49.1583	821.42
49.1727	824.34
49.1871	876.15
49.2016	971.02
49.2160	1012.09
49.2305	1088.23
49.2449	1223.98
49.2593	1275.19
49.2738	1383.60
49.2882	1433.69
49.3027	1583.14
49.3171	1723.85
49.3315	1790.24
49.3460	1876.14
49.3604	1808.51
49.3749	1875.79
49.3893	1818.86
49.4037	1797.08
49.4182	1801.74
49.4326	1825.85
49.4471	1639.90
49.4615	1584.51
49.4759	1595.88
49.4904	1549.97
49.5048	1396.30
49.5193	1334.36
49.5337	1252.33
49.5481	1147.53
49.5626	1107.14
49.5770	1048.47
49.5915	985.50
49.6059	956.79
49.6203	888.61
49.6348	848.40
49.6492	793.91
49.6637	754.10
49.6781	720.38
49.6925	682.39
49.7070	668.22
49.7214	651.91
49.7359	637.64
49.7503	608.12
49.7647	600.71
49.7792	602.89
49.7936	602.52
49.8081	585.02
49.8225	568.21
49.8369	553.24
49.8514	582.43
49.8658	589.44
49.8803	526.60
49.8947	564.93
49.9091	565.34
49.9236	523.51
49.9380	542.69
49.9525	504.56
49.9669	548.06
49.9813	550.87
49.9958	561.68
50.0102	552.85
50.0247	530.35
50.0391	507.64
50.0535	518.06
50.0680	544.04
50.0824	514.82
50.0969	492.62
50.1113	533.80
50.1257	557.69
50.1402	541.21
50.1546	501.10
50.1691	543.45
50.1835	536.70
50.1979	501.20
50.2124	513.95
50.2268	509.43
50.2413	509.34
50.2557	529.27
50.2701	529.05
50.2846	526.51
50.2990	510.99
50.3135	509.98
50.3279	498.97
50.3423	475.40
50.3568	503.22
50.3712	552.65
50.3857	503.48
50.4001	489.01
50.4145	504.42
50.4290	522.51
50.4434	505.99
50.4579	510.45
50.4723	548.72
50.4867	503.28
50.5012	509.47
50.5156	501.84
50.5301	529.78
50.5445	514.45
50.5589	496.73
50.5734	524.42
50.5878	518.83
50.6023	535.99
50.6167	509.22
50.6311	462.73
50.6456	507.73
50.6600	538.12
50.6745	534.54
50.6889	532.54
50.7033	483.23
50.7178	517.60
50.7322	507.22
50.7467	501.33
50.7611	518.91
50.7755	497.91
50.7900	499.38
50.8044	514.14
50.8189	532.09
50.8333	544.98
50.8477	506.84
50.8622	516.59
50.8766	532.46
50.8911	523.53
50.9055	482.35
50.9199	500.86
50.9344	542.09
50.9488	537.67
50.9633	493.30
50.9777	503.31
50.9921	506.95
51.0066	516.61
51.0210	504.81
51.0355	474.88
51.0499	504.02
51.0643	547.92
51.0788	583.54
51.0932	546.17
51.1077	539.96
51.1221	509.44
51.1365	497.64
51.1510	491.25
51.1654	489.94
51.1799	523.13
51.1943	483.52
51.2087	510.95
51.2232	532.72
51.2376	535.94
51.2521	512.06
51.2665	500.53
51.2809	496.06
51.2954	520.84
51.3098	519.25
51.3243	539.14
51.3387	522.13
51.3531	508.80
51.3676	510.60
51.3820	530.03
51.3965	507.27
51.4109	493.91
51.4253	501.57
51.4398	522.29
51.4542	501.37
51.4687	521.37
51.4831	526.69
51.4975	527.37
51.5120	498.09
51.5264	481.01
51.5409	513.95
51.5553	513.10
51.5697	530.04
51.5842	521.94
51.5986	506.55
51.6131	533.73
51.6275	485.63
51.6419	498.50
51.6564	505.38
51.6708	464.06
51.6853	502.35
51.6997	494.71
51.7141	517.63
51.7286	520.03
51.7430	523.23
51.7575	520.20
51.7719	506.64
51.7863	537.13
51.8008	518.04
51.8152	508.37
51.8297	521.21
51.8441	483.81
51.8585	506.72
51.8730	529.15
51.8874	519.29
51.9019	518.05
51.9163	500.05
51.9307	476.44
51.9452	523.59
51.9596	482.05
51.9741	479.73
51.9885	479.91
52.0029	530.07
52.0174	493.89
52.0318	496.98
52.0463	528.24
52.0607	524.22
52.0751	502.16
52.0896	494.27
52.1040	496.54
52.1185	532.04
52.1329	554.80
52.1473	497.73
52.1618	528.42
52.1762	547.68
52.1907	499.93
52.2051	491.68
52.2195	495.82
52.2340	500.07
52.2484	494.51
52.2629	527.26
52.2773	504.36
52.2917	533.04
52.3062	523.77
52.3206	493.60
52.3351	486.59
52.3495	538.61
52.3639	535.42
52.3784	493.44
52.3928	529.62
52.4073	526.48
52.4217	512.68
52.4361	489.60
52.4506	513.50
52.4650	522.56
52.4795	498.85
52.4939	522.26
52.5083	484.30
52.5228	484.85
52.5372	534.95
52.5517	510.19
52.5661	518.89
52.5805	521.86
52.5950	540.51
52.6094	531.31
52.6239	518.48
52.6383	518.99
52.6527	497.80
52.6672	510.87
52.6816	563.07
52.6961	526.05
52.7105	563.41
52.7250	506.37
52.7394	517.79
52.7538	527.86
52.7683	486.32
52.7827	524.68
52.7972	528.20
52.8116	494.77
52.8260	492.62
52.8405	505.43
52.8549	514.05
52.8694	515.44
52.8838	499.68
52.8982	499.29
52.9127	527.01
52.9271	522.74
52.9416	546.10
52.9560	506.81
52.9704	528.04
52.9849	508.85
52.9993	555.00
53.0138	521.71
53.0282	516.22
53.0426	552.66
53.0571	514.50
53.0715	517.04
53.0860	513.52
53.1004	520.02
53.1148	499.10
53.1293	524.78
53.1437	486.89
53.1582	507.51
53.1726	525.16
53.1870	528.01
53.2015	494.41
53.2159	531.89
53.2304	530.86
53.2448	504.15
53.2592	498.18
53.2737	504.90
53.2881	495.61
53.3026	530.94
53.3170	519.85
53.3314	525.51
53.3459	511.13
53.3603	515.77
53.3748	504.07
53.3892	470.83
53.4036	504.07
53.4181	523.88
53.4325	542.17
53.4470	501.32
53.4614	540.08
53.4758	502.00
53.4903	539.39
53.5047	529.95
53.5192	517.86
53.5336	513.34
53.5480	528.42
53.5625	521.09
53.5769	521.99
53.5914	517.31
53.6058	497.50
53.6202	505.27
53.6347	521.39
53.6491	494.49
53.6636	521.15
53.6780	517.96
53.6924	490.56
53.7069	512.52
53.7213	502.38
53.7358	517.04
53.7502	513.98
53.7646	510.52
53.7791	510.70
53.7935	486.17
53.8080	513.75
53.8224	515.58
53.8368	557.51
53.8513	555.84
53.8657	532.15
53.8802	508.53
53.8946	500.45
53.9090	515.30
53.9235	514.91
53.9379	501.41
53.9524	528.84
53.9668	518.65
53.9812	524.82
53.9957	492.27
54.0101	519.42
54.0246	533.78
54.0390	529.12
54.0534	500.65
54.0679	523.45
54.0823	505.72
54.0968	569.70
54.1112	515.14
54.1256	505.13
54.1401	522.36
54.1545	509.21
54.1690	516.30
54.1834	536.15
54.1978	484.40
54.2123	524.31
54.2267	526.26
54.2412	542.18
54.2556	526.78
54.2700	539.79
54.2845	536.01
54.2989	513.92
54.3134	498.52
54.3278	529.24
54.3422	537.52
54.3567	515.34
54.3711	509.95
54.3856	521.72
54.4000	487.38
54.4144	519.14
54.4289	499.47
54.4433	525.72
54.4578	574.85
54.4722	556.39
54.4866	546.96
54.5011	529.91
54.5155	534.53
54.5300	541.48
54.5444	562.74
54.5588	557.87
54.5733	571.77
54.5877	572.00
54.6022	567.21
54.6166	534.86
54.6310	524.68
54.6455	556.34
54.6599	573.64
54.6744	552.72
54.6888	553.84
54.7032	546.74
54.7177	542.52
54.7321	553.26
54.7466	556.32
54.7610	552.73
54.7754	574.07
54.7899	575.57
54.8043	595.54
54.8188	584.79
54.8332	574.94
54.8476	546.50
54.8621	596.76
54.8765	543.91
54.8910	542.79
54.9054	587.39
54.9198	589.75
54.9343	591.65
54.9487	565.52
54.9632	555.28
54.9776	546.74
54.9920	545.85
55.0065	540.44
55.0209	510.38
55.0354	519.87
55.0498	537.24
55.0642	500.21
55.0787	519.96
55.0931	549.92
55.1076	546.46
55.1220	573.00
55.1364	549.15
55.1509	514.84
55.1653	532.49
55.1798	556.87
55.1942	515.13
55.2086	514.02
55.2231	539.72
55.2375	544.06
55.2520	508.41
55.2664	523.05
55.2808	514.53
55.2953	513.72
55.3097	541.33
55.3242	538.65
55.3386	527.09
55.3530	495.78
55.3675	478.36
55.3819	502.91
55.3964	511.54
55.4108	529.92
55.4252	504.90
55.4397	530.25
55.4541	542.41
55.4686	532.03
55.4830	530.74
55.4974	517.17
55.5119	492.69
55.5263	549.11
55.5408	532.39
55.5552	522.95
55.5696	521.63
55.5841	506.61
55.5985	530.70
55.6130	519.31
55.6274	549.82
55.6418	537.42
55.6563	526.67
55.6707	504.62
55.6852	513.75
55.6996	493.17
55.7140	546.62
55.7285	533.78
55.7429	501.84
55.7574	497.93
55.7718	520.74
55.7862	520.76
55.8007	498.29
55.8151	498.44
55.8296	531.40
55.8440	510.82
55.8584	538.85
55.8729	546.08
55.8873	534.19
55.9018	571.55
55.9162	544.46
55.9306	512.43
55.9451	521.61
55.9595	495.56
55.9740	492.58
55.9884	570.49
56.0028	506.39
56.0173	502.07
56.0317	510.83
56.0462	499.84
56.0606	505.56
56.0750	549.03
56.0895	542.60
56.1039	532.71
56.1184	550.62
56.1328	539.74
56.1472	493.50
56.1617	496.87
56.1761	495.75
56.1906	518.11
56.2050	554.77
56.2194	526.83
56.2339	519.87
56.2483	547.68
56.2628	554.85
56.2772	534.63
56.2916	540.41
56.3061	535.50
56.3205	565.06
56.3350	519.68
56.3494	504.86
56.3639	505.07
56.3783	544.40
56.3927	563.57
56.4072	514.65
56.4216	526.63
56.4361	519.17
56.4505	507.80
56.4649	499.83
56.4794	541.26
56.4938	518.01
56.5083	494.79
56.5227	522.28
56.5371	504.31
56.5516	563.15
56.5660	505.17
56.5805	492.51
56.5949	501.36
56.6093	507.64
56.6238	506.21
56.6382	537.59
56.6527	512.53
56.6671	511.05
56.6815	505.15
56.6960	525.26
56.7104	529.13
56.7249	512.58
56.7393	483.64
56.7537	503.12
56.7682	490.69
56.7826	497.62
56.7971	522.45
56.8115	500.68
56.8259	499.93
56.8404	531.58
56.8548	502.84
56.8693	517.39
56.8837	504.03
56.8981	593.12
56.9126	489.82
56.9270	480.03
56.9415	519.68
56.9559	527.72
56.9703	540.69
56.9848	534.61
56.9992	545.26
57.0137	537.97
57.0281	535.04
57.0425	522.65
57.0570	535.10
57.0714	532.84
57.0859	528.81
57.1003	575.86
57.1147	544.96
57.1292	540.76
57.1436	507.30
57.1581	490.95
57.1725	515.52
57.1869	522.26
57.2014	505.36
57.2158	491.74
57.2303	511.61
57.2447	552.96
57.2591	553.21
57.2736	526.50
57.2880	565.23
57.3025	538.55
57.3169	521.60
57.3313	533.62
57.3458	527.95
57.3602	537.89
57.3747	520.88
57.3891	515.41
57.4035	499.35
57.4180	547.12
57.4324	538.37
57.4469	490.26
57.4613	534.68
57.4757	564.56
57.4902	528.95
57.5046	524.87
57.5191	515.78
57.5335	536.92
57.5479	531.81
57.5624	521.10
57.5768	492.23
57.5913	507.68
57.6057	526.87
57.6201	538.76
57.6346	521.07
57.6490	488.69
57.6635	520.95
57.6779	495.74
57.6923	507.54
57.7068	527.88
57.7212	537.91
57.7357	541.10
57.7501	515.70
57.7645	527.51
57.7790	519.09
57.7934	537.60
57.8079	546.73
57.8223	529.25
57.8367	530.93
57.8512	513.83
57.8656	560.14
57.8801	545.03
57.8945	526.77
57.9089	559.17
57.9234	533.92
57.9378	550.22
57.9523	562.30
57.9667	532.88
57.9811	531.93
57.9956	540.43
58.0100	517.82
58.0245	535.61
58.0389	548.76
58.0533	518.83
58.0678	548.65
58.0822	568.25
58.0967	560.74
58.1111	554.09
58.1255	602.40
58.1400	562.25
58.1544	553.55
58.1689	555.31
58.1833	565.35
58.1977	602.80
58.2122	624.16
58.2266	597.51
58.2411	605.65
58.2555	596.28
58.2699	598.02
58.2844	656.40
58.2988	627.12
58.3133	607.92
58.3277	607.73
58.3421	643.79
58.3566	617.71
58.3710	652.70
58.3855	633.76
58.3999	646.61
58.4143	624.23
58.4288	682.54
58.4432	650.62
58.4577	582.33
58.4721	616.73
58.4865	622.19
58.5010	635.45
58.5154	633.34
58.5299	617.73
58.5443	607.37
58.5587	587.82
58.5732	587.00
58.5876	576.61
58.6021	563.64
58.6165	529.89
58.6309	555.47
58.6454	619.96
58.6598	576.68
58.6743	596.08
58.6887	573.30
58.7031	543.05
58.7176	548.79
58.7320	555.20
58.7465	577.00
58.7609	532.32
58.7753	560.75
58.7898	514.81
58.8042	511.84
58.8187	551.39
58.8331	567.59
58.8475	553.42
58.8620	524.87
58.8764	543.71
58.8909	535.64
58.9053	569.97
58.9197	534.30
58.9342	536.92
58.9486	543.18
58.9631	549.88
58.9775	531.83
58.9919	510.73
59.0064	523.02
59.0208	541.93
59.0353	522.26
59.0497	476.95
59.0641	541.22
59.0786	562.25
59.0930	552.04
59.1075	539.37
59.1219	524.75
59.1363	564.70
59.1508	518.71
59.1652	543.32
59.1797	588.38
59.1941	579.88
59.2085	564.37
59.2230	542.10
59.2374	562.82
59.2519	559.75
59.2663	548.83
59.2807	558.90
59.2952	520.57
59.3096	551.18
59.3241	551.77
59.3385	555.36
59.3529	551.17
59.3674	553.22
59.3818	601.51
59.3963	559.89
59.4107	543.97
59.4251	582.07
59.4396	571.28
59.4540	565.41
59.4685	603.39
59.4829	587.17
59.4973	585.05
59.5118	578.36
59.5262	550.52
59.5407	547.44
59.5551	557.87
59.5695	543.60
59.5840	536.51
59.5984	557.20
59.6129	566.85
59.6273	544.44
59.6417	538.17
59.6562	544.33
59.6706	557.13
59.6851	563.39
59.6995	544.86
59.7139	549.74
59.7284	505.35
59.7428	526.85
59.7573	533.74
59.7717	557.80
59.7861	543.21
59.8006	508.52
59.8150	499.48
59.8295	527.33
59.8439	515.96
59.8583	566.66
59.8728	556.11
59.8872	551.49
59.9017	578.98
59.9161	531.62
59.9305	548.73
59.9450	537.27
59.9594	504.13
59.9739	494.13
59.9883	545.35
60.0027	547.71
60.0172	555.08
60.0316	600.67
60.0461	538.86
60.0605	566.14
60.0750	567.04
60.0894	580.49
60.1038	557.44
60.1183	577.00
60.1327	540.46
60.1472	511.76
60.1616	537.95
60.1760	544.13
60.1905	520.01
60.2049	585.47
60.2194	571.69
60.2338	546.78
60.2482	535.26
60.2627	525.76
60.2771	541.89
60.2916	545.51
60.3060	547.64
60.3204	538.20
60.3349	549.17
60.3493	521.45
60.3638	544.31
60.3782	524.33
60.3926	505.80
60.4071	537.22
60.4215	527.93
60.4360	534.10
60.4504	511.19
60.4648	536.39
60.4793	531.95
60.4937	567.99
60.5082	550.46
60.5226	543.37
60.5370	533.10
60.5515	557.61
60.5659	549.03
60.5804	528.56
60.5948	561.14
60.6092	536.09
60.6237	537.59
60.6381	543.37
60.6526	529.69
60.6670	541.18
60.6814	537.35
60.6959	545.49
60.7103	572.23
60.7248	540.91
60.7392	530.58
60.7536	490.82
60.7681	543.18
60.7825	558.80
60.7970	520.89
60.8114	552.83
60.8258	521.33
60.8403	528.30
60.8547	570.49
60.8692	574.40
60.8836	574.40
60.8980	534.17
60.9125	544.47
60.9269	548.51
60.9414	534.13
60.9558	506.03
60.9702	514.93
60.9847	563.09
60.9991	527.88
61.0136	551.62
61.0280	516.28
61.0424	510.64
61.0569	528.14
61.0713	574.73
61.0858	560.13
61.1002	546.24
61.1146	573.55
61.1291	569.02
61.1435	539.86
61.1580	512.01
61.1724	557.65
61.1868	562.20
61.2013	545.37
61.2157	574.80
61.2302	542.71
61.2446	545.32
61.2590	543.34
61.2735	522.99
61.2879	536.18
61.3024	588.03
61.3168	583.24
61.3312	590.93
61.3457	560.09
61.3601	520.06
61.3746	551.51
61.3890	546.31
61.4034	522.50
61.4179	534.07
61.4323	578.77
61.4468	533.90
61.4612	540.24
61.4756	565.24
61.4901	540.86
61.5045	585.84
61.5190	543.79
61.5334	544.83
61.5478	557.61
61.5623	537.17
61.5767	554.82
61.5912	553.16
61.6056	550.93
61.6200	546.38
61.6345	561.80
61.6489	554.02
61.6634	577.00
61.6778	584.25
61.6922	579.51
61.7067	560.15
61.7211	566.65
61.7356	510.94
61.7500	558.64
61.7644	564.46
61.7789	556.69
61.7933	553.71
61.8078	546.68
61.8222	560.81
61.8366	560.24
61.8511	563.49
61.8655	557.97
61.8800	505.97
61.8944	560.85
61.9088	562.32
61.9233	567.69
61.9377	574.54
61.9522	564.07
61.9666	578.37
61.9810	571.99
61.9955	533.87
62.0099	549.56
62.0244	577.75
62.0388	548.98
62.0532	551.82
62.0677	572.46
62.0821	581.38
62.0966	569.74
62.1110	584.59
62.1254	587.45
62.1399	537.83
62.1543	514.17
62.1688	564.40
62.1832	563.15
62.1976	535.02
62.2121	565.86
62.2265	565.00
62.2410	541.52
62.2554	538.27
62.2698	550.35
62.2843	549.59
62.2987	566.26
62.3132	558.53
62.3276	547.42
62.3420	560.44
62.3565	517.19
62.3709	527.19
62.3854	557.79
62.3998	541.78
62.4142	520.93
62.4287	526.89
62.4431	540.89
62.4576	533.10
62.4720	606.95
62.4864	550.35
62.5009	521.44
62.5153	550.95
62.5298	564.68
62.5442	566.32
62.5586	565.25
62.5731	575.92
62.5875	564.16
62.6020	550.78
62.6164	569.20
62.6308	547.33
62.6453	530.57
62.6597	535.34
62.6742	553.26
62.6886	552.67
62.7030	565.12
62.7175	558.05
62.7319	553.53
62.7464	562.54
62.7608	550.85
62.7752	545.08
62.7897	523.24
62.8041	558.85
62.8186	564.64
62.8330	536.23
62.8474	556.75
62.8619	563.00
62.8763	543.22
62.8908	513.82
62.9052	585.28
62.9196	578.63
62.9341	605.40
62.9485	578.28
62.9630	521.66
62.9774	556.17
62.9918	603.14
63.0063	601.19
63.0207	575.62
63.0352	552.10
63.0496	565.39
63.0640	548.17
63.0785	557.75
63.0929	564.91
63.1074	578.20
63.1218	583.65
63.1362	569.79
63.1507	547.20
63.1651	562.92
63.1796	577.85
63.1940	563.97
63.2084	563.67
63.2229	571.80
63.2373	540.64
63.2518	572.14
63.2662	550.52
63.2806	561.10
63.2951	562.10
63.3095	539.96
63.3240	562.34
63.3384	559.73
63.3528	585.21
63.3673	577.24
63.3817	578.52
63.3962	568.26
63.4106	557.42
63.4250	585.07
63.4395	603.22
63.4539	591.13
63.4684	587.66
63.4828	576.75
63.4972	589.87
63.5117	570.25
63.5261	576.22
63.5406	564.27
63.5550	582.35
63.5694	571.88
63.5839	567.83
63.5983	623.33
63.6128	589.10
63.6272	571.68
63.6416	582.08
63.6561	582.39
63.6705	572.08
63.6850	576.60
63.6994	593.92
63.7138	646.16
63.7283	596.28
63.7427	638.56
63.7572	602.12
63.7716	612.37
63.7861	639.42
63.8005	612.67
63.8149	655.41
63.8294	643.74
63.8438	606.08
63.8583	640.62
63.8727	678.91
63.8871	632.20
63.9016	662.14
63.9160	729.20
63.9305	681.14
63.9449	730.47
63.9593	685.06
63.9738	742.41
63.9882	712.55
64.0027	733.73
64.0171	698.46
64.0315	767.59
64.0460	755.47
64.0604	758.02
64.0749	720.57
64.0893	755.71
64.1037	751.69
64.1182	778.23
64.1326	762.70
64.1471	739.60
64.1615	783.03
64.1759	788.07
64.1904	774.99
64.2048	719.81
64.2193	746.26
64.2337	741.02
64.2481	741.77
64.2626	747.81
64.2770	718.94
64.2915	691.14
64.3059	690.22
64.3203	721.39
64.3348	753.75
64.3492	722.47
64.3637	752.09
64.3781	700.07
64.3925	708.39
64.4070	696.38
64.4214	676.73
64.4359	632.82
64.4503	642.28
64.4647	634.48
64.4792	638.60
64.4936	632.32
64.5081	633.38
64.5225	647.49
64.5369	627.93
64.5514	629.67
64.5658	669.58
64.5803	643.13
64.5947	656.48
64.6091	642.29
64.6236	676.23
64.6380	683.32
64.6525	697.91
64.6669	669.11
64.6813	630.13
64.6958	678.28
64.7102	724.35
64.7247	678.52
64.7391	675.49
64.7535	693.88
64.7680	713.45
64.7824	749.64
64.7969	748.39
64.8113	771.37
64.8257	767.62
64.8402	841.39
64.8546	811.08
64.8691	827.60
64.8835	848.99
64.8979	851.82
64.9124	879.85
64.9268	901.31
64.9413	855.05
64.9557	862.43
64.9701	962.76
64.9846	1030.66
64.9990	1075.02
65.0135	1192.10
65.0279	1382.47
65.0423	1566.27
65.0568	1972.00
65.0712	2506.61
65.0857	3278.24
65.1001	4320.94
65.1145	5845.75
65.1290	7642.51
65.1434	9490.66
65.1579	11118.26
65.1723	11720.17
65.1867	11453.57
65.2012	10332.64
65.2156	8538.25
65.2301	6718.83
65.2445	5411.63
65.2589	4521.64
65.2734	4142.37
65.2878	4336.43
65.3023	4819.99
65.3167	5653.88
65.3311	6412.98
65.3456	6990.20
65.3600	7024.83
65.3745	6444.08
65.3889	5440.53
65.4033	4452.43
65.4178	3522.25
65.4322	2800.27
65.4467	2135.77
65.4611	1733.88
65.4755	1489.15
65.4900	1273.73
65.5044	1118.84
65.5189	1052.62
65.5333	1022.62
65.5477	922.35
65.5622	830.10
65.5766	819.23
65.5911	852.29
65.6055	814.11
65.6199	758.78
65.6344	774.16
65.6488	778.47
65.6633	770.99
65.6777	705.54
65.6921	692.37
65.7066	725.92
65.7210	663.13
65.7355	679.15
65.7499	708.09
65.7643	688.69
65.7788	671.38
65.7932	678.51
65.8077	674.02
65.8221	662.93
65.8365	641.97
65.8510	644.20
65.8654	663.80
65.8799	646.92
65.8943	643.37
65.9087	667.62
65.9232	667.12
65.9376	658.75
65.9521	612.74
65.9665	610.49
65.9809	620.34
65.9954	625.12
66.0098	610.51
66.0243	583.29
66.0387	630.63
66.0531	596.86
66.0676	630.57
66.0820	617.49
66.0965	612.10
66.1109	650.40
66.1253	645.30
66.1398	607.72
66.1542	587.73
66.1687	603.19
66.1831	589.93
66.1975	625.90
66.2120	644.71
66.2264	607.06
66.2409	629.13
66.2553	640.63
66.2697	591.58
66.2842	613.47
66.2986	563.77
66.3131	575.84
66.3275	593.89
66.3419	624.25
66.3564	629.61
66.3708	627.06
66.3853	620.70
66.3997	585.45
66.4141	591.65
66.4286	622.33
66.4430	596.87
66.4575	610.81
66.4719	607.04
66.4863	625.13
66.5008	620.52
66.5152	594.30
66.5297	582.92
66.5441	615.90
66.5585	596.49
66.5730	571.52
66.5874	583.78
66.6019	612.13
66.6163	585.07
66.6307	569.44
66.6452	570.95
66.6596	576.34
66.6741	599.26
66.6885	591.67
66.7029	600.40
66.7174	621.65
66.7318	615.61
66.7463	611.40
66.7607	607.24
66.7751	607.55
66.7896	592.51
66.8040	615.59
66.8185	612.16
66.8329	578.63
66.8473	584.41
66.8618	600.51
66.8762	603.35
66.8907	598.51
66.9051	612.75
66.9195	563.14
66.9340	574.69
66.9484	581.15
66.9629	564.32
66.9773	561.56
66.9917	584.72
67.0062	617.58
67.0206	545.92
67.0351	556.30
67.0495	567.25
67.0639	594.50
67.0784	575.22
67.0928	600.92
67.1073	597.14
67.1217	616.24
67.1361	600.46
67.1506	568.53
67.1650	594.79
67.1795	611.02
67.1939	585.41
67.2083	575.66
67.2228	592.66
67.2372	594.56
67.2517	583.29
67.2661	549.80
67.2805	607.95
67.2950	600.82
67.3094	587.06
67.3239	589.65
67.3383	576.08
67.3527	541.95
67.3672	571.39
67.3816	602.61
67.3961	574.93
67.4105	588.48
67.4250	596.39
67.4394	557.58
67.4538	576.30
67.4683	599.31
67.4827	600.02
67.4972	556.33
67.5116	594.71
67.5260	582.09
67.5405	606.11
67.5549	602.23
67.5694	575.89
67.5838	565.48
67.5982	588.44
67.6127	596.80
67.6271	570.19
67.6416	583.47
67.6560	615.82
67.6704	597.64
67.6849	564.27
67.6993	605.14
67.7138	621.37
67.7282	569.58
67.7426	560.17
67.7571	553.50
67.7715	587.64
67.7860	591.38
67.8004	582.25
67.8148	570.00
67.8293	574.72
67.8437	589.16
67.8582	569.54
67.8726	550.70
67.8870	560.76
67.9015	595.79
67.9159	618.64
67.9304	536.89
67.9448	549.56
67.9592	534.58
67.9737	562.89
67.9881	577.39
68.0026	578.86
68.0170	561.48
68.0314	570.86
68.0459	608.86
68.0603	564.67
68.0748	572.63
68.0892	583.98
68.1036	586.59
68.1181	595.33
68.1325	578.40
68.1470	562.56
68.1614	585.52
68.1758	596.85
68.1903	588.91
68.2047	541.95
68.2192	579.69
68.2336	580.82
68.2480	572.05
68.2625	560.49
68.2769	534.25
68.2914	574.06
68.3058	553.31
68.3202	557.95
68.3347	574.62
68.3491	596.42
68.3636	603.74
68.3780	597.53
68.3924	568.80
68.4069	566.92
68.4213	594.56
68.4358	588.73
68.4502	573.95
68.4646	620.26
68.4791	559.49
68.4935	580.98
68.5080	549.65
68.5224	574.15
68.5368	624.10
68.5513	630.82
68.5657	565.71
68.5802	602.70
68.5946	582.33
68.6090	619.14
68.6235	538.09
68.6379	582.40
68.6524	574.00
68.6668	615.31
68.6812	575.61
68.6957	582.25
68.7101	618.44
68.7246	568.02
68.7390	569.36
68.7534	580.62
68.7679	583.15
68.7823	577.92
68.7968	583.72
68.8112	580.69
68.8256	583.79
68.8401	586.42
68.8545	536.42
68.8690	603.34
68.8834	594.21
68.8978	566.42
68.9123	526.39
68.9267	536.47
68.9412	562.27
68.9556	600.49
68.9700	582.39
68.9845	540.03
68.9989	507.29
69.0134	541.70
69.0278	587.86
69.0422	573.30
69.0567	595.71
69.0711	579.82
69.0856	637.13
69.1000	588.16
69.1144	599.23
69.1289	596.30
69.1433	576.54
69.1578	593.29
69.1722	568.94
69.1866	584.16
69.2011	564.88
69.2155	615.13
69.2300	567.91
69.2444	599.42
69.2588	599.11
69.2733	600.12
69.2877	551.46
69.3022	580.24
69.3166	548.24
69.3310	556.25
69.3455	571.70
69.3599	582.71
69.3744	525.45
69.3888	546.77
69.4032	564.51
69.4177	583.74
69.4321	546.16
69.4466	597.72
69.4610	538.41
69.4754	554.32
69.4899	599.14
69.5043	558.44
69.5188	573.60
69.5332	553.32
69.5476	582.19
69.5621	571.99
69.5765	577.05
69.5910	591.65
69.6054	562.11
69.6198	575.08
69.6343	607.42
69.6487	596.37
69.6632	581.43
69.6776	583.87
69.6920	544.94
69.7065	620.67
69.7209	568.19
69.7354	530.78
69.7498	580.75
69.7642	584.17
69.7787	557.29
69.7931	579.92
69.8076	594.55
69.8220	554.34
69.8364	566.26
69.8509	593.45
69.8653	575.36
69.8798	597.32
69.8942	570.76
69.9086	618.60
69.9231	546.41
69.9375	554.39
69.9520	574.99
69.9664	522.18
69.9808	534.95
69.9953	537.62
70.0097	546.29
70.0242	606.43
70.0386	606.60
70.0530	564.42
70.0675	594.48
70.0819	597.03
70.0964	667.14
70.1108	609.14
70.1252	567.55
70.1397	505.65
70.1541	578.16
70.1686	566.65
70.1830	590.68
70.1974	536.25
70.2119	539.03
70.2263	536.76
70.2408	496.04
70.2552	537.17
70.2696	573.20
70.2841	544.91
70.2985	547.12
70.3130	565.47
70.3274	575.87
70.3418	544.55
70.3563	569.82
70.3707	522.10
70.3852	529.14
70.3996	539.01
70.4140	600.78
70.4285	596.17
70.4429	586.89
70.4574	590.55
70.4718	597.62
70.4862	578.29
70.5007	545.82
70.5151	491.62
70.5296	513.84
70.5440	565.79
70.5584	563.72
70.5729	568.17
70.5873	535.52
70.6018	536.59
70.6162	562.94
70.6306	549.73
70.6451	540.69
70.6595	604.62
70.6740	578.67
70.6884	536.24
70.7028	582.38
70.7173	592.99
70.7317	537.15
70.7462	582.57
70.7606	577.69
70.7750	606.83
70.7895	598.47
70.8039	642.19
70.8184	636.11
70.8328	615.02
70.8472	543.58
70.8617	591.75
70.8761	564.31
70.8906	530.59
70.9050	552.52
70.9194	562.63
70.9339	574.77
70.9483	608.03
70.9628	570.87
70.9772	535.65
70.9916	590.14
71.0061	602.58
71.0205	590.15
71.0350	572.41
71.0494	574.37
71.0638	559.58
71.0783	615.50
71.0927	626.73
71.1072	594.13
71.1216	534.66
71.1361	530.59
71.1505	548.63
71.1649	513.67
71.1794	536.92
71.1938	605.36
71.2083	566.64
71.2227	548.33
71.2371	621.19
71.2516	614.88
71.2660	599.01
71.2805	588.50
71.2949	564.17
71.3093	516.69
71.3238	559.16
71.3382	596.51
71.3527	549.13
71.3671	540.52
71.3815	549.77
71.3960	547.28
71.4104	599.13
71.4249	606.56
71.4393	559.77
71.4537	571.21
71.4682	637.70
71.4826	610.17
71.4971	567.11
71.5115	575.00
71.5259	558.83
71.5404	548.05
71.5548	595.63
71.5693	615.86
71.5837	578.33
71.5981	562.70
71.6126	597.15
71.6270	600.24
71.6415	572.52
71.6559	595.18
71.6703	599.85
71.6848	623.59
71.6992	624.86
71.7137	579.73
71.7281	569.69
71.7425	545.66
71.7570	546.64
71.7714	514.33
71.7859	570.39
71.8003	618.40
71.8147	583.93
71.8292	586.68
71.8436	627.95
71.8581	626.13
71.8725	608.52
71.8869	569.88
71.9014	555.77
71.9158	550.85
71.9303	569.13
71.9447	541.36
71.9591	616.81
71.9736	623.01
71.9880	488.83
72.0025	478.96
72.0169	485.52
72.0313	524.11
72.0458	525.88
72.0602	550.11
72.0747	592.51
72.0891	603.45
72.1035	581.78
72.1180	554.35
72.1324	605.35
72.1469	554.51
72.1613	528.88
72.1757	544.24
72.1902	565.79
72.2046	551.25
72.2191	640.75
72.2335	617.78
72.2479	573.68
72.2624	599.38
72.2768	623.65
72.2913	577.08
72.3057	599.23
72.3201	640.36
72.3346	591.30
72.3490	552.42
72.3635	571.71
72.3779	584.54
72.3923	600.46
72.4068	606.20
72.4212	590.76
72.4357	570.65
72.4501	554.99
72.4645	569.25
72.4790	620.64
72.4934	617.08
72.5079	637.92
72.5223	575.74
72.5367	525.47
72.5512	511.83
72.5656	565.62
72.5801	592.68
72.5945	501.23
72.6089	540.40
72.6234	639.61
72.6378	617.16
72.6523	611.37
72.6667	633.16
72.6811	584.43
72.6956	616.78
72.7100	632.43
72.7245	615.35
72.7389	601.33
72.7533	585.52
72.7678	608.71
72.7822	611.55
72.7967	594.89
72.8111	629.40
72.8255	663.91
72.8400	693.74
72.8544	667.48
72.8689	574.37
72.8833	551.54