2022.09.19 19:37:17
Îáðàçåö: ß÷åéêà LCoV 16-09-2022
Lambda1 = 1.54060
Lambda2 = 1.54439
Lambdam = 1.54186
R = 0.497
2Theta	I

line¹ 0 ;repeat¹ 0
22.1120	548.87
22.1264	608.42
22.1409	599.74
22.1553	529.89
22.1697	544.68
22.1842	631.90
22.1986	542.50
22.2131	577.39
22.2275	624.55
22.2419	659.07
22.2564	661.32
22.2708	596.56
22.2853	598.49
22.2997	609.20
22.3141	581.58
22.3286	561.32
22.3430	557.38
22.3575	514.23
22.3719	590.75
22.3863	538.70
22.4008	588.52
22.4152	618.81
22.4297	631.83
22.4441	616.50
22.4585	664.04
22.4730	647.95
22.4874	629.91
22.5019	633.77
22.5163	647.06
22.5307	667.01
22.5452	527.90
22.5596	567.97
22.5741	613.72
22.5885	523.02
22.6029	515.17
22.6174	557.22
22.6318	608.38
22.6463	586.45
22.6607	533.94
22.6751	607.32
22.6896	494.76
22.7040	575.22
22.7185	498.21
22.7329	584.62
22.7473	642.06
22.7618	577.71
22.7762	560.95
22.7907	561.55
22.8051	529.96
22.8195	602.98
22.8340	521.33
22.8484	645.04
22.8629	523.28
22.8773	508.98
22.8917	533.45
22.9062	582.28
22.9206	606.66
22.9351	649.97
22.9495	579.59
22.9639	511.99
22.9784	525.36
22.9928	625.01
23.0073	512.37
23.0217	607.14
23.0361	558.03
23.0506	541.97
23.0650	520.14
23.0795	476.89
23.0939	616.15
23.1083	640.08
23.1228	557.98
23.1372	581.58
23.1517	569.79
23.1661	652.80
23.1806	474.33
23.1950	469.06
23.2094	533.15
23.2239	562.49
23.2383	569.28
23.2528	516.58
23.2672	550.38
23.2816	570.02
23.2961	556.15
23.3105	530.41
23.3250	580.58
23.3394	576.61
23.3538	540.13
23.3683	477.98
23.3827	578.99
23.3972	521.45
23.4116	522.91
23.4260	552.03
23.4405	660.75
23.4549	523.70
23.4694	532.98
23.4838	605.92
23.4982	537.18
23.5127	616.26
23.5271	599.18
23.5416	538.96
23.5560	561.28
23.5704	575.87
23.5849	569.83
23.5993	582.31
23.6138	465.88
23.6282	545.14
23.6426	544.83
23.6571	573.36
23.6715	486.45
23.6860	495.62
23.7004	630.89
23.7148	565.11
23.7293	572.64
23.7437	533.87
23.7582	580.89
23.7726	581.32
23.7870	579.58
23.8015	510.46
23.8159	533.60
23.8304	595.08
23.8448	462.37
23.8592	667.76
23.8737	617.69
23.8881	543.48
23.9026	516.73
23.9170	570.75
23.9314	555.38
23.9459	568.09
23.9603	543.37
23.9748	558.72
23.9892	518.63
24.0036	509.98
24.0181	577.88
24.0325	559.00
24.0470	571.03
24.0614	567.76
24.0758	500.47
24.0903	535.16
24.1047	566.03
24.1192	634.05
24.1336	570.55
24.1480	567.42
24.1625	549.19
24.1769	557.72
24.1914	570.11
24.2058	603.74
24.2202	600.90
24.2347	600.69
24.2491	564.88
24.2636	572.92
24.2780	549.94
24.2924	543.06
24.3069	608.81
24.3213	599.34
24.3358	522.80
24.3502	553.46
24.3646	564.00
24.3791	611.18
24.3935	561.86
24.4080	546.74
24.4224	588.06
24.4368	499.20
24.4513	553.58
24.4657	574.10
24.4802	584.60
24.4946	536.47
24.5090	542.27
24.5235	536.54
24.5379	553.20
24.5524	520.97
24.5668	568.62
24.5812	564.33
24.5957	520.52
24.6101	613.25
24.6246	576.06
24.6390	580.78
24.6534	592.48
24.6679	567.48
24.6823	534.24
24.6968	550.73
24.7112	562.54
24.7256	547.32
24.7401	553.56
24.7545	583.61
24.7690	583.43
24.7834	528.36
24.7978	509.97
24.8123	548.52
24.8267	526.61
24.8412	527.20
24.8556	553.13
24.8700	566.89
24.8845	554.67
24.8989	553.96
24.9134	552.27
24.9278	526.88
24.9422	486.67
24.9567	562.78
24.9711	538.67
24.9856	589.72
25.0000	542.14
25.0144	523.09
25.0289	618.40
25.0433	539.65
25.0578	561.20
25.0722	555.70
25.0866	579.70
25.1011	527.38
25.1155	536.83
25.1300	537.54
25.1444	542.48
25.1588	526.64
25.1733	522.10
25.1877	521.74
25.2022	526.21
25.2166	556.73
25.2310	603.11
25.2455	523.42
25.2599	529.37
25.2744	565.47
25.2888	543.48
25.3032	525.65
25.3177	514.95
25.3321	515.89
25.3466	532.13
25.3610	512.28
25.3754	522.95
25.3899	537.80
25.4043	532.40
25.4188	514.35
25.4332	517.98
25.4476	519.75
25.4621	569.33
25.4765	577.59
25.4910	539.10
25.5054	569.32
25.5198	558.01
25.5343	539.75
25.5487	522.88
25.5632	519.76
25.5776	535.24
25.5920	510.40
25.6065	511.24
25.6209	531.95
25.6354	550.42
25.6498	564.09
25.6642	542.02
25.6787	506.33
25.6931	497.28
25.7076	505.86
25.7220	529.09
25.7364	538.85
25.7509	559.32
25.7653	539.46
25.7798	494.18
25.7942	490.09
25.8086	559.83
25.8231	515.91
25.8375	550.88
25.8520	573.77
25.8664	512.24
25.8808	504.56
25.8953	544.16
25.9097	541.54
25.9242	569.76
25.9386	542.98
25.9530	500.36
25.9675	541.42
25.9819	522.73
25.9964	530.66
26.0108	569.52
26.0252	566.36
26.0397	536.28
26.0541	502.11
26.0686	514.51
26.0830	535.62
26.0974	586.14
26.1119	526.69
26.1263	528.63
26.1408	514.91
26.1552	542.13
26.1696	531.62
26.1841	529.08
26.1985	526.61
26.2130	533.15
26.2274	540.77
26.2418	532.34
26.2563	525.22
26.2707	545.01
26.2852	574.94
26.2996	530.89
26.3140	489.12
26.3285	535.40
26.3429	539.48
26.3574	554.51
26.3718	544.01
26.3862	530.31
26.4007	551.06
26.4151	526.45
26.4296	531.49
26.4440	537.50
26.4584	545.28
26.4729	559.37
26.4873	565.42
26.5018	528.92
26.5162	520.46
26.5306	513.62
26.5451	544.63
26.5595	557.57
26.5740	562.28
26.5884	530.70
26.6028	524.07
26.6173	544.71
26.6317	573.73
26.6462	569.10
26.6606	534.68
26.6750	506.05
26.6895	521.16
26.7039	546.39
26.7184	501.77
26.7328	482.21
26.7472	534.06
26.7617	532.18
26.7761	525.19
26.7906	544.25
26.8050	550.18
26.8194	519.65
26.8339	499.94
26.8483	507.96
26.8628	519.39
26.8772	553.22
26.8917	524.84
26.9061	516.76
26.9205	531.43
26.9350	526.51
26.9494	532.59
26.9639	530.81
26.9783	524.86
26.9927	503.48
27.0072	529.89
27.0216	537.41
27.0361	502.89
27.0505	557.85
27.0649	571.45
27.0794	531.06
27.0938	521.47
27.1083	511.94
27.1227	549.34
27.1371	516.62
27.1516	504.86
27.1660	503.39
27.1805	549.13
27.1949	539.84
27.2093	516.01
27.2238	511.10
27.2382	538.97
27.2527	506.83
27.2671	464.38
27.2815	514.40
27.2960	521.57
27.3104	501.52
27.3249	520.85
27.3393	512.22
27.3537	522.66
27.3682	503.81
27.3826	501.15
27.3971	494.74
27.4115	466.47
27.4259	515.65
27.4404	503.60
27.4548	514.70
27.4693	517.62
27.4837	546.15
27.4981	532.06
27.5126	536.18
27.5270	524.78
27.5415	535.32
27.5559	521.01
27.5703	520.15
27.5848	511.05
27.5992	515.35
27.6137	536.74
27.6281	543.24
27.6425	552.83
27.6570	557.47
27.6714	542.23
27.6859	539.57
27.7003	514.28
27.7147	539.06
27.7292	523.20
27.7436	502.74
27.7581	558.91
27.7725	525.98
27.7869	496.42
27.8014	522.46
27.8158	529.76
27.8303	517.30
27.8447	510.46
27.8591	517.38
27.8736	522.53
27.8880	521.37
27.9025	530.05
27.9169	513.01
27.9313	489.24
27.9458	514.03
27.9602	516.18
27.9747	533.19
27.9891	505.48
28.0035	526.06
28.0180	534.33
28.0324	487.00
28.0469	550.78
28.0613	527.14
28.0757	507.56
28.0902	511.29
28.1046	527.58
28.1191	546.21
28.1335	507.53
28.1479	486.01
28.1624	540.70
28.1768	538.44
28.1913	521.17
28.2057	511.65
28.2201	511.18
28.2346	496.32
28.2490	492.52
28.2635	509.42
28.2779	493.15
28.2923	499.77
28.3068	525.91
28.3212	536.41
28.3357	525.20
28.3501	496.75
28.3645	516.41
28.3790	493.95
28.3934	484.31
28.4079	492.36
28.4223	548.84
28.4367	491.32
28.4512	505.84
28.4656	510.18
28.4801	498.19
28.4945	524.41
28.5089	538.73
28.5234	495.36
28.5378	495.12
28.5523	504.66
28.5667	517.14
28.5811	512.35
28.5956	500.45
28.6100	512.60
28.6245	488.52
28.6389	497.83
28.6533	546.71
28.6678	538.15
28.6822	512.42
28.6967	513.24
28.7111	507.74
28.7255	510.17
28.7400	527.38
28.7544	491.64
28.7689	502.74
28.7833	528.91
28.7977	526.79
28.8122	533.89
28.8266	511.79
28.8411	502.55
28.8555	510.32
28.8699	495.14
28.8844	515.02
28.8988	508.97
28.9133	477.02
28.9277	519.84
28.9421	528.49
28.9566	486.41
28.9710	484.36
28.9855	496.68
28.9999	569.47
29.0143	478.79
29.0288	499.63
29.0432	532.63
29.0577	518.37
29.0721	503.77
29.0865	515.53
29.1010	548.24
29.1154	525.80
29.1299	553.36
29.1443	476.48
29.1587	478.17
29.1732	492.85
29.1876	469.36
29.2021	506.73
29.2165	478.15
29.2309	492.37
29.2454	498.08
29.2598	486.75
29.2743	516.01
29.2887	495.46
29.3031	528.62
29.3176	515.23
29.3320	566.97
29.3465	552.22
29.3609	517.64
29.3753	528.92
29.3898	504.53
29.4042	542.20
29.4187	536.23
29.4331	502.74
29.4475	491.43
29.4620	548.92
29.4764	545.68
29.4909	492.86
29.5053	517.10
29.5197	548.35
29.5342	503.52
29.5486	516.55
29.5631	504.86
29.5775	499.27
29.5919	500.09
29.6064	515.77
29.6208	515.73
29.6353	512.10
29.6497	487.05
29.6641	480.47
29.6786	477.60
29.6930	486.33
29.7075	507.53
29.7219	504.28
29.7363	496.40
29.7508	529.51
29.7652	514.13
29.7797	505.32
29.7941	527.81
29.8085	476.85
29.8230	531.86
29.8374	497.72
29.8519	474.99
29.8663	537.17
29.8807	528.24
29.8952	486.91
29.9096	497.90
29.9241	517.49
29.9385	486.37
29.9529	487.00
29.9674	500.74
29.9818	508.86
29.9963	533.48
30.0107	509.72
30.0251	488.51
30.0396	503.16
30.0540	492.77
30.0685	544.88
30.0829	477.61
30.0973	507.08
30.1118	479.22
30.1262	508.13
30.1407	490.61
30.1551	471.49
30.1695	501.07
30.1840	497.54
30.1984	467.03
30.2129	482.99
30.2273	533.31
30.2417	544.69
30.2562	535.23
30.2706	487.75
30.2851	508.42
30.2995	534.31
30.3139	496.11
30.3284	496.66
30.3428	503.36
30.3573	498.59
30.3717	510.53
30.3861	481.47
30.4006	512.36
30.4150	495.03
30.4295	474.76
30.4439	512.03
30.4583	507.08
30.4728	509.53
30.4872	512.00
30.5017	535.89
30.5161	517.00
30.5305	503.76
30.5450	500.56
30.5594	503.17
30.5739	537.76
30.5883	515.83
30.6028	514.46
30.6172	511.05
30.6316	535.37
30.6461	530.19
30.6605	558.80
30.6750	563.05
30.6894	549.40
30.7038	585.03
30.7183	594.06
30.7327	618.23
30.7472	633.27
30.7616	625.81
30.7760	645.09
30.7905	662.99
30.8049	686.46
30.8194	723.71
30.8338	729.85
30.8482	669.05
30.8627	653.71
30.8771	635.85
30.8916	644.31
30.9060	631.15
30.9204	635.42
30.9349	587.35
30.9493	610.21
30.9638	562.73
30.9782	544.78
30.9926	528.00
31.0071	531.31
31.0215	559.58
31.0360	577.21
31.0504	531.01
31.0648	514.82
31.0793	521.85
31.0937	529.08
31.1082	525.82
31.1226	522.02
31.1370	510.37
31.1515	504.11
31.1659	532.89
31.1804	532.93
31.1948	554.70
31.2092	520.99
31.2237	504.82
31.2381	538.15
31.2526	538.70
31.2670	527.77
31.2814	541.33
31.2959	548.88
31.3103	550.64
31.3248	515.44
31.3392	541.15
31.3536	562.91
31.3681	511.64
31.3825	514.88
31.3970	509.04
31.4114	523.66
31.4258	535.16
31.4403	528.40
31.4547	521.68
31.4692	540.97
31.4836	521.92
31.4980	490.76
31.5125	482.33
31.5269	505.87
31.5414	492.51
31.5558	532.25
31.5702	506.84
31.5847	491.71
31.5991	508.32
31.6136	477.07
31.6280	476.78
31.6424	515.03
31.6569	499.49
31.6713	506.19
31.6858	514.46
31.7002	542.08
31.7146	534.54
31.7291	499.58
31.7435	529.28
31.7580	507.28
31.7724	504.67
31.7868	502.58
31.8013	502.29
31.8157	518.05
31.8302	513.06
31.8446	520.20
31.8590	515.70
31.8735	520.75
31.8879	519.12
31.9024	548.25
31.9168	526.48
31.9312	540.09
31.9457	512.32
31.9601	502.42
31.9746	494.42
31.9890	511.35
32.0034	477.97
32.0179	486.59
32.0323	505.00
32.0468	487.73
32.0612	500.70
32.0756	492.12
32.0901	544.60
32.1045	512.07
32.1190	515.13
32.1334	496.89
32.1478	490.33
32.1623	499.85
32.1767	499.73
32.1912	472.07
32.2056	500.14
32.2200	492.14
32.2345	499.37
32.2489	506.12
32.2634	452.70
32.2778	492.52
32.2922	468.60
32.3067	490.14
32.3211	534.57
32.3356	537.43
32.3500	515.38
32.3644	529.14
32.3789	497.87
32.3933	514.36
32.4078	505.27
32.4222	534.30
32.4366	545.29
32.4511	481.57
32.4655	495.20
32.4800	511.65
32.4944	478.38
32.5088	498.39
32.5233	539.31
32.5377	534.12
32.5522	517.66
32.5666	496.52
32.5810	504.08
32.5955	476.34
32.6099	499.55
32.6244	520.86
32.6388	528.51
32.6532	495.61
32.6677	500.46
32.6821	521.52
32.6966	503.49
32.7110	529.38
32.7254	497.25
32.7399	504.49
32.7543	517.70
32.7688	501.60
32.7832	529.14
32.7976	496.06
32.8121	523.71
32.8265	502.90
32.8410	481.72
32.8554	508.00
32.8698	523.62
32.8843	508.55
32.8987	503.99
32.9132	482.88
32.9276	473.63
32.9420	534.09
32.9565	532.46
32.9709	490.88
32.9854	474.99
32.9998	499.51
33.0142	464.27
33.0287	502.14
33.0431	494.77
33.0576	528.81
33.0720	506.07
33.0864	541.12
33.1009	498.10
33.1153	497.85
33.1298	521.03
33.1442	491.09
33.1586	523.18
33.1731	513.22
33.1875	494.97
33.2020	466.56
33.2164	515.41
33.2308	517.37
33.2453	495.83
33.2597	503.76
33.2742	517.23
33.2886	516.75
33.3030	507.88
33.3175	506.00
33.3319	512.89
33.3464	502.79
33.3608	468.66
33.3752	514.42
33.3897	508.32
33.4041	468.54
33.4186	491.03
33.4330	505.13
33.4474	515.29
33.4619	507.12
33.4763	545.89
33.4908	506.40
33.5052	526.10
33.5196	522.96
33.5341	488.23
33.5485	519.48
33.5630	516.30
33.5774	487.80
33.5918	492.25
33.6063	529.26
33.6207	519.03
33.6352	523.65
33.6496	512.88
33.6640	506.82
33.6785	537.75
33.6929	502.07
33.7074	513.55
33.7218	527.77
33.7362	507.81
33.7507	521.52
33.7651	496.80
33.7796	517.89
33.7940	526.37
33.8084	531.68
33.8229	513.92
33.8373	525.44
33.8518	504.82
33.8662	530.84
33.8806	511.39
33.8951	507.87
33.9095	524.67
33.9240	504.21
33.9384	517.36
33.9528	516.70
33.9673	505.50
33.9817	493.62
33.9962	498.21
34.0106	493.22
34.0250	486.02
34.0395	496.58
34.0539	491.43
34.0684	514.38
34.0828	525.31
34.0972	499.27
34.1117	493.32
34.1261	503.86
34.1406	503.24
34.1550	535.34
34.1694	508.43
34.1839	499.82
34.1983	508.55
34.2128	493.64
34.2272	490.51
34.2417	515.98
34.2561	499.81
34.2705	524.86
34.2850	513.13
34.2994	494.84
34.3139	497.37
34.3283	492.56
34.3427	503.77
34.3572	516.91
34.3716	558.57
34.3861	536.45
34.4005	503.48
34.4149	497.75
34.4294	532.14
34.4438	509.04
34.4583	495.85
34.4727	534.25
34.4871	529.50
34.5016	520.22
34.5160	499.70
34.5305	505.58
34.5449	531.62
34.5593	503.10
34.5738	495.16
34.5882	486.69
34.6027	534.14
34.6171	518.61
34.6315	502.03
34.6460	528.99
34.6604	540.16
34.6749	497.04
34.6893	490.57
34.7037	527.94
34.7182	517.01
34.7326	495.81
34.7471	502.60
34.7615	475.81
34.7759	503.07
34.7904	493.47
34.8048	517.88
34.8193	515.63
34.8337	501.42
34.8481	499.90
34.8626	504.39
34.8770	516.30
34.8915	523.62
34.9059	495.13
34.9203	498.93
34.9348	518.74
34.9492	516.88
34.9637	491.11
34.9781	517.95
34.9925	524.82
35.0070	482.02
35.0214	503.53
35.0359	529.08
35.0503	492.37
35.0647	505.81
35.0792	563.15
35.0936	511.30
35.1081	471.66
35.1225	517.71
35.1369	537.32
35.1514	508.50
35.1658	508.76
35.1803	514.96
35.1947	510.67
35.2091	500.92
35.2236	514.31
35.2380	537.19
35.2525	545.39
35.2669	524.42
35.2813	518.78
35.2958	523.67
35.3102	536.33
35.3247	522.25
35.3391	475.72
35.3535	518.76
35.3680	510.15
35.3824	513.56
35.3969	498.15
35.4113	498.63
35.4257	503.61
35.4402	523.53
35.4546	513.42
35.4691	561.15
35.4835	545.33
35.4979	527.42
35.5124	505.18
35.5268	536.10
35.5413	538.78
35.5557	552.60
35.5701	516.38
35.5846	538.90
35.5990	540.14
35.6135	527.76
35.6279	537.39
35.6423	528.58
35.6568	538.90
35.6712	557.87
35.6857	592.14
35.7001	653.97
35.7145	738.22
35.7290	706.07
35.7434	630.64
35.7579	570.99
35.7723	571.25
35.7867	612.07
35.8012	654.62
35.8156	682.28
35.8301	658.25
35.8445	637.64
35.8589	637.56
35.8734	716.04
35.8878	810.63
35.9023	955.99
35.9167	1031.23
35.9311	1355.17
35.9456	2010.80
35.9600	2327.59
35.9745	1970.36
35.9889	2073.94
36.0033	2823.74
36.0178	3156.63
36.0322	2583.05
36.0467	1886.80
36.0611	1818.80
36.0755	1626.85
36.0900	1637.09
36.1044	1332.04
36.1189	1377.28
36.1333	1356.64
36.1477	1138.03
36.1622	1159.98
36.1766	1163.46
36.1911	1125.52
36.2055	1064.38
36.2199	969.24
36.2344	985.41
36.2488	972.06
36.2633	941.64
36.2777	976.71
36.2921	1012.03
36.3066	938.18
36.3210	955.26
36.3355	918.19
36.3499	879.84
36.3643	812.53
36.3788	797.81
36.3932	778.38
36.4077	742.41
36.4221	741.36
36.4365	697.14
36.4510	669.26
36.4654	638.88
36.4799	602.35
36.4943	572.71
36.5087	592.90
36.5232	564.36
36.5376	541.95
36.5521	609.43
36.5665	554.52
36.5809	536.84
36.5954	544.08
36.6098	581.63
36.6243	547.76
36.6387	529.79
36.6531	542.43
36.6676	559.20
36.6820	565.24
36.6965	552.30
36.7109	586.62
36.7253	526.07
36.7398	532.73
36.7542	571.06
36.7687	532.74
36.7831	551.10
36.7975	565.78
36.8120	586.40
36.8264	569.47
36.8409	609.75
36.8553	576.35
36.8697	597.77
36.8842	614.87
36.8986	576.31
36.9131	561.15
36.9275	585.89
36.9419	592.42
36.9564	544.62
36.9708	566.92
36.9853	550.57
36.9997	568.43
37.0141	521.97
37.0286	541.15
37.0430	512.92
37.0575	525.27
37.0719	528.37
37.0863	542.56
37.1008	504.79
37.1152	492.19
37.1297	499.88
37.1441	481.54
37.1585	498.32
37.1730	508.68
37.1874	518.60
37.2019	525.91
37.2163	514.71
37.2307	506.83
37.2452	524.94
37.2596	512.38
37.2741	540.08
37.2885	501.98
37.3029	489.05
37.3174	504.38
37.3318	544.64
37.3463	528.55
37.3607	509.52
37.3751	480.37
37.3896	474.39
37.4040	489.15
37.4185	515.66
37.4329	498.13
37.4473	518.90
37.4618	494.79
37.4762	521.72
37.4907	507.27
37.5051	492.23
37.5195	508.57
37.5340	514.43
37.5484	521.69
37.5629	506.92
37.5773	513.21
37.5917	514.63
37.6062	550.45
37.6206	523.78
37.6351	556.58
37.6495	522.78
37.6639	513.02
37.6784	473.12
37.6928	481.46
37.7073	511.10
37.7217	535.08
37.7361	510.20
37.7506	493.67
37.7650	496.19
37.7795	503.78
37.7939	501.77
37.8083	511.89
37.8228	520.05
37.8372	520.43
37.8517	495.49
37.8661	503.93
37.8805	495.66
37.8950	515.99
37.9094	493.24
37.9239	496.27
37.9383	508.58
37.9528	508.40
37.9672	546.31
37.9816	495.74
37.9961	512.47
38.0105	535.47
38.0250	541.92
38.0394	526.82
38.0538	515.35
38.0683	516.56
38.0827	498.66
38.0972	494.41
38.1116	482.39
38.1260	500.52
38.1405	501.92
38.1549	503.42
38.1694	506.36
38.1838	524.64
38.1982	521.25
38.2127	469.89
38.2271	488.34
38.2416	511.87
38.2560	500.01
38.2704	554.08
38.2849	505.88
38.2993	481.05
38.3138	506.03
38.3282	530.08
38.3426	511.96
38.3571	505.43
38.3715	516.09
38.3860	518.61
38.4004	538.43
38.4148	545.64
38.4293	582.15
38.4437	567.11
38.4582	592.25
38.4726	672.57
38.4870	662.79
38.5015	704.24
38.5159	767.52
38.5304	807.54
38.5448	797.83
38.5592	782.84
38.5737	753.85
38.5881	772.13
38.6026	758.13
38.6170	728.82
38.6314	672.24
38.6459	671.47
38.6603	657.55
38.6748	607.73
38.6892	564.25
38.7036	583.71
38.7181	542.07
38.7325	546.85
38.7470	555.18
38.7614	527.39
38.7758	531.01
38.7903	539.69
38.8047	494.85
38.8192	475.60
38.8336	492.05
38.8480	517.08
38.8625	527.90
38.8769	514.28
38.8914	495.94
38.9058	528.28
38.9202	543.61
38.9347	506.90
38.9491	482.24
38.9636	500.32
38.9780	505.86
38.9924	519.69
39.0069	492.92
39.0213	508.39
39.0358	518.29
39.0502	516.17
39.0646	535.56
39.0791	531.64
39.0935	516.59
39.1080	484.80
39.1224	503.88
39.1368	489.97
39.1513	475.62
39.1657	483.41
39.1802	484.78
39.1946	482.03
39.2090	480.33
39.2235	514.48
39.2379	512.66
39.2524	527.61
39.2668	497.52
39.2812	509.63
39.2957	491.07
39.3101	474.34
39.3246	502.80
39.3390	519.41
39.3534	504.75
39.3679	490.38
39.3823	502.96
39.3968	504.55
39.4112	526.07
39.4256	560.57
39.4401	532.58
39.4545	531.53
39.4690	516.01
39.4834	525.49
39.4978	494.04
39.5123	495.81
39.5267	511.78
39.5412	471.95
39.5556	483.81
39.5700	499.48
39.5845	511.02
39.5989	492.58
39.6134	486.76
39.6278	500.40
39.6422	516.77
39.6567	483.14
39.6711	517.97
39.6856	494.68
39.7000	498.59
39.7144	518.86
39.7289	506.55
39.7433	489.69
39.7578	467.76
39.7722	508.64
39.7866	523.38
39.8011	496.26
39.8155	516.56
39.8300	535.58
39.8444	520.75
39.8588	482.18
39.8733	514.41
39.8877	491.35
39.9022	470.47
39.9166	534.50
39.9310	504.73
39.9455	473.63
39.9599	510.24
39.9744	481.96
39.9888	500.80
40.0032	495.71
40.0177	478.61
40.0321	509.57
40.0466	505.92
40.0610	491.30
40.0754	489.76
40.0899	505.02
40.1043	505.10
40.1188	522.72
40.1332	498.40
40.1476	456.08
40.1621	511.91
40.1765	485.86
40.1910	512.03
40.2054	521.99
40.2198	510.34
40.2343	485.70
40.2487	502.68
40.2632	505.76
40.2776	514.05
40.2920	500.95
40.3065	544.74
40.3209	486.27
40.3354	477.85
40.3498	500.33
40.3642	510.15
40.3787	467.24
40.3931	462.33
40.4076	449.51
40.4220	485.48
40.4364	524.11
40.4509	505.97
40.4653	522.53
40.4798	530.92
40.4942	493.28
40.5086	502.82
40.5231	499.49
40.5375	504.04
40.5520	497.14
40.5664	508.59
40.5808	500.73
40.5953	540.07
40.6097	506.28
40.6242	511.64
40.6386	496.74
40.6530	508.59
40.6675	504.88
40.6819	491.15
40.6964	481.89
40.7108	511.09
40.7252	498.55
40.7397	496.61
40.7541	485.44
40.7686	521.01
40.7830	518.44
40.7974	513.36
40.8119	505.48
40.8263	515.03
40.8408	542.59
40.8552	506.82
40.8696	521.43
40.8841	492.04
40.8985	497.77
40.9130	500.18
40.9274	512.80
40.9418	530.33
40.9563	507.99
40.9707	528.40
40.9852	533.29
40.9996	502.51
41.0140	466.69
41.0285	498.78
41.0429	476.68
41.0574	469.71
41.0718	509.66
41.0862	511.51
41.1007	529.08
41.1151	468.88
41.1296	473.54
41.1440	465.90
41.1584	512.37
41.1729	504.36
41.1873	475.46
41.2018	479.97
41.2162	479.35
41.2306	510.29
41.2451	525.93
41.2595	499.18
41.2740	503.20
41.2884	500.55
41.3028	512.30
41.3173	514.96
41.3317	515.21
41.3462	481.97
41.3606	485.20
41.3750	499.71
41.3895	522.77
41.4039	482.96
41.4184	489.74
41.4328	510.98
41.4472	467.85
41.4617	484.90
41.4761	523.58
41.4906	522.12
41.5050	500.00
41.5194	493.22
41.5339	532.56
41.5483	490.37
41.5628	516.47
41.5772	497.78
41.5916	481.28
41.6061	522.83
41.6205	480.22
41.6350	517.97
41.6494	473.28
41.6639	482.13
41.6783	495.62
41.6927	514.69
41.7072	511.48
41.7216	496.85
41.7361	497.77
41.7505	489.77
41.7649	503.05
41.7794	483.28
41.7938	456.05
41.8083	475.59
41.8227	463.43
41.8371	503.23
41.8516	517.25
41.8660	556.26
41.8805	522.22
41.8949	567.55
41.9093	565.51
41.9238	521.08
41.9382	560.05
41.9527	572.03
41.9671	565.73
41.9815	586.68
41.9960	520.28
42.0104	557.67
42.0249	579.04
42.0393	543.73
42.0537	551.90
42.0682	587.73
42.0826	581.68
42.0971	578.56
42.1115	568.90
42.1259	569.94
42.1404	588.82
42.1548	576.84
42.1693	616.48
42.1837	668.86
42.1981	774.19
42.2126	873.73
42.2270	935.63
42.2415	1108.03
42.2559	1264.48
42.2703	1408.43
42.2848	1569.17
42.2992	1609.07
42.3137	1688.42
42.3281	1713.29
42.3425	1603.55
42.3570	1520.72
42.3714	1449.80
42.3859	1412.66
42.4003	1393.22
42.4147	1369.06
42.4292	1310.71
42.4436	1185.27
42.4581	1069.38
42.4725	965.24
42.4869	872.23
42.5014	762.45
42.5158	708.41
42.5303	699.57
42.5447	649.95
42.5591	627.67
42.5736	597.30
42.5880	537.23
42.6025	594.74
42.6169	571.28
42.6313	559.02
42.6458	567.73
42.6602	542.03
42.6747	553.35
42.6891	531.37
42.7035	567.45
42.7180	548.85
42.7324	517.96
42.7469	543.77
42.7613	507.89
42.7757	511.74
42.7902	524.39
42.8046	506.28
42.8191	523.41
42.8335	532.18
42.8479	498.56
42.8624	494.14
42.8768	533.69
42.8913	506.86
42.9057	537.04
42.9201	505.61
42.9346	490.74
42.9490	485.08
42.9635	506.89
42.9779	508.72
42.9923	497.68
43.0068	497.59
43.0212	521.58
43.0357	515.89
43.0501	493.84
43.0645	510.46
43.0790	527.32
43.0934	533.32
43.1079	513.21
43.1223	506.79
43.1367	503.18
43.1512	501.91
43.1656	534.41
43.1801	533.82
43.1945	529.58
43.2089	490.23
43.2234	535.25
43.2378	533.46
43.2523	528.63
43.2667	533.52
43.2811	543.30
43.2956	501.75
43.3100	507.12
43.3245	542.25
43.3389	536.84
43.3533	536.55
43.3678	471.16
43.3822	488.42
43.3967	509.46
43.4111	492.18
43.4255	556.43
43.4400	569.21
43.4544	553.85
43.4689	526.77
43.4833	517.42
43.4977	520.71
43.5122	498.20
43.5266	512.01
43.5411	496.77
43.5555	513.53
43.5699	511.28
43.5844	524.07
43.5988	507.62
43.6133	487.28
43.6277	522.79
43.6421	480.42
43.6566	531.34
43.6710	520.49
43.6855	501.21
43.6999	558.06
43.7143	559.98
43.7288	512.28
43.7432	533.93
43.7577	553.01
43.7721	562.68
43.7865	544.17
43.8010	538.46
43.8154	538.80
43.8299	527.78
43.8443	514.61
43.8587	549.15
43.8732	509.44
43.8876	493.17
43.9021	525.91
43.9165	562.60
43.9309	541.08
43.9454	533.10
43.9598	547.74
43.9743	576.01
43.9887	564.39
44.0031	569.75
44.0176	607.42
44.0320	533.65
44.0465	572.45
44.0609	618.94
44.0753	604.70
44.0898	637.18
44.1042	603.94
44.1187	632.63
44.1331	588.44
44.1475	572.15
44.1620	584.91
44.1764	605.84
44.1909	572.70
44.2053	554.61
44.2197	605.15
44.2342	565.11
44.2486	575.24
44.2631	573.68
44.2775	574.35
44.2919	600.93
44.3064	559.44
44.3208	519.01
44.3353	581.60
44.3497	571.60
44.3641	556.85
44.3786	556.59
44.3930	551.30
44.4075	521.62
44.4219	585.70
44.4363	594.33
44.4508	563.21
44.4652	599.20
44.4797	558.80
44.4941	575.11
44.5085	541.71
44.5230	548.40
44.5374	612.97
44.5519	579.40
44.5663	567.74
44.5807	593.09
44.5952	569.33
44.6096	565.87
44.6241	572.39
44.6385	584.57
44.6529	548.94
44.6674	583.33
44.6818	551.78
44.6963	591.17
44.7107	688.48
44.7251	697.10
44.7396	733.80
44.7540	775.46
44.7685	850.88
44.7829	877.76
44.7973	907.62
44.8118	859.17
44.8262	794.42
44.8407	766.14
44.8551	716.74
44.8695	767.42
44.8840	748.62
44.8984	755.57
44.9129	750.89
44.9273	664.75
44.9417	676.53
44.9562	604.76
44.9706	584.62
44.9851	528.00
44.9995	529.94
45.0139	525.06
45.0284	518.38
45.0428	568.89
45.0573	570.38
45.0717	503.63
45.0861	511.69
45.1006	513.79
45.1150	510.45
45.1295	559.49
45.1439	493.45
45.1583	516.64
45.1728	501.89
45.1872	528.00
45.2017	480.11
45.2161	526.31
45.2305	544.03
45.2450	495.70
45.2594	516.72
45.2739	513.98
45.2883	519.99
45.3028	518.58
45.3172	515.23
45.3316	500.82
45.3461	518.64
45.3605	502.20
45.3750	482.30
45.3894	487.38
45.4038	469.14
45.4183	499.26
45.4327	570.67
45.4472	514.54
45.4616	516.38
45.4760	485.93
45.4905	510.72
45.5049	506.46
45.5194	499.72
45.5338	503.78
45.5482	510.10
45.5627	512.28
45.5771	484.26
45.5916	499.89
45.6060	496.05
45.6204	474.22
45.6349	520.23
45.6493	519.32
45.6638	524.32
45.6782	520.03
45.6926	496.77
45.7071	513.72
45.7215	504.58
45.7360	518.67
45.7504	503.44
45.7648	505.97
45.7793	517.51
45.7937	498.21
45.8082	510.80
45.8226	539.44
45.8370	492.64
45.8515	517.29
45.8659	490.61
45.8804	497.78
45.8948	501.73
45.9092	535.53
45.9237	521.68
45.9381	497.28
45.9526	521.49
45.9670	519.61
45.9814	498.74
45.9959	541.41
46.0103	514.02
46.0248	527.73
46.0392	506.13
46.0536	544.17
46.0681	540.00
46.0825	507.97
46.0970	497.12
46.1114	505.39
46.1258	518.69
46.1403	468.85
46.1547	467.30
46.1692	532.77
46.1836	508.09
46.1980	511.79
46.2125	517.73
46.2269	500.94
46.2414	510.33
46.2558	505.66
46.2702	503.91
46.2847	557.00
46.2991	508.60
46.3136	525.19
46.3280	505.47
46.3424	512.54
46.3569	506.12
46.3713	485.19
46.3858	479.50
46.4002	512.08
46.4146	517.70
46.4291	526.85
46.4435	481.49
46.4580	469.90
46.4724	542.01
46.4868	495.70
46.5013	492.00
46.5157	513.75
46.5302	536.01
46.5446	509.54
46.5590	472.68
46.5735	475.60
46.5879	510.16
46.6024	519.60
46.6168	508.36
46.6312	509.84
46.6457	502.28
46.6601	489.89
46.6746	497.15
46.6890	508.89
46.7034	492.10
46.7179	534.08
46.7323	484.78
46.7468	477.13
46.7612	474.50
46.7756	502.98
46.7901	505.66
46.8045	508.24
46.8190	496.05
46.8334	482.11
46.8478	504.26
46.8623	482.71
46.8767	471.28
46.8912	490.79
46.9056	510.83
46.9200	498.95
46.9345	502.35
46.9489	496.00
46.9634	514.25
46.9778	512.24
46.9922	487.40
47.0067	498.98
47.0211	526.05
47.0356	521.55
47.0500	484.82
47.0644	511.64
47.0789	524.43
47.0933	531.53
47.1078	498.78
47.1222	516.33
47.1366	497.00
47.1511	489.10
47.1655	504.47
47.1800	489.58
47.1944	479.45
47.2088	513.35
47.2233	535.74
47.2377	498.93
47.2522	507.15
47.2666	509.30
47.2810	511.58
47.2955	498.95
47.3099	518.61
47.3244	486.89
47.3388	510.86
47.3532	515.22
47.3677	504.83
47.3821	523.89
47.3966	512.39
47.4110	474.84
47.4254	517.33
47.4399	508.74
47.4543	482.85
47.4688	497.59
47.4832	480.59
47.4976	494.56
47.5121	495.36
47.5265	472.31
47.5410	463.46
47.5554	510.04
47.5698	520.54
47.5843	496.81
47.5987	509.11
47.6132	476.62
47.6276	496.43
47.6420	485.55
47.6565	527.98
47.6709	501.21
47.6854	522.95
47.6998	498.59
47.7142	490.45
47.7287	495.90
47.7431	480.86
47.7576	476.42
47.7720	518.99
47.7864	500.05
47.8009	506.20
47.8153	508.48
47.8298	519.75
47.8442	501.69
47.8586	532.39
47.8731	512.14
47.8875	502.11
47.9020	535.14
47.9164	483.21
47.9308	484.24
47.9453	506.56
47.9597	496.29
47.9742	500.16
47.9886	508.34
48.0030	527.94
48.0175	519.25
48.0319	527.11
48.0464	504.09
48.0608	550.17
48.0752	484.69
48.0897	509.76
48.1041	546.70
48.1186	525.71
48.1330	479.11
48.1474	469.57
48.1619	509.01
48.1763	505.61
48.1908	480.96
48.2052	505.51
48.2196	528.59
48.2341	502.46
48.2485	537.93
48.2630	502.20
48.2774	505.43
48.2918	481.54
48.3063	518.35
48.3207	512.57
48.3352	474.54
48.3496	473.44
48.3640	504.65
48.3785	501.82
48.3929	518.70
48.4074	492.92
48.4218	544.73
48.4362	517.52
48.4507	456.21
48.4651	506.01
48.4796	505.41
48.4940	518.50
48.5084	529.52
48.5229	512.04
48.5373	505.55
48.5518	517.33
48.5662	508.67
48.5806	521.83
48.5951	519.53
48.6095	499.39
48.6240	530.10
48.6384	494.27
48.6528	493.02
48.6673	489.53
48.6817	482.96
48.6962	545.00
48.7106	550.92
48.7250	526.36
48.7395	530.70
48.7539	536.84
48.7684	534.24
48.7828	525.15
48.7972	530.73
48.8117	507.01
48.8261	537.38
48.8406	539.05
48.8550	512.95
48.8694	538.47
48.8839	519.39
48.8983	537.43
48.9128	552.24
48.9272	543.63
48.9416	558.03
48.9561	524.44
48.9705	541.43
48.9850	554.76
48.9994	597.10
49.0139	567.59
49.0283	588.15
49.0427	589.76
49.0572	622.02
49.0716	643.74
49.0861	683.59
49.1005	674.08
49.1149	677.44
49.1294	734.07
49.1438	768.00
49.1583	788.00
49.1727	886.05
49.1871	960.17
49.2016	975.94
49.2160	1066.49
49.2305	1147.17
49.2449	1232.89
49.2593	1299.99
49.2738	1419.15
49.2882	1517.30
49.3027	1569.45
49.3171	1667.66
49.3315	1756.56
49.3460	1802.68
49.3604	1826.96
49.3749	1769.66
49.3893	1787.43
49.4037	1826.03
49.4182	1825.73
49.4326	1759.56
49.4471	1654.82
49.4615	1653.32
49.4759	1578.53
49.4904	1496.70
49.5048	1446.49
49.5193	1348.89
49.5337	1270.79
49.5481	1228.28
49.5626	1174.77
49.5770	1062.36
49.5915	1003.44
49.6059	956.80
49.6203	874.61
49.6348	878.86
49.6492	805.51
49.6637	747.12
49.6781	692.96
49.6925	644.48
49.7070	689.77
49.7214	624.48
49.7359	642.42
49.7503	611.74
49.7647	595.87
49.7792	580.20
49.7936	601.19
49.8081	614.49
49.8225	610.31
49.8369	575.81
49.8514	565.54
49.8658	573.91
49.8803	528.55
49.8947	534.88
49.9091	557.76
49.9236	530.02
49.9380	543.59
49.9525	552.60
49.9669	520.27
49.9813	531.36
49.9958	512.16
50.0102	523.83
50.0247	534.18
50.0391	536.25
50.0535	536.82
50.0680	529.02
50.0824	553.07
50.0969	521.58
50.1113	518.19
50.1257	550.32
50.1402	531.32
50.1546	481.57
50.1691	543.62
50.1835	506.95
50.1979	510.13
50.2124	502.26
50.2268	536.55
50.2413	536.16
50.2557	478.38
50.2701	503.09
50.2846	545.90
50.2990	533.92
50.3135	521.59
50.3279	493.15
50.3423	521.62
50.3568	532.72
50.3712	522.97
50.3857	520.46
50.4001	509.97
50.4145	520.86
50.4290	531.41
50.4434	508.42
50.4579	495.73
50.4723	555.43
50.4867	500.61
50.5012	468.92
50.5156	499.06
50.5301	536.51
50.5445	516.50
50.5589	483.77
50.5734	503.54
50.5878	502.79
50.6023	506.44
50.6167	523.93
50.6311	532.96
50.6456	493.44
50.6600	502.16
50.6745	506.85
50.6889	531.68
50.7033	521.39
50.7178	513.70
50.7322	513.93
50.7467	513.09
50.7611	483.60
50.7755	507.72
50.7900	474.36
50.8044	511.06
50.8189	537.17
50.8333	526.34
50.8477	518.77
50.8622	509.16
50.8766	508.61
50.8911	503.06
50.9055	492.80
50.9199	505.96
50.9344	532.43
50.9488	510.78
50.9633	511.41
50.9777	489.86
50.9921	518.96
51.0066	508.89
51.0210	515.67
51.0355	510.75
51.0499	470.61
51.0643	481.96
51.0788	496.53
51.0932	518.64
51.1077	504.37
51.1221	528.98
51.1365	500.70
51.1510	494.86
51.1654	501.97
51.1799	520.33
51.1943	514.00
51.2087	500.78
51.2232	506.30
51.2376	510.37
51.2521	494.76
51.2665	500.55
51.2809	519.94
51.2954	500.54
51.3098	511.86
51.3243	503.30
51.3387	512.72
51.3531	488.45
51.3676	507.05
51.3820	477.53
51.3965	472.40
51.4109	505.81
51.4253	529.22
51.4398	502.90
51.4542	511.16
51.4687	520.11
51.4831	498.44
51.4975	521.58
51.5120	535.21
51.5264	513.65
51.5409	492.09
51.5553	462.88
51.5697	501.56
51.5842	479.33
51.5986	498.57
51.6131	515.11
51.6275	504.11
51.6419	507.54
51.6564	513.36
51.6708	493.02
51.6853	520.53
51.6997	506.50
51.7141	488.52
51.7286	510.00
51.7430	492.76
51.7575	503.32
51.7719	521.66
51.7863	527.80
51.8008	497.98
51.8152	529.14
51.8297	528.17
51.8441	517.43
51.8585	501.74
51.8730	513.48
51.8874	458.99
51.9019	474.81
51.9163	493.51
51.9307	494.55
51.9452	473.09
51.9596	508.17
51.9741	491.55
51.9885	549.57
52.0029	509.29
52.0174	506.84
52.0318	501.59
52.0463	533.47
52.0607	510.85
52.0751	498.07
52.0896	518.29
52.1040	518.03
52.1185	523.35
52.1329	530.19
52.1473	516.98
52.1618	525.89
52.1762	479.82
52.1907	489.94
52.2051	511.14
52.2195	500.36
52.2340	527.93
52.2484	529.75
52.2629	478.97
52.2773	473.84
52.2917	527.15
52.3062	517.90
52.3206	500.24
52.3351	518.43
52.3495	524.84
52.3639	478.74
52.3784	495.86
52.3928	476.62
52.4073	507.92
52.4217	535.64
52.4361	496.09
52.4506	504.21
52.4650	527.12
52.4795	524.93
52.4939	520.08
52.5083	510.89
52.5228	515.41
52.5372	513.29
52.5517	516.00
52.5661	494.06
52.5805	481.06
52.5950	530.52
52.6094	533.94
52.6239	506.35
52.6383	491.80
52.6527	470.21
52.6672	500.93
52.6816	516.73
52.6961	511.70
52.7105	542.88
52.7250	524.30
52.7394	502.97
52.7538	533.13
52.7683	511.94
52.7827	517.65
52.7972	485.32
52.8116	532.61
52.8260	498.94
52.8405	452.85
52.8549	464.92
52.8694	539.38
52.8838	502.17
52.8982	504.18
52.9127	524.92
52.9271	488.21
52.9416	492.67
52.9560	495.34
52.9704	509.24
52.9849	525.21
52.9993	500.60
53.0138	472.60
53.0282	497.02
53.0426	504.67
53.0571	523.92
53.0715	510.06
53.0860	507.64
53.1004	515.12
53.1148	525.95
53.1293	531.09
53.1437	522.02
53.1582	541.83
53.1726	519.48
53.1870	536.63
53.2015	551.87
53.2159	532.38
53.2304	515.79
53.2448	511.67
53.2592	509.02
53.2737	496.44
53.2881	513.08
53.3026	503.01
53.3170	535.31
53.3314	518.17
53.3459	532.23
53.3603	510.97
53.3748	506.58
53.3892	526.78
53.4036	518.72
53.4181	548.89
53.4325	512.79
53.4470	497.32
53.4614	525.61
53.4758	523.44
53.4903	512.92
53.5047	548.85
53.5192	526.60
53.5336	534.60
53.5480	521.09
53.5625	539.00
53.5769	513.53
53.5914	520.49
53.6058	501.21
53.6202	500.90
53.6347	535.24
53.6491	518.52
53.6636	543.88
53.6780	523.85
53.6924	523.60
53.7069	539.27
53.7213	533.50
53.7358	473.69
53.7502	517.17
53.7646	483.33
53.7791	530.68
53.7935	497.74
53.8080	524.12
53.8224	520.28
53.8368	521.06
53.8513	507.27
53.8657	520.59
53.8802	518.20
53.8946	489.70
53.9090	526.27
53.9235	519.95
53.9379	540.67
53.9524	535.60
53.9668	511.99
53.9812	509.42
53.9957	531.47
54.0101	487.36
54.0246	506.44
54.0390	518.45
54.0534	506.19
54.0679	521.71
54.0823	549.95
54.0968	518.56
54.1112	489.11
54.1256	516.03
54.1401	516.89
54.1545	501.16
54.1690	509.41
54.1834	544.75
54.1978	524.27
54.2123	519.60
54.2267	529.97
54.2412	507.24
54.2556	489.54
54.2700	525.19
54.2845	535.45
54.2989	506.19
54.3134	516.50
54.3278	527.24
54.3422	532.88
54.3567	499.42
54.3711	476.67
54.3856	505.01
54.4000	507.98
54.4144	538.92
54.4289	552.77
54.4433	502.29
54.4578	499.50
54.4722	530.55
54.4866	524.13
54.5011	515.69
54.5155	508.91
54.5300	552.04
54.5444	558.76
54.5588	563.16
54.5733	562.65
54.5877	574.38
54.6022	611.16
54.6166	602.40
54.6310	566.90
54.6455	577.84
54.6599	561.89
54.6744	558.10
54.6888	547.04
54.7032	595.76
54.7177	607.04
54.7321	569.09
54.7466	582.48
54.7610	564.04
54.7754	542.34
54.7899	554.47
54.8043	581.52
54.8188	606.15
54.8332	591.18
54.8476	554.44
54.8621	571.95
54.8765	541.82
54.8910	545.53
54.9054	578.38
54.9198	553.77
54.9343	539.10
54.9487	524.83
54.9632	558.83
54.9776	555.11
54.9920	545.66
55.0065	533.56
55.0209	518.30
55.0354	519.87
55.0498	520.47
55.0642	527.75
55.0787	521.18
55.0931	538.35
55.1076	525.52
55.1220	538.37
55.1364	526.27
55.1509	488.48
55.1653	528.34
55.1798	508.84
55.1942	528.00
55.2086	540.78
55.2231	510.72
55.2375	491.74
55.2520	519.35
55.2664	523.95
55.2808	502.01
55.2953	513.66
55.3097	525.28
55.3242	472.01
55.3386	489.28
55.3530	517.30
55.3675	513.94
55.3819	511.70
55.3964	489.75
55.4108	534.92
55.4252	537.52
55.4397	477.55
55.4541	462.31
55.4686	509.61
55.4830	550.45
55.4974	534.14
55.5119	523.65
55.5263	525.14
55.5408	512.37
55.5552	531.56
55.5696	517.75
55.5841	497.28
55.5985	491.36
55.6130	499.92
55.6274	522.44
55.6418	506.16
55.6563	520.55
55.6707	516.16
55.6852	512.27
55.6996	506.97
55.7140	508.53
55.7285	518.07
55.7429	530.59
55.7574	519.59
55.7718	521.38
55.7862	517.91
55.8007	538.34
55.8151	555.16
55.8296	532.50
55.8440	524.19
55.8584	502.02
55.8729	516.15
55.8873	521.22
55.9018	523.58
55.9162	537.99
55.9306	496.42
55.9451	485.44
55.9595	497.98
55.9740	545.55
55.9884	506.97
56.0028	530.67
56.0173	532.03
56.0317	535.79
56.0462	529.52
56.0606	487.22
56.0750	498.57
56.0895	541.88
56.1039	541.30
56.1184	527.30
56.1328	525.60
56.1472	532.27
56.1617	505.56
56.1761	514.59
56.1906	528.51
56.2050	521.01
56.2194	530.92
56.2339	520.41
56.2483	520.06
56.2628	494.47
56.2772	525.05
56.2916	517.23
56.3061	514.53
56.3205	516.43
56.3350	535.40
56.3494	486.43
56.3639	524.02
56.3783	509.41
56.3927	511.62
56.4072	543.23
56.4216	523.53
56.4361	522.94
56.4505	556.93
56.4649	492.03
56.4794	509.37
56.4938	502.80
56.5083	519.40
56.5227	488.62
56.5371	482.09
56.5516	496.67
56.5660	517.12
56.5805	504.30
56.5949	500.39
56.6093	521.71
56.6238	543.20
56.6382	505.45
56.6527	479.65
56.6671	514.04
56.6815	517.16
56.6960	521.36
56.7104	536.10
56.7249	549.07
56.7393	507.45
56.7537	526.90
56.7682	540.78
56.7826	532.62
56.7971	488.15
56.8115	517.34
56.8259	543.95
56.8404	530.32
56.8548	491.71
56.8693	508.89
56.8837	505.16
56.8981	479.15
56.9126	551.03
56.9270	536.08
56.9415	511.89
56.9559	522.17
56.9703	497.72
56.9848	517.54
56.9992	540.53
57.0137	498.96
57.0281	475.53
57.0425	476.49
57.0570	499.60
57.0714	543.08
57.0859	558.04
57.1003	564.91
57.1147	510.67
57.1292	531.88
57.1436	503.35
57.1581	499.68
57.1725	530.61
57.1869	502.74
57.2014	517.00
57.2158	523.06
57.2303	514.58
57.2447	537.30
57.2591	550.27
57.2736	535.18
57.2880	507.25
57.3025	496.65
57.3169	516.20
57.3313	517.63
57.3458	531.56
57.3602	522.93
57.3747	506.79
57.3891	483.30
57.4035	544.15
57.4180	493.05
57.4324	526.07
57.4469	515.44
57.4613	523.08
57.4757	517.06
57.4902	529.69
57.5046	478.81
57.5191	526.32
57.5335	546.14
57.5479	545.81
57.5624	539.19
57.5768	546.98
57.5913	516.11
57.6057	533.82
57.6201	525.21
57.6346	525.71
57.6490	506.50
57.6635	560.49
57.6779	543.93
57.6923	515.44
57.7068	577.88
57.7212	525.84
57.7357	511.14
57.7501	556.91
57.7645	521.50
57.7790	546.56
57.7934	551.73
57.8079	551.99
57.8223	518.03
57.8367	517.04
57.8512	529.71
57.8656	512.90
57.8801	507.48
57.8945	534.52
57.9089	558.12
57.9234	537.65
57.9378	555.06
57.9523	534.69
57.9667	534.04
57.9811	541.86
57.9956	545.87
58.0100	523.54
58.0245	560.87
58.0389	552.48
58.0533	549.42
58.0678	583.28
58.0822	531.72
58.0967	538.53
58.1111	603.48
58.1255	586.57
58.1400	572.02
58.1544	577.11
58.1689	593.03
58.1833	575.68
58.1977	614.82
58.2122	610.41
58.2266	615.26
58.2411	618.50
58.2555	605.61
58.2699	638.39
58.2844	631.01
58.2988	622.31
58.3133	654.35
58.3277	633.03
58.3421	658.16
58.3566	672.51
58.3710	688.29
58.3855	635.70
58.3999	624.60
58.4143	609.96
58.4288	651.72
58.4432	608.93
58.4577	607.55
58.4721	625.16
58.4865	597.43
58.5010	578.95
58.5154	610.82
58.5299	628.42
58.5443	615.62
58.5587	595.99
58.5732	583.22
58.5876	585.21
58.6021	595.57
58.6165	558.71
58.6309	581.88
58.6454	562.49
58.6598	528.84
58.6743	530.20
58.6887	532.04
58.7031	520.21
58.7176	542.04
58.7320	535.59
58.7465	540.02
58.7609	525.63
58.7753	528.20
58.7898	528.52
58.8042	551.74
58.8187	548.31
58.8331	527.65
58.8475	516.33
58.8620	513.58
58.8764	506.51
58.8909	534.14
58.9053	569.74
58.9197	545.30
58.9342	549.39
58.9486	552.19
58.9631	525.57
58.9775	532.06
58.9919	515.84
59.0064	547.77
59.0208	558.35
59.0353	523.48
59.0497	542.42
59.0641	553.02
59.0786	532.10
59.0930	552.63
59.1075	495.38
59.1219	512.99
59.1363	529.72
59.1508	504.35
59.1652	530.15
59.1797	554.19
59.1941	516.74
59.2085	516.64
59.2230	552.41
59.2374	544.17
59.2519	534.83
59.2663	527.68
59.2807	552.90
59.2952	531.04
59.3096	541.43
59.3241	544.14
59.3385	579.79
59.3529	536.45
59.3674	554.97
59.3818	561.44
59.3963	527.57
59.4107	537.33
59.4251	542.30
59.4396	584.59
59.4540	570.72
59.4685	560.44
59.4829	578.54
59.4973	545.68
59.5118	551.12
59.5262	569.29
59.5407	564.63
59.5551	538.96
59.5695	565.88
59.5840	557.59
59.5984	544.13
59.6129	553.06
59.6273	507.99
59.6417	501.21
59.6562	542.80
59.6706	522.06
59.6851	537.75
59.6995	556.93
59.7139	552.75
59.7284	532.50
59.7428	559.39
59.7573	524.53
59.7717	520.02
59.7861	556.38
59.8006	567.81
59.8150	587.96
59.8295	585.02
59.8439	544.66
59.8583	553.67
59.8728	538.01
59.8872	559.66
59.9017	575.09
59.9161	561.97
59.9305	545.27
59.9450	590.16
59.9594	552.68
59.9739	548.46
59.9883	569.05
60.0027	527.07
60.0172	525.46
60.0316	555.10
60.0461	536.52
60.0605	571.75
60.0750	575.27
60.0894	567.16
60.1038	564.10
60.1183	561.76
60.1327	573.82
60.1472	554.86
60.1616	548.55
60.1760	556.37
60.1905	537.90
60.2049	541.42
60.2194	556.71
60.2338	527.76
60.2482	561.90
60.2627	543.63
60.2771	532.01
60.2916	514.70
60.3060	489.69
60.3204	501.93
60.3349	547.76
60.3493	511.30
60.3638	539.14
60.3782	549.95
60.3926	515.93
60.4071	522.83
60.4215	575.28
60.4360	551.88
60.4504	541.93
60.4648	562.95
60.4793	571.65
60.4937	533.32
60.5082	522.93
60.5226	557.51
60.5370	594.28
60.5515	548.73
60.5659	550.40
60.5804	532.05
60.5948	525.97
60.6092	561.94
60.6237	537.95
60.6381	521.35
60.6526	536.25
60.6670	535.14
60.6814	492.33
60.6959	496.09
60.7103	563.10
60.7248	561.87
60.7392	522.16
60.7536	532.23
60.7681	518.07
60.7825	546.38
60.7970	510.68
60.8114	521.88
60.8258	494.49
60.8403	545.31
60.8547	554.30
60.8692	545.53
60.8836	520.58
60.8980	526.17
60.9125	574.98
60.9269	592.72
60.9414	569.52
60.9558	520.57
60.9702	542.21
60.9847	559.74
60.9991	533.28
61.0136	537.67
61.0280	529.67
61.0424	490.60
61.0569	526.64
61.0713	547.49
61.0858	535.63
61.1002	546.32
61.1146	510.51
61.1291	577.47
61.1435	550.10
61.1580	519.64
61.1724	574.44
61.1868	522.72
61.2013	543.70
61.2157	536.55
61.2302	544.51
61.2446	532.66
61.2590	514.14
61.2735	516.79
61.2879	529.13
61.3024	537.82
61.3168	537.69
61.3312	554.10
61.3457	537.51
61.3601	564.72
61.3746	565.01
61.3890	558.38
61.4034	553.04
61.4179	534.69
61.4323	534.26
61.4468	513.32
61.4612	516.60
61.4756	533.31
61.4901	546.32
61.5045	530.43
61.5190	529.87
61.5334	571.77
61.5478	560.38
61.5623	523.72
61.5767	542.83
61.5912	544.94
61.6056	537.16
61.6200	546.92
61.6345	553.26
61.6489	550.94
61.6634	541.79
61.6778	562.69
61.6922	536.64
61.7067	553.04
61.7211	530.32
61.7356	540.60
61.7500	568.85
61.7644	561.34
61.7789	594.11
61.7933	550.73
61.8078	539.23
61.8222	542.61
61.8366	566.42
61.8511	570.94
61.8655	602.69
61.8800	549.03
61.8944	561.79
61.9088	533.57
61.9233	546.08
61.9377	581.88
61.9522	599.62
61.9666	573.00
61.9810	541.49
61.9955	542.31
62.0099	549.66
62.0244	547.09
62.0388	522.10
62.0532	540.46
62.0677	546.21
62.0821	561.94
62.0966	584.79
62.1110	542.02
62.1254	552.79
62.1399	512.36
62.1543	543.77
62.1688	574.40
62.1832	542.13
62.1976	520.96
62.2121	561.78
62.2265	569.67
62.2410	533.61
62.2554	524.33
62.2698	542.65
62.2843	565.06
62.2987	523.73
62.3132	546.41
62.3276	534.27
62.3420	560.83
62.3565	535.99
62.3709	539.43
62.3854	537.39
62.3998	566.40
62.4142	541.15
62.4287	555.15
62.4431	514.66
62.4576	528.90
62.4720	539.87
62.4864	534.19
62.5009	537.98
62.5153	560.92
62.5298	541.04
62.5442	584.17
62.5586	565.73
62.5731	522.88
62.5875	549.34
62.6020	570.74
62.6164	563.08
62.6308	590.71
62.6453	555.38
62.6597	538.17
62.6742	569.12
62.6886	540.56
62.7030	563.16
62.7175	567.13
62.7319	522.09
62.7464	529.32
62.7608	556.80
62.7752	578.78
62.7897	587.57
62.8041	567.48
62.8186	552.35
62.8330	567.21
62.8474	543.49
62.8619	563.49
62.8763	559.13
62.8908	565.46
62.9052	565.44
62.9196	547.97
62.9341	549.13
62.9485	543.89
62.9630	543.59
62.9774	533.67
62.9918	533.31
63.0063	560.90
63.0207	585.08
63.0352	574.92
63.0496	545.54
63.0640	577.38
63.0785	575.02
63.0929	573.54
63.1074	562.48
63.1218	535.36
63.1362	579.00
63.1507	553.85
63.1651	556.84
63.1796	589.83
63.1940	549.10
63.2084	543.47
63.2229	594.72
63.2373	607.03
63.2518	599.66
63.2662	575.91
63.2806	600.20
63.2951	589.95
63.3095	625.77
63.3240	609.79
63.3384	580.10
63.3528	584.63
63.3673	570.59
63.3817	562.28
63.3962	542.77
63.4106	524.58
63.4250	608.15
63.4395	529.60
63.4539	552.30
63.4684	570.82
63.4828	585.37
63.4972	571.30
63.5117	576.73
63.5261	583.78
63.5406	593.54
63.5550	588.91
63.5694	597.23
63.5839	598.15
63.5983	627.01
63.6128	613.50
63.6272	605.33
63.6416	602.63
63.6561	615.55
63.6705	597.86
63.6850	580.07
63.6994	588.36
63.7138	625.23
63.7283	601.71
63.7427	573.11
63.7572	606.56
63.7716	602.93
63.7861	613.72
63.8005	671.62
63.8149	665.80
63.8294	685.79
63.8438	655.62
63.8583	669.55
63.8727	694.53
63.8871	678.65
63.9016	673.82
63.9160	676.38
63.9305	686.41
63.9449	729.05
63.9593	678.81
63.9738	680.23
63.9882	712.82
64.0027	759.33
64.0171	751.81
64.0315	768.96
64.0460	797.42
64.0604	755.36
64.0749	766.40
64.0893	781.76
64.1037	751.15
64.1182	779.95
64.1326	736.31
64.1471	742.09
64.1615	796.29
64.1759	802.77
64.1904	724.09
64.2048	741.93
64.2193	721.70
64.2337	737.30
64.2481	712.17
64.2626	782.29
64.2770	747.58
64.2915	729.43
64.3059	716.15
64.3203	760.57
64.3348	756.05
64.3492	705.42
64.3637	726.85
64.3781	721.50
64.3925	671.99
64.4070	678.13
64.4214	709.64
64.4359	688.50
64.4503	668.90
64.4647	708.24
64.4792	673.56
64.4936	676.37
64.5081	645.10
64.5225	679.77
64.5369	633.86
64.5514	662.28
64.5658	639.51
64.5803	635.32
64.5947	696.15
64.6091	678.40
64.6236	607.44
64.6380	652.26
64.6525	648.55
64.6669	647.19
64.6813	645.23
64.6958	661.10
64.7102	724.07
64.7247	679.41
64.7391	709.76
64.7535	710.74
64.7680	686.41
64.7824	710.33
64.7969	726.18
64.8113	773.98
64.8257	787.53
64.8402	798.08
64.8546	839.29
64.8691	872.44
64.8835	842.93
64.8979	835.85
64.9124	853.80
64.9268	860.62
64.9413	946.81
64.9557	957.21
64.9701	997.03
64.9846	1057.49
64.9990	1145.36
65.0135	1254.21
65.0279	1471.53
65.0423	1640.52
65.0568	1994.08
65.0712	2567.53
65.0857	3237.84
65.1001	4358.79
65.1145	5881.93
65.1290	7712.48
65.1434	9255.35
65.1579	10711.31
65.1723	11761.64
65.1867	11198.54
65.2012	10115.16
65.2156	8323.20
65.2301	6718.19
65.2445	5413.79
65.2589	4409.89
65.2734	4249.54
65.2878	4366.53
65.3023	4816.13
65.3167	5595.14
65.3311	6351.30
65.3456	6838.99
65.3600	6991.88
65.3745	6487.24
65.3889	5624.87
65.4033	4526.44
65.4178	3494.52
65.4322	2648.01
65.4467	2046.71
65.4611	1766.58
65.4755	1546.68
65.4900	1304.93
65.5044	1098.61
65.5189	1063.48
65.5333	1006.47
65.5477	927.09
65.5622	911.67
65.5766	826.82
65.5911	823.84
65.6055	812.29
65.6199	790.61
65.6344	773.10
65.6488	758.22
65.6633	758.76
65.6777	718.68
65.6921	704.03
65.7066	726.49
65.7210	709.30
65.7355	672.62
65.7499	702.23
65.7643	673.38
65.7788	662.56
65.7932	670.91
65.8077	663.12
65.8221	673.39
65.8365	654.19
65.8510	689.41
65.8654	681.24
65.8799	659.65
65.8943	653.89
65.9087	670.15
65.9232	598.95
65.9376	620.84
65.9521	605.39
65.9665	607.15
65.9809	643.54
65.9954	627.96
66.0098	603.93
66.0243	604.62
66.0387	642.06
66.0531	637.44
66.0676	636.29
66.0820	623.83
66.0965	651.79
66.1109	623.26
66.1253	620.83
66.1398	618.61
66.1542	605.84
66.1687	585.22
66.1831	599.45
66.1975	588.73
66.2120	596.46
66.2264	584.18
66.2409	580.08
66.2553	610.99
66.2697	602.26
66.2842	605.65
66.2986	601.24
66.3131	601.04
66.3275	602.73
66.3419	639.80
66.3564	614.56
66.3708	585.37
66.3853	601.50
66.3997	580.43
66.4141	586.26
66.4286	591.64
66.4430	576.59
66.4575	577.51
66.4719	625.45
66.4863	613.70
66.5008	575.71
66.5152	574.82
66.5297	587.05
66.5441	569.05
66.5585	594.51
66.5730	575.38
66.5874	613.23
66.6019	608.49
66.6163	578.82
66.6307	552.28
66.6452	594.60
66.6596	606.03
66.6741	559.94
66.6885	571.65
66.7029	596.24
66.7174	548.14
66.7318	553.46
66.7463	568.42
66.7607	576.58
66.7751	615.55
66.7896	551.56
66.8040	569.63
66.8185	563.10
66.8329	580.49
66.8473	569.52
66.8618	602.50
66.8762	573.42
66.8907	580.40
66.9051	613.76
66.9195	590.89
66.9340	570.95
66.9484	598.36
66.9629	587.11
66.9773	566.39
66.9917	582.97
67.0062	593.99
67.0206	603.11
67.0351	573.93
67.0495	571.85
67.0639	559.04
67.0784	561.80
67.0928	574.83
67.1073	529.48
67.1217	558.36
67.1361	612.50
67.1506	595.60
67.1650	572.66
67.1795	590.89
67.1939	558.43
67.2083	611.07
67.2228	569.77
67.2372	611.79
67.2517	599.73
67.2661	574.89
67.2805	563.02
67.2950	529.77
67.3094	569.25
67.3239	616.71
67.3383	559.73
67.3527	566.19
67.3672	568.30
67.3816	550.04
67.3961	563.27
67.4105	569.30
67.4250	593.79
67.4394	560.76
67.4538	562.72
67.4683	567.36
67.4827	543.19
67.4972	586.15
67.5116	581.56
67.5260	586.50
67.5405	567.54
67.5549	573.01
67.5694	570.81
67.5838	593.28
67.5982	587.52
67.6127	585.44
67.6271	586.08
67.6416	569.29
67.6560	547.46
67.6704	539.81
67.6849	544.20
67.6993	562.62
67.7138	573.51
67.7282	546.64
67.7426	569.06
67.7571	577.22
67.7715	570.78
67.7860	615.58
67.8004	583.18
67.8148	582.42
67.8293	602.18
67.8437	569.17
67.8582	598.43
67.8726	559.73
67.8870	572.48
67.9015	577.74
67.9159	552.53
67.9304	564.26
67.9448	577.87
67.9592	570.64
67.9737	579.40
67.9881	576.06
68.0026	571.56
68.0170	578.18
68.0314	559.39
68.0459	581.17
68.0603	567.85
68.0748	571.13
68.0892	567.96
68.1036	572.28
68.1181	618.08
68.1325	575.50
68.1470	550.27
68.1614	591.16
68.1758	621.31
68.1903	561.65
68.2047	529.81
68.2192	579.63
68.2336	584.18
68.2480	594.02
68.2625	566.43
68.2769	573.46
68.2914	577.93
68.3058	564.08
68.3202	555.12
68.3347	575.51
68.3491	545.56
68.3636	568.64
68.3780	593.30
68.3924	566.18
68.4069	578.80
68.4213	566.72
68.4358	577.72
68.4502	578.01
68.4646	602.46
68.4791	553.86
68.4935	589.30
68.5080	556.70
68.5224	557.87
68.5368	601.05
68.5513	570.45
68.5657	564.76
68.5802	529.83
68.5946	587.26
68.6090	584.68
68.6235	588.45
68.6379	591.13
68.6524	527.55
68.6668	556.36
68.6812	561.71
68.6957	562.40
68.7101	582.39
68.7246	573.58
68.7390	607.21
68.7534	567.34
68.7679	580.75
68.7823	618.51
68.7968	540.91
68.8112	562.93
68.8256	582.70
68.8401	575.64
68.8545	602.39
68.8690	570.46
68.8834	581.40
68.8978	608.60
68.9123	605.84
68.9267	549.55
68.9412	591.58
68.9556	572.57
68.9700	542.08
68.9845	556.93
68.9989	607.79
69.0134	575.01
69.0278	565.32
69.0422	538.57
69.0567	586.34
69.0711	585.84
69.0856	581.43
69.1000	497.16
69.1144	577.97
69.1289	549.41
69.1433	535.97
69.1578	533.00
69.1722	547.16
69.1866	560.97
69.2011	598.23
69.2155	558.04
69.2300	535.64
69.2444	527.31
69.2588	570.80
69.2733	585.37
69.2877	602.66
69.3022	577.73
69.3166	567.12
69.3310	580.92
69.3455	596.56
69.3599	564.83
69.3744	537.54
69.3888	554.12
69.4032	567.21
69.4177	591.04
69.4321	620.10
69.4466	608.17
69.4610	557.88
69.4754	580.54
69.4899	619.72
69.5043	601.62
69.5188	610.74
69.5332	621.99
69.5476	588.43
69.5621	612.16
69.5765	580.60
69.5910	600.59
69.6054	587.27
69.6198	593.22
69.6343	553.37
69.6487	560.51
69.6632	558.64
69.6776	578.92
69.6920	589.44
69.7065	594.76
69.7209	549.81
69.7354	547.14
69.7498	583.98
69.7642	509.86
69.7787	550.31
69.7931	543.19
69.8076	560.43
69.8220	556.74
69.8364	583.92
69.8509	582.54
69.8653	548.64
69.8798	554.47
69.8942	594.88
69.9086	635.28
69.9231	612.38
69.9375	622.59
69.9520	638.21
69.9664	573.42
69.9808	544.82
69.9953	616.61
70.0097	570.13
70.0242	580.15
70.0386	558.25
70.0530	570.17
70.0675	581.93
70.0819	575.79
70.0964	586.42
70.1108	600.76
70.1252	627.04
70.1397	599.73
70.1541	519.22
70.1686	625.37
70.1830	601.02
70.1974	566.67
70.2119	585.43
70.2263	576.35
70.2408	583.57
70.2552	594.96
70.2696	583.78
70.2841	582.91
70.2985	564.48
70.3130	587.98
70.3274	618.54
70.3418	588.05
70.3563	615.56
70.3707	542.62
70.3852	573.08
70.3996	594.32
70.4140	527.41
70.4285	596.17
70.4429	534.33
70.4574	570.32
70.4718	563.73
70.4862	586.24
70.5007	601.33
70.5151	534.73
70.5296	579.63
70.5440	593.71
70.5584	597.59
70.5729	604.46
70.5873	540.87
70.6018	571.74
70.6162	554.84
70.6306	576.26
70.6451	544.23
70.6595	554.62
70.6740	600.02
70.6884	541.05
70.7028	544.75
70.7173	653.81
70.7317	621.99
70.7462	593.84
70.7606	517.64
70.7750	572.86
70.7895	650.29
70.8039	597.14
70.8184	598.48
70.8328	572.91
70.8472	566.41
70.8617	586.74
70.8761	603.44
70.8906	556.72
70.9050	592.99
70.9194	633.12
70.9339	640.85
70.9483	589.83
70.9628	538.03
70.9772	571.43
70.9916	543.72
71.0061	527.38
71.0205	585.16
71.0350	616.97
71.0494	598.63
71.0638	577.08
71.0783	586.49
71.0927	591.35
71.1072	595.61
71.1216	606.01
71.1361	556.37
71.1505	584.81
71.1649	563.60
71.1794	578.81
71.1938	573.39
71.2083	564.22
71.2227	560.15
71.2371	546.35
71.2516	569.39
71.2660	595.63
71.2805	596.68
71.2949	573.37
71.3093	575.40
71.3238	594.45
71.3382	601.10
71.3527	602.68
71.3671	581.33
71.3815	568.45
71.3960	627.86
71.4104	586.43
71.4249	586.22
71.4393	624.88
71.4537	571.78
71.4682	540.41
71.4826	553.01
71.4971	536.85
71.5115	602.79
71.5259	597.72
71.5404	602.52
71.5548	595.50
71.5693	560.00
71.5837	562.31
71.5981	544.35
71.6126	582.85
71.6270	611.66
71.6415	559.12
71.6559	553.11
71.6703	559.77
71.6848	532.93
71.6992	589.36
71.7137	577.53
71.7281	526.62
71.7425	595.00
71.7570	567.88
71.7714	600.07
71.7859	585.67
71.8003	609.24
71.8147	595.18
71.8292	581.37
71.8436	564.58
71.8581	542.55
71.8725	578.23
71.8869	591.92
71.9014	610.64
71.9158	589.33
71.9303	558.06
71.9447	615.70
71.9591	599.26
71.9736	557.24
71.9880	604.65
72.0025	553.69
72.0169	484.73
72.0313	493.68
72.0458	552.75
72.0602	597.24
72.0747	598.97
72.0891	653.25
72.1035	736.12
72.1180	648.76
72.1324	516.97
72.1469	541.43
72.1613	607.75
72.1757	606.65
72.1902	584.19
72.2046	590.45
72.2191	606.24
72.2335	552.16
72.2479	502.64
72.2624	558.27
72.2768	560.80
72.2913	516.80
72.3057	547.23
72.3201	602.76
72.3346	580.53
72.3490	609.27
72.3635	554.52
72.3779	549.92
72.3923	588.07
72.4068	521.73
72.4212	522.83
72.4357	554.18
72.4501	552.34
72.4645	555.25
72.4790	572.38
72.4934	570.57
72.5079	526.32
72.5223	555.08
72.5367	524.61
72.5512	558.23
72.5656	559.61
72.5801	542.22
72.5945	572.57
72.6089	533.40
72.6234	496.74
72.6378	504.10
72.6523	555.85
72.6667	616.95
72.6811	663.69
72.6956	627.41
72.7100	550.66
72.7245	509.32
72.7389	570.61
72.7533	659.73
72.7678	650.42
72.7822	640.79
72.7967	587.19
72.8111	619.62
72.8255	604.06
72.8400	564.83
72.8544	501.85
72.8689	585.44
72.8833	603.65

Result vector
22.1120	548.87
22.1264	608.42
22.1409	599.74
22.1553	529.89
22.1697	544.68
22.1842	631.90
22.1986	542.50
22.2131	577.39
22.2275	624.55
22.2419	659.07
22.2564	661.32
22.2708	596.56
22.2853	598.49
22.2997	609.20
22.3141	581.58
22.3286	561.32
22.3430	557.38
22.3575	514.23
22.3719	590.75
22.3863	538.70
22.4008	588.52
22.4152	618.81
22.4297	631.83
22.4441	616.50
22.4585	664.04
22.4730	647.95
22.4874	629.91
22.5019	633.77
22.5163	647.06
22.5307	667.01
22.5452	527.90
22.5596	567.97
22.5741	613.72
22.5885	523.02
22.6029	515.17
22.6174	557.22
22.6318	608.38
22.6463	586.45
22.6607	533.94
22.6751	607.32
22.6896	494.76
22.7040	575.22
22.7185	498.21
22.7329	584.62
22.7473	642.06
22.7618	577.71
22.7762	560.95
22.7907	561.55
22.8051	529.96
22.8195	602.98
22.8340	521.33
22.8484	645.04
22.8629	523.28
22.8773	508.98
22.8917	533.45
22.9062	582.28
22.9206	606.66
22.9351	649.97
22.9495	579.59
22.9639	511.99
22.9784	525.36
22.9928	625.01
23.0073	512.37
23.0217	607.14
23.0361	558.03
23.0506	541.97
23.0650	520.14
23.0795	476.89
23.0939	616.15
23.1083	640.08
23.1228	557.98
23.1372	581.58
23.1517	569.79
23.1661	652.80
23.1806	474.33
23.1950	469.06
23.2094	533.15
23.2239	562.49
23.2383	569.28
23.2528	516.58
23.2672	550.38
23.2816	570.02
23.2961	556.15
23.3105	530.41
23.3250	580.58
23.3394	576.61
23.3538	540.13
23.3683	477.98
23.3827	578.99
23.3972	521.45
23.4116	522.91
23.4260	552.03
23.4405	660.75
23.4549	523.70
23.4694	532.98
23.4838	605.92
23.4982	537.18
23.5127	616.26
23.5271	599.18
23.5416	538.96
23.5560	561.28
23.5704	575.87
23.5849	569.83
23.5993	582.31
23.6138	465.88
23.6282	545.14
23.6426	544.83
23.6571	573.36
23.6715	486.45
23.6860	495.62
23.7004	630.89
23.7148	565.11
23.7293	572.64
23.7437	533.87
23.7582	580.89
23.7726	581.32
23.7870	579.58
23.8015	510.46
23.8159	533.60
23.8304	595.08
23.8448	462.37
23.8592	667.76
23.8737	617.69
23.8881	543.48
23.9026	516.73
23.9170	570.75
23.9314	555.38
23.9459	568.09
23.9603	543.37
23.9748	558.72
23.9892	518.63
24.0036	509.98
24.0181	577.88
24.0325	559.00
24.0470	571.03
24.0614	567.76
24.0758	500.47
24.0903	535.16
24.1047	566.03
24.1192	634.05
24.1336	570.55
24.1480	567.42
24.1625	549.19
24.1769	557.72
24.1914	570.11
24.2058	603.74
24.2202	600.90
24.2347	600.69
24.2491	564.88
24.2636	572.92
24.2780	549.94
24.2924	543.06
24.3069	608.81
24.3213	599.34
24.3358	522.80
24.3502	553.46
24.3646	564.00
24.3791	611.18
24.3935	561.86
24.4080	546.74
24.4224	588.06
24.4368	499.20
24.4513	553.58
24.4657	574.10
24.4802	584.60
24.4946	536.47
24.5090	542.27
24.5235	536.54
24.5379	553.20
24.5524	520.97
24.5668	568.62
24.5812	564.33
24.5957	520.52
24.6101	613.25
24.6246	576.06
24.6390	580.78
24.6534	592.48
24.6679	567.48
24.6823	534.24
24.6968	550.73
24.7112	562.54
24.7256	547.32
24.7401	553.56
24.7545	583.61
24.7690	583.43
24.7834	528.36
24.7978	509.97
24.8123	548.52
24.8267	526.61
24.8412	527.20
24.8556	553.13
24.8700	566.89
24.8845	554.67
24.8989	553.96
24.9134	552.27
24.9278	526.88
24.9422	486.67
24.9567	562.78
24.9711	538.67
24.9856	589.72
25.0000	542.14
25.0144	523.09
25.0289	618.40
25.0433	539.65
25.0578	561.20
25.0722	555.70
25.0866	579.70
25.1011	527.38
25.1155	536.83
25.1300	537.54
25.1444	542.48
25.1588	526.64
25.1733	522.10
25.1877	521.74
25.2022	526.21
25.2166	556.73
25.2310	603.11
25.2455	523.42
25.2599	529.37
25.2744	565.47
25.2888	543.48
25.3032	525.65
25.3177	514.95
25.3321	515.89
25.3466	532.13
25.3610	512.28
25.3754	522.95
25.3899	537.80
25.4043	532.40
25.4188	514.35
25.4332	517.98
25.4476	519.75
25.4621	569.33
25.4765	577.59
25.4910	539.10
25.5054	569.32
25.5198	558.01
25.5343	539.75
25.5487	522.88
25.5632	519.76
25.5776	535.24
25.5920	510.40
25.6065	511.24
25.6209	531.95
25.6354	550.42
25.6498	564.09
25.6642	542.02
25.6787	506.33
25.6931	497.28
25.7076	505.86
25.7220	529.09
25.7364	538.85
25.7509	559.32
25.7653	539.46
25.7798	494.18
25.7942	490.09
25.8086	559.83
25.8231	515.91
25.8375	550.88
25.8520	573.77
25.8664	512.24
25.8808	504.56
25.8953	544.16
25.9097	541.54
25.9242	569.76
25.9386	542.98
25.9530	500.36
25.9675	541.42
25.9819	522.73
25.9964	530.66
26.0108	569.52
26.0252	566.36
26.0397	536.28
26.0541	502.11
26.0686	514.51
26.0830	535.62
26.0974	586.14
26.1119	526.69
26.1263	528.63
26.1408	514.91
26.1552	542.13
26.1696	531.62
26.1841	529.08
26.1985	526.61
26.2130	533.15
26.2274	540.77
26.2418	532.34
26.2563	525.22
26.2707	545.01
26.2852	574.94
26.2996	530.89
26.3140	489.12
26.3285	535.40
26.3429	539.48
26.3574	554.51
26.3718	544.01
26.3862	530.31
26.4007	551.06
26.4151	526.45
26.4296	531.49
26.4440	537.50
26.4584	545.28
26.4729	559.37
26.4873	565.42
26.5018	528.92
26.5162	520.46
26.5306	513.62
26.5451	544.63
26.5595	557.57
26.5740	562.28
26.5884	530.70
26.6028	524.07
26.6173	544.71
26.6317	573.73
26.6462	569.10
26.6606	534.68
26.6750	506.05
26.6895	521.16
26.7039	546.39
26.7184	501.77
26.7328	482.21
26.7472	534.06
26.7617	532.18
26.7761	525.19
26.7906	544.25
26.8050	550.18
26.8194	519.65
26.8339	499.94
26.8483	507.96
26.8628	519.39
26.8772	553.22
26.8917	524.84
26.9061	516.76
26.9205	531.43
26.9350	526.51
26.9494	532.59
26.9639	530.81
26.9783	524.86
26.9927	503.48
27.0072	529.89
27.0216	537.41
27.0361	502.89
27.0505	557.85
27.0649	571.45
27.0794	531.06
27.0938	521.47
27.1083	511.94
27.1227	549.34
27.1371	516.62
27.1516	504.86
27.1660	503.39
27.1805	549.13
27.1949	539.84
27.2093	516.01
27.2238	511.10
27.2382	538.97
27.2527	506.83
27.2671	464.38
27.2815	514.40
27.2960	521.57
27.3104	501.52
27.3249	520.85
27.3393	512.22
27.3537	522.66
27.3682	503.81
27.3826	501.15
27.3971	494.74
27.4115	466.47
27.4259	515.65
27.4404	503.60
27.4548	514.70
27.4693	517.62
27.4837	546.15
27.4981	532.06
27.5126	536.18
27.5270	524.78
27.5415	535.32
27.5559	521.01
27.5703	520.15
27.5848	511.05
27.5992	515.35
27.6137	536.74
27.6281	543.24
27.6425	552.83
27.6570	557.47
27.6714	542.23
27.6859	539.57
27.7003	514.28
27.7147	539.06
27.7292	523.20
27.7436	502.74
27.7581	558.91
27.7725	525.98
27.7869	496.42
27.8014	522.46
27.8158	529.76
27.8303	517.30
27.8447	510.46
27.8591	517.38
27.8736	522.53
27.8880	521.37
27.9025	530.05
27.9169	513.01
27.9313	489.24
27.9458	514.03
27.9602	516.18
27.9747	533.19
27.9891	505.48
28.0035	526.06
28.0180	534.33
28.0324	487.00
28.0469	550.78
28.0613	527.14
28.0757	507.56
28.0902	511.29
28.1046	527.58
28.1191	546.21
28.1335	507.53
28.1479	486.01
28.1624	540.70
28.1768	538.44
28.1913	521.17
28.2057	511.65
28.2201	511.18
28.2346	496.32
28.2490	492.52
28.2635	509.42
28.2779	493.15
28.2923	499.77
28.3068	525.91
28.3212	536.41
28.3357	525.20
28.3501	496.75
28.3645	516.41
28.3790	493.95
28.3934	484.31
28.4079	492.36
28.4223	548.84
28.4367	491.32
28.4512	505.84
28.4656	510.18
28.4801	498.19
28.4945	524.41
28.5089	538.73
28.5234	495.36
28.5378	495.12
28.5523	504.66
28.5667	517.14
28.5811	512.35
28.5956	500.45
28.6100	512.60
28.6245	488.52
28.6389	497.83
28.6533	546.71
28.6678	538.15
28.6822	512.42
28.6967	513.24
28.7111	507.74
28.7255	510.17
28.7400	527.38
28.7544	491.64
28.7689	502.74
28.7833	528.91
28.7977	526.79
28.8122	533.89
28.8266	511.79
28.8411	502.55
28.8555	510.32
28.8699	495.14
28.8844	515.02
28.8988	508.97
28.9133	477.02
28.9277	519.84
28.9421	528.49
28.9566	486.41
28.9710	484.36
28.9855	496.68
28.9999	569.47
29.0143	478.79
29.0288	499.63
29.0432	532.63
29.0577	518.37
29.0721	503.77
29.0865	515.53
29.1010	548.24
29.1154	525.80
29.1299	553.36
29.1443	476.48
29.1587	478.17
29.1732	492.85
29.1876	469.36
29.2021	506.73
29.2165	478.15
29.2309	492.37
29.2454	498.08
29.2598	486.75
29.2743	516.01
29.2887	495.46
29.3031	528.62
29.3176	515.23
29.3320	566.97
29.3465	552.22
29.3609	517.64
29.3753	528.92
29.3898	504.53
29.4042	542.20
29.4187	536.23
29.4331	502.74
29.4475	491.43
29.4620	548.92
29.4764	545.68
29.4909	492.86
29.5053	517.10
29.5197	548.35
29.5342	503.52
29.5486	516.55
29.5631	504.86
29.5775	499.27
29.5919	500.09
29.6064	515.77
29.6208	515.73
29.6353	512.10
29.6497	487.05
29.6641	480.47
29.6786	477.60
29.6930	486.33
29.7075	507.53
29.7219	504.28
29.7363	496.40
29.7508	529.51
29.7652	514.13
29.7797	505.32
29.7941	527.81
29.8085	476.85
29.8230	531.86
29.8374	497.72
29.8519	474.99
29.8663	537.17
29.8807	528.24
29.8952	486.91
29.9096	497.90
29.9241	517.49
29.9385	486.37
29.9529	487.00
29.9674	500.74
29.9818	508.86
29.9963	533.48
30.0107	509.72
30.0251	488.51
30.0396	503.16
30.0540	492.77
30.0685	544.88
30.0829	477.61
30.0973	507.08
30.1118	479.22
30.1262	508.13
30.1407	490.61
30.1551	471.49
30.1695	501.07
30.1840	497.54
30.1984	467.03
30.2129	482.99
30.2273	533.31
30.2417	544.69
30.2562	535.23
30.2706	487.75
30.2851	508.42
30.2995	534.31
30.3139	496.11
30.3284	496.66
30.3428	503.36
30.3573	498.59
30.3717	510.53
30.3861	481.47
30.4006	512.36
30.4150	495.03
30.4295	474.76
30.4439	512.03
30.4583	507.08
30.4728	509.53
30.4872	512.00
30.5017	535.89
30.5161	517.00
30.5305	503.76
30.5450	500.56
30.5594	503.17
30.5739	537.76
30.5883	515.83
30.6028	514.46
30.6172	511.05
30.6316	535.37
30.6461	530.19
30.6605	558.80
30.6750	563.05
30.6894	549.40
30.7038	585.03
30.7183	594.06
30.7327	618.23
30.7472	633.27
30.7616	625.81
30.7760	645.09
30.7905	662.99
30.8049	686.46
30.8194	723.71
30.8338	729.85
30.8482	669.05
30.8627	653.71
30.8771	635.85
30.8916	644.31
30.9060	631.15
30.9204	635.42
30.9349	587.35
30.9493	610.21
30.9638	562.73
30.9782	544.78
30.9926	528.00
31.0071	531.31
31.0215	559.58
31.0360	577.21
31.0504	531.01
31.0648	514.82
31.0793	521.85
31.0937	529.08
31.1082	525.82
31.1226	522.02
31.1370	510.37
31.1515	504.11
31.1659	532.89
31.1804	532.93
31.1948	554.70
31.2092	520.99
31.2237	504.82
31.2381	538.15
31.2526	538.70
31.2670	527.77
31.2814	541.33
31.2959	548.88
31.3103	550.64
31.3248	515.44
31.3392	541.15
31.3536	562.91
31.3681	511.64
31.3825	514.88
31.3970	509.04
31.4114	523.66
31.4258	535.16
31.4403	528.40
31.4547	521.68
31.4692	540.97
31.4836	521.92
31.4980	490.76
31.5125	482.33
31.5269	505.87
31.5414	492.51
31.5558	532.25
31.5702	506.84
31.5847	491.71
31.5991	508.32
31.6136	477.07
31.6280	476.78
31.6424	515.03
31.6569	499.49
31.6713	506.19
31.6858	514.46
31.7002	542.08
31.7146	534.54
31.7291	499.58
31.7435	529.28
31.7580	507.28
31.7724	504.67
31.7868	502.58
31.8013	502.29
31.8157	518.05
31.8302	513.06
31.8446	520.20
31.8590	515.70
31.8735	520.75
31.8879	519.12
31.9024	548.25
31.9168	526.48
31.9312	540.09
31.9457	512.32
31.9601	502.42
31.9746	494.42
31.9890	511.35
32.0034	477.97
32.0179	486.59
32.0323	505.00
32.0468	487.73
32.0612	500.70
32.0756	492.12
32.0901	544.60
32.1045	512.07
32.1190	515.13
32.1334	496.89
32.1478	490.33
32.1623	499.85
32.1767	499.73
32.1912	472.07
32.2056	500.14
32.2200	492.14
32.2345	499.37
32.2489	506.12
32.2634	452.70
32.2778	492.52
32.2922	468.60
32.3067	490.14
32.3211	534.57
32.3356	537.43
32.3500	515.38
32.3644	529.14
32.3789	497.87
32.3933	514.36
32.4078	505.27
32.4222	534.30
32.4366	545.29
32.4511	481.57
32.4655	495.20
32.4800	511.65
32.4944	478.38
32.5088	498.39
32.5233	539.31
32.5377	534.12
32.5522	517.66
32.5666	496.52
32.5810	504.08
32.5955	476.34
32.6099	499.55
32.6244	520.86
32.6388	528.51
32.6532	495.61
32.6677	500.46
32.6821	521.52
32.6966	503.49
32.7110	529.38
32.7254	497.25
32.7399	504.49
32.7543	517.70
32.7688	501.60
32.7832	529.14
32.7976	496.06
32.8121	523.71
32.8265	502.90
32.8410	481.72
32.8554	508.00
32.8698	523.62
32.8843	508.55
32.8987	503.99
32.9132	482.88
32.9276	473.63
32.9420	534.09
32.9565	532.46
32.9709	490.88
32.9854	474.99
32.9998	499.51
33.0142	464.27
33.0287	502.14
33.0431	494.77
33.0576	528.81
33.0720	506.07
33.0864	541.12
33.1009	498.10
33.1153	497.85
33.1298	521.03
33.1442	491.09
33.1586	523.18
33.1731	513.22
33.1875	494.97
33.2020	466.56
33.2164	515.41
33.2308	517.37
33.2453	495.83
33.2597	503.76
33.2742	517.23
33.2886	516.75
33.3030	507.88
33.3175	506.00
33.3319	512.89
33.3464	502.79
33.3608	468.66
33.3752	514.42
33.3897	508.32
33.4041	468.54
33.4186	491.03
33.4330	505.13
33.4474	515.29
33.4619	507.12
33.4763	545.89
33.4908	506.40
33.5052	526.10
33.5196	522.96
33.5341	488.23
33.5485	519.48
33.5630	516.30
33.5774	487.80
33.5918	492.25
33.6063	529.26
33.6207	519.03
33.6352	523.65
33.6496	512.88
33.6640	506.82
33.6785	537.75
33.6929	502.07
33.7074	513.55
33.7218	527.77
33.7362	507.81
33.7507	521.52
33.7651	496.80
33.7796	517.89
33.7940	526.37
33.8084	531.68
33.8229	513.92
33.8373	525.44
33.8518	504.82
33.8662	530.84
33.8806	511.39
33.8951	507.87
33.9095	524.67
33.9240	504.21
33.9384	517.36
33.9528	516.70
33.9673	505.50
33.9817	493.62
33.9962	498.21
34.0106	493.22
34.0250	486.02
34.0395	496.58
34.0539	491.43
34.0684	514.38
34.0828	525.31
34.0972	499.27
34.1117	493.32
34.1261	503.86
34.1406	503.24
34.1550	535.34
34.1694	508.43
34.1839	499.82
34.1983	508.55
34.2128	493.64
34.2272	490.51
34.2417	515.98
34.2561	499.81
34.2705	524.86
34.2850	513.13
34.2994	494.84
34.3139	497.37
34.3283	492.56
34.3427	503.77
34.3572	516.91
34.3716	558.57
34.3861	536.45
34.4005	503.48
34.4149	497.75
34.4294	532.14
34.4438	509.04
34.4583	495.85
34.4727	534.25
34.4871	529.50
34.5016	520.22
34.5160	499.70
34.5305	505.58
34.5449	531.62
34.5593	503.10
34.5738	495.16
34.5882	486.69
34.6027	534.14
34.6171	518.61
34.6315	502.03
34.6460	528.99
34.6604	540.16
34.6749	497.04
34.6893	490.57
34.7037	527.94
34.7182	517.01
34.7326	495.81
34.7471	502.60
34.7615	475.81
34.7759	503.07
34.7904	493.47
34.8048	517.88
34.8193	515.63
34.8337	501.42
34.8481	499.90
34.8626	504.39
34.8770	516.30
34.8915	523.62
34.9059	495.13
34.9203	498.93
34.9348	518.74
34.9492	516.88
34.9637	491.11
34.9781	517.95
34.9925	524.82
35.0070	482.02
35.0214	503.53
35.0359	529.08
35.0503	492.37
35.0647	505.81
35.0792	563.15
35.0936	511.30
35.1081	471.66
35.1225	517.71
35.1369	537.32
35.1514	508.50
35.1658	508.76
35.1803	514.96
35.1947	510.67
35.2091	500.92
35.2236	514.31
35.2380	537.19
35.2525	545.39
35.2669	524.42
35.2813	518.78
35.2958	523.67
35.3102	536.33
35.3247	522.25
35.3391	475.72
35.3535	518.76
35.3680	510.15
35.3824	513.56
35.3969	498.15
35.4113	498.63
35.4257	503.61
35.4402	523.53
35.4546	513.42
35.4691	561.15
35.4835	545.33
35.4979	527.42
35.5124	505.18
35.5268	536.10
35.5413	538.78
35.5557	552.60
35.5701	516.38
35.5846	538.90
35.5990	540.14
35.6135	527.76
35.6279	537.39
35.6423	528.58
35.6568	538.90
35.6712	557.87
35.6857	592.14
35.7001	653.97
35.7145	738.22
35.7290	706.07
35.7434	630.64
35.7579	570.99
35.7723	571.25
35.7867	612.07
35.8012	654.62
35.8156	682.28
35.8301	658.25
35.8445	637.64
35.8589	637.56
35.8734	716.04
35.8878	810.63
35.9023	955.99
35.9167	1031.23
35.9311	1355.17
35.9456	2010.80
35.9600	2327.59
35.9745	1970.36
35.9889	2073.94
36.0033	2823.74
36.0178	3156.63
36.0322	2583.05
36.0467	1886.80
36.0611	1818.80
36.0755	1626.85
36.0900	1637.09
36.1044	1332.04
36.1189	1377.28
36.1333	1356.64
36.1477	1138.03
36.1622	1159.98
36.1766	1163.46
36.1911	1125.52
36.2055	1064.38
36.2199	969.24
36.2344	985.41
36.2488	972.06
36.2633	941.64
36.2777	976.71
36.2921	1012.03
36.3066	938.18
36.3210	955.26
36.3355	918.19
36.3499	879.84
36.3643	812.53
36.3788	797.81
36.3932	778.38
36.4077	742.41
36.4221	741.36
36.4365	697.14
36.4510	669.26
36.4654	638.88
36.4799	602.35
36.4943	572.71
36.5087	592.90
36.5232	564.36
36.5376	541.95
36.5521	609.43
36.5665	554.52
36.5809	536.84
36.5954	544.08
36.6098	581.63
36.6243	547.76
36.6387	529.79
36.6531	542.43
36.6676	559.20
36.6820	565.24
36.6965	552.30
36.7109	586.62
36.7253	526.07
36.7398	532.73
36.7542	571.06
36.7687	532.74
36.7831	551.10
36.7975	565.78
36.8120	586.40
36.8264	569.47
36.8409	609.75
36.8553	576.35
36.8697	597.77
36.8842	614.87
36.8986	576.31
36.9131	561.15
36.9275	585.89
36.9419	592.42
36.9564	544.62
36.9708	566.92
36.9853	550.57
36.9997	568.43
37.0141	521.97
37.0286	541.15
37.0430	512.92
37.0575	525.27
37.0719	528.37
37.0863	542.56
37.1008	504.79
37.1152	492.19
37.1297	499.88
37.1441	481.54
37.1585	498.32
37.1730	508.68
37.1874	518.60
37.2019	525.91
37.2163	514.71
37.2307	506.83
37.2452	524.94
37.2596	512.38
37.2741	540.08
37.2885	501.98
37.3029	489.05
37.3174	504.38
37.3318	544.64
37.3463	528.55
37.3607	509.52
37.3751	480.37
37.3896	474.39
37.4040	489.15
37.4185	515.66
37.4329	498.13
37.4473	518.90
37.4618	494.79
37.4762	521.72
37.4907	507.27
37.5051	492.23
37.5195	508.57
37.5340	514.43
37.5484	521.69
37.5629	506.92
37.5773	513.21
37.5917	514.63
37.6062	550.45
37.6206	523.78
37.6351	556.58
37.6495	522.78
37.6639	513.02
37.6784	473.12
37.6928	481.46
37.7073	511.10
37.7217	535.08
37.7361	510.20
37.7506	493.67
37.7650	496.19
37.7795	503.78
37.7939	501.77
37.8083	511.89
37.8228	520.05
37.8372	520.43
37.8517	495.49
37.8661	503.93
37.8805	495.66
37.8950	515.99
37.9094	493.24
37.9239	496.27
37.9383	508.58
37.9528	508.40
37.9672	546.31
37.9816	495.74
37.9961	512.47
38.0105	535.47
38.0250	541.92
38.0394	526.82
38.0538	515.35
38.0683	516.56
38.0827	498.66
38.0972	494.41
38.1116	482.39
38.1260	500.52
38.1405	501.92
38.1549	503.42
38.1694	506.36
38.1838	524.64
38.1982	521.25
38.2127	469.89
38.2271	488.34
38.2416	511.87
38.2560	500.01
38.2704	554.08
38.2849	505.88
38.2993	481.05
38.3138	506.03
38.3282	530.08
38.3426	511.96
38.3571	505.43
38.3715	516.09
38.3860	518.61
38.4004	538.43
38.4148	545.64
38.4293	582.15
38.4437	567.11
38.4582	592.25
38.4726	672.57
38.4870	662.79
38.5015	704.24
38.5159	767.52
38.5304	807.54
38.5448	797.83
38.5592	782.84
38.5737	753.85
38.5881	772.13
38.6026	758.13
38.6170	728.82
38.6314	672.24
38.6459	671.47
38.6603	657.55
38.6748	607.73
38.6892	564.25
38.7036	583.71
38.7181	542.07
38.7325	546.85
38.7470	555.18
38.7614	527.39
38.7758	531.01
38.7903	539.69
38.8047	494.85
38.8192	475.60
38.8336	492.05
38.8480	517.08
38.8625	527.90
38.8769	514.28
38.8914	495.94
38.9058	528.28
38.9202	543.61
38.9347	506.90
38.9491	482.24
38.9636	500.32
38.9780	505.86
38.9924	519.69
39.0069	492.92
39.0213	508.39
39.0358	518.29
39.0502	516.17
39.0646	535.56
39.0791	531.64
39.0935	516.59
39.1080	484.80
39.1224	503.88
39.1368	489.97
39.1513	475.62
39.1657	483.41
39.1802	484.78
39.1946	482.03
39.2090	480.33
39.2235	514.48
39.2379	512.66
39.2524	527.61
39.2668	497.52
39.2812	509.63
39.2957	491.07
39.3101	474.34
39.3246	502.80
39.3390	519.41
39.3534	504.75
39.3679	490.38
39.3823	502.96
39.3968	504.55
39.4112	526.07
39.4256	560.57
39.4401	532.58
39.4545	531.53
39.4690	516.01
39.4834	525.49
39.4978	494.04
39.5123	495.81
39.5267	511.78
39.5412	471.95
39.5556	483.81
39.5700	499.48
39.5845	511.02
39.5989	492.58
39.6134	486.76
39.6278	500.40
39.6422	516.77
39.6567	483.14
39.6711	517.97
39.6856	494.68
39.7000	498.59
39.7144	518.86
39.7289	506.55
39.7433	489.69
39.7578	467.76
39.7722	508.64
39.7866	523.38
39.8011	496.26
39.8155	516.56
39.8300	535.58
39.8444	520.75
39.8588	482.18
39.8733	514.41
39.8877	491.35
39.9022	470.47
39.9166	534.50
39.9310	504.73
39.9455	473.63
39.9599	510.24
39.9744	481.96
39.9888	500.80
40.0032	495.71
40.0177	478.61
40.0321	509.57
40.0466	505.92
40.0610	491.30
40.0754	489.76
40.0899	505.02
40.1043	505.10
40.1188	522.72
40.1332	498.40
40.1476	456.08
40.1621	511.91
40.1765	485.86
40.1910	512.03
40.2054	521.99
40.2198	510.34
40.2343	485.70
40.2487	502.68
40.2632	505.76
40.2776	514.05
40.2920	500.95
40.3065	544.74
40.3209	486.27
40.3354	477.85
40.3498	500.33
40.3642	510.15
40.3787	467.24
40.3931	462.33
40.4076	449.51
40.4220	485.48
40.4364	524.11
40.4509	505.97
40.4653	522.53
40.4798	530.92
40.4942	493.28
40.5086	502.82
40.5231	499.49
40.5375	504.04
40.5520	497.14
40.5664	508.59
40.5808	500.73
40.5953	540.07
40.6097	506.28
40.6242	511.64
40.6386	496.74
40.6530	508.59
40.6675	504.88
40.6819	491.15
40.6964	481.89
40.7108	511.09
40.7252	498.55
40.7397	496.61
40.7541	485.44
40.7686	521.01
40.7830	518.44
40.7974	513.36
40.8119	505.48
40.8263	515.03
40.8408	542.59
40.8552	506.82
40.8696	521.43
40.8841	492.04
40.8985	497.77
40.9130	500.18
40.9274	512.80
40.9418	530.33
40.9563	507.99
40.9707	528.40
40.9852	533.29
40.9996	502.51
41.0140	466.69
41.0285	498.78
41.0429	476.68
41.0574	469.71
41.0718	509.66
41.0862	511.51
41.1007	529.08
41.1151	468.88
41.1296	473.54
41.1440	465.90
41.1584	512.37
41.1729	504.36
41.1873	475.46
41.2018	479.97
41.2162	479.35
41.2306	510.29
41.2451	525.93
41.2595	499.18
41.2740	503.20
41.2884	500.55
41.3028	512.30
41.3173	514.96
41.3317	515.21
41.3462	481.97
41.3606	485.20
41.3750	499.71
41.3895	522.77
41.4039	482.96
41.4184	489.74
41.4328	510.98
41.4472	467.85
41.4617	484.90
41.4761	523.58
41.4906	522.12
41.5050	500.00
41.5194	493.22
41.5339	532.56
41.5483	490.37
41.5628	516.47
41.5772	497.78
41.5916	481.28
41.6061	522.83
41.6205	480.22
41.6350	517.97
41.6494	473.28
41.6639	482.13
41.6783	495.62
41.6927	514.69
41.7072	511.48
41.7216	496.85
41.7361	497.77
41.7505	489.77
41.7649	503.05
41.7794	483.28
41.7938	456.05
41.8083	475.59
41.8227	463.43
41.8371	503.23
41.8516	517.25
41.8660	556.26
41.8805	522.22
41.8949	567.55
41.9093	565.51
41.9238	521.08
41.9382	560.05
41.9527	572.03
41.9671	565.73
41.9815	586.68
41.9960	520.28
42.0104	557.67
42.0249	579.04
42.0393	543.73
42.0537	551.90
42.0682	587.73
42.0826	581.68
42.0971	578.56
42.1115	568.90
42.1259	569.94
42.1404	588.82
42.1548	576.84
42.1693	616.48
42.1837	668.86
42.1981	774.19
42.2126	873.73
42.2270	935.63
42.2415	1108.03
42.2559	1264.48
42.2703	1408.43
42.2848	1569.17
42.2992	1609.07
42.3137	1688.42
42.3281	1713.29
42.3425	1603.55
42.3570	1520.72
42.3714	1449.80
42.3859	1412.66
42.4003	1393.22
42.4147	1369.06
42.4292	1310.71
42.4436	1185.27
42.4581	1069.38
42.4725	965.24
42.4869	872.23
42.5014	762.45
42.5158	708.41
42.5303	699.57
42.5447	649.95
42.5591	627.67
42.5736	597.30
42.5880	537.23
42.6025	594.74
42.6169	571.28
42.6313	559.02
42.6458	567.73
42.6602	542.03
42.6747	553.35
42.6891	531.37
42.7035	567.45
42.7180	548.85
42.7324	517.96
42.7469	543.77
42.7613	507.89
42.7757	511.74
42.7902	524.39
42.8046	506.28
42.8191	523.41
42.8335	532.18
42.8479	498.56
42.8624	494.14
42.8768	533.69
42.8913	506.86
42.9057	537.04
42.9201	505.61
42.9346	490.74
42.9490	485.08
42.9635	506.89
42.9779	508.72
42.9923	497.68
43.0068	497.59
43.0212	521.58
43.0357	515.89
43.0501	493.84
43.0645	510.46
43.0790	527.32
43.0934	533.32
43.1079	513.21
43.1223	506.79
43.1367	503.18
43.1512	501.91
43.1656	534.41
43.1801	533.82
43.1945	529.58
43.2089	490.23
43.2234	535.25
43.2378	533.46
43.2523	528.63
43.2667	533.52
43.2811	543.30
43.2956	501.75
43.3100	507.12
43.3245	542.25
43.3389	536.84
43.3533	536.55
43.3678	471.16
43.3822	488.42
43.3967	509.46
43.4111	492.18
43.4255	556.43
43.4400	569.21
43.4544	553.85
43.4689	526.77
43.4833	517.42
43.4977	520.71
43.5122	498.20
43.5266	512.01
43.5411	496.77
43.5555	513.53
43.5699	511.28
43.5844	524.07
43.5988	507.62
43.6133	487.28
43.6277	522.79
43.6421	480.42
43.6566	531.34
43.6710	520.49
43.6855	501.21
43.6999	558.06
43.7143	559.98
43.7288	512.28
43.7432	533.93
43.7577	553.01
43.7721	562.68
43.7865	544.17
43.8010	538.46
43.8154	538.80
43.8299	527.78
43.8443	514.61
43.8587	549.15
43.8732	509.44
43.8876	493.17
43.9021	525.91
43.9165	562.60
43.9309	541.08
43.9454	533.10
43.9598	547.74
43.9743	576.01
43.9887	564.39
44.0031	569.75
44.0176	607.42
44.0320	533.65
44.0465	572.45
44.0609	618.94
44.0753	604.70
44.0898	637.18
44.1042	603.94
44.1187	632.63
44.1331	588.44
44.1475	572.15
44.1620	584.91
44.1764	605.84
44.1909	572.70
44.2053	554.61
44.2197	605.15
44.2342	565.11
44.2486	575.24
44.2631	573.68
44.2775	574.35
44.2919	600.93
44.3064	559.44
44.3208	519.01
44.3353	581.60
44.3497	571.60
44.3641	556.85
44.3786	556.59
44.3930	551.30
44.4075	521.62
44.4219	585.70
44.4363	594.33
44.4508	563.21
44.4652	599.20
44.4797	558.80
44.4941	575.11
44.5085	541.71
44.5230	548.40
44.5374	612.97
44.5519	579.40
44.5663	567.74
44.5807	593.09
44.5952	569.33
44.6096	565.87
44.6241	572.39
44.6385	584.57
44.6529	548.94
44.6674	583.33
44.6818	551.78
44.6963	591.17
44.7107	688.48
44.7251	697.10
44.7396	733.80
44.7540	775.46
44.7685	850.88
44.7829	877.76
44.7973	907.62
44.8118	859.17
44.8262	794.42
44.8407	766.14
44.8551	716.74
44.8695	767.42
44.8840	748.62
44.8984	755.57
44.9129	750.89
44.9273	664.75
44.9417	676.53
44.9562	604.76
44.9706	584.62
44.9851	528.00
44.9995	529.94
45.0139	525.06
45.0284	518.38
45.0428	568.89
45.0573	570.38
45.0717	503.63
45.0861	511.69
45.1006	513.79
45.1150	510.45
45.1295	559.49
45.1439	493.45
45.1583	516.64
45.1728	501.89
45.1872	528.00
45.2017	480.11
45.2161	526.31
45.2305	544.03
45.2450	495.70
45.2594	516.72
45.2739	513.98
45.2883	519.99
45.3028	518.58
45.3172	515.23
45.3316	500.82
45.3461	518.64
45.3605	502.20
45.3750	482.30
45.3894	487.38
45.4038	469.14
45.4183	499.26
45.4327	570.67
45.4472	514.54
45.4616	516.38
45.4760	485.93
45.4905	510.72
45.5049	506.46
45.5194	499.72
45.5338	503.78
45.5482	510.10
45.5627	512.28
45.5771	484.26
45.5916	499.89
45.6060	496.05
45.6204	474.22
45.6349	520.23
45.6493	519.32
45.6638	524.32
45.6782	520.03
45.6926	496.77
45.7071	513.72
45.7215	504.58
45.7360	518.67
45.7504	503.44
45.7648	505.97
45.7793	517.51
45.7937	498.21
45.8082	510.80
45.8226	539.44
45.8370	492.64
45.8515	517.29
45.8659	490.61
45.8804	497.78
45.8948	501.73
45.9092	535.53
45.9237	521.68
45.9381	497.28
45.9526	521.49
45.9670	519.61
45.9814	498.74
45.9959	541.41
46.0103	514.02
46.0248	527.73
46.0392	506.13
46.0536	544.17
46.0681	540.00
46.0825	507.97
46.0970	497.12
46.1114	505.39
46.1258	518.69
46.1403	468.85
46.1547	467.30
46.1692	532.77
46.1836	508.09
46.1980	511.79
46.2125	517.73
46.2269	500.94
46.2414	510.33
46.2558	505.66
46.2702	503.91
46.2847	557.00
46.2991	508.60
46.3136	525.19
46.3280	505.47
46.3424	512.54
46.3569	506.12
46.3713	485.19
46.3858	479.50
46.4002	512.08
46.4146	517.70
46.4291	526.85
46.4435	481.49
46.4580	469.90
46.4724	542.01
46.4868	495.70
46.5013	492.00
46.5157	513.75
46.5302	536.01
46.5446	509.54
46.5590	472.68
46.5735	475.60
46.5879	510.16
46.6024	519.60
46.6168	508.36
46.6312	509.84
46.6457	502.28
46.6601	489.89
46.6746	497.15
46.6890	508.89
46.7034	492.10
46.7179	534.08
46.7323	484.78
46.7468	477.13
46.7612	474.50
46.7756	502.98
46.7901	505.66
46.8045	508.24
46.8190	496.05
46.8334	482.11
46.8478	504.26
46.8623	482.71
46.8767	471.28
46.8912	490.79
46.9056	510.83
46.9200	498.95
46.9345	502.35
46.9489	496.00
46.9634	514.25
46.9778	512.24
46.9922	487.40
47.0067	498.98
47.0211	526.05
47.0356	521.55
47.0500	484.82
47.0644	511.64
47.0789	524.43
47.0933	531.53
47.1078	498.78
47.1222	516.33
47.1366	497.00
47.1511	489.10
47.1655	504.47
47.1800	489.58
47.1944	479.45
47.2088	513.35
47.2233	535.74
47.2377	498.93
47.2522	507.15
47.2666	509.30
47.2810	511.58
47.2955	498.95
47.3099	518.61
47.3244	486.89
47.3388	510.86
47.3532	515.22
47.3677	504.83
47.3821	523.89
47.3966	512.39
47.4110	474.84
47.4254	517.33
47.4399	508.74
47.4543	482.85
47.4688	497.59
47.4832	480.59
47.4976	494.56
47.5121	495.36
47.5265	472.31
47.5410	463.46
47.5554	510.04
47.5698	520.54
47.5843	496.81
47.5987	509.11
47.6132	476.62
47.6276	496.43
47.6420	485.55
47.6565	527.98
47.6709	501.21
47.6854	522.95
47.6998	498.59
47.7142	490.45
47.7287	495.90
47.7431	480.86
47.7576	476.42
47.7720	518.99
47.7864	500.05
47.8009	506.20
47.8153	508.48
47.8298	519.75
47.8442	501.69
47.8586	532.39
47.8731	512.14
47.8875	502.11
47.9020	535.14
47.9164	483.21
47.9308	484.24
47.9453	506.56
47.9597	496.29
47.9742	500.16
47.9886	508.34
48.0030	527.94
48.0175	519.25
48.0319	527.11
48.0464	504.09
48.0608	550.17
48.0752	484.69
48.0897	509.76
48.1041	546.70
48.1186	525.71
48.1330	479.11
48.1474	469.57
48.1619	509.01
48.1763	505.61
48.1908	480.96
48.2052	505.51
48.2196	528.59
48.2341	502.46
48.2485	537.93
48.2630	502.20
48.2774	505.43
48.2918	481.54
48.3063	518.35
48.3207	512.57
48.3352	474.54
48.3496	473.44
48.3640	504.65
48.3785	501.82
48.3929	518.70
48.4074	492.92
48.4218	544.73
48.4362	517.52
48.4507	456.21
48.4651	506.01
48.4796	505.41
48.4940	518.50
48.5084	529.52
48.5229	512.04
48.5373	505.55
48.5518	517.33
48.5662	508.67
48.5806	521.83
48.5951	519.53
48.6095	499.39
48.6240	530.10
48.6384	494.27
48.6528	493.02
48.6673	489.53
48.6817	482.96
48.6962	545.00
48.7106	550.92
48.7250	526.36
48.7395	530.70
48.7539	536.84
48.7684	534.24
48.7828	525.15
48.7972	530.73
48.8117	507.01
48.8261	537.38
48.8406	539.05
48.8550	512.95
48.8694	538.47
48.8839	519.39
48.8983	537.43
48.9128	552.24
48.9272	543.63
48.9416	558.03
48.9561	524.44
48.9705	541.43
48.9850	554.76
48.9994	597.10
49.0139	567.59
49.0283	588.15
49.0427	589.76
49.0572	622.02
49.0716	643.74
49.0861	683.59
49.1005	674.08
49.1149	677.44
49.1294	734.07
49.1438	768.00
49.1583	788.00
49.1727	886.05
49.1871	960.17
49.2016	975.94
49.2160	1066.49
49.2305	1147.17
49.2449	1232.89
49.2593	1299.99
49.2738	1419.15
49.2882	1517.30
49.3027	1569.45
49.3171	1667.66
49.3315	1756.56
49.3460	1802.68
49.3604	1826.96
49.3749	1769.66
49.3893	1787.43
49.4037	1826.03
49.4182	1825.73
49.4326	1759.56
49.4471	1654.82
49.4615	1653.32
49.4759	1578.53
49.4904	1496.70
49.5048	1446.49
49.5193	1348.89
49.5337	1270.79
49.5481	1228.28
49.5626	1174.77
49.5770	1062.36
49.5915	1003.44
49.6059	956.80
49.6203	874.61
49.6348	878.86
49.6492	805.51
49.6637	747.12
49.6781	692.96
49.6925	644.48
49.7070	689.77
49.7214	624.48
49.7359	642.42
49.7503	611.74
49.7647	595.87
49.7792	580.20
49.7936	601.19
49.8081	614.49
49.8225	610.31
49.8369	575.81
49.8514	565.54
49.8658	573.91
49.8803	528.55
49.8947	534.88
49.9091	557.76
49.9236	530.02
49.9380	543.59
49.9525	552.60
49.9669	520.27
49.9813	531.36
49.9958	512.16
50.0102	523.83
50.0247	534.18
50.0391	536.25
50.0535	536.82
50.0680	529.02
50.0824	553.07
50.0969	521.58
50.1113	518.19
50.1257	550.32
50.1402	531.32
50.1546	481.57
50.1691	543.62
50.1835	506.95
50.1979	510.13
50.2124	502.26
50.2268	536.55
50.2413	536.16
50.2557	478.38
50.2701	503.09
50.2846	545.90
50.2990	533.92
50.3135	521.59
50.3279	493.15
50.3423	521.62
50.3568	532.72
50.3712	522.97
50.3857	520.46
50.4001	509.97
50.4145	520.86
50.4290	531.41
50.4434	508.42
50.4579	495.73
50.4723	555.43
50.4867	500.61
50.5012	468.92
50.5156	499.06
50.5301	536.51
50.5445	516.50
50.5589	483.77
50.5734	503.54
50.5878	502.79
50.6023	506.44
50.6167	523.93
50.6311	532.96
50.6456	493.44
50.6600	502.16
50.6745	506.85
50.6889	531.68
50.7033	521.39
50.7178	513.70
50.7322	513.93
50.7467	513.09
50.7611	483.60
50.7755	507.72
50.7900	474.36
50.8044	511.06
50.8189	537.17
50.8333	526.34
50.8477	518.77
50.8622	509.16
50.8766	508.61
50.8911	503.06
50.9055	492.80
50.9199	505.96
50.9344	532.43
50.9488	510.78
50.9633	511.41
50.9777	489.86
50.9921	518.96
51.0066	508.89
51.0210	515.67
51.0355	510.75
51.0499	470.61
51.0643	481.96
51.0788	496.53
51.0932	518.64
51.1077	504.37
51.1221	528.98
51.1365	500.70
51.1510	494.86
51.1654	501.97
51.1799	520.33
51.1943	514.00
51.2087	500.78
51.2232	506.30
51.2376	510.37
51.2521	494.76
51.2665	500.55
51.2809	519.94
51.2954	500.54
51.3098	511.86
51.3243	503.30
51.3387	512.72
51.3531	488.45
51.3676	507.05
51.3820	477.53
51.3965	472.40
51.4109	505.81
51.4253	529.22
51.4398	502.90
51.4542	511.16
51.4687	520.11
51.4831	498.44
51.4975	521.58
51.5120	535.21
51.5264	513.65
51.5409	492.09
51.5553	462.88
51.5697	501.56
51.5842	479.33
51.5986	498.57
51.6131	515.11
51.6275	504.11
51.6419	507.54
51.6564	513.36
51.6708	493.02
51.6853	520.53
51.6997	506.50
51.7141	488.52
51.7286	510.00
51.7430	492.76
51.7575	503.32
51.7719	521.66
51.7863	527.80
51.8008	497.98
51.8152	529.14
51.8297	528.17
51.8441	517.43
51.8585	501.74
51.8730	513.48
51.8874	458.99
51.9019	474.81
51.9163	493.51
51.9307	494.55
51.9452	473.09
51.9596	508.17
51.9741	491.55
51.9885	549.57
52.0029	509.29
52.0174	506.84
52.0318	501.59
52.0463	533.47
52.0607	510.85
52.0751	498.07
52.0896	518.29
52.1040	518.03
52.1185	523.35
52.1329	530.19
52.1473	516.98
52.1618	525.89
52.1762	479.82
52.1907	489.94
52.2051	511.14
52.2195	500.36
52.2340	527.93
52.2484	529.75
52.2629	478.97
52.2773	473.84
52.2917	527.15
52.3062	517.90
52.3206	500.24
52.3351	518.43
52.3495	524.84
52.3639	478.74
52.3784	495.86
52.3928	476.62
52.4073	507.92
52.4217	535.64
52.4361	496.09
52.4506	504.21
52.4650	527.12
52.4795	524.93
52.4939	520.08
52.5083	510.89
52.5228	515.41
52.5372	513.29
52.5517	516.00
52.5661	494.06
52.5805	481.06
52.5950	530.52
52.6094	533.94
52.6239	506.35
52.6383	491.80
52.6527	470.21
52.6672	500.93
52.6816	516.73
52.6961	511.70
52.7105	542.88
52.7250	524.30
52.7394	502.97
52.7538	533.13
52.7683	511.94
52.7827	517.65
52.7972	485.32
52.8116	532.61
52.8260	498.94
52.8405	452.85
52.8549	464.92
52.8694	539.38
52.8838	502.17
52.8982	504.18
52.9127	524.92
52.9271	488.21
52.9416	492.67
52.9560	495.34
52.9704	509.24
52.9849	525.21
52.9993	500.60
53.0138	472.60
53.0282	497.02
53.0426	504.67
53.0571	523.92
53.0715	510.06
53.0860	507.64
53.1004	515.12
53.1148	525.95
53.1293	531.09
53.1437	522.02
53.1582	541.83
53.1726	519.48
53.1870	536.63
53.2015	551.87
53.2159	532.38
53.2304	515.79
53.2448	511.67
53.2592	509.02
53.2737	496.44
53.2881	513.08
53.3026	503.01
53.3170	535.31
53.3314	518.17
53.3459	532.23
53.3603	510.97
53.3748	506.58
53.3892	526.78
53.4036	518.72
53.4181	548.89
53.4325	512.79
53.4470	497.32
53.4614	525.61
53.4758	523.44
53.4903	512.92
53.5047	548.85
53.5192	526.60
53.5336	534.60
53.5480	521.09
53.5625	539.00
53.5769	513.53
53.5914	520.49
53.6058	501.21
53.6202	500.90
53.6347	535.24
53.6491	518.52
53.6636	543.88
53.6780	523.85
53.6924	523.60
53.7069	539.27
53.7213	533.50
53.7358	473.69
53.7502	517.17
53.7646	483.33
53.7791	530.68
53.7935	497.74
53.8080	524.12
53.8224	520.28
53.8368	521.06
53.8513	507.27
53.8657	520.59
53.8802	518.20
53.8946	489.70
53.9090	526.27
53.9235	519.95
53.9379	540.67
53.9524	535.60
53.9668	511.99
53.9812	509.42
53.9957	531.47
54.0101	487.36
54.0246	506.44
54.0390	518.45
54.0534	506.19
54.0679	521.71
54.0823	549.95
54.0968	518.56
54.1112	489.11
54.1256	516.03
54.1401	516.89
54.1545	501.16
54.1690	509.41
54.1834	544.75
54.1978	524.27
54.2123	519.60
54.2267	529.97
54.2412	507.24
54.2556	489.54
54.2700	525.19
54.2845	535.45
54.2989	506.19
54.3134	516.50
54.3278	527.24
54.3422	532.88
54.3567	499.42
54.3711	476.67
54.3856	505.01
54.4000	507.98
54.4144	538.92
54.4289	552.77
54.4433	502.29
54.4578	499.50
54.4722	530.55
54.4866	524.13
54.5011	515.69
54.5155	508.91
54.5300	552.04
54.5444	558.76
54.5588	563.16
54.5733	562.65
54.5877	574.38
54.6022	611.16
54.6166	602.40
54.6310	566.90
54.6455	577.84
54.6599	561.89
54.6744	558.10
54.6888	547.04
54.7032	595.76
54.7177	607.04
54.7321	569.09
54.7466	582.48
54.7610	564.04
54.7754	542.34
54.7899	554.47
54.8043	581.52
54.8188	606.15
54.8332	591.18
54.8476	554.44
54.8621	571.95
54.8765	541.82
54.8910	545.53
54.9054	578.38
54.9198	553.77
54.9343	539.10
54.9487	524.83
54.9632	558.83
54.9776	555.11
54.9920	545.66
55.0065	533.56
55.0209	518.30
55.0354	519.87
55.0498	520.47
55.0642	527.75
55.0787	521.18
55.0931	538.35
55.1076	525.52
55.1220	538.37
55.1364	526.27
55.1509	488.48
55.1653	528.34
55.1798	508.84
55.1942	528.00
55.2086	540.78
55.2231	510.72
55.2375	491.74
55.2520	519.35
55.2664	523.95
55.2808	502.01
55.2953	513.66
55.3097	525.28
55.3242	472.01
55.3386	489.28
55.3530	517.30
55.3675	513.94
55.3819	511.70
55.3964	489.75
55.4108	534.92
55.4252	537.52
55.4397	477.55
55.4541	462.31
55.4686	509.61
55.4830	550.45
55.4974	534.14
55.5119	523.65
55.5263	525.14
55.5408	512.37
55.5552	531.56
55.5696	517.75
55.5841	497.28
55.5985	491.36
55.6130	499.92
55.6274	522.44
55.6418	506.16
55.6563	520.55
55.6707	516.16
55.6852	512.27
55.6996	506.97
55.7140	508.53
55.7285	518.07
55.7429	530.59
55.7574	519.59
55.7718	521.38
55.7862	517.91
55.8007	538.34
55.8151	555.16
55.8296	532.50
55.8440	524.19
55.8584	502.02
55.8729	516.15
55.8873	521.22
55.9018	523.58
55.9162	537.99
55.9306	496.42
55.9451	485.44
55.9595	497.98
55.9740	545.55
55.9884	506.97
56.0028	530.67
56.0173	532.03
56.0317	535.79
56.0462	529.52
56.0606	487.22
56.0750	498.57
56.0895	541.88
56.1039	541.30
56.1184	527.30
56.1328	525.60
56.1472	532.27
56.1617	505.56
56.1761	514.59
56.1906	528.51
56.2050	521.01
56.2194	530.92
56.2339	520.41
56.2483	520.06
56.2628	494.47
56.2772	525.05
56.2916	517.23
56.3061	514.53
56.3205	516.43
56.3350	535.40
56.3494	486.43
56.3639	524.02
56.3783	509.41
56.3927	511.62
56.4072	543.23
56.4216	523.53
56.4361	522.94
56.4505	556.93
56.4649	492.03
56.4794	509.37
56.4938	502.80
56.5083	519.40
56.5227	488.62
56.5371	482.09
56.5516	496.67
56.5660	517.12
56.5805	504.30
56.5949	500.39
56.6093	521.71
56.6238	543.20
56.6382	505.45
56.6527	479.65
56.6671	514.04
56.6815	517.16
56.6960	521.36
56.7104	536.10
56.7249	549.07
56.7393	507.45
56.7537	526.90
56.7682	540.78
56.7826	532.62
56.7971	488.15
56.8115	517.34
56.8259	543.95
56.8404	530.32
56.8548	491.71
56.8693	508.89
56.8837	505.16
56.8981	479.15
56.9126	551.03
56.9270	536.08
56.9415	511.89
56.9559	522.17
56.9703	497.72
56.9848	517.54
56.9992	540.53
57.0137	498.96
57.0281	475.53
57.0425	476.49
57.0570	499.60
57.0714	543.08
57.0859	558.04
57.1003	564.91
57.1147	510.67
57.1292	531.88
57.1436	503.35
57.1581	499.68
57.1725	530.61
57.1869	502.74
57.2014	517.00
57.2158	523.06
57.2303	514.58
57.2447	537.30
57.2591	550.27
57.2736	535.18
57.2880	507.25
57.3025	496.65
57.3169	516.20
57.3313	517.63
57.3458	531.56
57.3602	522.93
57.3747	506.79
57.3891	483.30
57.4035	544.15
57.4180	493.05
57.4324	526.07
57.4469	515.44
57.4613	523.08
57.4757	517.06
57.4902	529.69
57.5046	478.81
57.5191	526.32
57.5335	546.14
57.5479	545.81
57.5624	539.19
57.5768	546.98
57.5913	516.11
57.6057	533.82
57.6201	525.21
57.6346	525.71
57.6490	506.50
57.6635	560.49
57.6779	543.93
57.6923	515.44
57.7068	577.88
57.7212	525.84
57.7357	511.14
57.7501	556.91
57.7645	521.50
57.7790	546.56
57.7934	551.73
57.8079	551.99
57.8223	518.03
57.8367	517.04
57.8512	529.71
57.8656	512.90
57.8801	507.48
57.8945	534.52
57.9089	558.12
57.9234	537.65
57.9378	555.06
57.9523	534.69
57.9667	534.04
57.9811	541.86
57.9956	545.87
58.0100	523.54
58.0245	560.87
58.0389	552.48
58.0533	549.42
58.0678	583.28
58.0822	531.72
58.0967	538.53
58.1111	603.48
58.1255	586.57
58.1400	572.02
58.1544	577.11
58.1689	593.03
58.1833	575.68
58.1977	614.82
58.2122	610.41
58.2266	615.26
58.2411	618.50
58.2555	605.61
58.2699	638.39
58.2844	631.01
58.2988	622.31
58.3133	654.35
58.3277	633.03
58.3421	658.16
58.3566	672.51
58.3710	688.29
58.3855	635.70
58.3999	624.60
58.4143	609.96
58.4288	651.72
58.4432	608.93
58.4577	607.55
58.4721	625.16
58.4865	597.43
58.5010	578.95
58.5154	610.82
58.5299	628.42
58.5443	615.62
58.5587	595.99
58.5732	583.22
58.5876	585.21
58.6021	595.57
58.6165	558.71
58.6309	581.88
58.6454	562.49
58.6598	528.84
58.6743	530.20
58.6887	532.04
58.7031	520.21
58.7176	542.04
58.7320	535.59
58.7465	540.02
58.7609	525.63
58.7753	528.20
58.7898	528.52
58.8042	551.74
58.8187	548.31
58.8331	527.65
58.8475	516.33
58.8620	513.58
58.8764	506.51
58.8909	534.14
58.9053	569.74
58.9197	545.30
58.9342	549.39
58.9486	552.19
58.9631	525.57
58.9775	532.06
58.9919	515.84
59.0064	547.77
59.0208	558.35
59.0353	523.48
59.0497	542.42
59.0641	553.02
59.0786	532.10
59.0930	552.63
59.1075	495.38
59.1219	512.99
59.1363	529.72
59.1508	504.35
59.1652	530.15
59.1797	554.19
59.1941	516.74
59.2085	516.64
59.2230	552.41
59.2374	544.17
59.2519	534.83
59.2663	527.68
59.2807	552.90
59.2952	531.04
59.3096	541.43
59.3241	544.14
59.3385	579.79
59.3529	536.45
59.3674	554.97
59.3818	561.44
59.3963	527.57
59.4107	537.33
59.4251	542.30
59.4396	584.59
59.4540	570.72
59.4685	560.44
59.4829	578.54
59.4973	545.68
59.5118	551.12
59.5262	569.29
59.5407	564.63
59.5551	538.96
59.5695	565.88
59.5840	557.59
59.5984	544.13
59.6129	553.06
59.6273	507.99
59.6417	501.21
59.6562	542.80
59.6706	522.06
59.6851	537.75
59.6995	556.93
59.7139	552.75
59.7284	532.50
59.7428	559.39
59.7573	524.53
59.7717	520.02
59.7861	556.38
59.8006	567.81
59.8150	587.96
59.8295	585.02
59.8439	544.66
59.8583	553.67
59.8728	538.01
59.8872	559.66
59.9017	575.09
59.9161	561.97
59.9305	545.27
59.9450	590.16
59.9594	552.68
59.9739	548.46
59.9883	569.05
60.0027	527.07
60.0172	525.46
60.0316	555.10
60.0461	536.52
60.0605	571.75
60.0750	575.27
60.0894	567.16
60.1038	564.10
60.1183	561.76
60.1327	573.82
60.1472	554.86
60.1616	548.55
60.1760	556.37
60.1905	537.90
60.2049	541.42
60.2194	556.71
60.2338	527.76
60.2482	561.90
60.2627	543.63
60.2771	532.01
60.2916	514.70
60.3060	489.69
60.3204	501.93
60.3349	547.76
60.3493	511.30
60.3638	539.14
60.3782	549.95
60.3926	515.93
60.4071	522.83
60.4215	575.28
60.4360	551.88
60.4504	541.93
60.4648	562.95
60.4793	571.65
60.4937	533.32
60.5082	522.93
60.5226	557.51
60.5370	594.28
60.5515	548.73
60.5659	550.40
60.5804	532.05
60.5948	525.97
60.6092	561.94
60.6237	537.95
60.6381	521.35
60.6526	536.25
60.6670	535.14
60.6814	492.33
60.6959	496.09
60.7103	563.10
60.7248	561.87
60.7392	522.16
60.7536	532.23
60.7681	518.07
60.7825	546.38
60.7970	510.68
60.8114	521.88
60.8258	494.49
60.8403	545.31
60.8547	554.30
60.8692	545.53
60.8836	520.58
60.8980	526.17
60.9125	574.98
60.9269	592.72
60.9414	569.52
60.9558	520.57
60.9702	542.21
60.9847	559.74
60.9991	533.28
61.0136	537.67
61.0280	529.67
61.0424	490.60
61.0569	526.64
61.0713	547.49
61.0858	535.63
61.1002	546.32
61.1146	510.51
61.1291	577.47
61.1435	550.10
61.1580	519.64
61.1724	574.44
61.1868	522.72
61.2013	543.70
61.2157	536.55
61.2302	544.51
61.2446	532.66
61.2590	514.14
61.2735	516.79
61.2879	529.13
61.3024	537.82
61.3168	537.69
61.3312	554.10
61.3457	537.51
61.3601	564.72
61.3746	565.01
61.3890	558.38
61.4034	553.04
61.4179	534.69
61.4323	534.26
61.4468	513.32
61.4612	516.60
61.4756	533.31
61.4901	546.32
61.5045	530.43
61.5190	529.87
61.5334	571.77
61.5478	560.38
61.5623	523.72
61.5767	542.83
61.5912	544.94
61.6056	537.16
61.6200	546.92
61.6345	553.26
61.6489	550.94
61.6634	541.79
61.6778	562.69
61.6922	536.64
61.7067	553.04
61.7211	530.32
61.7356	540.60
61.7500	568.85
61.7644	561.34
61.7789	594.11
61.7933	550.73
61.8078	539.23
61.8222	542.61
61.8366	566.42
61.8511	570.94
61.8655	602.69
61.8800	549.03
61.8944	561.79
61.9088	533.57
61.9233	546.08
61.9377	581.88
61.9522	599.62
61.9666	573.00
61.9810	541.49
61.9955	542.31
62.0099	549.66
62.0244	547.09
62.0388	522.10
62.0532	540.46
62.0677	546.21
62.0821	561.94
62.0966	584.79
62.1110	542.02
62.1254	552.79
62.1399	512.36
62.1543	543.77
62.1688	574.40
62.1832	542.13
62.1976	520.96
62.2121	561.78
62.2265	569.67
62.2410	533.61
62.2554	524.33
62.2698	542.65
62.2843	565.06
62.2987	523.73
62.3132	546.41
62.3276	534.27
62.3420	560.83
62.3565	535.99
62.3709	539.43
62.3854	537.39
62.3998	566.40
62.4142	541.15
62.4287	555.15
62.4431	514.66
62.4576	528.90
62.4720	539.87
62.4864	534.19
62.5009	537.98
62.5153	560.92
62.5298	541.04
62.5442	584.17
62.5586	565.73
62.5731	522.88
62.5875	549.34
62.6020	570.74
62.6164	563.08
62.6308	590.71
62.6453	555.38
62.6597	538.17
62.6742	569.12
62.6886	540.56
62.7030	563.16
62.7175	567.13
62.7319	522.09
62.7464	529.32
62.7608	556.80
62.7752	578.78
62.7897	587.57
62.8041	567.48
62.8186	552.35
62.8330	567.21
62.8474	543.49
62.8619	563.49
62.8763	559.13
62.8908	565.46
62.9052	565.44
62.9196	547.97
62.9341	549.13
62.9485	543.89
62.9630	543.59
62.9774	533.67
62.9918	533.31
63.0063	560.90
63.0207	585.08
63.0352	574.92
63.0496	545.54
63.0640	577.38
63.0785	575.02
63.0929	573.54
63.1074	562.48
63.1218	535.36
63.1362	579.00
63.1507	553.85
63.1651	556.84
63.1796	589.83
63.1940	549.10
63.2084	543.47
63.2229	594.72
63.2373	607.03
63.2518	599.66
63.2662	575.91
63.2806	600.20
63.2951	589.95
63.3095	625.77
63.3240	609.79
63.3384	580.10
63.3528	584.63
63.3673	570.59
63.3817	562.28
63.3962	542.77
63.4106	524.58
63.4250	608.15
63.4395	529.60
63.4539	552.30
63.4684	570.82
63.4828	585.37
63.4972	571.30
63.5117	576.73
63.5261	583.78
63.5406	593.54
63.5550	588.91
63.5694	597.23
63.5839	598.15
63.5983	627.01
63.6128	613.50
63.6272	605.33
63.6416	602.63
63.6561	615.55
63.6705	597.86
63.6850	580.07
63.6994	588.36
63.7138	625.23
63.7283	601.71
63.7427	573.11
63.7572	606.56
63.7716	602.93
63.7861	613.72
63.8005	671.62
63.8149	665.80
63.8294	685.79
63.8438	655.62
63.8583	669.55
63.8727	694.53
63.8871	678.65
63.9016	673.82
63.9160	676.38
63.9305	686.41
63.9449	729.05
63.9593	678.81
63.9738	680.23
63.9882	712.82
64.0027	759.33
64.0171	751.81
64.0315	768.96
64.0460	797.42
64.0604	755.36
64.0749	766.40
64.0893	781.76
64.1037	751.15
64.1182	779.95
64.1326	736.31
64.1471	742.09
64.1615	796.29
64.1759	802.77
64.1904	724.09
64.2048	741.93
64.2193	721.70
64.2337	737.30
64.2481	712.17
64.2626	782.29
64.2770	747.58
64.2915	729.43
64.3059	716.15
64.3203	760.57
64.3348	756.05
64.3492	705.42
64.3637	726.85
64.3781	721.50
64.3925	671.99
64.4070	678.13
64.4214	709.64
64.4359	688.50
64.4503	668.90
64.4647	708.24
64.4792	673.56
64.4936	676.37
64.5081	645.10
64.5225	679.77
64.5369	633.86
64.5514	662.28
64.5658	639.51
64.5803	635.32
64.5947	696.15
64.6091	678.40
64.6236	607.44
64.6380	652.26
64.6525	648.55
64.6669	647.19
64.6813	645.23
64.6958	661.10
64.7102	724.07
64.7247	679.41
64.7391	709.76
64.7535	710.74
64.7680	686.41
64.7824	710.33
64.7969	726.18
64.8113	773.98
64.8257	787.53
64.8402	798.08
64.8546	839.29
64.8691	872.44
64.8835	842.93
64.8979	835.85
64.9124	853.80
64.9268	860.62
64.9413	946.81
64.9557	957.21
64.9701	997.03
64.9846	1057.49
64.9990	1145.36
65.0135	1254.21
65.0279	1471.53
65.0423	1640.52
65.0568	1994.08
65.0712	2567.53
65.0857	3237.84
65.1001	4358.79
65.1145	5881.93
65.1290	7712.48
65.1434	9255.35
65.1579	10711.31
65.1723	11761.64
65.1867	11198.54
65.2012	10115.16
65.2156	8323.20
65.2301	6718.19
65.2445	5413.79
65.2589	4409.89
65.2734	4249.54
65.2878	4366.53
65.3023	4816.13
65.3167	5595.14
65.3311	6351.30
65.3456	6838.99
65.3600	6991.88
65.3745	6487.24
65.3889	5624.87
65.4033	4526.44
65.4178	3494.52
65.4322	2648.01
65.4467	2046.71
65.4611	1766.58
65.4755	1546.68
65.4900	1304.93
65.5044	1098.61
65.5189	1063.48
65.5333	1006.47
65.5477	927.09
65.5622	911.67
65.5766	826.82
65.5911	823.84
65.6055	812.29
65.6199	790.61
65.6344	773.10
65.6488	758.22
65.6633	758.76
65.6777	718.68
65.6921	704.03
65.7066	726.49
65.7210	709.30
65.7355	672.62
65.7499	702.23
65.7643	673.38
65.7788	662.56
65.7932	670.91
65.8077	663.12
65.8221	673.39
65.8365	654.19
65.8510	689.41
65.8654	681.24
65.8799	659.65
65.8943	653.89
65.9087	670.15
65.9232	598.95
65.9376	620.84
65.9521	605.39
65.9665	607.15
65.9809	643.54
65.9954	627.96
66.0098	603.93
66.0243	604.62
66.0387	642.06
66.0531	637.44
66.0676	636.29
66.0820	623.83
66.0965	651.79
66.1109	623.26
66.1253	620.83
66.1398	618.61
66.1542	605.84
66.1687	585.22
66.1831	599.45
66.1975	588.73
66.2120	596.46
66.2264	584.18
66.2409	580.08
66.2553	610.99
66.2697	602.26
66.2842	605.65
66.2986	601.24
66.3131	601.04
66.3275	602.73
66.3419	639.80
66.3564	614.56
66.3708	585.37
66.3853	601.50
66.3997	580.43
66.4141	586.26
66.4286	591.64
66.4430	576.59
66.4575	577.51
66.4719	625.45
66.4863	613.70
66.5008	575.71
66.5152	574.82
66.5297	587.05
66.5441	569.05
66.5585	594.51
66.5730	575.38
66.5874	613.23
66.6019	608.49
66.6163	578.82
66.6307	552.28
66.6452	594.60
66.6596	606.03
66.6741	559.94
66.6885	571.65
66.7029	596.24
66.7174	548.14
66.7318	553.46
66.7463	568.42
66.7607	576.58
66.7751	615.55
66.7896	551.56
66.8040	569.63
66.8185	563.10
66.8329	580.49
66.8473	569.52
66.8618	602.50
66.8762	573.42
66.8907	580.40
66.9051	613.76
66.9195	590.89
66.9340	570.95
66.9484	598.36
66.9629	587.11
66.9773	566.39
66.9917	582.97
67.0062	593.99
67.0206	603.11
67.0351	573.93
67.0495	571.85
67.0639	559.04
67.0784	561.80
67.0928	574.83
67.1073	529.48
67.1217	558.36
67.1361	612.50
67.1506	595.60
67.1650	572.66
67.1795	590.89
67.1939	558.43
67.2083	611.07
67.2228	569.77
67.2372	611.79
67.2517	599.73
67.2661	574.89
67.2805	563.02
67.2950	529.77
67.3094	569.25
67.3239	616.71
67.3383	559.73
67.3527	566.19
67.3672	568.30
67.3816	550.04
67.3961	563.27
67.4105	569.30
67.4250	593.79
67.4394	560.76
67.4538	562.72
67.4683	567.36
67.4827	543.19
67.4972	586.15
67.5116	581.56
67.5260	586.50
67.5405	567.54
67.5549	573.01
67.5694	570.81
67.5838	593.28
67.5982	587.52
67.6127	585.44
67.6271	586.08
67.6416	569.29
67.6560	547.46
67.6704	539.81
67.6849	544.20
67.6993	562.62
67.7138	573.51
67.7282	546.64
67.7426	569.06
67.7571	577.22
67.7715	570.78
67.7860	615.58
67.8004	583.18
67.8148	582.42
67.8293	602.18
67.8437	569.17
67.8582	598.43
67.8726	559.73
67.8870	572.48
67.9015	577.74
67.9159	552.53
67.9304	564.26
67.9448	577.87
67.9592	570.64
67.9737	579.40
67.9881	576.06
68.0026	571.56
68.0170	578.18
68.0314	559.39
68.0459	581.17
68.0603	567.85
68.0748	571.13
68.0892	567.96
68.1036	572.28
68.1181	618.08
68.1325	575.50
68.1470	550.27
68.1614	591.16
68.1758	621.31
68.1903	561.65
68.2047	529.81
68.2192	579.63
68.2336	584.18
68.2480	594.02
68.2625	566.43
68.2769	573.46
68.2914	577.93
68.3058	564.08
68.3202	555.12
68.3347	575.51
68.3491	545.56
68.3636	568.64
68.3780	593.30
68.3924	566.18
68.4069	578.80
68.4213	566.72
68.4358	577.72
68.4502	578.01
68.4646	602.46
68.4791	553.86
68.4935	589.30
68.5080	556.70
68.5224	557.87
68.5368	601.05
68.5513	570.45
68.5657	564.76
68.5802	529.83
68.5946	587.26
68.6090	584.68
68.6235	588.45
68.6379	591.13
68.6524	527.55
68.6668	556.36
68.6812	561.71
68.6957	562.40
68.7101	582.39
68.7246	573.58
68.7390	607.21
68.7534	567.34
68.7679	580.75
68.7823	618.51
68.7968	540.91
68.8112	562.93
68.8256	582.70
68.8401	575.64
68.8545	602.39
68.8690	570.46
68.8834	581.40
68.8978	608.60
68.9123	605.84
68.9267	549.55
68.9412	591.58
68.9556	572.57
68.9700	542.08
68.9845	556.93
68.9989	607.79
69.0134	575.01
69.0278	565.32
69.0422	538.57
69.0567	586.34
69.0711	585.84
69.0856	581.43
69.1000	497.16
69.1144	577.97
69.1289	549.41
69.1433	535.97
69.1578	533.00
69.1722	547.16
69.1866	560.97
69.2011	598.23
69.2155	558.04
69.2300	535.64
69.2444	527.31
69.2588	570.80
69.2733	585.37
69.2877	602.66
69.3022	577.73
69.3166	567.12
69.3310	580.92
69.3455	596.56
69.3599	564.83
69.3744	537.54
69.3888	554.12
69.4032	567.21
69.4177	591.04
69.4321	620.10
69.4466	608.17
69.4610	557.88
69.4754	580.54
69.4899	619.72
69.5043	601.62
69.5188	610.74
69.5332	621.99
69.5476	588.43
69.5621	612.16
69.5765	580.60
69.5910	600.59
69.6054	587.27
69.6198	593.22
69.6343	553.37
69.6487	560.51
69.6632	558.64
69.6776	578.92
69.6920	589.44
69.7065	594.76
69.7209	549.81
69.7354	547.14
69.7498	583.98
69.7642	509.86
69.7787	550.31
69.7931	543.19
69.8076	560.43
69.8220	556.74
69.8364	583.92
69.8509	582.54
69.8653	548.64
69.8798	554.47
69.8942	594.88
69.9086	635.28
69.9231	612.38
69.9375	622.59
69.9520	638.21
69.9664	573.42
69.9808	544.82
69.9953	616.61
70.0097	570.13
70.0242	580.15
70.0386	558.25
70.0530	570.17
70.0675	581.93
70.0819	575.79
70.0964	586.42
70.1108	600.76
70.1252	627.04
70.1397	599.73
70.1541	519.22
70.1686	625.37
70.1830	601.02
70.1974	566.67
70.2119	585.43
70.2263	576.35
70.2408	583.57
70.2552	594.96
70.2696	583.78
70.2841	582.91
70.2985	564.48
70.3130	587.98
70.3274	618.54
70.3418	588.05
70.3563	615.56
70.3707	542.62
70.3852	573.08
70.3996	594.32
70.4140	527.41
70.4285	596.17
70.4429	534.33
70.4574	570.32
70.4718	563.73
70.4862	586.24
70.5007	601.33
70.5151	534.73
70.5296	579.63
70.5440	593.71
70.5584	597.59
70.5729	604.46
70.5873	540.87
70.6018	571.74
70.6162	554.84
70.6306	576.26
70.6451	544.23
70.6595	554.62
70.6740	600.02
70.6884	541.05
70.7028	544.75
70.7173	653.81
70.7317	621.99
70.7462	593.84
70.7606	517.64
70.7750	572.86
70.7895	650.29
70.8039	597.14
70.8184	598.48
70.8328	572.91
70.8472	566.41
70.8617	586.74
70.8761	603.44
70.8906	556.72
70.9050	592.99
70.9194	633.12
70.9339	640.85
70.9483	589.83
70.9628	538.03
70.9772	571.43
70.9916	543.72
71.0061	527.38
71.0205	585.16
71.0350	616.97
71.0494	598.63
71.0638	577.08
71.0783	586.49
71.0927	591.35
71.1072	595.61
71.1216	606.01
71.1361	556.37
71.1505	584.81
71.1649	563.60
71.1794	578.81
71.1938	573.39
71.2083	564.22
71.2227	560.15
71.2371	546.35
71.2516	569.39
71.2660	595.63
71.2805	596.68
71.2949	573.37
71.3093	575.40
71.3238	594.45
71.3382	601.10
71.3527	602.68
71.3671	581.33
71.3815	568.45
71.3960	627.86
71.4104	586.43
71.4249	586.22
71.4393	624.88
71.4537	571.78
71.4682	540.41
71.4826	553.01
71.4971	536.85
71.5115	602.79
71.5259	597.72
71.5404	602.52
71.5548	595.50
71.5693	560.00
71.5837	562.31
71.5981	544.35
71.6126	582.85
71.6270	611.66
71.6415	559.12
71.6559	553.11
71.6703	559.77
71.6848	532.93
71.6992	589.36
71.7137	577.53
71.7281	526.62
71.7425	595.00
71.7570	567.88
71.7714	600.07
71.7859	585.67
71.8003	609.24
71.8147	595.18
71.8292	581.37
71.8436	564.58
71.8581	542.55
71.8725	578.23
71.8869	591.92
71.9014	610.64
71.9158	589.33
71.9303	558.06
71.9447	615.70
71.9591	599.26
71.9736	557.24
71.9880	604.65
72.0025	553.69
72.0169	484.73
72.0313	493.68
72.0458	552.75
72.0602	597.24
72.0747	598.97
72.0891	653.25
72.1035	736.12
72.1180	648.76
72.1324	516.97
72.1469	541.43
72.1613	607.75
72.1757	606.65
72.1902	584.19
72.2046	590.45
72.2191	606.24
72.2335	552.16
72.2479	502.64
72.2624	558.27
72.2768	560.80
72.2913	516.80
72.3057	547.23
72.3201	602.76
72.3346	580.53
72.3490	609.27
72.3635	554.52
72.3779	549.92
72.3923	588.07
72.4068	521.73
72.4212	522.83
72.4357	554.18
72.4501	552.34
72.4645	555.25
72.4790	572.38
72.4934	570.57
72.5079	526.32
72.5223	555.08
72.5367	524.61
72.5512	558.23
72.5656	559.61
72.5801	542.22
72.5945	572.57
72.6089	533.40
72.6234	496.74
72.6378	504.10
72.6523	555.85
72.6667	616.95
72.6811	663.69
72.6956	627.41
72.7100	550.66
72.7245	509.32
72.7389	570.61
72.7533	659.73
72.7678	650.42
72.7822	640.79
72.7967	587.19
72.8111	619.62
72.8255	604.06
72.8400	564.83
72.8544	501.85
72.8689	585.44
72.8833	603.65