2022.09.19 19:37:17
Îáðàçåö: ß÷åéêà LCoV 16-09-2022
Lambda1 = 1.54060
Lambda2 = 1.54439
Lambdam = 1.54186
R = 0.497
2Theta	I

line¹ 0 ;repeat¹ 0
22.1120	628.89
22.1264	604.88
22.1409	635.77
22.1553	551.82
22.1697	480.75
22.1842	521.39
22.1986	557.46
22.2131	551.32
22.2275	583.91
22.2419	555.50
22.2564	472.75
22.2708	529.48
22.2853	564.78
22.2997	606.13
22.3141	597.76
22.3286	637.95
22.3430	618.02
22.3575	606.52
22.3719	585.80
22.3863	555.16
22.4008	578.95
22.4152	648.74
22.4297	673.98
22.4441	553.24
22.4585	619.17
22.4730	629.20
22.4874	607.90
22.5019	730.96
22.5163	554.79
22.5307	541.76
22.5452	538.22
22.5596	560.55
22.5741	573.36
22.5885	637.15
22.6029	618.05
22.6174	557.81
22.6318	612.69
22.6463	546.61
22.6607	550.06
22.6751	528.34
22.6896	581.08
22.7040	580.16
22.7185	535.05
22.7329	540.19
22.7473	544.68
22.7618	664.49
22.7762	667.96
22.7907	593.54
22.8051	562.12
22.8195	557.84
22.8340	553.46
22.8484	534.76
22.8629	532.10
22.8773	576.54
22.8917	573.63
22.9062	569.35
22.9206	601.03
22.9351	542.02
22.9495	542.07
22.9639	526.25
22.9784	523.23
22.9928	550.44
23.0073	617.29
23.0217	730.37
23.0361	674.74
23.0506	500.33
23.0650	500.33
23.0795	504.45
23.0939	549.02
23.1083	562.11
23.1228	589.90
23.1372	540.98
23.1517	539.27
23.1661	592.68
23.1806	516.94
23.1950	559.42
23.2094	564.69
23.2239	554.88
23.2383	560.09
23.2528	541.40
23.2672	570.47
23.2816	634.51
23.2961	524.98
23.3105	483.59
23.3250	526.84
23.3394	567.57
23.3538	522.75
23.3683	525.16
23.3827	533.49
23.3972	515.55
23.4116	531.44
23.4260	540.11
23.4405	512.41
23.4549	506.46
23.4694	492.49
23.4838	522.30
23.4982	586.11
23.5127	569.86
23.5271	533.69
23.5416	547.59
23.5560	577.23
23.5704	550.79
23.5849	576.73
23.5993	576.85
23.6138	521.63
23.6282	536.08
23.6426	558.47
23.6571	559.52
23.6715	574.93
23.6860	559.19
23.7004	605.75
23.7148	563.75
23.7293	544.34
23.7437	606.99
23.7582	628.57
23.7726	581.04
23.7870	539.14
23.8015	636.65
23.8159	541.53
23.8304	554.38
23.8448	483.04
23.8592	566.05
23.8737	617.04
23.8881	581.65
23.9026	590.13
23.9170	498.80
23.9314	584.58
23.9459	632.37
23.9603	551.00
23.9748	524.06
23.9892	543.35
24.0036	499.63
24.0181	539.83
24.0325	563.96
24.0470	618.51
24.0614	522.16
24.0758	566.06
24.0903	607.07
24.1047	528.09
24.1192	576.59
24.1336	595.22
24.1480	518.72
24.1625	578.52
24.1769	540.91
24.1914	529.72
24.2058	560.52
24.2202	576.36
24.2347	612.38
24.2491	629.11
24.2636	563.70
24.2780	569.18
24.2924	610.52
24.3069	594.27
24.3213	569.38
24.3358	561.17
24.3502	540.00
24.3646	504.48
24.3791	537.62
24.3935	557.22
24.4080	564.37
24.4224	486.90
24.4368	522.46
24.4513	555.66
24.4657	568.40
24.4802	604.42
24.4946	553.44
24.5090	553.93
24.5235	528.65
24.5379	554.69
24.5524	578.65
24.5668	558.14
24.5812	563.88
24.5957	581.19
24.6101	575.94
24.6246	517.52
24.6390	532.26
24.6534	544.13
24.6679	555.94
24.6823	499.10
24.6968	541.36
24.7112	589.81
24.7256	545.72
24.7401	543.43
24.7545	557.42
24.7690	503.83
24.7834	551.48
24.7978	510.14
24.8123	536.14
24.8267	542.35
24.8412	550.30
24.8556	528.52
24.8700	570.22
24.8845	581.99
24.8989	545.01
24.9134	552.36
24.9278	577.95
24.9422	609.12
24.9567	551.91
24.9711	525.42
24.9856	559.69
25.0000	526.78
25.0144	561.54
25.0289	553.34
25.0433	502.62
25.0578	505.67
25.0722	537.23
25.0866	544.61
25.1011	512.97
25.1155	573.56
25.1300	569.16
25.1444	482.90
25.1588	588.72
25.1733	574.74
25.1877	531.18
25.2022	523.35
25.2166	542.45
25.2310	529.44
25.2455	531.04
25.2599	553.36
25.2744	582.92
25.2888	553.27
25.3032	496.18
25.3177	526.14
25.3321	535.84
25.3466	548.21
25.3610	549.42
25.3754	549.84
25.3899	505.43
25.4043	484.27
25.4188	556.14
25.4332	555.88
25.4476	504.30
25.4621	557.53
25.4765	527.33
25.4910	524.36
25.5054	479.87
25.5198	532.75
25.5343	543.58
25.5487	542.84
25.5632	507.46
25.5776	554.95
25.5920	550.42
25.6065	548.87
25.6209	540.08
25.6354	557.00
25.6498	512.23
25.6642	520.40
25.6787	578.25
25.6931	544.95
25.7076	526.85
25.7220	513.14
25.7364	502.43
25.7509	502.32
25.7653	488.46
25.7798	529.75
25.7942	510.49
25.8086	537.69
25.8231	597.69
25.8375	557.04
25.8520	522.53
25.8664	542.37
25.8808	553.45
25.8953	547.69
25.9097	537.77
25.9242	526.51
25.9386	577.93
25.9530	553.29
25.9675	506.82
25.9819	528.75
25.9964	545.57
26.0108	509.98
26.0252	515.18
26.0397	528.25
26.0541	528.66
26.0686	536.10
26.0830	514.39
26.0974	552.15
26.1119	538.02
26.1263	543.09
26.1408	535.90
26.1552	531.14
26.1696	546.16
26.1841	529.33
26.1985	530.78
26.2130	548.11
26.2274	544.99
26.2418	530.50
26.2563	515.65
26.2707	493.75
26.2852	511.77
26.2996	530.76
26.3140	525.56
26.3285	530.53
26.3429	567.36
26.3574	525.17
26.3718	507.70
26.3862	519.59
26.4007	504.96
26.4151	504.99
26.4296	545.58
26.4440	543.38
26.4584	547.47
26.4729	544.61
26.4873	567.52
26.5018	558.99
26.5162	512.75
26.5306	549.43
26.5451	532.26
26.5595	523.55
26.5740	520.49
26.5884	556.79
26.6028	559.67
26.6173	526.74
26.6317	494.62
26.6462	511.40
26.6606	524.44
26.6750	520.43
26.6895	539.28
26.7039	515.77
26.7184	561.21
26.7328	528.09
26.7472	508.29
26.7617	510.24
26.7761	517.40
26.7906	513.22
26.8050	497.92
26.8194	501.38
26.8339	525.78
26.8483	524.92
26.8628	535.72
26.8772	507.24
26.8917	521.07
26.9061	549.58
26.9205	505.94
26.9350	513.69
26.9494	505.83
26.9639	495.24
26.9783	511.89
26.9927	526.32
27.0072	510.34
27.0216	496.69
27.0361	499.38
27.0505	532.50
27.0649	521.57
27.0794	533.25
27.0938	533.47
27.1083	529.61
27.1227	534.50
27.1371	525.87
27.1516	511.79
27.1660	532.95
27.1805	539.74
27.1949	511.44
27.2093	524.83
27.2238	543.45
27.2382	543.28
27.2527	519.14
27.2671	551.02
27.2815	536.71
27.2960	496.08
27.3104	498.44
27.3249	523.93
27.3393	536.83
27.3537	525.94
27.3682	533.14
27.3826	473.66
27.3971	476.52
27.4115	485.72
27.4259	531.77
27.4404	520.86
27.4548	524.56
27.4693	546.02
27.4837	525.39
27.4981	506.14
27.5126	514.69
27.5270	504.25
27.5415	535.26
27.5559	524.73
27.5703	502.11
27.5848	536.96
27.5992	523.68
27.6137	521.51
27.6281	518.86
27.6425	531.49
27.6570	519.86
27.6714	517.49
27.6859	482.04
27.7003	513.73
27.7147	557.88
27.7292	519.89
27.7436	516.14
27.7581	502.48
27.7725	510.92
27.7869	495.25
27.8014	544.24
27.8158	523.49
27.8303	535.93
27.8447	502.15
27.8591	547.09
27.8736	529.59
27.8880	534.32
27.9025	516.24
27.9169	536.34
27.9313	525.32
27.9458	505.86
27.9602	484.53
27.9747	491.95
27.9891	517.71
28.0035	523.46
28.0180	509.25
28.0324	496.61
28.0469	516.61
28.0613	498.22
28.0757	523.19
28.0902	550.71
28.1046	501.63
28.1191	510.54
28.1335	512.31
28.1479	517.04
28.1624	510.83
28.1768	489.49
28.1913	499.53
28.2057	493.05
28.2201	514.04
28.2346	519.31
28.2490	575.48
28.2635	513.41
28.2779	550.46
28.2923	528.52
28.3068	506.24
28.3212	528.45
28.3357	525.17
28.3501	527.73
28.3645	505.95
28.3790	515.92
28.3934	507.25
28.4079	530.08
28.4223	556.04
28.4367	531.64
28.4512	493.34
28.4656	521.06
28.4801	508.84
28.4945	520.29
28.5089	476.92
28.5234	502.16
28.5378	518.18
28.5523	535.46
28.5667	514.25
28.5811	517.50
28.5956	493.01
28.6100	509.16
28.6245	521.30
28.6389	526.50
28.6533	495.27
28.6678	492.45
28.6822	508.16
28.6967	557.88
28.7111	526.86
28.7255	511.69
28.7400	498.34
28.7544	542.80
28.7689	528.74
28.7833	531.83
28.7977	524.84
28.8122	540.13
28.8266	522.65
28.8411	481.72
28.8555	503.72
28.8699	522.95
28.8844	531.40
28.8988	495.18
28.9133	491.81
28.9277	530.37
28.9421	531.28
28.9566	504.70
28.9710	500.38
28.9855	490.40
28.9999	505.11
29.0143	522.48
29.0288	506.45
29.0432	520.67
29.0577	496.26
29.0721	584.05
29.0865	530.91
29.1010	510.71
29.1154	545.14
29.1299	536.11
29.1443	516.95
29.1587	531.29
29.1732	520.36
29.1876	490.92
29.2021	489.01
29.2165	527.34
29.2309	511.90
29.2454	521.92
29.2598	502.34
29.2743	541.49
29.2887	510.97
29.3031	520.27
29.3176	500.37
29.3320	510.81
29.3465	486.77
29.3609	498.24
29.3753	472.58
29.3898	480.59
29.4042	472.86
29.4187	498.64
29.4331	517.30
29.4475	529.35
29.4620	517.06
29.4764	512.27
29.4909	523.70
29.5053	489.78
29.5197	521.69
29.5342	522.36
29.5486	518.38
29.5631	478.43
29.5775	499.95
29.5919	484.05
29.6064	503.43
29.6208	502.17
29.6353	501.81
29.6497	474.02
29.6641	487.47
29.6786	494.30
29.6930	538.66
29.7075	489.38
29.7219	490.72
29.7363	518.28
29.7508	520.39
29.7652	489.28
29.7797	546.60
29.7941	536.60
29.8085	517.45
29.8230	502.41
29.8374	529.50
29.8519	520.15
29.8663	504.40
29.8807	498.14
29.8952	488.68
29.9096	517.73
29.9241	536.60
29.9385	500.11
29.9529	513.68
29.9674	512.43
29.9818	546.74
29.9963	550.67
30.0107	504.36
30.0251	494.65
30.0396	527.23
30.0540	532.07
30.0685	492.67
30.0829	515.31
30.0973	505.50
30.1118	527.30
30.1262	514.58
30.1407	516.74
30.1551	484.93
30.1695	506.26
30.1840	499.92
30.1984	471.52
30.2129	474.71
30.2273	505.37
30.2417	522.71
30.2562	485.96
30.2706	505.52
30.2851	521.97
30.2995	490.59
30.3139	510.44
30.3284	512.61
30.3428	485.24
30.3573	494.70
30.3717	498.36
30.3861	474.65
30.4006	499.96
30.4150	556.06
30.4295	558.14
30.4439	511.39
30.4583	529.24
30.4728	507.87
30.4872	490.92
30.5017	492.27
30.5161	507.25
30.5305	505.11
30.5450	501.31
30.5594	499.14
30.5739	505.88
30.5883	529.34
30.6028	560.77
30.6172	513.44
30.6316	519.35
30.6461	537.10
30.6605	545.77
30.6750	538.33
30.6894	579.45
30.7038	604.92
30.7183	630.25
30.7327	636.84
30.7472	635.25
30.7616	643.54
30.7760	670.53
30.7905	662.38
30.8049	688.47
30.8194	697.57
30.8338	671.09
30.8482	639.76
30.8627	685.97
30.8771	662.08
30.8916	619.53
30.9060	573.54
30.9204	574.20
30.9349	597.50
30.9493	587.04
30.9638	531.59
30.9782	528.83
30.9926	526.17
31.0071	523.80
31.0215	536.48
31.0360	539.79
31.0504	563.31
31.0648	528.83
31.0793	534.46
31.0937	548.43
31.1082	510.36
31.1226	533.75
31.1370	503.36
31.1515	475.15
31.1659	536.43
31.1804	523.20
31.1948	501.55
31.2092	534.13
31.2237	503.90
31.2381	491.55
31.2526	525.87
31.2670	517.73
31.2814	511.82
31.2959	557.27
31.3103	547.68
31.3248	541.98
31.3392	557.51
31.3536	566.11
31.3681	512.82
31.3825	509.54
31.3970	509.66
31.4114	527.40
31.4258	516.86
31.4403	479.14
31.4547	480.12
31.4692	527.04
31.4836	496.46
31.4980	513.69
31.5125	508.12
31.5269	514.99
31.5414	524.97
31.5558	495.73
31.5702	516.92
31.5847	507.09
31.5991	514.18
31.6136	495.25
31.6280	501.65
31.6424	489.45
31.6569	518.54
31.6713	499.38
31.6858	519.85
31.7002	515.21
31.7146	507.42
31.7291	482.38
31.7435	511.79
31.7580	513.37
31.7724	520.30
31.7868	526.22
31.8013	518.79
31.8157	528.85
31.8302	504.90
31.8446	494.37
31.8590	507.13
31.8735	528.69
31.8879	510.54
31.9024	535.05
31.9168	512.76
31.9312	479.36
31.9457	500.64
31.9601	506.17
31.9746	493.77
31.9890	498.41
32.0034	537.92
32.0179	517.42
32.0323	496.08
32.0468	511.55
32.0612	501.09
32.0756	521.37
32.0901	544.52
32.1045	460.19
32.1190	471.09
32.1334	517.74
32.1478	502.00
32.1623	510.65
32.1767	521.51
32.1912	525.87
32.2056	501.89
32.2200	531.88
32.2345	499.05
32.2489	540.84
32.2634	479.22
32.2778	522.29
32.2922	466.09
32.3067	484.38
32.3211	462.53
32.3356	491.02
32.3500	499.17
32.3644	520.09
32.3789	491.97
32.3933	494.20
32.4078	481.99
32.4222	489.86
32.4366	508.19
32.4511	506.95
32.4655	501.22
32.4800	484.51
32.4944	518.27
32.5088	490.41
32.5233	507.45
32.5377	494.80
32.5522	508.95
32.5666	512.02
32.5810	494.27
32.5955	508.98
32.6099	506.29
32.6244	514.49
32.6388	509.23
32.6532	511.49
32.6677	525.00
32.6821	506.72
32.6966	518.93
32.7110	514.45
32.7254	495.73
32.7399	461.36
32.7543	513.84
32.7688	470.04
32.7832	514.43
32.7976	493.34
32.8121	534.52
32.8265	498.57
32.8410	521.00
32.8554	521.38
32.8698	539.06
32.8843	493.27
32.8987	529.84
32.9132	488.11
32.9276	492.94
32.9420	519.51
32.9565	535.35
32.9709	493.26
32.9854	509.38
32.9998	533.54
33.0142	495.31
33.0287	471.40
33.0431	487.92
33.0576	473.60
33.0720	521.55
33.0864	484.30
33.1009	469.18
33.1153	524.74
33.1298	538.53
33.1442	524.93
33.1586	502.57
33.1731	489.83
33.1875	503.68
33.2020	468.67
33.2164	472.48
33.2308	511.08
33.2453	529.83
33.2597	489.78
33.2742	521.41
33.2886	513.88
33.3030	484.87
33.3175	508.93
33.3319	507.71
33.3464	512.16
33.3608	514.76
33.3752	498.18
33.3897	476.22
33.4041	492.09
33.4186	532.89
33.4330	540.33
33.4474	486.08
33.4619	494.45
33.4763	506.04
33.4908	481.16
33.5052	495.31
33.5196	488.41
33.5341	497.52
33.5485	515.13
33.5630	533.15
33.5774	497.16
33.5918	490.99
33.6063	502.02
33.6207	480.40
33.6352	496.81
33.6496	482.77
33.6640	504.55
33.6785	524.98
33.6929	488.97
33.7074	502.35
33.7218	550.73
33.7362	497.53
33.7507	501.65
33.7651	536.94
33.7796	521.45
33.7940	522.66
33.8084	503.48
33.8229	508.93
33.8373	508.95
33.8518	517.41
33.8662	517.39
33.8806	480.33
33.8951	460.84
33.9095	496.87
33.9240	526.22
33.9384	556.34
33.9528	534.14
33.9673	519.50
33.9817	510.24
33.9962	518.70
34.0106	489.06
34.0250	487.74
34.0395	485.96
34.0539	518.53
34.0684	522.82
34.0828	494.26
34.0972	501.65
34.1117	514.34
34.1261	508.00
34.1406	502.52
34.1550	522.47
34.1694	524.03
34.1839	487.54
34.1983	483.42
34.2128	496.27
34.2272	499.65
34.2417	499.21
34.2561	497.16
34.2705	503.04
34.2850	514.66
34.2994	491.61
34.3139	524.40
34.3283	521.32
34.3427	510.06
34.3572	527.36
34.3716	533.20
34.3861	507.04
34.4005	491.23
34.4149	502.43
34.4294	510.70
34.4438	496.24
34.4583	506.82
34.4727	499.07
34.4871	522.96
34.5016	529.99
34.5160	503.70
34.5305	528.66
34.5449	522.79
34.5593	511.27
34.5738	510.75
34.5882	501.81
34.6027	498.66
34.6171	497.39
34.6315	482.49
34.6460	504.84
34.6604	496.82
34.6749	501.37
34.6893	489.37
34.7037	501.82
34.7182	532.42
34.7326	510.09
34.7471	510.82
34.7615	478.10
34.7759	507.39
34.7904	491.32
34.8048	499.26
34.8193	513.58
34.8337	536.62
34.8481	512.44
34.8626	524.13
34.8770	517.33
34.8915	479.37
34.9059	516.07
34.9203	520.57
34.9348	489.30
34.9492	480.81
34.9637	497.55
34.9781	514.94
34.9925	505.29
35.0070	513.93
35.0214	510.49
35.0359	488.50
35.0503	467.81
35.0647	493.22
35.0792	511.54
35.0936	517.09
35.1081	516.74
35.1225	497.17
35.1369	498.26
35.1514	485.84
35.1658	537.01
35.1803	500.86
35.1947	484.39
35.2091	496.29
35.2236	520.21
35.2380	481.10
35.2525	489.46
35.2669	533.38
35.2813	516.23
35.2958	485.32
35.3102	487.81
35.3247	515.95
35.3391	519.58
35.3535	534.41
35.3680	500.49
35.3824	493.05
35.3969	485.90
35.4113	501.32
35.4257	510.78
35.4402	524.62
35.4546	495.97
35.4691	498.56
35.4835	525.83
35.4979	532.06
35.5124	502.62
35.5268	526.83
35.5413	549.01
35.5557	538.25
35.5701	517.37
35.5846	522.44
35.5990	514.81
35.6135	523.70
35.6279	513.24
35.6423	532.40
35.6568	516.97
35.6712	553.34
35.6857	618.36
35.7001	687.09
35.7145	747.97
35.7290	694.38
35.7434	628.99
35.7579	643.22
35.7723	582.58
35.7867	625.61
35.8012	676.19
35.8156	675.33
35.8301	605.46
35.8445	630.59
35.8589	641.93
35.8734	738.21
35.8878	841.21
35.9023	999.13
35.9167	1041.65
35.9311	1303.36
35.9456	1979.09
35.9600	2315.29
35.9745	2017.84
35.9889	2034.60
36.0033	2673.62
36.0178	3250.36
36.0322	2573.38
36.0467	1973.66
36.0611	1696.63
36.0755	1645.64
36.0900	1716.72
36.1044	1356.41
36.1189	1316.08
36.1333	1310.89
36.1477	1174.86
36.1622	1152.10
36.1766	1132.20
36.1911	1133.78
36.2055	1063.85
36.2199	999.41
36.2344	985.47
36.2488	984.38
36.2633	948.95
36.2777	971.67
36.2921	963.74
36.3066	926.81
36.3210	943.73
36.3355	867.94
36.3499	838.34
36.3643	804.71
36.3788	830.16
36.3932	765.72
36.4077	751.20
36.4221	701.43
36.4365	666.93
36.4510	617.62
36.4654	628.29
36.4799	581.16
36.4943	616.17
36.5087	580.02
36.5232	541.68
36.5376	555.04
36.5521	570.38
36.5665	543.97
36.5809	568.79
36.5954	511.61
36.6098	544.46
36.6243	522.48
36.6387	541.19
36.6531	543.53
36.6676	527.07
36.6820	523.74
36.6965	542.01
36.7109	553.21
36.7253	527.29
36.7398	527.36
36.7542	521.50
36.7687	554.46
36.7831	543.63
36.7975	526.91
36.8120	563.04
36.8264	560.23
36.8409	575.44
36.8553	580.96
36.8697	591.80
36.8842	613.99
36.8986	597.37
36.9131	597.29
36.9275	552.08
36.9419	560.00
36.9564	629.50
36.9708	573.42
36.9853	610.38
36.9997	612.52
37.0141	571.08
37.0286	579.35
37.0430	536.65
37.0575	554.20
37.0719	504.16
37.0863	582.52
37.1008	525.06
37.1152	500.78
37.1297	510.42
37.1441	497.00
37.1585	497.92
37.1730	548.32
37.1874	477.09
37.2019	484.52
37.2163	497.17
37.2307	509.11
37.2452	504.89
37.2596	521.29
37.2741	506.15
37.2885	486.94
37.3029	474.67
37.3174	492.15
37.3318	522.38
37.3463	535.41
37.3607	506.28
37.3751	506.66
37.3896	514.51
37.4040	502.49
37.4185	541.96
37.4329	522.82
37.4473	490.60
37.4618	510.06
37.4762	507.37
37.4907	497.87
37.5051	494.73
37.5195	495.61
37.5340	509.07
37.5484	515.08
37.5629	486.88
37.5773	509.02
37.5917	512.82
37.6062	532.96
37.6206	526.08
37.6351	526.63
37.6495	535.82
37.6639	505.20
37.6784	505.08
37.6928	495.73
37.7073	523.81
37.7217	513.62
37.7361	494.30
37.7506	495.73
37.7650	461.90
37.7795	480.12
37.7939	508.29
37.8083	497.96
37.8228	489.31
37.8372	514.22
37.8517	499.15
37.8661	516.24
37.8805	501.80
37.8950	499.02
37.9094	515.82
37.9239	485.27
37.9383	510.28
37.9528	497.85
37.9672	450.10
37.9816	518.58
37.9961	512.03
38.0105	505.87
38.0250	513.62
38.0394	504.54
38.0538	523.76
38.0683	494.62
38.0827	514.17
38.0972	529.60
38.1116	491.24
38.1260	520.52
38.1405	502.84
38.1549	469.12
38.1694	489.88
38.1838	508.89
38.1982	480.60
38.2127	490.52
38.2271	507.72
38.2416	508.19
38.2560	508.16
38.2704	525.54
38.2849	510.91
38.2993	527.39
38.3138	504.61
38.3282	541.47
38.3426	518.01
38.3571	511.67
38.3715	508.51
38.3860	506.16
38.4004	540.75
38.4148	568.88
38.4293	605.42
38.4437	528.99
38.4582	607.70
38.4726	648.25
38.4870	681.64
38.5015	712.45
38.5159	741.83
38.5304	790.23
38.5448	785.25
38.5592	793.00
38.5737	786.54
38.5881	751.69
38.6026	688.86
38.6170	686.13
38.6314	709.44
38.6459	671.64
38.6603	653.76
38.6748	646.65
38.6892	575.58
38.7036	582.15
38.7181	570.81
38.7325	521.13
38.7470	511.76
38.7614	524.23
38.7758	554.47
38.7903	523.35
38.8047	497.75
38.8192	499.07
38.8336	518.00
38.8480	508.17
38.8625	485.46
38.8769	513.56
38.8914	466.77
38.9058	497.91
38.9202	519.03
38.9347	526.43
38.9491	502.94
38.9636	511.35
38.9780	509.21
38.9924	491.87
39.0069	492.29
39.0213	489.82
39.0358	496.09
39.0502	488.29
39.0646	523.08
39.0791	517.57
39.0935	500.43
39.1080	498.27
39.1224	475.19
39.1368	470.91
39.1513	478.00
39.1657	496.70
39.1802	500.42
39.1946	513.60
39.2090	466.65
39.2235	491.65
39.2379	481.57
39.2524	517.76
39.2668	478.13
39.2812	506.72
39.2957	501.64
39.3101	509.34
39.3246	531.44
39.3390	514.45
39.3534	515.94
39.3679	480.75
39.3823	527.60
39.3968	517.63
39.4112	511.74
39.4256	529.48
39.4401	501.76
39.4545	469.42
39.4690	499.58
39.4834	525.82
39.4978	491.11
39.5123	491.65
39.5267	510.54
39.5412	518.02
39.5556	508.72
39.5700	495.68
39.5845	490.45
39.5989	466.47
39.6134	447.09
39.6278	499.12
39.6422	486.55
39.6567	495.39
39.6711	519.10
39.6856	499.51
39.7000	504.54
39.7144	485.99
39.7289	519.36
39.7433	488.11
39.7578	503.02
39.7722	507.49
39.7866	490.86
39.8011	472.44
39.8155	482.38
39.8300	479.03
39.8444	492.78
39.8588	486.75
39.8733	503.84
39.8877	489.25
39.9022	505.96
39.9166	487.00
39.9310	489.82
39.9455	505.03
39.9599	505.26
39.9744	492.17
39.9888	488.73
40.0032	466.23
40.0177	475.97
40.0321	500.74
40.0466	514.20
40.0610	497.67
40.0754	506.97
40.0899	554.64
40.1043	530.73
40.1188	519.12
40.1332	529.41
40.1476	497.34
40.1621	486.34
40.1765	516.37
40.1910	501.43
40.2054	496.84
40.2198	458.91
40.2343	501.39
40.2487	533.58
40.2632	520.23
40.2776	486.86
40.2920	521.31
40.3065	518.80
40.3209	517.36
40.3354	519.77
40.3498	519.41
40.3642	521.94
40.3787	498.49
40.3931	521.18
40.4076	454.76
40.4220	485.43
40.4364	492.07
40.4509	466.33
40.4653	486.07
40.4798	509.02
40.4942	535.63
40.5086	509.36
40.5231	476.93
40.5375	502.41
40.5520	473.48
40.5664	503.87
40.5808	471.57
40.5953	504.79
40.6097	508.30
40.6242	440.00
40.6386	514.14
40.6530	517.64
40.6675	505.18
40.6819	480.84
40.6964	523.53
40.7108	514.61
40.7252	507.42
40.7397	483.97
40.7541	492.93
40.7686	483.29
40.7830	524.82
40.7974	501.66
40.8119	485.99
40.8263	500.15
40.8408	487.66
40.8552	511.73
40.8696	501.78
40.8841	518.30
40.8985	539.32
40.9130	520.74
40.9274	490.10
40.9418	488.30
40.9563	463.73
40.9707	497.21
40.9852	522.03
40.9996	538.14
41.0140	495.11
41.0285	477.69
41.0429	498.74
41.0574	513.22
41.0718	463.98
41.0862	522.68
41.1007	489.08
41.1151	510.35
41.1296	488.37
41.1440	491.45
41.1584	475.78
41.1729	496.10
41.1873	533.10
41.2018	505.60
41.2162	472.59
41.2306	495.20
41.2451	477.85
41.2595	467.95
41.2740	492.57
41.2884	502.70
41.3028	495.72
41.3173	494.63
41.3317	541.06
41.3462	516.02
41.3606	473.54
41.3750	512.74
41.3895	497.75
41.4039	479.87
41.4184	506.56
41.4328	517.62
41.4472	453.69
41.4617	469.86
41.4761	463.36
41.4906	515.84
41.5050	495.53
41.5194	488.99
41.5339	505.69
41.5483	500.02
41.5628	511.33
41.5772	528.97
41.5916	484.81
41.6061	477.61
41.6205	501.28
41.6350	493.71
41.6494	506.01
41.6639	518.55
41.6783	483.51
41.6927	473.08
41.7072	519.45
41.7216	526.15
41.7361	493.14
41.7505	477.37
41.7649	480.53
41.7794	487.65
41.7938	481.09
41.8083	513.75
41.8227	535.56
41.8371	521.56
41.8516	516.08
41.8660	529.51
41.8805	547.24
41.8949	519.65
41.9093	519.71
41.9238	520.00
41.9382	580.05
41.9527	571.56
41.9671	551.64
41.9815	579.67
41.9960	546.74
42.0104	562.08
42.0249	598.32
42.0393	546.12
42.0537	549.93
42.0682	596.05
42.0826	612.89
42.0971	537.55
42.1115	584.35
42.1259	614.61
42.1404	602.06
42.1548	608.30
42.1693	664.37
42.1837	691.12
42.1981	730.73
42.2126	842.62
42.2270	947.92
42.2415	1076.23
42.2559	1201.42
42.2703	1378.18
42.2848	1578.30
42.2992	1718.39
42.3137	1710.56
42.3281	1701.93
42.3425	1639.83
42.3570	1592.69
42.3714	1455.61
42.3859	1356.17
42.4003	1377.95
42.4147	1360.53
42.4292	1329.51
42.4436	1172.18
42.4581	1037.86
42.4725	923.42
42.4869	870.34
42.5014	751.68
42.5158	715.90
42.5303	678.89
42.5447	641.83
42.5591	612.57
42.5736	622.23
42.5880	585.11
42.6025	574.80
42.6169	561.13
42.6313	540.81
42.6458	552.83
42.6602	573.75
42.6747	545.32
42.6891	530.48
42.7035	539.15
42.7180	543.18
42.7324	544.61
42.7469	515.18
42.7613	505.52
42.7757	502.42
42.7902	500.22
42.8046	530.26
42.8191	540.05
42.8335	527.36
42.8479	494.79
42.8624	508.19
42.8768	532.10
42.8913	513.30
42.9057	508.51
42.9201	500.31
42.9346	499.01
42.9490	511.64
42.9635	494.32
42.9779	509.00
42.9923	499.26
43.0068	460.01
43.0212	511.67
43.0357	505.34
43.0501	493.89
43.0645	518.54
43.0790	538.05
43.0934	521.50
43.1079	494.79
43.1223	524.86
43.1367	513.85
43.1512	533.29
43.1656	551.24
43.1801	526.93
43.1945	499.63
43.2089	527.46
43.2234	533.61
43.2378	513.23
43.2523	521.62
43.2667	507.61
43.2811	539.53
43.2956	507.25
43.3100	509.95
43.3245	510.36
43.3389	530.14
43.3533	537.26
43.3678	550.18
43.3822	522.46
43.3967	514.32
43.4111	485.61
43.4255	493.02
43.4400	503.36
43.4544	517.56
43.4689	517.80
43.4833	527.17
43.4977	507.21
43.5122	486.99
43.5266	516.49
43.5411	541.93
43.5555	520.63
43.5699	513.18
43.5844	508.81
43.5988	500.95
43.6133	512.52
43.6277	510.72
43.6421	533.93
43.6566	541.94
43.6710	512.19
43.6855	496.70
43.6999	525.18
43.7143	537.44
43.7288	524.24
43.7432	526.91
43.7577	531.10
43.7721	508.32
43.7865	519.44
43.8010	530.06
43.8154	552.01
43.8299	531.22
43.8443	526.33
43.8587	537.75
43.8732	532.74
43.8876	528.81
43.9021	534.39
43.9165	554.77
43.9309	554.00
43.9454	568.13
43.9598	527.33
43.9743	545.83
43.9887	612.27
44.0031	584.71
44.0176	637.92
44.0320	595.40
44.0465	560.16
44.0609	585.58
44.0753	599.44
44.0898	612.71
44.1042	638.28
44.1187	639.83
44.1331	589.95
44.1475	592.75
44.1620	603.38
44.1764	639.06
44.1909	594.34
44.2053	581.52
44.2197	567.87
44.2342	564.02
44.2486	578.96
44.2631	555.83
44.2775	582.81
44.2919	566.42
44.3064	529.66
44.3208	550.96
44.3353	573.63
44.3497	557.79
44.3641	537.16
44.3786	528.74
44.3930	547.69
44.4075	527.90
44.4219	569.24
44.4363	570.88
44.4508	605.90
44.4652	592.25
44.4797	576.77
44.4941	589.17
44.5085	571.86
44.5230	546.94
44.5374	558.87
44.5519	600.36
44.5663	579.07
44.5807	600.73
44.5952	574.30
44.6096	535.89
44.6241	554.45
44.6385	592.30
44.6529	578.56
44.6674	545.64
44.6818	622.57
44.6963	613.39
44.7107	628.92
44.7251	673.71
44.7396	707.97
44.7540	786.28
44.7685	848.16
44.7829	905.88
44.7973	895.44
44.8118	860.85
44.8262	863.46
44.8407	802.40
44.8551	721.36
44.8695	705.77
44.8840	756.90
44.8984	727.06
44.9129	738.09
44.9273	662.02
44.9417	695.67
44.9562	607.46
44.9706	557.99
44.9851	546.91
44.9995	546.86
45.0139	520.99
45.0284	556.65
45.0428	514.96
45.0573	530.77
45.0717	605.77
45.0861	508.30
45.1006	519.83
45.1150	515.66
45.1295	522.15
45.1439	482.54
45.1583	522.31
45.1728	486.18
45.1872	536.19
45.2017	503.16
45.2161	492.06
45.2305	492.97
45.2450	497.29
45.2594	486.18
45.2739	502.90
45.2883	479.31
45.3028	485.33
45.3172	530.06
45.3316	499.85
45.3461	482.14
45.3605	483.86
45.3750	528.11
45.3894	511.08
45.4038	485.90
45.4183	505.03
45.4327	516.71
45.4472	509.17
45.4616	514.14
45.4760	541.19
45.4905	528.73
45.5049	528.87
45.5194	524.20
45.5338	508.90
45.5482	514.72
45.5627	490.02
45.5771	505.27
45.5916	506.24
45.6060	528.60
45.6204	489.46
45.6349	494.98
45.6493	495.18
45.6638	539.77
45.6782	476.30
45.6926	485.07
45.7071	521.43
45.7215	524.62
45.7360	546.62
45.7504	490.65
45.7648	497.96
45.7793	504.49
45.7937	521.65
45.8082	500.06
45.8226	498.68
45.8370	501.16
45.8515	528.23
45.8659	520.32
45.8804	508.25
45.8948	521.30
45.9092	540.87
45.9237	492.14
45.9381	504.04
45.9526	484.89
45.9670	502.20
45.9814	505.21
45.9959	483.55
46.0103	509.05
46.0248	491.54
46.0392	480.91
46.0536	536.36
46.0681	498.64
46.0825	508.92
46.0970	528.22
46.1114	522.45
46.1258	505.49
46.1403	489.18
46.1547	513.38
46.1692	497.58
46.1836	476.56
46.1980	484.06
46.2125	491.59
46.2269	489.77
46.2414	505.08
46.2558	461.34
46.2702	492.46
46.2847	518.09
46.2991	499.98
46.3136	510.70
46.3280	484.57
46.3424	498.33
46.3569	520.08
46.3713	475.70
46.3858	468.98
46.4002	484.19
46.4146	501.40
46.4291	513.73
46.4435	484.98
46.4580	522.92
46.4724	504.06
46.4868	508.58
46.5013	499.81
46.5157	485.55
46.5302	488.16
46.5446	521.95
46.5590	491.86
46.5735	508.67
46.5879	494.55
46.6024	503.07
46.6168	509.87
46.6312	486.68
46.6457	486.92
46.6601	486.19
46.6746	490.50
46.6890	479.70
46.7034	470.55
46.7179	495.97
46.7323	496.84
46.7468	509.70
46.7612	506.50
46.7756	516.03
46.7901	523.64
46.8045	506.17
46.8190	521.67
46.8334	529.25
46.8478	509.36
46.8623	517.69
46.8767	519.48
46.8912	530.38
46.9056	533.94
46.9200	501.41
46.9345	507.33
46.9489	504.32
46.9634	487.46
46.9778	505.24
46.9922	529.91
47.0067	496.51
47.0211	490.71
47.0356	513.71
47.0500	501.08
47.0644	507.49
47.0789	516.03
47.0933	542.41
47.1078	518.32
47.1222	493.10
47.1366	510.48
47.1511	451.71
47.1655	508.02
47.1800	500.57
47.1944	522.65
47.2088	494.85
47.2233	499.19
47.2377	506.58
47.2522	493.93
47.2666	508.54
47.2810	532.83
47.2955	500.17
47.3099	508.59
47.3244	504.30
47.3388	511.81
47.3532	490.77
47.3677	465.09
47.3821	465.81
47.3966	488.37
47.4110	503.64
47.4254	501.61
47.4399	523.32
47.4543	487.17
47.4688	500.79
47.4832	496.95
47.4976	501.93
47.5121	512.81
47.5265	490.65
47.5410	496.64
47.5554	474.99
47.5698	497.38
47.5843	526.77
47.5987	510.48
47.6132	514.69
47.6276	490.52
47.6420	497.46
47.6565	500.90
47.6709	449.65
47.6854	464.89
47.6998	493.41
47.7142	514.15
47.7287	479.55
47.7431	499.83
47.7576	507.97
47.7720	481.93
47.7864	509.10
47.8009	505.97
47.8153	526.79
47.8298	514.35
47.8442	497.34
47.8586	483.30
47.8731	523.35
47.8875	532.36
47.9020	538.94
47.9164	515.37
47.9308	540.09
47.9453	536.10
47.9597	514.67
47.9742	513.74
47.9886	499.02
48.0030	489.34
48.0175	483.50
48.0319	489.24
48.0464	464.82
48.0608	489.84
48.0752	507.87
48.0897	529.99
48.1041	513.42
48.1186	495.84
48.1330	501.90
48.1474	474.45
48.1619	540.66
48.1763	504.76
48.1908	512.37
48.2052	491.24
48.2196	523.41
48.2341	514.02
48.2485	537.33
48.2630	515.98
48.2774	520.79
48.2918	523.75
48.3063	515.80
48.3207	534.76
48.3352	528.26
48.3496	508.01
48.3640	504.40
48.3785	516.06
48.3929	467.25
48.4074	485.31
48.4218	524.24
48.4362	509.14
48.4507	507.13
48.4651	507.67
48.4796	528.57
48.4940	500.41
48.5084	488.08
48.5229	519.07
48.5373	498.14
48.5518	476.15
48.5662	483.42
48.5806	516.15
48.5951	520.79
48.6095	503.92
48.6240	509.35
48.6384	516.67
48.6528	524.72
48.6673	500.93
48.6817	501.63
48.6962	492.24
48.7106	517.90
48.7250	526.72
48.7395	518.48
48.7539	552.17
48.7684	512.95
48.7828	491.57
48.7972	475.33
48.8117	492.07
48.8261	493.16
48.8406	520.64
48.8550	499.00
48.8694	522.02
48.8839	549.72
48.8983	534.98
48.9128	515.19
48.9272	530.30
48.9416	544.97
48.9561	556.73
48.9705	544.59
48.9850	610.46
48.9994	591.09
49.0139	550.41
49.0283	624.37
49.0427	638.18
49.0572	669.29
49.0716	646.08
49.0861	678.32
49.1005	723.27
49.1149	714.60
49.1294	764.88
49.1438	757.67
49.1583	837.36
49.1727	882.10
49.1871	867.56
49.2016	911.10
49.2160	1044.31
49.2305	1104.25
49.2449	1210.92
49.2593	1309.76
49.2738	1435.68
49.2882	1491.51
49.3027	1627.97
49.3171	1611.99
49.3315	1720.81
49.3460	1837.96
49.3604	1816.77
49.3749	1817.93
49.3893	1791.96
49.4037	1717.30
49.4182	1779.88
49.4326	1776.33
49.4471	1667.59
49.4615	1676.12
49.4759	1606.10
49.4904	1510.57
49.5048	1404.09
49.5193	1340.80
49.5337	1345.03
49.5481	1241.17
49.5626	1104.13
49.5770	1052.50
49.5915	1003.51
49.6059	924.91
49.6203	824.63
49.6348	859.81
49.6492	755.80
49.6637	757.73
49.6781	730.55
49.6925	658.39
49.7070	653.68
49.7214	633.46
49.7359	612.15
49.7503	610.74
49.7647	546.68
49.7792	577.70
49.7936	586.44
49.8081	589.55
49.8225	559.08
49.8369	553.75
49.8514	575.22
49.8658	532.24
49.8803	575.33
49.8947	557.25
49.9091	541.40
49.9236	531.62
49.9380	563.25
49.9525	532.77
49.9669	557.93
49.9813	578.00
49.9958	580.65
50.0102	554.37
50.0247	539.98
50.0391	524.23
50.0535	511.73
50.0680	496.23
50.0824	521.84
50.0969	506.68
50.1113	534.63
50.1257	530.18
50.1402	494.66
50.1546	512.67
50.1691	544.07
50.1835	539.42
50.1979	503.11
50.2124	500.32
50.2268	508.62
50.2413	499.78
50.2557	547.31
50.2701	543.32
50.2846	520.61
50.2990	527.01
50.3135	492.56
50.3279	534.25
50.3423	555.93
50.3568	539.68
50.3712	535.12
50.3857	532.10
50.4001	505.80
50.4145	510.70
50.4290	514.46
50.4434	467.96
50.4579	527.04
50.4723	532.31
50.4867	567.80
50.5012	515.72
50.5156	489.40
50.5301	509.94
50.5445	518.74
50.5589	546.08
50.5734	506.88
50.5878	502.31
50.6023	517.06
50.6167	508.55
50.6311	525.26
50.6456	510.67
50.6600	476.87
50.6745	483.49
50.6889	472.70
50.7033	492.82
50.7178	465.26
50.7322	465.31
50.7467	477.81
50.7611	482.24
50.7755	515.67
50.7900	503.23
50.8044	483.84
50.8189	465.74
50.8333	498.06
50.8477	506.74
50.8622	526.28
50.8766	525.22
50.8911	536.10
50.9055	572.44
50.9199	538.26
50.9344	543.74
50.9488	520.77
50.9633	485.57
50.9777	487.02
50.9921	483.62
51.0066	497.17
51.0210	523.40
51.0355	502.44
51.0499	510.00
51.0643	518.69
51.0788	505.61
51.0932	524.09
51.1077	516.35
51.1221	508.39
51.1365	508.07
51.1510	502.63
51.1654	488.75
51.1799	525.97
51.1943	504.19
51.2087	496.54
51.2232	500.12
51.2376	535.05
51.2521	506.66
51.2665	522.75
51.2809	534.43
51.2954	510.20
51.3098	528.00
51.3243	500.52
51.3387	547.61
51.3531	519.51
51.3676	506.11
51.3820	485.26
51.3965	467.04
51.4109	477.44
51.4253	516.62
51.4398	527.16
51.4542	518.36
51.4687	488.76
51.4831	486.46
51.4975	516.32
51.5120	544.31
51.5264	503.32
51.5409	494.49
51.5553	510.94
51.5697	511.07
51.5842	503.02
51.5986	511.34
51.6131	506.40
51.6275	512.16
51.6419	502.00
51.6564	527.10
51.6708	501.47
51.6853	507.64
51.6997	533.72
51.7141	512.05
51.7286	481.68
51.7430	487.67
51.7575	535.40
51.7719	502.95
51.7863	489.48
51.8008	491.67
51.8152	510.35
51.8297	516.57
51.8441	561.42
51.8585	504.13
51.8730	514.51
51.8874	503.02
51.9019	482.42
51.9163	523.10
51.9307	509.36
51.9452	486.54
51.9596	511.40
51.9741	515.49
51.9885	485.04
52.0029	474.10
52.0174	517.01
52.0318	501.88
52.0463	510.43
52.0607	524.73
52.0751	536.68
52.0896	532.49
52.1040	477.10
52.1185	560.55
52.1329	510.36
52.1473	531.54
52.1618	489.80
52.1762	511.27
52.1907	485.91
52.2051	497.41
52.2195	497.74
52.2340	525.18
52.2484	522.29
52.2629	524.46
52.2773	534.14
52.2917	537.16
52.3062	537.89
52.3206	497.65
52.3351	510.34
52.3495	545.04
52.3639	519.48
52.3784	482.12
52.3928	487.46
52.4073	491.36
52.4217	528.11
52.4361	482.71
52.4506	459.07
52.4650	499.47
52.4795	535.85
52.4939	526.11
52.5083	511.60
52.5228	511.19
52.5372	519.97
52.5517	506.01
52.5661	502.59
52.5805	486.96
52.5950	471.06
52.6094	479.30
52.6239	498.52
52.6383	522.21
52.6527	551.36
52.6672	502.07
52.6816	504.40
52.6961	492.51
52.7105	526.41
52.7250	501.36
52.7394	533.23
52.7538	486.32
52.7683	482.28
52.7827	524.78
52.7972	534.49
52.8116	509.08
52.8260	526.72
52.8405	525.29
52.8549	517.64
52.8694	474.62
52.8838	505.46
52.8982	486.58
52.9127	491.28
52.9271	528.71
52.9416	539.10
52.9560	515.86
52.9704	529.05
52.9849	483.68
52.9993	497.33
53.0138	513.76
53.0282	532.12
53.0426	484.13
53.0571	502.02
53.0715	489.68
53.0860	480.27
53.1004	507.96
53.1148	481.29
53.1293	504.99
53.1437	505.97
53.1582	516.04
53.1726	531.65
53.1870	513.98
53.2015	517.12
53.2159	527.29
53.2304	501.86
53.2448	491.09
53.2592	524.01
53.2737	499.85
53.2881	512.94
53.3026	502.39
53.3170	491.52
53.3314	553.94
53.3459	561.21
53.3603	545.89
53.3748	507.27
53.3892	461.49
53.4036	475.08
53.4181	521.91
53.4325	506.33
53.4470	468.58
53.4614	523.36
53.4758	525.93
53.4903	499.69
53.5047	486.82
53.5192	521.89
53.5336	474.44
53.5480	488.84
53.5625	509.08
53.5769	486.39
53.5914	513.38
53.6058	505.27
53.6202	498.96
53.6347	486.33
53.6491	473.86
53.6636	514.44
53.6780	503.43
53.6924	527.84
53.7069	547.63
53.7213	554.58
53.7358	526.41
53.7502	502.58
53.7646	512.64
53.7791	549.30
53.7935	516.77
53.8080	531.15
53.8224	504.56
53.8368	550.96
53.8513	508.12
53.8657	488.61
53.8802	498.06
53.8946	525.60
53.9090	524.61
53.9235	526.06
53.9379	511.77
53.9524	504.08
53.9668	551.95
53.9812	532.83
53.9957	519.24
54.0101	509.04
54.0246	489.11
54.0390	521.94
54.0534	534.77
54.0679	535.53
54.0823	549.10
54.0968	521.35
54.1112	524.74
54.1256	526.12
54.1401	521.05
54.1545	482.52
54.1690	485.18
54.1834	503.26
54.1978	456.81
54.2123	506.32
54.2267	536.45
54.2412	538.68
54.2556	532.71
54.2700	520.89
54.2845	548.63
54.2989	488.37
54.3134	507.26
54.3278	523.75
54.3422	512.08
54.3567	502.02
54.3711	521.11
54.3856	525.19
54.4000	501.49
54.4144	574.77
54.4289	573.06
54.4433	522.73
54.4578	528.28
54.4722	544.74
54.4866	541.89
54.5011	536.35
54.5155	566.89
54.5300	577.81
54.5444	576.29
54.5588	540.91
54.5733	534.71
54.5877	548.00
54.6022	559.60
54.6166	574.14
54.6310	613.35
54.6455	571.47
54.6599	546.83
54.6744	559.90
54.6888	569.21
54.7032	599.38
54.7177	571.97
54.7321	568.13
54.7466	562.96
54.7610	571.58
54.7754	579.77
54.7899	571.99
54.8043	555.97
54.8188	572.17
54.8332	553.10
54.8476	526.73
54.8621	528.00
54.8765	562.79
54.8910	556.87
54.9054	561.21
54.9198	542.18
54.9343	530.43
54.9487	524.04
54.9632	554.86
54.9776	550.55
54.9920	537.61
55.0065	500.90
55.0209	525.84
55.0354	510.56
55.0498	519.35
55.0642	515.31
55.0787	537.20
55.0931	530.57
55.1076	536.32
55.1220	522.10
55.1364	505.47
55.1509	536.49
55.1653	509.63
55.1798	505.34
55.1942	490.05
55.2086	519.56
55.2231	529.64
55.2375	538.14
55.2520	517.44
55.2664	533.88
55.2808	552.31
55.2953	494.11
55.3097	524.93
55.3242	544.66
55.3386	511.44
55.3530	498.43
55.3675	527.75
55.3819	501.85
55.3964	517.84
55.4108	514.53
55.4252	566.19
55.4397	544.26
55.4541	499.19
55.4686	496.52
55.4830	496.89
55.4974	483.26
55.5119	497.36
55.5263	514.80
55.5408	516.05
55.5552	497.66
55.5696	532.74
55.5841	543.23
55.5985	542.21
55.6130	482.73
55.6274	525.60
55.6418	516.21
55.6563	511.39
55.6707	544.34
55.6852	507.31
55.6996	524.34
55.7140	530.74
55.7285	509.97
55.7429	498.81
55.7574	508.05
55.7718	530.01
55.7862	550.90
55.8007	497.89
55.8151	513.38
55.8296	532.99
55.8440	502.91
55.8584	520.40
55.8729	536.24
55.8873	513.27
55.9018	532.34
55.9162	536.66
55.9306	534.22
55.9451	562.44
55.9595	527.07
55.9740	510.07
55.9884	509.87
56.0028	529.33
56.0173	593.76
56.0317	535.76
56.0462	521.37
56.0606	501.99
56.0750	497.95
56.0895	533.98
56.1039	535.49
56.1184	527.27
56.1328	521.39
56.1472	503.28
56.1617	504.21
56.1761	512.56
56.1906	496.10
56.2050	537.74
56.2194	532.20
56.2339	530.69
56.2483	525.87
56.2628	500.32
56.2772	518.33
56.2916	506.02
56.3061	504.06
56.3205	515.26
56.3350	537.76
56.3494	557.25
56.3639	534.36
56.3783	496.64
56.3927	499.42
56.4072	515.54
56.4216	533.45
56.4361	548.84
56.4505	507.00
56.4649	507.79
56.4794	521.51
56.4938	528.32
56.5083	505.23
56.5227	518.71
56.5371	532.60
56.5516	520.47
56.5660	513.16
56.5805	516.18
56.5949	517.09
56.6093	527.95
56.6238	526.57
56.6382	508.60
56.6527	516.61
56.6671	524.43
56.6815	493.07
56.6960	532.90
56.7104	545.13
56.7249	516.04
56.7393	500.50
56.7537	533.38
56.7682	487.41
56.7826	510.73
56.7971	492.87
56.8115	502.87
56.8259	525.46
56.8404	524.47
56.8548	520.63
56.8693	495.09
56.8837	500.46
56.8981	571.00
56.9126	579.62
56.9270	525.33
56.9415	539.97
56.9559	509.43
56.9703	489.11
56.9848	539.30
56.9992	496.87
57.0137	511.14
57.0281	529.51
57.0425	492.91
57.0570	534.59
57.0714	544.13
57.0859	535.19
57.1003	511.36
57.1147	495.06
57.1292	540.82
57.1436	496.88
57.1581	510.51
57.1725	532.64
57.1869	498.82
57.2014	485.34
57.2158	493.04
57.2303	520.29
57.2447	555.74
57.2591	555.10
57.2736	524.41
57.2880	500.64
57.3025	506.74
57.3169	489.78
57.3313	525.38
57.3458	507.24
57.3602	513.52
57.3747	537.10
57.3891	535.26
57.4035	525.93
57.4180	531.07
57.4324	542.29
57.4469	523.81
57.4613	526.27
57.4757	514.53
57.4902	551.37
57.5046	512.87
57.5191	504.72
57.5335	508.04
57.5479	509.08
57.5624	555.53
57.5768	546.18
57.5913	529.42
57.6057	546.86
57.6201	534.46
57.6346	524.36
57.6490	515.83
57.6635	567.07
57.6779	506.43
57.6923	542.34
57.7068	541.62
57.7212	528.61
57.7357	560.22
57.7501	538.35
57.7645	519.62
57.7790	515.75
57.7934	526.69
57.8079	530.91
57.8223	542.48
57.8367	560.58
57.8512	540.74
57.8656	518.83
57.8801	494.62
57.8945	542.30
57.9089	556.97
57.9234	536.89
57.9378	573.20
57.9523	578.73
57.9667	559.75
57.9811	505.01
57.9956	537.57
58.0100	537.82
58.0245	551.19
58.0389	503.56
58.0533	539.43
58.0678	585.07
58.0822	581.36
58.0967	547.25
58.1111	542.25
58.1255	574.29
58.1400	578.71
58.1544	579.49
58.1689	607.75
58.1833	620.92
58.1977	591.24
58.2122	623.77
58.2266	633.39
58.2411	620.72
58.2555	611.42
58.2699	622.06
58.2844	650.89
58.2988	665.77
58.3133	631.69
58.3277	676.43
58.3421	661.92
58.3566	650.41
58.3710	655.45
58.3855	630.90
58.3999	644.58
58.4143	617.34
58.4288	640.73
58.4432	583.97
58.4577	577.94
58.4721	579.67
58.4865	604.14
58.5010	616.38
58.5154	576.96
58.5299	549.30
58.5443	576.08
58.5587	579.24
58.5732	582.54
58.5876	585.19
58.6021	593.34
58.6165	602.52
58.6309	556.24
58.6454	549.81
58.6598	595.54
58.6743	522.42
58.6887	531.11
58.7031	568.78
58.7176	556.65
58.7320	524.88
58.7465	541.11
58.7609	563.98
58.7753	534.84
58.7898	537.27
58.8042	523.42
58.8187	551.13
58.8331	530.12
58.8475	529.89
58.8620	549.06
58.8764	535.19
58.8909	541.82
58.9053	557.36
58.9197	553.56
58.9342	564.02
58.9486	541.14
58.9631	517.69
58.9775	556.12
58.9919	558.19
59.0064	517.54
59.0208	547.71
59.0353	547.92
59.0497	536.45
59.0641	571.01
59.0786	568.88
59.0930	549.68
59.1075	561.44
59.1219	532.53
59.1363	524.50
59.1508	532.26
59.1652	577.92
59.1797	567.08
59.1941	529.27
59.2085	525.42
59.2230	563.78
59.2374	545.87
59.2519	541.03
59.2663	548.35
59.2807	564.68
59.2952	532.46
59.3096	564.94
59.3241	598.58
59.3385	601.44
59.3529	553.63
59.3674	535.52
59.3818	526.40
59.3963	554.04
59.4107	550.49
59.4251	531.11
59.4396	546.05
59.4540	548.08
59.4685	578.12
59.4829	584.10
59.4973	591.42
59.5118	561.51
59.5262	549.87
59.5407	553.15
59.5551	532.00
59.5695	522.24
59.5840	528.49
59.5984	528.30
59.6129	516.55
59.6273	531.79
59.6417	547.30
59.6562	530.96
59.6706	552.36
59.6851	514.02
59.6995	517.98
59.7139	539.07
59.7284	526.00
59.7428	551.81
59.7573	561.46
59.7717	554.86
59.7861	563.90
59.8006	548.01
59.8150	548.80
59.8295	546.82
59.8439	549.21
59.8583	538.23
59.8728	564.05
59.8872	528.44
59.9017	548.03
59.9161	516.65
59.9305	560.89
59.9450	566.97
59.9594	607.90
59.9739	570.29
59.9883	531.19
60.0027	546.23
60.0172	529.88
60.0316	532.40
60.0461	526.89
60.0605	540.84
60.0750	514.41
60.0894	563.82
60.1038	524.41
60.1183	555.69
60.1327	554.53
60.1472	498.29
60.1616	506.82
60.1760	537.29
60.1905	549.12
60.2049	524.96
60.2194	526.15
60.2338	543.86
60.2482	524.18
60.2627	565.19
60.2771	531.83
60.2916	524.29
60.3060	545.43
60.3204	521.68
60.3349	520.97
60.3493	515.26
60.3638	552.76
60.3782	534.32
60.3926	503.06
60.4071	531.48
60.4215	596.03
60.4360	573.82
60.4504	500.87
60.4648	547.34
60.4793	539.33
60.4937	524.39
60.5082	511.80
60.5226	537.43
60.5370	531.28
60.5515	548.83
60.5659	539.53
60.5804	527.12
60.5948	535.73
60.6092	572.29
60.6237	570.92
60.6381	538.14
60.6526	540.56
60.6670	527.31
60.6814	533.93
60.6959	553.79
60.7103	553.11
60.7248	586.05
60.7392	538.55
60.7536	536.32
60.7681	530.14
60.7825	540.52
60.7970	536.18
60.8114	528.81
60.8258	527.49
60.8403	520.17
60.8547	566.97
60.8692	517.17
60.8836	528.27
60.8980	532.03
60.9125	542.26
60.9269	574.43
60.9414	561.68
60.9558	526.70
60.9702	537.03
60.9847	513.84
60.9991	516.91
61.0136	530.94
61.0280	553.71
61.0424	568.42
61.0569	578.07
61.0713	572.07
61.0858	543.78
61.1002	550.21
61.1146	554.98
61.1291	583.51
61.1435	541.60
61.1580	548.63
61.1724	579.40
61.1868	553.76
61.2013	518.21
61.2157	579.62
61.2302	538.05
61.2446	573.71
61.2590	534.96
61.2735	539.47
61.2879	536.27
61.3024	547.79
61.3168	558.51
61.3312	535.12
61.3457	546.97
61.3601	546.20
61.3746	555.59
61.3890	498.95
61.4034	529.90
61.4179	544.07
61.4323	552.88
61.4468	534.31
61.4612	566.41
61.4756	553.53
61.4901	535.92
61.5045	553.37
61.5190	517.63
61.5334	589.69
61.5478	558.60
61.5623	553.71
61.5767	497.53
61.5912	547.73
61.6056	591.93
61.6200	541.15
61.6345	545.74
61.6489	502.74
61.6634	543.20
61.6778	528.41
61.6922	516.44
61.7067	592.43
61.7211	580.21
61.7356	539.00
61.7500	565.86
61.7644	545.47
61.7789	581.53
61.7933	523.64
61.8078	540.37
61.8222	559.75
61.8366	530.95
61.8511	537.11
61.8655	560.08
61.8800	559.47
61.8944	562.61
61.9088	565.83
61.9233	523.62
61.9377	570.04
61.9522	579.05
61.9666	574.63
61.9810	591.28
61.9955	570.89
62.0099	541.84
62.0244	577.90
62.0388	557.53
62.0532	515.75
62.0677	501.33
62.0821	531.73
62.0966	584.42
62.1110	543.47
62.1254	549.22
62.1399	542.92
62.1543	569.79
62.1688	557.89
62.1832	589.97
62.1976	574.85
62.2121	569.32
62.2265	550.77
62.2410	544.58
62.2554	565.10
62.2698	559.31
62.2843	575.76
62.2987	570.37
62.3132	514.61
62.3276	520.73
62.3420	567.06
62.3565	552.56
62.3709	553.42
62.3854	545.61
62.3998	542.23
62.4142	544.89
62.4287	553.34
62.4431	531.91
62.4576	554.01
62.4720	586.33
62.4864	553.62
62.5009	544.35
62.5153	548.26
62.5298	551.09
62.5442	561.01
62.5586	566.55
62.5731	566.15
62.5875	551.33
62.6020	578.59
62.6164	564.42
62.6308	558.78
62.6453	552.36
62.6597	549.54
62.6742	551.93
62.6886	563.99
62.7030	562.59
62.7175	548.49
62.7319	539.66
62.7464	557.15
62.7608	544.44
62.7752	579.01
62.7897	573.97
62.8041	589.96
62.8186	591.17
62.8330	537.06
62.8474	548.02
62.8619	576.01
62.8763	564.27
62.8908	544.40
62.9052	574.04
62.9196	558.50
62.9341	547.85
62.9485	604.14
62.9630	583.98
62.9774	552.76
62.9918	546.83
63.0063	561.21
63.0207	554.87
63.0352	537.45
63.0496	568.15
63.0640	563.06
63.0785	549.39
63.0929	580.66
63.1074	574.08
63.1218	597.08
63.1362	588.94
63.1507	554.88
63.1651	597.04
63.1796	577.11
63.1940	578.77
63.2084	598.80
63.2229	574.61
63.2373	563.65
63.2518	532.03
63.2662	572.73
63.2806	557.63
63.2951	541.55
63.3095	565.27
63.3240	565.36
63.3384	600.90
63.3528	568.58
63.3673	566.18
63.3817	541.39
63.3962	531.82
63.4106	552.14
63.4250	597.79
63.4395	589.74
63.4539	578.86
63.4684	586.97
63.4828	611.09
63.4972	603.20
63.5117	577.29
63.5261	600.48
63.5406	588.73
63.5550	579.98
63.5694	577.62
63.5839	606.29
63.5983	590.21
63.6128	602.01
63.6272	602.05
63.6416	607.49
63.6561	589.18
63.6705	618.58
63.6850	622.26
63.6994	589.25
63.7138	617.78
63.7283	607.41
63.7427	601.44
63.7572	604.67
63.7716	639.73
63.7861	616.35
63.8005	574.57
63.8149	637.09
63.8294	642.23
63.8438	641.42
63.8583	684.27
63.8727	690.98
63.8871	662.43
63.9016	738.74
63.9160	718.28
63.9305	709.66
63.9449	764.49
63.9593	719.87
63.9738	684.50
63.9882	741.49
64.0027	780.36
64.0171	741.66
64.0315	737.38
64.0460	743.94
64.0604	749.19
64.0749	765.18
64.0893	796.64
64.1037	793.23
64.1182	743.90
64.1326	738.70
64.1471	731.75
64.1615	795.50
64.1759	779.61
64.1904	773.73
64.2048	728.75
64.2193	702.52
64.2337	754.82
64.2481	741.97
64.2626	740.68
64.2770	752.74
64.2915	763.40
64.3059	727.97
64.3203	720.07
64.3348	760.57
64.3492	685.38
64.3637	666.44
64.3781	703.17
64.3925	688.08
64.4070	660.98
64.4214	664.38
64.4359	642.35
64.4503	628.07
64.4647	642.06
64.4792	667.65
64.4936	675.46
64.5081	656.32
64.5225	645.57
64.5369	644.77
64.5514	643.39
64.5658	646.57
64.5803	660.75
64.5947	642.79
64.6091	663.65
64.6236	654.68
64.6380	672.52
64.6525	643.84
64.6669	639.32
64.6813	649.95
64.6958	650.57
64.7102	741.25
64.7247	702.90
64.7391	684.06
64.7535	712.92
64.7680	731.10
64.7824	744.42
64.7969	708.52
64.8113	761.29
64.8257	764.93
64.8402	793.82
64.8546	817.40
64.8691	805.22
64.8835	803.43
64.8979	877.02
64.9124	873.70
64.9268	897.58
64.9413	898.91
64.9557	897.73
64.9701	982.95
64.9846	1053.91
64.9990	1155.71
65.0135	1256.22
65.0279	1317.32
65.0423	1675.46
65.0568	1975.93
65.0712	2431.34
65.0857	3259.39
65.1001	4226.78
65.1145	5863.96
65.1290	7736.31
65.1434	9303.85
65.1579	10810.84
65.1723	11651.55
65.1867	11285.55
65.2012	10075.59
65.2156	8489.47
65.2301	6762.71
65.2445	5355.78
65.2589	4542.19
65.2734	4191.91
65.2878	4378.97
65.3023	4742.07
65.3167	5636.79
65.3311	6374.52
65.3456	7020.06
65.3600	6908.03
65.3745	6536.60
65.3889	5349.86
65.4033	4484.74
65.4178	3538.08
65.4322	2778.30
65.4467	2110.20
65.4611	1761.39
65.4755	1501.18
65.4900	1302.16
65.5044	1132.05
65.5189	1077.35
65.5333	1000.39
65.5477	947.61
65.5622	901.87
65.5766	875.91
65.5911	810.77
65.6055	807.41
65.6199	779.20
65.6344	793.98
65.6488	746.24
65.6633	748.24
65.6777	730.28
65.6921	695.37
65.7066	737.22
65.7210	708.12
65.7355	706.70
65.7499	698.01
65.7643	683.22
65.7788	685.39
65.7932	656.75
65.8077	693.29
65.8221	652.23
65.8365	650.50
65.8510	668.80
65.8654	674.23
65.8799	670.68
65.8943	643.22
65.9087	622.17
65.9232	638.91
65.9376	628.17
65.9521	632.03
65.9665	656.87
65.9809	640.83
65.9954	621.46
66.0098	652.09
66.0243	632.18
66.0387	637.55
66.0531	587.82
66.0676	604.06
66.0820	597.68
66.0965	658.44
66.1109	637.02
66.1253	611.71
66.1398	636.23
66.1542	621.12
66.1687	604.60
66.1831	634.41
66.1975	621.31
66.2120	615.08
66.2264	587.30
66.2409	621.34
66.2553	633.75
66.2697	638.15
66.2842	621.16
66.2986	605.79
66.3131	626.24
66.3275	613.35
66.3419	584.21
66.3564	554.18
66.3708	596.36
66.3853	633.74
66.3997	583.57
66.4141	578.46
66.4286	606.95
66.4430	573.30
66.4575	597.99
66.4719	587.54
66.4863	605.85
66.5008	570.67
66.5152	594.70
66.5297	595.31
66.5441	617.58
66.5585	638.45
66.5730	586.88
66.5874	596.82
66.6019	621.17
66.6163	615.20
66.6307	612.15
66.6452	588.24
66.6596	611.86
66.6741	607.67
66.6885	605.06
66.7029	602.74
66.7174	568.73
66.7318	593.60
66.7463	613.02
66.7607	563.69
66.7751	558.69
66.7896	555.75
66.8040	582.75
66.8185	602.91
66.8329	583.94
66.8473	576.15
66.8618	600.30
66.8762	612.28
66.8907	612.87
66.9051	589.65
66.9195	564.84
66.9340	578.87
66.9484	612.69
66.9629	588.61
66.9773	585.74
66.9917	571.28
67.0062	585.54
67.0206	590.36
67.0351	573.83
67.0495	559.72
67.0639	543.25
67.0784	578.42
67.0928	604.03
67.1073	572.99
67.1217	590.76
67.1361	595.08
67.1506	539.32
67.1650	590.42
67.1795	564.83
67.1939	561.75
67.2083	567.99
67.2228	552.09
67.2372	560.21
67.2517	576.79
67.2661	551.43
67.2805	540.49
67.2950	548.46
67.3094	540.61
67.3239	599.09
67.3383	557.99
67.3527	576.55
67.3672	572.87
67.3816	570.72
67.3961	577.39
67.4105	550.72
67.4250	605.66
67.4394	586.69
67.4538	564.87
67.4683	558.46
67.4827	593.22
67.4972	587.29
67.5116	564.70
67.5260	575.29
67.5405	580.78
67.5549	603.39
67.5694	616.65
67.5838	595.45
67.5982	578.23
67.6127	572.95
67.6271	565.71
67.6416	599.57
67.6560	581.24
67.6704	570.70
67.6849	586.81
67.6993	598.80
67.7138	575.05
67.7282	581.38
67.7426	587.75
67.7571	599.16
67.7715	557.92
67.7860	553.38
67.8004	560.68
67.8148	575.80
67.8293	554.85
67.8437	556.76
67.8582	581.45
67.8726	582.95
67.8870	559.37
67.9015	567.34
67.9159	561.62
67.9304	573.35
67.9448	634.24
67.9592	616.13
67.9737	598.85
67.9881	586.36
68.0026	574.19
68.0170	517.98
68.0314	558.76
68.0459	559.97
68.0603	548.87
68.0748	599.11
68.0892	577.17
68.1036	577.79
68.1181	596.90
68.1325	609.13
68.1470	567.91
68.1614	536.49
68.1758	575.21
68.1903	586.24
68.2047	596.93
68.2192	580.92
68.2336	596.73
68.2480	550.21
68.2625	565.41
68.2769	568.98
68.2914	595.65
68.3058	603.94
68.3202	571.68
68.3347	588.57
68.3491	563.89
68.3636	570.99
68.3780	548.47
68.3924	548.64
68.4069	583.86
68.4213	583.68
68.4358	615.37
68.4502	601.07
68.4646	587.73
68.4791	570.92
68.4935	594.05
68.5080	538.78
68.5224	532.50
68.5368	571.33
68.5513	597.13
68.5657	566.46
68.5802	560.75
68.5946	582.75
68.6090	542.13
68.6235	529.88
68.6379	592.55
68.6524	543.05
68.6668	612.37
68.6812	594.24
68.6957	591.14
68.7101	590.33
68.7246	545.10
68.7390	567.53
68.7534	590.49
68.7679	581.84
68.7823	582.09
68.7968	586.42
68.8112	586.24
68.8256	588.87
68.8401	548.11
68.8545	559.62
68.8690	575.77
68.8834	560.05
68.8978	554.47
68.9123	565.45
68.9267	590.24
68.9412	595.40
68.9556	580.12
68.9700	601.25
68.9845	588.13
68.9989	561.90
69.0134	535.43
69.0278	532.12
69.0422	577.21
69.0567	598.88
69.0711	561.26
69.0856	577.05
69.1000	588.03
69.1144	606.25
69.1289	626.47
69.1433	618.99
69.1578	566.87
69.1722	588.20
69.1866	582.64
69.2011	529.50
69.2155	586.49
69.2300	589.32
69.2444	542.19
69.2588	569.86
69.2733	619.50
69.2877	577.43
69.3022	551.22
69.3166	583.11
69.3310	582.31
69.3455	589.69
69.3599	572.48
69.3744	606.06
69.3888	581.15
69.4032	574.35
69.4177	555.50
69.4321	600.63
69.4466	551.37
69.4610	576.87
69.4754	567.77
69.4899	605.70
69.5043	603.37
69.5188	557.36
69.5332	597.34
69.5476	555.83
69.5621	604.80
69.5765	549.92
69.5910	564.60
69.6054	557.14
69.6198	594.67
69.6343	621.63
69.6487	597.79
69.6632	651.89
69.6776	562.16
69.6920	541.96
69.7065	572.19
69.7209	581.51
69.7354	569.45
69.7498	610.54
69.7642	561.83
69.7787	568.43
69.7931	607.79
69.8076	566.08
69.8220	531.56
69.8364	569.45
69.8509	594.76
69.8653	538.36
69.8798	612.24
69.8942	625.13
69.9086	614.22
69.9231	543.50
69.9375	554.80
69.9520	554.76
69.9664	527.62
69.9808	503.15
69.9953	553.41
70.0097	555.82
70.0242	547.17
70.0386	580.10
70.0530	579.61
70.0675	614.65
70.0819	594.61
70.0964	591.04
70.1108	563.48
70.1252	540.94
70.1397	608.63
70.1541	594.46
70.1686	608.56
70.1830	600.61
70.1974	517.55
70.2119	586.40
70.2263	569.75
70.2408	559.21
70.2552	575.45
70.2696	632.08
70.2841	581.07
70.2985	528.04
70.3130	583.10
70.3274	579.96
70.3418	610.86
70.3563	561.61
70.3707	586.09
70.3852	553.22
70.3996	571.27
70.4140	598.53
70.4285	648.51
70.4429	628.26
70.4574	563.14
70.4718	585.88
70.4862	574.67
70.5007	571.84
70.5151	606.55
70.5296	586.92
70.5440	538.10
70.5584	562.87
70.5729	551.10
70.5873	520.59
70.6018	544.70
70.6162	598.97
70.6306	580.98
70.6451	550.04
70.6595	575.42
70.6740	614.22
70.6884	519.03
70.7028	572.63
70.7173	585.79
70.7317	600.28
70.7462	570.38
70.7606	517.24
70.7750	587.66
70.7895	596.48
70.8039	619.21
70.8184	628.76
70.8328	584.33
70.8472	562.99
70.8617	571.61
70.8761	549.69
70.8906	563.65
70.9050	542.12
70.9194	564.61
70.9339	642.57
70.9483	622.39
70.9628	572.79
70.9772	586.13
70.9916	572.70
71.0061	571.70
71.0205	614.56
71.0350	616.98
71.0494	554.18
71.0638	577.18
71.0783	614.28
71.0927	594.84
71.1072	622.82
71.1216	601.31
71.1361	553.74
71.1505	567.43
71.1649	557.45
71.1794	599.09
71.1938	595.05
71.2083	589.42
71.2227	577.43
71.2371	591.43
71.2516	582.26
71.2660	583.35
71.2805	584.18
71.2949	530.30
71.3093	512.28
71.3238	569.94
71.3382	616.61
71.3527	573.91
71.3671	581.64
71.3815	566.80
71.3960	546.64
71.4104	546.79
71.4249	581.55
71.4393	626.02
71.4537	595.74
71.4682	585.59
71.4826	580.04
71.4971	589.59
71.5115	570.49
71.5259	531.85
71.5404	582.54
71.5548	595.66
71.5693	573.34
71.5837	577.75
71.5981	539.96
71.6126	551.07
71.6270	617.13
71.6415	590.07
71.6559	542.57
71.6703	546.10
71.6848	553.41
71.6992	571.31
71.7137	593.04
71.7281	519.44
71.7425	508.96
71.7570	555.80
71.7714	594.37
71.7859	584.46
71.8003	586.20
71.8147	572.57
71.8292	598.87
71.8436	630.83
71.8581	620.81
71.8725	584.40
71.8869	555.80
71.9014	643.84
71.9158	662.56
71.9303	549.59
71.9447	573.73
71.9591	574.82
71.9736	539.00
71.9880	594.12
72.0025	644.92
72.0169	591.58
72.0313	484.87
72.0458	518.71
72.0602	631.87
72.0747	578.73
72.0891	599.74
72.1035	637.51
72.1180	574.83
72.1324	593.25
72.1469	579.34
72.1613	521.07
72.1757	524.19
72.1902	587.43
72.2046	542.99
72.2191	546.34
72.2335	524.80
72.2479	492.19
72.2624	500.76
72.2768	519.97
72.2913	570.92
72.3057	600.34
72.3201	536.85
72.3346	551.77
72.3490	563.94
72.3635	535.16
72.3779	575.70
72.3923	595.44
72.4068	579.81
72.4212	598.37
72.4357	598.88
72.4501	563.34
72.4645	567.47
72.4790	600.44
72.4934	615.57
72.5079	616.20
72.5223	564.24
72.5367	513.97
72.5512	526.07
72.5656	601.01
72.5801	604.18
72.5945	522.07
72.6089	511.83
72.6234	539.86
72.6378	555.15
72.6523	538.60
72.6667	562.34
72.6811	528.74
72.6956	555.30
72.7100	606.73
72.7245	559.10
72.7389	574.02
72.7533	576.17
72.7678	618.44
72.7822	640.99
72.7967	606.79
72.8111	673.07
72.8255	622.16
72.8400	542.09
72.8544	562.30
72.8689	549.74
72.8833	546.34

Result vector
22.1120	628.89
22.1264	604.88
22.1409	635.77
22.1553	551.82
22.1697	480.75
22.1842	521.39
22.1986	557.46
22.2131	551.32
22.2275	583.91
22.2419	555.50
22.2564	472.75
22.2708	529.48
22.2853	564.78
22.2997	606.13
22.3141	597.76
22.3286	637.95
22.3430	618.02
22.3575	606.52
22.3719	585.80
22.3863	555.16
22.4008	578.95
22.4152	648.74
22.4297	673.98
22.4441	553.24
22.4585	619.17
22.4730	629.20
22.4874	607.90
22.5019	730.96
22.5163	554.79
22.5307	541.76
22.5452	538.22
22.5596	560.55
22.5741	573.36
22.5885	637.15
22.6029	618.05
22.6174	557.81
22.6318	612.69
22.6463	546.61
22.6607	550.06
22.6751	528.34
22.6896	581.08
22.7040	580.16
22.7185	535.05
22.7329	540.19
22.7473	544.68
22.7618	664.49
22.7762	667.96
22.7907	593.54
22.8051	562.12
22.8195	557.84
22.8340	553.46
22.8484	534.76
22.8629	532.10
22.8773	576.54
22.8917	573.63
22.9062	569.35
22.9206	601.03
22.9351	542.02
22.9495	542.07
22.9639	526.25
22.9784	523.23
22.9928	550.44
23.0073	617.29
23.0217	730.37
23.0361	674.74
23.0506	500.33
23.0650	500.33
23.0795	504.45
23.0939	549.02
23.1083	562.11
23.1228	589.90
23.1372	540.98
23.1517	539.27
23.1661	592.68
23.1806	516.94
23.1950	559.42
23.2094	564.69
23.2239	554.88
23.2383	560.09
23.2528	541.40
23.2672	570.47
23.2816	634.51
23.2961	524.98
23.3105	483.59
23.3250	526.84
23.3394	567.57
23.3538	522.75
23.3683	525.16
23.3827	533.49
23.3972	515.55
23.4116	531.44
23.4260	540.11
23.4405	512.41
23.4549	506.46
23.4694	492.49
23.4838	522.30
23.4982	586.11
23.5127	569.86
23.5271	533.69
23.5416	547.59
23.5560	577.23
23.5704	550.79
23.5849	576.73
23.5993	576.85
23.6138	521.63
23.6282	536.08
23.6426	558.47
23.6571	559.52
23.6715	574.93
23.6860	559.19
23.7004	605.75
23.7148	563.75
23.7293	544.34
23.7437	606.99
23.7582	628.57
23.7726	581.04
23.7870	539.14
23.8015	636.65
23.8159	541.53
23.8304	554.38
23.8448	483.04
23.8592	566.05
23.8737	617.04
23.8881	581.65
23.9026	590.13
23.9170	498.80
23.9314	584.58
23.9459	632.37
23.9603	551.00
23.9748	524.06
23.9892	543.35
24.0036	499.63
24.0181	539.83
24.0325	563.96
24.0470	618.51
24.0614	522.16
24.0758	566.06
24.0903	607.07
24.1047	528.09
24.1192	576.59
24.1336	595.22
24.1480	518.72
24.1625	578.52
24.1769	540.91
24.1914	529.72
24.2058	560.52
24.2202	576.36
24.2347	612.38
24.2491	629.11
24.2636	563.70
24.2780	569.18
24.2924	610.52
24.3069	594.27
24.3213	569.38
24.3358	561.17
24.3502	540.00
24.3646	504.48
24.3791	537.62
24.3935	557.22
24.4080	564.37
24.4224	486.90
24.4368	522.46
24.4513	555.66
24.4657	568.40
24.4802	604.42
24.4946	553.44
24.5090	553.93
24.5235	528.65
24.5379	554.69
24.5524	578.65
24.5668	558.14
24.5812	563.88
24.5957	581.19
24.6101	575.94
24.6246	517.52
24.6390	532.26
24.6534	544.13
24.6679	555.94
24.6823	499.10
24.6968	541.36
24.7112	589.81
24.7256	545.72
24.7401	543.43
24.7545	557.42
24.7690	503.83
24.7834	551.48
24.7978	510.14
24.8123	536.14
24.8267	542.35
24.8412	550.30
24.8556	528.52
24.8700	570.22
24.8845	581.99
24.8989	545.01
24.9134	552.36
24.9278	577.95
24.9422	609.12
24.9567	551.91
24.9711	525.42
24.9856	559.69
25.0000	526.78
25.0144	561.54
25.0289	553.34
25.0433	502.62
25.0578	505.67
25.0722	537.23
25.0866	544.61
25.1011	512.97
25.1155	573.56
25.1300	569.16
25.1444	482.90
25.1588	588.72
25.1733	574.74
25.1877	531.18
25.2022	523.35
25.2166	542.45
25.2310	529.44
25.2455	531.04
25.2599	553.36
25.2744	582.92
25.2888	553.27
25.3032	496.18
25.3177	526.14
25.3321	535.84
25.3466	548.21
25.3610	549.42
25.3754	549.84
25.3899	505.43
25.4043	484.27
25.4188	556.14
25.4332	555.88
25.4476	504.30
25.4621	557.53
25.4765	527.33
25.4910	524.36
25.5054	479.87
25.5198	532.75
25.5343	543.58
25.5487	542.84
25.5632	507.46
25.5776	554.95
25.5920	550.42
25.6065	548.87
25.6209	540.08
25.6354	557.00
25.6498	512.23
25.6642	520.40
25.6787	578.25
25.6931	544.95
25.7076	526.85
25.7220	513.14
25.7364	502.43
25.7509	502.32
25.7653	488.46
25.7798	529.75
25.7942	510.49
25.8086	537.69
25.8231	597.69
25.8375	557.04
25.8520	522.53
25.8664	542.37
25.8808	553.45
25.8953	547.69
25.9097	537.77
25.9242	526.51
25.9386	577.93
25.9530	553.29
25.9675	506.82
25.9819	528.75
25.9964	545.57
26.0108	509.98
26.0252	515.18
26.0397	528.25
26.0541	528.66
26.0686	536.10
26.0830	514.39
26.0974	552.15
26.1119	538.02
26.1263	543.09
26.1408	535.90
26.1552	531.14
26.1696	546.16
26.1841	529.33
26.1985	530.78
26.2130	548.11
26.2274	544.99
26.2418	530.50
26.2563	515.65
26.2707	493.75
26.2852	511.77
26.2996	530.76
26.3140	525.56
26.3285	530.53
26.3429	567.36
26.3574	525.17
26.3718	507.70
26.3862	519.59
26.4007	504.96
26.4151	504.99
26.4296	545.58
26.4440	543.38
26.4584	547.47
26.4729	544.61
26.4873	567.52
26.5018	558.99
26.5162	512.75
26.5306	549.43
26.5451	532.26
26.5595	523.55
26.5740	520.49
26.5884	556.79
26.6028	559.67
26.6173	526.74
26.6317	494.62
26.6462	511.40
26.6606	524.44
26.6750	520.43
26.6895	539.28
26.7039	515.77
26.7184	561.21
26.7328	528.09
26.7472	508.29
26.7617	510.24
26.7761	517.40
26.7906	513.22
26.8050	497.92
26.8194	501.38
26.8339	525.78
26.8483	524.92
26.8628	535.72
26.8772	507.24
26.8917	521.07
26.9061	549.58
26.9205	505.94
26.9350	513.69
26.9494	505.83
26.9639	495.24
26.9783	511.89
26.9927	526.32
27.0072	510.34
27.0216	496.69
27.0361	499.38
27.0505	532.50
27.0649	521.57
27.0794	533.25
27.0938	533.47
27.1083	529.61
27.1227	534.50
27.1371	525.87
27.1516	511.79
27.1660	532.95
27.1805	539.74
27.1949	511.44
27.2093	524.83
27.2238	543.45
27.2382	543.28
27.2527	519.14
27.2671	551.02
27.2815	536.71
27.2960	496.08
27.3104	498.44
27.3249	523.93
27.3393	536.83
27.3537	525.94
27.3682	533.14
27.3826	473.66
27.3971	476.52
27.4115	485.72
27.4259	531.77
27.4404	520.86
27.4548	524.56
27.4693	546.02
27.4837	525.39
27.4981	506.14
27.5126	514.69
27.5270	504.25
27.5415	535.26
27.5559	524.73
27.5703	502.11
27.5848	536.96
27.5992	523.68
27.6137	521.51
27.6281	518.86
27.6425	531.49
27.6570	519.86
27.6714	517.49
27.6859	482.04
27.7003	513.73
27.7147	557.88
27.7292	519.89
27.7436	516.14
27.7581	502.48
27.7725	510.92
27.7869	495.25
27.8014	544.24
27.8158	523.49
27.8303	535.93
27.8447	502.15
27.8591	547.09
27.8736	529.59
27.8880	534.32
27.9025	516.24
27.9169	536.34
27.9313	525.32
27.9458	505.86
27.9602	484.53
27.9747	491.95
27.9891	517.71
28.0035	523.46
28.0180	509.25
28.0324	496.61
28.0469	516.61
28.0613	498.22
28.0757	523.19
28.0902	550.71
28.1046	501.63
28.1191	510.54
28.1335	512.31
28.1479	517.04
28.1624	510.83
28.1768	489.49
28.1913	499.53
28.2057	493.05
28.2201	514.04
28.2346	519.31
28.2490	575.48
28.2635	513.41
28.2779	550.46
28.2923	528.52
28.3068	506.24
28.3212	528.45
28.3357	525.17
28.3501	527.73
28.3645	505.95
28.3790	515.92
28.3934	507.25
28.4079	530.08
28.4223	556.04
28.4367	531.64
28.4512	493.34
28.4656	521.06
28.4801	508.84
28.4945	520.29
28.5089	476.92
28.5234	502.16
28.5378	518.18
28.5523	535.46
28.5667	514.25
28.5811	517.50
28.5956	493.01
28.6100	509.16
28.6245	521.30
28.6389	526.50
28.6533	495.27
28.6678	492.45
28.6822	508.16
28.6967	557.88
28.7111	526.86
28.7255	511.69
28.7400	498.34
28.7544	542.80
28.7689	528.74
28.7833	531.83
28.7977	524.84
28.8122	540.13
28.8266	522.65
28.8411	481.72
28.8555	503.72
28.8699	522.95
28.8844	531.40
28.8988	495.18
28.9133	491.81
28.9277	530.37
28.9421	531.28
28.9566	504.70
28.9710	500.38
28.9855	490.40
28.9999	505.11
29.0143	522.48
29.0288	506.45
29.0432	520.67
29.0577	496.26
29.0721	584.05
29.0865	530.91
29.1010	510.71
29.1154	545.14
29.1299	536.11
29.1443	516.95
29.1587	531.29
29.1732	520.36
29.1876	490.92
29.2021	489.01
29.2165	527.34
29.2309	511.90
29.2454	521.92
29.2598	502.34
29.2743	541.49
29.2887	510.97
29.3031	520.27
29.3176	500.37
29.3320	510.81
29.3465	486.77
29.3609	498.24
29.3753	472.58
29.3898	480.59
29.4042	472.86
29.4187	498.64
29.4331	517.30
29.4475	529.35
29.4620	517.06
29.4764	512.27
29.4909	523.70
29.5053	489.78
29.5197	521.69
29.5342	522.36
29.5486	518.38
29.5631	478.43
29.5775	499.95
29.5919	484.05
29.6064	503.43
29.6208	502.17
29.6353	501.81
29.6497	474.02
29.6641	487.47
29.6786	494.30
29.6930	538.66
29.7075	489.38
29.7219	490.72
29.7363	518.28
29.7508	520.39
29.7652	489.28
29.7797	546.60
29.7941	536.60
29.8085	517.45
29.8230	502.41
29.8374	529.50
29.8519	520.15
29.8663	504.40
29.8807	498.14
29.8952	488.68
29.9096	517.73
29.9241	536.60
29.9385	500.11
29.9529	513.68
29.9674	512.43
29.9818	546.74
29.9963	550.67
30.0107	504.36
30.0251	494.65
30.0396	527.23
30.0540	532.07
30.0685	492.67
30.0829	515.31
30.0973	505.50
30.1118	527.30
30.1262	514.58
30.1407	516.74
30.1551	484.93
30.1695	506.26
30.1840	499.92
30.1984	471.52
30.2129	474.71
30.2273	505.37
30.2417	522.71
30.2562	485.96
30.2706	505.52
30.2851	521.97
30.2995	490.59
30.3139	510.44
30.3284	512.61
30.3428	485.24
30.3573	494.70
30.3717	498.36
30.3861	474.65
30.4006	499.96
30.4150	556.06
30.4295	558.14
30.4439	511.39
30.4583	529.24
30.4728	507.87
30.4872	490.92
30.5017	492.27
30.5161	507.25
30.5305	505.11
30.5450	501.31
30.5594	499.14
30.5739	505.88
30.5883	529.34
30.6028	560.77
30.6172	513.44
30.6316	519.35
30.6461	537.10
30.6605	545.77
30.6750	538.33
30.6894	579.45
30.7038	604.92
30.7183	630.25
30.7327	636.84
30.7472	635.25
30.7616	643.54
30.7760	670.53
30.7905	662.38
30.8049	688.47
30.8194	697.57
30.8338	671.09
30.8482	639.76
30.8627	685.97
30.8771	662.08
30.8916	619.53
30.9060	573.54
30.9204	574.20
30.9349	597.50
30.9493	587.04
30.9638	531.59
30.9782	528.83
30.9926	526.17
31.0071	523.80
31.0215	536.48
31.0360	539.79
31.0504	563.31
31.0648	528.83
31.0793	534.46
31.0937	548.43
31.1082	510.36
31.1226	533.75
31.1370	503.36
31.1515	475.15
31.1659	536.43
31.1804	523.20
31.1948	501.55
31.2092	534.13
31.2237	503.90
31.2381	491.55
31.2526	525.87
31.2670	517.73
31.2814	511.82
31.2959	557.27
31.3103	547.68
31.3248	541.98
31.3392	557.51
31.3536	566.11
31.3681	512.82
31.3825	509.54
31.3970	509.66
31.4114	527.40
31.4258	516.86
31.4403	479.14
31.4547	480.12
31.4692	527.04
31.4836	496.46
31.4980	513.69
31.5125	508.12
31.5269	514.99
31.5414	524.97
31.5558	495.73
31.5702	516.92
31.5847	507.09
31.5991	514.18
31.6136	495.25
31.6280	501.65
31.6424	489.45
31.6569	518.54
31.6713	499.38
31.6858	519.85
31.7002	515.21
31.7146	507.42
31.7291	482.38
31.7435	511.79
31.7580	513.37
31.7724	520.30
31.7868	526.22
31.8013	518.79
31.8157	528.85
31.8302	504.90
31.8446	494.37
31.8590	507.13
31.8735	528.69
31.8879	510.54
31.9024	535.05
31.9168	512.76
31.9312	479.36
31.9457	500.64
31.9601	506.17
31.9746	493.77
31.9890	498.41
32.0034	537.92
32.0179	517.42
32.0323	496.08
32.0468	511.55
32.0612	501.09
32.0756	521.37
32.0901	544.52
32.1045	460.19
32.1190	471.09
32.1334	517.74
32.1478	502.00
32.1623	510.65
32.1767	521.51
32.1912	525.87
32.2056	501.89
32.2200	531.88
32.2345	499.05
32.2489	540.84
32.2634	479.22
32.2778	522.29
32.2922	466.09
32.3067	484.38
32.3211	462.53
32.3356	491.02
32.3500	499.17
32.3644	520.09
32.3789	491.97
32.3933	494.20
32.4078	481.99
32.4222	489.86
32.4366	508.19
32.4511	506.95
32.4655	501.22
32.4800	484.51
32.4944	518.27
32.5088	490.41
32.5233	507.45
32.5377	494.80
32.5522	508.95
32.5666	512.02
32.5810	494.27
32.5955	508.98
32.6099	506.29
32.6244	514.49
32.6388	509.23
32.6532	511.49
32.6677	525.00
32.6821	506.72
32.6966	518.93
32.7110	514.45
32.7254	495.73
32.7399	461.36
32.7543	513.84
32.7688	470.04
32.7832	514.43
32.7976	493.34
32.8121	534.52
32.8265	498.57
32.8410	521.00
32.8554	521.38
32.8698	539.06
32.8843	493.27
32.8987	529.84
32.9132	488.11
32.9276	492.94
32.9420	519.51
32.9565	535.35
32.9709	493.26
32.9854	509.38
32.9998	533.54
33.0142	495.31
33.0287	471.40
33.0431	487.92
33.0576	473.60
33.0720	521.55
33.0864	484.30
33.1009	469.18
33.1153	524.74
33.1298	538.53
33.1442	524.93
33.1586	502.57
33.1731	489.83
33.1875	503.68
33.2020	468.67
33.2164	472.48
33.2308	511.08
33.2453	529.83
33.2597	489.78
33.2742	521.41
33.2886	513.88
33.3030	484.87
33.3175	508.93
33.3319	507.71
33.3464	512.16
33.3608	514.76
33.3752	498.18
33.3897	476.22
33.4041	492.09
33.4186	532.89
33.4330	540.33
33.4474	486.08
33.4619	494.45
33.4763	506.04
33.4908	481.16
33.5052	495.31
33.5196	488.41
33.5341	497.52
33.5485	515.13
33.5630	533.15
33.5774	497.16
33.5918	490.99
33.6063	502.02
33.6207	480.40
33.6352	496.81
33.6496	482.77
33.6640	504.55
33.6785	524.98
33.6929	488.97
33.7074	502.35
33.7218	550.73
33.7362	497.53
33.7507	501.65
33.7651	536.94
33.7796	521.45
33.7940	522.66
33.8084	503.48
33.8229	508.93
33.8373	508.95
33.8518	517.41
33.8662	517.39
33.8806	480.33
33.8951	460.84
33.9095	496.87
33.9240	526.22
33.9384	556.34
33.9528	534.14
33.9673	519.50
33.9817	510.24
33.9962	518.70
34.0106	489.06
34.0250	487.74
34.0395	485.96
34.0539	518.53
34.0684	522.82
34.0828	494.26
34.0972	501.65
34.1117	514.34
34.1261	508.00
34.1406	502.52
34.1550	522.47
34.1694	524.03
34.1839	487.54
34.1983	483.42
34.2128	496.27
34.2272	499.65
34.2417	499.21
34.2561	497.16
34.2705	503.04
34.2850	514.66
34.2994	491.61
34.3139	524.40
34.3283	521.32
34.3427	510.06
34.3572	527.36
34.3716	533.20
34.3861	507.04
34.4005	491.23
34.4149	502.43
34.4294	510.70
34.4438	496.24
34.4583	506.82
34.4727	499.07
34.4871	522.96
34.5016	529.99
34.5160	503.70
34.5305	528.66
34.5449	522.79
34.5593	511.27
34.5738	510.75
34.5882	501.81
34.6027	498.66
34.6171	497.39
34.6315	482.49
34.6460	504.84
34.6604	496.82
34.6749	501.37
34.6893	489.37
34.7037	501.82
34.7182	532.42
34.7326	510.09
34.7471	510.82
34.7615	478.10
34.7759	507.39
34.7904	491.32
34.8048	499.26
34.8193	513.58
34.8337	536.62
34.8481	512.44
34.8626	524.13
34.8770	517.33
34.8915	479.37
34.9059	516.07
34.9203	520.57
34.9348	489.30
34.9492	480.81
34.9637	497.55
34.9781	514.94
34.9925	505.29
35.0070	513.93
35.0214	510.49
35.0359	488.50
35.0503	467.81
35.0647	493.22
35.0792	511.54
35.0936	517.09
35.1081	516.74
35.1225	497.17
35.1369	498.26
35.1514	485.84
35.1658	537.01
35.1803	500.86
35.1947	484.39
35.2091	496.29
35.2236	520.21
35.2380	481.10
35.2525	489.46
35.2669	533.38
35.2813	516.23
35.2958	485.32
35.3102	487.81
35.3247	515.95
35.3391	519.58
35.3535	534.41
35.3680	500.49
35.3824	493.05
35.3969	485.90
35.4113	501.32
35.4257	510.78
35.4402	524.62
35.4546	495.97
35.4691	498.56
35.4835	525.83
35.4979	532.06
35.5124	502.62
35.5268	526.83
35.5413	549.01
35.5557	538.25
35.5701	517.37
35.5846	522.44
35.5990	514.81
35.6135	523.70
35.6279	513.24
35.6423	532.40
35.6568	516.97
35.6712	553.34
35.6857	618.36
35.7001	687.09
35.7145	747.97
35.7290	694.38
35.7434	628.99
35.7579	643.22
35.7723	582.58
35.7867	625.61
35.8012	676.19
35.8156	675.33
35.8301	605.46
35.8445	630.59
35.8589	641.93
35.8734	738.21
35.8878	841.21
35.9023	999.13
35.9167	1041.65
35.9311	1303.36
35.9456	1979.09
35.9600	2315.29
35.9745	2017.84
35.9889	2034.60
36.0033	2673.62
36.0178	3250.36
36.0322	2573.38
36.0467	1973.66
36.0611	1696.63
36.0755	1645.64
36.0900	1716.72
36.1044	1356.41
36.1189	1316.08
36.1333	1310.89
36.1477	1174.86
36.1622	1152.10
36.1766	1132.20
36.1911	1133.78
36.2055	1063.85
36.2199	999.41
36.2344	985.47
36.2488	984.38
36.2633	948.95
36.2777	971.67
36.2921	963.74
36.3066	926.81
36.3210	943.73
36.3355	867.94
36.3499	838.34
36.3643	804.71
36.3788	830.16
36.3932	765.72
36.4077	751.20
36.4221	701.43
36.4365	666.93
36.4510	617.62
36.4654	628.29
36.4799	581.16
36.4943	616.17
36.5087	580.02
36.5232	541.68
36.5376	555.04
36.5521	570.38
36.5665	543.97
36.5809	568.79
36.5954	511.61
36.6098	544.46
36.6243	522.48
36.6387	541.19
36.6531	543.53
36.6676	527.07
36.6820	523.74
36.6965	542.01
36.7109	553.21
36.7253	527.29
36.7398	527.36
36.7542	521.50
36.7687	554.46
36.7831	543.63
36.7975	526.91
36.8120	563.04
36.8264	560.23
36.8409	575.44
36.8553	580.96
36.8697	591.80
36.8842	613.99
36.8986	597.37
36.9131	597.29
36.9275	552.08
36.9419	560.00
36.9564	629.50
36.9708	573.42
36.9853	610.38
36.9997	612.52
37.0141	571.08
37.0286	579.35
37.0430	536.65
37.0575	554.20
37.0719	504.16
37.0863	582.52
37.1008	525.06
37.1152	500.78
37.1297	510.42
37.1441	497.00
37.1585	497.92
37.1730	548.32
37.1874	477.09
37.2019	484.52
37.2163	497.17
37.2307	509.11
37.2452	504.89
37.2596	521.29
37.2741	506.15
37.2885	486.94
37.3029	474.67
37.3174	492.15
37.3318	522.38
37.3463	535.41
37.3607	506.28
37.3751	506.66
37.3896	514.51
37.4040	502.49
37.4185	541.96
37.4329	522.82
37.4473	490.60
37.4618	510.06
37.4762	507.37
37.4907	497.87
37.5051	494.73
37.5195	495.61
37.5340	509.07
37.5484	515.08
37.5629	486.88
37.5773	509.02
37.5917	512.82
37.6062	532.96
37.6206	526.08
37.6351	526.63
37.6495	535.82
37.6639	505.20
37.6784	505.08
37.6928	495.73
37.7073	523.81
37.7217	513.62
37.7361	494.30
37.7506	495.73
37.7650	461.90
37.7795	480.12
37.7939	508.29
37.8083	497.96
37.8228	489.31
37.8372	514.22
37.8517	499.15
37.8661	516.24
37.8805	501.80
37.8950	499.02
37.9094	515.82
37.9239	485.27
37.9383	510.28
37.9528	497.85
37.9672	450.10
37.9816	518.58
37.9961	512.03
38.0105	505.87
38.0250	513.62
38.0394	504.54
38.0538	523.76
38.0683	494.62
38.0827	514.17
38.0972	529.60
38.1116	491.24
38.1260	520.52
38.1405	502.84
38.1549	469.12
38.1694	489.88
38.1838	508.89
38.1982	480.60
38.2127	490.52
38.2271	507.72
38.2416	508.19
38.2560	508.16
38.2704	525.54
38.2849	510.91
38.2993	527.39
38.3138	504.61
38.3282	541.47
38.3426	518.01
38.3571	511.67
38.3715	508.51
38.3860	506.16
38.4004	540.75
38.4148	568.88
38.4293	605.42
38.4437	528.99
38.4582	607.70
38.4726	648.25
38.4870	681.64
38.5015	712.45
38.5159	741.83
38.5304	790.23
38.5448	785.25
38.5592	793.00
38.5737	786.54
38.5881	751.69
38.6026	688.86
38.6170	686.13
38.6314	709.44
38.6459	671.64
38.6603	653.76
38.6748	646.65
38.6892	575.58
38.7036	582.15
38.7181	570.81
38.7325	521.13
38.7470	511.76
38.7614	524.23
38.7758	554.47
38.7903	523.35
38.8047	497.75
38.8192	499.07
38.8336	518.00
38.8480	508.17
38.8625	485.46
38.8769	513.56
38.8914	466.77
38.9058	497.91
38.9202	519.03
38.9347	526.43
38.9491	502.94
38.9636	511.35
38.9780	509.21
38.9924	491.87
39.0069	492.29
39.0213	489.82
39.0358	496.09
39.0502	488.29
39.0646	523.08
39.0791	517.57
39.0935	500.43
39.1080	498.27
39.1224	475.19
39.1368	470.91
39.1513	478.00
39.1657	496.70
39.1802	500.42
39.1946	513.60
39.2090	466.65
39.2235	491.65
39.2379	481.57
39.2524	517.76
39.2668	478.13
39.2812	506.72
39.2957	501.64
39.3101	509.34
39.3246	531.44
39.3390	514.45
39.3534	515.94
39.3679	480.75
39.3823	527.60
39.3968	517.63
39.4112	511.74
39.4256	529.48
39.4401	501.76
39.4545	469.42
39.4690	499.58
39.4834	525.82
39.4978	491.11
39.5123	491.65
39.5267	510.54
39.5412	518.02
39.5556	508.72
39.5700	495.68
39.5845	490.45
39.5989	466.47
39.6134	447.09
39.6278	499.12
39.6422	486.55
39.6567	495.39
39.6711	519.10
39.6856	499.51
39.7000	504.54
39.7144	485.99
39.7289	519.36
39.7433	488.11
39.7578	503.02
39.7722	507.49
39.7866	490.86
39.8011	472.44
39.8155	482.38
39.8300	479.03
39.8444	492.78
39.8588	486.75
39.8733	503.84
39.8877	489.25
39.9022	505.96
39.9166	487.00
39.9310	489.82
39.9455	505.03
39.9599	505.26
39.9744	492.17
39.9888	488.73
40.0032	466.23
40.0177	475.97
40.0321	500.74
40.0466	514.20
40.0610	497.67
40.0754	506.97
40.0899	554.64
40.1043	530.73
40.1188	519.12
40.1332	529.41
40.1476	497.34
40.1621	486.34
40.1765	516.37
40.1910	501.43
40.2054	496.84
40.2198	458.91
40.2343	501.39
40.2487	533.58
40.2632	520.23
40.2776	486.86
40.2920	521.31
40.3065	518.80
40.3209	517.36
40.3354	519.77
40.3498	519.41
40.3642	521.94
40.3787	498.49
40.3931	521.18
40.4076	454.76
40.4220	485.43
40.4364	492.07
40.4509	466.33
40.4653	486.07
40.4798	509.02
40.4942	535.63
40.5086	509.36
40.5231	476.93
40.5375	502.41
40.5520	473.48
40.5664	503.87
40.5808	471.57
40.5953	504.79
40.6097	508.30
40.6242	440.00
40.6386	514.14
40.6530	517.64
40.6675	505.18
40.6819	480.84
40.6964	523.53
40.7108	514.61
40.7252	507.42
40.7397	483.97
40.7541	492.93
40.7686	483.29
40.7830	524.82
40.7974	501.66
40.8119	485.99
40.8263	500.15
40.8408	487.66
40.8552	511.73
40.8696	501.78
40.8841	518.30
40.8985	539.32
40.9130	520.74
40.9274	490.10
40.9418	488.30
40.9563	463.73
40.9707	497.21
40.9852	522.03
40.9996	538.14
41.0140	495.11
41.0285	477.69
41.0429	498.74
41.0574	513.22
41.0718	463.98
41.0862	522.68
41.1007	489.08
41.1151	510.35
41.1296	488.37
41.1440	491.45
41.1584	475.78
41.1729	496.10
41.1873	533.10
41.2018	505.60
41.2162	472.59
41.2306	495.20
41.2451	477.85
41.2595	467.95
41.2740	492.57
41.2884	502.70
41.3028	495.72
41.3173	494.63
41.3317	541.06
41.3462	516.02
41.3606	473.54
41.3750	512.74
41.3895	497.75
41.4039	479.87
41.4184	506.56
41.4328	517.62
41.4472	453.69
41.4617	469.86
41.4761	463.36
41.4906	515.84
41.5050	495.53
41.5194	488.99
41.5339	505.69
41.5483	500.02
41.5628	511.33
41.5772	528.97
41.5916	484.81
41.6061	477.61
41.6205	501.28
41.6350	493.71
41.6494	506.01
41.6639	518.55
41.6783	483.51
41.6927	473.08
41.7072	519.45
41.7216	526.15
41.7361	493.14
41.7505	477.37
41.7649	480.53
41.7794	487.65
41.7938	481.09
41.8083	513.75
41.8227	535.56
41.8371	521.56
41.8516	516.08
41.8660	529.51
41.8805	547.24
41.8949	519.65
41.9093	519.71
41.9238	520.00
41.9382	580.05
41.9527	571.56
41.9671	551.64
41.9815	579.67
41.9960	546.74
42.0104	562.08
42.0249	598.32
42.0393	546.12
42.0537	549.93
42.0682	596.05
42.0826	612.89
42.0971	537.55
42.1115	584.35
42.1259	614.61
42.1404	602.06
42.1548	608.30
42.1693	664.37
42.1837	691.12
42.1981	730.73
42.2126	842.62
42.2270	947.92
42.2415	1076.23
42.2559	1201.42
42.2703	1378.18
42.2848	1578.30
42.2992	1718.39
42.3137	1710.56
42.3281	1701.93
42.3425	1639.83
42.3570	1592.69
42.3714	1455.61
42.3859	1356.17
42.4003	1377.95
42.4147	1360.53
42.4292	1329.51
42.4436	1172.18
42.4581	1037.86
42.4725	923.42
42.4869	870.34
42.5014	751.68
42.5158	715.90
42.5303	678.89
42.5447	641.83
42.5591	612.57
42.5736	622.23
42.5880	585.11
42.6025	574.80
42.6169	561.13
42.6313	540.81
42.6458	552.83
42.6602	573.75
42.6747	545.32
42.6891	530.48
42.7035	539.15
42.7180	543.18
42.7324	544.61
42.7469	515.18
42.7613	505.52
42.7757	502.42
42.7902	500.22
42.8046	530.26
42.8191	540.05
42.8335	527.36
42.8479	494.79
42.8624	508.19
42.8768	532.10
42.8913	513.30
42.9057	508.51
42.9201	500.31
42.9346	499.01
42.9490	511.64
42.9635	494.32
42.9779	509.00
42.9923	499.26
43.0068	460.01
43.0212	511.67
43.0357	505.34
43.0501	493.89
43.0645	518.54
43.0790	538.05
43.0934	521.50
43.1079	494.79
43.1223	524.86
43.1367	513.85
43.1512	533.29
43.1656	551.24
43.1801	526.93
43.1945	499.63
43.2089	527.46
43.2234	533.61
43.2378	513.23
43.2523	521.62
43.2667	507.61
43.2811	539.53
43.2956	507.25
43.3100	509.95
43.3245	510.36
43.3389	530.14
43.3533	537.26
43.3678	550.18
43.3822	522.46
43.3967	514.32
43.4111	485.61
43.4255	493.02
43.4400	503.36
43.4544	517.56
43.4689	517.80
43.4833	527.17
43.4977	507.21
43.5122	486.99
43.5266	516.49
43.5411	541.93
43.5555	520.63
43.5699	513.18
43.5844	508.81
43.5988	500.95
43.6133	512.52
43.6277	510.72
43.6421	533.93
43.6566	541.94
43.6710	512.19
43.6855	496.70
43.6999	525.18
43.7143	537.44
43.7288	524.24
43.7432	526.91
43.7577	531.10
43.7721	508.32
43.7865	519.44
43.8010	530.06
43.8154	552.01
43.8299	531.22
43.8443	526.33
43.8587	537.75
43.8732	532.74
43.8876	528.81
43.9021	534.39
43.9165	554.77
43.9309	554.00
43.9454	568.13
43.9598	527.33
43.9743	545.83
43.9887	612.27
44.0031	584.71
44.0176	637.92
44.0320	595.40
44.0465	560.16
44.0609	585.58
44.0753	599.44
44.0898	612.71
44.1042	638.28
44.1187	639.83
44.1331	589.95
44.1475	592.75
44.1620	603.38
44.1764	639.06
44.1909	594.34
44.2053	581.52
44.2197	567.87
44.2342	564.02
44.2486	578.96
44.2631	555.83
44.2775	582.81
44.2919	566.42
44.3064	529.66
44.3208	550.96
44.3353	573.63
44.3497	557.79
44.3641	537.16
44.3786	528.74
44.3930	547.69
44.4075	527.90
44.4219	569.24
44.4363	570.88
44.4508	605.90
44.4652	592.25
44.4797	576.77
44.4941	589.17
44.5085	571.86
44.5230	546.94
44.5374	558.87
44.5519	600.36
44.5663	579.07
44.5807	600.73
44.5952	574.30
44.6096	535.89
44.6241	554.45
44.6385	592.30
44.6529	578.56
44.6674	545.64
44.6818	622.57
44.6963	613.39
44.7107	628.92
44.7251	673.71
44.7396	707.97
44.7540	786.28
44.7685	848.16
44.7829	905.88
44.7973	895.44
44.8118	860.85
44.8262	863.46
44.8407	802.40
44.8551	721.36
44.8695	705.77
44.8840	756.90
44.8984	727.06
44.9129	738.09
44.9273	662.02
44.9417	695.67
44.9562	607.46
44.9706	557.99
44.9851	546.91
44.9995	546.86
45.0139	520.99
45.0284	556.65
45.0428	514.96
45.0573	530.77
45.0717	605.77
45.0861	508.30
45.1006	519.83
45.1150	515.66
45.1295	522.15
45.1439	482.54
45.1583	522.31
45.1728	486.18
45.1872	536.19
45.2017	503.16
45.2161	492.06
45.2305	492.97
45.2450	497.29
45.2594	486.18
45.2739	502.90
45.2883	479.31
45.3028	485.33
45.3172	530.06
45.3316	499.85
45.3461	482.14
45.3605	483.86
45.3750	528.11
45.3894	511.08
45.4038	485.90
45.4183	505.03
45.4327	516.71
45.4472	509.17
45.4616	514.14
45.4760	541.19
45.4905	528.73
45.5049	528.87
45.5194	524.20
45.5338	508.90
45.5482	514.72
45.5627	490.02
45.5771	505.27
45.5916	506.24
45.6060	528.60
45.6204	489.46
45.6349	494.98
45.6493	495.18
45.6638	539.77
45.6782	476.30
45.6926	485.07
45.7071	521.43
45.7215	524.62
45.7360	546.62
45.7504	490.65
45.7648	497.96
45.7793	504.49
45.7937	521.65
45.8082	500.06
45.8226	498.68
45.8370	501.16
45.8515	528.23
45.8659	520.32
45.8804	508.25
45.8948	521.30
45.9092	540.87
45.9237	492.14
45.9381	504.04
45.9526	484.89
45.9670	502.20
45.9814	505.21
45.9959	483.55
46.0103	509.05
46.0248	491.54
46.0392	480.91
46.0536	536.36
46.0681	498.64
46.0825	508.92
46.0970	528.22
46.1114	522.45
46.1258	505.49
46.1403	489.18
46.1547	513.38
46.1692	497.58
46.1836	476.56
46.1980	484.06
46.2125	491.59
46.2269	489.77
46.2414	505.08
46.2558	461.34
46.2702	492.46
46.2847	518.09
46.2991	499.98
46.3136	510.70
46.3280	484.57
46.3424	498.33
46.3569	520.08
46.3713	475.70
46.3858	468.98
46.4002	484.19
46.4146	501.40
46.4291	513.73
46.4435	484.98
46.4580	522.92
46.4724	504.06
46.4868	508.58
46.5013	499.81
46.5157	485.55
46.5302	488.16
46.5446	521.95
46.5590	491.86
46.5735	508.67
46.5879	494.55
46.6024	503.07
46.6168	509.87
46.6312	486.68
46.6457	486.92
46.6601	486.19
46.6746	490.50
46.6890	479.70
46.7034	470.55
46.7179	495.97
46.7323	496.84
46.7468	509.70
46.7612	506.50
46.7756	516.03
46.7901	523.64
46.8045	506.17
46.8190	521.67
46.8334	529.25
46.8478	509.36
46.8623	517.69
46.8767	519.48
46.8912	530.38
46.9056	533.94
46.9200	501.41
46.9345	507.33
46.9489	504.32
46.9634	487.46
46.9778	505.24
46.9922	529.91
47.0067	496.51
47.0211	490.71
47.0356	513.71
47.0500	501.08
47.0644	507.49
47.0789	516.03
47.0933	542.41
47.1078	518.32
47.1222	493.10
47.1366	510.48
47.1511	451.71
47.1655	508.02
47.1800	500.57
47.1944	522.65
47.2088	494.85
47.2233	499.19
47.2377	506.58
47.2522	493.93
47.2666	508.54
47.2810	532.83
47.2955	500.17
47.3099	508.59
47.3244	504.30
47.3388	511.81
47.3532	490.77
47.3677	465.09
47.3821	465.81
47.3966	488.37
47.4110	503.64
47.4254	501.61
47.4399	523.32
47.4543	487.17
47.4688	500.79
47.4832	496.95
47.4976	501.93
47.5121	512.81
47.5265	490.65
47.5410	496.64
47.5554	474.99
47.5698	497.38
47.5843	526.77
47.5987	510.48
47.6132	514.69
47.6276	490.52
47.6420	497.46
47.6565	500.90
47.6709	449.65
47.6854	464.89
47.6998	493.41
47.7142	514.15
47.7287	479.55
47.7431	499.83
47.7576	507.97
47.7720	481.93
47.7864	509.10
47.8009	505.97
47.8153	526.79
47.8298	514.35
47.8442	497.34
47.8586	483.30
47.8731	523.35
47.8875	532.36
47.9020	538.94
47.9164	515.37
47.9308	540.09
47.9453	536.10
47.9597	514.67
47.9742	513.74
47.9886	499.02
48.0030	489.34
48.0175	483.50
48.0319	489.24
48.0464	464.82
48.0608	489.84
48.0752	507.87
48.0897	529.99
48.1041	513.42
48.1186	495.84
48.1330	501.90
48.1474	474.45
48.1619	540.66
48.1763	504.76
48.1908	512.37
48.2052	491.24
48.2196	523.41
48.2341	514.02
48.2485	537.33
48.2630	515.98
48.2774	520.79
48.2918	523.75
48.3063	515.80
48.3207	534.76
48.3352	528.26
48.3496	508.01
48.3640	504.40
48.3785	516.06
48.3929	467.25
48.4074	485.31
48.4218	524.24
48.4362	509.14
48.4507	507.13
48.4651	507.67
48.4796	528.57
48.4940	500.41
48.5084	488.08
48.5229	519.07
48.5373	498.14
48.5518	476.15
48.5662	483.42
48.5806	516.15
48.5951	520.79
48.6095	503.92
48.6240	509.35
48.6384	516.67
48.6528	524.72
48.6673	500.93
48.6817	501.63
48.6962	492.24
48.7106	517.90
48.7250	526.72
48.7395	518.48
48.7539	552.17
48.7684	512.95
48.7828	491.57
48.7972	475.33
48.8117	492.07
48.8261	493.16
48.8406	520.64
48.8550	499.00
48.8694	522.02
48.8839	549.72
48.8983	534.98
48.9128	515.19
48.9272	530.30
48.9416	544.97
48.9561	556.73
48.9705	544.59
48.9850	610.46
48.9994	591.09
49.0139	550.41
49.0283	624.37
49.0427	638.18
49.0572	669.29
49.0716	646.08
49.0861	678.32
49.1005	723.27
49.1149	714.60
49.1294	764.88
49.1438	757.67
49.1583	837.36
49.1727	882.10
49.1871	867.56
49.2016	911.10
49.2160	1044.31
49.2305	1104.25
49.2449	1210.92
49.2593	1309.76
49.2738	1435.68
49.2882	1491.51
49.3027	1627.97
49.3171	1611.99
49.3315	1720.81
49.3460	1837.96
49.3604	1816.77
49.3749	1817.93
49.3893	1791.96
49.4037	1717.30
49.4182	1779.88
49.4326	1776.33
49.4471	1667.59
49.4615	1676.12
49.4759	1606.10
49.4904	1510.57
49.5048	1404.09
49.5193	1340.80
49.5337	1345.03
49.5481	1241.17
49.5626	1104.13
49.5770	1052.50
49.5915	1003.51
49.6059	924.91
49.6203	824.63
49.6348	859.81
49.6492	755.80
49.6637	757.73
49.6781	730.55
49.6925	658.39
49.7070	653.68
49.7214	633.46
49.7359	612.15
49.7503	610.74
49.7647	546.68
49.7792	577.70
49.7936	586.44
49.8081	589.55
49.8225	559.08
49.8369	553.75
49.8514	575.22
49.8658	532.24
49.8803	575.33
49.8947	557.25
49.9091	541.40
49.9236	531.62
49.9380	563.25
49.9525	532.77
49.9669	557.93
49.9813	578.00
49.9958	580.65
50.0102	554.37
50.0247	539.98
50.0391	524.23
50.0535	511.73
50.0680	496.23
50.0824	521.84
50.0969	506.68
50.1113	534.63
50.1257	530.18
50.1402	494.66
50.1546	512.67
50.1691	544.07
50.1835	539.42
50.1979	503.11
50.2124	500.32
50.2268	508.62
50.2413	499.78
50.2557	547.31
50.2701	543.32
50.2846	520.61
50.2990	527.01
50.3135	492.56
50.3279	534.25
50.3423	555.93
50.3568	539.68
50.3712	535.12
50.3857	532.10
50.4001	505.80
50.4145	510.70
50.4290	514.46
50.4434	467.96
50.4579	527.04
50.4723	532.31
50.4867	567.80
50.5012	515.72
50.5156	489.40
50.5301	509.94
50.5445	518.74
50.5589	546.08
50.5734	506.88
50.5878	502.31
50.6023	517.06
50.6167	508.55
50.6311	525.26
50.6456	510.67
50.6600	476.87
50.6745	483.49
50.6889	472.70
50.7033	492.82
50.7178	465.26
50.7322	465.31
50.7467	477.81
50.7611	482.24
50.7755	515.67
50.7900	503.23
50.8044	483.84
50.8189	465.74
50.8333	498.06
50.8477	506.74
50.8622	526.28
50.8766	525.22
50.8911	536.10
50.9055	572.44
50.9199	538.26
50.9344	543.74
50.9488	520.77
50.9633	485.57
50.9777	487.02
50.9921	483.62
51.0066	497.17
51.0210	523.40
51.0355	502.44
51.0499	510.00
51.0643	518.69
51.0788	505.61
51.0932	524.09
51.1077	516.35
51.1221	508.39
51.1365	508.07
51.1510	502.63
51.1654	488.75
51.1799	525.97
51.1943	504.19
51.2087	496.54
51.2232	500.12
51.2376	535.05
51.2521	506.66
51.2665	522.75
51.2809	534.43
51.2954	510.20
51.3098	528.00
51.3243	500.52
51.3387	547.61
51.3531	519.51
51.3676	506.11
51.3820	485.26
51.3965	467.04
51.4109	477.44
51.4253	516.62
51.4398	527.16
51.4542	518.36
51.4687	488.76
51.4831	486.46
51.4975	516.32
51.5120	544.31
51.5264	503.32
51.5409	494.49
51.5553	510.94
51.5697	511.07
51.5842	503.02
51.5986	511.34
51.6131	506.40
51.6275	512.16
51.6419	502.00
51.6564	527.10
51.6708	501.47
51.6853	507.64
51.6997	533.72
51.7141	512.05
51.7286	481.68
51.7430	487.67
51.7575	535.40
51.7719	502.95
51.7863	489.48
51.8008	491.67
51.8152	510.35
51.8297	516.57
51.8441	561.42
51.8585	504.13
51.8730	514.51
51.8874	503.02
51.9019	482.42
51.9163	523.10
51.9307	509.36
51.9452	486.54
51.9596	511.40
51.9741	515.49
51.9885	485.04
52.0029	474.10
52.0174	517.01
52.0318	501.88
52.0463	510.43
52.0607	524.73
52.0751	536.68
52.0896	532.49
52.1040	477.10
52.1185	560.55
52.1329	510.36
52.1473	531.54
52.1618	489.80
52.1762	511.27
52.1907	485.91
52.2051	497.41
52.2195	497.74
52.2340	525.18
52.2484	522.29
52.2629	524.46
52.2773	534.14
52.2917	537.16
52.3062	537.89
52.3206	497.65
52.3351	510.34
52.3495	545.04
52.3639	519.48
52.3784	482.12
52.3928	487.46
52.4073	491.36
52.4217	528.11
52.4361	482.71
52.4506	459.07
52.4650	499.47
52.4795	535.85
52.4939	526.11
52.5083	511.60
52.5228	511.19
52.5372	519.97
52.5517	506.01
52.5661	502.59
52.5805	486.96
52.5950	471.06
52.6094	479.30
52.6239	498.52
52.6383	522.21
52.6527	551.36
52.6672	502.07
52.6816	504.40
52.6961	492.51
52.7105	526.41
52.7250	501.36
52.7394	533.23
52.7538	486.32
52.7683	482.28
52.7827	524.78
52.7972	534.49
52.8116	509.08
52.8260	526.72
52.8405	525.29
52.8549	517.64
52.8694	474.62
52.8838	505.46
52.8982	486.58
52.9127	491.28
52.9271	528.71
52.9416	539.10
52.9560	515.86
52.9704	529.05
52.9849	483.68
52.9993	497.33
53.0138	513.76
53.0282	532.12
53.0426	484.13
53.0571	502.02
53.0715	489.68
53.0860	480.27
53.1004	507.96
53.1148	481.29
53.1293	504.99
53.1437	505.97
53.1582	516.04
53.1726	531.65
53.1870	513.98
53.2015	517.12
53.2159	527.29
53.2304	501.86
53.2448	491.09
53.2592	524.01
53.2737	499.85
53.2881	512.94
53.3026	502.39
53.3170	491.52
53.3314	553.94
53.3459	561.21
53.3603	545.89
53.3748	507.27
53.3892	461.49
53.4036	475.08
53.4181	521.91
53.4325	506.33
53.4470	468.58
53.4614	523.36
53.4758	525.93
53.4903	499.69
53.5047	486.82
53.5192	521.89
53.5336	474.44
53.5480	488.84
53.5625	509.08
53.5769	486.39
53.5914	513.38
53.6058	505.27
53.6202	498.96
53.6347	486.33
53.6491	473.86
53.6636	514.44
53.6780	503.43
53.6924	527.84
53.7069	547.63
53.7213	554.58
53.7358	526.41
53.7502	502.58
53.7646	512.64
53.7791	549.30
53.7935	516.77
53.8080	531.15
53.8224	504.56
53.8368	550.96
53.8513	508.12
53.8657	488.61
53.8802	498.06
53.8946	525.60
53.9090	524.61
53.9235	526.06
53.9379	511.77
53.9524	504.08
53.9668	551.95
53.9812	532.83
53.9957	519.24
54.0101	509.04
54.0246	489.11
54.0390	521.94
54.0534	534.77
54.0679	535.53
54.0823	549.10
54.0968	521.35
54.1112	524.74
54.1256	526.12
54.1401	521.05
54.1545	482.52
54.1690	485.18
54.1834	503.26
54.1978	456.81
54.2123	506.32
54.2267	536.45
54.2412	538.68
54.2556	532.71
54.2700	520.89
54.2845	548.63
54.2989	488.37
54.3134	507.26
54.3278	523.75
54.3422	512.08
54.3567	502.02
54.3711	521.11
54.3856	525.19
54.4000	501.49
54.4144	574.77
54.4289	573.06
54.4433	522.73
54.4578	528.28
54.4722	544.74
54.4866	541.89
54.5011	536.35
54.5155	566.89
54.5300	577.81
54.5444	576.29
54.5588	540.91
54.5733	534.71
54.5877	548.00
54.6022	559.60
54.6166	574.14
54.6310	613.35
54.6455	571.47
54.6599	546.83
54.6744	559.90
54.6888	569.21
54.7032	599.38
54.7177	571.97
54.7321	568.13
54.7466	562.96
54.7610	571.58
54.7754	579.77
54.7899	571.99
54.8043	555.97
54.8188	572.17
54.8332	553.10
54.8476	526.73
54.8621	528.00
54.8765	562.79
54.8910	556.87
54.9054	561.21
54.9198	542.18
54.9343	530.43
54.9487	524.04
54.9632	554.86
54.9776	550.55
54.9920	537.61
55.0065	500.90
55.0209	525.84
55.0354	510.56
55.0498	519.35
55.0642	515.31
55.0787	537.20
55.0931	530.57
55.1076	536.32
55.1220	522.10
55.1364	505.47
55.1509	536.49
55.1653	509.63
55.1798	505.34
55.1942	490.05
55.2086	519.56
55.2231	529.64
55.2375	538.14
55.2520	517.44
55.2664	533.88
55.2808	552.31
55.2953	494.11
55.3097	524.93
55.3242	544.66
55.3386	511.44
55.3530	498.43
55.3675	527.75
55.3819	501.85
55.3964	517.84
55.4108	514.53
55.4252	566.19
55.4397	544.26
55.4541	499.19
55.4686	496.52
55.4830	496.89
55.4974	483.26
55.5119	497.36
55.5263	514.80
55.5408	516.05
55.5552	497.66
55.5696	532.74
55.5841	543.23
55.5985	542.21
55.6130	482.73
55.6274	525.60
55.6418	516.21
55.6563	511.39
55.6707	544.34
55.6852	507.31
55.6996	524.34
55.7140	530.74
55.7285	509.97
55.7429	498.81
55.7574	508.05
55.7718	530.01
55.7862	550.90
55.8007	497.89
55.8151	513.38
55.8296	532.99
55.8440	502.91
55.8584	520.40
55.8729	536.24
55.8873	513.27
55.9018	532.34
55.9162	536.66
55.9306	534.22
55.9451	562.44
55.9595	527.07
55.9740	510.07
55.9884	509.87
56.0028	529.33
56.0173	593.76
56.0317	535.76
56.0462	521.37
56.0606	501.99
56.0750	497.95
56.0895	533.98
56.1039	535.49
56.1184	527.27
56.1328	521.39
56.1472	503.28
56.1617	504.21
56.1761	512.56
56.1906	496.10
56.2050	537.74
56.2194	532.20
56.2339	530.69
56.2483	525.87
56.2628	500.32
56.2772	518.33
56.2916	506.02
56.3061	504.06
56.3205	515.26
56.3350	537.76
56.3494	557.25
56.3639	534.36
56.3783	496.64
56.3927	499.42
56.4072	515.54
56.4216	533.45
56.4361	548.84
56.4505	507.00
56.4649	507.79
56.4794	521.51
56.4938	528.32
56.5083	505.23
56.5227	518.71
56.5371	532.60
56.5516	520.47
56.5660	513.16
56.5805	516.18
56.5949	517.09
56.6093	527.95
56.6238	526.57
56.6382	508.60
56.6527	516.61
56.6671	524.43
56.6815	493.07
56.6960	532.90
56.7104	545.13
56.7249	516.04
56.7393	500.50
56.7537	533.38
56.7682	487.41
56.7826	510.73
56.7971	492.87
56.8115	502.87
56.8259	525.46
56.8404	524.47
56.8548	520.63
56.8693	495.09
56.8837	500.46
56.8981	571.00
56.9126	579.62
56.9270	525.33
56.9415	539.97
56.9559	509.43
56.9703	489.11
56.9848	539.30
56.9992	496.87
57.0137	511.14
57.0281	529.51
57.0425	492.91
57.0570	534.59
57.0714	544.13
57.0859	535.19
57.1003	511.36
57.1147	495.06
57.1292	540.82
57.1436	496.88
57.1581	510.51
57.1725	532.64
57.1869	498.82
57.2014	485.34
57.2158	493.04
57.2303	520.29
57.2447	555.74
57.2591	555.10
57.2736	524.41
57.2880	500.64
57.3025	506.74
57.3169	489.78
57.3313	525.38
57.3458	507.24
57.3602	513.52
57.3747	537.10
57.3891	535.26
57.4035	525.93
57.4180	531.07
57.4324	542.29
57.4469	523.81
57.4613	526.27
57.4757	514.53
57.4902	551.37
57.5046	512.87
57.5191	504.72
57.5335	508.04
57.5479	509.08
57.5624	555.53
57.5768	546.18
57.5913	529.42
57.6057	546.86
57.6201	534.46
57.6346	524.36
57.6490	515.83
57.6635	567.07
57.6779	506.43
57.6923	542.34
57.7068	541.62
57.7212	528.61
57.7357	560.22
57.7501	538.35
57.7645	519.62
57.7790	515.75
57.7934	526.69
57.8079	530.91
57.8223	542.48
57.8367	560.58
57.8512	540.74
57.8656	518.83
57.8801	494.62
57.8945	542.30
57.9089	556.97
57.9234	536.89
57.9378	573.20
57.9523	578.73
57.9667	559.75
57.9811	505.01
57.9956	537.57
58.0100	537.82
58.0245	551.19
58.0389	503.56
58.0533	539.43
58.0678	585.07
58.0822	581.36
58.0967	547.25
58.1111	542.25
58.1255	574.29
58.1400	578.71
58.1544	579.49
58.1689	607.75
58.1833	620.92
58.1977	591.24
58.2122	623.77
58.2266	633.39
58.2411	620.72
58.2555	611.42
58.2699	622.06
58.2844	650.89
58.2988	665.77
58.3133	631.69
58.3277	676.43
58.3421	661.92
58.3566	650.41
58.3710	655.45
58.3855	630.90
58.3999	644.58
58.4143	617.34
58.4288	640.73
58.4432	583.97
58.4577	577.94
58.4721	579.67
58.4865	604.14
58.5010	616.38
58.5154	576.96
58.5299	549.30
58.5443	576.08
58.5587	579.24
58.5732	582.54
58.5876	585.19
58.6021	593.34
58.6165	602.52
58.6309	556.24
58.6454	549.81
58.6598	595.54
58.6743	522.42
58.6887	531.11
58.7031	568.78
58.7176	556.65
58.7320	524.88
58.7465	541.11
58.7609	563.98
58.7753	534.84
58.7898	537.27
58.8042	523.42
58.8187	551.13
58.8331	530.12
58.8475	529.89
58.8620	549.06
58.8764	535.19
58.8909	541.82
58.9053	557.36
58.9197	553.56
58.9342	564.02
58.9486	541.14
58.9631	517.69
58.9775	556.12
58.9919	558.19
59.0064	517.54
59.0208	547.71
59.0353	547.92
59.0497	536.45
59.0641	571.01
59.0786	568.88
59.0930	549.68
59.1075	561.44
59.1219	532.53
59.1363	524.50
59.1508	532.26
59.1652	577.92
59.1797	567.08
59.1941	529.27
59.2085	525.42
59.2230	563.78
59.2374	545.87
59.2519	541.03
59.2663	548.35
59.2807	564.68
59.2952	532.46
59.3096	564.94
59.3241	598.58
59.3385	601.44
59.3529	553.63
59.3674	535.52
59.3818	526.40
59.3963	554.04
59.4107	550.49
59.4251	531.11
59.4396	546.05
59.4540	548.08
59.4685	578.12
59.4829	584.10
59.4973	591.42
59.5118	561.51
59.5262	549.87
59.5407	553.15
59.5551	532.00
59.5695	522.24
59.5840	528.49
59.5984	528.30
59.6129	516.55
59.6273	531.79
59.6417	547.30
59.6562	530.96
59.6706	552.36
59.6851	514.02
59.6995	517.98
59.7139	539.07
59.7284	526.00
59.7428	551.81
59.7573	561.46
59.7717	554.86
59.7861	563.90
59.8006	548.01
59.8150	548.80
59.8295	546.82
59.8439	549.21
59.8583	538.23
59.8728	564.05
59.8872	528.44
59.9017	548.03
59.9161	516.65
59.9305	560.89
59.9450	566.97
59.9594	607.90
59.9739	570.29
59.9883	531.19
60.0027	546.23
60.0172	529.88
60.0316	532.40
60.0461	526.89
60.0605	540.84
60.0750	514.41
60.0894	563.82
60.1038	524.41
60.1183	555.69
60.1327	554.53
60.1472	498.29
60.1616	506.82
60.1760	537.29
60.1905	549.12
60.2049	524.96
60.2194	526.15
60.2338	543.86
60.2482	524.18
60.2627	565.19
60.2771	531.83
60.2916	524.29
60.3060	545.43
60.3204	521.68
60.3349	520.97
60.3493	515.26
60.3638	552.76
60.3782	534.32
60.3926	503.06
60.4071	531.48
60.4215	596.03
60.4360	573.82
60.4504	500.87
60.4648	547.34
60.4793	539.33
60.4937	524.39
60.5082	511.80
60.5226	537.43
60.5370	531.28
60.5515	548.83
60.5659	539.53
60.5804	527.12
60.5948	535.73
60.6092	572.29
60.6237	570.92
60.6381	538.14
60.6526	540.56
60.6670	527.31
60.6814	533.93
60.6959	553.79
60.7103	553.11
60.7248	586.05
60.7392	538.55
60.7536	536.32
60.7681	530.14
60.7825	540.52
60.7970	536.18
60.8114	528.81
60.8258	527.49
60.8403	520.17
60.8547	566.97
60.8692	517.17
60.8836	528.27
60.8980	532.03
60.9125	542.26
60.9269	574.43
60.9414	561.68
60.9558	526.70
60.9702	537.03
60.9847	513.84
60.9991	516.91
61.0136	530.94
61.0280	553.71
61.0424	568.42
61.0569	578.07
61.0713	572.07
61.0858	543.78
61.1002	550.21
61.1146	554.98
61.1291	583.51
61.1435	541.60
61.1580	548.63
61.1724	579.40
61.1868	553.76
61.2013	518.21
61.2157	579.62
61.2302	538.05
61.2446	573.71
61.2590	534.96
61.2735	539.47
61.2879	536.27
61.3024	547.79
61.3168	558.51
61.3312	535.12
61.3457	546.97
61.3601	546.20
61.3746	555.59
61.3890	498.95
61.4034	529.90
61.4179	544.07
61.4323	552.88
61.4468	534.31
61.4612	566.41
61.4756	553.53
61.4901	535.92
61.5045	553.37
61.5190	517.63
61.5334	589.69
61.5478	558.60
61.5623	553.71
61.5767	497.53
61.5912	547.73
61.6056	591.93
61.6200	541.15
61.6345	545.74
61.6489	502.74
61.6634	543.20
61.6778	528.41
61.6922	516.44
61.7067	592.43
61.7211	580.21
61.7356	539.00
61.7500	565.86
61.7644	545.47
61.7789	581.53
61.7933	523.64
61.8078	540.37
61.8222	559.75
61.8366	530.95
61.8511	537.11
61.8655	560.08
61.8800	559.47
61.8944	562.61
61.9088	565.83
61.9233	523.62
61.9377	570.04
61.9522	579.05
61.9666	574.63
61.9810	591.28
61.9955	570.89
62.0099	541.84
62.0244	577.90
62.0388	557.53
62.0532	515.75
62.0677	501.33
62.0821	531.73
62.0966	584.42
62.1110	543.47
62.1254	549.22
62.1399	542.92
62.1543	569.79
62.1688	557.89
62.1832	589.97
62.1976	574.85
62.2121	569.32
62.2265	550.77
62.2410	544.58
62.2554	565.10
62.2698	559.31
62.2843	575.76
62.2987	570.37
62.3132	514.61
62.3276	520.73
62.3420	567.06
62.3565	552.56
62.3709	553.42
62.3854	545.61
62.3998	542.23
62.4142	544.89
62.4287	553.34
62.4431	531.91
62.4576	554.01
62.4720	586.33
62.4864	553.62
62.5009	544.35
62.5153	548.26
62.5298	551.09
62.5442	561.01
62.5586	566.55
62.5731	566.15
62.5875	551.33
62.6020	578.59
62.6164	564.42
62.6308	558.78
62.6453	552.36
62.6597	549.54
62.6742	551.93
62.6886	563.99
62.7030	562.59
62.7175	548.49
62.7319	539.66
62.7464	557.15
62.7608	544.44
62.7752	579.01
62.7897	573.97
62.8041	589.96
62.8186	591.17
62.8330	537.06
62.8474	548.02
62.8619	576.01
62.8763	564.27
62.8908	544.40
62.9052	574.04
62.9196	558.50
62.9341	547.85
62.9485	604.14
62.9630	583.98
62.9774	552.76
62.9918	546.83
63.0063	561.21
63.0207	554.87
63.0352	537.45
63.0496	568.15
63.0640	563.06
63.0785	549.39
63.0929	580.66
63.1074	574.08
63.1218	597.08
63.1362	588.94
63.1507	554.88
63.1651	597.04
63.1796	577.11
63.1940	578.77
63.2084	598.80
63.2229	574.61
63.2373	563.65
63.2518	532.03
63.2662	572.73
63.2806	557.63
63.2951	541.55
63.3095	565.27
63.3240	565.36
63.3384	600.90
63.3528	568.58
63.3673	566.18
63.3817	541.39
63.3962	531.82
63.4106	552.14
63.4250	597.79
63.4395	589.74
63.4539	578.86
63.4684	586.97
63.4828	611.09
63.4972	603.20
63.5117	577.29
63.5261	600.48
63.5406	588.73
63.5550	579.98
63.5694	577.62
63.5839	606.29
63.5983	590.21
63.6128	602.01
63.6272	602.05
63.6416	607.49
63.6561	589.18
63.6705	618.58
63.6850	622.26
63.6994	589.25
63.7138	617.78
63.7283	607.41
63.7427	601.44
63.7572	604.67
63.7716	639.73
63.7861	616.35
63.8005	574.57
63.8149	637.09
63.8294	642.23
63.8438	641.42
63.8583	684.27
63.8727	690.98
63.8871	662.43
63.9016	738.74
63.9160	718.28
63.9305	709.66
63.9449	764.49
63.9593	719.87
63.9738	684.50
63.9882	741.49
64.0027	780.36
64.0171	741.66
64.0315	737.38
64.0460	743.94
64.0604	749.19
64.0749	765.18
64.0893	796.64
64.1037	793.23
64.1182	743.90
64.1326	738.70
64.1471	731.75
64.1615	795.50
64.1759	779.61
64.1904	773.73
64.2048	728.75
64.2193	702.52
64.2337	754.82
64.2481	741.97
64.2626	740.68
64.2770	752.74
64.2915	763.40
64.3059	727.97
64.3203	720.07
64.3348	760.57
64.3492	685.38
64.3637	666.44
64.3781	703.17
64.3925	688.08
64.4070	660.98
64.4214	664.38
64.4359	642.35
64.4503	628.07
64.4647	642.06
64.4792	667.65
64.4936	675.46
64.5081	656.32
64.5225	645.57
64.5369	644.77
64.5514	643.39
64.5658	646.57
64.5803	660.75
64.5947	642.79
64.6091	663.65
64.6236	654.68
64.6380	672.52
64.6525	643.84
64.6669	639.32
64.6813	649.95
64.6958	650.57
64.7102	741.25
64.7247	702.90
64.7391	684.06
64.7535	712.92
64.7680	731.10
64.7824	744.42
64.7969	708.52
64.8113	761.29
64.8257	764.93
64.8402	793.82
64.8546	817.40
64.8691	805.22
64.8835	803.43
64.8979	877.02
64.9124	873.70
64.9268	897.58
64.9413	898.91
64.9557	897.73
64.9701	982.95
64.9846	1053.91
64.9990	1155.71
65.0135	1256.22
65.0279	1317.32
65.0423	1675.46
65.0568	1975.93
65.0712	2431.34
65.0857	3259.39
65.1001	4226.78
65.1145	5863.96
65.1290	7736.31
65.1434	9303.85
65.1579	10810.84
65.1723	11651.55
65.1867	11285.55
65.2012	10075.59
65.2156	8489.47
65.2301	6762.71
65.2445	5355.78
65.2589	4542.19
65.2734	4191.91
65.2878	4378.97
65.3023	4742.07
65.3167	5636.79
65.3311	6374.52
65.3456	7020.06
65.3600	6908.03
65.3745	6536.60
65.3889	5349.86
65.4033	4484.74
65.4178	3538.08
65.4322	2778.30
65.4467	2110.20
65.4611	1761.39
65.4755	1501.18
65.4900	1302.16
65.5044	1132.05
65.5189	1077.35
65.5333	1000.39
65.5477	947.61
65.5622	901.87
65.5766	875.91
65.5911	810.77
65.6055	807.41
65.6199	779.20
65.6344	793.98
65.6488	746.24
65.6633	748.24
65.6777	730.28
65.6921	695.37
65.7066	737.22
65.7210	708.12
65.7355	706.70
65.7499	698.01
65.7643	683.22
65.7788	685.39
65.7932	656.75
65.8077	693.29
65.8221	652.23
65.8365	650.50
65.8510	668.80
65.8654	674.23
65.8799	670.68
65.8943	643.22
65.9087	622.17
65.9232	638.91
65.9376	628.17
65.9521	632.03
65.9665	656.87
65.9809	640.83
65.9954	621.46
66.0098	652.09
66.0243	632.18
66.0387	637.55
66.0531	587.82
66.0676	604.06
66.0820	597.68
66.0965	658.44
66.1109	637.02
66.1253	611.71
66.1398	636.23
66.1542	621.12
66.1687	604.60
66.1831	634.41
66.1975	621.31
66.2120	615.08
66.2264	587.30
66.2409	621.34
66.2553	633.75
66.2697	638.15
66.2842	621.16
66.2986	605.79
66.3131	626.24
66.3275	613.35
66.3419	584.21
66.3564	554.18
66.3708	596.36
66.3853	633.74
66.3997	583.57
66.4141	578.46
66.4286	606.95
66.4430	573.30
66.4575	597.99
66.4719	587.54
66.4863	605.85
66.5008	570.67
66.5152	594.70
66.5297	595.31
66.5441	617.58
66.5585	638.45
66.5730	586.88
66.5874	596.82
66.6019	621.17
66.6163	615.20
66.6307	612.15
66.6452	588.24
66.6596	611.86
66.6741	607.67
66.6885	605.06
66.7029	602.74
66.7174	568.73
66.7318	593.60
66.7463	613.02
66.7607	563.69
66.7751	558.69
66.7896	555.75
66.8040	582.75
66.8185	602.91
66.8329	583.94
66.8473	576.15
66.8618	600.30
66.8762	612.28
66.8907	612.87
66.9051	589.65
66.9195	564.84
66.9340	578.87
66.9484	612.69
66.9629	588.61
66.9773	585.74
66.9917	571.28
67.0062	585.54
67.0206	590.36
67.0351	573.83
67.0495	559.72
67.0639	543.25
67.0784	578.42
67.0928	604.03
67.1073	572.99
67.1217	590.76
67.1361	595.08
67.1506	539.32
67.1650	590.42
67.1795	564.83
67.1939	561.75
67.2083	567.99
67.2228	552.09
67.2372	560.21
67.2517	576.79
67.2661	551.43
67.2805	540.49
67.2950	548.46
67.3094	540.61
67.3239	599.09
67.3383	557.99
67.3527	576.55
67.3672	572.87
67.3816	570.72
67.3961	577.39
67.4105	550.72
67.4250	605.66
67.4394	586.69
67.4538	564.87
67.4683	558.46
67.4827	593.22
67.4972	587.29
67.5116	564.70
67.5260	575.29
67.5405	580.78
67.5549	603.39
67.5694	616.65
67.5838	595.45
67.5982	578.23
67.6127	572.95
67.6271	565.71
67.6416	599.57
67.6560	581.24
67.6704	570.70
67.6849	586.81
67.6993	598.80
67.7138	575.05
67.7282	581.38
67.7426	587.75
67.7571	599.16
67.7715	557.92
67.7860	553.38
67.8004	560.68
67.8148	575.80
67.8293	554.85
67.8437	556.76
67.8582	581.45
67.8726	582.95
67.8870	559.37
67.9015	567.34
67.9159	561.62
67.9304	573.35
67.9448	634.24
67.9592	616.13
67.9737	598.85
67.9881	586.36
68.0026	574.19
68.0170	517.98
68.0314	558.76
68.0459	559.97
68.0603	548.87
68.0748	599.11
68.0892	577.17
68.1036	577.79
68.1181	596.90
68.1325	609.13
68.1470	567.91
68.1614	536.49
68.1758	575.21
68.1903	586.24
68.2047	596.93
68.2192	580.92
68.2336	596.73
68.2480	550.21
68.2625	565.41
68.2769	568.98
68.2914	595.65
68.3058	603.94
68.3202	571.68
68.3347	588.57
68.3491	563.89
68.3636	570.99
68.3780	548.47
68.3924	548.64
68.4069	583.86
68.4213	583.68
68.4358	615.37
68.4502	601.07
68.4646	587.73
68.4791	570.92
68.4935	594.05
68.5080	538.78
68.5224	532.50
68.5368	571.33
68.5513	597.13
68.5657	566.46
68.5802	560.75
68.5946	582.75
68.6090	542.13
68.6235	529.88
68.6379	592.55
68.6524	543.05
68.6668	612.37
68.6812	594.24
68.6957	591.14
68.7101	590.33
68.7246	545.10
68.7390	567.53
68.7534	590.49
68.7679	581.84
68.7823	582.09
68.7968	586.42
68.8112	586.24
68.8256	588.87
68.8401	548.11
68.8545	559.62
68.8690	575.77
68.8834	560.05
68.8978	554.47
68.9123	565.45
68.9267	590.24
68.9412	595.40
68.9556	580.12
68.9700	601.25
68.9845	588.13
68.9989	561.90
69.0134	535.43
69.0278	532.12
69.0422	577.21
69.0567	598.88
69.0711	561.26
69.0856	577.05
69.1000	588.03
69.1144	606.25
69.1289	626.47
69.1433	618.99
69.1578	566.87
69.1722	588.20
69.1866	582.64
69.2011	529.50
69.2155	586.49
69.2300	589.32
69.2444	542.19
69.2588	569.86
69.2733	619.50
69.2877	577.43
69.3022	551.22
69.3166	583.11
69.3310	582.31
69.3455	589.69
69.3599	572.48
69.3744	606.06
69.3888	581.15
69.4032	574.35
69.4177	555.50
69.4321	600.63
69.4466	551.37
69.4610	576.87
69.4754	567.77
69.4899	605.70
69.5043	603.37
69.5188	557.36
69.5332	597.34
69.5476	555.83
69.5621	604.80
69.5765	549.92
69.5910	564.60
69.6054	557.14
69.6198	594.67
69.6343	621.63
69.6487	597.79
69.6632	651.89
69.6776	562.16
69.6920	541.96
69.7065	572.19
69.7209	581.51
69.7354	569.45
69.7498	610.54
69.7642	561.83
69.7787	568.43
69.7931	607.79
69.8076	566.08
69.8220	531.56
69.8364	569.45
69.8509	594.76
69.8653	538.36
69.8798	612.24
69.8942	625.13
69.9086	614.22
69.9231	543.50
69.9375	554.80
69.9520	554.76
69.9664	527.62
69.9808	503.15
69.9953	553.41
70.0097	555.82
70.0242	547.17
70.0386	580.10
70.0530	579.61
70.0675	614.65
70.0819	594.61
70.0964	591.04
70.1108	563.48
70.1252	540.94
70.1397	608.63
70.1541	594.46
70.1686	608.56
70.1830	600.61
70.1974	517.55
70.2119	586.40
70.2263	569.75
70.2408	559.21
70.2552	575.45
70.2696	632.08
70.2841	581.07
70.2985	528.04
70.3130	583.10
70.3274	579.96
70.3418	610.86
70.3563	561.61
70.3707	586.09
70.3852	553.22
70.3996	571.27
70.4140	598.53
70.4285	648.51
70.4429	628.26
70.4574	563.14
70.4718	585.88
70.4862	574.67
70.5007	571.84
70.5151	606.55
70.5296	586.92
70.5440	538.10
70.5584	562.87
70.5729	551.10
70.5873	520.59
70.6018	544.70
70.6162	598.97
70.6306	580.98
70.6451	550.04
70.6595	575.42
70.6740	614.22
70.6884	519.03
70.7028	572.63
70.7173	585.79
70.7317	600.28
70.7462	570.38
70.7606	517.24
70.7750	587.66
70.7895	596.48
70.8039	619.21
70.8184	628.76
70.8328	584.33
70.8472	562.99
70.8617	571.61
70.8761	549.69
70.8906	563.65
70.9050	542.12
70.9194	564.61
70.9339	642.57
70.9483	622.39
70.9628	572.79
70.9772	586.13
70.9916	572.70
71.0061	571.70
71.0205	614.56
71.0350	616.98
71.0494	554.18
71.0638	577.18
71.0783	614.28
71.0927	594.84
71.1072	622.82
71.1216	601.31
71.1361	553.74
71.1505	567.43
71.1649	557.45
71.1794	599.09
71.1938	595.05
71.2083	589.42
71.2227	577.43
71.2371	591.43
71.2516	582.26
71.2660	583.35
71.2805	584.18
71.2949	530.30
71.3093	512.28
71.3238	569.94
71.3382	616.61
71.3527	573.91
71.3671	581.64
71.3815	566.80
71.3960	546.64
71.4104	546.79
71.4249	581.55
71.4393	626.02
71.4537	595.74
71.4682	585.59
71.4826	580.04
71.4971	589.59
71.5115	570.49
71.5259	531.85
71.5404	582.54
71.5548	595.66
71.5693	573.34
71.5837	577.75
71.5981	539.96
71.6126	551.07
71.6270	617.13
71.6415	590.07
71.6559	542.57
71.6703	546.10
71.6848	553.41
71.6992	571.31
71.7137	593.04
71.7281	519.44
71.7425	508.96
71.7570	555.80
71.7714	594.37
71.7859	584.46
71.8003	586.20
71.8147	572.57
71.8292	598.87
71.8436	630.83
71.8581	620.81
71.8725	584.40
71.8869	555.80
71.9014	643.84
71.9158	662.56
71.9303	549.59
71.9447	573.73
71.9591	574.82
71.9736	539.00
71.9880	594.12
72.0025	644.92
72.0169	591.58
72.0313	484.87
72.0458	518.71
72.0602	631.87
72.0747	578.73
72.0891	599.74
72.1035	637.51
72.1180	574.83
72.1324	593.25
72.1469	579.34
72.1613	521.07
72.1757	524.19
72.1902	587.43
72.2046	542.99
72.2191	546.34
72.2335	524.80
72.2479	492.19
72.2624	500.76
72.2768	519.97
72.2913	570.92
72.3057	600.34
72.3201	536.85
72.3346	551.77
72.3490	563.94
72.3635	535.16
72.3779	575.70
72.3923	595.44
72.4068	579.81
72.4212	598.37
72.4357	598.88
72.4501	563.34
72.4645	567.47
72.4790	600.44
72.4934	615.57
72.5079	616.20
72.5223	564.24
72.5367	513.97
72.5512	526.07
72.5656	601.01
72.5801	604.18
72.5945	522.07
72.6089	511.83
72.6234	539.86
72.6378	555.15
72.6523	538.60
72.6667	562.34
72.6811	528.74
72.6956	555.30
72.7100	606.73
72.7245	559.10
72.7389	574.02
72.7533	576.17
72.7678	618.44
72.7822	640.99
72.7967	606.79
72.8111	673.07
72.8255	622.16
72.8400	542.09
72.8544	562.30
72.8689	549.74
72.8833	546.34