2022.09.19 19:37:17
Îáðàçåö: ß÷åéêà LCoV 16-09-2022
Lambda1 = 1.54060
Lambda2 = 1.54439
Lambdam = 1.54186
R = 0.497
2Theta	I

line¹ 0 ;repeat¹ 0
22.1120	662.37
22.1264	708.54
22.1409	647.04
22.1553	553.08
22.1697	645.70
22.1842	591.19
22.1986	603.85
22.2131	588.52
22.2275	540.20
22.2419	521.80
22.2564	526.80
22.2708	562.84
22.2853	576.98
22.2997	560.97
22.3141	629.53
22.3286	611.87
22.3430	589.67
22.3575	587.33
22.3719	547.08
22.3863	529.88
22.4008	537.48
22.4152	502.67
22.4297	579.29
22.4441	525.63
22.4585	558.99
22.4730	584.62
22.4874	679.40
22.5019	640.68
22.5163	606.19
22.5307	577.79
22.5452	554.11
22.5596	565.07
22.5741	667.54
22.5885	534.52
22.6029	510.01
22.6174	506.97
22.6318	577.46
22.6463	603.98
22.6607	542.88
22.6751	605.60
22.6896	611.87
22.7040	564.86
22.7185	561.04
22.7329	555.35
22.7473	476.22
22.7618	514.97
22.7762	547.97
22.7907	545.77
22.8051	509.65
22.8195	609.71
22.8340	618.09
22.8484	595.26
22.8629	611.11
22.8773	603.65
22.8917	529.13
22.9062	557.84
22.9206	521.96
22.9351	465.83
22.9495	481.48
22.9639	523.41
22.9784	506.08
22.9928	503.27
23.0073	507.20
23.0217	561.70
23.0361	566.49
23.0506	471.48
23.0650	580.17
23.0795	528.83
23.0939	557.27
23.1083	572.64
23.1228	583.20
23.1372	685.83
23.1517	578.03
23.1661	553.86
23.1806	562.64
23.1950	531.28
23.2094	464.70
23.2239	538.51
23.2383	517.95
23.2528	582.52
23.2672	478.76
23.2816	530.52
23.2961	552.19
23.3105	562.94
23.3250	622.75
23.3394	618.27
23.3538	600.73
23.3683	504.60
23.3827	556.56
23.3972	568.63
23.4116	581.66
23.4260	667.99
23.4405	559.51
23.4549	510.81
23.4694	475.39
23.4838	518.63
23.4982	516.61
23.5127	511.94
23.5271	573.89
23.5416	515.61
23.5560	605.82
23.5704	566.44
23.5849	555.13
23.5993	576.95
23.6138	517.61
23.6282	570.05
23.6426	534.16
23.6571	550.12
23.6715	479.08
23.6860	524.35
23.7004	546.51
23.7148	597.19
23.7293	556.33
23.7437	614.06
23.7582	543.90
23.7726	556.79
23.7870	615.92
23.8015	539.25
23.8159	610.24
23.8304	597.84
23.8448	517.44
23.8592	598.91
23.8737	603.50
23.8881	490.25
23.9026	601.34
23.9170	609.64
23.9314	501.49
23.9459	549.63
23.9603	514.35
23.9748	580.45
23.9892	528.85
24.0036	505.69
24.0181	557.32
24.0325	544.40
24.0470	559.75
24.0614	565.37
24.0758	537.91
24.0903	530.94
24.1047	595.37
24.1192	621.11
24.1336	588.23
24.1480	525.12
24.1625	578.74
24.1769	535.98
24.1914	602.35
24.2058	576.33
24.2202	577.93
24.2347	577.00
24.2491	646.27
24.2636	545.25
24.2780	576.17
24.2924	569.52
24.3069	581.30
24.3213	509.66
24.3358	610.69
24.3502	566.89
24.3646	567.26
24.3791	554.65
24.3935	475.60
24.4080	514.78
24.4224	593.82
24.4368	532.98
24.4513	538.81
24.4657	560.65
24.4802	559.40
24.4946	543.75
24.5090	572.34
24.5235	516.58
24.5379	503.70
24.5524	518.81
24.5668	559.61
24.5812	532.39
24.5957	554.85
24.6101	543.43
24.6246	544.28
24.6390	579.08
24.6534	530.61
24.6679	552.93
24.6823	523.32
24.6968	548.28
24.7112	582.24
24.7256	543.05
24.7401	516.65
24.7545	567.62
24.7690	561.63
24.7834	571.21
24.7978	511.24
24.8123	561.90
24.8267	530.70
24.8412	530.13
24.8556	525.24
24.8700	554.16
24.8845	561.55
24.8989	536.18
24.9134	558.09
24.9278	538.34
24.9422	600.72
24.9567	545.58
24.9711	504.98
24.9856	536.53
25.0000	494.52
25.0144	521.69
25.0289	557.38
25.0433	504.83
25.0578	569.60
25.0722	506.91
25.0866	572.90
25.1011	564.82
25.1155	540.94
25.1300	532.21
25.1444	481.38
25.1588	561.65
25.1733	591.10
25.1877	562.69
25.2022	541.26
25.2166	543.42
25.2310	558.60
25.2455	560.72
25.2599	518.49
25.2744	550.47
25.2888	553.24
25.3032	555.50
25.3177	539.96
25.3321	524.91
25.3466	539.19
25.3610	558.21
25.3754	560.26
25.3899	523.82
25.4043	508.09
25.4188	532.79
25.4332	556.76
25.4476	535.34
25.4621	552.27
25.4765	537.03
25.4910	542.73
25.5054	512.14
25.5198	499.60
25.5343	536.95
25.5487	513.87
25.5632	534.64
25.5776	563.27
25.5920	581.09
25.6065	547.95
25.6209	541.91
25.6354	523.62
25.6498	560.41
25.6642	562.79
25.6787	530.93
25.6931	535.64
25.7076	579.69
25.7220	583.44
25.7364	527.57
25.7509	513.83
25.7653	499.36
25.7798	514.53
25.7942	515.32
25.8086	501.55
25.8231	556.46
25.8375	515.12
25.8520	549.24
25.8664	556.30
25.8808	517.01
25.8953	548.32
25.9097	524.74
25.9242	528.71
25.9386	522.31
25.9530	523.99
25.9675	527.20
25.9819	542.46
25.9964	549.66
26.0108	562.68
26.0252	517.64
26.0397	512.63
26.0541	549.28
26.0686	542.81
26.0830	560.51
26.0974	549.10
26.1119	550.59
26.1263	548.13
26.1408	513.82
26.1552	531.50
26.1696	526.42
26.1841	520.97
26.1985	534.91
26.2130	524.13
26.2274	546.55
26.2418	552.57
26.2563	533.15
26.2707	519.52
26.2852	519.48
26.2996	504.90
26.3140	539.64
26.3285	516.30
26.3429	534.84
26.3574	544.12
26.3718	526.56
26.3862	482.09
26.4007	502.11
26.4151	538.72
26.4296	559.66
26.4440	507.09
26.4584	511.49
26.4729	538.14
26.4873	507.67
26.5018	500.61
26.5162	517.34
26.5306	561.97
26.5451	556.48
26.5595	522.20
26.5740	511.49
26.5884	537.43
26.6028	533.91
26.6173	528.28
26.6317	512.49
26.6462	516.95
26.6606	551.12
26.6750	525.71
26.6895	517.24
26.7039	550.64
26.7184	545.24
26.7328	504.82
26.7472	501.88
26.7617	519.01
26.7761	511.23
26.7906	478.34
26.8050	496.33
26.8194	546.74
26.8339	543.94
26.8483	519.98
26.8628	538.70
26.8772	509.49
26.8917	513.21
26.9061	537.69
26.9205	546.63
26.9350	527.01
26.9494	527.69
26.9639	497.29
26.9783	508.65
26.9927	539.52
27.0072	515.62
27.0216	514.87
27.0361	517.61
27.0505	526.56
27.0649	539.34
27.0794	537.48
27.0938	529.15
27.1083	526.62
27.1227	537.10
27.1371	490.45
27.1516	503.88
27.1660	536.08
27.1805	508.83
27.1949	538.81
27.2093	492.75
27.2238	486.89
27.2382	507.94
27.2527	506.02
27.2671	512.95
27.2815	547.72
27.2960	521.48
27.3104	502.46
27.3249	522.18
27.3393	533.34
27.3537	521.82
27.3682	498.10
27.3826	502.99
27.3971	511.64
27.4115	470.47
27.4259	494.43
27.4404	485.30
27.4548	549.09
27.4693	569.73
27.4837	533.79
27.4981	502.72
27.5126	505.79
27.5270	517.01
27.5415	508.65
27.5559	529.94
27.5703	541.71
27.5848	546.09
27.5992	530.37
27.6137	514.89
27.6281	493.76
27.6425	499.72
27.6570	488.65
27.6714	515.04
27.6859	484.49
27.7003	539.79
27.7147	549.09
27.7292	512.74
27.7436	507.00
27.7581	505.72
27.7725	493.32
27.7869	513.22
27.8014	498.44
27.8158	516.95
27.8303	518.78
27.8447	513.26
27.8591	523.12
27.8736	517.43
27.8880	486.98
27.9025	498.10
27.9169	490.60
27.9313	485.04
27.9458	513.20
27.9602	505.59
27.9747	540.02
27.9891	523.40
28.0035	517.58
28.0180	474.65
28.0324	499.35
28.0469	504.69
28.0613	542.64
28.0757	519.34
28.0902	533.65
28.1046	495.84
28.1191	513.64
28.1335	508.26
28.1479	508.63
28.1624	511.91
28.1768	536.83
28.1913	515.76
28.2057	528.74
28.2201	528.10
28.2346	481.52
28.2490	529.49
28.2635	504.17
28.2779	504.19
28.2923	484.71
28.3068	511.63
28.3212	522.07
28.3357	540.80
28.3501	520.13
28.3645	531.88
28.3790	531.59
28.3934	510.51
28.4079	531.34
28.4223	526.77
28.4367	515.46
28.4512	480.63
28.4656	505.92
28.4801	513.16
28.4945	538.94
28.5089	525.32
28.5234	482.55
28.5378	521.67
28.5523	508.11
28.5667	525.80
28.5811	508.48
28.5956	508.62
28.6100	535.37
28.6245	517.81
28.6389	507.49
28.6533	531.57
28.6678	518.23
28.6822	519.14
28.6967	531.75
28.7111	505.60
28.7255	531.00
28.7400	486.45
28.7544	522.17
28.7689	483.05
28.7833	505.69
28.7977	493.22
28.8122	518.13
28.8266	511.03
28.8411	504.78
28.8555	515.29
28.8699	532.05
28.8844	519.46
28.8988	491.54
28.9133	528.56
28.9277	531.65
28.9421	511.61
28.9566	520.86
28.9710	536.18
28.9855	491.85
28.9999	468.14
29.0143	474.02
29.0288	509.53
29.0432	513.56
29.0577	528.02
29.0721	525.96
29.0865	539.88
29.1010	520.17
29.1154	530.00
29.1299	530.02
29.1443	461.51
29.1587	512.49
29.1732	502.60
29.1876	493.38
29.2021	484.35
29.2165	537.07
29.2309	533.37
29.2454	482.22
29.2598	506.03
29.2743	518.80
29.2887	468.21
29.3031	512.72
29.3176	486.51
29.3320	525.72
29.3465	496.69
29.3609	517.93
29.3753	550.04
29.3898	513.01
29.4042	520.46
29.4187	520.19
29.4331	501.98
29.4475	475.29
29.4620	507.57
29.4764	512.70
29.4909	520.39
29.5053	525.94
29.5197	520.52
29.5342	507.97
29.5486	500.26
29.5631	501.19
29.5775	518.46
29.5919	537.02
29.6064	524.00
29.6208	507.25
29.6353	517.97
29.6497	496.83
29.6641	484.07
29.6786	478.79
29.6930	495.64
29.7075	508.46
29.7219	491.19
29.7363	496.39
29.7508	490.37
29.7652	469.97
29.7797	514.42
29.7941	495.87
29.8085	492.03
29.8230	531.60
29.8374	545.41
29.8519	497.75
29.8663	513.66
29.8807	505.25
29.8952	510.89
29.9096	542.15
29.9241	519.97
29.9385	505.19
29.9529	493.62
29.9674	504.44
29.9818	514.42
29.9963	480.57
30.0107	487.62
30.0251	497.76
30.0396	518.86
30.0540	505.19
30.0685	514.73
30.0829	517.86
30.0973	531.52
30.1118	492.96
30.1262	493.25
30.1407	502.59
30.1551	501.95
30.1695	481.29
30.1840	485.16
30.1984	504.96
30.2129	536.90
30.2273	539.93
30.2417	512.96
30.2562	474.93
30.2706	497.84
30.2851	536.36
30.2995	503.03
30.3139	465.65
30.3284	512.67
30.3428	491.50
30.3573	478.06
30.3717	541.21
30.3861	510.60
30.4006	483.77
30.4150	500.24
30.4295	489.48
30.4439	491.21
30.4583	511.71
30.4728	525.64
30.4872	527.76
30.5017	522.63
30.5161	507.22
30.5305	503.56
30.5450	501.05
30.5594	552.59
30.5739	520.65
30.5883	534.99
30.6028	526.38
30.6172	532.95
30.6316	527.73
30.6461	537.16
30.6605	574.75
30.6750	576.64
30.6894	556.77
30.7038	619.38
30.7183	615.65
30.7327	642.13
30.7472	673.90
30.7616	629.80
30.7760	661.22
30.7905	668.77
30.8049	724.64
30.8194	712.24
30.8338	706.07
30.8482	631.99
30.8627	671.67
30.8771	623.66
30.8916	592.41
30.9060	603.14
30.9204	622.86
30.9349	577.75
30.9493	527.06
30.9638	539.85
30.9782	517.53
30.9926	529.47
31.0071	510.90
31.0215	519.80
31.0360	515.17
31.0504	513.12
31.0648	520.54
31.0793	516.49
31.0937	554.11
31.1082	519.55
31.1226	507.95
31.1370	485.22
31.1515	489.92
31.1659	517.65
31.1804	518.18
31.1948	508.82
31.2092	534.46
31.2237	511.19
31.2381	537.95
31.2526	572.11
31.2670	545.93
31.2814	520.39
31.2959	529.17
31.3103	520.03
31.3248	528.39
31.3392	553.08
31.3536	532.54
31.3681	530.18
31.3825	534.69
31.3970	536.84
31.4114	531.33
31.4258	537.60
31.4403	471.49
31.4547	484.28
31.4692	517.63
31.4836	552.39
31.4980	529.47
31.5125	499.26
31.5269	479.84
31.5414	513.40
31.5558	532.82
31.5702	521.31
31.5847	486.55
31.5991	511.15
31.6136	514.75
31.6280	522.46
31.6424	512.62
31.6569	518.36
31.6713	463.29
31.6858	468.50
31.7002	514.07
31.7146	520.85
31.7291	491.61
31.7435	473.44
31.7580	508.71
31.7724	514.40
31.7868	517.19
31.8013	538.81
31.8157	502.20
31.8302	492.58
31.8446	508.98
31.8590	535.36
31.8735	526.14
31.8879	498.74
31.9024	497.60
31.9168	528.56
31.9312	506.22
31.9457	508.47
31.9601	494.27
31.9746	486.88
31.9890	506.90
32.0034	503.01
32.0179	502.92
32.0323	540.70
32.0468	515.68
32.0612	491.90
32.0756	490.91
32.0901	535.71
32.1045	500.18
32.1190	511.82
32.1334	535.11
32.1478	504.80
32.1623	514.40
32.1767	503.38
32.1912	509.46
32.2056	505.03
32.2200	511.22
32.2345	532.64
32.2489	531.74
32.2634	475.54
32.2778	490.35
32.2922	536.69
32.3067	485.51
32.3211	489.65
32.3356	498.71
32.3500	517.34
32.3644	485.35
32.3789	489.22
32.3933	509.86
32.4078	494.98
32.4222	508.85
32.4366	500.11
32.4511	496.05
32.4655	519.72
32.4800	509.03
32.4944	462.54
32.5088	499.82
32.5233	452.01
32.5377	496.55
32.5522	498.43
32.5666	515.57
32.5810	514.00
32.5955	523.25
32.6099	473.46
32.6244	485.71
32.6388	487.64
32.6532	494.03
32.6677	487.09
32.6821	488.63
32.6966	482.84
32.7110	495.54
32.7254	487.15
32.7399	505.50
32.7543	524.03
32.7688	523.10
32.7832	521.76
32.7976	502.20
32.8121	486.10
32.8265	496.16
32.8410	497.50
32.8554	499.97
32.8698	484.10
32.8843	487.99
32.8987	532.63
32.9132	510.70
32.9276	492.83
32.9420	532.03
32.9565	502.52
32.9709	486.28
32.9854	521.71
32.9998	481.58
33.0142	484.09
33.0287	548.30
33.0431	529.94
33.0576	527.38
33.0720	567.88
33.0864	514.45
33.1009	493.58
33.1153	490.75
33.1298	524.96
33.1442	530.20
33.1586	519.63
33.1731	518.18
33.1875	515.69
33.2020	481.82
33.2164	477.04
33.2308	494.36
33.2453	542.29
33.2597	510.92
33.2742	515.04
33.2886	548.02
33.3030	488.70
33.3175	487.52
33.3319	503.00
33.3464	496.70
33.3608	512.35
33.3752	507.75
33.3897	527.21
33.4041	513.61
33.4186	527.76
33.4330	549.35
33.4474	494.74
33.4619	500.16
33.4763	554.01
33.4908	524.03
33.5052	472.11
33.5196	513.48
33.5341	499.99
33.5485	506.67
33.5630	520.91
33.5774	482.35
33.5918	502.70
33.6063	521.92
33.6207	494.14
33.6352	514.82
33.6496	522.78
33.6640	527.34
33.6785	500.27
33.6929	492.62
33.7074	515.99
33.7218	506.91
33.7362	489.98
33.7507	472.65
33.7651	476.06
33.7796	515.50
33.7940	494.16
33.8084	501.62
33.8229	490.21
33.8373	509.00
33.8518	489.99
33.8662	515.02
33.8806	483.19
33.8951	464.66
33.9095	518.87
33.9240	486.71
33.9384	496.37
33.9528	496.54
33.9673	524.62
33.9817	509.78
33.9962	520.05
34.0106	475.10
34.0250	471.11
34.0395	511.51
34.0539	515.11
34.0684	514.94
34.0828	547.79
34.0972	507.39
34.1117	488.50
34.1261	500.95
34.1406	517.77
34.1550	515.22
34.1694	507.70
34.1839	503.76
34.1983	504.56
34.2128	467.26
34.2272	506.51
34.2417	498.49
34.2561	508.74
34.2705	504.36
34.2850	508.43
34.2994	483.80
34.3139	485.51
34.3283	514.48
34.3427	517.20
34.3572	513.61
34.3716	517.72
34.3861	504.51
34.4005	475.35
34.4149	516.60
34.4294	499.68
34.4438	486.96
34.4583	505.07
34.4727	532.74
34.4871	515.61
34.5016	500.92
34.5160	502.83
34.5305	509.58
34.5449	489.49
34.5593	519.66
34.5738	497.77
34.5882	483.72
34.6027	501.50
34.6171	500.57
34.6315	495.16
34.6460	492.02
34.6604	502.00
34.6749	513.13
34.6893	500.83
34.7037	518.39
34.7182	509.16
34.7326	490.73
34.7471	505.28
34.7615	504.67
34.7759	473.15
34.7904	493.14
34.8048	483.19
34.8193	500.65
34.8337	512.06
34.8481	494.54
34.8626	516.49
34.8770	477.95
34.8915	508.82
34.9059	513.41
34.9203	509.32
34.9348	521.74
34.9492	492.11
34.9637	468.59
34.9781	501.85
34.9925	492.93
35.0070	516.51
35.0214	523.64
35.0359	507.04
35.0503	518.60
35.0647	537.46
35.0792	516.57
35.0936	552.35
35.1081	551.50
35.1225	520.33
35.1369	527.67
35.1514	489.67
35.1658	519.38
35.1803	505.43
35.1947	503.85
35.2091	483.50
35.2236	511.15
35.2380	489.88
35.2525	487.99
35.2669	487.78
35.2813	490.52
35.2958	498.12
35.3102	528.46
35.3247	500.21
35.3391	530.07
35.3535	525.73
35.3680	523.33
35.3824	515.89
35.3969	506.33
35.4113	500.50
35.4257	531.54
35.4402	526.02
35.4546	513.46
35.4691	507.69
35.4835	518.93
35.4979	511.92
35.5124	502.69
35.5268	532.54
35.5413	570.11
35.5557	579.40
35.5701	547.09
35.5846	517.45
35.5990	513.62
35.6135	516.09
35.6279	546.03
35.6423	498.29
35.6568	528.98
35.6712	543.45
35.6857	616.48
35.7001	689.73
35.7145	779.44
35.7290	659.78
35.7434	611.39
35.7579	624.03
35.7723	578.79
35.7867	664.27
35.8012	684.94
35.8156	713.18
35.8301	668.37
35.8445	645.45
35.8589	621.79
35.8734	735.20
35.8878	877.84
35.9023	997.26
35.9167	974.12
35.9311	1270.85
35.9456	1960.37
35.9600	2245.30
35.9745	1967.34
35.9889	1983.76
36.0033	2746.03
36.0178	3272.37
36.0322	2629.93
36.0467	1972.16
36.0611	1733.92
36.0755	1564.16
36.0900	1677.54
36.1044	1375.23
36.1189	1409.88
36.1333	1417.89
36.1477	1248.13
36.1622	1241.63
36.1766	1117.56
36.1911	1104.94
36.2055	1062.11
36.2199	1098.27
36.2344	983.28
36.2488	999.82
36.2633	983.66
36.2777	972.51
36.2921	949.24
36.3066	986.83
36.3210	883.68
36.3355	884.22
36.3499	813.68
36.3643	793.07
36.3788	755.43
36.3932	746.59
36.4077	701.18
36.4221	682.21
36.4365	670.26
36.4510	580.61
36.4654	605.26
36.4799	598.36
36.4943	559.54
36.5087	602.72
36.5232	546.23
36.5376	554.99
36.5521	589.55
36.5665	593.50
36.5809	557.83
36.5954	539.69
36.6098	532.25
36.6243	570.84
36.6387	567.32
36.6531	551.49
36.6676	569.60
36.6820	565.57
36.6965	548.28
36.7109	538.21
36.7253	532.46
36.7398	529.19
36.7542	533.27
36.7687	509.65
36.7831	532.76
36.7975	551.06
36.8120	576.44
36.8264	571.07
36.8409	615.54
36.8553	606.68
36.8697	594.03
36.8842	566.79
36.8986	599.24
36.9131	583.39
36.9275	538.30
36.9419	601.21
36.9564	543.02
36.9708	573.67
36.9853	558.18
36.9997	535.62
37.0141	523.90
37.0286	541.48
37.0430	515.99
37.0575	502.97
37.0719	534.03
37.0863	560.21
37.1008	493.12
37.1152	518.20
37.1297	519.95
37.1441	532.74
37.1585	503.13
37.1730	509.61
37.1874	485.64
37.2019	508.62
37.2163	523.73
37.2307	520.95
37.2452	537.66
37.2596	497.25
37.2741	505.60
37.2885	550.84
37.3029	512.82
37.3174	518.85
37.3318	556.23
37.3463	539.89
37.3607	500.05
37.3751	495.63
37.3896	507.01
37.4040	490.94
37.4185	509.34
37.4329	512.40
37.4473	508.97
37.4618	524.62
37.4762	527.17
37.4907	506.89
37.5051	508.06
37.5195	531.67
37.5340	535.77
37.5484	519.12
37.5629	487.45
37.5773	481.68
37.5917	511.47
37.6062	534.68
37.6206	486.12
37.6351	495.46
37.6495	470.50
37.6639	473.46
37.6784	498.62
37.6928	504.14
37.7073	520.28
37.7217	508.34
37.7361	462.92
37.7506	524.93
37.7650	486.70
37.7795	513.38
37.7939	508.13
37.8083	492.88
37.8228	543.33
37.8372	520.62
37.8517	513.80
37.8661	541.69
37.8805	531.86
37.8950	501.46
37.9094	512.16
37.9239	495.84
37.9383	496.36
37.9528	538.84
37.9672	478.16
37.9816	454.06
37.9961	484.85
38.0105	517.20
38.0250	508.11
38.0394	519.42
38.0538	533.71
38.0683	522.37
38.0827	539.56
38.0972	539.76
38.1116	512.16
38.1260	511.61
38.1405	485.34
38.1549	513.95
38.1694	521.74
38.1838	484.26
38.1982	446.67
38.2127	508.69
38.2271	538.27
38.2416	505.19
38.2560	490.33
38.2704	514.93
38.2849	548.04
38.2993	485.89
38.3138	482.52
38.3282	487.26
38.3426	512.93
38.3571	505.87
38.3715	519.37
38.3860	541.97
38.4004	531.47
38.4148	569.37
38.4293	574.33
38.4437	552.97
38.4582	572.03
38.4726	633.46
38.4870	690.24
38.5015	765.67
38.5159	786.72
38.5304	787.43
38.5448	767.84
38.5592	771.26
38.5737	810.25
38.5881	757.44
38.6026	767.71
38.6170	725.80
38.6314	698.02
38.6459	669.80
38.6603	660.98
38.6748	648.87
38.6892	559.10
38.7036	586.24
38.7181	533.11
38.7325	503.14
38.7470	512.90
38.7614	501.71
38.7758	538.04
38.7903	530.25
38.8047	483.47
38.8192	508.65
38.8336	509.17
38.8480	514.10
38.8625	499.17
38.8769	521.81
38.8914	517.38
38.9058	531.32
38.9202	524.65
38.9347	506.77
38.9491	491.09
38.9636	502.77
38.9780	456.12
38.9924	481.88
39.0069	466.13
39.0213	495.02
39.0358	531.03
39.0502	494.67
39.0646	508.78
39.0791	513.21
39.0935	512.39
39.1080	530.13
39.1224	491.31
39.1368	507.46
39.1513	533.06
39.1657	496.82
39.1802	488.51
39.1946	490.06
39.2090	490.07
39.2235	530.64
39.2379	496.61
39.2524	472.71
39.2668	495.82
39.2812	523.75
39.2957	492.98
39.3101	490.34
39.3246	532.21
39.3390	531.65
39.3534	521.20
39.3679	524.29
39.3823	550.71
39.3968	509.38
39.4112	512.43
39.4256	512.80
39.4401	507.63
39.4545	502.84
39.4690	510.39
39.4834	516.89
39.4978	516.73
39.5123	498.23
39.5267	497.08
39.5412	479.67
39.5556	482.18
39.5700	482.02
39.5845	468.30
39.5989	515.12
39.6134	493.17
39.6278	481.61
39.6422	473.48
39.6567	495.45
39.6711	488.72
39.6856	513.12
39.7000	509.36
39.7144	512.51
39.7289	499.22
39.7433	492.83
39.7578	491.24
39.7722	493.06
39.7866	504.14
39.8011	462.94
39.8155	501.47
39.8300	501.54
39.8444	486.92
39.8588	533.27
39.8733	542.03
39.8877	483.50
39.9022	500.67
39.9166	491.68
39.9310	464.25
39.9455	477.43
39.9599	511.35
39.9744	509.96
39.9888	509.55
40.0032	476.68
40.0177	476.45
40.0321	514.34
40.0466	479.65
40.0610	518.87
40.0754	522.55
40.0899	513.85
40.1043	495.58
40.1188	484.76
40.1332	480.13
40.1476	490.99
40.1621	506.26
40.1765	518.33
40.1910	494.60
40.2054	530.99
40.2198	523.19
40.2343	526.24
40.2487	502.60
40.2632	507.74
40.2776	524.24
40.2920	503.96
40.3065	481.59
40.3209	442.25
40.3354	469.21
40.3498	464.15
40.3642	480.09
40.3787	491.23
40.3931	481.42
40.4076	476.51
40.4220	494.77
40.4364	477.35
40.4509	505.33
40.4653	505.26
40.4798	470.71
40.4942	491.41
40.5086	503.64
40.5231	455.27
40.5375	486.59
40.5520	492.06
40.5664	520.22
40.5808	497.97
40.5953	470.04
40.6097	500.00
40.6242	515.98
40.6386	530.39
40.6530	494.60
40.6675	506.61
40.6819	496.47
40.6964	501.55
40.7108	527.10
40.7252	459.67
40.7397	506.50
40.7541	469.05
40.7686	499.62
40.7830	492.37
40.7974	506.79
40.8119	498.06
40.8263	521.22
40.8408	504.66
40.8552	493.00
40.8696	496.28
40.8841	533.00
40.8985	493.31
40.9130	509.22
40.9274	505.40
40.9418	512.46
40.9563	495.86
40.9707	466.67
40.9852	479.60
40.9996	486.71
41.0140	496.09
41.0285	472.35
41.0429	515.80
41.0574	501.91
41.0718	506.76
41.0862	482.40
41.1007	459.93
41.1151	530.74
41.1296	512.31
41.1440	482.62
41.1584	466.64
41.1729	498.20
41.1873	522.68
41.2018	507.77
41.2162	506.51
41.2306	510.09
41.2451	497.66
41.2595	525.64
41.2740	491.95
41.2884	489.55
41.3028	515.65
41.3173	493.58
41.3317	524.35
41.3462	473.20
41.3606	479.73
41.3750	515.19
41.3895	520.91
41.4039	490.00
41.4184	492.42
41.4328	543.23
41.4472	502.95
41.4617	472.48
41.4761	497.97
41.4906	505.55
41.5050	502.34
41.5194	479.96
41.5339	537.79
41.5483	508.93
41.5628	482.76
41.5772	485.72
41.5916	506.43
41.6061	461.57
41.6205	483.88
41.6350	511.86
41.6494	505.82
41.6639	495.27
41.6783	499.25
41.6927	487.12
41.7072	504.80
41.7216	505.97
41.7361	504.10
41.7505	508.22
41.7649	469.94
41.7794	481.50
41.7938	502.34
41.8083	495.44
41.8227	502.55
41.8371	481.05
41.8516	497.84
41.8660	536.76
41.8805	528.16
41.8949	516.85
41.9093	530.70
41.9238	561.63
41.9382	555.35
41.9527	550.69
41.9671	545.78
41.9815	558.61
41.9960	536.74
42.0104	565.84
42.0249	562.76
42.0393	538.04
42.0537	546.48
42.0682	581.41
42.0826	590.91
42.0971	561.29
42.1115	583.33
42.1259	622.14
42.1404	613.67
42.1548	620.29
42.1693	644.82
42.1837	705.26
42.1981	741.17
42.2126	839.32
42.2270	944.42
42.2415	1077.80
42.2559	1229.85
42.2703	1366.97
42.2848	1547.54
42.2992	1684.19
42.3137	1735.14
42.3281	1681.69
42.3425	1580.84
42.3570	1460.87
42.3714	1391.13
42.3859	1372.93
42.4003	1358.48
42.4147	1360.84
42.4292	1318.69
42.4436	1188.38
42.4581	1061.23
42.4725	970.62
42.4869	848.26
42.5014	761.73
42.5158	724.42
42.5303	671.73
42.5447	654.71
42.5591	647.97
42.5736	608.80
42.5880	559.23
42.6025	548.90
42.6169	541.43
42.6313	535.81
42.6458	508.28
42.6602	514.58
42.6747	518.70
42.6891	517.97
42.7035	521.10
42.7180	548.48
42.7324	534.55
42.7469	546.81
42.7613	512.36
42.7757	527.25
42.7902	510.66
42.8046	505.15
42.8191	540.77
42.8335	541.73
42.8479	536.97
42.8624	494.29
42.8768	504.91
42.8913	503.30
42.9057	503.13
42.9201	510.78
42.9346	520.79
42.9490	484.45
42.9635	470.13
42.9779	535.57
42.9923	517.47
43.0068	512.30
43.0212	508.49
43.0357	510.73
43.0501	520.67
43.0645	518.80
43.0790	536.69
43.0934	553.53
43.1079	535.65
43.1223	553.44
43.1367	524.49
43.1512	509.63
43.1656	520.61
43.1801	527.61
43.1945	517.07
43.2089	522.59
43.2234	544.62
43.2378	551.51
43.2523	502.42
43.2667	508.46
43.2811	521.46
43.2956	485.50
43.3100	522.97
43.3245	502.06
43.3389	520.23
43.3533	558.66
43.3678	533.26
43.3822	534.90
43.3967	500.95
43.4111	540.15
43.4255	576.34
43.4400	529.36
43.4544	516.69
43.4689	554.60
43.4833	535.84
43.4977	532.41
43.5122	545.48
43.5266	515.25
43.5411	519.50
43.5555	530.25
43.5699	500.60
43.5844	500.54
43.5988	526.58
43.6133	544.06
43.6277	517.51
43.6421	556.73
43.6566	519.18
43.6710	518.26
43.6855	482.10
43.6999	530.92
43.7143	534.77
43.7288	543.06
43.7432	539.29
43.7577	513.79
43.7721	516.90
43.7865	534.91
43.8010	525.36
43.8154	496.94
43.8299	538.72
43.8443	508.42
43.8587	522.75
43.8732	540.07
43.8876	544.24
43.9021	583.29
43.9165	583.32
43.9309	556.12
43.9454	554.63
43.9598	577.24
43.9743	573.82
43.9887	545.05
44.0031	596.57
44.0176	598.83
44.0320	592.80
44.0465	595.77
44.0609	623.21
44.0753	597.33
44.0898	653.11
44.1042	659.69
44.1187	612.87
44.1331	632.69
44.1475	551.54
44.1620	596.22
44.1764	532.88
44.1909	543.39
44.2053	590.61
44.2197	600.32
44.2342	601.18
44.2486	560.90
44.2631	536.08
44.2775	552.28
44.2919	544.42
44.3064	529.16
44.3208	546.30
44.3353	526.42
44.3497	571.79
44.3641	542.10
44.3786	524.07
44.3930	539.65
44.4075	554.31
44.4219	603.55
44.4363	591.01
44.4508	586.44
44.4652	618.03
44.4797	590.72
44.4941	609.66
44.5085	549.90
44.5230	579.96
44.5374	610.43
44.5519	597.06
44.5663	580.47
44.5807	592.82
44.5952	588.78
44.6096	590.48
44.6241	566.04
44.6385	547.50
44.6529	571.84
44.6674	585.54
44.6818	610.92
44.6963	628.67
44.7107	686.96
44.7251	701.93
44.7396	713.52
44.7540	767.52
44.7685	854.50
44.7829	863.95
44.7973	888.60
44.8118	871.26
44.8262	833.27
44.8407	786.46
44.8551	785.38
44.8695	755.56
44.8840	753.93
44.8984	725.13
44.9129	671.32
44.9273	722.65
44.9417	695.39
44.9562	591.39
44.9706	597.06
44.9851	605.88
44.9995	546.52
45.0139	501.12
45.0284	514.65
45.0428	553.22
45.0573	544.80
45.0717	516.46
45.0861	536.93
45.1006	585.54
45.1150	562.44
45.1295	561.29
45.1439	514.75
45.1583	539.15
45.1728	493.10
45.1872	540.76
45.2017	540.54
45.2161	520.34
45.2305	493.97
45.2450	532.65
45.2594	526.30
45.2739	525.99
45.2883	512.88
45.3028	469.48
45.3172	509.48
45.3316	533.46
45.3461	529.22
45.3605	512.43
45.3750	488.24
45.3894	474.95
45.4038	472.57
45.4183	491.06
45.4327	509.17
45.4472	520.90
45.4616	504.76
45.4760	529.90
45.4905	514.93
45.5049	493.30
45.5194	493.71
45.5338	515.82
45.5482	508.26
45.5627	508.07
45.5771	499.19
45.5916	532.95
45.6060	503.63
45.6204	491.24
45.6349	529.25
45.6493	479.49
45.6638	507.17
45.6782	479.06
45.6926	481.61
45.7071	512.17
45.7215	512.02
45.7360	490.44
45.7504	508.01
45.7648	494.80
45.7793	511.43
45.7937	519.88
45.8082	522.23
45.8226	533.35
45.8370	494.82
45.8515	476.76
45.8659	529.79
45.8804	519.95
45.8948	519.54
45.9092	523.98
45.9237	554.32
45.9381	544.53
45.9526	513.96
45.9670	490.01
45.9814	483.26
45.9959	510.86
46.0103	499.13
46.0248	505.38
46.0392	537.32
46.0536	516.52
46.0681	546.37
46.0825	520.71
46.0970	507.48
46.1114	458.32
46.1258	512.24
46.1403	491.06
46.1547	499.85
46.1692	524.92
46.1836	469.74
46.1980	478.68
46.2125	457.12
46.2269	461.54
46.2414	509.00
46.2558	491.24
46.2702	465.49
46.2847	483.42
46.2991	484.39
46.3136	516.14
46.3280	534.89
46.3424	509.16
46.3569	499.82
46.3713	489.42
46.3858	497.78
46.4002	480.06
46.4146	501.42
46.4291	533.16
46.4435	488.26
46.4580	505.73
46.4724	542.93
46.4868	524.77
46.5013	487.53
46.5157	477.07
46.5302	501.28
46.5446	500.15
46.5590	510.97
46.5735	513.67
46.5879	495.28
46.6024	487.67
46.6168	524.52
46.6312	503.12
46.6457	481.39
46.6601	483.19
46.6746	477.08
46.6890	493.36
46.7034	504.86
46.7179	480.45
46.7323	468.53
46.7468	487.76
46.7612	502.57
46.7756	523.74
46.7901	496.12
46.8045	507.76
46.8190	493.60
46.8334	515.22
46.8478	502.26
46.8623	516.67
46.8767	503.31
46.8912	496.12
46.9056	503.39
46.9200	497.89
46.9345	491.85
46.9489	505.32
46.9634	516.22
46.9778	505.17
46.9922	504.00
47.0067	501.08
47.0211	506.81
47.0356	532.73
47.0500	551.37
47.0644	550.98
47.0789	526.51
47.0933	496.21
47.1078	505.18
47.1222	513.64
47.1366	515.91
47.1511	515.97
47.1655	547.60
47.1800	487.17
47.1944	470.93
47.2088	523.10
47.2233	535.67
47.2377	521.62
47.2522	497.63
47.2666	531.50
47.2810	501.38
47.2955	487.42
47.3099	494.86
47.3244	514.41
47.3388	490.32
47.3532	491.76
47.3677	480.74
47.3821	464.76
47.3966	494.39
47.4110	503.93
47.4254	494.99
47.4399	497.32
47.4543	503.23
47.4688	516.20
47.4832	492.36
47.4976	521.77
47.5121	498.56
47.5265	492.40
47.5410	513.09
47.5554	503.23
47.5698	510.17
47.5843	485.52
47.5987	502.69
47.6132	463.76
47.6276	490.72
47.6420	537.61
47.6565	554.89
47.6709	526.36
47.6854	494.60
47.6998	497.10
47.7142	509.33
47.7287	498.66
47.7431	470.79
47.7576	513.60
47.7720	503.32
47.7864	502.73
47.8009	491.07
47.8153	512.00
47.8298	534.36
47.8442	523.59
47.8586	485.64
47.8731	518.92
47.8875	480.09
47.9020	551.29
47.9164	542.12
47.9308	505.43
47.9453	530.13
47.9597	470.47
47.9742	478.36
47.9886	496.65
48.0030	498.10
48.0175	486.38
48.0319	515.99
48.0464	515.71
48.0608	522.51
48.0752	500.60
48.0897	495.46
48.1041	529.23
48.1186	519.26
48.1330	511.05
48.1474	496.80
48.1619	513.87
48.1763	548.10
48.1908	536.07
48.2052	516.74
48.2196	507.74
48.2341	517.03
48.2485	514.79
48.2630	513.27
48.2774	505.87
48.2918	538.57
48.3063	533.13
48.3207	530.52
48.3352	526.92
48.3496	513.77
48.3640	492.96
48.3785	482.44
48.3929	525.75
48.4074	502.33
48.4218	500.63
48.4362	491.19
48.4507	476.80
48.4651	509.12
48.4796	498.34
48.4940	537.67
48.5084	491.55
48.5229	502.30
48.5373	542.40
48.5518	513.89
48.5662	541.70
48.5806	537.94
48.5951	497.56
48.6095	516.94
48.6240	521.38
48.6384	526.66
48.6528	493.03
48.6673	514.57
48.6817	541.66
48.6962	554.16
48.7106	557.15
48.7250	518.12
48.7395	494.72
48.7539	495.57
48.7684	524.05
48.7828	483.93
48.7972	540.44
48.8117	534.36
48.8261	530.83
48.8406	559.97
48.8550	547.68
48.8694	557.22
48.8839	547.69
48.8983	509.78
48.9128	510.92
48.9272	505.41
48.9416	520.71
48.9561	528.69
48.9705	547.17
48.9850	588.98
48.9994	585.56
49.0139	554.80
49.0283	609.02
49.0427	604.40
49.0572	660.60
49.0716	651.46
49.0861	647.15
49.1005	653.47
49.1149	692.72
49.1294	773.53
49.1438	748.88
49.1583	785.88
49.1727	859.39
49.1871	912.01
49.2016	981.29
49.2160	996.13
49.2305	1124.40
49.2449	1267.01
49.2593	1284.11
49.2738	1325.55
49.2882	1446.92
49.3027	1508.39
49.3171	1654.56
49.3315	1734.12
49.3460	1788.24
49.3604	1837.80
49.3749	1777.30
49.3893	1820.86
49.4037	1754.92
49.4182	1757.76
49.4326	1722.29
49.4471	1693.64
49.4615	1712.56
49.4759	1599.33
49.4904	1523.98
49.5048	1421.85
49.5193	1330.72
49.5337	1307.28
49.5481	1207.71
49.5626	1131.39
49.5770	1101.40
49.5915	980.89
49.6059	911.64
49.6203	896.67
49.6348	866.61
49.6492	768.21
49.6637	756.34
49.6781	713.82
49.6925	676.67
49.7070	676.48
49.7214	640.85
49.7359	600.63
49.7503	612.96
49.7647	559.59
49.7792	604.38
49.7936	607.59
49.8081	557.49
49.8225	557.02
49.8369	558.90
49.8514	574.65
49.8658	573.18
49.8803	536.32
49.8947	591.66
49.9091	569.06
49.9236	534.48
49.9380	557.89
49.9525	540.54
49.9669	566.15
49.9813	563.82
49.9958	520.67
50.0102	545.94
50.0247	546.77
50.0391	518.20
50.0535	534.55
50.0680	533.73
50.0824	545.18
50.0969	521.56
50.1113	538.91
50.1257	543.37
50.1402	502.65
50.1546	526.99
50.1691	530.68
50.1835	558.04
50.1979	519.85
50.2124	492.58
50.2268	485.78
50.2413	523.79
50.2557	533.36
50.2701	530.44
50.2846	523.88
50.2990	528.17
50.3135	534.59
50.3279	543.54
50.3423	525.81
50.3568	544.84
50.3712	550.34
50.3857	505.08
50.4001	509.96
50.4145	476.99
50.4290	511.34
50.4434	524.12
50.4579	522.59
50.4723	490.78
50.4867	491.21
50.5012	526.31
50.5156	534.15
50.5301	516.34
50.5445	499.57
50.5589	488.54
50.5734	499.30
50.5878	528.07
50.6023	525.98
50.6167	530.82
50.6311	521.63
50.6456	499.97
50.6600	495.15
50.6745	472.03
50.6889	497.48
50.7033	477.99
50.7178	497.79
50.7322	503.01
50.7467	520.34
50.7611	521.95
50.7755	496.81
50.7900	497.73
50.8044	491.57
50.8189	522.40
50.8333	508.97
50.8477	497.91
50.8622	521.96
50.8766	527.69
50.8911	509.74
50.9055	498.72
50.9199	493.11
50.9344	511.29
50.9488	511.97
50.9633	485.01
50.9777	498.96
50.9921	468.11
51.0066	480.69
51.0210	467.38
51.0355	470.70
51.0499	476.41
51.0643	497.70
51.0788	507.57
51.0932	520.30
51.1077	475.97
51.1221	495.03
51.1365	545.80
51.1510	488.08
51.1654	488.22
51.1799	496.81
51.1943	455.46
51.2087	496.54
51.2232	534.58
51.2376	516.61
51.2521	523.90
51.2665	500.54
51.2809	516.68
51.2954	463.74
51.3098	485.20
51.3243	486.43
51.3387	520.72
51.3531	551.06
51.3676	508.92
51.3820	501.25
51.3965	483.10
51.4109	491.54
51.4253	519.35
51.4398	511.69
51.4542	490.86
51.4687	503.41
51.4831	524.11
51.4975	490.80
51.5120	500.59
51.5264	484.15
51.5409	495.90
51.5553	513.85
51.5697	503.80
51.5842	514.80
51.5986	503.24
51.6131	492.75
51.6275	480.03
51.6419	537.65
51.6564	520.33
51.6708	496.76
51.6853	488.90
51.6997	476.03
51.7141	484.34
51.7286	517.88
51.7430	509.71
51.7575	489.11
51.7719	492.96
51.7863	497.31
51.8008	496.49
51.8152	499.25
51.8297	513.18
51.8441	543.63
51.8585	494.77
51.8730	527.63
51.8874	515.89
51.9019	480.67
51.9163	532.30
51.9307	496.48
51.9452	532.49
51.9596	532.95
51.9741	479.73
51.9885	488.90
52.0029	519.59
52.0174	529.03
52.0318	472.95
52.0463	470.00
52.0607	514.77
52.0751	513.43
52.0896	548.75
52.1040	521.45
52.1185	547.27
52.1329	526.33
52.1473	483.30
52.1618	516.73
52.1762	540.44
52.1907	482.62
52.2051	486.95
52.2195	509.05
52.2340	505.80
52.2484	501.67
52.2629	499.80
52.2773	520.08
52.2917	533.17
52.3062	485.31
52.3206	533.63
52.3351	514.11
52.3495	529.24
52.3639	525.40
52.3784	503.68
52.3928	468.47
52.4073	488.28
52.4217	517.26
52.4361	524.98
52.4506	512.43
52.4650	523.23
52.4795	516.42
52.4939	508.10
52.5083	483.69
52.5228	539.11
52.5372	523.37
52.5517	517.09
52.5661	471.43
52.5805	480.35
52.5950	518.60
52.6094	533.74
52.6239	525.35
52.6383	498.23
52.6527	514.55
52.6672	487.54
52.6816	499.60
52.6961	502.99
52.7105	536.34
52.7250	492.74
52.7394	488.19
52.7538	516.86
52.7683	505.40
52.7827	490.03
52.7972	498.24
52.8116	487.86
52.8260	488.37
52.8405	516.73
52.8549	524.44
52.8694	490.64
52.8838	475.74
52.8982	521.06
52.9127	490.99
52.9271	489.42
52.9416	497.91
52.9560	473.81
52.9704	519.51
52.9849	506.09
52.9993	500.90
53.0138	488.81
53.0282	471.42
53.0426	524.03
53.0571	483.57
53.0715	527.03
53.0860	515.57
53.1004	517.36
53.1148	493.63
53.1293	553.61
53.1437	485.68
53.1582	511.46
53.1726	544.69
53.1870	488.28
53.2015	499.69
53.2159	497.94
53.2304	514.86
53.2448	503.89
53.2592	509.94
53.2737	563.40
53.2881	524.26
53.3026	524.25
53.3170	515.30
53.3314	506.87
53.3459	489.27
53.3603	505.44
53.3748	496.86
53.3892	496.97
53.4036	508.56
53.4181	471.21
53.4325	495.71
53.4470	508.05
53.4614	503.22
53.4758	533.74
53.4903	571.40
53.5047	510.59
53.5192	482.65
53.5336	499.24
53.5480	510.40
53.5625	503.67
53.5769	471.74
53.5914	519.70
53.6058	491.66
53.6202	520.72
53.6347	519.00
53.6491	481.51
53.6636	530.54
53.6780	522.21
53.6924	507.86
53.7069	515.13
53.7213	532.85
53.7358	511.12
53.7502	524.46
53.7646	501.09
53.7791	513.80
53.7935	538.16
53.8080	544.40
53.8224	526.11
53.8368	509.11
53.8513	511.92
53.8657	540.80
53.8802	533.41
53.8946	524.07
53.9090	523.43
53.9235	505.93
53.9379	527.76
53.9524	507.73
53.9668	496.88
53.9812	527.64
53.9957	532.39
54.0101	520.20
54.0246	521.26
54.0390	475.62
54.0534	502.63
54.0679	554.29
54.0823	522.32
54.0968	518.57
54.1112	525.14
54.1256	535.79
54.1401	488.26
54.1545	506.43
54.1690	528.51
54.1834	527.89
54.1978	514.68
54.2123	522.18
54.2267	528.46
54.2412	520.06
54.2556	530.93
54.2700	531.44
54.2845	531.53
54.2989	522.69
54.3134	526.94
54.3278	546.38
54.3422	521.28
54.3567	517.95
54.3711	514.49
54.3856	522.87
54.4000	527.94
54.4144	509.62
54.4289	581.12
54.4433	516.24
54.4578	547.39
54.4722	550.72
54.4866	526.18
54.5011	557.00
54.5155	567.23
54.5300	551.55
54.5444	551.74
54.5588	575.01
54.5733	577.21
54.5877	584.33
54.6022	580.33
54.6166	571.52
54.6310	606.40
54.6455	581.78
54.6599	562.18
54.6744	595.47
54.6888	550.45
54.7032	564.69
54.7177	578.86
54.7321	593.21
54.7466	583.25
54.7610	567.09
54.7754	547.20
54.7899	529.95
54.8043	519.28
54.8188	564.47
54.8332	559.84
54.8476	532.57
54.8621	566.29
54.8765	526.83
54.8910	519.42
54.9054	560.51
54.9198	584.54
54.9343	555.95
54.9487	517.69
54.9632	489.31
54.9776	513.91
54.9920	517.71
55.0065	526.01
55.0209	531.08
55.0354	531.16
55.0498	526.00
55.0642	537.25
55.0787	535.00
55.0931	541.25
55.1076	523.73
55.1220	540.54
55.1364	545.61
55.1509	503.93
55.1653	530.45
55.1798	531.65
55.1942	483.07
55.2086	488.69
55.2231	508.47
55.2375	506.22
55.2520	520.86
55.2664	488.03
55.2808	503.79
55.2953	491.44
55.3097	501.96
55.3242	505.62
55.3386	520.54
55.3530	524.43
55.3675	527.70
55.3819	521.09
55.3964	501.53
55.4108	503.93
55.4252	538.75
55.4397	528.44
55.4541	513.89
55.4686	507.72
55.4830	489.90
55.4974	513.15
55.5119	539.79
55.5263	544.76
55.5408	549.05
55.5552	541.73
55.5696	503.73
55.5841	513.43
55.5985	517.29
55.6130	520.82
55.6274	530.41
55.6418	540.35
55.6563	504.88
55.6707	505.40
55.6852	511.21
55.6996	530.91
55.7140	524.37
55.7285	526.34
55.7429	503.00
55.7574	526.87
55.7718	547.42
55.7862	552.95
55.8007	519.50
55.8151	516.43
55.8296	561.67
55.8440	537.09
55.8584	556.57
55.8729	554.22
55.8873	505.11
55.9018	524.72
55.9162	551.06
55.9306	514.89
55.9451	531.67
55.9595	513.64
55.9740	541.86
55.9884	532.84
56.0028	502.50
56.0173	520.90
56.0317	513.56
56.0462	510.21
56.0606	516.58
56.0750	533.27
56.0895	562.68
56.1039	526.41
56.1184	542.27
56.1328	531.65
56.1472	505.45
56.1617	551.06
56.1761	512.06
56.1906	497.32
56.2050	497.10
56.2194	511.40
56.2339	525.65
56.2483	527.92
56.2628	515.56
56.2772	490.66
56.2916	479.41
56.3061	541.64
56.3205	505.24
56.3350	517.19
56.3494	460.98
56.3639	493.32
56.3783	477.54
56.3927	516.29
56.4072	503.39
56.4216	484.55
56.4361	524.29
56.4505	553.55
56.4649	521.77
56.4794	511.77
56.4938	518.92
56.5083	551.99
56.5227	568.64
56.5371	503.00
56.5516	489.94
56.5660	519.33
56.5805	488.59
56.5949	499.82
56.6093	545.21
56.6238	552.49
56.6382	506.13
56.6527	528.03
56.6671	510.67
56.6815	493.25
56.6960	520.40
56.7104	573.31
56.7249	504.54
56.7393	514.70
56.7537	530.90
56.7682	509.67
56.7826	533.42
56.7971	529.42
56.8115	518.22
56.8259	510.01
56.8404	506.06
56.8548	519.05
56.8693	551.79
56.8837	539.88
56.8981	524.28
56.9126	523.65
56.9270	522.47
56.9415	498.19
56.9559	481.10
56.9703	542.92
56.9848	541.63
56.9992	504.95
57.0137	527.74
57.0281	502.65
57.0425	520.54
57.0570	559.55
57.0714	545.16
57.0859	519.25
57.1003	513.90
57.1147	516.10
57.1292	507.76
57.1436	510.19
57.1581	499.46
57.1725	505.71
57.1869	513.73
57.2014	504.86
57.2158	517.80
57.2303	493.58
57.2447	536.32
57.2591	512.05
57.2736	515.03
57.2880	555.35
57.3025	505.21
57.3169	516.96
57.3313	530.67
57.3458	535.33
57.3602	535.44
57.3747	506.17
57.3891	508.10
57.4035	504.34
57.4180	516.72
57.4324	539.91
57.4469	498.77
57.4613	522.65
57.4757	572.27
57.4902	574.26
57.5046	543.92
57.5191	558.12
57.5335	551.24
57.5479	513.85
57.5624	523.12
57.5768	519.08
57.5913	549.78
57.6057	552.75
57.6201	517.36
57.6346	537.05
57.6490	554.68
57.6635	508.22
57.6779	524.83
57.6923	526.24
57.7068	522.90
57.7212	561.80
57.7357	526.16
57.7501	517.34
57.7645	528.04
57.7790	515.08
57.7934	555.14
57.8079	573.36
57.8223	534.06
57.8367	513.50
57.8512	533.24
57.8656	549.81
57.8801	521.01
57.8945	595.08
57.9089	551.14
57.9234	511.90
57.9378	530.72
57.9523	519.84
57.9667	528.99
57.9811	537.93
57.9956	545.92
58.0100	553.61
58.0245	538.90
58.0389	571.49
58.0533	572.04
58.0678	561.79
58.0822	572.72
58.0967	594.39
58.1111	610.10
58.1255	592.54
58.1400	603.43
58.1544	591.14
58.1689	612.59
58.1833	574.19
58.1977	559.75
58.2122	599.08
58.2266	592.44
58.2411	605.03
58.2555	651.92
58.2699	677.76
58.2844	653.50
58.2988	644.93
58.3133	681.99
58.3277	668.30
58.3421	684.17
58.3566	605.42
58.3710	627.02
58.3855	640.27
58.3999	639.28
58.4143	630.08
58.4288	644.75
58.4432	584.27
58.4577	598.38
58.4721	646.11
58.4865	637.75
58.5010	600.55
58.5154	615.69
58.5299	573.91
58.5443	571.91
58.5587	560.79
58.5732	567.32
58.5876	570.99
58.6021	560.69
58.6165	548.47
58.6309	555.51
58.6454	571.80
58.6598	555.47
58.6743	535.09
58.6887	517.21
58.7031	512.18
58.7176	536.56
58.7320	527.19
58.7465	542.61
58.7609	526.25
58.7753	522.60
58.7898	535.18
58.8042	563.79
58.8187	584.81
58.8331	553.10
58.8475	550.63
58.8620	552.41
58.8764	558.98
58.8909	500.07
58.9053	525.64
58.9197	525.67
58.9342	553.41
58.9486	571.66
58.9631	539.31
58.9775	560.41
58.9919	568.26
59.0064	524.31
59.0208	507.66
59.0353	505.41
59.0497	503.16
59.0641	522.92
59.0786	522.72
59.0930	535.14
59.1075	557.60
59.1219	569.05
59.1363	530.95
59.1508	538.82
59.1652	537.35
59.1797	553.61
59.1941	497.75
59.2085	520.24
59.2230	558.73
59.2374	565.08
59.2519	570.86
59.2663	559.90
59.2807	549.61
59.2952	569.23
59.3096	560.73
59.3241	591.12
59.3385	553.09
59.3529	541.28
59.3674	547.56
59.3818	548.15
59.3963	509.75
59.4107	567.60
59.4251	589.35
59.4396	561.23
59.4540	526.22
59.4685	564.86
59.4829	558.14
59.4973	535.51
59.5118	548.62
59.5262	533.64
59.5407	548.54
59.5551	577.95
59.5695	563.12
59.5840	557.86
59.5984	565.85
59.6129	535.97
59.6273	540.29
59.6417	528.04
59.6562	560.50
59.6706	553.04
59.6851	543.84
59.6995	566.86
59.7139	562.77
59.7284	529.85
59.7428	547.28
59.7573	535.59
59.7717	544.78
59.7861	504.87
59.8006	549.65
59.8150	530.40
59.8295	529.83
59.8439	522.98
59.8583	524.31
59.8728	552.59
59.8872	526.93
59.9017	532.57
59.9161	522.37
59.9305	531.77
59.9450	545.59
59.9594	544.79
59.9739	512.21
59.9883	538.64
60.0027	491.74
60.0172	539.82
60.0316	566.70
60.0461	507.61
60.0605	518.49
60.0750	545.76
60.0894	568.57
60.1038	526.12
60.1183	562.85
60.1327	538.80
60.1472	531.97
60.1616	533.53
60.1760	543.98
60.1905	551.73
60.2049	549.62
60.2194	530.81
60.2338	518.20
60.2482	555.77
60.2627	527.36
60.2771	512.85
60.2916	506.93
60.3060	529.45
60.3204	547.18
60.3349	551.35
60.3493	546.86
60.3638	542.27
60.3782	570.94
60.3926	541.75
60.4071	539.49
60.4215	515.30
60.4360	554.25
60.4504	500.10
60.4648	536.72
60.4793	526.24
60.4937	517.96
60.5082	516.18
60.5226	517.54
60.5370	530.79
60.5515	519.73
60.5659	573.41
60.5804	533.16
60.5948	536.51
60.6092	538.11
60.6237	548.27
60.6381	531.18
60.6526	464.80
60.6670	532.52
60.6814	512.13
60.6959	510.86
60.7103	520.20
60.7248	570.85
60.7392	495.29
60.7536	534.72
60.7681	527.59
60.7825	553.97
60.7970	538.22
60.8114	530.83
60.8258	548.94
60.8403	568.40
60.8547	522.43
60.8692	573.70
60.8836	524.48
60.8980	597.78
60.9125	569.65
60.9269	546.36
60.9414	581.54
60.9558	547.23
60.9702	528.83
60.9847	540.93
60.9991	544.66
61.0136	504.51
61.0280	550.02
61.0424	546.44
61.0569	573.17
61.0713	528.08
61.0858	563.04
61.1002	540.84
61.1146	523.57
61.1291	567.78
61.1435	520.88
61.1580	547.76
61.1724	545.74
61.1868	556.42
61.2013	528.51
61.2157	568.80
61.2302	553.33
61.2446	561.50
61.2590	542.49
61.2735	551.31
61.2879	547.21
61.3024	528.41
61.3168	556.36
61.3312	591.12
61.3457	550.24
61.3601	527.98
61.3746	513.41
61.3890	516.67
61.4034	533.70
61.4179	540.54
61.4323	532.97
61.4468	534.36
61.4612	531.99
61.4756	557.51
61.4901	555.21
61.5045	543.40
61.5190	552.51
61.5334	551.39
61.5478	543.98
61.5623	534.55
61.5767	554.33
61.5912	569.56
61.6056	544.99
61.6200	542.45
61.6345	564.05
61.6489	546.04
61.6634	556.77
61.6778	532.04
61.6922	500.73
61.7067	544.50
61.7211	580.47
61.7356	539.50
61.7500	560.44
61.7644	523.37
61.7789	552.00
61.7933	519.80
61.8078	527.87
61.8222	582.02
61.8366	549.52
61.8511	541.96
61.8655	577.19
61.8800	555.23
61.8944	531.90
61.9088	526.63
61.9233	524.06
61.9377	566.72
61.9522	556.52
61.9666	536.67
61.9810	536.75
61.9955	585.07
62.0099	590.72
62.0244	532.77
62.0388	524.28
62.0532	508.68
62.0677	561.58
62.0821	552.36
62.0966	576.50
62.1110	564.79
62.1254	573.82
62.1399	542.76
62.1543	543.34
62.1688	557.75
62.1832	542.78
62.1976	540.25
62.2121	556.77
62.2265	544.13
62.2410	527.32
62.2554	565.51
62.2698	547.09
62.2843	552.38
62.2987	539.95
62.3132	556.80
62.3276	543.27
62.3420	577.18
62.3565	575.17
62.3709	566.87
62.3854	572.47
62.3998	569.01
62.4142	545.03
62.4287	559.73
62.4431	544.47
62.4576	559.92
62.4720	549.40
62.4864	506.14
62.5009	557.90
62.5153	548.15
62.5298	568.60
62.5442	526.40
62.5586	534.52
62.5731	557.35
62.5875	577.10
62.6020	555.75
62.6164	523.24
62.6308	551.41
62.6453	563.09
62.6597	553.76
62.6742	539.73
62.6886	551.76
62.7030	538.75
62.7175	554.80
62.7319	570.51
62.7464	570.60
62.7608	557.61
62.7752	573.09
62.7897	551.12
62.8041	560.48
62.8186	553.27
62.8330	535.48
62.8474	560.59
62.8619	572.89
62.8763	550.65
62.8908	543.96
62.9052	578.53
62.9196	541.98
62.9341	561.56
62.9485	596.18
62.9630	566.86
62.9774	556.00
62.9918	568.71
63.0063	541.23
63.0207	576.88
63.0352	588.07
63.0496	585.18
63.0640	588.47
63.0785	558.87
63.0929	566.63
63.1074	563.03
63.1218	567.12
63.1362	590.41
63.1507	562.53
63.1651	564.10
63.1796	564.43
63.1940	545.43
63.2084	549.99
63.2229	554.33
63.2373	572.32
63.2518	571.53
63.2662	591.60
63.2806	583.39
63.2951	525.37
63.3095	552.01
63.3240	595.57
63.3384	583.02
63.3528	579.25
63.3673	597.17
63.3817	585.30
63.3962	555.75
63.4106	570.05
63.4250	590.82
63.4395	587.93
63.4539	568.28
63.4684	589.89
63.4828	598.33
63.4972	563.00
63.5117	575.72
63.5261	579.64
63.5406	566.32
63.5550	595.12
63.5694	603.63
63.5839	563.33
63.5983	553.89
63.6128	600.31
63.6272	604.64
63.6416	574.71
63.6561	596.00
63.6705	593.03
63.6850	645.46
63.6994	623.09
63.7138	592.99
63.7283	601.07
63.7427	596.92
63.7572	630.43
63.7716	641.99
63.7861	644.80
63.8005	639.47
63.8149	698.13
63.8294	648.49
63.8438	629.83
63.8583	676.68
63.8727	694.61
63.8871	717.08
63.9016	723.67
63.9160	723.79
63.9305	752.12
63.9449	716.92
63.9593	729.80
63.9738	699.53
63.9882	718.98
64.0027	762.11
64.0171	794.22
64.0315	798.57
64.0460	794.71
64.0604	781.19
64.0749	766.08
64.0893	753.20
64.1037	754.63
64.1182	771.84
64.1326	785.85
64.1471	740.73
64.1615	778.64
64.1759	740.94
64.1904	700.22
64.2048	755.61
64.2193	751.57
64.2337	701.79
64.2481	668.95
64.2626	722.97
64.2770	740.95
64.2915	701.72
64.3059	681.59
64.3203	689.11
64.3348	723.86
64.3492	630.55
64.3637	659.61
64.3781	683.78
64.3925	661.69
64.4070	625.35
64.4214	666.51
64.4359	697.44
64.4503	637.96
64.4647	656.65
64.4792	635.35
64.4936	620.50
64.5081	653.97
64.5225	648.86
64.5369	660.37
64.5514	647.92
64.5658	610.53
64.5803	621.70
64.5947	627.35
64.6091	639.98
64.6236	638.83
64.6380	613.88
64.6525	663.49
64.6669	666.72
64.6813	692.33
64.6958	655.59
64.7102	724.25
64.7247	670.29
64.7391	681.87
64.7535	712.65
64.7680	666.46
64.7824	743.84
64.7969	740.65
64.8113	780.89
64.8257	767.10
64.8402	839.99
64.8546	821.52
64.8691	868.29
64.8835	846.84
64.8979	862.00
64.9124	848.57
64.9268	850.40
64.9413	928.87
64.9557	926.17
64.9701	994.37
64.9846	1053.08
64.9990	1186.75
65.0135	1257.75
65.0279	1409.67
65.0423	1660.00
65.0568	2078.48
65.0712	2545.23
65.0857	3228.95
65.1001	4193.30
65.1145	5868.12
65.1290	7551.26
65.1434	9269.21
65.1579	10845.72
65.1723	11707.37
65.1867	11271.07
65.2012	10112.82
65.2156	8576.81
65.2301	6717.89
65.2445	5412.29
65.2589	4533.79
65.2734	4099.88
65.2878	4297.51
65.3023	4838.21
65.3167	5560.01
65.3311	6416.92
65.3456	6840.84
65.3600	6977.88
65.3745	6474.92
65.3889	5565.14
65.4033	4529.78
65.4178	3610.27
65.4322	2858.42
65.4467	2201.35
65.4611	1803.06
65.4755	1476.13
65.4900	1283.96
65.5044	1166.96
65.5189	1117.59
65.5333	1028.31
65.5477	946.93
65.5622	927.64
65.5766	901.60
65.5911	845.76
65.6055	786.86
65.6199	752.48
65.6344	754.78
65.6488	721.56
65.6633	765.57
65.6777	715.12
65.6921	714.91
65.7066	763.55
65.7210	742.17
65.7355	669.62
65.7499	669.70
65.7643	677.62
65.7788	671.74
65.7932	701.26
65.8077	671.56
65.8221	665.67
65.8365	633.38
65.8510	652.54
65.8654	684.05
65.8799	643.79
65.8943	632.58
65.9087	651.76
65.9232	659.73
65.9376	618.94
65.9521	650.03
65.9665	632.12
65.9809	594.48
65.9954	606.81
66.0098	575.70
66.0243	619.42
66.0387	629.17
66.0531	620.61
66.0676	584.67
66.0820	630.37
66.0965	649.14
66.1109	633.22
66.1253	648.15
66.1398	605.74
66.1542	579.54
66.1687	613.98
66.1831	608.31
66.1975	626.61
66.2120	620.14
66.2264	604.43
66.2409	616.20
66.2553	614.52
66.2697	619.02
66.2842	608.98
66.2986	610.91
66.3131	635.32
66.3275	638.37
66.3419	595.21
66.3564	596.40
66.3708	564.77
66.3853	547.57
66.3997	551.31
66.4141	579.39
66.4286	629.62
66.4430	593.24
66.4575	599.80
66.4719	623.23
66.4863	579.90
66.5008	572.59
66.5152	614.19
66.5297	594.71
66.5441	588.18
66.5585	585.16
66.5730	599.05
66.5874	577.26
66.6019	560.94
66.6163	569.75
66.6307	569.01
66.6452	555.15
66.6596	609.13
66.6741	605.64
66.6885	565.69
66.7029	604.69
66.7174	610.52
66.7318	625.63
66.7463	577.21
66.7607	565.95
66.7751	599.20
66.7896	571.17
66.8040	588.61
66.8185	579.86
66.8329	593.36
66.8473	603.83
66.8618	551.69
66.8762	606.77
66.8907	582.10
66.9051	579.16
66.9195	580.46
66.9340	577.24
66.9484	562.60
66.9629	564.03
66.9773	575.22
66.9917	567.01
67.0062	570.43
67.0206	586.97
67.0351	587.64
67.0495	585.65
67.0639	585.11
67.0784	573.62
67.0928	600.12
67.1073	617.46
67.1217	613.06
67.1361	562.86
67.1506	546.53
67.1650	595.42
67.1795	582.96
67.1939	556.95
67.2083	599.08
67.2228	558.41
67.2372	587.67
67.2517	591.00
67.2661	578.67
67.2805	562.41
67.2950	539.83
67.3094	585.08
67.3239	595.04
67.3383	602.92
67.3527	588.28
67.3672	569.70
67.3816	561.86
67.3961	574.87
67.4105	589.20
67.4250	596.49
67.4394	619.36
67.4538	575.62
67.4683	561.06
67.4827	554.59
67.4972	555.55
67.5116	547.62
67.5260	563.06
67.5405	571.03
67.5549	580.36
67.5694	550.04
67.5838	595.59
67.5982	609.58
67.6127	598.79
67.6271	566.03
67.6416	579.03
67.6560	577.03
67.6704	576.38
67.6849	549.03
67.6993	548.91
67.7138	600.38
67.7282	576.04
67.7426	558.31
67.7571	541.09
67.7715	555.78
67.7860	565.87
67.8004	551.72
67.8148	591.02
67.8293	557.33
67.8437	543.52
67.8582	566.61
67.8726	572.92
67.8870	563.74
67.9015	565.00
67.9159	606.87
67.9304	604.32
67.9448	607.10
67.9592	539.28
67.9737	564.45
67.9881	584.34
68.0026	540.82
68.0170	564.64
68.0314	594.42
68.0459	588.47
68.0603	616.84
68.0748	591.68
68.0892	617.50
68.1036	511.29
68.1181	603.09
68.1325	610.43
68.1470	548.97
68.1614	612.07
68.1758	581.17
68.1903	596.17
68.2047	579.57
68.2192	596.35
68.2336	585.04
68.2480	587.23
68.2625	571.52
68.2769	570.17
68.2914	577.32
68.3058	590.00
68.3202	587.66
68.3347	587.24
68.3491	588.33
68.3636	569.01
68.3780	570.83
68.3924	550.26
68.4069	553.94
68.4213	554.58
68.4358	555.89
68.4502	568.82
68.4646	532.13
68.4791	556.20
68.4935	572.16
68.5080	570.02
68.5224	564.79
68.5368	606.38
68.5513	594.52
68.5657	573.51
68.5802	572.06
68.5946	595.72
68.6090	556.09
68.6235	597.08
68.6379	557.25
68.6524	565.03
68.6668	551.29
68.6812	534.97
68.6957	569.79
68.7101	578.88
68.7246	589.40
68.7390	548.65
68.7534	617.03
68.7679	581.06
68.7823	577.70
68.7968	563.87
68.8112	542.41
68.8256	528.10
68.8401	583.81
68.8545	584.78
68.8690	599.79
68.8834	574.16
68.8978	610.34
68.9123	598.56
68.9267	583.09
68.9412	562.62
68.9556	581.58
68.9700	561.99
68.9845	585.43
68.9989	562.25
69.0134	607.18
69.0278	605.39
69.0422	565.09
69.0567	547.03
69.0711	550.87
69.0856	592.96
69.1000	596.60
69.1144	571.73
69.1289	572.31
69.1433	597.71
69.1578	552.03
69.1722	617.99
69.1866	555.03
69.2011	598.02
69.2155	541.55
69.2300	545.91
69.2444	595.74
69.2588	586.40
69.2733	591.16
69.2877	591.03
69.3022	619.47
69.3166	621.50
69.3310	568.16
69.3455	572.96
69.3599	580.68
69.3744	579.93
69.3888	590.58
69.4032	586.17
69.4177	530.08
69.4321	597.21
69.4466	584.09
69.4610	589.56
69.4754	585.09
69.4899	605.53
69.5043	603.26
69.5188	554.03
69.5332	555.09
69.5476	596.58
69.5621	588.59
69.5765	575.26
69.5910	575.56
69.6054	570.39
69.6198	602.88
69.6343	587.67
69.6487	595.44
69.6632	620.37
69.6776	638.08
69.6920	578.64
69.7065	600.04
69.7209	546.81
69.7354	568.07
69.7498	613.17
69.7642	580.76
69.7787	602.09
69.7931	598.05
69.8076	561.62
69.8220	572.48
69.8364	585.41
69.8509	561.83
69.8653	612.90
69.8798	573.64
69.8942	605.97
69.9086	588.28
69.9231	555.74
69.9375	577.59
69.9520	584.89
69.9664	618.32
69.9808	549.82
69.9953	607.60
70.0097	585.14
70.0242	584.52
70.0386	551.91
70.0530	521.92
70.0675	531.88
70.0819	594.20
70.0964	595.76
70.1108	573.57
70.1252	564.38
70.1397	551.51
70.1541	547.68
70.1686	569.94
70.1830	585.11
70.1974	598.00
70.2119	580.18
70.2263	539.03
70.2408	541.32
70.2552	551.89
70.2696	587.74
70.2841	583.85
70.2985	550.37
70.3130	578.72
70.3274	586.96
70.3418	570.44
70.3563	570.98
70.3707	608.09
70.3852	608.46
70.3996	614.22
70.4140	560.75
70.4285	569.96
70.4429	555.13
70.4574	542.15
70.4718	569.37
70.4862	555.37
70.5007	582.65
70.5151	636.74
70.5296	593.79
70.5440	569.85
70.5584	559.29
70.5729	593.37
70.5873	550.74
70.6018	542.65
70.6162	589.45
70.6306	553.41
70.6451	545.03
70.6595	597.51
70.6740	591.15
70.6884	565.32
70.7028	543.94
70.7173	512.49
70.7317	552.99
70.7462	597.71
70.7606	571.78
70.7750	584.10
70.7895	590.42
70.8039	618.32
70.8184	569.65
70.8328	565.88
70.8472	606.41
70.8617	600.73
70.8761	573.44
70.8906	548.63
70.9050	573.02
70.9194	548.10
70.9339	517.99
70.9483	519.31
70.9628	578.29
70.9772	641.45
70.9916	605.67
71.0061	602.76
71.0205	607.31
71.0350	566.45
71.0494	552.30
71.0638	594.63
71.0783	619.27
71.0927	573.17
71.1072	589.97
71.1216	549.91
71.1361	558.42
71.1505	574.08
71.1649	587.06
71.1794	653.78
71.1938	595.90
71.2083	552.05
71.2227	522.75
71.2371	542.09
71.2516	561.69
71.2660	558.26
71.2805	568.02
71.2949	580.99
71.3093	596.45
71.3238	577.52
71.3382	594.79
71.3527	553.94
71.3671	577.88
71.3815	600.31
71.3960	611.90
71.4104	597.61
71.4249	637.61
71.4393	582.64
71.4537	606.54
71.4682	651.63
71.4826	633.09
71.4971	649.66
71.5115	610.17
71.5259	545.25
71.5404	510.90
71.5548	575.87
71.5693	582.47
71.5837	562.47
71.5981	575.97
71.6126	578.91
71.6270	554.93
71.6415	542.81
71.6559	550.21
71.6703	549.24
71.6848	591.51
71.6992	652.13
71.7137	614.30
71.7281	591.63
71.7425	586.44
71.7570	542.17
71.7714	578.68
71.7859	590.38
71.8003	537.55
71.8147	578.52
71.8292	624.13
71.8436	597.49
71.8581	555.88
71.8725	568.69
71.8869	537.56
71.9014	542.96
71.9158	553.07
71.9303	546.99
71.9447	582.98
71.9591	600.20
71.9736	653.83
71.9880	633.46
72.0025	598.05
72.0169	566.01
72.0313	585.87
72.0458	541.44
72.0602	542.17
72.0747	549.65
72.0891	565.83
72.1035	599.64
72.1180	568.34
72.1324	523.94
72.1469	593.78
72.1613	630.91
72.1757	636.25
72.1902	657.80
72.2046	566.44
72.2191	567.91
72.2335	552.63
72.2479	503.17
72.2624	556.74
72.2768	608.61
72.2913	617.73
72.3057	637.73
72.3201	599.66
72.3346	554.49
72.3490	610.62
72.3635	622.76
72.3779	590.82
72.3923	546.19
72.4068	556.71
72.4212	528.85
72.4357	598.36
72.4501	631.80
72.4645	592.20
72.4790	537.87
72.4934	613.45
72.5079	644.10
72.5223	632.39
72.5367	613.01
72.5512	597.90
72.5656	576.17
72.5801	548.30
72.5945	491.88
72.6089	494.04
72.6234	542.75
72.6378	601.48
72.6523	684.01
72.6667	638.18
72.6811	616.43
72.6956	611.93
72.7100	603.67
72.7245	635.65
72.7389	651.29
72.7533	567.00
72.7678	598.66
72.7822	675.59
72.7967	663.97
72.8111	599.37
72.8255	602.57
72.8400	568.90
72.8544	598.19
72.8689	654.89
72.8833	603.85

Result vector
22.1120	662.37
22.1264	708.54
22.1409	647.04
22.1553	553.08
22.1697	645.70
22.1842	591.19
22.1986	603.85
22.2131	588.52
22.2275	540.20
22.2419	521.80
22.2564	526.80
22.2708	562.84
22.2853	576.98
22.2997	560.97
22.3141	629.53
22.3286	611.87
22.3430	589.67
22.3575	587.33
22.3719	547.08
22.3863	529.88
22.4008	537.48
22.4152	502.67
22.4297	579.29
22.4441	525.63
22.4585	558.99
22.4730	584.62
22.4874	679.40
22.5019	640.68
22.5163	606.19
22.5307	577.79
22.5452	554.11
22.5596	565.07
22.5741	667.54
22.5885	534.52
22.6029	510.01
22.6174	506.97
22.6318	577.46
22.6463	603.98
22.6607	542.88
22.6751	605.60
22.6896	611.87
22.7040	564.86
22.7185	561.04
22.7329	555.35
22.7473	476.22
22.7618	514.97
22.7762	547.97
22.7907	545.77
22.8051	509.65
22.8195	609.71
22.8340	618.09
22.8484	595.26
22.8629	611.11
22.8773	603.65
22.8917	529.13
22.9062	557.84
22.9206	521.96
22.9351	465.83
22.9495	481.48
22.9639	523.41
22.9784	506.08
22.9928	503.27
23.0073	507.20
23.0217	561.70
23.0361	566.49
23.0506	471.48
23.0650	580.17
23.0795	528.83
23.0939	557.27
23.1083	572.64
23.1228	583.20
23.1372	685.83
23.1517	578.03
23.1661	553.86
23.1806	562.64
23.1950	531.28
23.2094	464.70
23.2239	538.51
23.2383	517.95
23.2528	582.52
23.2672	478.76
23.2816	530.52
23.2961	552.19
23.3105	562.94
23.3250	622.75
23.3394	618.27
23.3538	600.73
23.3683	504.60
23.3827	556.56
23.3972	568.63
23.4116	581.66
23.4260	667.99
23.4405	559.51
23.4549	510.81
23.4694	475.39
23.4838	518.63
23.4982	516.61
23.5127	511.94
23.5271	573.89
23.5416	515.61
23.5560	605.82
23.5704	566.44
23.5849	555.13
23.5993	576.95
23.6138	517.61
23.6282	570.05
23.6426	534.16
23.6571	550.12
23.6715	479.08
23.6860	524.35
23.7004	546.51
23.7148	597.19
23.7293	556.33
23.7437	614.06
23.7582	543.90
23.7726	556.79
23.7870	615.92
23.8015	539.25
23.8159	610.24
23.8304	597.84
23.8448	517.44
23.8592	598.91
23.8737	603.50
23.8881	490.25
23.9026	601.34
23.9170	609.64
23.9314	501.49
23.9459	549.63
23.9603	514.35
23.9748	580.45
23.9892	528.85
24.0036	505.69
24.0181	557.32
24.0325	544.40
24.0470	559.75
24.0614	565.37
24.0758	537.91
24.0903	530.94
24.1047	595.37
24.1192	621.11
24.1336	588.23
24.1480	525.12
24.1625	578.74
24.1769	535.98
24.1914	602.35
24.2058	576.33
24.2202	577.93
24.2347	577.00
24.2491	646.27
24.2636	545.25
24.2780	576.17
24.2924	569.52
24.3069	581.30
24.3213	509.66
24.3358	610.69
24.3502	566.89
24.3646	567.26
24.3791	554.65
24.3935	475.60
24.4080	514.78
24.4224	593.82
24.4368	532.98
24.4513	538.81
24.4657	560.65
24.4802	559.40
24.4946	543.75
24.5090	572.34
24.5235	516.58
24.5379	503.70
24.5524	518.81
24.5668	559.61
24.5812	532.39
24.5957	554.85
24.6101	543.43
24.6246	544.28
24.6390	579.08
24.6534	530.61
24.6679	552.93
24.6823	523.32
24.6968	548.28
24.7112	582.24
24.7256	543.05
24.7401	516.65
24.7545	567.62
24.7690	561.63
24.7834	571.21
24.7978	511.24
24.8123	561.90
24.8267	530.70
24.8412	530.13
24.8556	525.24
24.8700	554.16
24.8845	561.55
24.8989	536.18
24.9134	558.09
24.9278	538.34
24.9422	600.72
24.9567	545.58
24.9711	504.98
24.9856	536.53
25.0000	494.52
25.0144	521.69
25.0289	557.38
25.0433	504.83
25.0578	569.60
25.0722	506.91
25.0866	572.90
25.1011	564.82
25.1155	540.94
25.1300	532.21
25.1444	481.38
25.1588	561.65
25.1733	591.10
25.1877	562.69
25.2022	541.26
25.2166	543.42
25.2310	558.60
25.2455	560.72
25.2599	518.49
25.2744	550.47
25.2888	553.24
25.3032	555.50
25.3177	539.96
25.3321	524.91
25.3466	539.19
25.3610	558.21
25.3754	560.26
25.3899	523.82
25.4043	508.09
25.4188	532.79
25.4332	556.76
25.4476	535.34
25.4621	552.27
25.4765	537.03
25.4910	542.73
25.5054	512.14
25.5198	499.60
25.5343	536.95
25.5487	513.87
25.5632	534.64
25.5776	563.27
25.5920	581.09
25.6065	547.95
25.6209	541.91
25.6354	523.62
25.6498	560.41
25.6642	562.79
25.6787	530.93
25.6931	535.64
25.7076	579.69
25.7220	583.44
25.7364	527.57
25.7509	513.83
25.7653	499.36
25.7798	514.53
25.7942	515.32
25.8086	501.55
25.8231	556.46
25.8375	515.12
25.8520	549.24
25.8664	556.30
25.8808	517.01
25.8953	548.32
25.9097	524.74
25.9242	528.71
25.9386	522.31
25.9530	523.99
25.9675	527.20
25.9819	542.46
25.9964	549.66
26.0108	562.68
26.0252	517.64
26.0397	512.63
26.0541	549.28
26.0686	542.81
26.0830	560.51
26.0974	549.10
26.1119	550.59
26.1263	548.13
26.1408	513.82
26.1552	531.50
26.1696	526.42
26.1841	520.97
26.1985	534.91
26.2130	524.13
26.2274	546.55
26.2418	552.57
26.2563	533.15
26.2707	519.52
26.2852	519.48
26.2996	504.90
26.3140	539.64
26.3285	516.30
26.3429	534.84
26.3574	544.12
26.3718	526.56
26.3862	482.09
26.4007	502.11
26.4151	538.72
26.4296	559.66
26.4440	507.09
26.4584	511.49
26.4729	538.14
26.4873	507.67
26.5018	500.61
26.5162	517.34
26.5306	561.97
26.5451	556.48
26.5595	522.20
26.5740	511.49
26.5884	537.43
26.6028	533.91
26.6173	528.28
26.6317	512.49
26.6462	516.95
26.6606	551.12
26.6750	525.71
26.6895	517.24
26.7039	550.64
26.7184	545.24
26.7328	504.82
26.7472	501.88
26.7617	519.01
26.7761	511.23
26.7906	478.34
26.8050	496.33
26.8194	546.74
26.8339	543.94
26.8483	519.98
26.8628	538.70
26.8772	509.49
26.8917	513.21
26.9061	537.69
26.9205	546.63
26.9350	527.01
26.9494	527.69
26.9639	497.29
26.9783	508.65
26.9927	539.52
27.0072	515.62
27.0216	514.87
27.0361	517.61
27.0505	526.56
27.0649	539.34
27.0794	537.48
27.0938	529.15
27.1083	526.62
27.1227	537.10
27.1371	490.45
27.1516	503.88
27.1660	536.08
27.1805	508.83
27.1949	538.81
27.2093	492.75
27.2238	486.89
27.2382	507.94
27.2527	506.02
27.2671	512.95
27.2815	547.72
27.2960	521.48
27.3104	502.46
27.3249	522.18
27.3393	533.34
27.3537	521.82
27.3682	498.10
27.3826	502.99
27.3971	511.64
27.4115	470.47
27.4259	494.43
27.4404	485.30
27.4548	549.09
27.4693	569.73
27.4837	533.79
27.4981	502.72
27.5126	505.79
27.5270	517.01
27.5415	508.65
27.5559	529.94
27.5703	541.71
27.5848	546.09
27.5992	530.37
27.6137	514.89
27.6281	493.76
27.6425	499.72
27.6570	488.65
27.6714	515.04
27.6859	484.49
27.7003	539.79
27.7147	549.09
27.7292	512.74
27.7436	507.00
27.7581	505.72
27.7725	493.32
27.7869	513.22
27.8014	498.44
27.8158	516.95
27.8303	518.78
27.8447	513.26
27.8591	523.12
27.8736	517.43
27.8880	486.98
27.9025	498.10
27.9169	490.60
27.9313	485.04
27.9458	513.20
27.9602	505.59
27.9747	540.02
27.9891	523.40
28.0035	517.58
28.0180	474.65
28.0324	499.35
28.0469	504.69
28.0613	542.64
28.0757	519.34
28.0902	533.65
28.1046	495.84
28.1191	513.64
28.1335	508.26
28.1479	508.63
28.1624	511.91
28.1768	536.83
28.1913	515.76
28.2057	528.74
28.2201	528.10
28.2346	481.52
28.2490	529.49
28.2635	504.17
28.2779	504.19
28.2923	484.71
28.3068	511.63
28.3212	522.07
28.3357	540.80
28.3501	520.13
28.3645	531.88
28.3790	531.59
28.3934	510.51
28.4079	531.34
28.4223	526.77
28.4367	515.46
28.4512	480.63
28.4656	505.92
28.4801	513.16
28.4945	538.94
28.5089	525.32
28.5234	482.55
28.5378	521.67
28.5523	508.11
28.5667	525.80
28.5811	508.48
28.5956	508.62
28.6100	535.37
28.6245	517.81
28.6389	507.49
28.6533	531.57
28.6678	518.23
28.6822	519.14
28.6967	531.75
28.7111	505.60
28.7255	531.00
28.7400	486.45
28.7544	522.17
28.7689	483.05
28.7833	505.69
28.7977	493.22
28.8122	518.13
28.8266	511.03
28.8411	504.78
28.8555	515.29
28.8699	532.05
28.8844	519.46
28.8988	491.54
28.9133	528.56
28.9277	531.65
28.9421	511.61
28.9566	520.86
28.9710	536.18
28.9855	491.85
28.9999	468.14
29.0143	474.02
29.0288	509.53
29.0432	513.56
29.0577	528.02
29.0721	525.96
29.0865	539.88
29.1010	520.17
29.1154	530.00
29.1299	530.02
29.1443	461.51
29.1587	512.49
29.1732	502.60
29.1876	493.38
29.2021	484.35
29.2165	537.07
29.2309	533.37
29.2454	482.22
29.2598	506.03
29.2743	518.80
29.2887	468.21
29.3031	512.72
29.3176	486.51
29.3320	525.72
29.3465	496.69
29.3609	517.93
29.3753	550.04
29.3898	513.01
29.4042	520.46
29.4187	520.19
29.4331	501.98
29.4475	475.29
29.4620	507.57
29.4764	512.70
29.4909	520.39
29.5053	525.94
29.5197	520.52
29.5342	507.97
29.5486	500.26
29.5631	501.19
29.5775	518.46
29.5919	537.02
29.6064	524.00
29.6208	507.25
29.6353	517.97
29.6497	496.83
29.6641	484.07
29.6786	478.79
29.6930	495.64
29.7075	508.46
29.7219	491.19
29.7363	496.39
29.7508	490.37
29.7652	469.97
29.7797	514.42
29.7941	495.87
29.8085	492.03
29.8230	531.60
29.8374	545.41
29.8519	497.75
29.8663	513.66
29.8807	505.25
29.8952	510.89
29.9096	542.15
29.9241	519.97
29.9385	505.19
29.9529	493.62
29.9674	504.44
29.9818	514.42
29.9963	480.57
30.0107	487.62
30.0251	497.76
30.0396	518.86
30.0540	505.19
30.0685	514.73
30.0829	517.86
30.0973	531.52
30.1118	492.96
30.1262	493.25
30.1407	502.59
30.1551	501.95
30.1695	481.29
30.1840	485.16
30.1984	504.96
30.2129	536.90
30.2273	539.93
30.2417	512.96
30.2562	474.93
30.2706	497.84
30.2851	536.36
30.2995	503.03
30.3139	465.65
30.3284	512.67
30.3428	491.50
30.3573	478.06
30.3717	541.21
30.3861	510.60
30.4006	483.77
30.4150	500.24
30.4295	489.48
30.4439	491.21
30.4583	511.71
30.4728	525.64
30.4872	527.76
30.5017	522.63
30.5161	507.22
30.5305	503.56
30.5450	501.05
30.5594	552.59
30.5739	520.65
30.5883	534.99
30.6028	526.38
30.6172	532.95
30.6316	527.73
30.6461	537.16
30.6605	574.75
30.6750	576.64
30.6894	556.77
30.7038	619.38
30.7183	615.65
30.7327	642.13
30.7472	673.90
30.7616	629.80
30.7760	661.22
30.7905	668.77
30.8049	724.64
30.8194	712.24
30.8338	706.07
30.8482	631.99
30.8627	671.67
30.8771	623.66
30.8916	592.41
30.9060	603.14
30.9204	622.86
30.9349	577.75
30.9493	527.06
30.9638	539.85
30.9782	517.53
30.9926	529.47
31.0071	510.90
31.0215	519.80
31.0360	515.17
31.0504	513.12
31.0648	520.54
31.0793	516.49
31.0937	554.11
31.1082	519.55
31.1226	507.95
31.1370	485.22
31.1515	489.92
31.1659	517.65
31.1804	518.18
31.1948	508.82
31.2092	534.46
31.2237	511.19
31.2381	537.95
31.2526	572.11
31.2670	545.93
31.2814	520.39
31.2959	529.17
31.3103	520.03
31.3248	528.39
31.3392	553.08
31.3536	532.54
31.3681	530.18
31.3825	534.69
31.3970	536.84
31.4114	531.33
31.4258	537.60
31.4403	471.49
31.4547	484.28
31.4692	517.63
31.4836	552.39
31.4980	529.47
31.5125	499.26
31.5269	479.84
31.5414	513.40
31.5558	532.82
31.5702	521.31
31.5847	486.55
31.5991	511.15
31.6136	514.75
31.6280	522.46
31.6424	512.62
31.6569	518.36
31.6713	463.29
31.6858	468.50
31.7002	514.07
31.7146	520.85
31.7291	491.61
31.7435	473.44
31.7580	508.71
31.7724	514.40
31.7868	517.19
31.8013	538.81
31.8157	502.20
31.8302	492.58
31.8446	508.98
31.8590	535.36
31.8735	526.14
31.8879	498.74
31.9024	497.60
31.9168	528.56
31.9312	506.22
31.9457	508.47
31.9601	494.27
31.9746	486.88
31.9890	506.90
32.0034	503.01
32.0179	502.92
32.0323	540.70
32.0468	515.68
32.0612	491.90
32.0756	490.91
32.0901	535.71
32.1045	500.18
32.1190	511.82
32.1334	535.11
32.1478	504.80
32.1623	514.40
32.1767	503.38
32.1912	509.46
32.2056	505.03
32.2200	511.22
32.2345	532.64
32.2489	531.74
32.2634	475.54
32.2778	490.35
32.2922	536.69
32.3067	485.51
32.3211	489.65
32.3356	498.71
32.3500	517.34
32.3644	485.35
32.3789	489.22
32.3933	509.86
32.4078	494.98
32.4222	508.85
32.4366	500.11
32.4511	496.05
32.4655	519.72
32.4800	509.03
32.4944	462.54
32.5088	499.82
32.5233	452.01
32.5377	496.55
32.5522	498.43
32.5666	515.57
32.5810	514.00
32.5955	523.25
32.6099	473.46
32.6244	485.71
32.6388	487.64
32.6532	494.03
32.6677	487.09
32.6821	488.63
32.6966	482.84
32.7110	495.54
32.7254	487.15
32.7399	505.50
32.7543	524.03
32.7688	523.10
32.7832	521.76
32.7976	502.20
32.8121	486.10
32.8265	496.16
32.8410	497.50
32.8554	499.97
32.8698	484.10
32.8843	487.99
32.8987	532.63
32.9132	510.70
32.9276	492.83
32.9420	532.03
32.9565	502.52
32.9709	486.28
32.9854	521.71
32.9998	481.58
33.0142	484.09
33.0287	548.30
33.0431	529.94
33.0576	527.38
33.0720	567.88
33.0864	514.45
33.1009	493.58
33.1153	490.75
33.1298	524.96
33.1442	530.20
33.1586	519.63
33.1731	518.18
33.1875	515.69
33.2020	481.82
33.2164	477.04
33.2308	494.36
33.2453	542.29
33.2597	510.92
33.2742	515.04
33.2886	548.02
33.3030	488.70
33.3175	487.52
33.3319	503.00
33.3464	496.70
33.3608	512.35
33.3752	507.75
33.3897	527.21
33.4041	513.61
33.4186	527.76
33.4330	549.35
33.4474	494.74
33.4619	500.16
33.4763	554.01
33.4908	524.03
33.5052	472.11
33.5196	513.48
33.5341	499.99
33.5485	506.67
33.5630	520.91
33.5774	482.35
33.5918	502.70
33.6063	521.92
33.6207	494.14
33.6352	514.82
33.6496	522.78
33.6640	527.34
33.6785	500.27
33.6929	492.62
33.7074	515.99
33.7218	506.91
33.7362	489.98
33.7507	472.65
33.7651	476.06
33.7796	515.50
33.7940	494.16
33.8084	501.62
33.8229	490.21
33.8373	509.00
33.8518	489.99
33.8662	515.02
33.8806	483.19
33.8951	464.66
33.9095	518.87
33.9240	486.71
33.9384	496.37
33.9528	496.54
33.9673	524.62
33.9817	509.78
33.9962	520.05
34.0106	475.10
34.0250	471.11
34.0395	511.51
34.0539	515.11
34.0684	514.94
34.0828	547.79
34.0972	507.39
34.1117	488.50
34.1261	500.95
34.1406	517.77
34.1550	515.22
34.1694	507.70
34.1839	503.76
34.1983	504.56
34.2128	467.26
34.2272	506.51
34.2417	498.49
34.2561	508.74
34.2705	504.36
34.2850	508.43
34.2994	483.80
34.3139	485.51
34.3283	514.48
34.3427	517.20
34.3572	513.61
34.3716	517.72
34.3861	504.51
34.4005	475.35
34.4149	516.60
34.4294	499.68
34.4438	486.96
34.4583	505.07
34.4727	532.74
34.4871	515.61
34.5016	500.92
34.5160	502.83
34.5305	509.58
34.5449	489.49
34.5593	519.66
34.5738	497.77
34.5882	483.72
34.6027	501.50
34.6171	500.57
34.6315	495.16
34.6460	492.02
34.6604	502.00
34.6749	513.13
34.6893	500.83
34.7037	518.39
34.7182	509.16
34.7326	490.73
34.7471	505.28
34.7615	504.67
34.7759	473.15
34.7904	493.14
34.8048	483.19
34.8193	500.65
34.8337	512.06
34.8481	494.54
34.8626	516.49
34.8770	477.95
34.8915	508.82
34.9059	513.41
34.9203	509.32
34.9348	521.74
34.9492	492.11
34.9637	468.59
34.9781	501.85
34.9925	492.93
35.0070	516.51
35.0214	523.64
35.0359	507.04
35.0503	518.60
35.0647	537.46
35.0792	516.57
35.0936	552.35
35.1081	551.50
35.1225	520.33
35.1369	527.67
35.1514	489.67
35.1658	519.38
35.1803	505.43
35.1947	503.85
35.2091	483.50
35.2236	511.15
35.2380	489.88
35.2525	487.99
35.2669	487.78
35.2813	490.52
35.2958	498.12
35.3102	528.46
35.3247	500.21
35.3391	530.07
35.3535	525.73
35.3680	523.33
35.3824	515.89
35.3969	506.33
35.4113	500.50
35.4257	531.54
35.4402	526.02
35.4546	513.46
35.4691	507.69
35.4835	518.93
35.4979	511.92
35.5124	502.69
35.5268	532.54
35.5413	570.11
35.5557	579.40
35.5701	547.09
35.5846	517.45
35.5990	513.62
35.6135	516.09
35.6279	546.03
35.6423	498.29
35.6568	528.98
35.6712	543.45
35.6857	616.48
35.7001	689.73
35.7145	779.44
35.7290	659.78
35.7434	611.39
35.7579	624.03
35.7723	578.79
35.7867	664.27
35.8012	684.94
35.8156	713.18
35.8301	668.37
35.8445	645.45
35.8589	621.79
35.8734	735.20
35.8878	877.84
35.9023	997.26
35.9167	974.12
35.9311	1270.85
35.9456	1960.37
35.9600	2245.30
35.9745	1967.34
35.9889	1983.76
36.0033	2746.03
36.0178	3272.37
36.0322	2629.93
36.0467	1972.16
36.0611	1733.92
36.0755	1564.16
36.0900	1677.54
36.1044	1375.23
36.1189	1409.88
36.1333	1417.89
36.1477	1248.13
36.1622	1241.63
36.1766	1117.56
36.1911	1104.94
36.2055	1062.11
36.2199	1098.27
36.2344	983.28
36.2488	999.82
36.2633	983.66
36.2777	972.51
36.2921	949.24
36.3066	986.83
36.3210	883.68
36.3355	884.22
36.3499	813.68
36.3643	793.07
36.3788	755.43
36.3932	746.59
36.4077	701.18
36.4221	682.21
36.4365	670.26
36.4510	580.61
36.4654	605.26
36.4799	598.36
36.4943	559.54
36.5087	602.72
36.5232	546.23
36.5376	554.99
36.5521	589.55
36.5665	593.50
36.5809	557.83
36.5954	539.69
36.6098	532.25
36.6243	570.84
36.6387	567.32
36.6531	551.49
36.6676	569.60
36.6820	565.57
36.6965	548.28
36.7109	538.21
36.7253	532.46
36.7398	529.19
36.7542	533.27
36.7687	509.65
36.7831	532.76
36.7975	551.06
36.8120	576.44
36.8264	571.07
36.8409	615.54
36.8553	606.68
36.8697	594.03
36.8842	566.79
36.8986	599.24
36.9131	583.39
36.9275	538.30
36.9419	601.21
36.9564	543.02
36.9708	573.67
36.9853	558.18
36.9997	535.62
37.0141	523.90
37.0286	541.48
37.0430	515.99
37.0575	502.97
37.0719	534.03
37.0863	560.21
37.1008	493.12
37.1152	518.20
37.1297	519.95
37.1441	532.74
37.1585	503.13
37.1730	509.61
37.1874	485.64
37.2019	508.62
37.2163	523.73
37.2307	520.95
37.2452	537.66
37.2596	497.25
37.2741	505.60
37.2885	550.84
37.3029	512.82
37.3174	518.85
37.3318	556.23
37.3463	539.89
37.3607	500.05
37.3751	495.63
37.3896	507.01
37.4040	490.94
37.4185	509.34
37.4329	512.40
37.4473	508.97
37.4618	524.62
37.4762	527.17
37.4907	506.89
37.5051	508.06
37.5195	531.67
37.5340	535.77
37.5484	519.12
37.5629	487.45
37.5773	481.68
37.5917	511.47
37.6062	534.68
37.6206	486.12
37.6351	495.46
37.6495	470.50
37.6639	473.46
37.6784	498.62
37.6928	504.14
37.7073	520.28
37.7217	508.34
37.7361	462.92
37.7506	524.93
37.7650	486.70
37.7795	513.38
37.7939	508.13
37.8083	492.88
37.8228	543.33
37.8372	520.62
37.8517	513.80
37.8661	541.69
37.8805	531.86
37.8950	501.46
37.9094	512.16
37.9239	495.84
37.9383	496.36
37.9528	538.84
37.9672	478.16
37.9816	454.06
37.9961	484.85
38.0105	517.20
38.0250	508.11
38.0394	519.42
38.0538	533.71
38.0683	522.37
38.0827	539.56
38.0972	539.76
38.1116	512.16
38.1260	511.61
38.1405	485.34
38.1549	513.95
38.1694	521.74
38.1838	484.26
38.1982	446.67
38.2127	508.69
38.2271	538.27
38.2416	505.19
38.2560	490.33
38.2704	514.93
38.2849	548.04
38.2993	485.89
38.3138	482.52
38.3282	487.26
38.3426	512.93
38.3571	505.87
38.3715	519.37
38.3860	541.97
38.4004	531.47
38.4148	569.37
38.4293	574.33
38.4437	552.97
38.4582	572.03
38.4726	633.46
38.4870	690.24
38.5015	765.67
38.5159	786.72
38.5304	787.43
38.5448	767.84
38.5592	771.26
38.5737	810.25
38.5881	757.44
38.6026	767.71
38.6170	725.80
38.6314	698.02
38.6459	669.80
38.6603	660.98
38.6748	648.87
38.6892	559.10
38.7036	586.24
38.7181	533.11
38.7325	503.14
38.7470	512.90
38.7614	501.71
38.7758	538.04
38.7903	530.25
38.8047	483.47
38.8192	508.65
38.8336	509.17
38.8480	514.10
38.8625	499.17
38.8769	521.81
38.8914	517.38
38.9058	531.32
38.9202	524.65
38.9347	506.77
38.9491	491.09
38.9636	502.77
38.9780	456.12
38.9924	481.88
39.0069	466.13
39.0213	495.02
39.0358	531.03
39.0502	494.67
39.0646	508.78
39.0791	513.21
39.0935	512.39
39.1080	530.13
39.1224	491.31
39.1368	507.46
39.1513	533.06
39.1657	496.82
39.1802	488.51
39.1946	490.06
39.2090	490.07
39.2235	530.64
39.2379	496.61
39.2524	472.71
39.2668	495.82
39.2812	523.75
39.2957	492.98
39.3101	490.34
39.3246	532.21
39.3390	531.65
39.3534	521.20
39.3679	524.29
39.3823	550.71
39.3968	509.38
39.4112	512.43
39.4256	512.80
39.4401	507.63
39.4545	502.84
39.4690	510.39
39.4834	516.89
39.4978	516.73
39.5123	498.23
39.5267	497.08
39.5412	479.67
39.5556	482.18
39.5700	482.02
39.5845	468.30
39.5989	515.12
39.6134	493.17
39.6278	481.61
39.6422	473.48
39.6567	495.45
39.6711	488.72
39.6856	513.12
39.7000	509.36
39.7144	512.51
39.7289	499.22
39.7433	492.83
39.7578	491.24
39.7722	493.06
39.7866	504.14
39.8011	462.94
39.8155	501.47
39.8300	501.54
39.8444	486.92
39.8588	533.27
39.8733	542.03
39.8877	483.50
39.9022	500.67
39.9166	491.68
39.9310	464.25
39.9455	477.43
39.9599	511.35
39.9744	509.96
39.9888	509.55
40.0032	476.68
40.0177	476.45
40.0321	514.34
40.0466	479.65
40.0610	518.87
40.0754	522.55
40.0899	513.85
40.1043	495.58
40.1188	484.76
40.1332	480.13
40.1476	490.99
40.1621	506.26
40.1765	518.33
40.1910	494.60
40.2054	530.99
40.2198	523.19
40.2343	526.24
40.2487	502.60
40.2632	507.74
40.2776	524.24
40.2920	503.96
40.3065	481.59
40.3209	442.25
40.3354	469.21
40.3498	464.15
40.3642	480.09
40.3787	491.23
40.3931	481.42
40.4076	476.51
40.4220	494.77
40.4364	477.35
40.4509	505.33
40.4653	505.26
40.4798	470.71
40.4942	491.41
40.5086	503.64
40.5231	455.27
40.5375	486.59
40.5520	492.06
40.5664	520.22
40.5808	497.97
40.5953	470.04
40.6097	500.00
40.6242	515.98
40.6386	530.39
40.6530	494.60
40.6675	506.61
40.6819	496.47
40.6964	501.55
40.7108	527.10
40.7252	459.67
40.7397	506.50
40.7541	469.05
40.7686	499.62
40.7830	492.37
40.7974	506.79
40.8119	498.06
40.8263	521.22
40.8408	504.66
40.8552	493.00
40.8696	496.28
40.8841	533.00
40.8985	493.31
40.9130	509.22
40.9274	505.40
40.9418	512.46
40.9563	495.86
40.9707	466.67
40.9852	479.60
40.9996	486.71
41.0140	496.09
41.0285	472.35
41.0429	515.80
41.0574	501.91
41.0718	506.76
41.0862	482.40
41.1007	459.93
41.1151	530.74
41.1296	512.31
41.1440	482.62
41.1584	466.64
41.1729	498.20
41.1873	522.68
41.2018	507.77
41.2162	506.51
41.2306	510.09
41.2451	497.66
41.2595	525.64
41.2740	491.95
41.2884	489.55
41.3028	515.65
41.3173	493.58
41.3317	524.35
41.3462	473.20
41.3606	479.73
41.3750	515.19
41.3895	520.91
41.4039	490.00
41.4184	492.42
41.4328	543.23
41.4472	502.95
41.4617	472.48
41.4761	497.97
41.4906	505.55
41.5050	502.34
41.5194	479.96
41.5339	537.79
41.5483	508.93
41.5628	482.76
41.5772	485.72
41.5916	506.43
41.6061	461.57
41.6205	483.88
41.6350	511.86
41.6494	505.82
41.6639	495.27
41.6783	499.25
41.6927	487.12
41.7072	504.80
41.7216	505.97
41.7361	504.10
41.7505	508.22
41.7649	469.94
41.7794	481.50
41.7938	502.34
41.8083	495.44
41.8227	502.55
41.8371	481.05
41.8516	497.84
41.8660	536.76
41.8805	528.16
41.8949	516.85
41.9093	530.70
41.9238	561.63
41.9382	555.35
41.9527	550.69
41.9671	545.78
41.9815	558.61
41.9960	536.74
42.0104	565.84
42.0249	562.76
42.0393	538.04
42.0537	546.48
42.0682	581.41
42.0826	590.91
42.0971	561.29
42.1115	583.33
42.1259	622.14
42.1404	613.67
42.1548	620.29
42.1693	644.82
42.1837	705.26
42.1981	741.17
42.2126	839.32
42.2270	944.42
42.2415	1077.80
42.2559	1229.85
42.2703	1366.97
42.2848	1547.54
42.2992	1684.19
42.3137	1735.14
42.3281	1681.69
42.3425	1580.84
42.3570	1460.87
42.3714	1391.13
42.3859	1372.93
42.4003	1358.48
42.4147	1360.84
42.4292	1318.69
42.4436	1188.38
42.4581	1061.23
42.4725	970.62
42.4869	848.26
42.5014	761.73
42.5158	724.42
42.5303	671.73
42.5447	654.71
42.5591	647.97
42.5736	608.80
42.5880	559.23
42.6025	548.90
42.6169	541.43
42.6313	535.81
42.6458	508.28
42.6602	514.58
42.6747	518.70
42.6891	517.97
42.7035	521.10
42.7180	548.48
42.7324	534.55
42.7469	546.81
42.7613	512.36
42.7757	527.25
42.7902	510.66
42.8046	505.15
42.8191	540.77
42.8335	541.73
42.8479	536.97
42.8624	494.29
42.8768	504.91
42.8913	503.30
42.9057	503.13
42.9201	510.78
42.9346	520.79
42.9490	484.45
42.9635	470.13
42.9779	535.57
42.9923	517.47
43.0068	512.30
43.0212	508.49
43.0357	510.73
43.0501	520.67
43.0645	518.80
43.0790	536.69
43.0934	553.53
43.1079	535.65
43.1223	553.44
43.1367	524.49
43.1512	509.63
43.1656	520.61
43.1801	527.61
43.1945	517.07
43.2089	522.59
43.2234	544.62
43.2378	551.51
43.2523	502.42
43.2667	508.46
43.2811	521.46
43.2956	485.50
43.3100	522.97
43.3245	502.06
43.3389	520.23
43.3533	558.66
43.3678	533.26
43.3822	534.90
43.3967	500.95
43.4111	540.15
43.4255	576.34
43.4400	529.36
43.4544	516.69
43.4689	554.60
43.4833	535.84
43.4977	532.41
43.5122	545.48
43.5266	515.25
43.5411	519.50
43.5555	530.25
43.5699	500.60
43.5844	500.54
43.5988	526.58
43.6133	544.06
43.6277	517.51
43.6421	556.73
43.6566	519.18
43.6710	518.26
43.6855	482.10
43.6999	530.92
43.7143	534.77
43.7288	543.06
43.7432	539.29
43.7577	513.79
43.7721	516.90
43.7865	534.91
43.8010	525.36
43.8154	496.94
43.8299	538.72
43.8443	508.42
43.8587	522.75
43.8732	540.07
43.8876	544.24
43.9021	583.29
43.9165	583.32
43.9309	556.12
43.9454	554.63
43.9598	577.24
43.9743	573.82
43.9887	545.05
44.0031	596.57
44.0176	598.83
44.0320	592.80
44.0465	595.77
44.0609	623.21
44.0753	597.33
44.0898	653.11
44.1042	659.69
44.1187	612.87
44.1331	632.69
44.1475	551.54
44.1620	596.22
44.1764	532.88
44.1909	543.39
44.2053	590.61
44.2197	600.32
44.2342	601.18
44.2486	560.90
44.2631	536.08
44.2775	552.28
44.2919	544.42
44.3064	529.16
44.3208	546.30
44.3353	526.42
44.3497	571.79
44.3641	542.10
44.3786	524.07
44.3930	539.65
44.4075	554.31
44.4219	603.55
44.4363	591.01
44.4508	586.44
44.4652	618.03
44.4797	590.72
44.4941	609.66
44.5085	549.90
44.5230	579.96
44.5374	610.43
44.5519	597.06
44.5663	580.47
44.5807	592.82
44.5952	588.78
44.6096	590.48
44.6241	566.04
44.6385	547.50
44.6529	571.84
44.6674	585.54
44.6818	610.92
44.6963	628.67
44.7107	686.96
44.7251	701.93
44.7396	713.52
44.7540	767.52
44.7685	854.50
44.7829	863.95
44.7973	888.60
44.8118	871.26
44.8262	833.27
44.8407	786.46
44.8551	785.38
44.8695	755.56
44.8840	753.93
44.8984	725.13
44.9129	671.32
44.9273	722.65
44.9417	695.39
44.9562	591.39
44.9706	597.06
44.9851	605.88
44.9995	546.52
45.0139	501.12
45.0284	514.65
45.0428	553.22
45.0573	544.80
45.0717	516.46
45.0861	536.93
45.1006	585.54
45.1150	562.44
45.1295	561.29
45.1439	514.75
45.1583	539.15
45.1728	493.10
45.1872	540.76
45.2017	540.54
45.2161	520.34
45.2305	493.97
45.2450	532.65
45.2594	526.30
45.2739	525.99
45.2883	512.88
45.3028	469.48
45.3172	509.48
45.3316	533.46
45.3461	529.22
45.3605	512.43
45.3750	488.24
45.3894	474.95
45.4038	472.57
45.4183	491.06
45.4327	509.17
45.4472	520.90
45.4616	504.76
45.4760	529.90
45.4905	514.93
45.5049	493.30
45.5194	493.71
45.5338	515.82
45.5482	508.26
45.5627	508.07
45.5771	499.19
45.5916	532.95
45.6060	503.63
45.6204	491.24
45.6349	529.25
45.6493	479.49
45.6638	507.17
45.6782	479.06
45.6926	481.61
45.7071	512.17
45.7215	512.02
45.7360	490.44
45.7504	508.01
45.7648	494.80
45.7793	511.43
45.7937	519.88
45.8082	522.23
45.8226	533.35
45.8370	494.82
45.8515	476.76
45.8659	529.79
45.8804	519.95
45.8948	519.54
45.9092	523.98
45.9237	554.32
45.9381	544.53
45.9526	513.96
45.9670	490.01
45.9814	483.26
45.9959	510.86
46.0103	499.13
46.0248	505.38
46.0392	537.32
46.0536	516.52
46.0681	546.37
46.0825	520.71
46.0970	507.48
46.1114	458.32
46.1258	512.24
46.1403	491.06
46.1547	499.85
46.1692	524.92
46.1836	469.74
46.1980	478.68
46.2125	457.12
46.2269	461.54
46.2414	509.00
46.2558	491.24
46.2702	465.49
46.2847	483.42
46.2991	484.39
46.3136	516.14
46.3280	534.89
46.3424	509.16
46.3569	499.82
46.3713	489.42
46.3858	497.78
46.4002	480.06
46.4146	501.42
46.4291	533.16
46.4435	488.26
46.4580	505.73
46.4724	542.93
46.4868	524.77
46.5013	487.53
46.5157	477.07
46.5302	501.28
46.5446	500.15
46.5590	510.97
46.5735	513.67
46.5879	495.28
46.6024	487.67
46.6168	524.52
46.6312	503.12
46.6457	481.39
46.6601	483.19
46.6746	477.08
46.6890	493.36
46.7034	504.86
46.7179	480.45
46.7323	468.53
46.7468	487.76
46.7612	502.57
46.7756	523.74
46.7901	496.12
46.8045	507.76
46.8190	493.60
46.8334	515.22
46.8478	502.26
46.8623	516.67
46.8767	503.31
46.8912	496.12
46.9056	503.39
46.9200	497.89
46.9345	491.85
46.9489	505.32
46.9634	516.22
46.9778	505.17
46.9922	504.00
47.0067	501.08
47.0211	506.81
47.0356	532.73
47.0500	551.37
47.0644	550.98
47.0789	526.51
47.0933	496.21
47.1078	505.18
47.1222	513.64
47.1366	515.91
47.1511	515.97
47.1655	547.60
47.1800	487.17
47.1944	470.93
47.2088	523.10
47.2233	535.67
47.2377	521.62
47.2522	497.63
47.2666	531.50
47.2810	501.38
47.2955	487.42
47.3099	494.86
47.3244	514.41
47.3388	490.32
47.3532	491.76
47.3677	480.74
47.3821	464.76
47.3966	494.39
47.4110	503.93
47.4254	494.99
47.4399	497.32
47.4543	503.23
47.4688	516.20
47.4832	492.36
47.4976	521.77
47.5121	498.56
47.5265	492.40
47.5410	513.09
47.5554	503.23
47.5698	510.17
47.5843	485.52
47.5987	502.69
47.6132	463.76
47.6276	490.72
47.6420	537.61
47.6565	554.89
47.6709	526.36
47.6854	494.60
47.6998	497.10
47.7142	509.33
47.7287	498.66
47.7431	470.79
47.7576	513.60
47.7720	503.32
47.7864	502.73
47.8009	491.07
47.8153	512.00
47.8298	534.36
47.8442	523.59
47.8586	485.64
47.8731	518.92
47.8875	480.09
47.9020	551.29
47.9164	542.12
47.9308	505.43
47.9453	530.13
47.9597	470.47
47.9742	478.36
47.9886	496.65
48.0030	498.10
48.0175	486.38
48.0319	515.99
48.0464	515.71
48.0608	522.51
48.0752	500.60
48.0897	495.46
48.1041	529.23
48.1186	519.26
48.1330	511.05
48.1474	496.80
48.1619	513.87
48.1763	548.10
48.1908	536.07
48.2052	516.74
48.2196	507.74
48.2341	517.03
48.2485	514.79
48.2630	513.27
48.2774	505.87
48.2918	538.57
48.3063	533.13
48.3207	530.52
48.3352	526.92
48.3496	513.77
48.3640	492.96
48.3785	482.44
48.3929	525.75
48.4074	502.33
48.4218	500.63
48.4362	491.19
48.4507	476.80
48.4651	509.12
48.4796	498.34
48.4940	537.67
48.5084	491.55
48.5229	502.30
48.5373	542.40
48.5518	513.89
48.5662	541.70
48.5806	537.94
48.5951	497.56
48.6095	516.94
48.6240	521.38
48.6384	526.66
48.6528	493.03
48.6673	514.57
48.6817	541.66
48.6962	554.16
48.7106	557.15
48.7250	518.12
48.7395	494.72
48.7539	495.57
48.7684	524.05
48.7828	483.93
48.7972	540.44
48.8117	534.36
48.8261	530.83
48.8406	559.97
48.8550	547.68
48.8694	557.22
48.8839	547.69
48.8983	509.78
48.9128	510.92
48.9272	505.41
48.9416	520.71
48.9561	528.69
48.9705	547.17
48.9850	588.98
48.9994	585.56
49.0139	554.80
49.0283	609.02
49.0427	604.40
49.0572	660.60
49.0716	651.46
49.0861	647.15
49.1005	653.47
49.1149	692.72
49.1294	773.53
49.1438	748.88
49.1583	785.88
49.1727	859.39
49.1871	912.01
49.2016	981.29
49.2160	996.13
49.2305	1124.40
49.2449	1267.01
49.2593	1284.11
49.2738	1325.55
49.2882	1446.92
49.3027	1508.39
49.3171	1654.56
49.3315	1734.12
49.3460	1788.24
49.3604	1837.80
49.3749	1777.30
49.3893	1820.86
49.4037	1754.92
49.4182	1757.76
49.4326	1722.29
49.4471	1693.64
49.4615	1712.56
49.4759	1599.33
49.4904	1523.98
49.5048	1421.85
49.5193	1330.72
49.5337	1307.28
49.5481	1207.71
49.5626	1131.39
49.5770	1101.40
49.5915	980.89
49.6059	911.64
49.6203	896.67
49.6348	866.61
49.6492	768.21
49.6637	756.34
49.6781	713.82
49.6925	676.67
49.7070	676.48
49.7214	640.85
49.7359	600.63
49.7503	612.96
49.7647	559.59
49.7792	604.38
49.7936	607.59
49.8081	557.49
49.8225	557.02
49.8369	558.90
49.8514	574.65
49.8658	573.18
49.8803	536.32
49.8947	591.66
49.9091	569.06
49.9236	534.48
49.9380	557.89
49.9525	540.54
49.9669	566.15
49.9813	563.82
49.9958	520.67
50.0102	545.94
50.0247	546.77
50.0391	518.20
50.0535	534.55
50.0680	533.73
50.0824	545.18
50.0969	521.56
50.1113	538.91
50.1257	543.37
50.1402	502.65
50.1546	526.99
50.1691	530.68
50.1835	558.04
50.1979	519.85
50.2124	492.58
50.2268	485.78
50.2413	523.79
50.2557	533.36
50.2701	530.44
50.2846	523.88
50.2990	528.17
50.3135	534.59
50.3279	543.54
50.3423	525.81
50.3568	544.84
50.3712	550.34
50.3857	505.08
50.4001	509.96
50.4145	476.99
50.4290	511.34
50.4434	524.12
50.4579	522.59
50.4723	490.78
50.4867	491.21
50.5012	526.31
50.5156	534.15
50.5301	516.34
50.5445	499.57
50.5589	488.54
50.5734	499.30
50.5878	528.07
50.6023	525.98
50.6167	530.82
50.6311	521.63
50.6456	499.97
50.6600	495.15
50.6745	472.03
50.6889	497.48
50.7033	477.99
50.7178	497.79
50.7322	503.01
50.7467	520.34
50.7611	521.95
50.7755	496.81
50.7900	497.73
50.8044	491.57
50.8189	522.40
50.8333	508.97
50.8477	497.91
50.8622	521.96
50.8766	527.69
50.8911	509.74
50.9055	498.72
50.9199	493.11
50.9344	511.29
50.9488	511.97
50.9633	485.01
50.9777	498.96
50.9921	468.11
51.0066	480.69
51.0210	467.38
51.0355	470.70
51.0499	476.41
51.0643	497.70
51.0788	507.57
51.0932	520.30
51.1077	475.97
51.1221	495.03
51.1365	545.80
51.1510	488.08
51.1654	488.22
51.1799	496.81
51.1943	455.46
51.2087	496.54
51.2232	534.58
51.2376	516.61
51.2521	523.90
51.2665	500.54
51.2809	516.68
51.2954	463.74
51.3098	485.20
51.3243	486.43
51.3387	520.72
51.3531	551.06
51.3676	508.92
51.3820	501.25
51.3965	483.10
51.4109	491.54
51.4253	519.35
51.4398	511.69
51.4542	490.86
51.4687	503.41
51.4831	524.11
51.4975	490.80
51.5120	500.59
51.5264	484.15
51.5409	495.90
51.5553	513.85
51.5697	503.80
51.5842	514.80
51.5986	503.24
51.6131	492.75
51.6275	480.03
51.6419	537.65
51.6564	520.33
51.6708	496.76
51.6853	488.90
51.6997	476.03
51.7141	484.34
51.7286	517.88
51.7430	509.71
51.7575	489.11
51.7719	492.96
51.7863	497.31
51.8008	496.49
51.8152	499.25
51.8297	513.18
51.8441	543.63
51.8585	494.77
51.8730	527.63
51.8874	515.89
51.9019	480.67
51.9163	532.30
51.9307	496.48
51.9452	532.49
51.9596	532.95
51.9741	479.73
51.9885	488.90
52.0029	519.59
52.0174	529.03
52.0318	472.95
52.0463	470.00
52.0607	514.77
52.0751	513.43
52.0896	548.75
52.1040	521.45
52.1185	547.27
52.1329	526.33
52.1473	483.30
52.1618	516.73
52.1762	540.44
52.1907	482.62
52.2051	486.95
52.2195	509.05
52.2340	505.80
52.2484	501.67
52.2629	499.80
52.2773	520.08
52.2917	533.17
52.3062	485.31
52.3206	533.63
52.3351	514.11
52.3495	529.24
52.3639	525.40
52.3784	503.68
52.3928	468.47
52.4073	488.28
52.4217	517.26
52.4361	524.98
52.4506	512.43
52.4650	523.23
52.4795	516.42
52.4939	508.10
52.5083	483.69
52.5228	539.11
52.5372	523.37
52.5517	517.09
52.5661	471.43
52.5805	480.35
52.5950	518.60
52.6094	533.74
52.6239	525.35
52.6383	498.23
52.6527	514.55
52.6672	487.54
52.6816	499.60
52.6961	502.99
52.7105	536.34
52.7250	492.74
52.7394	488.19
52.7538	516.86
52.7683	505.40
52.7827	490.03
52.7972	498.24
52.8116	487.86
52.8260	488.37
52.8405	516.73
52.8549	524.44
52.8694	490.64
52.8838	475.74
52.8982	521.06
52.9127	490.99
52.9271	489.42
52.9416	497.91
52.9560	473.81
52.9704	519.51
52.9849	506.09
52.9993	500.90
53.0138	488.81
53.0282	471.42
53.0426	524.03
53.0571	483.57
53.0715	527.03
53.0860	515.57
53.1004	517.36
53.1148	493.63
53.1293	553.61
53.1437	485.68
53.1582	511.46
53.1726	544.69
53.1870	488.28
53.2015	499.69
53.2159	497.94
53.2304	514.86
53.2448	503.89
53.2592	509.94
53.2737	563.40
53.2881	524.26
53.3026	524.25
53.3170	515.30
53.3314	506.87
53.3459	489.27
53.3603	505.44
53.3748	496.86
53.3892	496.97
53.4036	508.56
53.4181	471.21
53.4325	495.71
53.4470	508.05
53.4614	503.22
53.4758	533.74
53.4903	571.40
53.5047	510.59
53.5192	482.65
53.5336	499.24
53.5480	510.40
53.5625	503.67
53.5769	471.74
53.5914	519.70
53.6058	491.66
53.6202	520.72
53.6347	519.00
53.6491	481.51
53.6636	530.54
53.6780	522.21
53.6924	507.86
53.7069	515.13
53.7213	532.85
53.7358	511.12
53.7502	524.46
53.7646	501.09
53.7791	513.80
53.7935	538.16
53.8080	544.40
53.8224	526.11
53.8368	509.11
53.8513	511.92
53.8657	540.80
53.8802	533.41
53.8946	524.07
53.9090	523.43
53.9235	505.93
53.9379	527.76
53.9524	507.73
53.9668	496.88
53.9812	527.64
53.9957	532.39
54.0101	520.20
54.0246	521.26
54.0390	475.62
54.0534	502.63
54.0679	554.29
54.0823	522.32
54.0968	518.57
54.1112	525.14
54.1256	535.79
54.1401	488.26
54.1545	506.43
54.1690	528.51
54.1834	527.89
54.1978	514.68
54.2123	522.18
54.2267	528.46
54.2412	520.06
54.2556	530.93
54.2700	531.44
54.2845	531.53
54.2989	522.69
54.3134	526.94
54.3278	546.38
54.3422	521.28
54.3567	517.95
54.3711	514.49
54.3856	522.87
54.4000	527.94
54.4144	509.62
54.4289	581.12
54.4433	516.24
54.4578	547.39
54.4722	550.72
54.4866	526.18
54.5011	557.00
54.5155	567.23
54.5300	551.55
54.5444	551.74
54.5588	575.01
54.5733	577.21
54.5877	584.33
54.6022	580.33
54.6166	571.52
54.6310	606.40
54.6455	581.78
54.6599	562.18
54.6744	595.47
54.6888	550.45
54.7032	564.69
54.7177	578.86
54.7321	593.21
54.7466	583.25
54.7610	567.09
54.7754	547.20
54.7899	529.95
54.8043	519.28
54.8188	564.47
54.8332	559.84
54.8476	532.57
54.8621	566.29
54.8765	526.83
54.8910	519.42
54.9054	560.51
54.9198	584.54
54.9343	555.95
54.9487	517.69
54.9632	489.31
54.9776	513.91
54.9920	517.71
55.0065	526.01
55.0209	531.08
55.0354	531.16
55.0498	526.00
55.0642	537.25
55.0787	535.00
55.0931	541.25
55.1076	523.73
55.1220	540.54
55.1364	545.61
55.1509	503.93
55.1653	530.45
55.1798	531.65
55.1942	483.07
55.2086	488.69
55.2231	508.47
55.2375	506.22
55.2520	520.86
55.2664	488.03
55.2808	503.79
55.2953	491.44
55.3097	501.96
55.3242	505.62
55.3386	520.54
55.3530	524.43
55.3675	527.70
55.3819	521.09
55.3964	501.53
55.4108	503.93
55.4252	538.75
55.4397	528.44
55.4541	513.89
55.4686	507.72
55.4830	489.90
55.4974	513.15
55.5119	539.79
55.5263	544.76
55.5408	549.05
55.5552	541.73
55.5696	503.73
55.5841	513.43
55.5985	517.29
55.6130	520.82
55.6274	530.41
55.6418	540.35
55.6563	504.88
55.6707	505.40
55.6852	511.21
55.6996	530.91
55.7140	524.37
55.7285	526.34
55.7429	503.00
55.7574	526.87
55.7718	547.42
55.7862	552.95
55.8007	519.50
55.8151	516.43
55.8296	561.67
55.8440	537.09
55.8584	556.57
55.8729	554.22
55.8873	505.11
55.9018	524.72
55.9162	551.06
55.9306	514.89
55.9451	531.67
55.9595	513.64
55.9740	541.86
55.9884	532.84
56.0028	502.50
56.0173	520.90
56.0317	513.56
56.0462	510.21
56.0606	516.58
56.0750	533.27
56.0895	562.68
56.1039	526.41
56.1184	542.27
56.1328	531.65
56.1472	505.45
56.1617	551.06
56.1761	512.06
56.1906	497.32
56.2050	497.10
56.2194	511.40
56.2339	525.65
56.2483	527.92
56.2628	515.56
56.2772	490.66
56.2916	479.41
56.3061	541.64
56.3205	505.24
56.3350	517.19
56.3494	460.98
56.3639	493.32
56.3783	477.54
56.3927	516.29
56.4072	503.39
56.4216	484.55
56.4361	524.29
56.4505	553.55
56.4649	521.77
56.4794	511.77
56.4938	518.92
56.5083	551.99
56.5227	568.64
56.5371	503.00
56.5516	489.94
56.5660	519.33
56.5805	488.59
56.5949	499.82
56.6093	545.21
56.6238	552.49
56.6382	506.13
56.6527	528.03
56.6671	510.67
56.6815	493.25
56.6960	520.40
56.7104	573.31
56.7249	504.54
56.7393	514.70
56.7537	530.90
56.7682	509.67
56.7826	533.42
56.7971	529.42
56.8115	518.22
56.8259	510.01
56.8404	506.06
56.8548	519.05
56.8693	551.79
56.8837	539.88
56.8981	524.28
56.9126	523.65
56.9270	522.47
56.9415	498.19
56.9559	481.10
56.9703	542.92
56.9848	541.63
56.9992	504.95
57.0137	527.74
57.0281	502.65
57.0425	520.54
57.0570	559.55
57.0714	545.16
57.0859	519.25
57.1003	513.90
57.1147	516.10
57.1292	507.76
57.1436	510.19
57.1581	499.46
57.1725	505.71
57.1869	513.73
57.2014	504.86
57.2158	517.80
57.2303	493.58
57.2447	536.32
57.2591	512.05
57.2736	515.03
57.2880	555.35
57.3025	505.21
57.3169	516.96
57.3313	530.67
57.3458	535.33
57.3602	535.44
57.3747	506.17
57.3891	508.10
57.4035	504.34
57.4180	516.72
57.4324	539.91
57.4469	498.77
57.4613	522.65
57.4757	572.27
57.4902	574.26
57.5046	543.92
57.5191	558.12
57.5335	551.24
57.5479	513.85
57.5624	523.12
57.5768	519.08
57.5913	549.78
57.6057	552.75
57.6201	517.36
57.6346	537.05
57.6490	554.68
57.6635	508.22
57.6779	524.83
57.6923	526.24
57.7068	522.90
57.7212	561.80
57.7357	526.16
57.7501	517.34
57.7645	528.04
57.7790	515.08
57.7934	555.14
57.8079	573.36
57.8223	534.06
57.8367	513.50
57.8512	533.24
57.8656	549.81
57.8801	521.01
57.8945	595.08
57.9089	551.14
57.9234	511.90
57.9378	530.72
57.9523	519.84
57.9667	528.99
57.9811	537.93
57.9956	545.92
58.0100	553.61
58.0245	538.90
58.0389	571.49
58.0533	572.04
58.0678	561.79
58.0822	572.72
58.0967	594.39
58.1111	610.10
58.1255	592.54
58.1400	603.43
58.1544	591.14
58.1689	612.59
58.1833	574.19
58.1977	559.75
58.2122	599.08
58.2266	592.44
58.2411	605.03
58.2555	651.92
58.2699	677.76
58.2844	653.50
58.2988	644.93
58.3133	681.99
58.3277	668.30
58.3421	684.17
58.3566	605.42
58.3710	627.02
58.3855	640.27
58.3999	639.28
58.4143	630.08
58.4288	644.75
58.4432	584.27
58.4577	598.38
58.4721	646.11
58.4865	637.75
58.5010	600.55
58.5154	615.69
58.5299	573.91
58.5443	571.91
58.5587	560.79
58.5732	567.32
58.5876	570.99
58.6021	560.69
58.6165	548.47
58.6309	555.51
58.6454	571.80
58.6598	555.47
58.6743	535.09
58.6887	517.21
58.7031	512.18
58.7176	536.56
58.7320	527.19
58.7465	542.61
58.7609	526.25
58.7753	522.60
58.7898	535.18
58.8042	563.79
58.8187	584.81
58.8331	553.10
58.8475	550.63
58.8620	552.41
58.8764	558.98
58.8909	500.07
58.9053	525.64
58.9197	525.67
58.9342	553.41
58.9486	571.66
58.9631	539.31
58.9775	560.41
58.9919	568.26
59.0064	524.31
59.0208	507.66
59.0353	505.41
59.0497	503.16
59.0641	522.92
59.0786	522.72
59.0930	535.14
59.1075	557.60
59.1219	569.05
59.1363	530.95
59.1508	538.82
59.1652	537.35
59.1797	553.61
59.1941	497.75
59.2085	520.24
59.2230	558.73
59.2374	565.08
59.2519	570.86
59.2663	559.90
59.2807	549.61
59.2952	569.23
59.3096	560.73
59.3241	591.12
59.3385	553.09
59.3529	541.28
59.3674	547.56
59.3818	548.15
59.3963	509.75
59.4107	567.60
59.4251	589.35
59.4396	561.23
59.4540	526.22
59.4685	564.86
59.4829	558.14
59.4973	535.51
59.5118	548.62
59.5262	533.64
59.5407	548.54
59.5551	577.95
59.5695	563.12
59.5840	557.86
59.5984	565.85
59.6129	535.97
59.6273	540.29
59.6417	528.04
59.6562	560.50
59.6706	553.04
59.6851	543.84
59.6995	566.86
59.7139	562.77
59.7284	529.85
59.7428	547.28
59.7573	535.59
59.7717	544.78
59.7861	504.87
59.8006	549.65
59.8150	530.40
59.8295	529.83
59.8439	522.98
59.8583	524.31
59.8728	552.59
59.8872	526.93
59.9017	532.57
59.9161	522.37
59.9305	531.77
59.9450	545.59
59.9594	544.79
59.9739	512.21
59.9883	538.64
60.0027	491.74
60.0172	539.82
60.0316	566.70
60.0461	507.61
60.0605	518.49
60.0750	545.76
60.0894	568.57
60.1038	526.12
60.1183	562.85
60.1327	538.80
60.1472	531.97
60.1616	533.53
60.1760	543.98
60.1905	551.73
60.2049	549.62
60.2194	530.81
60.2338	518.20
60.2482	555.77
60.2627	527.36
60.2771	512.85
60.2916	506.93
60.3060	529.45
60.3204	547.18
60.3349	551.35
60.3493	546.86
60.3638	542.27
60.3782	570.94
60.3926	541.75
60.4071	539.49
60.4215	515.30
60.4360	554.25
60.4504	500.10
60.4648	536.72
60.4793	526.24
60.4937	517.96
60.5082	516.18
60.5226	517.54
60.5370	530.79
60.5515	519.73
60.5659	573.41
60.5804	533.16
60.5948	536.51
60.6092	538.11
60.6237	548.27
60.6381	531.18
60.6526	464.80
60.6670	532.52
60.6814	512.13
60.6959	510.86
60.7103	520.20
60.7248	570.85
60.7392	495.29
60.7536	534.72
60.7681	527.59
60.7825	553.97
60.7970	538.22
60.8114	530.83
60.8258	548.94
60.8403	568.40
60.8547	522.43
60.8692	573.70
60.8836	524.48
60.8980	597.78
60.9125	569.65
60.9269	546.36
60.9414	581.54
60.9558	547.23
60.9702	528.83
60.9847	540.93
60.9991	544.66
61.0136	504.51
61.0280	550.02
61.0424	546.44
61.0569	573.17
61.0713	528.08
61.0858	563.04
61.1002	540.84
61.1146	523.57
61.1291	567.78
61.1435	520.88
61.1580	547.76
61.1724	545.74
61.1868	556.42
61.2013	528.51
61.2157	568.80
61.2302	553.33
61.2446	561.50
61.2590	542.49
61.2735	551.31
61.2879	547.21
61.3024	528.41
61.3168	556.36
61.3312	591.12
61.3457	550.24
61.3601	527.98
61.3746	513.41
61.3890	516.67
61.4034	533.70
61.4179	540.54
61.4323	532.97
61.4468	534.36
61.4612	531.99
61.4756	557.51
61.4901	555.21
61.5045	543.40
61.5190	552.51
61.5334	551.39
61.5478	543.98
61.5623	534.55
61.5767	554.33
61.5912	569.56
61.6056	544.99
61.6200	542.45
61.6345	564.05
61.6489	546.04
61.6634	556.77
61.6778	532.04
61.6922	500.73
61.7067	544.50
61.7211	580.47
61.7356	539.50
61.7500	560.44
61.7644	523.37
61.7789	552.00
61.7933	519.80
61.8078	527.87
61.8222	582.02
61.8366	549.52
61.8511	541.96
61.8655	577.19
61.8800	555.23
61.8944	531.90
61.9088	526.63
61.9233	524.06
61.9377	566.72
61.9522	556.52
61.9666	536.67
61.9810	536.75
61.9955	585.07
62.0099	590.72
62.0244	532.77
62.0388	524.28
62.0532	508.68
62.0677	561.58
62.0821	552.36
62.0966	576.50
62.1110	564.79
62.1254	573.82
62.1399	542.76
62.1543	543.34
62.1688	557.75
62.1832	542.78
62.1976	540.25
62.2121	556.77
62.2265	544.13
62.2410	527.32
62.2554	565.51
62.2698	547.09
62.2843	552.38
62.2987	539.95
62.3132	556.80
62.3276	543.27
62.3420	577.18
62.3565	575.17
62.3709	566.87
62.3854	572.47
62.3998	569.01
62.4142	545.03
62.4287	559.73
62.4431	544.47
62.4576	559.92
62.4720	549.40
62.4864	506.14
62.5009	557.90
62.5153	548.15
62.5298	568.60
62.5442	526.40
62.5586	534.52
62.5731	557.35
62.5875	577.10
62.6020	555.75
62.6164	523.24
62.6308	551.41
62.6453	563.09
62.6597	553.76
62.6742	539.73
62.6886	551.76
62.7030	538.75
62.7175	554.80
62.7319	570.51
62.7464	570.60
62.7608	557.61
62.7752	573.09
62.7897	551.12
62.8041	560.48
62.8186	553.27
62.8330	535.48
62.8474	560.59
62.8619	572.89
62.8763	550.65
62.8908	543.96
62.9052	578.53
62.9196	541.98
62.9341	561.56
62.9485	596.18
62.9630	566.86
62.9774	556.00
62.9918	568.71
63.0063	541.23
63.0207	576.88
63.0352	588.07
63.0496	585.18
63.0640	588.47
63.0785	558.87
63.0929	566.63
63.1074	563.03
63.1218	567.12
63.1362	590.41
63.1507	562.53
63.1651	564.10
63.1796	564.43
63.1940	545.43
63.2084	549.99
63.2229	554.33
63.2373	572.32
63.2518	571.53
63.2662	591.60
63.2806	583.39
63.2951	525.37
63.3095	552.01
63.3240	595.57
63.3384	583.02
63.3528	579.25
63.3673	597.17
63.3817	585.30
63.3962	555.75
63.4106	570.05
63.4250	590.82
63.4395	587.93
63.4539	568.28
63.4684	589.89
63.4828	598.33
63.4972	563.00
63.5117	575.72
63.5261	579.64
63.5406	566.32
63.5550	595.12
63.5694	603.63
63.5839	563.33
63.5983	553.89
63.6128	600.31
63.6272	604.64
63.6416	574.71
63.6561	596.00
63.6705	593.03
63.6850	645.46
63.6994	623.09
63.7138	592.99
63.7283	601.07
63.7427	596.92
63.7572	630.43
63.7716	641.99
63.7861	644.80
63.8005	639.47
63.8149	698.13
63.8294	648.49
63.8438	629.83
63.8583	676.68
63.8727	694.61
63.8871	717.08
63.9016	723.67
63.9160	723.79
63.9305	752.12
63.9449	716.92
63.9593	729.80
63.9738	699.53
63.9882	718.98
64.0027	762.11
64.0171	794.22
64.0315	798.57
64.0460	794.71
64.0604	781.19
64.0749	766.08
64.0893	753.20
64.1037	754.63
64.1182	771.84
64.1326	785.85
64.1471	740.73
64.1615	778.64
64.1759	740.94
64.1904	700.22
64.2048	755.61
64.2193	751.57
64.2337	701.79
64.2481	668.95
64.2626	722.97
64.2770	740.95
64.2915	701.72
64.3059	681.59
64.3203	689.11
64.3348	723.86
64.3492	630.55
64.3637	659.61
64.3781	683.78
64.3925	661.69
64.4070	625.35
64.4214	666.51
64.4359	697.44
64.4503	637.96
64.4647	656.65
64.4792	635.35
64.4936	620.50
64.5081	653.97
64.5225	648.86
64.5369	660.37
64.5514	647.92
64.5658	610.53
64.5803	621.70
64.5947	627.35
64.6091	639.98
64.6236	638.83
64.6380	613.88
64.6525	663.49
64.6669	666.72
64.6813	692.33
64.6958	655.59
64.7102	724.25
64.7247	670.29
64.7391	681.87
64.7535	712.65
64.7680	666.46
64.7824	743.84
64.7969	740.65
64.8113	780.89
64.8257	767.10
64.8402	839.99
64.8546	821.52
64.8691	868.29
64.8835	846.84
64.8979	862.00
64.9124	848.57
64.9268	850.40
64.9413	928.87
64.9557	926.17
64.9701	994.37
64.9846	1053.08
64.9990	1186.75
65.0135	1257.75
65.0279	1409.67
65.0423	1660.00
65.0568	2078.48
65.0712	2545.23
65.0857	3228.95
65.1001	4193.30
65.1145	5868.12
65.1290	7551.26
65.1434	9269.21
65.1579	10845.72
65.1723	11707.37
65.1867	11271.07
65.2012	10112.82
65.2156	8576.81
65.2301	6717.89
65.2445	5412.29
65.2589	4533.79
65.2734	4099.88
65.2878	4297.51
65.3023	4838.21
65.3167	5560.01
65.3311	6416.92
65.3456	6840.84
65.3600	6977.88
65.3745	6474.92
65.3889	5565.14
65.4033	4529.78
65.4178	3610.27
65.4322	2858.42
65.4467	2201.35
65.4611	1803.06
65.4755	1476.13
65.4900	1283.96
65.5044	1166.96
65.5189	1117.59
65.5333	1028.31
65.5477	946.93
65.5622	927.64
65.5766	901.60
65.5911	845.76
65.6055	786.86
65.6199	752.48
65.6344	754.78
65.6488	721.56
65.6633	765.57
65.6777	715.12
65.6921	714.91
65.7066	763.55
65.7210	742.17
65.7355	669.62
65.7499	669.70
65.7643	677.62
65.7788	671.74
65.7932	701.26
65.8077	671.56
65.8221	665.67
65.8365	633.38
65.8510	652.54
65.8654	684.05
65.8799	643.79
65.8943	632.58
65.9087	651.76
65.9232	659.73
65.9376	618.94
65.9521	650.03
65.9665	632.12
65.9809	594.48
65.9954	606.81
66.0098	575.70
66.0243	619.42
66.0387	629.17
66.0531	620.61
66.0676	584.67
66.0820	630.37
66.0965	649.14
66.1109	633.22
66.1253	648.15
66.1398	605.74
66.1542	579.54
66.1687	613.98
66.1831	608.31
66.1975	626.61
66.2120	620.14
66.2264	604.43
66.2409	616.20
66.2553	614.52
66.2697	619.02
66.2842	608.98
66.2986	610.91
66.3131	635.32
66.3275	638.37
66.3419	595.21
66.3564	596.40
66.3708	564.77
66.3853	547.57
66.3997	551.31
66.4141	579.39
66.4286	629.62
66.4430	593.24
66.4575	599.80
66.4719	623.23
66.4863	579.90
66.5008	572.59
66.5152	614.19
66.5297	594.71
66.5441	588.18
66.5585	585.16
66.5730	599.05
66.5874	577.26
66.6019	560.94
66.6163	569.75
66.6307	569.01
66.6452	555.15
66.6596	609.13
66.6741	605.64
66.6885	565.69
66.7029	604.69
66.7174	610.52
66.7318	625.63
66.7463	577.21
66.7607	565.95
66.7751	599.20
66.7896	571.17
66.8040	588.61
66.8185	579.86
66.8329	593.36
66.8473	603.83
66.8618	551.69
66.8762	606.77
66.8907	582.10
66.9051	579.16
66.9195	580.46
66.9340	577.24
66.9484	562.60
66.9629	564.03
66.9773	575.22
66.9917	567.01
67.0062	570.43
67.0206	586.97
67.0351	587.64
67.0495	585.65
67.0639	585.11
67.0784	573.62
67.0928	600.12
67.1073	617.46
67.1217	613.06
67.1361	562.86
67.1506	546.53
67.1650	595.42
67.1795	582.96
67.1939	556.95
67.2083	599.08
67.2228	558.41
67.2372	587.67
67.2517	591.00
67.2661	578.67
67.2805	562.41
67.2950	539.83
67.3094	585.08
67.3239	595.04
67.3383	602.92
67.3527	588.28
67.3672	569.70
67.3816	561.86
67.3961	574.87
67.4105	589.20
67.4250	596.49
67.4394	619.36
67.4538	575.62
67.4683	561.06
67.4827	554.59
67.4972	555.55
67.5116	547.62
67.5260	563.06
67.5405	571.03
67.5549	580.36
67.5694	550.04
67.5838	595.59
67.5982	609.58
67.6127	598.79
67.6271	566.03
67.6416	579.03
67.6560	577.03
67.6704	576.38
67.6849	549.03
67.6993	548.91
67.7138	600.38
67.7282	576.04
67.7426	558.31
67.7571	541.09
67.7715	555.78
67.7860	565.87
67.8004	551.72
67.8148	591.02
67.8293	557.33
67.8437	543.52
67.8582	566.61
67.8726	572.92
67.8870	563.74
67.9015	565.00
67.9159	606.87
67.9304	604.32
67.9448	607.10
67.9592	539.28
67.9737	564.45
67.9881	584.34
68.0026	540.82
68.0170	564.64
68.0314	594.42
68.0459	588.47
68.0603	616.84
68.0748	591.68
68.0892	617.50
68.1036	511.29
68.1181	603.09
68.1325	610.43
68.1470	548.97
68.1614	612.07
68.1758	581.17
68.1903	596.17
68.2047	579.57
68.2192	596.35
68.2336	585.04
68.2480	587.23
68.2625	571.52
68.2769	570.17
68.2914	577.32
68.3058	590.00
68.3202	587.66
68.3347	587.24
68.3491	588.33
68.3636	569.01
68.3780	570.83
68.3924	550.26
68.4069	553.94
68.4213	554.58
68.4358	555.89
68.4502	568.82
68.4646	532.13
68.4791	556.20
68.4935	572.16
68.5080	570.02
68.5224	564.79
68.5368	606.38
68.5513	594.52
68.5657	573.51
68.5802	572.06
68.5946	595.72
68.6090	556.09
68.6235	597.08
68.6379	557.25
68.6524	565.03
68.6668	551.29
68.6812	534.97
68.6957	569.79
68.7101	578.88
68.7246	589.40
68.7390	548.65
68.7534	617.03
68.7679	581.06
68.7823	577.70
68.7968	563.87
68.8112	542.41
68.8256	528.10
68.8401	583.81
68.8545	584.78
68.8690	599.79
68.8834	574.16
68.8978	610.34
68.9123	598.56
68.9267	583.09
68.9412	562.62
68.9556	581.58
68.9700	561.99
68.9845	585.43
68.9989	562.25
69.0134	607.18
69.0278	605.39
69.0422	565.09
69.0567	547.03
69.0711	550.87
69.0856	592.96
69.1000	596.60
69.1144	571.73
69.1289	572.31
69.1433	597.71
69.1578	552.03
69.1722	617.99
69.1866	555.03
69.2011	598.02
69.2155	541.55
69.2300	545.91
69.2444	595.74
69.2588	586.40
69.2733	591.16
69.2877	591.03
69.3022	619.47
69.3166	621.50
69.3310	568.16
69.3455	572.96
69.3599	580.68
69.3744	579.93
69.3888	590.58
69.4032	586.17
69.4177	530.08
69.4321	597.21
69.4466	584.09
69.4610	589.56
69.4754	585.09
69.4899	605.53
69.5043	603.26
69.5188	554.03
69.5332	555.09
69.5476	596.58
69.5621	588.59
69.5765	575.26
69.5910	575.56
69.6054	570.39
69.6198	602.88
69.6343	587.67
69.6487	595.44
69.6632	620.37
69.6776	638.08
69.6920	578.64
69.7065	600.04
69.7209	546.81
69.7354	568.07
69.7498	613.17
69.7642	580.76
69.7787	602.09
69.7931	598.05
69.8076	561.62
69.8220	572.48
69.8364	585.41
69.8509	561.83
69.8653	612.90
69.8798	573.64
69.8942	605.97
69.9086	588.28
69.9231	555.74
69.9375	577.59
69.9520	584.89
69.9664	618.32
69.9808	549.82
69.9953	607.60
70.0097	585.14
70.0242	584.52
70.0386	551.91
70.0530	521.92
70.0675	531.88
70.0819	594.20
70.0964	595.76
70.1108	573.57
70.1252	564.38
70.1397	551.51
70.1541	547.68
70.1686	569.94
70.1830	585.11
70.1974	598.00
70.2119	580.18
70.2263	539.03
70.2408	541.32
70.2552	551.89
70.2696	587.74
70.2841	583.85
70.2985	550.37
70.3130	578.72
70.3274	586.96
70.3418	570.44
70.3563	570.98
70.3707	608.09
70.3852	608.46
70.3996	614.22
70.4140	560.75
70.4285	569.96
70.4429	555.13
70.4574	542.15
70.4718	569.37
70.4862	555.37
70.5007	582.65
70.5151	636.74
70.5296	593.79
70.5440	569.85
70.5584	559.29
70.5729	593.37
70.5873	550.74
70.6018	542.65
70.6162	589.45
70.6306	553.41
70.6451	545.03
70.6595	597.51
70.6740	591.15
70.6884	565.32
70.7028	543.94
70.7173	512.49
70.7317	552.99
70.7462	597.71
70.7606	571.78
70.7750	584.10
70.7895	590.42
70.8039	618.32
70.8184	569.65
70.8328	565.88
70.8472	606.41
70.8617	600.73
70.8761	573.44
70.8906	548.63
70.9050	573.02
70.9194	548.10
70.9339	517.99
70.9483	519.31
70.9628	578.29
70.9772	641.45
70.9916	605.67
71.0061	602.76
71.0205	607.31
71.0350	566.45
71.0494	552.30
71.0638	594.63
71.0783	619.27
71.0927	573.17
71.1072	589.97
71.1216	549.91
71.1361	558.42
71.1505	574.08
71.1649	587.06
71.1794	653.78
71.1938	595.90
71.2083	552.05
71.2227	522.75
71.2371	542.09
71.2516	561.69
71.2660	558.26
71.2805	568.02
71.2949	580.99
71.3093	596.45
71.3238	577.52
71.3382	594.79
71.3527	553.94
71.3671	577.88
71.3815	600.31
71.3960	611.90
71.4104	597.61
71.4249	637.61
71.4393	582.64
71.4537	606.54
71.4682	651.63
71.4826	633.09
71.4971	649.66
71.5115	610.17
71.5259	545.25
71.5404	510.90
71.5548	575.87
71.5693	582.47
71.5837	562.47
71.5981	575.97
71.6126	578.91
71.6270	554.93
71.6415	542.81
71.6559	550.21
71.6703	549.24
71.6848	591.51
71.6992	652.13
71.7137	614.30
71.7281	591.63
71.7425	586.44
71.7570	542.17
71.7714	578.68
71.7859	590.38
71.8003	537.55
71.8147	578.52
71.8292	624.13
71.8436	597.49
71.8581	555.88
71.8725	568.69
71.8869	537.56
71.9014	542.96
71.9158	553.07
71.9303	546.99
71.9447	582.98
71.9591	600.20
71.9736	653.83
71.9880	633.46
72.0025	598.05
72.0169	566.01
72.0313	585.87
72.0458	541.44
72.0602	542.17
72.0747	549.65
72.0891	565.83
72.1035	599.64
72.1180	568.34
72.1324	523.94
72.1469	593.78
72.1613	630.91
72.1757	636.25
72.1902	657.80
72.2046	566.44
72.2191	567.91
72.2335	552.63
72.2479	503.17
72.2624	556.74
72.2768	608.61
72.2913	617.73
72.3057	637.73
72.3201	599.66
72.3346	554.49
72.3490	610.62
72.3635	622.76
72.3779	590.82
72.3923	546.19
72.4068	556.71
72.4212	528.85
72.4357	598.36
72.4501	631.80
72.4645	592.20
72.4790	537.87
72.4934	613.45
72.5079	644.10
72.5223	632.39
72.5367	613.01
72.5512	597.90
72.5656	576.17
72.5801	548.30
72.5945	491.88
72.6089	494.04
72.6234	542.75
72.6378	601.48
72.6523	684.01
72.6667	638.18
72.6811	616.43
72.6956	611.93
72.7100	603.67
72.7245	635.65
72.7389	651.29
72.7533	567.00
72.7678	598.66
72.7822	675.59
72.7967	663.97
72.8111	599.37
72.8255	602.57
72.8400	568.90
72.8544	598.19
72.8689	654.89
72.8833	603.85