2022.09.19 19:37:17
Îáðàçåö: ß÷åéêà LCoV 16-09-2022
Lambda1 = 1.54060
Lambda2 = 1.54439
Lambdam = 1.54186
R = 0.497
2Theta	I

line¹ 0 ;repeat¹ 0
22.1120	497.45
22.1264	544.96
22.1409	492.58
22.1553	562.33
22.1697	607.77
22.1842	529.46
22.1986	547.87
22.2131	568.95
22.2275	618.42
22.2419	608.43
22.2564	548.62
22.2708	549.46
22.2853	610.34
22.2997	570.08
22.3141	565.19
22.3286	620.30
22.3430	563.53
22.3575	552.60
22.3719	672.81
22.3863	621.89
22.4008	624.88
22.4152	569.76
22.4297	639.11
22.4441	634.14
22.4585	680.16
22.4730	605.79
22.4874	575.83
22.5019	611.13
22.5163	597.03
22.5307	524.99
22.5452	485.63
22.5596	551.24
22.5741	555.02
22.5885	514.93
22.6029	591.73
22.6174	542.72
22.6318	518.44
22.6463	573.86
22.6607	580.58
22.6751	575.60
22.6896	593.12
22.7040	561.28
22.7185	600.86
22.7329	550.68
22.7473	478.82
22.7618	600.54
22.7762	556.36
22.7907	566.82
22.8051	612.54
22.8195	612.31
22.8340	590.98
22.8484	608.22
22.8629	606.58
22.8773	550.56
22.8917	521.93
22.9062	559.28
22.9206	570.81
22.9351	539.16
22.9495	541.95
22.9639	559.34
22.9784	535.04
22.9928	521.44
23.0073	564.16
23.0217	540.66
23.0361	652.38
23.0506	571.48
23.0650	611.92
23.0795	558.70
23.0939	594.00
23.1083	564.56
23.1228	507.06
23.1372	583.74
23.1517	501.72
23.1661	578.54
23.1806	623.13
23.1950	611.60
23.2094	587.35
23.2239	523.55
23.2383	561.12
23.2528	551.30
23.2672	497.50
23.2816	509.21
23.2961	504.58
23.3105	574.37
23.3250	566.78
23.3394	570.52
23.3538	492.60
23.3683	520.89
23.3827	565.54
23.3972	501.20
23.4116	457.54
23.4260	624.43
23.4405	532.79
23.4549	516.96
23.4694	523.32
23.4838	549.89
23.4982	562.70
23.5127	532.70
23.5271	577.81
23.5416	638.70
23.5560	533.76
23.5704	557.35
23.5849	554.62
23.5993	497.56
23.6138	551.38
23.6282	534.45
23.6426	545.72
23.6571	577.59
23.6715	528.79
23.6860	575.45
23.7004	605.71
23.7148	569.53
23.7293	556.19
23.7437	549.09
23.7582	459.77
23.7726	486.20
23.7870	533.53
23.8015	560.60
23.8159	533.29
23.8304	554.07
23.8448	536.04
23.8592	587.98
23.8737	587.17
23.8881	534.09
23.9026	619.41
23.9170	504.53
23.9314	514.25
23.9459	561.90
23.9603	559.61
23.9748	572.05
23.9892	491.00
24.0036	508.05
24.0181	485.74
24.0325	570.45
24.0470	544.52
24.0614	519.04
24.0758	523.22
24.0903	635.01
24.1047	549.57
24.1192	594.93
24.1336	612.68
24.1480	515.41
24.1625	583.34
24.1769	583.61
24.1914	552.21
24.2058	568.65
24.2202	611.13
24.2347	613.89
24.2491	583.98
24.2636	588.96
24.2780	575.79
24.2924	591.54
24.3069	585.35
24.3213	608.84
24.3358	543.90
24.3502	521.12
24.3646	574.34
24.3791	512.21
24.3935	529.27
24.4080	534.87
24.4224	573.32
24.4368	526.07
24.4513	538.89
24.4657	584.80
24.4802	497.07
24.4946	527.34
24.5090	519.73
24.5235	540.74
24.5379	584.61
24.5524	544.90
24.5668	546.12
24.5812	585.89
24.5957	571.98
24.6101	586.31
24.6246	517.03
24.6390	522.14
24.6534	574.78
24.6679	568.90
24.6823	508.85
24.6968	533.66
24.7112	573.67
24.7256	536.42
24.7401	553.82
24.7545	557.31
24.7690	560.92
24.7834	487.77
24.7978	466.48
24.8123	461.86
24.8267	537.33
24.8412	519.70
24.8556	540.63
24.8700	555.84
24.8845	547.12
24.8989	504.91
24.9134	592.06
24.9278	537.43
24.9422	551.18
24.9567	515.03
24.9711	525.61
24.9856	482.54
25.0000	573.54
25.0144	571.62
25.0289	525.56
25.0433	539.20
25.0578	537.29
25.0722	563.42
25.0866	556.70
25.1011	524.67
25.1155	571.64
25.1300	567.34
25.1444	491.85
25.1588	494.24
25.1733	529.23
25.1877	536.38
25.2022	506.10
25.2166	600.08
25.2310	555.75
25.2455	527.08
25.2599	547.72
25.2744	559.85
25.2888	542.13
25.3032	543.46
25.3177	508.31
25.3321	494.35
25.3466	504.93
25.3610	520.81
25.3754	531.57
25.3899	529.86
25.4043	550.51
25.4188	550.05
25.4332	546.26
25.4476	535.47
25.4621	554.24
25.4765	481.45
25.4910	495.30
25.5054	520.04
25.5198	492.06
25.5343	539.60
25.5487	528.94
25.5632	517.43
25.5776	562.20
25.5920	564.78
25.6065	531.47
25.6209	576.28
25.6354	569.96
25.6498	498.24
25.6642	543.27
25.6787	520.06
25.6931	542.79
25.7076	567.31
25.7220	533.48
25.7364	548.13
25.7509	575.53
25.7653	578.38
25.7798	551.82
25.7942	555.88
25.8086	553.07
25.8231	543.23
25.8375	509.77
25.8520	519.66
25.8664	543.42
25.8808	548.19
25.8953	526.05
25.9097	548.99
25.9242	539.24
25.9386	516.00
25.9530	541.17
25.9675	534.82
25.9819	513.52
25.9964	550.08
26.0108	550.90
26.0252	543.45
26.0397	520.45
26.0541	545.72
26.0686	525.97
26.0830	542.29
26.0974	545.45
26.1119	546.01
26.1263	515.19
26.1408	508.16
26.1552	490.21
26.1696	527.89
26.1841	542.91
26.1985	516.71
26.2130	555.56
26.2274	547.89
26.2418	494.02
26.2563	510.75
26.2707	543.85
26.2852	525.21
26.2996	488.45
26.3140	512.58
26.3285	554.06
26.3429	545.55
26.3574	532.44
26.3718	513.62
26.3862	478.46
26.4007	482.60
26.4151	533.97
26.4296	548.34
26.4440	530.84
26.4584	522.69
26.4729	535.22
26.4873	567.36
26.5018	542.56
26.5162	568.49
26.5306	583.26
26.5451	547.62
26.5595	534.28
26.5740	539.48
26.5884	571.66
26.6028	548.67
26.6173	539.20
26.6317	525.17
26.6462	529.82
26.6606	507.21
26.6750	528.62
26.6895	558.27
26.7039	537.28
26.7184	526.19
26.7328	515.68
26.7472	537.94
26.7617	494.87
26.7761	505.87
26.7906	510.70
26.8050	502.33
26.8194	522.85
26.8339	516.62
26.8483	516.69
26.8628	534.73
26.8772	533.11
26.8917	540.95
26.9061	502.43
26.9205	503.54
26.9350	546.10
26.9494	528.52
26.9639	513.32
26.9783	534.17
26.9927	530.92
27.0072	504.07
27.0216	530.97
27.0361	529.30
27.0505	490.13
27.0649	515.83
27.0794	522.76
27.0938	556.56
27.1083	533.66
27.1227	504.63
27.1371	504.62
27.1516	504.78
27.1660	519.05
27.1805	487.10
27.1949	457.40
27.2093	477.42
27.2238	520.21
27.2382	529.53
27.2527	532.63
27.2671	525.55
27.2815	529.54
27.2960	523.95
27.3104	489.24
27.3249	512.84
27.3393	554.52
27.3537	526.41
27.3682	517.44
27.3826	518.75
27.3971	519.23
27.4115	494.35
27.4259	517.98
27.4404	517.93
27.4548	520.07
27.4693	534.07
27.4837	540.61
27.4981	541.99
27.5126	527.21
27.5270	532.79
27.5415	505.26
27.5559	494.34
27.5703	507.14
27.5848	540.14
27.5992	518.49
27.6137	533.92
27.6281	521.37
27.6425	541.73
27.6570	531.99
27.6714	501.31
27.6859	491.32
27.7003	527.00
27.7147	518.58
27.7292	522.55
27.7436	531.06
27.7581	509.92
27.7725	513.57
27.7869	510.69
27.8014	512.67
27.8158	529.70
27.8303	511.79
27.8447	500.91
27.8591	511.34
27.8736	510.23
27.8880	533.06
27.9025	519.30
27.9169	498.74
27.9313	522.89
27.9458	520.18
27.9602	483.71
27.9747	491.57
27.9891	508.03
28.0035	536.14
28.0180	540.46
28.0324	540.05
28.0469	526.22
28.0613	515.05
28.0757	512.63
28.0902	520.17
28.1046	547.12
28.1191	506.88
28.1335	526.65
28.1479	484.97
28.1624	507.46
28.1768	495.89
28.1913	495.69
28.2057	531.18
28.2201	516.63
28.2346	491.32
28.2490	502.71
28.2635	513.92
28.2779	478.93
28.2923	501.46
28.3068	529.32
28.3212	494.80
28.3357	528.76
28.3501	514.05
28.3645	555.32
28.3790	515.56
28.3934	522.22
28.4079	499.43
28.4223	519.49
28.4367	530.09
28.4512	532.65
28.4656	520.96
28.4801	540.01
28.4945	523.57
28.5089	527.55
28.5234	506.90
28.5378	505.49
28.5523	557.99
28.5667	530.17
28.5811	500.05
28.5956	530.67
28.6100	530.05
28.6245	504.72
28.6389	508.47
28.6533	516.24
28.6678	511.32
28.6822	492.52
28.6967	523.14
28.7111	503.77
28.7255	500.00
28.7400	500.04
28.7544	504.83
28.7689	528.55
28.7833	505.34
28.7977	512.73
28.8122	493.02
28.8266	525.34
28.8411	524.42
28.8555	502.32
28.8699	523.02
28.8844	494.94
28.8988	508.82
28.9133	513.83
28.9277	487.33
28.9421	492.49
28.9566	510.14
28.9710	512.89
28.9855	470.81
28.9999	523.76
29.0143	466.01
29.0288	540.38
29.0432	551.13
29.0577	526.57
29.0721	507.92
29.0865	487.38
29.1010	497.64
29.1154	512.64
29.1299	518.44
29.1443	489.20
29.1587	527.56
29.1732	516.13
29.1876	540.03
29.2021	512.13
29.2165	468.12
29.2309	488.44
29.2454	518.51
29.2598	503.35
29.2743	513.72
29.2887	502.40
29.3031	513.93
29.3176	509.98
29.3320	484.38
29.3465	476.77
29.3609	521.52
29.3753	492.08
29.3898	490.46
29.4042	477.85
29.4187	512.32
29.4331	526.50
29.4475	487.81
29.4620	495.29
29.4764	496.45
29.4909	512.21
29.5053	517.81
29.5197	523.63
29.5342	548.94
29.5486	527.87
29.5631	515.00
29.5775	501.91
29.5919	520.81
29.6064	508.02
29.6208	495.45
29.6353	533.42
29.6497	539.73
29.6641	537.95
29.6786	509.12
29.6930	493.00
29.7075	486.30
29.7219	499.63
29.7363	537.91
29.7508	520.30
29.7652	512.45
29.7797	496.34
29.7941	490.62
29.8085	508.79
29.8230	499.33
29.8374	508.94
29.8519	489.32
29.8663	518.79
29.8807	502.25
29.8952	525.17
29.9096	503.71
29.9241	497.58
29.9385	516.22
29.9529	484.95
29.9674	476.62
29.9818	505.77
29.9963	499.67
30.0107	518.68
30.0251	525.29
30.0396	529.82
30.0540	493.08
30.0685	521.87
30.0829	529.66
30.0973	512.88
30.1118	491.01
30.1262	531.03
30.1407	518.88
30.1551	505.23
30.1695	511.94
30.1840	514.13
30.1984	484.69
30.2129	498.12
30.2273	489.81
30.2417	505.22
30.2562	514.43
30.2706	505.96
30.2851	498.17
30.2995	499.78
30.3139	516.17
30.3284	565.45
30.3428	521.53
30.3573	488.20
30.3717	489.49
30.3861	499.92
30.4006	522.15
30.4150	524.96
30.4295	514.33
30.4439	494.64
30.4583	493.56
30.4728	487.67
30.4872	495.16
30.5017	505.19
30.5161	544.09
30.5305	531.82
30.5450	492.79
30.5594	539.31
30.5739	507.48
30.5883	520.53
30.6028	515.82
30.6172	507.06
30.6316	518.80
30.6461	557.24
30.6605	585.38
30.6750	587.91
30.6894	589.88
30.7038	630.59
30.7183	672.10
30.7327	686.64
30.7472	662.93
30.7616	735.83
30.7760	712.24
30.7905	674.02
30.8049	672.62
30.8194	653.93
30.8338	670.45
30.8482	687.82
30.8627	650.25
30.8771	613.06
30.8916	579.15
30.9060	595.98
30.9204	612.83
30.9349	559.76
30.9493	541.56
30.9638	545.02
30.9782	526.49
30.9926	531.96
31.0071	528.45
31.0215	552.02
31.0360	548.71
31.0504	509.87
31.0648	494.76
31.0793	502.43
31.0937	506.16
31.1082	522.73
31.1226	539.38
31.1370	536.04
31.1515	512.03
31.1659	510.19
31.1804	523.60
31.1948	532.68
31.2092	516.41
31.2237	509.56
31.2381	512.67
31.2526	513.51
31.2670	531.40
31.2814	527.27
31.2959	508.31
31.3103	514.72
31.3248	502.56
31.3392	503.86
31.3536	526.57
31.3681	507.97
31.3825	526.04
31.3970	523.38
31.4114	506.15
31.4258	507.99
31.4403	502.44
31.4547	508.53
31.4692	510.24
31.4836	529.89
31.4980	503.27
31.5125	461.14
31.5269	483.32
31.5414	490.24
31.5558	509.70
31.5702	483.74
31.5847	511.96
31.5991	509.20
31.6136	508.71
31.6280	497.23
31.6424	508.08
31.6569	516.29
31.6713	500.93
31.6858	537.49
31.7002	498.61
31.7146	514.81
31.7291	490.18
31.7435	531.44
31.7580	527.24
31.7724	538.18
31.7868	544.11
31.8013	509.60
31.8157	531.41
31.8302	523.44
31.8446	512.63
31.8590	495.15
31.8735	481.68
31.8879	508.10
31.9024	514.93
31.9168	487.48
31.9312	515.87
31.9457	540.04
31.9601	500.53
31.9746	483.69
31.9890	458.23
32.0034	478.21
32.0179	503.83
32.0323	499.65
32.0468	511.26
32.0612	517.92
32.0756	500.86
32.0901	489.92
32.1045	516.53
32.1190	520.26
32.1334	528.94
32.1478	497.26
32.1623	510.84
32.1767	501.96
32.1912	500.19
32.2056	513.36
32.2200	514.81
32.2345	478.23
32.2489	494.16
32.2634	482.42
32.2778	512.31
32.2922	507.77
32.3067	495.90
32.3211	486.22
32.3356	525.71
32.3500	513.21
32.3644	490.28
32.3789	498.23
32.3933	480.92
32.4078	498.02
32.4222	498.23
32.4366	517.41
32.4511	489.38
32.4655	525.79
32.4800	512.91
32.4944	469.66
32.5088	484.13
32.5233	454.57
32.5377	466.55
32.5522	513.47
32.5666	505.71
32.5810	503.01
32.5955	536.66
32.6099	503.28
32.6244	488.45
32.6388	517.78
32.6532	503.65
32.6677	479.37
32.6821	475.16
32.6966	513.68
32.7110	513.03
32.7254	499.02
32.7399	494.56
32.7543	488.02
32.7688	513.27
32.7832	532.49
32.7976	521.21
32.8121	491.35
32.8265	493.71
32.8410	529.77
32.8554	509.01
32.8698	506.43
32.8843	474.23
32.8987	507.87
32.9132	491.57
32.9276	491.07
32.9420	513.56
32.9565	457.95
32.9709	530.01
32.9854	485.99
32.9998	507.95
33.0142	478.87
33.0287	469.07
33.0431	479.80
33.0576	493.65
33.0720	548.95
33.0864	511.66
33.1009	486.49
33.1153	525.02
33.1298	471.65
33.1442	481.29
33.1586	496.52
33.1731	474.28
33.1875	510.12
33.2020	485.25
33.2164	482.93
33.2308	503.10
33.2453	500.97
33.2597	499.54
33.2742	505.26
33.2886	497.54
33.3030	513.51
33.3175	492.98
33.3319	488.75
33.3464	536.24
33.3608	479.02
33.3752	488.96
33.3897	513.56
33.4041	469.05
33.4186	520.83
33.4330	540.19
33.4474	491.88
33.4619	472.24
33.4763	485.13
33.4908	502.67
33.5052	497.83
33.5196	524.87
33.5341	528.74
33.5485	492.34
33.5630	505.00
33.5774	530.00
33.5918	497.04
33.6063	526.16
33.6207	481.82
33.6352	481.90
33.6496	478.35
33.6640	495.96
33.6785	499.87
33.6929	494.84
33.7074	569.00
33.7218	512.23
33.7362	512.91
33.7507	501.58
33.7651	494.19
33.7796	505.65
33.7940	497.99
33.8084	496.73
33.8229	522.25
33.8373	500.17
33.8518	519.07
33.8662	547.55
33.8806	486.76
33.8951	533.72
33.9095	518.59
33.9240	490.83
33.9384	504.79
33.9528	529.75
33.9673	490.57
33.9817	501.31
33.9962	525.09
34.0106	491.83
34.0250	506.75
34.0395	485.90
34.0539	495.75
34.0684	506.26
34.0828	458.29
34.0972	528.30
34.1117	547.00
34.1261	500.02
34.1406	519.04
34.1550	495.43
34.1694	506.52
34.1839	496.62
34.1983	477.94
34.2128	491.08
34.2272	513.06
34.2417	537.89
34.2561	553.33
34.2705	519.18
34.2850	509.91
34.2994	514.07
34.3139	519.69
34.3283	483.81
34.3427	495.36
34.3572	527.20
34.3716	503.52
34.3861	476.16
34.4005	507.94
34.4149	499.22
34.4294	513.90
34.4438	530.45
34.4583	491.23
34.4727	505.04
34.4871	530.79
34.5016	506.77
34.5160	507.81
34.5305	496.08
34.5449	462.92
34.5593	522.62
34.5738	527.19
34.5882	521.34
34.6027	515.56
34.6171	511.26
34.6315	473.88
34.6460	499.60
34.6604	511.30
34.6749	477.02
34.6893	485.92
34.7037	499.18
34.7182	518.73
34.7326	455.04
34.7471	474.59
34.7615	482.92
34.7759	510.21
34.7904	502.65
34.8048	495.32
34.8193	506.32
34.8337	507.06
34.8481	534.35
34.8626	509.20
34.8770	514.99
34.8915	511.15
34.9059	516.62
34.9203	500.36
34.9348	511.03
34.9492	488.84
34.9637	484.95
34.9781	478.70
34.9925	507.85
35.0070	514.43
35.0214	527.93
35.0359	505.83
35.0503	474.39
35.0647	500.87
35.0792	515.28
35.0936	512.00
35.1081	507.34
35.1225	526.47
35.1369	544.23
35.1514	483.58
35.1658	538.08
35.1803	538.85
35.1947	525.99
35.2091	533.48
35.2236	539.89
35.2380	506.41
35.2525	502.03
35.2669	491.19
35.2813	509.27
35.2958	535.73
35.3102	529.06
35.3247	529.02
35.3391	509.81
35.3535	504.33
35.3680	502.45
35.3824	525.49
35.3969	507.54
35.4113	493.10
35.4257	524.94
35.4402	516.04
35.4546	490.12
35.4691	513.62
35.4835	510.38
35.4979	493.53
35.5124	537.55
35.5268	552.78
35.5413	544.07
35.5557	537.71
35.5701	497.22
35.5846	530.66
35.5990	515.29
35.6135	498.39
35.6279	510.21
35.6423	541.45
35.6568	550.15
35.6712	558.11
35.6857	571.44
35.7001	702.53
35.7145	780.63
35.7290	704.49
35.7434	602.92
35.7579	586.51
35.7723	563.62
35.7867	637.30
35.8012	656.74
35.8156	700.08
35.8301	652.40
35.8445	627.14
35.8589	659.25
35.8734	726.68
35.8878	878.77
35.9023	962.78
35.9167	1048.83
35.9311	1246.16
35.9456	1808.20
35.9600	2229.40
35.9745	1986.40
35.9889	1966.88
36.0033	2671.58
36.0178	3388.29
36.0322	2648.96
36.0467	1943.44
36.0611	1751.28
36.0755	1689.16
36.0900	1672.00
36.1044	1511.84
36.1189	1461.57
36.1333	1442.33
36.1477	1204.39
36.1622	1251.21
36.1766	1179.28
36.1911	1198.56
36.2055	1104.61
36.2199	1036.55
36.2344	1011.96
36.2488	1025.59
36.2633	1040.67
36.2777	967.36
36.2921	965.06
36.3066	912.07
36.3210	845.65
36.3355	834.39
36.3499	867.46
36.3643	774.58
36.3788	744.88
36.3932	680.20
36.4077	643.80
36.4221	668.19
36.4365	637.37
36.4510	589.19
36.4654	616.31
36.4799	523.95
36.4943	583.24
36.5087	570.67
36.5232	563.43
36.5376	534.69
36.5521	549.43
36.5665	540.58
36.5809	532.74
36.5954	527.64
36.6098	542.67
36.6243	556.68
36.6387	530.12
36.6531	559.99
36.6676	542.17
36.6820	555.39
36.6965	529.89
36.7109	532.64
36.7253	544.91
36.7398	559.65
36.7542	542.94
36.7687	530.04
36.7831	553.45
36.7975	556.51
36.8120	568.94
36.8264	567.43
36.8409	584.53
36.8553	595.44
36.8697	606.93
36.8842	584.59
36.8986	579.34
36.9131	575.62
36.9275	595.39
36.9419	566.42
36.9564	577.94
36.9708	593.52
36.9853	511.59
36.9997	531.34
37.0141	481.22
37.0286	519.17
37.0430	515.77
37.0575	516.63
37.0719	510.21
37.0863	543.62
37.1008	539.81
37.1152	533.30
37.1297	514.24
37.1441	475.92
37.1585	498.50
37.1730	546.85
37.1874	515.47
37.2019	476.71
37.2163	491.28
37.2307	467.40
37.2452	479.61
37.2596	520.22
37.2741	505.28
37.2885	502.69
37.3029	529.89
37.3174	508.30
37.3318	527.57
37.3463	509.93
37.3607	478.33
37.3751	484.69
37.3896	486.73
37.4040	497.48
37.4185	493.26
37.4329	494.90
37.4473	516.09
37.4618	501.74
37.4762	494.95
37.4907	545.02
37.5051	544.09
37.5195	508.91
37.5340	505.94
37.5484	500.59
37.5629	518.04
37.5773	495.05
37.5917	481.50
37.6062	487.06
37.6206	496.84
37.6351	489.08
37.6495	509.69
37.6639	533.12
37.6784	511.88
37.6928	492.63
37.7073	487.68
37.7217	500.97
37.7361	473.75
37.7506	516.31
37.7650	506.77
37.7795	494.94
37.7939	472.78
37.8083	511.41
37.8228	513.13
37.8372	512.16
37.8517	489.17
37.8661	481.30
37.8805	490.96
37.8950	501.01
37.9094	540.33
37.9239	510.01
37.9383	515.93
37.9528	508.32
37.9672	512.89
37.9816	467.79
37.9961	515.74
38.0105	499.73
38.0250	511.69
38.0394	484.60
38.0538	513.19
38.0683	506.59
38.0827	492.59
38.0972	479.94
38.1116	506.19
38.1260	513.47
38.1405	457.57
38.1549	440.87
38.1694	458.95
38.1838	505.11
38.1982	512.16
38.2127	516.93
38.2271	518.03
38.2416	508.23
38.2560	510.92
38.2704	501.61
38.2849	501.47
38.2993	496.31
38.3138	490.39
38.3282	525.60
38.3426	526.86
38.3571	531.99
38.3715	527.95
38.3860	493.43
38.4004	515.88
38.4148	529.43
38.4293	558.29
38.4437	553.65
38.4582	626.45
38.4726	660.89
38.4870	671.86
38.5015	705.06
38.5159	771.69
38.5304	741.61
38.5448	775.77
38.5592	801.24
38.5737	744.26
38.5881	716.71
38.6026	687.07
38.6170	668.48
38.6314	679.32
38.6459	649.76
38.6603	657.05
38.6748	623.90
38.6892	552.91
38.7036	566.74
38.7181	528.60
38.7325	519.20
38.7470	535.84
38.7614	536.07
38.7758	498.20
38.7903	507.03
38.8047	496.91
38.8192	513.80
38.8336	508.25
38.8480	514.47
38.8625	512.34
38.8769	481.83
38.8914	508.72
38.9058	510.82
38.9202	518.90
38.9347	512.04
38.9491	496.26
38.9636	472.75
38.9780	503.67
38.9924	488.77
39.0069	456.73
39.0213	518.44
39.0358	505.68
39.0502	513.17
39.0646	497.21
39.0791	490.73
39.0935	495.75
39.1080	490.07
39.1224	520.28
39.1368	509.69
39.1513	450.21
39.1657	492.83
39.1802	496.28
39.1946	495.48
39.2090	492.82
39.2235	534.92
39.2379	503.41
39.2524	479.02
39.2668	468.95
39.2812	511.91
39.2957	498.73
39.3101	507.48
39.3246	509.34
39.3390	530.87
39.3534	490.95
39.3679	494.98
39.3823	518.31
39.3968	486.17
39.4112	507.21
39.4256	537.37
39.4401	528.28
39.4545	506.75
39.4690	515.31
39.4834	503.70
39.4978	494.03
39.5123	530.47
39.5267	478.45
39.5412	487.40
39.5556	480.98
39.5700	489.03
39.5845	522.88
39.5989	516.83
39.6134	507.40
39.6278	509.64
39.6422	523.47
39.6567	467.22
39.6711	505.15
39.6856	501.08
39.7000	485.68
39.7144	477.28
39.7289	489.34
39.7433	514.66
39.7578	517.84
39.7722	512.89
39.7866	510.96
39.8011	510.43
39.8155	546.08
39.8300	496.91
39.8444	493.24
39.8588	482.59
39.8733	489.10
39.8877	476.79
39.9022	522.81
39.9166	506.98
39.9310	487.52
39.9455	527.29
39.9599	470.99
39.9744	472.47
39.9888	514.74
40.0032	502.09
40.0177	477.46
40.0321	469.09
40.0466	495.14
40.0610	512.80
40.0754	476.38
40.0899	528.05
40.1043	501.45
40.1188	521.66
40.1332	506.92
40.1476	473.17
40.1621	476.76
40.1765	479.03
40.1910	485.72
40.2054	484.31
40.2198	493.88
40.2343	490.23
40.2487	506.53
40.2632	495.25
40.2776	520.10
40.2920	514.64
40.3065	504.69
40.3209	487.77
40.3354	502.83
40.3498	512.76
40.3642	462.02
40.3787	486.65
40.3931	505.79
40.4076	538.45
40.4220	506.27
40.4364	518.38
40.4509	494.77
40.4653	488.40
40.4798	458.49
40.4942	452.80
40.5086	475.68
40.5231	473.83
40.5375	505.71
40.5520	490.14
40.5664	449.74
40.5808	495.23
40.5953	525.92
40.6097	488.25
40.6242	480.05
40.6386	497.01
40.6530	501.56
40.6675	476.34
40.6819	479.81
40.6964	505.90
40.7108	531.40
40.7252	516.73
40.7397	497.43
40.7541	526.86
40.7686	498.05
40.7830	514.57
40.7974	483.02
40.8119	488.92
40.8263	516.25
40.8408	487.82
40.8552	508.00
40.8696	518.37
40.8841	474.33
40.8985	528.98
40.9130	486.38
40.9274	553.73
40.9418	515.07
40.9563	470.18
40.9707	485.81
40.9852	520.47
40.9996	497.99
41.0140	522.40
41.0285	495.43
41.0429	505.79
41.0574	475.65
41.0718	517.92
41.0862	532.93
41.1007	489.21
41.1151	504.37
41.1296	504.06
41.1440	519.56
41.1584	491.40
41.1729	519.85
41.1873	506.42
41.2018	458.06
41.2162	494.94
41.2306	469.13
41.2451	486.09
41.2595	462.10
41.2740	469.69
41.2884	501.51
41.3028	459.54
41.3173	491.50
41.3317	472.04
41.3462	485.60
41.3606	528.17
41.3750	519.24
41.3895	496.47
41.4039	487.55
41.4184	473.78
41.4328	494.30
41.4472	497.98
41.4617	500.73
41.4761	540.34
41.4906	504.87
41.5050	492.37
41.5194	478.90
41.5339	481.00
41.5483	499.07
41.5628	492.74
41.5772	485.31
41.5916	506.80
41.6061	508.51
41.6205	498.65
41.6350	515.42
41.6494	485.99
41.6639	511.54
41.6783	473.01
41.6927	482.10
41.7072	486.08
41.7216	502.89
41.7361	504.99
41.7505	522.08
41.7649	492.96
41.7794	488.48
41.7938	512.92
41.8083	503.00
41.8227	501.34
41.8371	508.52
41.8516	496.24
41.8660	546.69
41.8805	529.84
41.8949	562.01
41.9093	546.15
41.9238	556.23
41.9382	588.04
41.9527	565.61
41.9671	552.78
41.9815	537.73
41.9960	555.80
42.0104	584.37
42.0249	563.96
42.0393	535.60
42.0537	590.67
42.0682	575.69
42.0826	593.74
42.0971	592.34
42.1115	586.49
42.1259	629.10
42.1404	601.77
42.1548	609.83
42.1693	671.20
42.1837	708.13
42.1981	748.75
42.2126	866.52
42.2270	933.68
42.2415	1107.48
42.2559	1191.70
42.2703	1320.98
42.2848	1539.52
42.2992	1671.47
42.3137	1704.47
42.3281	1719.30
42.3425	1616.96
42.3570	1502.93
42.3714	1461.93
42.3859	1391.94
42.4003	1423.98
42.4147	1388.32
42.4292	1323.74
42.4436	1171.28
42.4581	1036.55
42.4725	934.81
42.4869	822.64
42.5014	753.88
42.5158	701.26
42.5303	660.85
42.5447	632.08
42.5591	611.72
42.5736	605.08
42.5880	570.41
42.6025	551.25
42.6169	587.20
42.6313	541.55
42.6458	508.53
42.6602	500.17
42.6747	536.39
42.6891	513.51
42.7035	520.63
42.7180	523.22
42.7324	494.76
42.7469	500.37
42.7613	511.05
42.7757	528.31
42.7902	543.18
42.8046	529.79
42.8191	517.64
42.8335	523.24
42.8479	499.79
42.8624	499.10
42.8768	531.72
42.8913	515.54
42.9057	530.06
42.9201	512.60
42.9346	527.67
42.9490	494.28
42.9635	481.02
42.9779	525.53
42.9923	528.18
43.0068	520.66
43.0212	494.82
43.0357	517.83
43.0501	516.88
43.0645	525.92
43.0790	527.75
43.0934	538.66
43.1079	519.57
43.1223	519.13
43.1367	523.71
43.1512	503.11
43.1656	530.34
43.1801	541.05
43.1945	511.82
43.2089	510.18
43.2234	540.76
43.2378	519.96
43.2523	513.25
43.2667	507.55
43.2811	532.58
43.2956	521.35
43.3100	504.91
43.3245	516.16
43.3389	512.84
43.3533	504.11
43.3678	512.09
43.3822	509.95
43.3967	518.25
43.4111	519.96
43.4255	540.87
43.4400	520.68
43.4544	482.72
43.4689	477.91
43.4833	516.53
43.4977	544.68
43.5122	490.88
43.5266	513.81
43.5411	511.13
43.5555	524.99
43.5699	530.52
43.5844	509.70
43.5988	513.91
43.6133	521.47
43.6277	512.72
43.6421	515.58
43.6566	495.69
43.6710	512.15
43.6855	526.65
43.6999	529.15
43.7143	536.27
43.7288	542.22
43.7432	543.45
43.7577	517.31
43.7721	487.57
43.7865	543.08
43.8010	531.69
43.8154	515.13
43.8299	527.72
43.8443	526.62
43.8587	520.04
43.8732	538.38
43.8876	546.88
43.9021	575.79
43.9165	576.52
43.9309	565.75
43.9454	602.64
43.9598	584.65
43.9743	559.34
43.9887	576.09
44.0031	623.71
44.0176	598.07
44.0320	591.88
44.0465	618.37
44.0609	615.34
44.0753	611.89
44.0898	640.59
44.1042	617.17
44.1187	639.41
44.1331	631.41
44.1475	553.50
44.1620	543.43
44.1764	541.73
44.1909	557.13
44.2053	535.09
44.2197	537.74
44.2342	561.34
44.2486	579.06
44.2631	560.60
44.2775	534.31
44.2919	524.58
44.3064	532.21
44.3208	514.15
44.3353	534.11
44.3497	523.58
44.3641	526.63
44.3786	549.39
44.3930	537.79
44.4075	531.74
44.4219	558.07
44.4363	545.95
44.4508	546.87
44.4652	586.34
44.4797	591.36
44.4941	559.70
44.5085	587.36
44.5230	578.49
44.5374	580.11
44.5519	564.44
44.5663	559.68
44.5807	583.18
44.5952	562.50
44.6096	554.61
44.6241	571.24
44.6385	593.04
44.6529	607.35
44.6674	584.98
44.6818	598.07
44.6963	630.73
44.7107	628.54
44.7251	722.69
44.7396	715.28
44.7540	754.70
44.7685	829.70
44.7829	912.42
44.7973	864.78
44.8118	856.72
44.8262	823.55
44.8407	769.29
44.8551	757.74
44.8695	747.39
44.8840	715.74
44.8984	754.50
44.9129	770.39
44.9273	696.33
44.9417	706.51
44.9562	635.59
44.9706	606.36
44.9851	551.47
44.9995	536.20
45.0139	525.79
45.0284	552.57
45.0428	579.36
45.0573	551.71
45.0717	512.23
45.0861	559.18
45.1006	511.27
45.1150	519.64
45.1295	530.72
45.1439	532.09
45.1583	523.27
45.1728	494.32
45.1872	512.11
45.2017	487.34
45.2161	492.59
45.2305	519.52
45.2450	510.85
45.2594	527.95
45.2739	505.41
45.2883	530.92
45.3028	516.27
45.3172	488.55
45.3316	498.97
45.3461	471.91
45.3605	491.43
45.3750	518.63
45.3894	479.84
45.4038	467.77
45.4183	520.96
45.4327	499.70
45.4472	501.49
45.4616	529.56
45.4760	554.22
45.4905	494.99
45.5049	495.81
45.5194	485.85
45.5338	486.15
45.5482	494.83
45.5627	515.22
45.5771	495.61
45.5916	500.06
45.6060	509.04
45.6204	487.80
45.6349	463.67
45.6493	519.91
45.6638	520.21
45.6782	517.14
45.6926	529.32
45.7071	518.69
45.7215	521.80
45.7360	503.61
45.7504	527.67
45.7648	505.18
45.7793	502.89
45.7937	526.54
45.8082	486.48
45.8226	516.20
45.8370	501.67
45.8515	510.81
45.8659	496.75
45.8804	497.58
45.8948	527.35
45.9092	513.66
45.9237	512.04
45.9381	467.05
45.9526	512.66
45.9670	506.15
45.9814	498.86
45.9959	490.70
46.0103	492.22
46.0248	492.89
46.0392	487.92
46.0536	508.55
46.0681	499.89
46.0825	500.94
46.0970	524.55
46.1114	501.89
46.1258	500.78
46.1403	486.76
46.1547	482.87
46.1692	486.74
46.1836	483.30
46.1980	468.03
46.2125	505.11
46.2269	513.38
46.2414	516.91
46.2558	509.55
46.2702	496.84
46.2847	524.11
46.2991	489.08
46.3136	505.57
46.3280	522.43
46.3424	539.25
46.3569	505.43
46.3713	483.32
46.3858	490.52
46.4002	495.42
46.4146	469.18
46.4291	503.91
46.4435	485.08
46.4580	475.21
46.4724	502.24
46.4868	511.67
46.5013	506.09
46.5157	533.72
46.5302	521.31
46.5446	492.42
46.5590	507.78
46.5735	519.22
46.5879	513.21
46.6024	488.77
46.6168	495.86
46.6312	497.14
46.6457	484.60
46.6601	497.31
46.6746	504.22
46.6890	513.18
46.7034	512.40
46.7179	474.19
46.7323	470.38
46.7468	466.77
46.7612	504.83
46.7756	516.68
46.7901	501.59
46.8045	521.24
46.8190	512.79
46.8334	508.52
46.8478	525.23
46.8623	519.52
46.8767	489.89
46.8912	489.51
46.9056	488.04
46.9200	503.10
46.9345	519.78
46.9489	526.94
46.9634	498.70
46.9778	531.89
46.9922	535.62
47.0067	533.01
47.0211	522.74
47.0356	501.69
47.0500	490.33
47.0644	478.28
47.0789	528.21
47.0933	521.45
47.1078	523.56
47.1222	541.17
47.1366	505.44
47.1511	468.99
47.1655	504.53
47.1800	515.28
47.1944	477.35
47.2088	519.19
47.2233	523.44
47.2377	525.84
47.2522	538.27
47.2666	519.21
47.2810	502.03
47.2955	472.25
47.3099	479.32
47.3244	503.73
47.3388	514.26
47.3532	497.80
47.3677	518.40
47.3821	511.84
47.3966	536.70
47.4110	513.29
47.4254	519.24
47.4399	538.23
47.4543	528.08
47.4688	526.15
47.4832	501.78
47.4976	466.19
47.5121	470.95
47.5265	506.79
47.5410	486.35
47.5554	466.59
47.5698	489.94
47.5843	501.83
47.5987	507.75
47.6132	506.12
47.6276	499.21
47.6420	484.03
47.6565	505.07
47.6709	517.37
47.6854	509.18
47.6998	505.53
47.7142	519.64
47.7287	479.44
47.7431	516.54
47.7576	503.07
47.7720	470.00
47.7864	473.99
47.8009	541.35
47.8153	503.24
47.8298	514.75
47.8442	473.91
47.8586	496.52
47.8731	486.79
47.8875	478.85
47.9020	519.23
47.9164	472.91
47.9308	477.24
47.9453	500.07
47.9597	519.41
47.9742	522.52
47.9886	466.80
48.0030	466.03
48.0175	495.98
48.0319	490.05
48.0464	503.19
48.0608	530.93
48.0752	469.44
48.0897	458.38
48.1041	482.42
48.1186	525.63
48.1330	526.79
48.1474	490.84
48.1619	504.11
48.1763	514.33
48.1908	465.54
48.2052	491.96
48.2196	502.57
48.2341	499.73
48.2485	520.32
48.2630	478.23
48.2774	487.81
48.2918	480.76
48.3063	514.25
48.3207	521.07
48.3352	500.27
48.3496	491.02
48.3640	466.99
48.3785	513.78
48.3929	502.36
48.4074	525.61
48.4218	521.65
48.4362	519.59
48.4507	479.85
48.4651	529.56
48.4796	502.59
48.4940	509.85
48.5084	518.70
48.5229	522.01
48.5373	528.99
48.5518	519.49
48.5662	511.01
48.5806	496.24
48.5951	508.04
48.6095	512.18
48.6240	519.09
48.6384	506.56
48.6528	495.50
48.6673	488.85
48.6817	503.07
48.6962	550.25
48.7106	533.33
48.7250	522.08
48.7395	513.58
48.7539	498.44
48.7684	524.55
48.7828	514.92
48.7972	502.10
48.8117	501.30
48.8261	533.92
48.8406	520.45
48.8550	523.09
48.8694	548.93
48.8839	543.05
48.8983	562.53
48.9128	538.89
48.9272	536.59
48.9416	552.78
48.9561	564.99
48.9705	562.65
48.9850	586.97
48.9994	591.79
49.0139	578.17
49.0283	647.35
49.0427	607.45
49.0572	653.01
49.0716	667.80
49.0861	671.30
49.1005	649.80
49.1149	706.87
49.1294	725.65
49.1438	737.54
49.1583	766.84
49.1727	900.45
49.1871	917.20
49.2016	964.83
49.2160	1067.13
49.2305	1145.14
49.2449	1228.47
49.2593	1276.50
49.2738	1396.16
49.2882	1425.88
49.3027	1522.62
49.3171	1675.89
49.3315	1739.56
49.3460	1780.33
49.3604	1819.72
49.3749	1830.89
49.3893	1798.30
49.4037	1811.33
49.4182	1783.28
49.4326	1798.55
49.4471	1638.37
49.4615	1668.37
49.4759	1597.53
49.4904	1584.18
49.5048	1423.99
49.5193	1360.83
49.5337	1346.25
49.5481	1202.28
49.5626	1108.78
49.5770	1071.76
49.5915	1016.42
49.6059	951.55
49.6203	843.03
49.6348	864.18
49.6492	837.69
49.6637	720.70
49.6781	714.33
49.6925	675.81
49.7070	716.01
49.7214	662.50
49.7359	631.26
49.7503	631.69
49.7647	606.93
49.7792	607.05
49.7936	579.25
49.8081	573.42
49.8225	548.15
49.8369	574.58
49.8514	568.26
49.8658	596.01
49.8803	558.97
49.8947	561.86
49.9091	517.61
49.9236	534.19
49.9380	558.36
49.9525	545.19
49.9669	515.26
49.9813	514.28
49.9958	521.09
50.0102	519.25
50.0247	512.88
50.0391	530.09
50.0535	532.20
50.0680	524.16
50.0824	515.72
50.0969	530.75
50.1113	525.46
50.1257	514.44
50.1402	520.80
50.1546	522.44
50.1691	564.31
50.1835	531.52
50.1979	497.85
50.2124	486.67
50.2268	519.09
50.2413	516.93
50.2557	505.33
50.2701	501.39
50.2846	505.25
50.2990	490.52
50.3135	514.77
50.3279	490.81
50.3423	493.55
50.3568	511.32
50.3712	506.08
50.3857	521.65
50.4001	514.77
50.4145	500.59
50.4290	527.97
50.4434	507.48
50.4579	532.63
50.4723	528.11
50.4867	497.31
50.5012	505.52
50.5156	512.78
50.5301	504.69
50.5445	501.07
50.5589	498.24
50.5734	544.91
50.5878	520.07
50.6023	527.40
50.6167	530.03
50.6311	533.57
50.6456	509.51
50.6600	515.36
50.6745	493.09
50.6889	533.92
50.7033	514.68
50.7178	529.53
50.7322	524.97
50.7467	494.59
50.7611	466.58
50.7755	514.04
50.7900	524.25
50.8044	490.45
50.8189	486.41
50.8333	467.12
50.8477	481.72
50.8622	486.68
50.8766	542.86
50.8911	513.20
50.9055	541.19
50.9199	496.98
50.9344	489.04
50.9488	508.85
50.9633	491.18
50.9777	492.10
50.9921	504.00
51.0066	499.39
51.0210	520.97
51.0355	512.24
51.0499	525.44
51.0643	525.59
51.0788	501.03
51.0932	536.76
51.1077	568.67
51.1221	523.12
51.1365	524.04
51.1510	475.08
51.1654	524.74
51.1799	520.88
51.1943	476.32
51.2087	488.44
51.2232	490.13
51.2376	532.09
51.2521	521.37
51.2665	503.62
51.2809	555.64
51.2954	487.73
51.3098	524.04
51.3243	518.41
51.3387	509.99
51.3531	504.60
51.3676	493.00
51.3820	515.74
51.3965	510.09
51.4109	505.37
51.4253	500.11
51.4398	537.93
51.4542	498.29
51.4687	537.30
51.4831	546.73
51.4975	519.43
51.5120	493.38
51.5264	510.47
51.5409	512.02
51.5553	507.85
51.5697	502.70
51.5842	489.20
51.5986	548.21
51.6131	523.25
51.6275	533.34
51.6419	563.72
51.6564	516.62
51.6708	508.28
51.6853	512.79
51.6997	528.40
51.7141	538.55
51.7286	492.68
51.7430	488.00
51.7575	495.60
51.7719	503.62
51.7863	495.93
51.8008	513.74
51.8152	521.03
51.8297	481.47
51.8441	465.48
51.8585	513.59
51.8730	508.66
51.8874	494.06
51.9019	540.25
51.9163	523.91
51.9307	522.54
51.9452	549.81
51.9596	512.79
51.9741	495.89
51.9885	522.01
52.0029	531.41
52.0174	534.05
52.0318	490.18
52.0463	493.23
52.0607	499.66
52.0751	545.23
52.0896	536.86
52.1040	504.05
52.1185	483.17
52.1329	511.02
52.1473	505.58
52.1618	527.85
52.1762	508.12
52.1907	488.28
52.2051	491.98
52.2195	500.62
52.2340	510.95
52.2484	500.67
52.2629	507.08
52.2773	508.06
52.2917	505.71
52.3062	523.39
52.3206	516.93
52.3351	512.11
52.3495	518.33
52.3639	530.74
52.3784	474.01
52.3928	497.22
52.4073	511.22
52.4217	522.12
52.4361	500.58
52.4506	502.57
52.4650	519.89
52.4795	537.09
52.4939	532.50
52.5083	509.64
52.5228	505.27
52.5372	510.99
52.5517	524.45
52.5661	525.96
52.5805	509.99
52.5950	528.33
52.6094	487.69
52.6239	501.02
52.6383	517.91
52.6527	520.72
52.6672	502.53
52.6816	463.93
52.6961	504.33
52.7105	530.22
52.7250	541.76
52.7394	507.26
52.7538	500.77
52.7683	490.43
52.7827	518.14
52.7972	497.63
52.8116	501.99
52.8260	517.43
52.8405	489.67
52.8549	467.19
52.8694	503.67
52.8838	498.35
52.8982	516.79
52.9127	547.96
52.9271	501.57
52.9416	500.58
52.9560	485.42
52.9704	497.98
52.9849	490.65
52.9993	503.99
53.0138	523.66
53.0282	506.06
53.0426	545.09
53.0571	515.36
53.0715	537.76
53.0860	487.91
53.1004	502.71
53.1148	501.47
53.1293	509.89
53.1437	542.87
53.1582	547.08
53.1726	537.99
53.1870	525.62
53.2015	494.55
53.2159	526.78
53.2304	539.19
53.2448	510.85
53.2592	492.46
53.2737	509.31
53.2881	537.17
53.3026	547.98
53.3170	512.15
53.3314	503.80
53.3459	493.11
53.3603	504.42
53.3748	486.44
53.3892	478.39
53.4036	522.22
53.4181	519.78
53.4325	510.67
53.4470	520.26
53.4614	505.50
53.4758	533.28
53.4903	509.47
53.5047	502.06
53.5192	529.81
53.5336	534.32
53.5480	498.83
53.5625	523.69
53.5769	519.33
53.5914	506.55
53.6058	510.46
53.6202	487.44
53.6347	509.83
53.6491	477.12
53.6636	499.71
53.6780	524.29
53.6924	477.95
53.7069	534.53
53.7213	498.01
53.7358	490.20
53.7502	518.91
53.7646	501.43
53.7791	512.56
53.7935	518.39
53.8080	548.58
53.8224	526.90
53.8368	492.30
53.8513	508.35
53.8657	512.40
53.8802	506.31
53.8946	520.98
53.9090	522.67
53.9235	499.16
53.9379	490.44
53.9524	527.09
53.9668	497.74
53.9812	505.71
53.9957	525.69
54.0101	483.81
54.0246	484.41
54.0390	537.93
54.0534	515.01
54.0679	519.58
54.0823	558.50
54.0968	512.55
54.1112	519.75
54.1256	547.38
54.1401	527.24
54.1545	493.71
54.1690	515.81
54.1834	552.31
54.1978	507.23
54.2123	523.42
54.2267	497.37
54.2412	530.11
54.2556	540.90
54.2700	509.96
54.2845	516.05
54.2989	509.68
54.3134	504.67
54.3278	495.18
54.3422	532.55
54.3567	521.92
54.3711	509.78
54.3856	525.42
54.4000	560.10
54.4144	549.63
54.4289	572.74
54.4433	516.93
54.4578	503.74
54.4722	551.92
54.4866	576.20
54.5011	544.42
54.5155	547.84
54.5300	576.88
54.5444	594.29
54.5588	609.69
54.5733	533.23
54.5877	576.17
54.6022	601.05
54.6166	583.31
54.6310	589.62
54.6455	596.32
54.6599	590.62
54.6744	575.95
54.6888	568.88
54.7032	575.82
54.7177	552.46
54.7321	571.02
54.7466	555.53
54.7610	560.51
54.7754	564.54
54.7899	524.00
54.8043	552.30
54.8188	549.20
54.8332	571.29
54.8476	552.76
54.8621	560.19
54.8765	569.61
54.8910	572.82
54.9054	551.22
54.9198	516.05
54.9343	520.61
54.9487	539.88
54.9632	499.12
54.9776	497.75
54.9920	526.03
55.0065	509.47
55.0209	499.68
55.0354	501.63
55.0498	516.89
55.0642	532.22
55.0787	505.93
55.0931	535.24
55.1076	491.13
55.1220	511.31
55.1364	511.87
55.1509	506.75
55.1653	530.65
55.1798	507.16
55.1942	512.17
55.2086	525.60
55.2231	527.85
55.2375	515.65
55.2520	528.27
55.2664	521.07
55.2808	494.44
55.2953	506.80
55.3097	525.69
55.3242	490.91
55.3386	539.13
55.3530	522.04
55.3675	511.50
55.3819	503.60
55.3964	490.12
55.4108	522.59
55.4252	526.40
55.4397	524.52
55.4541	541.56
55.4686	524.40
55.4830	523.81
55.4974	522.94
55.5119	514.97
55.5263	547.63
55.5408	544.19
55.5552	539.36
55.5696	527.92
55.5841	521.62
55.5985	499.56
55.6130	569.14
55.6274	556.05
55.6418	534.76
55.6563	506.15
55.6707	494.44
55.6852	518.93
55.6996	540.12
55.7140	565.21
55.7285	535.40
55.7429	557.64
55.7574	529.45
55.7718	507.40
55.7862	516.91
55.8007	512.07
55.8151	520.06
55.8296	520.09
55.8440	506.95
55.8584	495.96
55.8729	513.10
55.8873	490.66
55.9018	556.37
55.9162	494.02
55.9306	531.15
55.9451	530.07
55.9595	499.12
55.9740	546.42
55.9884	525.67
56.0028	543.14
56.0173	526.19
56.0317	538.83
56.0462	520.68
56.0606	525.71
56.0750	523.03
56.0895	501.78
56.1039	497.69
56.1184	512.84
56.1328	507.92
56.1472	486.12
56.1617	508.69
56.1761	524.15
56.1906	518.02
56.2050	538.54
56.2194	554.57
56.2339	494.97
56.2483	539.33
56.2628	498.33
56.2772	527.32
56.2916	518.97
56.3061	533.33
56.3205	516.28
56.3350	503.98
56.3494	530.07
56.3639	516.66
56.3783	514.43
56.3927	505.14
56.4072	545.86
56.4216	545.82
56.4361	549.25
56.4505	536.45
56.4649	533.34
56.4794	535.84
56.4938	517.57
56.5083	532.92
56.5227	512.01
56.5371	523.28
56.5516	509.10
56.5660	530.99
56.5805	550.61
56.5949	516.85
56.6093	512.86
56.6238	497.34
56.6382	522.74
56.6527	529.10
56.6671	486.75
56.6815	474.99
56.6960	525.79
56.7104	547.98
56.7249	527.67
56.7393	495.55
56.7537	478.81
56.7682	499.53
56.7826	518.54
56.7971	523.68
56.8115	511.08
56.8259	523.32
56.8404	541.22
56.8548	532.80
56.8693	495.79
56.8837	567.39
56.8981	531.38
56.9126	531.39
56.9270	493.62
56.9415	498.35
56.9559	484.54
56.9703	499.28
56.9848	556.15
56.9992	557.16
57.0137	495.96
57.0281	490.68
57.0425	518.72
57.0570	519.52
57.0714	495.65
57.0859	531.56
57.1003	501.37
57.1147	535.78
57.1292	550.47
57.1436	526.42
57.1581	497.99
57.1725	574.33
57.1869	527.99
57.2014	512.57
57.2158	503.69
57.2303	484.02
57.2447	535.24
57.2591	536.65
57.2736	528.55
57.2880	544.61
57.3025	538.70
57.3169	539.48
57.3313	541.69
57.3458	565.16
57.3602	527.12
57.3747	567.42
57.3891	521.18
57.4035	504.25
57.4180	531.82
57.4324	531.33
57.4469	518.22
57.4613	543.16
57.4757	556.87
57.4902	529.23
57.5046	509.69
57.5191	510.35
57.5335	528.34
57.5479	499.44
57.5624	509.40
57.5768	536.86
57.5913	491.70
57.6057	493.25
57.6201	497.94
57.6346	526.50
57.6490	540.68
57.6635	563.80
57.6779	526.56
57.6923	508.77
57.7068	561.68
57.7212	529.36
57.7357	505.25
57.7501	521.63
57.7645	524.99
57.7790	542.15
57.7934	506.09
57.8079	509.13
57.8223	534.46
57.8367	526.13
57.8512	509.67
57.8656	552.97
57.8801	551.77
57.8945	561.37
57.9089	534.61
57.9234	532.56
57.9378	555.31
57.9523	530.33
57.9667	511.12
57.9811	500.57
57.9956	544.63
58.0100	522.11
58.0245	570.46
58.0389	575.53
58.0533	579.63
58.0678	588.52
58.0822	596.17
58.0967	617.20
58.1111	604.52
58.1255	624.84
58.1400	625.88
58.1544	575.99
58.1689	586.45
58.1833	624.82
58.1977	622.27
58.2122	615.52
58.2266	612.13
58.2411	631.84
58.2555	628.03
58.2699	652.04
58.2844	672.03
58.2988	642.33
58.3133	655.42
58.3277	635.00
58.3421	678.67
58.3566	630.12
58.3710	622.15
58.3855	631.62
58.3999	586.82
58.4143	575.04
58.4288	622.84
58.4432	609.72
58.4577	604.89
58.4721	628.59
58.4865	603.42
58.5010	561.32
58.5154	588.44
58.5299	580.48
58.5443	572.79
58.5587	580.73
58.5732	551.83
58.5876	547.32
58.6021	549.84
58.6165	552.80
58.6309	558.79
58.6454	581.60
58.6598	528.56
58.6743	532.47
58.6887	517.29
58.7031	546.88
58.7176	543.13
58.7320	526.03
58.7465	567.49
58.7609	533.59
58.7753	534.08
58.7898	521.14
58.8042	502.36
58.8187	513.36
58.8331	546.77
58.8475	549.61
58.8620	531.07
58.8764	527.74
58.8909	518.69
58.9053	560.17
58.9197	548.32
58.9342	506.87
58.9486	503.07
58.9631	512.97
58.9775	546.43
58.9919	533.36
59.0064	547.30
59.0208	552.10
59.0353	560.47
59.0497	553.89
59.0641	529.29
59.0786	523.27
59.0930	534.33
59.1075	531.31
59.1219	541.77
59.1363	542.04
59.1508	534.11
59.1652	571.65
59.1797	543.95
59.1941	548.69
59.2085	565.25
59.2230	552.77
59.2374	562.07
59.2519	545.18
59.2663	535.10
59.2807	567.66
59.2952	536.87
59.3096	549.42
59.3241	559.30
59.3385	568.92
59.3529	549.33
59.3674	517.29
59.3818	533.85
59.3963	522.97
59.4107	561.98
59.4251	552.72
59.4396	516.59
59.4540	536.76
59.4685	544.90
59.4829	552.33
59.4973	552.89
59.5118	536.92
59.5262	539.89
59.5407	558.36
59.5551	549.85
59.5695	571.98
59.5840	546.60
59.5984	525.56
59.6129	529.91
59.6273	541.38
59.6417	586.03
59.6562	579.24
59.6706	555.14
59.6851	559.74
59.6995	539.51
59.7139	540.30
59.7284	513.48
59.7428	524.78
59.7573	511.77
59.7717	523.83
59.7861	567.75
59.8006	535.40
59.8150	533.97
59.8295	566.18
59.8439	562.70
59.8583	556.81
59.8728	554.31
59.8872	547.58
59.9017	560.68
59.9161	536.33
59.9305	549.84
59.9450	552.72
59.9594	537.23
59.9739	510.55
59.9883	559.69
60.0027	551.29
60.0172	551.43
60.0316	588.16
60.0461	523.98
60.0605	547.49
60.0750	568.51
60.0894	561.61
60.1038	534.28
60.1183	544.79
60.1327	562.96
60.1472	534.17
60.1616	526.87
60.1760	600.12
60.1905	555.23
60.2049	547.12
60.2194	566.34
60.2338	530.53
60.2482	540.24
60.2627	515.87
60.2771	577.47
60.2916	571.93
60.3060	528.87
60.3204	558.23
60.3349	556.62
60.3493	568.66
60.3638	594.96
60.3782	562.02
60.3926	563.00
60.4071	573.05
60.4215	542.03
60.4360	538.27
60.4504	529.16
60.4648	546.67
60.4793	505.83
60.4937	506.36
60.5082	507.89
60.5226	518.63
60.5370	524.30
60.5515	525.91
60.5659	569.95
60.5804	583.34
60.5948	517.37
60.6092	554.00
60.6237	514.46
60.6381	625.19
60.6526	507.06
60.6670	554.67
60.6814	567.85
60.6959	545.25
60.7103	526.18
60.7248	533.32
60.7392	525.35
60.7536	562.31
60.7681	521.63
60.7825	523.38
60.7970	539.12
60.8114	542.85
60.8258	553.94
60.8403	540.09
60.8547	528.82
60.8692	529.64
60.8836	561.18
60.8980	534.46
60.9125	556.56
60.9269	518.59
60.9414	559.58
60.9558	556.84
60.9702	536.48
60.9847	563.66
60.9991	530.30
61.0136	532.87
61.0280	522.04
61.0424	494.34
61.0569	551.69
61.0713	587.21
61.0858	567.26
61.1002	528.36
61.1146	556.06
61.1291	577.59
61.1435	528.78
61.1580	524.76
61.1724	526.52
61.1868	524.69
61.2013	527.09
61.2157	573.98
61.2302	568.22
61.2446	566.83
61.2590	561.08
61.2735	543.22
61.2879	563.18
61.3024	560.48
61.3168	515.52
61.3312	535.96
61.3457	566.02
61.3601	569.17
61.3746	552.00
61.3890	581.18
61.4034	576.19
61.4179	545.64
61.4323	577.54
61.4468	544.91
61.4612	565.31
61.4756	592.61
61.4901	512.57
61.5045	531.85
61.5190	535.51
61.5334	537.58
61.5478	526.40
61.5623	530.45
61.5767	524.36
61.5912	547.68
61.6056	536.02
61.6200	551.84
61.6345	580.41
61.6489	541.23
61.6634	536.65
61.6778	535.89
61.6922	546.93
61.7067	545.49
61.7211	548.46
61.7356	528.40
61.7500	520.33
61.7644	518.57
61.7789	552.78
61.7933	544.82
61.8078	550.04
61.8222	540.39
61.8366	550.17
61.8511	546.65
61.8655	524.28
61.8800	554.67
61.8944	584.48
61.9088	572.72
61.9233	553.08
61.9377	550.37
61.9522	561.66
61.9666	598.80
61.9810	579.50
61.9955	545.06
62.0099	545.89
62.0244	564.84
62.0388	567.80
62.0532	541.55
62.0677	536.80
62.0821	558.23
62.0966	551.65
62.1110	562.83
62.1254	545.06
62.1399	547.38
62.1543	525.15
62.1688	558.97
62.1832	569.53
62.1976	565.12
62.2121	563.91
62.2265	563.37
62.2410	560.29
62.2554	546.23
62.2698	579.33
62.2843	571.80
62.2987	555.43
62.3132	508.62
62.3276	523.46
62.3420	544.58
62.3565	528.22
62.3709	525.41
62.3854	523.65
62.3998	559.69
62.4142	549.46
62.4287	555.94
62.4431	530.54
62.4576	538.32
62.4720	549.72
62.4864	547.29
62.5009	539.02
62.5153	551.83
62.5298	572.01
62.5442	569.25
62.5586	549.68
62.5731	543.63
62.5875	534.69
62.6020	550.69
62.6164	561.09
62.6308	549.46
62.6453	571.68
62.6597	567.96
62.6742	546.05
62.6886	571.05
62.7030	589.37
62.7175	578.10
62.7319	556.62
62.7464	567.14
62.7608	535.30
62.7752	530.15
62.7897	579.61
62.8041	549.65
62.8186	567.47
62.8330	566.21
62.8474	567.11
62.8619	540.73
62.8763	553.65
62.8908	533.74
62.9052	595.00
62.9196	581.36
62.9341	591.10
62.9485	576.62
62.9630	534.15
62.9774	530.60
62.9918	539.28
63.0063	582.33
63.0207	610.82
63.0352	592.53
63.0496	574.96
63.0640	582.36
63.0785	570.18
63.0929	553.58
63.1074	565.65
63.1218	572.82
63.1362	546.67
63.1507	551.24
63.1651	579.14
63.1796	572.26
63.1940	570.27
63.2084	544.06
63.2229	573.49
63.2373	559.82
63.2518	537.72
63.2662	562.19
63.2806	548.67
63.2951	548.59
63.3095	575.37
63.3240	581.30
63.3384	585.28
63.3528	578.10
63.3673	580.01
63.3817	526.83
63.3962	525.61
63.4106	532.35
63.4250	590.92
63.4395	575.65
63.4539	584.50
63.4684	588.09
63.4828	566.04
63.4972	601.55
63.5117	597.51
63.5261	612.35
63.5406	598.31
63.5550	601.13
63.5694	568.61
63.5839	573.03
63.5983	586.23
63.6128	570.72
63.6272	582.48
63.6416	583.92
63.6561	583.14
63.6705	603.09
63.6850	622.72
63.6994	610.52
63.7138	600.05
63.7283	596.12
63.7427	605.36
63.7572	635.72
63.7716	596.31
63.7861	603.72
63.8005	624.20
63.8149	690.70
63.8294	686.54
63.8438	692.95
63.8583	736.29
63.8727	736.88
63.8871	708.30
63.9016	760.33
63.9160	714.83
63.9305	704.01
63.9449	744.70
63.9593	692.31
63.9738	728.15
63.9882	748.58
64.0027	734.68
64.0171	700.99
64.0315	735.67
64.0460	826.10
64.0604	792.18
64.0749	791.03
64.0893	862.23
64.1037	758.85
64.1182	766.21
64.1326	783.27
64.1471	754.60
64.1615	785.16
64.1759	783.86
64.1904	732.53
64.2048	721.24
64.2193	729.40
64.2337	720.24
64.2481	711.10
64.2626	692.14
64.2770	679.30
64.2915	696.73
64.3059	695.73
64.3203	695.51
64.3348	684.28
64.3492	661.80
64.3637	655.10
64.3781	646.51
64.3925	651.64
64.4070	659.17
64.4214	668.02
64.4359	654.78
64.4503	646.58
64.4647	605.58
64.4792	630.72
64.4936	628.29
64.5081	601.00
64.5225	620.85
64.5369	666.52
64.5514	633.41
64.5658	665.25
64.5803	656.42
64.5947	618.82
64.6091	648.65
64.6236	637.78
64.6380	652.97
64.6525	656.21
64.6669	669.05
64.6813	654.78
64.6958	651.86
64.7102	675.33
64.7247	686.68
64.7391	620.16
64.7535	705.61
64.7680	702.62
64.7824	751.43
64.7969	704.18
64.8113	749.68
64.8257	715.51
64.8402	813.33
64.8546	854.25
64.8691	836.73
64.8835	805.95
64.8979	841.60
64.9124	848.06
64.9268	851.43
64.9413	907.26
64.9557	964.34
64.9701	977.01
64.9846	1017.26
64.9990	1148.11
65.0135	1192.64
65.0279	1368.30
65.0423	1611.21
65.0568	2037.75
65.0712	2534.25
65.0857	3270.89
65.1001	4200.16
65.1145	5875.68
65.1290	7664.87
65.1434	9174.92
65.1579	10797.32
65.1723	11767.25
65.1867	11401.13
65.2012	10165.94
65.2156	8586.49
65.2301	6726.54
65.2445	5426.27
65.2589	4507.87
65.2734	4247.85
65.2878	4339.18
65.3023	4729.47
65.3167	5676.06
65.3311	6543.58
65.3456	6944.78
65.3600	6935.43
65.3745	6432.96
65.3889	5559.08
65.4033	4502.78
65.4178	3563.41
65.4322	2808.87
65.4467	2123.21
65.4611	1687.68
65.4755	1454.24
65.4900	1323.88
65.5044	1176.78
65.5189	1066.69
65.5333	927.45
65.5477	926.82
65.5622	917.24
65.5766	824.74
65.5911	849.99
65.6055	804.65
65.6199	767.50
65.6344	720.61
65.6488	757.14
65.6633	720.29
65.6777	731.22
65.6921	693.71
65.7066	700.35
65.7210	732.56
65.7355	724.06
65.7499	674.65
65.7643	634.49
65.7788	684.67
65.7932	689.76
65.8077	704.37
65.8221	674.94
65.8365	648.09
65.8510	637.10
65.8654	663.86
65.8799	643.95
65.8943	670.29
65.9087	634.68
65.9232	634.58
65.9376	647.67
65.9521	661.78
65.9665	612.82
65.9809	613.11
65.9954	636.16
66.0098	652.74
66.0243	629.64
66.0387	614.35
66.0531	655.02
66.0676	633.22
66.0820	627.90
66.0965	592.24
66.1109	625.69
66.1253	634.61
66.1398	613.23
66.1542	583.85
66.1687	587.84
66.1831	585.12
66.1975	598.84
66.2120	645.38
66.2264	635.26
66.2409	626.04
66.2553	611.06
66.2697	607.68
66.2842	619.29
66.2986	616.10
66.3131	612.81
66.3275	603.00
66.3419	609.96
66.3564	581.35
66.3708	594.88
66.3853	593.29
66.3997	585.57
66.4141	604.71
66.4286	581.93
66.4430	563.59
66.4575	596.60
66.4719	591.99
66.4863	581.11
66.5008	579.30
66.5152	617.55
66.5297	602.85
66.5441	602.65
66.5585	599.36
66.5730	600.53
66.5874	588.55
66.6019	614.91
66.6163	604.37
66.6307	597.45
66.6452	596.85
66.6596	606.27
66.6741	586.14
66.6885	565.31
66.7029	564.30
66.7174	582.53
66.7318	567.45
66.7463	577.44
66.7607	577.89
66.7751	570.54
66.7896	613.56
66.8040	589.05
66.8185	590.15
66.8329	597.61
66.8473	591.34
66.8618	578.65
66.8762	623.54
66.8907	598.55
66.9051	617.04
66.9195	599.09
66.9340	601.22
66.9484	591.50
66.9629	575.83
66.9773	569.33
66.9917	564.83
67.0062	567.70
67.0206	565.88
67.0351	608.68
67.0495	591.37
67.0639	556.54
67.0784	557.97
67.0928	596.56
67.1073	574.95
67.1217	559.09
67.1361	575.44
67.1506	554.87
67.1650	580.13
67.1795	600.02
67.1939	558.82
67.2083	541.76
67.2228	598.45
67.2372	619.72
67.2517	595.08
67.2661	564.43
67.2805	596.70
67.2950	553.94
67.3094	596.29
67.3239	606.77
67.3383	558.83
67.3527	576.86
67.3672	563.57
67.3816	581.60
67.3961	560.49
67.4105	548.72
67.4250	590.64
67.4394	575.40
67.4538	545.83
67.4683	585.41
67.4827	578.87
67.4972	557.96
67.5116	527.96
67.5260	569.57
67.5405	555.51
67.5549	576.57
67.5694	548.69
67.5838	560.16
67.5982	542.54
67.6127	608.34
67.6271	569.90
67.6416	580.12
67.6560	605.20
67.6704	581.64
67.6849	560.28
67.6993	579.47
67.7138	596.92
67.7282	583.72
67.7426	576.79
67.7571	589.50
67.7715	616.15
67.7860	579.32
67.8004	590.70
67.8148	580.97
67.8293	572.39
67.8437	575.96
67.8582	558.73
67.8726	560.14
67.8870	573.64
67.9015	591.44
67.9159	594.24
67.9304	615.90
67.9448	603.25
67.9592	580.68
67.9737	560.95
67.9881	582.54
68.0026	554.63
68.0170	577.95
68.0314	600.85
68.0459	588.39
68.0603	589.78
68.0748	597.36
68.0892	609.22
68.1036	578.73
68.1181	584.09
68.1325	599.28
68.1470	605.76
68.1614	592.45
68.1758	562.54
68.1903	561.74
68.2047	564.88
68.2192	583.91
68.2336	567.10
68.2480	542.23
68.2625	526.13
68.2769	546.88
68.2914	566.06
68.3058	572.55
68.3202	552.67
68.3347	544.35
68.3491	564.25
68.3636	551.44
68.3780	533.61
68.3924	562.34
68.4069	619.28
68.4213	575.97
68.4358	564.76
68.4502	562.87
68.4646	580.17
68.4791	558.78
68.4935	576.25
68.5080	569.69
68.5224	549.91
68.5368	557.53
68.5513	576.96
68.5657	536.79
68.5802	556.77
68.5946	535.66
68.6090	568.52
68.6235	591.36
68.6379	594.47
68.6524	549.52
68.6668	559.16
68.6812	541.59
68.6957	558.27
68.7101	587.83
68.7246	546.49
68.7390	546.36
68.7534	565.18
68.7679	609.42
68.7823	572.35
68.7968	618.53
68.8112	597.52
68.8256	581.88
68.8401	569.03
68.8545	571.71
68.8690	564.62
68.8834	548.89
68.8978	612.53
68.9123	586.21
68.9267	559.21
68.9412	598.23
68.9556	574.49
68.9700	555.96
68.9845	554.24
68.9989	519.92
69.0134	501.35
69.0278	571.25
69.0422	551.00
69.0567	558.77
69.0711	587.32
69.0856	598.94
69.1000	618.89
69.1144	574.94
69.1289	554.98
69.1433	509.45
69.1578	576.42
69.1722	612.35
69.1866	557.86
69.2011	565.09
69.2155	574.74
69.2300	585.45
69.2444	601.63
69.2588	569.67
69.2733	546.63
69.2877	580.99
69.3022	589.96
69.3166	548.67
69.3310	578.57
69.3455	598.85
69.3599	585.95
69.3744	590.45
69.3888	617.86
69.4032	556.88
69.4177	600.97
69.4321	596.11
69.4466	542.12
69.4610	580.70
69.4754	577.21
69.4899	571.48
69.5043	561.54
69.5188	557.56
69.5332	616.66
69.5476	579.71
69.5621	541.73
69.5765	564.60
69.5910	575.97
69.6054	553.67
69.6198	622.28
69.6343	601.15
69.6487	591.00
69.6632	583.24
69.6776	581.19
69.6920	554.98
69.7065	582.20
69.7209	550.86
69.7354	537.15
69.7498	620.26
69.7642	548.88
69.7787	559.00
69.7931	556.05
69.8076	538.98
69.8220	560.77
69.8364	581.34
69.8509	572.18
69.8653	593.18
69.8798	538.30
69.8942	528.95
69.9086	568.70
69.9231	579.28
69.9375	620.66
69.9520	589.20
69.9664	522.89
69.9808	584.09
69.9953	587.59
70.0097	576.97
70.0242	562.99
70.0386	550.54
70.0530	592.43
70.0675	556.94
70.0819	556.78
70.0964	576.80
70.1108	575.98
70.1252	597.77
70.1397	562.16
70.1541	576.29
70.1686	580.30
70.1830	564.10
70.1974	522.17
70.2119	624.43
70.2263	632.28
70.2408	596.62
70.2552	572.72
70.2696	575.20
70.2841	551.32
70.2985	532.23
70.3130	538.28
70.3274	587.05
70.3418	591.15
70.3563	533.88
70.3707	600.20
70.3852	522.87
70.3996	577.79
70.4140	629.79
70.4285	576.61
70.4429	582.63
70.4574	563.52
70.4718	548.55
70.4862	574.30
70.5007	571.74
70.5151	599.54
70.5296	574.66
70.5440	578.11
70.5584	547.27
70.5729	545.35
70.5873	582.79
70.6018	519.77
70.6162	555.80
70.6306	545.79
70.6451	583.08
70.6595	622.59
70.6740	589.78
70.6884	547.51
70.7028	624.17
70.7173	602.14
70.7317	597.10
70.7462	590.14
70.7606	600.67
70.7750	610.51
70.7895	611.87
70.8039	579.16
70.8184	592.43
70.8328	615.65
70.8472	550.28
70.8617	568.75
70.8761	617.68
70.8906	554.59
70.9050	595.87
70.9194	565.69
70.9339	613.36
70.9483	607.92
70.9628	531.90
70.9772	581.65
70.9916	615.38
71.0061	601.45
71.0205	594.78
71.0350	548.44
71.0494	527.89
71.0638	519.48
71.0783	496.20
71.0927	550.71
71.1072	570.42
71.1216	569.58
71.1361	556.71
71.1505	566.58
71.1649	582.56
71.1794	585.53
71.1938	602.58
71.2083	585.49
71.2227	567.91
71.2371	586.62
71.2516	590.42
71.2660	591.87
71.2805	562.73
71.2949	570.46
71.3093	564.25
71.3238	547.58
71.3382	612.78
71.3527	579.48
71.3671	534.78
71.3815	543.26
71.3960	618.77
71.4104	624.82
71.4249	595.15
71.4393	621.62
71.4537	590.80
71.4682	563.79
71.4826	611.58
71.4971	578.64
71.5115	538.16
71.5259	554.86
71.5404	543.14
71.5548	518.77
71.5693	523.30
71.5837	549.29
71.5981	598.55
71.6126	583.71
71.6270	582.21
71.6415	565.91
71.6559	563.44
71.6703	548.63
71.6848	511.91
71.6992	537.68
71.7137	570.89
71.7281	574.60
71.7425	543.09
71.7570	566.32
71.7714	573.36
71.7859	562.33
71.8003	565.23
71.8147	581.60
71.8292	599.15
71.8436	585.37
71.8581	581.39
71.8725	607.04
71.8869	559.66
71.9014	613.44
71.9158	618.08
71.9303	589.31
71.9447	650.21
71.9591	720.70
71.9736	679.02
71.9880	484.41
72.0025	410.83
72.0169	539.70
72.0313	605.52
72.0458	619.31
72.0602	599.35
72.0747	589.24
72.0891	659.12
72.1035	615.58
72.1180	594.77
72.1324	588.41
72.1469	575.09
72.1613	563.03
72.1757	589.70
72.1902	601.76
72.2046	549.24
72.2191	547.77
72.2335	527.16
72.2479	523.86
72.2624	540.89
72.2768	598.10
72.2913	612.37
72.3057	620.72
72.3201	568.26
72.3346	576.83
72.3490	580.88
72.3635	496.56
72.3779	554.76
72.3923	603.40
72.4068	601.68
72.4212	545.30
72.4357	549.74
72.4501	586.29
72.4645	655.85
72.4790	670.51
72.4934	610.83
72.5079	592.35
72.5223	660.94
72.5367	633.87
72.5512	611.35
72.5656	535.53
72.5801	482.89
72.5945	493.87
72.6089	537.17
72.6234	552.27
72.6378	595.03
72.6523	625.60
72.6667	615.35
72.6811	554.64
72.6956	528.88
72.7100	618.76
72.7245	570.96
72.7389	550.48
72.7533	608.34
72.7678	614.46
72.7822	664.08
72.7967	608.00
72.8111	527.78
72.8255	633.03
72.8400	643.66
72.8544	553.29
72.8689	532.63
72.8833	578.80

Result vector
22.1120	497.45
22.1264	544.96
22.1409	492.58
22.1553	562.33
22.1697	607.77
22.1842	529.46
22.1986	547.87
22.2131	568.95
22.2275	618.42
22.2419	608.43
22.2564	548.62
22.2708	549.46
22.2853	610.34
22.2997	570.08
22.3141	565.19
22.3286	620.30
22.3430	563.53
22.3575	552.60
22.3719	672.81
22.3863	621.89
22.4008	624.88
22.4152	569.76
22.4297	639.11
22.4441	634.14
22.4585	680.16
22.4730	605.79
22.4874	575.83
22.5019	611.13
22.5163	597.03
22.5307	524.99
22.5452	485.63
22.5596	551.24
22.5741	555.02
22.5885	514.93
22.6029	591.73
22.6174	542.72
22.6318	518.44
22.6463	573.86
22.6607	580.58
22.6751	575.60
22.6896	593.12
22.7040	561.28
22.7185	600.86
22.7329	550.68
22.7473	478.82
22.7618	600.54
22.7762	556.36
22.7907	566.82
22.8051	612.54
22.8195	612.31
22.8340	590.98
22.8484	608.22
22.8629	606.58
22.8773	550.56
22.8917	521.93
22.9062	559.28
22.9206	570.81
22.9351	539.16
22.9495	541.95
22.9639	559.34
22.9784	535.04
22.9928	521.44
23.0073	564.16
23.0217	540.66
23.0361	652.38
23.0506	571.48
23.0650	611.92
23.0795	558.70
23.0939	594.00
23.1083	564.56
23.1228	507.06
23.1372	583.74
23.1517	501.72
23.1661	578.54
23.1806	623.13
23.1950	611.60
23.2094	587.35
23.2239	523.55
23.2383	561.12
23.2528	551.30
23.2672	497.50
23.2816	509.21
23.2961	504.58
23.3105	574.37
23.3250	566.78
23.3394	570.52
23.3538	492.60
23.3683	520.89
23.3827	565.54
23.3972	501.20
23.4116	457.54
23.4260	624.43
23.4405	532.79
23.4549	516.96
23.4694	523.32
23.4838	549.89
23.4982	562.70
23.5127	532.70
23.5271	577.81
23.5416	638.70
23.5560	533.76
23.5704	557.35
23.5849	554.62
23.5993	497.56
23.6138	551.38
23.6282	534.45
23.6426	545.72
23.6571	577.59
23.6715	528.79
23.6860	575.45
23.7004	605.71
23.7148	569.53
23.7293	556.19
23.7437	549.09
23.7582	459.77
23.7726	486.20
23.7870	533.53
23.8015	560.60
23.8159	533.29
23.8304	554.07
23.8448	536.04
23.8592	587.98
23.8737	587.17
23.8881	534.09
23.9026	619.41
23.9170	504.53
23.9314	514.25
23.9459	561.90
23.9603	559.61
23.9748	572.05
23.9892	491.00
24.0036	508.05
24.0181	485.74
24.0325	570.45
24.0470	544.52
24.0614	519.04
24.0758	523.22
24.0903	635.01
24.1047	549.57
24.1192	594.93
24.1336	612.68
24.1480	515.41
24.1625	583.34
24.1769	583.61
24.1914	552.21
24.2058	568.65
24.2202	611.13
24.2347	613.89
24.2491	583.98
24.2636	588.96
24.2780	575.79
24.2924	591.54
24.3069	585.35
24.3213	608.84
24.3358	543.90
24.3502	521.12
24.3646	574.34
24.3791	512.21
24.3935	529.27
24.4080	534.87
24.4224	573.32
24.4368	526.07
24.4513	538.89
24.4657	584.80
24.4802	497.07
24.4946	527.34
24.5090	519.73
24.5235	540.74
24.5379	584.61
24.5524	544.90
24.5668	546.12
24.5812	585.89
24.5957	571.98
24.6101	586.31
24.6246	517.03
24.6390	522.14
24.6534	574.78
24.6679	568.90
24.6823	508.85
24.6968	533.66
24.7112	573.67
24.7256	536.42
24.7401	553.82
24.7545	557.31
24.7690	560.92
24.7834	487.77
24.7978	466.48
24.8123	461.86
24.8267	537.33
24.8412	519.70
24.8556	540.63
24.8700	555.84
24.8845	547.12
24.8989	504.91
24.9134	592.06
24.9278	537.43
24.9422	551.18
24.9567	515.03
24.9711	525.61
24.9856	482.54
25.0000	573.54
25.0144	571.62
25.0289	525.56
25.0433	539.20
25.0578	537.29
25.0722	563.42
25.0866	556.70
25.1011	524.67
25.1155	571.64
25.1300	567.34
25.1444	491.85
25.1588	494.24
25.1733	529.23
25.1877	536.38
25.2022	506.10
25.2166	600.08
25.2310	555.75
25.2455	527.08
25.2599	547.72
25.2744	559.85
25.2888	542.13
25.3032	543.46
25.3177	508.31
25.3321	494.35
25.3466	504.93
25.3610	520.81
25.3754	531.57
25.3899	529.86
25.4043	550.51
25.4188	550.05
25.4332	546.26
25.4476	535.47
25.4621	554.24
25.4765	481.45
25.4910	495.30
25.5054	520.04
25.5198	492.06
25.5343	539.60
25.5487	528.94
25.5632	517.43
25.5776	562.20
25.5920	564.78
25.6065	531.47
25.6209	576.28
25.6354	569.96
25.6498	498.24
25.6642	543.27
25.6787	520.06
25.6931	542.79
25.7076	567.31
25.7220	533.48
25.7364	548.13
25.7509	575.53
25.7653	578.38
25.7798	551.82
25.7942	555.88
25.8086	553.07
25.8231	543.23
25.8375	509.77
25.8520	519.66
25.8664	543.42
25.8808	548.19
25.8953	526.05
25.9097	548.99
25.9242	539.24
25.9386	516.00
25.9530	541.17
25.9675	534.82
25.9819	513.52
25.9964	550.08
26.0108	550.90
26.0252	543.45
26.0397	520.45
26.0541	545.72
26.0686	525.97
26.0830	542.29
26.0974	545.45
26.1119	546.01
26.1263	515.19
26.1408	508.16
26.1552	490.21
26.1696	527.89
26.1841	542.91
26.1985	516.71
26.2130	555.56
26.2274	547.89
26.2418	494.02
26.2563	510.75
26.2707	543.85
26.2852	525.21
26.2996	488.45
26.3140	512.58
26.3285	554.06
26.3429	545.55
26.3574	532.44
26.3718	513.62
26.3862	478.46
26.4007	482.60
26.4151	533.97
26.4296	548.34
26.4440	530.84
26.4584	522.69
26.4729	535.22
26.4873	567.36
26.5018	542.56
26.5162	568.49
26.5306	583.26
26.5451	547.62
26.5595	534.28
26.5740	539.48
26.5884	571.66
26.6028	548.67
26.6173	539.20
26.6317	525.17
26.6462	529.82
26.6606	507.21
26.6750	528.62
26.6895	558.27
26.7039	537.28
26.7184	526.19
26.7328	515.68
26.7472	537.94
26.7617	494.87
26.7761	505.87
26.7906	510.70
26.8050	502.33
26.8194	522.85
26.8339	516.62
26.8483	516.69
26.8628	534.73
26.8772	533.11
26.8917	540.95
26.9061	502.43
26.9205	503.54
26.9350	546.10
26.9494	528.52
26.9639	513.32
26.9783	534.17
26.9927	530.92
27.0072	504.07
27.0216	530.97
27.0361	529.30
27.0505	490.13
27.0649	515.83
27.0794	522.76
27.0938	556.56
27.1083	533.66
27.1227	504.63
27.1371	504.62
27.1516	504.78
27.1660	519.05
27.1805	487.10
27.1949	457.40
27.2093	477.42
27.2238	520.21
27.2382	529.53
27.2527	532.63
27.2671	525.55
27.2815	529.54
27.2960	523.95
27.3104	489.24
27.3249	512.84
27.3393	554.52
27.3537	526.41
27.3682	517.44
27.3826	518.75
27.3971	519.23
27.4115	494.35
27.4259	517.98
27.4404	517.93
27.4548	520.07
27.4693	534.07
27.4837	540.61
27.4981	541.99
27.5126	527.21
27.5270	532.79
27.5415	505.26
27.5559	494.34
27.5703	507.14
27.5848	540.14
27.5992	518.49
27.6137	533.92
27.6281	521.37
27.6425	541.73
27.6570	531.99
27.6714	501.31
27.6859	491.32
27.7003	527.00
27.7147	518.58
27.7292	522.55
27.7436	531.06
27.7581	509.92
27.7725	513.57
27.7869	510.69
27.8014	512.67
27.8158	529.70
27.8303	511.79
27.8447	500.91
27.8591	511.34
27.8736	510.23
27.8880	533.06
27.9025	519.30
27.9169	498.74
27.9313	522.89
27.9458	520.18
27.9602	483.71
27.9747	491.57
27.9891	508.03
28.0035	536.14
28.0180	540.46
28.0324	540.05
28.0469	526.22
28.0613	515.05
28.0757	512.63
28.0902	520.17
28.1046	547.12
28.1191	506.88
28.1335	526.65
28.1479	484.97
28.1624	507.46
28.1768	495.89
28.1913	495.69
28.2057	531.18
28.2201	516.63
28.2346	491.32
28.2490	502.71
28.2635	513.92
28.2779	478.93
28.2923	501.46
28.3068	529.32
28.3212	494.80
28.3357	528.76
28.3501	514.05
28.3645	555.32
28.3790	515.56
28.3934	522.22
28.4079	499.43
28.4223	519.49
28.4367	530.09
28.4512	532.65
28.4656	520.96
28.4801	540.01
28.4945	523.57
28.5089	527.55
28.5234	506.90
28.5378	505.49
28.5523	557.99
28.5667	530.17
28.5811	500.05
28.5956	530.67
28.6100	530.05
28.6245	504.72
28.6389	508.47
28.6533	516.24
28.6678	511.32
28.6822	492.52
28.6967	523.14
28.7111	503.77
28.7255	500.00
28.7400	500.04
28.7544	504.83
28.7689	528.55
28.7833	505.34
28.7977	512.73
28.8122	493.02
28.8266	525.34
28.8411	524.42
28.8555	502.32
28.8699	523.02
28.8844	494.94
28.8988	508.82
28.9133	513.83
28.9277	487.33
28.9421	492.49
28.9566	510.14
28.9710	512.89
28.9855	470.81
28.9999	523.76
29.0143	466.01
29.0288	540.38
29.0432	551.13
29.0577	526.57
29.0721	507.92
29.0865	487.38
29.1010	497.64
29.1154	512.64
29.1299	518.44
29.1443	489.20
29.1587	527.56
29.1732	516.13
29.1876	540.03
29.2021	512.13
29.2165	468.12
29.2309	488.44
29.2454	518.51
29.2598	503.35
29.2743	513.72
29.2887	502.40
29.3031	513.93
29.3176	509.98
29.3320	484.38
29.3465	476.77
29.3609	521.52
29.3753	492.08
29.3898	490.46
29.4042	477.85
29.4187	512.32
29.4331	526.50
29.4475	487.81
29.4620	495.29
29.4764	496.45
29.4909	512.21
29.5053	517.81
29.5197	523.63
29.5342	548.94
29.5486	527.87
29.5631	515.00
29.5775	501.91
29.5919	520.81
29.6064	508.02
29.6208	495.45
29.6353	533.42
29.6497	539.73
29.6641	537.95
29.6786	509.12
29.6930	493.00
29.7075	486.30
29.7219	499.63
29.7363	537.91
29.7508	520.30
29.7652	512.45
29.7797	496.34
29.7941	490.62
29.8085	508.79
29.8230	499.33
29.8374	508.94
29.8519	489.32
29.8663	518.79
29.8807	502.25
29.8952	525.17
29.9096	503.71
29.9241	497.58
29.9385	516.22
29.9529	484.95
29.9674	476.62
29.9818	505.77
29.9963	499.67
30.0107	518.68
30.0251	525.29
30.0396	529.82
30.0540	493.08
30.0685	521.87
30.0829	529.66
30.0973	512.88
30.1118	491.01
30.1262	531.03
30.1407	518.88
30.1551	505.23
30.1695	511.94
30.1840	514.13
30.1984	484.69
30.2129	498.12
30.2273	489.81
30.2417	505.22
30.2562	514.43
30.2706	505.96
30.2851	498.17
30.2995	499.78
30.3139	516.17
30.3284	565.45
30.3428	521.53
30.3573	488.20
30.3717	489.49
30.3861	499.92
30.4006	522.15
30.4150	524.96
30.4295	514.33
30.4439	494.64
30.4583	493.56
30.4728	487.67
30.4872	495.16
30.5017	505.19
30.5161	544.09
30.5305	531.82
30.5450	492.79
30.5594	539.31
30.5739	507.48
30.5883	520.53
30.6028	515.82
30.6172	507.06
30.6316	518.80
30.6461	557.24
30.6605	585.38
30.6750	587.91
30.6894	589.88
30.7038	630.59
30.7183	672.10
30.7327	686.64
30.7472	662.93
30.7616	735.83
30.7760	712.24
30.7905	674.02
30.8049	672.62
30.8194	653.93
30.8338	670.45
30.8482	687.82
30.8627	650.25
30.8771	613.06
30.8916	579.15
30.9060	595.98
30.9204	612.83
30.9349	559.76
30.9493	541.56
30.9638	545.02
30.9782	526.49
30.9926	531.96
31.0071	528.45
31.0215	552.02
31.0360	548.71
31.0504	509.87
31.0648	494.76
31.0793	502.43
31.0937	506.16
31.1082	522.73
31.1226	539.38
31.1370	536.04
31.1515	512.03
31.1659	510.19
31.1804	523.60
31.1948	532.68
31.2092	516.41
31.2237	509.56
31.2381	512.67
31.2526	513.51
31.2670	531.40
31.2814	527.27
31.2959	508.31
31.3103	514.72
31.3248	502.56
31.3392	503.86
31.3536	526.57
31.3681	507.97
31.3825	526.04
31.3970	523.38
31.4114	506.15
31.4258	507.99
31.4403	502.44
31.4547	508.53
31.4692	510.24
31.4836	529.89
31.4980	503.27
31.5125	461.14
31.5269	483.32
31.5414	490.24
31.5558	509.70
31.5702	483.74
31.5847	511.96
31.5991	509.20
31.6136	508.71
31.6280	497.23
31.6424	508.08
31.6569	516.29
31.6713	500.93
31.6858	537.49
31.7002	498.61
31.7146	514.81
31.7291	490.18
31.7435	531.44
31.7580	527.24
31.7724	538.18
31.7868	544.11
31.8013	509.60
31.8157	531.41
31.8302	523.44
31.8446	512.63
31.8590	495.15
31.8735	481.68
31.8879	508.10
31.9024	514.93
31.9168	487.48
31.9312	515.87
31.9457	540.04
31.9601	500.53
31.9746	483.69
31.9890	458.23
32.0034	478.21
32.0179	503.83
32.0323	499.65
32.0468	511.26
32.0612	517.92
32.0756	500.86
32.0901	489.92
32.1045	516.53
32.1190	520.26
32.1334	528.94
32.1478	497.26
32.1623	510.84
32.1767	501.96
32.1912	500.19
32.2056	513.36
32.2200	514.81
32.2345	478.23
32.2489	494.16
32.2634	482.42
32.2778	512.31
32.2922	507.77
32.3067	495.90
32.3211	486.22
32.3356	525.71
32.3500	513.21
32.3644	490.28
32.3789	498.23
32.3933	480.92
32.4078	498.02
32.4222	498.23
32.4366	517.41
32.4511	489.38
32.4655	525.79
32.4800	512.91
32.4944	469.66
32.5088	484.13
32.5233	454.57
32.5377	466.55
32.5522	513.47
32.5666	505.71
32.5810	503.01
32.5955	536.66
32.6099	503.28
32.6244	488.45
32.6388	517.78
32.6532	503.65
32.6677	479.37
32.6821	475.16
32.6966	513.68
32.7110	513.03
32.7254	499.02
32.7399	494.56
32.7543	488.02
32.7688	513.27
32.7832	532.49
32.7976	521.21
32.8121	491.35
32.8265	493.71
32.8410	529.77
32.8554	509.01
32.8698	506.43
32.8843	474.23
32.8987	507.87
32.9132	491.57
32.9276	491.07
32.9420	513.56
32.9565	457.95
32.9709	530.01
32.9854	485.99
32.9998	507.95
33.0142	478.87
33.0287	469.07
33.0431	479.80
33.0576	493.65
33.0720	548.95
33.0864	511.66
33.1009	486.49
33.1153	525.02
33.1298	471.65
33.1442	481.29
33.1586	496.52
33.1731	474.28
33.1875	510.12
33.2020	485.25
33.2164	482.93
33.2308	503.10
33.2453	500.97
33.2597	499.54
33.2742	505.26
33.2886	497.54
33.3030	513.51
33.3175	492.98
33.3319	488.75
33.3464	536.24
33.3608	479.02
33.3752	488.96
33.3897	513.56
33.4041	469.05
33.4186	520.83
33.4330	540.19
33.4474	491.88
33.4619	472.24
33.4763	485.13
33.4908	502.67
33.5052	497.83
33.5196	524.87
33.5341	528.74
33.5485	492.34
33.5630	505.00
33.5774	530.00
33.5918	497.04
33.6063	526.16
33.6207	481.82
33.6352	481.90
33.6496	478.35
33.6640	495.96
33.6785	499.87
33.6929	494.84
33.7074	569.00
33.7218	512.23
33.7362	512.91
33.7507	501.58
33.7651	494.19
33.7796	505.65
33.7940	497.99
33.8084	496.73
33.8229	522.25
33.8373	500.17
33.8518	519.07
33.8662	547.55
33.8806	486.76
33.8951	533.72
33.9095	518.59
33.9240	490.83
33.9384	504.79
33.9528	529.75
33.9673	490.57
33.9817	501.31
33.9962	525.09
34.0106	491.83
34.0250	506.75
34.0395	485.90
34.0539	495.75
34.0684	506.26
34.0828	458.29
34.0972	528.30
34.1117	547.00
34.1261	500.02
34.1406	519.04
34.1550	495.43
34.1694	506.52
34.1839	496.62
34.1983	477.94
34.2128	491.08
34.2272	513.06
34.2417	537.89
34.2561	553.33
34.2705	519.18
34.2850	509.91
34.2994	514.07
34.3139	519.69
34.3283	483.81
34.3427	495.36
34.3572	527.20
34.3716	503.52
34.3861	476.16
34.4005	507.94
34.4149	499.22
34.4294	513.90
34.4438	530.45
34.4583	491.23
34.4727	505.04
34.4871	530.79
34.5016	506.77
34.5160	507.81
34.5305	496.08
34.5449	462.92
34.5593	522.62
34.5738	527.19
34.5882	521.34
34.6027	515.56
34.6171	511.26
34.6315	473.88
34.6460	499.60
34.6604	511.30
34.6749	477.02
34.6893	485.92
34.7037	499.18
34.7182	518.73
34.7326	455.04
34.7471	474.59
34.7615	482.92
34.7759	510.21
34.7904	502.65
34.8048	495.32
34.8193	506.32
34.8337	507.06
34.8481	534.35
34.8626	509.20
34.8770	514.99
34.8915	511.15
34.9059	516.62
34.9203	500.36
34.9348	511.03
34.9492	488.84
34.9637	484.95
34.9781	478.70
34.9925	507.85
35.0070	514.43
35.0214	527.93
35.0359	505.83
35.0503	474.39
35.0647	500.87
35.0792	515.28
35.0936	512.00
35.1081	507.34
35.1225	526.47
35.1369	544.23
35.1514	483.58
35.1658	538.08
35.1803	538.85
35.1947	525.99
35.2091	533.48
35.2236	539.89
35.2380	506.41
35.2525	502.03
35.2669	491.19
35.2813	509.27
35.2958	535.73
35.3102	529.06
35.3247	529.02
35.3391	509.81
35.3535	504.33
35.3680	502.45
35.3824	525.49
35.3969	507.54
35.4113	493.10
35.4257	524.94
35.4402	516.04
35.4546	490.12
35.4691	513.62
35.4835	510.38
35.4979	493.53
35.5124	537.55
35.5268	552.78
35.5413	544.07
35.5557	537.71
35.5701	497.22
35.5846	530.66
35.5990	515.29
35.6135	498.39
35.6279	510.21
35.6423	541.45
35.6568	550.15
35.6712	558.11
35.6857	571.44
35.7001	702.53
35.7145	780.63
35.7290	704.49
35.7434	602.92
35.7579	586.51
35.7723	563.62
35.7867	637.30
35.8012	656.74
35.8156	700.08
35.8301	652.40
35.8445	627.14
35.8589	659.25
35.8734	726.68
35.8878	878.77
35.9023	962.78
35.9167	1048.83
35.9311	1246.16
35.9456	1808.20
35.9600	2229.40
35.9745	1986.40
35.9889	1966.88
36.0033	2671.58
36.0178	3388.29
36.0322	2648.96
36.0467	1943.44
36.0611	1751.28
36.0755	1689.16
36.0900	1672.00
36.1044	1511.84
36.1189	1461.57
36.1333	1442.33
36.1477	1204.39
36.1622	1251.21
36.1766	1179.28
36.1911	1198.56
36.2055	1104.61
36.2199	1036.55
36.2344	1011.96
36.2488	1025.59
36.2633	1040.67
36.2777	967.36
36.2921	965.06
36.3066	912.07
36.3210	845.65
36.3355	834.39
36.3499	867.46
36.3643	774.58
36.3788	744.88
36.3932	680.20
36.4077	643.80
36.4221	668.19
36.4365	637.37
36.4510	589.19
36.4654	616.31
36.4799	523.95
36.4943	583.24
36.5087	570.67
36.5232	563.43
36.5376	534.69
36.5521	549.43
36.5665	540.58
36.5809	532.74
36.5954	527.64
36.6098	542.67
36.6243	556.68
36.6387	530.12
36.6531	559.99
36.6676	542.17
36.6820	555.39
36.6965	529.89
36.7109	532.64
36.7253	544.91
36.7398	559.65
36.7542	542.94
36.7687	530.04
36.7831	553.45
36.7975	556.51
36.8120	568.94
36.8264	567.43
36.8409	584.53
36.8553	595.44
36.8697	606.93
36.8842	584.59
36.8986	579.34
36.9131	575.62
36.9275	595.39
36.9419	566.42
36.9564	577.94
36.9708	593.52
36.9853	511.59
36.9997	531.34
37.0141	481.22
37.0286	519.17
37.0430	515.77
37.0575	516.63
37.0719	510.21
37.0863	543.62
37.1008	539.81
37.1152	533.30
37.1297	514.24
37.1441	475.92
37.1585	498.50
37.1730	546.85
37.1874	515.47
37.2019	476.71
37.2163	491.28
37.2307	467.40
37.2452	479.61
37.2596	520.22
37.2741	505.28
37.2885	502.69
37.3029	529.89
37.3174	508.30
37.3318	527.57
37.3463	509.93
37.3607	478.33
37.3751	484.69
37.3896	486.73
37.4040	497.48
37.4185	493.26
37.4329	494.90
37.4473	516.09
37.4618	501.74
37.4762	494.95
37.4907	545.02
37.5051	544.09
37.5195	508.91
37.5340	505.94
37.5484	500.59
37.5629	518.04
37.5773	495.05
37.5917	481.50
37.6062	487.06
37.6206	496.84
37.6351	489.08
37.6495	509.69
37.6639	533.12
37.6784	511.88
37.6928	492.63
37.7073	487.68
37.7217	500.97
37.7361	473.75
37.7506	516.31
37.7650	506.77
37.7795	494.94
37.7939	472.78
37.8083	511.41
37.8228	513.13
37.8372	512.16
37.8517	489.17
37.8661	481.30
37.8805	490.96
37.8950	501.01
37.9094	540.33
37.9239	510.01
37.9383	515.93
37.9528	508.32
37.9672	512.89
37.9816	467.79
37.9961	515.74
38.0105	499.73
38.0250	511.69
38.0394	484.60
38.0538	513.19
38.0683	506.59
38.0827	492.59
38.0972	479.94
38.1116	506.19
38.1260	513.47
38.1405	457.57
38.1549	440.87
38.1694	458.95
38.1838	505.11
38.1982	512.16
38.2127	516.93
38.2271	518.03
38.2416	508.23
38.2560	510.92
38.2704	501.61
38.2849	501.47
38.2993	496.31
38.3138	490.39
38.3282	525.60
38.3426	526.86
38.3571	531.99
38.3715	527.95
38.3860	493.43
38.4004	515.88
38.4148	529.43
38.4293	558.29
38.4437	553.65
38.4582	626.45
38.4726	660.89
38.4870	671.86
38.5015	705.06
38.5159	771.69
38.5304	741.61
38.5448	775.77
38.5592	801.24
38.5737	744.26
38.5881	716.71
38.6026	687.07
38.6170	668.48
38.6314	679.32
38.6459	649.76
38.6603	657.05
38.6748	623.90
38.6892	552.91
38.7036	566.74
38.7181	528.60
38.7325	519.20
38.7470	535.84
38.7614	536.07
38.7758	498.20
38.7903	507.03
38.8047	496.91
38.8192	513.80
38.8336	508.25
38.8480	514.47
38.8625	512.34
38.8769	481.83
38.8914	508.72
38.9058	510.82
38.9202	518.90
38.9347	512.04
38.9491	496.26
38.9636	472.75
38.9780	503.67
38.9924	488.77
39.0069	456.73
39.0213	518.44
39.0358	505.68
39.0502	513.17
39.0646	497.21
39.0791	490.73
39.0935	495.75
39.1080	490.07
39.1224	520.28
39.1368	509.69
39.1513	450.21
39.1657	492.83
39.1802	496.28
39.1946	495.48
39.2090	492.82
39.2235	534.92
39.2379	503.41
39.2524	479.02
39.2668	468.95
39.2812	511.91
39.2957	498.73
39.3101	507.48
39.3246	509.34
39.3390	530.87
39.3534	490.95
39.3679	494.98
39.3823	518.31
39.3968	486.17
39.4112	507.21
39.4256	537.37
39.4401	528.28
39.4545	506.75
39.4690	515.31
39.4834	503.70
39.4978	494.03
39.5123	530.47
39.5267	478.45
39.5412	487.40
39.5556	480.98
39.5700	489.03
39.5845	522.88
39.5989	516.83
39.6134	507.40
39.6278	509.64
39.6422	523.47
39.6567	467.22
39.6711	505.15
39.6856	501.08
39.7000	485.68
39.7144	477.28
39.7289	489.34
39.7433	514.66
39.7578	517.84
39.7722	512.89
39.7866	510.96
39.8011	510.43
39.8155	546.08
39.8300	496.91
39.8444	493.24
39.8588	482.59
39.8733	489.10
39.8877	476.79
39.9022	522.81
39.9166	506.98
39.9310	487.52
39.9455	527.29
39.9599	470.99
39.9744	472.47
39.9888	514.74
40.0032	502.09
40.0177	477.46
40.0321	469.09
40.0466	495.14
40.0610	512.80
40.0754	476.38
40.0899	528.05
40.1043	501.45
40.1188	521.66
40.1332	506.92
40.1476	473.17
40.1621	476.76
40.1765	479.03
40.1910	485.72
40.2054	484.31
40.2198	493.88
40.2343	490.23
40.2487	506.53
40.2632	495.25
40.2776	520.10
40.2920	514.64
40.3065	504.69
40.3209	487.77
40.3354	502.83
40.3498	512.76
40.3642	462.02
40.3787	486.65
40.3931	505.79
40.4076	538.45
40.4220	506.27
40.4364	518.38
40.4509	494.77
40.4653	488.40
40.4798	458.49
40.4942	452.80
40.5086	475.68
40.5231	473.83
40.5375	505.71
40.5520	490.14
40.5664	449.74
40.5808	495.23
40.5953	525.92
40.6097	488.25
40.6242	480.05
40.6386	497.01
40.6530	501.56
40.6675	476.34
40.6819	479.81
40.6964	505.90
40.7108	531.40
40.7252	516.73
40.7397	497.43
40.7541	526.86
40.7686	498.05
40.7830	514.57
40.7974	483.02
40.8119	488.92
40.8263	516.25
40.8408	487.82
40.8552	508.00
40.8696	518.37
40.8841	474.33
40.8985	528.98
40.9130	486.38
40.9274	553.73
40.9418	515.07
40.9563	470.18
40.9707	485.81
40.9852	520.47
40.9996	497.99
41.0140	522.40
41.0285	495.43
41.0429	505.79
41.0574	475.65
41.0718	517.92
41.0862	532.93
41.1007	489.21
41.1151	504.37
41.1296	504.06
41.1440	519.56
41.1584	491.40
41.1729	519.85
41.1873	506.42
41.2018	458.06
41.2162	494.94
41.2306	469.13
41.2451	486.09
41.2595	462.10
41.2740	469.69
41.2884	501.51
41.3028	459.54
41.3173	491.50
41.3317	472.04
41.3462	485.60
41.3606	528.17
41.3750	519.24
41.3895	496.47
41.4039	487.55
41.4184	473.78
41.4328	494.30
41.4472	497.98
41.4617	500.73
41.4761	540.34
41.4906	504.87
41.5050	492.37
41.5194	478.90
41.5339	481.00
41.5483	499.07
41.5628	492.74
41.5772	485.31
41.5916	506.80
41.6061	508.51
41.6205	498.65
41.6350	515.42
41.6494	485.99
41.6639	511.54
41.6783	473.01
41.6927	482.10
41.7072	486.08
41.7216	502.89
41.7361	504.99
41.7505	522.08
41.7649	492.96
41.7794	488.48
41.7938	512.92
41.8083	503.00
41.8227	501.34
41.8371	508.52
41.8516	496.24
41.8660	546.69
41.8805	529.84
41.8949	562.01
41.9093	546.15
41.9238	556.23
41.9382	588.04
41.9527	565.61
41.9671	552.78
41.9815	537.73
41.9960	555.80
42.0104	584.37
42.0249	563.96
42.0393	535.60
42.0537	590.67
42.0682	575.69
42.0826	593.74
42.0971	592.34
42.1115	586.49
42.1259	629.10
42.1404	601.77
42.1548	609.83
42.1693	671.20
42.1837	708.13
42.1981	748.75
42.2126	866.52
42.2270	933.68
42.2415	1107.48
42.2559	1191.70
42.2703	1320.98
42.2848	1539.52
42.2992	1671.47
42.3137	1704.47
42.3281	1719.30
42.3425	1616.96
42.3570	1502.93
42.3714	1461.93
42.3859	1391.94
42.4003	1423.98
42.4147	1388.32
42.4292	1323.74
42.4436	1171.28
42.4581	1036.55
42.4725	934.81
42.4869	822.64
42.5014	753.88
42.5158	701.26
42.5303	660.85
42.5447	632.08
42.5591	611.72
42.5736	605.08
42.5880	570.41
42.6025	551.25
42.6169	587.20
42.6313	541.55
42.6458	508.53
42.6602	500.17
42.6747	536.39
42.6891	513.51
42.7035	520.63
42.7180	523.22
42.7324	494.76
42.7469	500.37
42.7613	511.05
42.7757	528.31
42.7902	543.18
42.8046	529.79
42.8191	517.64
42.8335	523.24
42.8479	499.79
42.8624	499.10
42.8768	531.72
42.8913	515.54
42.9057	530.06
42.9201	512.60
42.9346	527.67
42.9490	494.28
42.9635	481.02
42.9779	525.53
42.9923	528.18
43.0068	520.66
43.0212	494.82
43.0357	517.83
43.0501	516.88
43.0645	525.92
43.0790	527.75
43.0934	538.66
43.1079	519.57
43.1223	519.13
43.1367	523.71
43.1512	503.11
43.1656	530.34
43.1801	541.05
43.1945	511.82
43.2089	510.18
43.2234	540.76
43.2378	519.96
43.2523	513.25
43.2667	507.55
43.2811	532.58
43.2956	521.35
43.3100	504.91
43.3245	516.16
43.3389	512.84
43.3533	504.11
43.3678	512.09
43.3822	509.95
43.3967	518.25
43.4111	519.96
43.4255	540.87
43.4400	520.68
43.4544	482.72
43.4689	477.91
43.4833	516.53
43.4977	544.68
43.5122	490.88
43.5266	513.81
43.5411	511.13
43.5555	524.99
43.5699	530.52
43.5844	509.70
43.5988	513.91
43.6133	521.47
43.6277	512.72
43.6421	515.58
43.6566	495.69
43.6710	512.15
43.6855	526.65
43.6999	529.15
43.7143	536.27
43.7288	542.22
43.7432	543.45
43.7577	517.31
43.7721	487.57
43.7865	543.08
43.8010	531.69
43.8154	515.13
43.8299	527.72
43.8443	526.62
43.8587	520.04
43.8732	538.38
43.8876	546.88
43.9021	575.79
43.9165	576.52
43.9309	565.75
43.9454	602.64
43.9598	584.65
43.9743	559.34
43.9887	576.09
44.0031	623.71
44.0176	598.07
44.0320	591.88
44.0465	618.37
44.0609	615.34
44.0753	611.89
44.0898	640.59
44.1042	617.17
44.1187	639.41
44.1331	631.41
44.1475	553.50
44.1620	543.43
44.1764	541.73
44.1909	557.13
44.2053	535.09
44.2197	537.74
44.2342	561.34
44.2486	579.06
44.2631	560.60
44.2775	534.31
44.2919	524.58
44.3064	532.21
44.3208	514.15
44.3353	534.11
44.3497	523.58
44.3641	526.63
44.3786	549.39
44.3930	537.79
44.4075	531.74
44.4219	558.07
44.4363	545.95
44.4508	546.87
44.4652	586.34
44.4797	591.36
44.4941	559.70
44.5085	587.36
44.5230	578.49
44.5374	580.11
44.5519	564.44
44.5663	559.68
44.5807	583.18
44.5952	562.50
44.6096	554.61
44.6241	571.24
44.6385	593.04
44.6529	607.35
44.6674	584.98
44.6818	598.07
44.6963	630.73
44.7107	628.54
44.7251	722.69
44.7396	715.28
44.7540	754.70
44.7685	829.70
44.7829	912.42
44.7973	864.78
44.8118	856.72
44.8262	823.55
44.8407	769.29
44.8551	757.74
44.8695	747.39
44.8840	715.74
44.8984	754.50
44.9129	770.39
44.9273	696.33
44.9417	706.51
44.9562	635.59
44.9706	606.36
44.9851	551.47
44.9995	536.20
45.0139	525.79
45.0284	552.57
45.0428	579.36
45.0573	551.71
45.0717	512.23
45.0861	559.18
45.1006	511.27
45.1150	519.64
45.1295	530.72
45.1439	532.09
45.1583	523.27
45.1728	494.32
45.1872	512.11
45.2017	487.34
45.2161	492.59
45.2305	519.52
45.2450	510.85
45.2594	527.95
45.2739	505.41
45.2883	530.92
45.3028	516.27
45.3172	488.55
45.3316	498.97
45.3461	471.91
45.3605	491.43
45.3750	518.63
45.3894	479.84
45.4038	467.77
45.4183	520.96
45.4327	499.70
45.4472	501.49
45.4616	529.56
45.4760	554.22
45.4905	494.99
45.5049	495.81
45.5194	485.85
45.5338	486.15
45.5482	494.83
45.5627	515.22
45.5771	495.61
45.5916	500.06
45.6060	509.04
45.6204	487.80
45.6349	463.67
45.6493	519.91
45.6638	520.21
45.6782	517.14
45.6926	529.32
45.7071	518.69
45.7215	521.80
45.7360	503.61
45.7504	527.67
45.7648	505.18
45.7793	502.89
45.7937	526.54
45.8082	486.48
45.8226	516.20
45.8370	501.67
45.8515	510.81
45.8659	496.75
45.8804	497.58
45.8948	527.35
45.9092	513.66
45.9237	512.04
45.9381	467.05
45.9526	512.66
45.9670	506.15
45.9814	498.86
45.9959	490.70
46.0103	492.22
46.0248	492.89
46.0392	487.92
46.0536	508.55
46.0681	499.89
46.0825	500.94
46.0970	524.55
46.1114	501.89
46.1258	500.78
46.1403	486.76
46.1547	482.87
46.1692	486.74
46.1836	483.30
46.1980	468.03
46.2125	505.11
46.2269	513.38
46.2414	516.91
46.2558	509.55
46.2702	496.84
46.2847	524.11
46.2991	489.08
46.3136	505.57
46.3280	522.43
46.3424	539.25
46.3569	505.43
46.3713	483.32
46.3858	490.52
46.4002	495.42
46.4146	469.18
46.4291	503.91
46.4435	485.08
46.4580	475.21
46.4724	502.24
46.4868	511.67
46.5013	506.09
46.5157	533.72
46.5302	521.31
46.5446	492.42
46.5590	507.78
46.5735	519.22
46.5879	513.21
46.6024	488.77
46.6168	495.86
46.6312	497.14
46.6457	484.60
46.6601	497.31
46.6746	504.22
46.6890	513.18
46.7034	512.40
46.7179	474.19
46.7323	470.38
46.7468	466.77
46.7612	504.83
46.7756	516.68
46.7901	501.59
46.8045	521.24
46.8190	512.79
46.8334	508.52
46.8478	525.23
46.8623	519.52
46.8767	489.89
46.8912	489.51
46.9056	488.04
46.9200	503.10
46.9345	519.78
46.9489	526.94
46.9634	498.70
46.9778	531.89
46.9922	535.62
47.0067	533.01
47.0211	522.74
47.0356	501.69
47.0500	490.33
47.0644	478.28
47.0789	528.21
47.0933	521.45
47.1078	523.56
47.1222	541.17
47.1366	505.44
47.1511	468.99
47.1655	504.53
47.1800	515.28
47.1944	477.35
47.2088	519.19
47.2233	523.44
47.2377	525.84
47.2522	538.27
47.2666	519.21
47.2810	502.03
47.2955	472.25
47.3099	479.32
47.3244	503.73
47.3388	514.26
47.3532	497.80
47.3677	518.40
47.3821	511.84
47.3966	536.70
47.4110	513.29
47.4254	519.24
47.4399	538.23
47.4543	528.08
47.4688	526.15
47.4832	501.78
47.4976	466.19
47.5121	470.95
47.5265	506.79
47.5410	486.35
47.5554	466.59
47.5698	489.94
47.5843	501.83
47.5987	507.75
47.6132	506.12
47.6276	499.21
47.6420	484.03
47.6565	505.07
47.6709	517.37
47.6854	509.18
47.6998	505.53
47.7142	519.64
47.7287	479.44
47.7431	516.54
47.7576	503.07
47.7720	470.00
47.7864	473.99
47.8009	541.35
47.8153	503.24
47.8298	514.75
47.8442	473.91
47.8586	496.52
47.8731	486.79
47.8875	478.85
47.9020	519.23
47.9164	472.91
47.9308	477.24
47.9453	500.07
47.9597	519.41
47.9742	522.52
47.9886	466.80
48.0030	466.03
48.0175	495.98
48.0319	490.05
48.0464	503.19
48.0608	530.93
48.0752	469.44
48.0897	458.38
48.1041	482.42
48.1186	525.63
48.1330	526.79
48.1474	490.84
48.1619	504.11
48.1763	514.33
48.1908	465.54
48.2052	491.96
48.2196	502.57
48.2341	499.73
48.2485	520.32
48.2630	478.23
48.2774	487.81
48.2918	480.76
48.3063	514.25
48.3207	521.07
48.3352	500.27
48.3496	491.02
48.3640	466.99
48.3785	513.78
48.3929	502.36
48.4074	525.61
48.4218	521.65
48.4362	519.59
48.4507	479.85
48.4651	529.56
48.4796	502.59
48.4940	509.85
48.5084	518.70
48.5229	522.01
48.5373	528.99
48.5518	519.49
48.5662	511.01
48.5806	496.24
48.5951	508.04
48.6095	512.18
48.6240	519.09
48.6384	506.56
48.6528	495.50
48.6673	488.85
48.6817	503.07
48.6962	550.25
48.7106	533.33
48.7250	522.08
48.7395	513.58
48.7539	498.44
48.7684	524.55
48.7828	514.92
48.7972	502.10
48.8117	501.30
48.8261	533.92
48.8406	520.45
48.8550	523.09
48.8694	548.93
48.8839	543.05
48.8983	562.53
48.9128	538.89
48.9272	536.59
48.9416	552.78
48.9561	564.99
48.9705	562.65
48.9850	586.97
48.9994	591.79
49.0139	578.17
49.0283	647.35
49.0427	607.45
49.0572	653.01
49.0716	667.80
49.0861	671.30
49.1005	649.80
49.1149	706.87
49.1294	725.65
49.1438	737.54
49.1583	766.84
49.1727	900.45
49.1871	917.20
49.2016	964.83
49.2160	1067.13
49.2305	1145.14
49.2449	1228.47
49.2593	1276.50
49.2738	1396.16
49.2882	1425.88
49.3027	1522.62
49.3171	1675.89
49.3315	1739.56
49.3460	1780.33
49.3604	1819.72
49.3749	1830.89
49.3893	1798.30
49.4037	1811.33
49.4182	1783.28
49.4326	1798.55
49.4471	1638.37
49.4615	1668.37
49.4759	1597.53
49.4904	1584.18
49.5048	1423.99
49.5193	1360.83
49.5337	1346.25
49.5481	1202.28
49.5626	1108.78
49.5770	1071.76
49.5915	1016.42
49.6059	951.55
49.6203	843.03
49.6348	864.18
49.6492	837.69
49.6637	720.70
49.6781	714.33
49.6925	675.81
49.7070	716.01
49.7214	662.50
49.7359	631.26
49.7503	631.69
49.7647	606.93
49.7792	607.05
49.7936	579.25
49.8081	573.42
49.8225	548.15
49.8369	574.58
49.8514	568.26
49.8658	596.01
49.8803	558.97
49.8947	561.86
49.9091	517.61
49.9236	534.19
49.9380	558.36
49.9525	545.19
49.9669	515.26
49.9813	514.28
49.9958	521.09
50.0102	519.25
50.0247	512.88
50.0391	530.09
50.0535	532.20
50.0680	524.16
50.0824	515.72
50.0969	530.75
50.1113	525.46
50.1257	514.44
50.1402	520.80
50.1546	522.44
50.1691	564.31
50.1835	531.52
50.1979	497.85
50.2124	486.67
50.2268	519.09
50.2413	516.93
50.2557	505.33
50.2701	501.39
50.2846	505.25
50.2990	490.52
50.3135	514.77
50.3279	490.81
50.3423	493.55
50.3568	511.32
50.3712	506.08
50.3857	521.65
50.4001	514.77
50.4145	500.59
50.4290	527.97
50.4434	507.48
50.4579	532.63
50.4723	528.11
50.4867	497.31
50.5012	505.52
50.5156	512.78
50.5301	504.69
50.5445	501.07
50.5589	498.24
50.5734	544.91
50.5878	520.07
50.6023	527.40
50.6167	530.03
50.6311	533.57
50.6456	509.51
50.6600	515.36
50.6745	493.09
50.6889	533.92
50.7033	514.68
50.7178	529.53
50.7322	524.97
50.7467	494.59
50.7611	466.58
50.7755	514.04
50.7900	524.25
50.8044	490.45
50.8189	486.41
50.8333	467.12
50.8477	481.72
50.8622	486.68
50.8766	542.86
50.8911	513.20
50.9055	541.19
50.9199	496.98
50.9344	489.04
50.9488	508.85
50.9633	491.18
50.9777	492.10
50.9921	504.00
51.0066	499.39
51.0210	520.97
51.0355	512.24
51.0499	525.44
51.0643	525.59
51.0788	501.03
51.0932	536.76
51.1077	568.67
51.1221	523.12
51.1365	524.04
51.1510	475.08
51.1654	524.74
51.1799	520.88
51.1943	476.32
51.2087	488.44
51.2232	490.13
51.2376	532.09
51.2521	521.37
51.2665	503.62
51.2809	555.64
51.2954	487.73
51.3098	524.04
51.3243	518.41
51.3387	509.99
51.3531	504.60
51.3676	493.00
51.3820	515.74
51.3965	510.09
51.4109	505.37
51.4253	500.11
51.4398	537.93
51.4542	498.29
51.4687	537.30
51.4831	546.73
51.4975	519.43
51.5120	493.38
51.5264	510.47
51.5409	512.02
51.5553	507.85
51.5697	502.70
51.5842	489.20
51.5986	548.21
51.6131	523.25
51.6275	533.34
51.6419	563.72
51.6564	516.62
51.6708	508.28
51.6853	512.79
51.6997	528.40
51.7141	538.55
51.7286	492.68
51.7430	488.00
51.7575	495.60
51.7719	503.62
51.7863	495.93
51.8008	513.74
51.8152	521.03
51.8297	481.47
51.8441	465.48
51.8585	513.59
51.8730	508.66
51.8874	494.06
51.9019	540.25
51.9163	523.91
51.9307	522.54
51.9452	549.81
51.9596	512.79
51.9741	495.89
51.9885	522.01
52.0029	531.41
52.0174	534.05
52.0318	490.18
52.0463	493.23
52.0607	499.66
52.0751	545.23
52.0896	536.86
52.1040	504.05
52.1185	483.17
52.1329	511.02
52.1473	505.58
52.1618	527.85
52.1762	508.12
52.1907	488.28
52.2051	491.98
52.2195	500.62
52.2340	510.95
52.2484	500.67
52.2629	507.08
52.2773	508.06
52.2917	505.71
52.3062	523.39
52.3206	516.93
52.3351	512.11
52.3495	518.33
52.3639	530.74
52.3784	474.01
52.3928	497.22
52.4073	511.22
52.4217	522.12
52.4361	500.58
52.4506	502.57
52.4650	519.89
52.4795	537.09
52.4939	532.50
52.5083	509.64
52.5228	505.27
52.5372	510.99
52.5517	524.45
52.5661	525.96
52.5805	509.99
52.5950	528.33
52.6094	487.69
52.6239	501.02
52.6383	517.91
52.6527	520.72
52.6672	502.53
52.6816	463.93
52.6961	504.33
52.7105	530.22
52.7250	541.76
52.7394	507.26
52.7538	500.77
52.7683	490.43
52.7827	518.14
52.7972	497.63
52.8116	501.99
52.8260	517.43
52.8405	489.67
52.8549	467.19
52.8694	503.67
52.8838	498.35
52.8982	516.79
52.9127	547.96
52.9271	501.57
52.9416	500.58
52.9560	485.42
52.9704	497.98
52.9849	490.65
52.9993	503.99
53.0138	523.66
53.0282	506.06
53.0426	545.09
53.0571	515.36
53.0715	537.76
53.0860	487.91
53.1004	502.71
53.1148	501.47
53.1293	509.89
53.1437	542.87
53.1582	547.08
53.1726	537.99
53.1870	525.62
53.2015	494.55
53.2159	526.78
53.2304	539.19
53.2448	510.85
53.2592	492.46
53.2737	509.31
53.2881	537.17
53.3026	547.98
53.3170	512.15
53.3314	503.80
53.3459	493.11
53.3603	504.42
53.3748	486.44
53.3892	478.39
53.4036	522.22
53.4181	519.78
53.4325	510.67
53.4470	520.26
53.4614	505.50
53.4758	533.28
53.4903	509.47
53.5047	502.06
53.5192	529.81
53.5336	534.32
53.5480	498.83
53.5625	523.69
53.5769	519.33
53.5914	506.55
53.6058	510.46
53.6202	487.44
53.6347	509.83
53.6491	477.12
53.6636	499.71
53.6780	524.29
53.6924	477.95
53.7069	534.53
53.7213	498.01
53.7358	490.20
53.7502	518.91
53.7646	501.43
53.7791	512.56
53.7935	518.39
53.8080	548.58
53.8224	526.90
53.8368	492.30
53.8513	508.35
53.8657	512.40
53.8802	506.31
53.8946	520.98
53.9090	522.67
53.9235	499.16
53.9379	490.44
53.9524	527.09
53.9668	497.74
53.9812	505.71
53.9957	525.69
54.0101	483.81
54.0246	484.41
54.0390	537.93
54.0534	515.01
54.0679	519.58
54.0823	558.50
54.0968	512.55
54.1112	519.75
54.1256	547.38
54.1401	527.24
54.1545	493.71
54.1690	515.81
54.1834	552.31
54.1978	507.23
54.2123	523.42
54.2267	497.37
54.2412	530.11
54.2556	540.90
54.2700	509.96
54.2845	516.05
54.2989	509.68
54.3134	504.67
54.3278	495.18
54.3422	532.55
54.3567	521.92
54.3711	509.78
54.3856	525.42
54.4000	560.10
54.4144	549.63
54.4289	572.74
54.4433	516.93
54.4578	503.74
54.4722	551.92
54.4866	576.20
54.5011	544.42
54.5155	547.84
54.5300	576.88
54.5444	594.29
54.5588	609.69
54.5733	533.23
54.5877	576.17
54.6022	601.05
54.6166	583.31
54.6310	589.62
54.6455	596.32
54.6599	590.62
54.6744	575.95
54.6888	568.88
54.7032	575.82
54.7177	552.46
54.7321	571.02
54.7466	555.53
54.7610	560.51
54.7754	564.54
54.7899	524.00
54.8043	552.30
54.8188	549.20
54.8332	571.29
54.8476	552.76
54.8621	560.19
54.8765	569.61
54.8910	572.82
54.9054	551.22
54.9198	516.05
54.9343	520.61
54.9487	539.88
54.9632	499.12
54.9776	497.75
54.9920	526.03
55.0065	509.47
55.0209	499.68
55.0354	501.63
55.0498	516.89
55.0642	532.22
55.0787	505.93
55.0931	535.24
55.1076	491.13
55.1220	511.31
55.1364	511.87
55.1509	506.75
55.1653	530.65
55.1798	507.16
55.1942	512.17
55.2086	525.60
55.2231	527.85
55.2375	515.65
55.2520	528.27
55.2664	521.07
55.2808	494.44
55.2953	506.80
55.3097	525.69
55.3242	490.91
55.3386	539.13
55.3530	522.04
55.3675	511.50
55.3819	503.60
55.3964	490.12
55.4108	522.59
55.4252	526.40
55.4397	524.52
55.4541	541.56
55.4686	524.40
55.4830	523.81
55.4974	522.94
55.5119	514.97
55.5263	547.63
55.5408	544.19
55.5552	539.36
55.5696	527.92
55.5841	521.62
55.5985	499.56
55.6130	569.14
55.6274	556.05
55.6418	534.76
55.6563	506.15
55.6707	494.44
55.6852	518.93
55.6996	540.12
55.7140	565.21
55.7285	535.40
55.7429	557.64
55.7574	529.45
55.7718	507.40
55.7862	516.91
55.8007	512.07
55.8151	520.06
55.8296	520.09
55.8440	506.95
55.8584	495.96
55.8729	513.10
55.8873	490.66
55.9018	556.37
55.9162	494.02
55.9306	531.15
55.9451	530.07
55.9595	499.12
55.9740	546.42
55.9884	525.67
56.0028	543.14
56.0173	526.19
56.0317	538.83
56.0462	520.68
56.0606	525.71
56.0750	523.03
56.0895	501.78
56.1039	497.69
56.1184	512.84
56.1328	507.92
56.1472	486.12
56.1617	508.69
56.1761	524.15
56.1906	518.02
56.2050	538.54
56.2194	554.57
56.2339	494.97
56.2483	539.33
56.2628	498.33
56.2772	527.32
56.2916	518.97
56.3061	533.33
56.3205	516.28
56.3350	503.98
56.3494	530.07
56.3639	516.66
56.3783	514.43
56.3927	505.14
56.4072	545.86
56.4216	545.82
56.4361	549.25
56.4505	536.45
56.4649	533.34
56.4794	535.84
56.4938	517.57
56.5083	532.92
56.5227	512.01
56.5371	523.28
56.5516	509.10
56.5660	530.99
56.5805	550.61
56.5949	516.85
56.6093	512.86
56.6238	497.34
56.6382	522.74
56.6527	529.10
56.6671	486.75
56.6815	474.99
56.6960	525.79
56.7104	547.98
56.7249	527.67
56.7393	495.55
56.7537	478.81
56.7682	499.53
56.7826	518.54
56.7971	523.68
56.8115	511.08
56.8259	523.32
56.8404	541.22
56.8548	532.80
56.8693	495.79
56.8837	567.39
56.8981	531.38
56.9126	531.39
56.9270	493.62
56.9415	498.35
56.9559	484.54
56.9703	499.28
56.9848	556.15
56.9992	557.16
57.0137	495.96
57.0281	490.68
57.0425	518.72
57.0570	519.52
57.0714	495.65
57.0859	531.56
57.1003	501.37
57.1147	535.78
57.1292	550.47
57.1436	526.42
57.1581	497.99
57.1725	574.33
57.1869	527.99
57.2014	512.57
57.2158	503.69
57.2303	484.02
57.2447	535.24
57.2591	536.65
57.2736	528.55
57.2880	544.61
57.3025	538.70
57.3169	539.48
57.3313	541.69
57.3458	565.16
57.3602	527.12
57.3747	567.42
57.3891	521.18
57.4035	504.25
57.4180	531.82
57.4324	531.33
57.4469	518.22
57.4613	543.16
57.4757	556.87
57.4902	529.23
57.5046	509.69
57.5191	510.35
57.5335	528.34
57.5479	499.44
57.5624	509.40
57.5768	536.86
57.5913	491.70
57.6057	493.25
57.6201	497.94
57.6346	526.50
57.6490	540.68
57.6635	563.80
57.6779	526.56
57.6923	508.77
57.7068	561.68
57.7212	529.36
57.7357	505.25
57.7501	521.63
57.7645	524.99
57.7790	542.15
57.7934	506.09
57.8079	509.13
57.8223	534.46
57.8367	526.13
57.8512	509.67
57.8656	552.97
57.8801	551.77
57.8945	561.37
57.9089	534.61
57.9234	532.56
57.9378	555.31
57.9523	530.33
57.9667	511.12
57.9811	500.57
57.9956	544.63
58.0100	522.11
58.0245	570.46
58.0389	575.53
58.0533	579.63
58.0678	588.52
58.0822	596.17
58.0967	617.20
58.1111	604.52
58.1255	624.84
58.1400	625.88
58.1544	575.99
58.1689	586.45
58.1833	624.82
58.1977	622.27
58.2122	615.52
58.2266	612.13
58.2411	631.84
58.2555	628.03
58.2699	652.04
58.2844	672.03
58.2988	642.33
58.3133	655.42
58.3277	635.00
58.3421	678.67
58.3566	630.12
58.3710	622.15
58.3855	631.62
58.3999	586.82
58.4143	575.04
58.4288	622.84
58.4432	609.72
58.4577	604.89
58.4721	628.59
58.4865	603.42
58.5010	561.32
58.5154	588.44
58.5299	580.48
58.5443	572.79
58.5587	580.73
58.5732	551.83
58.5876	547.32
58.6021	549.84
58.6165	552.80
58.6309	558.79
58.6454	581.60
58.6598	528.56
58.6743	532.47
58.6887	517.29
58.7031	546.88
58.7176	543.13
58.7320	526.03
58.7465	567.49
58.7609	533.59
58.7753	534.08
58.7898	521.14
58.8042	502.36
58.8187	513.36
58.8331	546.77
58.8475	549.61
58.8620	531.07
58.8764	527.74
58.8909	518.69
58.9053	560.17
58.9197	548.32
58.9342	506.87
58.9486	503.07
58.9631	512.97
58.9775	546.43
58.9919	533.36
59.0064	547.30
59.0208	552.10
59.0353	560.47
59.0497	553.89
59.0641	529.29
59.0786	523.27
59.0930	534.33
59.1075	531.31
59.1219	541.77
59.1363	542.04
59.1508	534.11
59.1652	571.65
59.1797	543.95
59.1941	548.69
59.2085	565.25
59.2230	552.77
59.2374	562.07
59.2519	545.18
59.2663	535.10
59.2807	567.66
59.2952	536.87
59.3096	549.42
59.3241	559.30
59.3385	568.92
59.3529	549.33
59.3674	517.29
59.3818	533.85
59.3963	522.97
59.4107	561.98
59.4251	552.72
59.4396	516.59
59.4540	536.76
59.4685	544.90
59.4829	552.33
59.4973	552.89
59.5118	536.92
59.5262	539.89
59.5407	558.36
59.5551	549.85
59.5695	571.98
59.5840	546.60
59.5984	525.56
59.6129	529.91
59.6273	541.38
59.6417	586.03
59.6562	579.24
59.6706	555.14
59.6851	559.74
59.6995	539.51
59.7139	540.30
59.7284	513.48
59.7428	524.78
59.7573	511.77
59.7717	523.83
59.7861	567.75
59.8006	535.40
59.8150	533.97
59.8295	566.18
59.8439	562.70
59.8583	556.81
59.8728	554.31
59.8872	547.58
59.9017	560.68
59.9161	536.33
59.9305	549.84
59.9450	552.72
59.9594	537.23
59.9739	510.55
59.9883	559.69
60.0027	551.29
60.0172	551.43
60.0316	588.16
60.0461	523.98
60.0605	547.49
60.0750	568.51
60.0894	561.61
60.1038	534.28
60.1183	544.79
60.1327	562.96
60.1472	534.17
60.1616	526.87
60.1760	600.12
60.1905	555.23
60.2049	547.12
60.2194	566.34
60.2338	530.53
60.2482	540.24
60.2627	515.87
60.2771	577.47
60.2916	571.93
60.3060	528.87
60.3204	558.23
60.3349	556.62
60.3493	568.66
60.3638	594.96
60.3782	562.02
60.3926	563.00
60.4071	573.05
60.4215	542.03
60.4360	538.27
60.4504	529.16
60.4648	546.67
60.4793	505.83
60.4937	506.36
60.5082	507.89
60.5226	518.63
60.5370	524.30
60.5515	525.91
60.5659	569.95
60.5804	583.34
60.5948	517.37
60.6092	554.00
60.6237	514.46
60.6381	625.19
60.6526	507.06
60.6670	554.67
60.6814	567.85
60.6959	545.25
60.7103	526.18
60.7248	533.32
60.7392	525.35
60.7536	562.31
60.7681	521.63
60.7825	523.38
60.7970	539.12
60.8114	542.85
60.8258	553.94
60.8403	540.09
60.8547	528.82
60.8692	529.64
60.8836	561.18
60.8980	534.46
60.9125	556.56
60.9269	518.59
60.9414	559.58
60.9558	556.84
60.9702	536.48
60.9847	563.66
60.9991	530.30
61.0136	532.87
61.0280	522.04
61.0424	494.34
61.0569	551.69
61.0713	587.21
61.0858	567.26
61.1002	528.36
61.1146	556.06
61.1291	577.59
61.1435	528.78
61.1580	524.76
61.1724	526.52
61.1868	524.69
61.2013	527.09
61.2157	573.98
61.2302	568.22
61.2446	566.83
61.2590	561.08
61.2735	543.22
61.2879	563.18
61.3024	560.48
61.3168	515.52
61.3312	535.96
61.3457	566.02
61.3601	569.17
61.3746	552.00
61.3890	581.18
61.4034	576.19
61.4179	545.64
61.4323	577.54
61.4468	544.91
61.4612	565.31
61.4756	592.61
61.4901	512.57
61.5045	531.85
61.5190	535.51
61.5334	537.58
61.5478	526.40
61.5623	530.45
61.5767	524.36
61.5912	547.68
61.6056	536.02
61.6200	551.84
61.6345	580.41
61.6489	541.23
61.6634	536.65
61.6778	535.89
61.6922	546.93
61.7067	545.49
61.7211	548.46
61.7356	528.40
61.7500	520.33
61.7644	518.57
61.7789	552.78
61.7933	544.82
61.8078	550.04
61.8222	540.39
61.8366	550.17
61.8511	546.65
61.8655	524.28
61.8800	554.67
61.8944	584.48
61.9088	572.72
61.9233	553.08
61.9377	550.37
61.9522	561.66
61.9666	598.80
61.9810	579.50
61.9955	545.06
62.0099	545.89
62.0244	564.84
62.0388	567.80
62.0532	541.55
62.0677	536.80
62.0821	558.23
62.0966	551.65
62.1110	562.83
62.1254	545.06
62.1399	547.38
62.1543	525.15
62.1688	558.97
62.1832	569.53
62.1976	565.12
62.2121	563.91
62.2265	563.37
62.2410	560.29
62.2554	546.23
62.2698	579.33
62.2843	571.80
62.2987	555.43
62.3132	508.62
62.3276	523.46
62.3420	544.58
62.3565	528.22
62.3709	525.41
62.3854	523.65
62.3998	559.69
62.4142	549.46
62.4287	555.94
62.4431	530.54
62.4576	538.32
62.4720	549.72
62.4864	547.29
62.5009	539.02
62.5153	551.83
62.5298	572.01
62.5442	569.25
62.5586	549.68
62.5731	543.63
62.5875	534.69
62.6020	550.69
62.6164	561.09
62.6308	549.46
62.6453	571.68
62.6597	567.96
62.6742	546.05
62.6886	571.05
62.7030	589.37
62.7175	578.10
62.7319	556.62
62.7464	567.14
62.7608	535.30
62.7752	530.15
62.7897	579.61
62.8041	549.65
62.8186	567.47
62.8330	566.21
62.8474	567.11
62.8619	540.73
62.8763	553.65
62.8908	533.74
62.9052	595.00
62.9196	581.36
62.9341	591.10
62.9485	576.62
62.9630	534.15
62.9774	530.60
62.9918	539.28
63.0063	582.33
63.0207	610.82
63.0352	592.53
63.0496	574.96
63.0640	582.36
63.0785	570.18
63.0929	553.58
63.1074	565.65
63.1218	572.82
63.1362	546.67
63.1507	551.24
63.1651	579.14
63.1796	572.26
63.1940	570.27
63.2084	544.06
63.2229	573.49
63.2373	559.82
63.2518	537.72
63.2662	562.19
63.2806	548.67
63.2951	548.59
63.3095	575.37
63.3240	581.30
63.3384	585.28
63.3528	578.10
63.3673	580.01
63.3817	526.83
63.3962	525.61
63.4106	532.35
63.4250	590.92
63.4395	575.65
63.4539	584.50
63.4684	588.09
63.4828	566.04
63.4972	601.55
63.5117	597.51
63.5261	612.35
63.5406	598.31
63.5550	601.13
63.5694	568.61
63.5839	573.03
63.5983	586.23
63.6128	570.72
63.6272	582.48
63.6416	583.92
63.6561	583.14
63.6705	603.09
63.6850	622.72
63.6994	610.52
63.7138	600.05
63.7283	596.12
63.7427	605.36
63.7572	635.72
63.7716	596.31
63.7861	603.72
63.8005	624.20
63.8149	690.70
63.8294	686.54
63.8438	692.95
63.8583	736.29
63.8727	736.88
63.8871	708.30
63.9016	760.33
63.9160	714.83
63.9305	704.01
63.9449	744.70
63.9593	692.31
63.9738	728.15
63.9882	748.58
64.0027	734.68
64.0171	700.99
64.0315	735.67
64.0460	826.10
64.0604	792.18
64.0749	791.03
64.0893	862.23
64.1037	758.85
64.1182	766.21
64.1326	783.27
64.1471	754.60
64.1615	785.16
64.1759	783.86
64.1904	732.53
64.2048	721.24
64.2193	729.40
64.2337	720.24
64.2481	711.10
64.2626	692.14
64.2770	679.30
64.2915	696.73
64.3059	695.73
64.3203	695.51
64.3348	684.28
64.3492	661.80
64.3637	655.10
64.3781	646.51
64.3925	651.64
64.4070	659.17
64.4214	668.02
64.4359	654.78
64.4503	646.58
64.4647	605.58
64.4792	630.72
64.4936	628.29
64.5081	601.00
64.5225	620.85
64.5369	666.52
64.5514	633.41
64.5658	665.25
64.5803	656.42
64.5947	618.82
64.6091	648.65
64.6236	637.78
64.6380	652.97
64.6525	656.21
64.6669	669.05
64.6813	654.78
64.6958	651.86
64.7102	675.33
64.7247	686.68
64.7391	620.16
64.7535	705.61
64.7680	702.62
64.7824	751.43
64.7969	704.18
64.8113	749.68
64.8257	715.51
64.8402	813.33
64.8546	854.25
64.8691	836.73
64.8835	805.95
64.8979	841.60
64.9124	848.06
64.9268	851.43
64.9413	907.26
64.9557	964.34
64.9701	977.01
64.9846	1017.26
64.9990	1148.11
65.0135	1192.64
65.0279	1368.30
65.0423	1611.21
65.0568	2037.75
65.0712	2534.25
65.0857	3270.89
65.1001	4200.16
65.1145	5875.68
65.1290	7664.87
65.1434	9174.92
65.1579	10797.32
65.1723	11767.25
65.1867	11401.13
65.2012	10165.94
65.2156	8586.49
65.2301	6726.54
65.2445	5426.27
65.2589	4507.87
65.2734	4247.85
65.2878	4339.18
65.3023	4729.47
65.3167	5676.06
65.3311	6543.58
65.3456	6944.78
65.3600	6935.43
65.3745	6432.96
65.3889	5559.08
65.4033	4502.78
65.4178	3563.41
65.4322	2808.87
65.4467	2123.21
65.4611	1687.68
65.4755	1454.24
65.4900	1323.88
65.5044	1176.78
65.5189	1066.69
65.5333	927.45
65.5477	926.82
65.5622	917.24
65.5766	824.74
65.5911	849.99
65.6055	804.65
65.6199	767.50
65.6344	720.61
65.6488	757.14
65.6633	720.29
65.6777	731.22
65.6921	693.71
65.7066	700.35
65.7210	732.56
65.7355	724.06
65.7499	674.65
65.7643	634.49
65.7788	684.67
65.7932	689.76
65.8077	704.37
65.8221	674.94
65.8365	648.09
65.8510	637.10
65.8654	663.86
65.8799	643.95
65.8943	670.29
65.9087	634.68
65.9232	634.58
65.9376	647.67
65.9521	661.78
65.9665	612.82
65.9809	613.11
65.9954	636.16
66.0098	652.74
66.0243	629.64
66.0387	614.35
66.0531	655.02
66.0676	633.22
66.0820	627.90
66.0965	592.24
66.1109	625.69
66.1253	634.61
66.1398	613.23
66.1542	583.85
66.1687	587.84
66.1831	585.12
66.1975	598.84
66.2120	645.38
66.2264	635.26
66.2409	626.04
66.2553	611.06
66.2697	607.68
66.2842	619.29
66.2986	616.10
66.3131	612.81
66.3275	603.00
66.3419	609.96
66.3564	581.35
66.3708	594.88
66.3853	593.29
66.3997	585.57
66.4141	604.71
66.4286	581.93
66.4430	563.59
66.4575	596.60
66.4719	591.99
66.4863	581.11
66.5008	579.30
66.5152	617.55
66.5297	602.85
66.5441	602.65
66.5585	599.36
66.5730	600.53
66.5874	588.55
66.6019	614.91
66.6163	604.37
66.6307	597.45
66.6452	596.85
66.6596	606.27
66.6741	586.14
66.6885	565.31
66.7029	564.30
66.7174	582.53
66.7318	567.45
66.7463	577.44
66.7607	577.89
66.7751	570.54
66.7896	613.56
66.8040	589.05
66.8185	590.15
66.8329	597.61
66.8473	591.34
66.8618	578.65
66.8762	623.54
66.8907	598.55
66.9051	617.04
66.9195	599.09
66.9340	601.22
66.9484	591.50
66.9629	575.83
66.9773	569.33
66.9917	564.83
67.0062	567.70
67.0206	565.88
67.0351	608.68
67.0495	591.37
67.0639	556.54
67.0784	557.97
67.0928	596.56
67.1073	574.95
67.1217	559.09
67.1361	575.44
67.1506	554.87
67.1650	580.13
67.1795	600.02
67.1939	558.82
67.2083	541.76
67.2228	598.45
67.2372	619.72
67.2517	595.08
67.2661	564.43
67.2805	596.70
67.2950	553.94
67.3094	596.29
67.3239	606.77
67.3383	558.83
67.3527	576.86
67.3672	563.57
67.3816	581.60
67.3961	560.49
67.4105	548.72
67.4250	590.64
67.4394	575.40
67.4538	545.83
67.4683	585.41
67.4827	578.87
67.4972	557.96
67.5116	527.96
67.5260	569.57
67.5405	555.51
67.5549	576.57
67.5694	548.69
67.5838	560.16
67.5982	542.54
67.6127	608.34
67.6271	569.90
67.6416	580.12
67.6560	605.20
67.6704	581.64
67.6849	560.28
67.6993	579.47
67.7138	596.92
67.7282	583.72
67.7426	576.79
67.7571	589.50
67.7715	616.15
67.7860	579.32
67.8004	590.70
67.8148	580.97
67.8293	572.39
67.8437	575.96
67.8582	558.73
67.8726	560.14
67.8870	573.64
67.9015	591.44
67.9159	594.24
67.9304	615.90
67.9448	603.25
67.9592	580.68
67.9737	560.95
67.9881	582.54
68.0026	554.63
68.0170	577.95
68.0314	600.85
68.0459	588.39
68.0603	589.78
68.0748	597.36
68.0892	609.22
68.1036	578.73
68.1181	584.09
68.1325	599.28
68.1470	605.76
68.1614	592.45
68.1758	562.54
68.1903	561.74
68.2047	564.88
68.2192	583.91
68.2336	567.10
68.2480	542.23
68.2625	526.13
68.2769	546.88
68.2914	566.06
68.3058	572.55
68.3202	552.67
68.3347	544.35
68.3491	564.25
68.3636	551.44
68.3780	533.61
68.3924	562.34
68.4069	619.28
68.4213	575.97
68.4358	564.76
68.4502	562.87
68.4646	580.17
68.4791	558.78
68.4935	576.25
68.5080	569.69
68.5224	549.91
68.5368	557.53
68.5513	576.96
68.5657	536.79
68.5802	556.77
68.5946	535.66
68.6090	568.52
68.6235	591.36
68.6379	594.47
68.6524	549.52
68.6668	559.16
68.6812	541.59
68.6957	558.27
68.7101	587.83
68.7246	546.49
68.7390	546.36
68.7534	565.18
68.7679	609.42
68.7823	572.35
68.7968	618.53
68.8112	597.52
68.8256	581.88
68.8401	569.03
68.8545	571.71
68.8690	564.62
68.8834	548.89
68.8978	612.53
68.9123	586.21
68.9267	559.21
68.9412	598.23
68.9556	574.49
68.9700	555.96
68.9845	554.24
68.9989	519.92
69.0134	501.35
69.0278	571.25
69.0422	551.00
69.0567	558.77
69.0711	587.32
69.0856	598.94
69.1000	618.89
69.1144	574.94
69.1289	554.98
69.1433	509.45
69.1578	576.42
69.1722	612.35
69.1866	557.86
69.2011	565.09
69.2155	574.74
69.2300	585.45
69.2444	601.63
69.2588	569.67
69.2733	546.63
69.2877	580.99
69.3022	589.96
69.3166	548.67
69.3310	578.57
69.3455	598.85
69.3599	585.95
69.3744	590.45
69.3888	617.86
69.4032	556.88
69.4177	600.97
69.4321	596.11
69.4466	542.12
69.4610	580.70
69.4754	577.21
69.4899	571.48
69.5043	561.54
69.5188	557.56
69.5332	616.66
69.5476	579.71
69.5621	541.73
69.5765	564.60
69.5910	575.97
69.6054	553.67
69.6198	622.28
69.6343	601.15
69.6487	591.00
69.6632	583.24
69.6776	581.19
69.6920	554.98
69.7065	582.20
69.7209	550.86
69.7354	537.15
69.7498	620.26
69.7642	548.88
69.7787	559.00
69.7931	556.05
69.8076	538.98
69.8220	560.77
69.8364	581.34
69.8509	572.18
69.8653	593.18
69.8798	538.30
69.8942	528.95
69.9086	568.70
69.9231	579.28
69.9375	620.66
69.9520	589.20
69.9664	522.89
69.9808	584.09
69.9953	587.59
70.0097	576.97
70.0242	562.99
70.0386	550.54
70.0530	592.43
70.0675	556.94
70.0819	556.78
70.0964	576.80
70.1108	575.98
70.1252	597.77
70.1397	562.16
70.1541	576.29
70.1686	580.30
70.1830	564.10
70.1974	522.17
70.2119	624.43
70.2263	632.28
70.2408	596.62
70.2552	572.72
70.2696	575.20
70.2841	551.32
70.2985	532.23
70.3130	538.28
70.3274	587.05
70.3418	591.15
70.3563	533.88
70.3707	600.20
70.3852	522.87
70.3996	577.79
70.4140	629.79
70.4285	576.61
70.4429	582.63
70.4574	563.52
70.4718	548.55
70.4862	574.30
70.5007	571.74
70.5151	599.54
70.5296	574.66
70.5440	578.11
70.5584	547.27
70.5729	545.35
70.5873	582.79
70.6018	519.77
70.6162	555.80
70.6306	545.79
70.6451	583.08
70.6595	622.59
70.6740	589.78
70.6884	547.51
70.7028	624.17
70.7173	602.14
70.7317	597.10
70.7462	590.14
70.7606	600.67
70.7750	610.51
70.7895	611.87
70.8039	579.16
70.8184	592.43
70.8328	615.65
70.8472	550.28
70.8617	568.75
70.8761	617.68
70.8906	554.59
70.9050	595.87
70.9194	565.69
70.9339	613.36
70.9483	607.92
70.9628	531.90
70.9772	581.65
70.9916	615.38
71.0061	601.45
71.0205	594.78
71.0350	548.44
71.0494	527.89
71.0638	519.48
71.0783	496.20
71.0927	550.71
71.1072	570.42
71.1216	569.58
71.1361	556.71
71.1505	566.58
71.1649	582.56
71.1794	585.53
71.1938	602.58
71.2083	585.49
71.2227	567.91
71.2371	586.62
71.2516	590.42
71.2660	591.87
71.2805	562.73
71.2949	570.46
71.3093	564.25
71.3238	547.58
71.3382	612.78
71.3527	579.48
71.3671	534.78
71.3815	543.26
71.3960	618.77
71.4104	624.82
71.4249	595.15
71.4393	621.62
71.4537	590.80
71.4682	563.79
71.4826	611.58
71.4971	578.64
71.5115	538.16
71.5259	554.86
71.5404	543.14
71.5548	518.77
71.5693	523.30
71.5837	549.29
71.5981	598.55
71.6126	583.71
71.6270	582.21
71.6415	565.91
71.6559	563.44
71.6703	548.63
71.6848	511.91
71.6992	537.68
71.7137	570.89
71.7281	574.60
71.7425	543.09
71.7570	566.32
71.7714	573.36
71.7859	562.33
71.8003	565.23
71.8147	581.60
71.8292	599.15
71.8436	585.37
71.8581	581.39
71.8725	607.04
71.8869	559.66
71.9014	613.44
71.9158	618.08
71.9303	589.31
71.9447	650.21
71.9591	720.70
71.9736	679.02
71.9880	484.41
72.0025	410.83
72.0169	539.70
72.0313	605.52
72.0458	619.31
72.0602	599.35
72.0747	589.24
72.0891	659.12
72.1035	615.58
72.1180	594.77
72.1324	588.41
72.1469	575.09
72.1613	563.03
72.1757	589.70
72.1902	601.76
72.2046	549.24
72.2191	547.77
72.2335	527.16
72.2479	523.86
72.2624	540.89
72.2768	598.10
72.2913	612.37
72.3057	620.72
72.3201	568.26
72.3346	576.83
72.3490	580.88
72.3635	496.56
72.3779	554.76
72.3923	603.40
72.4068	601.68
72.4212	545.30
72.4357	549.74
72.4501	586.29
72.4645	655.85
72.4790	670.51
72.4934	610.83
72.5079	592.35
72.5223	660.94
72.5367	633.87
72.5512	611.35
72.5656	535.53
72.5801	482.89
72.5945	493.87
72.6089	537.17
72.6234	552.27
72.6378	595.03
72.6523	625.60
72.6667	615.35
72.6811	554.64
72.6956	528.88
72.7100	618.76
72.7245	570.96
72.7389	550.48
72.7533	608.34
72.7678	614.46
72.7822	664.08
72.7967	608.00
72.8111	527.78
72.8255	633.03
72.8400	643.66
72.8544	553.29
72.8689	532.63
72.8833	578.80