2022.09.19 19:37:17
Îáðàçåö: ß÷åéêà LCoV 16-09-2022
Lambda1 = 1.54060
Lambda2 = 1.54439
Lambdam = 1.54186
R = 0.497
2Theta	I

line¹ 0 ;repeat¹ 0
22.1120	536.69
22.1264	541.08
22.1409	500.68
22.1553	537.44
22.1697	578.58
22.1842	557.42
22.1986	626.83
22.2131	665.58
22.2275	598.10
22.2419	595.03
22.2564	592.74
22.2708	595.77
22.2853	562.45
22.2997	575.09
22.3141	568.94
22.3286	555.16
22.3430	549.75
22.3575	519.52
22.3719	525.22
22.3863	490.76
22.4008	504.15
22.4152	480.01
22.4297	523.75
22.4441	654.84
22.4585	616.50
22.4730	590.07
22.4874	585.75
22.5019	667.91
22.5163	620.03
22.5307	590.69
22.5452	623.96
22.5596	552.09
22.5741	546.01
22.5885	553.35
22.6029	592.33
22.6174	511.83
22.6318	523.91
22.6463	569.89
22.6607	594.82
22.6751	579.85
22.6896	603.61
22.7040	585.10
22.7185	573.39
22.7329	568.46
22.7473	600.51
22.7618	574.13
22.7762	604.85
22.7907	543.11
22.8051	525.31
22.8195	595.17
22.8340	561.76
22.8484	529.61
22.8629	657.11
22.8773	645.32
22.8917	557.88
22.9062	602.41
22.9206	628.30
22.9351	608.21
22.9495	588.02
22.9639	593.76
22.9784	581.14
22.9928	534.71
23.0073	545.08
23.0217	526.13
23.0361	552.91
23.0506	616.52
23.0650	623.18
23.0795	562.74
23.0939	534.27
23.1083	552.39
23.1228	554.17
23.1372	537.43
23.1517	525.83
23.1661	529.22
23.1806	520.93
23.1950	508.43
23.2094	590.05
23.2239	573.48
23.2383	565.85
23.2528	593.49
23.2672	548.42
23.2816	571.95
23.2961	528.29
23.3105	575.23
23.3250	536.23
23.3394	584.46
23.3538	569.00
23.3683	520.28
23.3827	480.94
23.3972	526.08
23.4116	527.57
23.4260	568.65
23.4405	510.53
23.4549	514.94
23.4694	618.48
23.4838	536.87
23.4982	509.54
23.5127	516.21
23.5271	593.14
23.5416	529.95
23.5560	588.75
23.5704	575.02
23.5849	621.75
23.5993	563.40
23.6138	546.44
23.6282	563.14
23.6426	548.26
23.6571	562.17
23.6715	557.21
23.6860	585.77
23.7004	620.70
23.7148	507.04
23.7293	566.46
23.7437	505.69
23.7582	573.33
23.7726	592.85
23.7870	509.96
23.8015	521.21
23.8159	594.09
23.8304	554.01
23.8448	570.49
23.8592	578.32
23.8737	489.23
23.8881	575.08
23.9026	549.70
23.9170	536.20
23.9314	609.25
23.9459	498.73
23.9603	550.35
23.9748	519.59
23.9892	582.53
24.0036	508.83
24.0181	553.44
24.0325	585.39
24.0470	512.35
24.0614	548.78
24.0758	573.08
24.0903	508.81
24.1047	539.76
24.1192	545.06
24.1336	545.67
24.1480	532.28
24.1625	552.26
24.1769	597.14
24.1914	589.57
24.2058	565.97
24.2202	603.58
24.2347	605.84
24.2491	560.61
24.2636	585.26
24.2780	592.12
24.2924	557.39
24.3069	558.45
24.3213	556.30
24.3358	545.75
24.3502	599.78
24.3646	568.14
24.3791	565.85
24.3935	485.29
24.4080	520.32
24.4224	568.26
24.4368	542.27
24.4513	553.07
24.4657	560.70
24.4802	558.00
24.4946	530.82
24.5090	522.50
24.5235	575.20
24.5379	609.79
24.5524	493.04
24.5668	543.87
24.5812	528.39
24.5957	544.94
24.6101	571.47
24.6246	513.80
24.6390	578.97
24.6534	537.86
24.6679	513.06
24.6823	579.30
24.6968	539.70
24.7112	606.31
24.7256	542.42
24.7401	531.14
24.7545	527.23
24.7690	536.43
24.7834	547.96
24.7978	570.95
24.8123	531.37
24.8267	501.28
24.8412	556.73
24.8556	584.47
24.8700	541.83
24.8845	521.23
24.8989	516.97
24.9134	558.62
24.9278	535.04
24.9422	552.68
24.9567	574.11
24.9711	542.85
24.9856	530.12
25.0000	520.50
25.0144	534.33
25.0289	543.10
25.0433	522.84
25.0578	550.53
25.0722	548.01
25.0866	567.89
25.1011	573.81
25.1155	593.14
25.1300	587.59
25.1444	547.95
25.1588	534.69
25.1733	556.46
25.1877	527.74
25.2022	529.51
25.2166	555.52
25.2310	566.14
25.2455	570.47
25.2599	537.22
25.2744	560.59
25.2888	567.07
25.3032	502.51
25.3177	527.89
25.3321	549.50
25.3466	564.62
25.3610	543.91
25.3754	493.73
25.3899	534.57
25.4043	536.58
25.4188	528.51
25.4332	542.55
25.4476	549.45
25.4621	522.26
25.4765	522.20
25.4910	555.45
25.5054	566.76
25.5198	535.70
25.5343	519.54
25.5487	531.59
25.5632	514.26
25.5776	539.69
25.5920	559.25
25.6065	545.97
25.6209	515.29
25.6354	545.74
25.6498	532.89
25.6642	540.26
25.6787	532.53
25.6931	483.93
25.7076	524.36
25.7220	519.94
25.7364	534.90
25.7509	529.46
25.7653	535.75
25.7798	554.33
25.7942	566.29
25.8086	529.90
25.8231	554.36
25.8375	580.73
25.8520	527.06
25.8664	546.91
25.8808	526.42
25.8953	523.08
25.9097	544.08
25.9242	517.30
25.9386	542.14
25.9530	519.48
25.9675	526.53
25.9819	521.74
25.9964	573.47
26.0108	576.10
26.0252	553.49
26.0397	546.65
26.0541	539.49
26.0686	563.22
26.0830	552.22
26.0974	551.58
26.1119	541.86
26.1263	532.26
26.1408	520.17
26.1552	509.64
26.1696	544.40
26.1841	544.94
26.1985	522.66
26.2130	525.17
26.2274	546.61
26.2418	581.74
26.2563	557.99
26.2707	541.60
26.2852	544.44
26.2996	550.20
26.3140	515.67
26.3285	535.60
26.3429	517.78
26.3574	502.12
26.3718	489.11
26.3862	508.45
26.4007	525.53
26.4151	536.44
26.4296	551.11
26.4440	495.88
26.4584	505.87
26.4729	520.40
26.4873	534.70
26.5018	498.61
26.5162	498.79
26.5306	547.94
26.5451	533.04
26.5595	533.00
26.5740	515.70
26.5884	510.29
26.6028	520.27
26.6173	542.66
26.6317	538.20
26.6462	532.82
26.6606	537.77
26.6750	540.96
26.6895	515.94
26.7039	532.37
26.7184	572.02
26.7328	508.16
26.7472	528.41
26.7617	510.27
26.7761	533.59
26.7906	535.13
26.8050	535.63
26.8194	517.04
26.8339	524.00
26.8483	512.80
26.8628	525.10
26.8772	508.64
26.8917	507.76
26.9061	516.33
26.9205	503.66
26.9350	503.88
26.9494	542.92
26.9639	519.36
26.9783	515.63
26.9927	537.30
27.0072	521.06
27.0216	492.75
27.0361	498.47
27.0505	520.85
27.0649	508.07
27.0794	509.97
27.0938	535.46
27.1083	548.02
27.1227	510.38
27.1371	493.54
27.1516	497.41
27.1660	526.36
27.1805	517.49
27.1949	521.37
27.2093	538.04
27.2238	534.49
27.2382	495.84
27.2527	500.57
27.2671	492.46
27.2815	519.81
27.2960	508.79
27.3104	492.65
27.3249	498.61
27.3393	513.61
27.3537	518.21
27.3682	538.44
27.3826	511.54
27.3971	527.61
27.4115	523.58
27.4259	521.27
27.4404	545.29
27.4548	503.82
27.4693	530.70
27.4837	514.50
27.4981	520.43
27.5126	517.40
27.5270	538.65
27.5415	545.03
27.5559	511.78
27.5703	500.32
27.5848	514.52
27.5992	510.76
27.6137	519.96
27.6281	516.22
27.6425	515.86
27.6570	518.89
27.6714	531.37
27.6859	515.26
27.7003	494.49
27.7147	512.78
27.7292	519.27
27.7436	554.01
27.7581	539.00
27.7725	526.37
27.7869	524.26
27.8014	518.65
27.8158	527.20
27.8303	561.32
27.8447	545.31
27.8591	553.80
27.8736	535.01
27.8880	495.38
27.9025	517.90
27.9169	528.59
27.9313	509.95
27.9458	499.73
27.9602	513.81
27.9747	508.22
27.9891	530.73
28.0035	523.59
28.0180	545.43
28.0324	539.55
28.0469	503.91
28.0613	522.10
28.0757	501.47
28.0902	511.33
28.1046	506.09
28.1191	543.54
28.1335	531.20
28.1479	479.31
28.1624	480.71
28.1768	501.21
28.1913	495.60
28.2057	492.48
28.2201	495.87
28.2346	516.14
28.2490	495.81
28.2635	516.19
28.2779	546.69
28.2923	507.47
28.3068	485.63
28.3212	519.48
28.3357	529.62
28.3501	527.63
28.3645	554.55
28.3790	547.26
28.3934	506.59
28.4079	512.30
28.4223	506.83
28.4367	490.78
28.4512	468.73
28.4656	502.12
28.4801	515.26
28.4945	536.73
28.5089	494.07
28.5234	509.49
28.5378	493.05
28.5523	527.60
28.5667	498.46
28.5811	514.33
28.5956	543.53
28.6100	529.09
28.6245	529.53
28.6389	532.61
28.6533	505.34
28.6678	488.13
28.6822	471.37
28.6967	521.29
28.7111	531.03
28.7255	523.51
28.7400	502.28
28.7544	512.84
28.7689	493.46
28.7833	498.49
28.7977	540.34
28.8122	528.37
28.8266	529.39
28.8411	539.98
28.8555	498.84
28.8699	514.72
28.8844	489.01
28.8988	511.81
28.9133	537.22
28.9277	509.64
28.9421	504.10
28.9566	464.11
28.9710	527.40
28.9855	528.57
28.9999	497.97
29.0143	524.74
29.0288	458.12
29.0432	522.75
29.0577	495.68
29.0721	482.05
29.0865	515.19
29.1010	519.95
29.1154	492.61
29.1299	535.81
29.1443	537.12
29.1587	481.29
29.1732	498.83
29.1876	499.71
29.2021	525.84
29.2165	467.79
29.2309	518.71
29.2454	489.73
29.2598	468.44
29.2743	499.30
29.2887	489.83
29.3031	474.14
29.3176	517.16
29.3320	529.15
29.3465	534.82
29.3609	514.73
29.3753	520.05
29.3898	509.38
29.4042	483.96
29.4187	496.16
29.4331	500.86
29.4475	504.48
29.4620	501.04
29.4764	513.40
29.4909	507.59
29.5053	511.87
29.5197	484.70
29.5342	501.27
29.5486	510.97
29.5631	490.73
29.5775	491.18
29.5919	495.47
29.6064	505.01
29.6208	517.92
29.6353	517.75
29.6497	522.96
29.6641	518.70
29.6786	480.03
29.6930	523.37
29.7075	525.28
29.7219	517.09
29.7363	484.71
29.7508	501.94
29.7652	504.40
29.7797	512.91
29.7941	510.38
29.8085	489.98
29.8230	486.04
29.8374	518.59
29.8519	497.96
29.8663	518.74
29.8807	534.10
29.8952	490.87
29.9096	505.63
29.9241	472.90
29.9385	556.77
29.9529	499.40
29.9674	497.96
29.9818	494.40
29.9963	517.28
30.0107	479.71
30.0251	524.70
30.0396	510.32
30.0540	479.83
30.0685	481.31
30.0829	530.82
30.0973	530.25
30.1118	494.78
30.1262	530.40
30.1407	503.90
30.1551	472.50
30.1695	498.31
30.1840	514.65
30.1984	496.40
30.2129	510.90
30.2273	522.33
30.2417	520.57
30.2562	504.87
30.2706	485.73
30.2851	522.38
30.2995	517.60
30.3139	506.93
30.3284	529.73
30.3428	531.40
30.3573	498.64
30.3717	514.01
30.3861	524.26
30.4006	515.94
30.4150	535.84
30.4295	547.63
30.4439	499.13
30.4583	490.56
30.4728	477.99
30.4872	513.62
30.5017	483.57
30.5161	510.66
30.5305	514.43
30.5450	508.83
30.5594	536.35
30.5739	515.85
30.5883	558.52
30.6028	571.71
30.6172	526.98
30.6316	541.00
30.6461	567.06
30.6605	569.33
30.6750	583.64
30.6894	591.52
30.7038	634.61
30.7183	652.42
30.7327	649.32
30.7472	708.17
30.7616	701.60
30.7760	692.48
30.7905	698.21
30.8049	681.66
30.8194	673.98
30.8338	648.18
30.8482	635.48
30.8627	668.03
30.8771	619.39
30.8916	572.17
30.9060	621.50
30.9204	601.53
30.9349	586.85
30.9493	566.74
30.9638	523.03
30.9782	518.96
30.9926	559.24
31.0071	532.87
31.0215	514.49
31.0360	521.43
31.0504	555.45
31.0648	555.72
31.0793	514.07
31.0937	465.05
31.1082	490.78
31.1226	541.35
31.1370	516.62
31.1515	513.02
31.1659	532.61
31.1804	544.16
31.1948	516.41
31.2092	511.17
31.2237	510.93
31.2381	528.29
31.2526	517.58
31.2670	508.54
31.2814	541.51
31.2959	503.01
31.3103	521.97
31.3248	548.02
31.3392	544.70
31.3536	469.10
31.3681	515.68
31.3825	528.82
31.3970	475.86
31.4114	497.24
31.4258	555.36
31.4403	528.01
31.4547	487.91
31.4692	465.76
31.4836	517.84
31.4980	507.44
31.5125	474.64
31.5269	519.96
31.5414	514.43
31.5558	495.92
31.5702	521.46
31.5847	539.46
31.5991	540.26
31.6136	511.74
31.6280	503.05
31.6424	488.61
31.6569	489.08
31.6713	514.28
31.6858	503.70
31.7002	501.63
31.7146	477.52
31.7291	509.40
31.7435	501.75
31.7580	512.83
31.7724	501.84
31.7868	519.71
31.8013	529.49
31.8157	488.84
31.8302	492.51
31.8446	496.74
31.8590	516.90
31.8735	500.94
31.8879	506.87
31.9024	506.30
31.9168	480.50
31.9312	502.04
31.9457	511.71
31.9601	504.36
31.9746	512.27
31.9890	546.67
32.0034	505.13
32.0179	538.23
32.0323	493.66
32.0468	469.73
32.0612	461.93
32.0756	496.87
32.0901	525.27
32.1045	514.10
32.1190	495.07
32.1334	469.29
32.1478	477.81
32.1623	514.43
32.1767	515.52
32.1912	510.98
32.2056	516.72
32.2200	529.13
32.2345	529.70
32.2489	496.54
32.2634	488.79
32.2778	521.25
32.2922	484.82
32.3067	499.76
32.3211	502.06
32.3356	532.60
32.3500	545.16
32.3644	493.68
32.3789	480.11
32.3933	479.95
32.4078	485.73
32.4222	488.74
32.4366	506.13
32.4511	517.68
32.4655	519.83
32.4800	517.99
32.4944	543.40
32.5088	506.85
32.5233	490.99
32.5377	516.62
32.5522	504.78
32.5666	501.12
32.5810	520.12
32.5955	485.66
32.6099	503.15
32.6244	505.20
32.6388	524.66
32.6532	500.90
32.6677	471.61
32.6821	515.27
32.6966	492.31
32.7110	534.73
32.7254	536.73
32.7399	510.75
32.7543	503.20
32.7688	518.82
32.7832	507.75
32.7976	521.91
32.8121	503.82
32.8265	483.58
32.8410	494.99
32.8554	465.49
32.8698	483.04
32.8843	491.26
32.8987	483.70
32.9132	491.32
32.9276	503.21
32.9420	523.33
32.9565	532.36
32.9709	499.30
32.9854	504.34
32.9998	509.80
33.0142	512.23
33.0287	482.30
33.0431	527.02
33.0576	504.69
33.0720	515.98
33.0864	537.12
33.1009	512.38
33.1153	499.42
33.1298	494.63
33.1442	484.77
33.1586	486.56
33.1731	491.93
33.1875	489.86
33.2020	507.36
33.2164	499.02
33.2308	521.67
33.2453	478.98
33.2597	509.26
33.2742	492.39
33.2886	497.00
33.3030	541.73
33.3175	499.01
33.3319	484.66
33.3464	505.38
33.3608	491.01
33.3752	496.27
33.3897	473.56
33.4041	510.31
33.4186	506.29
33.4330	527.82
33.4474	531.48
33.4619	494.42
33.4763	492.11
33.4908	483.70
33.5052	488.55
33.5196	451.57
33.5341	487.13
33.5485	528.57
33.5630	505.35
33.5774	517.84
33.5918	483.86
33.6063	500.50
33.6207	482.60
33.6352	536.47
33.6496	535.34
33.6640	531.25
33.6785	493.52
33.6929	490.77
33.7074	523.36
33.7218	521.03
33.7362	503.86
33.7507	506.18
33.7651	471.75
33.7796	492.58
33.7940	473.67
33.8084	487.51
33.8229	511.69
33.8373	497.30
33.8518	501.51
33.8662	508.18
33.8806	492.49
33.8951	526.18
33.9095	518.02
33.9240	508.38
33.9384	508.47
33.9528	467.76
33.9673	507.29
33.9817	475.66
33.9962	503.28
34.0106	522.65
34.0250	501.63
34.0395	506.36
34.0539	508.77
34.0684	536.71
34.0828	510.28
34.0972	501.03
34.1117	536.51
34.1261	516.85
34.1406	492.91
34.1550	500.46
34.1694	529.78
34.1839	479.99
34.1983	454.94
34.2128	468.97
34.2272	492.95
34.2417	475.78
34.2561	478.00
34.2705	498.59
34.2850	530.44
34.2994	510.95
34.3139	504.62
34.3283	490.72
34.3427	520.94
34.3572	517.70
34.3716	492.55
34.3861	510.02
34.4005	504.02
34.4149	529.32
34.4294	510.49
34.4438	501.49
34.4583	509.68
34.4727	509.65
34.4871	514.94
34.5016	479.00
34.5160	475.79
34.5305	514.33
34.5449	505.76
34.5593	526.05
34.5738	531.46
34.5882	499.05
34.6027	508.29
34.6171	507.00
34.6315	502.14
34.6460	500.96
34.6604	512.61
34.6749	487.65
34.6893	479.93
34.7037	549.61
34.7182	538.88
34.7326	487.75
34.7471	501.16
34.7615	498.72
34.7759	504.80
34.7904	496.32
34.8048	492.85
34.8193	514.07
34.8337	498.55
34.8481	507.10
34.8626	529.73
34.8770	526.02
34.8915	516.31
34.9059	522.23
34.9203	530.61
34.9348	506.92
34.9492	515.23
34.9637	516.91
34.9781	518.06
34.9925	500.26
35.0070	517.78
35.0214	514.68
35.0359	502.61
35.0503	492.62
35.0647	489.76
35.0792	493.72
35.0936	507.74
35.1081	505.51
35.1225	500.77
35.1369	496.09
35.1514	491.24
35.1658	487.74
35.1803	489.18
35.1947	495.40
35.2091	541.91
35.2236	502.51
35.2380	484.18
35.2525	487.28
35.2669	470.74
35.2813	518.25
35.2958	522.11
35.3102	549.17
35.3247	504.43
35.3391	495.90
35.3535	489.58
35.3680	495.75
35.3824	519.49
35.3969	518.51
35.4113	478.13
35.4257	541.10
35.4402	527.54
35.4546	508.88
35.4691	507.71
35.4835	522.16
35.4979	502.94
35.5124	517.07
35.5268	533.14
35.5413	579.95
35.5557	551.41
35.5701	537.54
35.5846	542.51
35.5990	525.59
35.6135	553.87
35.6279	534.85
35.6423	518.62
35.6568	525.11
35.6712	532.35
35.6857	574.38
35.7001	672.99
35.7145	736.84
35.7290	691.41
35.7434	609.39
35.7579	589.70
35.7723	629.66
35.7867	637.33
35.8012	684.54
35.8156	670.82
35.8301	654.62
35.8445	650.59
35.8589	669.13
35.8734	733.67
35.8878	825.92
35.9023	968.80
35.9167	989.96
35.9311	1249.48
35.9456	1852.95
35.9600	2221.61
35.9745	1938.51
35.9889	1996.87
36.0033	2693.38
36.0178	3407.41
36.0322	2807.36
36.0467	2012.79
36.0611	1770.80
36.0755	1718.59
36.0900	1676.07
36.1044	1560.51
36.1189	1450.40
36.1333	1467.82
36.1477	1242.08
36.1622	1292.92
36.1766	1248.26
36.1911	1238.51
36.2055	1102.59
36.2199	1103.83
36.2344	1083.35
36.2488	1004.50
36.2633	932.53
36.2777	1000.05
36.2921	933.50
36.3066	848.94
36.3210	870.03
36.3355	826.67
36.3499	791.74
36.3643	747.27
36.3788	682.71
36.3932	622.48
36.4077	637.82
36.4221	632.20
36.4365	616.89
36.4510	576.35
36.4654	589.26
36.4799	571.70
36.4943	595.53
36.5087	621.41
36.5232	583.45
36.5376	578.39
36.5521	570.24
36.5665	571.17
36.5809	511.65
36.5954	544.22
36.6098	544.84
36.6243	536.80
36.6387	541.46
36.6531	539.56
36.6676	530.37
36.6820	536.34
36.6965	532.98
36.7109	545.63
36.7253	517.97
36.7398	531.77
36.7542	513.43
36.7687	548.05
36.7831	600.89
36.7975	593.91
36.8120	576.18
36.8264	568.08
36.8409	606.30
36.8553	572.17
36.8697	611.32
36.8842	582.17
36.8986	597.04
36.9131	576.46
36.9275	557.24
36.9419	561.74
36.9564	523.62
36.9708	549.36
36.9853	527.59
36.9997	534.50
37.0141	545.48
37.0286	509.85
37.0430	507.69
37.0575	548.67
37.0719	534.61
37.0863	490.67
37.1008	528.99
37.1152	536.47
37.1297	506.81
37.1441	492.14
37.1585	514.43
37.1730	512.33
37.1874	495.65
37.2019	527.89
37.2163	532.17
37.2307	489.47
37.2452	514.00
37.2596	481.94
37.2741	522.13
37.2885	496.02
37.3029	491.78
37.3174	561.05
37.3318	527.67
37.3463	519.97
37.3607	516.41
37.3751	489.73
37.3896	522.85
37.4040	488.09
37.4185	503.03
37.4329	545.15
37.4473	504.86
37.4618	537.59
37.4762	513.18
37.4907	523.11
37.5051	517.64
37.5195	479.77
37.5340	488.27
37.5484	492.32
37.5629	531.06
37.5773	506.11
37.5917	501.82
37.6062	535.13
37.6206	491.43
37.6351	512.24
37.6495	516.40
37.6639	508.46
37.6784	501.98
37.6928	470.20
37.7073	523.96
37.7217	509.33
37.7361	495.05
37.7506	450.90
37.7650	460.22
37.7795	532.86
37.7939	549.20
37.8083	556.40
37.8228	508.12
37.8372	515.96
37.8517	526.38
37.8661	511.05
37.8805	514.61
37.8950	532.90
37.9094	514.89
37.9239	488.01
37.9383	513.99
37.9528	507.37
37.9672	520.63
37.9816	496.62
37.9961	506.10
38.0105	512.48
38.0250	534.90
38.0394	530.07
38.0538	476.27
38.0683	466.23
38.0827	530.28
38.0972	515.30
38.1116	536.62
38.1260	501.85
38.1405	485.11
38.1549	514.04
38.1694	520.62
38.1838	494.20
38.1982	523.76
38.2127	503.21
38.2271	484.07
38.2416	496.21
38.2560	520.73
38.2704	482.45
38.2849	531.26
38.2993	508.66
38.3138	520.21
38.3282	513.77
38.3426	525.69
38.3571	525.93
38.3715	552.18
38.3860	525.06
38.4004	512.42
38.4148	532.66
38.4293	605.64
38.4437	578.53
38.4582	620.16
38.4726	628.37
38.4870	634.59
38.5015	719.02
38.5159	771.12
38.5304	748.82
38.5448	800.27
38.5592	802.82
38.5737	747.82
38.5881	728.65
38.6026	701.31
38.6170	677.25
38.6314	685.19
38.6459	655.25
38.6603	647.85
38.6748	607.63
38.6892	559.31
38.7036	562.32
38.7181	601.94
38.7325	543.43
38.7470	489.19
38.7614	535.66
38.7758	517.07
38.7903	506.79
38.8047	516.47
38.8192	518.08
38.8336	509.25
38.8480	492.13
38.8625	499.07
38.8769	519.17
38.8914	493.28
38.9058	508.25
38.9202	505.48
38.9347	501.83
38.9491	516.49
38.9636	522.03
38.9780	485.71
38.9924	497.35
39.0069	462.61
39.0213	483.90
39.0358	494.75
39.0502	520.84
39.0646	514.96
39.0791	528.65
39.0935	516.27
39.1080	515.54
39.1224	510.95
39.1368	507.23
39.1513	491.50
39.1657	498.10
39.1802	501.47
39.1946	473.39
39.2090	475.98
39.2235	529.87
39.2379	489.97
39.2524	471.51
39.2668	471.47
39.2812	506.51
39.2957	519.26
39.3101	498.68
39.3246	539.17
39.3390	517.89
39.3534	492.53
39.3679	500.51
39.3823	498.66
39.3968	474.83
39.4112	512.70
39.4256	539.63
39.4401	508.63
39.4545	494.30
39.4690	509.83
39.4834	491.91
39.4978	499.00
39.5123	472.21
39.5267	482.57
39.5412	477.31
39.5556	482.36
39.5700	504.81
39.5845	523.55
39.5989	483.91
39.6134	476.44
39.6278	460.66
39.6422	480.88
39.6567	520.55
39.6711	484.24
39.6856	489.82
39.7000	515.25
39.7144	541.15
39.7289	539.39
39.7433	488.77
39.7578	456.65
39.7722	466.88
39.7866	470.85
39.8011	471.24
39.8155	472.10
39.8300	489.64
39.8444	496.88
39.8588	523.68
39.8733	492.60
39.8877	486.29
39.9022	490.18
39.9166	526.31
39.9310	497.45
39.9455	480.40
39.9599	452.99
39.9744	478.46
39.9888	490.45
40.0032	491.76
40.0177	517.00
40.0321	554.00
40.0466	487.45
40.0610	487.95
40.0754	472.67
40.0899	482.88
40.1043	504.08
40.1188	507.98
40.1332	511.02
40.1476	481.09
40.1621	512.27
40.1765	526.06
40.1910	514.30
40.2054	517.75
40.2198	525.87
40.2343	534.42
40.2487	507.69
40.2632	496.15
40.2776	510.59
40.2920	484.07
40.3065	472.80
40.3209	458.97
40.3354	493.59
40.3498	548.88
40.3642	478.78
40.3787	493.98
40.3931	481.26
40.4076	463.41
40.4220	520.56
40.4364	507.80
40.4509	510.05
40.4653	532.63
40.4798	510.57
40.4942	518.80
40.5086	511.21
40.5231	496.03
40.5375	480.36
40.5520	502.77
40.5664	501.84
40.5808	496.44
40.5953	532.71
40.6097	507.57
40.6242	476.89
40.6386	520.29
40.6530	487.13
40.6675	476.69
40.6819	471.43
40.6964	476.02
40.7108	554.94
40.7252	494.53
40.7397	499.53
40.7541	516.45
40.7686	489.58
40.7830	538.71
40.7974	507.41
40.8119	522.11
40.8263	517.15
40.8408	530.90
40.8552	521.44
40.8696	521.27
40.8841	489.01
40.8985	524.42
40.9130	492.93
40.9274	534.84
40.9418	503.29
40.9563	469.05
40.9707	518.25
40.9852	490.75
40.9996	446.80
41.0140	510.53
41.0285	487.33
41.0429	509.44
41.0574	498.73
41.0718	519.05
41.0862	491.55
41.1007	463.58
41.1151	476.29
41.1296	511.99
41.1440	498.55
41.1584	513.59
41.1729	519.16
41.1873	518.39
41.2018	511.26
41.2162	489.22
41.2306	530.76
41.2451	519.30
41.2595	479.92
41.2740	494.84
41.2884	494.10
41.3028	477.85
41.3173	486.69
41.3317	479.64
41.3462	513.73
41.3606	518.53
41.3750	459.74
41.3895	500.56
41.4039	511.53
41.4184	525.07
41.4328	475.10
41.4472	481.19
41.4617	505.43
41.4761	535.36
41.4906	514.20
41.5050	529.76
41.5194	508.05
41.5339	515.23
41.5483	524.30
41.5628	508.40
41.5772	495.02
41.5916	504.75
41.6061	535.13
41.6205	490.18
41.6350	487.06
41.6494	506.08
41.6639	515.21
41.6783	502.29
41.6927	493.83
41.7072	488.44
41.7216	489.23
41.7361	503.47
41.7505	509.99
41.7649	514.76
41.7794	482.62
41.7938	480.29
41.8083	513.07
41.8227	492.12
41.8371	488.20
41.8516	510.71
41.8660	529.39
41.8805	498.40
41.8949	528.14
41.9093	525.20
41.9238	533.97
41.9382	569.38
41.9527	596.59
41.9671	567.27
41.9815	562.24
41.9960	564.95
42.0104	570.83
42.0249	587.95
42.0393	545.45
42.0537	559.36
42.0682	573.64
42.0826	597.52
42.0971	582.76
42.1115	583.40
42.1259	578.94
42.1404	580.75
42.1548	593.18
42.1693	648.30
42.1837	681.29
42.1981	766.17
42.2126	819.24
42.2270	944.07
42.2415	1069.34
42.2559	1243.26
42.2703	1357.33
42.2848	1482.12
42.2992	1603.09
42.3137	1697.22
42.3281	1700.21
42.3425	1617.83
42.3570	1485.90
42.3714	1421.05
42.3859	1371.31
42.4003	1387.68
42.4147	1365.15
42.4292	1356.81
42.4436	1180.42
42.4581	1078.49
42.4725	973.29
42.4869	848.19
42.5014	739.64
42.5158	713.72
42.5303	671.83
42.5447	651.05
42.5591	640.70
42.5736	635.29
42.5880	581.47
42.6025	558.21
42.6169	571.46
42.6313	581.15
42.6458	567.32
42.6602	514.63
42.6747	518.41
42.6891	503.50
42.7035	529.72
42.7180	534.05
42.7324	521.62
42.7469	490.86
42.7613	505.63
42.7757	553.63
42.7902	538.27
42.8046	520.73
42.8191	542.14
42.8335	525.71
42.8479	491.67
42.8624	496.83
42.8768	508.36
42.8913	486.07
42.9057	500.70
42.9201	534.43
42.9346	518.34
42.9490	535.65
42.9635	509.34
42.9779	494.43
42.9923	513.82
43.0068	495.06
43.0212	523.86
43.0357	538.16
43.0501	500.90
43.0645	489.36
43.0790	515.53
43.0934	517.50
43.1079	503.55
43.1223	504.33
43.1367	500.42
43.1512	485.87
43.1656	519.84
43.1801	528.48
43.1945	547.01
43.2089	538.51
43.2234	542.93
43.2378	532.62
43.2523	523.72
43.2667	545.23
43.2811	515.83
43.2956	546.33
43.3100	515.10
43.3245	531.57
43.3389	528.13
43.3533	529.29
43.3678	525.04
43.3822	520.98
43.3967	494.84
43.4111	501.07
43.4255	562.78
43.4400	561.16
43.4544	497.35
43.4689	496.81
43.4833	527.67
43.4977	477.66
43.5122	474.08
43.5266	518.51
43.5411	513.82
43.5555	490.16
43.5699	518.31
43.5844	516.32
43.5988	506.11
43.6133	488.73
43.6277	507.14
43.6421	521.72
43.6566	525.11
43.6710	482.93
43.6855	495.78
43.6999	528.49
43.7143	565.45
43.7288	535.45
43.7432	502.95
43.7577	511.82
43.7721	507.47
43.7865	569.61
43.8010	552.07
43.8154	519.33
43.8299	514.73
43.8443	535.75
43.8587	542.45
43.8732	548.81
43.8876	533.61
43.9021	572.26
43.9165	542.88
43.9309	536.87
43.9454	551.73
43.9598	564.25
43.9743	602.13
43.9887	600.31
44.0031	597.43
44.0176	617.78
44.0320	630.61
44.0465	642.67
44.0609	617.29
44.0753	598.97
44.0898	635.05
44.1042	598.23
44.1187	604.88
44.1331	604.05
44.1475	537.58
44.1620	571.83
44.1764	574.82
44.1909	535.27
44.2053	549.25
44.2197	525.83
44.2342	543.74
44.2486	528.53
44.2631	524.14
44.2775	500.91
44.2919	547.45
44.3064	576.91
44.3208	571.52
44.3353	577.55
44.3497	536.58
44.3641	539.45
44.3786	519.53
44.3930	529.75
44.4075	543.35
44.4219	582.74
44.4363	586.07
44.4508	555.06
44.4652	590.42
44.4797	589.49
44.4941	600.22
44.5085	543.38
44.5230	531.56
44.5374	576.37
44.5519	586.04
44.5663	571.12
44.5807	548.29
44.5952	535.37
44.6096	588.40
44.6241	597.35
44.6385	589.76
44.6529	570.11
44.6674	592.20
44.6818	603.83
44.6963	635.57
44.7107	611.27
44.7251	665.19
44.7396	715.93
44.7540	766.81
44.7685	853.17
44.7829	860.31
44.7973	895.60
44.8118	904.96
44.8262	846.68
44.8407	814.03
44.8551	768.19
44.8695	732.89
44.8840	717.03
44.8984	704.44
44.9129	727.18
44.9273	696.22
44.9417	692.73
44.9562	632.65
44.9706	601.32
44.9851	596.18
44.9995	548.55
45.0139	575.44
45.0284	521.07
45.0428	546.35
45.0573	513.84
45.0717	522.72
45.0861	547.24
45.1006	537.13
45.1150	529.54
45.1295	546.96
45.1439	485.73
45.1583	481.21
45.1728	490.15
45.1872	461.09
45.2017	443.94
45.2161	482.80
45.2305	501.57
45.2450	534.92
45.2594	483.63
45.2739	508.36
45.2883	511.91
45.3028	503.95
45.3172	506.55
45.3316	506.33
45.3461	508.96
45.3605	497.27
45.3750	472.30
45.3894	467.09
45.4038	502.89
45.4183	491.25
45.4327	509.84
45.4472	531.04
45.4616	526.86
45.4760	506.09
45.4905	489.52
45.5049	524.54
45.5194	509.07
45.5338	486.60
45.5482	466.12
45.5627	485.32
45.5771	520.52
45.5916	544.14
45.6060	508.47
45.6204	510.91
45.6349	511.84
45.6493	530.11
45.6638	505.48
45.6782	493.58
45.6926	537.39
45.7071	539.52
45.7215	504.46
45.7360	487.27
45.7504	511.55
45.7648	482.06
45.7793	507.82
45.7937	504.79
45.8082	521.01
45.8226	511.52
45.8370	519.89
45.8515	515.66
45.8659	525.79
45.8804	511.47
45.8948	463.53
45.9092	526.96
45.9237	513.51
45.9381	490.24
45.9526	530.36
45.9670	495.84
45.9814	510.01
45.9959	499.82
46.0103	472.95
46.0248	484.47
46.0392	493.97
46.0536	509.27
46.0681	514.21
46.0825	535.28
46.0970	537.62
46.1114	493.25
46.1258	502.00
46.1403	484.86
46.1547	488.22
46.1692	517.50
46.1836	499.57
46.1980	522.50
46.2125	494.30
46.2269	478.93
46.2414	482.28
46.2558	462.18
46.2702	480.60
46.2847	498.52
46.2991	525.27
46.3136	510.45
46.3280	494.07
46.3424	492.49
46.3569	496.28
46.3713	497.19
46.3858	483.97
46.4002	481.03
46.4146	438.01
46.4291	513.79
46.4435	513.36
46.4580	473.62
46.4724	498.11
46.4868	493.61
46.5013	504.69
46.5157	524.08
46.5302	520.13
46.5446	514.41
46.5590	518.74
46.5735	476.97
46.5879	471.75
46.6024	507.58
46.6168	507.08
46.6312	510.29
46.6457	492.24
46.6601	463.83
46.6746	482.17
46.6890	461.07
46.7034	498.34
46.7179	494.94
46.7323	494.93
46.7468	498.36
46.7612	497.19
46.7756	502.90
46.7901	521.97
46.8045	508.24
46.8190	500.40
46.8334	520.77
46.8478	535.41
46.8623	545.42
46.8767	520.84
46.8912	520.44
46.9056	523.64
46.9200	517.40
46.9345	492.49
46.9489	503.40
46.9634	509.67
46.9778	500.08
46.9922	513.37
47.0067	486.37
47.0211	485.41
47.0356	483.66
47.0500	502.87
47.0644	518.80
47.0789	527.05
47.0933	506.64
47.1078	497.35
47.1222	527.92
47.1366	539.53
47.1511	472.19
47.1655	480.25
47.1800	473.41
47.1944	461.28
47.2088	487.30
47.2233	495.66
47.2377	510.44
47.2522	541.88
47.2666	480.98
47.2810	498.94
47.2955	516.45
47.3099	536.75
47.3244	510.28
47.3388	524.93
47.3532	519.17
47.3677	497.43
47.3821	470.62
47.3966	477.37
47.4110	521.69
47.4254	489.34
47.4399	465.79
47.4543	472.89
47.4688	505.45
47.4832	504.35
47.4976	511.90
47.5121	501.21
47.5265	485.01
47.5410	478.50
47.5554	508.49
47.5698	507.33
47.5843	519.83
47.5987	508.70
47.6132	489.14
47.6276	471.02
47.6420	532.43
47.6565	540.21
47.6709	498.64
47.6854	479.96
47.6998	531.99
47.7142	517.35
47.7287	496.31
47.7431	501.44
47.7576	486.84
47.7720	502.90
47.7864	524.51
47.8009	529.64
47.8153	508.01
47.8298	514.94
47.8442	501.43
47.8586	531.96
47.8731	494.85
47.8875	483.04
47.9020	504.94
47.9164	515.76
47.9308	510.12
47.9453	514.19
47.9597	495.46
47.9742	499.27
47.9886	477.68
48.0030	498.65
48.0175	493.24
48.0319	522.20
48.0464	491.87
48.0608	531.80
48.0752	500.05
48.0897	529.53
48.1041	505.16
48.1186	535.06
48.1330	540.83
48.1474	474.98
48.1619	515.20
48.1763	499.63
48.1908	496.97
48.2052	516.22
48.2196	559.09
48.2341	517.18
48.2485	526.48
48.2630	508.58
48.2774	509.26
48.2918	514.39
48.3063	520.66
48.3207	514.43
48.3352	531.48
48.3496	521.44
48.3640	518.80
48.3785	507.03
48.3929	476.18
48.4074	491.47
48.4218	531.92
48.4362	516.26
48.4507	496.38
48.4651	529.16
48.4796	516.63
48.4940	532.66
48.5084	502.64
48.5229	508.14
48.5373	497.47
48.5518	531.49
48.5662	538.70
48.5806	507.81
48.5951	511.76
48.6095	515.15
48.6240	493.31
48.6384	518.17
48.6528	520.58
48.6673	542.67
48.6817	515.44
48.6962	504.49
48.7106	523.91
48.7250	479.77
48.7395	521.67
48.7539	521.94
48.7684	501.44
48.7828	529.18
48.7972	559.08
48.8117	525.27
48.8261	512.71
48.8406	512.69
48.8550	539.55
48.8694	577.49
48.8839	578.39
48.8983	559.78
48.9128	569.35
48.9272	578.90
48.9416	570.92
48.9561	561.30
48.9705	541.05
48.9850	570.44
48.9994	580.62
49.0139	612.17
49.0283	583.08
49.0427	618.03
49.0572	618.86
49.0716	629.41
49.0861	681.56
49.1005	654.01
49.1149	670.21
49.1294	704.92
49.1438	685.81
49.1583	808.80
49.1727	857.52
49.1871	905.90
49.2016	1011.24
49.2160	1117.13
49.2305	1166.91
49.2449	1180.05
49.2593	1294.86
49.2738	1401.61
49.2882	1480.70
49.3027	1622.45
49.3171	1692.77
49.3315	1716.60
49.3460	1791.04
49.3604	1806.47
49.3749	1844.18
49.3893	1796.01
49.4037	1774.99
49.4182	1770.27
49.4326	1752.00
49.4471	1674.83
49.4615	1609.52
49.4759	1581.20
49.4904	1486.33
49.5048	1434.12
49.5193	1376.36
49.5337	1365.54
49.5481	1272.19
49.5626	1131.21
49.5770	1066.49
49.5915	999.38
49.6059	959.37
49.6203	899.44
49.6348	857.71
49.6492	773.32
49.6637	733.84
49.6781	680.97
49.6925	677.63
49.7070	669.73
49.7214	646.54
49.7359	645.37
49.7503	611.10
49.7647	596.16
49.7792	608.86
49.7936	609.43
49.8081	619.81
49.8225	573.61
49.8369	561.47
49.8514	579.04
49.8658	568.56
49.8803	563.81
49.8947	558.64
49.9091	558.46
49.9236	564.67
49.9380	551.56
49.9525	512.41
49.9669	486.90
49.9813	510.83
49.9958	509.87
50.0102	521.87
50.0247	539.01
50.0391	507.01
50.0535	544.87
50.0680	545.01
50.0824	533.65
50.0969	538.71
50.1113	530.70
50.1257	568.42
50.1402	550.84
50.1546	491.69
50.1691	496.01
50.1835	487.94
50.1979	514.55
50.2124	487.51
50.2268	506.87
50.2413	523.20
50.2557	507.53
50.2701	519.41
50.2846	530.49
50.2990	538.22
50.3135	506.11
50.3279	504.16
50.3423	488.13
50.3568	517.49
50.3712	533.28
50.3857	509.35
50.4001	522.13
50.4145	504.79
50.4290	537.18
50.4434	517.37
50.4579	505.89
50.4723	490.46
50.4867	480.43
50.5012	543.90
50.5156	521.03
50.5301	528.24
50.5445	505.60
50.5589	512.09
50.5734	497.93
50.5878	509.91
50.6023	499.85
50.6167	511.46
50.6311	514.07
50.6456	515.79
50.6600	545.79
50.6745	498.61
50.6889	484.26
50.7033	511.87
50.7178	511.26
50.7322	523.72
50.7467	504.35
50.7611	511.85
50.7755	528.18
50.7900	510.24
50.8044	492.32
50.8189	522.22
50.8333	498.14
50.8477	528.20
50.8622	508.98
50.8766	511.70
50.8911	499.92
50.9055	539.54
50.9199	522.08
50.9344	519.64
50.9488	516.39
50.9633	521.50
50.9777	502.94
50.9921	494.46
51.0066	491.25
51.0210	489.38
51.0355	501.95
51.0499	510.68
51.0643	538.31
51.0788	533.47
51.0932	541.14
51.1077	532.50
51.1221	531.26
51.1365	501.32
51.1510	492.66
51.1654	491.92
51.1799	495.49
51.1943	486.82
51.2087	502.96
51.2232	497.12
51.2376	506.06
51.2521	488.32
51.2665	508.68
51.2809	495.77
51.2954	476.08
51.3098	489.92
51.3243	492.31
51.3387	496.80
51.3531	500.58
51.3676	520.96
51.3820	497.19
51.3965	492.01
51.4109	493.09
51.4253	538.33
51.4398	528.46
51.4542	515.14
51.4687	540.96
51.4831	544.55
51.4975	536.04
51.5120	526.42
51.5264	491.08
51.5409	508.24
51.5553	503.53
51.5697	478.06
51.5842	489.82
51.5986	497.38
51.6131	506.18
51.6275	512.73
51.6419	504.56
51.6564	494.98
51.6708	530.31
51.6853	509.67
51.6997	482.50
51.7141	522.49
51.7286	535.94
51.7430	505.40
51.7575	501.47
51.7719	494.49
51.7863	517.34
51.8008	506.30
51.8152	509.99
51.8297	486.32
51.8441	458.08
51.8585	501.88
51.8730	519.98
51.8874	493.90
51.9019	527.62
51.9163	531.75
51.9307	539.27
51.9452	524.04
51.9596	513.01
51.9741	524.39
51.9885	489.22
52.0029	510.99
52.0174	510.54
52.0318	551.90
52.0463	569.05
52.0607	512.40
52.0751	511.33
52.0896	501.63
52.1040	490.29
52.1185	501.39
52.1329	486.40
52.1473	509.81
52.1618	532.46
52.1762	515.49
52.1907	489.26
52.2051	512.61
52.2195	554.53
52.2340	510.57
52.2484	513.78
52.2629	501.22
52.2773	507.27
52.2917	493.10
52.3062	503.95
52.3206	504.48
52.3351	482.44
52.3495	491.49
52.3639	520.06
52.3784	513.58
52.3928	511.86
52.4073	489.28
52.4217	504.98
52.4361	514.34
52.4506	504.46
52.4650	536.80
52.4795	505.90
52.4939	495.75
52.5083	495.50
52.5228	502.08
52.5372	519.43
52.5517	504.15
52.5661	548.95
52.5805	549.59
52.5950	492.68
52.6094	510.99
52.6239	490.94
52.6383	491.16
52.6527	501.55
52.6672	473.57
52.6816	494.73
52.6961	538.33
52.7105	521.32
52.7250	509.91
52.7394	490.99
52.7538	512.83
52.7683	499.92
52.7827	547.73
52.7972	500.79
52.8116	520.04
52.8260	531.87
52.8405	512.72
52.8549	483.91
52.8694	512.10
52.8838	509.02
52.8982	530.22
52.9127	538.84
52.9271	540.33
52.9416	529.19
52.9560	503.55
52.9704	493.61
52.9849	496.52
52.9993	496.59
53.0138	523.45
53.0282	523.39
53.0426	518.57
53.0571	501.48
53.0715	495.83
53.0860	525.39
53.1004	494.26
53.1148	549.76
53.1293	546.64
53.1437	500.76
53.1582	507.04
53.1726	527.06
53.1870	496.99
53.2015	484.30
53.2159	485.85
53.2304	489.46
53.2448	515.37
53.2592	495.54
53.2737	505.69
53.2881	540.71
53.3026	533.05
53.3170	486.25
53.3314	486.96
53.3459	515.99
53.3603	479.16
53.3748	500.10
53.3892	469.94
53.4036	498.17
53.4181	519.08
53.4325	547.87
53.4470	509.49
53.4614	543.08
53.4758	519.50
53.4903	534.00
53.5047	523.70
53.5192	490.26
53.5336	506.70
53.5480	525.03
53.5625	520.43
53.5769	526.46
53.5914	531.77
53.6058	527.25
53.6202	496.88
53.6347	517.48
53.6491	509.34
53.6636	495.38
53.6780	489.41
53.6924	525.62
53.7069	523.41
53.7213	517.23
53.7358	503.88
53.7502	516.01
53.7646	519.74
53.7791	531.97
53.7935	523.92
53.8080	541.90
53.8224	511.49
53.8368	494.46
53.8513	503.20
53.8657	538.73
53.8802	528.35
53.8946	506.65
53.9090	534.03
53.9235	516.10
53.9379	542.65
53.9524	540.93
53.9668	519.79
53.9812	492.29
53.9957	502.94
54.0101	499.10
54.0246	519.18
54.0390	540.92
54.0534	502.46
54.0679	519.41
54.0823	507.06
54.0968	502.20
54.1112	533.80
54.1256	513.35
54.1401	515.92
54.1545	497.07
54.1690	497.17
54.1834	529.87
54.1978	496.26
54.2123	534.88
54.2267	532.01
54.2412	551.00
54.2556	553.08
54.2700	553.00
54.2845	562.77
54.2989	520.14
54.3134	523.03
54.3278	543.66
54.3422	541.13
54.3567	534.67
54.3711	547.61
54.3856	542.39
54.4000	490.34
54.4144	518.36
54.4289	555.08
54.4433	565.79
54.4578	551.53
54.4722	583.31
54.4866	574.53
54.5011	575.75
54.5155	556.56
54.5300	605.48
54.5444	599.80
54.5588	563.12
54.5733	537.57
54.5877	548.55
54.6022	562.64
54.6166	575.21
54.6310	555.81
54.6455	564.03
54.6599	568.28
54.6744	568.60
54.6888	576.29
54.7032	560.81
54.7177	602.77
54.7321	587.46
54.7466	561.15
54.7610	566.10
54.7754	561.53
54.7899	560.80
54.8043	562.45
54.8188	553.04
54.8332	551.36
54.8476	534.20
54.8621	561.40
54.8765	547.11
54.8910	537.36
54.9054	537.99
54.9198	529.70
54.9343	525.01
54.9487	532.46
54.9632	555.99
54.9776	533.61
54.9920	517.57
55.0065	520.73
55.0209	534.08
55.0354	529.15
55.0498	476.34
55.0642	481.68
55.0787	527.14
55.0931	565.06
55.1076	572.92
55.1220	554.19
55.1364	507.37
55.1509	471.86
55.1653	495.28
55.1798	484.73
55.1942	482.88
55.2086	522.25
55.2231	501.84
55.2375	501.18
55.2520	511.91
55.2664	525.05
55.2808	554.36
55.2953	518.42
55.3097	503.65
55.3242	531.01
55.3386	485.87
55.3530	497.45
55.3675	536.99
55.3819	514.61
55.3964	528.54
55.4108	517.66
55.4252	523.20
55.4397	520.96
55.4541	526.48
55.4686	519.72
55.4830	529.37
55.4974	526.47
55.5119	538.04
55.5263	519.35
55.5408	510.17
55.5552	507.82
55.5696	531.45
55.5841	550.10
55.5985	515.21
55.6130	505.41
55.6274	551.26
55.6418	564.18
55.6563	539.50
55.6707	529.61
55.6852	521.16
55.6996	555.85
55.7140	568.73
55.7285	510.21
55.7429	528.76
55.7574	531.43
55.7718	513.37
55.7862	538.73
55.8007	539.59
55.8151	545.12
55.8296	508.63
55.8440	544.90
55.8584	553.23
55.8729	521.43
55.8873	512.60
55.9018	567.21
55.9162	532.88
55.9306	527.46
55.9451	530.07
55.9595	534.80
55.9740	504.55
55.9884	542.10
56.0028	548.56
56.0173	589.67
56.0317	534.57
56.0462	526.44
56.0606	541.30
56.0750	495.46
56.0895	537.74
56.1039	515.25
56.1184	522.89
56.1328	528.20
56.1472	513.75
56.1617	501.49
56.1761	523.66
56.1906	509.75
56.2050	496.04
56.2194	488.67
56.2339	550.47
56.2483	523.36
56.2628	519.49
56.2772	512.80
56.2916	559.02
56.3061	528.29
56.3205	521.77
56.3350	554.62
56.3494	510.70
56.3639	519.12
56.3783	524.06
56.3927	492.64
56.4072	521.77
56.4216	533.84
56.4361	544.35
56.4505	498.98
56.4649	534.56
56.4794	512.81
56.4938	494.18
56.5083	499.40
56.5227	523.47
56.5371	541.85
56.5516	554.20
56.5660	515.98
56.5805	509.08
56.5949	535.84
56.6093	508.52
56.6238	526.00
56.6382	552.29
56.6527	493.86
56.6671	492.80
56.6815	511.17
56.6960	515.60
56.7104	545.83
56.7249	536.23
56.7393	475.40
56.7537	531.39
56.7682	523.88
56.7826	521.50
56.7971	501.22
56.8115	547.29
56.8259	513.71
56.8404	517.07
56.8548	536.10
56.8693	497.23
56.8837	498.63
56.8981	505.53
56.9126	516.13
56.9270	505.33
56.9415	548.31
56.9559	514.68
56.9703	515.11
56.9848	560.49
56.9992	516.82
57.0137	521.73
57.0281	501.11
57.0425	520.28
57.0570	556.14
57.0714	505.34
57.0859	538.91
57.1003	528.29
57.1147	530.56
57.1292	530.81
57.1436	526.48
57.1581	546.27
57.1725	481.26
57.1869	499.35
57.2014	518.83
57.2158	547.32
57.2303	538.24
57.2447	521.66
57.2591	528.92
57.2736	551.51
57.2880	523.64
57.3025	528.99
57.3169	513.30
57.3313	525.44
57.3458	508.37
57.3602	548.63
57.3747	510.31
57.3891	495.27
57.4035	470.23
57.4180	455.77
57.4324	494.74
57.4469	500.20
57.4613	518.43
57.4757	538.07
57.4902	520.91
57.5046	527.84
57.5191	537.29
57.5335	499.89
57.5479	504.57
57.5624	503.36
57.5768	537.69
57.5913	516.74
57.6057	463.88
57.6201	528.50
57.6346	529.59
57.6490	501.21
57.6635	529.63
57.6779	547.17
57.6923	516.78
57.7068	575.15
57.7212	516.58
57.7357	544.17
57.7501	544.97
57.7645	507.22
57.7790	496.04
57.7934	528.64
57.8079	551.11
57.8223	575.21
57.8367	547.80
57.8512	505.19
57.8656	548.77
57.8801	558.35
57.8945	539.06
57.9089	524.05
57.9234	510.46
57.9378	545.13
57.9523	542.15
57.9667	528.29
57.9811	529.00
57.9956	605.51
58.0100	542.41
58.0245	530.26
58.0389	538.17
58.0533	578.79
58.0678	573.76
58.0822	599.76
58.0967	564.03
58.1111	581.48
58.1255	607.89
58.1400	585.91
58.1544	605.20
58.1689	618.94
58.1833	640.21
58.1977	633.48
58.2122	651.11
58.2266	680.88
58.2411	660.39
58.2555	677.20
58.2699	648.34
58.2844	670.84
58.2988	635.00
58.3133	677.34
58.3277	649.25
58.3421	668.46
58.3566	652.55
58.3710	610.38
58.3855	598.27
58.3999	591.10
58.4143	634.21
58.4288	654.93
58.4432	593.87
58.4577	571.09
58.4721	597.10
58.4865	599.75
58.5010	599.35
58.5154	614.17
58.5299	591.07
58.5443	576.42
58.5587	577.29
58.5732	554.92
58.5876	546.28
58.6021	565.96
58.6165	567.87
58.6309	567.08
58.6454	535.32
58.6598	527.38
58.6743	547.66
58.6887	520.07
58.7031	534.99
58.7176	526.06
58.7320	526.30
58.7465	576.62
58.7609	542.24
58.7753	527.92
58.7898	544.29
58.8042	576.71
58.8187	560.04
58.8331	558.81
58.8475	533.80
58.8620	559.18
58.8764	561.91
58.8909	577.34
58.9053	567.41
58.9197	556.32
58.9342	590.80
58.9486	557.30
58.9631	514.50
58.9775	531.71
58.9919	558.49
59.0064	578.79
59.0208	565.84
59.0353	556.33
59.0497	525.99
59.0641	567.38
59.0786	533.45
59.0930	525.13
59.1075	519.19
59.1219	541.10
59.1363	524.15
59.1508	502.61
59.1652	535.59
59.1797	548.25
59.1941	539.41
59.2085	523.89
59.2230	545.12
59.2374	535.89
59.2519	546.85
59.2663	534.77
59.2807	553.97
59.2952	547.36
59.3096	571.02
59.3241	591.17
59.3385	581.69
59.3529	549.85
59.3674	569.25
59.3818	556.57
59.3963	550.86
59.4107	527.36
59.4251	587.50
59.4396	570.24
59.4540	523.23
59.4685	562.30
59.4829	575.80
59.4973	562.30
59.5118	565.00
59.5262	574.23
59.5407	569.89
59.5551	553.64
59.5695	546.00
59.5840	540.04
59.5984	558.41
59.6129	508.00
59.6273	539.40
59.6417	574.96
59.6562	548.33
59.6706	529.97
59.6851	534.91
59.6995	538.72
59.7139	547.97
59.7284	556.92
59.7428	554.67
59.7573	578.58
59.7717	532.79
59.7861	580.28
59.8006	542.69
59.8150	531.46
59.8295	529.32
59.8439	535.18
59.8583	564.84
59.8728	574.11
59.8872	532.79
59.9017	539.72
59.9161	511.70
59.9305	502.35
59.9450	539.00
59.9594	510.28
59.9739	533.14
59.9883	549.00
60.0027	538.72
60.0172	549.79
60.0316	542.24
60.0461	551.59
60.0605	546.29
60.0750	538.32
60.0894	563.22
60.1038	566.54
60.1183	550.22
60.1327	571.48
60.1472	484.42
60.1616	513.27
60.1760	568.00
60.1905	521.14
60.2049	527.10
60.2194	555.88
60.2338	519.89
60.2482	542.08
60.2627	518.82
60.2771	525.98
60.2916	533.40
60.3060	554.30
60.3204	539.14
60.3349	517.22
60.3493	519.99
60.3638	503.72
60.3782	524.62
60.3926	549.78
60.4071	538.10
60.4215	528.00
60.4360	532.56
60.4504	525.29
60.4648	538.54
60.4793	545.52
60.4937	516.76
60.5082	530.33
60.5226	569.60
60.5370	559.35
60.5515	528.90
60.5659	505.90
60.5804	551.48
60.5948	571.96
60.6092	542.29
60.6237	517.38
60.6381	530.60
60.6526	518.08
60.6670	509.96
60.6814	500.99
60.6959	503.04
60.7103	575.73
60.7248	557.00
60.7392	535.24
60.7536	541.91
60.7681	533.62
60.7825	540.61
60.7970	524.59
60.8114	567.88
60.8258	561.35
60.8403	569.25
60.8547	538.45
60.8692	558.81
60.8836	551.44
60.8980	559.84
60.9125	553.54
60.9269	529.18
60.9414	551.14
60.9558	509.67
60.9702	525.47
60.9847	519.18
60.9991	517.96
61.0136	518.18
61.0280	560.24
61.0424	558.52
61.0569	523.26
61.0713	512.63
61.0858	593.37
61.1002	605.71
61.1146	558.71
61.1291	553.88
61.1435	510.65
61.1580	537.56
61.1724	553.96
61.1868	542.59
61.2013	557.07
61.2157	560.55
61.2302	535.58
61.2446	548.37
61.2590	541.49
61.2735	530.50
61.2879	541.15
61.3024	568.42
61.3168	526.81
61.3312	547.36
61.3457	537.24
61.3601	534.42
61.3746	534.34
61.3890	507.05
61.4034	535.87
61.4179	562.97
61.4323	578.76
61.4468	538.95
61.4612	547.06
61.4756	559.30
61.4901	574.80
61.5045	550.93
61.5190	518.20
61.5334	551.99
61.5478	572.36
61.5623	531.24
61.5767	549.43
61.5912	534.20
61.6056	543.54
61.6200	556.39
61.6345	531.92
61.6489	559.43
61.6634	563.82
61.6778	513.11
61.6922	522.46
61.7067	568.13
61.7211	592.27
61.7356	565.28
61.7500	567.71
61.7644	556.05
61.7789	545.73
61.7933	536.86
61.8078	574.10
61.8222	568.95
61.8366	540.57
61.8511	555.31
61.8655	572.21
61.8800	529.92
61.8944	587.52
61.9088	574.12
61.9233	555.60
61.9377	567.93
61.9522	564.54
61.9666	543.64
61.9810	544.22
61.9955	519.56
62.0099	520.29
62.0244	544.74
62.0388	534.19
62.0532	504.82
62.0677	553.17
62.0821	575.95
62.0966	589.86
62.1110	554.85
62.1254	543.48
62.1399	532.13
62.1543	538.89
62.1688	571.30
62.1832	553.03
62.1976	534.42
62.2121	536.96
62.2265	520.97
62.2410	566.56
62.2554	571.47
62.2698	552.06
62.2843	583.19
62.2987	567.36
62.3132	576.27
62.3276	581.60
62.3420	545.94
62.3565	519.43
62.3709	530.36
62.3854	553.14
62.3998	526.69
62.4142	541.73
62.4287	566.71
62.4431	527.50
62.4576	549.05
62.4720	534.01
62.4864	580.13
62.5009	559.72
62.5153	539.53
62.5298	532.14
62.5442	549.85
62.5586	556.43
62.5731	539.41
62.5875	525.05
62.6020	547.30
62.6164	555.95
62.6308	548.93
62.6453	527.87
62.6597	518.76
62.6742	544.31
62.6886	494.15
62.7030	510.91
62.7175	556.31
62.7319	577.48
62.7464	574.39
62.7608	556.51
62.7752	570.29
62.7897	583.73
62.8041	568.71
62.8186	564.25
62.8330	567.77
62.8474	537.83
62.8619	576.60
62.8763	576.18
62.8908	528.25
62.9052	552.21
62.9196	569.10
62.9341	539.18
62.9485	552.32
62.9630	553.66
62.9774	545.92
62.9918	600.74
63.0063	582.16
63.0207	593.04
63.0352	586.22
63.0496	563.94
63.0640	521.07
63.0785	529.29
63.0929	591.34
63.1074	581.32
63.1218	552.37
63.1362	542.23
63.1507	538.97
63.1651	554.13
63.1796	546.46
63.1940	541.55
63.2084	582.65
63.2229	599.93
63.2373	591.87
63.2518	587.96
63.2662	569.64
63.2806	540.32
63.2951	581.46
63.3095	568.04
63.3240	553.34
63.3384	528.91
63.3528	573.83
63.3673	585.52
63.3817	585.53
63.3962	569.22
63.4106	588.81
63.4250	589.11
63.4395	597.79
63.4539	567.95
63.4684	584.57
63.4828	567.26
63.4972	597.30
63.5117	578.53
63.5261	602.98
63.5406	580.37
63.5550	614.75
63.5694	578.09
63.5839	587.18
63.5983	588.37
63.6128	616.57
63.6272	583.41
63.6416	591.08
63.6561	599.33
63.6705	609.16
63.6850	619.14
63.6994	607.94
63.7138	619.66
63.7283	601.38
63.7427	645.83
63.7572	639.87
63.7716	667.26
63.7861	643.13
63.8005	654.53
63.8149	696.30
63.8294	722.53
63.8438	724.27
63.8583	748.07
63.8727	692.30
63.8871	703.00
63.9016	766.18
63.9160	798.08
63.9305	776.28
63.9449	765.84
63.9593	775.58
63.9738	790.12
63.9882	812.03
64.0027	787.69
64.0171	784.68
64.0315	799.79
64.0460	783.72
64.0604	757.65
64.0749	783.85
64.0893	827.47
64.1037	734.99
64.1182	732.48
64.1326	781.77
64.1471	734.70
64.1615	728.45
64.1759	708.03
64.1904	717.85
64.2048	660.96
64.2193	683.04
64.2337	703.13
64.2481	707.21
64.2626	713.21
64.2770	691.12
64.2915	666.60
64.3059	646.68
64.3203	653.70
64.3348	652.19
64.3492	628.79
64.3637	637.45
64.3781	618.46
64.3925	596.02
64.4070	590.49
64.4214	674.46
64.4359	668.57
64.4503	617.42
64.4647	614.49
64.4792	605.23
64.4936	646.75
64.5081	644.84
64.5225	661.12
64.5369	625.02
64.5514	641.22
64.5658	709.44
64.5803	643.36
64.5947	585.59
64.6091	670.10
64.6236	664.97
64.6380	681.13
64.6525	621.27
64.6669	687.61
64.6813	699.50
64.6958	659.14
64.7102	697.19
64.7247	686.49
64.7391	726.84
64.7535	717.02
64.7680	686.51
64.7824	701.35
64.7969	733.75
64.8113	748.04
64.8257	784.79
64.8402	775.09
64.8546	787.01
64.8691	825.25
64.8835	774.58
64.8979	805.58
64.9124	851.75
64.9268	913.96
64.9413	946.98
64.9557	969.89
64.9701	1007.02
64.9846	1089.85
64.9990	1132.60
65.0135	1230.70
65.0279	1393.48
65.0423	1661.63
65.0568	1984.46
65.0712	2534.53
65.0857	3275.72
65.1001	4273.43
65.1145	5811.62
65.1290	7409.59
65.1434	9002.44
65.1579	10772.39
65.1723	11612.24
65.1867	11316.37
65.2012	10166.68
65.2156	8435.89
65.2301	6817.92
65.2445	5465.74
65.2589	4492.53
65.2734	4108.22
65.2878	4261.42
65.3023	4734.13
65.3167	5561.83
65.3311	6350.17
65.3456	6791.37
65.3600	6899.39
65.3745	6456.70
65.3889	5586.72
65.4033	4483.34
65.4178	3604.52
65.4322	2777.12
65.4467	2078.55
65.4611	1794.55
65.4755	1461.80
65.4900	1289.21
65.5044	1135.10
65.5189	1094.69
65.5333	1003.22
65.5477	983.20
65.5622	884.87
65.5766	843.20
65.5911	814.67
65.6055	795.15
65.6199	730.50
65.6344	762.52
65.6488	758.79
65.6633	749.88
65.6777	713.10
65.6921	691.62
65.7066	700.15
65.7210	710.96
65.7355	702.87
65.7499	753.12
65.7643	700.49
65.7788	674.32
65.7932	670.03
65.8077	691.10
65.8221	672.72
65.8365	689.11
65.8510	654.55
65.8654	705.98
65.8799	665.44
65.8943	639.85
65.9087	644.67
65.9232	633.74
65.9376	657.31
65.9521	614.84
65.9665	624.64
65.9809	630.26
65.9954	638.67
66.0098	647.19
66.0243	652.10
66.0387	634.79
66.0531	630.26
66.0676	643.69
66.0820	669.04
66.0965	610.42
66.1109	634.00
66.1253	645.76
66.1398	634.67
66.1542	618.95
66.1687	650.38
66.1831	628.17
66.1975	603.47
66.2120	607.70
66.2264	589.28
66.2409	616.17
66.2553	637.57
66.2697	637.93
66.2842	613.32
66.2986	591.96
66.3131	586.81
66.3275	610.81
66.3419	593.23
66.3564	596.45
66.3708	612.71
66.3853	614.83
66.3997	567.51
66.4141	602.50
66.4286	628.51
66.4430	611.21
66.4575	578.45
66.4719	610.24
66.4863	603.96
66.5008	597.34
66.5152	600.43
66.5297	621.21
66.5441	608.76
66.5585	583.47
66.5730	579.02
66.5874	573.72
66.6019	564.55
66.6163	581.36
66.6307	599.68
66.6452	584.79
66.6596	594.52
66.6741	574.89
66.6885	603.24
66.7029	603.03
66.7174	579.54
66.7318	548.93
66.7463	588.59
66.7607	577.56
66.7751	612.59
66.7896	600.13
66.8040	574.88
66.8185	585.99
66.8329	580.17
66.8473	592.83
66.8618	624.25
66.8762	582.52
66.8907	539.96
66.9051	592.75
66.9195	573.73
66.9340	584.20
66.9484	585.06
66.9629	569.90
66.9773	551.17
66.9917	582.29
67.0062	587.54
67.0206	558.64
67.0351	596.79
67.0495	585.39
67.0639	588.79
67.0784	580.78
67.0928	597.42
67.1073	558.39
67.1217	570.14
67.1361	563.02
67.1506	545.86
67.1650	584.19
67.1795	581.81
67.1939	569.82
67.2083	553.08
67.2228	575.93
67.2372	580.69
67.2517	593.72
67.2661	578.64
67.2805	592.99
67.2950	561.98
67.3094	551.48
67.3239	595.23
67.3383	609.43
67.3527	594.99
67.3672	565.71
67.3816	551.38
67.3961	583.22
67.4105	571.46
67.4250	599.29
67.4394	616.97
67.4538	567.01
67.4683	595.61
67.4827	615.06
67.4972	608.96
67.5116	583.08
67.5260	572.12
67.5405	592.51
67.5549	545.94
67.5694	595.01
67.5838	596.51
67.5982	574.94
67.6127	583.45
67.6271	559.72
67.6416	588.33
67.6560	594.75
67.6704	579.61
67.6849	581.95
67.6993	568.21
67.7138	561.56
67.7282	561.22
67.7426	571.29
67.7571	576.42
67.7715	595.34
67.7860	605.64
67.8004	596.40
67.8148	584.60
67.8293	606.00
67.8437	567.09
67.8582	540.39
67.8726	582.73
67.8870	559.93
67.9015	570.15
67.9159	553.24
67.9304	569.24
67.9448	552.99
67.9592	600.65
67.9737	597.53
67.9881	558.54
68.0026	563.33
68.0170	566.20
68.0314	584.95
68.0459	580.63
68.0603	634.21
68.0748	591.85
68.0892	587.81
68.1036	593.01
68.1181	583.32
68.1325	585.18
68.1470	575.44
68.1614	582.04
68.1758	589.62
68.1903	602.20
68.2047	561.68
68.2192	576.69
68.2336	625.04
68.2480	569.73
68.2625	551.27
68.2769	597.43
68.2914	563.24
68.3058	542.94
68.3202	558.32
68.3347	582.16
68.3491	574.68
68.3636	565.43
68.3780	595.13
68.3924	551.17
68.4069	570.64
68.4213	572.19
68.4358	545.18
68.4502	509.10
68.4646	548.22
68.4791	557.25
68.4935	594.54
68.5080	544.59
68.5224	559.59
68.5368	591.17
68.5513	536.90
68.5657	573.71
68.5802	543.49
68.5946	587.94
68.6090	605.65
68.6235	568.20
68.6379	562.96
68.6524	516.13
68.6668	577.70
68.6812	547.89
68.6957	563.22
68.7101	580.20
68.7246	562.50
68.7390	582.14
68.7534	618.68
68.7679	583.04
68.7823	589.10
68.7968	572.08
68.8112	617.78
68.8256	620.62
68.8401	574.31
68.8545	579.40
68.8690	550.74
68.8834	527.44
68.8978	615.35
68.9123	630.62
68.9267	589.42
68.9412	587.54
68.9556	589.96
68.9700	571.33
68.9845	574.83
68.9989	513.92
69.0134	573.44
69.0278	564.02
69.0422	566.21
69.0567	538.14
69.0711	567.46
69.0856	603.01
69.1000	603.94
69.1144	615.12
69.1289	608.22
69.1433	537.21
69.1578	590.76
69.1722	582.57
69.1866	558.32
69.2011	552.77
69.2155	620.92
69.2300	531.01
69.2444	580.56
69.2588	594.95
69.2733	594.68
69.2877	588.65
69.3022	557.70
69.3166	548.37
69.3310	600.75
69.3455	584.80
69.3599	600.47
69.3744	582.82
69.3888	552.34
69.4032	560.36
69.4177	550.31
69.4321	617.23
69.4466	575.68
69.4610	548.06
69.4754	569.30
69.4899	602.14
69.5043	579.93
69.5188	582.09
69.5332	596.02
69.5476	559.12
69.5621	577.04
69.5765	577.07
69.5910	583.95
69.6054	609.25
69.6198	570.89
69.6343	593.71
69.6487	539.16
69.6632	582.83
69.6776	568.35
69.6920	519.83
69.7065	537.69
69.7209	585.23
69.7354	592.02
69.7498	557.07
69.7642	567.85
69.7787	565.22
69.7931	566.69
69.8076	601.75
69.8220	547.24
69.8364	555.72
69.8509	591.68
69.8653	574.30
69.8798	578.47
69.8942	597.63
69.9086	606.75
69.9231	627.46
69.9375	581.97
69.9520	626.33
69.9664	611.98
69.9808	590.27
69.9953	587.97
70.0097	571.15
70.0242	620.56
70.0386	547.72
70.0530	574.09
70.0675	584.18
70.0819	595.31
70.0964	587.07
70.1108	551.15
70.1252	584.42
70.1397	541.09
70.1541	543.45
70.1686	581.28
70.1830	634.84
70.1974	567.98
70.2119	558.46
70.2263	501.44
70.2408	530.58
70.2552	568.96
70.2696	582.03
70.2841	513.91
70.2985	569.76
70.3130	604.96
70.3274	590.93
70.3418	586.58
70.3563	574.55
70.3707	575.17
70.3852	571.13
70.3996	568.30
70.4140	537.60
70.4285	563.38
70.4429	551.00
70.4574	556.41
70.4718	655.64
70.4862	609.76
70.5007	552.11
70.5151	605.39
70.5296	598.13
70.5440	609.49
70.5584	632.30
70.5729	593.00
70.5873	523.27
70.6018	532.13
70.6162	571.42
70.6306	629.16
70.6451	569.73
70.6595	555.19
70.6740	537.36
70.6884	530.37
70.7028	557.59
70.7173	576.41
70.7317	595.59
70.7462	567.21
70.7606	535.92
70.7750	583.36
70.7895	548.84
70.8039	571.28
70.8184	579.59
70.8328	601.84
70.8472	560.51
70.8617	561.98
70.8761	599.15
70.8906	588.88
70.9050	585.69
70.9194	587.65
70.9339	635.44
70.9483	624.30
70.9628	594.78
70.9772	572.74
70.9916	530.26
71.0061	572.85
71.0205	570.07
71.0350	536.09
71.0494	569.45
71.0638	596.20
71.0783	619.40
71.0927	603.73
71.1072	576.85
71.1216	562.64
71.1361	593.16
71.1505	599.12
71.1649	551.66
71.1794	586.01
71.1938	603.77
71.2083	577.14
71.2227	597.85
71.2371	567.78
71.2516	540.56
71.2660	546.37
71.2805	546.32
71.2949	527.39
71.3093	501.90
71.3238	537.42
71.3382	574.20
71.3527	558.22
71.3671	614.09
71.3815	590.58
71.3960	520.89
71.4104	550.87
71.4249	636.95
71.4393	607.21
71.4537	556.13
71.4682	552.93
71.4826	554.37
71.4971	522.33
71.5115	548.89
71.5259	574.73
71.5404	579.86
71.5548	615.08
71.5693	606.80
71.5837	498.24
71.5981	506.57
71.6126	590.98
71.6270	573.60
71.6415	568.26
71.6559	597.95
71.6703	642.96
71.6848	643.86
71.6992	600.31
71.7137	558.49
71.7281	565.86
71.7425	564.27
71.7570	534.98
71.7714	611.24
71.7859	593.07
71.8003	614.29
71.8147	595.48
71.8292	590.32
71.8436	586.73
71.8581	600.82
71.8725	637.79
71.8869	515.36
71.9014	516.72
71.9158	615.12
71.9303	639.66
71.9447	578.95
71.9591	615.89
71.9736	605.76
71.9880	486.41
72.0025	518.42
72.0169	542.22
72.0313	606.13
72.0458	663.90
72.0602	612.30
72.0747	564.46
72.0891	572.46
72.1035	558.31
72.1180	506.98
72.1324	512.44
72.1469	582.27
72.1613	621.82
72.1757	608.82
72.1902	566.62
72.2046	538.86
72.2191	620.12
72.2335	527.19
72.2479	505.11
72.2624	533.31
72.2768	568.36
72.2913	553.68
72.3057	570.85
72.3201	635.98
72.3346	627.86
72.3490	606.90
72.3635	586.59
72.3779	603.13
72.3923	636.29
72.4068	623.93
72.4212	572.47
72.4357	570.91
72.4501	565.19
72.4645	566.90
72.4790	591.42
72.4934	544.44
72.5079	568.06
72.5223	539.10
72.5367	532.90
72.5512	577.63
72.5656	600.43
72.5801	557.10
72.5945	460.79
72.6089	482.90
72.6234	570.42
72.6378	570.60
72.6523	564.50
72.6667	531.25
72.6811	538.60
72.6956	595.03
72.7100	606.91
72.7245	574.01
72.7389	620.57
72.7533	634.20
72.7678	590.39
72.7822	595.37
72.7967	567.20
72.8111	585.53
72.8255	590.00
72.8400	560.80
72.8544	560.88
72.8689	608.30
72.8833	574.59

Result vector
22.1120	536.69
22.1264	541.08
22.1409	500.68
22.1553	537.44
22.1697	578.58
22.1842	557.42
22.1986	626.83
22.2131	665.58
22.2275	598.10
22.2419	595.03
22.2564	592.74
22.2708	595.77
22.2853	562.45
22.2997	575.09
22.3141	568.94
22.3286	555.16
22.3430	549.75
22.3575	519.52
22.3719	525.22
22.3863	490.76
22.4008	504.15
22.4152	480.01
22.4297	523.75
22.4441	654.84
22.4585	616.50
22.4730	590.07
22.4874	585.75
22.5019	667.91
22.5163	620.03
22.5307	590.69
22.5452	623.96
22.5596	552.09
22.5741	546.01
22.5885	553.35
22.6029	592.33
22.6174	511.83
22.6318	523.91
22.6463	569.89
22.6607	594.82
22.6751	579.85
22.6896	603.61
22.7040	585.10
22.7185	573.39
22.7329	568.46
22.7473	600.51
22.7618	574.13
22.7762	604.85
22.7907	543.11
22.8051	525.31
22.8195	595.17
22.8340	561.76
22.8484	529.61
22.8629	657.11
22.8773	645.32
22.8917	557.88
22.9062	602.41
22.9206	628.30
22.9351	608.21
22.9495	588.02
22.9639	593.76
22.9784	581.14
22.9928	534.71
23.0073	545.08
23.0217	526.13
23.0361	552.91
23.0506	616.52
23.0650	623.18
23.0795	562.74
23.0939	534.27
23.1083	552.39
23.1228	554.17
23.1372	537.43
23.1517	525.83
23.1661	529.22
23.1806	520.93
23.1950	508.43
23.2094	590.05
23.2239	573.48
23.2383	565.85
23.2528	593.49
23.2672	548.42
23.2816	571.95
23.2961	528.29
23.3105	575.23
23.3250	536.23
23.3394	584.46
23.3538	569.00
23.3683	520.28
23.3827	480.94
23.3972	526.08
23.4116	527.57
23.4260	568.65
23.4405	510.53
23.4549	514.94
23.4694	618.48
23.4838	536.87
23.4982	509.54
23.5127	516.21
23.5271	593.14
23.5416	529.95
23.5560	588.75
23.5704	575.02
23.5849	621.75
23.5993	563.40
23.6138	546.44
23.6282	563.14
23.6426	548.26
23.6571	562.17
23.6715	557.21
23.6860	585.77
23.7004	620.70
23.7148	507.04
23.7293	566.46
23.7437	505.69
23.7582	573.33
23.7726	592.85
23.7870	509.96
23.8015	521.21
23.8159	594.09
23.8304	554.01
23.8448	570.49
23.8592	578.32
23.8737	489.23
23.8881	575.08
23.9026	549.70
23.9170	536.20
23.9314	609.25
23.9459	498.73
23.9603	550.35
23.9748	519.59
23.9892	582.53
24.0036	508.83
24.0181	553.44
24.0325	585.39
24.0470	512.35
24.0614	548.78
24.0758	573.08
24.0903	508.81
24.1047	539.76
24.1192	545.06
24.1336	545.67
24.1480	532.28
24.1625	552.26
24.1769	597.14
24.1914	589.57
24.2058	565.97
24.2202	603.58
24.2347	605.84
24.2491	560.61
24.2636	585.26
24.2780	592.12
24.2924	557.39
24.3069	558.45
24.3213	556.30
24.3358	545.75
24.3502	599.78
24.3646	568.14
24.3791	565.85
24.3935	485.29
24.4080	520.32
24.4224	568.26
24.4368	542.27
24.4513	553.07
24.4657	560.70
24.4802	558.00
24.4946	530.82
24.5090	522.50
24.5235	575.20
24.5379	609.79
24.5524	493.04
24.5668	543.87
24.5812	528.39
24.5957	544.94
24.6101	571.47
24.6246	513.80
24.6390	578.97
24.6534	537.86
24.6679	513.06
24.6823	579.30
24.6968	539.70
24.7112	606.31
24.7256	542.42
24.7401	531.14
24.7545	527.23
24.7690	536.43
24.7834	547.96
24.7978	570.95
24.8123	531.37
24.8267	501.28
24.8412	556.73
24.8556	584.47
24.8700	541.83
24.8845	521.23
24.8989	516.97
24.9134	558.62
24.9278	535.04
24.9422	552.68
24.9567	574.11
24.9711	542.85
24.9856	530.12
25.0000	520.50
25.0144	534.33
25.0289	543.10
25.0433	522.84
25.0578	550.53
25.0722	548.01
25.0866	567.89
25.1011	573.81
25.1155	593.14
25.1300	587.59
25.1444	547.95
25.1588	534.69
25.1733	556.46
25.1877	527.74
25.2022	529.51
25.2166	555.52
25.2310	566.14
25.2455	570.47
25.2599	537.22
25.2744	560.59
25.2888	567.07
25.3032	502.51
25.3177	527.89
25.3321	549.50
25.3466	564.62
25.3610	543.91
25.3754	493.73
25.3899	534.57
25.4043	536.58
25.4188	528.51
25.4332	542.55
25.4476	549.45
25.4621	522.26
25.4765	522.20
25.4910	555.45
25.5054	566.76
25.5198	535.70
25.5343	519.54
25.5487	531.59
25.5632	514.26
25.5776	539.69
25.5920	559.25
25.6065	545.97
25.6209	515.29
25.6354	545.74
25.6498	532.89
25.6642	540.26
25.6787	532.53
25.6931	483.93
25.7076	524.36
25.7220	519.94
25.7364	534.90
25.7509	529.46
25.7653	535.75
25.7798	554.33
25.7942	566.29
25.8086	529.90
25.8231	554.36
25.8375	580.73
25.8520	527.06
25.8664	546.91
25.8808	526.42
25.8953	523.08
25.9097	544.08
25.9242	517.30
25.9386	542.14
25.9530	519.48
25.9675	526.53
25.9819	521.74
25.9964	573.47
26.0108	576.10
26.0252	553.49
26.0397	546.65
26.0541	539.49
26.0686	563.22
26.0830	552.22
26.0974	551.58
26.1119	541.86
26.1263	532.26
26.1408	520.17
26.1552	509.64
26.1696	544.40
26.1841	544.94
26.1985	522.66
26.2130	525.17
26.2274	546.61
26.2418	581.74
26.2563	557.99
26.2707	541.60
26.2852	544.44
26.2996	550.20
26.3140	515.67
26.3285	535.60
26.3429	517.78
26.3574	502.12
26.3718	489.11
26.3862	508.45
26.4007	525.53
26.4151	536.44
26.4296	551.11
26.4440	495.88
26.4584	505.87
26.4729	520.40
26.4873	534.70
26.5018	498.61
26.5162	498.79
26.5306	547.94
26.5451	533.04
26.5595	533.00
26.5740	515.70
26.5884	510.29
26.6028	520.27
26.6173	542.66
26.6317	538.20
26.6462	532.82
26.6606	537.77
26.6750	540.96
26.6895	515.94
26.7039	532.37
26.7184	572.02
26.7328	508.16
26.7472	528.41
26.7617	510.27
26.7761	533.59
26.7906	535.13
26.8050	535.63
26.8194	517.04
26.8339	524.00
26.8483	512.80
26.8628	525.10
26.8772	508.64
26.8917	507.76
26.9061	516.33
26.9205	503.66
26.9350	503.88
26.9494	542.92
26.9639	519.36
26.9783	515.63
26.9927	537.30
27.0072	521.06
27.0216	492.75
27.0361	498.47
27.0505	520.85
27.0649	508.07
27.0794	509.97
27.0938	535.46
27.1083	548.02
27.1227	510.38
27.1371	493.54
27.1516	497.41
27.1660	526.36
27.1805	517.49
27.1949	521.37
27.2093	538.04
27.2238	534.49
27.2382	495.84
27.2527	500.57
27.2671	492.46
27.2815	519.81
27.2960	508.79
27.3104	492.65
27.3249	498.61
27.3393	513.61
27.3537	518.21
27.3682	538.44
27.3826	511.54
27.3971	527.61
27.4115	523.58
27.4259	521.27
27.4404	545.29
27.4548	503.82
27.4693	530.70
27.4837	514.50
27.4981	520.43
27.5126	517.40
27.5270	538.65
27.5415	545.03
27.5559	511.78
27.5703	500.32
27.5848	514.52
27.5992	510.76
27.6137	519.96
27.6281	516.22
27.6425	515.86
27.6570	518.89
27.6714	531.37
27.6859	515.26
27.7003	494.49
27.7147	512.78
27.7292	519.27
27.7436	554.01
27.7581	539.00
27.7725	526.37
27.7869	524.26
27.8014	518.65
27.8158	527.20
27.8303	561.32
27.8447	545.31
27.8591	553.80
27.8736	535.01
27.8880	495.38
27.9025	517.90
27.9169	528.59
27.9313	509.95
27.9458	499.73
27.9602	513.81
27.9747	508.22
27.9891	530.73
28.0035	523.59
28.0180	545.43
28.0324	539.55
28.0469	503.91
28.0613	522.10
28.0757	501.47
28.0902	511.33
28.1046	506.09
28.1191	543.54
28.1335	531.20
28.1479	479.31
28.1624	480.71
28.1768	501.21
28.1913	495.60
28.2057	492.48
28.2201	495.87
28.2346	516.14
28.2490	495.81
28.2635	516.19
28.2779	546.69
28.2923	507.47
28.3068	485.63
28.3212	519.48
28.3357	529.62
28.3501	527.63
28.3645	554.55
28.3790	547.26
28.3934	506.59
28.4079	512.30
28.4223	506.83
28.4367	490.78
28.4512	468.73
28.4656	502.12
28.4801	515.26
28.4945	536.73
28.5089	494.07
28.5234	509.49
28.5378	493.05
28.5523	527.60
28.5667	498.46
28.5811	514.33
28.5956	543.53
28.6100	529.09
28.6245	529.53
28.6389	532.61
28.6533	505.34
28.6678	488.13
28.6822	471.37
28.6967	521.29
28.7111	531.03
28.7255	523.51
28.7400	502.28
28.7544	512.84
28.7689	493.46
28.7833	498.49
28.7977	540.34
28.8122	528.37
28.8266	529.39
28.8411	539.98
28.8555	498.84
28.8699	514.72
28.8844	489.01
28.8988	511.81
28.9133	537.22
28.9277	509.64
28.9421	504.10
28.9566	464.11
28.9710	527.40
28.9855	528.57
28.9999	497.97
29.0143	524.74
29.0288	458.12
29.0432	522.75
29.0577	495.68
29.0721	482.05
29.0865	515.19
29.1010	519.95
29.1154	492.61
29.1299	535.81
29.1443	537.12
29.1587	481.29
29.1732	498.83
29.1876	499.71
29.2021	525.84
29.2165	467.79
29.2309	518.71
29.2454	489.73
29.2598	468.44
29.2743	499.30
29.2887	489.83
29.3031	474.14
29.3176	517.16
29.3320	529.15
29.3465	534.82
29.3609	514.73
29.3753	520.05
29.3898	509.38
29.4042	483.96
29.4187	496.16
29.4331	500.86
29.4475	504.48
29.4620	501.04
29.4764	513.40
29.4909	507.59
29.5053	511.87
29.5197	484.70
29.5342	501.27
29.5486	510.97
29.5631	490.73
29.5775	491.18
29.5919	495.47
29.6064	505.01
29.6208	517.92
29.6353	517.75
29.6497	522.96
29.6641	518.70
29.6786	480.03
29.6930	523.37
29.7075	525.28
29.7219	517.09
29.7363	484.71
29.7508	501.94
29.7652	504.40
29.7797	512.91
29.7941	510.38
29.8085	489.98
29.8230	486.04
29.8374	518.59
29.8519	497.96
29.8663	518.74
29.8807	534.10
29.8952	490.87
29.9096	505.63
29.9241	472.90
29.9385	556.77
29.9529	499.40
29.9674	497.96
29.9818	494.40
29.9963	517.28
30.0107	479.71
30.0251	524.70
30.0396	510.32
30.0540	479.83
30.0685	481.31
30.0829	530.82
30.0973	530.25
30.1118	494.78
30.1262	530.40
30.1407	503.90
30.1551	472.50
30.1695	498.31
30.1840	514.65
30.1984	496.40
30.2129	510.90
30.2273	522.33
30.2417	520.57
30.2562	504.87
30.2706	485.73
30.2851	522.38
30.2995	517.60
30.3139	506.93
30.3284	529.73
30.3428	531.40
30.3573	498.64
30.3717	514.01
30.3861	524.26
30.4006	515.94
30.4150	535.84
30.4295	547.63
30.4439	499.13
30.4583	490.56
30.4728	477.99
30.4872	513.62
30.5017	483.57
30.5161	510.66
30.5305	514.43
30.5450	508.83
30.5594	536.35
30.5739	515.85
30.5883	558.52
30.6028	571.71
30.6172	526.98
30.6316	541.00
30.6461	567.06
30.6605	569.33
30.6750	583.64
30.6894	591.52
30.7038	634.61
30.7183	652.42
30.7327	649.32
30.7472	708.17
30.7616	701.60
30.7760	692.48
30.7905	698.21
30.8049	681.66
30.8194	673.98
30.8338	648.18
30.8482	635.48
30.8627	668.03
30.8771	619.39
30.8916	572.17
30.9060	621.50
30.9204	601.53
30.9349	586.85
30.9493	566.74
30.9638	523.03
30.9782	518.96
30.9926	559.24
31.0071	532.87
31.0215	514.49
31.0360	521.43
31.0504	555.45
31.0648	555.72
31.0793	514.07
31.0937	465.05
31.1082	490.78
31.1226	541.35
31.1370	516.62
31.1515	513.02
31.1659	532.61
31.1804	544.16
31.1948	516.41
31.2092	511.17
31.2237	510.93
31.2381	528.29
31.2526	517.58
31.2670	508.54
31.2814	541.51
31.2959	503.01
31.3103	521.97
31.3248	548.02
31.3392	544.70
31.3536	469.10
31.3681	515.68
31.3825	528.82
31.3970	475.86
31.4114	497.24
31.4258	555.36
31.4403	528.01
31.4547	487.91
31.4692	465.76
31.4836	517.84
31.4980	507.44
31.5125	474.64
31.5269	519.96
31.5414	514.43
31.5558	495.92
31.5702	521.46
31.5847	539.46
31.5991	540.26
31.6136	511.74
31.6280	503.05
31.6424	488.61
31.6569	489.08
31.6713	514.28
31.6858	503.70
31.7002	501.63
31.7146	477.52
31.7291	509.40
31.7435	501.75
31.7580	512.83
31.7724	501.84
31.7868	519.71
31.8013	529.49
31.8157	488.84
31.8302	492.51
31.8446	496.74
31.8590	516.90
31.8735	500.94
31.8879	506.87
31.9024	506.30
31.9168	480.50
31.9312	502.04
31.9457	511.71
31.9601	504.36
31.9746	512.27
31.9890	546.67
32.0034	505.13
32.0179	538.23
32.0323	493.66
32.0468	469.73
32.0612	461.93
32.0756	496.87
32.0901	525.27
32.1045	514.10
32.1190	495.07
32.1334	469.29
32.1478	477.81
32.1623	514.43
32.1767	515.52
32.1912	510.98
32.2056	516.72
32.2200	529.13
32.2345	529.70
32.2489	496.54
32.2634	488.79
32.2778	521.25
32.2922	484.82
32.3067	499.76
32.3211	502.06
32.3356	532.60
32.3500	545.16
32.3644	493.68
32.3789	480.11
32.3933	479.95
32.4078	485.73
32.4222	488.74
32.4366	506.13
32.4511	517.68
32.4655	519.83
32.4800	517.99
32.4944	543.40
32.5088	506.85
32.5233	490.99
32.5377	516.62
32.5522	504.78
32.5666	501.12
32.5810	520.12
32.5955	485.66
32.6099	503.15
32.6244	505.20
32.6388	524.66
32.6532	500.90
32.6677	471.61
32.6821	515.27
32.6966	492.31
32.7110	534.73
32.7254	536.73
32.7399	510.75
32.7543	503.20
32.7688	518.82
32.7832	507.75
32.7976	521.91
32.8121	503.82
32.8265	483.58
32.8410	494.99
32.8554	465.49
32.8698	483.04
32.8843	491.26
32.8987	483.70
32.9132	491.32
32.9276	503.21
32.9420	523.33
32.9565	532.36
32.9709	499.30
32.9854	504.34
32.9998	509.80
33.0142	512.23
33.0287	482.30
33.0431	527.02
33.0576	504.69
33.0720	515.98
33.0864	537.12
33.1009	512.38
33.1153	499.42
33.1298	494.63
33.1442	484.77
33.1586	486.56
33.1731	491.93
33.1875	489.86
33.2020	507.36
33.2164	499.02
33.2308	521.67
33.2453	478.98
33.2597	509.26
33.2742	492.39
33.2886	497.00
33.3030	541.73
33.3175	499.01
33.3319	484.66
33.3464	505.38
33.3608	491.01
33.3752	496.27
33.3897	473.56
33.4041	510.31
33.4186	506.29
33.4330	527.82
33.4474	531.48
33.4619	494.42
33.4763	492.11
33.4908	483.70
33.5052	488.55
33.5196	451.57
33.5341	487.13
33.5485	528.57
33.5630	505.35
33.5774	517.84
33.5918	483.86
33.6063	500.50
33.6207	482.60
33.6352	536.47
33.6496	535.34
33.6640	531.25
33.6785	493.52
33.6929	490.77
33.7074	523.36
33.7218	521.03
33.7362	503.86
33.7507	506.18
33.7651	471.75
33.7796	492.58
33.7940	473.67
33.8084	487.51
33.8229	511.69
33.8373	497.30
33.8518	501.51
33.8662	508.18
33.8806	492.49
33.8951	526.18
33.9095	518.02
33.9240	508.38
33.9384	508.47
33.9528	467.76
33.9673	507.29
33.9817	475.66
33.9962	503.28
34.0106	522.65
34.0250	501.63
34.0395	506.36
34.0539	508.77
34.0684	536.71
34.0828	510.28
34.0972	501.03
34.1117	536.51
34.1261	516.85
34.1406	492.91
34.1550	500.46
34.1694	529.78
34.1839	479.99
34.1983	454.94
34.2128	468.97
34.2272	492.95
34.2417	475.78
34.2561	478.00
34.2705	498.59
34.2850	530.44
34.2994	510.95
34.3139	504.62
34.3283	490.72
34.3427	520.94
34.3572	517.70
34.3716	492.55
34.3861	510.02
34.4005	504.02
34.4149	529.32
34.4294	510.49
34.4438	501.49
34.4583	509.68
34.4727	509.65
34.4871	514.94
34.5016	479.00
34.5160	475.79
34.5305	514.33
34.5449	505.76
34.5593	526.05
34.5738	531.46
34.5882	499.05
34.6027	508.29
34.6171	507.00
34.6315	502.14
34.6460	500.96
34.6604	512.61
34.6749	487.65
34.6893	479.93
34.7037	549.61
34.7182	538.88
34.7326	487.75
34.7471	501.16
34.7615	498.72
34.7759	504.80
34.7904	496.32
34.8048	492.85
34.8193	514.07
34.8337	498.55
34.8481	507.10
34.8626	529.73
34.8770	526.02
34.8915	516.31
34.9059	522.23
34.9203	530.61
34.9348	506.92
34.9492	515.23
34.9637	516.91
34.9781	518.06
34.9925	500.26
35.0070	517.78
35.0214	514.68
35.0359	502.61
35.0503	492.62
35.0647	489.76
35.0792	493.72
35.0936	507.74
35.1081	505.51
35.1225	500.77
35.1369	496.09
35.1514	491.24
35.1658	487.74
35.1803	489.18
35.1947	495.40
35.2091	541.91
35.2236	502.51
35.2380	484.18
35.2525	487.28
35.2669	470.74
35.2813	518.25
35.2958	522.11
35.3102	549.17
35.3247	504.43
35.3391	495.90
35.3535	489.58
35.3680	495.75
35.3824	519.49
35.3969	518.51
35.4113	478.13
35.4257	541.10
35.4402	527.54
35.4546	508.88
35.4691	507.71
35.4835	522.16
35.4979	502.94
35.5124	517.07
35.5268	533.14
35.5413	579.95
35.5557	551.41
35.5701	537.54
35.5846	542.51
35.5990	525.59
35.6135	553.87
35.6279	534.85
35.6423	518.62
35.6568	525.11
35.6712	532.35
35.6857	574.38
35.7001	672.99
35.7145	736.84
35.7290	691.41
35.7434	609.39
35.7579	589.70
35.7723	629.66
35.7867	637.33
35.8012	684.54
35.8156	670.82
35.8301	654.62
35.8445	650.59
35.8589	669.13
35.8734	733.67
35.8878	825.92
35.9023	968.80
35.9167	989.96
35.9311	1249.48
35.9456	1852.95
35.9600	2221.61
35.9745	1938.51
35.9889	1996.87
36.0033	2693.38
36.0178	3407.41
36.0322	2807.36
36.0467	2012.79
36.0611	1770.80
36.0755	1718.59
36.0900	1676.07
36.1044	1560.51
36.1189	1450.40
36.1333	1467.82
36.1477	1242.08
36.1622	1292.92
36.1766	1248.26
36.1911	1238.51
36.2055	1102.59
36.2199	1103.83
36.2344	1083.35
36.2488	1004.50
36.2633	932.53
36.2777	1000.05
36.2921	933.50
36.3066	848.94
36.3210	870.03
36.3355	826.67
36.3499	791.74
36.3643	747.27
36.3788	682.71
36.3932	622.48
36.4077	637.82
36.4221	632.20
36.4365	616.89
36.4510	576.35
36.4654	589.26
36.4799	571.70
36.4943	595.53
36.5087	621.41
36.5232	583.45
36.5376	578.39
36.5521	570.24
36.5665	571.17
36.5809	511.65
36.5954	544.22
36.6098	544.84
36.6243	536.80
36.6387	541.46
36.6531	539.56
36.6676	530.37
36.6820	536.34
36.6965	532.98
36.7109	545.63
36.7253	517.97
36.7398	531.77
36.7542	513.43
36.7687	548.05
36.7831	600.89
36.7975	593.91
36.8120	576.18
36.8264	568.08
36.8409	606.30
36.8553	572.17
36.8697	611.32
36.8842	582.17
36.8986	597.04
36.9131	576.46
36.9275	557.24
36.9419	561.74
36.9564	523.62
36.9708	549.36
36.9853	527.59
36.9997	534.50
37.0141	545.48
37.0286	509.85
37.0430	507.69
37.0575	548.67
37.0719	534.61
37.0863	490.67
37.1008	528.99
37.1152	536.47
37.1297	506.81
37.1441	492.14
37.1585	514.43
37.1730	512.33
37.1874	495.65
37.2019	527.89
37.2163	532.17
37.2307	489.47
37.2452	514.00
37.2596	481.94
37.2741	522.13
37.2885	496.02
37.3029	491.78
37.3174	561.05
37.3318	527.67
37.3463	519.97
37.3607	516.41
37.3751	489.73
37.3896	522.85
37.4040	488.09
37.4185	503.03
37.4329	545.15
37.4473	504.86
37.4618	537.59
37.4762	513.18
37.4907	523.11
37.5051	517.64
37.5195	479.77
37.5340	488.27
37.5484	492.32
37.5629	531.06
37.5773	506.11
37.5917	501.82
37.6062	535.13
37.6206	491.43
37.6351	512.24
37.6495	516.40
37.6639	508.46
37.6784	501.98
37.6928	470.20
37.7073	523.96
37.7217	509.33
37.7361	495.05
37.7506	450.90
37.7650	460.22
37.7795	532.86
37.7939	549.20
37.8083	556.40
37.8228	508.12
37.8372	515.96
37.8517	526.38
37.8661	511.05
37.8805	514.61
37.8950	532.90
37.9094	514.89
37.9239	488.01
37.9383	513.99
37.9528	507.37
37.9672	520.63
37.9816	496.62
37.9961	506.10
38.0105	512.48
38.0250	534.90
38.0394	530.07
38.0538	476.27
38.0683	466.23
38.0827	530.28
38.0972	515.30
38.1116	536.62
38.1260	501.85
38.1405	485.11
38.1549	514.04
38.1694	520.62
38.1838	494.20
38.1982	523.76
38.2127	503.21
38.2271	484.07
38.2416	496.21
38.2560	520.73
38.2704	482.45
38.2849	531.26
38.2993	508.66
38.3138	520.21
38.3282	513.77
38.3426	525.69
38.3571	525.93
38.3715	552.18
38.3860	525.06
38.4004	512.42
38.4148	532.66
38.4293	605.64
38.4437	578.53
38.4582	620.16
38.4726	628.37
38.4870	634.59
38.5015	719.02
38.5159	771.12
38.5304	748.82
38.5448	800.27
38.5592	802.82
38.5737	747.82
38.5881	728.65
38.6026	701.31
38.6170	677.25
38.6314	685.19
38.6459	655.25
38.6603	647.85
38.6748	607.63
38.6892	559.31
38.7036	562.32
38.7181	601.94
38.7325	543.43
38.7470	489.19
38.7614	535.66
38.7758	517.07
38.7903	506.79
38.8047	516.47
38.8192	518.08
38.8336	509.25
38.8480	492.13
38.8625	499.07
38.8769	519.17
38.8914	493.28
38.9058	508.25
38.9202	505.48
38.9347	501.83
38.9491	516.49
38.9636	522.03
38.9780	485.71
38.9924	497.35
39.0069	462.61
39.0213	483.90
39.0358	494.75
39.0502	520.84
39.0646	514.96
39.0791	528.65
39.0935	516.27
39.1080	515.54
39.1224	510.95
39.1368	507.23
39.1513	491.50
39.1657	498.10
39.1802	501.47
39.1946	473.39
39.2090	475.98
39.2235	529.87
39.2379	489.97
39.2524	471.51
39.2668	471.47
39.2812	506.51
39.2957	519.26
39.3101	498.68
39.3246	539.17
39.3390	517.89
39.3534	492.53
39.3679	500.51
39.3823	498.66
39.3968	474.83
39.4112	512.70
39.4256	539.63
39.4401	508.63
39.4545	494.30
39.4690	509.83
39.4834	491.91
39.4978	499.00
39.5123	472.21
39.5267	482.57
39.5412	477.31
39.5556	482.36
39.5700	504.81
39.5845	523.55
39.5989	483.91
39.6134	476.44
39.6278	460.66
39.6422	480.88
39.6567	520.55
39.6711	484.24
39.6856	489.82
39.7000	515.25
39.7144	541.15
39.7289	539.39
39.7433	488.77
39.7578	456.65
39.7722	466.88
39.7866	470.85
39.8011	471.24
39.8155	472.10
39.8300	489.64
39.8444	496.88
39.8588	523.68
39.8733	492.60
39.8877	486.29
39.9022	490.18
39.9166	526.31
39.9310	497.45
39.9455	480.40
39.9599	452.99
39.9744	478.46
39.9888	490.45
40.0032	491.76
40.0177	517.00
40.0321	554.00
40.0466	487.45
40.0610	487.95
40.0754	472.67
40.0899	482.88
40.1043	504.08
40.1188	507.98
40.1332	511.02
40.1476	481.09
40.1621	512.27
40.1765	526.06
40.1910	514.30
40.2054	517.75
40.2198	525.87
40.2343	534.42
40.2487	507.69
40.2632	496.15
40.2776	510.59
40.2920	484.07
40.3065	472.80
40.3209	458.97
40.3354	493.59
40.3498	548.88
40.3642	478.78
40.3787	493.98
40.3931	481.26
40.4076	463.41
40.4220	520.56
40.4364	507.80
40.4509	510.05
40.4653	532.63
40.4798	510.57
40.4942	518.80
40.5086	511.21
40.5231	496.03
40.5375	480.36
40.5520	502.77
40.5664	501.84
40.5808	496.44
40.5953	532.71
40.6097	507.57
40.6242	476.89
40.6386	520.29
40.6530	487.13
40.6675	476.69
40.6819	471.43
40.6964	476.02
40.7108	554.94
40.7252	494.53
40.7397	499.53
40.7541	516.45
40.7686	489.58
40.7830	538.71
40.7974	507.41
40.8119	522.11
40.8263	517.15
40.8408	530.90
40.8552	521.44
40.8696	521.27
40.8841	489.01
40.8985	524.42
40.9130	492.93
40.9274	534.84
40.9418	503.29
40.9563	469.05
40.9707	518.25
40.9852	490.75
40.9996	446.80
41.0140	510.53
41.0285	487.33
41.0429	509.44
41.0574	498.73
41.0718	519.05
41.0862	491.55
41.1007	463.58
41.1151	476.29
41.1296	511.99
41.1440	498.55
41.1584	513.59
41.1729	519.16
41.1873	518.39
41.2018	511.26
41.2162	489.22
41.2306	530.76
41.2451	519.30
41.2595	479.92
41.2740	494.84
41.2884	494.10
41.3028	477.85
41.3173	486.69
41.3317	479.64
41.3462	513.73
41.3606	518.53
41.3750	459.74
41.3895	500.56
41.4039	511.53
41.4184	525.07
41.4328	475.10
41.4472	481.19
41.4617	505.43
41.4761	535.36
41.4906	514.20
41.5050	529.76
41.5194	508.05
41.5339	515.23
41.5483	524.30
41.5628	508.40
41.5772	495.02
41.5916	504.75
41.6061	535.13
41.6205	490.18
41.6350	487.06
41.6494	506.08
41.6639	515.21
41.6783	502.29
41.6927	493.83
41.7072	488.44
41.7216	489.23
41.7361	503.47
41.7505	509.99
41.7649	514.76
41.7794	482.62
41.7938	480.29
41.8083	513.07
41.8227	492.12
41.8371	488.20
41.8516	510.71
41.8660	529.39
41.8805	498.40
41.8949	528.14
41.9093	525.20
41.9238	533.97
41.9382	569.38
41.9527	596.59
41.9671	567.27
41.9815	562.24
41.9960	564.95
42.0104	570.83
42.0249	587.95
42.0393	545.45
42.0537	559.36
42.0682	573.64
42.0826	597.52
42.0971	582.76
42.1115	583.40
42.1259	578.94
42.1404	580.75
42.1548	593.18
42.1693	648.30
42.1837	681.29
42.1981	766.17
42.2126	819.24
42.2270	944.07
42.2415	1069.34
42.2559	1243.26
42.2703	1357.33
42.2848	1482.12
42.2992	1603.09
42.3137	1697.22
42.3281	1700.21
42.3425	1617.83
42.3570	1485.90
42.3714	1421.05
42.3859	1371.31
42.4003	1387.68
42.4147	1365.15
42.4292	1356.81
42.4436	1180.42
42.4581	1078.49
42.4725	973.29
42.4869	848.19
42.5014	739.64
42.5158	713.72
42.5303	671.83
42.5447	651.05
42.5591	640.70
42.5736	635.29
42.5880	581.47
42.6025	558.21
42.6169	571.46
42.6313	581.15
42.6458	567.32
42.6602	514.63
42.6747	518.41
42.6891	503.50
42.7035	529.72
42.7180	534.05
42.7324	521.62
42.7469	490.86
42.7613	505.63
42.7757	553.63
42.7902	538.27
42.8046	520.73
42.8191	542.14
42.8335	525.71
42.8479	491.67
42.8624	496.83
42.8768	508.36
42.8913	486.07
42.9057	500.70
42.9201	534.43
42.9346	518.34
42.9490	535.65
42.9635	509.34
42.9779	494.43
42.9923	513.82
43.0068	495.06
43.0212	523.86
43.0357	538.16
43.0501	500.90
43.0645	489.36
43.0790	515.53
43.0934	517.50
43.1079	503.55
43.1223	504.33
43.1367	500.42
43.1512	485.87
43.1656	519.84
43.1801	528.48
43.1945	547.01
43.2089	538.51
43.2234	542.93
43.2378	532.62
43.2523	523.72
43.2667	545.23
43.2811	515.83
43.2956	546.33
43.3100	515.10
43.3245	531.57
43.3389	528.13
43.3533	529.29
43.3678	525.04
43.3822	520.98
43.3967	494.84
43.4111	501.07
43.4255	562.78
43.4400	561.16
43.4544	497.35
43.4689	496.81
43.4833	527.67
43.4977	477.66
43.5122	474.08
43.5266	518.51
43.5411	513.82
43.5555	490.16
43.5699	518.31
43.5844	516.32
43.5988	506.11
43.6133	488.73
43.6277	507.14
43.6421	521.72
43.6566	525.11
43.6710	482.93
43.6855	495.78
43.6999	528.49
43.7143	565.45
43.7288	535.45
43.7432	502.95
43.7577	511.82
43.7721	507.47
43.7865	569.61
43.8010	552.07
43.8154	519.33
43.8299	514.73
43.8443	535.75
43.8587	542.45
43.8732	548.81
43.8876	533.61
43.9021	572.26
43.9165	542.88
43.9309	536.87
43.9454	551.73
43.9598	564.25
43.9743	602.13
43.9887	600.31
44.0031	597.43
44.0176	617.78
44.0320	630.61
44.0465	642.67
44.0609	617.29
44.0753	598.97
44.0898	635.05
44.1042	598.23
44.1187	604.88
44.1331	604.05
44.1475	537.58
44.1620	571.83
44.1764	574.82
44.1909	535.27
44.2053	549.25
44.2197	525.83
44.2342	543.74
44.2486	528.53
44.2631	524.14
44.2775	500.91
44.2919	547.45
44.3064	576.91
44.3208	571.52
44.3353	577.55
44.3497	536.58
44.3641	539.45
44.3786	519.53
44.3930	529.75
44.4075	543.35
44.4219	582.74
44.4363	586.07
44.4508	555.06
44.4652	590.42
44.4797	589.49
44.4941	600.22
44.5085	543.38
44.5230	531.56
44.5374	576.37
44.5519	586.04
44.5663	571.12
44.5807	548.29
44.5952	535.37
44.6096	588.40
44.6241	597.35
44.6385	589.76
44.6529	570.11
44.6674	592.20
44.6818	603.83
44.6963	635.57
44.7107	611.27
44.7251	665.19
44.7396	715.93
44.7540	766.81
44.7685	853.17
44.7829	860.31
44.7973	895.60
44.8118	904.96
44.8262	846.68
44.8407	814.03
44.8551	768.19
44.8695	732.89
44.8840	717.03
44.8984	704.44
44.9129	727.18
44.9273	696.22
44.9417	692.73
44.9562	632.65
44.9706	601.32
44.9851	596.18
44.9995	548.55
45.0139	575.44
45.0284	521.07
45.0428	546.35
45.0573	513.84
45.0717	522.72
45.0861	547.24
45.1006	537.13
45.1150	529.54
45.1295	546.96
45.1439	485.73
45.1583	481.21
45.1728	490.15
45.1872	461.09
45.2017	443.94
45.2161	482.80
45.2305	501.57
45.2450	534.92
45.2594	483.63
45.2739	508.36
45.2883	511.91
45.3028	503.95
45.3172	506.55
45.3316	506.33
45.3461	508.96
45.3605	497.27
45.3750	472.30
45.3894	467.09
45.4038	502.89
45.4183	491.25
45.4327	509.84
45.4472	531.04
45.4616	526.86
45.4760	506.09
45.4905	489.52
45.5049	524.54
45.5194	509.07
45.5338	486.60
45.5482	466.12
45.5627	485.32
45.5771	520.52
45.5916	544.14
45.6060	508.47
45.6204	510.91
45.6349	511.84
45.6493	530.11
45.6638	505.48
45.6782	493.58
45.6926	537.39
45.7071	539.52
45.7215	504.46
45.7360	487.27
45.7504	511.55
45.7648	482.06
45.7793	507.82
45.7937	504.79
45.8082	521.01
45.8226	511.52
45.8370	519.89
45.8515	515.66
45.8659	525.79
45.8804	511.47
45.8948	463.53
45.9092	526.96
45.9237	513.51
45.9381	490.24
45.9526	530.36
45.9670	495.84
45.9814	510.01
45.9959	499.82
46.0103	472.95
46.0248	484.47
46.0392	493.97
46.0536	509.27
46.0681	514.21
46.0825	535.28
46.0970	537.62
46.1114	493.25
46.1258	502.00
46.1403	484.86
46.1547	488.22
46.1692	517.50
46.1836	499.57
46.1980	522.50
46.2125	494.30
46.2269	478.93
46.2414	482.28
46.2558	462.18
46.2702	480.60
46.2847	498.52
46.2991	525.27
46.3136	510.45
46.3280	494.07
46.3424	492.49
46.3569	496.28
46.3713	497.19
46.3858	483.97
46.4002	481.03
46.4146	438.01
46.4291	513.79
46.4435	513.36
46.4580	473.62
46.4724	498.11
46.4868	493.61
46.5013	504.69
46.5157	524.08
46.5302	520.13
46.5446	514.41
46.5590	518.74
46.5735	476.97
46.5879	471.75
46.6024	507.58
46.6168	507.08
46.6312	510.29
46.6457	492.24
46.6601	463.83
46.6746	482.17
46.6890	461.07
46.7034	498.34
46.7179	494.94
46.7323	494.93
46.7468	498.36
46.7612	497.19
46.7756	502.90
46.7901	521.97
46.8045	508.24
46.8190	500.40
46.8334	520.77
46.8478	535.41
46.8623	545.42
46.8767	520.84
46.8912	520.44
46.9056	523.64
46.9200	517.40
46.9345	492.49
46.9489	503.40
46.9634	509.67
46.9778	500.08
46.9922	513.37
47.0067	486.37
47.0211	485.41
47.0356	483.66
47.0500	502.87
47.0644	518.80
47.0789	527.05
47.0933	506.64
47.1078	497.35
47.1222	527.92
47.1366	539.53
47.1511	472.19
47.1655	480.25
47.1800	473.41
47.1944	461.28
47.2088	487.30
47.2233	495.66
47.2377	510.44
47.2522	541.88
47.2666	480.98
47.2810	498.94
47.2955	516.45
47.3099	536.75
47.3244	510.28
47.3388	524.93
47.3532	519.17
47.3677	497.43
47.3821	470.62
47.3966	477.37
47.4110	521.69
47.4254	489.34
47.4399	465.79
47.4543	472.89
47.4688	505.45
47.4832	504.35
47.4976	511.90
47.5121	501.21
47.5265	485.01
47.5410	478.50
47.5554	508.49
47.5698	507.33
47.5843	519.83
47.5987	508.70
47.6132	489.14
47.6276	471.02
47.6420	532.43
47.6565	540.21
47.6709	498.64
47.6854	479.96
47.6998	531.99
47.7142	517.35
47.7287	496.31
47.7431	501.44
47.7576	486.84
47.7720	502.90
47.7864	524.51
47.8009	529.64
47.8153	508.01
47.8298	514.94
47.8442	501.43
47.8586	531.96
47.8731	494.85
47.8875	483.04
47.9020	504.94
47.9164	515.76
47.9308	510.12
47.9453	514.19
47.9597	495.46
47.9742	499.27
47.9886	477.68
48.0030	498.65
48.0175	493.24
48.0319	522.20
48.0464	491.87
48.0608	531.80
48.0752	500.05
48.0897	529.53
48.1041	505.16
48.1186	535.06
48.1330	540.83
48.1474	474.98
48.1619	515.20
48.1763	499.63
48.1908	496.97
48.2052	516.22
48.2196	559.09
48.2341	517.18
48.2485	526.48
48.2630	508.58
48.2774	509.26
48.2918	514.39
48.3063	520.66
48.3207	514.43
48.3352	531.48
48.3496	521.44
48.3640	518.80
48.3785	507.03
48.3929	476.18
48.4074	491.47
48.4218	531.92
48.4362	516.26
48.4507	496.38
48.4651	529.16
48.4796	516.63
48.4940	532.66
48.5084	502.64
48.5229	508.14
48.5373	497.47
48.5518	531.49
48.5662	538.70
48.5806	507.81
48.5951	511.76
48.6095	515.15
48.6240	493.31
48.6384	518.17
48.6528	520.58
48.6673	542.67
48.6817	515.44
48.6962	504.49
48.7106	523.91
48.7250	479.77
48.7395	521.67
48.7539	521.94
48.7684	501.44
48.7828	529.18
48.7972	559.08
48.8117	525.27
48.8261	512.71
48.8406	512.69
48.8550	539.55
48.8694	577.49
48.8839	578.39
48.8983	559.78
48.9128	569.35
48.9272	578.90
48.9416	570.92
48.9561	561.30
48.9705	541.05
48.9850	570.44
48.9994	580.62
49.0139	612.17
49.0283	583.08
49.0427	618.03
49.0572	618.86
49.0716	629.41
49.0861	681.56
49.1005	654.01
49.1149	670.21
49.1294	704.92
49.1438	685.81
49.1583	808.80
49.1727	857.52
49.1871	905.90
49.2016	1011.24
49.2160	1117.13
49.2305	1166.91
49.2449	1180.05
49.2593	1294.86
49.2738	1401.61
49.2882	1480.70
49.3027	1622.45
49.3171	1692.77
49.3315	1716.60
49.3460	1791.04
49.3604	1806.47
49.3749	1844.18
49.3893	1796.01
49.4037	1774.99
49.4182	1770.27
49.4326	1752.00
49.4471	1674.83
49.4615	1609.52
49.4759	1581.20
49.4904	1486.33
49.5048	1434.12
49.5193	1376.36
49.5337	1365.54
49.5481	1272.19
49.5626	1131.21
49.5770	1066.49
49.5915	999.38
49.6059	959.37
49.6203	899.44
49.6348	857.71
49.6492	773.32
49.6637	733.84
49.6781	680.97
49.6925	677.63
49.7070	669.73
49.7214	646.54
49.7359	645.37
49.7503	611.10
49.7647	596.16
49.7792	608.86
49.7936	609.43
49.8081	619.81
49.8225	573.61
49.8369	561.47
49.8514	579.04
49.8658	568.56
49.8803	563.81
49.8947	558.64
49.9091	558.46
49.9236	564.67
49.9380	551.56
49.9525	512.41
49.9669	486.90
49.9813	510.83
49.9958	509.87
50.0102	521.87
50.0247	539.01
50.0391	507.01
50.0535	544.87
50.0680	545.01
50.0824	533.65
50.0969	538.71
50.1113	530.70
50.1257	568.42
50.1402	550.84
50.1546	491.69
50.1691	496.01
50.1835	487.94
50.1979	514.55
50.2124	487.51
50.2268	506.87
50.2413	523.20
50.2557	507.53
50.2701	519.41
50.2846	530.49
50.2990	538.22
50.3135	506.11
50.3279	504.16
50.3423	488.13
50.3568	517.49
50.3712	533.28
50.3857	509.35
50.4001	522.13
50.4145	504.79
50.4290	537.18
50.4434	517.37
50.4579	505.89
50.4723	490.46
50.4867	480.43
50.5012	543.90
50.5156	521.03
50.5301	528.24
50.5445	505.60
50.5589	512.09
50.5734	497.93
50.5878	509.91
50.6023	499.85
50.6167	511.46
50.6311	514.07
50.6456	515.79
50.6600	545.79
50.6745	498.61
50.6889	484.26
50.7033	511.87
50.7178	511.26
50.7322	523.72
50.7467	504.35
50.7611	511.85
50.7755	528.18
50.7900	510.24
50.8044	492.32
50.8189	522.22
50.8333	498.14
50.8477	528.20
50.8622	508.98
50.8766	511.70
50.8911	499.92
50.9055	539.54
50.9199	522.08
50.9344	519.64
50.9488	516.39
50.9633	521.50
50.9777	502.94
50.9921	494.46
51.0066	491.25
51.0210	489.38
51.0355	501.95
51.0499	510.68
51.0643	538.31
51.0788	533.47
51.0932	541.14
51.1077	532.50
51.1221	531.26
51.1365	501.32
51.1510	492.66
51.1654	491.92
51.1799	495.49
51.1943	486.82
51.2087	502.96
51.2232	497.12
51.2376	506.06
51.2521	488.32
51.2665	508.68
51.2809	495.77
51.2954	476.08
51.3098	489.92
51.3243	492.31
51.3387	496.80
51.3531	500.58
51.3676	520.96
51.3820	497.19
51.3965	492.01
51.4109	493.09
51.4253	538.33
51.4398	528.46
51.4542	515.14
51.4687	540.96
51.4831	544.55
51.4975	536.04
51.5120	526.42
51.5264	491.08
51.5409	508.24
51.5553	503.53
51.5697	478.06
51.5842	489.82
51.5986	497.38
51.6131	506.18
51.6275	512.73
51.6419	504.56
51.6564	494.98
51.6708	530.31
51.6853	509.67
51.6997	482.50
51.7141	522.49
51.7286	535.94
51.7430	505.40
51.7575	501.47
51.7719	494.49
51.7863	517.34
51.8008	506.30
51.8152	509.99
51.8297	486.32
51.8441	458.08
51.8585	501.88
51.8730	519.98
51.8874	493.90
51.9019	527.62
51.9163	531.75
51.9307	539.27
51.9452	524.04
51.9596	513.01
51.9741	524.39
51.9885	489.22
52.0029	510.99
52.0174	510.54
52.0318	551.90
52.0463	569.05
52.0607	512.40
52.0751	511.33
52.0896	501.63
52.1040	490.29
52.1185	501.39
52.1329	486.40
52.1473	509.81
52.1618	532.46
52.1762	515.49
52.1907	489.26
52.2051	512.61
52.2195	554.53
52.2340	510.57
52.2484	513.78
52.2629	501.22
52.2773	507.27
52.2917	493.10
52.3062	503.95
52.3206	504.48
52.3351	482.44
52.3495	491.49
52.3639	520.06
52.3784	513.58
52.3928	511.86
52.4073	489.28
52.4217	504.98
52.4361	514.34
52.4506	504.46
52.4650	536.80
52.4795	505.90
52.4939	495.75
52.5083	495.50
52.5228	502.08
52.5372	519.43
52.5517	504.15
52.5661	548.95
52.5805	549.59
52.5950	492.68
52.6094	510.99
52.6239	490.94
52.6383	491.16
52.6527	501.55
52.6672	473.57
52.6816	494.73
52.6961	538.33
52.7105	521.32
52.7250	509.91
52.7394	490.99
52.7538	512.83
52.7683	499.92
52.7827	547.73
52.7972	500.79
52.8116	520.04
52.8260	531.87
52.8405	512.72
52.8549	483.91
52.8694	512.10
52.8838	509.02
52.8982	530.22
52.9127	538.84
52.9271	540.33
52.9416	529.19
52.9560	503.55
52.9704	493.61
52.9849	496.52
52.9993	496.59
53.0138	523.45
53.0282	523.39
53.0426	518.57
53.0571	501.48
53.0715	495.83
53.0860	525.39
53.1004	494.26
53.1148	549.76
53.1293	546.64
53.1437	500.76
53.1582	507.04
53.1726	527.06
53.1870	496.99
53.2015	484.30
53.2159	485.85
53.2304	489.46
53.2448	515.37
53.2592	495.54
53.2737	505.69
53.2881	540.71
53.3026	533.05
53.3170	486.25
53.3314	486.96
53.3459	515.99
53.3603	479.16
53.3748	500.10
53.3892	469.94
53.4036	498.17
53.4181	519.08
53.4325	547.87
53.4470	509.49
53.4614	543.08
53.4758	519.50
53.4903	534.00
53.5047	523.70
53.5192	490.26
53.5336	506.70
53.5480	525.03
53.5625	520.43
53.5769	526.46
53.5914	531.77
53.6058	527.25
53.6202	496.88
53.6347	517.48
53.6491	509.34
53.6636	495.38
53.6780	489.41
53.6924	525.62
53.7069	523.41
53.7213	517.23
53.7358	503.88
53.7502	516.01
53.7646	519.74
53.7791	531.97
53.7935	523.92
53.8080	541.90
53.8224	511.49
53.8368	494.46
53.8513	503.20
53.8657	538.73
53.8802	528.35
53.8946	506.65
53.9090	534.03
53.9235	516.10
53.9379	542.65
53.9524	540.93
53.9668	519.79
53.9812	492.29
53.9957	502.94
54.0101	499.10
54.0246	519.18
54.0390	540.92
54.0534	502.46
54.0679	519.41
54.0823	507.06
54.0968	502.20
54.1112	533.80
54.1256	513.35
54.1401	515.92
54.1545	497.07
54.1690	497.17
54.1834	529.87
54.1978	496.26
54.2123	534.88
54.2267	532.01
54.2412	551.00
54.2556	553.08
54.2700	553.00
54.2845	562.77
54.2989	520.14
54.3134	523.03
54.3278	543.66
54.3422	541.13
54.3567	534.67
54.3711	547.61
54.3856	542.39
54.4000	490.34
54.4144	518.36
54.4289	555.08
54.4433	565.79
54.4578	551.53
54.4722	583.31
54.4866	574.53
54.5011	575.75
54.5155	556.56
54.5300	605.48
54.5444	599.80
54.5588	563.12
54.5733	537.57
54.5877	548.55
54.6022	562.64
54.6166	575.21
54.6310	555.81
54.6455	564.03
54.6599	568.28
54.6744	568.60
54.6888	576.29
54.7032	560.81
54.7177	602.77
54.7321	587.46
54.7466	561.15
54.7610	566.10
54.7754	561.53
54.7899	560.80
54.8043	562.45
54.8188	553.04
54.8332	551.36
54.8476	534.20
54.8621	561.40
54.8765	547.11
54.8910	537.36
54.9054	537.99
54.9198	529.70
54.9343	525.01
54.9487	532.46
54.9632	555.99
54.9776	533.61
54.9920	517.57
55.0065	520.73
55.0209	534.08
55.0354	529.15
55.0498	476.34
55.0642	481.68
55.0787	527.14
55.0931	565.06
55.1076	572.92
55.1220	554.19
55.1364	507.37
55.1509	471.86
55.1653	495.28
55.1798	484.73
55.1942	482.88
55.2086	522.25
55.2231	501.84
55.2375	501.18
55.2520	511.91
55.2664	525.05
55.2808	554.36
55.2953	518.42
55.3097	503.65
55.3242	531.01
55.3386	485.87
55.3530	497.45
55.3675	536.99
55.3819	514.61
55.3964	528.54
55.4108	517.66
55.4252	523.20
55.4397	520.96
55.4541	526.48
55.4686	519.72
55.4830	529.37
55.4974	526.47
55.5119	538.04
55.5263	519.35
55.5408	510.17
55.5552	507.82
55.5696	531.45
55.5841	550.10
55.5985	515.21
55.6130	505.41
55.6274	551.26
55.6418	564.18
55.6563	539.50
55.6707	529.61
55.6852	521.16
55.6996	555.85
55.7140	568.73
55.7285	510.21
55.7429	528.76
55.7574	531.43
55.7718	513.37
55.7862	538.73
55.8007	539.59
55.8151	545.12
55.8296	508.63
55.8440	544.90
55.8584	553.23
55.8729	521.43
55.8873	512.60
55.9018	567.21
55.9162	532.88
55.9306	527.46
55.9451	530.07
55.9595	534.80
55.9740	504.55
55.9884	542.10
56.0028	548.56
56.0173	589.67
56.0317	534.57
56.0462	526.44
56.0606	541.30
56.0750	495.46
56.0895	537.74
56.1039	515.25
56.1184	522.89
56.1328	528.20
56.1472	513.75
56.1617	501.49
56.1761	523.66
56.1906	509.75
56.2050	496.04
56.2194	488.67
56.2339	550.47
56.2483	523.36
56.2628	519.49
56.2772	512.80
56.2916	559.02
56.3061	528.29
56.3205	521.77
56.3350	554.62
56.3494	510.70
56.3639	519.12
56.3783	524.06
56.3927	492.64
56.4072	521.77
56.4216	533.84
56.4361	544.35
56.4505	498.98
56.4649	534.56
56.4794	512.81
56.4938	494.18
56.5083	499.40
56.5227	523.47
56.5371	541.85
56.5516	554.20
56.5660	515.98
56.5805	509.08
56.5949	535.84
56.6093	508.52
56.6238	526.00
56.6382	552.29
56.6527	493.86
56.6671	492.80
56.6815	511.17
56.6960	515.60
56.7104	545.83
56.7249	536.23
56.7393	475.40
56.7537	531.39
56.7682	523.88
56.7826	521.50
56.7971	501.22
56.8115	547.29
56.8259	513.71
56.8404	517.07
56.8548	536.10
56.8693	497.23
56.8837	498.63
56.8981	505.53
56.9126	516.13
56.9270	505.33
56.9415	548.31
56.9559	514.68
56.9703	515.11
56.9848	560.49
56.9992	516.82
57.0137	521.73
57.0281	501.11
57.0425	520.28
57.0570	556.14
57.0714	505.34
57.0859	538.91
57.1003	528.29
57.1147	530.56
57.1292	530.81
57.1436	526.48
57.1581	546.27
57.1725	481.26
57.1869	499.35
57.2014	518.83
57.2158	547.32
57.2303	538.24
57.2447	521.66
57.2591	528.92
57.2736	551.51
57.2880	523.64
57.3025	528.99
57.3169	513.30
57.3313	525.44
57.3458	508.37
57.3602	548.63
57.3747	510.31
57.3891	495.27
57.4035	470.23
57.4180	455.77
57.4324	494.74
57.4469	500.20
57.4613	518.43
57.4757	538.07
57.4902	520.91
57.5046	527.84
57.5191	537.29
57.5335	499.89
57.5479	504.57
57.5624	503.36
57.5768	537.69
57.5913	516.74
57.6057	463.88
57.6201	528.50
57.6346	529.59
57.6490	501.21
57.6635	529.63
57.6779	547.17
57.6923	516.78
57.7068	575.15
57.7212	516.58
57.7357	544.17
57.7501	544.97
57.7645	507.22
57.7790	496.04
57.7934	528.64
57.8079	551.11
57.8223	575.21
57.8367	547.80
57.8512	505.19
57.8656	548.77
57.8801	558.35
57.8945	539.06
57.9089	524.05
57.9234	510.46
57.9378	545.13
57.9523	542.15
57.9667	528.29
57.9811	529.00
57.9956	605.51
58.0100	542.41
58.0245	530.26
58.0389	538.17
58.0533	578.79
58.0678	573.76
58.0822	599.76
58.0967	564.03
58.1111	581.48
58.1255	607.89
58.1400	585.91
58.1544	605.20
58.1689	618.94
58.1833	640.21
58.1977	633.48
58.2122	651.11
58.2266	680.88
58.2411	660.39
58.2555	677.20
58.2699	648.34
58.2844	670.84
58.2988	635.00
58.3133	677.34
58.3277	649.25
58.3421	668.46
58.3566	652.55
58.3710	610.38
58.3855	598.27
58.3999	591.10
58.4143	634.21
58.4288	654.93
58.4432	593.87
58.4577	571.09
58.4721	597.10
58.4865	599.75
58.5010	599.35
58.5154	614.17
58.5299	591.07
58.5443	576.42
58.5587	577.29
58.5732	554.92
58.5876	546.28
58.6021	565.96
58.6165	567.87
58.6309	567.08
58.6454	535.32
58.6598	527.38
58.6743	547.66
58.6887	520.07
58.7031	534.99
58.7176	526.06
58.7320	526.30
58.7465	576.62
58.7609	542.24
58.7753	527.92
58.7898	544.29
58.8042	576.71
58.8187	560.04
58.8331	558.81
58.8475	533.80
58.8620	559.18
58.8764	561.91
58.8909	577.34
58.9053	567.41
58.9197	556.32
58.9342	590.80
58.9486	557.30
58.9631	514.50
58.9775	531.71
58.9919	558.49
59.0064	578.79
59.0208	565.84
59.0353	556.33
59.0497	525.99
59.0641	567.38
59.0786	533.45
59.0930	525.13
59.1075	519.19
59.1219	541.10
59.1363	524.15
59.1508	502.61
59.1652	535.59
59.1797	548.25
59.1941	539.41
59.2085	523.89
59.2230	545.12
59.2374	535.89
59.2519	546.85
59.2663	534.77
59.2807	553.97
59.2952	547.36
59.3096	571.02
59.3241	591.17
59.3385	581.69
59.3529	549.85
59.3674	569.25
59.3818	556.57
59.3963	550.86
59.4107	527.36
59.4251	587.50
59.4396	570.24
59.4540	523.23
59.4685	562.30
59.4829	575.80
59.4973	562.30
59.5118	565.00
59.5262	574.23
59.5407	569.89
59.5551	553.64
59.5695	546.00
59.5840	540.04
59.5984	558.41
59.6129	508.00
59.6273	539.40
59.6417	574.96
59.6562	548.33
59.6706	529.97
59.6851	534.91
59.6995	538.72
59.7139	547.97
59.7284	556.92
59.7428	554.67
59.7573	578.58
59.7717	532.79
59.7861	580.28
59.8006	542.69
59.8150	531.46
59.8295	529.32
59.8439	535.18
59.8583	564.84
59.8728	574.11
59.8872	532.79
59.9017	539.72
59.9161	511.70
59.9305	502.35
59.9450	539.00
59.9594	510.28
59.9739	533.14
59.9883	549.00
60.0027	538.72
60.0172	549.79
60.0316	542.24
60.0461	551.59
60.0605	546.29
60.0750	538.32
60.0894	563.22
60.1038	566.54
60.1183	550.22
60.1327	571.48
60.1472	484.42
60.1616	513.27
60.1760	568.00
60.1905	521.14
60.2049	527.10
60.2194	555.88
60.2338	519.89
60.2482	542.08
60.2627	518.82
60.2771	525.98
60.2916	533.40
60.3060	554.30
60.3204	539.14
60.3349	517.22
60.3493	519.99
60.3638	503.72
60.3782	524.62
60.3926	549.78
60.4071	538.10
60.4215	528.00
60.4360	532.56
60.4504	525.29
60.4648	538.54
60.4793	545.52
60.4937	516.76
60.5082	530.33
60.5226	569.60
60.5370	559.35
60.5515	528.90
60.5659	505.90
60.5804	551.48
60.5948	571.96
60.6092	542.29
60.6237	517.38
60.6381	530.60
60.6526	518.08
60.6670	509.96
60.6814	500.99
60.6959	503.04
60.7103	575.73
60.7248	557.00
60.7392	535.24
60.7536	541.91
60.7681	533.62
60.7825	540.61
60.7970	524.59
60.8114	567.88
60.8258	561.35
60.8403	569.25
60.8547	538.45
60.8692	558.81
60.8836	551.44
60.8980	559.84
60.9125	553.54
60.9269	529.18
60.9414	551.14
60.9558	509.67
60.9702	525.47
60.9847	519.18
60.9991	517.96
61.0136	518.18
61.0280	560.24
61.0424	558.52
61.0569	523.26
61.0713	512.63
61.0858	593.37
61.1002	605.71
61.1146	558.71
61.1291	553.88
61.1435	510.65
61.1580	537.56
61.1724	553.96
61.1868	542.59
61.2013	557.07
61.2157	560.55
61.2302	535.58
61.2446	548.37
61.2590	541.49
61.2735	530.50
61.2879	541.15
61.3024	568.42
61.3168	526.81
61.3312	547.36
61.3457	537.24
61.3601	534.42
61.3746	534.34
61.3890	507.05
61.4034	535.87
61.4179	562.97
61.4323	578.76
61.4468	538.95
61.4612	547.06
61.4756	559.30
61.4901	574.80
61.5045	550.93
61.5190	518.20
61.5334	551.99
61.5478	572.36
61.5623	531.24
61.5767	549.43
61.5912	534.20
61.6056	543.54
61.6200	556.39
61.6345	531.92
61.6489	559.43
61.6634	563.82
61.6778	513.11
61.6922	522.46
61.7067	568.13
61.7211	592.27
61.7356	565.28
61.7500	567.71
61.7644	556.05
61.7789	545.73
61.7933	536.86
61.8078	574.10
61.8222	568.95
61.8366	540.57
61.8511	555.31
61.8655	572.21
61.8800	529.92
61.8944	587.52
61.9088	574.12
61.9233	555.60
61.9377	567.93
61.9522	564.54
61.9666	543.64
61.9810	544.22
61.9955	519.56
62.0099	520.29
62.0244	544.74
62.0388	534.19
62.0532	504.82
62.0677	553.17
62.0821	575.95
62.0966	589.86
62.1110	554.85
62.1254	543.48
62.1399	532.13
62.1543	538.89
62.1688	571.30
62.1832	553.03
62.1976	534.42
62.2121	536.96
62.2265	520.97
62.2410	566.56
62.2554	571.47
62.2698	552.06
62.2843	583.19
62.2987	567.36
62.3132	576.27
62.3276	581.60
62.3420	545.94
62.3565	519.43
62.3709	530.36
62.3854	553.14
62.3998	526.69
62.4142	541.73
62.4287	566.71
62.4431	527.50
62.4576	549.05
62.4720	534.01
62.4864	580.13
62.5009	559.72
62.5153	539.53
62.5298	532.14
62.5442	549.85
62.5586	556.43
62.5731	539.41
62.5875	525.05
62.6020	547.30
62.6164	555.95
62.6308	548.93
62.6453	527.87
62.6597	518.76
62.6742	544.31
62.6886	494.15
62.7030	510.91
62.7175	556.31
62.7319	577.48
62.7464	574.39
62.7608	556.51
62.7752	570.29
62.7897	583.73
62.8041	568.71
62.8186	564.25
62.8330	567.77
62.8474	537.83
62.8619	576.60
62.8763	576.18
62.8908	528.25
62.9052	552.21
62.9196	569.10
62.9341	539.18
62.9485	552.32
62.9630	553.66
62.9774	545.92
62.9918	600.74
63.0063	582.16
63.0207	593.04
63.0352	586.22
63.0496	563.94
63.0640	521.07
63.0785	529.29
63.0929	591.34
63.1074	581.32
63.1218	552.37
63.1362	542.23
63.1507	538.97
63.1651	554.13
63.1796	546.46
63.1940	541.55
63.2084	582.65
63.2229	599.93
63.2373	591.87
63.2518	587.96
63.2662	569.64
63.2806	540.32
63.2951	581.46
63.3095	568.04
63.3240	553.34
63.3384	528.91
63.3528	573.83
63.3673	585.52
63.3817	585.53
63.3962	569.22
63.4106	588.81
63.4250	589.11
63.4395	597.79
63.4539	567.95
63.4684	584.57
63.4828	567.26
63.4972	597.30
63.5117	578.53
63.5261	602.98
63.5406	580.37
63.5550	614.75
63.5694	578.09
63.5839	587.18
63.5983	588.37
63.6128	616.57
63.6272	583.41
63.6416	591.08
63.6561	599.33
63.6705	609.16
63.6850	619.14
63.6994	607.94
63.7138	619.66
63.7283	601.38
63.7427	645.83
63.7572	639.87
63.7716	667.26
63.7861	643.13
63.8005	654.53
63.8149	696.30
63.8294	722.53
63.8438	724.27
63.8583	748.07
63.8727	692.30
63.8871	703.00
63.9016	766.18
63.9160	798.08
63.9305	776.28
63.9449	765.84
63.9593	775.58
63.9738	790.12
63.9882	812.03
64.0027	787.69
64.0171	784.68
64.0315	799.79
64.0460	783.72
64.0604	757.65
64.0749	783.85
64.0893	827.47
64.1037	734.99
64.1182	732.48
64.1326	781.77
64.1471	734.70
64.1615	728.45
64.1759	708.03
64.1904	717.85
64.2048	660.96
64.2193	683.04
64.2337	703.13
64.2481	707.21
64.2626	713.21
64.2770	691.12
64.2915	666.60
64.3059	646.68
64.3203	653.70
64.3348	652.19
64.3492	628.79
64.3637	637.45
64.3781	618.46
64.3925	596.02
64.4070	590.49
64.4214	674.46
64.4359	668.57
64.4503	617.42
64.4647	614.49
64.4792	605.23
64.4936	646.75
64.5081	644.84
64.5225	661.12
64.5369	625.02
64.5514	641.22
64.5658	709.44
64.5803	643.36
64.5947	585.59
64.6091	670.10
64.6236	664.97
64.6380	681.13
64.6525	621.27
64.6669	687.61
64.6813	699.50
64.6958	659.14
64.7102	697.19
64.7247	686.49
64.7391	726.84
64.7535	717.02
64.7680	686.51
64.7824	701.35
64.7969	733.75
64.8113	748.04
64.8257	784.79
64.8402	775.09
64.8546	787.01
64.8691	825.25
64.8835	774.58
64.8979	805.58
64.9124	851.75
64.9268	913.96
64.9413	946.98
64.9557	969.89
64.9701	1007.02
64.9846	1089.85
64.9990	1132.60
65.0135	1230.70
65.0279	1393.48
65.0423	1661.63
65.0568	1984.46
65.0712	2534.53
65.0857	3275.72
65.1001	4273.43
65.1145	5811.62
65.1290	7409.59
65.1434	9002.44
65.1579	10772.39
65.1723	11612.24
65.1867	11316.37
65.2012	10166.68
65.2156	8435.89
65.2301	6817.92
65.2445	5465.74
65.2589	4492.53
65.2734	4108.22
65.2878	4261.42
65.3023	4734.13
65.3167	5561.83
65.3311	6350.17
65.3456	6791.37
65.3600	6899.39
65.3745	6456.70
65.3889	5586.72
65.4033	4483.34
65.4178	3604.52
65.4322	2777.12
65.4467	2078.55
65.4611	1794.55
65.4755	1461.80
65.4900	1289.21
65.5044	1135.10
65.5189	1094.69
65.5333	1003.22
65.5477	983.20
65.5622	884.87
65.5766	843.20
65.5911	814.67
65.6055	795.15
65.6199	730.50
65.6344	762.52
65.6488	758.79
65.6633	749.88
65.6777	713.10
65.6921	691.62
65.7066	700.15
65.7210	710.96
65.7355	702.87
65.7499	753.12
65.7643	700.49
65.7788	674.32
65.7932	670.03
65.8077	691.10
65.8221	672.72
65.8365	689.11
65.8510	654.55
65.8654	705.98
65.8799	665.44
65.8943	639.85
65.9087	644.67
65.9232	633.74
65.9376	657.31
65.9521	614.84
65.9665	624.64
65.9809	630.26
65.9954	638.67
66.0098	647.19
66.0243	652.10
66.0387	634.79
66.0531	630.26
66.0676	643.69
66.0820	669.04
66.0965	610.42
66.1109	634.00
66.1253	645.76
66.1398	634.67
66.1542	618.95
66.1687	650.38
66.1831	628.17
66.1975	603.47
66.2120	607.70
66.2264	589.28
66.2409	616.17
66.2553	637.57
66.2697	637.93
66.2842	613.32
66.2986	591.96
66.3131	586.81
66.3275	610.81
66.3419	593.23
66.3564	596.45
66.3708	612.71
66.3853	614.83
66.3997	567.51
66.4141	602.50
66.4286	628.51
66.4430	611.21
66.4575	578.45
66.4719	610.24
66.4863	603.96
66.5008	597.34
66.5152	600.43
66.5297	621.21
66.5441	608.76
66.5585	583.47
66.5730	579.02
66.5874	573.72
66.6019	564.55
66.6163	581.36
66.6307	599.68
66.6452	584.79
66.6596	594.52
66.6741	574.89
66.6885	603.24
66.7029	603.03
66.7174	579.54
66.7318	548.93
66.7463	588.59
66.7607	577.56
66.7751	612.59
66.7896	600.13
66.8040	574.88
66.8185	585.99
66.8329	580.17
66.8473	592.83
66.8618	624.25
66.8762	582.52
66.8907	539.96
66.9051	592.75
66.9195	573.73
66.9340	584.20
66.9484	585.06
66.9629	569.90
66.9773	551.17
66.9917	582.29
67.0062	587.54
67.0206	558.64
67.0351	596.79
67.0495	585.39
67.0639	588.79
67.0784	580.78
67.0928	597.42
67.1073	558.39
67.1217	570.14
67.1361	563.02
67.1506	545.86
67.1650	584.19
67.1795	581.81
67.1939	569.82
67.2083	553.08
67.2228	575.93
67.2372	580.69
67.2517	593.72
67.2661	578.64
67.2805	592.99
67.2950	561.98
67.3094	551.48
67.3239	595.23
67.3383	609.43
67.3527	594.99
67.3672	565.71
67.3816	551.38
67.3961	583.22
67.4105	571.46
67.4250	599.29
67.4394	616.97
67.4538	567.01
67.4683	595.61
67.4827	615.06
67.4972	608.96
67.5116	583.08
67.5260	572.12
67.5405	592.51
67.5549	545.94
67.5694	595.01
67.5838	596.51
67.5982	574.94
67.6127	583.45
67.6271	559.72
67.6416	588.33
67.6560	594.75
67.6704	579.61
67.6849	581.95
67.6993	568.21
67.7138	561.56
67.7282	561.22
67.7426	571.29
67.7571	576.42
67.7715	595.34
67.7860	605.64
67.8004	596.40
67.8148	584.60
67.8293	606.00
67.8437	567.09
67.8582	540.39
67.8726	582.73
67.8870	559.93
67.9015	570.15
67.9159	553.24
67.9304	569.24
67.9448	552.99
67.9592	600.65
67.9737	597.53
67.9881	558.54
68.0026	563.33
68.0170	566.20
68.0314	584.95
68.0459	580.63
68.0603	634.21
68.0748	591.85
68.0892	587.81
68.1036	593.01
68.1181	583.32
68.1325	585.18
68.1470	575.44
68.1614	582.04
68.1758	589.62
68.1903	602.20
68.2047	561.68
68.2192	576.69
68.2336	625.04
68.2480	569.73
68.2625	551.27
68.2769	597.43
68.2914	563.24
68.3058	542.94
68.3202	558.32
68.3347	582.16
68.3491	574.68
68.3636	565.43
68.3780	595.13
68.3924	551.17
68.4069	570.64
68.4213	572.19
68.4358	545.18
68.4502	509.10
68.4646	548.22
68.4791	557.25
68.4935	594.54
68.5080	544.59
68.5224	559.59
68.5368	591.17
68.5513	536.90
68.5657	573.71
68.5802	543.49
68.5946	587.94
68.6090	605.65
68.6235	568.20
68.6379	562.96
68.6524	516.13
68.6668	577.70
68.6812	547.89
68.6957	563.22
68.7101	580.20
68.7246	562.50
68.7390	582.14
68.7534	618.68
68.7679	583.04
68.7823	589.10
68.7968	572.08
68.8112	617.78
68.8256	620.62
68.8401	574.31
68.8545	579.40
68.8690	550.74
68.8834	527.44
68.8978	615.35
68.9123	630.62
68.9267	589.42
68.9412	587.54
68.9556	589.96
68.9700	571.33
68.9845	574.83
68.9989	513.92
69.0134	573.44
69.0278	564.02
69.0422	566.21
69.0567	538.14
69.0711	567.46
69.0856	603.01
69.1000	603.94
69.1144	615.12
69.1289	608.22
69.1433	537.21
69.1578	590.76
69.1722	582.57
69.1866	558.32
69.2011	552.77
69.2155	620.92
69.2300	531.01
69.2444	580.56
69.2588	594.95
69.2733	594.68
69.2877	588.65
69.3022	557.70
69.3166	548.37
69.3310	600.75
69.3455	584.80
69.3599	600.47
69.3744	582.82
69.3888	552.34
69.4032	560.36
69.4177	550.31
69.4321	617.23
69.4466	575.68
69.4610	548.06
69.4754	569.30
69.4899	602.14
69.5043	579.93
69.5188	582.09
69.5332	596.02
69.5476	559.12
69.5621	577.04
69.5765	577.07
69.5910	583.95
69.6054	609.25
69.6198	570.89
69.6343	593.71
69.6487	539.16
69.6632	582.83
69.6776	568.35
69.6920	519.83
69.7065	537.69
69.7209	585.23
69.7354	592.02
69.7498	557.07
69.7642	567.85
69.7787	565.22
69.7931	566.69
69.8076	601.75
69.8220	547.24
69.8364	555.72
69.8509	591.68
69.8653	574.30
69.8798	578.47
69.8942	597.63
69.9086	606.75
69.9231	627.46
69.9375	581.97
69.9520	626.33
69.9664	611.98
69.9808	590.27
69.9953	587.97
70.0097	571.15
70.0242	620.56
70.0386	547.72
70.0530	574.09
70.0675	584.18
70.0819	595.31
70.0964	587.07
70.1108	551.15
70.1252	584.42
70.1397	541.09
70.1541	543.45
70.1686	581.28
70.1830	634.84
70.1974	567.98
70.2119	558.46
70.2263	501.44
70.2408	530.58
70.2552	568.96
70.2696	582.03
70.2841	513.91
70.2985	569.76
70.3130	604.96
70.3274	590.93
70.3418	586.58
70.3563	574.55
70.3707	575.17
70.3852	571.13
70.3996	568.30
70.4140	537.60
70.4285	563.38
70.4429	551.00
70.4574	556.41
70.4718	655.64
70.4862	609.76
70.5007	552.11
70.5151	605.39
70.5296	598.13
70.5440	609.49
70.5584	632.30
70.5729	593.00
70.5873	523.27
70.6018	532.13
70.6162	571.42
70.6306	629.16
70.6451	569.73
70.6595	555.19
70.6740	537.36
70.6884	530.37
70.7028	557.59
70.7173	576.41
70.7317	595.59
70.7462	567.21
70.7606	535.92
70.7750	583.36
70.7895	548.84
70.8039	571.28
70.8184	579.59
70.8328	601.84
70.8472	560.51
70.8617	561.98
70.8761	599.15
70.8906	588.88
70.9050	585.69
70.9194	587.65
70.9339	635.44
70.9483	624.30
70.9628	594.78
70.9772	572.74
70.9916	530.26
71.0061	572.85
71.0205	570.07
71.0350	536.09
71.0494	569.45
71.0638	596.20
71.0783	619.40
71.0927	603.73
71.1072	576.85
71.1216	562.64
71.1361	593.16
71.1505	599.12
71.1649	551.66
71.1794	586.01
71.1938	603.77
71.2083	577.14
71.2227	597.85
71.2371	567.78
71.2516	540.56
71.2660	546.37
71.2805	546.32
71.2949	527.39
71.3093	501.90
71.3238	537.42
71.3382	574.20
71.3527	558.22
71.3671	614.09
71.3815	590.58
71.3960	520.89
71.4104	550.87
71.4249	636.95
71.4393	607.21
71.4537	556.13
71.4682	552.93
71.4826	554.37
71.4971	522.33
71.5115	548.89
71.5259	574.73
71.5404	579.86
71.5548	615.08
71.5693	606.80
71.5837	498.24
71.5981	506.57
71.6126	590.98
71.6270	573.60
71.6415	568.26
71.6559	597.95
71.6703	642.96
71.6848	643.86
71.6992	600.31
71.7137	558.49
71.7281	565.86
71.7425	564.27
71.7570	534.98
71.7714	611.24
71.7859	593.07
71.8003	614.29
71.8147	595.48
71.8292	590.32
71.8436	586.73
71.8581	600.82
71.8725	637.79
71.8869	515.36
71.9014	516.72
71.9158	615.12
71.9303	639.66
71.9447	578.95
71.9591	615.89
71.9736	605.76
71.9880	486.41
72.0025	518.42
72.0169	542.22
72.0313	606.13
72.0458	663.90
72.0602	612.30
72.0747	564.46
72.0891	572.46
72.1035	558.31
72.1180	506.98
72.1324	512.44
72.1469	582.27
72.1613	621.82
72.1757	608.82
72.1902	566.62
72.2046	538.86
72.2191	620.12
72.2335	527.19
72.2479	505.11
72.2624	533.31
72.2768	568.36
72.2913	553.68
72.3057	570.85
72.3201	635.98
72.3346	627.86
72.3490	606.90
72.3635	586.59
72.3779	603.13
72.3923	636.29
72.4068	623.93
72.4212	572.47
72.4357	570.91
72.4501	565.19
72.4645	566.90
72.4790	591.42
72.4934	544.44
72.5079	568.06
72.5223	539.10
72.5367	532.90
72.5512	577.63
72.5656	600.43
72.5801	557.10
72.5945	460.79
72.6089	482.90
72.6234	570.42
72.6378	570.60
72.6523	564.50
72.6667	531.25
72.6811	538.60
72.6956	595.03
72.7100	606.91
72.7245	574.01
72.7389	620.57
72.7533	634.20
72.7678	590.39
72.7822	595.37
72.7967	567.20
72.8111	585.53
72.8255	590.00
72.8400	560.80
72.8544	560.88
72.8689	608.30
72.8833	574.59