2022.09.19 19:37:17
Îáðàçåö: ß÷åéêà LCoV 16-09-2022
Lambda1 = 1.54060
Lambda2 = 1.54439
Lambdam = 1.54186
R = 0.497
2Theta	I

line¹ 0 ;repeat¹ 0
22.1120	564.94
22.1264	623.46
22.1409	553.85
22.1553	471.03
22.1697	564.02
22.1842	503.81
22.1986	498.00
22.2131	589.66
22.2275	584.29
22.2419	552.48
22.2564	564.73
22.2708	565.92
22.2853	594.63
22.2997	606.24
22.3141	673.54
22.3286	576.23
22.3430	592.81
22.3575	660.56
22.3719	640.69
22.3863	647.88
22.4008	529.80
22.4152	492.34
22.4297	619.55
22.4441	559.76
22.4585	562.45
22.4730	565.43
22.4874	690.17
22.5019	573.36
22.5163	465.27
22.5307	585.77
22.5452	604.69
22.5596	585.74
22.5741	641.17
22.5885	699.46
22.6029	641.67
22.6174	592.64
22.6318	588.47
22.6463	542.65
22.6607	556.78
22.6751	512.84
22.6896	585.34
22.7040	587.63
22.7185	547.40
22.7329	556.27
22.7473	622.58
22.7618	513.83
22.7762	564.91
22.7907	555.04
22.8051	550.37
22.8195	522.09
22.8340	557.93
22.8484	573.64
22.8629	575.15
22.8773	602.48
22.8917	619.62
22.9062	588.03
22.9206	595.27
22.9351	544.95
22.9495	516.22
22.9639	513.01
22.9784	548.15
22.9928	502.78
23.0073	579.01
23.0217	605.91
23.0361	555.88
23.0506	612.16
23.0650	596.98
23.0795	486.42
23.0939	541.15
23.1083	514.08
23.1228	594.23
23.1372	576.12
23.1517	492.50
23.1661	547.55
23.1806	520.54
23.1950	571.64
23.2094	519.46
23.2239	572.17
23.2383	488.53
23.2528	550.08
23.2672	574.90
23.2816	641.56
23.2961	564.84
23.3105	540.20
23.3250	552.18
23.3394	652.94
23.3538	564.47
23.3683	544.40
23.3827	522.15
23.3972	491.76
23.4116	566.79
23.4260	550.92
23.4405	516.29
23.4549	553.67
23.4694	593.58
23.4838	634.82
23.4982	626.25
23.5127	552.50
23.5271	538.28
23.5416	530.94
23.5560	554.73
23.5704	565.54
23.5849	564.35
23.5993	573.61
23.6138	497.86
23.6282	538.05
23.6426	621.72
23.6571	590.26
23.6715	502.64
23.6860	576.73
23.7004	538.18
23.7148	537.28
23.7293	474.97
23.7437	553.53
23.7582	579.58
23.7726	544.05
23.7870	559.67
23.8015	537.84
23.8159	568.94
23.8304	587.84
23.8448	492.33
23.8592	548.14
23.8737	598.88
23.8881	551.32
23.9026	536.88
23.9170	526.74
23.9314	548.28
23.9459	587.83
23.9603	549.41
23.9748	545.95
23.9892	514.89
24.0036	525.16
24.0181	567.68
24.0325	535.73
24.0470	569.28
24.0614	571.80
24.0758	556.77
24.0903	606.31
24.1047	539.54
24.1192	612.81
24.1336	565.49
24.1480	563.70
24.1625	602.41
24.1769	619.50
24.1914	590.06
24.2058	620.32
24.2202	571.60
24.2347	603.55
24.2491	614.48
24.2636	571.86
24.2780	554.19
24.2924	525.03
24.3069	547.49
24.3213	635.80
24.3358	593.34
24.3502	549.24
24.3646	562.28
24.3791	542.80
24.3935	445.28
24.4080	536.53
24.4224	547.26
24.4368	520.91
24.4513	572.31
24.4657	567.64
24.4802	492.31
24.4946	583.32
24.5090	532.60
24.5235	547.14
24.5379	504.61
24.5524	488.86
24.5668	556.52
24.5812	551.77
24.5957	561.55
24.6101	530.43
24.6246	579.95
24.6390	565.32
24.6534	566.34
24.6679	553.85
24.6823	549.08
24.6968	586.52
24.7112	583.01
24.7256	526.90
24.7401	535.70
24.7545	528.53
24.7690	517.76
24.7834	562.44
24.7978	557.79
24.8123	568.65
24.8267	519.42
24.8412	508.40
24.8556	560.89
24.8700	548.66
24.8845	521.31
24.8989	552.17
24.9134	551.33
24.9278	535.99
24.9422	519.45
24.9567	479.52
24.9711	539.81
24.9856	508.18
25.0000	519.44
25.0144	492.69
25.0289	586.66
25.0433	494.17
25.0578	489.01
25.0722	511.59
25.0866	559.46
25.1011	563.62
25.1155	602.67
25.1300	570.35
25.1444	548.80
25.1588	536.53
25.1733	560.02
25.1877	526.20
25.2022	503.24
25.2166	555.52
25.2310	580.90
25.2455	556.52
25.2599	515.00
25.2744	544.05
25.2888	558.81
25.3032	516.43
25.3177	578.03
25.3321	567.04
25.3466	508.95
25.3610	528.62
25.3754	523.17
25.3899	529.09
25.4043	512.17
25.4188	480.64
25.4332	542.19
25.4476	553.77
25.4621	527.86
25.4765	553.56
25.4910	539.58
25.5054	504.04
25.5198	504.52
25.5343	513.06
25.5487	529.25
25.5632	549.77
25.5776	502.34
25.5920	507.19
25.6065	558.81
25.6209	539.26
25.6354	520.20
25.6498	537.64
25.6642	515.99
25.6787	482.59
25.6931	520.05
25.7076	518.43
25.7220	531.96
25.7364	530.62
25.7509	543.50
25.7653	558.57
25.7798	526.77
25.7942	526.52
25.8086	517.03
25.8231	568.46
25.8375	536.13
25.8520	522.71
25.8664	548.69
25.8808	538.04
25.8953	539.43
25.9097	535.22
25.9242	548.54
25.9386	539.26
25.9530	498.10
25.9675	483.28
25.9819	509.40
25.9964	542.74
26.0108	537.90
26.0252	534.21
26.0397	538.50
26.0541	535.05
26.0686	532.36
26.0830	494.64
26.0974	490.03
26.1119	514.33
26.1263	568.30
26.1408	540.22
26.1552	510.36
26.1696	522.87
26.1841	541.52
26.1985	549.11
26.2130	543.17
26.2274	521.67
26.2418	538.04
26.2563	556.07
26.2707	567.90
26.2852	549.47
26.2996	527.65
26.3140	561.47
26.3285	565.30
26.3429	561.46
26.3574	551.73
26.3718	545.53
26.3862	526.51
26.4007	530.05
26.4151	523.23
26.4296	506.07
26.4440	510.90
26.4584	519.51
26.4729	528.34
26.4873	539.68
26.5018	538.15
26.5162	545.11
26.5306	516.29
26.5451	504.19
26.5595	517.86
26.5740	537.16
26.5884	554.31
26.6028	526.82
26.6173	541.72
26.6317	540.42
26.6462	551.82
26.6606	569.46
26.6750	523.16
26.6895	527.15
26.7039	545.34
26.7184	546.19
26.7328	512.58
26.7472	526.91
26.7617	517.05
26.7761	534.15
26.7906	515.79
26.8050	524.30
26.8194	512.24
26.8339	547.15
26.8483	521.30
26.8628	515.43
26.8772	541.11
26.8917	538.75
26.9061	527.83
26.9205	527.97
26.9350	523.18
26.9494	518.73
26.9639	511.42
26.9783	512.23
26.9927	510.69
27.0072	465.66
27.0216	504.36
27.0361	538.27
27.0505	547.63
27.0649	536.86
27.0794	534.00
27.0938	559.74
27.1083	527.44
27.1227	515.63
27.1371	501.14
27.1516	502.84
27.1660	550.73
27.1805	529.91
27.1949	506.88
27.2093	536.18
27.2238	513.31
27.2382	538.53
27.2527	497.20
27.2671	511.40
27.2815	518.66
27.2960	503.30
27.3104	483.19
27.3249	510.54
27.3393	549.58
27.3537	546.78
27.3682	489.65
27.3826	516.78
27.3971	491.04
27.4115	507.78
27.4259	546.90
27.4404	536.13
27.4548	507.56
27.4693	513.97
27.4837	515.07
27.4981	519.70
27.5126	516.13
27.5270	533.85
27.5415	517.39
27.5559	524.07
27.5703	521.22
27.5848	517.31
27.5992	523.95
27.6137	513.32
27.6281	537.14
27.6425	532.93
27.6570	507.05
27.6714	513.96
27.6859	537.94
27.7003	521.34
27.7147	506.70
27.7292	526.08
27.7436	510.11
27.7581	502.45
27.7725	505.09
27.7869	502.83
27.8014	514.22
27.8158	512.70
27.8303	520.99
27.8447	501.42
27.8591	529.80
27.8736	520.49
27.8880	503.05
27.9025	515.76
27.9169	542.77
27.9313	527.24
27.9458	511.27
27.9602	496.99
27.9747	516.81
27.9891	506.83
28.0035	495.94
28.0180	498.97
28.0324	506.39
28.0469	524.64
28.0613	525.83
28.0757	517.38
28.0902	553.20
28.1046	536.03
28.1191	535.91
28.1335	518.85
28.1479	494.47
28.1624	482.99
28.1768	525.94
28.1913	507.71
28.2057	496.84
28.2201	512.95
28.2346	512.24
28.2490	519.00
28.2635	537.41
28.2779	521.41
28.2923	523.40
28.3068	530.64
28.3212	524.95
28.3357	475.58
28.3501	506.74
28.3645	509.74
28.3790	519.66
28.3934	495.50
28.4079	497.44
28.4223	534.04
28.4367	550.89
28.4512	524.22
28.4656	498.14
28.4801	497.49
28.4945	529.18
28.5089	495.78
28.5234	482.89
28.5378	508.47
28.5523	494.11
28.5667	476.36
28.5811	493.92
28.5956	522.15
28.6100	521.69
28.6245	507.85
28.6389	524.71
28.6533	509.87
28.6678	507.77
28.6822	518.94
28.6967	475.37
28.7111	530.99
28.7255	548.14
28.7400	534.35
28.7544	550.76
28.7689	496.28
28.7833	505.78
28.7977	497.79
28.8122	488.46
28.8266	498.62
28.8411	554.78
28.8555	523.78
28.8699	511.04
28.8844	507.65
28.8988	503.00
28.9133	515.40
28.9277	475.99
28.9421	495.43
28.9566	498.89
28.9710	506.96
28.9855	480.84
28.9999	505.89
29.0143	526.74
29.0288	474.61
29.0432	520.26
29.0577	472.40
29.0721	487.30
29.0865	533.95
29.1010	500.99
29.1154	541.83
29.1299	545.84
29.1443	520.88
29.1587	525.08
29.1732	534.20
29.1876	517.01
29.2021	500.42
29.2165	489.16
29.2309	496.42
29.2454	502.74
29.2598	485.12
29.2743	522.05
29.2887	528.61
29.3031	517.70
29.3176	512.45
29.3320	506.81
29.3465	527.43
29.3609	509.99
29.3753	517.32
29.3898	503.89
29.4042	523.89
29.4187	532.84
29.4331	536.17
29.4475	509.02
29.4620	522.65
29.4764	537.39
29.4909	510.77
29.5053	500.43
29.5197	500.34
29.5342	514.34
29.5486	520.25
29.5631	496.41
29.5775	498.57
29.5919	483.72
29.6064	509.50
29.6208	465.34
29.6353	515.54
29.6497	519.76
29.6641	459.13
29.6786	482.73
29.6930	462.38
29.7075	528.00
29.7219	554.12
29.7363	515.61
29.7508	502.69
29.7652	474.49
29.7797	518.67
29.7941	527.65
29.8085	503.78
29.8230	521.63
29.8374	525.27
29.8519	511.41
29.8663	532.67
29.8807	536.01
29.8952	486.90
29.9096	471.70
29.9241	485.53
29.9385	515.54
29.9529	526.83
29.9674	514.58
29.9818	504.58
29.9963	509.79
30.0107	525.03
30.0251	482.23
30.0396	467.04
30.0540	481.92
30.0685	485.97
30.0829	513.91
30.0973	522.78
30.1118	503.31
30.1262	545.36
30.1407	502.40
30.1551	473.19
30.1695	533.85
30.1840	527.01
30.1984	506.17
30.2129	487.21
30.2273	458.69
30.2417	501.86
30.2562	436.14
30.2706	474.38
30.2851	524.82
30.2995	528.04
30.3139	540.04
30.3284	519.61
30.3428	501.69
30.3573	489.03
30.3717	513.56
30.3861	500.45
30.4006	533.73
30.4150	478.98
30.4295	486.05
30.4439	493.96
30.4583	499.28
30.4728	466.60
30.4872	496.22
30.5017	490.82
30.5161	482.61
30.5305	523.95
30.5450	527.49
30.5594	531.35
30.5739	535.60
30.5883	534.55
30.6028	546.71
30.6172	543.59
30.6316	570.12
30.6461	586.96
30.6605	589.91
30.6750	594.58
30.6894	616.18
30.7038	681.64
30.7183	670.62
30.7327	665.43
30.7472	656.72
30.7616	674.55
30.7760	700.41
30.7905	703.06
30.8049	650.49
30.8194	668.26
30.8338	654.86
30.8482	616.47
30.8627	629.38
30.8771	609.95
30.8916	582.41
30.9060	577.54
30.9204	535.13
30.9349	542.32
30.9493	504.88
30.9638	520.29
30.9782	542.80
30.9926	531.12
31.0071	510.73
31.0215	523.01
31.0360	523.59
31.0504	497.72
31.0648	517.66
31.0793	525.01
31.0937	566.70
31.1082	542.28
31.1226	505.55
31.1370	490.47
31.1515	506.70
31.1659	493.67
31.1804	481.57
31.1948	499.67
31.2092	504.15
31.2237	490.12
31.2381	498.07
31.2526	522.57
31.2670	521.98
31.2814	538.70
31.2959	535.88
31.3103	531.80
31.3248	530.76
31.3392	526.42
31.3536	509.92
31.3681	495.06
31.3825	505.03
31.3970	500.49
31.4114	519.17
31.4258	523.39
31.4403	520.59
31.4547	513.61
31.4692	487.36
31.4836	515.18
31.4980	519.74
31.5125	513.38
31.5269	530.70
31.5414	503.53
31.5558	469.27
31.5702	498.81
31.5847	498.95
31.5991	473.22
31.6136	496.72
31.6280	502.28
31.6424	538.08
31.6569	496.02
31.6713	502.88
31.6858	491.46
31.7002	507.96
31.7146	518.35
31.7291	510.70
31.7435	507.80
31.7580	497.37
31.7724	506.83
31.7868	521.15
31.8013	522.78
31.8157	551.26
31.8302	554.80
31.8446	503.09
31.8590	520.85
31.8735	503.98
31.8879	537.75
31.9024	542.24
31.9168	527.93
31.9312	495.86
31.9457	525.97
31.9601	503.89
31.9746	512.19
31.9890	511.20
32.0034	519.61
32.0179	503.76
32.0323	491.02
32.0468	486.30
32.0612	541.95
32.0756	522.82
32.0901	510.79
32.1045	493.41
32.1190	508.27
32.1334	528.84
32.1478	495.80
32.1623	532.14
32.1767	522.06
32.1912	472.78
32.2056	501.92
32.2200	495.15
32.2345	494.19
32.2489	503.25
32.2634	523.54
32.2778	512.39
32.2922	550.66
32.3067	527.60
32.3211	497.36
32.3356	492.31
32.3500	500.11
32.3644	522.69
32.3789	543.52
32.3933	504.97
32.4078	508.95
32.4222	544.86
32.4366	517.29
32.4511	488.92
32.4655	516.82
32.4800	513.60
32.4944	498.11
32.5088	502.17
32.5233	501.96
32.5377	496.69
32.5522	480.84
32.5666	526.60
32.5810	498.84
32.5955	482.46
32.6099	501.06
32.6244	488.19
32.6388	511.80
32.6532	511.99
32.6677	517.05
32.6821	485.09
32.6966	508.97
32.7110	517.55
32.7254	488.52
32.7399	460.16
32.7543	493.31
32.7688	482.45
32.7832	487.30
32.7976	504.16
32.8121	489.24
32.8265	517.83
32.8410	530.53
32.8554	493.41
32.8698	522.83
32.8843	474.85
32.8987	486.44
32.9132	483.98
32.9276	499.22
32.9420	534.42
32.9565	499.95
32.9709	523.54
32.9854	510.26
32.9998	484.10
33.0142	486.22
33.0287	500.91
33.0431	516.52
33.0576	502.12
33.0720	513.15
33.0864	516.33
33.1009	524.13
33.1153	551.38
33.1298	513.38
33.1442	506.62
33.1586	511.69
33.1731	490.90
33.1875	489.45
33.2020	508.97
33.2164	518.22
33.2308	477.55
33.2453	496.46
33.2597	486.71
33.2742	524.62
33.2886	516.32
33.3030	498.35
33.3175	526.60
33.3319	528.38
33.3464	522.63
33.3608	509.67
33.3752	520.09
33.3897	452.67
33.4041	475.67
33.4186	510.82
33.4330	518.60
33.4474	516.90
33.4619	537.61
33.4763	520.70
33.4908	472.36
33.5052	494.63
33.5196	507.24
33.5341	489.86
33.5485	496.08
33.5630	503.26
33.5774	490.24
33.5918	473.62
33.6063	526.16
33.6207	526.50
33.6352	509.15
33.6496	498.58
33.6640	528.06
33.6785	472.02
33.6929	486.60
33.7074	527.85
33.7218	506.51
33.7362	505.54
33.7507	528.40
33.7651	454.61
33.7796	479.74
33.7940	527.37
33.8084	524.02
33.8229	545.10
33.8373	532.94
33.8518	533.31
33.8662	536.66
33.8806	507.34
33.8951	525.12
33.9095	500.75
33.9240	518.90
33.9384	512.02
33.9528	482.06
33.9673	494.90
33.9817	473.85
33.9962	532.40
34.0106	523.94
34.0250	525.54
34.0395	521.38
34.0539	493.82
34.0684	512.56
34.0828	478.51
34.0972	520.57
34.1117	503.87
34.1261	498.18
34.1406	512.06
34.1550	503.30
34.1694	529.45
34.1839	485.01
34.1983	498.93
34.2128	506.78
34.2272	526.08
34.2417	535.28
34.2561	495.64
34.2705	505.88
34.2850	522.18
34.2994	516.05
34.3139	529.99
34.3283	524.68
34.3427	535.42
34.3572	488.69
34.3716	492.80
34.3861	486.42
34.4005	494.69
34.4149	479.55
34.4294	504.91
34.4438	517.65
34.4583	515.80
34.4727	511.23
34.4871	503.00
34.5016	534.65
34.5160	500.11
34.5305	528.14
34.5449	499.38
34.5593	484.49
34.5738	497.72
34.5882	492.03
34.6027	472.91
34.6171	489.69
34.6315	502.27
34.6460	493.21
34.6604	490.53
34.6749	516.43
34.6893	517.86
34.7037	524.81
34.7182	530.61
34.7326	481.25
34.7471	463.48
34.7615	472.02
34.7759	512.81
34.7904	528.45
34.8048	514.21
34.8193	500.12
34.8337	520.59
34.8481	497.83
34.8626	525.74
34.8770	547.47
34.8915	495.37
34.9059	512.65
34.9203	509.55
34.9348	538.26
34.9492	541.09
34.9637	506.43
34.9781	510.54
34.9925	513.07
35.0070	510.09
35.0214	495.11
35.0359	511.04
35.0503	550.48
35.0647	546.74
35.0792	528.56
35.0936	518.90
35.1081	513.89
35.1225	535.62
35.1369	535.95
35.1514	446.81
35.1658	475.65
35.1803	488.63
35.1947	497.38
35.2091	503.03
35.2236	497.15
35.2380	492.43
35.2525	508.66
35.2669	508.62
35.2813	521.68
35.2958	495.20
35.3102	515.82
35.3247	500.10
35.3391	501.02
35.3535	506.80
35.3680	501.47
35.3824	499.49
35.3969	491.82
35.4113	512.96
35.4257	543.42
35.4402	560.32
35.4546	529.84
35.4691	564.14
35.4835	566.63
35.4979	549.19
35.5124	525.64
35.5268	519.36
35.5413	565.93
35.5557	531.29
35.5701	522.52
35.5846	533.16
35.5990	504.06
35.6135	502.01
35.6279	520.55
35.6423	533.71
35.6568	519.23
35.6712	520.23
35.6857	580.26
35.7001	661.68
35.7145	720.28
35.7290	675.96
35.7434	608.57
35.7579	574.97
35.7723	581.44
35.7867	659.22
35.8012	712.78
35.8156	714.10
35.8301	709.30
35.8445	687.69
35.8589	684.41
35.8734	726.08
35.8878	860.11
35.9023	1039.37
35.9167	1036.55
35.9311	1209.45
35.9456	1826.45
35.9600	2222.70
35.9745	2026.59
35.9889	2060.06
36.0033	2556.68
36.0178	3301.24
36.0322	2901.96
36.0467	2078.70
36.0611	1811.57
36.0755	1696.95
36.0900	1746.93
36.1044	1497.98
36.1189	1407.91
36.1333	1524.41
36.1477	1302.08
36.1622	1299.96
36.1766	1235.94
36.1911	1219.06
36.2055	1168.90
36.2199	1109.69
36.2344	1035.64
36.2488	1005.09
36.2633	953.74
36.2777	927.50
36.2921	904.66
36.3066	875.71
36.3210	829.78
36.3355	767.83
36.3499	776.04
36.3643	733.81
36.3788	644.81
36.3932	595.00
36.4077	579.90
36.4221	629.32
36.4365	600.19
36.4510	557.18
36.4654	595.66
36.4799	570.57
36.4943	543.20
36.5087	585.85
36.5232	548.36
36.5376	551.81
36.5521	560.21
36.5665	564.30
36.5809	512.61
36.5954	518.01
36.6098	530.78
36.6243	473.20
36.6387	570.27
36.6531	531.98
36.6676	586.46
36.6820	518.67
36.6965	533.59
36.7109	547.68
36.7253	499.37
36.7398	534.49
36.7542	510.99
36.7687	559.91
36.7831	557.42
36.7975	526.29
36.8120	538.80
36.8264	567.90
36.8409	581.69
36.8553	566.07
36.8697	561.30
36.8842	605.90
36.8986	614.53
36.9131	603.77
36.9275	581.62
36.9419	570.38
36.9564	540.43
36.9708	565.03
36.9853	568.90
36.9997	539.96
37.0141	508.26
37.0286	537.76
37.0430	541.01
37.0575	501.98
37.0719	531.38
37.0863	530.19
37.1008	511.43
37.1152	470.63
37.1297	545.26
37.1441	498.73
37.1585	538.31
37.1730	534.09
37.1874	520.86
37.2019	495.46
37.2163	484.55
37.2307	506.82
37.2452	496.87
37.2596	474.83
37.2741	499.22
37.2885	537.92
37.3029	488.47
37.3174	506.45
37.3318	524.05
37.3463	508.71
37.3607	472.43
37.3751	477.96
37.3896	492.52
37.4040	508.19
37.4185	471.33
37.4329	481.27
37.4473	504.45
37.4618	488.38
37.4762	538.85
37.4907	491.88
37.5051	472.34
37.5195	502.43
37.5340	500.21
37.5484	513.88
37.5629	519.54
37.5773	490.70
37.5917	542.67
37.6062	522.74
37.6206	446.54
37.6351	504.15
37.6495	485.17
37.6639	507.73
37.6784	491.76
37.6928	512.95
37.7073	505.27
37.7217	507.23
37.7361	499.58
37.7506	508.93
37.7650	505.70
37.7795	526.31
37.7939	531.23
37.8083	543.34
37.8228	497.47
37.8372	531.84
37.8517	514.15
37.8661	504.32
37.8805	504.48
37.8950	532.37
37.9094	504.62
37.9239	479.90
37.9383	508.56
37.9528	505.01
37.9672	516.40
37.9816	526.28
37.9961	529.88
38.0105	497.38
38.0250	531.24
38.0394	487.19
38.0538	488.84
38.0683	524.25
38.0827	510.46
38.0972	535.26
38.1116	498.96
38.1260	505.29
38.1405	488.26
38.1549	503.56
38.1694	533.27
38.1838	511.79
38.1982	516.01
38.2127	517.86
38.2271	494.68
38.2416	463.75
38.2560	481.11
38.2704	484.53
38.2849	511.27
38.2993	511.28
38.3138	475.26
38.3282	489.28
38.3426	538.44
38.3571	512.85
38.3715	494.07
38.3860	511.28
38.4004	540.60
38.4148	545.83
38.4293	591.92
38.4437	575.21
38.4582	611.51
38.4726	681.65
38.4870	677.05
38.5015	730.14
38.5159	743.73
38.5304	794.31
38.5448	770.22
38.5592	774.23
38.5737	735.59
38.5881	716.64
38.6026	707.16
38.6170	704.24
38.6314	658.24
38.6459	676.99
38.6603	661.30
38.6748	610.87
38.6892	574.09
38.7036	540.99
38.7181	509.43
38.7325	520.40
38.7470	541.58
38.7614	531.58
38.7758	517.41
38.7903	542.01
38.8047	553.07
38.8192	538.41
38.8336	513.90
38.8480	494.17
38.8625	489.20
38.8769	502.88
38.8914	511.74
38.9058	528.77
38.9202	515.01
38.9347	495.82
38.9491	453.96
38.9636	468.46
38.9780	493.75
38.9924	493.47
39.0069	471.99
39.0213	454.19
39.0358	506.59
39.0502	527.90
39.0646	522.51
39.0791	514.48
39.0935	565.06
39.1080	517.18
39.1224	492.03
39.1368	475.17
39.1513	489.36
39.1657	507.67
39.1802	508.56
39.1946	500.51
39.2090	489.50
39.2235	500.53
39.2379	488.80
39.2524	515.33
39.2668	499.30
39.2812	531.44
39.2957	488.70
39.3101	484.05
39.3246	506.33
39.3390	499.19
39.3534	502.54
39.3679	516.45
39.3823	471.80
39.3968	503.93
39.4112	506.98
39.4256	508.61
39.4401	505.56
39.4545	503.41
39.4690	513.61
39.4834	525.10
39.4978	491.58
39.5123	516.34
39.5267	490.73
39.5412	463.02
39.5556	492.34
39.5700	486.75
39.5845	484.38
39.5989	503.00
39.6134	503.00
39.6278	485.65
39.6422	500.94
39.6567	500.33
39.6711	497.99
39.6856	498.03
39.7000	520.88
39.7144	511.56
39.7289	514.61
39.7433	506.06
39.7578	522.45
39.7722	533.50
39.7866	517.50
39.8011	483.47
39.8155	489.93
39.8300	510.92
39.8444	501.50
39.8588	476.91
39.8733	500.45
39.8877	492.71
39.9022	492.18
39.9166	503.24
39.9310	505.63
39.9455	503.63
39.9599	465.73
39.9744	458.11
39.9888	487.69
40.0032	481.37
40.0177	480.79
40.0321	502.00
40.0466	509.93
40.0610	480.71
40.0754	535.45
40.0899	535.45
40.1043	484.94
40.1188	510.40
40.1332	523.38
40.1476	477.27
40.1621	489.53
40.1765	525.44
40.1910	507.03
40.2054	523.21
40.2198	493.73
40.2343	477.05
40.2487	469.13
40.2632	467.53
40.2776	502.42
40.2920	468.65
40.3065	504.29
40.3209	501.63
40.3354	538.24
40.3498	520.68
40.3642	479.08
40.3787	489.46
40.3931	484.18
40.4076	463.54
40.4220	491.10
40.4364	511.90
40.4509	518.57
40.4653	523.34
40.4798	492.96
40.4942	490.51
40.5086	465.51
40.5231	506.81
40.5375	516.53
40.5520	488.88
40.5664	511.10
40.5808	502.37
40.5953	534.06
40.6097	524.49
40.6242	498.44
40.6386	524.96
40.6530	529.92
40.6675	514.66
40.6819	483.20
40.6964	504.52
40.7108	529.19
40.7252	490.15
40.7397	483.74
40.7541	487.00
40.7686	505.29
40.7830	507.78
40.7974	504.62
40.8119	498.46
40.8263	511.63
40.8408	522.02
40.8552	500.78
40.8696	483.14
40.8841	492.55
40.8985	524.01
40.9130	470.71
40.9274	474.53
40.9418	502.13
40.9563	466.04
40.9707	472.63
40.9852	478.49
40.9996	480.68
41.0140	530.28
41.0285	492.22
41.0429	498.44
41.0574	491.53
41.0718	504.97
41.0862	522.71
41.1007	526.36
41.1151	520.17
41.1296	522.62
41.1440	471.61
41.1584	502.09
41.1729	510.20
41.1873	518.68
41.2018	514.07
41.2162	496.15
41.2306	474.98
41.2451	481.41
41.2595	486.39
41.2740	495.06
41.2884	514.52
41.3028	526.20
41.3173	504.13
41.3317	522.48
41.3462	507.52
41.3606	491.74
41.3750	536.44
41.3895	524.09
41.4039	502.89
41.4184	505.12
41.4328	512.57
41.4472	529.35
41.4617	507.92
41.4761	498.37
41.4906	501.49
41.5050	488.73
41.5194	491.05
41.5339	524.12
41.5483	488.54
41.5628	519.12
41.5772	504.18
41.5916	494.22
41.6061	486.66
41.6205	515.80
41.6350	522.63
41.6494	488.14
41.6639	446.30
41.6783	514.26
41.6927	493.72
41.7072	499.52
41.7216	492.51
41.7361	498.04
41.7505	498.06
41.7649	486.26
41.7794	503.23
41.7938	512.30
41.8083	512.84
41.8227	492.36
41.8371	515.87
41.8516	519.57
41.8660	521.06
41.8805	505.17
41.8949	527.51
41.9093	527.52
41.9238	553.79
41.9382	557.53
41.9527	562.38
41.9671	571.94
41.9815	512.36
41.9960	550.44
42.0104	558.89
42.0249	547.75
42.0393	558.53
42.0537	548.58
42.0682	587.05
42.0826	627.48
42.0971	601.81
42.1115	556.15
42.1259	586.67
42.1404	593.87
42.1548	633.42
42.1693	659.86
42.1837	687.77
42.1981	754.61
42.2126	841.95
42.2270	972.83
42.2415	1055.22
42.2559	1230.25
42.2703	1373.52
42.2848	1581.72
42.2992	1659.69
42.3137	1702.51
42.3281	1698.33
42.3425	1571.17
42.3570	1487.79
42.3714	1468.46
42.3859	1455.43
42.4003	1363.62
42.4147	1303.84
42.4292	1302.04
42.4436	1229.60
42.4581	1104.07
42.4725	956.99
42.4869	861.57
42.5014	743.22
42.5158	707.76
42.5303	665.42
42.5447	614.03
42.5591	626.12
42.5736	588.54
42.5880	574.84
42.6025	571.96
42.6169	520.83
42.6313	543.79
42.6458	543.49
42.6602	533.03
42.6747	540.10
42.6891	524.87
42.7035	531.99
42.7180	523.13
42.7324	513.05
42.7469	539.83
42.7613	531.48
42.7757	543.45
42.7902	498.55
42.8046	502.83
42.8191	507.44
42.8335	549.42
42.8479	504.34
42.8624	507.44
42.8768	522.68
42.8913	506.90
42.9057	545.49
42.9201	534.23
42.9346	522.08
42.9490	514.49
42.9635	491.06
42.9779	467.24
42.9923	521.35
43.0068	517.30
43.0212	501.34
43.0357	526.67
43.0501	517.68
43.0645	501.15
43.0790	516.65
43.0934	504.07
43.1079	534.95
43.1223	524.71
43.1367	505.07
43.1512	482.38
43.1656	517.63
43.1801	520.44
43.1945	482.40
43.2089	513.34
43.2234	526.07
43.2378	524.33
43.2523	510.79
43.2667	504.84
43.2811	504.84
43.2956	509.60
43.3100	531.14
43.3245	538.92
43.3389	547.51
43.3533	512.83
43.3678	528.05
43.3822	497.02
43.3967	500.44
43.4111	549.53
43.4255	547.82
43.4400	501.39
43.4544	457.88
43.4689	509.38
43.4833	501.36
43.4977	494.87
43.5122	529.29
43.5266	521.38
43.5411	529.25
43.5555	509.91
43.5699	504.72
43.5844	497.45
43.5988	496.42
43.6133	531.61
43.6277	550.55
43.6421	527.47
43.6566	517.16
43.6710	502.39
43.6855	518.24
43.6999	547.05
43.7143	561.54
43.7288	552.94
43.7432	563.78
43.7577	525.79
43.7721	510.55
43.7865	549.85
43.8010	545.43
43.8154	547.58
43.8299	502.97
43.8443	525.32
43.8587	566.33
43.8732	543.49
43.8876	519.19
43.9021	571.17
43.9165	586.83
43.9309	588.57
43.9454	527.01
43.9598	558.13
43.9743	597.36
43.9887	618.96
44.0031	600.62
44.0176	620.44
44.0320	599.07
44.0465	610.45
44.0609	595.19
44.0753	599.40
44.0898	606.18
44.1042	605.05
44.1187	573.69
44.1331	583.48
44.1475	574.88
44.1620	559.95
44.1764	545.20
44.1909	565.96
44.2053	587.89
44.2197	556.04
44.2342	515.52
44.2486	578.09
44.2631	542.90
44.2775	524.70
44.2919	524.06
44.3064	560.95
44.3208	540.42
44.3353	554.96
44.3497	559.38
44.3641	529.61
44.3786	520.93
44.3930	527.64
44.4075	546.09
44.4219	559.85
44.4363	558.01
44.4508	569.23
44.4652	591.23
44.4797	592.80
44.4941	595.92
44.5085	584.91
44.5230	563.02
44.5374	610.65
44.5519	592.62
44.5663	592.73
44.5807	608.51
44.5952	590.66
44.6096	558.65
44.6241	559.20
44.6385	561.47
44.6529	571.59
44.6674	582.00
44.6818	572.29
44.6963	611.65
44.7107	649.81
44.7251	676.65
44.7396	732.77
44.7540	804.71
44.7685	826.21
44.7829	876.37
44.7973	938.01
44.8118	877.06
44.8262	802.76
44.8407	783.96
44.8551	770.14
44.8695	757.81
44.8840	718.86
44.8984	796.81
44.9129	745.99
44.9273	717.42
44.9417	714.36
44.9562	635.41
44.9706	548.51
44.9851	543.22
44.9995	546.71
45.0139	559.07
45.0284	511.03
45.0428	507.47
45.0573	536.72
45.0717	532.84
45.0861	567.75
45.1006	512.37
45.1150	497.82
45.1295	509.73
45.1439	488.16
45.1583	510.44
45.1728	514.66
45.1872	492.29
45.2017	485.50
45.2161	513.60
45.2305	539.62
45.2450	536.94
45.2594	513.45
45.2739	516.83
45.2883	488.16
45.3028	478.35
45.3172	530.37
45.3316	513.96
45.3461	500.81
45.3605	494.45
45.3750	486.54
45.3894	496.01
45.4038	475.01
45.4183	475.19
45.4327	514.72
45.4472	463.94
45.4616	512.88
45.4760	529.60
45.4905	480.36
45.5049	506.18
45.5194	515.24
45.5338	515.83
45.5482	505.19
45.5627	501.88
45.5771	507.76
45.5916	510.53
45.6060	501.32
45.6204	494.87
45.6349	477.85
45.6493	477.26
45.6638	502.93
45.6782	512.45
45.6926	523.52
45.7071	498.20
45.7215	529.77
45.7360	531.38
45.7504	554.61
45.7648	513.16
45.7793	484.58
45.7937	486.09
45.8082	484.97
45.8226	487.53
45.8370	532.26
45.8515	496.02
45.8659	516.24
45.8804	496.87
45.8948	515.83
45.9092	520.53
45.9237	495.27
45.9381	491.82
45.9526	505.75
45.9670	482.75
45.9814	486.16
45.9959	510.71
46.0103	519.18
46.0248	494.54
46.0392	462.90
46.0536	492.39
46.0681	501.55
46.0825	476.17
46.0970	472.34
46.1114	533.25
46.1258	496.67
46.1403	502.14
46.1547	478.20
46.1692	502.58
46.1836	492.16
46.1980	471.77
46.2125	517.46
46.2269	507.27
46.2414	491.86
46.2558	499.99
46.2702	485.94
46.2847	512.75
46.2991	519.17
46.3136	526.72
46.3280	515.49
46.3424	527.71
46.3569	520.91
46.3713	512.04
46.3858	521.32
46.4002	469.73
46.4146	483.43
46.4291	514.22
46.4435	497.32
46.4580	493.29
46.4724	498.98
46.4868	510.33
46.5013	514.74
46.5157	494.04
46.5302	480.29
46.5446	445.23
46.5590	493.22
46.5735	468.86
46.5879	478.65
46.6024	473.58
46.6168	527.91
46.6312	497.73
46.6457	503.37
46.6601	536.60
46.6746	506.87
46.6890	512.23
46.7034	539.83
46.7179	505.16
46.7323	503.76
46.7468	512.39
46.7612	487.08
46.7756	482.86
46.7901	503.82
46.8045	491.63
46.8190	486.09
46.8334	499.46
46.8478	466.17
46.8623	482.07
46.8767	512.95
46.8912	517.17
46.9056	533.03
46.9200	479.65
46.9345	477.46
46.9489	497.98
46.9634	460.69
46.9778	493.62
46.9922	501.72
47.0067	513.40
47.0211	494.75
47.0356	521.76
47.0500	515.85
47.0644	538.16
47.0789	526.94
47.0933	526.75
47.1078	486.29
47.1222	529.64
47.1366	567.78
47.1511	520.76
47.1655	513.73
47.1800	489.11
47.1944	503.84
47.2088	512.16
47.2233	503.33
47.2377	509.10
47.2522	496.55
47.2666	504.55
47.2810	530.01
47.2955	521.23
47.3099	488.05
47.3244	490.41
47.3388	477.24
47.3532	503.23
47.3677	503.19
47.3821	520.10
47.3966	495.73
47.4110	469.75
47.4254	501.12
47.4399	507.59
47.4543	463.10
47.4688	498.68
47.4832	501.14
47.4976	547.54
47.5121	532.67
47.5265	506.75
47.5410	474.97
47.5554	499.56
47.5698	504.62
47.5843	490.28
47.5987	473.28
47.6132	515.31
47.6276	523.89
47.6420	506.01
47.6565	508.21
47.6709	479.34
47.6854	462.20
47.6998	482.89
47.7142	511.07
47.7287	516.09
47.7431	506.80
47.7576	521.69
47.7720	510.38
47.7864	509.46
47.8009	508.43
47.8153	501.82
47.8298	485.09
47.8442	462.18
47.8586	483.26
47.8731	526.92
47.8875	501.37
47.9020	483.09
47.9164	496.91
47.9308	486.46
47.9453	526.80
47.9597	482.35
47.9742	475.35
47.9886	502.76
48.0030	510.24
48.0175	489.49
48.0319	508.14
48.0464	475.09
48.0608	484.44
48.0752	523.05
48.0897	530.81
48.1041	515.01
48.1186	505.65
48.1330	522.90
48.1474	481.33
48.1619	518.37
48.1763	529.37
48.1908	538.01
48.2052	489.35
48.2196	517.70
48.2341	556.09
48.2485	505.82
48.2630	493.88
48.2774	511.24
48.2918	506.79
48.3063	522.43
48.3207	534.85
48.3352	516.48
48.3496	472.16
48.3640	499.82
48.3785	489.27
48.3929	509.10
48.4074	486.06
48.4218	525.53
48.4362	546.93
48.4507	484.15
48.4651	509.23
48.4796	544.23
48.4940	505.45
48.5084	483.38
48.5229	519.04
48.5373	522.43
48.5518	511.60
48.5662	515.28
48.5806	514.78
48.5951	519.21
48.6095	502.11
48.6240	537.52
48.6384	514.74
48.6528	516.88
48.6673	528.14
48.6817	502.10
48.6962	549.23
48.7106	554.10
48.7250	538.39
48.7395	534.36
48.7539	542.19
48.7684	503.97
48.7828	518.86
48.7972	530.59
48.8117	525.14
48.8261	544.08
48.8406	545.63
48.8550	540.78
48.8694	508.09
48.8839	558.74
48.8983	537.98
48.9128	531.75
48.9272	547.43
48.9416	556.76
48.9561	576.98
48.9705	565.35
48.9850	547.50
48.9994	580.02
49.0139	590.64
49.0283	578.31
49.0427	615.21
49.0572	632.30
49.0716	680.51
49.0861	724.08
49.1005	730.50
49.1149	743.13
49.1294	754.32
49.1438	769.34
49.1583	808.36
49.1727	883.09
49.1871	945.74
49.2016	967.34
49.2160	1038.21
49.2305	1098.16
49.2449	1188.97
49.2593	1318.89
49.2738	1376.56
49.2882	1521.20
49.3027	1555.64
49.3171	1629.63
49.3315	1727.81
49.3460	1782.67
49.3604	1859.57
49.3749	1832.89
49.3893	1828.44
49.4037	1758.33
49.4182	1798.28
49.4326	1798.50
49.4471	1683.36
49.4615	1574.78
49.4759	1566.81
49.4904	1534.42
49.5048	1423.54
49.5193	1399.68
49.5337	1287.76
49.5481	1228.50
49.5626	1193.84
49.5770	1080.36
49.5915	1004.38
49.6059	944.48
49.6203	869.64
49.6348	825.92
49.6492	811.40
49.6637	769.62
49.6781	725.24
49.6925	676.42
49.7070	674.34
49.7214	666.08
49.7359	674.05
49.7503	635.85
49.7647	589.99
49.7792	580.30
49.7936	589.84
49.8081	597.29
49.8225	585.34
49.8369	570.58
49.8514	567.21
49.8658	566.46
49.8803	549.31
49.8947	550.36
49.9091	551.64
49.9236	547.10
49.9380	562.79
49.9525	546.09
49.9669	501.49
49.9813	497.88
49.9958	574.29
50.0102	542.39
50.0247	577.72
50.0391	542.19
50.0535	551.05
50.0680	568.81
50.0824	540.10
50.0969	527.90
50.1113	541.52
50.1257	551.14
50.1402	548.99
50.1546	498.16
50.1691	509.56
50.1835	508.59
50.1979	518.17
50.2124	514.91
50.2268	526.14
50.2413	531.31
50.2557	513.99
50.2701	480.82
50.2846	478.06
50.2990	481.38
50.3135	488.51
50.3279	496.99
50.3423	502.28
50.3568	520.13
50.3712	474.91
50.3857	494.82
50.4001	517.51
50.4145	515.53
50.4290	547.60
50.4434	516.29
50.4579	519.12
50.4723	528.87
50.4867	525.82
50.5012	524.83
50.5156	495.10
50.5301	506.48
50.5445	519.77
50.5589	504.57
50.5734	525.76
50.5878	528.32
50.6023	515.96
50.6167	458.74
50.6311	498.62
50.6456	488.49
50.6600	499.01
50.6745	494.66
50.6889	517.65
50.7033	529.82
50.7178	515.53
50.7322	495.43
50.7467	486.44
50.7611	494.87
50.7755	502.31
50.7900	524.23
50.8044	514.25
50.8189	559.70
50.8333	513.39
50.8477	504.51
50.8622	546.84
50.8766	537.28
50.8911	519.08
50.9055	503.44
50.9199	497.05
50.9344	508.59
50.9488	529.35
50.9633	488.47
50.9777	486.93
50.9921	523.05
51.0066	507.91
51.0210	466.69
51.0355	491.36
51.0499	504.13
51.0643	520.01
51.0788	493.20
51.0932	481.99
51.1077	499.76
51.1221	511.33
51.1365	511.34
51.1510	516.96
51.1654	526.97
51.1799	508.86
51.1943	489.13
51.2087	514.25
51.2232	516.39
51.2376	518.90
51.2521	490.33
51.2665	481.06
51.2809	497.82
51.2954	515.71
51.3098	496.15
51.3243	496.18
51.3387	492.67
51.3531	516.67
51.3676	530.04
51.3820	501.27
51.3965	503.70
51.4109	544.41
51.4253	548.17
51.4398	508.15
51.4542	487.60
51.4687	538.45
51.4831	538.01
51.4975	506.32
51.5120	528.12
51.5264	531.57
51.5409	511.97
51.5553	508.81
51.5697	492.52
51.5842	513.16
51.5986	521.41
51.6131	484.10
51.6275	507.32
51.6419	542.75
51.6564	553.50
51.6708	530.42
51.6853	479.45
51.6997	512.86
51.7141	559.61
51.7286	509.06
51.7430	488.49
51.7575	488.94
51.7719	469.87
51.7863	525.84
51.8008	504.27
51.8152	507.14
51.8297	544.36
51.8441	514.46
51.8585	518.23
51.8730	522.27
51.8874	512.05
51.9019	514.30
51.9163	527.08
51.9307	523.90
51.9452	512.72
51.9596	483.98
51.9741	489.98
51.9885	483.25
52.0029	507.34
52.0174	533.61
52.0318	548.14
52.0463	483.10
52.0607	512.11
52.0751	539.80
52.0896	518.22
52.1040	477.51
52.1185	527.83
52.1329	549.81
52.1473	488.61
52.1618	526.58
52.1762	500.28
52.1907	500.94
52.2051	499.69
52.2195	497.71
52.2340	493.24
52.2484	526.46
52.2629	492.07
52.2773	518.08
52.2917	502.11
52.3062	520.79
52.3206	509.31
52.3351	500.00
52.3495	531.84
52.3639	525.21
52.3784	476.54
52.3928	464.59
52.4073	514.54
52.4217	535.53
52.4361	536.23
52.4506	471.23
52.4650	513.36
52.4795	513.89
52.4939	529.09
52.5083	531.51
52.5228	509.82
52.5372	477.05
52.5517	489.58
52.5661	530.86
52.5805	563.28
52.5950	543.32
52.6094	484.76
52.6239	518.61
52.6383	508.54
52.6527	510.12
52.6672	494.83
52.6816	513.03
52.6961	515.97
52.7105	495.40
52.7250	517.17
52.7394	499.70
52.7538	521.05
52.7683	515.84
52.7827	504.32
52.7972	494.57
52.8116	513.16
52.8260	506.26
52.8405	524.74
52.8549	509.09
52.8694	541.45
52.8838	494.16
52.8982	526.59
52.9127	511.82
52.9271	528.51
52.9416	489.33
52.9560	515.67
52.9704	508.27
52.9849	526.33
52.9993	532.07
53.0138	532.12
53.0282	475.19
53.0426	491.66
53.0571	530.75
53.0715	519.98
53.0860	467.57
53.1004	499.07
53.1148	513.01
53.1293	534.57
53.1437	498.99
53.1582	501.26
53.1726	496.37
53.1870	526.75
53.2015	514.52
53.2159	546.94
53.2304	499.86
53.2448	524.22
53.2592	519.50
53.2737	525.02
53.2881	523.90
53.3026	509.53
53.3170	518.28
53.3314	503.95
53.3459	520.66
53.3603	518.66
53.3748	534.43
53.3892	479.34
53.4036	506.30
53.4181	493.13
53.4325	530.96
53.4470	497.73
53.4614	496.61
53.4758	522.55
53.4903	527.19
53.5047	514.69
53.5192	547.30
53.5336	547.00
53.5480	547.66
53.5625	541.46
53.5769	533.40
53.5914	529.53
53.6058	490.31
53.6202	519.10
53.6347	514.62
53.6491	501.76
53.6636	552.85
53.6780	537.49
53.6924	513.21
53.7069	510.39
53.7213	529.83
53.7358	485.76
53.7502	482.44
53.7646	498.48
53.7791	482.03
53.7935	484.18
53.8080	521.19
53.8224	512.03
53.8368	540.57
53.8513	539.18
53.8657	525.11
53.8802	516.03
53.8946	527.33
53.9090	545.97
53.9235	531.12
53.9379	537.12
53.9524	517.56
53.9668	571.64
53.9812	536.85
53.9957	504.23
54.0101	519.12
54.0246	497.60
54.0390	499.80
54.0534	480.31
54.0679	491.48
54.0823	518.56
54.0968	526.30
54.1112	521.46
54.1256	539.07
54.1401	527.90
54.1545	488.79
54.1690	512.92
54.1834	520.04
54.1978	497.62
54.2123	517.09
54.2267	514.78
54.2412	541.98
54.2556	531.61
54.2700	510.34
54.2845	512.45
54.2989	516.24
54.3134	500.25
54.3278	526.47
54.3422	535.14
54.3567	536.16
54.3711	520.66
54.3856	543.55
54.4000	549.36
54.4144	528.54
54.4289	535.38
54.4433	521.64
54.4578	519.04
54.4722	546.34
54.4866	568.24
54.5011	575.31
54.5155	584.30
54.5300	572.79
54.5444	589.08
54.5588	587.46
54.5733	572.35
54.5877	596.31
54.6022	571.47
54.6166	543.12
54.6310	557.98
54.6455	561.86
54.6599	573.87
54.6744	577.47
54.6888	573.97
54.7032	588.14
54.7177	570.47
54.7321	544.18
54.7466	561.32
54.7610	552.82
54.7754	558.32
54.7899	549.00
54.8043	544.80
54.8188	545.49
54.8332	535.24
54.8476	532.47
54.8621	543.47
54.8765	514.02
54.8910	502.75
54.9054	532.43
54.9198	560.23
54.9343	549.20
54.9487	547.06
54.9632	523.90
54.9776	527.80
54.9920	529.63
55.0065	516.64
55.0209	502.58
55.0354	509.01
55.0498	503.03
55.0642	533.22
55.0787	548.12
55.0931	532.79
55.1076	513.74
55.1220	551.13
55.1364	541.98
55.1509	504.54
55.1653	491.93
55.1798	518.56
55.1942	536.50
55.2086	535.15
55.2231	551.49
55.2375	538.94
55.2520	531.80
55.2664	512.39
55.2808	528.97
55.2953	520.93
55.3097	498.03
55.3242	519.22
55.3386	536.73
55.3530	508.98
55.3675	502.76
55.3819	491.62
55.3964	503.33
55.4108	505.16
55.4252	513.90
55.4397	524.64
55.4541	522.61
55.4686	519.33
55.4830	516.96
55.4974	518.02
55.5119	480.48
55.5263	492.48
55.5408	531.29
55.5552	560.37
55.5696	530.47
55.5841	519.90
55.5985	531.53
55.6130	523.36
55.6274	485.33
55.6418	500.88
55.6563	530.25
55.6707	500.83
55.6852	496.13
55.6996	523.83
55.7140	535.99
55.7285	520.74
55.7429	489.59
55.7574	516.30
55.7718	523.86
55.7862	514.05
55.8007	519.29
55.8151	568.16
55.8296	541.21
55.8440	526.29
55.8584	529.95
55.8729	552.33
55.8873	517.85
55.9018	531.75
55.9162	511.74
55.9306	528.72
55.9451	564.30
55.9595	486.57
55.9740	532.88
55.9884	514.40
56.0028	475.58
56.0173	502.43
56.0317	541.86
56.0462	505.95
56.0606	514.18
56.0750	527.28
56.0895	554.27
56.1039	564.99
56.1184	564.99
56.1328	488.68
56.1472	494.77
56.1617	546.39
56.1761	517.83
56.1906	515.85
56.2050	528.06
56.2194	522.00
56.2339	515.53
56.2483	512.54
56.2628	508.97
56.2772	507.93
56.2916	486.32
56.3061	512.42
56.3205	524.48
56.3350	521.94
56.3494	530.85
56.3639	481.64
56.3783	487.30
56.3927	503.77
56.4072	507.01
56.4216	494.70
56.4361	470.25
56.4505	519.57
56.4649	546.65
56.4794	535.23
56.4938	561.47
56.5083	509.61
56.5227	516.97
56.5371	497.26
56.5516	499.24
56.5660	515.31
56.5805	495.69
56.5949	470.95
56.6093	510.75
56.6238	517.80
56.6382	549.90
56.6527	541.99
56.6671	554.72
56.6815	528.02
56.6960	501.47
56.7104	514.73
56.7249	532.16
56.7393	534.76
56.7537	529.15
56.7682	501.44
56.7826	535.33
56.7971	531.39
56.8115	542.95
56.8259	505.75
56.8404	522.10
56.8548	522.40
56.8693	554.15
56.8837	507.50
56.8981	526.94
56.9126	511.31
56.9270	526.59
56.9415	510.64
56.9559	504.70
56.9703	542.27
56.9848	533.53
56.9992	567.01
57.0137	525.69
57.0281	538.80
57.0425	521.82
57.0570	528.50
57.0714	538.04
57.0859	523.96
57.1003	543.80
57.1147	521.80
57.1292	524.23
57.1436	499.89
57.1581	508.55
57.1725	505.09
57.1869	528.24
57.2014	532.22
57.2158	530.91
57.2303	530.76
57.2447	505.46
57.2591	492.90
57.2736	499.38
57.2880	495.50
57.3025	511.40
57.3169	553.35
57.3313	534.99
57.3458	477.73
57.3602	532.02
57.3747	549.64
57.3891	503.25
57.4035	516.06
57.4180	511.78
57.4324	523.37
57.4469	507.27
57.4613	515.59
57.4757	507.61
57.4902	517.50
57.5046	527.66
57.5191	519.71
57.5335	510.62
57.5479	504.71
57.5624	516.00
57.5768	522.57
57.5913	552.68
57.6057	511.71
57.6201	495.27
57.6346	554.38
57.6490	560.35
57.6635	518.33
57.6779	493.75
57.6923	521.27
57.7068	597.15
57.7212	521.18
57.7357	534.01
57.7501	541.13
57.7645	539.06
57.7790	552.91
57.7934	511.19
57.8079	546.45
57.8223	538.53
57.8367	546.90
57.8512	528.42
57.8656	539.56
57.8801	558.48
57.8945	544.73
57.9089	551.82
57.9234	526.37
57.9378	569.28
57.9523	568.92
57.9667	547.75
57.9811	528.07
57.9956	549.73
58.0100	530.38
58.0245	519.20
58.0389	551.02
58.0533	597.84
58.0678	581.10
58.0822	619.00
58.0967	603.75
58.1111	621.62
58.1255	637.35
58.1400	578.53
58.1544	607.13
58.1689	624.67
58.1833	612.55
58.1977	618.85
58.2122	665.06
58.2266	687.04
58.2411	669.64
58.2555	666.48
58.2699	617.91
58.2844	688.49
58.2988	661.25
58.3133	633.12
58.3277	660.36
58.3421	639.20
58.3566	648.30
58.3710	657.17
58.3855	638.09
58.3999	603.22
58.4143	588.46
58.4288	599.01
58.4432	583.03
58.4577	605.10
58.4721	599.97
58.4865	590.01
58.5010	572.31
58.5154	556.96
58.5299	528.28
58.5443	533.89
58.5587	536.63
58.5732	551.98
58.5876	590.00
58.6021	558.53
58.6165	523.38
58.6309	548.12
58.6454	520.30
58.6598	516.68
58.6743	534.10
58.6887	529.63
58.7031	551.54
58.7176	553.68
58.7320	529.40
58.7465	504.15
58.7609	556.91
58.7753	534.82
58.7898	544.69
58.8042	571.47
58.8187	499.66
58.8331	528.96
58.8475	540.00
58.8620	556.44
58.8764	555.86
58.8909	534.05
58.9053	541.60
58.9197	546.04
58.9342	554.96
58.9486	552.65
58.9631	557.11
58.9775	524.49
58.9919	533.33
59.0064	539.58
59.0208	543.91
59.0353	534.13
59.0497	522.04
59.0641	537.83
59.0786	555.97
59.0930	537.10
59.1075	517.68
59.1219	534.15
59.1363	544.91
59.1508	518.90
59.1652	519.57
59.1797	544.58
59.1941	534.75
59.2085	544.81
59.2230	577.74
59.2374	597.34
59.2519	561.80
59.2663	516.08
59.2807	549.54
59.2952	523.68
59.3096	541.45
59.3241	519.26
59.3385	573.76
59.3529	576.61
59.3674	555.16
59.3818	558.26
59.3963	519.98
59.4107	526.06
59.4251	583.25
59.4396	552.05
59.4540	537.93
59.4685	541.18
59.4829	561.22
59.4973	560.13
59.5118	555.75
59.5262	556.33
59.5407	560.99
59.5551	550.15
59.5695	564.35
59.5840	549.53
59.5984	557.09
59.6129	545.92
59.6273	516.95
59.6417	513.67
59.6562	539.82
59.6706	516.17
59.6851	521.21
59.6995	565.92
59.7139	576.34
59.7284	533.64
59.7428	556.99
59.7573	515.45
59.7717	556.34
59.7861	547.35
59.8006	530.09
59.8150	539.45
59.8295	544.75
59.8439	531.29
59.8583	567.56
59.8728	544.30
59.8872	521.31
59.9017	562.75
59.9161	550.62
59.9305	518.72
59.9450	618.71
59.9594	561.49
59.9739	571.35
59.9883	573.79
60.0027	532.28
60.0172	534.04
60.0316	544.41
60.0461	544.79
60.0605	532.16
60.0750	538.09
60.0894	535.08
60.1038	540.38
60.1183	573.04
60.1327	535.14
60.1472	508.04
60.1616	488.63
60.1760	507.73
60.1905	513.05
60.2049	541.90
60.2194	534.76
60.2338	563.45
60.2482	562.11
60.2627	533.97
60.2771	523.53
60.2916	505.61
60.3060	512.69
60.3204	522.84
60.3349	500.30
60.3493	560.58
60.3638	550.75
60.3782	545.02
60.3926	501.12
60.4071	494.31
60.4215	543.66
60.4360	558.50
60.4504	531.87
60.4648	550.86
60.4793	561.76
60.4937	555.17
60.5082	569.89
60.5226	534.42
60.5370	562.85
60.5515	544.74
60.5659	534.28
60.5804	548.78
60.5948	565.86
60.6092	545.04
60.6237	511.03
60.6381	514.38
60.6526	521.27
60.6670	505.13
60.6814	511.42
60.6959	495.86
60.7103	572.81
60.7248	537.89
60.7392	527.66
60.7536	522.22
60.7681	553.07
60.7825	560.11
60.7970	564.51
60.8114	574.88
60.8258	527.81
60.8403	530.14
60.8547	537.89
60.8692	530.91
60.8836	581.27
60.8980	541.07
60.9125	515.45
60.9269	512.58
60.9414	533.31
60.9558	551.94
60.9702	555.43
60.9847	511.04
60.9991	528.78
61.0136	567.59
61.0280	551.34
61.0424	532.08
61.0569	520.23
61.0713	527.78
61.0858	510.51
61.1002	568.35
61.1146	528.69
61.1291	572.35
61.1435	532.05
61.1580	539.25
61.1724	558.36
61.1868	525.56
61.2013	537.49
61.2157	565.19
61.2302	517.01
61.2446	529.97
61.2590	516.51
61.2735	535.67
61.2879	534.40
61.3024	541.95
61.3168	523.65
61.3312	553.23
61.3457	553.10
61.3601	518.06
61.3746	532.35
61.3890	511.03
61.4034	534.83
61.4179	548.83
61.4323	563.34
61.4468	526.07
61.4612	527.69
61.4756	574.69
61.4901	564.99
61.5045	538.67
61.5190	559.72
61.5334	535.82
61.5478	512.41
61.5623	555.60
61.5767	541.80
61.5912	548.52
61.6056	556.51
61.6200	551.33
61.6345	561.64
61.6489	525.76
61.6634	519.59
61.6778	500.44
61.6922	530.56
61.7067	565.87
61.7211	576.79
61.7356	548.84
61.7500	570.79
61.7644	524.24
61.7789	543.81
61.7933	500.82
61.8078	541.16
61.8222	592.39
61.8366	576.03
61.8511	545.47
61.8655	543.15
61.8800	552.41
61.8944	594.39
61.9088	563.70
61.9233	540.91
61.9377	531.15
61.9522	510.91
61.9666	521.26
61.9810	555.52
61.9955	576.38
62.0099	546.48
62.0244	562.01
62.0388	494.16
62.0532	526.52
62.0677	575.13
62.0821	557.56
62.0966	529.12
62.1110	503.12
62.1254	525.93
62.1399	555.66
62.1543	541.17
62.1688	575.81
62.1832	557.14
62.1976	508.22
62.2121	543.02
62.2265	559.74
62.2410	557.55
62.2554	549.95
62.2698	558.05
62.2843	549.26
62.2987	527.75
62.3132	571.13
62.3276	546.28
62.3420	538.07
62.3565	552.94
62.3709	574.10
62.3854	552.10
62.3998	538.38
62.4142	531.00
62.4287	571.36
62.4431	561.22
62.4576	552.93
62.4720	583.01
62.4864	576.55
62.5009	549.04
62.5153	524.14
62.5298	529.48
62.5442	554.06
62.5586	537.44
62.5731	556.74
62.5875	597.26
62.6020	557.52
62.6164	556.97
62.6308	580.95
62.6453	569.54
62.6597	533.50
62.6742	543.81
62.6886	534.53
62.7030	537.31
62.7175	548.41
62.7319	562.56
62.7464	577.99
62.7608	548.59
62.7752	511.74
62.7897	580.34
62.8041	576.16
62.8186	540.38
62.8330	569.78
62.8474	521.64
62.8619	560.75
62.8763	549.98
62.8908	531.89
62.9052	550.34
62.9196	548.32
62.9341	583.97
62.9485	592.32
62.9630	531.38
62.9774	544.93
62.9918	546.42
63.0063	532.58
63.0207	557.68
63.0352	572.01
63.0496	550.06
63.0640	586.25
63.0785	579.80
63.0929	590.22
63.1074	559.93
63.1218	560.03
63.1362	556.88
63.1507	543.54
63.1651	612.58
63.1796	539.62
63.1940	544.63
63.2084	560.83
63.2229	559.35
63.2373	558.10
63.2518	578.56
63.2662	551.48
63.2806	572.22
63.2951	571.36
63.3095	533.17
63.3240	536.26
63.3384	607.45
63.3528	596.29
63.3673	586.77
63.3817	557.73
63.3962	563.71
63.4106	531.10
63.4250	534.25
63.4395	582.51
63.4539	566.20
63.4684	594.43
63.4828	583.80
63.4972	576.73
63.5117	611.15
63.5261	620.13
63.5406	601.96
63.5550	588.23
63.5694	600.81
63.5839	560.45
63.5983	587.65
63.6128	582.35
63.6272	599.65
63.6416	604.66
63.6561	588.43
63.6705	593.02
63.6850	626.66
63.6994	580.15
63.7138	623.72
63.7283	636.56
63.7427	659.89
63.7572	665.56
63.7716	652.76
63.7861	650.39
63.8005	679.19
63.8149	694.17
63.8294	680.35
63.8438	675.77
63.8583	743.47
63.8727	779.08
63.8871	760.90
63.9016	803.02
63.9160	795.78
63.9305	753.53
63.9449	793.34
63.9593	753.78
63.9738	759.68
63.9882	764.51
64.0027	767.87
64.0171	802.42
64.0315	801.60
64.0460	776.32
64.0604	760.99
64.0749	787.09
64.0893	801.08
64.1037	768.62
64.1182	747.29
64.1326	742.88
64.1471	698.50
64.1615	763.20
64.1759	732.57
64.1904	686.74
64.2048	703.55
64.2193	737.53
64.2337	710.73
64.2481	720.94
64.2626	691.79
64.2770	650.52
64.2915	648.95
64.3059	629.68
64.3203	634.14
64.3348	642.57
64.3492	613.73
64.3637	632.85
64.3781	602.61
64.3925	595.58
64.4070	631.47
64.4214	616.03
64.4359	638.80
64.4503	624.84
64.4647	644.43
64.4792	643.46
64.4936	610.80
64.5081	654.29
64.5225	618.38
64.5369	596.63
64.5514	637.49
64.5658	657.48
64.5803	658.04
64.5947	677.78
64.6091	619.46
64.6236	652.66
64.6380	671.38
64.6525	641.33
64.6669	710.94
64.6813	680.67
64.6958	647.23
64.7102	725.39
64.7247	701.42
64.7391	676.91
64.7535	699.37
64.7680	689.20
64.7824	721.37
64.7969	716.46
64.8113	723.98
64.8257	755.33
64.8402	790.41
64.8546	834.86
64.8691	871.65
64.8835	834.60
64.8979	884.85
64.9124	863.69
64.9268	875.35
64.9413	915.30
64.9557	912.10
64.9701	958.07
64.9846	1112.27
64.9990	1090.94
65.0135	1282.63
65.0279	1458.64
65.0423	1621.10
65.0568	1978.14
65.0712	2455.85
65.0857	3242.15
65.1001	4119.08
65.1145	5714.34
65.1290	7590.58
65.1434	9238.74
65.1579	10566.78
65.1723	11548.80
65.1867	11295.15
65.2012	10151.32
65.2156	8549.98
65.2301	6654.91
65.2445	5461.17
65.2589	4531.91
65.2734	4183.02
65.2878	4313.18
65.3023	4826.41
65.3167	5474.38
65.3311	6342.17
65.3456	6880.37
65.3600	6971.48
65.3745	6459.67
65.3889	5621.40
65.4033	4543.04
65.4178	3554.77
65.4322	2797.90
65.4467	2195.14
65.4611	1722.28
65.4755	1482.17
65.4900	1274.97
65.5044	1125.13
65.5189	1073.25
65.5333	1035.70
65.5477	949.00
65.5622	903.07
65.5766	878.41
65.5911	843.77
65.6055	817.00
65.6199	777.32
65.6344	765.24
65.6488	773.68
65.6633	725.96
65.6777	723.64
65.6921	699.19
65.7066	717.00
65.7210	695.08
65.7355	661.17
65.7499	678.24
65.7643	642.49
65.7788	688.34
65.7932	691.18
65.8077	676.94
65.8221	665.32
65.8365	690.62
65.8510	632.45
65.8654	653.35
65.8799	644.35
65.8943	703.25
65.9087	680.41
65.9232	669.59
65.9376	673.41
65.9521	644.54
65.9665	612.10
65.9809	602.23
65.9954	618.50
66.0098	640.20
66.0243	626.77
66.0387	639.17
66.0531	657.44
66.0676	650.80
66.0820	667.62
66.0965	633.77
66.1109	579.19
66.1253	632.53
66.1398	631.91
66.1542	587.66
66.1687	592.84
66.1831	591.60
66.1975	613.28
66.2120	589.35
66.2264	563.22
66.2409	572.19
66.2553	605.19
66.2697	573.08
66.2842	597.71
66.2986	606.19
66.3131	592.68
66.3275	610.16
66.3419	639.31
66.3564	633.90
66.3708	612.67
66.3853	608.76
66.3997	569.90
66.4141	586.03
66.4286	632.08
66.4430	634.83
66.4575	604.38
66.4719	606.73
66.4863	612.03
66.5008	574.92
66.5152	590.04
66.5297	604.04
66.5441	591.84
66.5585	598.07
66.5730	580.06
66.5874	614.38
66.6019	602.90
66.6163	600.63
66.6307	591.20
66.6452	591.03
66.6596	579.64
66.6741	585.40
66.6885	592.13
66.7029	608.49
66.7174	609.67
66.7318	617.11
66.7463	624.59
66.7607	561.86
66.7751	603.82
66.7896	613.15
66.8040	585.19
66.8185	576.41
66.8329	579.33
66.8473	552.47
66.8618	599.99
66.8762	592.47
66.8907	576.07
66.9051	595.11
66.9195	592.77
66.9340	569.65
66.9484	604.76
66.9629	594.30
66.9773	600.42
66.9917	588.93
67.0062	578.83
67.0206	583.61
67.0351	545.77
67.0495	588.33
67.0639	581.99
67.0784	591.21
67.0928	625.97
67.1073	592.00
67.1217	583.16
67.1361	588.82
67.1506	540.95
67.1650	563.09
67.1795	605.48
67.1939	611.33
67.2083	603.72
67.2228	557.82
67.2372	559.35
67.2517	589.06
67.2661	581.71
67.2805	573.00
67.2950	560.91
67.3094	575.33
67.3239	570.62
67.3383	582.31
67.3527	582.03
67.3672	578.48
67.3816	577.00
67.3961	572.67
67.4105	589.40
67.4250	595.51
67.4394	608.06
67.4538	572.15
67.4683	585.30
67.4827	586.62
67.4972	598.17
67.5116	604.51
67.5260	608.04
67.5405	577.02
67.5549	562.24
67.5694	587.29
67.5838	583.09
67.5982	577.30
67.6127	595.95
67.6271	557.51
67.6416	598.57
67.6560	568.93
67.6704	580.83
67.6849	554.34
67.6993	575.93
67.7138	588.20
67.7282	582.53
67.7426	592.34
67.7571	545.78
67.7715	592.14
67.7860	611.85
67.8004	591.29
67.8148	593.25
67.8293	581.20
67.8437	563.30
67.8582	574.59
67.8726	610.56
67.8870	581.13
67.9015	607.76
67.9159	598.57
67.9304	578.00
67.9448	623.79
67.9592	537.61
67.9737	552.43
67.9881	621.35
68.0026	575.75
68.0170	585.56
68.0314	543.62
68.0459	568.52
68.0603	546.09
68.0748	560.22
68.0892	637.62
68.1036	614.30
68.1181	586.41
68.1325	603.63
68.1470	576.30
68.1614	552.01
68.1758	581.01
68.1903	593.85
68.2047	600.91
68.2192	595.27
68.2336	556.23
68.2480	577.44
68.2625	554.63
68.2769	581.34
68.2914	564.81
68.3058	569.93
68.3202	562.82
68.3347	582.02
68.3491	560.31
68.3636	568.00
68.3780	577.64
68.3924	556.68
68.4069	585.31
68.4213	571.76
68.4358	582.71
68.4502	554.30
68.4646	539.35
68.4791	546.10
68.4935	555.33
68.5080	567.81
68.5224	560.15
68.5368	586.31
68.5513	573.54
68.5657	571.88
68.5802	551.50
68.5946	573.79
68.6090	569.82
68.6235	619.91
68.6379	591.83
68.6524	572.37
68.6668	556.88
68.6812	573.11
68.6957	541.70
68.7101	621.75
68.7246	570.80
68.7390	558.92
68.7534	610.14
68.7679	574.93
68.7823	545.60
68.7968	583.43
68.8112	592.99
68.8256	561.51
68.8401	567.57
68.8545	585.08
68.8690	566.61
68.8834	525.16
68.8978	604.87
68.9123	567.56
68.9267	569.58
68.9412	597.02
68.9556	585.31
68.9700	548.27
68.9845	581.56
68.9989	508.18
69.0134	541.16
69.0278	516.17
69.0422	569.01
69.0567	562.75
69.0711	573.33
69.0856	627.01
69.1000	546.63
69.1144	583.87
69.1289	586.16
69.1433	486.29
69.1578	569.42
69.1722	612.45
69.1866	568.06
69.2011	575.94
69.2155	522.76
69.2300	553.46
69.2444	628.12
69.2588	590.82
69.2733	577.17
69.2877	585.24
69.3022	557.26
69.3166	570.35
69.3310	564.51
69.3455	584.22
69.3599	557.27
69.3744	573.64
69.3888	595.99
69.4032	566.55
69.4177	590.32
69.4321	553.10
69.4466	567.23
69.4610	604.90
69.4754	603.65
69.4899	610.99
69.5043	532.47
69.5188	560.69
69.5332	546.27
69.5476	531.32
69.5621	581.23
69.5765	574.74
69.5910	581.93
69.6054	587.03
69.6198	586.92
69.6343	537.19
69.6487	561.84
69.6632	584.63
69.6776	528.79
69.6920	586.59
69.7065	634.57
69.7209	613.96
69.7354	584.12
69.7498	600.59
69.7642	549.10
69.7787	607.92
69.7931	643.84
69.8076	554.69
69.8220	603.38
69.8364	605.67
69.8509	593.52
69.8653	595.49
69.8798	570.20
69.8942	561.22
69.9086	581.18
69.9231	577.22
69.9375	617.59
69.9520	597.53
69.9664	604.54
69.9808	547.64
69.9953	615.37
70.0097	582.13
70.0242	614.18
70.0386	580.30
70.0530	590.29
70.0675	581.90
70.0819	603.09
70.0964	560.49
70.1108	560.45
70.1252	577.59
70.1397	546.22
70.1541	614.03
70.1686	592.60
70.1830	558.32
70.1974	610.16
70.2119	605.93
70.2263	577.26
70.2408	546.44
70.2552	535.52
70.2696	551.34
70.2841	589.37
70.2985	573.63
70.3130	558.35
70.3274	602.61
70.3418	631.66
70.3563	571.67
70.3707	509.35
70.3852	526.93
70.3996	548.41
70.4140	578.06
70.4285	616.92
70.4429	568.48
70.4574	554.54
70.4718	592.69
70.4862	587.58
70.5007	615.00
70.5151	588.90
70.5296	577.59
70.5440	582.92
70.5584	558.59
70.5729	564.19
70.5873	587.59
70.6018	548.01
70.6162	540.44
70.6306	578.48
70.6451	601.29
70.6595	573.51
70.6740	582.44
70.6884	589.57
70.7028	635.24
70.7173	607.99
70.7317	615.28
70.7462	576.30
70.7606	517.46
70.7750	557.51
70.7895	552.35
70.8039	573.27
70.8184	568.65
70.8328	606.17
70.8472	584.82
70.8617	542.65
70.8761	565.59
70.8906	560.08
70.9050	574.36
70.9194	562.66
70.9339	630.30
70.9483	709.31
70.9628	631.38
70.9772	526.32
70.9916	585.58
71.0061	572.03
71.0205	558.20
71.0350	566.84
71.0494	545.30
71.0638	562.14
71.0783	555.01
71.0927	568.84
71.1072	611.32
71.1216	640.72
71.1361	588.82
71.1505	570.22
71.1649	600.13
71.1794	598.40
71.1938	616.64
71.2083	605.60
71.2227	589.93
71.2371	602.92
71.2516	597.64
71.2660	566.90
71.2805	607.45
71.2949	616.53
71.3093	596.28
71.3238	525.26
71.3382	532.40
71.3527	586.26
71.3671	585.53
71.3815	529.75
71.3960	584.11
71.4104	600.80
71.4249	587.07
71.4393	611.75
71.4537	559.09
71.4682	584.45
71.4826	601.82
71.4971	576.88
71.5115	570.60
71.5259	562.93
71.5404	532.85
71.5548	597.66
71.5693	617.17
71.5837	545.58
71.5981	569.07
71.6126	559.84
71.6270	522.73
71.6415	519.94
71.6559	513.66
71.6703	523.44
71.6848	511.93
71.6992	550.24
71.7137	573.43
71.7281	587.69
71.7425	585.82
71.7570	575.55
71.7714	585.60
71.7859	565.93
71.8003	665.91
71.8147	657.16
71.8292	651.19
71.8436	635.01
71.8581	590.47
71.8725	570.26
71.8869	600.48
71.9014	608.86
71.9158	615.35
71.9303	625.33
71.9447	670.72
71.9591	693.24
71.9736	652.24
71.9880	630.13
72.0025	557.77
72.0169	500.29
72.0313	538.97
72.0458	560.95
72.0602	596.51
72.0747	559.74
72.0891	576.93
72.1035	584.21
72.1180	552.82
72.1324	608.38
72.1469	575.09
72.1613	560.61
72.1757	538.18
72.1902	505.98
72.2046	516.25
72.2191	584.20
72.2335	566.48
72.2479	558.29
72.2624	594.18
72.2768	585.36
72.2913	556.25
72.3057	581.84
72.3201	577.47
72.3346	580.84
72.3490	599.78
72.3635	612.67
72.3779	564.01
72.3923	499.74
72.4068	498.82
72.4212	586.36
72.4357	594.71
72.4501	518.63
72.4645	568.19
72.4790	647.51
72.4934	620.66
72.5079	567.85
72.5223	568.69
72.5367	576.83
72.5512	561.84
72.5656	586.21
72.5801	582.48
72.5945	589.46
72.6089	553.53
72.6234	585.52
72.6378	578.33
72.6523	574.19
72.6667	602.77
72.6811	576.91
72.6956	585.13
72.7100	606.38
72.7245	566.64
72.7389	629.01
72.7533	624.70
72.7678	633.68
72.7822	568.37
72.7967	541.59
72.8111	645.58
72.8255	658.80
72.8400	612.56
72.8544	598.56
72.8689	606.77
72.8833	585.79

Result vector
22.1120	564.94
22.1264	623.46
22.1409	553.85
22.1553	471.03
22.1697	564.02
22.1842	503.81
22.1986	498.00
22.2131	589.66
22.2275	584.29
22.2419	552.48
22.2564	564.73
22.2708	565.92
22.2853	594.63
22.2997	606.24
22.3141	673.54
22.3286	576.23
22.3430	592.81
22.3575	660.56
22.3719	640.69
22.3863	647.88
22.4008	529.80
22.4152	492.34
22.4297	619.55
22.4441	559.76
22.4585	562.45
22.4730	565.43
22.4874	690.17
22.5019	573.36
22.5163	465.27
22.5307	585.77
22.5452	604.69
22.5596	585.74
22.5741	641.17
22.5885	699.46
22.6029	641.67
22.6174	592.64
22.6318	588.47
22.6463	542.65
22.6607	556.78
22.6751	512.84
22.6896	585.34
22.7040	587.63
22.7185	547.40
22.7329	556.27
22.7473	622.58
22.7618	513.83
22.7762	564.91
22.7907	555.04
22.8051	550.37
22.8195	522.09
22.8340	557.93
22.8484	573.64
22.8629	575.15
22.8773	602.48
22.8917	619.62
22.9062	588.03
22.9206	595.27
22.9351	544.95
22.9495	516.22
22.9639	513.01
22.9784	548.15
22.9928	502.78
23.0073	579.01
23.0217	605.91
23.0361	555.88
23.0506	612.16
23.0650	596.98
23.0795	486.42
23.0939	541.15
23.1083	514.08
23.1228	594.23
23.1372	576.12
23.1517	492.50
23.1661	547.55
23.1806	520.54
23.1950	571.64
23.2094	519.46
23.2239	572.17
23.2383	488.53
23.2528	550.08
23.2672	574.90
23.2816	641.56
23.2961	564.84
23.3105	540.20
23.3250	552.18
23.3394	652.94
23.3538	564.47
23.3683	544.40
23.3827	522.15
23.3972	491.76
23.4116	566.79
23.4260	550.92
23.4405	516.29
23.4549	553.67
23.4694	593.58
23.4838	634.82
23.4982	626.25
23.5127	552.50
23.5271	538.28
23.5416	530.94
23.5560	554.73
23.5704	565.54
23.5849	564.35
23.5993	573.61
23.6138	497.86
23.6282	538.05
23.6426	621.72
23.6571	590.26
23.6715	502.64
23.6860	576.73
23.7004	538.18
23.7148	537.28
23.7293	474.97
23.7437	553.53
23.7582	579.58
23.7726	544.05
23.7870	559.67
23.8015	537.84
23.8159	568.94
23.8304	587.84
23.8448	492.33
23.8592	548.14
23.8737	598.88
23.8881	551.32
23.9026	536.88
23.9170	526.74
23.9314	548.28
23.9459	587.83
23.9603	549.41
23.9748	545.95
23.9892	514.89
24.0036	525.16
24.0181	567.68
24.0325	535.73
24.0470	569.28
24.0614	571.80
24.0758	556.77
24.0903	606.31
24.1047	539.54
24.1192	612.81
24.1336	565.49
24.1480	563.70
24.1625	602.41
24.1769	619.50
24.1914	590.06
24.2058	620.32
24.2202	571.60
24.2347	603.55
24.2491	614.48
24.2636	571.86
24.2780	554.19
24.2924	525.03
24.3069	547.49
24.3213	635.80
24.3358	593.34
24.3502	549.24
24.3646	562.28
24.3791	542.80
24.3935	445.28
24.4080	536.53
24.4224	547.26
24.4368	520.91
24.4513	572.31
24.4657	567.64
24.4802	492.31
24.4946	583.32
24.5090	532.60
24.5235	547.14
24.5379	504.61
24.5524	488.86
24.5668	556.52
24.5812	551.77
24.5957	561.55
24.6101	530.43
24.6246	579.95
24.6390	565.32
24.6534	566.34
24.6679	553.85
24.6823	549.08
24.6968	586.52
24.7112	583.01
24.7256	526.90
24.7401	535.70
24.7545	528.53
24.7690	517.76
24.7834	562.44
24.7978	557.79
24.8123	568.65
24.8267	519.42
24.8412	508.40
24.8556	560.89
24.8700	548.66
24.8845	521.31
24.8989	552.17
24.9134	551.33
24.9278	535.99
24.9422	519.45
24.9567	479.52
24.9711	539.81
24.9856	508.18
25.0000	519.44
25.0144	492.69
25.0289	586.66
25.0433	494.17
25.0578	489.01
25.0722	511.59
25.0866	559.46
25.1011	563.62
25.1155	602.67
25.1300	570.35
25.1444	548.80
25.1588	536.53
25.1733	560.02
25.1877	526.20
25.2022	503.24
25.2166	555.52
25.2310	580.90
25.2455	556.52
25.2599	515.00
25.2744	544.05
25.2888	558.81
25.3032	516.43
25.3177	578.03
25.3321	567.04
25.3466	508.95
25.3610	528.62
25.3754	523.17
25.3899	529.09
25.4043	512.17
25.4188	480.64
25.4332	542.19
25.4476	553.77
25.4621	527.86
25.4765	553.56
25.4910	539.58
25.5054	504.04
25.5198	504.52
25.5343	513.06
25.5487	529.25
25.5632	549.77
25.5776	502.34
25.5920	507.19
25.6065	558.81
25.6209	539.26
25.6354	520.20
25.6498	537.64
25.6642	515.99
25.6787	482.59
25.6931	520.05
25.7076	518.43
25.7220	531.96
25.7364	530.62
25.7509	543.50
25.7653	558.57
25.7798	526.77
25.7942	526.52
25.8086	517.03
25.8231	568.46
25.8375	536.13
25.8520	522.71
25.8664	548.69
25.8808	538.04
25.8953	539.43
25.9097	535.22
25.9242	548.54
25.9386	539.26
25.9530	498.10
25.9675	483.28
25.9819	509.40
25.9964	542.74
26.0108	537.90
26.0252	534.21
26.0397	538.50
26.0541	535.05
26.0686	532.36
26.0830	494.64
26.0974	490.03
26.1119	514.33
26.1263	568.30
26.1408	540.22
26.1552	510.36
26.1696	522.87
26.1841	541.52
26.1985	549.11
26.2130	543.17
26.2274	521.67
26.2418	538.04
26.2563	556.07
26.2707	567.90
26.2852	549.47
26.2996	527.65
26.3140	561.47
26.3285	565.30
26.3429	561.46
26.3574	551.73
26.3718	545.53
26.3862	526.51
26.4007	530.05
26.4151	523.23
26.4296	506.07
26.4440	510.90
26.4584	519.51
26.4729	528.34
26.4873	539.68
26.5018	538.15
26.5162	545.11
26.5306	516.29
26.5451	504.19
26.5595	517.86
26.5740	537.16
26.5884	554.31
26.6028	526.82
26.6173	541.72
26.6317	540.42
26.6462	551.82
26.6606	569.46
26.6750	523.16
26.6895	527.15
26.7039	545.34
26.7184	546.19
26.7328	512.58
26.7472	526.91
26.7617	517.05
26.7761	534.15
26.7906	515.79
26.8050	524.30
26.8194	512.24
26.8339	547.15
26.8483	521.30
26.8628	515.43
26.8772	541.11
26.8917	538.75
26.9061	527.83
26.9205	527.97
26.9350	523.18
26.9494	518.73
26.9639	511.42
26.9783	512.23
26.9927	510.69
27.0072	465.66
27.0216	504.36
27.0361	538.27
27.0505	547.63
27.0649	536.86
27.0794	534.00
27.0938	559.74
27.1083	527.44
27.1227	515.63
27.1371	501.14
27.1516	502.84
27.1660	550.73
27.1805	529.91
27.1949	506.88
27.2093	536.18
27.2238	513.31
27.2382	538.53
27.2527	497.20
27.2671	511.40
27.2815	518.66
27.2960	503.30
27.3104	483.19
27.3249	510.54
27.3393	549.58
27.3537	546.78
27.3682	489.65
27.3826	516.78
27.3971	491.04
27.4115	507.78
27.4259	546.90
27.4404	536.13
27.4548	507.56
27.4693	513.97
27.4837	515.07
27.4981	519.70
27.5126	516.13
27.5270	533.85
27.5415	517.39
27.5559	524.07
27.5703	521.22
27.5848	517.31
27.5992	523.95
27.6137	513.32
27.6281	537.14
27.6425	532.93
27.6570	507.05
27.6714	513.96
27.6859	537.94
27.7003	521.34
27.7147	506.70
27.7292	526.08
27.7436	510.11
27.7581	502.45
27.7725	505.09
27.7869	502.83
27.8014	514.22
27.8158	512.70
27.8303	520.99
27.8447	501.42
27.8591	529.80
27.8736	520.49
27.8880	503.05
27.9025	515.76
27.9169	542.77
27.9313	527.24
27.9458	511.27
27.9602	496.99
27.9747	516.81
27.9891	506.83
28.0035	495.94
28.0180	498.97
28.0324	506.39
28.0469	524.64
28.0613	525.83
28.0757	517.38
28.0902	553.20
28.1046	536.03
28.1191	535.91
28.1335	518.85
28.1479	494.47
28.1624	482.99
28.1768	525.94
28.1913	507.71
28.2057	496.84
28.2201	512.95
28.2346	512.24
28.2490	519.00
28.2635	537.41
28.2779	521.41
28.2923	523.40
28.3068	530.64
28.3212	524.95
28.3357	475.58
28.3501	506.74
28.3645	509.74
28.3790	519.66
28.3934	495.50
28.4079	497.44
28.4223	534.04
28.4367	550.89
28.4512	524.22
28.4656	498.14
28.4801	497.49
28.4945	529.18
28.5089	495.78
28.5234	482.89
28.5378	508.47
28.5523	494.11
28.5667	476.36
28.5811	493.92
28.5956	522.15
28.6100	521.69
28.6245	507.85
28.6389	524.71
28.6533	509.87
28.6678	507.77
28.6822	518.94
28.6967	475.37
28.7111	530.99
28.7255	548.14
28.7400	534.35
28.7544	550.76
28.7689	496.28
28.7833	505.78
28.7977	497.79
28.8122	488.46
28.8266	498.62
28.8411	554.78
28.8555	523.78
28.8699	511.04
28.8844	507.65
28.8988	503.00
28.9133	515.40
28.9277	475.99
28.9421	495.43
28.9566	498.89
28.9710	506.96
28.9855	480.84
28.9999	505.89
29.0143	526.74
29.0288	474.61
29.0432	520.26
29.0577	472.40
29.0721	487.30
29.0865	533.95
29.1010	500.99
29.1154	541.83
29.1299	545.84
29.1443	520.88
29.1587	525.08
29.1732	534.20
29.1876	517.01
29.2021	500.42
29.2165	489.16
29.2309	496.42
29.2454	502.74
29.2598	485.12
29.2743	522.05
29.2887	528.61
29.3031	517.70
29.3176	512.45
29.3320	506.81
29.3465	527.43
29.3609	509.99
29.3753	517.32
29.3898	503.89
29.4042	523.89
29.4187	532.84
29.4331	536.17
29.4475	509.02
29.4620	522.65
29.4764	537.39
29.4909	510.77
29.5053	500.43
29.5197	500.34
29.5342	514.34
29.5486	520.25
29.5631	496.41
29.5775	498.57
29.5919	483.72
29.6064	509.50
29.6208	465.34
29.6353	515.54
29.6497	519.76
29.6641	459.13
29.6786	482.73
29.6930	462.38
29.7075	528.00
29.7219	554.12
29.7363	515.61
29.7508	502.69
29.7652	474.49
29.7797	518.67
29.7941	527.65
29.8085	503.78
29.8230	521.63
29.8374	525.27
29.8519	511.41
29.8663	532.67
29.8807	536.01
29.8952	486.90
29.9096	471.70
29.9241	485.53
29.9385	515.54
29.9529	526.83
29.9674	514.58
29.9818	504.58
29.9963	509.79
30.0107	525.03
30.0251	482.23
30.0396	467.04
30.0540	481.92
30.0685	485.97
30.0829	513.91
30.0973	522.78
30.1118	503.31
30.1262	545.36
30.1407	502.40
30.1551	473.19
30.1695	533.85
30.1840	527.01
30.1984	506.17
30.2129	487.21
30.2273	458.69
30.2417	501.86
30.2562	436.14
30.2706	474.38
30.2851	524.82
30.2995	528.04
30.3139	540.04
30.3284	519.61
30.3428	501.69
30.3573	489.03
30.3717	513.56
30.3861	500.45
30.4006	533.73
30.4150	478.98
30.4295	486.05
30.4439	493.96
30.4583	499.28
30.4728	466.60
30.4872	496.22
30.5017	490.82
30.5161	482.61
30.5305	523.95
30.5450	527.49
30.5594	531.35
30.5739	535.60
30.5883	534.55
30.6028	546.71
30.6172	543.59
30.6316	570.12
30.6461	586.96
30.6605	589.91
30.6750	594.58
30.6894	616.18
30.7038	681.64
30.7183	670.62
30.7327	665.43
30.7472	656.72
30.7616	674.55
30.7760	700.41
30.7905	703.06
30.8049	650.49
30.8194	668.26
30.8338	654.86
30.8482	616.47
30.8627	629.38
30.8771	609.95
30.8916	582.41
30.9060	577.54
30.9204	535.13
30.9349	542.32
30.9493	504.88
30.9638	520.29
30.9782	542.80
30.9926	531.12
31.0071	510.73
31.0215	523.01
31.0360	523.59
31.0504	497.72
31.0648	517.66
31.0793	525.01
31.0937	566.70
31.1082	542.28
31.1226	505.55
31.1370	490.47
31.1515	506.70
31.1659	493.67
31.1804	481.57
31.1948	499.67
31.2092	504.15
31.2237	490.12
31.2381	498.07
31.2526	522.57
31.2670	521.98
31.2814	538.70
31.2959	535.88
31.3103	531.80
31.3248	530.76
31.3392	526.42
31.3536	509.92
31.3681	495.06
31.3825	505.03
31.3970	500.49
31.4114	519.17
31.4258	523.39
31.4403	520.59
31.4547	513.61
31.4692	487.36
31.4836	515.18
31.4980	519.74
31.5125	513.38
31.5269	530.70
31.5414	503.53
31.5558	469.27
31.5702	498.81
31.5847	498.95
31.5991	473.22
31.6136	496.72
31.6280	502.28
31.6424	538.08
31.6569	496.02
31.6713	502.88
31.6858	491.46
31.7002	507.96
31.7146	518.35
31.7291	510.70
31.7435	507.80
31.7580	497.37
31.7724	506.83
31.7868	521.15
31.8013	522.78
31.8157	551.26
31.8302	554.80
31.8446	503.09
31.8590	520.85
31.8735	503.98
31.8879	537.75
31.9024	542.24
31.9168	527.93
31.9312	495.86
31.9457	525.97
31.9601	503.89
31.9746	512.19
31.9890	511.20
32.0034	519.61
32.0179	503.76
32.0323	491.02
32.0468	486.30
32.0612	541.95
32.0756	522.82
32.0901	510.79
32.1045	493.41
32.1190	508.27
32.1334	528.84
32.1478	495.80
32.1623	532.14
32.1767	522.06
32.1912	472.78
32.2056	501.92
32.2200	495.15
32.2345	494.19
32.2489	503.25
32.2634	523.54
32.2778	512.39
32.2922	550.66
32.3067	527.60
32.3211	497.36
32.3356	492.31
32.3500	500.11
32.3644	522.69
32.3789	543.52
32.3933	504.97
32.4078	508.95
32.4222	544.86
32.4366	517.29
32.4511	488.92
32.4655	516.82
32.4800	513.60
32.4944	498.11
32.5088	502.17
32.5233	501.96
32.5377	496.69
32.5522	480.84
32.5666	526.60
32.5810	498.84
32.5955	482.46
32.6099	501.06
32.6244	488.19
32.6388	511.80
32.6532	511.99
32.6677	517.05
32.6821	485.09
32.6966	508.97
32.7110	517.55
32.7254	488.52
32.7399	460.16
32.7543	493.31
32.7688	482.45
32.7832	487.30
32.7976	504.16
32.8121	489.24
32.8265	517.83
32.8410	530.53
32.8554	493.41
32.8698	522.83
32.8843	474.85
32.8987	486.44
32.9132	483.98
32.9276	499.22
32.9420	534.42
32.9565	499.95
32.9709	523.54
32.9854	510.26
32.9998	484.10
33.0142	486.22
33.0287	500.91
33.0431	516.52
33.0576	502.12
33.0720	513.15
33.0864	516.33
33.1009	524.13
33.1153	551.38
33.1298	513.38
33.1442	506.62
33.1586	511.69
33.1731	490.90
33.1875	489.45
33.2020	508.97
33.2164	518.22
33.2308	477.55
33.2453	496.46
33.2597	486.71
33.2742	524.62
33.2886	516.32
33.3030	498.35
33.3175	526.60
33.3319	528.38
33.3464	522.63
33.3608	509.67
33.3752	520.09
33.3897	452.67
33.4041	475.67
33.4186	510.82
33.4330	518.60
33.4474	516.90
33.4619	537.61
33.4763	520.70
33.4908	472.36
33.5052	494.63
33.5196	507.24
33.5341	489.86
33.5485	496.08
33.5630	503.26
33.5774	490.24
33.5918	473.62
33.6063	526.16
33.6207	526.50
33.6352	509.15
33.6496	498.58
33.6640	528.06
33.6785	472.02
33.6929	486.60
33.7074	527.85
33.7218	506.51
33.7362	505.54
33.7507	528.40
33.7651	454.61
33.7796	479.74
33.7940	527.37
33.8084	524.02
33.8229	545.10
33.8373	532.94
33.8518	533.31
33.8662	536.66
33.8806	507.34
33.8951	525.12
33.9095	500.75
33.9240	518.90
33.9384	512.02
33.9528	482.06
33.9673	494.90
33.9817	473.85
33.9962	532.40
34.0106	523.94
34.0250	525.54
34.0395	521.38
34.0539	493.82
34.0684	512.56
34.0828	478.51
34.0972	520.57
34.1117	503.87
34.1261	498.18
34.1406	512.06
34.1550	503.30
34.1694	529.45
34.1839	485.01
34.1983	498.93
34.2128	506.78
34.2272	526.08
34.2417	535.28
34.2561	495.64
34.2705	505.88
34.2850	522.18
34.2994	516.05
34.3139	529.99
34.3283	524.68
34.3427	535.42
34.3572	488.69
34.3716	492.80
34.3861	486.42
34.4005	494.69
34.4149	479.55
34.4294	504.91
34.4438	517.65
34.4583	515.80
34.4727	511.23
34.4871	503.00
34.5016	534.65
34.5160	500.11
34.5305	528.14
34.5449	499.38
34.5593	484.49
34.5738	497.72
34.5882	492.03
34.6027	472.91
34.6171	489.69
34.6315	502.27
34.6460	493.21
34.6604	490.53
34.6749	516.43
34.6893	517.86
34.7037	524.81
34.7182	530.61
34.7326	481.25
34.7471	463.48
34.7615	472.02
34.7759	512.81
34.7904	528.45
34.8048	514.21
34.8193	500.12
34.8337	520.59
34.8481	497.83
34.8626	525.74
34.8770	547.47
34.8915	495.37
34.9059	512.65
34.9203	509.55
34.9348	538.26
34.9492	541.09
34.9637	506.43
34.9781	510.54
34.9925	513.07
35.0070	510.09
35.0214	495.11
35.0359	511.04
35.0503	550.48
35.0647	546.74
35.0792	528.56
35.0936	518.90
35.1081	513.89
35.1225	535.62
35.1369	535.95
35.1514	446.81
35.1658	475.65
35.1803	488.63
35.1947	497.38
35.2091	503.03
35.2236	497.15
35.2380	492.43
35.2525	508.66
35.2669	508.62
35.2813	521.68
35.2958	495.20
35.3102	515.82
35.3247	500.10
35.3391	501.02
35.3535	506.80
35.3680	501.47
35.3824	499.49
35.3969	491.82
35.4113	512.96
35.4257	543.42
35.4402	560.32
35.4546	529.84
35.4691	564.14
35.4835	566.63
35.4979	549.19
35.5124	525.64
35.5268	519.36
35.5413	565.93
35.5557	531.29
35.5701	522.52
35.5846	533.16
35.5990	504.06
35.6135	502.01
35.6279	520.55
35.6423	533.71
35.6568	519.23
35.6712	520.23
35.6857	580.26
35.7001	661.68
35.7145	720.28
35.7290	675.96
35.7434	608.57
35.7579	574.97
35.7723	581.44
35.7867	659.22
35.8012	712.78
35.8156	714.10
35.8301	709.30
35.8445	687.69
35.8589	684.41
35.8734	726.08
35.8878	860.11
35.9023	1039.37
35.9167	1036.55
35.9311	1209.45
35.9456	1826.45
35.9600	2222.70
35.9745	2026.59
35.9889	2060.06
36.0033	2556.68
36.0178	3301.24
36.0322	2901.96
36.0467	2078.70
36.0611	1811.57
36.0755	1696.95
36.0900	1746.93
36.1044	1497.98
36.1189	1407.91
36.1333	1524.41
36.1477	1302.08
36.1622	1299.96
36.1766	1235.94
36.1911	1219.06
36.2055	1168.90
36.2199	1109.69
36.2344	1035.64
36.2488	1005.09
36.2633	953.74
36.2777	927.50
36.2921	904.66
36.3066	875.71
36.3210	829.78
36.3355	767.83
36.3499	776.04
36.3643	733.81
36.3788	644.81
36.3932	595.00
36.4077	579.90
36.4221	629.32
36.4365	600.19
36.4510	557.18
36.4654	595.66
36.4799	570.57
36.4943	543.20
36.5087	585.85
36.5232	548.36
36.5376	551.81
36.5521	560.21
36.5665	564.30
36.5809	512.61
36.5954	518.01
36.6098	530.78
36.6243	473.20
36.6387	570.27
36.6531	531.98
36.6676	586.46
36.6820	518.67
36.6965	533.59
36.7109	547.68
36.7253	499.37
36.7398	534.49
36.7542	510.99
36.7687	559.91
36.7831	557.42
36.7975	526.29
36.8120	538.80
36.8264	567.90
36.8409	581.69
36.8553	566.07
36.8697	561.30
36.8842	605.90
36.8986	614.53
36.9131	603.77
36.9275	581.62
36.9419	570.38
36.9564	540.43
36.9708	565.03
36.9853	568.90
36.9997	539.96
37.0141	508.26
37.0286	537.76
37.0430	541.01
37.0575	501.98
37.0719	531.38
37.0863	530.19
37.1008	511.43
37.1152	470.63
37.1297	545.26
37.1441	498.73
37.1585	538.31
37.1730	534.09
37.1874	520.86
37.2019	495.46
37.2163	484.55
37.2307	506.82
37.2452	496.87
37.2596	474.83
37.2741	499.22
37.2885	537.92
37.3029	488.47
37.3174	506.45
37.3318	524.05
37.3463	508.71
37.3607	472.43
37.3751	477.96
37.3896	492.52
37.4040	508.19
37.4185	471.33
37.4329	481.27
37.4473	504.45
37.4618	488.38
37.4762	538.85
37.4907	491.88
37.5051	472.34
37.5195	502.43
37.5340	500.21
37.5484	513.88
37.5629	519.54
37.5773	490.70
37.5917	542.67
37.6062	522.74
37.6206	446.54
37.6351	504.15
37.6495	485.17
37.6639	507.73
37.6784	491.76
37.6928	512.95
37.7073	505.27
37.7217	507.23
37.7361	499.58
37.7506	508.93
37.7650	505.70
37.7795	526.31
37.7939	531.23
37.8083	543.34
37.8228	497.47
37.8372	531.84
37.8517	514.15
37.8661	504.32
37.8805	504.48
37.8950	532.37
37.9094	504.62
37.9239	479.90
37.9383	508.56
37.9528	505.01
37.9672	516.40
37.9816	526.28
37.9961	529.88
38.0105	497.38
38.0250	531.24
38.0394	487.19
38.0538	488.84
38.0683	524.25
38.0827	510.46
38.0972	535.26
38.1116	498.96
38.1260	505.29
38.1405	488.26
38.1549	503.56
38.1694	533.27
38.1838	511.79
38.1982	516.01
38.2127	517.86
38.2271	494.68
38.2416	463.75
38.2560	481.11
38.2704	484.53
38.2849	511.27
38.2993	511.28
38.3138	475.26
38.3282	489.28
38.3426	538.44
38.3571	512.85
38.3715	494.07
38.3860	511.28
38.4004	540.60
38.4148	545.83
38.4293	591.92
38.4437	575.21
38.4582	611.51
38.4726	681.65
38.4870	677.05
38.5015	730.14
38.5159	743.73
38.5304	794.31
38.5448	770.22
38.5592	774.23
38.5737	735.59
38.5881	716.64
38.6026	707.16
38.6170	704.24
38.6314	658.24
38.6459	676.99
38.6603	661.30
38.6748	610.87
38.6892	574.09
38.7036	540.99
38.7181	509.43
38.7325	520.40
38.7470	541.58
38.7614	531.58
38.7758	517.41
38.7903	542.01
38.8047	553.07
38.8192	538.41
38.8336	513.90
38.8480	494.17
38.8625	489.20
38.8769	502.88
38.8914	511.74
38.9058	528.77
38.9202	515.01
38.9347	495.82
38.9491	453.96
38.9636	468.46
38.9780	493.75
38.9924	493.47
39.0069	471.99
39.0213	454.19
39.0358	506.59
39.0502	527.90
39.0646	522.51
39.0791	514.48
39.0935	565.06
39.1080	517.18
39.1224	492.03
39.1368	475.17
39.1513	489.36
39.1657	507.67
39.1802	508.56
39.1946	500.51
39.2090	489.50
39.2235	500.53
39.2379	488.80
39.2524	515.33
39.2668	499.30
39.2812	531.44
39.2957	488.70
39.3101	484.05
39.3246	506.33
39.3390	499.19
39.3534	502.54
39.3679	516.45
39.3823	471.80
39.3968	503.93
39.4112	506.98
39.4256	508.61
39.4401	505.56
39.4545	503.41
39.4690	513.61
39.4834	525.10
39.4978	491.58
39.5123	516.34
39.5267	490.73
39.5412	463.02
39.5556	492.34
39.5700	486.75
39.5845	484.38
39.5989	503.00
39.6134	503.00
39.6278	485.65
39.6422	500.94
39.6567	500.33
39.6711	497.99
39.6856	498.03
39.7000	520.88
39.7144	511.56
39.7289	514.61
39.7433	506.06
39.7578	522.45
39.7722	533.50
39.7866	517.50
39.8011	483.47
39.8155	489.93
39.8300	510.92
39.8444	501.50
39.8588	476.91
39.8733	500.45
39.8877	492.71
39.9022	492.18
39.9166	503.24
39.9310	505.63
39.9455	503.63
39.9599	465.73
39.9744	458.11
39.9888	487.69
40.0032	481.37
40.0177	480.79
40.0321	502.00
40.0466	509.93
40.0610	480.71
40.0754	535.45
40.0899	535.45
40.1043	484.94
40.1188	510.40
40.1332	523.38
40.1476	477.27
40.1621	489.53
40.1765	525.44
40.1910	507.03
40.2054	523.21
40.2198	493.73
40.2343	477.05
40.2487	469.13
40.2632	467.53
40.2776	502.42
40.2920	468.65
40.3065	504.29
40.3209	501.63
40.3354	538.24
40.3498	520.68
40.3642	479.08
40.3787	489.46
40.3931	484.18
40.4076	463.54
40.4220	491.10
40.4364	511.90
40.4509	518.57
40.4653	523.34
40.4798	492.96
40.4942	490.51
40.5086	465.51
40.5231	506.81
40.5375	516.53
40.5520	488.88
40.5664	511.10
40.5808	502.37
40.5953	534.06
40.6097	524.49
40.6242	498.44
40.6386	524.96
40.6530	529.92
40.6675	514.66
40.6819	483.20
40.6964	504.52
40.7108	529.19
40.7252	490.15
40.7397	483.74
40.7541	487.00
40.7686	505.29
40.7830	507.78
40.7974	504.62
40.8119	498.46
40.8263	511.63
40.8408	522.02
40.8552	500.78
40.8696	483.14
40.8841	492.55
40.8985	524.01
40.9130	470.71
40.9274	474.53
40.9418	502.13
40.9563	466.04
40.9707	472.63
40.9852	478.49
40.9996	480.68
41.0140	530.28
41.0285	492.22
41.0429	498.44
41.0574	491.53
41.0718	504.97
41.0862	522.71
41.1007	526.36
41.1151	520.17
41.1296	522.62
41.1440	471.61
41.1584	502.09
41.1729	510.20
41.1873	518.68
41.2018	514.07
41.2162	496.15
41.2306	474.98
41.2451	481.41
41.2595	486.39
41.2740	495.06
41.2884	514.52
41.3028	526.20
41.3173	504.13
41.3317	522.48
41.3462	507.52
41.3606	491.74
41.3750	536.44
41.3895	524.09
41.4039	502.89
41.4184	505.12
41.4328	512.57
41.4472	529.35
41.4617	507.92
41.4761	498.37
41.4906	501.49
41.5050	488.73
41.5194	491.05
41.5339	524.12
41.5483	488.54
41.5628	519.12
41.5772	504.18
41.5916	494.22
41.6061	486.66
41.6205	515.80
41.6350	522.63
41.6494	488.14
41.6639	446.30
41.6783	514.26
41.6927	493.72
41.7072	499.52
41.7216	492.51
41.7361	498.04
41.7505	498.06
41.7649	486.26
41.7794	503.23
41.7938	512.30
41.8083	512.84
41.8227	492.36
41.8371	515.87
41.8516	519.57
41.8660	521.06
41.8805	505.17
41.8949	527.51
41.9093	527.52
41.9238	553.79
41.9382	557.53
41.9527	562.38
41.9671	571.94
41.9815	512.36
41.9960	550.44
42.0104	558.89
42.0249	547.75
42.0393	558.53
42.0537	548.58
42.0682	587.05
42.0826	627.48
42.0971	601.81
42.1115	556.15
42.1259	586.67
42.1404	593.87
42.1548	633.42
42.1693	659.86
42.1837	687.77
42.1981	754.61
42.2126	841.95
42.2270	972.83
42.2415	1055.22
42.2559	1230.25
42.2703	1373.52
42.2848	1581.72
42.2992	1659.69
42.3137	1702.51
42.3281	1698.33
42.3425	1571.17
42.3570	1487.79
42.3714	1468.46
42.3859	1455.43
42.4003	1363.62
42.4147	1303.84
42.4292	1302.04
42.4436	1229.60
42.4581	1104.07
42.4725	956.99
42.4869	861.57
42.5014	743.22
42.5158	707.76
42.5303	665.42
42.5447	614.03
42.5591	626.12
42.5736	588.54
42.5880	574.84
42.6025	571.96
42.6169	520.83
42.6313	543.79
42.6458	543.49
42.6602	533.03
42.6747	540.10
42.6891	524.87
42.7035	531.99
42.7180	523.13
42.7324	513.05
42.7469	539.83
42.7613	531.48
42.7757	543.45
42.7902	498.55
42.8046	502.83
42.8191	507.44
42.8335	549.42
42.8479	504.34
42.8624	507.44
42.8768	522.68
42.8913	506.90
42.9057	545.49
42.9201	534.23
42.9346	522.08
42.9490	514.49
42.9635	491.06
42.9779	467.24
42.9923	521.35
43.0068	517.30
43.0212	501.34
43.0357	526.67
43.0501	517.68
43.0645	501.15
43.0790	516.65
43.0934	504.07
43.1079	534.95
43.1223	524.71
43.1367	505.07
43.1512	482.38
43.1656	517.63
43.1801	520.44
43.1945	482.40
43.2089	513.34
43.2234	526.07
43.2378	524.33
43.2523	510.79
43.2667	504.84
43.2811	504.84
43.2956	509.60
43.3100	531.14
43.3245	538.92
43.3389	547.51
43.3533	512.83
43.3678	528.05
43.3822	497.02
43.3967	500.44
43.4111	549.53
43.4255	547.82
43.4400	501.39
43.4544	457.88
43.4689	509.38
43.4833	501.36
43.4977	494.87
43.5122	529.29
43.5266	521.38
43.5411	529.25
43.5555	509.91
43.5699	504.72
43.5844	497.45
43.5988	496.42
43.6133	531.61
43.6277	550.55
43.6421	527.47
43.6566	517.16
43.6710	502.39
43.6855	518.24
43.6999	547.05
43.7143	561.54
43.7288	552.94
43.7432	563.78
43.7577	525.79
43.7721	510.55
43.7865	549.85
43.8010	545.43
43.8154	547.58
43.8299	502.97
43.8443	525.32
43.8587	566.33
43.8732	543.49
43.8876	519.19
43.9021	571.17
43.9165	586.83
43.9309	588.57
43.9454	527.01
43.9598	558.13
43.9743	597.36
43.9887	618.96
44.0031	600.62
44.0176	620.44
44.0320	599.07
44.0465	610.45
44.0609	595.19
44.0753	599.40
44.0898	606.18
44.1042	605.05
44.1187	573.69
44.1331	583.48
44.1475	574.88
44.1620	559.95
44.1764	545.20
44.1909	565.96
44.2053	587.89
44.2197	556.04
44.2342	515.52
44.2486	578.09
44.2631	542.90
44.2775	524.70
44.2919	524.06
44.3064	560.95
44.3208	540.42
44.3353	554.96
44.3497	559.38
44.3641	529.61
44.3786	520.93
44.3930	527.64
44.4075	546.09
44.4219	559.85
44.4363	558.01
44.4508	569.23
44.4652	591.23
44.4797	592.80
44.4941	595.92
44.5085	584.91
44.5230	563.02
44.5374	610.65
44.5519	592.62
44.5663	592.73
44.5807	608.51
44.5952	590.66
44.6096	558.65
44.6241	559.20
44.6385	561.47
44.6529	571.59
44.6674	582.00
44.6818	572.29
44.6963	611.65
44.7107	649.81
44.7251	676.65
44.7396	732.77
44.7540	804.71
44.7685	826.21
44.7829	876.37
44.7973	938.01
44.8118	877.06
44.8262	802.76
44.8407	783.96
44.8551	770.14
44.8695	757.81
44.8840	718.86
44.8984	796.81
44.9129	745.99
44.9273	717.42
44.9417	714.36
44.9562	635.41
44.9706	548.51
44.9851	543.22
44.9995	546.71
45.0139	559.07
45.0284	511.03
45.0428	507.47
45.0573	536.72
45.0717	532.84
45.0861	567.75
45.1006	512.37
45.1150	497.82
45.1295	509.73
45.1439	488.16
45.1583	510.44
45.1728	514.66
45.1872	492.29
45.2017	485.50
45.2161	513.60
45.2305	539.62
45.2450	536.94
45.2594	513.45
45.2739	516.83
45.2883	488.16
45.3028	478.35
45.3172	530.37
45.3316	513.96
45.3461	500.81
45.3605	494.45
45.3750	486.54
45.3894	496.01
45.4038	475.01
45.4183	475.19
45.4327	514.72
45.4472	463.94
45.4616	512.88
45.4760	529.60
45.4905	480.36
45.5049	506.18
45.5194	515.24
45.5338	515.83
45.5482	505.19
45.5627	501.88
45.5771	507.76
45.5916	510.53
45.6060	501.32
45.6204	494.87
45.6349	477.85
45.6493	477.26
45.6638	502.93
45.6782	512.45
45.6926	523.52
45.7071	498.20
45.7215	529.77
45.7360	531.38
45.7504	554.61
45.7648	513.16
45.7793	484.58
45.7937	486.09
45.8082	484.97
45.8226	487.53
45.8370	532.26
45.8515	496.02
45.8659	516.24
45.8804	496.87
45.8948	515.83
45.9092	520.53
45.9237	495.27
45.9381	491.82
45.9526	505.75
45.9670	482.75
45.9814	486.16
45.9959	510.71
46.0103	519.18
46.0248	494.54
46.0392	462.90
46.0536	492.39
46.0681	501.55
46.0825	476.17
46.0970	472.34
46.1114	533.25
46.1258	496.67
46.1403	502.14
46.1547	478.20
46.1692	502.58
46.1836	492.16
46.1980	471.77
46.2125	517.46
46.2269	507.27
46.2414	491.86
46.2558	499.99
46.2702	485.94
46.2847	512.75
46.2991	519.17
46.3136	526.72
46.3280	515.49
46.3424	527.71
46.3569	520.91
46.3713	512.04
46.3858	521.32
46.4002	469.73
46.4146	483.43
46.4291	514.22
46.4435	497.32
46.4580	493.29
46.4724	498.98
46.4868	510.33
46.5013	514.74
46.5157	494.04
46.5302	480.29
46.5446	445.23
46.5590	493.22
46.5735	468.86
46.5879	478.65
46.6024	473.58
46.6168	527.91
46.6312	497.73
46.6457	503.37
46.6601	536.60
46.6746	506.87
46.6890	512.23
46.7034	539.83
46.7179	505.16
46.7323	503.76
46.7468	512.39
46.7612	487.08
46.7756	482.86
46.7901	503.82
46.8045	491.63
46.8190	486.09
46.8334	499.46
46.8478	466.17
46.8623	482.07
46.8767	512.95
46.8912	517.17
46.9056	533.03
46.9200	479.65
46.9345	477.46
46.9489	497.98
46.9634	460.69
46.9778	493.62
46.9922	501.72
47.0067	513.40
47.0211	494.75
47.0356	521.76
47.0500	515.85
47.0644	538.16
47.0789	526.94
47.0933	526.75
47.1078	486.29
47.1222	529.64
47.1366	567.78
47.1511	520.76
47.1655	513.73
47.1800	489.11
47.1944	503.84
47.2088	512.16
47.2233	503.33
47.2377	509.10
47.2522	496.55
47.2666	504.55
47.2810	530.01
47.2955	521.23
47.3099	488.05
47.3244	490.41
47.3388	477.24
47.3532	503.23
47.3677	503.19
47.3821	520.10
47.3966	495.73
47.4110	469.75
47.4254	501.12
47.4399	507.59
47.4543	463.10
47.4688	498.68
47.4832	501.14
47.4976	547.54
47.5121	532.67
47.5265	506.75
47.5410	474.97
47.5554	499.56
47.5698	504.62
47.5843	490.28
47.5987	473.28
47.6132	515.31
47.6276	523.89
47.6420	506.01
47.6565	508.21
47.6709	479.34
47.6854	462.20
47.6998	482.89
47.7142	511.07
47.7287	516.09
47.7431	506.80
47.7576	521.69
47.7720	510.38
47.7864	509.46
47.8009	508.43
47.8153	501.82
47.8298	485.09
47.8442	462.18
47.8586	483.26
47.8731	526.92
47.8875	501.37
47.9020	483.09
47.9164	496.91
47.9308	486.46
47.9453	526.80
47.9597	482.35
47.9742	475.35
47.9886	502.76
48.0030	510.24
48.0175	489.49
48.0319	508.14
48.0464	475.09
48.0608	484.44
48.0752	523.05
48.0897	530.81
48.1041	515.01
48.1186	505.65
48.1330	522.90
48.1474	481.33
48.1619	518.37
48.1763	529.37
48.1908	538.01
48.2052	489.35
48.2196	517.70
48.2341	556.09
48.2485	505.82
48.2630	493.88
48.2774	511.24
48.2918	506.79
48.3063	522.43
48.3207	534.85
48.3352	516.48
48.3496	472.16
48.3640	499.82
48.3785	489.27
48.3929	509.10
48.4074	486.06
48.4218	525.53
48.4362	546.93
48.4507	484.15
48.4651	509.23
48.4796	544.23
48.4940	505.45
48.5084	483.38
48.5229	519.04
48.5373	522.43
48.5518	511.60
48.5662	515.28
48.5806	514.78
48.5951	519.21
48.6095	502.11
48.6240	537.52
48.6384	514.74
48.6528	516.88
48.6673	528.14
48.6817	502.10
48.6962	549.23
48.7106	554.10
48.7250	538.39
48.7395	534.36
48.7539	542.19
48.7684	503.97
48.7828	518.86
48.7972	530.59
48.8117	525.14
48.8261	544.08
48.8406	545.63
48.8550	540.78
48.8694	508.09
48.8839	558.74
48.8983	537.98
48.9128	531.75
48.9272	547.43
48.9416	556.76
48.9561	576.98
48.9705	565.35
48.9850	547.50
48.9994	580.02
49.0139	590.64
49.0283	578.31
49.0427	615.21
49.0572	632.30
49.0716	680.51
49.0861	724.08
49.1005	730.50
49.1149	743.13
49.1294	754.32
49.1438	769.34
49.1583	808.36
49.1727	883.09
49.1871	945.74
49.2016	967.34
49.2160	1038.21
49.2305	1098.16
49.2449	1188.97
49.2593	1318.89
49.2738	1376.56
49.2882	1521.20
49.3027	1555.64
49.3171	1629.63
49.3315	1727.81
49.3460	1782.67
49.3604	1859.57
49.3749	1832.89
49.3893	1828.44
49.4037	1758.33
49.4182	1798.28
49.4326	1798.50
49.4471	1683.36
49.4615	1574.78
49.4759	1566.81
49.4904	1534.42
49.5048	1423.54
49.5193	1399.68
49.5337	1287.76
49.5481	1228.50
49.5626	1193.84
49.5770	1080.36
49.5915	1004.38
49.6059	944.48
49.6203	869.64
49.6348	825.92
49.6492	811.40
49.6637	769.62
49.6781	725.24
49.6925	676.42
49.7070	674.34
49.7214	666.08
49.7359	674.05
49.7503	635.85
49.7647	589.99
49.7792	580.30
49.7936	589.84
49.8081	597.29
49.8225	585.34
49.8369	570.58
49.8514	567.21
49.8658	566.46
49.8803	549.31
49.8947	550.36
49.9091	551.64
49.9236	547.10
49.9380	562.79
49.9525	546.09
49.9669	501.49
49.9813	497.88
49.9958	574.29
50.0102	542.39
50.0247	577.72
50.0391	542.19
50.0535	551.05
50.0680	568.81
50.0824	540.10
50.0969	527.90
50.1113	541.52
50.1257	551.14
50.1402	548.99
50.1546	498.16
50.1691	509.56
50.1835	508.59
50.1979	518.17
50.2124	514.91
50.2268	526.14
50.2413	531.31
50.2557	513.99
50.2701	480.82
50.2846	478.06
50.2990	481.38
50.3135	488.51
50.3279	496.99
50.3423	502.28
50.3568	520.13
50.3712	474.91
50.3857	494.82
50.4001	517.51
50.4145	515.53
50.4290	547.60
50.4434	516.29
50.4579	519.12
50.4723	528.87
50.4867	525.82
50.5012	524.83
50.5156	495.10
50.5301	506.48
50.5445	519.77
50.5589	504.57
50.5734	525.76
50.5878	528.32
50.6023	515.96
50.6167	458.74
50.6311	498.62
50.6456	488.49
50.6600	499.01
50.6745	494.66
50.6889	517.65
50.7033	529.82
50.7178	515.53
50.7322	495.43
50.7467	486.44
50.7611	494.87
50.7755	502.31
50.7900	524.23
50.8044	514.25
50.8189	559.70
50.8333	513.39
50.8477	504.51
50.8622	546.84
50.8766	537.28
50.8911	519.08
50.9055	503.44
50.9199	497.05
50.9344	508.59
50.9488	529.35
50.9633	488.47
50.9777	486.93
50.9921	523.05
51.0066	507.91
51.0210	466.69
51.0355	491.36
51.0499	504.13
51.0643	520.01
51.0788	493.20
51.0932	481.99
51.1077	499.76
51.1221	511.33
51.1365	511.34
51.1510	516.96
51.1654	526.97
51.1799	508.86
51.1943	489.13
51.2087	514.25
51.2232	516.39
51.2376	518.90
51.2521	490.33
51.2665	481.06
51.2809	497.82
51.2954	515.71
51.3098	496.15
51.3243	496.18
51.3387	492.67
51.3531	516.67
51.3676	530.04
51.3820	501.27
51.3965	503.70
51.4109	544.41
51.4253	548.17
51.4398	508.15
51.4542	487.60
51.4687	538.45
51.4831	538.01
51.4975	506.32
51.5120	528.12
51.5264	531.57
51.5409	511.97
51.5553	508.81
51.5697	492.52
51.5842	513.16
51.5986	521.41
51.6131	484.10
51.6275	507.32
51.6419	542.75
51.6564	553.50
51.6708	530.42
51.6853	479.45
51.6997	512.86
51.7141	559.61
51.7286	509.06
51.7430	488.49
51.7575	488.94
51.7719	469.87
51.7863	525.84
51.8008	504.27
51.8152	507.14
51.8297	544.36
51.8441	514.46
51.8585	518.23
51.8730	522.27
51.8874	512.05
51.9019	514.30
51.9163	527.08
51.9307	523.90
51.9452	512.72
51.9596	483.98
51.9741	489.98
51.9885	483.25
52.0029	507.34
52.0174	533.61
52.0318	548.14
52.0463	483.10
52.0607	512.11
52.0751	539.80
52.0896	518.22
52.1040	477.51
52.1185	527.83
52.1329	549.81
52.1473	488.61
52.1618	526.58
52.1762	500.28
52.1907	500.94
52.2051	499.69
52.2195	497.71
52.2340	493.24
52.2484	526.46
52.2629	492.07
52.2773	518.08
52.2917	502.11
52.3062	520.79
52.3206	509.31
52.3351	500.00
52.3495	531.84
52.3639	525.21
52.3784	476.54
52.3928	464.59
52.4073	514.54
52.4217	535.53
52.4361	536.23
52.4506	471.23
52.4650	513.36
52.4795	513.89
52.4939	529.09
52.5083	531.51
52.5228	509.82
52.5372	477.05
52.5517	489.58
52.5661	530.86
52.5805	563.28
52.5950	543.32
52.6094	484.76
52.6239	518.61
52.6383	508.54
52.6527	510.12
52.6672	494.83
52.6816	513.03
52.6961	515.97
52.7105	495.40
52.7250	517.17
52.7394	499.70
52.7538	521.05
52.7683	515.84
52.7827	504.32
52.7972	494.57
52.8116	513.16
52.8260	506.26
52.8405	524.74
52.8549	509.09
52.8694	541.45
52.8838	494.16
52.8982	526.59
52.9127	511.82
52.9271	528.51
52.9416	489.33
52.9560	515.67
52.9704	508.27
52.9849	526.33
52.9993	532.07
53.0138	532.12
53.0282	475.19
53.0426	491.66
53.0571	530.75
53.0715	519.98
53.0860	467.57
53.1004	499.07
53.1148	513.01
53.1293	534.57
53.1437	498.99
53.1582	501.26
53.1726	496.37
53.1870	526.75
53.2015	514.52
53.2159	546.94
53.2304	499.86
53.2448	524.22
53.2592	519.50
53.2737	525.02
53.2881	523.90
53.3026	509.53
53.3170	518.28
53.3314	503.95
53.3459	520.66
53.3603	518.66
53.3748	534.43
53.3892	479.34
53.4036	506.30
53.4181	493.13
53.4325	530.96
53.4470	497.73
53.4614	496.61
53.4758	522.55
53.4903	527.19
53.5047	514.69
53.5192	547.30
53.5336	547.00
53.5480	547.66
53.5625	541.46
53.5769	533.40
53.5914	529.53
53.6058	490.31
53.6202	519.10
53.6347	514.62
53.6491	501.76
53.6636	552.85
53.6780	537.49
53.6924	513.21
53.7069	510.39
53.7213	529.83
53.7358	485.76
53.7502	482.44
53.7646	498.48
53.7791	482.03
53.7935	484.18
53.8080	521.19
53.8224	512.03
53.8368	540.57
53.8513	539.18
53.8657	525.11
53.8802	516.03
53.8946	527.33
53.9090	545.97
53.9235	531.12
53.9379	537.12
53.9524	517.56
53.9668	571.64
53.9812	536.85
53.9957	504.23
54.0101	519.12
54.0246	497.60
54.0390	499.80
54.0534	480.31
54.0679	491.48
54.0823	518.56
54.0968	526.30
54.1112	521.46
54.1256	539.07
54.1401	527.90
54.1545	488.79
54.1690	512.92
54.1834	520.04
54.1978	497.62
54.2123	517.09
54.2267	514.78
54.2412	541.98
54.2556	531.61
54.2700	510.34
54.2845	512.45
54.2989	516.24
54.3134	500.25
54.3278	526.47
54.3422	535.14
54.3567	536.16
54.3711	520.66
54.3856	543.55
54.4000	549.36
54.4144	528.54
54.4289	535.38
54.4433	521.64
54.4578	519.04
54.4722	546.34
54.4866	568.24
54.5011	575.31
54.5155	584.30
54.5300	572.79
54.5444	589.08
54.5588	587.46
54.5733	572.35
54.5877	596.31
54.6022	571.47
54.6166	543.12
54.6310	557.98
54.6455	561.86
54.6599	573.87
54.6744	577.47
54.6888	573.97
54.7032	588.14
54.7177	570.47
54.7321	544.18
54.7466	561.32
54.7610	552.82
54.7754	558.32
54.7899	549.00
54.8043	544.80
54.8188	545.49
54.8332	535.24
54.8476	532.47
54.8621	543.47
54.8765	514.02
54.8910	502.75
54.9054	532.43
54.9198	560.23
54.9343	549.20
54.9487	547.06
54.9632	523.90
54.9776	527.80
54.9920	529.63
55.0065	516.64
55.0209	502.58
55.0354	509.01
55.0498	503.03
55.0642	533.22
55.0787	548.12
55.0931	532.79
55.1076	513.74
55.1220	551.13
55.1364	541.98
55.1509	504.54
55.1653	491.93
55.1798	518.56
55.1942	536.50
55.2086	535.15
55.2231	551.49
55.2375	538.94
55.2520	531.80
55.2664	512.39
55.2808	528.97
55.2953	520.93
55.3097	498.03
55.3242	519.22
55.3386	536.73
55.3530	508.98
55.3675	502.76
55.3819	491.62
55.3964	503.33
55.4108	505.16
55.4252	513.90
55.4397	524.64
55.4541	522.61
55.4686	519.33
55.4830	516.96
55.4974	518.02
55.5119	480.48
55.5263	492.48
55.5408	531.29
55.5552	560.37
55.5696	530.47
55.5841	519.90
55.5985	531.53
55.6130	523.36
55.6274	485.33
55.6418	500.88
55.6563	530.25
55.6707	500.83
55.6852	496.13
55.6996	523.83
55.7140	535.99
55.7285	520.74
55.7429	489.59
55.7574	516.30
55.7718	523.86
55.7862	514.05
55.8007	519.29
55.8151	568.16
55.8296	541.21
55.8440	526.29
55.8584	529.95
55.8729	552.33
55.8873	517.85
55.9018	531.75
55.9162	511.74
55.9306	528.72
55.9451	564.30
55.9595	486.57
55.9740	532.88
55.9884	514.40
56.0028	475.58
56.0173	502.43
56.0317	541.86
56.0462	505.95
56.0606	514.18
56.0750	527.28
56.0895	554.27
56.1039	564.99
56.1184	564.99
56.1328	488.68
56.1472	494.77
56.1617	546.39
56.1761	517.83
56.1906	515.85
56.2050	528.06
56.2194	522.00
56.2339	515.53
56.2483	512.54
56.2628	508.97
56.2772	507.93
56.2916	486.32
56.3061	512.42
56.3205	524.48
56.3350	521.94
56.3494	530.85
56.3639	481.64
56.3783	487.30
56.3927	503.77
56.4072	507.01
56.4216	494.70
56.4361	470.25
56.4505	519.57
56.4649	546.65
56.4794	535.23
56.4938	561.47
56.5083	509.61
56.5227	516.97
56.5371	497.26
56.5516	499.24
56.5660	515.31
56.5805	495.69
56.5949	470.95
56.6093	510.75
56.6238	517.80
56.6382	549.90
56.6527	541.99
56.6671	554.72
56.6815	528.02
56.6960	501.47
56.7104	514.73
56.7249	532.16
56.7393	534.76
56.7537	529.15
56.7682	501.44
56.7826	535.33
56.7971	531.39
56.8115	542.95
56.8259	505.75
56.8404	522.10
56.8548	522.40
56.8693	554.15
56.8837	507.50
56.8981	526.94
56.9126	511.31
56.9270	526.59
56.9415	510.64
56.9559	504.70
56.9703	542.27
56.9848	533.53
56.9992	567.01
57.0137	525.69
57.0281	538.80
57.0425	521.82
57.0570	528.50
57.0714	538.04
57.0859	523.96
57.1003	543.80
57.1147	521.80
57.1292	524.23
57.1436	499.89
57.1581	508.55
57.1725	505.09
57.1869	528.24
57.2014	532.22
57.2158	530.91
57.2303	530.76
57.2447	505.46
57.2591	492.90
57.2736	499.38
57.2880	495.50
57.3025	511.40
57.3169	553.35
57.3313	534.99
57.3458	477.73
57.3602	532.02
57.3747	549.64
57.3891	503.25
57.4035	516.06
57.4180	511.78
57.4324	523.37
57.4469	507.27
57.4613	515.59
57.4757	507.61
57.4902	517.50
57.5046	527.66
57.5191	519.71
57.5335	510.62
57.5479	504.71
57.5624	516.00
57.5768	522.57
57.5913	552.68
57.6057	511.71
57.6201	495.27
57.6346	554.38
57.6490	560.35
57.6635	518.33
57.6779	493.75
57.6923	521.27
57.7068	597.15
57.7212	521.18
57.7357	534.01
57.7501	541.13
57.7645	539.06
57.7790	552.91
57.7934	511.19
57.8079	546.45
57.8223	538.53
57.8367	546.90
57.8512	528.42
57.8656	539.56
57.8801	558.48
57.8945	544.73
57.9089	551.82
57.9234	526.37
57.9378	569.28
57.9523	568.92
57.9667	547.75
57.9811	528.07
57.9956	549.73
58.0100	530.38
58.0245	519.20
58.0389	551.02
58.0533	597.84
58.0678	581.10
58.0822	619.00
58.0967	603.75
58.1111	621.62
58.1255	637.35
58.1400	578.53
58.1544	607.13
58.1689	624.67
58.1833	612.55
58.1977	618.85
58.2122	665.06
58.2266	687.04
58.2411	669.64
58.2555	666.48
58.2699	617.91
58.2844	688.49
58.2988	661.25
58.3133	633.12
58.3277	660.36
58.3421	639.20
58.3566	648.30
58.3710	657.17
58.3855	638.09
58.3999	603.22
58.4143	588.46
58.4288	599.01
58.4432	583.03
58.4577	605.10
58.4721	599.97
58.4865	590.01
58.5010	572.31
58.5154	556.96
58.5299	528.28
58.5443	533.89
58.5587	536.63
58.5732	551.98
58.5876	590.00
58.6021	558.53
58.6165	523.38
58.6309	548.12
58.6454	520.30
58.6598	516.68
58.6743	534.10
58.6887	529.63
58.7031	551.54
58.7176	553.68
58.7320	529.40
58.7465	504.15
58.7609	556.91
58.7753	534.82
58.7898	544.69
58.8042	571.47
58.8187	499.66
58.8331	528.96
58.8475	540.00
58.8620	556.44
58.8764	555.86
58.8909	534.05
58.9053	541.60
58.9197	546.04
58.9342	554.96
58.9486	552.65
58.9631	557.11
58.9775	524.49
58.9919	533.33
59.0064	539.58
59.0208	543.91
59.0353	534.13
59.0497	522.04
59.0641	537.83
59.0786	555.97
59.0930	537.10
59.1075	517.68
59.1219	534.15
59.1363	544.91
59.1508	518.90
59.1652	519.57
59.1797	544.58
59.1941	534.75
59.2085	544.81
59.2230	577.74
59.2374	597.34
59.2519	561.80
59.2663	516.08
59.2807	549.54
59.2952	523.68
59.3096	541.45
59.3241	519.26
59.3385	573.76
59.3529	576.61
59.3674	555.16
59.3818	558.26
59.3963	519.98
59.4107	526.06
59.4251	583.25
59.4396	552.05
59.4540	537.93
59.4685	541.18
59.4829	561.22
59.4973	560.13
59.5118	555.75
59.5262	556.33
59.5407	560.99
59.5551	550.15
59.5695	564.35
59.5840	549.53
59.5984	557.09
59.6129	545.92
59.6273	516.95
59.6417	513.67
59.6562	539.82
59.6706	516.17
59.6851	521.21
59.6995	565.92
59.7139	576.34
59.7284	533.64
59.7428	556.99
59.7573	515.45
59.7717	556.34
59.7861	547.35
59.8006	530.09
59.8150	539.45
59.8295	544.75
59.8439	531.29
59.8583	567.56
59.8728	544.30
59.8872	521.31
59.9017	562.75
59.9161	550.62
59.9305	518.72
59.9450	618.71
59.9594	561.49
59.9739	571.35
59.9883	573.79
60.0027	532.28
60.0172	534.04
60.0316	544.41
60.0461	544.79
60.0605	532.16
60.0750	538.09
60.0894	535.08
60.1038	540.38
60.1183	573.04
60.1327	535.14
60.1472	508.04
60.1616	488.63
60.1760	507.73
60.1905	513.05
60.2049	541.90
60.2194	534.76
60.2338	563.45
60.2482	562.11
60.2627	533.97
60.2771	523.53
60.2916	505.61
60.3060	512.69
60.3204	522.84
60.3349	500.30
60.3493	560.58
60.3638	550.75
60.3782	545.02
60.3926	501.12
60.4071	494.31
60.4215	543.66
60.4360	558.50
60.4504	531.87
60.4648	550.86
60.4793	561.76
60.4937	555.17
60.5082	569.89
60.5226	534.42
60.5370	562.85
60.5515	544.74
60.5659	534.28
60.5804	548.78
60.5948	565.86
60.6092	545.04
60.6237	511.03
60.6381	514.38
60.6526	521.27
60.6670	505.13
60.6814	511.42
60.6959	495.86
60.7103	572.81
60.7248	537.89
60.7392	527.66
60.7536	522.22
60.7681	553.07
60.7825	560.11
60.7970	564.51
60.8114	574.88
60.8258	527.81
60.8403	530.14
60.8547	537.89
60.8692	530.91
60.8836	581.27
60.8980	541.07
60.9125	515.45
60.9269	512.58
60.9414	533.31
60.9558	551.94
60.9702	555.43
60.9847	511.04
60.9991	528.78
61.0136	567.59
61.0280	551.34
61.0424	532.08
61.0569	520.23
61.0713	527.78
61.0858	510.51
61.1002	568.35
61.1146	528.69
61.1291	572.35
61.1435	532.05
61.1580	539.25
61.1724	558.36
61.1868	525.56
61.2013	537.49
61.2157	565.19
61.2302	517.01
61.2446	529.97
61.2590	516.51
61.2735	535.67
61.2879	534.40
61.3024	541.95
61.3168	523.65
61.3312	553.23
61.3457	553.10
61.3601	518.06
61.3746	532.35
61.3890	511.03
61.4034	534.83
61.4179	548.83
61.4323	563.34
61.4468	526.07
61.4612	527.69
61.4756	574.69
61.4901	564.99
61.5045	538.67
61.5190	559.72
61.5334	535.82
61.5478	512.41
61.5623	555.60
61.5767	541.80
61.5912	548.52
61.6056	556.51
61.6200	551.33
61.6345	561.64
61.6489	525.76
61.6634	519.59
61.6778	500.44
61.6922	530.56
61.7067	565.87
61.7211	576.79
61.7356	548.84
61.7500	570.79
61.7644	524.24
61.7789	543.81
61.7933	500.82
61.8078	541.16
61.8222	592.39
61.8366	576.03
61.8511	545.47
61.8655	543.15
61.8800	552.41
61.8944	594.39
61.9088	563.70
61.9233	540.91
61.9377	531.15
61.9522	510.91
61.9666	521.26
61.9810	555.52
61.9955	576.38
62.0099	546.48
62.0244	562.01
62.0388	494.16
62.0532	526.52
62.0677	575.13
62.0821	557.56
62.0966	529.12
62.1110	503.12
62.1254	525.93
62.1399	555.66
62.1543	541.17
62.1688	575.81
62.1832	557.14
62.1976	508.22
62.2121	543.02
62.2265	559.74
62.2410	557.55
62.2554	549.95
62.2698	558.05
62.2843	549.26
62.2987	527.75
62.3132	571.13
62.3276	546.28
62.3420	538.07
62.3565	552.94
62.3709	574.10
62.3854	552.10
62.3998	538.38
62.4142	531.00
62.4287	571.36
62.4431	561.22
62.4576	552.93
62.4720	583.01
62.4864	576.55
62.5009	549.04
62.5153	524.14
62.5298	529.48
62.5442	554.06
62.5586	537.44
62.5731	556.74
62.5875	597.26
62.6020	557.52
62.6164	556.97
62.6308	580.95
62.6453	569.54
62.6597	533.50
62.6742	543.81
62.6886	534.53
62.7030	537.31
62.7175	548.41
62.7319	562.56
62.7464	577.99
62.7608	548.59
62.7752	511.74
62.7897	580.34
62.8041	576.16
62.8186	540.38
62.8330	569.78
62.8474	521.64
62.8619	560.75
62.8763	549.98
62.8908	531.89
62.9052	550.34
62.9196	548.32
62.9341	583.97
62.9485	592.32
62.9630	531.38
62.9774	544.93
62.9918	546.42
63.0063	532.58
63.0207	557.68
63.0352	572.01
63.0496	550.06
63.0640	586.25
63.0785	579.80
63.0929	590.22
63.1074	559.93
63.1218	560.03
63.1362	556.88
63.1507	543.54
63.1651	612.58
63.1796	539.62
63.1940	544.63
63.2084	560.83
63.2229	559.35
63.2373	558.10
63.2518	578.56
63.2662	551.48
63.2806	572.22
63.2951	571.36
63.3095	533.17
63.3240	536.26
63.3384	607.45
63.3528	596.29
63.3673	586.77
63.3817	557.73
63.3962	563.71
63.4106	531.10
63.4250	534.25
63.4395	582.51
63.4539	566.20
63.4684	594.43
63.4828	583.80
63.4972	576.73
63.5117	611.15
63.5261	620.13
63.5406	601.96
63.5550	588.23
63.5694	600.81
63.5839	560.45
63.5983	587.65
63.6128	582.35
63.6272	599.65
63.6416	604.66
63.6561	588.43
63.6705	593.02
63.6850	626.66
63.6994	580.15
63.7138	623.72
63.7283	636.56
63.7427	659.89
63.7572	665.56
63.7716	652.76
63.7861	650.39
63.8005	679.19
63.8149	694.17
63.8294	680.35
63.8438	675.77
63.8583	743.47
63.8727	779.08
63.8871	760.90
63.9016	803.02
63.9160	795.78
63.9305	753.53
63.9449	793.34
63.9593	753.78
63.9738	759.68
63.9882	764.51
64.0027	767.87
64.0171	802.42
64.0315	801.60
64.0460	776.32
64.0604	760.99
64.0749	787.09
64.0893	801.08
64.1037	768.62
64.1182	747.29
64.1326	742.88
64.1471	698.50
64.1615	763.20
64.1759	732.57
64.1904	686.74
64.2048	703.55
64.2193	737.53
64.2337	710.73
64.2481	720.94
64.2626	691.79
64.2770	650.52
64.2915	648.95
64.3059	629.68
64.3203	634.14
64.3348	642.57
64.3492	613.73
64.3637	632.85
64.3781	602.61
64.3925	595.58
64.4070	631.47
64.4214	616.03
64.4359	638.80
64.4503	624.84
64.4647	644.43
64.4792	643.46
64.4936	610.80
64.5081	654.29
64.5225	618.38
64.5369	596.63
64.5514	637.49
64.5658	657.48
64.5803	658.04
64.5947	677.78
64.6091	619.46
64.6236	652.66
64.6380	671.38
64.6525	641.33
64.6669	710.94
64.6813	680.67
64.6958	647.23
64.7102	725.39
64.7247	701.42
64.7391	676.91
64.7535	699.37
64.7680	689.20
64.7824	721.37
64.7969	716.46
64.8113	723.98
64.8257	755.33
64.8402	790.41
64.8546	834.86
64.8691	871.65
64.8835	834.60
64.8979	884.85
64.9124	863.69
64.9268	875.35
64.9413	915.30
64.9557	912.10
64.9701	958.07
64.9846	1112.27
64.9990	1090.94
65.0135	1282.63
65.0279	1458.64
65.0423	1621.10
65.0568	1978.14
65.0712	2455.85
65.0857	3242.15
65.1001	4119.08
65.1145	5714.34
65.1290	7590.58
65.1434	9238.74
65.1579	10566.78
65.1723	11548.80
65.1867	11295.15
65.2012	10151.32
65.2156	8549.98
65.2301	6654.91
65.2445	5461.17
65.2589	4531.91
65.2734	4183.02
65.2878	4313.18
65.3023	4826.41
65.3167	5474.38
65.3311	6342.17
65.3456	6880.37
65.3600	6971.48
65.3745	6459.67
65.3889	5621.40
65.4033	4543.04
65.4178	3554.77
65.4322	2797.90
65.4467	2195.14
65.4611	1722.28
65.4755	1482.17
65.4900	1274.97
65.5044	1125.13
65.5189	1073.25
65.5333	1035.70
65.5477	949.00
65.5622	903.07
65.5766	878.41
65.5911	843.77
65.6055	817.00
65.6199	777.32
65.6344	765.24
65.6488	773.68
65.6633	725.96
65.6777	723.64
65.6921	699.19
65.7066	717.00
65.7210	695.08
65.7355	661.17
65.7499	678.24
65.7643	642.49
65.7788	688.34
65.7932	691.18
65.8077	676.94
65.8221	665.32
65.8365	690.62
65.8510	632.45
65.8654	653.35
65.8799	644.35
65.8943	703.25
65.9087	680.41
65.9232	669.59
65.9376	673.41
65.9521	644.54
65.9665	612.10
65.9809	602.23
65.9954	618.50
66.0098	640.20
66.0243	626.77
66.0387	639.17
66.0531	657.44
66.0676	650.80
66.0820	667.62
66.0965	633.77
66.1109	579.19
66.1253	632.53
66.1398	631.91
66.1542	587.66
66.1687	592.84
66.1831	591.60
66.1975	613.28
66.2120	589.35
66.2264	563.22
66.2409	572.19
66.2553	605.19
66.2697	573.08
66.2842	597.71
66.2986	606.19
66.3131	592.68
66.3275	610.16
66.3419	639.31
66.3564	633.90
66.3708	612.67
66.3853	608.76
66.3997	569.90
66.4141	586.03
66.4286	632.08
66.4430	634.83
66.4575	604.38
66.4719	606.73
66.4863	612.03
66.5008	574.92
66.5152	590.04
66.5297	604.04
66.5441	591.84
66.5585	598.07
66.5730	580.06
66.5874	614.38
66.6019	602.90
66.6163	600.63
66.6307	591.20
66.6452	591.03
66.6596	579.64
66.6741	585.40
66.6885	592.13
66.7029	608.49
66.7174	609.67
66.7318	617.11
66.7463	624.59
66.7607	561.86
66.7751	603.82
66.7896	613.15
66.8040	585.19
66.8185	576.41
66.8329	579.33
66.8473	552.47
66.8618	599.99
66.8762	592.47
66.8907	576.07
66.9051	595.11
66.9195	592.77
66.9340	569.65
66.9484	604.76
66.9629	594.30
66.9773	600.42
66.9917	588.93
67.0062	578.83
67.0206	583.61
67.0351	545.77
67.0495	588.33
67.0639	581.99
67.0784	591.21
67.0928	625.97
67.1073	592.00
67.1217	583.16
67.1361	588.82
67.1506	540.95
67.1650	563.09
67.1795	605.48
67.1939	611.33
67.2083	603.72
67.2228	557.82
67.2372	559.35
67.2517	589.06
67.2661	581.71
67.2805	573.00
67.2950	560.91
67.3094	575.33
67.3239	570.62
67.3383	582.31
67.3527	582.03
67.3672	578.48
67.3816	577.00
67.3961	572.67
67.4105	589.40
67.4250	595.51
67.4394	608.06
67.4538	572.15
67.4683	585.30
67.4827	586.62
67.4972	598.17
67.5116	604.51
67.5260	608.04
67.5405	577.02
67.5549	562.24
67.5694	587.29
67.5838	583.09
67.5982	577.30
67.6127	595.95
67.6271	557.51
67.6416	598.57
67.6560	568.93
67.6704	580.83
67.6849	554.34
67.6993	575.93
67.7138	588.20
67.7282	582.53
67.7426	592.34
67.7571	545.78
67.7715	592.14
67.7860	611.85
67.8004	591.29
67.8148	593.25
67.8293	581.20
67.8437	563.30
67.8582	574.59
67.8726	610.56
67.8870	581.13
67.9015	607.76
67.9159	598.57
67.9304	578.00
67.9448	623.79
67.9592	537.61
67.9737	552.43
67.9881	621.35
68.0026	575.75
68.0170	585.56
68.0314	543.62
68.0459	568.52
68.0603	546.09
68.0748	560.22
68.0892	637.62
68.1036	614.30
68.1181	586.41
68.1325	603.63
68.1470	576.30
68.1614	552.01
68.1758	581.01
68.1903	593.85
68.2047	600.91
68.2192	595.27
68.2336	556.23
68.2480	577.44
68.2625	554.63
68.2769	581.34
68.2914	564.81
68.3058	569.93
68.3202	562.82
68.3347	582.02
68.3491	560.31
68.3636	568.00
68.3780	577.64
68.3924	556.68
68.4069	585.31
68.4213	571.76
68.4358	582.71
68.4502	554.30
68.4646	539.35
68.4791	546.10
68.4935	555.33
68.5080	567.81
68.5224	560.15
68.5368	586.31
68.5513	573.54
68.5657	571.88
68.5802	551.50
68.5946	573.79
68.6090	569.82
68.6235	619.91
68.6379	591.83
68.6524	572.37
68.6668	556.88
68.6812	573.11
68.6957	541.70
68.7101	621.75
68.7246	570.80
68.7390	558.92
68.7534	610.14
68.7679	574.93
68.7823	545.60
68.7968	583.43
68.8112	592.99
68.8256	561.51
68.8401	567.57
68.8545	585.08
68.8690	566.61
68.8834	525.16
68.8978	604.87
68.9123	567.56
68.9267	569.58
68.9412	597.02
68.9556	585.31
68.9700	548.27
68.9845	581.56
68.9989	508.18
69.0134	541.16
69.0278	516.17
69.0422	569.01
69.0567	562.75
69.0711	573.33
69.0856	627.01
69.1000	546.63
69.1144	583.87
69.1289	586.16
69.1433	486.29
69.1578	569.42
69.1722	612.45
69.1866	568.06
69.2011	575.94
69.2155	522.76
69.2300	553.46
69.2444	628.12
69.2588	590.82
69.2733	577.17
69.2877	585.24
69.3022	557.26
69.3166	570.35
69.3310	564.51
69.3455	584.22
69.3599	557.27
69.3744	573.64
69.3888	595.99
69.4032	566.55
69.4177	590.32
69.4321	553.10
69.4466	567.23
69.4610	604.90
69.4754	603.65
69.4899	610.99
69.5043	532.47
69.5188	560.69
69.5332	546.27
69.5476	531.32
69.5621	581.23
69.5765	574.74
69.5910	581.93
69.6054	587.03
69.6198	586.92
69.6343	537.19
69.6487	561.84
69.6632	584.63
69.6776	528.79
69.6920	586.59
69.7065	634.57
69.7209	613.96
69.7354	584.12
69.7498	600.59
69.7642	549.10
69.7787	607.92
69.7931	643.84
69.8076	554.69
69.8220	603.38
69.8364	605.67
69.8509	593.52
69.8653	595.49
69.8798	570.20
69.8942	561.22
69.9086	581.18
69.9231	577.22
69.9375	617.59
69.9520	597.53
69.9664	604.54
69.9808	547.64
69.9953	615.37
70.0097	582.13
70.0242	614.18
70.0386	580.30
70.0530	590.29
70.0675	581.90
70.0819	603.09
70.0964	560.49
70.1108	560.45
70.1252	577.59
70.1397	546.22
70.1541	614.03
70.1686	592.60
70.1830	558.32
70.1974	610.16
70.2119	605.93
70.2263	577.26
70.2408	546.44
70.2552	535.52
70.2696	551.34
70.2841	589.37
70.2985	573.63
70.3130	558.35
70.3274	602.61
70.3418	631.66
70.3563	571.67
70.3707	509.35
70.3852	526.93
70.3996	548.41
70.4140	578.06
70.4285	616.92
70.4429	568.48
70.4574	554.54
70.4718	592.69
70.4862	587.58
70.5007	615.00
70.5151	588.90
70.5296	577.59
70.5440	582.92
70.5584	558.59
70.5729	564.19
70.5873	587.59
70.6018	548.01
70.6162	540.44
70.6306	578.48
70.6451	601.29
70.6595	573.51
70.6740	582.44
70.6884	589.57
70.7028	635.24
70.7173	607.99
70.7317	615.28
70.7462	576.30
70.7606	517.46
70.7750	557.51
70.7895	552.35
70.8039	573.27
70.8184	568.65
70.8328	606.17
70.8472	584.82
70.8617	542.65
70.8761	565.59
70.8906	560.08
70.9050	574.36
70.9194	562.66
70.9339	630.30
70.9483	709.31
70.9628	631.38
70.9772	526.32
70.9916	585.58
71.0061	572.03
71.0205	558.20
71.0350	566.84
71.0494	545.30
71.0638	562.14
71.0783	555.01
71.0927	568.84
71.1072	611.32
71.1216	640.72
71.1361	588.82
71.1505	570.22
71.1649	600.13
71.1794	598.40
71.1938	616.64
71.2083	605.60
71.2227	589.93
71.2371	602.92
71.2516	597.64
71.2660	566.90
71.2805	607.45
71.2949	616.53
71.3093	596.28
71.3238	525.26
71.3382	532.40
71.3527	586.26
71.3671	585.53
71.3815	529.75
71.3960	584.11
71.4104	600.80
71.4249	587.07
71.4393	611.75
71.4537	559.09
71.4682	584.45
71.4826	601.82
71.4971	576.88
71.5115	570.60
71.5259	562.93
71.5404	532.85
71.5548	597.66
71.5693	617.17
71.5837	545.58
71.5981	569.07
71.6126	559.84
71.6270	522.73
71.6415	519.94
71.6559	513.66
71.6703	523.44
71.6848	511.93
71.6992	550.24
71.7137	573.43
71.7281	587.69
71.7425	585.82
71.7570	575.55
71.7714	585.60
71.7859	565.93
71.8003	665.91
71.8147	657.16
71.8292	651.19
71.8436	635.01
71.8581	590.47
71.8725	570.26
71.8869	600.48
71.9014	608.86
71.9158	615.35
71.9303	625.33
71.9447	670.72
71.9591	693.24
71.9736	652.24
71.9880	630.13
72.0025	557.77
72.0169	500.29
72.0313	538.97
72.0458	560.95
72.0602	596.51
72.0747	559.74
72.0891	576.93
72.1035	584.21
72.1180	552.82
72.1324	608.38
72.1469	575.09
72.1613	560.61
72.1757	538.18
72.1902	505.98
72.2046	516.25
72.2191	584.20
72.2335	566.48
72.2479	558.29
72.2624	594.18
72.2768	585.36
72.2913	556.25
72.3057	581.84
72.3201	577.47
72.3346	580.84
72.3490	599.78
72.3635	612.67
72.3779	564.01
72.3923	499.74
72.4068	498.82
72.4212	586.36
72.4357	594.71
72.4501	518.63
72.4645	568.19
72.4790	647.51
72.4934	620.66
72.5079	567.85
72.5223	568.69
72.5367	576.83
72.5512	561.84
72.5656	586.21
72.5801	582.48
72.5945	589.46
72.6089	553.53
72.6234	585.52
72.6378	578.33
72.6523	574.19
72.6667	602.77
72.6811	576.91
72.6956	585.13
72.7100	606.38
72.7245	566.64
72.7389	629.01
72.7533	624.70
72.7678	633.68
72.7822	568.37
72.7967	541.59
72.8111	645.58
72.8255	658.80
72.8400	612.56
72.8544	598.56
72.8689	606.77
72.8833	585.79