2022.09.19 19:37:17
Îáðàçåö: ß÷åéêà LCoV 16-09-2022
Lambda1 = 1.54060
Lambda2 = 1.54439
Lambdam = 1.54186
R = 0.497
2Theta	I

line¹ 0 ;repeat¹ 0
22.1120	547.19
22.1264	506.92
22.1409	484.96
22.1553	513.72
22.1697	547.07
22.1842	609.93
22.1986	642.62
22.2131	524.10
22.2275	570.11
22.2419	597.71
22.2564	556.27
22.2708	525.71
22.2853	613.02
22.2997	572.02
22.3141	537.45
22.3286	499.65
22.3430	586.20
22.3575	593.94
22.3719	641.37
22.3863	583.52
22.4008	587.38
22.4152	610.35
22.4297	608.47
22.4441	652.16
22.4585	598.84
22.4730	659.11
22.4874	560.90
22.5019	575.46
22.5163	603.03
22.5307	626.50
22.5452	600.46
22.5596	575.09
22.5741	594.84
22.5885	608.90
22.6029	538.50
22.6174	650.77
22.6318	607.52
22.6463	576.88
22.6607	565.01
22.6751	525.61
22.6896	668.12
22.7040	645.83
22.7185	640.26
22.7329	536.81
22.7473	471.95
22.7618	514.97
22.7762	576.03
22.7907	649.15
22.8051	562.12
22.8195	560.77
22.8340	543.05
22.8484	532.82
22.8629	707.14
22.8773	620.98
22.8917	552.03
22.9062	503.21
22.9206	508.97
22.9351	530.32
22.9495	608.29
22.9639	582.10
22.9784	597.08
22.9928	537.41
23.0073	586.45
23.0217	612.23
23.0361	620.27
23.0506	560.82
23.0650	547.95
23.0795	555.43
23.0939	588.29
23.1083	531.67
23.1228	525.59
23.1372	606.06
23.1517	553.62
23.1661	569.89
23.1806	541.87
23.1950	584.74
23.2094	583.67
23.2239	565.82
23.2383	614.01
23.2528	538.98
23.2672	524.27
23.2816	550.35
23.2961	562.28
23.3105	597.55
23.3250	591.57
23.3394	561.72
23.3538	561.53
23.3683	595.77
23.3827	496.59
23.3972	572.67
23.4116	537.49
23.4260	566.96
23.4405	639.65
23.4549	600.91
23.4694	569.14
23.4838	530.20
23.4982	564.99
23.5127	557.96
23.5271	561.84
23.5416	506.50
23.5560	601.37
23.5704	516.63
23.5849	571.76
23.5993	528.98
23.6138	493.62
23.6282	525.68
23.6426	533.09
23.6571	539.22
23.6715	422.84
23.6860	517.39
23.7004	505.44
23.7148	516.93
23.7293	531.43
23.7437	578.18
23.7582	593.53
23.7726	566.20
23.7870	603.65
23.8015	564.19
23.8159	606.99
23.8304	503.77
23.8448	488.73
23.8592	537.74
23.8737	563.25
23.8881	495.65
23.9026	578.54
23.9170	579.70
23.9314	530.43
23.9459	512.18
23.9603	545.96
23.9748	571.75
23.9892	583.44
24.0036	579.75
24.0181	570.84
24.0325	556.06
24.0470	529.63
24.0614	577.55
24.0758	538.84
24.0903	550.60
24.1047	581.32
24.1192	601.32
24.1336	559.91
24.1480	539.38
24.1625	632.84
24.1769	601.74
24.1914	513.60
24.2058	559.86
24.2202	561.07
24.2347	640.42
24.2491	584.98
24.2636	557.20
24.2780	594.12
24.2924	535.97
24.3069	575.69
24.3213	597.93
24.3358	556.62
24.3502	565.59
24.3646	544.50
24.3791	563.15
24.3935	541.63
24.4080	548.02
24.4224	586.14
24.4368	560.74
24.4513	539.34
24.4657	546.95
24.4802	562.54
24.4946	512.20
24.5090	525.03
24.5235	497.03
24.5379	552.80
24.5524	531.54
24.5668	587.68
24.5812	631.59
24.5957	582.36
24.6101	555.25
24.6246	586.10
24.6390	547.76
24.6534	535.47
24.6679	565.10
24.6823	545.07
24.6968	543.45
24.7112	520.36
24.7256	505.66
24.7401	554.16
24.7545	556.72
24.7690	539.91
24.7834	535.81
24.7978	546.00
24.8123	538.40
24.8267	540.40
24.8412	534.20
24.8556	575.14
24.8700	550.26
24.8845	547.03
24.8989	567.22
24.9134	576.37
24.9278	477.31
24.9422	489.67
24.9567	549.91
24.9711	554.43
24.9856	568.93
25.0000	554.39
25.0144	597.37
25.0289	528.91
25.0433	570.07
25.0578	566.07
25.0722	549.45
25.0866	557.19
25.1011	523.43
25.1155	552.62
25.1300	580.04
25.1444	521.02
25.1588	533.00
25.1733	521.25
25.1877	555.40
25.2022	571.70
25.2166	555.43
25.2310	515.34
25.2455	502.84
25.2599	540.63
25.2744	560.08
25.2888	550.05
25.3032	587.75
25.3177	569.84
25.3321	574.70
25.3466	516.30
25.3610	494.58
25.3754	513.09
25.3899	537.19
25.4043	527.08
25.4188	524.73
25.4332	522.64
25.4476	508.10
25.4621	497.91
25.4765	498.19
25.4910	537.90
25.5054	509.38
25.5198	521.31
25.5343	528.13
25.5487	542.38
25.5632	583.87
25.5776	507.59
25.5920	535.35
25.6065	554.18
25.6209	521.31
25.6354	528.29
25.6498	545.40
25.6642	546.32
25.6787	506.38
25.6931	538.90
25.7076	577.21
25.7220	531.35
25.7364	516.31
25.7509	563.54
25.7653	523.19
25.7798	566.47
25.7942	571.70
25.8086	523.68
25.8231	521.02
25.8375	526.86
25.8520	529.99
25.8664	550.80
25.8808	491.29
25.8953	557.01
25.9097	570.29
25.9242	549.46
25.9386	545.78
25.9530	569.18
25.9675	574.65
25.9819	563.22
25.9964	554.17
26.0108	565.62
26.0252	510.20
26.0397	486.89
26.0541	528.09
26.0686	530.01
26.0830	543.93
26.0974	539.36
26.1119	542.14
26.1263	547.88
26.1408	504.80
26.1552	526.88
26.1696	529.58
26.1841	559.46
26.1985	529.52
26.2130	518.73
26.2274	512.76
26.2418	508.92
26.2563	524.59
26.2707	515.61
26.2852	523.15
26.2996	543.27
26.3140	535.74
26.3285	546.64
26.3429	561.17
26.3574	571.99
26.3718	502.78
26.3862	523.10
26.4007	515.21
26.4151	534.92
26.4296	503.49
26.4440	487.29
26.4584	521.49
26.4729	529.44
26.4873	526.97
26.5018	521.60
26.5162	507.44
26.5306	529.22
26.5451	553.05
26.5595	537.47
26.5740	536.80
26.5884	511.69
26.6028	524.01
26.6173	541.38
26.6317	542.83
26.6462	519.32
26.6606	523.26
26.6750	532.27
26.6895	517.95
26.7039	499.86
26.7184	539.99
26.7328	491.40
26.7472	514.35
26.7617	506.96
26.7761	541.53
26.7906	565.82
26.8050	527.33
26.8194	522.92
26.8339	532.91
26.8483	522.72
26.8628	524.31
26.8772	525.98
26.8917	529.28
26.9061	514.66
26.9205	510.28
26.9350	518.85
26.9494	519.77
26.9639	484.05
26.9783	477.14
26.9927	494.66
27.0072	523.47
27.0216	483.42
27.0361	485.20
27.0505	520.08
27.0649	527.86
27.0794	524.92
27.0938	532.75
27.1083	524.77
27.1227	557.09
27.1371	543.84
27.1516	517.59
27.1660	522.77
27.1805	544.40
27.1949	514.99
27.2093	517.02
27.2238	515.98
27.2382	497.03
27.2527	524.82
27.2671	510.35
27.2815	550.26
27.2960	509.75
27.3104	507.60
27.3249	507.56
27.3393	487.97
27.3537	501.01
27.3682	483.67
27.3826	490.68
27.3971	494.25
27.4115	530.39
27.4259	603.28
27.4404	549.78
27.4548	514.82
27.4693	545.09
27.4837	513.31
27.4981	522.90
27.5126	544.83
27.5270	545.36
27.5415	526.89
27.5559	536.80
27.5703	522.02
27.5848	489.58
27.5992	527.01
27.6137	519.16
27.6281	511.48
27.6425	481.45
27.6570	540.07
27.6714	515.80
27.6859	523.80
27.7003	535.86
27.7147	522.90
27.7292	491.38
27.7436	504.53
27.7581	482.19
27.7725	489.71
27.7869	522.99
27.8014	502.58
27.8158	517.62
27.8303	522.93
27.8447	495.34
27.8591	516.95
27.8736	508.89
27.8880	491.71
27.9025	518.62
27.9169	513.31
27.9313	514.15
27.9458	517.55
27.9602	520.21
27.9747	536.70
27.9891	529.05
28.0035	515.96
28.0180	507.71
28.0324	510.83
28.0469	521.42
28.0613	527.99
28.0757	494.08
28.0902	537.18
28.1046	486.64
28.1191	517.65
28.1335	522.92
28.1479	508.87
28.1624	549.93
28.1768	507.40
28.1913	500.62
28.2057	499.41
28.2201	525.26
28.2346	507.97
28.2490	487.28
28.2635	470.88
28.2779	502.03
28.2923	518.29
28.3068	501.05
28.3212	522.42
28.3357	534.77
28.3501	549.97
28.3645	499.43
28.3790	481.10
28.3934	487.60
28.4079	517.60
28.4223	505.38
28.4367	494.77
28.4512	518.41
28.4656	526.81
28.4801	519.93
28.4945	498.40
28.5089	482.76
28.5234	520.87
28.5378	515.91
28.5523	522.72
28.5667	519.92
28.5811	481.55
28.5956	531.06
28.6100	479.44
28.6245	501.95
28.6389	527.55
28.6533	487.40
28.6678	480.91
28.6822	506.17
28.6967	501.65
28.7111	491.36
28.7255	506.96
28.7400	517.98
28.7544	538.11
28.7689	476.92
28.7833	475.81
28.7977	516.90
28.8122	538.77
28.8266	504.77
28.8411	524.12
28.8555	520.13
28.8699	492.53
28.8844	499.45
28.8988	524.76
28.9133	503.09
28.9277	486.25
28.9421	499.17
28.9566	499.06
28.9710	522.32
28.9855	504.62
28.9999	526.95
29.0143	526.19
29.0288	513.21
29.0432	478.80
29.0577	511.78
29.0721	538.53
29.0865	526.43
29.1010	543.52
29.1154	506.48
29.1299	524.50
29.1443	492.36
29.1587	482.48
29.1732	522.03
29.1876	494.17
29.2021	532.70
29.2165	508.79
29.2309	496.81
29.2454	529.91
29.2598	513.31
29.2743	491.38
29.2887	501.04
29.3031	483.05
29.3176	497.74
29.3320	512.64
29.3465	509.15
29.3609	494.51
29.3753	514.34
29.3898	480.04
29.4042	477.29
29.4187	512.78
29.4331	548.19
29.4475	483.46
29.4620	506.82
29.4764	499.96
29.4909	470.18
29.5053	511.20
29.5197	538.60
29.5342	522.35
29.5486	511.70
29.5631	509.73
29.5775	520.66
29.5919	520.49
29.6064	485.80
29.6208	491.66
29.6353	539.97
29.6497	512.50
29.6641	498.09
29.6786	477.26
29.6930	487.62
29.7075	499.04
29.7219	495.52
29.7363	515.85
29.7508	510.08
29.7652	493.89
29.7797	474.20
29.7941	505.09
29.8085	476.09
29.8230	500.35
29.8374	534.44
29.8519	488.49
29.8663	514.37
29.8807	491.47
29.8952	485.01
29.9096	485.24
29.9241	499.88
29.9385	528.86
29.9529	482.94
29.9674	522.36
29.9818	510.87
29.9963	479.06
30.0107	479.96
30.0251	500.79
30.0396	493.25
30.0540	544.61
30.0685	535.63
30.0829	474.68
30.0973	486.58
30.1118	529.82
30.1262	527.81
30.1407	521.08
30.1551	514.06
30.1695	508.87
30.1840	544.19
30.1984	543.66
30.2129	496.19
30.2273	499.40
30.2417	469.96
30.2562	494.14
30.2706	472.23
30.2851	522.39
30.2995	524.36
30.3139	497.41
30.3284	496.72
30.3428	529.53
30.3573	492.39
30.3717	496.13
30.3861	499.42
30.4006	471.57
30.4150	509.97
30.4295	537.01
30.4439	499.01
30.4583	525.46
30.4728	491.20
30.4872	510.17
30.5017	550.30
30.5161	533.05
30.5305	529.97
30.5450	522.98
30.5594	492.73
30.5739	517.53
30.5883	530.24
30.6028	538.64
30.6172	569.39
30.6316	599.97
30.6461	569.54
30.6605	577.96
30.6750	596.85
30.6894	619.50
30.7038	655.02
30.7183	664.43
30.7327	691.91
30.7472	680.90
30.7616	657.28
30.7760	661.63
30.7905	691.25
30.8049	671.64
30.8194	636.54
30.8338	614.35
30.8482	593.33
30.8627	604.76
30.8771	622.40
30.8916	614.32
30.9060	576.31
30.9204	544.67
30.9349	581.44
30.9493	537.56
30.9638	554.63
30.9782	544.83
30.9926	536.70
31.0071	530.33
31.0215	543.31
31.0360	546.39
31.0504	534.16
31.0648	517.89
31.0793	525.50
31.0937	562.17
31.1082	515.51
31.1226	510.49
31.1370	504.79
31.1515	498.48
31.1659	535.50
31.1804	531.00
31.1948	543.77
31.2092	517.72
31.2237	560.01
31.2381	549.54
31.2526	551.01
31.2670	538.54
31.2814	567.00
31.2959	526.71
31.3103	533.47
31.3248	553.74
31.3392	548.79
31.3536	529.96
31.3681	519.86
31.3825	515.77
31.3970	515.98
31.4114	533.06
31.4258	519.65
31.4403	516.94
31.4547	508.88
31.4692	513.59
31.4836	530.01
31.4980	507.87
31.5125	513.11
31.5269	510.81
31.5414	527.85
31.5558	499.26
31.5702	487.48
31.5847	526.46
31.5991	529.08
31.6136	488.51
31.6280	466.12
31.6424	519.67
31.6569	541.03
31.6713	485.02
31.6858	464.71
31.7002	535.47
31.7146	522.46
31.7291	498.96
31.7435	515.23
31.7580	504.18
31.7724	517.34
31.7868	499.05
31.8013	486.25
31.8157	509.36
31.8302	519.18
31.8446	533.17
31.8590	498.88
31.8735	517.13
31.8879	522.83
31.9024	528.72
31.9168	537.19
31.9312	517.01
31.9457	499.39
31.9601	498.12
31.9746	486.69
31.9890	501.33
32.0034	477.47
32.0179	497.04
32.0323	520.49
32.0468	505.43
32.0612	495.32
32.0756	461.84
32.0901	511.20
32.1045	542.45
32.1190	505.60
32.1334	494.39
32.1478	502.64
32.1623	496.97
32.1767	517.54
32.1912	499.35
32.2056	474.84
32.2200	485.36
32.2345	490.56
32.2489	504.24
32.2634	504.12
32.2778	529.56
32.2922	527.10
32.3067	531.79
32.3211	505.26
32.3356	540.80
32.3500	541.37
32.3644	540.02
32.3789	523.12
32.3933	505.76
32.4078	514.41
32.4222	524.61
32.4366	509.89
32.4511	474.06
32.4655	497.77
32.4800	494.43
32.4944	542.43
32.5088	548.17
32.5233	515.63
32.5377	537.55
32.5522	507.64
32.5666	487.51
32.5810	474.92
32.5955	528.42
32.6099	505.71
32.6244	498.26
32.6388	489.54
32.6532	504.78
32.6677	501.47
32.6821	481.07
32.6966	501.69
32.7110	495.99
32.7254	495.00
32.7399	520.46
32.7543	532.25
32.7688	498.72
32.7832	501.68
32.7976	491.76
32.8121	541.45
32.8265	489.32
32.8410	500.42
32.8554	478.95
32.8698	538.64
32.8843	501.93
32.8987	472.73
32.9132	485.20
32.9276	456.88
32.9420	511.19
32.9565	526.58
32.9709	504.79
32.9854	519.77
32.9998	482.37
33.0142	471.87
33.0287	514.56
33.0431	517.11
33.0576	514.89
33.0720	518.03
33.0864	528.09
33.1009	501.46
33.1153	477.92
33.1298	510.48
33.1442	478.33
33.1586	494.79
33.1731	497.90
33.1875	484.85
33.2020	479.67
33.2164	481.57
33.2308	473.60
33.2453	530.42
33.2597	522.12
33.2742	498.06
33.2886	506.87
33.3030	503.27
33.3175	528.34
33.3319	540.98
33.3464	527.86
33.3608	506.70
33.3752	497.98
33.3897	504.37
33.4041	503.92
33.4186	511.81
33.4330	505.13
33.4474	475.55
33.4619	520.64
33.4763	537.38
33.4908	503.48
33.5052	481.46
33.5196	502.08
33.5341	529.38
33.5485	520.22
33.5630	533.14
33.5774	505.47
33.5918	484.70
33.6063	513.25
33.6207	499.74
33.6352	494.43
33.6496	505.88
33.6640	494.79
33.6785	493.30
33.6929	503.07
33.7074	505.57
33.7218	541.18
33.7362	507.06
33.7507	509.76
33.7651	497.88
33.7796	488.15
33.7940	497.20
33.8084	543.36
33.8229	544.12
33.8373	544.36
33.8518	524.34
33.8662	519.49
33.8806	508.76
33.8951	467.77
33.9095	499.28
33.9240	518.85
33.9384	514.71
33.9528	534.18
33.9673	523.09
33.9817	491.50
33.9962	521.97
34.0106	504.85
34.0250	517.90
34.0395	464.11
34.0539	474.37
34.0684	473.71
34.0828	514.99
34.0972	554.45
34.1117	498.05
34.1261	495.99
34.1406	490.80
34.1550	538.87
34.1694	515.78
34.1839	526.49
34.1983	527.24
34.2128	523.93
34.2272	514.28
34.2417	504.01
34.2561	520.52
34.2705	509.92
34.2850	504.58
34.2994	517.49
34.3139	517.36
34.3283	501.34
34.3427	468.19
34.3572	506.93
34.3716	507.75
34.3861	503.83
34.4005	486.19
34.4149	475.24
34.4294	513.70
34.4438	487.31
34.4583	484.37
34.4727	522.43
34.4871	503.90
34.5016	499.60
34.5160	501.20
34.5305	510.79
34.5449	527.16
34.5593	531.98
34.5738	515.69
34.5882	525.44
34.6027	477.51
34.6171	500.91
34.6315	500.42
34.6460	524.61
34.6604	477.14
34.6749	499.79
34.6893	494.61
34.7037	516.26
34.7182	488.69
34.7326	495.01
34.7471	507.04
34.7615	517.70
34.7759	525.88
34.7904	527.52
34.8048	499.86
34.8193	495.11
34.8337	519.86
34.8481	495.48
34.8626	486.00
34.8770	511.34
34.8915	512.15
34.9059	494.82
34.9203	476.44
34.9348	482.90
34.9492	484.56
34.9637	480.41
34.9781	498.48
34.9925	474.08
35.0070	479.05
35.0214	520.40
35.0359	504.07
35.0503	483.63
35.0647	477.01
35.0792	473.20
35.0936	500.00
35.1081	500.31
35.1225	508.96
35.1369	521.83
35.1514	508.72
35.1658	548.65
35.1803	523.45
35.1947	505.05
35.2091	531.92
35.2236	517.31
35.2380	555.57
35.2525	518.39
35.2669	501.12
35.2813	530.33
35.2958	487.31
35.3102	520.17
35.3247	549.07
35.3391	541.31
35.3535	481.93
35.3680	524.47
35.3824	538.73
35.3969	506.76
35.4113	502.78
35.4257	523.34
35.4402	517.58
35.4546	536.29
35.4691	530.28
35.4835	502.62
35.4979	548.39
35.5124	558.51
35.5268	527.33
35.5413	518.95
35.5557	534.31
35.5701	520.57
35.5846	511.33
35.5990	505.35
35.6135	521.26
35.6279	522.80
35.6423	526.84
35.6568	560.78
35.6712	546.85
35.6857	587.35
35.7001	663.29
35.7145	708.14
35.7290	668.83
35.7434	572.19
35.7579	570.64
35.7723	586.46
35.7867	614.58
35.8012	674.19
35.8156	707.09
35.8301	662.74
35.8445	622.86
35.8589	618.99
35.8734	716.22
35.8878	863.43
35.9023	1004.42
35.9167	1027.05
35.9311	1181.81
35.9456	1768.97
35.9600	2317.36
35.9745	2013.75
35.9889	1987.77
36.0033	2632.59
36.0178	3291.33
36.0322	2915.69
36.0467	2076.00
36.0611	1828.43
36.0755	1675.38
36.0900	1791.02
36.1044	1611.01
36.1189	1533.65
36.1333	1578.19
36.1477	1351.95
36.1622	1354.21
36.1766	1283.41
36.1911	1211.58
36.2055	1165.41
36.2199	1107.36
36.2344	1043.96
36.2488	1019.75
36.2633	928.38
36.2777	901.94
36.2921	831.73
36.3066	819.99
36.3210	799.49
36.3355	738.27
36.3499	709.76
36.3643	669.54
36.3788	613.21
36.3932	619.47
36.4077	631.33
36.4221	646.16
36.4365	576.67
36.4510	554.35
36.4654	567.34
36.4799	568.07
36.4943	565.49
36.5087	555.70
36.5232	563.14
36.5376	574.21
36.5521	564.01
36.5665	520.78
36.5809	531.36
36.5954	558.12
36.6098	541.58
36.6243	565.90
36.6387	503.09
36.6531	519.13
36.6676	535.62
36.6820	514.08
36.6965	496.05
36.7109	534.38
36.7253	537.18
36.7398	519.54
36.7542	535.99
36.7687	532.07
36.7831	514.93
36.7975	513.79
36.8120	571.80
36.8264	549.63
36.8409	564.94
36.8553	613.18
36.8697	599.74
36.8842	565.79
36.8986	578.38
36.9131	615.15
36.9275	568.40
36.9419	547.85
36.9564	556.09
36.9708	559.80
36.9853	563.46
36.9997	554.31
37.0141	514.80
37.0286	529.66
37.0430	543.08
37.0575	556.74
37.0719	541.94
37.0863	536.71
37.1008	517.86
37.1152	539.16
37.1297	511.84
37.1441	499.95
37.1585	520.94
37.1730	510.12
37.1874	536.84
37.2019	529.22
37.2163	516.04
37.2307	514.64
37.2452	498.40
37.2596	485.18
37.2741	510.69
37.2885	506.96
37.3029	475.51
37.3174	493.59
37.3318	483.65
37.3463	501.08
37.3607	530.60
37.3751	530.95
37.3896	491.48
37.4040	493.61
37.4185	502.55
37.4329	487.57
37.4473	490.89
37.4618	521.28
37.4762	515.25
37.4907	500.23
37.5051	470.49
37.5195	487.86
37.5340	499.20
37.5484	464.24
37.5629	466.48
37.5773	526.05
37.5917	530.89
37.6062	483.00
37.6206	500.55
37.6351	520.51
37.6495	514.85
37.6639	489.49
37.6784	486.38
37.6928	487.32
37.7073	504.43
37.7217	506.48
37.7361	484.68
37.7506	503.06
37.7650	484.84
37.7795	511.96
37.7939	500.30
37.8083	475.29
37.8228	504.74
37.8372	502.16
37.8517	489.02
37.8661	535.41
37.8805	529.56
37.8950	515.25
37.9094	495.39
37.9239	505.57
37.9383	522.24
37.9528	521.14
37.9672	542.92
37.9816	490.61
37.9961	466.04
38.0105	485.08
38.0250	495.66
38.0394	526.23
38.0538	493.25
38.0683	491.17
38.0827	514.77
38.0972	491.16
38.1116	525.62
38.1260	494.02
38.1405	496.88
38.1549	511.40
38.1694	499.98
38.1838	537.80
38.1982	522.51
38.2127	529.77
38.2271	525.62
38.2416	525.52
38.2560	485.59
38.2704	489.45
38.2849	512.16
38.2993	525.45
38.3138	527.70
38.3282	514.68
38.3426	518.08
38.3571	537.40
38.3715	564.01
38.3860	546.63
38.4004	526.48
38.4148	529.94
38.4293	573.12
38.4437	576.09
38.4582	601.59
38.4726	633.27
38.4870	697.27
38.5015	691.50
38.5159	759.18
38.5304	795.67
38.5448	815.11
38.5592	808.58
38.5737	773.64
38.5881	718.24
38.6026	711.98
38.6170	677.29
38.6314	680.27
38.6459	697.26
38.6603	669.19
38.6748	650.40
38.6892	547.77
38.7036	563.72
38.7181	570.43
38.7325	543.55
38.7470	554.17
38.7614	536.16
38.7758	513.73
38.7903	535.29
38.8047	536.41
38.8192	537.98
38.8336	511.76
38.8480	496.91
38.8625	504.19
38.8769	552.37
38.8914	511.34
38.9058	511.15
38.9202	505.05
38.9347	523.44
38.9491	508.60
38.9636	475.35
38.9780	505.59
38.9924	488.77
39.0069	474.93
39.0213	478.85
39.0358	488.32
39.0502	503.40
39.0646	495.96
39.0791	503.13
39.0935	511.56
39.1080	516.14
39.1224	495.35
39.1368	484.62
39.1513	461.69
39.1657	517.00
39.1802	546.01
39.1946	487.85
39.2090	491.70
39.2235	484.65
39.2379	510.65
39.2524	501.31
39.2668	492.05
39.2812	511.09
39.2957	476.85
39.3101	505.88
39.3246	505.74
39.3390	515.75
39.3534	491.55
39.3679	513.70
39.3823	495.23
39.3968	493.11
39.4112	482.94
39.4256	505.16
39.4401	495.21
39.4545	490.88
39.4690	500.06
39.4834	523.44
39.4978	523.31
39.5123	495.02
39.5267	489.27
39.5412	502.42
39.5556	466.91
39.5700	481.13
39.5845	465.72
39.5989	533.59
39.6134	480.11
39.6278	477.92
39.6422	525.88
39.6567	526.62
39.6711	516.25
39.6856	478.49
39.7000	494.73
39.7144	510.99
39.7289	491.54
39.7433	528.12
39.7578	502.21
39.7722	506.51
39.7866	509.58
39.8011	500.85
39.8155	521.22
39.8300	506.84
39.8444	479.23
39.8588	501.71
39.8733	507.70
39.8877	504.84
39.9022	494.22
39.9166	508.28
39.9310	497.90
39.9455	479.64
39.9599	507.24
39.9744	477.96
39.9888	497.38
40.0032	507.72
40.0177	534.88
40.0321	478.38
40.0466	473.43
40.0610	473.82
40.0754	455.03
40.0899	504.48
40.1043	536.71
40.1188	498.64
40.1332	502.43
40.1476	482.48
40.1621	471.28
40.1765	509.30
40.1910	502.52
40.2054	479.64
40.2198	498.16
40.2343	506.47
40.2487	512.22
40.2632	477.12
40.2776	500.42
40.2920	492.33
40.3065	502.51
40.3209	502.21
40.3354	530.83
40.3498	494.78
40.3642	495.78
40.3787	493.04
40.3931	498.49
40.4076	492.19
40.4220	476.93
40.4364	489.72
40.4509	475.03
40.4653	503.70
40.4798	523.60
40.4942	520.95
40.5086	473.10
40.5231	517.20
40.5375	488.39
40.5520	504.90
40.5664	492.18
40.5808	477.67
40.5953	497.53
40.6097	475.66
40.6242	486.57
40.6386	500.66
40.6530	475.64
40.6675	464.68
40.6819	471.84
40.6964	492.16
40.7108	532.06
40.7252	520.00
40.7397	472.95
40.7541	490.55
40.7686	447.00
40.7830	470.52
40.7974	500.33
40.8119	529.52
40.8263	484.14
40.8408	468.13
40.8552	503.40
40.8696	504.98
40.8841	501.23
40.8985	508.11
40.9130	512.07
40.9274	498.17
40.9418	473.86
40.9563	489.97
40.9707	493.09
40.9852	500.21
40.9996	509.36
41.0140	496.43
41.0285	504.65
41.0429	491.78
41.0574	513.28
41.0718	536.73
41.0862	517.72
41.1007	522.28
41.1151	518.03
41.1296	482.58
41.1440	493.67
41.1584	514.82
41.1729	512.46
41.1873	471.80
41.2018	511.32
41.2162	512.13
41.2306	514.04
41.2451	519.23
41.2595	492.90
41.2740	503.21
41.2884	504.20
41.3028	509.22
41.3173	510.42
41.3317	537.18
41.3462	516.27
41.3606	551.65
41.3750	524.79
41.3895	496.85
41.4039	481.53
41.4184	494.50
41.4328	515.73
41.4472	489.53
41.4617	518.93
41.4761	503.70
41.4906	515.36
41.5050	495.52
41.5194	476.45
41.5339	506.19
41.5483	497.50
41.5628	496.09
41.5772	495.90
41.5916	502.54
41.6061	503.72
41.6205	505.64
41.6350	540.15
41.6494	478.75
41.6639	506.01
41.6783	496.29
41.6927	467.06
41.7072	519.28
41.7216	504.05
41.7361	518.23
41.7505	506.60
41.7649	529.76
41.7794	492.63
41.7938	488.90
41.8083	511.74
41.8227	528.45
41.8371	531.83
41.8516	499.63
41.8660	532.17
41.8805	491.15
41.8949	538.32
41.9093	568.52
41.9238	510.52
41.9382	557.57
41.9527	565.46
41.9671	544.22
41.9815	561.27
41.9960	522.79
42.0104	528.28
42.0249	576.88
42.0393	567.87
42.0537	549.05
42.0682	565.74
42.0826	572.80
42.0971	565.16
42.1115	592.81
42.1259	607.72
42.1404	563.72
42.1548	598.91
42.1693	646.61
42.1837	698.12
42.1981	759.20
42.2126	808.52
42.2270	924.11
42.2415	1066.00
42.2559	1208.05
42.2703	1333.06
42.2848	1559.07
42.2992	1628.70
42.3137	1654.53
42.3281	1641.34
42.3425	1594.70
42.3570	1519.19
42.3714	1393.68
42.3859	1404.46
42.4003	1347.01
42.4147	1341.39
42.4292	1352.28
42.4436	1193.75
42.4581	1092.29
42.4725	977.08
42.4869	859.43
42.5014	773.11
42.5158	760.14
42.5303	688.31
42.5447	636.28
42.5591	659.01
42.5736	607.52
42.5880	596.89
42.6025	558.50
42.6169	571.66
42.6313	560.56
42.6458	543.39
42.6602	534.57
42.6747	494.58
42.6891	498.91
42.7035	527.91
42.7180	546.29
42.7324	563.90
42.7469	527.59
42.7613	492.01
42.7757	502.12
42.7902	491.69
42.8046	482.06
42.8191	534.34
42.8335	499.82
42.8479	502.82
42.8624	544.94
42.8768	507.21
42.8913	489.40
42.9057	497.47
42.9201	489.40
42.9346	524.25
42.9490	511.50
42.9635	506.46
42.9779	522.84
42.9923	493.48
43.0068	481.67
43.0212	493.36
43.0357	503.06
43.0501	508.17
43.0645	499.07
43.0790	514.26
43.0934	536.57
43.1079	503.77
43.1223	496.95
43.1367	488.27
43.1512	516.08
43.1656	517.47
43.1801	506.33
43.1945	547.18
43.2089	528.60
43.2234	551.16
43.2378	524.15
43.2523	555.92
43.2667	542.11
43.2811	530.60
43.2956	542.04
43.3100	533.95
43.3245	517.75
43.3389	521.59
43.3533	541.77
43.3678	507.96
43.3822	516.39
43.3967	496.13
43.4111	496.35
43.4255	538.42
43.4400	523.73
43.4544	522.55
43.4689	535.56
43.4833	523.08
43.4977	521.01
43.5122	511.14
43.5266	507.04
43.5411	506.19
43.5555	516.31
43.5699	522.78
43.5844	504.66
43.5988	513.80
43.6133	514.24
43.6277	504.26
43.6421	514.52
43.6566	515.76
43.6710	535.51
43.6855	508.39
43.6999	536.71
43.7143	559.77
43.7288	530.00
43.7432	530.33
43.7577	511.50
43.7721	502.41
43.7865	517.57
43.8010	524.46
43.8154	532.20
43.8299	539.99
43.8443	537.89
43.8587	565.72
43.8732	576.06
43.8876	591.76
43.9021	550.75
43.9165	589.21
43.9309	615.84
43.9454	614.22
43.9598	632.25
43.9743	596.78
43.9887	603.70
44.0031	613.96
44.0176	618.90
44.0320	632.73
44.0465	624.27
44.0609	601.28
44.0753	580.06
44.0898	636.50
44.1042	564.78
44.1187	571.92
44.1331	585.58
44.1475	545.52
44.1620	530.75
44.1764	556.53
44.1909	552.00
44.2053	555.05
44.2197	563.96
44.2342	565.28
44.2486	547.53
44.2631	518.08
44.2775	518.89
44.2919	538.74
44.3064	524.88
44.3208	493.76
44.3353	539.49
44.3497	546.26
44.3641	566.23
44.3786	527.21
44.3930	564.17
44.4075	548.17
44.4219	570.81
44.4363	561.63
44.4508	548.25
44.4652	576.30
44.4797	566.67
44.4941	571.75
44.5085	572.30
44.5230	545.48
44.5374	588.64
44.5519	576.69
44.5663	562.16
44.5807	564.63
44.5952	580.46
44.6096	549.28
44.6241	556.20
44.6385	556.14
44.6529	560.93
44.6674	573.84
44.6818	550.18
44.6963	582.71
44.7107	621.26
44.7251	662.64
44.7396	731.28
44.7540	829.60
44.7685	800.56
44.7829	892.76
44.7973	865.76
44.8118	873.53
44.8262	828.57
44.8407	814.14
44.8551	747.68
44.8695	741.84
44.8840	699.00
44.8984	752.88
44.9129	732.93
44.9273	695.02
44.9417	707.77
44.9562	626.98
44.9706	588.00
44.9851	573.51
44.9995	545.37
45.0139	515.03
45.0284	526.65
45.0428	546.50
45.0573	523.43
45.0717	521.25
45.0861	529.73
45.1006	483.77
45.1150	540.82
45.1295	522.48
45.1439	474.09
45.1583	484.95
45.1728	497.98
45.1872	493.56
45.2017	490.77
45.2161	511.14
45.2305	494.57
45.2450	485.29
45.2594	522.20
45.2739	528.09
45.2883	518.00
45.3028	483.46
45.3172	501.90
45.3316	523.12
45.3461	461.75
45.3605	485.34
45.3750	515.49
45.3894	487.03
45.4038	475.11
45.4183	493.81
45.4327	512.53
45.4472	501.50
45.4616	500.84
45.4760	486.62
45.4905	501.26
45.5049	514.19
45.5194	455.66
45.5338	500.71
45.5482	505.11
45.5627	567.42
45.5771	529.62
45.5916	515.87
45.6060	491.09
45.6204	482.66
45.6349	513.22
45.6493	490.64
45.6638	485.46
45.6782	476.52
45.6926	469.14
45.7071	515.22
45.7215	495.20
45.7360	521.38
45.7504	492.14
45.7648	501.97
45.7793	495.79
45.7937	491.15
45.8082	531.15
45.8226	501.72
45.8370	505.55
45.8515	510.34
45.8659	491.66
45.8804	487.89
45.8948	490.37
45.9092	511.51
45.9237	506.13
45.9381	513.02
45.9526	487.26
45.9670	485.89
45.9814	486.14
45.9959	477.76
46.0103	492.83
46.0248	525.15
46.0392	518.04
46.0536	490.52
46.0681	482.13
46.0825	508.69
46.0970	503.24
46.1114	503.26
46.1258	521.21
46.1403	508.38
46.1547	498.99
46.1692	537.71
46.1836	503.41
46.1980	495.45
46.2125	500.06
46.2269	521.67
46.2414	500.34
46.2558	497.79
46.2702	493.56
46.2847	525.97
46.2991	509.13
46.3136	503.79
46.3280	496.58
46.3424	513.89
46.3569	519.06
46.3713	500.46
46.3858	496.45
46.4002	493.48
46.4146	457.47
46.4291	487.95
46.4435	472.93
46.4580	477.77
46.4724	518.49
46.4868	539.62
46.5013	501.82
46.5157	489.96
46.5302	501.21
46.5446	492.09
46.5590	496.28
46.5735	499.31
46.5879	520.93
46.6024	509.78
46.6168	507.23
46.6312	489.63
46.6457	512.99
46.6601	521.81
46.6746	492.89
46.6890	501.53
46.7034	519.33
46.7179	524.70
46.7323	484.19
46.7468	516.81
46.7612	484.96
46.7756	517.62
46.7901	497.92
46.8045	472.99
46.8190	520.48
46.8334	477.64
46.8478	495.44
46.8623	524.74
46.8767	525.07
46.8912	488.94
46.9056	516.10
46.9200	488.59
46.9345	494.58
46.9489	516.22
46.9634	480.73
46.9778	481.94
46.9922	517.12
47.0067	527.34
47.0211	555.64
47.0356	511.69
47.0500	510.76
47.0644	527.33
47.0789	522.21
47.0933	525.46
47.1078	518.87
47.1222	509.73
47.1366	480.31
47.1511	484.51
47.1655	522.72
47.1800	476.78
47.1944	489.82
47.2088	495.27
47.2233	487.86
47.2377	506.33
47.2522	538.60
47.2666	517.92
47.2810	530.12
47.2955	496.82
47.3099	490.87
47.3244	527.77
47.3388	514.55
47.3532	517.37
47.3677	512.09
47.3821	507.34
47.3966	498.57
47.4110	512.35
47.4254	546.04
47.4399	510.63
47.4543	497.15
47.4688	508.04
47.4832	499.33
47.4976	506.05
47.5121	477.11
47.5265	508.99
47.5410	510.41
47.5554	513.70
47.5698	529.24
47.5843	524.13
47.5987	490.65
47.6132	486.86
47.6276	509.34
47.6420	503.34
47.6565	494.89
47.6709	504.62
47.6854	507.60
47.6998	504.52
47.7142	538.07
47.7287	479.49
47.7431	488.36
47.7576	476.79
47.7720	518.24
47.7864	523.29
47.8009	503.21
47.8153	505.53
47.8298	529.17
47.8442	512.81
47.8586	493.36
47.8731	486.36
47.8875	470.45
47.9020	516.85
47.9164	500.47
47.9308	520.59
47.9453	501.13
47.9597	456.82
47.9742	481.95
47.9886	488.84
48.0030	505.17
48.0175	530.04
48.0319	493.04
48.0464	498.22
48.0608	491.16
48.0752	482.87
48.0897	530.03
48.1041	504.81
48.1186	504.09
48.1330	494.53
48.1474	452.59
48.1619	511.32
48.1763	521.32
48.1908	521.69
48.2052	499.37
48.2196	517.03
48.2341	522.12
48.2485	546.59
48.2630	497.85
48.2774	501.41
48.2918	472.73
48.3063	508.16
48.3207	489.96
48.3352	478.74
48.3496	523.08
48.3640	513.17
48.3785	492.15
48.3929	482.18
48.4074	490.29
48.4218	515.71
48.4362	559.32
48.4507	508.33
48.4651	514.84
48.4796	517.69
48.4940	514.49
48.5084	519.47
48.5229	544.66
48.5373	480.44
48.5518	496.60
48.5662	508.23
48.5806	501.63
48.5951	498.63
48.6095	523.90
48.6240	542.75
48.6384	533.20
48.6528	506.08
48.6673	552.43
48.6817	510.06
48.6962	543.54
48.7106	531.30
48.7250	529.87
48.7395	511.73
48.7539	537.25
48.7684	529.08
48.7828	541.33
48.7972	514.66
48.8117	522.61
48.8261	557.46
48.8406	520.44
48.8550	542.19
48.8694	546.17
48.8839	549.61
48.8983	553.83
48.9128	543.20
48.9272	542.28
48.9416	563.65
48.9561	546.36
48.9705	571.00
48.9850	561.30
48.9994	624.83
49.0139	595.59
49.0283	612.50
49.0427	607.25
49.0572	646.72
49.0716	660.75
49.0861	703.38
49.1005	692.70
49.1149	704.47
49.1294	742.87
49.1438	732.72
49.1583	766.83
49.1727	840.52
49.1871	896.91
49.2016	935.65
49.2160	1044.38
49.2305	1074.69
49.2449	1194.60
49.2593	1266.06
49.2738	1341.14
49.2882	1516.91
49.3027	1608.71
49.3171	1703.46
49.3315	1732.59
49.3460	1772.71
49.3604	1793.05
49.3749	1795.96
49.3893	1775.35
49.4037	1776.38
49.4182	1786.68
49.4326	1793.26
49.4471	1667.50
49.4615	1619.84
49.4759	1633.98
49.4904	1536.59
49.5048	1463.67
49.5193	1360.97
49.5337	1308.06
49.5481	1217.74
49.5626	1131.19
49.5770	1039.96
49.5915	1015.58
49.6059	928.21
49.6203	885.50
49.6348	844.76
49.6492	826.44
49.6637	724.76
49.6781	690.07
49.6925	656.94
49.7070	675.06
49.7214	627.71
49.7359	611.18
49.7503	604.28
49.7647	586.90
49.7792	642.41
49.7936	603.53
49.8081	566.54
49.8225	567.12
49.8369	565.37
49.8514	554.15
49.8658	575.00
49.8803	560.44
49.8947	593.05
49.9091	578.74
49.9236	522.67
49.9380	572.86
49.9525	578.99
49.9669	522.60
49.9813	530.80
49.9958	567.06
50.0102	543.67
50.0247	531.04
50.0391	523.60
50.0535	505.64
50.0680	538.67
50.0824	576.14
50.0969	557.91
50.1113	515.39
50.1257	525.77
50.1402	507.71
50.1546	516.88
50.1691	515.28
50.1835	521.26
50.1979	497.50
50.2124	499.30
50.2268	497.23
50.2413	506.41
50.2557	521.56
50.2701	525.63
50.2846	528.24
50.2990	524.74
50.3135	509.82
50.3279	482.50
50.3423	491.99
50.3568	526.25
50.3712	493.06
50.3857	518.75
50.4001	514.19
50.4145	495.43
50.4290	554.23
50.4434	511.86
50.4579	487.70
50.4723	510.00
50.4867	526.37
50.5012	492.46
50.5156	472.89
50.5301	479.36
50.5445	523.68
50.5589	522.61
50.5734	501.70
50.5878	502.61
50.6023	503.47
50.6167	511.26
50.6311	514.46
50.6456	510.47
50.6600	473.26
50.6745	477.88
50.6889	485.27
50.7033	526.91
50.7178	511.05
50.7322	468.14
50.7467	519.02
50.7611	512.80
50.7755	525.81
50.7900	492.88
50.8044	504.01
50.8189	504.80
50.8333	504.81
50.8477	538.06
50.8622	548.29
50.8766	498.35
50.8911	483.77
50.9055	522.80
50.9199	506.70
50.9344	478.94
50.9488	468.52
50.9633	509.87
50.9777	491.61
50.9921	467.06
51.0066	517.03
51.0210	546.37
51.0355	520.46
51.0499	505.76
51.0643	513.23
51.0788	522.64
51.0932	509.08
51.1077	513.35
51.1221	508.00
51.1365	508.12
51.1510	495.23
51.1654	527.81
51.1799	482.03
51.1943	505.05
51.2087	536.78
51.2232	523.62
51.2376	523.06
51.2521	526.08
51.2665	498.48
51.2809	497.34
51.2954	489.47
51.3098	504.20
51.3243	505.79
51.3387	509.61
51.3531	493.52
51.3676	490.94
51.3820	514.72
51.3965	515.44
51.4109	480.80
51.4253	525.08
51.4398	512.92
51.4542	498.76
51.4687	514.47
51.4831	514.44
51.4975	481.66
51.5120	479.23
51.5264	482.34
51.5409	499.49
51.5553	508.06
51.5697	518.50
51.5842	534.86
51.5986	571.03
51.6131	513.80
51.6275	496.19
51.6419	529.61
51.6564	486.82
51.6708	490.09
51.6853	525.64
51.6997	498.60
51.7141	541.84
51.7286	520.39
51.7430	545.76
51.7575	548.60
51.7719	496.53
51.7863	505.03
51.8008	502.02
51.8152	490.85
51.8297	502.24
51.8441	506.45
51.8585	491.30
51.8730	513.25
51.8874	522.37
51.9019	518.21
51.9163	530.03
51.9307	528.75
51.9452	529.74
51.9596	510.92
51.9741	500.86
51.9885	493.74
52.0029	486.21
52.0174	521.26
52.0318	491.37
52.0463	491.10
52.0607	512.77
52.0751	488.47
52.0896	498.65
52.1040	530.99
52.1185	548.47
52.1329	537.34
52.1473	498.45
52.1618	506.14
52.1762	535.48
52.1907	489.78
52.2051	482.57
52.2195	495.61
52.2340	516.20
52.2484	514.16
52.2629	470.36
52.2773	492.01
52.2917	493.45
52.3062	502.70
52.3206	493.60
52.3351	516.19
52.3495	523.61
52.3639	476.21
52.3784	495.08
52.3928	477.86
52.4073	502.78
52.4217	521.35
52.4361	534.67
52.4506	509.79
52.4650	511.78
52.4795	509.91
52.4939	511.09
52.5083	509.43
52.5228	504.23
52.5372	563.07
52.5517	507.68
52.5661	504.18
52.5805	491.51
52.5950	519.06
52.6094	508.35
52.6239	499.42
52.6383	509.01
52.6527	496.09
52.6672	492.78
52.6816	491.56
52.6961	463.40
52.7105	502.72
52.7250	541.74
52.7394	518.46
52.7538	511.26
52.7683	503.07
52.7827	550.20
52.7972	515.93
52.8116	485.71
52.8260	520.31
52.8405	532.65
52.8549	498.88
52.8694	536.34
52.8838	508.65
52.8982	519.03
52.9127	518.98
52.9271	492.32
52.9416	522.19
52.9560	448.77
52.9704	469.49
52.9849	496.00
52.9993	479.63
53.0138	490.46
53.0282	534.97
53.0426	503.77
53.0571	515.02
53.0715	544.98
53.0860	528.00
53.1004	482.49
53.1148	497.85
53.1293	528.30
53.1437	494.81
53.1582	484.17
53.1726	509.00
53.1870	534.56
53.2015	519.69
53.2159	523.00
53.2304	471.23
53.2448	535.73
53.2592	530.61
53.2737	551.36
53.2881	520.81
53.3026	500.57
53.3170	492.10
53.3314	555.23
53.3459	504.53
53.3603	509.26
53.3748	494.11
53.3892	498.84
53.4036	538.97
53.4181	551.63
53.4325	510.13
53.4470	464.84
53.4614	508.13
53.4758	534.37
53.4903	547.88
53.5047	536.20
53.5192	487.69
53.5336	506.94
53.5480	490.67
53.5625	527.64
53.5769	514.48
53.5914	501.71
53.6058	526.77
53.6202	522.92
53.6347	532.47
53.6491	537.46
53.6636	519.89
53.6780	512.23
53.6924	499.94
53.7069	511.48
53.7213	550.20
53.7358	512.39
53.7502	540.38
53.7646	493.45
53.7791	540.60
53.7935	526.95
53.8080	517.93
53.8224	548.00
53.8368	532.65
53.8513	514.41
53.8657	518.87
53.8802	490.43
53.8946	516.59
53.9090	502.07
53.9235	493.72
53.9379	510.50
53.9524	526.97
53.9668	524.32
53.9812	519.99
53.9957	498.19
54.0101	511.31
54.0246	521.33
54.0390	513.80
54.0534	496.64
54.0679	532.84
54.0823	514.07
54.0968	542.92
54.1112	555.90
54.1256	520.36
54.1401	512.13
54.1545	507.54
54.1690	546.41
54.1834	547.58
54.1978	491.82
54.2123	495.35
54.2267	510.65
54.2412	509.62
54.2556	492.19
54.2700	508.23
54.2845	511.88
54.2989	532.64
54.3134	542.36
54.3278	523.27
54.3422	509.41
54.3567	513.19
54.3711	508.46
54.3856	523.13
54.4000	553.58
54.4144	543.94
54.4289	553.72
54.4433	537.68
54.4578	539.22
54.4722	572.08
54.4866	573.05
54.5011	559.27
54.5155	573.19
54.5300	553.64
54.5444	583.22
54.5588	575.92
54.5733	550.87
54.5877	562.68
54.6022	573.24
54.6166	555.43
54.6310	591.52
54.6455	612.76
54.6599	581.51
54.6744	576.09
54.6888	557.91
54.7032	584.04
54.7177	567.91
54.7321	559.18
54.7466	626.73
54.7610	566.71
54.7754	535.53
54.7899	571.65
54.8043	585.11
54.8188	585.11
54.8332	551.33
54.8476	541.48
54.8621	549.22
54.8765	542.20
54.8910	500.32
54.9054	530.62
54.9198	513.71
54.9343	530.83
54.9487	562.41
54.9632	516.17
54.9776	500.95
54.9920	536.54
55.0065	528.72
55.0209	525.18
55.0354	514.91
55.0498	495.62
55.0642	492.32
55.0787	495.25
55.0931	493.66
55.1076	471.31
55.1220	518.59
55.1364	532.98
55.1509	498.37
55.1653	515.26
55.1798	521.42
55.1942	532.88
55.2086	519.37
55.2231	519.69
55.2375	490.71
55.2520	518.03
55.2664	542.37
55.2808	506.33
55.2953	522.38
55.3097	519.62
55.3242	518.06
55.3386	540.20
55.3530	533.27
55.3675	464.47
55.3819	489.48
55.3964	507.25
55.4108	485.19
55.4252	518.36
55.4397	503.62
55.4541	525.55
55.4686	523.23
55.4830	523.39
55.4974	501.24
55.5119	511.12
55.5263	514.53
55.5408	510.89
55.5552	554.40
55.5696	515.93
55.5841	529.91
55.5985	526.54
55.6130	495.61
55.6274	501.53
55.6418	517.05
55.6563	505.39
55.6707	528.69
55.6852	532.07
55.6996	514.28
55.7140	504.69
55.7285	515.24
55.7429	539.28
55.7574	530.78
55.7718	530.90
55.7862	517.11
55.8007	507.76
55.8151	523.11
55.8296	544.76
55.8440	535.22
55.8584	515.37
55.8729	529.07
55.8873	524.67
55.9018	536.73
55.9162	502.09
55.9306	494.70
55.9451	507.21
55.9595	505.04
55.9740	546.48
55.9884	546.30
56.0028	540.15
56.0173	509.38
56.0317	531.35
56.0462	502.09
56.0606	507.52
56.0750	567.15
56.0895	531.99
56.1039	489.09
56.1184	532.76
56.1328	551.07
56.1472	503.37
56.1617	509.22
56.1761	511.92
56.1906	510.86
56.2050	548.76
56.2194	519.06
56.2339	547.80
56.2483	512.99
56.2628	512.86
56.2772	484.20
56.2916	502.25
56.3061	519.06
56.3205	545.54
56.3350	538.15
56.3494	553.02
56.3639	543.94
56.3783	510.54
56.3927	519.84
56.4072	566.87
56.4216	530.44
56.4361	513.98
56.4505	529.38
56.4649	567.19
56.4794	542.21
56.4938	510.47
56.5083	523.39
56.5227	521.30
56.5371	523.38
56.5516	523.39
56.5660	485.69
56.5805	520.62
56.5949	504.56
56.6093	514.42
56.6238	494.43
56.6382	529.80
56.6527	536.35
56.6671	505.93
56.6815	514.69
56.6960	530.12
56.7104	525.02
56.7249	495.52
56.7393	527.12
56.7537	523.59
56.7682	530.39
56.7826	578.99
56.7971	511.00
56.8115	521.38
56.8259	570.99
56.8404	544.68
56.8548	518.07
56.8693	559.21
56.8837	547.39
56.8981	552.94
56.9126	527.80
56.9270	505.40
56.9415	512.55
56.9559	524.96
56.9703	537.13
56.9848	537.76
56.9992	508.37
57.0137	488.02
57.0281	465.23
57.0425	495.65
57.0570	511.06
57.0714	553.68
57.0859	553.94
57.1003	508.40
57.1147	539.79
57.1292	539.60
57.1436	529.55
57.1581	516.34
57.1725	519.32
57.1869	501.83
57.2014	486.97
57.2158	523.10
57.2303	471.83
57.2447	505.08
57.2591	572.12
57.2736	523.42
57.2880	541.43
57.3025	517.45
57.3169	537.70
57.3313	533.66
57.3458	536.16
57.3602	508.86
57.3747	482.64
57.3891	495.30
57.4035	520.60
57.4180	511.21
57.4324	569.87
57.4469	500.57
57.4613	518.06
57.4757	592.00
57.4902	550.14
57.5046	522.34
57.5191	526.50
57.5335	536.75
57.5479	499.34
57.5624	526.78
57.5768	520.09
57.5913	539.47
57.6057	513.03
57.6201	492.85
57.6346	527.79
57.6490	542.07
57.6635	523.06
57.6779	504.62
57.6923	535.28
57.7068	569.98
57.7212	543.19
57.7357	498.22
57.7501	539.35
57.7645	536.81
57.7790	573.26
57.7934	517.16
57.8079	509.41
57.8223	510.46
57.8367	524.57
57.8512	526.37
57.8656	555.56
57.8801	522.34
57.8945	561.24
57.9089	550.18
57.9234	516.37
57.9378	514.27
57.9523	563.46
57.9667	530.75
57.9811	542.66
57.9956	569.43
58.0100	545.33
58.0245	564.88
58.0389	596.95
58.0533	581.74
58.0678	592.03
58.0822	610.28
58.0967	646.67
58.1111	625.23
58.1255	636.80
58.1400	601.88
58.1544	611.37
58.1689	635.75
58.1833	635.84
58.1977	636.91
58.2122	643.09
58.2266	622.11
58.2411	658.81
58.2555	637.47
58.2699	660.00
58.2844	686.52
58.2988	635.60
58.3133	623.33
58.3277	611.01
58.3421	617.24
58.3566	648.53
58.3710	642.21
58.3855	601.31
58.3999	566.91
58.4143	589.23
58.4288	617.20
58.4432	598.45
58.4577	570.75
58.4721	600.04
58.4865	614.98
58.5010	565.26
58.5154	543.89
58.5299	549.14
58.5443	529.90
58.5587	552.80
58.5732	547.90
58.5876	539.40
58.6021	565.40
58.6165	542.82
58.6309	549.70
58.6454	560.46
58.6598	546.61
58.6743	531.02
58.6887	545.52
58.7031	578.60
58.7176	558.64
58.7320	520.16
58.7465	531.12
58.7609	510.64
58.7753	554.45
58.7898	558.77
58.8042	577.08
58.8187	544.26
58.8331	547.73
58.8475	529.35
58.8620	529.52
58.8764	532.65
58.8909	544.42
58.9053	554.26
58.9197	543.85
58.9342	564.10
58.9486	585.89
58.9631	531.63
58.9775	522.21
58.9919	536.08
59.0064	535.03
59.0208	562.91
59.0353	564.62
59.0497	498.19
59.0641	558.05
59.0786	592.61
59.0930	554.54
59.1075	511.20
59.1219	560.52
59.1363	562.35
59.1508	518.30
59.1652	550.99
59.1797	579.50
59.1941	530.90
59.2085	508.06
59.2230	546.48
59.2374	540.53
59.2519	548.25
59.2663	551.38
59.2807	571.98
59.2952	543.78
59.3096	570.54
59.3241	567.23
59.3385	561.06
59.3529	575.25
59.3674	556.84
59.3818	538.78
59.3963	574.41
59.4107	524.43
59.4251	554.76
59.4396	578.34
59.4540	553.51
59.4685	561.25
59.4829	542.32
59.4973	519.67
59.5118	553.43
59.5262	586.80
59.5407	554.96
59.5551	541.50
59.5695	532.02
59.5840	539.54
59.5984	552.20
59.6129	543.92
59.6273	553.15
59.6417	539.71
59.6562	549.31
59.6706	520.35
59.6851	543.59
59.6995	551.27
59.7139	516.98
59.7284	554.08
59.7428	521.04
59.7573	515.29
59.7717	478.60
59.7861	518.60
59.8006	527.25
59.8150	534.08
59.8295	527.09
59.8439	530.17
59.8583	596.99
59.8728	551.95
59.8872	528.11
59.9017	555.21
59.9161	555.20
59.9305	520.09
59.9450	555.42
59.9594	520.95
59.9739	582.88
59.9883	530.38
60.0027	498.88
60.0172	514.22
60.0316	564.44
60.0461	548.21
60.0605	552.90
60.0750	555.49
60.0894	589.06
60.1038	524.41
60.1183	552.76
60.1327	540.83
60.1472	539.75
60.1616	529.82
60.1760	541.79
60.1905	542.50
60.2049	541.81
60.2194	535.57
60.2338	549.41
60.2482	543.95
60.2627	521.59
60.2771	524.98
60.2916	545.02
60.3060	531.18
60.3204	540.16
60.3349	533.53
60.3493	531.43
60.3638	554.43
60.3782	516.95
60.3926	544.45
60.4071	555.37
60.4215	542.80
60.4360	574.30
60.4504	517.99
60.4648	529.08
60.4793	546.66
60.4937	540.96
60.5082	530.38
60.5226	499.00
60.5370	543.50
60.5515	524.99
60.5659	525.79
60.5804	504.44
60.5948	536.30
60.6092	543.22
60.6237	541.34
60.6381	559.75
60.6526	568.20
60.6670	533.72
60.6814	550.27
60.6959	504.01
60.7103	541.56
60.7248	531.64
60.7392	516.90
60.7536	563.77
60.7681	570.22
60.7825	552.96
60.7970	549.93
60.8114	548.30
60.8258	561.70
60.8403	542.94
60.8547	524.75
60.8692	544.55
60.8836	557.39
60.8980	550.26
60.9125	541.61
60.9269	545.70
60.9414	556.40
60.9558	520.25
60.9702	550.70
60.9847	553.94
60.9991	562.23
61.0136	556.37
61.0280	576.21
61.0424	543.42
61.0569	581.12
61.0713	560.30
61.0858	540.79
61.1002	544.31
61.1146	567.03
61.1291	557.13
61.1435	504.29
61.1580	513.51
61.1724	529.10
61.1868	531.21
61.2013	542.08
61.2157	536.54
61.2302	520.68
61.2446	539.49
61.2590	572.45
61.2735	565.86
61.2879	574.20
61.3024	539.98
61.3168	548.10
61.3312	581.25
61.3457	567.08
61.3601	539.15
61.3746	552.71
61.3890	525.16
61.4034	523.27
61.4179	557.98
61.4323	586.71
61.4468	524.94
61.4612	532.35
61.4756	529.38
61.4901	557.17
61.5045	547.72
61.5190	548.81
61.5334	544.86
61.5478	567.40
61.5623	520.78
61.5767	519.51
61.5912	551.61
61.6056	530.83
61.6200	556.00
61.6345	559.50
61.6489	544.80
61.6634	521.71
61.6778	531.52
61.6922	539.76
61.7067	564.33
61.7211	569.45
61.7356	519.58
61.7500	537.49
61.7644	522.19
61.7789	529.95
61.7933	533.19
61.8078	559.96
61.8222	566.08
61.8366	566.42
61.8511	544.43
61.8655	550.08
61.8800	530.00
61.8944	574.63
61.9088	568.06
61.9233	569.10
61.9377	545.45
61.9522	537.16
61.9666	523.17
61.9810	544.02
61.9955	567.55
62.0099	560.60
62.0244	556.08
62.0388	525.14
62.0532	511.23
62.0677	508.68
62.0821	532.24
62.0966	537.76
62.1110	524.59
62.1254	571.03
62.1399	522.55
62.1543	541.50
62.1688	543.59
62.1832	534.77
62.1976	543.05
62.2121	537.61
62.2265	559.01
62.2410	561.24
62.2554	542.51
62.2698	532.24
62.2843	509.01
62.2987	533.28
62.3132	580.54
62.3276	562.53
62.3420	586.14
62.3565	561.47
62.3709	560.24
62.3854	551.13
62.3998	525.42
62.4142	554.43
62.4287	586.30
62.4431	561.06
62.4576	546.71
62.4720	562.99
62.4864	544.33
62.5009	526.50
62.5153	547.25
62.5298	562.01
62.5442	560.18
62.5586	544.98
62.5731	536.68
62.5875	575.41
62.6020	537.12
62.6164	550.95
62.6308	577.98
62.6453	598.77
62.6597	548.19
62.6742	515.30
62.6886	519.51
62.7030	555.83
62.7175	599.36
62.7319	551.05
62.7464	562.99
62.7608	546.88
62.7752	541.56
62.7897	564.49
62.8041	551.31
62.8186	546.34
62.8330	561.85
62.8474	543.08
62.8619	552.99
62.8763	568.34
62.8908	570.86
62.9052	583.99
62.9196	559.20
62.9341	559.01
62.9485	550.18
62.9630	546.02
62.9774	573.14
62.9918	566.35
63.0063	569.18
63.0207	550.57
63.0352	568.76
63.0496	541.03
63.0640	581.55
63.0785	621.86
63.0929	603.40
63.1074	547.78
63.1218	572.29
63.1362	566.83
63.1507	538.40
63.1651	576.63
63.1796	563.88
63.1940	582.99
63.2084	541.84
63.2229	557.44
63.2373	561.96
63.2518	548.09
63.2662	564.23
63.2806	545.66
63.2951	529.18
63.3095	592.01
63.3240	586.87
63.3384	575.37
63.3528	551.21
63.3673	537.39
63.3817	573.16
63.3962	568.59
63.4106	596.39
63.4250	593.78
63.4395	562.30
63.4539	589.83
63.4684	617.99
63.4828	590.50
63.4972	561.30
63.5117	577.78
63.5261	579.04
63.5406	598.41
63.5550	602.51
63.5694	583.04
63.5839	606.00
63.5983	617.37
63.6128	634.12
63.6272	612.50
63.6416	640.28
63.6561	587.27
63.6705	616.91
63.6850	582.06
63.6994	606.39
63.7138	610.57
63.7283	630.61
63.7427	648.28
63.7572	671.04
63.7716	675.03
63.7861	669.95
63.8005	675.39
63.8149	689.91
63.8294	726.04
63.8438	764.86
63.8583	776.97
63.8727	732.63
63.8871	710.88
63.9016	730.56
63.9160	786.90
63.9305	780.53
63.9449	789.18
63.9593	781.32
63.9738	797.07
63.9882	804.56
64.0027	801.82
64.0171	810.60
64.0315	776.52
64.0460	756.82
64.0604	831.04
64.0749	824.32
64.0893	794.61
64.1037	772.96
64.1182	778.24
64.1326	724.99
64.1471	705.60
64.1615	692.20
64.1759	741.95
64.1904	684.15
64.2048	673.89
64.2193	716.79
64.2337	701.93
64.2481	655.42
64.2626	625.84
64.2770	680.99
64.2915	660.61
64.3059	647.69
64.3203	632.98
64.3348	633.01
64.3492	635.40
64.3637	599.17
64.3781	647.05
64.3925	659.12
64.4070	623.78
64.4214	673.44
64.4359	647.77
64.4503	628.97
64.4647	663.75
64.4792	632.71
64.4936	611.38
64.5081	623.10
64.5225	622.04
64.5369	652.27
64.5514	647.46
64.5658	650.33
64.5803	609.32
64.5947	619.20
64.6091	609.63
64.6236	642.77
64.6380	647.78
64.6525	626.29
64.6669	665.14
64.6813	635.39
64.6958	660.47
64.7102	703.61
64.7247	700.80
64.7391	711.60
64.7535	649.30
64.7680	687.10
64.7824	746.05
64.7969	735.80
64.8113	764.52
64.8257	767.14
64.8402	806.62
64.8546	804.86
64.8691	810.38
64.8835	832.66
64.8979	816.93
64.9124	855.54
64.9268	894.78
64.9413	870.32
64.9557	945.97
64.9701	939.10
64.9846	1034.49
64.9990	1152.98
65.0135	1216.36
65.0279	1432.53
65.0423	1689.44
65.0568	1977.13
65.0712	2480.44
65.0857	3285.66
65.1001	4207.29
65.1145	5746.38
65.1290	7433.91
65.1434	8988.57
65.1579	10775.59
65.1723	11636.40
65.1867	11326.28
65.2012	10179.92
65.2156	8523.00
65.2301	6866.61
65.2445	5475.41
65.2589	4449.61
65.2734	4114.59
65.2878	4358.77
65.3023	4790.88
65.3167	5593.28
65.3311	6416.66
65.3456	6891.03
65.3600	6852.60
65.3745	6490.08
65.3889	5579.51
65.4033	4408.98
65.4178	3600.82
65.4322	2902.50
65.4467	2115.49
65.4611	1829.72
65.4755	1467.97
65.4900	1319.96
65.5044	1189.51
65.5189	1103.59
65.5333	984.46
65.5477	918.15
65.5622	870.59
65.5766	811.63
65.5911	826.40
65.6055	825.24
65.6199	775.84
65.6344	751.31
65.6488	749.63
65.6633	687.59
65.6777	711.55
65.6921	734.43
65.7066	743.52
65.7210	706.27
65.7355	698.31
65.7499	714.42
65.7643	698.94
65.7788	700.53
65.7932	635.60
65.8077	645.53
65.8221	631.05
65.8365	653.07
65.8510	671.50
65.8654	677.02
65.8799	653.83
65.8943	630.93
65.9087	629.56
65.9232	605.63
65.9376	587.33
65.9521	643.70
65.9665	643.62
65.9809	632.60
65.9954	636.65
66.0098	614.72
66.0243	657.23
66.0387	614.24
66.0531	613.39
66.0676	626.96
66.0820	664.70
66.0965	612.83
66.1109	633.95
66.1253	650.62
66.1398	622.53
66.1542	611.88
66.1687	639.34
66.1831	617.16
66.1975	576.51
66.2120	605.27
66.2264	617.42
66.2409	623.56
66.2553	618.93
66.2697	625.08
66.2842	602.06
66.2986	547.91
66.3131	561.43
66.3275	574.34
66.3419	599.05
66.3564	571.24
66.3708	620.85
66.3853	653.76
66.3997	616.00
66.4141	622.68
66.4286	615.32
66.4430	585.86
66.4575	586.43
66.4719	591.66
66.4863	595.01
66.5008	601.46
66.5152	567.36
66.5297	603.12
66.5441	594.02
66.5585	589.63
66.5730	585.87
66.5874	605.66
66.6019	596.87
66.6163	581.98
66.6307	571.99
66.6452	581.46
66.6596	595.42
66.6741	588.96
66.6885	586.87
66.7029	598.95
66.7174	603.44
66.7318	622.78
66.7463	598.73
66.7607	583.40
66.7751	572.45
66.7896	569.14
66.8040	552.03
66.8185	541.04
66.8329	541.47
66.8473	553.07
66.8618	588.87
66.8762	595.56
66.8907	592.73
66.9051	578.88
66.9195	575.07
66.9340	576.50
66.9484	551.89
66.9629	597.55
66.9773	570.60
66.9917	581.87
67.0062	562.18
67.0206	589.00
67.0351	577.48
67.0495	582.08
67.0639	579.98
67.0784	571.48
67.0928	608.25
67.1073	598.41
67.1217	578.33
67.1361	582.31
67.1506	586.08
67.1650	590.07
67.1795	582.92
67.1939	576.03
67.2083	612.48
67.2228	616.44
67.2372	574.67
67.2517	568.60
67.2661	578.05
67.2805	603.10
67.2950	581.16
67.3094	581.08
67.3239	595.27
67.3383	630.85
67.3527	552.88
67.3672	578.68
67.3816	530.63
67.3961	549.73
67.4105	539.09
67.4250	576.67
67.4394	599.48
67.4538	572.98
67.4683	564.25
67.4827	561.52
67.4972	580.71
67.5116	567.60
67.5260	585.75
67.5405	598.81
67.5549	574.72
67.5694	592.24
67.5838	546.46
67.5982	567.82
67.6127	589.42
67.6271	593.36
67.6416	564.98
67.6560	567.38
67.6704	580.58
67.6849	567.72
67.6993	560.91
67.7138	574.99
67.7282	555.72
67.7426	589.61
67.7571	576.76
67.7715	542.73
67.7860	600.00
67.8004	570.78
67.8148	587.19
67.8293	560.05
67.8437	559.85
67.8582	597.54
67.8726	633.76
67.8870	585.87
67.9015	627.27
67.9159	576.64
67.9304	600.83
67.9448	572.18
67.9592	582.01
67.9737	544.82
67.9881	587.36
68.0026	578.01
68.0170	579.01
68.0314	569.75
68.0459	580.58
68.0603	607.76
68.0748	569.11
68.0892	575.26
68.1036	569.05
68.1181	599.25
68.1325	573.62
68.1470	574.82
68.1614	558.06
68.1758	530.85
68.1903	525.77
68.2047	559.75
68.2192	597.75
68.2336	540.99
68.2480	593.33
68.2625	557.59
68.2769	555.34
68.2914	544.61
68.3058	558.69
68.3202	592.27
68.3347	579.08
68.3491	616.58
68.3636	600.18
68.3780	575.22
68.3924	564.36
68.4069	594.60
68.4213	565.14
68.4358	519.85
68.4502	539.78
68.4646	557.73
68.4791	563.48
68.4935	550.25
68.5080	585.00
68.5224	554.24
68.5368	539.19
68.5513	516.54
68.5657	511.37
68.5802	538.32
68.5946	559.95
68.6090	605.01
68.6235	592.12
68.6379	574.99
68.6524	558.39
68.6668	569.35
68.6812	609.47
68.6957	572.25
68.7101	572.93
68.7246	532.44
68.7390	562.11
68.7534	583.00
68.7679	549.34
68.7823	541.37
68.7968	569.19
68.8112	607.61
68.8256	602.95
68.8401	554.39
68.8545	560.64
68.8690	577.08
68.8834	565.03
68.8978	612.09
68.9123	636.72
68.9267	575.81
68.9412	594.78
68.9556	556.48
68.9700	578.88
68.9845	560.74
68.9989	580.98
69.0134	558.44
69.0278	584.87
69.0422	559.76
69.0567	583.89
69.0711	589.89
69.0856	575.91
69.1000	551.18
69.1144	559.17
69.1289	549.36
69.1433	573.56
69.1578	594.85
69.1722	550.91
69.1866	578.89
69.2011	582.10
69.2155	564.76
69.2300	615.44
69.2444	548.45
69.2588	571.00
69.2733	562.80
69.2877	539.53
69.3022	547.68
69.3166	548.17
69.3310	546.54
69.3455	625.93
69.3599	597.82
69.3744	591.96
69.3888	593.75
69.4032	584.87
69.4177	564.46
69.4321	625.27
69.4466	548.22
69.4610	552.74
69.4754	595.78
69.4899	592.73
69.5043	556.74
69.5188	564.42
69.5332	537.66
69.5476	528.38
69.5621	548.87
69.5765	573.04
69.5910	582.27
69.6054	637.24
69.6198	580.16
69.6343	602.64
69.6487	574.37
69.6632	606.13
69.6776	622.40
69.6920	576.90
69.7065	588.50
69.7209	623.52
69.7354	578.55
69.7498	622.66
69.7642	557.43
69.7787	585.82
69.7931	622.73
69.8076	591.69
69.8220	572.14
69.8364	560.74
69.8509	518.90
69.8653	578.48
69.8798	579.70
69.8942	621.62
69.9086	565.22
69.9231	643.07
69.9375	604.99
69.9520	604.24
69.9664	576.59
69.9808	589.02
69.9953	556.37
70.0097	541.50
70.0242	623.39
70.0386	567.54
70.0530	576.60
70.0675	556.91
70.0819	589.23
70.0964	605.51
70.1108	608.32
70.1252	569.39
70.1397	550.84
70.1541	529.91
70.1686	596.81
70.1830	580.57
70.1974	546.59
70.2119	575.02
70.2263	580.36
70.2408	598.07
70.2552	611.94
70.2696	563.35
70.2841	551.93
70.2985	626.40
70.3130	619.30
70.3274	598.48
70.3418	615.01
70.3563	624.79
70.3707	594.06
70.3852	549.97
70.3996	608.95
70.4140	579.75
70.4285	587.08
70.4429	564.55
70.4574	569.17
70.4718	622.09
70.4862	550.95
70.5007	566.38
70.5151	552.81
70.5296	579.23
70.5440	605.37
70.5584	551.92
70.5729	545.12
70.5873	577.29
70.6018	580.49
70.6162	562.34
70.6306	567.13
70.6451	518.27
70.6595	579.03
70.6740	555.09
70.6884	544.91
70.7028	573.22
70.7173	599.92
70.7317	598.43
70.7462	628.99
70.7606	556.50
70.7750	672.24
70.7895	561.79
70.8039	581.05
70.8184	607.99
70.8328	620.20
70.8472	599.34
70.8617	580.20
70.8761	579.49
70.8906	494.70
70.9050	588.95
70.9194	617.07
70.9339	670.69
70.9483	601.74
70.9628	569.29
70.9772	588.64
70.9916	518.05
71.0061	517.73
71.0205	592.48
71.0350	525.41
71.0494	528.24
71.0638	580.78
71.0783	567.63
71.0927	569.32
71.1072	608.39
71.1216	548.63
71.1361	567.64
71.1505	570.25
71.1649	572.36
71.1794	592.13
71.1938	593.58
71.2083	595.84
71.2227	632.69
71.2371	607.61
71.2516	591.36
71.2660	588.11
71.2805	533.98
71.2949	527.57
71.3093	552.93
71.3238	591.32
71.3382	610.04
71.3527	578.72
71.3671	595.56
71.3815	566.21
71.3960	566.69
71.4104	561.61
71.4249	597.05
71.4393	542.16
71.4537	460.06
71.4682	591.27
71.4826	598.39
71.4971	551.73
71.5115	556.32
71.5259	567.50
71.5404	599.84
71.5548	626.07
71.5693	575.55
71.5837	533.56
71.5981	534.16
71.6126	564.92
71.6270	537.60
71.6415	558.79
71.6559	578.45
71.6703	630.37
71.6848	653.79
71.6992	614.16
71.7137	562.88
71.7281	559.56
71.7425	533.57
71.7570	522.95
71.7714	526.07
71.7859	595.10
71.8003	612.91
71.8147	625.71
71.8292	589.87
71.8436	555.65
71.8581	564.99
71.8725	561.45
71.8869	585.42
71.9014	647.61
71.9158	568.11
71.9303	591.37
71.9447	599.99
71.9591	640.05
71.9736	582.94
71.9880	558.87
72.0025	599.70
72.0169	572.59
72.0313	598.15
72.0458	575.09
72.0602	614.23
72.0747	628.05
72.0891	579.97
72.1035	581.73
72.1180	567.81
72.1324	526.35
72.1469	502.42
72.1613	550.81
72.1757	604.93
72.1902	650.38
72.2046	595.08
72.2191	520.95
72.2335	533.91
72.2479	505.11
72.2624	490.36
72.2768	522.02
72.2913	607.22
72.3057	606.22
72.3201	581.12
72.3346	576.13
72.3490	562.94
72.3635	528.32
72.3779	578.90
72.3923	513.60
72.4068	532.57
72.4212	606.20
72.4357	593.13
72.4501	555.24
72.4645	565.36
72.4790	604.91
72.4934	584.03
72.5079	572.96
72.5223	570.20
72.5367	548.68
72.5512	538.05
72.5656	505.89
72.5801	528.57
72.5945	551.54
72.6089	490.99
72.6234	528.71
72.6378	543.13
72.6523	519.71
72.6667	608.34
72.6811	560.74
72.6956	538.78
72.7100	558.57
72.7245	519.92
72.7389	556.05
72.7533	587.49
72.7678	615.03
72.7822	662.04
72.7967	625.78
72.8111	620.89
72.8255	648.37
72.8400	654.50
72.8544	571.69
72.8689	577.44
72.8833	583.19

Result vector
22.1120	547.19
22.1264	506.92
22.1409	484.96
22.1553	513.72
22.1697	547.07
22.1842	609.93
22.1986	642.62
22.2131	524.10
22.2275	570.11
22.2419	597.71
22.2564	556.27
22.2708	525.71
22.2853	613.02
22.2997	572.02
22.3141	537.45
22.3286	499.65
22.3430	586.20
22.3575	593.94
22.3719	641.37
22.3863	583.52
22.4008	587.38
22.4152	610.35
22.4297	608.47
22.4441	652.16
22.4585	598.84
22.4730	659.11
22.4874	560.90
22.5019	575.46
22.5163	603.03
22.5307	626.50
22.5452	600.46
22.5596	575.09
22.5741	594.84
22.5885	608.90
22.6029	538.50
22.6174	650.77
22.6318	607.52
22.6463	576.88
22.6607	565.01
22.6751	525.61
22.6896	668.12
22.7040	645.83
22.7185	640.26
22.7329	536.81
22.7473	471.95
22.7618	514.97
22.7762	576.03
22.7907	649.15
22.8051	562.12
22.8195	560.77
22.8340	543.05
22.8484	532.82
22.8629	707.14
22.8773	620.98
22.8917	552.03
22.9062	503.21
22.9206	508.97
22.9351	530.32
22.9495	608.29
22.9639	582.10
22.9784	597.08
22.9928	537.41
23.0073	586.45
23.0217	612.23
23.0361	620.27
23.0506	560.82
23.0650	547.95
23.0795	555.43
23.0939	588.29
23.1083	531.67
23.1228	525.59
23.1372	606.06
23.1517	553.62
23.1661	569.89
23.1806	541.87
23.1950	584.74
23.2094	583.67
23.2239	565.82
23.2383	614.01
23.2528	538.98
23.2672	524.27
23.2816	550.35
23.2961	562.28
23.3105	597.55
23.3250	591.57
23.3394	561.72
23.3538	561.53
23.3683	595.77
23.3827	496.59
23.3972	572.67
23.4116	537.49
23.4260	566.96
23.4405	639.65
23.4549	600.91
23.4694	569.14
23.4838	530.20
23.4982	564.99
23.5127	557.96
23.5271	561.84
23.5416	506.50
23.5560	601.37
23.5704	516.63
23.5849	571.76
23.5993	528.98
23.6138	493.62
23.6282	525.68
23.6426	533.09
23.6571	539.22
23.6715	422.84
23.6860	517.39
23.7004	505.44
23.7148	516.93
23.7293	531.43
23.7437	578.18
23.7582	593.53
23.7726	566.20
23.7870	603.65
23.8015	564.19
23.8159	606.99
23.8304	503.77
23.8448	488.73
23.8592	537.74
23.8737	563.25
23.8881	495.65
23.9026	578.54
23.9170	579.70
23.9314	530.43
23.9459	512.18
23.9603	545.96
23.9748	571.75
23.9892	583.44
24.0036	579.75
24.0181	570.84
24.0325	556.06
24.0470	529.63
24.0614	577.55
24.0758	538.84
24.0903	550.60
24.1047	581.32
24.1192	601.32
24.1336	559.91
24.1480	539.38
24.1625	632.84
24.1769	601.74
24.1914	513.60
24.2058	559.86
24.2202	561.07
24.2347	640.42
24.2491	584.98
24.2636	557.20
24.2780	594.12
24.2924	535.97
24.3069	575.69
24.3213	597.93
24.3358	556.62
24.3502	565.59
24.3646	544.50
24.3791	563.15
24.3935	541.63
24.4080	548.02
24.4224	586.14
24.4368	560.74
24.4513	539.34
24.4657	546.95
24.4802	562.54
24.4946	512.20
24.5090	525.03
24.5235	497.03
24.5379	552.80
24.5524	531.54
24.5668	587.68
24.5812	631.59
24.5957	582.36
24.6101	555.25
24.6246	586.10
24.6390	547.76
24.6534	535.47
24.6679	565.10
24.6823	545.07
24.6968	543.45
24.7112	520.36
24.7256	505.66
24.7401	554.16
24.7545	556.72
24.7690	539.91
24.7834	535.81
24.7978	546.00
24.8123	538.40
24.8267	540.40
24.8412	534.20
24.8556	575.14
24.8700	550.26
24.8845	547.03
24.8989	567.22
24.9134	576.37
24.9278	477.31
24.9422	489.67
24.9567	549.91
24.9711	554.43
24.9856	568.93
25.0000	554.39
25.0144	597.37
25.0289	528.91
25.0433	570.07
25.0578	566.07
25.0722	549.45
25.0866	557.19
25.1011	523.43
25.1155	552.62
25.1300	580.04
25.1444	521.02
25.1588	533.00
25.1733	521.25
25.1877	555.40
25.2022	571.70
25.2166	555.43
25.2310	515.34
25.2455	502.84
25.2599	540.63
25.2744	560.08
25.2888	550.05
25.3032	587.75
25.3177	569.84
25.3321	574.70
25.3466	516.30
25.3610	494.58
25.3754	513.09
25.3899	537.19
25.4043	527.08
25.4188	524.73
25.4332	522.64
25.4476	508.10
25.4621	497.91
25.4765	498.19
25.4910	537.90
25.5054	509.38
25.5198	521.31
25.5343	528.13
25.5487	542.38
25.5632	583.87
25.5776	507.59
25.5920	535.35
25.6065	554.18
25.6209	521.31
25.6354	528.29
25.6498	545.40
25.6642	546.32
25.6787	506.38
25.6931	538.90
25.7076	577.21
25.7220	531.35
25.7364	516.31
25.7509	563.54
25.7653	523.19
25.7798	566.47
25.7942	571.70
25.8086	523.68
25.8231	521.02
25.8375	526.86
25.8520	529.99
25.8664	550.80
25.8808	491.29
25.8953	557.01
25.9097	570.29
25.9242	549.46
25.9386	545.78
25.9530	569.18
25.9675	574.65
25.9819	563.22
25.9964	554.17
26.0108	565.62
26.0252	510.20
26.0397	486.89
26.0541	528.09
26.0686	530.01
26.0830	543.93
26.0974	539.36
26.1119	542.14
26.1263	547.88
26.1408	504.80
26.1552	526.88
26.1696	529.58
26.1841	559.46
26.1985	529.52
26.2130	518.73
26.2274	512.76
26.2418	508.92
26.2563	524.59
26.2707	515.61
26.2852	523.15
26.2996	543.27
26.3140	535.74
26.3285	546.64
26.3429	561.17
26.3574	571.99
26.3718	502.78
26.3862	523.10
26.4007	515.21
26.4151	534.92
26.4296	503.49
26.4440	487.29
26.4584	521.49
26.4729	529.44
26.4873	526.97
26.5018	521.60
26.5162	507.44
26.5306	529.22
26.5451	553.05
26.5595	537.47
26.5740	536.80
26.5884	511.69
26.6028	524.01
26.6173	541.38
26.6317	542.83
26.6462	519.32
26.6606	523.26
26.6750	532.27
26.6895	517.95
26.7039	499.86
26.7184	539.99
26.7328	491.40
26.7472	514.35
26.7617	506.96
26.7761	541.53
26.7906	565.82
26.8050	527.33
26.8194	522.92
26.8339	532.91
26.8483	522.72
26.8628	524.31
26.8772	525.98
26.8917	529.28
26.9061	514.66
26.9205	510.28
26.9350	518.85
26.9494	519.77
26.9639	484.05
26.9783	477.14
26.9927	494.66
27.0072	523.47
27.0216	483.42
27.0361	485.20
27.0505	520.08
27.0649	527.86
27.0794	524.92
27.0938	532.75
27.1083	524.77
27.1227	557.09
27.1371	543.84
27.1516	517.59
27.1660	522.77
27.1805	544.40
27.1949	514.99
27.2093	517.02
27.2238	515.98
27.2382	497.03
27.2527	524.82
27.2671	510.35
27.2815	550.26
27.2960	509.75
27.3104	507.60
27.3249	507.56
27.3393	487.97
27.3537	501.01
27.3682	483.67
27.3826	490.68
27.3971	494.25
27.4115	530.39
27.4259	603.28
27.4404	549.78
27.4548	514.82
27.4693	545.09
27.4837	513.31
27.4981	522.90
27.5126	544.83
27.5270	545.36
27.5415	526.89
27.5559	536.80
27.5703	522.02
27.5848	489.58
27.5992	527.01
27.6137	519.16
27.6281	511.48
27.6425	481.45
27.6570	540.07
27.6714	515.80
27.6859	523.80
27.7003	535.86
27.7147	522.90
27.7292	491.38
27.7436	504.53
27.7581	482.19
27.7725	489.71
27.7869	522.99
27.8014	502.58
27.8158	517.62
27.8303	522.93
27.8447	495.34
27.8591	516.95
27.8736	508.89
27.8880	491.71
27.9025	518.62
27.9169	513.31
27.9313	514.15
27.9458	517.55
27.9602	520.21
27.9747	536.70
27.9891	529.05
28.0035	515.96
28.0180	507.71
28.0324	510.83
28.0469	521.42
28.0613	527.99
28.0757	494.08
28.0902	537.18
28.1046	486.64
28.1191	517.65
28.1335	522.92
28.1479	508.87
28.1624	549.93
28.1768	507.40
28.1913	500.62
28.2057	499.41
28.2201	525.26
28.2346	507.97
28.2490	487.28
28.2635	470.88
28.2779	502.03
28.2923	518.29
28.3068	501.05
28.3212	522.42
28.3357	534.77
28.3501	549.97
28.3645	499.43
28.3790	481.10
28.3934	487.60
28.4079	517.60
28.4223	505.38
28.4367	494.77
28.4512	518.41
28.4656	526.81
28.4801	519.93
28.4945	498.40
28.5089	482.76
28.5234	520.87
28.5378	515.91
28.5523	522.72
28.5667	519.92
28.5811	481.55
28.5956	531.06
28.6100	479.44
28.6245	501.95
28.6389	527.55
28.6533	487.40
28.6678	480.91
28.6822	506.17
28.6967	501.65
28.7111	491.36
28.7255	506.96
28.7400	517.98
28.7544	538.11
28.7689	476.92
28.7833	475.81
28.7977	516.90
28.8122	538.77
28.8266	504.77
28.8411	524.12
28.8555	520.13
28.8699	492.53
28.8844	499.45
28.8988	524.76
28.9133	503.09
28.9277	486.25
28.9421	499.17
28.9566	499.06
28.9710	522.32
28.9855	504.62
28.9999	526.95
29.0143	526.19
29.0288	513.21
29.0432	478.80
29.0577	511.78
29.0721	538.53
29.0865	526.43
29.1010	543.52
29.1154	506.48
29.1299	524.50
29.1443	492.36
29.1587	482.48
29.1732	522.03
29.1876	494.17
29.2021	532.70
29.2165	508.79
29.2309	496.81
29.2454	529.91
29.2598	513.31
29.2743	491.38
29.2887	501.04
29.3031	483.05
29.3176	497.74
29.3320	512.64
29.3465	509.15
29.3609	494.51
29.3753	514.34
29.3898	480.04
29.4042	477.29
29.4187	512.78
29.4331	548.19
29.4475	483.46
29.4620	506.82
29.4764	499.96
29.4909	470.18
29.5053	511.20
29.5197	538.60
29.5342	522.35
29.5486	511.70
29.5631	509.73
29.5775	520.66
29.5919	520.49
29.6064	485.80
29.6208	491.66
29.6353	539.97
29.6497	512.50
29.6641	498.09
29.6786	477.26
29.6930	487.62
29.7075	499.04
29.7219	495.52
29.7363	515.85
29.7508	510.08
29.7652	493.89
29.7797	474.20
29.7941	505.09
29.8085	476.09
29.8230	500.35
29.8374	534.44
29.8519	488.49
29.8663	514.37
29.8807	491.47
29.8952	485.01
29.9096	485.24
29.9241	499.88
29.9385	528.86
29.9529	482.94
29.9674	522.36
29.9818	510.87
29.9963	479.06
30.0107	479.96
30.0251	500.79
30.0396	493.25
30.0540	544.61
30.0685	535.63
30.0829	474.68
30.0973	486.58
30.1118	529.82
30.1262	527.81
30.1407	521.08
30.1551	514.06
30.1695	508.87
30.1840	544.19
30.1984	543.66
30.2129	496.19
30.2273	499.40
30.2417	469.96
30.2562	494.14
30.2706	472.23
30.2851	522.39
30.2995	524.36
30.3139	497.41
30.3284	496.72
30.3428	529.53
30.3573	492.39
30.3717	496.13
30.3861	499.42
30.4006	471.57
30.4150	509.97
30.4295	537.01
30.4439	499.01
30.4583	525.46
30.4728	491.20
30.4872	510.17
30.5017	550.30
30.5161	533.05
30.5305	529.97
30.5450	522.98
30.5594	492.73
30.5739	517.53
30.5883	530.24
30.6028	538.64
30.6172	569.39
30.6316	599.97
30.6461	569.54
30.6605	577.96
30.6750	596.85
30.6894	619.50
30.7038	655.02
30.7183	664.43
30.7327	691.91
30.7472	680.90
30.7616	657.28
30.7760	661.63
30.7905	691.25
30.8049	671.64
30.8194	636.54
30.8338	614.35
30.8482	593.33
30.8627	604.76
30.8771	622.40
30.8916	614.32
30.9060	576.31
30.9204	544.67
30.9349	581.44
30.9493	537.56
30.9638	554.63
30.9782	544.83
30.9926	536.70
31.0071	530.33
31.0215	543.31
31.0360	546.39
31.0504	534.16
31.0648	517.89
31.0793	525.50
31.0937	562.17
31.1082	515.51
31.1226	510.49
31.1370	504.79
31.1515	498.48
31.1659	535.50
31.1804	531.00
31.1948	543.77
31.2092	517.72
31.2237	560.01
31.2381	549.54
31.2526	551.01
31.2670	538.54
31.2814	567.00
31.2959	526.71
31.3103	533.47
31.3248	553.74
31.3392	548.79
31.3536	529.96
31.3681	519.86
31.3825	515.77
31.3970	515.98
31.4114	533.06
31.4258	519.65
31.4403	516.94
31.4547	508.88
31.4692	513.59
31.4836	530.01
31.4980	507.87
31.5125	513.11
31.5269	510.81
31.5414	527.85
31.5558	499.26
31.5702	487.48
31.5847	526.46
31.5991	529.08
31.6136	488.51
31.6280	466.12
31.6424	519.67
31.6569	541.03
31.6713	485.02
31.6858	464.71
31.7002	535.47
31.7146	522.46
31.7291	498.96
31.7435	515.23
31.7580	504.18
31.7724	517.34
31.7868	499.05
31.8013	486.25
31.8157	509.36
31.8302	519.18
31.8446	533.17
31.8590	498.88
31.8735	517.13
31.8879	522.83
31.9024	528.72
31.9168	537.19
31.9312	517.01
31.9457	499.39
31.9601	498.12
31.9746	486.69
31.9890	501.33
32.0034	477.47
32.0179	497.04
32.0323	520.49
32.0468	505.43
32.0612	495.32
32.0756	461.84
32.0901	511.20
32.1045	542.45
32.1190	505.60
32.1334	494.39
32.1478	502.64
32.1623	496.97
32.1767	517.54
32.1912	499.35
32.2056	474.84
32.2200	485.36
32.2345	490.56
32.2489	504.24
32.2634	504.12
32.2778	529.56
32.2922	527.10
32.3067	531.79
32.3211	505.26
32.3356	540.80
32.3500	541.37
32.3644	540.02
32.3789	523.12
32.3933	505.76
32.4078	514.41
32.4222	524.61
32.4366	509.89
32.4511	474.06
32.4655	497.77
32.4800	494.43
32.4944	542.43
32.5088	548.17
32.5233	515.63
32.5377	537.55
32.5522	507.64
32.5666	487.51
32.5810	474.92
32.5955	528.42
32.6099	505.71
32.6244	498.26
32.6388	489.54
32.6532	504.78
32.6677	501.47
32.6821	481.07
32.6966	501.69
32.7110	495.99
32.7254	495.00
32.7399	520.46
32.7543	532.25
32.7688	498.72
32.7832	501.68
32.7976	491.76
32.8121	541.45
32.8265	489.32
32.8410	500.42
32.8554	478.95
32.8698	538.64
32.8843	501.93
32.8987	472.73
32.9132	485.20
32.9276	456.88
32.9420	511.19
32.9565	526.58
32.9709	504.79
32.9854	519.77
32.9998	482.37
33.0142	471.87
33.0287	514.56
33.0431	517.11
33.0576	514.89
33.0720	518.03
33.0864	528.09
33.1009	501.46
33.1153	477.92
33.1298	510.48
33.1442	478.33
33.1586	494.79
33.1731	497.90
33.1875	484.85
33.2020	479.67
33.2164	481.57
33.2308	473.60
33.2453	530.42
33.2597	522.12
33.2742	498.06
33.2886	506.87
33.3030	503.27
33.3175	528.34
33.3319	540.98
33.3464	527.86
33.3608	506.70
33.3752	497.98
33.3897	504.37
33.4041	503.92
33.4186	511.81
33.4330	505.13
33.4474	475.55
33.4619	520.64
33.4763	537.38
33.4908	503.48
33.5052	481.46
33.5196	502.08
33.5341	529.38
33.5485	520.22
33.5630	533.14
33.5774	505.47
33.5918	484.70
33.6063	513.25
33.6207	499.74
33.6352	494.43
33.6496	505.88
33.6640	494.79
33.6785	493.30
33.6929	503.07
33.7074	505.57
33.7218	541.18
33.7362	507.06
33.7507	509.76
33.7651	497.88
33.7796	488.15
33.7940	497.20
33.8084	543.36
33.8229	544.12
33.8373	544.36
33.8518	524.34
33.8662	519.49
33.8806	508.76
33.8951	467.77
33.9095	499.28
33.9240	518.85
33.9384	514.71
33.9528	534.18
33.9673	523.09
33.9817	491.50
33.9962	521.97
34.0106	504.85
34.0250	517.90
34.0395	464.11
34.0539	474.37
34.0684	473.71
34.0828	514.99
34.0972	554.45
34.1117	498.05
34.1261	495.99
34.1406	490.80
34.1550	538.87
34.1694	515.78
34.1839	526.49
34.1983	527.24
34.2128	523.93
34.2272	514.28
34.2417	504.01
34.2561	520.52
34.2705	509.92
34.2850	504.58
34.2994	517.49
34.3139	517.36
34.3283	501.34
34.3427	468.19
34.3572	506.93
34.3716	507.75
34.3861	503.83
34.4005	486.19
34.4149	475.24
34.4294	513.70
34.4438	487.31
34.4583	484.37
34.4727	522.43
34.4871	503.90
34.5016	499.60
34.5160	501.20
34.5305	510.79
34.5449	527.16
34.5593	531.98
34.5738	515.69
34.5882	525.44
34.6027	477.51
34.6171	500.91
34.6315	500.42
34.6460	524.61
34.6604	477.14
34.6749	499.79
34.6893	494.61
34.7037	516.26
34.7182	488.69
34.7326	495.01
34.7471	507.04
34.7615	517.70
34.7759	525.88
34.7904	527.52
34.8048	499.86
34.8193	495.11
34.8337	519.86
34.8481	495.48
34.8626	486.00
34.8770	511.34
34.8915	512.15
34.9059	494.82
34.9203	476.44
34.9348	482.90
34.9492	484.56
34.9637	480.41
34.9781	498.48
34.9925	474.08
35.0070	479.05
35.0214	520.40
35.0359	504.07
35.0503	483.63
35.0647	477.01
35.0792	473.20
35.0936	500.00
35.1081	500.31
35.1225	508.96
35.1369	521.83
35.1514	508.72
35.1658	548.65
35.1803	523.45
35.1947	505.05
35.2091	531.92
35.2236	517.31
35.2380	555.57
35.2525	518.39
35.2669	501.12
35.2813	530.33
35.2958	487.31
35.3102	520.17
35.3247	549.07
35.3391	541.31
35.3535	481.93
35.3680	524.47
35.3824	538.73
35.3969	506.76
35.4113	502.78
35.4257	523.34
35.4402	517.58
35.4546	536.29
35.4691	530.28
35.4835	502.62
35.4979	548.39
35.5124	558.51
35.5268	527.33
35.5413	518.95
35.5557	534.31
35.5701	520.57
35.5846	511.33
35.5990	505.35
35.6135	521.26
35.6279	522.80
35.6423	526.84
35.6568	560.78
35.6712	546.85
35.6857	587.35
35.7001	663.29
35.7145	708.14
35.7290	668.83
35.7434	572.19
35.7579	570.64
35.7723	586.46
35.7867	614.58
35.8012	674.19
35.8156	707.09
35.8301	662.74
35.8445	622.86
35.8589	618.99
35.8734	716.22
35.8878	863.43
35.9023	1004.42
35.9167	1027.05
35.9311	1181.81
35.9456	1768.97
35.9600	2317.36
35.9745	2013.75
35.9889	1987.77
36.0033	2632.59
36.0178	3291.33
36.0322	2915.69
36.0467	2076.00
36.0611	1828.43
36.0755	1675.38
36.0900	1791.02
36.1044	1611.01
36.1189	1533.65
36.1333	1578.19
36.1477	1351.95
36.1622	1354.21
36.1766	1283.41
36.1911	1211.58
36.2055	1165.41
36.2199	1107.36
36.2344	1043.96
36.2488	1019.75
36.2633	928.38
36.2777	901.94
36.2921	831.73
36.3066	819.99
36.3210	799.49
36.3355	738.27
36.3499	709.76
36.3643	669.54
36.3788	613.21
36.3932	619.47
36.4077	631.33
36.4221	646.16
36.4365	576.67
36.4510	554.35
36.4654	567.34
36.4799	568.07
36.4943	565.49
36.5087	555.70
36.5232	563.14
36.5376	574.21
36.5521	564.01
36.5665	520.78
36.5809	531.36
36.5954	558.12
36.6098	541.58
36.6243	565.90
36.6387	503.09
36.6531	519.13
36.6676	535.62
36.6820	514.08
36.6965	496.05
36.7109	534.38
36.7253	537.18
36.7398	519.54
36.7542	535.99
36.7687	532.07
36.7831	514.93
36.7975	513.79
36.8120	571.80
36.8264	549.63
36.8409	564.94
36.8553	613.18
36.8697	599.74
36.8842	565.79
36.8986	578.38
36.9131	615.15
36.9275	568.40
36.9419	547.85
36.9564	556.09
36.9708	559.80
36.9853	563.46
36.9997	554.31
37.0141	514.80
37.0286	529.66
37.0430	543.08
37.0575	556.74
37.0719	541.94
37.0863	536.71
37.1008	517.86
37.1152	539.16
37.1297	511.84
37.1441	499.95
37.1585	520.94
37.1730	510.12
37.1874	536.84
37.2019	529.22
37.2163	516.04
37.2307	514.64
37.2452	498.40
37.2596	485.18
37.2741	510.69
37.2885	506.96
37.3029	475.51
37.3174	493.59
37.3318	483.65
37.3463	501.08
37.3607	530.60
37.3751	530.95
37.3896	491.48
37.4040	493.61
37.4185	502.55
37.4329	487.57
37.4473	490.89
37.4618	521.28
37.4762	515.25
37.4907	500.23
37.5051	470.49
37.5195	487.86
37.5340	499.20
37.5484	464.24
37.5629	466.48
37.5773	526.05
37.5917	530.89
37.6062	483.00
37.6206	500.55
37.6351	520.51
37.6495	514.85
37.6639	489.49
37.6784	486.38
37.6928	487.32
37.7073	504.43
37.7217	506.48
37.7361	484.68
37.7506	503.06
37.7650	484.84
37.7795	511.96
37.7939	500.30
37.8083	475.29
37.8228	504.74
37.8372	502.16
37.8517	489.02
37.8661	535.41
37.8805	529.56
37.8950	515.25
37.9094	495.39
37.9239	505.57
37.9383	522.24
37.9528	521.14
37.9672	542.92
37.9816	490.61
37.9961	466.04
38.0105	485.08
38.0250	495.66
38.0394	526.23
38.0538	493.25
38.0683	491.17
38.0827	514.77
38.0972	491.16
38.1116	525.62
38.1260	494.02
38.1405	496.88
38.1549	511.40
38.1694	499.98
38.1838	537.80
38.1982	522.51
38.2127	529.77
38.2271	525.62
38.2416	525.52
38.2560	485.59
38.2704	489.45
38.2849	512.16
38.2993	525.45
38.3138	527.70
38.3282	514.68
38.3426	518.08
38.3571	537.40
38.3715	564.01
38.3860	546.63
38.4004	526.48
38.4148	529.94
38.4293	573.12
38.4437	576.09
38.4582	601.59
38.4726	633.27
38.4870	697.27
38.5015	691.50
38.5159	759.18
38.5304	795.67
38.5448	815.11
38.5592	808.58
38.5737	773.64
38.5881	718.24
38.6026	711.98
38.6170	677.29
38.6314	680.27
38.6459	697.26
38.6603	669.19
38.6748	650.40
38.6892	547.77
38.7036	563.72
38.7181	570.43
38.7325	543.55
38.7470	554.17
38.7614	536.16
38.7758	513.73
38.7903	535.29
38.8047	536.41
38.8192	537.98
38.8336	511.76
38.8480	496.91
38.8625	504.19
38.8769	552.37
38.8914	511.34
38.9058	511.15
38.9202	505.05
38.9347	523.44
38.9491	508.60
38.9636	475.35
38.9780	505.59
38.9924	488.77
39.0069	474.93
39.0213	478.85
39.0358	488.32
39.0502	503.40
39.0646	495.96
39.0791	503.13
39.0935	511.56
39.1080	516.14
39.1224	495.35
39.1368	484.62
39.1513	461.69
39.1657	517.00
39.1802	546.01
39.1946	487.85
39.2090	491.70
39.2235	484.65
39.2379	510.65
39.2524	501.31
39.2668	492.05
39.2812	511.09
39.2957	476.85
39.3101	505.88
39.3246	505.74
39.3390	515.75
39.3534	491.55
39.3679	513.70
39.3823	495.23
39.3968	493.11
39.4112	482.94
39.4256	505.16
39.4401	495.21
39.4545	490.88
39.4690	500.06
39.4834	523.44
39.4978	523.31
39.5123	495.02
39.5267	489.27
39.5412	502.42
39.5556	466.91
39.5700	481.13
39.5845	465.72
39.5989	533.59
39.6134	480.11
39.6278	477.92
39.6422	525.88
39.6567	526.62
39.6711	516.25
39.6856	478.49
39.7000	494.73
39.7144	510.99
39.7289	491.54
39.7433	528.12
39.7578	502.21
39.7722	506.51
39.7866	509.58
39.8011	500.85
39.8155	521.22
39.8300	506.84
39.8444	479.23
39.8588	501.71
39.8733	507.70
39.8877	504.84
39.9022	494.22
39.9166	508.28
39.9310	497.90
39.9455	479.64
39.9599	507.24
39.9744	477.96
39.9888	497.38
40.0032	507.72
40.0177	534.88
40.0321	478.38
40.0466	473.43
40.0610	473.82
40.0754	455.03
40.0899	504.48
40.1043	536.71
40.1188	498.64
40.1332	502.43
40.1476	482.48
40.1621	471.28
40.1765	509.30
40.1910	502.52
40.2054	479.64
40.2198	498.16
40.2343	506.47
40.2487	512.22
40.2632	477.12
40.2776	500.42
40.2920	492.33
40.3065	502.51
40.3209	502.21
40.3354	530.83
40.3498	494.78
40.3642	495.78
40.3787	493.04
40.3931	498.49
40.4076	492.19
40.4220	476.93
40.4364	489.72
40.4509	475.03
40.4653	503.70
40.4798	523.60
40.4942	520.95
40.5086	473.10
40.5231	517.20
40.5375	488.39
40.5520	504.90
40.5664	492.18
40.5808	477.67
40.5953	497.53
40.6097	475.66
40.6242	486.57
40.6386	500.66
40.6530	475.64
40.6675	464.68
40.6819	471.84
40.6964	492.16
40.7108	532.06
40.7252	520.00
40.7397	472.95
40.7541	490.55
40.7686	447.00
40.7830	470.52
40.7974	500.33
40.8119	529.52
40.8263	484.14
40.8408	468.13
40.8552	503.40
40.8696	504.98
40.8841	501.23
40.8985	508.11
40.9130	512.07
40.9274	498.17
40.9418	473.86
40.9563	489.97
40.9707	493.09
40.9852	500.21
40.9996	509.36
41.0140	496.43
41.0285	504.65
41.0429	491.78
41.0574	513.28
41.0718	536.73
41.0862	517.72
41.1007	522.28
41.1151	518.03
41.1296	482.58
41.1440	493.67
41.1584	514.82
41.1729	512.46
41.1873	471.80
41.2018	511.32
41.2162	512.13
41.2306	514.04
41.2451	519.23
41.2595	492.90
41.2740	503.21
41.2884	504.20
41.3028	509.22
41.3173	510.42
41.3317	537.18
41.3462	516.27
41.3606	551.65
41.3750	524.79
41.3895	496.85
41.4039	481.53
41.4184	494.50
41.4328	515.73
41.4472	489.53
41.4617	518.93
41.4761	503.70
41.4906	515.36
41.5050	495.52
41.5194	476.45
41.5339	506.19
41.5483	497.50
41.5628	496.09
41.5772	495.90
41.5916	502.54
41.6061	503.72
41.6205	505.64
41.6350	540.15
41.6494	478.75
41.6639	506.01
41.6783	496.29
41.6927	467.06
41.7072	519.28
41.7216	504.05
41.7361	518.23
41.7505	506.60
41.7649	529.76
41.7794	492.63
41.7938	488.90
41.8083	511.74
41.8227	528.45
41.8371	531.83
41.8516	499.63
41.8660	532.17
41.8805	491.15
41.8949	538.32
41.9093	568.52
41.9238	510.52
41.9382	557.57
41.9527	565.46
41.9671	544.22
41.9815	561.27
41.9960	522.79
42.0104	528.28
42.0249	576.88
42.0393	567.87
42.0537	549.05
42.0682	565.74
42.0826	572.80
42.0971	565.16
42.1115	592.81
42.1259	607.72
42.1404	563.72
42.1548	598.91
42.1693	646.61
42.1837	698.12
42.1981	759.20
42.2126	808.52
42.2270	924.11
42.2415	1066.00
42.2559	1208.05
42.2703	1333.06
42.2848	1559.07
42.2992	1628.70
42.3137	1654.53
42.3281	1641.34
42.3425	1594.70
42.3570	1519.19
42.3714	1393.68
42.3859	1404.46
42.4003	1347.01
42.4147	1341.39
42.4292	1352.28
42.4436	1193.75
42.4581	1092.29
42.4725	977.08
42.4869	859.43
42.5014	773.11
42.5158	760.14
42.5303	688.31
42.5447	636.28
42.5591	659.01
42.5736	607.52
42.5880	596.89
42.6025	558.50
42.6169	571.66
42.6313	560.56
42.6458	543.39
42.6602	534.57
42.6747	494.58
42.6891	498.91
42.7035	527.91
42.7180	546.29
42.7324	563.90
42.7469	527.59
42.7613	492.01
42.7757	502.12
42.7902	491.69
42.8046	482.06
42.8191	534.34
42.8335	499.82
42.8479	502.82
42.8624	544.94
42.8768	507.21
42.8913	489.40
42.9057	497.47
42.9201	489.40
42.9346	524.25
42.9490	511.50
42.9635	506.46
42.9779	522.84
42.9923	493.48
43.0068	481.67
43.0212	493.36
43.0357	503.06
43.0501	508.17
43.0645	499.07
43.0790	514.26
43.0934	536.57
43.1079	503.77
43.1223	496.95
43.1367	488.27
43.1512	516.08
43.1656	517.47
43.1801	506.33
43.1945	547.18
43.2089	528.60
43.2234	551.16
43.2378	524.15
43.2523	555.92
43.2667	542.11
43.2811	530.60
43.2956	542.04
43.3100	533.95
43.3245	517.75
43.3389	521.59
43.3533	541.77
43.3678	507.96
43.3822	516.39
43.3967	496.13
43.4111	496.35
43.4255	538.42
43.4400	523.73
43.4544	522.55
43.4689	535.56
43.4833	523.08
43.4977	521.01
43.5122	511.14
43.5266	507.04
43.5411	506.19
43.5555	516.31
43.5699	522.78
43.5844	504.66
43.5988	513.80
43.6133	514.24
43.6277	504.26
43.6421	514.52
43.6566	515.76
43.6710	535.51
43.6855	508.39
43.6999	536.71
43.7143	559.77
43.7288	530.00
43.7432	530.33
43.7577	511.50
43.7721	502.41
43.7865	517.57
43.8010	524.46
43.8154	532.20
43.8299	539.99
43.8443	537.89
43.8587	565.72
43.8732	576.06
43.8876	591.76
43.9021	550.75
43.9165	589.21
43.9309	615.84
43.9454	614.22
43.9598	632.25
43.9743	596.78
43.9887	603.70
44.0031	613.96
44.0176	618.90
44.0320	632.73
44.0465	624.27
44.0609	601.28
44.0753	580.06
44.0898	636.50
44.1042	564.78
44.1187	571.92
44.1331	585.58
44.1475	545.52
44.1620	530.75
44.1764	556.53
44.1909	552.00
44.2053	555.05
44.2197	563.96
44.2342	565.28
44.2486	547.53
44.2631	518.08
44.2775	518.89
44.2919	538.74
44.3064	524.88
44.3208	493.76
44.3353	539.49
44.3497	546.26
44.3641	566.23
44.3786	527.21
44.3930	564.17
44.4075	548.17
44.4219	570.81
44.4363	561.63
44.4508	548.25
44.4652	576.30
44.4797	566.67
44.4941	571.75
44.5085	572.30
44.5230	545.48
44.5374	588.64
44.5519	576.69
44.5663	562.16
44.5807	564.63
44.5952	580.46
44.6096	549.28
44.6241	556.20
44.6385	556.14
44.6529	560.93
44.6674	573.84
44.6818	550.18
44.6963	582.71
44.7107	621.26
44.7251	662.64
44.7396	731.28
44.7540	829.60
44.7685	800.56
44.7829	892.76
44.7973	865.76
44.8118	873.53
44.8262	828.57
44.8407	814.14
44.8551	747.68
44.8695	741.84
44.8840	699.00
44.8984	752.88
44.9129	732.93
44.9273	695.02
44.9417	707.77
44.9562	626.98
44.9706	588.00
44.9851	573.51
44.9995	545.37
45.0139	515.03
45.0284	526.65
45.0428	546.50
45.0573	523.43
45.0717	521.25
45.0861	529.73
45.1006	483.77
45.1150	540.82
45.1295	522.48
45.1439	474.09
45.1583	484.95
45.1728	497.98
45.1872	493.56
45.2017	490.77
45.2161	511.14
45.2305	494.57
45.2450	485.29
45.2594	522.20
45.2739	528.09
45.2883	518.00
45.3028	483.46
45.3172	501.90
45.3316	523.12
45.3461	461.75
45.3605	485.34
45.3750	515.49
45.3894	487.03
45.4038	475.11
45.4183	493.81
45.4327	512.53
45.4472	501.50
45.4616	500.84
45.4760	486.62
45.4905	501.26
45.5049	514.19
45.5194	455.66
45.5338	500.71
45.5482	505.11
45.5627	567.42
45.5771	529.62
45.5916	515.87
45.6060	491.09
45.6204	482.66
45.6349	513.22
45.6493	490.64
45.6638	485.46
45.6782	476.52
45.6926	469.14
45.7071	515.22
45.7215	495.20
45.7360	521.38
45.7504	492.14
45.7648	501.97
45.7793	495.79
45.7937	491.15
45.8082	531.15
45.8226	501.72
45.8370	505.55
45.8515	510.34
45.8659	491.66
45.8804	487.89
45.8948	490.37
45.9092	511.51
45.9237	506.13
45.9381	513.02
45.9526	487.26
45.9670	485.89
45.9814	486.14
45.9959	477.76
46.0103	492.83
46.0248	525.15
46.0392	518.04
46.0536	490.52
46.0681	482.13
46.0825	508.69
46.0970	503.24
46.1114	503.26
46.1258	521.21
46.1403	508.38
46.1547	498.99
46.1692	537.71
46.1836	503.41
46.1980	495.45
46.2125	500.06
46.2269	521.67
46.2414	500.34
46.2558	497.79
46.2702	493.56
46.2847	525.97
46.2991	509.13
46.3136	503.79
46.3280	496.58
46.3424	513.89
46.3569	519.06
46.3713	500.46
46.3858	496.45
46.4002	493.48
46.4146	457.47
46.4291	487.95
46.4435	472.93
46.4580	477.77
46.4724	518.49
46.4868	539.62
46.5013	501.82
46.5157	489.96
46.5302	501.21
46.5446	492.09
46.5590	496.28
46.5735	499.31
46.5879	520.93
46.6024	509.78
46.6168	507.23
46.6312	489.63
46.6457	512.99
46.6601	521.81
46.6746	492.89
46.6890	501.53
46.7034	519.33
46.7179	524.70
46.7323	484.19
46.7468	516.81
46.7612	484.96
46.7756	517.62
46.7901	497.92
46.8045	472.99
46.8190	520.48
46.8334	477.64
46.8478	495.44
46.8623	524.74
46.8767	525.07
46.8912	488.94
46.9056	516.10
46.9200	488.59
46.9345	494.58
46.9489	516.22
46.9634	480.73
46.9778	481.94
46.9922	517.12
47.0067	527.34
47.0211	555.64
47.0356	511.69
47.0500	510.76
47.0644	527.33
47.0789	522.21
47.0933	525.46
47.1078	518.87
47.1222	509.73
47.1366	480.31
47.1511	484.51
47.1655	522.72
47.1800	476.78
47.1944	489.82
47.2088	495.27
47.2233	487.86
47.2377	506.33
47.2522	538.60
47.2666	517.92
47.2810	530.12
47.2955	496.82
47.3099	490.87
47.3244	527.77
47.3388	514.55
47.3532	517.37
47.3677	512.09
47.3821	507.34
47.3966	498.57
47.4110	512.35
47.4254	546.04
47.4399	510.63
47.4543	497.15
47.4688	508.04
47.4832	499.33
47.4976	506.05
47.5121	477.11
47.5265	508.99
47.5410	510.41
47.5554	513.70
47.5698	529.24
47.5843	524.13
47.5987	490.65
47.6132	486.86
47.6276	509.34
47.6420	503.34
47.6565	494.89
47.6709	504.62
47.6854	507.60
47.6998	504.52
47.7142	538.07
47.7287	479.49
47.7431	488.36
47.7576	476.79
47.7720	518.24
47.7864	523.29
47.8009	503.21
47.8153	505.53
47.8298	529.17
47.8442	512.81
47.8586	493.36
47.8731	486.36
47.8875	470.45
47.9020	516.85
47.9164	500.47
47.9308	520.59
47.9453	501.13
47.9597	456.82
47.9742	481.95
47.9886	488.84
48.0030	505.17
48.0175	530.04
48.0319	493.04
48.0464	498.22
48.0608	491.16
48.0752	482.87
48.0897	530.03
48.1041	504.81
48.1186	504.09
48.1330	494.53
48.1474	452.59
48.1619	511.32
48.1763	521.32
48.1908	521.69
48.2052	499.37
48.2196	517.03
48.2341	522.12
48.2485	546.59
48.2630	497.85
48.2774	501.41
48.2918	472.73
48.3063	508.16
48.3207	489.96
48.3352	478.74
48.3496	523.08
48.3640	513.17
48.3785	492.15
48.3929	482.18
48.4074	490.29
48.4218	515.71
48.4362	559.32
48.4507	508.33
48.4651	514.84
48.4796	517.69
48.4940	514.49
48.5084	519.47
48.5229	544.66
48.5373	480.44
48.5518	496.60
48.5662	508.23
48.5806	501.63
48.5951	498.63
48.6095	523.90
48.6240	542.75
48.6384	533.20
48.6528	506.08
48.6673	552.43
48.6817	510.06
48.6962	543.54
48.7106	531.30
48.7250	529.87
48.7395	511.73
48.7539	537.25
48.7684	529.08
48.7828	541.33
48.7972	514.66
48.8117	522.61
48.8261	557.46
48.8406	520.44
48.8550	542.19
48.8694	546.17
48.8839	549.61
48.8983	553.83
48.9128	543.20
48.9272	542.28
48.9416	563.65
48.9561	546.36
48.9705	571.00
48.9850	561.30
48.9994	624.83
49.0139	595.59
49.0283	612.50
49.0427	607.25
49.0572	646.72
49.0716	660.75
49.0861	703.38
49.1005	692.70
49.1149	704.47
49.1294	742.87
49.1438	732.72
49.1583	766.83
49.1727	840.52
49.1871	896.91
49.2016	935.65
49.2160	1044.38
49.2305	1074.69
49.2449	1194.60
49.2593	1266.06
49.2738	1341.14
49.2882	1516.91
49.3027	1608.71
49.3171	1703.46
49.3315	1732.59
49.3460	1772.71
49.3604	1793.05
49.3749	1795.96
49.3893	1775.35
49.4037	1776.38
49.4182	1786.68
49.4326	1793.26
49.4471	1667.50
49.4615	1619.84
49.4759	1633.98
49.4904	1536.59
49.5048	1463.67
49.5193	1360.97
49.5337	1308.06
49.5481	1217.74
49.5626	1131.19
49.5770	1039.96
49.5915	1015.58
49.6059	928.21
49.6203	885.50
49.6348	844.76
49.6492	826.44
49.6637	724.76
49.6781	690.07
49.6925	656.94
49.7070	675.06
49.7214	627.71
49.7359	611.18
49.7503	604.28
49.7647	586.90
49.7792	642.41
49.7936	603.53
49.8081	566.54
49.8225	567.12
49.8369	565.37
49.8514	554.15
49.8658	575.00
49.8803	560.44
49.8947	593.05
49.9091	578.74
49.9236	522.67
49.9380	572.86
49.9525	578.99
49.9669	522.60
49.9813	530.80
49.9958	567.06
50.0102	543.67
50.0247	531.04
50.0391	523.60
50.0535	505.64
50.0680	538.67
50.0824	576.14
50.0969	557.91
50.1113	515.39
50.1257	525.77
50.1402	507.71
50.1546	516.88
50.1691	515.28
50.1835	521.26
50.1979	497.50
50.2124	499.30
50.2268	497.23
50.2413	506.41
50.2557	521.56
50.2701	525.63
50.2846	528.24
50.2990	524.74
50.3135	509.82
50.3279	482.50
50.3423	491.99
50.3568	526.25
50.3712	493.06
50.3857	518.75
50.4001	514.19
50.4145	495.43
50.4290	554.23
50.4434	511.86
50.4579	487.70
50.4723	510.00
50.4867	526.37
50.5012	492.46
50.5156	472.89
50.5301	479.36
50.5445	523.68
50.5589	522.61
50.5734	501.70
50.5878	502.61
50.6023	503.47
50.6167	511.26
50.6311	514.46
50.6456	510.47
50.6600	473.26
50.6745	477.88
50.6889	485.27
50.7033	526.91
50.7178	511.05
50.7322	468.14
50.7467	519.02
50.7611	512.80
50.7755	525.81
50.7900	492.88
50.8044	504.01
50.8189	504.80
50.8333	504.81
50.8477	538.06
50.8622	548.29
50.8766	498.35
50.8911	483.77
50.9055	522.80
50.9199	506.70
50.9344	478.94
50.9488	468.52
50.9633	509.87
50.9777	491.61
50.9921	467.06
51.0066	517.03
51.0210	546.37
51.0355	520.46
51.0499	505.76
51.0643	513.23
51.0788	522.64
51.0932	509.08
51.1077	513.35
51.1221	508.00
51.1365	508.12
51.1510	495.23
51.1654	527.81
51.1799	482.03
51.1943	505.05
51.2087	536.78
51.2232	523.62
51.2376	523.06
51.2521	526.08
51.2665	498.48
51.2809	497.34
51.2954	489.47
51.3098	504.20
51.3243	505.79
51.3387	509.61
51.3531	493.52
51.3676	490.94
51.3820	514.72
51.3965	515.44
51.4109	480.80
51.4253	525.08
51.4398	512.92
51.4542	498.76
51.4687	514.47
51.4831	514.44
51.4975	481.66
51.5120	479.23
51.5264	482.34
51.5409	499.49
51.5553	508.06
51.5697	518.50
51.5842	534.86
51.5986	571.03
51.6131	513.80
51.6275	496.19
51.6419	529.61
51.6564	486.82
51.6708	490.09
51.6853	525.64
51.6997	498.60
51.7141	541.84
51.7286	520.39
51.7430	545.76
51.7575	548.60
51.7719	496.53
51.7863	505.03
51.8008	502.02
51.8152	490.85
51.8297	502.24
51.8441	506.45
51.8585	491.30
51.8730	513.25
51.8874	522.37
51.9019	518.21
51.9163	530.03
51.9307	528.75
51.9452	529.74
51.9596	510.92
51.9741	500.86
51.9885	493.74
52.0029	486.21
52.0174	521.26
52.0318	491.37
52.0463	491.10
52.0607	512.77
52.0751	488.47
52.0896	498.65
52.1040	530.99
52.1185	548.47
52.1329	537.34
52.1473	498.45
52.1618	506.14
52.1762	535.48
52.1907	489.78
52.2051	482.57
52.2195	495.61
52.2340	516.20
52.2484	514.16
52.2629	470.36
52.2773	492.01
52.2917	493.45
52.3062	502.70
52.3206	493.60
52.3351	516.19
52.3495	523.61
52.3639	476.21
52.3784	495.08
52.3928	477.86
52.4073	502.78
52.4217	521.35
52.4361	534.67
52.4506	509.79
52.4650	511.78
52.4795	509.91
52.4939	511.09
52.5083	509.43
52.5228	504.23
52.5372	563.07
52.5517	507.68
52.5661	504.18
52.5805	491.51
52.5950	519.06
52.6094	508.35
52.6239	499.42
52.6383	509.01
52.6527	496.09
52.6672	492.78
52.6816	491.56
52.6961	463.40
52.7105	502.72
52.7250	541.74
52.7394	518.46
52.7538	511.26
52.7683	503.07
52.7827	550.20
52.7972	515.93
52.8116	485.71
52.8260	520.31
52.8405	532.65
52.8549	498.88
52.8694	536.34
52.8838	508.65
52.8982	519.03
52.9127	518.98
52.9271	492.32
52.9416	522.19
52.9560	448.77
52.9704	469.49
52.9849	496.00
52.9993	479.63
53.0138	490.46
53.0282	534.97
53.0426	503.77
53.0571	515.02
53.0715	544.98
53.0860	528.00
53.1004	482.49
53.1148	497.85
53.1293	528.30
53.1437	494.81
53.1582	484.17
53.1726	509.00
53.1870	534.56
53.2015	519.69
53.2159	523.00
53.2304	471.23
53.2448	535.73
53.2592	530.61
53.2737	551.36
53.2881	520.81
53.3026	500.57
53.3170	492.10
53.3314	555.23
53.3459	504.53
53.3603	509.26
53.3748	494.11
53.3892	498.84
53.4036	538.97
53.4181	551.63
53.4325	510.13
53.4470	464.84
53.4614	508.13
53.4758	534.37
53.4903	547.88
53.5047	536.20
53.5192	487.69
53.5336	506.94
53.5480	490.67
53.5625	527.64
53.5769	514.48
53.5914	501.71
53.6058	526.77
53.6202	522.92
53.6347	532.47
53.6491	537.46
53.6636	519.89
53.6780	512.23
53.6924	499.94
53.7069	511.48
53.7213	550.20
53.7358	512.39
53.7502	540.38
53.7646	493.45
53.7791	540.60
53.7935	526.95
53.8080	517.93
53.8224	548.00
53.8368	532.65
53.8513	514.41
53.8657	518.87
53.8802	490.43
53.8946	516.59
53.9090	502.07
53.9235	493.72
53.9379	510.50
53.9524	526.97
53.9668	524.32
53.9812	519.99
53.9957	498.19
54.0101	511.31
54.0246	521.33
54.0390	513.80
54.0534	496.64
54.0679	532.84
54.0823	514.07
54.0968	542.92
54.1112	555.90
54.1256	520.36
54.1401	512.13
54.1545	507.54
54.1690	546.41
54.1834	547.58
54.1978	491.82
54.2123	495.35
54.2267	510.65
54.2412	509.62
54.2556	492.19
54.2700	508.23
54.2845	511.88
54.2989	532.64
54.3134	542.36
54.3278	523.27
54.3422	509.41
54.3567	513.19
54.3711	508.46
54.3856	523.13
54.4000	553.58
54.4144	543.94
54.4289	553.72
54.4433	537.68
54.4578	539.22
54.4722	572.08
54.4866	573.05
54.5011	559.27
54.5155	573.19
54.5300	553.64
54.5444	583.22
54.5588	575.92
54.5733	550.87
54.5877	562.68
54.6022	573.24
54.6166	555.43
54.6310	591.52
54.6455	612.76
54.6599	581.51
54.6744	576.09
54.6888	557.91
54.7032	584.04
54.7177	567.91
54.7321	559.18
54.7466	626.73
54.7610	566.71
54.7754	535.53
54.7899	571.65
54.8043	585.11
54.8188	585.11
54.8332	551.33
54.8476	541.48
54.8621	549.22
54.8765	542.20
54.8910	500.32
54.9054	530.62
54.9198	513.71
54.9343	530.83
54.9487	562.41
54.9632	516.17
54.9776	500.95
54.9920	536.54
55.0065	528.72
55.0209	525.18
55.0354	514.91
55.0498	495.62
55.0642	492.32
55.0787	495.25
55.0931	493.66
55.1076	471.31
55.1220	518.59
55.1364	532.98
55.1509	498.37
55.1653	515.26
55.1798	521.42
55.1942	532.88
55.2086	519.37
55.2231	519.69
55.2375	490.71
55.2520	518.03
55.2664	542.37
55.2808	506.33
55.2953	522.38
55.3097	519.62
55.3242	518.06
55.3386	540.20
55.3530	533.27
55.3675	464.47
55.3819	489.48
55.3964	507.25
55.4108	485.19
55.4252	518.36
55.4397	503.62
55.4541	525.55
55.4686	523.23
55.4830	523.39
55.4974	501.24
55.5119	511.12
55.5263	514.53
55.5408	510.89
55.5552	554.40
55.5696	515.93
55.5841	529.91
55.5985	526.54
55.6130	495.61
55.6274	501.53
55.6418	517.05
55.6563	505.39
55.6707	528.69
55.6852	532.07
55.6996	514.28
55.7140	504.69
55.7285	515.24
55.7429	539.28
55.7574	530.78
55.7718	530.90
55.7862	517.11
55.8007	507.76
55.8151	523.11
55.8296	544.76
55.8440	535.22
55.8584	515.37
55.8729	529.07
55.8873	524.67
55.9018	536.73
55.9162	502.09
55.9306	494.70
55.9451	507.21
55.9595	505.04
55.9740	546.48
55.9884	546.30
56.0028	540.15
56.0173	509.38
56.0317	531.35
56.0462	502.09
56.0606	507.52
56.0750	567.15
56.0895	531.99
56.1039	489.09
56.1184	532.76
56.1328	551.07
56.1472	503.37
56.1617	509.22
56.1761	511.92
56.1906	510.86
56.2050	548.76
56.2194	519.06
56.2339	547.80
56.2483	512.99
56.2628	512.86
56.2772	484.20
56.2916	502.25
56.3061	519.06
56.3205	545.54
56.3350	538.15
56.3494	553.02
56.3639	543.94
56.3783	510.54
56.3927	519.84
56.4072	566.87
56.4216	530.44
56.4361	513.98
56.4505	529.38
56.4649	567.19
56.4794	542.21
56.4938	510.47
56.5083	523.39
56.5227	521.30
56.5371	523.38
56.5516	523.39
56.5660	485.69
56.5805	520.62
56.5949	504.56
56.6093	514.42
56.6238	494.43
56.6382	529.80
56.6527	536.35
56.6671	505.93
56.6815	514.69
56.6960	530.12
56.7104	525.02
56.7249	495.52
56.7393	527.12
56.7537	523.59
56.7682	530.39
56.7826	578.99
56.7971	511.00
56.8115	521.38
56.8259	570.99
56.8404	544.68
56.8548	518.07
56.8693	559.21
56.8837	547.39
56.8981	552.94
56.9126	527.80
56.9270	505.40
56.9415	512.55
56.9559	524.96
56.9703	537.13
56.9848	537.76
56.9992	508.37
57.0137	488.02
57.0281	465.23
57.0425	495.65
57.0570	511.06
57.0714	553.68
57.0859	553.94
57.1003	508.40
57.1147	539.79
57.1292	539.60
57.1436	529.55
57.1581	516.34
57.1725	519.32
57.1869	501.83
57.2014	486.97
57.2158	523.10
57.2303	471.83
57.2447	505.08
57.2591	572.12
57.2736	523.42
57.2880	541.43
57.3025	517.45
57.3169	537.70
57.3313	533.66
57.3458	536.16
57.3602	508.86
57.3747	482.64
57.3891	495.30
57.4035	520.60
57.4180	511.21
57.4324	569.87
57.4469	500.57
57.4613	518.06
57.4757	592.00
57.4902	550.14
57.5046	522.34
57.5191	526.50
57.5335	536.75
57.5479	499.34
57.5624	526.78
57.5768	520.09
57.5913	539.47
57.6057	513.03
57.6201	492.85
57.6346	527.79
57.6490	542.07
57.6635	523.06
57.6779	504.62
57.6923	535.28
57.7068	569.98
57.7212	543.19
57.7357	498.22
57.7501	539.35
57.7645	536.81
57.7790	573.26
57.7934	517.16
57.8079	509.41
57.8223	510.46
57.8367	524.57
57.8512	526.37
57.8656	555.56
57.8801	522.34
57.8945	561.24
57.9089	550.18
57.9234	516.37
57.9378	514.27
57.9523	563.46
57.9667	530.75
57.9811	542.66
57.9956	569.43
58.0100	545.33
58.0245	564.88
58.0389	596.95
58.0533	581.74
58.0678	592.03
58.0822	610.28
58.0967	646.67
58.1111	625.23
58.1255	636.80
58.1400	601.88
58.1544	611.37
58.1689	635.75
58.1833	635.84
58.1977	636.91
58.2122	643.09
58.2266	622.11
58.2411	658.81
58.2555	637.47
58.2699	660.00
58.2844	686.52
58.2988	635.60
58.3133	623.33
58.3277	611.01
58.3421	617.24
58.3566	648.53
58.3710	642.21
58.3855	601.31
58.3999	566.91
58.4143	589.23
58.4288	617.20
58.4432	598.45
58.4577	570.75
58.4721	600.04
58.4865	614.98
58.5010	565.26
58.5154	543.89
58.5299	549.14
58.5443	529.90
58.5587	552.80
58.5732	547.90
58.5876	539.40
58.6021	565.40
58.6165	542.82
58.6309	549.70
58.6454	560.46
58.6598	546.61
58.6743	531.02
58.6887	545.52
58.7031	578.60
58.7176	558.64
58.7320	520.16
58.7465	531.12
58.7609	510.64
58.7753	554.45
58.7898	558.77
58.8042	577.08
58.8187	544.26
58.8331	547.73
58.8475	529.35
58.8620	529.52
58.8764	532.65
58.8909	544.42
58.9053	554.26
58.9197	543.85
58.9342	564.10
58.9486	585.89
58.9631	531.63
58.9775	522.21
58.9919	536.08
59.0064	535.03
59.0208	562.91
59.0353	564.62
59.0497	498.19
59.0641	558.05
59.0786	592.61
59.0930	554.54
59.1075	511.20
59.1219	560.52
59.1363	562.35
59.1508	518.30
59.1652	550.99
59.1797	579.50
59.1941	530.90
59.2085	508.06
59.2230	546.48
59.2374	540.53
59.2519	548.25
59.2663	551.38
59.2807	571.98
59.2952	543.78
59.3096	570.54
59.3241	567.23
59.3385	561.06
59.3529	575.25
59.3674	556.84
59.3818	538.78
59.3963	574.41
59.4107	524.43
59.4251	554.76
59.4396	578.34
59.4540	553.51
59.4685	561.25
59.4829	542.32
59.4973	519.67
59.5118	553.43
59.5262	586.80
59.5407	554.96
59.5551	541.50
59.5695	532.02
59.5840	539.54
59.5984	552.20
59.6129	543.92
59.6273	553.15
59.6417	539.71
59.6562	549.31
59.6706	520.35
59.6851	543.59
59.6995	551.27
59.7139	516.98
59.7284	554.08
59.7428	521.04
59.7573	515.29
59.7717	478.60
59.7861	518.60
59.8006	527.25
59.8150	534.08
59.8295	527.09
59.8439	530.17
59.8583	596.99
59.8728	551.95
59.8872	528.11
59.9017	555.21
59.9161	555.20
59.9305	520.09
59.9450	555.42
59.9594	520.95
59.9739	582.88
59.9883	530.38
60.0027	498.88
60.0172	514.22
60.0316	564.44
60.0461	548.21
60.0605	552.90
60.0750	555.49
60.0894	589.06
60.1038	524.41
60.1183	552.76
60.1327	540.83
60.1472	539.75
60.1616	529.82
60.1760	541.79
60.1905	542.50
60.2049	541.81
60.2194	535.57
60.2338	549.41
60.2482	543.95
60.2627	521.59
60.2771	524.98
60.2916	545.02
60.3060	531.18
60.3204	540.16
60.3349	533.53
60.3493	531.43
60.3638	554.43
60.3782	516.95
60.3926	544.45
60.4071	555.37
60.4215	542.80
60.4360	574.30
60.4504	517.99
60.4648	529.08
60.4793	546.66
60.4937	540.96
60.5082	530.38
60.5226	499.00
60.5370	543.50
60.5515	524.99
60.5659	525.79
60.5804	504.44
60.5948	536.30
60.6092	543.22
60.6237	541.34
60.6381	559.75
60.6526	568.20
60.6670	533.72
60.6814	550.27
60.6959	504.01
60.7103	541.56
60.7248	531.64
60.7392	516.90
60.7536	563.77
60.7681	570.22
60.7825	552.96
60.7970	549.93
60.8114	548.30
60.8258	561.70
60.8403	542.94
60.8547	524.75
60.8692	544.55
60.8836	557.39
60.8980	550.26
60.9125	541.61
60.9269	545.70
60.9414	556.40
60.9558	520.25
60.9702	550.70
60.9847	553.94
60.9991	562.23
61.0136	556.37
61.0280	576.21
61.0424	543.42
61.0569	581.12
61.0713	560.30
61.0858	540.79
61.1002	544.31
61.1146	567.03
61.1291	557.13
61.1435	504.29
61.1580	513.51
61.1724	529.10
61.1868	531.21
61.2013	542.08
61.2157	536.54
61.2302	520.68
61.2446	539.49
61.2590	572.45
61.2735	565.86
61.2879	574.20
61.3024	539.98
61.3168	548.10
61.3312	581.25
61.3457	567.08
61.3601	539.15
61.3746	552.71
61.3890	525.16
61.4034	523.27
61.4179	557.98
61.4323	586.71
61.4468	524.94
61.4612	532.35
61.4756	529.38
61.4901	557.17
61.5045	547.72
61.5190	548.81
61.5334	544.86
61.5478	567.40
61.5623	520.78
61.5767	519.51
61.5912	551.61
61.6056	530.83
61.6200	556.00
61.6345	559.50
61.6489	544.80
61.6634	521.71
61.6778	531.52
61.6922	539.76
61.7067	564.33
61.7211	569.45
61.7356	519.58
61.7500	537.49
61.7644	522.19
61.7789	529.95
61.7933	533.19
61.8078	559.96
61.8222	566.08
61.8366	566.42
61.8511	544.43
61.8655	550.08
61.8800	530.00
61.8944	574.63
61.9088	568.06
61.9233	569.10
61.9377	545.45
61.9522	537.16
61.9666	523.17
61.9810	544.02
61.9955	567.55
62.0099	560.60
62.0244	556.08
62.0388	525.14
62.0532	511.23
62.0677	508.68
62.0821	532.24
62.0966	537.76
62.1110	524.59
62.1254	571.03
62.1399	522.55
62.1543	541.50
62.1688	543.59
62.1832	534.77
62.1976	543.05
62.2121	537.61
62.2265	559.01
62.2410	561.24
62.2554	542.51
62.2698	532.24
62.2843	509.01
62.2987	533.28
62.3132	580.54
62.3276	562.53
62.3420	586.14
62.3565	561.47
62.3709	560.24
62.3854	551.13
62.3998	525.42
62.4142	554.43
62.4287	586.30
62.4431	561.06
62.4576	546.71
62.4720	562.99
62.4864	544.33
62.5009	526.50
62.5153	547.25
62.5298	562.01
62.5442	560.18
62.5586	544.98
62.5731	536.68
62.5875	575.41
62.6020	537.12
62.6164	550.95
62.6308	577.98
62.6453	598.77
62.6597	548.19
62.6742	515.30
62.6886	519.51
62.7030	555.83
62.7175	599.36
62.7319	551.05
62.7464	562.99
62.7608	546.88
62.7752	541.56
62.7897	564.49
62.8041	551.31
62.8186	546.34
62.8330	561.85
62.8474	543.08
62.8619	552.99
62.8763	568.34
62.8908	570.86
62.9052	583.99
62.9196	559.20
62.9341	559.01
62.9485	550.18
62.9630	546.02
62.9774	573.14
62.9918	566.35
63.0063	569.18
63.0207	550.57
63.0352	568.76
63.0496	541.03
63.0640	581.55
63.0785	621.86
63.0929	603.40
63.1074	547.78
63.1218	572.29
63.1362	566.83
63.1507	538.40
63.1651	576.63
63.1796	563.88
63.1940	582.99
63.2084	541.84
63.2229	557.44
63.2373	561.96
63.2518	548.09
63.2662	564.23
63.2806	545.66
63.2951	529.18
63.3095	592.01
63.3240	586.87
63.3384	575.37
63.3528	551.21
63.3673	537.39
63.3817	573.16
63.3962	568.59
63.4106	596.39
63.4250	593.78
63.4395	562.30
63.4539	589.83
63.4684	617.99
63.4828	590.50
63.4972	561.30
63.5117	577.78
63.5261	579.04
63.5406	598.41
63.5550	602.51
63.5694	583.04
63.5839	606.00
63.5983	617.37
63.6128	634.12
63.6272	612.50
63.6416	640.28
63.6561	587.27
63.6705	616.91
63.6850	582.06
63.6994	606.39
63.7138	610.57
63.7283	630.61
63.7427	648.28
63.7572	671.04
63.7716	675.03
63.7861	669.95
63.8005	675.39
63.8149	689.91
63.8294	726.04
63.8438	764.86
63.8583	776.97
63.8727	732.63
63.8871	710.88
63.9016	730.56
63.9160	786.90
63.9305	780.53
63.9449	789.18
63.9593	781.32
63.9738	797.07
63.9882	804.56
64.0027	801.82
64.0171	810.60
64.0315	776.52
64.0460	756.82
64.0604	831.04
64.0749	824.32
64.0893	794.61
64.1037	772.96
64.1182	778.24
64.1326	724.99
64.1471	705.60
64.1615	692.20
64.1759	741.95
64.1904	684.15
64.2048	673.89
64.2193	716.79
64.2337	701.93
64.2481	655.42
64.2626	625.84
64.2770	680.99
64.2915	660.61
64.3059	647.69
64.3203	632.98
64.3348	633.01
64.3492	635.40
64.3637	599.17
64.3781	647.05
64.3925	659.12
64.4070	623.78
64.4214	673.44
64.4359	647.77
64.4503	628.97
64.4647	663.75
64.4792	632.71
64.4936	611.38
64.5081	623.10
64.5225	622.04
64.5369	652.27
64.5514	647.46
64.5658	650.33
64.5803	609.32
64.5947	619.20
64.6091	609.63
64.6236	642.77
64.6380	647.78
64.6525	626.29
64.6669	665.14
64.6813	635.39
64.6958	660.47
64.7102	703.61
64.7247	700.80
64.7391	711.60
64.7535	649.30
64.7680	687.10
64.7824	746.05
64.7969	735.80
64.8113	764.52
64.8257	767.14
64.8402	806.62
64.8546	804.86
64.8691	810.38
64.8835	832.66
64.8979	816.93
64.9124	855.54
64.9268	894.78
64.9413	870.32
64.9557	945.97
64.9701	939.10
64.9846	1034.49
64.9990	1152.98
65.0135	1216.36
65.0279	1432.53
65.0423	1689.44
65.0568	1977.13
65.0712	2480.44
65.0857	3285.66
65.1001	4207.29
65.1145	5746.38
65.1290	7433.91
65.1434	8988.57
65.1579	10775.59
65.1723	11636.40
65.1867	11326.28
65.2012	10179.92
65.2156	8523.00
65.2301	6866.61
65.2445	5475.41
65.2589	4449.61
65.2734	4114.59
65.2878	4358.77
65.3023	4790.88
65.3167	5593.28
65.3311	6416.66
65.3456	6891.03
65.3600	6852.60
65.3745	6490.08
65.3889	5579.51
65.4033	4408.98
65.4178	3600.82
65.4322	2902.50
65.4467	2115.49
65.4611	1829.72
65.4755	1467.97
65.4900	1319.96
65.5044	1189.51
65.5189	1103.59
65.5333	984.46
65.5477	918.15
65.5622	870.59
65.5766	811.63
65.5911	826.40
65.6055	825.24
65.6199	775.84
65.6344	751.31
65.6488	749.63
65.6633	687.59
65.6777	711.55
65.6921	734.43
65.7066	743.52
65.7210	706.27
65.7355	698.31
65.7499	714.42
65.7643	698.94
65.7788	700.53
65.7932	635.60
65.8077	645.53
65.8221	631.05
65.8365	653.07
65.8510	671.50
65.8654	677.02
65.8799	653.83
65.8943	630.93
65.9087	629.56
65.9232	605.63
65.9376	587.33
65.9521	643.70
65.9665	643.62
65.9809	632.60
65.9954	636.65
66.0098	614.72
66.0243	657.23
66.0387	614.24
66.0531	613.39
66.0676	626.96
66.0820	664.70
66.0965	612.83
66.1109	633.95
66.1253	650.62
66.1398	622.53
66.1542	611.88
66.1687	639.34
66.1831	617.16
66.1975	576.51
66.2120	605.27
66.2264	617.42
66.2409	623.56
66.2553	618.93
66.2697	625.08
66.2842	602.06
66.2986	547.91
66.3131	561.43
66.3275	574.34
66.3419	599.05
66.3564	571.24
66.3708	620.85
66.3853	653.76
66.3997	616.00
66.4141	622.68
66.4286	615.32
66.4430	585.86
66.4575	586.43
66.4719	591.66
66.4863	595.01
66.5008	601.46
66.5152	567.36
66.5297	603.12
66.5441	594.02
66.5585	589.63
66.5730	585.87
66.5874	605.66
66.6019	596.87
66.6163	581.98
66.6307	571.99
66.6452	581.46
66.6596	595.42
66.6741	588.96
66.6885	586.87
66.7029	598.95
66.7174	603.44
66.7318	622.78
66.7463	598.73
66.7607	583.40
66.7751	572.45
66.7896	569.14
66.8040	552.03
66.8185	541.04
66.8329	541.47
66.8473	553.07
66.8618	588.87
66.8762	595.56
66.8907	592.73
66.9051	578.88
66.9195	575.07
66.9340	576.50
66.9484	551.89
66.9629	597.55
66.9773	570.60
66.9917	581.87
67.0062	562.18
67.0206	589.00
67.0351	577.48
67.0495	582.08
67.0639	579.98
67.0784	571.48
67.0928	608.25
67.1073	598.41
67.1217	578.33
67.1361	582.31
67.1506	586.08
67.1650	590.07
67.1795	582.92
67.1939	576.03
67.2083	612.48
67.2228	616.44
67.2372	574.67
67.2517	568.60
67.2661	578.05
67.2805	603.10
67.2950	581.16
67.3094	581.08
67.3239	595.27
67.3383	630.85
67.3527	552.88
67.3672	578.68
67.3816	530.63
67.3961	549.73
67.4105	539.09
67.4250	576.67
67.4394	599.48
67.4538	572.98
67.4683	564.25
67.4827	561.52
67.4972	580.71
67.5116	567.60
67.5260	585.75
67.5405	598.81
67.5549	574.72
67.5694	592.24
67.5838	546.46
67.5982	567.82
67.6127	589.42
67.6271	593.36
67.6416	564.98
67.6560	567.38
67.6704	580.58
67.6849	567.72
67.6993	560.91
67.7138	574.99
67.7282	555.72
67.7426	589.61
67.7571	576.76
67.7715	542.73
67.7860	600.00
67.8004	570.78
67.8148	587.19
67.8293	560.05
67.8437	559.85
67.8582	597.54
67.8726	633.76
67.8870	585.87
67.9015	627.27
67.9159	576.64
67.9304	600.83
67.9448	572.18
67.9592	582.01
67.9737	544.82
67.9881	587.36
68.0026	578.01
68.0170	579.01
68.0314	569.75
68.0459	580.58
68.0603	607.76
68.0748	569.11
68.0892	575.26
68.1036	569.05
68.1181	599.25
68.1325	573.62
68.1470	574.82
68.1614	558.06
68.1758	530.85
68.1903	525.77
68.2047	559.75
68.2192	597.75
68.2336	540.99
68.2480	593.33
68.2625	557.59
68.2769	555.34
68.2914	544.61
68.3058	558.69
68.3202	592.27
68.3347	579.08
68.3491	616.58
68.3636	600.18
68.3780	575.22
68.3924	564.36
68.4069	594.60
68.4213	565.14
68.4358	519.85
68.4502	539.78
68.4646	557.73
68.4791	563.48
68.4935	550.25
68.5080	585.00
68.5224	554.24
68.5368	539.19
68.5513	516.54
68.5657	511.37
68.5802	538.32
68.5946	559.95
68.6090	605.01
68.6235	592.12
68.6379	574.99
68.6524	558.39
68.6668	569.35
68.6812	609.47
68.6957	572.25
68.7101	572.93
68.7246	532.44
68.7390	562.11
68.7534	583.00
68.7679	549.34
68.7823	541.37
68.7968	569.19
68.8112	607.61
68.8256	602.95
68.8401	554.39
68.8545	560.64
68.8690	577.08
68.8834	565.03
68.8978	612.09
68.9123	636.72
68.9267	575.81
68.9412	594.78
68.9556	556.48
68.9700	578.88
68.9845	560.74
68.9989	580.98
69.0134	558.44
69.0278	584.87
69.0422	559.76
69.0567	583.89
69.0711	589.89
69.0856	575.91
69.1000	551.18
69.1144	559.17
69.1289	549.36
69.1433	573.56
69.1578	594.85
69.1722	550.91
69.1866	578.89
69.2011	582.10
69.2155	564.76
69.2300	615.44
69.2444	548.45
69.2588	571.00
69.2733	562.80
69.2877	539.53
69.3022	547.68
69.3166	548.17
69.3310	546.54
69.3455	625.93
69.3599	597.82
69.3744	591.96
69.3888	593.75
69.4032	584.87
69.4177	564.46
69.4321	625.27
69.4466	548.22
69.4610	552.74
69.4754	595.78
69.4899	592.73
69.5043	556.74
69.5188	564.42
69.5332	537.66
69.5476	528.38
69.5621	548.87
69.5765	573.04
69.5910	582.27
69.6054	637.24
69.6198	580.16
69.6343	602.64
69.6487	574.37
69.6632	606.13
69.6776	622.40
69.6920	576.90
69.7065	588.50
69.7209	623.52
69.7354	578.55
69.7498	622.66
69.7642	557.43
69.7787	585.82
69.7931	622.73
69.8076	591.69
69.8220	572.14
69.8364	560.74
69.8509	518.90
69.8653	578.48
69.8798	579.70
69.8942	621.62
69.9086	565.22
69.9231	643.07
69.9375	604.99
69.9520	604.24
69.9664	576.59
69.9808	589.02
69.9953	556.37
70.0097	541.50
70.0242	623.39
70.0386	567.54
70.0530	576.60
70.0675	556.91
70.0819	589.23
70.0964	605.51
70.1108	608.32
70.1252	569.39
70.1397	550.84
70.1541	529.91
70.1686	596.81
70.1830	580.57
70.1974	546.59
70.2119	575.02
70.2263	580.36
70.2408	598.07
70.2552	611.94
70.2696	563.35
70.2841	551.93
70.2985	626.40
70.3130	619.30
70.3274	598.48
70.3418	615.01
70.3563	624.79
70.3707	594.06
70.3852	549.97
70.3996	608.95
70.4140	579.75
70.4285	587.08
70.4429	564.55
70.4574	569.17
70.4718	622.09
70.4862	550.95
70.5007	566.38
70.5151	552.81
70.5296	579.23
70.5440	605.37
70.5584	551.92
70.5729	545.12
70.5873	577.29
70.6018	580.49
70.6162	562.34
70.6306	567.13
70.6451	518.27
70.6595	579.03
70.6740	555.09
70.6884	544.91
70.7028	573.22
70.7173	599.92
70.7317	598.43
70.7462	628.99
70.7606	556.50
70.7750	672.24
70.7895	561.79
70.8039	581.05
70.8184	607.99
70.8328	620.20
70.8472	599.34
70.8617	580.20
70.8761	579.49
70.8906	494.70
70.9050	588.95
70.9194	617.07
70.9339	670.69
70.9483	601.74
70.9628	569.29
70.9772	588.64
70.9916	518.05
71.0061	517.73
71.0205	592.48
71.0350	525.41
71.0494	528.24
71.0638	580.78
71.0783	567.63
71.0927	569.32
71.1072	608.39
71.1216	548.63
71.1361	567.64
71.1505	570.25
71.1649	572.36
71.1794	592.13
71.1938	593.58
71.2083	595.84
71.2227	632.69
71.2371	607.61
71.2516	591.36
71.2660	588.11
71.2805	533.98
71.2949	527.57
71.3093	552.93
71.3238	591.32
71.3382	610.04
71.3527	578.72
71.3671	595.56
71.3815	566.21
71.3960	566.69
71.4104	561.61
71.4249	597.05
71.4393	542.16
71.4537	460.06
71.4682	591.27
71.4826	598.39
71.4971	551.73
71.5115	556.32
71.5259	567.50
71.5404	599.84
71.5548	626.07
71.5693	575.55
71.5837	533.56
71.5981	534.16
71.6126	564.92
71.6270	537.60
71.6415	558.79
71.6559	578.45
71.6703	630.37
71.6848	653.79
71.6992	614.16
71.7137	562.88
71.7281	559.56
71.7425	533.57
71.7570	522.95
71.7714	526.07
71.7859	595.10
71.8003	612.91
71.8147	625.71
71.8292	589.87
71.8436	555.65
71.8581	564.99
71.8725	561.45
71.8869	585.42
71.9014	647.61
71.9158	568.11
71.9303	591.37
71.9447	599.99
71.9591	640.05
71.9736	582.94
71.9880	558.87
72.0025	599.70
72.0169	572.59
72.0313	598.15
72.0458	575.09
72.0602	614.23
72.0747	628.05
72.0891	579.97
72.1035	581.73
72.1180	567.81
72.1324	526.35
72.1469	502.42
72.1613	550.81
72.1757	604.93
72.1902	650.38
72.2046	595.08
72.2191	520.95
72.2335	533.91
72.2479	505.11
72.2624	490.36
72.2768	522.02
72.2913	607.22
72.3057	606.22
72.3201	581.12
72.3346	576.13
72.3490	562.94
72.3635	528.32
72.3779	578.90
72.3923	513.60
72.4068	532.57
72.4212	606.20
72.4357	593.13
72.4501	555.24
72.4645	565.36
72.4790	604.91
72.4934	584.03
72.5079	572.96
72.5223	570.20
72.5367	548.68
72.5512	538.05
72.5656	505.89
72.5801	528.57
72.5945	551.54
72.6089	490.99
72.6234	528.71
72.6378	543.13
72.6523	519.71
72.6667	608.34
72.6811	560.74
72.6956	538.78
72.7100	558.57
72.7245	519.92
72.7389	556.05
72.7533	587.49
72.7678	615.03
72.7822	662.04
72.7967	625.78
72.8111	620.89
72.8255	648.37
72.8400	654.50
72.8544	571.69
72.8689	577.44
72.8833	583.19