2022.09.19 19:37:17
Îáðàçåö: ß÷åéêà LCoV 16-09-2022
Lambda1 = 1.54060
Lambda2 = 1.54439
Lambdam = 1.54186
R = 0.497
2Theta	I

line¹ 0 ;repeat¹ 0
22.1120	534.68
22.1264	480.23
22.1409	541.41
22.1553	534.75
22.1697	601.15
22.1842	603.48
22.1986	565.15
22.2131	507.61
22.2275	540.98
22.2419	614.96
22.2564	605.78
22.2708	608.41
22.2853	551.69
22.2997	540.99
22.3141	563.99
22.3286	573.16
22.3430	567.47
22.3575	588.07
22.3719	559.83
22.3863	642.57
22.4008	632.21
22.4152	627.63
22.4297	649.08
22.4441	598.48
22.4585	570.48
22.4730	618.04
22.4874	620.31
22.5019	617.76
22.5163	538.25
22.5307	549.87
22.5452	533.16
22.5596	619.73
22.5741	677.63
22.5885	617.75
22.6029	599.92
22.6174	589.35
22.6318	509.39
22.6463	557.44
22.6607	591.02
22.6751	546.61
22.6896	641.89
22.7040	562.68
22.7185	505.02
22.7329	528.88
22.7473	513.32
22.7618	502.78
22.7762	483.71
22.7907	562.40
22.8051	586.47
22.8195	554.69
22.8340	513.29
22.8484	565.65
22.8629	679.78
22.8773	564.80
22.8917	474.48
22.9062	496.02
22.9206	520.34
22.9351	626.89
22.9495	579.71
22.9639	517.19
22.9784	601.02
22.9928	592.35
23.0073	579.73
23.0217	532.21
23.0361	521.38
23.0506	556.88
23.0650	543.78
23.0795	613.12
23.0939	585.75
23.1083	583.74
23.1228	509.76
23.1372	609.91
23.1517	564.81
23.1661	550.12
23.1806	524.70
23.1950	508.82
23.2094	517.04
23.2239	570.61
23.2383	584.80
23.2528	562.15
23.2672	541.28
23.2816	629.02
23.2961	528.30
23.3105	555.66
23.3250	552.41
23.3394	584.35
23.3538	610.28
23.3683	541.46
23.3827	539.72
23.3972	555.14
23.4116	562.67
23.4260	569.24
23.4405	487.99
23.4549	551.03
23.4694	511.28
23.4838	493.94
23.4982	527.74
23.5127	538.69
23.5271	494.58
23.5416	578.04
23.5560	572.33
23.5704	574.83
23.5849	522.30
23.5993	596.98
23.6138	519.54
23.6282	467.22
23.6426	502.26
23.6571	519.06
23.6715	585.76
23.6860	573.38
23.7004	578.22
23.7148	536.58
23.7293	525.51
23.7437	518.05
23.7582	555.34
23.7726	549.10
23.7870	518.04
23.8015	510.96
23.8159	557.33
23.8304	558.29
23.8448	503.25
23.8592	488.32
23.8737	553.54
23.8881	627.77
23.9026	584.81
23.9170	506.91
23.9314	583.68
23.9459	656.45
23.9603	507.30
23.9748	580.69
23.9892	530.58
24.0036	520.02
24.0181	551.21
24.0325	489.26
24.0470	554.19
24.0614	512.64
24.0758	555.17
24.0903	598.15
24.1047	535.44
24.1192	606.25
24.1336	604.07
24.1480	569.08
24.1625	568.01
24.1769	523.86
24.1914	529.78
24.2058	535.60
24.2202	549.06
24.2347	578.71
24.2491	612.37
24.2636	634.48
24.2780	523.54
24.2924	568.89
24.3069	623.12
24.3213	630.81
24.3358	594.28
24.3502	571.85
24.3646	521.70
24.3791	482.47
24.3935	498.36
24.4080	561.82
24.4224	565.43
24.4368	594.71
24.4513	513.05
24.4657	516.53
24.4802	513.77
24.4946	527.86
24.5090	558.45
24.5235	557.40
24.5379	539.05
24.5524	574.71
24.5668	551.50
24.5812	569.15
24.5957	614.62
24.6101	563.36
24.6246	556.57
24.6390	593.83
24.6534	538.83
24.6679	561.75
24.6823	513.76
24.6968	572.23
24.7112	590.80
24.7256	507.23
24.7401	490.51
24.7545	506.07
24.7690	546.91
24.7834	515.01
24.7978	535.29
24.8123	494.37
24.8267	545.22
24.8412	615.09
24.8556	565.34
24.8700	591.96
24.8845	576.86
24.8989	541.55
24.9134	573.35
24.9278	558.67
24.9422	517.76
24.9567	550.50
24.9711	498.66
24.9856	530.97
25.0000	498.10
25.0144	541.02
25.0289	533.08
25.0433	563.47
25.0578	544.33
25.0722	581.38
25.0866	535.21
25.1011	557.23
25.1155	562.53
25.1300	498.36
25.1444	481.57
25.1588	498.97
25.1733	533.55
25.1877	512.86
25.2022	530.01
25.2166	560.94
25.2310	543.06
25.2455	495.61
25.2599	504.12
25.2744	570.98
25.2888	550.74
25.3032	518.69
25.3177	502.91
25.3321	534.66
25.3466	544.99
25.3610	534.14
25.3754	515.88
25.3899	493.48
25.4043	547.42
25.4188	510.89
25.4332	553.29
25.4476	548.87
25.4621	533.53
25.4765	545.97
25.4910	535.04
25.5054	517.62
25.5198	549.53
25.5343	549.37
25.5487	544.02
25.5632	568.74
25.5776	584.45
25.5920	534.75
25.6065	563.28
25.6209	507.69
25.6354	566.21
25.6498	530.00
25.6642	534.38
25.6787	539.14
25.6931	522.91
25.7076	548.09
25.7220	534.58
25.7364	553.54
25.7509	555.46
25.7653	519.51
25.7798	563.28
25.7942	503.75
25.8086	511.54
25.8231	539.49
25.8375	532.96
25.8520	563.35
25.8664	533.92
25.8808	542.53
25.8953	515.40
25.9097	543.58
25.9242	532.44
25.9386	549.89
25.9530	536.26
25.9675	548.00
25.9819	586.00
25.9964	540.43
26.0108	537.70
26.0252	545.65
26.0397	526.18
26.0541	550.83
26.0686	500.50
26.0830	547.27
26.0974	538.80
26.1119	533.61
26.1263	541.01
26.1408	492.44
26.1552	483.72
26.1696	527.13
26.1841	505.12
26.1985	501.30
26.2130	530.03
26.2274	499.07
26.2418	534.11
26.2563	553.65
26.2707	500.37
26.2852	529.06
26.2996	528.16
26.3140	553.05
26.3285	514.09
26.3429	540.62
26.3574	565.92
26.3718	557.00
26.3862	523.98
26.4007	506.86
26.4151	514.50
26.4296	518.45
26.4440	521.68
26.4584	526.78
26.4729	540.42
26.4873	515.63
26.5018	533.75
26.5162	549.23
26.5306	518.09
26.5451	530.24
26.5595	544.05
26.5740	539.97
26.5884	543.22
26.6028	579.69
26.6173	543.79
26.6317	531.55
26.6462	513.47
26.6606	541.61
26.6750	541.60
26.6895	490.71
26.7039	544.02
26.7184	549.46
26.7328	508.85
26.7472	519.92
26.7617	504.57
26.7761	505.03
26.7906	523.89
26.8050	516.73
26.8194	487.51
26.8339	521.02
26.8483	555.69
26.8628	568.43
26.8772	541.46
26.8917	526.80
26.9061	578.39
26.9205	520.36
26.9350	505.09
26.9494	519.56
26.9639	533.43
26.9783	513.53
26.9927	528.98
27.0072	550.61
27.0216	541.80
27.0361	524.35
27.0505	519.55
27.0649	528.91
27.0794	508.07
27.0938	522.21
27.1083	514.28
27.1227	514.01
27.1371	531.11
27.1516	478.39
27.1660	519.78
27.1805	545.00
27.1949	536.07
27.2093	510.47
27.2238	531.15
27.2382	515.27
27.2527	519.45
27.2671	533.31
27.2815	544.13
27.2960	537.40
27.3104	517.05
27.3249	535.12
27.3393	505.37
27.3537	492.78
27.3682	516.20
27.3826	498.88
27.3971	527.68
27.4115	526.24
27.4259	501.50
27.4404	517.69
27.4548	500.05
27.4693	525.31
27.4837	550.42
27.4981	524.76
27.5126	511.39
27.5270	518.17
27.5415	544.22
27.5559	526.60
27.5703	503.21
27.5848	504.32
27.5992	495.59
27.6137	527.71
27.6281	523.15
27.6425	504.52
27.6570	521.75
27.6714	541.38
27.6859	526.00
27.7003	543.72
27.7147	536.19
27.7292	514.40
27.7436	531.34
27.7581	522.53
27.7725	494.94
27.7869	508.67
27.8014	523.62
27.8158	493.90
27.8303	523.76
27.8447	497.45
27.8591	515.90
27.8736	547.80
27.8880	519.69
27.9025	531.60
27.9169	539.18
27.9313	516.88
27.9458	516.82
27.9602	467.71
27.9747	520.01
27.9891	533.47
28.0035	507.95
28.0180	525.14
28.0324	527.04
28.0469	498.40
28.0613	486.61
28.0757	548.91
28.0902	567.55
28.1046	551.94
28.1191	500.52
28.1335	538.04
28.1479	474.74
28.1624	495.65
28.1768	497.09
28.1913	527.96
28.2057	512.51
28.2201	517.89
28.2346	534.38
28.2490	503.58
28.2635	516.65
28.2779	507.01
28.2923	497.87
28.3068	504.51
28.3212	470.95
28.3357	543.40
28.3501	508.01
28.3645	488.11
28.3790	495.76
28.3934	495.29
28.4079	554.67
28.4223	554.95
28.4367	532.02
28.4512	498.64
28.4656	491.13
28.4801	513.45
28.4945	545.39
28.5089	496.85
28.5234	517.41
28.5378	544.53
28.5523	541.66
28.5667	507.33
28.5811	510.58
28.5956	493.68
28.6100	503.73
28.6245	495.12
28.6389	516.18
28.6533	511.48
28.6678	500.68
28.6822	517.02
28.6967	486.42
28.7111	515.22
28.7255	531.10
28.7400	471.89
28.7544	511.84
28.7689	510.67
28.7833	530.44
28.7977	514.68
28.8122	501.19
28.8266	505.35
28.8411	517.78
28.8555	490.71
28.8699	493.58
28.8844	505.22
28.8988	501.56
28.9133	483.49
28.9277	497.29
28.9421	536.40
28.9566	478.86
28.9710	516.40
28.9855	492.86
28.9999	497.68
29.0143	508.77
29.0288	521.13
29.0432	541.75
29.0577	527.22
29.0721	499.17
29.0865	507.13
29.1010	497.64
29.1154	531.55
29.1299	538.44
29.1443	484.89
29.1587	496.86
29.1732	502.49
29.1876	518.57
29.2021	503.78
29.2165	495.74
29.2309	481.49
29.2454	504.71
29.2598	528.85
29.2743	518.74
29.2887	487.15
29.3031	516.52
29.3176	528.00
29.3320	526.73
29.3465	502.35
29.3609	497.39
29.3753	454.90
29.3898	494.89
29.4042	519.09
29.4187	530.21
29.4331	518.48
29.4475	460.03
29.4620	484.89
29.4764	487.33
29.4909	503.72
29.5053	492.27
29.5197	511.61
29.5342	521.80
29.5486	504.21
29.5631	502.12
29.5775	505.51
29.5919	488.12
29.6064	506.43
29.6208	526.23
29.6353	507.59
29.6497	479.52
29.6641	516.33
29.6786	512.52
29.6930	477.33
29.7075	522.36
29.7219	514.08
29.7363	528.95
29.7508	507.54
29.7652	490.62
29.7797	498.58
29.7941	504.10
29.8085	519.30
29.8230	499.64
29.8374	508.40
29.8519	505.91
29.8663	518.95
29.8807	508.85
29.8952	500.97
29.9096	527.09
29.9241	520.41
29.9385	536.25
29.9529	522.81
29.9674	497.21
29.9818	506.92
29.9963	498.40
30.0107	506.29
30.0251	507.79
30.0396	556.25
30.0540	515.64
30.0685	483.78
30.0829	491.77
30.0973	502.95
30.1118	491.01
30.1262	497.69
30.1407	512.09
30.1551	503.21
30.1695	521.48
30.1840	514.62
30.1984	510.89
30.2129	519.10
30.2273	527.57
30.2417	519.89
30.2562	484.10
30.2706	480.49
30.2851	511.75
30.2995	505.69
30.3139	530.14
30.3284	508.04
30.3428	511.85
30.3573	499.70
30.3717	498.85
30.3861	507.05
30.4006	517.61
30.4150	532.31
30.4295	523.70
30.4439	525.77
30.4583	520.41
30.4728	544.58
30.4872	522.19
30.5017	528.84
30.5161	541.14
30.5305	529.21
30.5450	528.69
30.5594	543.17
30.5739	538.71
30.5883	552.63
30.6028	603.78
30.6172	563.17
30.6316	584.29
30.6461	592.04
30.6605	606.01
30.6750	661.93
30.6894	695.71
30.7038	685.39
30.7183	699.81
30.7327	683.87
30.7472	672.42
30.7616	672.22
30.7760	712.45
30.7905	688.53
30.8049	650.97
30.8194	660.28
30.8338	627.82
30.8482	572.42
30.8627	583.75
30.8771	575.68
30.8916	552.48
30.9060	556.34
30.9204	573.28
30.9349	563.00
30.9493	544.54
30.9638	510.29
30.9782	488.92
30.9926	509.33
31.0071	519.04
31.0215	522.72
31.0360	513.40
31.0504	514.85
31.0648	510.55
31.0793	511.85
31.0937	530.95
31.1082	507.21
31.1226	529.62
31.1370	538.48
31.1515	500.70
31.1659	510.25
31.1804	497.08
31.1948	483.85
31.2092	488.15
31.2237	484.63
31.2381	535.47
31.2526	513.37
31.2670	522.32
31.2814	518.48
31.2959	529.91
31.3103	505.55
31.3248	520.05
31.3392	527.06
31.3536	529.80
31.3681	505.79
31.3825	517.72
31.3970	503.51
31.4114	513.16
31.4258	538.25
31.4403	531.77
31.4547	491.00
31.4692	532.43
31.4836	519.09
31.4980	532.66
31.5125	507.54
31.5269	512.45
31.5414	509.42
31.5558	492.81
31.5702	477.88
31.5847	499.08
31.5991	513.23
31.6136	496.18
31.6280	484.12
31.6424	519.80
31.6569	524.08
31.6713	513.43
31.6858	480.97
31.7002	478.21
31.7146	497.79
31.7291	491.38
31.7435	512.77
31.7580	509.74
31.7724	479.55
31.7868	517.64
31.8013	514.46
31.8157	537.41
31.8302	521.26
31.8446	499.04
31.8590	525.83
31.8735	505.44
31.8879	536.52
31.9024	524.14
31.9168	477.59
31.9312	506.09
31.9457	508.94
31.9601	486.98
31.9746	517.42
31.9890	473.37
32.0034	509.08
32.0179	505.38
32.0323	516.74
32.0468	503.54
32.0612	518.60
32.0756	492.47
32.0901	503.64
32.1045	507.58
32.1190	506.94
32.1334	494.94
32.1478	468.44
32.1623	515.30
32.1767	521.95
32.1912	516.75
32.2056	516.78
32.2200	512.02
32.2345	500.41
32.2489	480.13
32.2634	504.46
32.2778	508.73
32.2922	483.96
32.3067	513.20
32.3211	488.18
32.3356	529.25
32.3500	499.65
32.3644	475.40
32.3789	494.56
32.3933	498.18
32.4078	507.26
32.4222	490.45
32.4366	510.15
32.4511	508.81
32.4655	501.43
32.4800	518.47
32.4944	539.22
32.5088	500.01
32.5233	519.83
32.5377	518.36
32.5522	519.31
32.5666	495.20
32.5810	489.71
32.5955	492.04
32.6099	528.95
32.6244	504.77
32.6388	509.31
32.6532	513.07
32.6677	522.22
32.6821	510.42
32.6966	513.14
32.7110	544.11
32.7254	488.05
32.7399	520.25
32.7543	528.49
32.7688	473.25
32.7832	493.35
32.7976	493.26
32.8121	528.33
32.8265	462.91
32.8410	515.06
32.8554	521.27
32.8698	515.52
32.8843	498.80
32.8987	514.92
32.9132	524.81
32.9276	541.44
32.9420	537.37
32.9565	506.76
32.9709	537.66
32.9854	521.21
32.9998	498.79
33.0142	493.13
33.0287	531.64
33.0431	511.56
33.0576	503.55
33.0720	532.62
33.0864	550.71
33.1009	516.44
33.1153	516.69
33.1298	532.04
33.1442	513.70
33.1586	480.39
33.1731	501.71
33.1875	493.50
33.2020	520.16
33.2164	475.20
33.2308	467.71
33.2453	522.20
33.2597	491.08
33.2742	461.73
33.2886	499.56
33.3030	517.53
33.3175	523.35
33.3319	503.52
33.3464	525.54
33.3608	535.26
33.3752	473.90
33.3897	451.51
33.4041	453.62
33.4186	501.39
33.4330	520.76
33.4474	487.62
33.4619	522.67
33.4763	518.52
33.4908	499.44
33.5052	489.53
33.5196	505.18
33.5341	501.76
33.5485	497.75
33.5630	525.75
33.5774	496.25
33.5918	509.34
33.6063	493.58
33.6207	495.29
33.6352	517.48
33.6496	518.12
33.6640	484.69
33.6785	480.75
33.6929	497.94
33.7074	521.79
33.7218	503.26
33.7362	475.78
33.7507	486.76
33.7651	506.53
33.7796	510.70
33.7940	468.24
33.8084	489.68
33.8229	502.54
33.8373	522.32
33.8518	504.08
33.8662	520.75
33.8806	475.73
33.8951	485.96
33.9095	519.39
33.9240	501.64
33.9384	533.61
33.9528	505.10
33.9673	505.46
33.9817	526.82
33.9962	528.92
34.0106	536.60
34.0250	511.59
34.0395	533.90
34.0539	512.11
34.0684	467.63
34.0828	469.33
34.0972	506.48
34.1117	520.11
34.1261	523.23
34.1406	504.86
34.1550	476.17
34.1694	524.68
34.1839	515.07
34.1983	486.89
34.2128	485.05
34.2272	503.37
34.2417	525.16
34.2561	501.74
34.2705	494.90
34.2850	515.09
34.2994	504.74
34.3139	510.16
34.3283	538.01
34.3427	497.00
34.3572	505.10
34.3716	494.21
34.3861	494.72
34.4005	491.53
34.4149	503.45
34.4294	525.80
34.4438	503.54
34.4583	479.80
34.4727	506.21
34.4871	518.49
34.5016	491.20
34.5160	495.84
34.5305	497.49
34.5449	495.63
34.5593	488.37
34.5738	520.38
34.5882	488.05
34.6027	494.47
34.6171	502.76
34.6315	494.42
34.6460	493.25
34.6604	494.23
34.6749	490.27
34.6893	485.99
34.7037	508.04
34.7182	502.39
34.7326	514.35
34.7471	530.64
34.7615	485.56
34.7759	527.62
34.7904	525.92
34.8048	531.59
34.8193	517.15
34.8337	500.87
34.8481	495.27
34.8626	520.68
34.8770	485.96
34.8915	530.50
34.9059	511.63
34.9203	506.37
34.9348	509.80
34.9492	511.82
34.9637	504.70
34.9781	493.65
34.9925	530.55
35.0070	488.83
35.0214	527.61
35.0359	538.99
35.0503	503.55
35.0647	489.52
35.0792	522.95
35.0936	562.15
35.1081	511.34
35.1225	508.22
35.1369	497.56
35.1514	471.92
35.1658	509.92
35.1803	503.06
35.1947	507.79
35.2091	513.11
35.2236	488.26
35.2380	517.67
35.2525	512.45
35.2669	510.65
35.2813	529.74
35.2958	527.78
35.3102	517.48
35.3247	517.83
35.3391	488.24
35.3535	497.73
35.3680	511.85
35.3824	476.29
35.3969	466.41
35.4113	519.78
35.4257	524.41
35.4402	526.58
35.4546	506.44
35.4691	533.95
35.4835	517.99
35.4979	521.85
35.5124	508.30
35.5268	527.64
35.5413	539.50
35.5557	545.40
35.5701	503.25
35.5846	497.93
35.5990	484.36
35.6135	507.02
35.6279	528.63
35.6423	516.88
35.6568	510.94
35.6712	518.14
35.6857	561.39
35.7001	635.23
35.7145	762.34
35.7290	700.68
35.7434	616.40
35.7579	606.84
35.7723	612.58
35.7867	670.35
35.8012	691.19
35.8156	690.82
35.8301	645.21
35.8445	627.80
35.8589	636.54
35.8734	716.57
35.8878	832.74
35.9023	988.62
35.9167	1037.74
35.9311	1160.66
35.9456	1735.11
35.9600	2156.37
35.9745	1926.46
35.9889	2004.76
36.0033	2460.60
36.0178	3256.01
36.0322	2978.44
36.0467	2040.26
36.0611	1734.08
36.0755	1718.25
36.0900	1739.64
36.1044	1617.08
36.1189	1541.97
36.1333	1480.93
36.1477	1254.93
36.1622	1272.84
36.1766	1290.74
36.1911	1200.75
36.2055	1169.89
36.2199	1123.49
36.2344	1076.70
36.2488	1000.66
36.2633	883.09
36.2777	857.43
36.2921	821.30
36.3066	783.01
36.3210	767.55
36.3355	704.94
36.3499	677.50
36.3643	654.24
36.3788	639.12
36.3932	600.01
36.4077	615.03
36.4221	582.24
36.4365	588.20
36.4510	571.41
36.4654	590.71
36.4799	584.87
36.4943	571.32
36.5087	555.75
36.5232	560.83
36.5376	535.27
36.5521	527.54
36.5665	547.96
36.5809	555.80
36.5954	548.43
36.6098	532.22
36.6243	558.21
36.6387	547.35
36.6531	554.67
36.6676	513.14
36.6820	526.00
36.6965	529.33
36.7109	552.91
36.7253	532.31
36.7398	511.90
36.7542	533.20
36.7687	514.81
36.7831	573.99
36.7975	565.44
36.8120	520.42
36.8264	621.69
36.8409	588.96
36.8553	563.33
36.8697	582.90
36.8842	568.89
36.8986	576.70
36.9131	565.53
36.9275	565.08
36.9419	559.63
36.9564	554.87
36.9708	539.81
36.9853	506.36
36.9997	532.47
37.0141	562.88
37.0286	551.00
37.0430	483.34
37.0575	548.40
37.0719	527.72
37.0863	568.46
37.1008	498.70
37.1152	525.18
37.1297	518.50
37.1441	475.28
37.1585	526.19
37.1730	493.71
37.1874	483.05
37.2019	513.57
37.2163	511.67
37.2307	497.47
37.2452	485.48
37.2596	489.70
37.2741	513.74
37.2885	517.87
37.3029	488.19
37.3174	497.29
37.3318	505.97
37.3463	536.61
37.3607	489.05
37.3751	495.45
37.3896	514.33
37.4040	494.32
37.4185	485.89
37.4329	522.64
37.4473	508.48
37.4618	484.78
37.4762	516.60
37.4907	493.58
37.5051	501.77
37.5195	501.76
37.5340	515.39
37.5484	490.07
37.5629	499.20
37.5773	511.99
37.5917	522.43
37.6062	493.26
37.6206	495.91
37.6351	510.27
37.6495	503.90
37.6639	499.22
37.6784	496.22
37.6928	499.17
37.7073	518.84
37.7217	491.94
37.7361	500.97
37.7506	504.75
37.7650	516.90
37.7795	502.16
37.7939	508.99
37.8083	503.94
37.8228	512.46
37.8372	505.87
37.8517	465.01
37.8661	485.32
37.8805	483.86
37.8950	482.88
37.9094	500.38
37.9239	507.60
37.9383	505.10
37.9528	511.96
37.9672	498.20
37.9816	487.30
37.9961	522.63
38.0105	484.68
38.0250	530.00
38.0394	534.00
38.0538	508.86
38.0683	513.61
38.0827	520.75
38.0972	563.29
38.1116	489.27
38.1260	523.03
38.1405	504.54
38.1549	507.56
38.1694	521.96
38.1838	512.59
38.1982	508.72
38.2127	518.36
38.2271	509.91
38.2416	494.25
38.2560	493.65
38.2704	492.19
38.2849	505.59
38.2993	528.89
38.3138	512.71
38.3282	508.93
38.3426	514.24
38.3571	504.80
38.3715	503.83
38.3860	556.47
38.4004	549.69
38.4148	555.35
38.4293	543.19
38.4437	595.80
38.4582	625.80
38.4726	643.38
38.4870	688.47
38.5015	719.45
38.5159	744.20
38.5304	780.47
38.5448	786.56
38.5592	824.41
38.5737	746.27
38.5881	717.33
38.6026	737.16
38.6170	730.44
38.6314	724.76
38.6459	697.74
38.6603	641.32
38.6748	646.69
38.6892	574.80
38.7036	578.38
38.7181	545.85
38.7325	540.27
38.7470	537.19
38.7614	559.54
38.7758	533.45
38.7903	509.76
38.8047	519.11
38.8192	510.23
38.8336	539.86
38.8480	535.35
38.8625	505.11
38.8769	499.65
38.8914	477.26
38.9058	520.73
38.9202	519.77
38.9347	493.69
38.9491	503.40
38.9636	500.38
38.9780	500.57
38.9924	509.88
39.0069	498.71
39.0213	527.26
39.0358	523.46
39.0502	500.41
39.0646	490.51
39.0791	500.64
39.0935	499.44
39.1080	445.15
39.1224	477.24
39.1368	474.45
39.1513	478.42
39.1657	489.01
39.1802	503.97
39.1946	506.43
39.2090	500.23
39.2235	495.93
39.2379	506.42
39.2524	505.92
39.2668	514.75
39.2812	518.39
39.2957	471.37
39.3101	526.76
39.3246	512.11
39.3390	505.45
39.3534	495.65
39.3679	507.46
39.3823	507.03
39.3968	484.20
39.4112	478.83
39.4256	512.10
39.4401	522.41
39.4545	484.46
39.4690	506.73
39.4834	515.57
39.4978	524.43
39.5123	506.62
39.5267	489.01
39.5412	507.05
39.5556	506.27
39.5700	469.33
39.5845	486.70
39.5989	524.10
39.6134	487.83
39.6278	485.47
39.6422	511.64
39.6567	505.80
39.6711	528.48
39.6856	518.11
39.7000	513.05
39.7144	499.38
39.7289	476.64
39.7433	525.23
39.7578	502.20
39.7722	507.22
39.7866	508.92
39.8011	520.46
39.8155	515.40
39.8300	503.11
39.8444	495.12
39.8588	486.15
39.8733	505.67
39.8877	481.62
39.9022	487.39
39.9166	492.48
39.9310	495.51
39.9455	517.67
39.9599	506.77
39.9744	502.00
39.9888	512.76
40.0032	542.53
40.0177	494.46
40.0321	472.49
40.0466	486.70
40.0610	515.49
40.0754	462.69
40.0899	501.39
40.1043	472.18
40.1188	502.56
40.1332	486.43
40.1476	460.18
40.1621	512.30
40.1765	507.12
40.1910	529.83
40.2054	469.54
40.2198	500.59
40.2343	514.96
40.2487	496.83
40.2632	481.32
40.2776	500.52
40.2920	526.53
40.3065	551.67
40.3209	526.70
40.3354	500.11
40.3498	481.95
40.3642	490.26
40.3787	466.51
40.3931	486.01
40.4076	475.34
40.4220	467.56
40.4364	502.12
40.4509	492.90
40.4653	488.66
40.4798	485.72
40.4942	516.76
40.5086	506.12
40.5231	456.71
40.5375	489.96
40.5520	490.72
40.5664	479.89
40.5808	499.93
40.5953	504.92
40.6097	481.37
40.6242	508.34
40.6386	497.88
40.6530	472.79
40.6675	502.40
40.6819	513.93
40.6964	515.70
40.7108	531.56
40.7252	521.25
40.7397	499.30
40.7541	500.24
40.7686	507.83
40.7830	524.30
40.7974	494.88
40.8119	513.67
40.8263	547.54
40.8408	485.10
40.8552	496.90
40.8696	528.58
40.8841	488.37
40.8985	546.74
40.9130	517.30
40.9274	486.96
40.9418	466.57
40.9563	466.81
40.9707	511.25
40.9852	509.57
40.9996	514.49
41.0140	503.62
41.0285	502.45
41.0429	479.14
41.0574	524.92
41.0718	496.54
41.0862	491.72
41.1007	487.17
41.1151	490.56
41.1296	516.28
41.1440	485.23
41.1584	482.24
41.1729	483.23
41.1873	491.38
41.2018	452.02
41.2162	486.83
41.2306	491.85
41.2451	485.88
41.2595	490.88
41.2740	471.63
41.2884	510.70
41.3028	479.71
41.3173	481.46
41.3317	496.92
41.3462	492.65
41.3606	508.46
41.3750	510.23
41.3895	485.15
41.4039	470.67
41.4184	488.35
41.4328	488.95
41.4472	496.02
41.4617	490.47
41.4761	521.72
41.4906	470.65
41.5050	457.12
41.5194	512.53
41.5339	502.32
41.5483	474.57
41.5628	493.27
41.5772	479.89
41.5916	482.92
41.6061	495.42
41.6205	498.11
41.6350	497.27
41.6494	478.61
41.6639	491.62
41.6783	513.13
41.6927	524.00
41.7072	557.01
41.7216	502.37
41.7361	485.27
41.7505	489.22
41.7649	470.27
41.7794	507.62
41.7938	525.74
41.8083	489.92
41.8227	474.39
41.8371	502.31
41.8516	504.74
41.8660	545.66
41.8805	511.90
41.8949	527.35
41.9093	512.66
41.9238	491.86
41.9382	542.61
41.9527	551.51
41.9671	505.08
41.9815	573.76
41.9960	581.38
42.0104	559.68
42.0249	545.94
42.0393	576.85
42.0537	544.50
42.0682	568.88
42.0826	557.93
42.0971	552.40
42.1115	577.24
42.1259	612.53
42.1404	585.91
42.1548	609.07
42.1693	656.48
42.1837	694.72
42.1981	772.89
42.2126	843.58
42.2270	939.72
42.2415	1112.78
42.2559	1274.48
42.2703	1392.12
42.2848	1531.87
42.2992	1607.88
42.3137	1678.36
42.3281	1687.54
42.3425	1630.57
42.3570	1556.86
42.3714	1470.98
42.3859	1380.63
42.4003	1364.91
42.4147	1367.96
42.4292	1344.22
42.4436	1173.92
42.4581	1099.64
42.4725	1008.77
42.4869	862.99
42.5014	759.98
42.5158	685.95
42.5303	653.45
42.5447	630.71
42.5591	633.56
42.5736	573.72
42.5880	588.36
42.6025	575.55
42.6169	538.79
42.6313	594.47
42.6458	564.43
42.6602	514.85
42.6747	516.75
42.6891	525.34
42.7035	527.66
42.7180	534.25
42.7324	489.13
42.7469	496.79
42.7613	515.42
42.7757	538.50
42.7902	514.50
42.8046	497.36
42.8191	528.39
42.8335	539.53
42.8479	520.94
42.8624	533.70
42.8768	535.00
42.8913	491.28
42.9057	534.91
42.9201	523.07
42.9346	513.26
42.9490	503.10
42.9635	492.82
42.9779	477.22
42.9923	499.95
43.0068	503.40
43.0212	507.02
43.0357	516.75
43.0501	510.91
43.0645	551.46
43.0790	534.97
43.0934	514.32
43.1079	510.59
43.1223	541.58
43.1367	514.26
43.1512	498.83
43.1656	533.84
43.1801	514.11
43.1945	508.55
43.2089	529.03
43.2234	541.96
43.2378	539.27
43.2523	518.87
43.2667	523.03
43.2811	538.87
43.2956	503.93
43.3100	532.56
43.3245	535.60
43.3389	523.67
43.3533	531.23
43.3678	529.07
43.3822	515.90
43.3967	508.36
43.4111	505.26
43.4255	566.10
43.4400	528.11
43.4544	491.89
43.4689	532.94
43.4833	525.21
43.4977	519.19
43.5122	530.71
43.5266	553.16
43.5411	517.38
43.5555	465.06
43.5699	501.17
43.5844	504.07
43.5988	533.23
43.6133	518.67
43.6277	504.67
43.6421	505.82
43.6566	500.48
43.6710	541.67
43.6855	517.20
43.6999	517.41
43.7143	517.56
43.7288	507.38
43.7432	507.82
43.7577	545.97
43.7721	538.85
43.7865	527.50
43.8010	512.83
43.8154	542.66
43.8299	524.34
43.8443	567.69
43.8587	596.33
43.8732	555.95
43.8876	547.62
43.9021	586.89
43.9165	601.75
43.9309	566.15
43.9454	583.75
43.9598	615.03
43.9743	585.86
43.9887	629.35
44.0031	597.90
44.0176	580.31
44.0320	644.10
44.0465	657.86
44.0609	621.11
44.0753	597.40
44.0898	597.23
44.1042	556.32
44.1187	532.75
44.1331	541.55
44.1475	551.95
44.1620	571.29
44.1764	559.99
44.1909	522.75
44.2053	503.56
44.2197	543.95
44.2342	529.29
44.2486	521.48
44.2631	532.30
44.2775	505.28
44.2919	521.50
44.3064	532.01
44.3208	541.88
44.3353	514.15
44.3497	539.74
44.3641	523.88
44.3786	541.35
44.3930	534.43
44.4075	518.74
44.4219	590.21
44.4363	581.66
44.4508	588.33
44.4652	596.26
44.4797	582.53
44.4941	610.97
44.5085	594.76
44.5230	633.45
44.5374	579.91
44.5519	555.93
44.5663	566.36
44.5807	589.26
44.5952	569.80
44.6096	557.87
44.6241	583.18
44.6385	577.32
44.6529	568.61
44.6674	574.02
44.6818	579.21
44.6963	569.48
44.7107	635.55
44.7251	651.76
44.7396	729.99
44.7540	804.34
44.7685	811.61
44.7829	898.44
44.7973	857.33
44.8118	887.42
44.8262	841.79
44.8407	806.42
44.8551	770.02
44.8695	809.57
44.8840	739.28
44.8984	733.80
44.9129	735.47
44.9273	628.50
44.9417	671.56
44.9562	582.30
44.9706	585.46
44.9851	577.31
44.9995	552.40
45.0139	549.67
45.0284	539.56
45.0428	475.52
45.0573	519.25
45.0717	508.09
45.0861	550.00
45.1006	482.30
45.1150	505.80
45.1295	513.46
45.1439	476.82
45.1583	491.29
45.1728	512.68
45.1872	514.27
45.2017	510.95
45.2161	494.42
45.2305	508.09
45.2450	485.33
45.2594	477.58
45.2739	506.83
45.2883	507.19
45.3028	506.66
45.3172	513.96
45.3316	508.51
45.3461	535.87
45.3605	503.64
45.3750	481.13
45.3894	505.09
45.4038	520.26
45.4183	516.98
45.4327	514.18
45.4472	498.53
45.4616	504.35
45.4760	484.82
45.4905	478.00
45.5049	516.28
45.5194	492.60
45.5338	515.39
45.5482	527.35
45.5627	531.81
45.5771	476.96
45.5916	513.56
45.6060	538.47
45.6204	530.03
45.6349	536.11
45.6493	517.07
45.6638	468.28
45.6782	470.79
45.6926	499.61
45.7071	529.08
45.7215	507.51
45.7360	509.33
45.7504	519.81
45.7648	503.41
45.7793	525.58
45.7937	518.89
45.8082	516.17
45.8226	506.64
45.8370	503.42
45.8515	475.93
45.8659	502.70
45.8804	534.02
45.8948	515.87
45.9092	509.34
45.9237	491.13
45.9381	491.40
45.9526	532.05
45.9670	511.61
45.9814	487.11
45.9959	484.00
46.0103	460.67
46.0248	513.14
46.0392	506.06
46.0536	486.67
46.0681	519.48
46.0825	516.00
46.0970	519.78
46.1114	519.47
46.1258	536.17
46.1403	491.04
46.1547	496.93
46.1692	472.36
46.1836	496.36
46.1980	495.25
46.2125	481.90
46.2269	510.27
46.2414	497.82
46.2558	454.70
46.2702	476.11
46.2847	497.82
46.2991	489.23
46.3136	485.97
46.3280	499.27
46.3424	499.31
46.3569	500.90
46.3713	498.10
46.3858	459.80
46.4002	480.26
46.4146	539.02
46.4291	555.89
46.4435	491.38
46.4580	511.16
46.4724	508.67
46.4868	478.11
46.5013	477.92
46.5157	492.45
46.5302	494.29
46.5446	485.08
46.5590	482.73
46.5735	489.13
46.5879	530.27
46.6024	506.24
46.6168	513.06
46.6312	471.76
46.6457	491.06
46.6601	516.31
46.6746	490.85
46.6890	490.95
46.7034	524.48
46.7179	504.25
46.7323	493.79
46.7468	505.56
46.7612	493.67
46.7756	508.20
46.7901	518.25
46.8045	496.83
46.8190	477.62
46.8334	513.67
46.8478	510.61
46.8623	500.73
46.8767	516.86
46.8912	498.70
46.9056	514.21
46.9200	511.91
46.9345	539.37
46.9489	498.74
46.9634	462.61
46.9778	474.06
46.9922	499.94
47.0067	510.09
47.0211	497.94
47.0356	496.26
47.0500	531.91
47.0644	535.80
47.0789	517.74
47.0933	509.33
47.1078	509.62
47.1222	524.84
47.1366	500.21
47.1511	472.90
47.1655	502.40
47.1800	533.42
47.1944	507.68
47.2088	494.32
47.2233	472.35
47.2377	522.85
47.2522	540.84
47.2666	507.42
47.2810	497.27
47.2955	483.29
47.3099	510.46
47.3244	504.98
47.3388	533.48
47.3532	543.16
47.3677	497.97
47.3821	496.83
47.3966	499.65
47.4110	501.87
47.4254	504.62
47.4399	537.26
47.4543	492.99
47.4688	509.60
47.4832	499.13
47.4976	517.72
47.5121	509.58
47.5265	508.15
47.5410	503.84
47.5554	511.50
47.5698	506.40
47.5843	513.99
47.5987	503.00
47.6132	486.20
47.6276	503.33
47.6420	487.78
47.6565	514.15
47.6709	511.65
47.6854	482.60
47.6998	511.03
47.7142	489.53
47.7287	473.14
47.7431	526.11
47.7576	523.05
47.7720	489.82
47.7864	500.26
47.8009	499.03
47.8153	494.97
47.8298	514.56
47.8442	471.96
47.8586	506.21
47.8731	524.76
47.8875	518.28
47.9020	507.79
47.9164	475.24
47.9308	502.05
47.9453	502.85
47.9597	509.58
47.9742	520.25
47.9886	530.89
48.0030	519.51
48.0175	514.00
48.0319	506.08
48.0464	535.94
48.0608	556.74
48.0752	499.42
48.0897	514.32
48.1041	480.62
48.1186	536.13
48.1330	519.81
48.1474	491.72
48.1619	483.96
48.1763	501.95
48.1908	523.60
48.2052	491.42
48.2196	503.45
48.2341	503.73
48.2485	531.92
48.2630	499.84
48.2774	539.20
48.2918	532.53
48.3063	543.90
48.3207	504.57
48.3352	538.84
48.3496	506.87
48.3640	462.15
48.3785	489.42
48.3929	496.70
48.4074	494.57
48.4218	519.72
48.4362	513.53
48.4507	504.91
48.4651	498.97
48.4796	519.79
48.4940	531.21
48.5084	503.00
48.5229	503.19
48.5373	482.03
48.5518	510.66
48.5662	506.74
48.5806	560.61
48.5951	507.49
48.6095	504.45
48.6240	508.50
48.6384	510.85
48.6528	508.67
48.6673	508.77
48.6817	495.43
48.6962	506.56
48.7106	507.37
48.7250	537.22
48.7395	498.73
48.7539	535.35
48.7684	525.79
48.7828	528.03
48.7972	480.35
48.8117	522.59
48.8261	479.88
48.8406	514.77
48.8550	536.97
48.8694	530.63
48.8839	500.90
48.8983	543.42
48.9128	559.51
48.9272	540.61
48.9416	576.12
48.9561	567.79
48.9705	584.62
48.9850	552.75
48.9994	586.25
49.0139	605.19
49.0283	570.68
49.0427	605.52
49.0572	612.89
49.0716	678.16
49.0861	692.81
49.1005	685.84
49.1149	695.39
49.1294	740.47
49.1438	745.33
49.1583	793.55
49.1727	849.60
49.1871	915.97
49.2016	941.48
49.2160	1055.36
49.2305	1098.42
49.2449	1197.90
49.2593	1334.63
49.2738	1395.47
49.2882	1504.05
49.3027	1613.41
49.3171	1692.76
49.3315	1737.32
49.3460	1828.42
49.3604	1834.80
49.3749	1818.61
49.3893	1820.17
49.4037	1839.25
49.4182	1866.44
49.4326	1864.82
49.4471	1675.41
49.4615	1709.28
49.4759	1590.51
49.4904	1501.70
49.5048	1426.95
49.5193	1374.92
49.5337	1306.91
49.5481	1189.57
49.5626	1119.34
49.5770	1035.84
49.5915	1028.01
49.6059	931.24
49.6203	883.86
49.6348	841.03
49.6492	784.28
49.6637	752.10
49.6781	723.55
49.6925	698.13
49.7070	662.26
49.7214	639.68
49.7359	610.12
49.7503	629.98
49.7647	613.63
49.7792	564.69
49.7936	579.16
49.8081	561.20
49.8225	576.54
49.8369	563.64
49.8514	524.02
49.8658	581.60
49.8803	544.80
49.8947	524.38
49.9091	549.22
49.9236	546.19
49.9380	569.85
49.9525	545.77
49.9669	534.08
49.9813	533.96
49.9958	536.11
50.0102	528.50
50.0247	555.51
50.0391	567.63
50.0535	538.29
50.0680	519.28
50.0824	494.10
50.0969	515.44
50.1113	517.59
50.1257	529.05
50.1402	513.06
50.1546	483.01
50.1691	495.99
50.1835	524.15
50.1979	493.56
50.2124	507.59
50.2268	513.97
50.2413	510.82
50.2557	490.44
50.2701	494.04
50.2846	514.96
50.2990	504.79
50.3135	518.05
50.3279	548.50
50.3423	523.05
50.3568	503.80
50.3712	504.35
50.3857	508.60
50.4001	530.44
50.4145	558.65
50.4290	529.27
50.4434	486.78
50.4579	524.81
50.4723	504.08
50.4867	510.08
50.5012	508.17
50.5156	506.69
50.5301	495.55
50.5445	497.15
50.5589	508.27
50.5734	488.69
50.5878	478.29
50.6023	510.41
50.6167	501.65
50.6311	503.27
50.6456	492.58
50.6600	512.17
50.6745	502.52
50.6889	498.99
50.7033	509.69
50.7178	524.70
50.7322	512.60
50.7467	528.19
50.7611	507.31
50.7755	498.02
50.7900	499.91
50.8044	503.48
50.8189	529.72
50.8333	492.06
50.8477	487.68
50.8622	519.56
50.8766	509.61
50.8911	505.92
50.9055	520.18
50.9199	496.74
50.9344	483.12
50.9488	478.87
50.9633	483.30
50.9777	491.87
50.9921	495.38
51.0066	502.16
51.0210	493.37
51.0355	479.89
51.0499	474.24
51.0643	499.16
51.0788	526.27
51.0932	541.26
51.1077	538.55
51.1221	527.30
51.1365	491.32
51.1510	473.59
51.1654	471.93
51.1799	518.00
51.1943	501.13
51.2087	488.44
51.2232	531.91
51.2376	570.87
51.2521	494.64
51.2665	491.80
51.2809	535.38
51.2954	509.61
51.3098	510.60
51.3243	513.86
51.3387	540.22
51.3531	529.39
51.3676	494.85
51.3820	480.34
51.3965	490.02
51.4109	487.14
51.4253	524.95
51.4398	503.39
51.4542	487.41
51.4687	504.74
51.4831	508.86
51.4975	489.97
51.5120	503.90
51.5264	549.64
51.5409	474.24
51.5553	481.08
51.5697	514.84
51.5842	517.49
51.5986	507.42
51.6131	510.58
51.6275	509.67
51.6419	524.00
51.6564	528.78
51.6708	482.78
51.6853	487.62
51.6997	500.50
51.7141	524.23
51.7286	550.48
51.7430	520.53
51.7575	528.45
51.7719	515.78
51.7863	502.48
51.8008	485.88
51.8152	518.17
51.8297	494.22
51.8441	513.72
51.8585	507.59
51.8730	505.03
51.8874	452.02
51.9019	520.93
51.9163	547.07
51.9307	505.61
51.9452	500.57
51.9596	488.10
51.9741	528.01
51.9885	540.98
52.0029	502.27
52.0174	506.07
52.0318	485.50
52.0463	523.06
52.0607	521.18
52.0751	499.09
52.0896	568.60
52.1040	529.60
52.1185	512.23
52.1329	533.44
52.1473	499.22
52.1618	515.83
52.1762	520.74
52.1907	487.78
52.2051	476.49
52.2195	493.05
52.2340	521.63
52.2484	490.51
52.2629	486.97
52.2773	512.26
52.2917	483.78
52.3062	504.03
52.3206	509.09
52.3351	555.98
52.3495	526.42
52.3639	513.41
52.3784	541.63
52.3928	515.57
52.4073	536.88
52.4217	530.48
52.4361	559.50
52.4506	517.06
52.4650	515.04
52.4795	505.12
52.4939	518.55
52.5083	494.65
52.5228	538.20
52.5372	536.24
52.5517	525.85
52.5661	556.15
52.5805	513.59
52.5950	529.77
52.6094	490.66
52.6239	500.88
52.6383	520.14
52.6527	516.38
52.6672	512.34
52.6816	495.40
52.6961	506.60
52.7105	510.57
52.7250	509.32
52.7394	481.96
52.7538	518.34
52.7683	531.33
52.7827	498.34
52.7972	540.79
52.8116	521.38
52.8260	494.83
52.8405	458.39
52.8549	527.27
52.8694	529.04
52.8838	471.01
52.8982	509.79
52.9127	525.45
52.9271	498.41
52.9416	494.70
52.9560	464.56
52.9704	509.01
52.9849	486.96
52.9993	502.56
53.0138	497.92
53.0282	503.13
53.0426	499.92
53.0571	534.00
53.0715	489.88
53.0860	547.61
53.1004	509.30
53.1148	525.99
53.1293	507.68
53.1437	514.56
53.1582	506.18
53.1726	535.31
53.1870	537.23
53.2015	495.77
53.2159	551.16
53.2304	487.82
53.2448	491.76
53.2592	490.28
53.2737	508.27
53.2881	507.68
53.3026	491.51
53.3170	542.66
53.3314	504.82
53.3459	521.77
53.3603	501.89
53.3748	475.55
53.3892	487.86
53.4036	515.47
53.4181	532.20
53.4325	532.19
53.4470	498.87
53.4614	527.85
53.4758	532.16
53.4903	513.02
53.5047	510.69
53.5192	506.93
53.5336	519.33
53.5480	502.69
53.5625	522.10
53.5769	528.47
53.5914	508.43
53.6058	496.68
53.6202	513.19
53.6347	526.14
53.6491	541.67
53.6636	528.45
53.6780	510.15
53.6924	530.18
53.7069	493.94
53.7213	497.57
53.7358	501.93
53.7502	507.66
53.7646	504.06
53.7791	531.28
53.7935	527.78
53.8080	511.47
53.8224	517.56
53.8368	505.52
53.8513	471.70
53.8657	494.13
53.8802	514.18
53.8946	543.63
53.9090	533.09
53.9235	528.11
53.9379	517.60
53.9524	511.05
53.9668	518.15
53.9812	523.05
53.9957	521.68
54.0101	513.65
54.0246	505.33
54.0390	502.47
54.0534	497.84
54.0679	507.26
54.0823	523.85
54.0968	511.04
54.1112	538.34
54.1256	534.60
54.1401	512.90
54.1545	494.54
54.1690	528.26
54.1834	529.77
54.1978	520.11
54.2123	539.37
54.2267	534.16
54.2412	522.25
54.2556	531.55
54.2700	530.24
54.2845	507.56
54.2989	526.14
54.3134	527.93
54.3278	524.11
54.3422	537.31
54.3567	560.03
54.3711	529.48
54.3856	537.57
54.4000	521.20
54.4144	536.09
54.4289	568.81
54.4433	570.42
54.4578	540.64
54.4722	577.65
54.4866	590.31
54.5011	558.09
54.5155	541.69
54.5300	564.19
54.5444	552.64
54.5588	583.08
54.5733	568.39
54.5877	586.89
54.6022	586.62
54.6166	596.40
54.6310	607.19
54.6455	575.03
54.6599	543.29
54.6744	558.50
54.6888	541.43
54.7032	585.09
54.7177	557.36
54.7321	534.65
54.7466	559.08
54.7610	510.91
54.7754	553.75
54.7899	578.70
54.8043	557.20
54.8188	555.32
54.8332	524.47
54.8476	512.87
54.8621	551.36
54.8765	528.73
54.8910	513.02
54.9054	541.35
54.9198	522.20
54.9343	507.92
54.9487	525.59
54.9632	509.06
54.9776	533.72
54.9920	551.19
55.0065	516.34
55.0209	514.70
55.0354	508.74
55.0498	507.26
55.0642	521.90
55.0787	562.12
55.0931	552.78
55.1076	536.05
55.1220	531.74
55.1364	543.67
55.1509	508.06
55.1653	506.33
55.1798	539.02
55.1942	504.91
55.2086	532.68
55.2231	527.92
55.2375	546.47
55.2520	557.82
55.2664	509.95
55.2808	505.78
55.2953	553.46
55.3097	516.34
55.3242	523.65
55.3386	494.10
55.3530	492.99
55.3675	510.12
55.3819	484.93
55.3964	501.16
55.4108	552.88
55.4252	541.16
55.4397	514.42
55.4541	535.54
55.4686	540.71
55.4830	555.22
55.4974	523.09
55.5119	516.57
55.5263	522.58
55.5408	516.78
55.5552	524.35
55.5696	522.66
55.5841	529.30
55.5985	531.89
55.6130	524.84
55.6274	497.24
55.6418	502.65
55.6563	507.66
55.6707	519.26
55.6852	505.61
55.6996	546.22
55.7140	527.75
55.7285	516.15
55.7429	522.58
55.7574	500.75
55.7718	520.64
55.7862	522.95
55.8007	484.05
55.8151	517.10
55.8296	518.26
55.8440	478.70
55.8584	571.10
55.8729	534.45
55.8873	489.94
55.9018	509.08
55.9162	496.36
55.9306	518.81
55.9451	496.52
55.9595	515.21
55.9740	526.03
55.9884	547.52
56.0028	494.66
56.0173	504.04
56.0317	531.41
56.0462	535.63
56.0606	537.85
56.0750	561.83
56.0895	536.90
56.1039	527.43
56.1184	531.58
56.1328	553.46
56.1472	513.27
56.1617	482.18
56.1761	498.31
56.1906	519.71
56.2050	502.85
56.2194	518.99
56.2339	497.85
56.2483	488.58
56.2628	521.72
56.2772	523.71
56.2916	508.03
56.3061	513.55
56.3205	494.16
56.3350	499.03
56.3494	460.75
56.3639	541.27
56.3783	550.67
56.3927	533.74
56.4072	497.48
56.4216	534.22
56.4361	538.75
56.4505	506.85
56.4649	525.18
56.4794	558.83
56.4938	501.27
56.5083	526.22
56.5227	549.83
56.5371	537.17
56.5516	531.87
56.5660	517.21
56.5805	527.75
56.5949	505.60
56.6093	520.20
56.6238	524.80
56.6382	517.13
56.6527	516.76
56.6671	510.73
56.6815	498.15
56.6960	535.60
56.7104	543.04
56.7249	516.29
56.7393	511.12
56.7537	532.85
56.7682	454.61
56.7826	504.63
56.7971	502.59
56.8115	514.96
56.8259	529.03
56.8404	497.67
56.8548	502.20
56.8693	505.69
56.8837	567.58
56.8981	520.45
56.9126	509.53
56.9270	474.39
56.9415	565.45
56.9559	549.95
56.9703	544.97
56.9848	529.68
56.9992	530.72
57.0137	518.36
57.0281	534.75
57.0425	554.68
57.0570	545.34
57.0714	517.04
57.0859	517.29
57.1003	564.55
57.1147	533.27
57.1292	546.16
57.1436	520.44
57.1581	487.88
57.1725	556.24
57.1869	532.47
57.2014	508.52
57.2158	517.00
57.2303	497.28
57.2447	513.19
57.2591	501.88
57.2736	495.84
57.2880	545.42
57.3025	507.07
57.3169	528.80
57.3313	540.94
57.3458	514.59
57.3602	533.15
57.3747	545.73
57.3891	529.78
57.4035	543.83
57.4180	503.46
57.4324	525.82
57.4469	516.05
57.4613	539.39
57.4757	556.43
57.4902	554.68
57.5046	526.98
57.5191	536.70
57.5335	547.39
57.5479	545.20
57.5624	502.04
57.5768	495.29
57.5913	523.16
57.6057	529.49
57.6201	513.94
57.6346	486.60
57.6490	510.15
57.6635	523.10
57.6779	504.65
57.6923	524.61
57.7068	555.23
57.7212	571.30
57.7357	543.25
57.7501	540.93
57.7645	574.17
57.7790	544.68
57.7934	545.60
57.8079	538.71
57.8223	517.47
57.8367	540.61
57.8512	541.61
57.8656	532.71
57.8801	524.27
57.8945	584.99
57.9089	548.14
57.9234	532.86
57.9378	564.93
57.9523	569.39
57.9667	544.74
57.9811	545.73
57.9956	536.92
58.0100	553.85
58.0245	573.02
58.0389	593.75
58.0533	609.97
58.0678	635.09
58.0822	611.50
58.0967	624.23
58.1111	647.04
58.1255	626.74
58.1400	623.51
58.1544	626.42
58.1689	668.94
58.1833	638.58
58.1977	628.57
58.2122	683.77
58.2266	664.21
58.2411	662.50
58.2555	664.01
58.2699	668.60
58.2844	630.59
58.2988	627.03
58.3133	636.93
58.3277	620.71
58.3421	651.59
58.3566	607.43
58.3710	622.14
58.3855	582.35
58.3999	604.07
58.4143	593.75
58.4288	604.03
58.4432	575.80
58.4577	589.28
58.4721	596.88
58.4865	586.06
58.5010	576.67
58.5154	573.43
58.5299	587.12
58.5443	574.41
58.5587	552.95
58.5732	541.32
58.5876	549.58
58.6021	561.73
58.6165	560.80
58.6309	548.93
58.6454	523.88
58.6598	527.36
58.6743	521.00
58.6887	514.97
58.7031	541.78
58.7176	546.16
58.7320	549.60
58.7465	493.81
58.7609	521.22
58.7753	538.94
58.7898	531.45
58.8042	520.27
58.8187	528.47
58.8331	544.22
58.8475	536.45
58.8620	549.32
58.8764	562.38
58.8909	534.39
58.9053	569.06
58.9197	549.51
58.9342	553.42
58.9486	559.06
58.9631	523.03
58.9775	491.12
58.9919	513.31
59.0064	540.32
59.0208	529.25
59.0353	550.39
59.0497	510.49
59.0641	531.01
59.0786	540.83
59.0930	520.42
59.1075	528.45
59.1219	566.99
59.1363	554.52
59.1508	520.65
59.1652	523.80
59.1797	556.65
59.1941	531.12
59.2085	533.87
59.2230	536.90
59.2374	554.73
59.2519	553.35
59.2663	510.43
59.2807	533.69
59.2952	524.79
59.3096	531.62
59.3241	531.30
59.3385	552.18
59.3529	554.30
59.3674	502.54
59.3818	504.38
59.3963	507.03
59.4107	546.45
59.4251	528.39
59.4396	585.12
59.4540	558.61
59.4685	558.59
59.4829	575.79
59.4973	575.94
59.5118	571.59
59.5262	579.06
59.5407	546.94
59.5551	570.59
59.5695	559.86
59.5840	561.13
59.5984	560.84
59.6129	564.05
59.6273	547.15
59.6417	519.88
59.6562	553.77
59.6706	527.37
59.6851	499.79
59.6995	524.35
59.7139	531.46
59.7284	522.95
59.7428	525.18
59.7573	523.29
59.7717	536.09
59.7861	572.52
59.8006	545.82
59.8150	527.11
59.8295	529.74
59.8439	512.09
59.8583	507.87
59.8728	538.46
59.8872	513.41
59.9017	523.46
59.9161	524.46
59.9305	530.70
59.9450	537.28
59.9594	529.42
59.9739	560.58
59.9883	569.67
60.0027	540.20
60.0172	498.63
60.0316	493.53
60.0461	537.23
60.0605	580.87
60.0750	553.80
60.0894	523.77
60.1038	486.88
60.1183	565.95
60.1327	530.94
60.1472	525.09
60.1616	520.78
60.1760	552.85
60.1905	542.16
60.2049	536.56
60.2194	547.63
60.2338	549.56
60.2482	541.61
60.2627	539.15
60.2771	511.90
60.2916	504.20
60.3060	521.41
60.3204	521.53
60.3349	546.97
60.3493	551.40
60.3638	520.86
60.3782	510.69
60.3926	495.49
60.4071	498.40
60.4215	509.88
60.4360	496.09
60.4504	503.34
60.4648	539.23
60.4793	543.12
60.4937	521.82
60.5082	517.90
60.5226	500.60
60.5370	499.55
60.5515	504.25
60.5659	517.75
60.5804	527.37
60.5948	506.21
60.6092	534.21
60.6237	510.80
60.6381	576.47
60.6526	546.60
60.6670	502.80
60.6814	526.23
60.6959	527.78
60.7103	540.98
60.7248	552.16
60.7392	549.59
60.7536	544.55
60.7681	524.86
60.7825	587.52
60.7970	554.56
60.8114	554.27
60.8258	547.95
60.8403	580.74
60.8547	541.70
60.8692	527.26
60.8836	546.42
60.8980	527.32
60.9125	553.33
60.9269	530.95
60.9414	490.90
60.9558	521.81
60.9702	515.36
60.9847	560.58
60.9991	570.13
61.0136	522.91
61.0280	547.10
61.0424	527.01
61.0569	572.10
61.0713	555.48
61.0858	526.04
61.1002	498.97
61.1146	554.39
61.1291	546.03
61.1435	511.33
61.1580	541.59
61.1724	538.81
61.1868	500.95
61.2013	540.29
61.2157	527.61
61.2302	534.20
61.2446	566.96
61.2590	521.02
61.2735	536.93
61.2879	552.97
61.3024	558.72
61.3168	544.48
61.3312	546.32
61.3457	503.34
61.3601	537.26
61.3746	544.09
61.3890	525.01
61.4034	544.83
61.4179	527.61
61.4323	549.57
61.4468	545.19
61.4612	505.37
61.4756	563.92
61.4901	555.24
61.5045	553.75
61.5190	555.80
61.5334	569.52
61.5478	563.70
61.5623	534.08
61.5767	538.76
61.5912	537.57
61.6056	562.86
61.6200	568.31
61.6345	581.16
61.6489	567.74
61.6634	560.97
61.6778	558.95
61.6922	522.09
61.7067	527.75
61.7211	540.97
61.7356	519.99
61.7500	537.31
61.7644	531.03
61.7789	547.58
61.7933	565.13
61.8078	574.64
61.8222	514.75
61.8366	512.02
61.8511	506.27
61.8655	510.67
61.8800	545.31
61.8944	530.98
61.9088	580.40
61.9233	547.83
61.9377	558.33
61.9522	520.06
61.9666	533.42
61.9810	552.68
61.9955	580.66
62.0099	557.98
62.0244	529.62
62.0388	528.16
62.0532	555.78
62.0677	520.09
62.0821	534.42
62.0966	567.62
62.1110	555.90
62.1254	565.67
62.1399	529.39
62.1543	546.82
62.1688	587.98
62.1832	560.05
62.1976	558.77
62.2121	544.22
62.2265	538.88
62.2410	576.63
62.2554	549.37
62.2698	547.78
62.2843	510.55
62.2987	519.92
62.3132	561.80
62.3276	558.85
62.3420	566.80
62.3565	515.64
62.3709	521.77
62.3854	534.16
62.3998	548.67
62.4142	558.46
62.4287	559.17
62.4431	543.63
62.4576	553.85
62.4720	554.58
62.4864	570.46
62.5009	540.20
62.5153	522.90
62.5298	505.60
62.5442	522.08
62.5586	523.90
62.5731	566.27
62.5875	542.13
62.6020	525.35
62.6164	514.41
62.6308	555.70
62.6453	558.36
62.6597	583.84
62.6742	565.78
62.6886	541.68
62.7030	550.58
62.7175	572.15
62.7319	570.72
62.7464	542.09
62.7608	557.15
62.7752	553.10
62.7897	540.15
62.8041	555.15
62.8186	557.94
62.8330	555.34
62.8474	522.92
62.8619	574.29
62.8763	566.86
62.8908	544.98
62.9052	555.85
62.9196	548.38
62.9341	566.32
62.9485	564.08
62.9630	550.55
62.9774	549.53
62.9918	551.30
63.0063	562.14
63.0207	559.64
63.0352	533.61
63.0496	523.89
63.0640	553.42
63.0785	558.75
63.0929	589.17
63.1074	563.58
63.1218	542.79
63.1362	572.21
63.1507	557.81
63.1651	580.49
63.1796	562.75
63.1940	566.18
63.2084	553.78
63.2229	551.40
63.2373	558.23
63.2518	566.17
63.2662	570.89
63.2806	573.57
63.2951	571.65
63.3095	577.27
63.3240	554.06
63.3384	579.61
63.3528	555.05
63.3673	571.83
63.3817	535.56
63.3962	536.26
63.4106	547.96
63.4250	586.04
63.4395	597.97
63.4539	614.33
63.4684	604.66
63.4828	608.06
63.4972	601.31
63.5117	591.38
63.5261	572.71
63.5406	579.84
63.5550	596.64
63.5694	608.01
63.5839	604.93
63.5983	631.40
63.6128	607.86
63.6272	617.19
63.6416	599.13
63.6561	601.28
63.6705	623.25
63.6850	644.51
63.6994	648.08
63.7138	654.60
63.7283	643.83
63.7427	671.46
63.7572	698.46
63.7716	720.41
63.7861	718.80
63.8005	689.80
63.8149	741.96
63.8294	741.18
63.8438	710.26
63.8583	737.56
63.8727	772.93
63.8871	786.13
63.9016	827.40
63.9160	779.49
63.9305	768.68
63.9449	819.78
63.9593	770.08
63.9738	743.15
63.9882	819.01
64.0027	772.79
64.0171	766.40
64.0315	777.96
64.0460	784.52
64.0604	779.29
64.0749	787.23
64.0893	763.48
64.1037	773.87
64.1182	778.33
64.1326	719.26
64.1471	675.18
64.1615	704.36
64.1759	713.06
64.1904	678.25
64.2048	683.40
64.2193	683.43
64.2337	668.05
64.2481	665.98
64.2626	633.22
64.2770	660.82
64.2915	634.75
64.3059	606.96
64.3203	611.58
64.3348	646.67
64.3492	635.32
64.3637	650.91
64.3781	644.20
64.3925	612.15
64.4070	622.76
64.4214	640.06
64.4359	607.39
64.4503	599.79
64.4647	650.55
64.4792	638.24
64.4936	624.11
64.5081	626.78
64.5225	613.76
64.5369	661.50
64.5514	656.26
64.5658	613.33
64.5803	642.32
64.5947	649.54
64.6091	639.79
64.6236	648.96
64.6380	685.61
64.6525	716.92
64.6669	670.32
64.6813	635.74
64.6958	677.59
64.7102	668.51
64.7247	698.04
64.7391	688.27
64.7535	721.04
64.7680	722.21
64.7824	710.45
64.7969	727.34
64.8113	760.92
64.8257	793.19
64.8402	791.95
64.8546	761.60
64.8691	840.85
64.8835	790.07
64.8979	837.90
64.9124	881.88
64.9268	873.12
64.9413	910.34
64.9557	884.02
64.9701	981.41
64.9846	1018.01
64.9990	1142.59
65.0135	1233.83
65.0279	1410.12
65.0423	1638.63
65.0568	1992.07
65.0712	2460.39
65.0857	3199.92
65.1001	4264.11
65.1145	5612.78
65.1290	7403.21
65.1434	9011.14
65.1579	10708.00
65.1723	11721.83
65.1867	11283.64
65.2012	10174.82
65.2156	8629.20
65.2301	6809.09
65.2445	5383.96
65.2589	4510.89
65.2734	4146.06
65.2878	4272.19
65.3023	4896.87
65.3167	5381.28
65.3311	6302.23
65.3456	6862.70
65.3600	6788.14
65.3745	6433.92
65.3889	5581.76
65.4033	4562.22
65.4178	3555.50
65.4322	2835.19
65.4467	2079.04
65.4611	1715.09
65.4755	1479.21
65.4900	1312.52
65.5044	1159.86
65.5189	1084.54
65.5333	1028.20
65.5477	903.38
65.5622	862.58
65.5766	834.42
65.5911	830.43
65.6055	805.32
65.6199	761.07
65.6344	758.54
65.6488	722.05
65.6633	711.44
65.6777	705.41
65.6921	740.90
65.7066	766.28
65.7210	738.77
65.7355	687.05
65.7499	697.26
65.7643	682.58
65.7788	672.92
65.7932	674.92
65.8077	746.94
65.8221	666.50
65.8365	666.39
65.8510	635.41
65.8654	660.16
65.8799	651.82
65.8943	662.73
65.9087	642.39
65.9232	637.99
65.9376	670.87
65.9521	628.45
65.9665	610.90
65.9809	634.13
65.9954	638.53
66.0098	627.77
66.0243	646.36
66.0387	648.23
66.0531	595.73
66.0676	605.02
66.0820	587.37
66.0965	634.45
66.1109	650.79
66.1253	673.72
66.1398	585.16
66.1542	606.67
66.1687	628.30
66.1831	596.96
66.1975	595.31
66.2120	616.96
66.2264	634.72
66.2409	601.33
66.2553	631.48
66.2697	619.91
66.2842	626.31
66.2986	643.24
66.3131	647.23
66.3275	605.88
66.3419	576.21
66.3564	587.78
66.3708	579.71
66.3853	592.88
66.3997	586.01
66.4141	566.17
66.4286	613.55
66.4430	608.90
66.4575	573.45
66.4719	634.12
66.4863	600.43
66.5008	617.96
66.5152	594.29
66.5297	564.17
66.5441	584.22
66.5585	602.11
66.5730	577.12
66.5874	583.40
66.6019	596.84
66.6163	561.70
66.6307	573.86
66.6452	616.82
66.6596	569.54
66.6741	562.96
66.6885	573.37
66.7029	579.32
66.7174	557.50
66.7318	550.90
66.7463	569.68
66.7607	604.53
66.7751	583.22
66.7896	566.51
66.8040	598.35
66.8185	593.29
66.8329	581.52
66.8473	577.87
66.8618	567.89
66.8762	572.47
66.8907	589.54
66.9051	589.90
66.9195	542.51
66.9340	562.97
66.9484	562.94
66.9629	568.82
66.9773	553.35
66.9917	533.32
67.0062	569.55
67.0206	606.76
67.0351	606.62
67.0495	568.61
67.0639	567.59
67.0784	564.25
67.0928	594.76
67.1073	578.53
67.1217	585.66
67.1361	608.56
67.1506	544.64
67.1650	613.12
67.1795	616.90
67.1939	589.29
67.2083	554.36
67.2228	590.18
67.2372	588.35
67.2517	547.04
67.2661	567.14
67.2805	602.22
67.2950	593.69
67.3094	600.01
67.3239	578.84
67.3383	601.65
67.3527	604.98
67.3672	576.30
67.3816	559.93
67.3961	571.28
67.4105	586.44
67.4250	558.32
67.4394	589.16
67.4538	614.76
67.4683	590.89
67.4827	583.62
67.4972	552.54
67.5116	532.33
67.5260	551.62
67.5405	580.04
67.5549	588.29
67.5694	601.57
67.5838	560.85
67.5982	572.70
67.6127	585.40
67.6271	561.35
67.6416	594.39
67.6560	585.62
67.6704	597.65
67.6849	604.64
67.6993	568.40
67.7138	564.00
67.7282	556.10
67.7426	548.91
67.7571	537.23
67.7715	557.04
67.7860	601.09
67.8004	572.04
67.8148	561.67
67.8293	613.28
67.8437	576.79
67.8582	549.58
67.8726	571.35
67.8870	568.40
67.9015	592.25
67.9159	569.06
67.9304	583.37
67.9448	611.45
67.9592	604.63
67.9737	553.82
67.9881	564.44
68.0026	557.68
68.0170	571.34
68.0314	579.56
68.0459	573.30
68.0603	553.21
68.0748	615.68
68.0892	575.00
68.1036	559.24
68.1181	598.78
68.1325	538.70
68.1470	522.02
68.1614	580.75
68.1758	554.96
68.1903	531.29
68.2047	567.62
68.2192	602.44
68.2336	555.81
68.2480	541.68
68.2625	568.85
68.2769	579.14
68.2914	604.97
68.3058	582.90
68.3202	594.07
68.3347	553.98
68.3491	559.80
68.3636	545.51
68.3780	561.14
68.3924	559.61
68.4069	590.70
68.4213	583.69
68.4358	594.72
68.4502	553.96
68.4646	563.83
68.4791	590.34
68.4935	555.07
68.5080	582.80
68.5224	541.88
68.5368	562.16
68.5513	597.00
68.5657	548.79
68.5802	554.58
68.5946	565.28
68.6090	561.51
68.6235	588.47
68.6379	634.40
68.6524	570.71
68.6668	544.11
68.6812	614.16
68.6957	601.00
68.7101	568.32
68.7246	542.64
68.7390	526.09
68.7534	571.03
68.7679	607.81
68.7823	576.61
68.7968	595.99
68.8112	555.73
68.8256	562.60
68.8401	548.46
68.8545	563.59
68.8690	587.95
68.8834	594.51
68.8978	593.82
68.9123	604.29
68.9267	609.36
68.9412	600.76
68.9556	519.74
68.9700	564.96
68.9845	534.75
68.9989	616.20
69.0134	593.78
69.0278	611.69
69.0422	578.81
69.0567	532.38
69.0711	591.74
69.0856	587.17
69.1000	554.45
69.1144	567.45
69.1289	565.89
69.1433	568.77
69.1578	604.11
69.1722	603.38
69.1866	589.57
69.2011	576.49
69.2155	572.25
69.2300	600.81
69.2444	592.12
69.2588	613.72
69.2733	601.07
69.2877	569.59
69.3022	580.18
69.3166	523.90
69.3310	553.73
69.3455	580.28
69.3599	569.74
69.3744	571.03
69.3888	565.31
69.4032	555.95
69.4177	608.20
69.4321	619.23
69.4466	600.24
69.4610	589.88
69.4754	612.02
69.4899	600.73
69.5043	564.16
69.5188	536.17
69.5332	580.15
69.5476	556.36
69.5621	588.59
69.5765	519.78
69.5910	557.90
69.6054	608.67
69.6198	563.86
69.6343	617.59
69.6487	596.36
69.6632	554.40
69.6776	555.73
69.6920	567.30
69.7065	588.87
69.7209	534.44
69.7354	555.63
69.7498	627.63
69.7642	583.57
69.7787	570.54
69.7931	572.60
69.8076	575.57
69.8220	560.91
69.8364	591.73
69.8509	569.33
69.8653	576.94
69.8798	529.99
69.8942	577.26
69.9086	621.12
69.9231	647.51
69.9375	635.03
69.9520	572.66
69.9664	511.91
69.9808	615.13
69.9953	599.73
70.0097	510.83
70.0242	561.23
70.0386	580.72
70.0530	541.85
70.0675	558.71
70.0819	581.13
70.0964	611.96
70.1108	535.71
70.1252	555.59
70.1397	540.43
70.1541	586.01
70.1686	609.43
70.1830	554.78
70.1974	566.20
70.2119	583.32
70.2263	577.34
70.2408	566.17
70.2552	619.02
70.2696	589.23
70.2841	594.86
70.2985	606.60
70.3130	562.75
70.3274	555.33
70.3418	593.61
70.3563	580.24
70.3707	565.84
70.3852	577.76
70.3996	532.21
70.4140	551.87
70.4285	572.11
70.4429	563.09
70.4574	562.97
70.4718	606.72
70.4862	659.83
70.5007	595.56
70.5151	563.62
70.5296	561.19
70.5440	606.70
70.5584	585.36
70.5729	532.96
70.5873	563.88
70.6018	549.15
70.6162	540.89
70.6306	588.08
70.6451	603.32
70.6595	572.42
70.6740	606.67
70.6884	576.23
70.7028	583.91
70.7173	593.43
70.7317	592.43
70.7462	573.19
70.7606	617.90
70.7750	605.64
70.7895	573.80
70.8039	585.09
70.8184	591.07
70.8328	556.47
70.8472	606.57
70.8617	592.75
70.8761	541.69
70.8906	514.86
70.9050	572.45
70.9194	556.24
70.9339	590.45
70.9483	584.77
70.9628	526.48
70.9772	512.02
70.9916	572.16
71.0061	529.63
71.0205	561.17
71.0350	642.53
71.0494	634.00
71.0638	614.13
71.0783	556.88
71.0927	574.35
71.1072	584.25
71.1216	594.65
71.1361	597.98
71.1505	649.33
71.1649	652.95
71.1794	573.70
71.1938	500.42
71.2083	534.61
71.2227	524.59
71.2371	523.87
71.2516	531.06
71.2660	518.82
71.2805	551.68
71.2949	628.19
71.3093	620.80
71.3238	593.45
71.3382	626.29
71.3527	566.74
71.3671	548.97
71.3815	572.56
71.3960	563.72
71.4104	526.95
71.4249	515.28
71.4393	544.23
71.4537	564.58
71.4682	544.04
71.4826	552.47
71.4971	561.42
71.5115	586.02
71.5259	603.96
71.5404	518.31
71.5548	556.81
71.5693	567.43
71.5837	589.95
71.5981	594.06
71.6126	536.00
71.6270	505.98
71.6415	536.00
71.6559	569.10
71.6703	581.32
71.6848	606.76
71.6992	622.48
71.7137	587.88
71.7281	566.30
71.7425	599.08
71.7570	604.13
71.7714	588.55
71.7859	576.41
71.8003	544.44
71.8147	579.37
71.8292	585.18
71.8436	592.46
71.8581	548.92
71.8725	579.19
71.8869	574.24
71.9014	582.18
71.9158	621.10
71.9303	601.14
71.9447	580.07
71.9591	586.59
71.9736	606.42
71.9880	578.20
72.0025	518.42
72.0169	574.22
72.0313	577.72
72.0458	516.73
72.0602	535.56
72.0747	583.82
72.0891	602.49
72.1035	586.36
72.1180	604.74
72.1324	598.10
72.1469	624.69
72.1613	588.96
72.1757	563.51
72.1902	611.79
72.2046	544.44
72.2191	531.47
72.2335	485.01
72.2479	495.47
72.2624	560.10
72.2768	563.34
72.2913	491.81
72.3057	500.09
72.3201	542.96
72.3346	584.26
72.3490	633.62
72.3635	600.85
72.3779	551.78
72.3923	520.68
72.4068	535.68
72.4212	619.56
72.4357	645.94
72.4501	598.90
72.4645	612.67
72.4790	596.71
72.4934	539.13
72.5079	566.35
72.5223	525.88
72.5367	548.68
72.5512	577.82
72.5656	603.66
72.5801	595.95
72.5945	593.24
72.6089	609.06
72.6234	657.76
72.6378	630.09
72.6523	595.59
72.6667	610.12
72.6811	670.70
72.6956	632.98
72.7100	520.47
72.7245	531.23
72.7389	650.22
72.7533	635.28
72.7678	582.30
72.7822	625.97
72.7967	605.39
72.8111	585.08
72.8255	621.74
72.8400	587.88
72.8544	562.90
72.8689	516.53
72.8833	502.18

Result vector
22.1120	534.68
22.1264	480.23
22.1409	541.41
22.1553	534.75
22.1697	601.15
22.1842	603.48
22.1986	565.15
22.2131	507.61
22.2275	540.98
22.2419	614.96
22.2564	605.78
22.2708	608.41
22.2853	551.69
22.2997	540.99
22.3141	563.99
22.3286	573.16
22.3430	567.47
22.3575	588.07
22.3719	559.83
22.3863	642.57
22.4008	632.21
22.4152	627.63
22.4297	649.08
22.4441	598.48
22.4585	570.48
22.4730	618.04
22.4874	620.31
22.5019	617.76
22.5163	538.25
22.5307	549.87
22.5452	533.16
22.5596	619.73
22.5741	677.63
22.5885	617.75
22.6029	599.92
22.6174	589.35
22.6318	509.39
22.6463	557.44
22.6607	591.02
22.6751	546.61
22.6896	641.89
22.7040	562.68
22.7185	505.02
22.7329	528.88
22.7473	513.32
22.7618	502.78
22.7762	483.71
22.7907	562.40
22.8051	586.47
22.8195	554.69
22.8340	513.29
22.8484	565.65
22.8629	679.78
22.8773	564.80
22.8917	474.48
22.9062	496.02
22.9206	520.34
22.9351	626.89
22.9495	579.71
22.9639	517.19
22.9784	601.02
22.9928	592.35
23.0073	579.73
23.0217	532.21
23.0361	521.38
23.0506	556.88
23.0650	543.78
23.0795	613.12
23.0939	585.75
23.1083	583.74
23.1228	509.76
23.1372	609.91
23.1517	564.81
23.1661	550.12
23.1806	524.70
23.1950	508.82
23.2094	517.04
23.2239	570.61
23.2383	584.80
23.2528	562.15
23.2672	541.28
23.2816	629.02
23.2961	528.30
23.3105	555.66
23.3250	552.41
23.3394	584.35
23.3538	610.28
23.3683	541.46
23.3827	539.72
23.3972	555.14
23.4116	562.67
23.4260	569.24
23.4405	487.99
23.4549	551.03
23.4694	511.28
23.4838	493.94
23.4982	527.74
23.5127	538.69
23.5271	494.58
23.5416	578.04
23.5560	572.33
23.5704	574.83
23.5849	522.30
23.5993	596.98
23.6138	519.54
23.6282	467.22
23.6426	502.26
23.6571	519.06
23.6715	585.76
23.6860	573.38
23.7004	578.22
23.7148	536.58
23.7293	525.51
23.7437	518.05
23.7582	555.34
23.7726	549.10
23.7870	518.04
23.8015	510.96
23.8159	557.33
23.8304	558.29
23.8448	503.25
23.8592	488.32
23.8737	553.54
23.8881	627.77
23.9026	584.81
23.9170	506.91
23.9314	583.68
23.9459	656.45
23.9603	507.30
23.9748	580.69
23.9892	530.58
24.0036	520.02
24.0181	551.21
24.0325	489.26
24.0470	554.19
24.0614	512.64
24.0758	555.17
24.0903	598.15
24.1047	535.44
24.1192	606.25
24.1336	604.07
24.1480	569.08
24.1625	568.01
24.1769	523.86
24.1914	529.78
24.2058	535.60
24.2202	549.06
24.2347	578.71
24.2491	612.37
24.2636	634.48
24.2780	523.54
24.2924	568.89
24.3069	623.12
24.3213	630.81
24.3358	594.28
24.3502	571.85
24.3646	521.70
24.3791	482.47
24.3935	498.36
24.4080	561.82
24.4224	565.43
24.4368	594.71
24.4513	513.05
24.4657	516.53
24.4802	513.77
24.4946	527.86
24.5090	558.45
24.5235	557.40
24.5379	539.05
24.5524	574.71
24.5668	551.50
24.5812	569.15
24.5957	614.62
24.6101	563.36
24.6246	556.57
24.6390	593.83
24.6534	538.83
24.6679	561.75
24.6823	513.76
24.6968	572.23
24.7112	590.80
24.7256	507.23
24.7401	490.51
24.7545	506.07
24.7690	546.91
24.7834	515.01
24.7978	535.29
24.8123	494.37
24.8267	545.22
24.8412	615.09
24.8556	565.34
24.8700	591.96
24.8845	576.86
24.8989	541.55
24.9134	573.35
24.9278	558.67
24.9422	517.76
24.9567	550.50
24.9711	498.66
24.9856	530.97
25.0000	498.10
25.0144	541.02
25.0289	533.08
25.0433	563.47
25.0578	544.33
25.0722	581.38
25.0866	535.21
25.1011	557.23
25.1155	562.53
25.1300	498.36
25.1444	481.57
25.1588	498.97
25.1733	533.55
25.1877	512.86
25.2022	530.01
25.2166	560.94
25.2310	543.06
25.2455	495.61
25.2599	504.12
25.2744	570.98
25.2888	550.74
25.3032	518.69
25.3177	502.91
25.3321	534.66
25.3466	544.99
25.3610	534.14
25.3754	515.88
25.3899	493.48
25.4043	547.42
25.4188	510.89
25.4332	553.29
25.4476	548.87
25.4621	533.53
25.4765	545.97
25.4910	535.04
25.5054	517.62
25.5198	549.53
25.5343	549.37
25.5487	544.02
25.5632	568.74
25.5776	584.45
25.5920	534.75
25.6065	563.28
25.6209	507.69
25.6354	566.21
25.6498	530.00
25.6642	534.38
25.6787	539.14
25.6931	522.91
25.7076	548.09
25.7220	534.58
25.7364	553.54
25.7509	555.46
25.7653	519.51
25.7798	563.28
25.7942	503.75
25.8086	511.54
25.8231	539.49
25.8375	532.96
25.8520	563.35
25.8664	533.92
25.8808	542.53
25.8953	515.40
25.9097	543.58
25.9242	532.44
25.9386	549.89
25.9530	536.26
25.9675	548.00
25.9819	586.00
25.9964	540.43
26.0108	537.70
26.0252	545.65
26.0397	526.18
26.0541	550.83
26.0686	500.50
26.0830	547.27
26.0974	538.80
26.1119	533.61
26.1263	541.01
26.1408	492.44
26.1552	483.72
26.1696	527.13
26.1841	505.12
26.1985	501.30
26.2130	530.03
26.2274	499.07
26.2418	534.11
26.2563	553.65
26.2707	500.37
26.2852	529.06
26.2996	528.16
26.3140	553.05
26.3285	514.09
26.3429	540.62
26.3574	565.92
26.3718	557.00
26.3862	523.98
26.4007	506.86
26.4151	514.50
26.4296	518.45
26.4440	521.68
26.4584	526.78
26.4729	540.42
26.4873	515.63
26.5018	533.75
26.5162	549.23
26.5306	518.09
26.5451	530.24
26.5595	544.05
26.5740	539.97
26.5884	543.22
26.6028	579.69
26.6173	543.79
26.6317	531.55
26.6462	513.47
26.6606	541.61
26.6750	541.60
26.6895	490.71
26.7039	544.02
26.7184	549.46
26.7328	508.85
26.7472	519.92
26.7617	504.57
26.7761	505.03
26.7906	523.89
26.8050	516.73
26.8194	487.51
26.8339	521.02
26.8483	555.69
26.8628	568.43
26.8772	541.46
26.8917	526.80
26.9061	578.39
26.9205	520.36
26.9350	505.09
26.9494	519.56
26.9639	533.43
26.9783	513.53
26.9927	528.98
27.0072	550.61
27.0216	541.80
27.0361	524.35
27.0505	519.55
27.0649	528.91
27.0794	508.07
27.0938	522.21
27.1083	514.28
27.1227	514.01
27.1371	531.11
27.1516	478.39
27.1660	519.78
27.1805	545.00
27.1949	536.07
27.2093	510.47
27.2238	531.15
27.2382	515.27
27.2527	519.45
27.2671	533.31
27.2815	544.13
27.2960	537.40
27.3104	517.05
27.3249	535.12
27.3393	505.37
27.3537	492.78
27.3682	516.20
27.3826	498.88
27.3971	527.68
27.4115	526.24
27.4259	501.50
27.4404	517.69
27.4548	500.05
27.4693	525.31
27.4837	550.42
27.4981	524.76
27.5126	511.39
27.5270	518.17
27.5415	544.22
27.5559	526.60
27.5703	503.21
27.5848	504.32
27.5992	495.59
27.6137	527.71
27.6281	523.15
27.6425	504.52
27.6570	521.75
27.6714	541.38
27.6859	526.00
27.7003	543.72
27.7147	536.19
27.7292	514.40
27.7436	531.34
27.7581	522.53
27.7725	494.94
27.7869	508.67
27.8014	523.62
27.8158	493.90
27.8303	523.76
27.8447	497.45
27.8591	515.90
27.8736	547.80
27.8880	519.69
27.9025	531.60
27.9169	539.18
27.9313	516.88
27.9458	516.82
27.9602	467.71
27.9747	520.01
27.9891	533.47
28.0035	507.95
28.0180	525.14
28.0324	527.04
28.0469	498.40
28.0613	486.61
28.0757	548.91
28.0902	567.55
28.1046	551.94
28.1191	500.52
28.1335	538.04
28.1479	474.74
28.1624	495.65
28.1768	497.09
28.1913	527.96
28.2057	512.51
28.2201	517.89
28.2346	534.38
28.2490	503.58
28.2635	516.65
28.2779	507.01
28.2923	497.87
28.3068	504.51
28.3212	470.95
28.3357	543.40
28.3501	508.01
28.3645	488.11
28.3790	495.76
28.3934	495.29
28.4079	554.67
28.4223	554.95
28.4367	532.02
28.4512	498.64
28.4656	491.13
28.4801	513.45
28.4945	545.39
28.5089	496.85
28.5234	517.41
28.5378	544.53
28.5523	541.66
28.5667	507.33
28.5811	510.58
28.5956	493.68
28.6100	503.73
28.6245	495.12
28.6389	516.18
28.6533	511.48
28.6678	500.68
28.6822	517.02
28.6967	486.42
28.7111	515.22
28.7255	531.10
28.7400	471.89
28.7544	511.84
28.7689	510.67
28.7833	530.44
28.7977	514.68
28.8122	501.19
28.8266	505.35
28.8411	517.78
28.8555	490.71
28.8699	493.58
28.8844	505.22
28.8988	501.56
28.9133	483.49
28.9277	497.29
28.9421	536.40
28.9566	478.86
28.9710	516.40
28.9855	492.86
28.9999	497.68
29.0143	508.77
29.0288	521.13
29.0432	541.75
29.0577	527.22
29.0721	499.17
29.0865	507.13
29.1010	497.64
29.1154	531.55
29.1299	538.44
29.1443	484.89
29.1587	496.86
29.1732	502.49
29.1876	518.57
29.2021	503.78
29.2165	495.74
29.2309	481.49
29.2454	504.71
29.2598	528.85
29.2743	518.74
29.2887	487.15
29.3031	516.52
29.3176	528.00
29.3320	526.73
29.3465	502.35
29.3609	497.39
29.3753	454.90
29.3898	494.89
29.4042	519.09
29.4187	530.21
29.4331	518.48
29.4475	460.03
29.4620	484.89
29.4764	487.33
29.4909	503.72
29.5053	492.27
29.5197	511.61
29.5342	521.80
29.5486	504.21
29.5631	502.12
29.5775	505.51
29.5919	488.12
29.6064	506.43
29.6208	526.23
29.6353	507.59
29.6497	479.52
29.6641	516.33
29.6786	512.52
29.6930	477.33
29.7075	522.36
29.7219	514.08
29.7363	528.95
29.7508	507.54
29.7652	490.62
29.7797	498.58
29.7941	504.10
29.8085	519.30
29.8230	499.64
29.8374	508.40
29.8519	505.91
29.8663	518.95
29.8807	508.85
29.8952	500.97
29.9096	527.09
29.9241	520.41
29.9385	536.25
29.9529	522.81
29.9674	497.21
29.9818	506.92
29.9963	498.40
30.0107	506.29
30.0251	507.79
30.0396	556.25
30.0540	515.64
30.0685	483.78
30.0829	491.77
30.0973	502.95
30.1118	491.01
30.1262	497.69
30.1407	512.09
30.1551	503.21
30.1695	521.48
30.1840	514.62
30.1984	510.89
30.2129	519.10
30.2273	527.57
30.2417	519.89
30.2562	484.10
30.2706	480.49
30.2851	511.75
30.2995	505.69
30.3139	530.14
30.3284	508.04
30.3428	511.85
30.3573	499.70
30.3717	498.85
30.3861	507.05
30.4006	517.61
30.4150	532.31
30.4295	523.70
30.4439	525.77
30.4583	520.41
30.4728	544.58
30.4872	522.19
30.5017	528.84
30.5161	541.14
30.5305	529.21
30.5450	528.69
30.5594	543.17
30.5739	538.71
30.5883	552.63
30.6028	603.78
30.6172	563.17
30.6316	584.29
30.6461	592.04
30.6605	606.01
30.6750	661.93
30.6894	695.71
30.7038	685.39
30.7183	699.81
30.7327	683.87
30.7472	672.42
30.7616	672.22
30.7760	712.45
30.7905	688.53
30.8049	650.97
30.8194	660.28
30.8338	627.82
30.8482	572.42
30.8627	583.75
30.8771	575.68
30.8916	552.48
30.9060	556.34
30.9204	573.28
30.9349	563.00
30.9493	544.54
30.9638	510.29
30.9782	488.92
30.9926	509.33
31.0071	519.04
31.0215	522.72
31.0360	513.40
31.0504	514.85
31.0648	510.55
31.0793	511.85
31.0937	530.95
31.1082	507.21
31.1226	529.62
31.1370	538.48
31.1515	500.70
31.1659	510.25
31.1804	497.08
31.1948	483.85
31.2092	488.15
31.2237	484.63
31.2381	535.47
31.2526	513.37
31.2670	522.32
31.2814	518.48
31.2959	529.91
31.3103	505.55
31.3248	520.05
31.3392	527.06
31.3536	529.80
31.3681	505.79
31.3825	517.72
31.3970	503.51
31.4114	513.16
31.4258	538.25
31.4403	531.77
31.4547	491.00
31.4692	532.43
31.4836	519.09
31.4980	532.66
31.5125	507.54
31.5269	512.45
31.5414	509.42
31.5558	492.81
31.5702	477.88
31.5847	499.08
31.5991	513.23
31.6136	496.18
31.6280	484.12
31.6424	519.80
31.6569	524.08
31.6713	513.43
31.6858	480.97
31.7002	478.21
31.7146	497.79
31.7291	491.38
31.7435	512.77
31.7580	509.74
31.7724	479.55
31.7868	517.64
31.8013	514.46
31.8157	537.41
31.8302	521.26
31.8446	499.04
31.8590	525.83
31.8735	505.44
31.8879	536.52
31.9024	524.14
31.9168	477.59
31.9312	506.09
31.9457	508.94
31.9601	486.98
31.9746	517.42
31.9890	473.37
32.0034	509.08
32.0179	505.38
32.0323	516.74
32.0468	503.54
32.0612	518.60
32.0756	492.47
32.0901	503.64
32.1045	507.58
32.1190	506.94
32.1334	494.94
32.1478	468.44
32.1623	515.30
32.1767	521.95
32.1912	516.75
32.2056	516.78
32.2200	512.02
32.2345	500.41
32.2489	480.13
32.2634	504.46
32.2778	508.73
32.2922	483.96
32.3067	513.20
32.3211	488.18
32.3356	529.25
32.3500	499.65
32.3644	475.40
32.3789	494.56
32.3933	498.18
32.4078	507.26
32.4222	490.45
32.4366	510.15
32.4511	508.81
32.4655	501.43
32.4800	518.47
32.4944	539.22
32.5088	500.01
32.5233	519.83
32.5377	518.36
32.5522	519.31
32.5666	495.20
32.5810	489.71
32.5955	492.04
32.6099	528.95
32.6244	504.77
32.6388	509.31
32.6532	513.07
32.6677	522.22
32.6821	510.42
32.6966	513.14
32.7110	544.11
32.7254	488.05
32.7399	520.25
32.7543	528.49
32.7688	473.25
32.7832	493.35
32.7976	493.26
32.8121	528.33
32.8265	462.91
32.8410	515.06
32.8554	521.27
32.8698	515.52
32.8843	498.80
32.8987	514.92
32.9132	524.81
32.9276	541.44
32.9420	537.37
32.9565	506.76
32.9709	537.66
32.9854	521.21
32.9998	498.79
33.0142	493.13
33.0287	531.64
33.0431	511.56
33.0576	503.55
33.0720	532.62
33.0864	550.71
33.1009	516.44
33.1153	516.69
33.1298	532.04
33.1442	513.70
33.1586	480.39
33.1731	501.71
33.1875	493.50
33.2020	520.16
33.2164	475.20
33.2308	467.71
33.2453	522.20
33.2597	491.08
33.2742	461.73
33.2886	499.56
33.3030	517.53
33.3175	523.35
33.3319	503.52
33.3464	525.54
33.3608	535.26
33.3752	473.90
33.3897	451.51
33.4041	453.62
33.4186	501.39
33.4330	520.76
33.4474	487.62
33.4619	522.67
33.4763	518.52
33.4908	499.44
33.5052	489.53
33.5196	505.18
33.5341	501.76
33.5485	497.75
33.5630	525.75
33.5774	496.25
33.5918	509.34
33.6063	493.58
33.6207	495.29
33.6352	517.48
33.6496	518.12
33.6640	484.69
33.6785	480.75
33.6929	497.94
33.7074	521.79
33.7218	503.26
33.7362	475.78
33.7507	486.76
33.7651	506.53
33.7796	510.70
33.7940	468.24
33.8084	489.68
33.8229	502.54
33.8373	522.32
33.8518	504.08
33.8662	520.75
33.8806	475.73
33.8951	485.96
33.9095	519.39
33.9240	501.64
33.9384	533.61
33.9528	505.10
33.9673	505.46
33.9817	526.82
33.9962	528.92
34.0106	536.60
34.0250	511.59
34.0395	533.90
34.0539	512.11
34.0684	467.63
34.0828	469.33
34.0972	506.48
34.1117	520.11
34.1261	523.23
34.1406	504.86
34.1550	476.17
34.1694	524.68
34.1839	515.07
34.1983	486.89
34.2128	485.05
34.2272	503.37
34.2417	525.16
34.2561	501.74
34.2705	494.90
34.2850	515.09
34.2994	504.74
34.3139	510.16
34.3283	538.01
34.3427	497.00
34.3572	505.10
34.3716	494.21
34.3861	494.72
34.4005	491.53
34.4149	503.45
34.4294	525.80
34.4438	503.54
34.4583	479.80
34.4727	506.21
34.4871	518.49
34.5016	491.20
34.5160	495.84
34.5305	497.49
34.5449	495.63
34.5593	488.37
34.5738	520.38
34.5882	488.05
34.6027	494.47
34.6171	502.76
34.6315	494.42
34.6460	493.25
34.6604	494.23
34.6749	490.27
34.6893	485.99
34.7037	508.04
34.7182	502.39
34.7326	514.35
34.7471	530.64
34.7615	485.56
34.7759	527.62
34.7904	525.92
34.8048	531.59
34.8193	517.15
34.8337	500.87
34.8481	495.27
34.8626	520.68
34.8770	485.96
34.8915	530.50
34.9059	511.63
34.9203	506.37
34.9348	509.80
34.9492	511.82
34.9637	504.70
34.9781	493.65
34.9925	530.55
35.0070	488.83
35.0214	527.61
35.0359	538.99
35.0503	503.55
35.0647	489.52
35.0792	522.95
35.0936	562.15
35.1081	511.34
35.1225	508.22
35.1369	497.56
35.1514	471.92
35.1658	509.92
35.1803	503.06
35.1947	507.79
35.2091	513.11
35.2236	488.26
35.2380	517.67
35.2525	512.45
35.2669	510.65
35.2813	529.74
35.2958	527.78
35.3102	517.48
35.3247	517.83
35.3391	488.24
35.3535	497.73
35.3680	511.85
35.3824	476.29
35.3969	466.41
35.4113	519.78
35.4257	524.41
35.4402	526.58
35.4546	506.44
35.4691	533.95
35.4835	517.99
35.4979	521.85
35.5124	508.30
35.5268	527.64
35.5413	539.50
35.5557	545.40
35.5701	503.25
35.5846	497.93
35.5990	484.36
35.6135	507.02
35.6279	528.63
35.6423	516.88
35.6568	510.94
35.6712	518.14
35.6857	561.39
35.7001	635.23
35.7145	762.34
35.7290	700.68
35.7434	616.40
35.7579	606.84
35.7723	612.58
35.7867	670.35
35.8012	691.19
35.8156	690.82
35.8301	645.21
35.8445	627.80
35.8589	636.54
35.8734	716.57
35.8878	832.74
35.9023	988.62
35.9167	1037.74
35.9311	1160.66
35.9456	1735.11
35.9600	2156.37
35.9745	1926.46
35.9889	2004.76
36.0033	2460.60
36.0178	3256.01
36.0322	2978.44
36.0467	2040.26
36.0611	1734.08
36.0755	1718.25
36.0900	1739.64
36.1044	1617.08
36.1189	1541.97
36.1333	1480.93
36.1477	1254.93
36.1622	1272.84
36.1766	1290.74
36.1911	1200.75
36.2055	1169.89
36.2199	1123.49
36.2344	1076.70
36.2488	1000.66
36.2633	883.09
36.2777	857.43
36.2921	821.30
36.3066	783.01
36.3210	767.55
36.3355	704.94
36.3499	677.50
36.3643	654.24
36.3788	639.12
36.3932	600.01
36.4077	615.03
36.4221	582.24
36.4365	588.20
36.4510	571.41
36.4654	590.71
36.4799	584.87
36.4943	571.32
36.5087	555.75
36.5232	560.83
36.5376	535.27
36.5521	527.54
36.5665	547.96
36.5809	555.80
36.5954	548.43
36.6098	532.22
36.6243	558.21
36.6387	547.35
36.6531	554.67
36.6676	513.14
36.6820	526.00
36.6965	529.33
36.7109	552.91
36.7253	532.31
36.7398	511.90
36.7542	533.20
36.7687	514.81
36.7831	573.99
36.7975	565.44
36.8120	520.42
36.8264	621.69
36.8409	588.96
36.8553	563.33
36.8697	582.90
36.8842	568.89
36.8986	576.70
36.9131	565.53
36.9275	565.08
36.9419	559.63
36.9564	554.87
36.9708	539.81
36.9853	506.36
36.9997	532.47
37.0141	562.88
37.0286	551.00
37.0430	483.34
37.0575	548.40
37.0719	527.72
37.0863	568.46
37.1008	498.70
37.1152	525.18
37.1297	518.50
37.1441	475.28
37.1585	526.19
37.1730	493.71
37.1874	483.05
37.2019	513.57
37.2163	511.67
37.2307	497.47
37.2452	485.48
37.2596	489.70
37.2741	513.74
37.2885	517.87
37.3029	488.19
37.3174	497.29
37.3318	505.97
37.3463	536.61
37.3607	489.05
37.3751	495.45
37.3896	514.33
37.4040	494.32
37.4185	485.89
37.4329	522.64
37.4473	508.48
37.4618	484.78
37.4762	516.60
37.4907	493.58
37.5051	501.77
37.5195	501.76
37.5340	515.39
37.5484	490.07
37.5629	499.20
37.5773	511.99
37.5917	522.43
37.6062	493.26
37.6206	495.91
37.6351	510.27
37.6495	503.90
37.6639	499.22
37.6784	496.22
37.6928	499.17
37.7073	518.84
37.7217	491.94
37.7361	500.97
37.7506	504.75
37.7650	516.90
37.7795	502.16
37.7939	508.99
37.8083	503.94
37.8228	512.46
37.8372	505.87
37.8517	465.01
37.8661	485.32
37.8805	483.86
37.8950	482.88
37.9094	500.38
37.9239	507.60
37.9383	505.10
37.9528	511.96
37.9672	498.20
37.9816	487.30
37.9961	522.63
38.0105	484.68
38.0250	530.00
38.0394	534.00
38.0538	508.86
38.0683	513.61
38.0827	520.75
38.0972	563.29
38.1116	489.27
38.1260	523.03
38.1405	504.54
38.1549	507.56
38.1694	521.96
38.1838	512.59
38.1982	508.72
38.2127	518.36
38.2271	509.91
38.2416	494.25
38.2560	493.65
38.2704	492.19
38.2849	505.59
38.2993	528.89
38.3138	512.71
38.3282	508.93
38.3426	514.24
38.3571	504.80
38.3715	503.83
38.3860	556.47
38.4004	549.69
38.4148	555.35
38.4293	543.19
38.4437	595.80
38.4582	625.80
38.4726	643.38
38.4870	688.47
38.5015	719.45
38.5159	744.20
38.5304	780.47
38.5448	786.56
38.5592	824.41
38.5737	746.27
38.5881	717.33
38.6026	737.16
38.6170	730.44
38.6314	724.76
38.6459	697.74
38.6603	641.32
38.6748	646.69
38.6892	574.80
38.7036	578.38
38.7181	545.85
38.7325	540.27
38.7470	537.19
38.7614	559.54
38.7758	533.45
38.7903	509.76
38.8047	519.11
38.8192	510.23
38.8336	539.86
38.8480	535.35
38.8625	505.11
38.8769	499.65
38.8914	477.26
38.9058	520.73
38.9202	519.77
38.9347	493.69
38.9491	503.40
38.9636	500.38
38.9780	500.57
38.9924	509.88
39.0069	498.71
39.0213	527.26
39.0358	523.46
39.0502	500.41
39.0646	490.51
39.0791	500.64
39.0935	499.44
39.1080	445.15
39.1224	477.24
39.1368	474.45
39.1513	478.42
39.1657	489.01
39.1802	503.97
39.1946	506.43
39.2090	500.23
39.2235	495.93
39.2379	506.42
39.2524	505.92
39.2668	514.75
39.2812	518.39
39.2957	471.37
39.3101	526.76
39.3246	512.11
39.3390	505.45
39.3534	495.65
39.3679	507.46
39.3823	507.03
39.3968	484.20
39.4112	478.83
39.4256	512.10
39.4401	522.41
39.4545	484.46
39.4690	506.73
39.4834	515.57
39.4978	524.43
39.5123	506.62
39.5267	489.01
39.5412	507.05
39.5556	506.27
39.5700	469.33
39.5845	486.70
39.5989	524.10
39.6134	487.83
39.6278	485.47
39.6422	511.64
39.6567	505.80
39.6711	528.48
39.6856	518.11
39.7000	513.05
39.7144	499.38
39.7289	476.64
39.7433	525.23
39.7578	502.20
39.7722	507.22
39.7866	508.92
39.8011	520.46
39.8155	515.40
39.8300	503.11
39.8444	495.12
39.8588	486.15
39.8733	505.67
39.8877	481.62
39.9022	487.39
39.9166	492.48
39.9310	495.51
39.9455	517.67
39.9599	506.77
39.9744	502.00
39.9888	512.76
40.0032	542.53
40.0177	494.46
40.0321	472.49
40.0466	486.70
40.0610	515.49
40.0754	462.69
40.0899	501.39
40.1043	472.18
40.1188	502.56
40.1332	486.43
40.1476	460.18
40.1621	512.30
40.1765	507.12
40.1910	529.83
40.2054	469.54
40.2198	500.59
40.2343	514.96
40.2487	496.83
40.2632	481.32
40.2776	500.52
40.2920	526.53
40.3065	551.67
40.3209	526.70
40.3354	500.11
40.3498	481.95
40.3642	490.26
40.3787	466.51
40.3931	486.01
40.4076	475.34
40.4220	467.56
40.4364	502.12
40.4509	492.90
40.4653	488.66
40.4798	485.72
40.4942	516.76
40.5086	506.12
40.5231	456.71
40.5375	489.96
40.5520	490.72
40.5664	479.89
40.5808	499.93
40.5953	504.92
40.6097	481.37
40.6242	508.34
40.6386	497.88
40.6530	472.79
40.6675	502.40
40.6819	513.93
40.6964	515.70
40.7108	531.56
40.7252	521.25
40.7397	499.30
40.7541	500.24
40.7686	507.83
40.7830	524.30
40.7974	494.88
40.8119	513.67
40.8263	547.54
40.8408	485.10
40.8552	496.90
40.8696	528.58
40.8841	488.37
40.8985	546.74
40.9130	517.30
40.9274	486.96
40.9418	466.57
40.9563	466.81
40.9707	511.25
40.9852	509.57
40.9996	514.49
41.0140	503.62
41.0285	502.45
41.0429	479.14
41.0574	524.92
41.0718	496.54
41.0862	491.72
41.1007	487.17
41.1151	490.56
41.1296	516.28
41.1440	485.23
41.1584	482.24
41.1729	483.23
41.1873	491.38
41.2018	452.02
41.2162	486.83
41.2306	491.85
41.2451	485.88
41.2595	490.88
41.2740	471.63
41.2884	510.70
41.3028	479.71
41.3173	481.46
41.3317	496.92
41.3462	492.65
41.3606	508.46
41.3750	510.23
41.3895	485.15
41.4039	470.67
41.4184	488.35
41.4328	488.95
41.4472	496.02
41.4617	490.47
41.4761	521.72
41.4906	470.65
41.5050	457.12
41.5194	512.53
41.5339	502.32
41.5483	474.57
41.5628	493.27
41.5772	479.89
41.5916	482.92
41.6061	495.42
41.6205	498.11
41.6350	497.27
41.6494	478.61
41.6639	491.62
41.6783	513.13
41.6927	524.00
41.7072	557.01
41.7216	502.37
41.7361	485.27
41.7505	489.22
41.7649	470.27
41.7794	507.62
41.7938	525.74
41.8083	489.92
41.8227	474.39
41.8371	502.31
41.8516	504.74
41.8660	545.66
41.8805	511.90
41.8949	527.35
41.9093	512.66
41.9238	491.86
41.9382	542.61
41.9527	551.51
41.9671	505.08
41.9815	573.76
41.9960	581.38
42.0104	559.68
42.0249	545.94
42.0393	576.85
42.0537	544.50
42.0682	568.88
42.0826	557.93
42.0971	552.40
42.1115	577.24
42.1259	612.53
42.1404	585.91
42.1548	609.07
42.1693	656.48
42.1837	694.72
42.1981	772.89
42.2126	843.58
42.2270	939.72
42.2415	1112.78
42.2559	1274.48
42.2703	1392.12
42.2848	1531.87
42.2992	1607.88
42.3137	1678.36
42.3281	1687.54
42.3425	1630.57
42.3570	1556.86
42.3714	1470.98
42.3859	1380.63
42.4003	1364.91
42.4147	1367.96
42.4292	1344.22
42.4436	1173.92
42.4581	1099.64
42.4725	1008.77
42.4869	862.99
42.5014	759.98
42.5158	685.95
42.5303	653.45
42.5447	630.71
42.5591	633.56
42.5736	573.72
42.5880	588.36
42.6025	575.55
42.6169	538.79
42.6313	594.47
42.6458	564.43
42.6602	514.85
42.6747	516.75
42.6891	525.34
42.7035	527.66
42.7180	534.25
42.7324	489.13
42.7469	496.79
42.7613	515.42
42.7757	538.50
42.7902	514.50
42.8046	497.36
42.8191	528.39
42.8335	539.53
42.8479	520.94
42.8624	533.70
42.8768	535.00
42.8913	491.28
42.9057	534.91
42.9201	523.07
42.9346	513.26
42.9490	503.10
42.9635	492.82
42.9779	477.22
42.9923	499.95
43.0068	503.40
43.0212	507.02
43.0357	516.75
43.0501	510.91
43.0645	551.46
43.0790	534.97
43.0934	514.32
43.1079	510.59
43.1223	541.58
43.1367	514.26
43.1512	498.83
43.1656	533.84
43.1801	514.11
43.1945	508.55
43.2089	529.03
43.2234	541.96
43.2378	539.27
43.2523	518.87
43.2667	523.03
43.2811	538.87
43.2956	503.93
43.3100	532.56
43.3245	535.60
43.3389	523.67
43.3533	531.23
43.3678	529.07
43.3822	515.90
43.3967	508.36
43.4111	505.26
43.4255	566.10
43.4400	528.11
43.4544	491.89
43.4689	532.94
43.4833	525.21
43.4977	519.19
43.5122	530.71
43.5266	553.16
43.5411	517.38
43.5555	465.06
43.5699	501.17
43.5844	504.07
43.5988	533.23
43.6133	518.67
43.6277	504.67
43.6421	505.82
43.6566	500.48
43.6710	541.67
43.6855	517.20
43.6999	517.41
43.7143	517.56
43.7288	507.38
43.7432	507.82
43.7577	545.97
43.7721	538.85
43.7865	527.50
43.8010	512.83
43.8154	542.66
43.8299	524.34
43.8443	567.69
43.8587	596.33
43.8732	555.95
43.8876	547.62
43.9021	586.89
43.9165	601.75
43.9309	566.15
43.9454	583.75
43.9598	615.03
43.9743	585.86
43.9887	629.35
44.0031	597.90
44.0176	580.31
44.0320	644.10
44.0465	657.86
44.0609	621.11
44.0753	597.40
44.0898	597.23
44.1042	556.32
44.1187	532.75
44.1331	541.55
44.1475	551.95
44.1620	571.29
44.1764	559.99
44.1909	522.75
44.2053	503.56
44.2197	543.95
44.2342	529.29
44.2486	521.48
44.2631	532.30
44.2775	505.28
44.2919	521.50
44.3064	532.01
44.3208	541.88
44.3353	514.15
44.3497	539.74
44.3641	523.88
44.3786	541.35
44.3930	534.43
44.4075	518.74
44.4219	590.21
44.4363	581.66
44.4508	588.33
44.4652	596.26
44.4797	582.53
44.4941	610.97
44.5085	594.76
44.5230	633.45
44.5374	579.91
44.5519	555.93
44.5663	566.36
44.5807	589.26
44.5952	569.80
44.6096	557.87
44.6241	583.18
44.6385	577.32
44.6529	568.61
44.6674	574.02
44.6818	579.21
44.6963	569.48
44.7107	635.55
44.7251	651.76
44.7396	729.99
44.7540	804.34
44.7685	811.61
44.7829	898.44
44.7973	857.33
44.8118	887.42
44.8262	841.79
44.8407	806.42
44.8551	770.02
44.8695	809.57
44.8840	739.28
44.8984	733.80
44.9129	735.47
44.9273	628.50
44.9417	671.56
44.9562	582.30
44.9706	585.46
44.9851	577.31
44.9995	552.40
45.0139	549.67
45.0284	539.56
45.0428	475.52
45.0573	519.25
45.0717	508.09
45.0861	550.00
45.1006	482.30
45.1150	505.80
45.1295	513.46
45.1439	476.82
45.1583	491.29
45.1728	512.68
45.1872	514.27
45.2017	510.95
45.2161	494.42
45.2305	508.09
45.2450	485.33
45.2594	477.58
45.2739	506.83
45.2883	507.19
45.3028	506.66
45.3172	513.96
45.3316	508.51
45.3461	535.87
45.3605	503.64
45.3750	481.13
45.3894	505.09
45.4038	520.26
45.4183	516.98
45.4327	514.18
45.4472	498.53
45.4616	504.35
45.4760	484.82
45.4905	478.00
45.5049	516.28
45.5194	492.60
45.5338	515.39
45.5482	527.35
45.5627	531.81
45.5771	476.96
45.5916	513.56
45.6060	538.47
45.6204	530.03
45.6349	536.11
45.6493	517.07
45.6638	468.28
45.6782	470.79
45.6926	499.61
45.7071	529.08
45.7215	507.51
45.7360	509.33
45.7504	519.81
45.7648	503.41
45.7793	525.58
45.7937	518.89
45.8082	516.17
45.8226	506.64
45.8370	503.42
45.8515	475.93
45.8659	502.70
45.8804	534.02
45.8948	515.87
45.9092	509.34
45.9237	491.13
45.9381	491.40
45.9526	532.05
45.9670	511.61
45.9814	487.11
45.9959	484.00
46.0103	460.67
46.0248	513.14
46.0392	506.06
46.0536	486.67
46.0681	519.48
46.0825	516.00
46.0970	519.78
46.1114	519.47
46.1258	536.17
46.1403	491.04
46.1547	496.93
46.1692	472.36
46.1836	496.36
46.1980	495.25
46.2125	481.90
46.2269	510.27
46.2414	497.82
46.2558	454.70
46.2702	476.11
46.2847	497.82
46.2991	489.23
46.3136	485.97
46.3280	499.27
46.3424	499.31
46.3569	500.90
46.3713	498.10
46.3858	459.80
46.4002	480.26
46.4146	539.02
46.4291	555.89
46.4435	491.38
46.4580	511.16
46.4724	508.67
46.4868	478.11
46.5013	477.92
46.5157	492.45
46.5302	494.29
46.5446	485.08
46.5590	482.73
46.5735	489.13
46.5879	530.27
46.6024	506.24
46.6168	513.06
46.6312	471.76
46.6457	491.06
46.6601	516.31
46.6746	490.85
46.6890	490.95
46.7034	524.48
46.7179	504.25
46.7323	493.79
46.7468	505.56
46.7612	493.67
46.7756	508.20
46.7901	518.25
46.8045	496.83
46.8190	477.62
46.8334	513.67
46.8478	510.61
46.8623	500.73
46.8767	516.86
46.8912	498.70
46.9056	514.21
46.9200	511.91
46.9345	539.37
46.9489	498.74
46.9634	462.61
46.9778	474.06
46.9922	499.94
47.0067	510.09
47.0211	497.94
47.0356	496.26
47.0500	531.91
47.0644	535.80
47.0789	517.74
47.0933	509.33
47.1078	509.62
47.1222	524.84
47.1366	500.21
47.1511	472.90
47.1655	502.40
47.1800	533.42
47.1944	507.68
47.2088	494.32
47.2233	472.35
47.2377	522.85
47.2522	540.84
47.2666	507.42
47.2810	497.27
47.2955	483.29
47.3099	510.46
47.3244	504.98
47.3388	533.48
47.3532	543.16
47.3677	497.97
47.3821	496.83
47.3966	499.65
47.4110	501.87
47.4254	504.62
47.4399	537.26
47.4543	492.99
47.4688	509.60
47.4832	499.13
47.4976	517.72
47.5121	509.58
47.5265	508.15
47.5410	503.84
47.5554	511.50
47.5698	506.40
47.5843	513.99
47.5987	503.00
47.6132	486.20
47.6276	503.33
47.6420	487.78
47.6565	514.15
47.6709	511.65
47.6854	482.60
47.6998	511.03
47.7142	489.53
47.7287	473.14
47.7431	526.11
47.7576	523.05
47.7720	489.82
47.7864	500.26
47.8009	499.03
47.8153	494.97
47.8298	514.56
47.8442	471.96
47.8586	506.21
47.8731	524.76
47.8875	518.28
47.9020	507.79
47.9164	475.24
47.9308	502.05
47.9453	502.85
47.9597	509.58
47.9742	520.25
47.9886	530.89
48.0030	519.51
48.0175	514.00
48.0319	506.08
48.0464	535.94
48.0608	556.74
48.0752	499.42
48.0897	514.32
48.1041	480.62
48.1186	536.13
48.1330	519.81
48.1474	491.72
48.1619	483.96
48.1763	501.95
48.1908	523.60
48.2052	491.42
48.2196	503.45
48.2341	503.73
48.2485	531.92
48.2630	499.84
48.2774	539.20
48.2918	532.53
48.3063	543.90
48.3207	504.57
48.3352	538.84
48.3496	506.87
48.3640	462.15
48.3785	489.42
48.3929	496.70
48.4074	494.57
48.4218	519.72
48.4362	513.53
48.4507	504.91
48.4651	498.97
48.4796	519.79
48.4940	531.21
48.5084	503.00
48.5229	503.19
48.5373	482.03
48.5518	510.66
48.5662	506.74
48.5806	560.61
48.5951	507.49
48.6095	504.45
48.6240	508.50
48.6384	510.85
48.6528	508.67
48.6673	508.77
48.6817	495.43
48.6962	506.56
48.7106	507.37
48.7250	537.22
48.7395	498.73
48.7539	535.35
48.7684	525.79
48.7828	528.03
48.7972	480.35
48.8117	522.59
48.8261	479.88
48.8406	514.77
48.8550	536.97
48.8694	530.63
48.8839	500.90
48.8983	543.42
48.9128	559.51
48.9272	540.61
48.9416	576.12
48.9561	567.79
48.9705	584.62
48.9850	552.75
48.9994	586.25
49.0139	605.19
49.0283	570.68
49.0427	605.52
49.0572	612.89
49.0716	678.16
49.0861	692.81
49.1005	685.84
49.1149	695.39
49.1294	740.47
49.1438	745.33
49.1583	793.55
49.1727	849.60
49.1871	915.97
49.2016	941.48
49.2160	1055.36
49.2305	1098.42
49.2449	1197.90
49.2593	1334.63
49.2738	1395.47
49.2882	1504.05
49.3027	1613.41
49.3171	1692.76
49.3315	1737.32
49.3460	1828.42
49.3604	1834.80
49.3749	1818.61
49.3893	1820.17
49.4037	1839.25
49.4182	1866.44
49.4326	1864.82
49.4471	1675.41
49.4615	1709.28
49.4759	1590.51
49.4904	1501.70
49.5048	1426.95
49.5193	1374.92
49.5337	1306.91
49.5481	1189.57
49.5626	1119.34
49.5770	1035.84
49.5915	1028.01
49.6059	931.24
49.6203	883.86
49.6348	841.03
49.6492	784.28
49.6637	752.10
49.6781	723.55
49.6925	698.13
49.7070	662.26
49.7214	639.68
49.7359	610.12
49.7503	629.98
49.7647	613.63
49.7792	564.69
49.7936	579.16
49.8081	561.20
49.8225	576.54
49.8369	563.64
49.8514	524.02
49.8658	581.60
49.8803	544.80
49.8947	524.38
49.9091	549.22
49.9236	546.19
49.9380	569.85
49.9525	545.77
49.9669	534.08
49.9813	533.96
49.9958	536.11
50.0102	528.50
50.0247	555.51
50.0391	567.63
50.0535	538.29
50.0680	519.28
50.0824	494.10
50.0969	515.44
50.1113	517.59
50.1257	529.05
50.1402	513.06
50.1546	483.01
50.1691	495.99
50.1835	524.15
50.1979	493.56
50.2124	507.59
50.2268	513.97
50.2413	510.82
50.2557	490.44
50.2701	494.04
50.2846	514.96
50.2990	504.79
50.3135	518.05
50.3279	548.50
50.3423	523.05
50.3568	503.80
50.3712	504.35
50.3857	508.60
50.4001	530.44
50.4145	558.65
50.4290	529.27
50.4434	486.78
50.4579	524.81
50.4723	504.08
50.4867	510.08
50.5012	508.17
50.5156	506.69
50.5301	495.55
50.5445	497.15
50.5589	508.27
50.5734	488.69
50.5878	478.29
50.6023	510.41
50.6167	501.65
50.6311	503.27
50.6456	492.58
50.6600	512.17
50.6745	502.52
50.6889	498.99
50.7033	509.69
50.7178	524.70
50.7322	512.60
50.7467	528.19
50.7611	507.31
50.7755	498.02
50.7900	499.91
50.8044	503.48
50.8189	529.72
50.8333	492.06
50.8477	487.68
50.8622	519.56
50.8766	509.61
50.8911	505.92
50.9055	520.18
50.9199	496.74
50.9344	483.12
50.9488	478.87
50.9633	483.30
50.9777	491.87
50.9921	495.38
51.0066	502.16
51.0210	493.37
51.0355	479.89
51.0499	474.24
51.0643	499.16
51.0788	526.27
51.0932	541.26
51.1077	538.55
51.1221	527.30
51.1365	491.32
51.1510	473.59
51.1654	471.93
51.1799	518.00
51.1943	501.13
51.2087	488.44
51.2232	531.91
51.2376	570.87
51.2521	494.64
51.2665	491.80
51.2809	535.38
51.2954	509.61
51.3098	510.60
51.3243	513.86
51.3387	540.22
51.3531	529.39
51.3676	494.85
51.3820	480.34
51.3965	490.02
51.4109	487.14
51.4253	524.95
51.4398	503.39
51.4542	487.41
51.4687	504.74
51.4831	508.86
51.4975	489.97
51.5120	503.90
51.5264	549.64
51.5409	474.24
51.5553	481.08
51.5697	514.84
51.5842	517.49
51.5986	507.42
51.6131	510.58
51.6275	509.67
51.6419	524.00
51.6564	528.78
51.6708	482.78
51.6853	487.62
51.6997	500.50
51.7141	524.23
51.7286	550.48
51.7430	520.53
51.7575	528.45
51.7719	515.78
51.7863	502.48
51.8008	485.88
51.8152	518.17
51.8297	494.22
51.8441	513.72
51.8585	507.59
51.8730	505.03
51.8874	452.02
51.9019	520.93
51.9163	547.07
51.9307	505.61
51.9452	500.57
51.9596	488.10
51.9741	528.01
51.9885	540.98
52.0029	502.27
52.0174	506.07
52.0318	485.50
52.0463	523.06
52.0607	521.18
52.0751	499.09
52.0896	568.60
52.1040	529.60
52.1185	512.23
52.1329	533.44
52.1473	499.22
52.1618	515.83
52.1762	520.74
52.1907	487.78
52.2051	476.49
52.2195	493.05
52.2340	521.63
52.2484	490.51
52.2629	486.97
52.2773	512.26
52.2917	483.78
52.3062	504.03
52.3206	509.09
52.3351	555.98
52.3495	526.42
52.3639	513.41
52.3784	541.63
52.3928	515.57
52.4073	536.88
52.4217	530.48
52.4361	559.50
52.4506	517.06
52.4650	515.04
52.4795	505.12
52.4939	518.55
52.5083	494.65
52.5228	538.20
52.5372	536.24
52.5517	525.85
52.5661	556.15
52.5805	513.59
52.5950	529.77
52.6094	490.66
52.6239	500.88
52.6383	520.14
52.6527	516.38
52.6672	512.34
52.6816	495.40
52.6961	506.60
52.7105	510.57
52.7250	509.32
52.7394	481.96
52.7538	518.34
52.7683	531.33
52.7827	498.34
52.7972	540.79
52.8116	521.38
52.8260	494.83
52.8405	458.39
52.8549	527.27
52.8694	529.04
52.8838	471.01
52.8982	509.79
52.9127	525.45
52.9271	498.41
52.9416	494.70
52.9560	464.56
52.9704	509.01
52.9849	486.96
52.9993	502.56
53.0138	497.92
53.0282	503.13
53.0426	499.92
53.0571	534.00
53.0715	489.88
53.0860	547.61
53.1004	509.30
53.1148	525.99
53.1293	507.68
53.1437	514.56
53.1582	506.18
53.1726	535.31
53.1870	537.23
53.2015	495.77
53.2159	551.16
53.2304	487.82
53.2448	491.76
53.2592	490.28
53.2737	508.27
53.2881	507.68
53.3026	491.51
53.3170	542.66
53.3314	504.82
53.3459	521.77
53.3603	501.89
53.3748	475.55
53.3892	487.86
53.4036	515.47
53.4181	532.20
53.4325	532.19
53.4470	498.87
53.4614	527.85
53.4758	532.16
53.4903	513.02
53.5047	510.69
53.5192	506.93
53.5336	519.33
53.5480	502.69
53.5625	522.10
53.5769	528.47
53.5914	508.43
53.6058	496.68
53.6202	513.19
53.6347	526.14
53.6491	541.67
53.6636	528.45
53.6780	510.15
53.6924	530.18
53.7069	493.94
53.7213	497.57
53.7358	501.93
53.7502	507.66
53.7646	504.06
53.7791	531.28
53.7935	527.78
53.8080	511.47
53.8224	517.56
53.8368	505.52
53.8513	471.70
53.8657	494.13
53.8802	514.18
53.8946	543.63
53.9090	533.09
53.9235	528.11
53.9379	517.60
53.9524	511.05
53.9668	518.15
53.9812	523.05
53.9957	521.68
54.0101	513.65
54.0246	505.33
54.0390	502.47
54.0534	497.84
54.0679	507.26
54.0823	523.85
54.0968	511.04
54.1112	538.34
54.1256	534.60
54.1401	512.90
54.1545	494.54
54.1690	528.26
54.1834	529.77
54.1978	520.11
54.2123	539.37
54.2267	534.16
54.2412	522.25
54.2556	531.55
54.2700	530.24
54.2845	507.56
54.2989	526.14
54.3134	527.93
54.3278	524.11
54.3422	537.31
54.3567	560.03
54.3711	529.48
54.3856	537.57
54.4000	521.20
54.4144	536.09
54.4289	568.81
54.4433	570.42
54.4578	540.64
54.4722	577.65
54.4866	590.31
54.5011	558.09
54.5155	541.69
54.5300	564.19
54.5444	552.64
54.5588	583.08
54.5733	568.39
54.5877	586.89
54.6022	586.62
54.6166	596.40
54.6310	607.19
54.6455	575.03
54.6599	543.29
54.6744	558.50
54.6888	541.43
54.7032	585.09
54.7177	557.36
54.7321	534.65
54.7466	559.08
54.7610	510.91
54.7754	553.75
54.7899	578.70
54.8043	557.20
54.8188	555.32
54.8332	524.47
54.8476	512.87
54.8621	551.36
54.8765	528.73
54.8910	513.02
54.9054	541.35
54.9198	522.20
54.9343	507.92
54.9487	525.59
54.9632	509.06
54.9776	533.72
54.9920	551.19
55.0065	516.34
55.0209	514.70
55.0354	508.74
55.0498	507.26
55.0642	521.90
55.0787	562.12
55.0931	552.78
55.1076	536.05
55.1220	531.74
55.1364	543.67
55.1509	508.06
55.1653	506.33
55.1798	539.02
55.1942	504.91
55.2086	532.68
55.2231	527.92
55.2375	546.47
55.2520	557.82
55.2664	509.95
55.2808	505.78
55.2953	553.46
55.3097	516.34
55.3242	523.65
55.3386	494.10
55.3530	492.99
55.3675	510.12
55.3819	484.93
55.3964	501.16
55.4108	552.88
55.4252	541.16
55.4397	514.42
55.4541	535.54
55.4686	540.71
55.4830	555.22
55.4974	523.09
55.5119	516.57
55.5263	522.58
55.5408	516.78
55.5552	524.35
55.5696	522.66
55.5841	529.30
55.5985	531.89
55.6130	524.84
55.6274	497.24
55.6418	502.65
55.6563	507.66
55.6707	519.26
55.6852	505.61
55.6996	546.22
55.7140	527.75
55.7285	516.15
55.7429	522.58
55.7574	500.75
55.7718	520.64
55.7862	522.95
55.8007	484.05
55.8151	517.10
55.8296	518.26
55.8440	478.70
55.8584	571.10
55.8729	534.45
55.8873	489.94
55.9018	509.08
55.9162	496.36
55.9306	518.81
55.9451	496.52
55.9595	515.21
55.9740	526.03
55.9884	547.52
56.0028	494.66
56.0173	504.04
56.0317	531.41
56.0462	535.63
56.0606	537.85
56.0750	561.83
56.0895	536.90
56.1039	527.43
56.1184	531.58
56.1328	553.46
56.1472	513.27
56.1617	482.18
56.1761	498.31
56.1906	519.71
56.2050	502.85
56.2194	518.99
56.2339	497.85
56.2483	488.58
56.2628	521.72
56.2772	523.71
56.2916	508.03
56.3061	513.55
56.3205	494.16
56.3350	499.03
56.3494	460.75
56.3639	541.27
56.3783	550.67
56.3927	533.74
56.4072	497.48
56.4216	534.22
56.4361	538.75
56.4505	506.85
56.4649	525.18
56.4794	558.83
56.4938	501.27
56.5083	526.22
56.5227	549.83
56.5371	537.17
56.5516	531.87
56.5660	517.21
56.5805	527.75
56.5949	505.60
56.6093	520.20
56.6238	524.80
56.6382	517.13
56.6527	516.76
56.6671	510.73
56.6815	498.15
56.6960	535.60
56.7104	543.04
56.7249	516.29
56.7393	511.12
56.7537	532.85
56.7682	454.61
56.7826	504.63
56.7971	502.59
56.8115	514.96
56.8259	529.03
56.8404	497.67
56.8548	502.20
56.8693	505.69
56.8837	567.58
56.8981	520.45
56.9126	509.53
56.9270	474.39
56.9415	565.45
56.9559	549.95
56.9703	544.97
56.9848	529.68
56.9992	530.72
57.0137	518.36
57.0281	534.75
57.0425	554.68
57.0570	545.34
57.0714	517.04
57.0859	517.29
57.1003	564.55
57.1147	533.27
57.1292	546.16
57.1436	520.44
57.1581	487.88
57.1725	556.24
57.1869	532.47
57.2014	508.52
57.2158	517.00
57.2303	497.28
57.2447	513.19
57.2591	501.88
57.2736	495.84
57.2880	545.42
57.3025	507.07
57.3169	528.80
57.3313	540.94
57.3458	514.59
57.3602	533.15
57.3747	545.73
57.3891	529.78
57.4035	543.83
57.4180	503.46
57.4324	525.82
57.4469	516.05
57.4613	539.39
57.4757	556.43
57.4902	554.68
57.5046	526.98
57.5191	536.70
57.5335	547.39
57.5479	545.20
57.5624	502.04
57.5768	495.29
57.5913	523.16
57.6057	529.49
57.6201	513.94
57.6346	486.60
57.6490	510.15
57.6635	523.10
57.6779	504.65
57.6923	524.61
57.7068	555.23
57.7212	571.30
57.7357	543.25
57.7501	540.93
57.7645	574.17
57.7790	544.68
57.7934	545.60
57.8079	538.71
57.8223	517.47
57.8367	540.61
57.8512	541.61
57.8656	532.71
57.8801	524.27
57.8945	584.99
57.9089	548.14
57.9234	532.86
57.9378	564.93
57.9523	569.39
57.9667	544.74
57.9811	545.73
57.9956	536.92
58.0100	553.85
58.0245	573.02
58.0389	593.75
58.0533	609.97
58.0678	635.09
58.0822	611.50
58.0967	624.23
58.1111	647.04
58.1255	626.74
58.1400	623.51
58.1544	626.42
58.1689	668.94
58.1833	638.58
58.1977	628.57
58.2122	683.77
58.2266	664.21
58.2411	662.50
58.2555	664.01
58.2699	668.60
58.2844	630.59
58.2988	627.03
58.3133	636.93
58.3277	620.71
58.3421	651.59
58.3566	607.43
58.3710	622.14
58.3855	582.35
58.3999	604.07
58.4143	593.75
58.4288	604.03
58.4432	575.80
58.4577	589.28
58.4721	596.88
58.4865	586.06
58.5010	576.67
58.5154	573.43
58.5299	587.12
58.5443	574.41
58.5587	552.95
58.5732	541.32
58.5876	549.58
58.6021	561.73
58.6165	560.80
58.6309	548.93
58.6454	523.88
58.6598	527.36
58.6743	521.00
58.6887	514.97
58.7031	541.78
58.7176	546.16
58.7320	549.60
58.7465	493.81
58.7609	521.22
58.7753	538.94
58.7898	531.45
58.8042	520.27
58.8187	528.47
58.8331	544.22
58.8475	536.45
58.8620	549.32
58.8764	562.38
58.8909	534.39
58.9053	569.06
58.9197	549.51
58.9342	553.42
58.9486	559.06
58.9631	523.03
58.9775	491.12
58.9919	513.31
59.0064	540.32
59.0208	529.25
59.0353	550.39
59.0497	510.49
59.0641	531.01
59.0786	540.83
59.0930	520.42
59.1075	528.45
59.1219	566.99
59.1363	554.52
59.1508	520.65
59.1652	523.80
59.1797	556.65
59.1941	531.12
59.2085	533.87
59.2230	536.90
59.2374	554.73
59.2519	553.35
59.2663	510.43
59.2807	533.69
59.2952	524.79
59.3096	531.62
59.3241	531.30
59.3385	552.18
59.3529	554.30
59.3674	502.54
59.3818	504.38
59.3963	507.03
59.4107	546.45
59.4251	528.39
59.4396	585.12
59.4540	558.61
59.4685	558.59
59.4829	575.79
59.4973	575.94
59.5118	571.59
59.5262	579.06
59.5407	546.94
59.5551	570.59
59.5695	559.86
59.5840	561.13
59.5984	560.84
59.6129	564.05
59.6273	547.15
59.6417	519.88
59.6562	553.77
59.6706	527.37
59.6851	499.79
59.6995	524.35
59.7139	531.46
59.7284	522.95
59.7428	525.18
59.7573	523.29
59.7717	536.09
59.7861	572.52
59.8006	545.82
59.8150	527.11
59.8295	529.74
59.8439	512.09
59.8583	507.87
59.8728	538.46
59.8872	513.41
59.9017	523.46
59.9161	524.46
59.9305	530.70
59.9450	537.28
59.9594	529.42
59.9739	560.58
59.9883	569.67
60.0027	540.20
60.0172	498.63
60.0316	493.53
60.0461	537.23
60.0605	580.87
60.0750	553.80
60.0894	523.77
60.1038	486.88
60.1183	565.95
60.1327	530.94
60.1472	525.09
60.1616	520.78
60.1760	552.85
60.1905	542.16
60.2049	536.56
60.2194	547.63
60.2338	549.56
60.2482	541.61
60.2627	539.15
60.2771	511.90
60.2916	504.20
60.3060	521.41
60.3204	521.53
60.3349	546.97
60.3493	551.40
60.3638	520.86
60.3782	510.69
60.3926	495.49
60.4071	498.40
60.4215	509.88
60.4360	496.09
60.4504	503.34
60.4648	539.23
60.4793	543.12
60.4937	521.82
60.5082	517.90
60.5226	500.60
60.5370	499.55
60.5515	504.25
60.5659	517.75
60.5804	527.37
60.5948	506.21
60.6092	534.21
60.6237	510.80
60.6381	576.47
60.6526	546.60
60.6670	502.80
60.6814	526.23
60.6959	527.78
60.7103	540.98
60.7248	552.16
60.7392	549.59
60.7536	544.55
60.7681	524.86
60.7825	587.52
60.7970	554.56
60.8114	554.27
60.8258	547.95
60.8403	580.74
60.8547	541.70
60.8692	527.26
60.8836	546.42
60.8980	527.32
60.9125	553.33
60.9269	530.95
60.9414	490.90
60.9558	521.81
60.9702	515.36
60.9847	560.58
60.9991	570.13
61.0136	522.91
61.0280	547.10
61.0424	527.01
61.0569	572.10
61.0713	555.48
61.0858	526.04
61.1002	498.97
61.1146	554.39
61.1291	546.03
61.1435	511.33
61.1580	541.59
61.1724	538.81
61.1868	500.95
61.2013	540.29
61.2157	527.61
61.2302	534.20
61.2446	566.96
61.2590	521.02
61.2735	536.93
61.2879	552.97
61.3024	558.72
61.3168	544.48
61.3312	546.32
61.3457	503.34
61.3601	537.26
61.3746	544.09
61.3890	525.01
61.4034	544.83
61.4179	527.61
61.4323	549.57
61.4468	545.19
61.4612	505.37
61.4756	563.92
61.4901	555.24
61.5045	553.75
61.5190	555.80
61.5334	569.52
61.5478	563.70
61.5623	534.08
61.5767	538.76
61.5912	537.57
61.6056	562.86
61.6200	568.31
61.6345	581.16
61.6489	567.74
61.6634	560.97
61.6778	558.95
61.6922	522.09
61.7067	527.75
61.7211	540.97
61.7356	519.99
61.7500	537.31
61.7644	531.03
61.7789	547.58
61.7933	565.13
61.8078	574.64
61.8222	514.75
61.8366	512.02
61.8511	506.27
61.8655	510.67
61.8800	545.31
61.8944	530.98
61.9088	580.40
61.9233	547.83
61.9377	558.33
61.9522	520.06
61.9666	533.42
61.9810	552.68
61.9955	580.66
62.0099	557.98
62.0244	529.62
62.0388	528.16
62.0532	555.78
62.0677	520.09
62.0821	534.42
62.0966	567.62
62.1110	555.90
62.1254	565.67
62.1399	529.39
62.1543	546.82
62.1688	587.98
62.1832	560.05
62.1976	558.77
62.2121	544.22
62.2265	538.88
62.2410	576.63
62.2554	549.37
62.2698	547.78
62.2843	510.55
62.2987	519.92
62.3132	561.80
62.3276	558.85
62.3420	566.80
62.3565	515.64
62.3709	521.77
62.3854	534.16
62.3998	548.67
62.4142	558.46
62.4287	559.17
62.4431	543.63
62.4576	553.85
62.4720	554.58
62.4864	570.46
62.5009	540.20
62.5153	522.90
62.5298	505.60
62.5442	522.08
62.5586	523.90
62.5731	566.27
62.5875	542.13
62.6020	525.35
62.6164	514.41
62.6308	555.70
62.6453	558.36
62.6597	583.84
62.6742	565.78
62.6886	541.68
62.7030	550.58
62.7175	572.15
62.7319	570.72
62.7464	542.09
62.7608	557.15
62.7752	553.10
62.7897	540.15
62.8041	555.15
62.8186	557.94
62.8330	555.34
62.8474	522.92
62.8619	574.29
62.8763	566.86
62.8908	544.98
62.9052	555.85
62.9196	548.38
62.9341	566.32
62.9485	564.08
62.9630	550.55
62.9774	549.53
62.9918	551.30
63.0063	562.14
63.0207	559.64
63.0352	533.61
63.0496	523.89
63.0640	553.42
63.0785	558.75
63.0929	589.17
63.1074	563.58
63.1218	542.79
63.1362	572.21
63.1507	557.81
63.1651	580.49
63.1796	562.75
63.1940	566.18
63.2084	553.78
63.2229	551.40
63.2373	558.23
63.2518	566.17
63.2662	570.89
63.2806	573.57
63.2951	571.65
63.3095	577.27
63.3240	554.06
63.3384	579.61
63.3528	555.05
63.3673	571.83
63.3817	535.56
63.3962	536.26
63.4106	547.96
63.4250	586.04
63.4395	597.97
63.4539	614.33
63.4684	604.66
63.4828	608.06
63.4972	601.31
63.5117	591.38
63.5261	572.71
63.5406	579.84
63.5550	596.64
63.5694	608.01
63.5839	604.93
63.5983	631.40
63.6128	607.86
63.6272	617.19
63.6416	599.13
63.6561	601.28
63.6705	623.25
63.6850	644.51
63.6994	648.08
63.7138	654.60
63.7283	643.83
63.7427	671.46
63.7572	698.46
63.7716	720.41
63.7861	718.80
63.8005	689.80
63.8149	741.96
63.8294	741.18
63.8438	710.26
63.8583	737.56
63.8727	772.93
63.8871	786.13
63.9016	827.40
63.9160	779.49
63.9305	768.68
63.9449	819.78
63.9593	770.08
63.9738	743.15
63.9882	819.01
64.0027	772.79
64.0171	766.40
64.0315	777.96
64.0460	784.52
64.0604	779.29
64.0749	787.23
64.0893	763.48
64.1037	773.87
64.1182	778.33
64.1326	719.26
64.1471	675.18
64.1615	704.36
64.1759	713.06
64.1904	678.25
64.2048	683.40
64.2193	683.43
64.2337	668.05
64.2481	665.98
64.2626	633.22
64.2770	660.82
64.2915	634.75
64.3059	606.96
64.3203	611.58
64.3348	646.67
64.3492	635.32
64.3637	650.91
64.3781	644.20
64.3925	612.15
64.4070	622.76
64.4214	640.06
64.4359	607.39
64.4503	599.79
64.4647	650.55
64.4792	638.24
64.4936	624.11
64.5081	626.78
64.5225	613.76
64.5369	661.50
64.5514	656.26
64.5658	613.33
64.5803	642.32
64.5947	649.54
64.6091	639.79
64.6236	648.96
64.6380	685.61
64.6525	716.92
64.6669	670.32
64.6813	635.74
64.6958	677.59
64.7102	668.51
64.7247	698.04
64.7391	688.27
64.7535	721.04
64.7680	722.21
64.7824	710.45
64.7969	727.34
64.8113	760.92
64.8257	793.19
64.8402	791.95
64.8546	761.60
64.8691	840.85
64.8835	790.07
64.8979	837.90
64.9124	881.88
64.9268	873.12
64.9413	910.34
64.9557	884.02
64.9701	981.41
64.9846	1018.01
64.9990	1142.59
65.0135	1233.83
65.0279	1410.12
65.0423	1638.63
65.0568	1992.07
65.0712	2460.39
65.0857	3199.92
65.1001	4264.11
65.1145	5612.78
65.1290	7403.21
65.1434	9011.14
65.1579	10708.00
65.1723	11721.83
65.1867	11283.64
65.2012	10174.82
65.2156	8629.20
65.2301	6809.09
65.2445	5383.96
65.2589	4510.89
65.2734	4146.06
65.2878	4272.19
65.3023	4896.87
65.3167	5381.28
65.3311	6302.23
65.3456	6862.70
65.3600	6788.14
65.3745	6433.92
65.3889	5581.76
65.4033	4562.22
65.4178	3555.50
65.4322	2835.19
65.4467	2079.04
65.4611	1715.09
65.4755	1479.21
65.4900	1312.52
65.5044	1159.86
65.5189	1084.54
65.5333	1028.20
65.5477	903.38
65.5622	862.58
65.5766	834.42
65.5911	830.43
65.6055	805.32
65.6199	761.07
65.6344	758.54
65.6488	722.05
65.6633	711.44
65.6777	705.41
65.6921	740.90
65.7066	766.28
65.7210	738.77
65.7355	687.05
65.7499	697.26
65.7643	682.58
65.7788	672.92
65.7932	674.92
65.8077	746.94
65.8221	666.50
65.8365	666.39
65.8510	635.41
65.8654	660.16
65.8799	651.82
65.8943	662.73
65.9087	642.39
65.9232	637.99
65.9376	670.87
65.9521	628.45
65.9665	610.90
65.9809	634.13
65.9954	638.53
66.0098	627.77
66.0243	646.36
66.0387	648.23
66.0531	595.73
66.0676	605.02
66.0820	587.37
66.0965	634.45
66.1109	650.79
66.1253	673.72
66.1398	585.16
66.1542	606.67
66.1687	628.30
66.1831	596.96
66.1975	595.31
66.2120	616.96
66.2264	634.72
66.2409	601.33
66.2553	631.48
66.2697	619.91
66.2842	626.31
66.2986	643.24
66.3131	647.23
66.3275	605.88
66.3419	576.21
66.3564	587.78
66.3708	579.71
66.3853	592.88
66.3997	586.01
66.4141	566.17
66.4286	613.55
66.4430	608.90
66.4575	573.45
66.4719	634.12
66.4863	600.43
66.5008	617.96
66.5152	594.29
66.5297	564.17
66.5441	584.22
66.5585	602.11
66.5730	577.12
66.5874	583.40
66.6019	596.84
66.6163	561.70
66.6307	573.86
66.6452	616.82
66.6596	569.54
66.6741	562.96
66.6885	573.37
66.7029	579.32
66.7174	557.50
66.7318	550.90
66.7463	569.68
66.7607	604.53
66.7751	583.22
66.7896	566.51
66.8040	598.35
66.8185	593.29
66.8329	581.52
66.8473	577.87
66.8618	567.89
66.8762	572.47
66.8907	589.54
66.9051	589.90
66.9195	542.51
66.9340	562.97
66.9484	562.94
66.9629	568.82
66.9773	553.35
66.9917	533.32
67.0062	569.55
67.0206	606.76
67.0351	606.62
67.0495	568.61
67.0639	567.59
67.0784	564.25
67.0928	594.76
67.1073	578.53
67.1217	585.66
67.1361	608.56
67.1506	544.64
67.1650	613.12
67.1795	616.90
67.1939	589.29
67.2083	554.36
67.2228	590.18
67.2372	588.35
67.2517	547.04
67.2661	567.14
67.2805	602.22
67.2950	593.69
67.3094	600.01
67.3239	578.84
67.3383	601.65
67.3527	604.98
67.3672	576.30
67.3816	559.93
67.3961	571.28
67.4105	586.44
67.4250	558.32
67.4394	589.16
67.4538	614.76
67.4683	590.89
67.4827	583.62
67.4972	552.54
67.5116	532.33
67.5260	551.62
67.5405	580.04
67.5549	588.29
67.5694	601.57
67.5838	560.85
67.5982	572.70
67.6127	585.40
67.6271	561.35
67.6416	594.39
67.6560	585.62
67.6704	597.65
67.6849	604.64
67.6993	568.40
67.7138	564.00
67.7282	556.10
67.7426	548.91
67.7571	537.23
67.7715	557.04
67.7860	601.09
67.8004	572.04
67.8148	561.67
67.8293	613.28
67.8437	576.79
67.8582	549.58
67.8726	571.35
67.8870	568.40
67.9015	592.25
67.9159	569.06
67.9304	583.37
67.9448	611.45
67.9592	604.63
67.9737	553.82
67.9881	564.44
68.0026	557.68
68.0170	571.34
68.0314	579.56
68.0459	573.30
68.0603	553.21
68.0748	615.68
68.0892	575.00
68.1036	559.24
68.1181	598.78
68.1325	538.70
68.1470	522.02
68.1614	580.75
68.1758	554.96
68.1903	531.29
68.2047	567.62
68.2192	602.44
68.2336	555.81
68.2480	541.68
68.2625	568.85
68.2769	579.14
68.2914	604.97
68.3058	582.90
68.3202	594.07
68.3347	553.98
68.3491	559.80
68.3636	545.51
68.3780	561.14
68.3924	559.61
68.4069	590.70
68.4213	583.69
68.4358	594.72
68.4502	553.96
68.4646	563.83
68.4791	590.34
68.4935	555.07
68.5080	582.80
68.5224	541.88
68.5368	562.16
68.5513	597.00
68.5657	548.79
68.5802	554.58
68.5946	565.28
68.6090	561.51
68.6235	588.47
68.6379	634.40
68.6524	570.71
68.6668	544.11
68.6812	614.16
68.6957	601.00
68.7101	568.32
68.7246	542.64
68.7390	526.09
68.7534	571.03
68.7679	607.81
68.7823	576.61
68.7968	595.99
68.8112	555.73
68.8256	562.60
68.8401	548.46
68.8545	563.59
68.8690	587.95
68.8834	594.51
68.8978	593.82
68.9123	604.29
68.9267	609.36
68.9412	600.76
68.9556	519.74
68.9700	564.96
68.9845	534.75
68.9989	616.20
69.0134	593.78
69.0278	611.69
69.0422	578.81
69.0567	532.38
69.0711	591.74
69.0856	587.17
69.1000	554.45
69.1144	567.45
69.1289	565.89
69.1433	568.77
69.1578	604.11
69.1722	603.38
69.1866	589.57
69.2011	576.49
69.2155	572.25
69.2300	600.81
69.2444	592.12
69.2588	613.72
69.2733	601.07
69.2877	569.59
69.3022	580.18
69.3166	523.90
69.3310	553.73
69.3455	580.28
69.3599	569.74
69.3744	571.03
69.3888	565.31
69.4032	555.95
69.4177	608.20
69.4321	619.23
69.4466	600.24
69.4610	589.88
69.4754	612.02
69.4899	600.73
69.5043	564.16
69.5188	536.17
69.5332	580.15
69.5476	556.36
69.5621	588.59
69.5765	519.78
69.5910	557.90
69.6054	608.67
69.6198	563.86
69.6343	617.59
69.6487	596.36
69.6632	554.40
69.6776	555.73
69.6920	567.30
69.7065	588.87
69.7209	534.44
69.7354	555.63
69.7498	627.63
69.7642	583.57
69.7787	570.54
69.7931	572.60
69.8076	575.57
69.8220	560.91
69.8364	591.73
69.8509	569.33
69.8653	576.94
69.8798	529.99
69.8942	577.26
69.9086	621.12
69.9231	647.51
69.9375	635.03
69.9520	572.66
69.9664	511.91
69.9808	615.13
69.9953	599.73
70.0097	510.83
70.0242	561.23
70.0386	580.72
70.0530	541.85
70.0675	558.71
70.0819	581.13
70.0964	611.96
70.1108	535.71
70.1252	555.59
70.1397	540.43
70.1541	586.01
70.1686	609.43
70.1830	554.78
70.1974	566.20
70.2119	583.32
70.2263	577.34
70.2408	566.17
70.2552	619.02
70.2696	589.23
70.2841	594.86
70.2985	606.60
70.3130	562.75
70.3274	555.33
70.3418	593.61
70.3563	580.24
70.3707	565.84
70.3852	577.76
70.3996	532.21
70.4140	551.87
70.4285	572.11
70.4429	563.09
70.4574	562.97
70.4718	606.72
70.4862	659.83
70.5007	595.56
70.5151	563.62
70.5296	561.19
70.5440	606.70
70.5584	585.36
70.5729	532.96
70.5873	563.88
70.6018	549.15
70.6162	540.89
70.6306	588.08
70.6451	603.32
70.6595	572.42
70.6740	606.67
70.6884	576.23
70.7028	583.91
70.7173	593.43
70.7317	592.43
70.7462	573.19
70.7606	617.90
70.7750	605.64
70.7895	573.80
70.8039	585.09
70.8184	591.07
70.8328	556.47
70.8472	606.57
70.8617	592.75
70.8761	541.69
70.8906	514.86
70.9050	572.45
70.9194	556.24
70.9339	590.45
70.9483	584.77
70.9628	526.48
70.9772	512.02
70.9916	572.16
71.0061	529.63
71.0205	561.17
71.0350	642.53
71.0494	634.00
71.0638	614.13
71.0783	556.88
71.0927	574.35
71.1072	584.25
71.1216	594.65
71.1361	597.98
71.1505	649.33
71.1649	652.95
71.1794	573.70
71.1938	500.42
71.2083	534.61
71.2227	524.59
71.2371	523.87
71.2516	531.06
71.2660	518.82
71.2805	551.68
71.2949	628.19
71.3093	620.80
71.3238	593.45
71.3382	626.29
71.3527	566.74
71.3671	548.97
71.3815	572.56
71.3960	563.72
71.4104	526.95
71.4249	515.28
71.4393	544.23
71.4537	564.58
71.4682	544.04
71.4826	552.47
71.4971	561.42
71.5115	586.02
71.5259	603.96
71.5404	518.31
71.5548	556.81
71.5693	567.43
71.5837	589.95
71.5981	594.06
71.6126	536.00
71.6270	505.98
71.6415	536.00
71.6559	569.10
71.6703	581.32
71.6848	606.76
71.6992	622.48
71.7137	587.88
71.7281	566.30
71.7425	599.08
71.7570	604.13
71.7714	588.55
71.7859	576.41
71.8003	544.44
71.8147	579.37
71.8292	585.18
71.8436	592.46
71.8581	548.92
71.8725	579.19
71.8869	574.24
71.9014	582.18
71.9158	621.10
71.9303	601.14
71.9447	580.07
71.9591	586.59
71.9736	606.42
71.9880	578.20
72.0025	518.42
72.0169	574.22
72.0313	577.72
72.0458	516.73
72.0602	535.56
72.0747	583.82
72.0891	602.49
72.1035	586.36
72.1180	604.74
72.1324	598.10
72.1469	624.69
72.1613	588.96
72.1757	563.51
72.1902	611.79
72.2046	544.44
72.2191	531.47
72.2335	485.01
72.2479	495.47
72.2624	560.10
72.2768	563.34
72.2913	491.81
72.3057	500.09
72.3201	542.96
72.3346	584.26
72.3490	633.62
72.3635	600.85
72.3779	551.78
72.3923	520.68
72.4068	535.68
72.4212	619.56
72.4357	645.94
72.4501	598.90
72.4645	612.67
72.4790	596.71
72.4934	539.13
72.5079	566.35
72.5223	525.88
72.5367	548.68
72.5512	577.82
72.5656	603.66
72.5801	595.95
72.5945	593.24
72.6089	609.06
72.6234	657.76
72.6378	630.09
72.6523	595.59
72.6667	610.12
72.6811	670.70
72.6956	632.98
72.7100	520.47
72.7245	531.23
72.7389	650.22
72.7533	635.28
72.7678	582.30
72.7822	625.97
72.7967	605.39
72.8111	585.08
72.8255	621.74
72.8400	587.88
72.8544	562.90
72.8689	516.53
72.8833	502.18