2022.09.19 19:37:17
Îáðàçåö: ß÷åéêà LCoV 16-09-2022
Lambda1 = 1.54060
Lambda2 = 1.54439
Lambdam = 1.54186
R = 0.497
2Theta	I

line¹ 0 ;repeat¹ 0
22.1120	567.82
22.1264	537.69
22.1409	468.88
22.1553	488.02
22.1697	535.93
22.1842	586.59
22.1986	578.93
22.2131	554.77
22.2275	570.89
22.2419	629.14
22.2564	586.95
22.2708	539.05
22.2853	559.43
22.2997	614.55
22.3141	579.31
22.3286	562.79
22.3430	522.93
22.3575	532.22
22.3719	591.55
22.3863	531.72
22.4008	493.87
22.4152	558.96
22.4297	515.30
22.4441	609.98
22.4585	597.73
22.4730	543.61
22.4874	627.59
22.5019	635.37
22.5163	583.44
22.5307	621.58
22.5452	561.38
22.5596	530.94
22.5741	577.91
22.5885	625.59
22.6029	603.27
22.6174	698.62
22.6318	603.56
22.6463	597.14
22.6607	622.34
22.6751	576.58
22.6896	507.04
22.7040	590.04
22.7185	613.21
22.7329	539.99
22.7473	497.74
22.7618	539.62
22.7762	602.84
22.7907	617.45
22.8051	561.53
22.8195	634.77
22.8340	516.03
22.8484	548.47
22.8629	663.80
22.8773	511.68
22.8917	478.89
22.9062	554.96
22.9206	503.07
22.9351	625.46
22.9495	573.96
22.9639	521.37
22.9784	604.45
22.9928	508.78
23.0073	537.64
23.0217	543.55
23.0361	539.01
23.0506	542.39
23.0650	543.55
23.0795	616.64
23.0939	541.39
23.1083	568.36
23.1228	560.01
23.1372	600.15
23.1517	583.63
23.1661	524.03
23.1806	509.76
23.1950	575.82
23.2094	585.04
23.2239	568.86
23.2383	489.51
23.2528	618.72
23.2672	524.38
23.2816	538.00
23.2961	526.17
23.3105	605.58
23.3250	505.41
23.3394	550.92
23.3538	566.06
23.3683	541.78
23.3827	540.88
23.3972	513.78
23.4116	527.60
23.4260	542.61
23.4405	553.21
23.4549	523.32
23.4694	554.15
23.4838	589.84
23.4982	521.38
23.5127	566.71
23.5271	584.62
23.5416	531.81
23.5560	551.03
23.5704	552.60
23.5849	572.36
23.5993	632.02
23.6138	549.44
23.6282	564.61
23.6426	523.38
23.6571	552.44
23.6715	524.55
23.6860	583.08
23.7004	510.80
23.7148	515.86
23.7293	560.36
23.7437	534.04
23.7582	540.00
23.7726	529.22
23.7870	557.23
23.8015	533.52
23.8159	571.61
23.8304	539.24
23.8448	503.74
23.8592	600.84
23.8737	576.26
23.8881	499.89
23.9026	612.23
23.9170	505.09
23.9314	559.55
23.9459	523.79
23.9603	565.76
23.9748	515.24
23.9892	599.82
24.0036	525.70
24.0181	591.98
24.0325	613.54
24.0470	623.47
24.0614	570.51
24.0758	550.76
24.0903	554.54
24.1047	557.68
24.1192	579.32
24.1336	543.94
24.1480	563.37
24.1625	602.82
24.1769	545.87
24.1914	523.98
24.2058	566.03
24.2202	589.65
24.2347	599.32
24.2491	612.27
24.2636	565.67
24.2780	542.50
24.2924	503.43
24.3069	537.54
24.3213	558.41
24.3358	599.11
24.3502	560.20
24.3646	545.38
24.3791	542.98
24.3935	550.53
24.4080	533.41
24.4224	549.76
24.4368	509.67
24.4513	505.98
24.4657	499.02
24.4802	550.96
24.4946	587.68
24.5090	525.41
24.5235	550.22
24.5379	590.43
24.5524	560.52
24.5668	533.92
24.5812	576.18
24.5957	537.25
24.6101	525.38
24.6246	541.90
24.6390	565.80
24.6534	555.62
24.6679	508.20
24.6823	514.55
24.6968	501.86
24.7112	554.36
24.7256	546.94
24.7401	548.56
24.7545	519.10
24.7690	585.26
24.7834	556.78
24.7978	498.71
24.8123	538.77
24.8267	530.09
24.8412	561.80
24.8556	537.79
24.8700	514.35
24.8845	578.19
24.8989	610.87
24.9134	534.01
24.9278	523.01
24.9422	502.03
24.9567	546.13
24.9711	541.81
24.9856	497.25
25.0000	556.00
25.0144	581.82
25.0289	585.44
25.0433	530.98
25.0578	484.59
25.0722	543.70
25.0866	558.76
25.1011	549.98
25.1155	546.35
25.1300	523.09
25.1444	549.38
25.1588	545.45
25.1733	511.93
25.1877	537.17
25.2022	494.87
25.2166	530.47
25.2310	518.22
25.2455	567.17
25.2599	583.34
25.2744	588.31
25.2888	580.92
25.3032	544.13
25.3177	519.16
25.3321	538.27
25.3466	545.19
25.3610	542.01
25.3754	555.22
25.3899	540.85
25.4043	535.67
25.4188	584.65
25.4332	546.22
25.4476	509.61
25.4621	562.35
25.4765	546.67
25.4910	520.49
25.5054	522.08
25.5198	527.34
25.5343	484.88
25.5487	498.79
25.5632	504.66
25.5776	566.88
25.5920	556.64
25.6065	556.73
25.6209	547.90
25.6354	525.41
25.6498	541.46
25.6642	546.98
25.6787	510.46
25.6931	545.52
25.7076	549.79
25.7220	544.18
25.7364	519.53
25.7509	496.83
25.7653	520.99
25.7798	550.71
25.7942	551.10
25.8086	550.23
25.8231	557.66
25.8375	551.11
25.8520	537.42
25.8664	534.73
25.8808	557.25
25.8953	589.56
25.9097	547.30
25.9242	559.62
25.9386	551.77
25.9530	529.84
25.9675	507.70
25.9819	514.90
25.9964	531.42
26.0108	525.22
26.0252	514.69
26.0397	551.75
26.0541	544.10
26.0686	505.23
26.0830	518.21
26.0974	528.79
26.1119	545.16
26.1263	531.61
26.1408	510.41
26.1552	518.04
26.1696	556.95
26.1841	516.76
26.1985	506.63
26.2130	548.92
26.2274	525.50
26.2418	543.09
26.2563	538.51
26.2707	542.61
26.2852	536.86
26.2996	541.23
26.3140	501.58
26.3285	532.19
26.3429	536.03
26.3574	548.78
26.3718	559.23
26.3862	563.18
26.4007	525.25
26.4151	520.26
26.4296	526.63
26.4440	490.62
26.4584	512.09
26.4729	536.33
26.4873	530.45
26.5018	540.62
26.5162	530.60
26.5306	522.25
26.5451	551.82
26.5595	536.31
26.5740	519.56
26.5884	531.31
26.6028	547.29
26.6173	535.04
26.6317	543.41
26.6462	528.75
26.6606	525.37
26.6750	506.28
26.6895	506.93
26.7039	515.82
26.7184	504.51
26.7328	487.59
26.7472	519.60
26.7617	519.51
26.7761	490.90
26.7906	473.31
26.8050	505.31
26.8194	535.26
26.8339	538.05
26.8483	519.60
26.8628	539.14
26.8772	533.60
26.8917	521.10
26.9061	524.49
26.9205	492.96
26.9350	528.17
26.9494	543.19
26.9639	527.03
26.9783	526.10
26.9927	530.10
27.0072	538.78
27.0216	550.22
27.0361	526.54
27.0505	530.09
27.0649	520.32
27.0794	517.27
27.0938	542.06
27.1083	554.50
27.1227	527.20
27.1371	518.26
27.1516	499.94
27.1660	497.91
27.1805	496.09
27.1949	490.73
27.2093	478.79
27.2238	487.48
27.2382	518.44
27.2527	525.05
27.2671	515.44
27.2815	539.55
27.2960	516.31
27.3104	528.56
27.3249	538.23
27.3393	511.19
27.3537	495.21
27.3682	500.75
27.3826	486.14
27.3971	495.60
27.4115	519.03
27.4259	550.80
27.4404	526.98
27.4548	521.17
27.4693	502.84
27.4837	541.14
27.4981	511.21
27.5126	521.79
27.5270	523.81
27.5415	528.83
27.5559	558.65
27.5703	548.34
27.5848	540.51
27.5992	510.87
27.6137	515.86
27.6281	503.08
27.6425	498.68
27.6570	488.87
27.6714	507.77
27.6859	499.79
27.7003	541.46
27.7147	520.29
27.7292	505.09
27.7436	514.65
27.7581	563.31
27.7725	534.31
27.7869	531.04
27.8014	531.29
27.8158	539.52
27.8303	495.14
27.8447	501.65
27.8591	506.58
27.8736	517.37
27.8880	518.54
27.9025	544.56
27.9169	521.65
27.9313	489.85
27.9458	506.85
27.9602	514.76
27.9747	480.37
27.9891	494.77
28.0035	527.72
28.0180	526.40
28.0324	515.46
28.0469	531.92
28.0613	500.94
28.0757	509.14
28.0902	532.60
28.1046	503.98
28.1191	518.40
28.1335	509.26
28.1479	504.88
28.1624	551.64
28.1768	514.43
28.1913	504.04
28.2057	535.09
28.2201	528.92
28.2346	505.38
28.2490	533.87
28.2635	513.54
28.2779	522.79
28.2923	509.44
28.3068	516.66
28.3212	508.88
28.3357	497.02
28.3501	495.80
28.3645	484.01
28.3790	474.64
28.3934	517.00
28.4079	501.71
28.4223	536.48
28.4367	499.04
28.4512	526.09
28.4656	526.02
28.4801	485.98
28.4945	488.13
28.5089	518.66
28.5234	529.83
28.5378	534.06
28.5523	525.56
28.5667	512.87
28.5811	534.63
28.5956	541.71
28.6100	515.78
28.6245	512.75
28.6389	527.62
28.6533	495.83
28.6678	520.87
28.6822	514.02
28.6967	488.99
28.7111	477.72
28.7255	519.97
28.7400	507.91
28.7544	522.15
28.7689	506.95
28.7833	528.12
28.7977	508.52
28.8122	518.25
28.8266	472.01
28.8411	478.98
28.8555	497.87
28.8699	511.59
28.8844	453.69
28.8988	505.08
28.9133	508.31
28.9277	503.87
28.9421	511.11
28.9566	490.80
28.9710	505.70
28.9855	513.01
28.9999	499.59
29.0143	488.30
29.0288	516.30
29.0432	487.92
29.0577	476.86
29.0721	486.46
29.0865	506.05
29.1010	508.58
29.1154	478.18
29.1299	513.00
29.1443	477.75
29.1587	504.09
29.1732	533.69
29.1876	509.01
29.2021	493.62
29.2165	539.01
29.2309	494.50
29.2454	500.42
29.2598	502.03
29.2743	488.93
29.2887	542.90
29.3031	494.61
29.3176	547.25
29.3320	526.84
29.3465	539.47
29.3609	504.73
29.3753	543.50
29.3898	515.07
29.4042	521.82
29.4187	473.00
29.4331	504.88
29.4475	496.50
29.4620	500.52
29.4764	482.79
29.4909	529.74
29.5053	513.67
29.5197	521.70
29.5342	509.05
29.5486	506.32
29.5631	485.15
29.5775	502.41
29.5919	505.56
29.6064	503.76
29.6208	501.09
29.6353	490.75
29.6497	488.32
29.6641	516.35
29.6786	527.34
29.6930	504.58
29.7075	510.28
29.7219	503.82
29.7363	488.87
29.7508	525.32
29.7652	520.89
29.7797	496.54
29.7941	508.12
29.8085	486.66
29.8230	487.45
29.8374	495.29
29.8519	528.71
29.8663	550.16
29.8807	499.43
29.8952	515.57
29.9096	523.05
29.9241	501.35
29.9385	491.93
29.9529	505.27
29.9674	491.16
29.9818	485.59
29.9963	501.02
30.0107	491.16
30.0251	498.26
30.0396	464.73
30.0540	501.13
30.0685	525.16
30.0829	519.14
30.0973	488.66
30.1118	500.99
30.1262	523.63
30.1407	492.55
30.1551	473.62
30.1695	536.48
30.1840	516.64
30.1984	514.71
30.2129	529.65
30.2273	498.58
30.2417	494.83
30.2562	494.31
30.2706	466.03
30.2851	517.31
30.2995	506.85
30.3139	521.76
30.3284	476.01
30.3428	510.32
30.3573	507.07
30.3717	505.16
30.3861	489.64
30.4006	477.00
30.4150	486.78
30.4295	519.46
30.4439	490.17
30.4583	525.47
30.4728	544.85
30.4872	510.21
30.5017	531.59
30.5161	506.67
30.5305	522.92
30.5450	534.71
30.5594	554.43
30.5739	579.55
30.5883	572.47
30.6028	537.32
30.6172	562.61
30.6316	568.88
30.6461	581.14
30.6605	617.20
30.6750	640.85
30.6894	648.67
30.7038	701.72
30.7183	679.94
30.7327	663.86
30.7472	704.32
30.7616	699.17
30.7760	677.00
30.7905	656.06
30.8049	648.43
30.8194	647.62
30.8338	612.62
30.8482	569.26
30.8627	583.05
30.8771	596.25
30.8916	560.55
30.9060	548.08
30.9204	542.80
30.9349	553.72
30.9493	539.51
30.9638	547.73
30.9782	522.14
30.9926	524.92
31.0071	527.80
31.0215	547.60
31.0360	546.59
31.0504	542.49
31.0648	541.79
31.0793	500.96
31.0937	497.07
31.1082	504.82
31.1226	509.76
31.1370	529.84
31.1515	505.87
31.1659	526.18
31.1804	521.31
31.1948	494.68
31.2092	508.93
31.2237	506.93
31.2381	508.96
31.2526	547.68
31.2670	531.95
31.2814	529.11
31.2959	493.91
31.3103	515.34
31.3248	542.36
31.3392	560.27
31.3536	516.91
31.3681	500.36
31.3825	488.83
31.3970	484.44
31.4114	549.52
31.4258	532.80
31.4403	511.86
31.4547	501.17
31.4692	536.73
31.4836	496.56
31.4980	500.86
31.5125	489.21
31.5269	481.21
31.5414	492.95
31.5558	482.92
31.5702	511.64
31.5847	502.02
31.5991	513.21
31.6136	492.14
31.6280	533.44
31.6424	539.41
31.6569	513.72
31.6713	501.20
31.6858	501.26
31.7002	498.86
31.7146	500.91
31.7291	498.55
31.7435	484.35
31.7580	508.43
31.7724	486.59
31.7868	497.95
31.8013	504.59
31.8157	506.10
31.8302	490.71
31.8446	503.77
31.8590	487.32
31.8735	509.38
31.8879	484.58
31.9024	505.82
31.9168	499.41
31.9312	502.21
31.9457	516.25
31.9601	475.84
31.9746	521.08
31.9890	538.42
32.0034	527.00
32.0179	512.77
32.0323	447.93
32.0468	468.83
32.0612	514.07
32.0756	510.35
32.0901	531.00
32.1045	548.43
32.1190	528.80
32.1334	504.79
32.1478	505.25
32.1623	544.56
32.1767	484.48
32.1912	486.75
32.2056	536.36
32.2200	509.41
32.2345	496.04
32.2489	502.83
32.2634	495.08
32.2778	529.14
32.2922	524.33
32.3067	473.55
32.3211	533.54
32.3356	513.80
32.3500	501.27
32.3644	502.28
32.3789	476.04
32.3933	455.07
32.4078	493.68
32.4222	497.96
32.4366	502.39
32.4511	464.07
32.4655	456.84
32.4800	484.27
32.4944	537.76
32.5088	516.98
32.5233	500.59
32.5377	536.94
32.5522	527.85
32.5666	528.65
32.5810	502.85
32.5955	501.82
32.6099	492.11
32.6244	502.12
32.6388	526.26
32.6532	533.16
32.6677	525.82
32.6821	495.99
32.6966	478.11
32.7110	513.21
32.7254	509.87
32.7399	504.27
32.7543	508.64
32.7688	500.68
32.7832	505.44
32.7976	509.97
32.8121	500.48
32.8265	529.85
32.8410	523.73
32.8554	533.08
32.8698	525.83
32.8843	498.83
32.8987	504.53
32.9132	495.47
32.9276	471.88
32.9420	528.41
32.9565	489.42
32.9709	475.49
32.9854	501.41
32.9998	521.33
33.0142	506.36
33.0287	492.01
33.0431	511.28
33.0576	504.20
33.0720	530.02
33.0864	504.53
33.1009	524.24
33.1153	481.17
33.1298	525.34
33.1442	527.07
33.1586	512.84
33.1731	511.24
33.1875	515.97
33.2020	468.16
33.2164	496.25
33.2308	504.76
33.2453	537.19
33.2597	509.14
33.2742	517.72
33.2886	503.69
33.3030	499.65
33.3175	506.13
33.3319	506.98
33.3464	491.98
33.3608	494.10
33.3752	492.28
33.3897	491.15
33.4041	478.57
33.4186	500.63
33.4330	508.78
33.4474	463.72
33.4619	480.49
33.4763	474.68
33.4908	477.54
33.5052	526.36
33.5196	515.82
33.5341	536.28
33.5485	497.39
33.5630	496.21
33.5774	491.65
33.5918	519.16
33.6063	551.30
33.6207	541.85
33.6352	501.46
33.6496	490.18
33.6640	489.56
33.6785	502.93
33.6929	494.19
33.7074	512.72
33.7218	478.58
33.7362	494.67
33.7507	540.66
33.7651	503.43
33.7796	481.85
33.7940	491.95
33.8084	472.37
33.8229	482.49
33.8373	506.70
33.8518	510.18
33.8662	508.65
33.8806	491.37
33.8951	506.04
33.9095	519.19
33.9240	545.24
33.9384	501.44
33.9528	486.56
33.9673	481.57
33.9817	502.14
33.9962	498.79
34.0106	488.22
34.0250	496.92
34.0395	526.35
34.0539	494.94
34.0684	566.45
34.0828	522.82
34.0972	495.60
34.1117	520.07
34.1261	523.68
34.1406	506.07
34.1550	520.04
34.1694	524.20
34.1839	492.68
34.1983	508.75
34.2128	516.13
34.2272	472.65
34.2417	526.26
34.2561	502.47
34.2705	482.84
34.2850	520.84
34.2994	493.21
34.3139	502.86
34.3283	502.78
34.3427	530.91
34.3572	515.46
34.3716	487.58
34.3861	491.43
34.4005	488.57
34.4149	515.84
34.4294	522.81
34.4438	513.33
34.4583	494.64
34.4727	509.19
34.4871	506.98
34.5016	513.82
34.5160	485.21
34.5305	497.53
34.5449	504.97
34.5593	509.18
34.5738	503.94
34.5882	499.75
34.6027	489.62
34.6171	498.98
34.6315	509.03
34.6460	513.43
34.6604	487.98
34.6749	495.22
34.6893	519.11
34.7037	537.84
34.7182	511.28
34.7326	488.38
34.7471	511.61
34.7615	513.38
34.7759	503.74
34.7904	500.81
34.8048	489.83
34.8193	523.78
34.8337	493.73
34.8481	519.80
34.8626	529.77
34.8770	507.42
34.8915	493.55
34.9059	510.30
34.9203	468.81
34.9348	521.58
34.9492	511.04
34.9637	486.97
34.9781	471.57
34.9925	486.32
35.0070	495.95
35.0214	489.01
35.0359	492.33
35.0503	513.37
35.0647	545.07
35.0792	520.19
35.0936	482.96
35.1081	509.59
35.1225	547.54
35.1369	537.42
35.1514	528.20
35.1658	524.72
35.1803	525.87
35.1947	492.05
35.2091	505.04
35.2236	543.24
35.2380	519.35
35.2525	503.30
35.2669	531.02
35.2813	532.77
35.2958	518.30
35.3102	517.17
35.3247	480.41
35.3391	531.63
35.3535	517.90
35.3680	496.46
35.3824	471.69
35.3969	484.27
35.4113	516.28
35.4257	527.84
35.4402	529.59
35.4546	564.18
35.4691	547.75
35.4835	517.32
35.4979	522.14
35.5124	550.80
35.5268	551.90
35.5413	576.95
35.5557	553.45
35.5701	556.39
35.5846	533.11
35.5990	557.54
35.6135	543.71
35.6279	532.04
35.6423	543.86
35.6568	530.64
35.6712	491.10
35.6857	569.42
35.7001	665.58
35.7145	727.02
35.7290	680.04
35.7434	639.12
35.7579	563.35
35.7723	579.99
35.7867	657.45
35.8012	698.15
35.8156	657.00
35.8301	620.25
35.8445	640.24
35.8589	679.22
35.8734	757.76
35.8878	867.06
35.9023	1007.78
35.9167	994.36
35.9311	1192.28
35.9456	1690.29
35.9600	2112.37
35.9745	1904.41
35.9889	1968.50
36.0033	2508.76
36.0178	3255.37
36.0322	3024.34
36.0467	2118.40
36.0611	1797.68
36.0755	1773.42
36.0900	1858.76
36.1044	1603.27
36.1189	1603.50
36.1333	1568.72
36.1477	1381.90
36.1622	1323.74
36.1766	1297.70
36.1911	1239.76
36.2055	1178.32
36.2199	1127.32
36.2344	1017.06
36.2488	948.27
36.2633	837.29
36.2777	812.36
36.2921	832.04
36.3066	777.56
36.3210	742.42
36.3355	722.44
36.3499	691.30
36.3643	655.16
36.3788	605.43
36.3932	590.28
36.4077	604.04
36.4221	600.10
36.4365	600.42
36.4510	549.42
36.4654	578.77
36.4799	538.09
36.4943	542.96
36.5087	548.47
36.5232	558.52
36.5376	569.24
36.5521	553.92
36.5665	533.46
36.5809	550.97
36.5954	511.64
36.6098	545.53
36.6243	534.27
36.6387	539.62
36.6531	521.02
36.6676	533.39
36.6820	506.40
36.6965	548.63
36.7109	525.91
36.7253	505.99
36.7398	527.29
36.7542	534.36
36.7687	537.99
36.7831	580.20
36.7975	522.35
36.8120	545.32
36.8264	556.23
36.8409	548.07
36.8553	570.76
36.8697	577.92
36.8842	593.22
36.8986	624.01
36.9131	568.68
36.9275	570.83
36.9419	610.81
36.9564	580.34
36.9708	587.74
36.9853	519.84
36.9997	522.24
37.0141	588.20
37.0286	516.28
37.0430	480.82
37.0575	508.32
37.0719	516.34
37.0863	554.19
37.1008	532.99
37.1152	541.61
37.1297	543.92
37.1441	499.66
37.1585	521.79
37.1730	533.30
37.1874	501.94
37.2019	477.52
37.2163	494.12
37.2307	474.18
37.2452	487.57
37.2596	483.47
37.2741	513.81
37.2885	513.75
37.3029	504.05
37.3174	496.87
37.3318	487.40
37.3463	506.73
37.3607	528.84
37.3751	509.41
37.3896	478.91
37.4040	536.59
37.4185	544.41
37.4329	528.77
37.4473	511.55
37.4618	485.24
37.4762	524.71
37.4907	539.01
37.5051	494.77
37.5195	489.69
37.5340	511.30
37.5484	517.70
37.5629	541.27
37.5773	508.25
37.5917	524.04
37.6062	490.74
37.6206	486.65
37.6351	537.61
37.6495	503.50
37.6639	511.81
37.6784	491.34
37.6928	492.69
37.7073	522.68
37.7217	518.04
37.7361	516.15
37.7506	492.35
37.7650	479.19
37.7795	473.40
37.7939	500.99
37.8083	509.22
37.8228	479.70
37.8372	516.58
37.8517	508.15
37.8661	546.16
37.8805	527.48
37.8950	475.73
37.9094	499.92
37.9239	455.34
37.9383	482.31
37.9528	478.74
37.9672	495.12
37.9816	472.41
37.9961	498.43
38.0105	504.52
38.0250	516.11
38.0394	518.28
38.0538	487.56
38.0683	501.50
38.0827	521.98
38.0972	515.68
38.1116	505.10
38.1260	516.22
38.1405	475.07
38.1549	494.58
38.1694	497.61
38.1838	475.39
38.1982	484.89
38.2127	474.12
38.2271	510.85
38.2416	540.95
38.2560	486.11
38.2704	473.02
38.2849	501.80
38.2993	485.61
38.3138	528.71
38.3282	507.22
38.3426	542.77
38.3571	529.99
38.3715	554.30
38.3860	524.96
38.4004	529.62
38.4148	530.33
38.4293	559.82
38.4437	567.32
38.4582	587.20
38.4726	651.11
38.4870	674.75
38.5015	685.77
38.5159	757.42
38.5304	785.09
38.5448	819.84
38.5592	809.36
38.5737	768.82
38.5881	690.34
38.6026	687.05
38.6170	691.93
38.6314	685.91
38.6459	667.15
38.6603	642.08
38.6748	604.29
38.6892	587.72
38.7036	630.94
38.7181	553.10
38.7325	527.48
38.7470	538.35
38.7614	527.45
38.7758	513.49
38.7903	516.71
38.8047	503.30
38.8192	535.06
38.8336	519.06
38.8480	488.55
38.8625	500.36
38.8769	473.79
38.8914	472.15
38.9058	504.90
38.9202	495.71
38.9347	508.35
38.9491	485.63
38.9636	468.60
38.9780	451.43
38.9924	459.80
39.0069	482.42
39.0213	481.11
39.0358	479.01
39.0502	494.25
39.0646	518.64
39.0791	518.95
39.0935	513.46
39.1080	501.09
39.1224	532.30
39.1368	508.76
39.1513	484.57
39.1657	504.84
39.1802	465.46
39.1946	486.81
39.2090	483.82
39.2235	486.24
39.2379	502.55
39.2524	539.98
39.2668	510.81
39.2812	507.22
39.2957	511.99
39.3101	513.46
39.3246	517.61
39.3390	504.99
39.3534	517.32
39.3679	540.58
39.3823	509.65
39.3968	468.54
39.4112	481.04
39.4256	508.75
39.4401	527.78
39.4545	514.00
39.4690	494.20
39.4834	527.85
39.4978	523.78
39.5123	493.36
39.5267	501.26
39.5412	479.25
39.5556	504.16
39.5700	513.64
39.5845	454.93
39.5989	486.73
39.6134	463.98
39.6278	502.83
39.6422	474.60
39.6567	492.16
39.6711	499.97
39.6856	490.73
39.7000	491.09
39.7144	486.42
39.7289	487.01
39.7433	468.68
39.7578	449.24
39.7722	493.06
39.7866	463.01
39.8011	497.31
39.8155	516.47
39.8300	488.43
39.8444	489.22
39.8588	513.35
39.8733	508.78
39.8877	519.68
39.9022	530.10
39.9166	512.47
39.9310	502.70
39.9455	491.30
39.9599	499.13
39.9744	500.90
39.9888	457.86
40.0032	453.57
40.0177	491.39
40.0321	528.58
40.0466	476.56
40.0610	515.91
40.0754	481.92
40.0899	527.23
40.1043	518.32
40.1188	503.61
40.1332	516.16
40.1476	478.91
40.1621	482.05
40.1765	494.11
40.1910	474.13
40.2054	462.37
40.2198	460.09
40.2343	479.18
40.2487	486.33
40.2632	510.81
40.2776	498.76
40.2920	520.68
40.3065	507.84
40.3209	526.12
40.3354	559.93
40.3498	513.44
40.3642	522.96
40.3787	506.06
40.3931	488.09
40.4076	495.79
40.4220	467.79
40.4364	520.54
40.4509	463.26
40.4653	490.54
40.4798	504.51
40.4942	523.69
40.5086	505.05
40.5231	508.66
40.5375	517.82
40.5520	508.44
40.5664	478.77
40.5808	487.34
40.5953	484.57
40.6097	481.06
40.6242	489.35
40.6386	496.34
40.6530	482.40
40.6675	451.38
40.6819	485.62
40.6964	534.33
40.7108	550.07
40.7252	483.87
40.7397	496.35
40.7541	455.50
40.7686	478.66
40.7830	501.33
40.7974	494.07
40.8119	507.35
40.8263	510.79
40.8408	516.39
40.8552	492.94
40.8696	502.36
40.8841	512.63
40.8985	543.79
40.9130	545.09
40.9274	518.52
40.9418	496.91
40.9563	486.86
40.9707	490.68
40.9852	512.18
40.9996	474.43
41.0140	475.02
41.0285	488.61
41.0429	464.19
41.0574	517.63
41.0718	521.79
41.0862	504.56
41.1007	507.17
41.1151	493.91
41.1296	508.27
41.1440	487.79
41.1584	493.51
41.1729	490.53
41.1873	478.36
41.2018	459.50
41.2162	467.17
41.2306	471.41
41.2451	489.70
41.2595	493.99
41.2740	538.94
41.2884	474.04
41.3028	469.30
41.3173	472.91
41.3317	502.81
41.3462	494.34
41.3606	486.44
41.3750	516.84
41.3895	496.68
41.4039	475.67
41.4184	490.77
41.4328	518.25
41.4472	502.55
41.4617	496.28
41.4761	478.54
41.4906	525.40
41.5050	491.38
41.5194	504.74
41.5339	510.83
41.5483	509.20
41.5628	505.99
41.5772	473.07
41.5916	511.01
41.6061	498.44
41.6205	523.17
41.6350	517.70
41.6494	477.02
41.6639	481.44
41.6783	494.46
41.6927	517.59
41.7072	479.69
41.7216	502.26
41.7361	502.98
41.7505	516.31
41.7649	491.22
41.7794	529.24
41.7938	486.74
41.8083	491.56
41.8227	476.34
41.8371	538.37
41.8516	511.39
41.8660	530.85
41.8805	517.26
41.8949	496.15
41.9093	542.78
41.9238	568.36
41.9382	555.66
41.9527	555.84
41.9671	574.66
41.9815	598.29
41.9960	550.53
42.0104	511.72
42.0249	566.24
42.0393	584.28
42.0537	585.04
42.0682	560.49
42.0826	540.88
42.0971	610.90
42.1115	554.31
42.1259	574.82
42.1404	603.01
42.1548	621.05
42.1693	654.48
42.1837	655.79
42.1981	736.97
42.2126	847.66
42.2270	942.04
42.2415	1109.98
42.2559	1223.34
42.2703	1332.19
42.2848	1496.44
42.2992	1631.53
42.3137	1723.32
42.3281	1663.41
42.3425	1615.78
42.3570	1504.19
42.3714	1479.29
42.3859	1430.39
42.4003	1389.52
42.4147	1356.94
42.4292	1347.97
42.4436	1173.79
42.4581	1076.08
42.4725	991.51
42.4869	879.51
42.5014	759.62
42.5158	665.81
42.5303	682.11
42.5447	622.02
42.5591	606.40
42.5736	569.86
42.5880	585.12
42.6025	580.43
42.6169	570.18
42.6313	584.42
42.6458	535.28
42.6602	528.89
42.6747	518.02
42.6891	526.25
42.7035	551.92
42.7180	567.77
42.7324	546.17
42.7469	559.74
42.7613	560.16
42.7757	542.28
42.7902	530.59
42.8046	525.07
42.8191	542.68
42.8335	566.43
42.8479	531.02
42.8624	535.41
42.8768	535.62
42.8913	520.61
42.9057	537.01
42.9201	528.33
42.9346	497.00
42.9490	502.26
42.9635	517.22
42.9779	518.72
42.9923	509.43
43.0068	507.32
43.0212	519.46
43.0357	514.82
43.0501	491.13
43.0645	505.11
43.0790	550.67
43.0934	547.39
43.1079	523.84
43.1223	524.90
43.1367	486.00
43.1512	478.78
43.1656	542.18
43.1801	540.88
43.1945	499.73
43.2089	515.83
43.2234	533.11
43.2378	550.62
43.2523	567.97
43.2667	503.12
43.2811	503.21
43.2956	510.51
43.3100	509.57
43.3245	537.07
43.3389	514.41
43.3533	507.35
43.3678	520.13
43.3822	492.55
43.3967	487.06
43.4111	538.01
43.4255	554.93
43.4400	543.74
43.4544	502.75
43.4689	516.40
43.4833	512.69
43.4977	496.13
43.5122	492.55
43.5266	498.43
43.5411	472.36
43.5555	492.19
43.5699	514.64
43.5844	518.30
43.5988	500.10
43.6133	490.26
43.6277	523.06
43.6421	551.52
43.6566	513.30
43.6710	543.82
43.6855	507.58
43.6999	500.91
43.7143	505.18
43.7288	519.18
43.7432	509.83
43.7577	503.86
43.7721	538.89
43.7865	555.74
43.8010	529.96
43.8154	534.85
43.8299	556.38
43.8443	587.25
43.8587	582.65
43.8732	547.53
43.8876	545.39
43.9021	595.40
43.9165	570.10
43.9309	581.65
43.9454	609.19
43.9598	653.12
43.9743	611.23
43.9887	608.89
44.0031	615.45
44.0176	587.52
44.0320	601.83
44.0465	551.36
44.0609	573.42
44.0753	559.27
44.0898	576.45
44.1042	557.40
44.1187	564.78
44.1331	552.05
44.1475	530.90
44.1620	538.06
44.1764	544.13
44.1909	526.21
44.2053	492.02
44.2197	517.17
44.2342	527.71
44.2486	516.24
44.2631	542.34
44.2775	516.61
44.2919	539.31
44.3064	529.80
44.3208	525.87
44.3353	515.11
44.3497	509.66
44.3641	497.04
44.3786	553.08
44.3930	539.40
44.4075	543.76
44.4219	564.12
44.4363	575.89
44.4508	573.04
44.4652	567.19
44.4797	547.45
44.4941	564.34
44.5085	558.23
44.5230	556.86
44.5374	594.60
44.5519	611.56
44.5663	568.40
44.5807	542.86
44.5952	559.73
44.6096	608.23
44.6241	553.53
44.6385	583.84
44.6529	589.14
44.6674	546.20
44.6818	586.71
44.6963	637.02
44.7107	646.71
44.7251	650.24
44.7396	712.03
44.7540	808.06
44.7685	841.41
44.7829	892.71
44.7973	847.04
44.8118	867.33
44.8262	838.32
44.8407	787.77
44.8551	749.56
44.8695	759.52
44.8840	703.57
44.8984	713.69
44.9129	717.04
44.9273	718.11
44.9417	650.53
44.9562	641.31
44.9706	624.63
44.9851	580.44
44.9995	559.25
45.0139	531.27
45.0284	455.91
45.0428	525.03
45.0573	557.46
45.0717	486.72
45.0861	521.34
45.1006	492.77
45.1150	536.49
45.1295	521.15
45.1439	502.83
45.1583	508.01
45.1728	546.37
45.1872	563.87
45.2017	500.85
45.2161	556.64
45.2305	513.27
45.2450	524.86
45.2594	482.04
45.2739	478.22
45.2883	535.95
45.3028	516.71
45.3172	490.84
45.3316	512.56
45.3461	507.87
45.3605	547.33
45.3750	514.13
45.3894	514.46
45.4038	479.83
45.4183	518.96
45.4327	534.13
45.4472	507.21
45.4616	494.77
45.4760	475.80
45.4905	507.66
45.5049	501.34
45.5194	503.58
45.5338	514.17
45.5482	506.47
45.5627	503.28
45.5771	512.76
45.5916	505.18
45.6060	538.40
45.6204	513.88
45.6349	511.65
45.6493	480.82
45.6638	516.66
45.6782	467.21
45.6926	518.97
45.7071	496.80
45.7215	495.49
45.7360	513.24
45.7504	502.42
45.7648	518.63
45.7793	507.57
45.7937	495.04
45.8082	507.92
45.8226	487.41
45.8370	494.56
45.8515	504.33
45.8659	542.62
45.8804	488.26
45.8948	519.46
45.9092	513.76
45.9237	490.17
45.9381	485.59
45.9526	485.83
45.9670	498.09
45.9814	472.57
45.9959	478.15
46.0103	524.41
46.0248	509.04
46.0392	495.84
46.0536	476.36
46.0681	510.73
46.0825	490.25
46.0970	463.47
46.1114	503.31
46.1258	478.59
46.1403	490.18
46.1547	457.64
46.1692	479.31
46.1836	507.98
46.1980	486.14
46.2125	501.23
46.2269	495.81
46.2414	513.35
46.2558	468.72
46.2702	503.24
46.2847	522.81
46.2991	509.68
46.3136	507.90
46.3280	518.38
46.3424	496.00
46.3569	472.32
46.3713	475.74
46.3858	502.72
46.4002	470.49
46.4146	505.71
46.4291	538.26
46.4435	531.92
46.4580	490.50
46.4724	531.09
46.4868	521.33
46.5013	511.41
46.5157	488.36
46.5302	493.15
46.5446	520.75
46.5590	517.74
46.5735	486.51
46.5879	479.50
46.6024	493.02
46.6168	525.95
46.6312	491.97
46.6457	462.56
46.6601	474.08
46.6746	509.94
46.6890	492.81
46.7034	538.28
46.7179	500.61
46.7323	505.79
46.7468	511.29
46.7612	486.36
46.7756	504.31
46.7901	502.37
46.8045	507.79
46.8190	506.56
46.8334	487.30
46.8478	494.75
46.8623	518.05
46.8767	530.59
46.8912	498.19
46.9056	548.19
46.9200	510.83
46.9345	513.87
46.9489	520.27
46.9634	499.81
46.9778	517.64
46.9922	529.74
47.0067	499.79
47.0211	506.06
47.0356	522.03
47.0500	530.78
47.0644	511.92
47.0789	480.32
47.0933	495.04
47.1078	530.49
47.1222	530.74
47.1366	511.24
47.1511	513.01
47.1655	510.09
47.1800	512.98
47.1944	541.20
47.2088	504.80
47.2233	519.15
47.2377	498.89
47.2522	494.74
47.2666	491.05
47.2810	526.86
47.2955	518.04
47.3099	509.21
47.3244	497.59
47.3388	503.47
47.3532	489.48
47.3677	510.43
47.3821	502.59
47.3966	491.30
47.4110	516.90
47.4254	537.91
47.4399	516.62
47.4543	476.39
47.4688	517.07
47.4832	505.63
47.4976	485.43
47.5121	483.71
47.5265	491.24
47.5410	505.16
47.5554	536.08
47.5698	486.60
47.5843	476.71
47.5987	515.33
47.6132	504.80
47.6276	523.39
47.6420	514.03
47.6565	494.77
47.6709	494.01
47.6854	471.57
47.6998	502.12
47.7142	534.83
47.7287	491.98
47.7431	474.08
47.7576	460.01
47.7720	444.45
47.7864	505.74
47.8009	481.35
47.8153	514.85
47.8298	517.37
47.8442	547.58
47.8586	553.31
47.8731	528.81
47.8875	513.34
47.9020	512.35
47.9164	489.13
47.9308	545.70
47.9453	524.88
47.9597	482.77
47.9742	505.87
47.9886	465.37
48.0030	491.78
48.0175	507.80
48.0319	498.23
48.0464	480.59
48.0608	468.72
48.0752	516.61
48.0897	512.19
48.1041	479.96
48.1186	503.98
48.1330	505.36
48.1474	500.24
48.1619	493.74
48.1763	521.76
48.1908	502.48
48.2052	495.50
48.2196	527.49
48.2341	472.17
48.2485	507.07
48.2630	505.51
48.2774	500.55
48.2918	509.88
48.3063	534.58
48.3207	518.43
48.3352	545.94
48.3496	497.82
48.3640	500.68
48.3785	504.93
48.3929	482.37
48.4074	472.11
48.4218	519.63
48.4362	503.90
48.4507	493.75
48.4651	517.74
48.4796	511.27
48.4940	467.99
48.5084	473.31
48.5229	498.24
48.5373	536.58
48.5518	509.84
48.5662	510.60
48.5806	506.76
48.5951	541.79
48.6095	523.03
48.6240	534.70
48.6384	512.21
48.6528	507.30
48.6673	485.76
48.6817	525.95
48.6962	514.85
48.7106	519.53
48.7250	561.16
48.7395	516.72
48.7539	555.81
48.7684	517.29
48.7828	564.94
48.7972	550.18
48.8117	535.04
48.8261	516.87
48.8406	539.26
48.8550	533.09
48.8694	545.05
48.8839	517.93
48.8983	575.87
48.9128	512.19
48.9272	502.70
48.9416	572.49
48.9561	565.65
48.9705	535.32
48.9850	610.33
48.9994	607.90
49.0139	591.63
49.0283	584.18
49.0427	609.53
49.0572	642.48
49.0716	665.94
49.0861	682.52
49.1005	679.79
49.1149	675.50
49.1294	781.65
49.1438	767.81
49.1583	835.71
49.1727	850.57
49.1871	891.20
49.2016	970.08
49.2160	1055.38
49.2305	1141.65
49.2449	1226.43
49.2593	1323.40
49.2738	1365.65
49.2882	1527.11
49.3027	1568.57
49.3171	1616.49
49.3315	1746.82
49.3460	1777.06
49.3604	1748.76
49.3749	1802.28
49.3893	1793.94
49.4037	1770.69
49.4182	1777.50
49.4326	1779.15
49.4471	1658.77
49.4615	1659.50
49.4759	1562.43
49.4904	1507.25
49.5048	1477.26
49.5193	1354.42
49.5337	1316.86
49.5481	1218.69
49.5626	1165.29
49.5770	1108.17
49.5915	1032.07
49.6059	969.74
49.6203	870.14
49.6348	805.22
49.6492	809.70
49.6637	749.22
49.6781	695.45
49.6925	671.81
49.7070	682.71
49.7214	634.19
49.7359	606.63
49.7503	615.60
49.7647	604.31
49.7792	572.47
49.7936	579.88
49.8081	597.35
49.8225	565.85
49.8369	595.03
49.8514	543.66
49.8658	561.55
49.8803	538.53
49.8947	524.29
49.9091	583.06
49.9236	540.93
49.9380	539.12
49.9525	539.66
49.9669	520.13
49.9813	510.27
49.9958	537.70
50.0102	534.64
50.0247	560.08
50.0391	527.76
50.0535	538.05
50.0680	554.71
50.0824	528.49
50.0969	532.97
50.1113	538.31
50.1257	551.14
50.1402	530.22
50.1546	527.88
50.1691	516.82
50.1835	483.07
50.1979	469.80
50.2124	502.81
50.2268	517.98
50.2413	509.14
50.2557	523.21
50.2701	544.04
50.2846	539.00
50.2990	508.53
50.3135	517.00
50.3279	518.50
50.3423	523.81
50.3568	526.80
50.3712	510.31
50.3857	529.47
50.4001	479.86
50.4145	500.39
50.4290	555.06
50.4434	526.90
50.4579	490.14
50.4723	487.73
50.4867	524.48
50.5012	537.85
50.5156	523.34
50.5301	503.25
50.5445	514.13
50.5589	503.77
50.5734	491.66
50.5878	515.06
50.6023	492.15
50.6167	505.71
50.6311	525.56
50.6456	517.37
50.6600	530.60
50.6745	505.19
50.6889	497.46
50.7033	521.94
50.7178	483.99
50.7322	492.01
50.7467	520.14
50.7611	511.62
50.7755	506.95
50.7900	515.68
50.8044	549.71
50.8189	540.63
50.8333	522.67
50.8477	493.41
50.8622	513.43
50.8766	525.62
50.8911	494.43
50.9055	475.67
50.9199	512.06
50.9344	536.48
50.9488	494.62
50.9633	506.56
50.9777	484.70
50.9921	507.89
51.0066	511.37
51.0210	492.12
51.0355	494.51
51.0499	510.98
51.0643	527.38
51.0788	533.08
51.0932	508.33
51.1077	473.69
51.1221	533.41
51.1365	504.31
51.1510	460.09
51.1654	491.08
51.1799	512.64
51.1943	496.04
51.2087	472.68
51.2232	479.69
51.2376	513.06
51.2521	525.98
51.2665	531.27
51.2809	532.21
51.2954	490.93
51.3098	484.38
51.3243	499.06
51.3387	503.74
51.3531	490.38
51.3676	508.10
51.3820	526.42
51.3965	497.84
51.4109	503.26
51.4253	558.87
51.4398	515.77
51.4542	473.21
51.4687	489.47
51.4831	535.81
51.4975	498.75
51.5120	513.50
51.5264	505.08
51.5409	518.20
51.5553	494.92
51.5697	494.39
51.5842	510.85
51.5986	496.69
51.6131	487.17
51.6275	488.86
51.6419	530.64
51.6564	476.73
51.6708	478.79
51.6853	469.97
51.6997	495.98
51.7141	497.39
51.7286	479.82
51.7430	493.65
51.7575	506.17
51.7719	518.56
51.7863	539.53
51.8008	540.84
51.8152	503.89
51.8297	493.29
51.8441	510.31
51.8585	543.89
51.8730	508.90
51.8874	511.70
51.9019	455.97
51.9163	485.81
51.9307	531.71
51.9452	501.86
51.9596	476.03
51.9741	499.05
51.9885	486.15
52.0029	527.14
52.0174	523.58
52.0318	507.02
52.0463	504.61
52.0607	530.48
52.0751	525.16
52.0896	540.59
52.1040	552.06
52.1185	526.80
52.1329	517.06
52.1473	485.10
52.1618	501.50
52.1762	511.72
52.1907	497.33
52.2051	511.86
52.2195	505.17
52.2340	503.36
52.2484	519.31
52.2629	511.27
52.2773	531.19
52.2917	508.76
52.3062	491.74
52.3206	514.48
52.3351	535.25
52.3495	539.75
52.3639	479.70
52.3784	504.66
52.3928	504.05
52.4073	530.65
52.4217	495.65
52.4361	508.08
52.4506	463.83
52.4650	530.55
52.4795	530.63
52.4939	517.57
52.5083	504.24
52.5228	502.09
52.5372	526.13
52.5517	541.44
52.5661	509.66
52.5805	485.23
52.5950	539.76
52.6094	506.52
52.6239	509.05
52.6383	522.09
52.6527	504.79
52.6672	493.89
52.6816	476.42
52.6961	509.01
52.7105	550.43
52.7250	529.18
52.7394	498.83
52.7538	531.18
52.7683	535.80
52.7827	521.19
52.7972	497.15
52.8116	536.75
52.8260	508.02
52.8405	499.57
52.8549	543.62
52.8694	498.48
52.8838	509.38
52.8982	532.82
52.9127	541.14
52.9271	517.36
52.9416	522.58
52.9560	494.73
52.9704	510.76
52.9849	489.75
52.9993	525.75
53.0138	530.00
53.0282	507.62
53.0426	498.52
53.0571	519.29
53.0715	506.80
53.0860	513.27
53.1004	510.18
53.1148	566.27
53.1293	552.84
53.1437	541.88
53.1582	542.98
53.1726	527.82
53.1870	518.48
53.2015	506.91
53.2159	525.57
53.2304	502.83
53.2448	496.73
53.2592	509.44
53.2737	500.76
53.2881	502.59
53.3026	506.24
53.3170	515.32
53.3314	550.94
53.3459	552.33
53.3603	574.90
53.3748	506.69
53.3892	520.46
53.4036	495.14
53.4181	500.56
53.4325	539.36
53.4470	493.46
53.4614	497.79
53.4758	520.41
53.4903	546.70
53.5047	491.81
53.5192	492.33
53.5336	494.64
53.5480	490.70
53.5625	504.85
53.5769	497.05
53.5914	498.92
53.6058	521.51
53.6202	517.09
53.6347	511.47
53.6491	494.31
53.6636	503.88
53.6780	503.62
53.6924	519.42
53.7069	514.12
53.7213	513.07
53.7358	507.28
53.7502	522.59
53.7646	514.70
53.7791	527.29
53.7935	507.37
53.8080	480.24
53.8224	528.92
53.8368	523.88
53.8513	516.38
53.8657	510.53
53.8802	526.25
53.8946	518.60
53.9090	565.25
53.9235	550.11
53.9379	533.07
53.9524	512.73
53.9668	524.67
53.9812	491.54
53.9957	500.59
54.0101	488.03
54.0246	520.90
54.0390	525.38
54.0534	517.72
54.0679	479.89
54.0823	502.98
54.0968	515.48
54.1112	513.69
54.1256	522.13
54.1401	505.68
54.1545	488.01
54.1690	515.39
54.1834	509.63
54.1978	518.61
54.2123	518.38
54.2267	512.98
54.2412	522.57
54.2556	548.83
54.2700	532.78
54.2845	518.63
54.2989	489.82
54.3134	482.07
54.3278	522.49
54.3422	502.41
54.3567	536.20
54.3711	519.97
54.3856	512.19
54.4000	542.51
54.4144	561.37
54.4289	564.10
54.4433	576.15
54.4578	569.56
54.4722	579.44
54.4866	566.51
54.5011	579.91
54.5155	574.47
54.5300	574.22
54.5444	570.60
54.5588	598.99
54.5733	591.16
54.5877	597.32
54.6022	610.57
54.6166	588.97
54.6310	563.28
54.6455	568.11
54.6599	578.48
54.6744	541.16
54.6888	540.89
54.7032	575.93
54.7177	581.95
54.7321	596.17
54.7466	549.38
54.7610	526.18
54.7754	551.16
54.7899	528.94
54.8043	524.19
54.8188	565.20
54.8332	544.35
54.8476	537.00
54.8621	517.34
54.8765	572.28
54.8910	553.50
54.9054	570.26
54.9198	527.03
54.9343	534.79
54.9487	491.17
54.9632	509.34
54.9776	517.27
54.9920	468.88
55.0065	505.97
55.0209	516.77
55.0354	516.28
55.0498	519.18
55.0642	525.11
55.0787	540.03
55.0931	523.01
55.1076	518.32
55.1220	570.08
55.1364	559.91
55.1509	483.91
55.1653	507.79
55.1798	514.59
55.1942	485.72
55.2086	499.61
55.2231	541.28
55.2375	535.36
55.2520	513.55
55.2664	503.43
55.2808	532.77
55.2953	520.78
55.3097	518.13
55.3242	505.82
55.3386	527.01
55.3530	512.13
55.3675	517.06
55.3819	528.14
55.3964	495.31
55.4108	481.50
55.4252	515.22
55.4397	512.30
55.4541	481.66
55.4686	511.04
55.4830	530.92
55.4974	479.74
55.5119	517.95
55.5263	537.81
55.5408	551.18
55.5552	523.73
55.5696	512.47
55.5841	513.08
55.5985	536.10
55.6130	530.78
55.6274	528.30
55.6418	533.97
55.6563	518.93
55.6707	504.14
55.6852	517.02
55.6996	531.01
55.7140	521.45
55.7285	538.66
55.7429	515.66
55.7574	513.62
55.7718	519.43
55.7862	505.12
55.8007	497.83
55.8151	530.77
55.8296	515.40
55.8440	527.88
55.8584	522.26
55.8729	504.85
55.8873	510.78
55.9018	529.20
55.9162	511.54
55.9306	525.94
55.9451	533.38
55.9595	504.27
55.9740	500.32
55.9884	483.84
56.0028	501.57
56.0173	519.95
56.0317	482.51
56.0462	503.92
56.0606	520.40
56.0750	522.48
56.0895	548.99
56.1039	503.06
56.1184	512.95
56.1328	553.79
56.1472	494.34
56.1617	490.62
56.1761	504.47
56.1906	478.26
56.2050	515.02
56.2194	530.58
56.2339	512.22
56.2483	522.49
56.2628	506.10
56.2772	529.67
56.2916	513.96
56.3061	493.65
56.3205	532.24
56.3350	517.39
56.3494	516.23
56.3639	504.95
56.3783	520.73
56.3927	529.20
56.4072	513.02
56.4216	545.42
56.4361	568.41
56.4505	520.67
56.4649	509.23
56.4794	524.52
56.4938	559.98
56.5083	513.38
56.5227	538.34
56.5371	521.52
56.5516	556.08
56.5660	542.35
56.5805	513.45
56.5949	551.62
56.6093	551.09
56.6238	524.30
56.6382	513.40
56.6527	530.57
56.6671	540.71
56.6815	513.55
56.6960	535.36
56.7104	538.36
56.7249	490.66
56.7393	510.60
56.7537	514.26
56.7682	496.37
56.7826	539.31
56.7971	529.90
56.8115	534.92
56.8259	478.59
56.8404	544.78
56.8548	510.84
56.8693	525.71
56.8837	530.88
56.8981	513.96
56.9126	525.57
56.9270	514.23
56.9415	518.75
56.9559	482.24
56.9703	517.38
56.9848	507.58
56.9992	535.73
57.0137	559.26
57.0281	542.98
57.0425	513.53
57.0570	491.35
57.0714	491.39
57.0859	516.68
57.1003	512.03
57.1147	532.58
57.1292	546.98
57.1436	473.94
57.1581	490.45
57.1725	485.06
57.1869	469.65
57.2014	501.70
57.2158	515.85
57.2303	526.02
57.2447	524.18
57.2591	480.22
57.2736	515.97
57.2880	535.05
57.3025	534.92
57.3169	503.55
57.3313	531.61
57.3458	504.22
57.3602	541.95
57.3747	546.65
57.3891	545.93
57.4035	554.29
57.4180	544.76
57.4324	535.81
57.4469	513.15
57.4613	550.79
57.4757	512.85
57.4902	521.22
57.5046	519.63
57.5191	510.89
57.5335	513.87
57.5479	501.89
57.5624	520.47
57.5768	548.10
57.5913	533.55
57.6057	521.62
57.6201	507.30
57.6346	512.48
57.6490	508.18
57.6635	531.00
57.6779	513.22
57.6923	536.14
57.7068	542.67
57.7212	566.80
57.7357	532.39
57.7501	514.17
57.7645	517.97
57.7790	525.64
57.7934	545.57
57.8079	538.46
57.8223	546.90
57.8367	511.53
57.8512	496.14
57.8656	515.60
57.8801	537.58
57.8945	585.57
57.9089	562.87
57.9234	544.79
57.9378	549.49
57.9523	559.36
57.9667	562.87
57.9811	551.92
57.9956	597.09
58.0100	616.46
58.0245	641.58
58.0389	629.98
58.0533	667.57
58.0678	638.18
58.0822	599.92
58.0967	651.41
58.1111	624.50
58.1255	657.93
58.1400	663.66
58.1544	643.24
58.1689	675.04
58.1833	667.97
58.1977	685.92
58.2122	668.45
58.2266	657.74
58.2411	666.88
58.2555	623.57
58.2699	624.30
58.2844	641.49
58.2988	645.71
58.3133	633.89
58.3277	630.37
58.3421	624.58
58.3566	582.91
58.3710	621.75
58.3855	583.11
58.3999	573.98
58.4143	559.19
58.4288	569.54
58.4432	568.51
58.4577	586.05
58.4721	600.85
58.4865	579.04
58.5010	570.78
58.5154	518.40
58.5299	539.28
58.5443	581.86
58.5587	578.05
58.5732	549.04
58.5876	547.19
58.6021	593.97
58.6165	525.67
58.6309	540.12
58.6454	547.82
58.6598	563.76
58.6743	554.72
58.6887	532.49
58.7031	517.51
58.7176	523.68
58.7320	514.35
58.7465	548.41
58.7609	526.89
58.7753	512.98
58.7898	526.17
58.8042	542.79
58.8187	555.64
58.8331	529.51
58.8475	530.85
58.8620	555.29
58.8764	522.36
58.8909	524.04
58.9053	556.50
58.9197	535.92
58.9342	530.62
58.9486	523.83
58.9631	508.49
58.9775	527.34
58.9919	576.02
59.0064	554.49
59.0208	544.24
59.0353	499.61
59.0497	519.46
59.0641	545.42
59.0786	553.82
59.0930	559.29
59.1075	534.81
59.1219	553.92
59.1363	551.00
59.1508	504.37
59.1652	517.37
59.1797	547.92
59.1941	517.47
59.2085	508.67
59.2230	547.35
59.2374	534.61
59.2519	549.95
59.2663	542.06
59.2807	551.15
59.2952	527.71
59.3096	549.98
59.3241	556.52
59.3385	536.92
59.3529	544.64
59.3674	573.18
59.3818	568.74
59.3963	538.26
59.4107	540.28
59.4251	577.75
59.4396	583.56
59.4540	530.76
59.4685	565.51
59.4829	578.33
59.4973	541.66
59.5118	537.99
59.5262	564.90
59.5407	551.38
59.5551	536.59
59.5695	520.05
59.5840	524.73
59.5984	572.14
59.6129	567.27
59.6273	527.76
59.6417	585.52
59.6562	569.87
59.6706	536.65
59.6851	548.15
59.6995	531.93
59.7139	527.08
59.7284	535.13
59.7428	534.71
59.7573	523.83
59.7717	552.50
59.7861	563.62
59.8006	514.07
59.8150	502.76
59.8295	508.59
59.8439	526.45
59.8583	568.67
59.8728	541.74
59.8872	558.09
59.9017	557.83
59.9161	531.48
59.9305	525.22
59.9450	561.26
59.9594	553.12
59.9739	557.48
59.9883	520.11
60.0027	529.66
60.0172	569.10
60.0316	556.41
60.0461	556.97
60.0605	554.00
60.0750	541.09
60.0894	503.29
60.1038	533.12
60.1183	548.97
60.1327	555.55
60.1472	520.45
60.1616	545.86
60.1760	576.32
60.1905	554.62
60.2049	532.93
60.2194	518.47
60.2338	535.48
60.2482	533.67
60.2627	523.62
60.2771	545.71
60.2916	553.83
60.3060	533.03
60.3204	549.16
60.3349	538.14
60.3493	517.08
60.3638	526.38
60.3782	517.82
60.3926	537.89
60.4071	526.38
60.4215	518.50
60.4360	549.95
60.4504	525.56
60.4648	547.79
60.4793	553.32
60.4937	529.12
60.5082	509.94
60.5226	523.35
60.5370	514.66
60.5515	506.79
60.5659	542.03
60.5804	556.37
60.5948	520.65
60.6092	553.05
60.6237	570.42
60.6381	549.27
60.6526	530.90
60.6670	517.04
60.6814	537.24
60.6959	526.85
60.7103	554.09
60.7248	562.93
60.7392	497.88
60.7536	563.51
60.7681	540.88
60.7825	555.95
60.7970	554.42
60.8114	551.63
60.8258	532.68
60.8403	535.88
60.8547	536.17
60.8692	558.21
60.8836	542.88
60.8980	521.65
60.9125	577.26
60.9269	580.88
60.9414	547.79
60.9558	548.56
60.9702	558.55
60.9847	520.61
60.9991	537.26
61.0136	499.12
61.0280	494.49
61.0424	520.93
61.0569	572.15
61.0713	544.26
61.0858	561.19
61.1002	564.00
61.1146	577.03
61.1291	538.46
61.1435	522.96
61.1580	558.69
61.1724	582.19
61.1868	573.97
61.2013	522.33
61.2157	535.83
61.2302	533.77
61.2446	551.61
61.2590	539.41
61.2735	542.20
61.2879	556.76
61.3024	565.70
61.3168	535.94
61.3312	534.73
61.3457	572.34
61.3601	544.21
61.3746	548.29
61.3890	520.77
61.4034	512.26
61.4179	551.24
61.4323	550.17
61.4468	501.18
61.4612	525.36
61.4756	554.11
61.4901	557.05
61.5045	528.51
61.5190	564.35
61.5334	563.86
61.5478	526.62
61.5623	544.35
61.5767	512.30
61.5912	539.75
61.6056	532.67
61.6200	540.97
61.6345	551.91
61.6489	547.27
61.6634	542.92
61.6778	553.05
61.6922	512.84
61.7067	520.98
61.7211	558.91
61.7356	543.81
61.7500	550.94
61.7644	542.04
61.7789	547.09
61.7933	530.73
61.8078	535.88
61.8222	560.72
61.8366	492.36
61.8511	543.00
61.8655	587.08
61.8800	549.24
61.8944	541.30
61.9088	563.97
61.9233	556.60
61.9377	532.61
61.9522	556.95
61.9666	541.46
61.9810	531.79
61.9955	544.21
62.0099	579.16
62.0244	572.37
62.0388	539.57
62.0532	545.19
62.0677	573.08
62.0821	570.67
62.0966	576.72
62.1110	515.39
62.1254	577.79
62.1399	574.84
62.1543	553.53
62.1688	537.94
62.1832	515.60
62.1976	508.61
62.2121	544.65
62.2265	548.56
62.2410	532.29
62.2554	555.84
62.2698	565.07
62.2843	546.90
62.2987	540.46
62.3132	557.53
62.3276	553.63
62.3420	538.25
62.3565	563.60
62.3709	555.78
62.3854	563.89
62.3998	580.18
62.4142	546.63
62.4287	546.53
62.4431	510.70
62.4576	554.66
62.4720	555.49
62.4864	552.69
62.5009	548.01
62.5153	563.75
62.5298	532.87
62.5442	569.19
62.5586	576.40
62.5731	563.12
62.5875	520.03
62.6020	545.48
62.6164	588.57
62.6308	575.92
62.6453	528.62
62.6597	562.99
62.6742	558.09
62.6886	568.16
62.7030	544.94
62.7175	560.71
62.7319	564.92
62.7464	548.32
62.7608	517.57
62.7752	560.16
62.7897	570.67
62.8041	568.93
62.8186	568.69
62.8330	573.93
62.8474	558.14
62.8619	557.13
62.8763	544.92
62.8908	536.82
62.9052	571.94
62.9196	559.91
62.9341	569.00
62.9485	543.70
62.9630	534.76
62.9774	554.31
62.9918	555.37
63.0063	541.86
63.0207	553.75
63.0352	520.29
63.0496	572.70
63.0640	561.24
63.0785	562.69
63.0929	618.90
63.1074	565.56
63.1218	558.13
63.1362	548.82
63.1507	556.18
63.1651	579.78
63.1796	549.45
63.1940	549.58
63.2084	570.96
63.2229	565.57
63.2373	567.64
63.2518	570.25
63.2662	560.13
63.2806	586.76
63.2951	593.06
63.3095	593.39
63.3240	564.94
63.3384	604.19
63.3528	584.05
63.3673	588.04
63.3817	583.50
63.3962	571.09
63.4106	593.39
63.4250	583.95
63.4395	626.53
63.4539	575.28
63.4684	614.39
63.4828	595.84
63.4972	607.67
63.5117	564.88
63.5261	593.77
63.5406	624.75
63.5550	628.90
63.5694	592.10
63.5839	595.47
63.5983	631.93
63.6128	616.38
63.6272	614.94
63.6416	648.29
63.6561	619.42
63.6705	635.88
63.6850	613.47
63.6994	636.39
63.7138	701.96
63.7283	713.70
63.7427	685.28
63.7572	716.91
63.7716	706.76
63.7861	742.40
63.8005	726.00
63.8149	747.40
63.8294	685.25
63.8438	743.64
63.8583	777.42
63.8727	818.18
63.8871	819.93
63.9016	858.59
63.9160	821.22
63.9305	826.50
63.9449	799.72
63.9593	779.46
63.9738	776.42
63.9882	733.60
64.0027	817.86
64.0171	838.48
64.0315	827.43
64.0460	744.57
64.0604	737.98
64.0749	733.14
64.0893	723.57
64.1037	753.88
64.1182	746.71
64.1326	715.90
64.1471	656.55
64.1615	682.77
64.1759	668.99
64.1904	670.50
64.2048	685.36
64.2193	641.09
64.2337	657.76
64.2481	675.07
64.2626	673.27
64.2770	680.81
64.2915	638.68
64.3059	638.91
64.3203	624.06
64.3348	681.22
64.3492	669.30
64.3637	638.38
64.3781	621.64
64.3925	580.77
64.4070	588.01
64.4214	655.48
64.4359	657.59
64.4503	622.45
64.4647	657.73
64.4792	612.05
64.4936	646.56
64.5081	668.89
64.5225	621.32
64.5369	622.28
64.5514	602.53
64.5658	642.29
64.5803	639.37
64.5947	632.64
64.6091	626.48
64.6236	672.31
64.6380	677.73
64.6525	665.59
64.6669	701.71
64.6813	643.20
64.6958	650.88
64.7102	707.60
64.7247	714.96
64.7391	659.74
64.7535	725.34
64.7680	731.50
64.7824	744.03
64.7969	738.07
64.8113	780.39
64.8257	761.33
64.8402	784.33
64.8546	794.42
64.8691	849.06
64.8835	829.01
64.8979	802.18
64.9124	871.10
64.9268	888.15
64.9413	855.50
64.9557	921.48
64.9701	1001.38
64.9846	1048.12
64.9990	1120.84
65.0135	1262.50
65.0279	1388.33
65.0423	1537.87
65.0568	1969.89
65.0712	2469.72
65.0857	3260.51
65.1001	4225.00
65.1145	5637.11
65.1290	7448.30
65.1434	9142.17
65.1579	10661.58
65.1723	11704.22
65.1867	11388.35
65.2012	10149.20
65.2156	8541.48
65.2301	6726.44
65.2445	5467.36
65.2589	4607.33
65.2734	4200.29
65.2878	4271.41
65.3023	4739.43
65.3167	5607.74
65.3311	6283.97
65.3456	6889.14
65.3600	6857.85
65.3745	6435.53
65.3889	5452.46
65.4033	4478.04
65.4178	3653.61
65.4322	2826.34
65.4467	2139.41
65.4611	1688.58
65.4755	1469.25
65.4900	1286.56
65.5044	1196.07
65.5189	1009.58
65.5333	951.73
65.5477	968.69
65.5622	935.18
65.5766	905.12
65.5911	812.77
65.6055	804.19
65.6199	809.06
65.6344	789.98
65.6488	740.82
65.6633	733.42
65.6777	692.66
65.6921	683.49
65.7066	715.08
65.7210	715.31
65.7355	710.74
65.7499	659.35
65.7643	647.75
65.7788	666.18
65.7932	690.29
65.8077	706.77
65.8221	699.92
65.8365	654.56
65.8510	650.82
65.8654	698.20
65.8799	649.47
65.8943	650.15
65.9087	637.61
65.9232	631.29
65.9376	652.78
65.9521	615.45
65.9665	637.83
65.9809	651.38
65.9954	657.18
66.0098	652.33
66.0243	629.72
66.0387	627.52
66.0531	630.84
66.0676	647.73
66.0820	648.58
66.0965	654.88
66.1109	605.31
66.1253	618.70
66.1398	604.66
66.1542	595.57
66.1687	622.98
66.1831	597.29
66.1975	571.81
66.2120	597.97
66.2264	607.81
66.2409	614.44
66.2553	613.52
66.2697	601.10
66.2842	618.85
66.2986	610.12
66.3131	607.76
66.3275	587.71
66.3419	604.33
66.3564	600.18
66.3708	595.83
66.3853	603.76
66.3997	605.63
66.4141	615.49
66.4286	615.73
66.4430	603.91
66.4575	634.42
66.4719	627.85
66.4863	604.70
66.5008	559.25
66.5152	590.40
66.5297	605.95
66.5441	605.84
66.5585	617.17
66.5730	575.02
66.5874	548.57
66.6019	573.53
66.6163	575.33
66.6307	606.81
66.6452	603.27
66.6596	599.36
66.6741	608.34
66.6885	577.98
66.7029	588.59
66.7174	574.80
66.7318	565.00
66.7463	610.44
66.7607	591.63
66.7751	575.55
66.7896	576.25
66.8040	578.01
66.8185	557.43
66.8329	567.62
66.8473	554.64
66.8618	604.59
66.8762	590.08
66.8907	557.17
66.9051	563.67
66.9195	587.19
66.9340	621.46
66.9484	606.31
66.9629	581.18
66.9773	597.02
66.9917	601.04
67.0062	622.70
67.0206	604.72
67.0351	630.18
67.0495	597.48
67.0639	579.01
67.0784	587.90
67.0928	584.27
67.1073	571.14
67.1217	591.94
67.1361	585.27
67.1506	576.92
67.1650	591.42
67.1795	557.01
67.1939	534.65
67.2083	556.81
67.2228	586.17
67.2372	584.89
67.2517	586.69
67.2661	584.92
67.2805	581.45
67.2950	592.76
67.3094	580.06
67.3239	590.00
67.3383	587.15
67.3527	587.24
67.3672	586.67
67.3816	567.62
67.3961	580.43
67.4105	609.40
67.4250	614.48
67.4394	603.95
67.4538	586.74
67.4683	600.20
67.4827	575.71
67.4972	601.51
67.5116	568.25
67.5260	561.24
67.5405	558.60
67.5549	579.28
67.5694	561.65
67.5838	582.86
67.5982	581.58
67.6127	565.51
67.6271	582.03
67.6416	595.75
67.6560	547.35
67.6704	564.14
67.6849	558.60
67.6993	578.61
67.7138	570.98
67.7282	551.60
67.7426	572.70
67.7571	560.04
67.7715	575.76
67.7860	569.09
67.8004	583.34
67.8148	580.24
67.8293	586.28
67.8437	571.04
67.8582	571.90
67.8726	594.33
67.8870	542.57
67.9015	567.57
67.9159	568.10
67.9304	552.08
67.9448	561.64
67.9592	553.78
67.9737	595.66
67.9881	555.14
68.0026	581.36
68.0170	565.15
68.0314	576.28
68.0459	586.44
68.0603	594.31
68.0748	607.62
68.0892	621.83
68.1036	603.67
68.1181	579.55
68.1325	528.87
68.1470	572.32
68.1614	565.34
68.1758	588.46
68.1903	569.80
68.2047	565.10
68.2192	595.63
68.2336	574.74
68.2480	567.73
68.2625	515.92
68.2769	578.73
68.2914	639.56
68.3058	582.88
68.3202	576.15
68.3347	565.16
68.3491	564.84
68.3636	567.11
68.3780	592.67
68.3924	549.32
68.4069	533.80
68.4213	603.46
68.4358	533.38
68.4502	518.59
68.4646	559.23
68.4791	558.34
68.4935	558.71
68.5080	561.29
68.5224	523.71
68.5368	531.87
68.5513	552.91
68.5657	592.51
68.5802	558.33
68.5946	549.06
68.6090	561.95
68.6235	585.23
68.6379	555.98
68.6524	556.79
68.6668	570.93
68.6812	527.48
68.6957	584.65
68.7101	559.93
68.7246	610.35
68.7390	542.39
68.7534	541.95
68.7679	577.75
68.7823	570.15
68.7968	538.53
68.8112	553.06
68.8256	570.03
68.8401	579.41
68.8545	526.94
68.8690	555.34
68.8834	580.32
68.8978	582.95
68.9123	603.68
68.9267	500.90
68.9412	596.12
68.9556	592.36
68.9700	596.21
68.9845	574.90
68.9989	577.31
69.0134	553.11
69.0278	578.12
69.0422	544.18
69.0567	508.95
69.0711	566.01
69.0856	592.00
69.1000	575.00
69.1144	573.81
69.1289	576.98
69.1433	592.17
69.1578	524.62
69.1722	580.54
69.1866	533.83
69.2011	519.57
69.2155	554.56
69.2300	546.61
69.2444	566.42
69.2588	581.23
69.2733	590.42
69.2877	607.49
69.3022	587.11
69.3166	609.84
69.3310	572.12
69.3455	627.92
69.3599	564.50
69.3744	595.73
69.3888	555.88
69.4032	567.71
69.4177	527.37
69.4321	606.12
69.4466	545.75
69.4610	541.71
69.4754	583.25
69.4899	624.15
69.5043	550.82
69.5188	559.00
69.5332	563.49
69.5476	562.19
69.5621	578.31
69.5765	620.48
69.5910	562.59
69.6054	559.65
69.6198	586.19
69.6343	577.96
69.6487	568.18
69.6632	538.60
69.6776	570.17
69.6920	567.86
69.7065	568.97
69.7209	593.68
69.7354	500.34
69.7498	596.64
69.7642	544.06
69.7787	545.86
69.7931	569.44
69.8076	620.73
69.8220	583.58
69.8364	578.06
69.8509	554.64
69.8653	568.87
69.8798	590.61
69.8942	601.29
69.9086	647.18
69.9231	625.11
69.9375	576.53
69.9520	508.47
69.9664	554.48
69.9808	592.29
69.9953	591.62
70.0097	594.77
70.0242	619.59
70.0386	604.11
70.0530	564.93
70.0675	557.74
70.0819	564.16
70.0964	582.19
70.1108	531.37
70.1252	553.66
70.1397	564.62
70.1541	589.85
70.1686	562.30
70.1830	630.21
70.1974	530.05
70.2119	594.58
70.2263	570.89
70.2408	551.48
70.2552	581.01
70.2696	576.87
70.2841	554.90
70.2985	570.09
70.3130	571.65
70.3274	559.31
70.3418	567.26
70.3563	556.70
70.3707	599.53
70.3852	562.21
70.3996	546.49
70.4140	559.38
70.4285	581.80
70.4429	553.74
70.4574	583.79
70.4718	569.83
70.4862	585.09
70.5007	575.22
70.5151	576.63
70.5296	595.10
70.5440	603.34
70.5584	547.41
70.5729	535.33
70.5873	561.62
70.6018	599.32
70.6162	545.51
70.6306	533.14
70.6451	563.38
70.6595	574.31
70.6740	545.19
70.6884	578.80
70.7028	591.16
70.7173	568.05
70.7317	563.59
70.7462	584.71
70.7606	642.10
70.7750	634.65
70.7895	605.13
70.8039	610.47
70.8184	618.78
70.8328	568.91
70.8472	508.92
70.8617	542.18
70.8761	590.23
70.8906	561.23
70.9050	585.42
70.9194	601.11
70.9339	581.37
70.9483	579.58
70.9628	579.59
70.9772	574.11
70.9916	592.62
71.0061	579.96
71.0205	594.81
71.0350	599.54
71.0494	532.08
71.0638	532.17
71.0783	574.47
71.0927	589.37
71.1072	609.31
71.1216	631.43
71.1361	587.85
71.1505	531.10
71.1649	587.00
71.1794	569.32
71.1938	542.71
71.2083	518.21
71.2227	556.21
71.2371	586.08
71.2516	612.02
71.2660	636.45
71.2805	530.40
71.2949	563.91
71.3093	582.50
71.3238	578.16
71.3382	634.95
71.3527	599.72
71.3671	563.59
71.3815	552.83
71.3960	550.74
71.4104	544.27
71.4249	574.61
71.4393	610.94
71.4537	622.47
71.4682	568.88
71.4826	557.20
71.4971	605.50
71.5115	588.05
71.5259	508.46
71.5404	540.44
71.5548	562.74
71.5693	591.00
71.5837	552.54
71.5981	569.35
71.6126	572.47
71.6270	514.65
71.6415	522.52
71.6559	563.03
71.6703	525.79
71.6848	472.51
71.6992	549.19
71.7137	563.28
71.7281	564.62
71.7425	595.69
71.7570	578.33
71.7714	570.75
71.7859	567.24
71.8003	577.98
71.8147	588.96
71.8292	586.57
71.8436	609.93
71.8581	563.71
71.8725	558.09
71.8869	564.54
71.9014	633.64
71.9158	617.33
71.9303	545.14
71.9447	503.59
71.9591	532.62
71.9736	565.18
71.9880	569.40
72.0025	565.21
72.0169	558.63
72.0313	590.73
72.0458	551.43
72.0602	568.09
72.0747	602.61
72.0891	609.68
72.1035	683.71
72.1180	664.68
72.1324	634.71
72.1469	544.91
72.1613	517.43
72.1757	612.16
72.1902	670.04
72.2046	651.70
72.2191	590.91
72.2335	549.73
72.2479	549.09
72.2624	652.55
72.2768	634.49
72.2913	547.13
72.3057	552.33
72.3201	547.42
72.3346	548.33
72.3490	519.93
72.3635	613.94
72.3779	611.76
72.3923	566.54
72.4068	599.13
72.4212	622.95
72.4357	605.95
72.4501	515.23
72.4645	528.27
72.4790	554.44
72.4934	583.63
72.5079	604.70
72.5223	585.53
72.5367	585.32
72.5512	612.52
72.5656	599.29
72.5801	462.93
72.5945	490.10
72.6089	572.22
72.6234	564.30
72.6378	632.60
72.6523	620.93
72.6667	603.85
72.6811	559.48
72.6956	545.96
72.7100	595.41
72.7245	604.56
72.7389	635.47
72.7533	569.16
72.7678	566.12
72.7822	551.51
72.7967	540.12
72.8111	600.44
72.8255	620.25
72.8400	662.86
72.8544	659.61
72.8689	589.52
72.8833	507.43

Result vector
22.1120	567.82
22.1264	537.69
22.1409	468.88
22.1553	488.02
22.1697	535.93
22.1842	586.59
22.1986	578.93
22.2131	554.77
22.2275	570.89
22.2419	629.14
22.2564	586.95
22.2708	539.05
22.2853	559.43
22.2997	614.55
22.3141	579.31
22.3286	562.79
22.3430	522.93
22.3575	532.22
22.3719	591.55
22.3863	531.72
22.4008	493.87
22.4152	558.96
22.4297	515.30
22.4441	609.98
22.4585	597.73
22.4730	543.61
22.4874	627.59
22.5019	635.37
22.5163	583.44
22.5307	621.58
22.5452	561.38
22.5596	530.94
22.5741	577.91
22.5885	625.59
22.6029	603.27
22.6174	698.62
22.6318	603.56
22.6463	597.14
22.6607	622.34
22.6751	576.58
22.6896	507.04
22.7040	590.04
22.7185	613.21
22.7329	539.99
22.7473	497.74
22.7618	539.62
22.7762	602.84
22.7907	617.45
22.8051	561.53
22.8195	634.77
22.8340	516.03
22.8484	548.47
22.8629	663.80
22.8773	511.68
22.8917	478.89
22.9062	554.96
22.9206	503.07
22.9351	625.46
22.9495	573.96
22.9639	521.37
22.9784	604.45
22.9928	508.78
23.0073	537.64
23.0217	543.55
23.0361	539.01
23.0506	542.39
23.0650	543.55
23.0795	616.64
23.0939	541.39
23.1083	568.36
23.1228	560.01
23.1372	600.15
23.1517	583.63
23.1661	524.03
23.1806	509.76
23.1950	575.82
23.2094	585.04
23.2239	568.86
23.2383	489.51
23.2528	618.72
23.2672	524.38
23.2816	538.00
23.2961	526.17
23.3105	605.58
23.3250	505.41
23.3394	550.92
23.3538	566.06
23.3683	541.78
23.3827	540.88
23.3972	513.78
23.4116	527.60
23.4260	542.61
23.4405	553.21
23.4549	523.32
23.4694	554.15
23.4838	589.84
23.4982	521.38
23.5127	566.71
23.5271	584.62
23.5416	531.81
23.5560	551.03
23.5704	552.60
23.5849	572.36
23.5993	632.02
23.6138	549.44
23.6282	564.61
23.6426	523.38
23.6571	552.44
23.6715	524.55
23.6860	583.08
23.7004	510.80
23.7148	515.86
23.7293	560.36
23.7437	534.04
23.7582	540.00
23.7726	529.22
23.7870	557.23
23.8015	533.52
23.8159	571.61
23.8304	539.24
23.8448	503.74
23.8592	600.84
23.8737	576.26
23.8881	499.89
23.9026	612.23
23.9170	505.09
23.9314	559.55
23.9459	523.79
23.9603	565.76
23.9748	515.24
23.9892	599.82
24.0036	525.70
24.0181	591.98
24.0325	613.54
24.0470	623.47
24.0614	570.51
24.0758	550.76
24.0903	554.54
24.1047	557.68
24.1192	579.32
24.1336	543.94
24.1480	563.37
24.1625	602.82
24.1769	545.87
24.1914	523.98
24.2058	566.03
24.2202	589.65
24.2347	599.32
24.2491	612.27
24.2636	565.67
24.2780	542.50
24.2924	503.43
24.3069	537.54
24.3213	558.41
24.3358	599.11
24.3502	560.20
24.3646	545.38
24.3791	542.98
24.3935	550.53
24.4080	533.41
24.4224	549.76
24.4368	509.67
24.4513	505.98
24.4657	499.02
24.4802	550.96
24.4946	587.68
24.5090	525.41
24.5235	550.22
24.5379	590.43
24.5524	560.52
24.5668	533.92
24.5812	576.18
24.5957	537.25
24.6101	525.38
24.6246	541.90
24.6390	565.80
24.6534	555.62
24.6679	508.20
24.6823	514.55
24.6968	501.86
24.7112	554.36
24.7256	546.94
24.7401	548.56
24.7545	519.10
24.7690	585.26
24.7834	556.78
24.7978	498.71
24.8123	538.77
24.8267	530.09
24.8412	561.80
24.8556	537.79
24.8700	514.35
24.8845	578.19
24.8989	610.87
24.9134	534.01
24.9278	523.01
24.9422	502.03
24.9567	546.13
24.9711	541.81
24.9856	497.25
25.0000	556.00
25.0144	581.82
25.0289	585.44
25.0433	530.98
25.0578	484.59
25.0722	543.70
25.0866	558.76
25.1011	549.98
25.1155	546.35
25.1300	523.09
25.1444	549.38
25.1588	545.45
25.1733	511.93
25.1877	537.17
25.2022	494.87
25.2166	530.47
25.2310	518.22
25.2455	567.17
25.2599	583.34
25.2744	588.31
25.2888	580.92
25.3032	544.13
25.3177	519.16
25.3321	538.27
25.3466	545.19
25.3610	542.01
25.3754	555.22
25.3899	540.85
25.4043	535.67
25.4188	584.65
25.4332	546.22
25.4476	509.61
25.4621	562.35
25.4765	546.67
25.4910	520.49
25.5054	522.08
25.5198	527.34
25.5343	484.88
25.5487	498.79
25.5632	504.66
25.5776	566.88
25.5920	556.64
25.6065	556.73
25.6209	547.90
25.6354	525.41
25.6498	541.46
25.6642	546.98
25.6787	510.46
25.6931	545.52
25.7076	549.79
25.7220	544.18
25.7364	519.53
25.7509	496.83
25.7653	520.99
25.7798	550.71
25.7942	551.10
25.8086	550.23
25.8231	557.66
25.8375	551.11
25.8520	537.42
25.8664	534.73
25.8808	557.25
25.8953	589.56
25.9097	547.30
25.9242	559.62
25.9386	551.77
25.9530	529.84
25.9675	507.70
25.9819	514.90
25.9964	531.42
26.0108	525.22
26.0252	514.69
26.0397	551.75
26.0541	544.10
26.0686	505.23
26.0830	518.21
26.0974	528.79
26.1119	545.16
26.1263	531.61
26.1408	510.41
26.1552	518.04
26.1696	556.95
26.1841	516.76
26.1985	506.63
26.2130	548.92
26.2274	525.50
26.2418	543.09
26.2563	538.51
26.2707	542.61
26.2852	536.86
26.2996	541.23
26.3140	501.58
26.3285	532.19
26.3429	536.03
26.3574	548.78
26.3718	559.23
26.3862	563.18
26.4007	525.25
26.4151	520.26
26.4296	526.63
26.4440	490.62
26.4584	512.09
26.4729	536.33
26.4873	530.45
26.5018	540.62
26.5162	530.60
26.5306	522.25
26.5451	551.82
26.5595	536.31
26.5740	519.56
26.5884	531.31
26.6028	547.29
26.6173	535.04
26.6317	543.41
26.6462	528.75
26.6606	525.37
26.6750	506.28
26.6895	506.93
26.7039	515.82
26.7184	504.51
26.7328	487.59
26.7472	519.60
26.7617	519.51
26.7761	490.90
26.7906	473.31
26.8050	505.31
26.8194	535.26
26.8339	538.05
26.8483	519.60
26.8628	539.14
26.8772	533.60
26.8917	521.10
26.9061	524.49
26.9205	492.96
26.9350	528.17
26.9494	543.19
26.9639	527.03
26.9783	526.10
26.9927	530.10
27.0072	538.78
27.0216	550.22
27.0361	526.54
27.0505	530.09
27.0649	520.32
27.0794	517.27
27.0938	542.06
27.1083	554.50
27.1227	527.20
27.1371	518.26
27.1516	499.94
27.1660	497.91
27.1805	496.09
27.1949	490.73
27.2093	478.79
27.2238	487.48
27.2382	518.44
27.2527	525.05
27.2671	515.44
27.2815	539.55
27.2960	516.31
27.3104	528.56
27.3249	538.23
27.3393	511.19
27.3537	495.21
27.3682	500.75
27.3826	486.14
27.3971	495.60
27.4115	519.03
27.4259	550.80
27.4404	526.98
27.4548	521.17
27.4693	502.84
27.4837	541.14
27.4981	511.21
27.5126	521.79
27.5270	523.81
27.5415	528.83
27.5559	558.65
27.5703	548.34
27.5848	540.51
27.5992	510.87
27.6137	515.86
27.6281	503.08
27.6425	498.68
27.6570	488.87
27.6714	507.77
27.6859	499.79
27.7003	541.46
27.7147	520.29
27.7292	505.09
27.7436	514.65
27.7581	563.31
27.7725	534.31
27.7869	531.04
27.8014	531.29
27.8158	539.52
27.8303	495.14
27.8447	501.65
27.8591	506.58
27.8736	517.37
27.8880	518.54
27.9025	544.56
27.9169	521.65
27.9313	489.85
27.9458	506.85
27.9602	514.76
27.9747	480.37
27.9891	494.77
28.0035	527.72
28.0180	526.40
28.0324	515.46
28.0469	531.92
28.0613	500.94
28.0757	509.14
28.0902	532.60
28.1046	503.98
28.1191	518.40
28.1335	509.26
28.1479	504.88
28.1624	551.64
28.1768	514.43
28.1913	504.04
28.2057	535.09
28.2201	528.92
28.2346	505.38
28.2490	533.87
28.2635	513.54
28.2779	522.79
28.2923	509.44
28.3068	516.66
28.3212	508.88
28.3357	497.02
28.3501	495.80
28.3645	484.01
28.3790	474.64
28.3934	517.00
28.4079	501.71
28.4223	536.48
28.4367	499.04
28.4512	526.09
28.4656	526.02
28.4801	485.98
28.4945	488.13
28.5089	518.66
28.5234	529.83
28.5378	534.06
28.5523	525.56
28.5667	512.87
28.5811	534.63
28.5956	541.71
28.6100	515.78
28.6245	512.75
28.6389	527.62
28.6533	495.83
28.6678	520.87
28.6822	514.02
28.6967	488.99
28.7111	477.72
28.7255	519.97
28.7400	507.91
28.7544	522.15
28.7689	506.95
28.7833	528.12
28.7977	508.52
28.8122	518.25
28.8266	472.01
28.8411	478.98
28.8555	497.87
28.8699	511.59
28.8844	453.69
28.8988	505.08
28.9133	508.31
28.9277	503.87
28.9421	511.11
28.9566	490.80
28.9710	505.70
28.9855	513.01
28.9999	499.59
29.0143	488.30
29.0288	516.30
29.0432	487.92
29.0577	476.86
29.0721	486.46
29.0865	506.05
29.1010	508.58
29.1154	478.18
29.1299	513.00
29.1443	477.75
29.1587	504.09
29.1732	533.69
29.1876	509.01
29.2021	493.62
29.2165	539.01
29.2309	494.50
29.2454	500.42
29.2598	502.03
29.2743	488.93
29.2887	542.90
29.3031	494.61
29.3176	547.25
29.3320	526.84
29.3465	539.47
29.3609	504.73
29.3753	543.50
29.3898	515.07
29.4042	521.82
29.4187	473.00
29.4331	504.88
29.4475	496.50
29.4620	500.52
29.4764	482.79
29.4909	529.74
29.5053	513.67
29.5197	521.70
29.5342	509.05
29.5486	506.32
29.5631	485.15
29.5775	502.41
29.5919	505.56
29.6064	503.76
29.6208	501.09
29.6353	490.75
29.6497	488.32
29.6641	516.35
29.6786	527.34
29.6930	504.58
29.7075	510.28
29.7219	503.82
29.7363	488.87
29.7508	525.32
29.7652	520.89
29.7797	496.54
29.7941	508.12
29.8085	486.66
29.8230	487.45
29.8374	495.29
29.8519	528.71
29.8663	550.16
29.8807	499.43
29.8952	515.57
29.9096	523.05
29.9241	501.35
29.9385	491.93
29.9529	505.27
29.9674	491.16
29.9818	485.59
29.9963	501.02
30.0107	491.16
30.0251	498.26
30.0396	464.73
30.0540	501.13
30.0685	525.16
30.0829	519.14
30.0973	488.66
30.1118	500.99
30.1262	523.63
30.1407	492.55
30.1551	473.62
30.1695	536.48
30.1840	516.64
30.1984	514.71
30.2129	529.65
30.2273	498.58
30.2417	494.83
30.2562	494.31
30.2706	466.03
30.2851	517.31
30.2995	506.85
30.3139	521.76
30.3284	476.01
30.3428	510.32
30.3573	507.07
30.3717	505.16
30.3861	489.64
30.4006	477.00
30.4150	486.78
30.4295	519.46
30.4439	490.17
30.4583	525.47
30.4728	544.85
30.4872	510.21
30.5017	531.59
30.5161	506.67
30.5305	522.92
30.5450	534.71
30.5594	554.43
30.5739	579.55
30.5883	572.47
30.6028	537.32
30.6172	562.61
30.6316	568.88
30.6461	581.14
30.6605	617.20
30.6750	640.85
30.6894	648.67
30.7038	701.72
30.7183	679.94
30.7327	663.86
30.7472	704.32
30.7616	699.17
30.7760	677.00
30.7905	656.06
30.8049	648.43
30.8194	647.62
30.8338	612.62
30.8482	569.26
30.8627	583.05
30.8771	596.25
30.8916	560.55
30.9060	548.08
30.9204	542.80
30.9349	553.72
30.9493	539.51
30.9638	547.73
30.9782	522.14
30.9926	524.92
31.0071	527.80
31.0215	547.60
31.0360	546.59
31.0504	542.49
31.0648	541.79
31.0793	500.96
31.0937	497.07
31.1082	504.82
31.1226	509.76
31.1370	529.84
31.1515	505.87
31.1659	526.18
31.1804	521.31
31.1948	494.68
31.2092	508.93
31.2237	506.93
31.2381	508.96
31.2526	547.68
31.2670	531.95
31.2814	529.11
31.2959	493.91
31.3103	515.34
31.3248	542.36
31.3392	560.27
31.3536	516.91
31.3681	500.36
31.3825	488.83
31.3970	484.44
31.4114	549.52
31.4258	532.80
31.4403	511.86
31.4547	501.17
31.4692	536.73
31.4836	496.56
31.4980	500.86
31.5125	489.21
31.5269	481.21
31.5414	492.95
31.5558	482.92
31.5702	511.64
31.5847	502.02
31.5991	513.21
31.6136	492.14
31.6280	533.44
31.6424	539.41
31.6569	513.72
31.6713	501.20
31.6858	501.26
31.7002	498.86
31.7146	500.91
31.7291	498.55
31.7435	484.35
31.7580	508.43
31.7724	486.59
31.7868	497.95
31.8013	504.59
31.8157	506.10
31.8302	490.71
31.8446	503.77
31.8590	487.32
31.8735	509.38
31.8879	484.58
31.9024	505.82
31.9168	499.41
31.9312	502.21
31.9457	516.25
31.9601	475.84
31.9746	521.08
31.9890	538.42
32.0034	527.00
32.0179	512.77
32.0323	447.93
32.0468	468.83
32.0612	514.07
32.0756	510.35
32.0901	531.00
32.1045	548.43
32.1190	528.80
32.1334	504.79
32.1478	505.25
32.1623	544.56
32.1767	484.48
32.1912	486.75
32.2056	536.36
32.2200	509.41
32.2345	496.04
32.2489	502.83
32.2634	495.08
32.2778	529.14
32.2922	524.33
32.3067	473.55
32.3211	533.54
32.3356	513.80
32.3500	501.27
32.3644	502.28
32.3789	476.04
32.3933	455.07
32.4078	493.68
32.4222	497.96
32.4366	502.39
32.4511	464.07
32.4655	456.84
32.4800	484.27
32.4944	537.76
32.5088	516.98
32.5233	500.59
32.5377	536.94
32.5522	527.85
32.5666	528.65
32.5810	502.85
32.5955	501.82
32.6099	492.11
32.6244	502.12
32.6388	526.26
32.6532	533.16
32.6677	525.82
32.6821	495.99
32.6966	478.11
32.7110	513.21
32.7254	509.87
32.7399	504.27
32.7543	508.64
32.7688	500.68
32.7832	505.44
32.7976	509.97
32.8121	500.48
32.8265	529.85
32.8410	523.73
32.8554	533.08
32.8698	525.83
32.8843	498.83
32.8987	504.53
32.9132	495.47
32.9276	471.88
32.9420	528.41
32.9565	489.42
32.9709	475.49
32.9854	501.41
32.9998	521.33
33.0142	506.36
33.0287	492.01
33.0431	511.28
33.0576	504.20
33.0720	530.02
33.0864	504.53
33.1009	524.24
33.1153	481.17
33.1298	525.34
33.1442	527.07
33.1586	512.84
33.1731	511.24
33.1875	515.97
33.2020	468.16
33.2164	496.25
33.2308	504.76
33.2453	537.19
33.2597	509.14
33.2742	517.72
33.2886	503.69
33.3030	499.65
33.3175	506.13
33.3319	506.98
33.3464	491.98
33.3608	494.10
33.3752	492.28
33.3897	491.15
33.4041	478.57
33.4186	500.63
33.4330	508.78
33.4474	463.72
33.4619	480.49
33.4763	474.68
33.4908	477.54
33.5052	526.36
33.5196	515.82
33.5341	536.28
33.5485	497.39
33.5630	496.21
33.5774	491.65
33.5918	519.16
33.6063	551.30
33.6207	541.85
33.6352	501.46
33.6496	490.18
33.6640	489.56
33.6785	502.93
33.6929	494.19
33.7074	512.72
33.7218	478.58
33.7362	494.67
33.7507	540.66
33.7651	503.43
33.7796	481.85
33.7940	491.95
33.8084	472.37
33.8229	482.49
33.8373	506.70
33.8518	510.18
33.8662	508.65
33.8806	491.37
33.8951	506.04
33.9095	519.19
33.9240	545.24
33.9384	501.44
33.9528	486.56
33.9673	481.57
33.9817	502.14
33.9962	498.79
34.0106	488.22
34.0250	496.92
34.0395	526.35
34.0539	494.94
34.0684	566.45
34.0828	522.82
34.0972	495.60
34.1117	520.07
34.1261	523.68
34.1406	506.07
34.1550	520.04
34.1694	524.20
34.1839	492.68
34.1983	508.75
34.2128	516.13
34.2272	472.65
34.2417	526.26
34.2561	502.47
34.2705	482.84
34.2850	520.84
34.2994	493.21
34.3139	502.86
34.3283	502.78
34.3427	530.91
34.3572	515.46
34.3716	487.58
34.3861	491.43
34.4005	488.57
34.4149	515.84
34.4294	522.81
34.4438	513.33
34.4583	494.64
34.4727	509.19
34.4871	506.98
34.5016	513.82
34.5160	485.21
34.5305	497.53
34.5449	504.97
34.5593	509.18
34.5738	503.94
34.5882	499.75
34.6027	489.62
34.6171	498.98
34.6315	509.03
34.6460	513.43
34.6604	487.98
34.6749	495.22
34.6893	519.11
34.7037	537.84
34.7182	511.28
34.7326	488.38
34.7471	511.61
34.7615	513.38
34.7759	503.74
34.7904	500.81
34.8048	489.83
34.8193	523.78
34.8337	493.73
34.8481	519.80
34.8626	529.77
34.8770	507.42
34.8915	493.55
34.9059	510.30
34.9203	468.81
34.9348	521.58
34.9492	511.04
34.9637	486.97
34.9781	471.57
34.9925	486.32
35.0070	495.95
35.0214	489.01
35.0359	492.33
35.0503	513.37
35.0647	545.07
35.0792	520.19
35.0936	482.96
35.1081	509.59
35.1225	547.54
35.1369	537.42
35.1514	528.20
35.1658	524.72
35.1803	525.87
35.1947	492.05
35.2091	505.04
35.2236	543.24
35.2380	519.35
35.2525	503.30
35.2669	531.02
35.2813	532.77
35.2958	518.30
35.3102	517.17
35.3247	480.41
35.3391	531.63
35.3535	517.90
35.3680	496.46
35.3824	471.69
35.3969	484.27
35.4113	516.28
35.4257	527.84
35.4402	529.59
35.4546	564.18
35.4691	547.75
35.4835	517.32
35.4979	522.14
35.5124	550.80
35.5268	551.90
35.5413	576.95
35.5557	553.45
35.5701	556.39
35.5846	533.11
35.5990	557.54
35.6135	543.71
35.6279	532.04
35.6423	543.86
35.6568	530.64
35.6712	491.10
35.6857	569.42
35.7001	665.58
35.7145	727.02
35.7290	680.04
35.7434	639.12
35.7579	563.35
35.7723	579.99
35.7867	657.45
35.8012	698.15
35.8156	657.00
35.8301	620.25
35.8445	640.24
35.8589	679.22
35.8734	757.76
35.8878	867.06
35.9023	1007.78
35.9167	994.36
35.9311	1192.28
35.9456	1690.29
35.9600	2112.37
35.9745	1904.41
35.9889	1968.50
36.0033	2508.76
36.0178	3255.37
36.0322	3024.34
36.0467	2118.40
36.0611	1797.68
36.0755	1773.42
36.0900	1858.76
36.1044	1603.27
36.1189	1603.50
36.1333	1568.72
36.1477	1381.90
36.1622	1323.74
36.1766	1297.70
36.1911	1239.76
36.2055	1178.32
36.2199	1127.32
36.2344	1017.06
36.2488	948.27
36.2633	837.29
36.2777	812.36
36.2921	832.04
36.3066	777.56
36.3210	742.42
36.3355	722.44
36.3499	691.30
36.3643	655.16
36.3788	605.43
36.3932	590.28
36.4077	604.04
36.4221	600.10
36.4365	600.42
36.4510	549.42
36.4654	578.77
36.4799	538.09
36.4943	542.96
36.5087	548.47
36.5232	558.52
36.5376	569.24
36.5521	553.92
36.5665	533.46
36.5809	550.97
36.5954	511.64
36.6098	545.53
36.6243	534.27
36.6387	539.62
36.6531	521.02
36.6676	533.39
36.6820	506.40
36.6965	548.63
36.7109	525.91
36.7253	505.99
36.7398	527.29
36.7542	534.36
36.7687	537.99
36.7831	580.20
36.7975	522.35
36.8120	545.32
36.8264	556.23
36.8409	548.07
36.8553	570.76
36.8697	577.92
36.8842	593.22
36.8986	624.01
36.9131	568.68
36.9275	570.83
36.9419	610.81
36.9564	580.34
36.9708	587.74
36.9853	519.84
36.9997	522.24
37.0141	588.20
37.0286	516.28
37.0430	480.82
37.0575	508.32
37.0719	516.34
37.0863	554.19
37.1008	532.99
37.1152	541.61
37.1297	543.92
37.1441	499.66
37.1585	521.79
37.1730	533.30
37.1874	501.94
37.2019	477.52
37.2163	494.12
37.2307	474.18
37.2452	487.57
37.2596	483.47
37.2741	513.81
37.2885	513.75
37.3029	504.05
37.3174	496.87
37.3318	487.40
37.3463	506.73
37.3607	528.84
37.3751	509.41
37.3896	478.91
37.4040	536.59
37.4185	544.41
37.4329	528.77
37.4473	511.55
37.4618	485.24
37.4762	524.71
37.4907	539.01
37.5051	494.77
37.5195	489.69
37.5340	511.30
37.5484	517.70
37.5629	541.27
37.5773	508.25
37.5917	524.04
37.6062	490.74
37.6206	486.65
37.6351	537.61
37.6495	503.50
37.6639	511.81
37.6784	491.34
37.6928	492.69
37.7073	522.68
37.7217	518.04
37.7361	516.15
37.7506	492.35
37.7650	479.19
37.7795	473.40
37.7939	500.99
37.8083	509.22
37.8228	479.70
37.8372	516.58
37.8517	508.15
37.8661	546.16
37.8805	527.48
37.8950	475.73
37.9094	499.92
37.9239	455.34
37.9383	482.31
37.9528	478.74
37.9672	495.12
37.9816	472.41
37.9961	498.43
38.0105	504.52
38.0250	516.11
38.0394	518.28
38.0538	487.56
38.0683	501.50
38.0827	521.98
38.0972	515.68
38.1116	505.10
38.1260	516.22
38.1405	475.07
38.1549	494.58
38.1694	497.61
38.1838	475.39
38.1982	484.89
38.2127	474.12
38.2271	510.85
38.2416	540.95
38.2560	486.11
38.2704	473.02
38.2849	501.80
38.2993	485.61
38.3138	528.71
38.3282	507.22
38.3426	542.77
38.3571	529.99
38.3715	554.30
38.3860	524.96
38.4004	529.62
38.4148	530.33
38.4293	559.82
38.4437	567.32
38.4582	587.20
38.4726	651.11
38.4870	674.75
38.5015	685.77
38.5159	757.42
38.5304	785.09
38.5448	819.84
38.5592	809.36
38.5737	768.82
38.5881	690.34
38.6026	687.05
38.6170	691.93
38.6314	685.91
38.6459	667.15
38.6603	642.08
38.6748	604.29
38.6892	587.72
38.7036	630.94
38.7181	553.10
38.7325	527.48
38.7470	538.35
38.7614	527.45
38.7758	513.49
38.7903	516.71
38.8047	503.30
38.8192	535.06
38.8336	519.06
38.8480	488.55
38.8625	500.36
38.8769	473.79
38.8914	472.15
38.9058	504.90
38.9202	495.71
38.9347	508.35
38.9491	485.63
38.9636	468.60
38.9780	451.43
38.9924	459.80
39.0069	482.42
39.0213	481.11
39.0358	479.01
39.0502	494.25
39.0646	518.64
39.0791	518.95
39.0935	513.46
39.1080	501.09
39.1224	532.30
39.1368	508.76
39.1513	484.57
39.1657	504.84
39.1802	465.46
39.1946	486.81
39.2090	483.82
39.2235	486.24
39.2379	502.55
39.2524	539.98
39.2668	510.81
39.2812	507.22
39.2957	511.99
39.3101	513.46
39.3246	517.61
39.3390	504.99
39.3534	517.32
39.3679	540.58
39.3823	509.65
39.3968	468.54
39.4112	481.04
39.4256	508.75
39.4401	527.78
39.4545	514.00
39.4690	494.20
39.4834	527.85
39.4978	523.78
39.5123	493.36
39.5267	501.26
39.5412	479.25
39.5556	504.16
39.5700	513.64
39.5845	454.93
39.5989	486.73
39.6134	463.98
39.6278	502.83
39.6422	474.60
39.6567	492.16
39.6711	499.97
39.6856	490.73
39.7000	491.09
39.7144	486.42
39.7289	487.01
39.7433	468.68
39.7578	449.24
39.7722	493.06
39.7866	463.01
39.8011	497.31
39.8155	516.47
39.8300	488.43
39.8444	489.22
39.8588	513.35
39.8733	508.78
39.8877	519.68
39.9022	530.10
39.9166	512.47
39.9310	502.70
39.9455	491.30
39.9599	499.13
39.9744	500.90
39.9888	457.86
40.0032	453.57
40.0177	491.39
40.0321	528.58
40.0466	476.56
40.0610	515.91
40.0754	481.92
40.0899	527.23
40.1043	518.32
40.1188	503.61
40.1332	516.16
40.1476	478.91
40.1621	482.05
40.1765	494.11
40.1910	474.13
40.2054	462.37
40.2198	460.09
40.2343	479.18
40.2487	486.33
40.2632	510.81
40.2776	498.76
40.2920	520.68
40.3065	507.84
40.3209	526.12
40.3354	559.93
40.3498	513.44
40.3642	522.96
40.3787	506.06
40.3931	488.09
40.4076	495.79
40.4220	467.79
40.4364	520.54
40.4509	463.26
40.4653	490.54
40.4798	504.51
40.4942	523.69
40.5086	505.05
40.5231	508.66
40.5375	517.82
40.5520	508.44
40.5664	478.77
40.5808	487.34
40.5953	484.57
40.6097	481.06
40.6242	489.35
40.6386	496.34
40.6530	482.40
40.6675	451.38
40.6819	485.62
40.6964	534.33
40.7108	550.07
40.7252	483.87
40.7397	496.35
40.7541	455.50
40.7686	478.66
40.7830	501.33
40.7974	494.07
40.8119	507.35
40.8263	510.79
40.8408	516.39
40.8552	492.94
40.8696	502.36
40.8841	512.63
40.8985	543.79
40.9130	545.09
40.9274	518.52
40.9418	496.91
40.9563	486.86
40.9707	490.68
40.9852	512.18
40.9996	474.43
41.0140	475.02
41.0285	488.61
41.0429	464.19
41.0574	517.63
41.0718	521.79
41.0862	504.56
41.1007	507.17
41.1151	493.91
41.1296	508.27
41.1440	487.79
41.1584	493.51
41.1729	490.53
41.1873	478.36
41.2018	459.50
41.2162	467.17
41.2306	471.41
41.2451	489.70
41.2595	493.99
41.2740	538.94
41.2884	474.04
41.3028	469.30
41.3173	472.91
41.3317	502.81
41.3462	494.34
41.3606	486.44
41.3750	516.84
41.3895	496.68
41.4039	475.67
41.4184	490.77
41.4328	518.25
41.4472	502.55
41.4617	496.28
41.4761	478.54
41.4906	525.40
41.5050	491.38
41.5194	504.74
41.5339	510.83
41.5483	509.20
41.5628	505.99
41.5772	473.07
41.5916	511.01
41.6061	498.44
41.6205	523.17
41.6350	517.70
41.6494	477.02
41.6639	481.44
41.6783	494.46
41.6927	517.59
41.7072	479.69
41.7216	502.26
41.7361	502.98
41.7505	516.31
41.7649	491.22
41.7794	529.24
41.7938	486.74
41.8083	491.56
41.8227	476.34
41.8371	538.37
41.8516	511.39
41.8660	530.85
41.8805	517.26
41.8949	496.15
41.9093	542.78
41.9238	568.36
41.9382	555.66
41.9527	555.84
41.9671	574.66
41.9815	598.29
41.9960	550.53
42.0104	511.72
42.0249	566.24
42.0393	584.28
42.0537	585.04
42.0682	560.49
42.0826	540.88
42.0971	610.90
42.1115	554.31
42.1259	574.82
42.1404	603.01
42.1548	621.05
42.1693	654.48
42.1837	655.79
42.1981	736.97
42.2126	847.66
42.2270	942.04
42.2415	1109.98
42.2559	1223.34
42.2703	1332.19
42.2848	1496.44
42.2992	1631.53
42.3137	1723.32
42.3281	1663.41
42.3425	1615.78
42.3570	1504.19
42.3714	1479.29
42.3859	1430.39
42.4003	1389.52
42.4147	1356.94
42.4292	1347.97
42.4436	1173.79
42.4581	1076.08
42.4725	991.51
42.4869	879.51
42.5014	759.62
42.5158	665.81
42.5303	682.11
42.5447	622.02
42.5591	606.40
42.5736	569.86
42.5880	585.12
42.6025	580.43
42.6169	570.18
42.6313	584.42
42.6458	535.28
42.6602	528.89
42.6747	518.02
42.6891	526.25
42.7035	551.92
42.7180	567.77
42.7324	546.17
42.7469	559.74
42.7613	560.16
42.7757	542.28
42.7902	530.59
42.8046	525.07
42.8191	542.68
42.8335	566.43
42.8479	531.02
42.8624	535.41
42.8768	535.62
42.8913	520.61
42.9057	537.01
42.9201	528.33
42.9346	497.00
42.9490	502.26
42.9635	517.22
42.9779	518.72
42.9923	509.43
43.0068	507.32
43.0212	519.46
43.0357	514.82
43.0501	491.13
43.0645	505.11
43.0790	550.67
43.0934	547.39
43.1079	523.84
43.1223	524.90
43.1367	486.00
43.1512	478.78
43.1656	542.18
43.1801	540.88
43.1945	499.73
43.2089	515.83
43.2234	533.11
43.2378	550.62
43.2523	567.97
43.2667	503.12
43.2811	503.21
43.2956	510.51
43.3100	509.57
43.3245	537.07
43.3389	514.41
43.3533	507.35
43.3678	520.13
43.3822	492.55
43.3967	487.06
43.4111	538.01
43.4255	554.93
43.4400	543.74
43.4544	502.75
43.4689	516.40
43.4833	512.69
43.4977	496.13
43.5122	492.55
43.5266	498.43
43.5411	472.36
43.5555	492.19
43.5699	514.64
43.5844	518.30
43.5988	500.10
43.6133	490.26
43.6277	523.06
43.6421	551.52
43.6566	513.30
43.6710	543.82
43.6855	507.58
43.6999	500.91
43.7143	505.18
43.7288	519.18
43.7432	509.83
43.7577	503.86
43.7721	538.89
43.7865	555.74
43.8010	529.96
43.8154	534.85
43.8299	556.38
43.8443	587.25
43.8587	582.65
43.8732	547.53
43.8876	545.39
43.9021	595.40
43.9165	570.10
43.9309	581.65
43.9454	609.19
43.9598	653.12
43.9743	611.23
43.9887	608.89
44.0031	615.45
44.0176	587.52
44.0320	601.83
44.0465	551.36
44.0609	573.42
44.0753	559.27
44.0898	576.45
44.1042	557.40
44.1187	564.78
44.1331	552.05
44.1475	530.90
44.1620	538.06
44.1764	544.13
44.1909	526.21
44.2053	492.02
44.2197	517.17
44.2342	527.71
44.2486	516.24
44.2631	542.34
44.2775	516.61
44.2919	539.31
44.3064	529.80
44.3208	525.87
44.3353	515.11
44.3497	509.66
44.3641	497.04
44.3786	553.08
44.3930	539.40
44.4075	543.76
44.4219	564.12
44.4363	575.89
44.4508	573.04
44.4652	567.19
44.4797	547.45
44.4941	564.34
44.5085	558.23
44.5230	556.86
44.5374	594.60
44.5519	611.56
44.5663	568.40
44.5807	542.86
44.5952	559.73
44.6096	608.23
44.6241	553.53
44.6385	583.84
44.6529	589.14
44.6674	546.20
44.6818	586.71
44.6963	637.02
44.7107	646.71
44.7251	650.24
44.7396	712.03
44.7540	808.06
44.7685	841.41
44.7829	892.71
44.7973	847.04
44.8118	867.33
44.8262	838.32
44.8407	787.77
44.8551	749.56
44.8695	759.52
44.8840	703.57
44.8984	713.69
44.9129	717.04
44.9273	718.11
44.9417	650.53
44.9562	641.31
44.9706	624.63
44.9851	580.44
44.9995	559.25
45.0139	531.27
45.0284	455.91
45.0428	525.03
45.0573	557.46
45.0717	486.72
45.0861	521.34
45.1006	492.77
45.1150	536.49
45.1295	521.15
45.1439	502.83
45.1583	508.01
45.1728	546.37
45.1872	563.87
45.2017	500.85
45.2161	556.64
45.2305	513.27
45.2450	524.86
45.2594	482.04
45.2739	478.22
45.2883	535.95
45.3028	516.71
45.3172	490.84
45.3316	512.56
45.3461	507.87
45.3605	547.33
45.3750	514.13
45.3894	514.46
45.4038	479.83
45.4183	518.96
45.4327	534.13
45.4472	507.21
45.4616	494.77
45.4760	475.80
45.4905	507.66
45.5049	501.34
45.5194	503.58
45.5338	514.17
45.5482	506.47
45.5627	503.28
45.5771	512.76
45.5916	505.18
45.6060	538.40
45.6204	513.88
45.6349	511.65
45.6493	480.82
45.6638	516.66
45.6782	467.21
45.6926	518.97
45.7071	496.80
45.7215	495.49
45.7360	513.24
45.7504	502.42
45.7648	518.63
45.7793	507.57
45.7937	495.04
45.8082	507.92
45.8226	487.41
45.8370	494.56
45.8515	504.33
45.8659	542.62
45.8804	488.26
45.8948	519.46
45.9092	513.76
45.9237	490.17
45.9381	485.59
45.9526	485.83
45.9670	498.09
45.9814	472.57
45.9959	478.15
46.0103	524.41
46.0248	509.04
46.0392	495.84
46.0536	476.36
46.0681	510.73
46.0825	490.25
46.0970	463.47
46.1114	503.31
46.1258	478.59
46.1403	490.18
46.1547	457.64
46.1692	479.31
46.1836	507.98
46.1980	486.14
46.2125	501.23
46.2269	495.81
46.2414	513.35
46.2558	468.72
46.2702	503.24
46.2847	522.81
46.2991	509.68
46.3136	507.90
46.3280	518.38
46.3424	496.00
46.3569	472.32
46.3713	475.74
46.3858	502.72
46.4002	470.49
46.4146	505.71
46.4291	538.26
46.4435	531.92
46.4580	490.50
46.4724	531.09
46.4868	521.33
46.5013	511.41
46.5157	488.36
46.5302	493.15
46.5446	520.75
46.5590	517.74
46.5735	486.51
46.5879	479.50
46.6024	493.02
46.6168	525.95
46.6312	491.97
46.6457	462.56
46.6601	474.08
46.6746	509.94
46.6890	492.81
46.7034	538.28
46.7179	500.61
46.7323	505.79
46.7468	511.29
46.7612	486.36
46.7756	504.31
46.7901	502.37
46.8045	507.79
46.8190	506.56
46.8334	487.30
46.8478	494.75
46.8623	518.05
46.8767	530.59
46.8912	498.19
46.9056	548.19
46.9200	510.83
46.9345	513.87
46.9489	520.27
46.9634	499.81
46.9778	517.64
46.9922	529.74
47.0067	499.79
47.0211	506.06
47.0356	522.03
47.0500	530.78
47.0644	511.92
47.0789	480.32
47.0933	495.04
47.1078	530.49
47.1222	530.74
47.1366	511.24
47.1511	513.01
47.1655	510.09
47.1800	512.98
47.1944	541.20
47.2088	504.80
47.2233	519.15
47.2377	498.89
47.2522	494.74
47.2666	491.05
47.2810	526.86
47.2955	518.04
47.3099	509.21
47.3244	497.59
47.3388	503.47
47.3532	489.48
47.3677	510.43
47.3821	502.59
47.3966	491.30
47.4110	516.90
47.4254	537.91
47.4399	516.62
47.4543	476.39
47.4688	517.07
47.4832	505.63
47.4976	485.43
47.5121	483.71
47.5265	491.24
47.5410	505.16
47.5554	536.08
47.5698	486.60
47.5843	476.71
47.5987	515.33
47.6132	504.80
47.6276	523.39
47.6420	514.03
47.6565	494.77
47.6709	494.01
47.6854	471.57
47.6998	502.12
47.7142	534.83
47.7287	491.98
47.7431	474.08
47.7576	460.01
47.7720	444.45
47.7864	505.74
47.8009	481.35
47.8153	514.85
47.8298	517.37
47.8442	547.58
47.8586	553.31
47.8731	528.81
47.8875	513.34
47.9020	512.35
47.9164	489.13
47.9308	545.70
47.9453	524.88
47.9597	482.77
47.9742	505.87
47.9886	465.37
48.0030	491.78
48.0175	507.80
48.0319	498.23
48.0464	480.59
48.0608	468.72
48.0752	516.61
48.0897	512.19
48.1041	479.96
48.1186	503.98
48.1330	505.36
48.1474	500.24
48.1619	493.74
48.1763	521.76
48.1908	502.48
48.2052	495.50
48.2196	527.49
48.2341	472.17
48.2485	507.07
48.2630	505.51
48.2774	500.55
48.2918	509.88
48.3063	534.58
48.3207	518.43
48.3352	545.94
48.3496	497.82
48.3640	500.68
48.3785	504.93
48.3929	482.37
48.4074	472.11
48.4218	519.63
48.4362	503.90
48.4507	493.75
48.4651	517.74
48.4796	511.27
48.4940	467.99
48.5084	473.31
48.5229	498.24
48.5373	536.58
48.5518	509.84
48.5662	510.60
48.5806	506.76
48.5951	541.79
48.6095	523.03
48.6240	534.70
48.6384	512.21
48.6528	507.30
48.6673	485.76
48.6817	525.95
48.6962	514.85
48.7106	519.53
48.7250	561.16
48.7395	516.72
48.7539	555.81
48.7684	517.29
48.7828	564.94
48.7972	550.18
48.8117	535.04
48.8261	516.87
48.8406	539.26
48.8550	533.09
48.8694	545.05
48.8839	517.93
48.8983	575.87
48.9128	512.19
48.9272	502.70
48.9416	572.49
48.9561	565.65
48.9705	535.32
48.9850	610.33
48.9994	607.90
49.0139	591.63
49.0283	584.18
49.0427	609.53
49.0572	642.48
49.0716	665.94
49.0861	682.52
49.1005	679.79
49.1149	675.50
49.1294	781.65
49.1438	767.81
49.1583	835.71
49.1727	850.57
49.1871	891.20
49.2016	970.08
49.2160	1055.38
49.2305	1141.65
49.2449	1226.43
49.2593	1323.40
49.2738	1365.65
49.2882	1527.11
49.3027	1568.57
49.3171	1616.49
49.3315	1746.82
49.3460	1777.06
49.3604	1748.76
49.3749	1802.28
49.3893	1793.94
49.4037	1770.69
49.4182	1777.50
49.4326	1779.15
49.4471	1658.77
49.4615	1659.50
49.4759	1562.43
49.4904	1507.25
49.5048	1477.26
49.5193	1354.42
49.5337	1316.86
49.5481	1218.69
49.5626	1165.29
49.5770	1108.17
49.5915	1032.07
49.6059	969.74
49.6203	870.14
49.6348	805.22
49.6492	809.70
49.6637	749.22
49.6781	695.45
49.6925	671.81
49.7070	682.71
49.7214	634.19
49.7359	606.63
49.7503	615.60
49.7647	604.31
49.7792	572.47
49.7936	579.88
49.8081	597.35
49.8225	565.85
49.8369	595.03
49.8514	543.66
49.8658	561.55
49.8803	538.53
49.8947	524.29
49.9091	583.06
49.9236	540.93
49.9380	539.12
49.9525	539.66
49.9669	520.13
49.9813	510.27
49.9958	537.70
50.0102	534.64
50.0247	560.08
50.0391	527.76
50.0535	538.05
50.0680	554.71
50.0824	528.49
50.0969	532.97
50.1113	538.31
50.1257	551.14
50.1402	530.22
50.1546	527.88
50.1691	516.82
50.1835	483.07
50.1979	469.80
50.2124	502.81
50.2268	517.98
50.2413	509.14
50.2557	523.21
50.2701	544.04
50.2846	539.00
50.2990	508.53
50.3135	517.00
50.3279	518.50
50.3423	523.81
50.3568	526.80
50.3712	510.31
50.3857	529.47
50.4001	479.86
50.4145	500.39
50.4290	555.06
50.4434	526.90
50.4579	490.14
50.4723	487.73
50.4867	524.48
50.5012	537.85
50.5156	523.34
50.5301	503.25
50.5445	514.13
50.5589	503.77
50.5734	491.66
50.5878	515.06
50.6023	492.15
50.6167	505.71
50.6311	525.56
50.6456	517.37
50.6600	530.60
50.6745	505.19
50.6889	497.46
50.7033	521.94
50.7178	483.99
50.7322	492.01
50.7467	520.14
50.7611	511.62
50.7755	506.95
50.7900	515.68
50.8044	549.71
50.8189	540.63
50.8333	522.67
50.8477	493.41
50.8622	513.43
50.8766	525.62
50.8911	494.43
50.9055	475.67
50.9199	512.06
50.9344	536.48
50.9488	494.62
50.9633	506.56
50.9777	484.70
50.9921	507.89
51.0066	511.37
51.0210	492.12
51.0355	494.51
51.0499	510.98
51.0643	527.38
51.0788	533.08
51.0932	508.33
51.1077	473.69
51.1221	533.41
51.1365	504.31
51.1510	460.09
51.1654	491.08
51.1799	512.64
51.1943	496.04
51.2087	472.68
51.2232	479.69
51.2376	513.06
51.2521	525.98
51.2665	531.27
51.2809	532.21
51.2954	490.93
51.3098	484.38
51.3243	499.06
51.3387	503.74
51.3531	490.38
51.3676	508.10
51.3820	526.42
51.3965	497.84
51.4109	503.26
51.4253	558.87
51.4398	515.77
51.4542	473.21
51.4687	489.47
51.4831	535.81
51.4975	498.75
51.5120	513.50
51.5264	505.08
51.5409	518.20
51.5553	494.92
51.5697	494.39
51.5842	510.85
51.5986	496.69
51.6131	487.17
51.6275	488.86
51.6419	530.64
51.6564	476.73
51.6708	478.79
51.6853	469.97
51.6997	495.98
51.7141	497.39
51.7286	479.82
51.7430	493.65
51.7575	506.17
51.7719	518.56
51.7863	539.53
51.8008	540.84
51.8152	503.89
51.8297	493.29
51.8441	510.31
51.8585	543.89
51.8730	508.90
51.8874	511.70
51.9019	455.97
51.9163	485.81
51.9307	531.71
51.9452	501.86
51.9596	476.03
51.9741	499.05
51.9885	486.15
52.0029	527.14
52.0174	523.58
52.0318	507.02
52.0463	504.61
52.0607	530.48
52.0751	525.16
52.0896	540.59
52.1040	552.06
52.1185	526.80
52.1329	517.06
52.1473	485.10
52.1618	501.50
52.1762	511.72
52.1907	497.33
52.2051	511.86
52.2195	505.17
52.2340	503.36
52.2484	519.31
52.2629	511.27
52.2773	531.19
52.2917	508.76
52.3062	491.74
52.3206	514.48
52.3351	535.25
52.3495	539.75
52.3639	479.70
52.3784	504.66
52.3928	504.05
52.4073	530.65
52.4217	495.65
52.4361	508.08
52.4506	463.83
52.4650	530.55
52.4795	530.63
52.4939	517.57
52.5083	504.24
52.5228	502.09
52.5372	526.13
52.5517	541.44
52.5661	509.66
52.5805	485.23
52.5950	539.76
52.6094	506.52
52.6239	509.05
52.6383	522.09
52.6527	504.79
52.6672	493.89
52.6816	476.42
52.6961	509.01
52.7105	550.43
52.7250	529.18
52.7394	498.83
52.7538	531.18
52.7683	535.80
52.7827	521.19
52.7972	497.15
52.8116	536.75
52.8260	508.02
52.8405	499.57
52.8549	543.62
52.8694	498.48
52.8838	509.38
52.8982	532.82
52.9127	541.14
52.9271	517.36
52.9416	522.58
52.9560	494.73
52.9704	510.76
52.9849	489.75
52.9993	525.75
53.0138	530.00
53.0282	507.62
53.0426	498.52
53.0571	519.29
53.0715	506.80
53.0860	513.27
53.1004	510.18
53.1148	566.27
53.1293	552.84
53.1437	541.88
53.1582	542.98
53.1726	527.82
53.1870	518.48
53.2015	506.91
53.2159	525.57
53.2304	502.83
53.2448	496.73
53.2592	509.44
53.2737	500.76
53.2881	502.59
53.3026	506.24
53.3170	515.32
53.3314	550.94
53.3459	552.33
53.3603	574.90
53.3748	506.69
53.3892	520.46
53.4036	495.14
53.4181	500.56
53.4325	539.36
53.4470	493.46
53.4614	497.79
53.4758	520.41
53.4903	546.70
53.5047	491.81
53.5192	492.33
53.5336	494.64
53.5480	490.70
53.5625	504.85
53.5769	497.05
53.5914	498.92
53.6058	521.51
53.6202	517.09
53.6347	511.47
53.6491	494.31
53.6636	503.88
53.6780	503.62
53.6924	519.42
53.7069	514.12
53.7213	513.07
53.7358	507.28
53.7502	522.59
53.7646	514.70
53.7791	527.29
53.7935	507.37
53.8080	480.24
53.8224	528.92
53.8368	523.88
53.8513	516.38
53.8657	510.53
53.8802	526.25
53.8946	518.60
53.9090	565.25
53.9235	550.11
53.9379	533.07
53.9524	512.73
53.9668	524.67
53.9812	491.54
53.9957	500.59
54.0101	488.03
54.0246	520.90
54.0390	525.38
54.0534	517.72
54.0679	479.89
54.0823	502.98
54.0968	515.48
54.1112	513.69
54.1256	522.13
54.1401	505.68
54.1545	488.01
54.1690	515.39
54.1834	509.63
54.1978	518.61
54.2123	518.38
54.2267	512.98
54.2412	522.57
54.2556	548.83
54.2700	532.78
54.2845	518.63
54.2989	489.82
54.3134	482.07
54.3278	522.49
54.3422	502.41
54.3567	536.20
54.3711	519.97
54.3856	512.19
54.4000	542.51
54.4144	561.37
54.4289	564.10
54.4433	576.15
54.4578	569.56
54.4722	579.44
54.4866	566.51
54.5011	579.91
54.5155	574.47
54.5300	574.22
54.5444	570.60
54.5588	598.99
54.5733	591.16
54.5877	597.32
54.6022	610.57
54.6166	588.97
54.6310	563.28
54.6455	568.11
54.6599	578.48
54.6744	541.16
54.6888	540.89
54.7032	575.93
54.7177	581.95
54.7321	596.17
54.7466	549.38
54.7610	526.18
54.7754	551.16
54.7899	528.94
54.8043	524.19
54.8188	565.20
54.8332	544.35
54.8476	537.00
54.8621	517.34
54.8765	572.28
54.8910	553.50
54.9054	570.26
54.9198	527.03
54.9343	534.79
54.9487	491.17
54.9632	509.34
54.9776	517.27
54.9920	468.88
55.0065	505.97
55.0209	516.77
55.0354	516.28
55.0498	519.18
55.0642	525.11
55.0787	540.03
55.0931	523.01
55.1076	518.32
55.1220	570.08
55.1364	559.91
55.1509	483.91
55.1653	507.79
55.1798	514.59
55.1942	485.72
55.2086	499.61
55.2231	541.28
55.2375	535.36
55.2520	513.55
55.2664	503.43
55.2808	532.77
55.2953	520.78
55.3097	518.13
55.3242	505.82
55.3386	527.01
55.3530	512.13
55.3675	517.06
55.3819	528.14
55.3964	495.31
55.4108	481.50
55.4252	515.22
55.4397	512.30
55.4541	481.66
55.4686	511.04
55.4830	530.92
55.4974	479.74
55.5119	517.95
55.5263	537.81
55.5408	551.18
55.5552	523.73
55.5696	512.47
55.5841	513.08
55.5985	536.10
55.6130	530.78
55.6274	528.30
55.6418	533.97
55.6563	518.93
55.6707	504.14
55.6852	517.02
55.6996	531.01
55.7140	521.45
55.7285	538.66
55.7429	515.66
55.7574	513.62
55.7718	519.43
55.7862	505.12
55.8007	497.83
55.8151	530.77
55.8296	515.40
55.8440	527.88
55.8584	522.26
55.8729	504.85
55.8873	510.78
55.9018	529.20
55.9162	511.54
55.9306	525.94
55.9451	533.38
55.9595	504.27
55.9740	500.32
55.9884	483.84
56.0028	501.57
56.0173	519.95
56.0317	482.51
56.0462	503.92
56.0606	520.40
56.0750	522.48
56.0895	548.99
56.1039	503.06
56.1184	512.95
56.1328	553.79
56.1472	494.34
56.1617	490.62
56.1761	504.47
56.1906	478.26
56.2050	515.02
56.2194	530.58
56.2339	512.22
56.2483	522.49
56.2628	506.10
56.2772	529.67
56.2916	513.96
56.3061	493.65
56.3205	532.24
56.3350	517.39
56.3494	516.23
56.3639	504.95
56.3783	520.73
56.3927	529.20
56.4072	513.02
56.4216	545.42
56.4361	568.41
56.4505	520.67
56.4649	509.23
56.4794	524.52
56.4938	559.98
56.5083	513.38
56.5227	538.34
56.5371	521.52
56.5516	556.08
56.5660	542.35
56.5805	513.45
56.5949	551.62
56.6093	551.09
56.6238	524.30
56.6382	513.40
56.6527	530.57
56.6671	540.71
56.6815	513.55
56.6960	535.36
56.7104	538.36
56.7249	490.66
56.7393	510.60
56.7537	514.26
56.7682	496.37
56.7826	539.31
56.7971	529.90
56.8115	534.92
56.8259	478.59
56.8404	544.78
56.8548	510.84
56.8693	525.71
56.8837	530.88
56.8981	513.96
56.9126	525.57
56.9270	514.23
56.9415	518.75
56.9559	482.24
56.9703	517.38
56.9848	507.58
56.9992	535.73
57.0137	559.26
57.0281	542.98
57.0425	513.53
57.0570	491.35
57.0714	491.39
57.0859	516.68
57.1003	512.03
57.1147	532.58
57.1292	546.98
57.1436	473.94
57.1581	490.45
57.1725	485.06
57.1869	469.65
57.2014	501.70
57.2158	515.85
57.2303	526.02
57.2447	524.18
57.2591	480.22
57.2736	515.97
57.2880	535.05
57.3025	534.92
57.3169	503.55
57.3313	531.61
57.3458	504.22
57.3602	541.95
57.3747	546.65
57.3891	545.93
57.4035	554.29
57.4180	544.76
57.4324	535.81
57.4469	513.15
57.4613	550.79
57.4757	512.85
57.4902	521.22
57.5046	519.63
57.5191	510.89
57.5335	513.87
57.5479	501.89
57.5624	520.47
57.5768	548.10
57.5913	533.55
57.6057	521.62
57.6201	507.30
57.6346	512.48
57.6490	508.18
57.6635	531.00
57.6779	513.22
57.6923	536.14
57.7068	542.67
57.7212	566.80
57.7357	532.39
57.7501	514.17
57.7645	517.97
57.7790	525.64
57.7934	545.57
57.8079	538.46
57.8223	546.90
57.8367	511.53
57.8512	496.14
57.8656	515.60
57.8801	537.58
57.8945	585.57
57.9089	562.87
57.9234	544.79
57.9378	549.49
57.9523	559.36
57.9667	562.87
57.9811	551.92
57.9956	597.09
58.0100	616.46
58.0245	641.58
58.0389	629.98
58.0533	667.57
58.0678	638.18
58.0822	599.92
58.0967	651.41
58.1111	624.50
58.1255	657.93
58.1400	663.66
58.1544	643.24
58.1689	675.04
58.1833	667.97
58.1977	685.92
58.2122	668.45
58.2266	657.74
58.2411	666.88
58.2555	623.57
58.2699	624.30
58.2844	641.49
58.2988	645.71
58.3133	633.89
58.3277	630.37
58.3421	624.58
58.3566	582.91
58.3710	621.75
58.3855	583.11
58.3999	573.98
58.4143	559.19
58.4288	569.54
58.4432	568.51
58.4577	586.05
58.4721	600.85
58.4865	579.04
58.5010	570.78
58.5154	518.40
58.5299	539.28
58.5443	581.86
58.5587	578.05
58.5732	549.04
58.5876	547.19
58.6021	593.97
58.6165	525.67
58.6309	540.12
58.6454	547.82
58.6598	563.76
58.6743	554.72
58.6887	532.49
58.7031	517.51
58.7176	523.68
58.7320	514.35
58.7465	548.41
58.7609	526.89
58.7753	512.98
58.7898	526.17
58.8042	542.79
58.8187	555.64
58.8331	529.51
58.8475	530.85
58.8620	555.29
58.8764	522.36
58.8909	524.04
58.9053	556.50
58.9197	535.92
58.9342	530.62
58.9486	523.83
58.9631	508.49
58.9775	527.34
58.9919	576.02
59.0064	554.49
59.0208	544.24
59.0353	499.61
59.0497	519.46
59.0641	545.42
59.0786	553.82
59.0930	559.29
59.1075	534.81
59.1219	553.92
59.1363	551.00
59.1508	504.37
59.1652	517.37
59.1797	547.92
59.1941	517.47
59.2085	508.67
59.2230	547.35
59.2374	534.61
59.2519	549.95
59.2663	542.06
59.2807	551.15
59.2952	527.71
59.3096	549.98
59.3241	556.52
59.3385	536.92
59.3529	544.64
59.3674	573.18
59.3818	568.74
59.3963	538.26
59.4107	540.28
59.4251	577.75
59.4396	583.56
59.4540	530.76
59.4685	565.51
59.4829	578.33
59.4973	541.66
59.5118	537.99
59.5262	564.90
59.5407	551.38
59.5551	536.59
59.5695	520.05
59.5840	524.73
59.5984	572.14
59.6129	567.27
59.6273	527.76
59.6417	585.52
59.6562	569.87
59.6706	536.65
59.6851	548.15
59.6995	531.93
59.7139	527.08
59.7284	535.13
59.7428	534.71
59.7573	523.83
59.7717	552.50
59.7861	563.62
59.8006	514.07
59.8150	502.76
59.8295	508.59
59.8439	526.45
59.8583	568.67
59.8728	541.74
59.8872	558.09
59.9017	557.83
59.9161	531.48
59.9305	525.22
59.9450	561.26
59.9594	553.12
59.9739	557.48
59.9883	520.11
60.0027	529.66
60.0172	569.10
60.0316	556.41
60.0461	556.97
60.0605	554.00
60.0750	541.09
60.0894	503.29
60.1038	533.12
60.1183	548.97
60.1327	555.55
60.1472	520.45
60.1616	545.86
60.1760	576.32
60.1905	554.62
60.2049	532.93
60.2194	518.47
60.2338	535.48
60.2482	533.67
60.2627	523.62
60.2771	545.71
60.2916	553.83
60.3060	533.03
60.3204	549.16
60.3349	538.14
60.3493	517.08
60.3638	526.38
60.3782	517.82
60.3926	537.89
60.4071	526.38
60.4215	518.50
60.4360	549.95
60.4504	525.56
60.4648	547.79
60.4793	553.32
60.4937	529.12
60.5082	509.94
60.5226	523.35
60.5370	514.66
60.5515	506.79
60.5659	542.03
60.5804	556.37
60.5948	520.65
60.6092	553.05
60.6237	570.42
60.6381	549.27
60.6526	530.90
60.6670	517.04
60.6814	537.24
60.6959	526.85
60.7103	554.09
60.7248	562.93
60.7392	497.88
60.7536	563.51
60.7681	540.88
60.7825	555.95
60.7970	554.42
60.8114	551.63
60.8258	532.68
60.8403	535.88
60.8547	536.17
60.8692	558.21
60.8836	542.88
60.8980	521.65
60.9125	577.26
60.9269	580.88
60.9414	547.79
60.9558	548.56
60.9702	558.55
60.9847	520.61
60.9991	537.26
61.0136	499.12
61.0280	494.49
61.0424	520.93
61.0569	572.15
61.0713	544.26
61.0858	561.19
61.1002	564.00
61.1146	577.03
61.1291	538.46
61.1435	522.96
61.1580	558.69
61.1724	582.19
61.1868	573.97
61.2013	522.33
61.2157	535.83
61.2302	533.77
61.2446	551.61
61.2590	539.41
61.2735	542.20
61.2879	556.76
61.3024	565.70
61.3168	535.94
61.3312	534.73
61.3457	572.34
61.3601	544.21
61.3746	548.29
61.3890	520.77
61.4034	512.26
61.4179	551.24
61.4323	550.17
61.4468	501.18
61.4612	525.36
61.4756	554.11
61.4901	557.05
61.5045	528.51
61.5190	564.35
61.5334	563.86
61.5478	526.62
61.5623	544.35
61.5767	512.30
61.5912	539.75
61.6056	532.67
61.6200	540.97
61.6345	551.91
61.6489	547.27
61.6634	542.92
61.6778	553.05
61.6922	512.84
61.7067	520.98
61.7211	558.91
61.7356	543.81
61.7500	550.94
61.7644	542.04
61.7789	547.09
61.7933	530.73
61.8078	535.88
61.8222	560.72
61.8366	492.36
61.8511	543.00
61.8655	587.08
61.8800	549.24
61.8944	541.30
61.9088	563.97
61.9233	556.60
61.9377	532.61
61.9522	556.95
61.9666	541.46
61.9810	531.79
61.9955	544.21
62.0099	579.16
62.0244	572.37
62.0388	539.57
62.0532	545.19
62.0677	573.08
62.0821	570.67
62.0966	576.72
62.1110	515.39
62.1254	577.79
62.1399	574.84
62.1543	553.53
62.1688	537.94
62.1832	515.60
62.1976	508.61
62.2121	544.65
62.2265	548.56
62.2410	532.29
62.2554	555.84
62.2698	565.07
62.2843	546.90
62.2987	540.46
62.3132	557.53
62.3276	553.63
62.3420	538.25
62.3565	563.60
62.3709	555.78
62.3854	563.89
62.3998	580.18
62.4142	546.63
62.4287	546.53
62.4431	510.70
62.4576	554.66
62.4720	555.49
62.4864	552.69
62.5009	548.01
62.5153	563.75
62.5298	532.87
62.5442	569.19
62.5586	576.40
62.5731	563.12
62.5875	520.03
62.6020	545.48
62.6164	588.57
62.6308	575.92
62.6453	528.62
62.6597	562.99
62.6742	558.09
62.6886	568.16
62.7030	544.94
62.7175	560.71
62.7319	564.92
62.7464	548.32
62.7608	517.57
62.7752	560.16
62.7897	570.67
62.8041	568.93
62.8186	568.69
62.8330	573.93
62.8474	558.14
62.8619	557.13
62.8763	544.92
62.8908	536.82
62.9052	571.94
62.9196	559.91
62.9341	569.00
62.9485	543.70
62.9630	534.76
62.9774	554.31
62.9918	555.37
63.0063	541.86
63.0207	553.75
63.0352	520.29
63.0496	572.70
63.0640	561.24
63.0785	562.69
63.0929	618.90
63.1074	565.56
63.1218	558.13
63.1362	548.82
63.1507	556.18
63.1651	579.78
63.1796	549.45
63.1940	549.58
63.2084	570.96
63.2229	565.57
63.2373	567.64
63.2518	570.25
63.2662	560.13
63.2806	586.76
63.2951	593.06
63.3095	593.39
63.3240	564.94
63.3384	604.19
63.3528	584.05
63.3673	588.04
63.3817	583.50
63.3962	571.09
63.4106	593.39
63.4250	583.95
63.4395	626.53
63.4539	575.28
63.4684	614.39
63.4828	595.84
63.4972	607.67
63.5117	564.88
63.5261	593.77
63.5406	624.75
63.5550	628.90
63.5694	592.10
63.5839	595.47
63.5983	631.93
63.6128	616.38
63.6272	614.94
63.6416	648.29
63.6561	619.42
63.6705	635.88
63.6850	613.47
63.6994	636.39
63.7138	701.96
63.7283	713.70
63.7427	685.28
63.7572	716.91
63.7716	706.76
63.7861	742.40
63.8005	726.00
63.8149	747.40
63.8294	685.25
63.8438	743.64
63.8583	777.42
63.8727	818.18
63.8871	819.93
63.9016	858.59
63.9160	821.22
63.9305	826.50
63.9449	799.72
63.9593	779.46
63.9738	776.42
63.9882	733.60
64.0027	817.86
64.0171	838.48
64.0315	827.43
64.0460	744.57
64.0604	737.98
64.0749	733.14
64.0893	723.57
64.1037	753.88
64.1182	746.71
64.1326	715.90
64.1471	656.55
64.1615	682.77
64.1759	668.99
64.1904	670.50
64.2048	685.36
64.2193	641.09
64.2337	657.76
64.2481	675.07
64.2626	673.27
64.2770	680.81
64.2915	638.68
64.3059	638.91
64.3203	624.06
64.3348	681.22
64.3492	669.30
64.3637	638.38
64.3781	621.64
64.3925	580.77
64.4070	588.01
64.4214	655.48
64.4359	657.59
64.4503	622.45
64.4647	657.73
64.4792	612.05
64.4936	646.56
64.5081	668.89
64.5225	621.32
64.5369	622.28
64.5514	602.53
64.5658	642.29
64.5803	639.37
64.5947	632.64
64.6091	626.48
64.6236	672.31
64.6380	677.73
64.6525	665.59
64.6669	701.71
64.6813	643.20
64.6958	650.88
64.7102	707.60
64.7247	714.96
64.7391	659.74
64.7535	725.34
64.7680	731.50
64.7824	744.03
64.7969	738.07
64.8113	780.39
64.8257	761.33
64.8402	784.33
64.8546	794.42
64.8691	849.06
64.8835	829.01
64.8979	802.18
64.9124	871.10
64.9268	888.15
64.9413	855.50
64.9557	921.48
64.9701	1001.38
64.9846	1048.12
64.9990	1120.84
65.0135	1262.50
65.0279	1388.33
65.0423	1537.87
65.0568	1969.89
65.0712	2469.72
65.0857	3260.51
65.1001	4225.00
65.1145	5637.11
65.1290	7448.30
65.1434	9142.17
65.1579	10661.58
65.1723	11704.22
65.1867	11388.35
65.2012	10149.20
65.2156	8541.48
65.2301	6726.44
65.2445	5467.36
65.2589	4607.33
65.2734	4200.29
65.2878	4271.41
65.3023	4739.43
65.3167	5607.74
65.3311	6283.97
65.3456	6889.14
65.3600	6857.85
65.3745	6435.53
65.3889	5452.46
65.4033	4478.04
65.4178	3653.61
65.4322	2826.34
65.4467	2139.41
65.4611	1688.58
65.4755	1469.25
65.4900	1286.56
65.5044	1196.07
65.5189	1009.58
65.5333	951.73
65.5477	968.69
65.5622	935.18
65.5766	905.12
65.5911	812.77
65.6055	804.19
65.6199	809.06
65.6344	789.98
65.6488	740.82
65.6633	733.42
65.6777	692.66
65.6921	683.49
65.7066	715.08
65.7210	715.31
65.7355	710.74
65.7499	659.35
65.7643	647.75
65.7788	666.18
65.7932	690.29
65.8077	706.77
65.8221	699.92
65.8365	654.56
65.8510	650.82
65.8654	698.20
65.8799	649.47
65.8943	650.15
65.9087	637.61
65.9232	631.29
65.9376	652.78
65.9521	615.45
65.9665	637.83
65.9809	651.38
65.9954	657.18
66.0098	652.33
66.0243	629.72
66.0387	627.52
66.0531	630.84
66.0676	647.73
66.0820	648.58
66.0965	654.88
66.1109	605.31
66.1253	618.70
66.1398	604.66
66.1542	595.57
66.1687	622.98
66.1831	597.29
66.1975	571.81
66.2120	597.97
66.2264	607.81
66.2409	614.44
66.2553	613.52
66.2697	601.10
66.2842	618.85
66.2986	610.12
66.3131	607.76
66.3275	587.71
66.3419	604.33
66.3564	600.18
66.3708	595.83
66.3853	603.76
66.3997	605.63
66.4141	615.49
66.4286	615.73
66.4430	603.91
66.4575	634.42
66.4719	627.85
66.4863	604.70
66.5008	559.25
66.5152	590.40
66.5297	605.95
66.5441	605.84
66.5585	617.17
66.5730	575.02
66.5874	548.57
66.6019	573.53
66.6163	575.33
66.6307	606.81
66.6452	603.27
66.6596	599.36
66.6741	608.34
66.6885	577.98
66.7029	588.59
66.7174	574.80
66.7318	565.00
66.7463	610.44
66.7607	591.63
66.7751	575.55
66.7896	576.25
66.8040	578.01
66.8185	557.43
66.8329	567.62
66.8473	554.64
66.8618	604.59
66.8762	590.08
66.8907	557.17
66.9051	563.67
66.9195	587.19
66.9340	621.46
66.9484	606.31
66.9629	581.18
66.9773	597.02
66.9917	601.04
67.0062	622.70
67.0206	604.72
67.0351	630.18
67.0495	597.48
67.0639	579.01
67.0784	587.90
67.0928	584.27
67.1073	571.14
67.1217	591.94
67.1361	585.27
67.1506	576.92
67.1650	591.42
67.1795	557.01
67.1939	534.65
67.2083	556.81
67.2228	586.17
67.2372	584.89
67.2517	586.69
67.2661	584.92
67.2805	581.45
67.2950	592.76
67.3094	580.06
67.3239	590.00
67.3383	587.15
67.3527	587.24
67.3672	586.67
67.3816	567.62
67.3961	580.43
67.4105	609.40
67.4250	614.48
67.4394	603.95
67.4538	586.74
67.4683	600.20
67.4827	575.71
67.4972	601.51
67.5116	568.25
67.5260	561.24
67.5405	558.60
67.5549	579.28
67.5694	561.65
67.5838	582.86
67.5982	581.58
67.6127	565.51
67.6271	582.03
67.6416	595.75
67.6560	547.35
67.6704	564.14
67.6849	558.60
67.6993	578.61
67.7138	570.98
67.7282	551.60
67.7426	572.70
67.7571	560.04
67.7715	575.76
67.7860	569.09
67.8004	583.34
67.8148	580.24
67.8293	586.28
67.8437	571.04
67.8582	571.90
67.8726	594.33
67.8870	542.57
67.9015	567.57
67.9159	568.10
67.9304	552.08
67.9448	561.64
67.9592	553.78
67.9737	595.66
67.9881	555.14
68.0026	581.36
68.0170	565.15
68.0314	576.28
68.0459	586.44
68.0603	594.31
68.0748	607.62
68.0892	621.83
68.1036	603.67
68.1181	579.55
68.1325	528.87
68.1470	572.32
68.1614	565.34
68.1758	588.46
68.1903	569.80
68.2047	565.10
68.2192	595.63
68.2336	574.74
68.2480	567.73
68.2625	515.92
68.2769	578.73
68.2914	639.56
68.3058	582.88
68.3202	576.15
68.3347	565.16
68.3491	564.84
68.3636	567.11
68.3780	592.67
68.3924	549.32
68.4069	533.80
68.4213	603.46
68.4358	533.38
68.4502	518.59
68.4646	559.23
68.4791	558.34
68.4935	558.71
68.5080	561.29
68.5224	523.71
68.5368	531.87
68.5513	552.91
68.5657	592.51
68.5802	558.33
68.5946	549.06
68.6090	561.95
68.6235	585.23
68.6379	555.98
68.6524	556.79
68.6668	570.93
68.6812	527.48
68.6957	584.65
68.7101	559.93
68.7246	610.35
68.7390	542.39
68.7534	541.95
68.7679	577.75
68.7823	570.15
68.7968	538.53
68.8112	553.06
68.8256	570.03
68.8401	579.41
68.8545	526.94
68.8690	555.34
68.8834	580.32
68.8978	582.95
68.9123	603.68
68.9267	500.90
68.9412	596.12
68.9556	592.36
68.9700	596.21
68.9845	574.90
68.9989	577.31
69.0134	553.11
69.0278	578.12
69.0422	544.18
69.0567	508.95
69.0711	566.01
69.0856	592.00
69.1000	575.00
69.1144	573.81
69.1289	576.98
69.1433	592.17
69.1578	524.62
69.1722	580.54
69.1866	533.83
69.2011	519.57
69.2155	554.56
69.2300	546.61
69.2444	566.42
69.2588	581.23
69.2733	590.42
69.2877	607.49
69.3022	587.11
69.3166	609.84
69.3310	572.12
69.3455	627.92
69.3599	564.50
69.3744	595.73
69.3888	555.88
69.4032	567.71
69.4177	527.37
69.4321	606.12
69.4466	545.75
69.4610	541.71
69.4754	583.25
69.4899	624.15
69.5043	550.82
69.5188	559.00
69.5332	563.49
69.5476	562.19
69.5621	578.31
69.5765	620.48
69.5910	562.59
69.6054	559.65
69.6198	586.19
69.6343	577.96
69.6487	568.18
69.6632	538.60
69.6776	570.17
69.6920	567.86
69.7065	568.97
69.7209	593.68
69.7354	500.34
69.7498	596.64
69.7642	544.06
69.7787	545.86
69.7931	569.44
69.8076	620.73
69.8220	583.58
69.8364	578.06
69.8509	554.64
69.8653	568.87
69.8798	590.61
69.8942	601.29
69.9086	647.18
69.9231	625.11
69.9375	576.53
69.9520	508.47
69.9664	554.48
69.9808	592.29
69.9953	591.62
70.0097	594.77
70.0242	619.59
70.0386	604.11
70.0530	564.93
70.0675	557.74
70.0819	564.16
70.0964	582.19
70.1108	531.37
70.1252	553.66
70.1397	564.62
70.1541	589.85
70.1686	562.30
70.1830	630.21
70.1974	530.05
70.2119	594.58
70.2263	570.89
70.2408	551.48
70.2552	581.01
70.2696	576.87
70.2841	554.90
70.2985	570.09
70.3130	571.65
70.3274	559.31
70.3418	567.26
70.3563	556.70
70.3707	599.53
70.3852	562.21
70.3996	546.49
70.4140	559.38
70.4285	581.80
70.4429	553.74
70.4574	583.79
70.4718	569.83
70.4862	585.09
70.5007	575.22
70.5151	576.63
70.5296	595.10
70.5440	603.34
70.5584	547.41
70.5729	535.33
70.5873	561.62
70.6018	599.32
70.6162	545.51
70.6306	533.14
70.6451	563.38
70.6595	574.31
70.6740	545.19
70.6884	578.80
70.7028	591.16
70.7173	568.05
70.7317	563.59
70.7462	584.71
70.7606	642.10
70.7750	634.65
70.7895	605.13
70.8039	610.47
70.8184	618.78
70.8328	568.91
70.8472	508.92
70.8617	542.18
70.8761	590.23
70.8906	561.23
70.9050	585.42
70.9194	601.11
70.9339	581.37
70.9483	579.58
70.9628	579.59
70.9772	574.11
70.9916	592.62
71.0061	579.96
71.0205	594.81
71.0350	599.54
71.0494	532.08
71.0638	532.17
71.0783	574.47
71.0927	589.37
71.1072	609.31
71.1216	631.43
71.1361	587.85
71.1505	531.10
71.1649	587.00
71.1794	569.32
71.1938	542.71
71.2083	518.21
71.2227	556.21
71.2371	586.08
71.2516	612.02
71.2660	636.45
71.2805	530.40
71.2949	563.91
71.3093	582.50
71.3238	578.16
71.3382	634.95
71.3527	599.72
71.3671	563.59
71.3815	552.83
71.3960	550.74
71.4104	544.27
71.4249	574.61
71.4393	610.94
71.4537	622.47
71.4682	568.88
71.4826	557.20
71.4971	605.50
71.5115	588.05
71.5259	508.46
71.5404	540.44
71.5548	562.74
71.5693	591.00
71.5837	552.54
71.5981	569.35
71.6126	572.47
71.6270	514.65
71.6415	522.52
71.6559	563.03
71.6703	525.79
71.6848	472.51
71.6992	549.19
71.7137	563.28
71.7281	564.62
71.7425	595.69
71.7570	578.33
71.7714	570.75
71.7859	567.24
71.8003	577.98
71.8147	588.96
71.8292	586.57
71.8436	609.93
71.8581	563.71
71.8725	558.09
71.8869	564.54
71.9014	633.64
71.9158	617.33
71.9303	545.14
71.9447	503.59
71.9591	532.62
71.9736	565.18
71.9880	569.40
72.0025	565.21
72.0169	558.63
72.0313	590.73
72.0458	551.43
72.0602	568.09
72.0747	602.61
72.0891	609.68
72.1035	683.71
72.1180	664.68
72.1324	634.71
72.1469	544.91
72.1613	517.43
72.1757	612.16
72.1902	670.04
72.2046	651.70
72.2191	590.91
72.2335	549.73
72.2479	549.09
72.2624	652.55
72.2768	634.49
72.2913	547.13
72.3057	552.33
72.3201	547.42
72.3346	548.33
72.3490	519.93
72.3635	613.94
72.3779	611.76
72.3923	566.54
72.4068	599.13
72.4212	622.95
72.4357	605.95
72.4501	515.23
72.4645	528.27
72.4790	554.44
72.4934	583.63
72.5079	604.70
72.5223	585.53
72.5367	585.32
72.5512	612.52
72.5656	599.29
72.5801	462.93
72.5945	490.10
72.6089	572.22
72.6234	564.30
72.6378	632.60
72.6523	620.93
72.6667	603.85
72.6811	559.48
72.6956	545.96
72.7100	595.41
72.7245	604.56
72.7389	635.47
72.7533	569.16
72.7678	566.12
72.7822	551.51
72.7967	540.12
72.8111	600.44
72.8255	620.25
72.8400	662.86
72.8544	659.61
72.8689	589.52
72.8833	507.43