2022.09.19 19:37:16
Îáðàçåö: ß÷åéêà LCoV 16-09-2022
Lambda1 = 1.54060
Lambda2 = 1.54439
Lambdam = 1.54186
R = 0.497
2Theta	I

line¹ 0 ;repeat¹ 0
22.1120	500.15
22.1264	527.02
22.1409	457.61
22.1553	538.70
22.1697	529.82
22.1842	571.24
22.1986	578.56
22.2131	562.05
22.2275	625.70
22.2419	636.82
22.2564	598.81
22.2708	504.55
22.2853	481.89
22.2997	480.52
22.3141	598.44
22.3286	570.54
22.3430	634.94
22.3575	643.65
22.3719	568.20
22.3863	567.01
22.4008	529.09
22.4152	555.19
22.4297	614.57
22.4441	597.71
22.4585	624.18
22.4730	570.87
22.4874	590.39
22.5019	617.32
22.5163	570.51
22.5307	573.09
22.5452	618.40
22.5596	622.29
22.5741	564.03
22.5885	502.29
22.6029	651.04
22.6174	557.84
22.6318	580.48
22.6463	627.53
22.6607	570.32
22.6751	522.58
22.6896	498.54
22.7040	558.65
22.7185	523.76
22.7329	562.30
22.7473	555.80
22.7618	501.81
22.7762	517.90
22.7907	547.67
22.8051	568.63
22.8195	659.78
22.8340	609.14
22.8484	553.92
22.8629	638.30
22.8773	597.94
22.8917	565.16
22.9062	636.91
22.9206	550.58
22.9351	615.35
22.9495	594.00
22.9639	543.27
22.9784	603.55
22.9928	620.42
23.0073	511.83
23.0217	518.81
23.0361	573.96
23.0506	659.22
23.0650	578.79
23.0795	528.57
23.0939	563.59
23.1083	529.47
23.1228	631.04
23.1372	583.16
23.1517	577.00
23.1661	506.99
23.1806	513.50
23.1950	566.85
23.2094	525.05
23.2239	583.12
23.2383	588.50
23.2528	498.44
23.2672	591.79
23.2816	513.40
23.2961	556.06
23.3105	549.40
23.3250	514.94
23.3394	518.64
23.3538	537.76
23.3683	544.08
23.3827	633.44
23.3972	519.52
23.4116	545.75
23.4260	649.50
23.4405	578.00
23.4549	532.45
23.4694	517.39
23.4838	536.01
23.4982	580.37
23.5127	570.14
23.5271	553.58
23.5416	518.27
23.5560	624.72
23.5704	578.13
23.5849	563.21
23.5993	593.69
23.6138	575.74
23.6282	581.28
23.6426	569.41
23.6571	601.47
23.6715	586.72
23.6860	573.41
23.7004	544.99
23.7148	596.24
23.7293	543.66
23.7437	614.73
23.7582	533.34
23.7726	520.76
23.7870	493.64
23.8015	504.88
23.8159	566.85
23.8304	530.51
23.8448	599.05
23.8592	562.47
23.8737	578.94
23.8881	487.49
23.9026	532.85
23.9170	563.38
23.9314	534.28
23.9459	618.45
23.9603	497.32
23.9748	538.08
23.9892	522.67
24.0036	541.33
24.0181	600.61
24.0325	535.00
24.0470	584.02
24.0614	513.40
24.0758	528.79
24.0903	612.23
24.1047	580.06
24.1192	528.82
24.1336	583.13
24.1480	504.96
24.1625	538.37
24.1769	631.44
24.1914	535.67
24.2058	619.42
24.2202	585.29
24.2347	566.87
24.2491	543.43
24.2636	570.40
24.2780	614.84
24.2924	580.97
24.3069	553.08
24.3213	527.06
24.3358	538.82
24.3502	579.38
24.3646	568.88
24.3791	592.66
24.3935	566.92
24.4080	513.48
24.4224	522.82
24.4368	574.35
24.4513	550.87
24.4657	543.25
24.4802	531.74
24.4946	556.84
24.5090	500.88
24.5235	506.48
24.5379	575.96
24.5524	577.75
24.5668	591.56
24.5812	550.81
24.5957	581.50
24.6101	633.13
24.6246	584.12
24.6390	565.55
24.6534	594.66
24.6679	511.42
24.6823	521.81
24.6968	580.98
24.7112	560.70
24.7256	529.09
24.7401	530.06
24.7545	592.30
24.7690	546.62
24.7834	625.92
24.7978	579.62
24.8123	612.67
24.8267	525.72
24.8412	485.17
24.8556	528.83
24.8700	551.29
24.8845	534.81
24.8989	519.47
24.9134	492.83
24.9278	504.58
24.9422	513.86
24.9567	561.14
24.9711	474.77
24.9856	551.45
25.0000	522.02
25.0144	501.84
25.0289	510.54
25.0433	570.72
25.0578	533.60
25.0722	472.75
25.0866	574.39
25.1011	580.83
25.1155	587.73
25.1300	551.67
25.1444	581.72
25.1588	596.93
25.1733	529.56
25.1877	525.11
25.2022	489.74
25.2166	542.73
25.2310	562.77
25.2455	570.31
25.2599	523.54
25.2744	526.97
25.2888	558.74
25.3032	556.30
25.3177	552.56
25.3321	524.17
25.3466	486.93
25.3610	561.25
25.3754	529.14
25.3899	560.18
25.4043	557.50
25.4188	550.56
25.4332	525.02
25.4476	522.41
25.4621	500.79
25.4765	498.14
25.4910	514.98
25.5054	567.82
25.5198	537.61
25.5343	580.56
25.5487	510.79
25.5632	500.99
25.5776	536.67
25.5920	514.27
25.6065	585.73
25.6209	574.69
25.6354	508.02
25.6498	506.61
25.6642	511.83
25.6787	527.19
25.6931	543.53
25.7076	531.32
25.7220	562.02
25.7364	550.84
25.7509	565.32
25.7653	556.18
25.7798	560.24
25.7942	530.58
25.8086	516.41
25.8231	505.24
25.8375	514.57
25.8520	556.82
25.8664	575.82
25.8808	547.16
25.8953	542.98
25.9097	539.41
25.9242	539.17
25.9386	523.14
25.9530	556.89
25.9675	530.88
25.9819	548.22
25.9964	575.13
26.0108	542.14
26.0252	521.47
26.0397	539.74
26.0541	571.41
26.0686	531.45
26.0830	564.47
26.0974	528.72
26.1119	507.23
26.1263	525.50
26.1408	496.80
26.1552	527.43
26.1696	495.64
26.1841	480.00
26.1985	532.15
26.2130	505.70
26.2274	544.73
26.2418	543.29
26.2563	491.71
26.2707	527.32
26.2852	567.96
26.2996	539.95
26.3140	584.75
26.3285	560.95
26.3429	529.76
26.3574	521.37
26.3718	524.39
26.3862	506.03
26.4007	496.40
26.4151	525.59
26.4296	530.24
26.4440	500.62
26.4584	541.63
26.4729	548.53
26.4873	551.95
26.5018	544.27
26.5162	543.75
26.5306	562.45
26.5451	555.43
26.5595	541.29
26.5740	563.68
26.5884	573.92
26.6028	545.10
26.6173	541.54
26.6317	566.39
26.6462	540.18
26.6606	539.56
26.6750	541.33
26.6895	520.69
26.7039	528.60
26.7184	510.97
26.7328	517.01
26.7472	516.63
26.7617	520.13
26.7761	546.00
26.7906	530.45
26.8050	516.91
26.8194	511.65
26.8339	530.87
26.8483	542.01
26.8628	535.27
26.8772	513.32
26.8917	538.77
26.9061	547.92
26.9205	530.02
26.9350	544.41
26.9494	567.46
26.9639	529.10
26.9783	542.43
26.9927	535.02
27.0072	520.97
27.0216	519.51
27.0361	529.84
27.0505	513.00
27.0649	522.62
27.0794	537.04
27.0938	545.60
27.1083	544.48
27.1227	548.30
27.1371	546.74
27.1516	509.29
27.1660	552.29
27.1805	523.15
27.1949	499.73
27.2093	511.07
27.2238	496.60
27.2382	540.67
27.2527	521.53
27.2671	528.67
27.2815	516.73
27.2960	531.58
27.3104	551.77
27.3249	527.79
27.3393	521.78
27.3537	510.61
27.3682	541.30
27.3826	543.16
27.3971	535.45
27.4115	539.34
27.4259	547.98
27.4404	535.31
27.4548	512.14
27.4693	537.38
27.4837	545.60
27.4981	530.77
27.5126	500.22
27.5270	523.67
27.5415	498.97
27.5559	516.74
27.5703	533.77
27.5848	537.73
27.5992	551.74
27.6137	550.57
27.6281	527.10
27.6425	525.35
27.6570	542.82
27.6714	525.06
27.6859	497.51
27.7003	500.54
27.7147	520.37
27.7292	513.61
27.7436	509.53
27.7581	522.73
27.7725	527.60
27.7869	529.33
27.8014	505.03
27.8158	521.18
27.8303	546.16
27.8447	539.12
27.8591	520.82
27.8736	516.84
27.8880	523.53
27.9025	533.07
27.9169	485.23
27.9313	504.21
27.9458	525.45
27.9602	484.86
27.9747	540.92
27.9891	546.58
28.0035	514.27
28.0180	521.18
28.0324	522.56
28.0469	495.58
28.0613	512.34
28.0757	506.98
28.0902	513.66
28.1046	527.49
28.1191	521.06
28.1335	536.38
28.1479	513.11
28.1624	523.76
28.1768	529.44
28.1913	488.28
28.2057	503.30
28.2201	500.60
28.2346	493.11
28.2490	499.18
28.2635	521.90
28.2779	512.98
28.2923	508.61
28.3068	517.26
28.3212	488.64
28.3357	530.32
28.3501	499.59
28.3645	509.78
28.3790	509.83
28.3934	509.86
28.4079	521.10
28.4223	531.75
28.4367	524.60
28.4512	483.40
28.4656	489.67
28.4801	517.77
28.4945	503.58
28.5089	525.02
28.5234	540.55
28.5378	527.14
28.5523	541.48
28.5667	489.65
28.5811	508.01
28.5956	514.43
28.6100	522.96
28.6245	542.15
28.6389	529.99
28.6533	513.46
28.6678	465.86
28.6822	493.25
28.6967	535.73
28.7111	523.83
28.7255	533.77
28.7400	507.27
28.7544	510.69
28.7689	522.89
28.7833	531.35
28.7977	495.39
28.8122	507.20
28.8266	546.29
28.8411	532.25
28.8555	524.07
28.8699	545.53
28.8844	549.25
28.8988	511.67
28.9133	539.96
28.9277	512.11
28.9421	542.31
28.9566	486.04
28.9710	514.85
28.9855	504.01
28.9999	486.85
29.0143	478.53
29.0288	517.09
29.0432	506.83
29.0577	497.18
29.0721	511.33
29.0865	485.25
29.1010	503.26
29.1154	523.89
29.1299	490.07
29.1443	512.62
29.1587	516.67
29.1732	495.38
29.1876	500.66
29.2021	502.89
29.2165	511.36
29.2309	478.46
29.2454	537.16
29.2598	492.39
29.2743	513.85
29.2887	519.94
29.3031	525.12
29.3176	521.37
29.3320	520.54
29.3465	464.81
29.3609	494.72
29.3753	512.84
29.3898	497.56
29.4042	464.87
29.4187	507.79
29.4331	529.33
29.4475	497.46
29.4620	495.72
29.4764	548.64
29.4909	502.94
29.5053	519.50
29.5197	527.18
29.5342	514.45
29.5486	525.16
29.5631	528.04
29.5775	505.83
29.5919	504.48
29.6064	520.99
29.6208	493.01
29.6353	524.46
29.6497	508.19
29.6641	498.17
29.6786	525.08
29.6930	522.75
29.7075	572.05
29.7219	516.34
29.7363	489.97
29.7508	507.45
29.7652	506.48
29.7797	525.65
29.7941	484.12
29.8085	526.49
29.8230	504.61
29.8374	513.26
29.8519	526.52
29.8663	533.59
29.8807	513.91
29.8952	523.80
29.9096	531.50
29.9241	547.86
29.9385	540.75
29.9529	491.66
29.9674	483.13
29.9818	516.86
29.9963	490.85
30.0107	518.60
30.0251	513.13
30.0396	482.56
30.0540	494.96
30.0685	500.15
30.0829	498.13
30.0973	512.63
30.1118	558.67
30.1262	520.68
30.1407	494.33
30.1551	519.07
30.1695	537.36
30.1840	509.11
30.1984	502.59
30.2129	509.62
30.2273	515.75
30.2417	520.17
30.2562	501.10
30.2706	503.74
30.2851	551.32
30.2995	521.69
30.3139	510.35
30.3284	532.35
30.3428	513.44
30.3573	519.83
30.3717	526.99
30.3861	526.57
30.4006	548.88
30.4150	526.75
30.4295	557.46
30.4439	521.32
30.4583	515.89
30.4728	532.92
30.4872	529.22
30.5017	530.64
30.5161	597.06
30.5305	553.86
30.5450	590.00
30.5594	673.32
30.5739	669.57
30.5883	678.09
30.6028	731.01
30.6172	721.78
30.6316	741.63
30.6461	733.14
30.6605	711.23
30.6750	743.62
30.6894	697.35
30.7038	692.24
30.7183	663.07
30.7327	643.98
30.7472	624.58
30.7616	607.57
30.7760	548.78
30.7905	553.37
30.8049	544.95
30.8194	549.66
30.8338	508.83
30.8482	511.32
30.8627	527.64
30.8771	550.23
30.8916	514.63
30.9060	517.67
30.9204	525.05
30.9349	517.17
30.9493	500.93
30.9638	508.68
30.9782	505.13
30.9926	506.50
31.0071	506.15
31.0215	527.08
31.0360	539.56
31.0504	517.35
31.0648	533.56
31.0793	535.23
31.0937	536.48
31.1082	548.24
31.1226	535.50
31.1370	507.64
31.1515	500.64
31.1659	520.06
31.1804	520.09
31.1948	501.81
31.2092	534.51
31.2237	503.09
31.2381	485.39
31.2526	528.23
31.2670	530.54
31.2814	556.95
31.2959	514.81
31.3103	517.78
31.3248	509.74
31.3392	517.59
31.3536	495.04
31.3681	532.05
31.3825	542.78
31.3970	517.63
31.4114	493.39
31.4258	503.85
31.4403	493.29
31.4547	505.36
31.4692	514.32
31.4836	541.95
31.4980	529.44
31.5125	481.06
31.5269	494.50
31.5414	517.58
31.5558	485.80
31.5702	537.97
31.5847	509.80
31.5991	531.73
31.6136	520.57
31.6280	515.68
31.6424	533.43
31.6569	532.82
31.6713	517.13
31.6858	501.54
31.7002	499.23
31.7146	540.89
31.7291	496.30
31.7435	505.16
31.7580	494.76
31.7724	494.63
31.7868	511.78
31.8013	495.77
31.8157	495.68
31.8302	521.28
31.8446	512.73
31.8590	517.30
31.8735	540.19
31.8879	493.25
31.9024	515.25
31.9168	487.43
31.9312	516.61
31.9457	529.17
31.9601	522.86
31.9746	506.46
31.9890	516.17
32.0034	492.40
32.0179	494.20
32.0323	476.17
32.0468	501.40
32.0612	498.95
32.0756	489.84
32.0901	482.89
32.1045	495.02
32.1190	519.96
32.1334	500.60
32.1478	480.86
32.1623	503.81
32.1767	494.47
32.1912	490.37
32.2056	488.55
32.2200	496.45
32.2345	534.28
32.2489	552.72
32.2634	524.42
32.2778	520.32
32.2922	502.93
32.3067	521.49
32.3211	492.34
32.3356	486.64
32.3500	494.19
32.3644	518.86
32.3789	500.33
32.3933	510.24
32.4078	493.81
32.4222	487.52
32.4366	488.77
32.4511	513.00
32.4655	545.42
32.4800	501.89
32.4944	495.20
32.5088	507.88
32.5233	493.47
32.5377	495.15
32.5522	483.97
32.5666	497.31
32.5810	498.49
32.5955	506.44
32.6099	566.56
32.6244	518.06
32.6388	533.16
32.6532	504.87
32.6677	483.25
32.6821	500.95
32.6966	487.50
32.7110	525.90
32.7254	491.65
32.7399	522.86
32.7543	504.29
32.7688	471.49
32.7832	498.50
32.7976	501.41
32.8121	483.77
32.8265	496.85
32.8410	469.05
32.8554	524.31
32.8698	520.43
32.8843	512.30
32.8987	511.18
32.9132	503.27
32.9276	524.32
32.9420	547.42
32.9565	485.47
32.9709	505.57
32.9854	505.32
32.9998	523.70
33.0142	513.04
33.0287	520.90
33.0431	518.75
33.0576	520.23
33.0720	500.65
33.0864	503.46
33.1009	528.99
33.1153	522.69
33.1298	517.91
33.1442	455.26
33.1586	500.41
33.1731	505.32
33.1875	479.86
33.2020	529.49
33.2164	506.72
33.2308	515.68
33.2453	509.15
33.2597	512.73
33.2742	536.17
33.2886	496.55
33.3030	517.04
33.3175	519.84
33.3319	544.76
33.3464	504.65
33.3608	517.35
33.3752	487.53
33.3897	512.17
33.4041	490.17
33.4186	492.48
33.4330	518.02
33.4474	506.84
33.4619	506.28
33.4763	522.71
33.4908	501.92
33.5052	499.65
33.5196	495.77
33.5341	478.40
33.5485	500.66
33.5630	520.20
33.5774	482.10
33.5918	497.92
33.6063	506.74
33.6207	484.79
33.6352	487.39
33.6496	527.79
33.6640	503.77
33.6785	531.14
33.6929	509.74
33.7074	517.95
33.7218	527.12
33.7362	507.10
33.7507	523.11
33.7651	490.58
33.7796	525.32
33.7940	500.26
33.8084	507.71
33.8229	497.90
33.8373	479.44
33.8518	484.48
33.8662	503.65
33.8806	495.31
33.8951	472.44
33.9095	545.90
33.9240	561.65
33.9384	485.77
33.9528	485.31
33.9673	483.79
33.9817	482.11
33.9962	496.74
34.0106	512.37
34.0250	491.68
34.0395	510.97
34.0539	489.45
34.0684	536.85
34.0828	509.26
34.0972	509.45
34.1117	490.72
34.1261	506.58
34.1406	493.28
34.1550	500.03
34.1694	511.15
34.1839	543.05
34.1983	520.12
34.2128	510.86
34.2272	500.41
34.2417	529.51
34.2561	524.37
34.2705	485.97
34.2850	532.54
34.2994	491.72
34.3139	505.79
34.3283	508.21
34.3427	527.11
34.3572	512.20
34.3716	492.04
34.3861	513.02
34.4005	511.06
34.4149	495.41
34.4294	522.96
34.4438	535.65
34.4583	502.48
34.4727	519.93
34.4871	500.99
34.5016	509.99
34.5160	497.38
34.5305	469.98
34.5449	477.06
34.5593	529.57
34.5738	501.47
34.5882	526.88
34.6027	487.55
34.6171	489.23
34.6315	545.87
34.6460	503.69
34.6604	515.48
34.6749	517.95
34.6893	456.22
34.7037	482.69
34.7182	509.31
34.7326	464.41
34.7471	480.18
34.7615	487.54
34.7759	482.13
34.7904	487.75
34.8048	494.34
34.8193	506.60
34.8337	513.46
34.8481	483.45
34.8626	528.31
34.8770	515.25
34.8915	515.33
34.9059	523.15
34.9203	482.53
34.9348	507.72
34.9492	495.10
34.9637	468.61
34.9781	488.97
34.9925	476.98
35.0070	471.82
35.0214	513.36
35.0359	506.12
35.0503	496.19
35.0647	497.44
35.0792	482.81
35.0936	506.20
35.1081	534.29
35.1225	557.77
35.1369	508.06
35.1514	471.21
35.1658	506.68
35.1803	525.00
35.1947	503.74
35.2091	537.39
35.2236	517.02
35.2380	508.67
35.2525	518.88
35.2669	488.66
35.2813	533.90
35.2958	491.96
35.3102	515.08
35.3247	522.44
35.3391	513.52
35.3535	522.61
35.3680	539.94
35.3824	528.32
35.3969	512.67
35.4113	518.69
35.4257	556.24
35.4402	563.52
35.4546	554.96
35.4691	548.82
35.4835	542.31
35.4979	544.61
35.5124	512.44
35.5268	508.58
35.5413	532.67
35.5557	531.69
35.5701	531.07
35.5846	522.29
35.5990	528.33
35.6135	538.21
35.6279	555.97
35.6423	543.16
35.6568	560.80
35.6712	563.19
35.6857	615.47
35.7001	686.52
35.7145	736.21
35.7290	686.60
35.7434	626.69
35.7579	617.97
35.7723	615.39
35.7867	595.04
35.8012	632.65
35.8156	670.23
35.8301	621.82
35.8445	635.80
35.8589	673.21
35.8734	796.54
35.8878	879.45
35.9023	1022.37
35.9167	1181.64
35.9311	1396.63
35.9456	1984.07
35.9600	2399.72
35.9745	2051.05
35.9889	2056.56
36.0033	2428.49
36.0178	2591.28
36.0322	2413.67
36.0467	2419.14
36.0611	2238.47
36.0755	2111.96
36.0900	2083.82
36.1044	1963.72
36.1189	1819.25
36.1333	1561.51
36.1477	1331.01
36.1622	1285.18
36.1766	1272.96
36.1911	1041.79
36.2055	866.51
36.2199	805.23
36.2344	719.71
36.2488	672.46
36.2633	624.92
36.2777	625.98
36.2921	582.98
36.3066	586.72
36.3210	587.29
36.3355	606.18
36.3499	519.18
36.3643	533.57
36.3788	562.04
36.3932	544.31
36.4077	518.59
36.4221	546.54
36.4365	576.35
36.4510	555.76
36.4654	569.76
36.4799	574.34
36.4943	538.39
36.5087	545.71
36.5232	525.88
36.5376	515.94
36.5521	538.72
36.5665	506.31
36.5809	521.13
36.5954	477.84
36.6098	516.75
36.6243	476.82
36.6387	525.68
36.6531	545.17
36.6676	526.83
36.6820	509.63
36.6965	516.06
36.7109	549.47
36.7253	517.44
36.7398	497.63
36.7542	525.02
36.7687	542.71
36.7831	555.91
36.7975	522.28
36.8120	552.04
36.8264	611.33
36.8409	564.13
36.8553	569.47
36.8697	607.18
36.8842	582.02
36.8986	607.37
36.9131	628.86
36.9275	615.18
36.9419	627.42
36.9564	540.19
36.9708	554.28
36.9853	547.73
36.9997	543.93
37.0141	559.85
37.0286	546.02
37.0430	537.98
37.0575	531.40
37.0719	519.71
37.0863	550.15
37.1008	533.78
37.1152	533.05
37.1297	520.09
37.1441	461.86
37.1585	502.65
37.1730	525.16
37.1874	488.24
37.2019	512.80
37.2163	502.80
37.2307	484.45
37.2452	487.82
37.2596	483.89
37.2741	520.71
37.2885	517.64
37.3029	523.99
37.3174	496.36
37.3318	502.65
37.3463	455.40
37.3607	481.01
37.3751	492.61
37.3896	508.63
37.4040	504.70
37.4185	477.13
37.4329	544.01
37.4473	480.31
37.4618	487.70
37.4762	514.96
37.4907	534.90
37.5051	526.51
37.5195	524.93
37.5340	516.45
37.5484	496.81
37.5629	530.11
37.5773	495.39
37.5917	506.76
37.6062	522.02
37.6206	553.76
37.6351	530.71
37.6495	504.39
37.6639	490.54
37.6784	479.83
37.6928	506.17
37.7073	547.23
37.7217	535.10
37.7361	510.35
37.7506	505.49
37.7650	507.25
37.7795	514.04
37.7939	526.84
37.8083	516.73
37.8228	530.47
37.8372	538.22
37.8517	519.66
37.8661	529.08
37.8805	506.92
37.8950	485.37
37.9094	525.30
37.9239	534.87
37.9383	506.10
37.9528	484.68
37.9672	505.46
37.9816	486.20
37.9961	486.72
38.0105	518.20
38.0250	531.94
38.0394	498.71
38.0538	496.19
38.0683	510.80
38.0827	543.78
38.0972	525.52
38.1116	500.88
38.1260	514.54
38.1405	539.41
38.1549	518.38
38.1694	488.81
38.1838	515.13
38.1982	477.92
38.2127	499.89
38.2271	501.36
38.2416	529.91
38.2560	505.34
38.2704	473.81
38.2849	504.49
38.2993	516.37
38.3138	534.22
38.3282	514.95
38.3426	519.45
38.3571	541.86
38.3715	525.77
38.3860	521.15
38.4004	530.84
38.4148	587.69
38.4293	580.04
38.4437	597.20
38.4582	625.23
38.4726	673.94
38.4870	710.69
38.5015	746.24
38.5159	762.62
38.5304	824.02
38.5448	804.69
38.5592	786.76
38.5737	775.28
38.5881	775.08
38.6026	731.44
38.6170	734.80
38.6314	730.36
38.6459	680.05
38.6603	631.86
38.6748	605.62
38.6892	567.21
38.7036	558.94
38.7181	558.22
38.7325	528.61
38.7470	542.88
38.7614	492.89
38.7758	500.52
38.7903	491.66
38.8047	500.41
38.8192	498.39
38.8336	524.12
38.8480	486.37
38.8625	472.94
38.8769	503.54
38.8914	506.87
38.9058	504.52
38.9202	496.01
38.9347	500.86
38.9491	488.92
38.9636	485.09
38.9780	505.63
38.9924	497.07
39.0069	480.04
39.0213	490.71
39.0358	492.17
39.0502	502.93
39.0646	522.49
39.0791	520.15
39.0935	504.70
39.1080	501.78
39.1224	503.91
39.1368	509.16
39.1513	479.78
39.1657	524.98
39.1802	537.32
39.1946	482.68
39.2090	488.86
39.2235	535.10
39.2379	523.00
39.2524	511.78
39.2668	521.00
39.2812	557.67
39.2957	525.52
39.3101	523.88
39.3246	511.58
39.3390	514.55
39.3534	532.18
39.3679	544.49
39.3823	532.44
39.3968	489.55
39.4112	519.52
39.4256	512.60
39.4401	501.69
39.4545	526.34
39.4690	518.00
39.4834	480.89
39.4978	463.02
39.5123	483.46
39.5267	516.46
39.5412	510.26
39.5556	518.46
39.5700	529.19
39.5845	502.89
39.5989	496.92
39.6134	492.13
39.6278	517.32
39.6422	536.84
39.6567	531.61
39.6711	497.50
39.6856	499.79
39.7000	486.67
39.7144	474.12
39.7289	485.53
39.7433	517.37
39.7578	490.92
39.7722	479.17
39.7866	508.85
39.8011	494.21
39.8155	492.93
39.8300	496.38
39.8444	512.32
39.8588	515.15
39.8733	519.37
39.8877	564.06
39.9022	538.16
39.9166	491.15
39.9310	477.19
39.9455	524.46
39.9599	473.88
39.9744	476.71
39.9888	542.78
40.0032	523.84
40.0177	481.43
40.0321	479.54
40.0466	474.59
40.0610	497.61
40.0754	496.48
40.0899	494.54
40.1043	480.15
40.1188	510.90
40.1332	499.38
40.1476	467.95
40.1621	508.92
40.1765	531.49
40.1910	523.71
40.2054	523.40
40.2198	487.12
40.2343	509.59
40.2487	493.04
40.2632	504.80
40.2776	500.62
40.2920	518.99
40.3065	499.04
40.3209	456.49
40.3354	485.97
40.3498	544.32
40.3642	523.58
40.3787	524.06
40.3931	483.13
40.4076	507.53
40.4220	509.51
40.4364	529.69
40.4509	524.43
40.4653	500.90
40.4798	461.08
40.4942	474.94
40.5086	470.44
40.5231	494.91
40.5375	516.04
40.5520	499.64
40.5664	527.69
40.5808	493.97
40.5953	510.14
40.6097	503.78
40.6242	506.57
40.6386	470.73
40.6530	484.58
40.6675	504.86
40.6819	491.19
40.6964	490.03
40.7108	521.05
40.7252	498.46
40.7397	506.83
40.7541	517.22
40.7686	505.96
40.7830	556.87
40.7974	503.46
40.8119	485.20
40.8263	465.34
40.8408	457.60
40.8552	480.59
40.8696	517.08
40.8841	524.31
40.8985	472.64
40.9130	523.14
40.9274	486.93
40.9418	493.59
40.9563	466.75
40.9707	473.42
40.9852	499.54
40.9996	498.10
41.0140	518.04
41.0285	506.70
41.0429	467.34
41.0574	471.42
41.0718	460.66
41.0862	498.93
41.1007	514.82
41.1151	507.88
41.1296	486.83
41.1440	489.21
41.1584	515.83
41.1729	501.88
41.1873	534.99
41.2018	489.02
41.2162	501.54
41.2306	519.15
41.2451	520.25
41.2595	490.23
41.2740	475.33
41.2884	519.45
41.3028	490.78
41.3173	483.59
41.3317	506.48
41.3462	478.05
41.3606	515.43
41.3750	489.12
41.3895	502.46
41.4039	495.78
41.4184	504.19
41.4328	528.82
41.4472	463.79
41.4617	504.79
41.4761	491.54
41.4906	498.13
41.5050	468.21
41.5194	487.11
41.5339	474.56
41.5483	472.33
41.5628	502.68
41.5772	511.34
41.5916	526.56
41.6061	510.35
41.6205	501.65
41.6350	534.12
41.6494	517.50
41.6639	496.43
41.6783	506.41
41.6927	468.13
41.7072	496.56
41.7216	503.03
41.7361	504.95
41.7505	501.80
41.7649	504.82
41.7794	489.15
41.7938	510.29
41.8083	473.03
41.8227	498.24
41.8371	520.76
41.8516	529.84
41.8660	549.38
41.8805	531.76
41.8949	537.58
41.9093	550.67
41.9238	528.58
41.9382	579.31
41.9527	573.42
41.9671	557.08
41.9815	596.68
41.9960	590.47
42.0104	583.85
42.0249	587.13
42.0393	525.91
42.0537	533.34
42.0682	556.76
42.0826	560.60
42.0971	582.65
42.1115	586.96
42.1259	608.91
42.1404	624.95
42.1548	588.43
42.1693	643.50
42.1837	677.71
42.1981	713.60
42.2126	858.20
42.2270	870.12
42.2415	1044.52
42.2559	1202.21
42.2703	1283.91
42.2848	1448.63
42.2992	1636.31
42.3137	1673.22
42.3281	1635.03
42.3425	1575.70
42.3570	1514.11
42.3714	1448.59
42.3859	1346.71
42.4003	1297.07
42.4147	1280.94
42.4292	1257.49
42.4436	1129.61
42.4581	1037.54
42.4725	962.81
42.4869	846.57
42.5014	793.87
42.5158	709.19
42.5303	679.66
42.5447	641.79
42.5591	633.00
42.5736	624.77
42.5880	584.92
42.6025	587.21
42.6169	576.42
42.6313	549.59
42.6458	520.85
42.6602	539.32
42.6747	542.06
42.6891	511.22
42.7035	545.57
42.7180	534.25
42.7324	525.82
42.7469	569.02
42.7613	509.39
42.7757	511.59
42.7902	531.77
42.8046	523.57
42.8191	515.48
42.8335	513.98
42.8479	509.97
42.8624	533.99
42.8768	530.52
42.8913	488.07
42.9057	523.20
42.9201	510.28
42.9346	513.73
42.9490	500.26
42.9635	496.00
42.9779	488.63
42.9923	521.36
43.0068	520.49
43.0212	499.00
43.0357	496.33
43.0501	529.69
43.0645	519.88
43.0790	501.60
43.0934	504.83
43.1079	478.21
43.1223	513.35
43.1367	525.23
43.1512	511.75
43.1656	517.35
43.1801	520.87
43.1945	516.68
43.2089	535.94
43.2234	541.03
43.2378	540.02
43.2523	531.84
43.2667	517.50
43.2811	522.26
43.2956	513.54
43.3100	526.36
43.3245	534.88
43.3389	514.32
43.3533	532.83
43.3678	520.66
43.3822	546.95
43.3967	502.53
43.4111	507.19
43.4255	525.37
43.4400	525.57
43.4544	520.18
43.4689	499.73
43.4833	518.28
43.4977	497.07
43.5122	498.82
43.5266	518.64
43.5411	516.82
43.5555	537.28
43.5699	521.86
43.5844	544.31
43.5988	509.08
43.6133	499.34
43.6277	518.40
43.6421	560.20
43.6566	556.77
43.6710	526.11
43.6855	489.62
43.6999	555.32
43.7143	537.29
43.7288	547.30
43.7432	553.21
43.7577	564.19
43.7721	585.46
43.7865	623.73
43.8010	640.00
43.8154	661.37
43.8299	654.34
43.8443	661.55
43.8587	663.27
43.8732	650.48
43.8876	588.09
43.9021	573.91
43.9165	629.23
43.9309	596.87
43.9454	598.43
43.9598	586.09
43.9743	582.65
43.9887	568.94
44.0031	517.57
44.0176	510.50
44.0320	549.07
44.0465	531.28
44.0609	541.33
44.0753	564.58
44.0898	514.63
44.1042	520.82
44.1187	516.33
44.1331	534.54
44.1475	486.03
44.1620	517.97
44.1764	512.53
44.1909	558.68
44.2053	526.91
44.2197	503.99
44.2342	513.94
44.2486	528.45
44.2631	498.72
44.2775	540.49
44.2919	538.45
44.3064	545.43
44.3208	551.05
44.3353	545.14
44.3497	512.24
44.3641	495.81
44.3786	517.58
44.3930	546.53
44.4075	573.98
44.4219	600.14
44.4363	586.84
44.4508	559.88
44.4652	575.33
44.4797	596.00
44.4941	588.89
44.5085	606.15
44.5230	569.82
44.5374	576.61
44.5519	588.90
44.5663	576.19
44.5807	591.71
44.5952	572.20
44.6096	589.43
44.6241	553.70
44.6385	585.83
44.6529	597.80
44.6674	608.17
44.6818	613.26
44.6963	599.27
44.7107	650.13
44.7251	668.00
44.7396	742.20
44.7540	807.61
44.7685	913.90
44.7829	916.65
44.7973	898.27
44.8118	855.87
44.8262	836.25
44.8407	816.69
44.8551	750.82
44.8695	748.30
44.8840	774.79
44.8984	772.07
44.9129	709.44
44.9273	667.38
44.9417	682.48
44.9562	640.48
44.9706	573.96
44.9851	534.89
44.9995	531.16
45.0139	517.27
45.0284	517.81
45.0428	495.10
45.0573	502.15
45.0717	546.42
45.0861	510.84
45.1006	521.74
45.1150	520.62
45.1295	528.44
45.1439	488.30
45.1583	484.63
45.1728	499.84
45.1872	523.69
45.2017	516.97
45.2161	504.73
45.2305	518.17
45.2450	525.80
45.2594	512.16
45.2739	503.66
45.2883	516.21
45.3028	513.20
45.3172	524.77
45.3316	534.40
45.3461	477.04
45.3605	537.60
45.3750	505.93
45.3894	463.66
45.4038	500.63
45.4183	499.61
45.4327	533.16
45.4472	521.90
45.4616	501.41
45.4760	531.06
45.4905	493.12
45.5049	483.34
45.5194	490.79
45.5338	496.60
45.5482	494.12
45.5627	526.34
45.5771	519.16
45.5916	507.15
45.6060	530.48
45.6204	461.13
45.6349	496.32
45.6493	468.82
45.6638	488.31
45.6782	489.41
45.6926	457.06
45.7071	489.77
45.7215	529.02
45.7360	516.23
45.7504	510.84
45.7648	544.62
45.7793	501.49
45.7937	513.37
45.8082	533.03
45.8226	520.17
45.8370	527.53
45.8515	514.50
45.8659	513.75
45.8804	514.15
45.8948	521.12
45.9092	518.03
45.9237	500.25
45.9381	521.17
45.9526	528.44
45.9670	515.09
45.9814	481.83
45.9959	480.11
46.0103	527.55
46.0248	523.28
46.0392	504.62
46.0536	506.29
46.0681	511.98
46.0825	526.83
46.0970	505.69
46.1114	476.64
46.1258	504.78
46.1403	503.36
46.1547	498.07
46.1692	516.01
46.1836	518.45
46.1980	514.70
46.2125	511.78
46.2269	476.72
46.2414	515.18
46.2558	521.75
46.2702	512.77
46.2847	508.35
46.2991	493.76
46.3136	521.21
46.3280	522.79
46.3424	506.67
46.3569	514.19
46.3713	475.21
46.3858	505.52
46.4002	496.56
46.4146	527.12
46.4291	529.07
46.4435	489.67
46.4580	501.47
46.4724	516.07
46.4868	517.43
46.5013	524.94
46.5157	503.30
46.5302	513.83
46.5446	493.60
46.5590	499.69
46.5735	498.69
46.5879	478.15
46.6024	491.87
46.6168	517.47
46.6312	471.17
46.6457	495.85
46.6601	522.33
46.6746	514.74
46.6890	503.42
46.7034	508.35
46.7179	509.36
46.7323	502.90
46.7468	520.46
46.7612	533.57
46.7756	508.22
46.7901	528.61
46.8045	526.79
46.8190	561.12
46.8334	538.06
46.8478	498.66
46.8623	477.53
46.8767	487.68
46.8912	519.31
46.9056	571.03
46.9200	530.03
46.9345	508.69
46.9489	479.69
46.9634	480.11
46.9778	516.99
46.9922	521.60
47.0067	518.44
47.0211	520.95
47.0356	501.09
47.0500	511.02
47.0644	548.76
47.0789	537.30
47.0933	508.35
47.1078	495.17
47.1222	507.08
47.1366	477.69
47.1511	505.09
47.1655	512.74
47.1800	493.64
47.1944	484.87
47.2088	508.90
47.2233	490.27
47.2377	511.54
47.2522	490.82
47.2666	483.24
47.2810	511.36
47.2955	532.10
47.3099	523.77
47.3244	511.44
47.3388	516.12
47.3532	499.31
47.3677	514.92
47.3821	492.11
47.3966	500.46
47.4110	496.15
47.4254	507.07
47.4399	540.19
47.4543	488.71
47.4688	504.38
47.4832	536.12
47.4976	506.62
47.5121	471.52
47.5265	488.14
47.5410	530.14
47.5554	539.82
47.5698	512.56
47.5843	494.06
47.5987	510.99
47.6132	530.61
47.6276	506.97
47.6420	514.82
47.6565	508.58
47.6709	491.83
47.6854	494.93
47.6998	510.95
47.7142	488.88
47.7287	517.48
47.7431	518.96
47.7576	509.91
47.7720	540.52
47.7864	521.03
47.8009	501.73
47.8153	509.57
47.8298	468.91
47.8442	501.62
47.8586	478.00
47.8731	501.95
47.8875	517.94
47.9020	520.79
47.9164	493.39
47.9308	499.58
47.9453	533.50
47.9597	494.63
47.9742	503.64
47.9886	513.55
48.0030	482.16
48.0175	508.51
48.0319	526.70
48.0464	503.14
48.0608	507.26
48.0752	536.16
48.0897	526.05
48.1041	528.71
48.1186	511.27
48.1330	558.23
48.1474	533.51
48.1619	498.31
48.1763	521.68
48.1908	490.10
48.2052	473.93
48.2196	509.32
48.2341	546.53
48.2485	513.77
48.2630	497.06
48.2774	496.27
48.2918	500.94
48.3063	513.21
48.3207	505.25
48.3352	535.83
48.3496	523.66
48.3640	527.85
48.3785	515.14
48.3929	491.83
48.4074	503.26
48.4218	494.90
48.4362	498.85
48.4507	512.19
48.4651	510.47
48.4796	515.82
48.4940	519.53
48.5084	491.87
48.5229	544.91
48.5373	522.15
48.5518	516.71
48.5662	496.33
48.5806	503.57
48.5951	530.94
48.6095	544.54
48.6240	507.91
48.6384	521.81
48.6528	536.05
48.6673	535.17
48.6817	504.48
48.6962	537.18
48.7106	550.79
48.7250	532.62
48.7395	493.82
48.7539	528.41
48.7684	487.59
48.7828	501.35
48.7972	547.22
48.8117	573.66
48.8261	557.59
48.8406	550.87
48.8550	526.57
48.8694	506.64
48.8839	529.32
48.8983	534.03
48.9128	561.68
48.9272	521.76
48.9416	525.22
48.9561	534.92
48.9705	561.76
48.9850	565.72
48.9994	584.61
49.0139	613.51
49.0283	638.91
49.0427	613.93
49.0572	632.93
49.0716	632.47
49.0861	622.97
49.1005	653.52
49.1149	705.77
49.1294	714.00
49.1438	706.95
49.1583	830.51
49.1727	829.76
49.1871	857.91
49.2016	893.81
49.2160	980.57
49.2305	1048.48
49.2449	1147.91
49.2593	1212.40
49.2738	1253.93
49.2882	1376.76
49.3027	1437.40
49.3171	1539.18
49.3315	1619.16
49.3460	1653.81
49.3604	1721.63
49.3749	1690.64
49.3893	1686.66
49.4037	1714.97
49.4182	1745.84
49.4326	1725.11
49.4471	1573.79
49.4615	1510.77
49.4759	1552.78
49.4904	1531.89
49.5048	1436.39
49.5193	1355.30
49.5337	1298.17
49.5481	1212.87
49.5626	1224.06
49.5770	1043.60
49.5915	957.66
49.6059	982.39
49.6203	918.04
49.6348	825.66
49.6492	780.07
49.6637	733.45
49.6781	694.93
49.6925	690.22
49.7070	714.30
49.7214	644.66
49.7359	650.21
49.7503	626.46
49.7647	585.72
49.7792	588.59
49.7936	561.51
49.8081	585.09
49.8225	605.19
49.8369	580.96
49.8514	582.79
49.8658	592.53
49.8803	592.96
49.8947	547.52
49.9091	550.83
49.9236	560.16
49.9380	539.72
49.9525	523.29
49.9669	528.37
49.9813	545.11
49.9958	537.01
50.0102	560.42
50.0247	501.67
50.0391	519.14
50.0535	509.67
50.0680	513.33
50.0824	455.01
50.0969	515.11
50.1113	525.93
50.1257	526.33
50.1402	536.44
50.1546	518.07
50.1691	523.63
50.1835	501.70
50.1979	537.22
50.2124	535.52
50.2268	504.80
50.2413	505.14
50.2557	494.34
50.2701	505.43
50.2846	539.42
50.2990	538.87
50.3135	516.98
50.3279	507.30
50.3423	510.67
50.3568	520.46
50.3712	530.68
50.3857	502.70
50.4001	487.22
50.4145	490.68
50.4290	499.33
50.4434	511.21
50.4579	505.09
50.4723	515.03
50.4867	490.24
50.5012	517.83
50.5156	562.25
50.5301	498.47
50.5445	488.78
50.5589	499.01
50.5734	511.00
50.5878	496.77
50.6023	506.39
50.6167	527.83
50.6311	511.50
50.6456	506.33
50.6600	496.77
50.6745	487.65
50.6889	485.73
50.7033	481.82
50.7178	512.61
50.7322	512.59
50.7467	468.07
50.7611	514.87
50.7755	502.59
50.7900	517.67
50.8044	491.27
50.8189	515.21
50.8333	489.03
50.8477	513.82
50.8622	507.32
50.8766	507.04
50.8911	476.17
50.9055	563.50
50.9199	527.56
50.9344	511.00
50.9488	491.98
50.9633	483.78
50.9777	493.36
50.9921	479.92
51.0066	484.22
51.0210	537.47
51.0355	496.91
51.0499	498.23
51.0643	534.35
51.0788	500.31
51.0932	520.47
51.1077	511.46
51.1221	507.03
51.1365	502.07
51.1510	499.29
51.1654	520.25
51.1799	512.28
51.1943	482.16
51.2087	504.10
51.2232	503.06
51.2376	480.04
51.2521	525.68
51.2665	486.71
51.2809	486.51
51.2954	467.93
51.3098	477.60
51.3243	508.84
51.3387	537.73
51.3531	513.88
51.3676	519.85
51.3820	509.75
51.3965	512.62
51.4109	516.09
51.4253	530.30
51.4398	528.25
51.4542	528.25
51.4687	504.19
51.4831	523.14
51.4975	507.97
51.5120	511.84
51.5264	529.49
51.5409	539.37
51.5553	532.20
51.5697	520.48
51.5842	532.56
51.5986	542.91
51.6131	519.86
51.6275	498.33
51.6419	491.03
51.6564	516.74
51.6708	476.94
51.6853	503.94
51.6997	491.09
51.7141	524.01
51.7286	497.60
51.7430	493.23
51.7575	469.25
51.7719	501.37
51.7863	502.84
51.8008	520.06
51.8152	492.74
51.8297	526.43
51.8441	480.65
51.8585	515.13
51.8730	514.12
51.8874	461.05
51.9019	483.14
51.9163	520.01
51.9307	551.01
51.9452	536.36
51.9596	545.05
51.9741	550.18
51.9885	513.43
52.0029	539.06
52.0174	501.51
52.0318	510.05
52.0463	480.32
52.0607	521.10
52.0751	498.27
52.0896	533.47
52.1040	497.14
52.1185	491.69
52.1329	513.19
52.1473	488.30
52.1618	514.83
52.1762	499.14
52.1907	505.59
52.2051	500.72
52.2195	519.39
52.2340	504.12
52.2484	529.09
52.2629	522.06
52.2773	500.44
52.2917	487.45
52.3062	521.57
52.3206	491.14
52.3351	489.49
52.3495	516.93
52.3639	536.27
52.3784	531.15
52.3928	510.96
52.4073	512.55
52.4217	503.93
52.4361	534.35
52.4506	520.08
52.4650	485.30
52.4795	523.63
52.4939	489.93
52.5083	493.72
52.5228	518.31
52.5372	521.64
52.5517	543.49
52.5661	501.72
52.5805	498.20
52.5950	476.47
52.6094	498.58
52.6239	511.84
52.6383	522.19
52.6527	487.20
52.6672	494.41
52.6816	542.25
52.6961	521.27
52.7105	550.08
52.7250	483.31
52.7394	507.61
52.7538	491.67
52.7683	501.80
52.7827	530.26
52.7972	517.09
52.8116	516.14
52.8260	524.05
52.8405	489.17
52.8549	511.88
52.8694	511.78
52.8838	534.44
52.8982	567.21
52.9127	512.17
52.9271	508.78
52.9416	536.17
52.9560	523.29
52.9704	524.45
52.9849	549.74
52.9993	539.10
53.0138	485.85
53.0282	500.14
53.0426	528.53
53.0571	512.96
53.0715	486.90
53.0860	532.13
53.1004	535.71
53.1148	554.87
53.1293	551.71
53.1437	479.96
53.1582	482.75
53.1726	519.55
53.1870	512.44
53.2015	518.62
53.2159	540.78
53.2304	503.38
53.2448	493.27
53.2592	546.57
53.2737	511.70
53.2881	498.72
53.3026	500.55
53.3170	508.99
53.3314	516.57
53.3459	542.61
53.3603	500.40
53.3748	482.86
53.3892	511.38
53.4036	540.40
53.4181	510.47
53.4325	529.74
53.4470	495.52
53.4614	516.54
53.4758	519.68
53.4903	519.84
53.5047	511.06
53.5192	538.45
53.5336	567.97
53.5480	525.45
53.5625	513.68
53.5769	505.83
53.5914	540.06
53.6058	533.96
53.6202	519.02
53.6347	516.21
53.6491	517.66
53.6636	534.07
53.6780	515.81
53.6924	512.85
53.7069	544.95
53.7213	525.35
53.7358	477.91
53.7502	486.98
53.7646	491.35
53.7791	513.14
53.7935	512.16
53.8080	517.64
53.8224	516.92
53.8368	509.88
53.8513	509.19
53.8657	497.59
53.8802	508.22
53.8946	519.81
53.9090	521.95
53.9235	520.16
53.9379	542.11
53.9524	506.70
53.9668	528.43
53.9812	484.68
53.9957	528.58
54.0101	527.00
54.0246	560.73
54.0390	514.96
54.0534	522.14
54.0679	539.38
54.0823	541.86
54.0968	503.92
54.1112	534.00
54.1256	556.71
54.1401	547.61
54.1545	511.59
54.1690	522.63
54.1834	505.11
54.1978	510.91
54.2123	524.66
54.2267	552.60
54.2412	537.79
54.2556	551.77
54.2700	563.00
54.2845	561.47
54.2989	549.39
54.3134	566.77
54.3278	613.83
54.3422	585.19
54.3567	609.09
54.3711	628.26
54.3856	648.77
54.4000	632.85
54.4144	596.18
54.4289	592.14
54.4433	595.06
54.4578	585.96
54.4722	596.53
54.4866	573.72
54.5011	567.77
54.5155	567.10
54.5300	570.99
54.5444	570.15
54.5588	562.25
54.5733	575.41
54.5877	548.89
54.6022	551.15
54.6166	530.01
54.6310	525.22
54.6455	523.98
54.6599	513.88
54.6744	521.66
54.6888	549.58
54.7032	526.38
54.7177	517.53
54.7321	498.08
54.7466	518.89
54.7610	541.00
54.7754	536.65
54.7899	536.50
54.8043	540.99
54.8188	541.23
54.8332	549.23
54.8476	516.28
54.8621	519.49
54.8765	522.11
54.8910	513.27
54.9054	502.54
54.9198	520.63
54.9343	523.99
54.9487	511.98
54.9632	506.82
54.9776	546.11
54.9920	541.06
55.0065	508.01
55.0209	484.40
55.0354	493.94
55.0498	519.70
55.0642	517.13
55.0787	534.97
55.0931	520.72
55.1076	529.83
55.1220	547.42
55.1364	525.59
55.1509	495.85
55.1653	528.59
55.1798	518.36
55.1942	515.28
55.2086	543.29
55.2231	526.86
55.2375	521.05
55.2520	526.20
55.2664	543.70
55.2808	542.21
55.2953	506.06
55.3097	536.56
55.3242	501.64
55.3386	528.81
55.3530	516.95
55.3675	515.29
55.3819	538.63
55.3964	518.82
55.4108	499.33
55.4252	533.46
55.4397	532.02
55.4541	495.00
55.4686	539.36
55.4830	553.97
55.4974	530.88
55.5119	503.50
55.5263	528.02
55.5408	539.09
55.5552	538.74
55.5696	504.62
55.5841	526.26
55.5985	546.68
55.6130	528.76
55.6274	552.42
55.6418	521.69
55.6563	530.18
55.6707	504.71
55.6852	517.59
55.6996	515.54
55.7140	531.86
55.7285	531.93
55.7429	530.46
55.7574	521.67
55.7718	548.91
55.7862	512.84
55.8007	530.76
55.8151	529.96
55.8296	571.69
55.8440	544.46
55.8584	539.96
55.8729	566.70
55.8873	490.43
55.9018	538.88
55.9162	551.05
55.9306	501.30
55.9451	538.02
55.9595	553.28
55.9740	537.11
55.9884	542.16
56.0028	531.02
56.0173	510.18
56.0317	508.18
56.0462	509.65
56.0606	530.63
56.0750	534.25
56.0895	525.72
56.1039	515.49
56.1184	531.00
56.1328	534.81
56.1472	471.55
56.1617	563.69
56.1761	526.82
56.1906	528.00
56.2050	499.75
56.2194	510.45
56.2339	504.89
56.2483	508.17
56.2628	546.87
56.2772	512.75
56.2916	510.56
56.3061	511.58
56.3205	513.43
56.3350	565.42
56.3494	530.72
56.3639	517.73
56.3783	532.64
56.3927	516.89
56.4072	534.32
56.4216	547.06
56.4361	523.46
56.4505	529.09
56.4649	531.12
56.4794	513.53
56.4938	513.25
56.5083	502.47
56.5227	504.97
56.5371	541.98
56.5516	544.41
56.5660	500.00
56.5805	505.52
56.5949	554.64
56.6093	563.29
56.6238	511.44
56.6382	531.43
56.6527	518.83
56.6671	518.48
56.6815	505.94
56.6960	485.50
56.7104	529.92
56.7249	544.79
56.7393	538.06
56.7537	534.36
56.7682	505.70
56.7826	548.35
56.7971	527.63
56.8115	523.95
56.8259	525.23
56.8404	506.45
56.8548	499.48
56.8693	526.25
56.8837	528.01
56.8981	506.49
56.9126	513.09
56.9270	504.25
56.9415	573.25
56.9559	548.91
56.9703	522.38
56.9848	554.81
56.9992	537.92
57.0137	522.90
57.0281	514.23
57.0425	523.09
57.0570	528.64
57.0714	534.01
57.0859	527.95
57.1003	527.59
57.1147	542.45
57.1292	581.88
57.1436	529.67
57.1581	515.46
57.1725	518.03
57.1869	501.91
57.2014	496.22
57.2158	533.31
57.2303	498.15
57.2447	567.82
57.2591	520.34
57.2736	539.77
57.2880	542.70
57.3025	516.54
57.3169	510.25
57.3313	549.86
57.3458	526.91
57.3602	542.43
57.3747	521.60
57.3891	517.10
57.4035	495.32
57.4180	509.07
57.4324	568.39
57.4469	492.63
57.4613	527.72
57.4757	561.45
57.4902	560.31
57.5046	518.70
57.5191	517.46
57.5335	533.62
57.5479	545.54
57.5624	524.55
57.5768	526.14
57.5913	558.07
57.6057	533.43
57.6201	486.77
57.6346	522.47
57.6490	512.77
57.6635	506.24
57.6779	517.41
57.6923	551.54
57.7068	552.72
57.7212	517.39
57.7357	553.46
57.7501	546.41
57.7645	506.80
57.7790	534.78
57.7934	549.15
57.8079	574.09
57.8223	535.31
57.8367	532.23
57.8512	541.53
57.8656	604.85
57.8801	600.37
57.8945	559.13
57.9089	579.54
57.9234	616.98
57.9378	672.52
57.9523	694.55
57.9667	683.47
57.9811	724.40
57.9956	690.77
58.0100	711.67
58.0245	740.98
58.0389	702.19
58.0533	682.27
58.0678	667.13
58.0822	649.16
58.0967	650.25
58.1111	637.22
58.1255	625.10
58.1400	631.72
58.1544	632.86
58.1689	649.70
58.1833	615.81
58.1977	618.57
58.2122	610.90
58.2266	589.64
58.2411	575.40
58.2555	589.22
58.2699	569.03
58.2844	577.34
58.2988	552.78
58.3133	563.68
58.3277	541.94
58.3421	526.17
58.3566	518.52
58.3710	529.10
58.3855	560.74
58.3999	554.79
58.4143	540.10
58.4288	537.20
58.4432	517.70
58.4577	525.30
58.4721	527.71
58.4865	530.46
58.5010	566.79
58.5154	534.17
58.5299	511.54
58.5443	544.94
58.5587	536.45
58.5732	520.39
58.5876	522.28
58.6021	519.62
58.6165	535.75
58.6309	507.97
58.6454	543.07
58.6598	549.83
58.6743	570.70
58.6887	535.53
58.7031	535.04
58.7176	528.23
58.7320	562.75
58.7465	538.25
58.7609	547.17
58.7753	543.66
58.7898	552.90
58.8042	541.47
58.8187	532.94
58.8331	544.29
58.8475	545.78
58.8620	577.70
58.8764	562.79
58.8909	540.51
58.9053	541.07
58.9197	540.09
58.9342	537.62
58.9486	544.43
58.9631	508.29
58.9775	529.45
58.9919	518.96
59.0064	535.78
59.0208	562.31
59.0353	537.73
59.0497	522.92
59.0641	548.51
59.0786	537.64
59.0930	506.81
59.1075	498.97
59.1219	562.82
59.1363	554.76
59.1508	516.39
59.1652	556.49
59.1797	533.16
59.1941	519.21
59.2085	517.65
59.2230	545.42
59.2374	548.82
59.2519	543.88
59.2663	536.42
59.2807	585.96
59.2952	530.74
59.3096	533.85
59.3241	560.77
59.3385	603.07
59.3529	580.14
59.3674	551.09
59.3818	573.82
59.3963	563.20
59.4107	567.72
59.4251	582.78
59.4396	561.56
59.4540	543.05
59.4685	570.47
59.4829	560.81
59.4973	550.94
59.5118	542.21
59.5262	560.66
59.5407	560.57
59.5551	552.87
59.5695	567.63
59.5840	565.26
59.5984	575.62
59.6129	565.34
59.6273	533.59
59.6417	541.60
59.6562	555.34
59.6706	538.32
59.6851	528.61
59.6995	538.70
59.7139	566.39
59.7284	546.19
59.7428	550.73
59.7573	551.45
59.7717	513.89
59.7861	513.25
59.8006	524.44
59.8150	527.23
59.8295	547.14
59.8439	531.52
59.8583	541.82
59.8728	534.59
59.8872	512.13
59.9017	510.81
59.9161	552.87
59.9305	510.92
59.9450	570.10
59.9594	552.84
59.9739	535.26
59.9883	506.67
60.0027	554.46
60.0172	569.49
60.0316	525.99
60.0461	490.01
60.0605	555.29
60.0750	555.98
60.0894	540.40
60.1038	535.04
60.1183	550.24
60.1327	534.07
60.1472	519.94
60.1616	573.12
60.1760	542.92
60.1905	538.58
60.2049	563.28
60.2194	521.96
60.2338	529.12
60.2482	557.45
60.2627	551.26
60.2771	516.28
60.2916	500.91
60.3060	535.57
60.3204	567.51
60.3349	551.74
60.3493	546.03
60.3638	534.25
60.3782	545.15
60.3926	545.73
60.4071	514.54
60.4215	539.60
60.4360	545.01
60.4504	526.39
60.4648	531.46
60.4793	543.53
60.4937	498.48
60.5082	496.59
60.5226	560.30
60.5370	568.64
60.5515	549.79
60.5659	510.07
60.5804	550.75
60.5948	532.68
60.6092	536.02
60.6237	523.87
60.6381	555.46
60.6526	505.45
60.6670	520.23
60.6814	545.46
60.6959	526.98
60.7103	577.90
60.7248	579.97
60.7392	594.83
60.7536	567.08
60.7681	532.07
60.7825	571.79
60.7970	543.88
60.8114	550.77
60.8258	563.87
60.8403	527.30
60.8547	530.26
60.8692	558.04
60.8836	521.23
60.8980	559.97
60.9125	547.78
60.9269	521.12
60.9414	546.96
60.9558	517.75
60.9702	519.67
60.9847	517.20
60.9991	543.14
61.0136	552.75
61.0280	547.56
61.0424	508.01
61.0569	543.17
61.0713	558.85
61.0858	538.07
61.1002	514.58
61.1146	558.72
61.1291	562.96
61.1435	531.35
61.1580	562.22
61.1724	551.43
61.1868	528.64
61.2013	531.29
61.2157	532.69
61.2302	517.48
61.2446	546.59
61.2590	554.77
61.2735	555.93
61.2879	570.11
61.3024	563.37
61.3168	581.97
61.3312	552.15
61.3457	521.40
61.3601	562.01
61.3746	531.04
61.3890	505.19
61.4034	538.78
61.4179	550.70
61.4323	540.41
61.4468	523.79
61.4612	503.57
61.4756	542.25
61.4901	476.64
61.5045	527.43
61.5190	545.04
61.5334	553.23
61.5478	521.21
61.5623	554.89
61.5767	542.13
61.5912	537.96
61.6056	559.18
61.6200	539.14
61.6345	555.73
61.6489	551.39
61.6634	569.98
61.6778	550.38
61.6922	548.87
61.7067	584.64
61.7211	581.12
61.7356	550.47
61.7500	590.10
61.7644	596.98
61.7789	582.02
61.7933	555.67
61.8078	574.11
61.8222	568.96
61.8366	538.87
61.8511	551.40
61.8655	548.86
61.8800	545.13
61.8944	542.88
61.9088	546.24
61.9233	556.20
61.9377	563.01
61.9522	521.45
61.9666	559.50
61.9810	556.17
61.9955	541.06
62.0099	572.34
62.0244	579.95
62.0388	592.87
62.0532	572.16
62.0677	569.24
62.0821	525.53
62.0966	532.85
62.1110	535.39
62.1254	544.95
62.1399	546.36
62.1543	539.74
62.1688	554.26
62.1832	525.43
62.1976	534.48
62.2121	555.84
62.2265	567.99
62.2410	575.14
62.2554	547.15
62.2698	534.99
62.2843	545.27
62.2987	554.40
62.3132	555.35
62.3276	532.46
62.3420	577.79
62.3565	560.07
62.3709	547.81
62.3854	526.91
62.3998	547.15
62.4142	549.21
62.4287	559.61
62.4431	531.80
62.4576	553.54
62.4720	561.75
62.4864	575.37
62.5009	542.52
62.5153	555.55
62.5298	540.20
62.5442	518.04
62.5586	540.48
62.5731	535.33
62.5875	544.40
62.6020	551.56
62.6164	578.50
62.6308	567.33
62.6453	544.20
62.6597	559.25
62.6742	545.07
62.6886	558.23
62.7030	568.34
62.7175	536.24
62.7319	516.82
62.7464	564.91
62.7608	526.27
62.7752	533.98
62.7897	579.12
62.8041	592.87
62.8186	574.25
62.8330	575.60
62.8474	544.20
62.8619	557.67
62.8763	569.98
62.8908	573.73
62.9052	577.24
62.9196	552.50
62.9341	542.90
62.9485	559.17
62.9630	588.65
62.9774	598.73
62.9918	591.74
63.0063	571.18
63.0207	583.52
63.0352	595.97
63.0496	547.05
63.0640	562.86
63.0785	581.86
63.0929	594.41
63.1074	557.41
63.1218	592.26
63.1362	564.50
63.1507	598.17
63.1651	591.49
63.1796	585.42
63.1940	554.32
63.2084	620.88
63.2229	593.79
63.2373	597.53
63.2518	598.81
63.2662	588.79
63.2806	587.44
63.2951	577.23
63.3095	615.96
63.3240	564.49
63.3384	608.75
63.3528	603.79
63.3673	600.92
63.3817	652.74
63.3962	610.56
63.4106	571.99
63.4250	625.49
63.4395	604.30
63.4539	636.24
63.4684	626.19
63.4828	614.03
63.4972	631.39
63.5117	626.02
63.5261	633.19
63.5406	616.34
63.5550	679.37
63.5694	699.89
63.5839	686.06
63.5983	688.20
63.6128	744.81
63.6272	828.27
63.6416	843.44
63.6561	910.10
63.6705	972.16
63.6850	916.06
63.6994	909.63
63.7138	886.87
63.7283	865.68
63.7427	836.56
63.7572	837.82
63.7716	785.35
63.7861	802.56
63.8005	761.72
63.8149	817.94
63.8294	785.93
63.8438	718.71
63.8583	739.82
63.8727	767.87
63.8871	771.24
63.9016	770.57
63.9160	796.23
63.9305	747.87
63.9449	702.52
63.9593	664.77
63.9738	706.16
63.9882	665.65
64.0027	642.64
64.0171	627.35
64.0315	672.45
64.0460	670.51
64.0604	657.95
64.0749	610.86
64.0893	626.02
64.1037	626.92
64.1182	660.85
64.1326	579.45
64.1471	574.76
64.1615	597.23
64.1759	618.56
64.1904	631.02
64.2048	577.34
64.2193	605.70
64.2337	603.05
64.2481	605.41
64.2626	593.30
64.2770	615.80
64.2915	648.60
64.3059	613.48
64.3203	589.09
64.3348	601.66
64.3492	618.56
64.3637	620.03
64.3781	634.81
64.3925	647.80
64.4070	638.48
64.4214	637.58
64.4359	627.41
64.4503	629.49
64.4647	609.95
64.4792	600.70
64.4936	637.86
64.5081	633.02
64.5225	647.25
64.5369	650.86
64.5514	645.96
64.5658	595.33
64.5803	643.14
64.5947	614.65
64.6091	600.07
64.6236	640.14
64.6380	651.85
64.6525	649.10
64.6669	659.09
64.6813	656.57
64.6958	658.54
64.7102	698.33
64.7247	722.81
64.7391	671.11
64.7535	690.27
64.7680	661.36
64.7824	734.27
64.7969	726.70
64.8113	732.61
64.8257	758.40
64.8402	763.98
64.8546	798.97
64.8691	804.42
64.8835	806.90
64.8979	857.90
64.9124	920.58
64.9268	914.48
64.9413	896.57
64.9557	976.65
64.9701	982.12
64.9846	1042.84
64.9990	1165.59
65.0135	1285.67
65.0279	1431.17
65.0423	1627.50
65.0568	1960.28
65.0712	2568.89
65.0857	3420.66
65.1001	4465.94
65.1145	6095.15
65.1290	8030.73
65.1434	9448.41
65.1579	10982.68
65.1723	11786.92
65.1867	11464.68
65.2012	10181.37
65.2156	8505.40
65.2301	6719.32
65.2445	5401.45
65.2589	4557.38
65.2734	4211.50
65.2878	4398.27
65.3023	4939.90
65.3167	5791.45
65.3311	6592.75
65.3456	7002.96
65.3600	7126.42
65.3745	6623.52
65.3889	5549.41
65.4033	4464.10
65.4178	3584.36
65.4322	2783.44
65.4467	2175.74
65.4611	1732.28
65.4755	1475.89
65.4900	1293.29
65.5044	1148.88
65.5189	1038.94
65.5333	957.33
65.5477	913.15
65.5622	943.21
65.5766	868.56
65.5911	821.32
65.6055	792.45
65.6199	786.78
65.6344	803.62
65.6488	749.48
65.6633	741.32
65.6777	729.02
65.6921	731.05
65.7066	711.08
65.7210	675.98
65.7355	727.10
65.7499	701.40
65.7643	679.08
65.7788	680.86
65.7932	650.13
65.8077	658.57
65.8221	691.20
65.8365	688.51
65.8510	647.88
65.8654	653.76
65.8799	640.30
65.8943	639.03
65.9087	670.69
65.9232	620.15
65.9376	655.39
65.9521	663.08
65.9665	651.91
65.9809	598.31
65.9954	635.16
66.0098	616.91
66.0243	674.27
66.0387	659.64
66.0531	633.53
66.0676	612.61
66.0820	604.85
66.0965	582.21
66.1109	605.41
66.1253	628.14
66.1398	621.77
66.1542	629.26
66.1687	614.73
66.1831	624.90
66.1975	622.45
66.2120	641.16
66.2264	635.05
66.2409	646.30
66.2553	644.14
66.2697	581.76
66.2842	616.32
66.2986	629.34
66.3131	643.07
66.3275	620.82
66.3419	612.96
66.3564	603.39
66.3708	571.77
66.3853	576.02
66.3997	574.17
66.4141	609.87
66.4286	601.45
66.4430	600.39
66.4575	576.42
66.4719	595.03
66.4863	589.87
66.5008	608.15
66.5152	584.67
66.5297	586.08
66.5441	581.57
66.5585	614.42
66.5730	593.41
66.5874	544.82
66.6019	575.18
66.6163	571.01
66.6307	568.46
66.6452	578.86
66.6596	583.04
66.6741	580.10
66.6885	580.10
66.7029	571.93
66.7174	580.13
66.7318	576.62
66.7463	576.60
66.7607	569.10
66.7751	576.11
66.7896	605.72
66.8040	649.59
66.8185	606.20
66.8329	600.96
66.8473	602.84
66.8618	573.26
66.8762	555.71
66.8907	557.32
66.9051	603.24
66.9195	596.58
66.9340	586.84
66.9484	586.92
66.9629	582.18
66.9773	547.52
66.9917	587.34
67.0062	597.83
67.0206	570.51
67.0351	585.40
67.0495	591.93
67.0639	603.85
67.0784	572.12
67.0928	623.68
67.1073	578.54
67.1217	583.65
67.1361	599.96
67.1506	567.06
67.1650	577.05
67.1795	594.42
67.1939	572.75
67.2083	577.42
67.2228	589.96
67.2372	588.31
67.2517	597.51
67.2661	574.05
67.2805	585.54
67.2950	569.79
67.3094	565.76
67.3239	569.87
67.3383	614.06
67.3527	570.42
67.3672	560.95
67.3816	600.23
67.3961	549.50
67.4105	564.47
67.4250	554.43
67.4394	582.87
67.4538	589.00
67.4683	607.37
67.4827	585.87
67.4972	559.56
67.5116	580.89
67.5260	582.64
67.5405	583.61
67.5549	591.82
67.5694	601.10
67.5838	570.04
67.5982	572.18
67.6127	575.56
67.6271	593.75
67.6416	593.84
67.6560	559.72
67.6704	599.23
67.6849	566.77
67.6993	576.19
67.7138	569.29
67.7282	545.08
67.7426	546.97
67.7571	539.88
67.7715	584.82
67.7860	594.63
67.8004	598.75
67.8148	594.97
67.8293	557.42
67.8437	545.16
67.8582	555.31
67.8726	571.43
67.8870	568.20
67.9015	594.05
67.9159	571.67
67.9304	571.03
67.9448	606.19
67.9592	557.21
67.9737	521.72
67.9881	585.73
68.0026	585.23
68.0170	609.22
68.0314	605.40
68.0459	612.51
68.0603	586.33
68.0748	572.63
68.0892	609.10
68.1036	584.88
68.1181	609.87
68.1325	594.12
68.1470	567.74
68.1614	606.21
68.1758	576.66
68.1903	602.75
68.2047	567.44
68.2192	546.48
68.2336	587.85
68.2480	630.29
68.2625	563.70
68.2769	535.27
68.2914	544.55
68.3058	559.57
68.3202	596.54
68.3347	571.65
68.3491	542.20
68.3636	534.09
68.3780	579.61
68.3924	608.55
68.4069	550.40
68.4213	613.77
68.4358	589.70
68.4502	570.62
68.4646	602.12
68.4791	545.83
68.4935	588.35
68.5080	575.93
68.5224	573.18
68.5368	584.57
68.5513	544.23
68.5657	541.40
68.5802	554.83
68.5946	545.39
68.6090	606.91
68.6235	552.08
68.6379	579.33
68.6524	565.07
68.6668	583.11
68.6812	552.87
68.6957	577.76
68.7101	591.94
68.7246	600.59
68.7390	542.20
68.7534	563.19
68.7679	558.58
68.7823	567.50
68.7968	583.66
68.8112	601.45
68.8256	591.43
68.8401	586.21
68.8545	565.10
68.8690	586.78
68.8834	641.19
68.8978	597.38
68.9123	598.66
68.9267	600.80
68.9412	576.74
68.9556	530.81
68.9700	574.76
68.9845	513.48
68.9989	555.74
69.0134	587.69
69.0278	590.58
69.0422	589.05
69.0567	637.28
69.0711	589.74
69.0856	576.17
69.1000	543.93
69.1144	600.13
69.1289	641.61
69.1433	543.47
69.1578	580.57
69.1722	578.57
69.1866	530.21
69.2011	572.10
69.2155	538.84
69.2300	599.09
69.2444	595.45
69.2588	595.22
69.2733	590.19
69.2877	552.40
69.3022	551.53
69.3166	578.10
69.3310	584.48
69.3455	599.21
69.3599	529.17
69.3744	621.82
69.3888	587.65
69.4032	605.65
69.4177	562.65
69.4321	583.74
69.4466	599.73
69.4610	540.81
69.4754	589.96
69.4899	583.31
69.5043	545.57
69.5188	567.34
69.5332	559.42
69.5476	587.30
69.5621	554.16
69.5765	568.41
69.5910	538.36
69.6054	589.37
69.6198	577.45
69.6343	593.26
69.6487	551.66
69.6632	601.70
69.6776	587.78
69.6920	561.02
69.7065	635.62
69.7209	580.23
69.7354	594.93
69.7498	637.55
69.7642	552.91
69.7787	630.21
69.7931	591.82
69.8076	589.23
69.8220	620.19
69.8364	590.17
69.8509	552.86
69.8653	609.63
69.8798	618.80
69.8942	611.32
69.9086	620.11
69.9231	594.35
69.9375	547.16
69.9520	533.83
69.9664	546.74
69.9808	575.36
69.9953	587.38
70.0097	570.44
70.0242	541.84
70.0386	561.36
70.0530	579.38
70.0675	589.46
70.0819	584.40
70.0964	604.65
70.1108	521.88
70.1252	561.63
70.1397	534.99
70.1541	520.79
70.1686	592.01
70.1830	616.59
70.1974	584.35
70.2119	622.72
70.2263	571.76
70.2408	579.85
70.2552	618.58
70.2696	586.78
70.2841	614.17
70.2985	594.41
70.3130	587.83
70.3274	607.07
70.3418	615.64
70.3563	656.37
70.3707	587.47
70.3852	605.84
70.3996	611.22
70.4140	566.75
70.4285	601.85
70.4429	593.57
70.4574	611.85
70.4718	581.87
70.4862	531.24
70.5007	534.85
70.5151	553.41
70.5296	586.31
70.5440	562.36
70.5584	582.05
70.5729	577.52
70.5873	535.16
70.6018	565.21
70.6162	576.06
70.6306	624.33
70.6451	556.64
70.6595	542.30
70.6740	602.80
70.6884	571.20
70.7028	587.49
70.7173	607.11
70.7317	600.62
70.7462	589.01
70.7606	596.73
70.7750	619.46
70.7895	603.83
70.8039	612.25
70.8184	598.70
70.8328	600.00
70.8472	542.54
70.8617	551.54
70.8761	585.63
70.8906	568.92
70.9050	587.50
70.9194	559.83
70.9339	576.25
70.9483	620.95
70.9628	568.89
70.9772	594.80
70.9916	628.62
71.0061	551.86
71.0205	582.01
71.0350	594.71
71.0494	564.09
71.0638	569.86
71.0783	619.75
71.0927	589.54
71.1072	578.21
71.1216	579.08
71.1361	544.63
71.1505	551.37
71.1649	567.45
71.1794	526.47
71.1938	537.43
71.2083	589.33
71.2227	530.38
71.2371	534.89
71.2516	585.66
71.2660	606.25
71.2805	550.76
71.2949	580.49
71.3093	643.37
71.3238	642.81
71.3382	574.27
71.3527	516.48
71.3671	555.61
71.3815	564.12
71.3960	573.60
71.4104	570.49
71.4249	584.44
71.4393	593.43
71.4537	587.03
71.4682	580.56
71.4826	596.69
71.4971	630.76
71.5115	586.25
71.5259	544.74
71.5404	541.17
71.5548	551.58
71.5693	537.57
71.5837	515.40
71.5981	557.06
71.6126	608.05
71.6270	604.68
71.6415	612.20
71.6559	591.80
71.6703	577.24
71.6848	521.17
71.6992	526.42
71.7137	532.72
71.7281	568.58
71.7425	575.63
71.7570	558.59
71.7714	552.81
71.7859	545.83
71.8003	488.92
71.8147	524.58
71.8292	606.05
71.8436	602.77
71.8581	562.99
71.8725	556.94
71.8869	552.19
71.9014	644.54
71.9158	617.85
71.9303	591.15
71.9447	609.35
71.9591	637.17
71.9736	589.96
71.9880	587.34
72.0025	501.10
72.0169	499.42
72.0313	580.90
72.0458	530.88
72.0602	521.49
72.0747	587.13
72.0891	668.27
72.1035	668.69
72.1180	572.93
72.1324	570.56
72.1469	611.10
72.1613	584.90
72.1757	563.75
72.1902	591.82
72.2046	563.09
72.2191	560.72
72.2335	588.02
72.2479	569.42
72.2624	524.31
72.2768	567.62
72.2913	621.70
72.3057	576.71
72.3201	591.42
72.3346	643.76
72.3490	598.45
72.3635	538.93
72.3779	542.53
72.3923	607.83
72.4068	640.71
72.4212	620.56
72.4357	574.83
72.4501	571.94
72.4645	571.21
72.4790	599.25
72.4934	674.98
72.5079	628.55
72.5223	515.27
72.5367	471.31
72.5512	588.45
72.5656	631.15
72.5801	624.89
72.5945	618.22
72.6089	530.88
72.6234	490.09
72.6378	542.37
72.6523	566.49
72.6667	514.17
72.6811	519.92
72.6956	581.72
72.7100	608.72
72.7245	549.03
72.7389	574.91
72.7533	581.21
72.7678	620.03
72.7822	587.08
72.7967	540.79
72.8111	574.23
72.8255	607.47
72.8400	604.69
72.8544	540.96
72.8689	527.69
72.8833	554.74

Result vector
22.1120	500.15
22.1264	527.02
22.1409	457.61
22.1553	538.70
22.1697	529.82
22.1842	571.24
22.1986	578.56
22.2131	562.05
22.2275	625.70
22.2419	636.82
22.2564	598.81
22.2708	504.55
22.2853	481.89
22.2997	480.52
22.3141	598.44
22.3286	570.54
22.3430	634.94
22.3575	643.65
22.3719	568.20
22.3863	567.01
22.4008	529.09
22.4152	555.19
22.4297	614.57
22.4441	597.71
22.4585	624.18
22.4730	570.87
22.4874	590.39
22.5019	617.32
22.5163	570.51
22.5307	573.09
22.5452	618.40
22.5596	622.29
22.5741	564.03
22.5885	502.29
22.6029	651.04
22.6174	557.84
22.6318	580.48
22.6463	627.53
22.6607	570.32
22.6751	522.58
22.6896	498.54
22.7040	558.65
22.7185	523.76
22.7329	562.30
22.7473	555.80
22.7618	501.81
22.7762	517.90
22.7907	547.67
22.8051	568.63
22.8195	659.78
22.8340	609.14
22.8484	553.92
22.8629	638.30
22.8773	597.94
22.8917	565.16
22.9062	636.91
22.9206	550.58
22.9351	615.35
22.9495	594.00
22.9639	543.27
22.9784	603.55
22.9928	620.42
23.0073	511.83
23.0217	518.81
23.0361	573.96
23.0506	659.22
23.0650	578.79
23.0795	528.57
23.0939	563.59
23.1083	529.47
23.1228	631.04
23.1372	583.16
23.1517	577.00
23.1661	506.99
23.1806	513.50
23.1950	566.85
23.2094	525.05
23.2239	583.12
23.2383	588.50
23.2528	498.44
23.2672	591.79
23.2816	513.40
23.2961	556.06
23.3105	549.40
23.3250	514.94
23.3394	518.64
23.3538	537.76
23.3683	544.08
23.3827	633.44
23.3972	519.52
23.4116	545.75
23.4260	649.50
23.4405	578.00
23.4549	532.45
23.4694	517.39
23.4838	536.01
23.4982	580.37
23.5127	570.14
23.5271	553.58
23.5416	518.27
23.5560	624.72
23.5704	578.13
23.5849	563.21
23.5993	593.69
23.6138	575.74
23.6282	581.28
23.6426	569.41
23.6571	601.47
23.6715	586.72
23.6860	573.41
23.7004	544.99
23.7148	596.24
23.7293	543.66
23.7437	614.73
23.7582	533.34
23.7726	520.76
23.7870	493.64
23.8015	504.88
23.8159	566.85
23.8304	530.51
23.8448	599.05
23.8592	562.47
23.8737	578.94
23.8881	487.49
23.9026	532.85
23.9170	563.38
23.9314	534.28
23.9459	618.45
23.9603	497.32
23.9748	538.08
23.9892	522.67
24.0036	541.33
24.0181	600.61
24.0325	535.00
24.0470	584.02
24.0614	513.40
24.0758	528.79
24.0903	612.23
24.1047	580.06
24.1192	528.82
24.1336	583.13
24.1480	504.96
24.1625	538.37
24.1769	631.44
24.1914	535.67
24.2058	619.42
24.2202	585.29
24.2347	566.87
24.2491	543.43
24.2636	570.40
24.2780	614.84
24.2924	580.97
24.3069	553.08
24.3213	527.06
24.3358	538.82
24.3502	579.38
24.3646	568.88
24.3791	592.66
24.3935	566.92
24.4080	513.48
24.4224	522.82
24.4368	574.35
24.4513	550.87
24.4657	543.25
24.4802	531.74
24.4946	556.84
24.5090	500.88
24.5235	506.48
24.5379	575.96
24.5524	577.75
24.5668	591.56
24.5812	550.81
24.5957	581.50
24.6101	633.13
24.6246	584.12
24.6390	565.55
24.6534	594.66
24.6679	511.42
24.6823	521.81
24.6968	580.98
24.7112	560.70
24.7256	529.09
24.7401	530.06
24.7545	592.30
24.7690	546.62
24.7834	625.92
24.7978	579.62
24.8123	612.67
24.8267	525.72
24.8412	485.17
24.8556	528.83
24.8700	551.29
24.8845	534.81
24.8989	519.47
24.9134	492.83
24.9278	504.58
24.9422	513.86
24.9567	561.14
24.9711	474.77
24.9856	551.45
25.0000	522.02
25.0144	501.84
25.0289	510.54
25.0433	570.72
25.0578	533.60
25.0722	472.75
25.0866	574.39
25.1011	580.83
25.1155	587.73
25.1300	551.67
25.1444	581.72
25.1588	596.93
25.1733	529.56
25.1877	525.11
25.2022	489.74
25.2166	542.73
25.2310	562.77
25.2455	570.31
25.2599	523.54
25.2744	526.97
25.2888	558.74
25.3032	556.30
25.3177	552.56
25.3321	524.17
25.3466	486.93
25.3610	561.25
25.3754	529.14
25.3899	560.18
25.4043	557.50
25.4188	550.56
25.4332	525.02
25.4476	522.41
25.4621	500.79
25.4765	498.14
25.4910	514.98
25.5054	567.82
25.5198	537.61
25.5343	580.56
25.5487	510.79
25.5632	500.99
25.5776	536.67
25.5920	514.27
25.6065	585.73
25.6209	574.69
25.6354	508.02
25.6498	506.61
25.6642	511.83
25.6787	527.19
25.6931	543.53
25.7076	531.32
25.7220	562.02
25.7364	550.84
25.7509	565.32
25.7653	556.18
25.7798	560.24
25.7942	530.58
25.8086	516.41
25.8231	505.24
25.8375	514.57
25.8520	556.82
25.8664	575.82
25.8808	547.16
25.8953	542.98
25.9097	539.41
25.9242	539.17
25.9386	523.14
25.9530	556.89
25.9675	530.88
25.9819	548.22
25.9964	575.13
26.0108	542.14
26.0252	521.47
26.0397	539.74
26.0541	571.41
26.0686	531.45
26.0830	564.47
26.0974	528.72
26.1119	507.23
26.1263	525.50
26.1408	496.80
26.1552	527.43
26.1696	495.64
26.1841	480.00
26.1985	532.15
26.2130	505.70
26.2274	544.73
26.2418	543.29
26.2563	491.71
26.2707	527.32
26.2852	567.96
26.2996	539.95
26.3140	584.75
26.3285	560.95
26.3429	529.76
26.3574	521.37
26.3718	524.39
26.3862	506.03
26.4007	496.40
26.4151	525.59
26.4296	530.24
26.4440	500.62
26.4584	541.63
26.4729	548.53
26.4873	551.95
26.5018	544.27
26.5162	543.75
26.5306	562.45
26.5451	555.43
26.5595	541.29
26.5740	563.68
26.5884	573.92
26.6028	545.10
26.6173	541.54
26.6317	566.39
26.6462	540.18
26.6606	539.56
26.6750	541.33
26.6895	520.69
26.7039	528.60
26.7184	510.97
26.7328	517.01
26.7472	516.63
26.7617	520.13
26.7761	546.00
26.7906	530.45
26.8050	516.91
26.8194	511.65
26.8339	530.87
26.8483	542.01
26.8628	535.27
26.8772	513.32
26.8917	538.77
26.9061	547.92
26.9205	530.02
26.9350	544.41
26.9494	567.46
26.9639	529.10
26.9783	542.43
26.9927	535.02
27.0072	520.97
27.0216	519.51
27.0361	529.84
27.0505	513.00
27.0649	522.62
27.0794	537.04
27.0938	545.60
27.1083	544.48
27.1227	548.30
27.1371	546.74
27.1516	509.29
27.1660	552.29
27.1805	523.15
27.1949	499.73
27.2093	511.07
27.2238	496.60
27.2382	540.67
27.2527	521.53
27.2671	528.67
27.2815	516.73
27.2960	531.58
27.3104	551.77
27.3249	527.79
27.3393	521.78
27.3537	510.61
27.3682	541.30
27.3826	543.16
27.3971	535.45
27.4115	539.34
27.4259	547.98
27.4404	535.31
27.4548	512.14
27.4693	537.38
27.4837	545.60
27.4981	530.77
27.5126	500.22
27.5270	523.67
27.5415	498.97
27.5559	516.74
27.5703	533.77
27.5848	537.73
27.5992	551.74
27.6137	550.57
27.6281	527.10
27.6425	525.35
27.6570	542.82
27.6714	525.06
27.6859	497.51
27.7003	500.54
27.7147	520.37
27.7292	513.61
27.7436	509.53
27.7581	522.73
27.7725	527.60
27.7869	529.33
27.8014	505.03
27.8158	521.18
27.8303	546.16
27.8447	539.12
27.8591	520.82
27.8736	516.84
27.8880	523.53
27.9025	533.07
27.9169	485.23
27.9313	504.21
27.9458	525.45
27.9602	484.86
27.9747	540.92
27.9891	546.58
28.0035	514.27
28.0180	521.18
28.0324	522.56
28.0469	495.58
28.0613	512.34
28.0757	506.98
28.0902	513.66
28.1046	527.49
28.1191	521.06
28.1335	536.38
28.1479	513.11
28.1624	523.76
28.1768	529.44
28.1913	488.28
28.2057	503.30
28.2201	500.60
28.2346	493.11
28.2490	499.18
28.2635	521.90
28.2779	512.98
28.2923	508.61
28.3068	517.26
28.3212	488.64
28.3357	530.32
28.3501	499.59
28.3645	509.78
28.3790	509.83
28.3934	509.86
28.4079	521.10
28.4223	531.75
28.4367	524.60
28.4512	483.40
28.4656	489.67
28.4801	517.77
28.4945	503.58
28.5089	525.02
28.5234	540.55
28.5378	527.14
28.5523	541.48
28.5667	489.65
28.5811	508.01
28.5956	514.43
28.6100	522.96
28.6245	542.15
28.6389	529.99
28.6533	513.46
28.6678	465.86
28.6822	493.25
28.6967	535.73
28.7111	523.83
28.7255	533.77
28.7400	507.27
28.7544	510.69
28.7689	522.89
28.7833	531.35
28.7977	495.39
28.8122	507.20
28.8266	546.29
28.8411	532.25
28.8555	524.07
28.8699	545.53
28.8844	549.25
28.8988	511.67
28.9133	539.96
28.9277	512.11
28.9421	542.31
28.9566	486.04
28.9710	514.85
28.9855	504.01
28.9999	486.85
29.0143	478.53
29.0288	517.09
29.0432	506.83
29.0577	497.18
29.0721	511.33
29.0865	485.25
29.1010	503.26
29.1154	523.89
29.1299	490.07
29.1443	512.62
29.1587	516.67
29.1732	495.38
29.1876	500.66
29.2021	502.89
29.2165	511.36
29.2309	478.46
29.2454	537.16
29.2598	492.39
29.2743	513.85
29.2887	519.94
29.3031	525.12
29.3176	521.37
29.3320	520.54
29.3465	464.81
29.3609	494.72
29.3753	512.84
29.3898	497.56
29.4042	464.87
29.4187	507.79
29.4331	529.33
29.4475	497.46
29.4620	495.72
29.4764	548.64
29.4909	502.94
29.5053	519.50
29.5197	527.18
29.5342	514.45
29.5486	525.16
29.5631	528.04
29.5775	505.83
29.5919	504.48
29.6064	520.99
29.6208	493.01
29.6353	524.46
29.6497	508.19
29.6641	498.17
29.6786	525.08
29.6930	522.75
29.7075	572.05
29.7219	516.34
29.7363	489.97
29.7508	507.45
29.7652	506.48
29.7797	525.65
29.7941	484.12
29.8085	526.49
29.8230	504.61
29.8374	513.26
29.8519	526.52
29.8663	533.59
29.8807	513.91
29.8952	523.80
29.9096	531.50
29.9241	547.86
29.9385	540.75
29.9529	491.66
29.9674	483.13
29.9818	516.86
29.9963	490.85
30.0107	518.60
30.0251	513.13
30.0396	482.56
30.0540	494.96
30.0685	500.15
30.0829	498.13
30.0973	512.63
30.1118	558.67
30.1262	520.68
30.1407	494.33
30.1551	519.07
30.1695	537.36
30.1840	509.11
30.1984	502.59
30.2129	509.62
30.2273	515.75
30.2417	520.17
30.2562	501.10
30.2706	503.74
30.2851	551.32
30.2995	521.69
30.3139	510.35
30.3284	532.35
30.3428	513.44
30.3573	519.83
30.3717	526.99
30.3861	526.57
30.4006	548.88
30.4150	526.75
30.4295	557.46
30.4439	521.32
30.4583	515.89
30.4728	532.92
30.4872	529.22
30.5017	530.64
30.5161	597.06
30.5305	553.86
30.5450	590.00
30.5594	673.32
30.5739	669.57
30.5883	678.09
30.6028	731.01
30.6172	721.78
30.6316	741.63
30.6461	733.14
30.6605	711.23
30.6750	743.62
30.6894	697.35
30.7038	692.24
30.7183	663.07
30.7327	643.98
30.7472	624.58
30.7616	607.57
30.7760	548.78
30.7905	553.37
30.8049	544.95
30.8194	549.66
30.8338	508.83
30.8482	511.32
30.8627	527.64
30.8771	550.23
30.8916	514.63
30.9060	517.67
30.9204	525.05
30.9349	517.17
30.9493	500.93
30.9638	508.68
30.9782	505.13
30.9926	506.50
31.0071	506.15
31.0215	527.08
31.0360	539.56
31.0504	517.35
31.0648	533.56
31.0793	535.23
31.0937	536.48
31.1082	548.24
31.1226	535.50
31.1370	507.64
31.1515	500.64
31.1659	520.06
31.1804	520.09
31.1948	501.81
31.2092	534.51
31.2237	503.09
31.2381	485.39
31.2526	528.23
31.2670	530.54
31.2814	556.95
31.2959	514.81
31.3103	517.78
31.3248	509.74
31.3392	517.59
31.3536	495.04
31.3681	532.05
31.3825	542.78
31.3970	517.63
31.4114	493.39
31.4258	503.85
31.4403	493.29
31.4547	505.36
31.4692	514.32
31.4836	541.95
31.4980	529.44
31.5125	481.06
31.5269	494.50
31.5414	517.58
31.5558	485.80
31.5702	537.97
31.5847	509.80
31.5991	531.73
31.6136	520.57
31.6280	515.68
31.6424	533.43
31.6569	532.82
31.6713	517.13
31.6858	501.54
31.7002	499.23
31.7146	540.89
31.7291	496.30
31.7435	505.16
31.7580	494.76
31.7724	494.63
31.7868	511.78
31.8013	495.77
31.8157	495.68
31.8302	521.28
31.8446	512.73
31.8590	517.30
31.8735	540.19
31.8879	493.25
31.9024	515.25
31.9168	487.43
31.9312	516.61
31.9457	529.17
31.9601	522.86
31.9746	506.46
31.9890	516.17
32.0034	492.40
32.0179	494.20
32.0323	476.17
32.0468	501.40
32.0612	498.95
32.0756	489.84
32.0901	482.89
32.1045	495.02
32.1190	519.96
32.1334	500.60
32.1478	480.86
32.1623	503.81
32.1767	494.47
32.1912	490.37
32.2056	488.55
32.2200	496.45
32.2345	534.28
32.2489	552.72
32.2634	524.42
32.2778	520.32
32.2922	502.93
32.3067	521.49
32.3211	492.34
32.3356	486.64
32.3500	494.19
32.3644	518.86
32.3789	500.33
32.3933	510.24
32.4078	493.81
32.4222	487.52
32.4366	488.77
32.4511	513.00
32.4655	545.42
32.4800	501.89
32.4944	495.20
32.5088	507.88
32.5233	493.47
32.5377	495.15
32.5522	483.97
32.5666	497.31
32.5810	498.49
32.5955	506.44
32.6099	566.56
32.6244	518.06
32.6388	533.16
32.6532	504.87
32.6677	483.25
32.6821	500.95
32.6966	487.50
32.7110	525.90
32.7254	491.65
32.7399	522.86
32.7543	504.29
32.7688	471.49
32.7832	498.50
32.7976	501.41
32.8121	483.77
32.8265	496.85
32.8410	469.05
32.8554	524.31
32.8698	520.43
32.8843	512.30
32.8987	511.18
32.9132	503.27
32.9276	524.32
32.9420	547.42
32.9565	485.47
32.9709	505.57
32.9854	505.32
32.9998	523.70
33.0142	513.04
33.0287	520.90
33.0431	518.75
33.0576	520.23
33.0720	500.65
33.0864	503.46
33.1009	528.99
33.1153	522.69
33.1298	517.91
33.1442	455.26
33.1586	500.41
33.1731	505.32
33.1875	479.86
33.2020	529.49
33.2164	506.72
33.2308	515.68
33.2453	509.15
33.2597	512.73
33.2742	536.17
33.2886	496.55
33.3030	517.04
33.3175	519.84
33.3319	544.76
33.3464	504.65
33.3608	517.35
33.3752	487.53
33.3897	512.17
33.4041	490.17
33.4186	492.48
33.4330	518.02
33.4474	506.84
33.4619	506.28
33.4763	522.71
33.4908	501.92
33.5052	499.65
33.5196	495.77
33.5341	478.40
33.5485	500.66
33.5630	520.20
33.5774	482.10
33.5918	497.92
33.6063	506.74
33.6207	484.79
33.6352	487.39
33.6496	527.79
33.6640	503.77
33.6785	531.14
33.6929	509.74
33.7074	517.95
33.7218	527.12
33.7362	507.10
33.7507	523.11
33.7651	490.58
33.7796	525.32
33.7940	500.26
33.8084	507.71
33.8229	497.90
33.8373	479.44
33.8518	484.48
33.8662	503.65
33.8806	495.31
33.8951	472.44
33.9095	545.90
33.9240	561.65
33.9384	485.77
33.9528	485.31
33.9673	483.79
33.9817	482.11
33.9962	496.74
34.0106	512.37
34.0250	491.68
34.0395	510.97
34.0539	489.45
34.0684	536.85
34.0828	509.26
34.0972	509.45
34.1117	490.72
34.1261	506.58
34.1406	493.28
34.1550	500.03
34.1694	511.15
34.1839	543.05
34.1983	520.12
34.2128	510.86
34.2272	500.41
34.2417	529.51
34.2561	524.37
34.2705	485.97
34.2850	532.54
34.2994	491.72
34.3139	505.79
34.3283	508.21
34.3427	527.11
34.3572	512.20
34.3716	492.04
34.3861	513.02
34.4005	511.06
34.4149	495.41
34.4294	522.96
34.4438	535.65
34.4583	502.48
34.4727	519.93
34.4871	500.99
34.5016	509.99
34.5160	497.38
34.5305	469.98
34.5449	477.06
34.5593	529.57
34.5738	501.47
34.5882	526.88
34.6027	487.55
34.6171	489.23
34.6315	545.87
34.6460	503.69
34.6604	515.48
34.6749	517.95
34.6893	456.22
34.7037	482.69
34.7182	509.31
34.7326	464.41
34.7471	480.18
34.7615	487.54
34.7759	482.13
34.7904	487.75
34.8048	494.34
34.8193	506.60
34.8337	513.46
34.8481	483.45
34.8626	528.31
34.8770	515.25
34.8915	515.33
34.9059	523.15
34.9203	482.53
34.9348	507.72
34.9492	495.10
34.9637	468.61
34.9781	488.97
34.9925	476.98
35.0070	471.82
35.0214	513.36
35.0359	506.12
35.0503	496.19
35.0647	497.44
35.0792	482.81
35.0936	506.20
35.1081	534.29
35.1225	557.77
35.1369	508.06
35.1514	471.21
35.1658	506.68
35.1803	525.00
35.1947	503.74
35.2091	537.39
35.2236	517.02
35.2380	508.67
35.2525	518.88
35.2669	488.66
35.2813	533.90
35.2958	491.96
35.3102	515.08
35.3247	522.44
35.3391	513.52
35.3535	522.61
35.3680	539.94
35.3824	528.32
35.3969	512.67
35.4113	518.69
35.4257	556.24
35.4402	563.52
35.4546	554.96
35.4691	548.82
35.4835	542.31
35.4979	544.61
35.5124	512.44
35.5268	508.58
35.5413	532.67
35.5557	531.69
35.5701	531.07
35.5846	522.29
35.5990	528.33
35.6135	538.21
35.6279	555.97
35.6423	543.16
35.6568	560.80
35.6712	563.19
35.6857	615.47
35.7001	686.52
35.7145	736.21
35.7290	686.60
35.7434	626.69
35.7579	617.97
35.7723	615.39
35.7867	595.04
35.8012	632.65
35.8156	670.23
35.8301	621.82
35.8445	635.80
35.8589	673.21
35.8734	796.54
35.8878	879.45
35.9023	1022.37
35.9167	1181.64
35.9311	1396.63
35.9456	1984.07
35.9600	2399.72
35.9745	2051.05
35.9889	2056.56
36.0033	2428.49
36.0178	2591.28
36.0322	2413.67
36.0467	2419.14
36.0611	2238.47
36.0755	2111.96
36.0900	2083.82
36.1044	1963.72
36.1189	1819.25
36.1333	1561.51
36.1477	1331.01
36.1622	1285.18
36.1766	1272.96
36.1911	1041.79
36.2055	866.51
36.2199	805.23
36.2344	719.71
36.2488	672.46
36.2633	624.92
36.2777	625.98
36.2921	582.98
36.3066	586.72
36.3210	587.29
36.3355	606.18
36.3499	519.18
36.3643	533.57
36.3788	562.04
36.3932	544.31
36.4077	518.59
36.4221	546.54
36.4365	576.35
36.4510	555.76
36.4654	569.76
36.4799	574.34
36.4943	538.39
36.5087	545.71
36.5232	525.88
36.5376	515.94
36.5521	538.72
36.5665	506.31
36.5809	521.13
36.5954	477.84
36.6098	516.75
36.6243	476.82
36.6387	525.68
36.6531	545.17
36.6676	526.83
36.6820	509.63
36.6965	516.06
36.7109	549.47
36.7253	517.44
36.7398	497.63
36.7542	525.02
36.7687	542.71
36.7831	555.91
36.7975	522.28
36.8120	552.04
36.8264	611.33
36.8409	564.13
36.8553	569.47
36.8697	607.18
36.8842	582.02
36.8986	607.37
36.9131	628.86
36.9275	615.18
36.9419	627.42
36.9564	540.19
36.9708	554.28
36.9853	547.73
36.9997	543.93
37.0141	559.85
37.0286	546.02
37.0430	537.98
37.0575	531.40
37.0719	519.71
37.0863	550.15
37.1008	533.78
37.1152	533.05
37.1297	520.09
37.1441	461.86
37.1585	502.65
37.1730	525.16
37.1874	488.24
37.2019	512.80
37.2163	502.80
37.2307	484.45
37.2452	487.82
37.2596	483.89
37.2741	520.71
37.2885	517.64
37.3029	523.99
37.3174	496.36
37.3318	502.65
37.3463	455.40
37.3607	481.01
37.3751	492.61
37.3896	508.63
37.4040	504.70
37.4185	477.13
37.4329	544.01
37.4473	480.31
37.4618	487.70
37.4762	514.96
37.4907	534.90
37.5051	526.51
37.5195	524.93
37.5340	516.45
37.5484	496.81
37.5629	530.11
37.5773	495.39
37.5917	506.76
37.6062	522.02
37.6206	553.76
37.6351	530.71
37.6495	504.39
37.6639	490.54
37.6784	479.83
37.6928	506.17
37.7073	547.23
37.7217	535.10
37.7361	510.35
37.7506	505.49
37.7650	507.25
37.7795	514.04
37.7939	526.84
37.8083	516.73
37.8228	530.47
37.8372	538.22
37.8517	519.66
37.8661	529.08
37.8805	506.92
37.8950	485.37
37.9094	525.30
37.9239	534.87
37.9383	506.10
37.9528	484.68
37.9672	505.46
37.9816	486.20
37.9961	486.72
38.0105	518.20
38.0250	531.94
38.0394	498.71
38.0538	496.19
38.0683	510.80
38.0827	543.78
38.0972	525.52
38.1116	500.88
38.1260	514.54
38.1405	539.41
38.1549	518.38
38.1694	488.81
38.1838	515.13
38.1982	477.92
38.2127	499.89
38.2271	501.36
38.2416	529.91
38.2560	505.34
38.2704	473.81
38.2849	504.49
38.2993	516.37
38.3138	534.22
38.3282	514.95
38.3426	519.45
38.3571	541.86
38.3715	525.77
38.3860	521.15
38.4004	530.84
38.4148	587.69
38.4293	580.04
38.4437	597.20
38.4582	625.23
38.4726	673.94
38.4870	710.69
38.5015	746.24
38.5159	762.62
38.5304	824.02
38.5448	804.69
38.5592	786.76
38.5737	775.28
38.5881	775.08
38.6026	731.44
38.6170	734.80
38.6314	730.36
38.6459	680.05
38.6603	631.86
38.6748	605.62
38.6892	567.21
38.7036	558.94
38.7181	558.22
38.7325	528.61
38.7470	542.88
38.7614	492.89
38.7758	500.52
38.7903	491.66
38.8047	500.41
38.8192	498.39
38.8336	524.12
38.8480	486.37
38.8625	472.94
38.8769	503.54
38.8914	506.87
38.9058	504.52
38.9202	496.01
38.9347	500.86
38.9491	488.92
38.9636	485.09
38.9780	505.63
38.9924	497.07
39.0069	480.04
39.0213	490.71
39.0358	492.17
39.0502	502.93
39.0646	522.49
39.0791	520.15
39.0935	504.70
39.1080	501.78
39.1224	503.91
39.1368	509.16
39.1513	479.78
39.1657	524.98
39.1802	537.32
39.1946	482.68
39.2090	488.86
39.2235	535.10
39.2379	523.00
39.2524	511.78
39.2668	521.00
39.2812	557.67
39.2957	525.52
39.3101	523.88
39.3246	511.58
39.3390	514.55
39.3534	532.18
39.3679	544.49
39.3823	532.44
39.3968	489.55
39.4112	519.52
39.4256	512.60
39.4401	501.69
39.4545	526.34
39.4690	518.00
39.4834	480.89
39.4978	463.02
39.5123	483.46
39.5267	516.46
39.5412	510.26
39.5556	518.46
39.5700	529.19
39.5845	502.89
39.5989	496.92
39.6134	492.13
39.6278	517.32
39.6422	536.84
39.6567	531.61
39.6711	497.50
39.6856	499.79
39.7000	486.67
39.7144	474.12
39.7289	485.53
39.7433	517.37
39.7578	490.92
39.7722	479.17
39.7866	508.85
39.8011	494.21
39.8155	492.93
39.8300	496.38
39.8444	512.32
39.8588	515.15
39.8733	519.37
39.8877	564.06
39.9022	538.16
39.9166	491.15
39.9310	477.19
39.9455	524.46
39.9599	473.88
39.9744	476.71
39.9888	542.78
40.0032	523.84
40.0177	481.43
40.0321	479.54
40.0466	474.59
40.0610	497.61
40.0754	496.48
40.0899	494.54
40.1043	480.15
40.1188	510.90
40.1332	499.38
40.1476	467.95
40.1621	508.92
40.1765	531.49
40.1910	523.71
40.2054	523.40
40.2198	487.12
40.2343	509.59
40.2487	493.04
40.2632	504.80
40.2776	500.62
40.2920	518.99
40.3065	499.04
40.3209	456.49
40.3354	485.97
40.3498	544.32
40.3642	523.58
40.3787	524.06
40.3931	483.13
40.4076	507.53
40.4220	509.51
40.4364	529.69
40.4509	524.43
40.4653	500.90
40.4798	461.08
40.4942	474.94
40.5086	470.44
40.5231	494.91
40.5375	516.04
40.5520	499.64
40.5664	527.69
40.5808	493.97
40.5953	510.14
40.6097	503.78
40.6242	506.57
40.6386	470.73
40.6530	484.58
40.6675	504.86
40.6819	491.19
40.6964	490.03
40.7108	521.05
40.7252	498.46
40.7397	506.83
40.7541	517.22
40.7686	505.96
40.7830	556.87
40.7974	503.46
40.8119	485.20
40.8263	465.34
40.8408	457.60
40.8552	480.59
40.8696	517.08
40.8841	524.31
40.8985	472.64
40.9130	523.14
40.9274	486.93
40.9418	493.59
40.9563	466.75
40.9707	473.42
40.9852	499.54
40.9996	498.10
41.0140	518.04
41.0285	506.70
41.0429	467.34
41.0574	471.42
41.0718	460.66
41.0862	498.93
41.1007	514.82
41.1151	507.88
41.1296	486.83
41.1440	489.21
41.1584	515.83
41.1729	501.88
41.1873	534.99
41.2018	489.02
41.2162	501.54
41.2306	519.15
41.2451	520.25
41.2595	490.23
41.2740	475.33
41.2884	519.45
41.3028	490.78
41.3173	483.59
41.3317	506.48
41.3462	478.05
41.3606	515.43
41.3750	489.12
41.3895	502.46
41.4039	495.78
41.4184	504.19
41.4328	528.82
41.4472	463.79
41.4617	504.79
41.4761	491.54
41.4906	498.13
41.5050	468.21
41.5194	487.11
41.5339	474.56
41.5483	472.33
41.5628	502.68
41.5772	511.34
41.5916	526.56
41.6061	510.35
41.6205	501.65
41.6350	534.12
41.6494	517.50
41.6639	496.43
41.6783	506.41
41.6927	468.13
41.7072	496.56
41.7216	503.03
41.7361	504.95
41.7505	501.80
41.7649	504.82
41.7794	489.15
41.7938	510.29
41.8083	473.03
41.8227	498.24
41.8371	520.76
41.8516	529.84
41.8660	549.38
41.8805	531.76
41.8949	537.58
41.9093	550.67
41.9238	528.58
41.9382	579.31
41.9527	573.42
41.9671	557.08
41.9815	596.68
41.9960	590.47
42.0104	583.85
42.0249	587.13
42.0393	525.91
42.0537	533.34
42.0682	556.76
42.0826	560.60
42.0971	582.65
42.1115	586.96
42.1259	608.91
42.1404	624.95
42.1548	588.43
42.1693	643.50
42.1837	677.71
42.1981	713.60
42.2126	858.20
42.2270	870.12
42.2415	1044.52
42.2559	1202.21
42.2703	1283.91
42.2848	1448.63
42.2992	1636.31
42.3137	1673.22
42.3281	1635.03
42.3425	1575.70
42.3570	1514.11
42.3714	1448.59
42.3859	1346.71
42.4003	1297.07
42.4147	1280.94
42.4292	1257.49
42.4436	1129.61
42.4581	1037.54
42.4725	962.81
42.4869	846.57
42.5014	793.87
42.5158	709.19
42.5303	679.66
42.5447	641.79
42.5591	633.00
42.5736	624.77
42.5880	584.92
42.6025	587.21
42.6169	576.42
42.6313	549.59
42.6458	520.85
42.6602	539.32
42.6747	542.06
42.6891	511.22
42.7035	545.57
42.7180	534.25
42.7324	525.82
42.7469	569.02
42.7613	509.39
42.7757	511.59
42.7902	531.77
42.8046	523.57
42.8191	515.48
42.8335	513.98
42.8479	509.97
42.8624	533.99
42.8768	530.52
42.8913	488.07
42.9057	523.20
42.9201	510.28
42.9346	513.73
42.9490	500.26
42.9635	496.00
42.9779	488.63
42.9923	521.36
43.0068	520.49
43.0212	499.00
43.0357	496.33
43.0501	529.69
43.0645	519.88
43.0790	501.60
43.0934	504.83
43.1079	478.21
43.1223	513.35
43.1367	525.23
43.1512	511.75
43.1656	517.35
43.1801	520.87
43.1945	516.68
43.2089	535.94
43.2234	541.03
43.2378	540.02
43.2523	531.84
43.2667	517.50
43.2811	522.26
43.2956	513.54
43.3100	526.36
43.3245	534.88
43.3389	514.32
43.3533	532.83
43.3678	520.66
43.3822	546.95
43.3967	502.53
43.4111	507.19
43.4255	525.37
43.4400	525.57
43.4544	520.18
43.4689	499.73
43.4833	518.28
43.4977	497.07
43.5122	498.82
43.5266	518.64
43.5411	516.82
43.5555	537.28
43.5699	521.86
43.5844	544.31
43.5988	509.08
43.6133	499.34
43.6277	518.40
43.6421	560.20
43.6566	556.77
43.6710	526.11
43.6855	489.62
43.6999	555.32
43.7143	537.29
43.7288	547.30
43.7432	553.21
43.7577	564.19
43.7721	585.46
43.7865	623.73
43.8010	640.00
43.8154	661.37
43.8299	654.34
43.8443	661.55
43.8587	663.27
43.8732	650.48
43.8876	588.09
43.9021	573.91
43.9165	629.23
43.9309	596.87
43.9454	598.43
43.9598	586.09
43.9743	582.65
43.9887	568.94
44.0031	517.57
44.0176	510.50
44.0320	549.07
44.0465	531.28
44.0609	541.33
44.0753	564.58
44.0898	514.63
44.1042	520.82
44.1187	516.33
44.1331	534.54
44.1475	486.03
44.1620	517.97
44.1764	512.53
44.1909	558.68
44.2053	526.91
44.2197	503.99
44.2342	513.94
44.2486	528.45
44.2631	498.72
44.2775	540.49
44.2919	538.45
44.3064	545.43
44.3208	551.05
44.3353	545.14
44.3497	512.24
44.3641	495.81
44.3786	517.58
44.3930	546.53
44.4075	573.98
44.4219	600.14
44.4363	586.84
44.4508	559.88
44.4652	575.33
44.4797	596.00
44.4941	588.89
44.5085	606.15
44.5230	569.82
44.5374	576.61
44.5519	588.90
44.5663	576.19
44.5807	591.71
44.5952	572.20
44.6096	589.43
44.6241	553.70
44.6385	585.83
44.6529	597.80
44.6674	608.17
44.6818	613.26
44.6963	599.27
44.7107	650.13
44.7251	668.00
44.7396	742.20
44.7540	807.61
44.7685	913.90
44.7829	916.65
44.7973	898.27
44.8118	855.87
44.8262	836.25
44.8407	816.69
44.8551	750.82
44.8695	748.30
44.8840	774.79
44.8984	772.07
44.9129	709.44
44.9273	667.38
44.9417	682.48
44.9562	640.48
44.9706	573.96
44.9851	534.89
44.9995	531.16
45.0139	517.27
45.0284	517.81
45.0428	495.10
45.0573	502.15
45.0717	546.42
45.0861	510.84
45.1006	521.74
45.1150	520.62
45.1295	528.44
45.1439	488.30
45.1583	484.63
45.1728	499.84
45.1872	523.69
45.2017	516.97
45.2161	504.73
45.2305	518.17
45.2450	525.80
45.2594	512.16
45.2739	503.66
45.2883	516.21
45.3028	513.20
45.3172	524.77
45.3316	534.40
45.3461	477.04
45.3605	537.60
45.3750	505.93
45.3894	463.66
45.4038	500.63
45.4183	499.61
45.4327	533.16
45.4472	521.90
45.4616	501.41
45.4760	531.06
45.4905	493.12
45.5049	483.34
45.5194	490.79
45.5338	496.60
45.5482	494.12
45.5627	526.34
45.5771	519.16
45.5916	507.15
45.6060	530.48
45.6204	461.13
45.6349	496.32
45.6493	468.82
45.6638	488.31
45.6782	489.41
45.6926	457.06
45.7071	489.77
45.7215	529.02
45.7360	516.23
45.7504	510.84
45.7648	544.62
45.7793	501.49
45.7937	513.37
45.8082	533.03
45.8226	520.17
45.8370	527.53
45.8515	514.50
45.8659	513.75
45.8804	514.15
45.8948	521.12
45.9092	518.03
45.9237	500.25
45.9381	521.17
45.9526	528.44
45.9670	515.09
45.9814	481.83
45.9959	480.11
46.0103	527.55
46.0248	523.28
46.0392	504.62
46.0536	506.29
46.0681	511.98
46.0825	526.83
46.0970	505.69
46.1114	476.64
46.1258	504.78
46.1403	503.36
46.1547	498.07
46.1692	516.01
46.1836	518.45
46.1980	514.70
46.2125	511.78
46.2269	476.72
46.2414	515.18
46.2558	521.75
46.2702	512.77
46.2847	508.35
46.2991	493.76
46.3136	521.21
46.3280	522.79
46.3424	506.67
46.3569	514.19
46.3713	475.21
46.3858	505.52
46.4002	496.56
46.4146	527.12
46.4291	529.07
46.4435	489.67
46.4580	501.47
46.4724	516.07
46.4868	517.43
46.5013	524.94
46.5157	503.30
46.5302	513.83
46.5446	493.60
46.5590	499.69
46.5735	498.69
46.5879	478.15
46.6024	491.87
46.6168	517.47
46.6312	471.17
46.6457	495.85
46.6601	522.33
46.6746	514.74
46.6890	503.42
46.7034	508.35
46.7179	509.36
46.7323	502.90
46.7468	520.46
46.7612	533.57
46.7756	508.22
46.7901	528.61
46.8045	526.79
46.8190	561.12
46.8334	538.06
46.8478	498.66
46.8623	477.53
46.8767	487.68
46.8912	519.31
46.9056	571.03
46.9200	530.03
46.9345	508.69
46.9489	479.69
46.9634	480.11
46.9778	516.99
46.9922	521.60
47.0067	518.44
47.0211	520.95
47.0356	501.09
47.0500	511.02
47.0644	548.76
47.0789	537.30
47.0933	508.35
47.1078	495.17
47.1222	507.08
47.1366	477.69
47.1511	505.09
47.1655	512.74
47.1800	493.64
47.1944	484.87
47.2088	508.90
47.2233	490.27
47.2377	511.54
47.2522	490.82
47.2666	483.24
47.2810	511.36
47.2955	532.10
47.3099	523.77
47.3244	511.44
47.3388	516.12
47.3532	499.31
47.3677	514.92
47.3821	492.11
47.3966	500.46
47.4110	496.15
47.4254	507.07
47.4399	540.19
47.4543	488.71
47.4688	504.38
47.4832	536.12
47.4976	506.62
47.5121	471.52
47.5265	488.14
47.5410	530.14
47.5554	539.82
47.5698	512.56
47.5843	494.06
47.5987	510.99
47.6132	530.61
47.6276	506.97
47.6420	514.82
47.6565	508.58
47.6709	491.83
47.6854	494.93
47.6998	510.95
47.7142	488.88
47.7287	517.48
47.7431	518.96
47.7576	509.91
47.7720	540.52
47.7864	521.03
47.8009	501.73
47.8153	509.57
47.8298	468.91
47.8442	501.62
47.8586	478.00
47.8731	501.95
47.8875	517.94
47.9020	520.79
47.9164	493.39
47.9308	499.58
47.9453	533.50
47.9597	494.63
47.9742	503.64
47.9886	513.55
48.0030	482.16
48.0175	508.51
48.0319	526.70
48.0464	503.14
48.0608	507.26
48.0752	536.16
48.0897	526.05
48.1041	528.71
48.1186	511.27
48.1330	558.23
48.1474	533.51
48.1619	498.31
48.1763	521.68
48.1908	490.10
48.2052	473.93
48.2196	509.32
48.2341	546.53
48.2485	513.77
48.2630	497.06
48.2774	496.27
48.2918	500.94
48.3063	513.21
48.3207	505.25
48.3352	535.83
48.3496	523.66
48.3640	527.85
48.3785	515.14
48.3929	491.83
48.4074	503.26
48.4218	494.90
48.4362	498.85
48.4507	512.19
48.4651	510.47
48.4796	515.82
48.4940	519.53
48.5084	491.87
48.5229	544.91
48.5373	522.15
48.5518	516.71
48.5662	496.33
48.5806	503.57
48.5951	530.94
48.6095	544.54
48.6240	507.91
48.6384	521.81
48.6528	536.05
48.6673	535.17
48.6817	504.48
48.6962	537.18
48.7106	550.79
48.7250	532.62
48.7395	493.82
48.7539	528.41
48.7684	487.59
48.7828	501.35
48.7972	547.22
48.8117	573.66
48.8261	557.59
48.8406	550.87
48.8550	526.57
48.8694	506.64
48.8839	529.32
48.8983	534.03
48.9128	561.68
48.9272	521.76
48.9416	525.22
48.9561	534.92
48.9705	561.76
48.9850	565.72
48.9994	584.61
49.0139	613.51
49.0283	638.91
49.0427	613.93
49.0572	632.93
49.0716	632.47
49.0861	622.97
49.1005	653.52
49.1149	705.77
49.1294	714.00
49.1438	706.95
49.1583	830.51
49.1727	829.76
49.1871	857.91
49.2016	893.81
49.2160	980.57
49.2305	1048.48
49.2449	1147.91
49.2593	1212.40
49.2738	1253.93
49.2882	1376.76
49.3027	1437.40
49.3171	1539.18
49.3315	1619.16
49.3460	1653.81
49.3604	1721.63
49.3749	1690.64
49.3893	1686.66
49.4037	1714.97
49.4182	1745.84
49.4326	1725.11
49.4471	1573.79
49.4615	1510.77
49.4759	1552.78
49.4904	1531.89
49.5048	1436.39
49.5193	1355.30
49.5337	1298.17
49.5481	1212.87
49.5626	1224.06
49.5770	1043.60
49.5915	957.66
49.6059	982.39
49.6203	918.04
49.6348	825.66
49.6492	780.07
49.6637	733.45
49.6781	694.93
49.6925	690.22
49.7070	714.30
49.7214	644.66
49.7359	650.21
49.7503	626.46
49.7647	585.72
49.7792	588.59
49.7936	561.51
49.8081	585.09
49.8225	605.19
49.8369	580.96
49.8514	582.79
49.8658	592.53
49.8803	592.96
49.8947	547.52
49.9091	550.83
49.9236	560.16
49.9380	539.72
49.9525	523.29
49.9669	528.37
49.9813	545.11
49.9958	537.01
50.0102	560.42
50.0247	501.67
50.0391	519.14
50.0535	509.67
50.0680	513.33
50.0824	455.01
50.0969	515.11
50.1113	525.93
50.1257	526.33
50.1402	536.44
50.1546	518.07
50.1691	523.63
50.1835	501.70
50.1979	537.22
50.2124	535.52
50.2268	504.80
50.2413	505.14
50.2557	494.34
50.2701	505.43
50.2846	539.42
50.2990	538.87
50.3135	516.98
50.3279	507.30
50.3423	510.67
50.3568	520.46
50.3712	530.68
50.3857	502.70
50.4001	487.22
50.4145	490.68
50.4290	499.33
50.4434	511.21
50.4579	505.09
50.4723	515.03
50.4867	490.24
50.5012	517.83
50.5156	562.25
50.5301	498.47
50.5445	488.78
50.5589	499.01
50.5734	511.00
50.5878	496.77
50.6023	506.39
50.6167	527.83
50.6311	511.50
50.6456	506.33
50.6600	496.77
50.6745	487.65
50.6889	485.73
50.7033	481.82
50.7178	512.61
50.7322	512.59
50.7467	468.07
50.7611	514.87
50.7755	502.59
50.7900	517.67
50.8044	491.27
50.8189	515.21
50.8333	489.03
50.8477	513.82
50.8622	507.32
50.8766	507.04
50.8911	476.17
50.9055	563.50
50.9199	527.56
50.9344	511.00
50.9488	491.98
50.9633	483.78
50.9777	493.36
50.9921	479.92
51.0066	484.22
51.0210	537.47
51.0355	496.91
51.0499	498.23
51.0643	534.35
51.0788	500.31
51.0932	520.47
51.1077	511.46
51.1221	507.03
51.1365	502.07
51.1510	499.29
51.1654	520.25
51.1799	512.28
51.1943	482.16
51.2087	504.10
51.2232	503.06
51.2376	480.04
51.2521	525.68
51.2665	486.71
51.2809	486.51
51.2954	467.93
51.3098	477.60
51.3243	508.84
51.3387	537.73
51.3531	513.88
51.3676	519.85
51.3820	509.75
51.3965	512.62
51.4109	516.09
51.4253	530.30
51.4398	528.25
51.4542	528.25
51.4687	504.19
51.4831	523.14
51.4975	507.97
51.5120	511.84
51.5264	529.49
51.5409	539.37
51.5553	532.20
51.5697	520.48
51.5842	532.56
51.5986	542.91
51.6131	519.86
51.6275	498.33
51.6419	491.03
51.6564	516.74
51.6708	476.94
51.6853	503.94
51.6997	491.09
51.7141	524.01
51.7286	497.60
51.7430	493.23
51.7575	469.25
51.7719	501.37
51.7863	502.84
51.8008	520.06
51.8152	492.74
51.8297	526.43
51.8441	480.65
51.8585	515.13
51.8730	514.12
51.8874	461.05
51.9019	483.14
51.9163	520.01
51.9307	551.01
51.9452	536.36
51.9596	545.05
51.9741	550.18
51.9885	513.43
52.0029	539.06
52.0174	501.51
52.0318	510.05
52.0463	480.32
52.0607	521.10
52.0751	498.27
52.0896	533.47
52.1040	497.14
52.1185	491.69
52.1329	513.19
52.1473	488.30
52.1618	514.83
52.1762	499.14
52.1907	505.59
52.2051	500.72
52.2195	519.39
52.2340	504.12
52.2484	529.09
52.2629	522.06
52.2773	500.44
52.2917	487.45
52.3062	521.57
52.3206	491.14
52.3351	489.49
52.3495	516.93
52.3639	536.27
52.3784	531.15
52.3928	510.96
52.4073	512.55
52.4217	503.93
52.4361	534.35
52.4506	520.08
52.4650	485.30
52.4795	523.63
52.4939	489.93
52.5083	493.72
52.5228	518.31
52.5372	521.64
52.5517	543.49
52.5661	501.72
52.5805	498.20
52.5950	476.47
52.6094	498.58
52.6239	511.84
52.6383	522.19
52.6527	487.20
52.6672	494.41
52.6816	542.25
52.6961	521.27
52.7105	550.08
52.7250	483.31
52.7394	507.61
52.7538	491.67
52.7683	501.80
52.7827	530.26
52.7972	517.09
52.8116	516.14
52.8260	524.05
52.8405	489.17
52.8549	511.88
52.8694	511.78
52.8838	534.44
52.8982	567.21
52.9127	512.17
52.9271	508.78
52.9416	536.17
52.9560	523.29
52.9704	524.45
52.9849	549.74
52.9993	539.10
53.0138	485.85
53.0282	500.14
53.0426	528.53
53.0571	512.96
53.0715	486.90
53.0860	532.13
53.1004	535.71
53.1148	554.87
53.1293	551.71
53.1437	479.96
53.1582	482.75
53.1726	519.55
53.1870	512.44
53.2015	518.62
53.2159	540.78
53.2304	503.38
53.2448	493.27
53.2592	546.57
53.2737	511.70
53.2881	498.72
53.3026	500.55
53.3170	508.99
53.3314	516.57
53.3459	542.61
53.3603	500.40
53.3748	482.86
53.3892	511.38
53.4036	540.40
53.4181	510.47
53.4325	529.74
53.4470	495.52
53.4614	516.54
53.4758	519.68
53.4903	519.84
53.5047	511.06
53.5192	538.45
53.5336	567.97
53.5480	525.45
53.5625	513.68
53.5769	505.83
53.5914	540.06
53.6058	533.96
53.6202	519.02
53.6347	516.21
53.6491	517.66
53.6636	534.07
53.6780	515.81
53.6924	512.85
53.7069	544.95
53.7213	525.35
53.7358	477.91
53.7502	486.98
53.7646	491.35
53.7791	513.14
53.7935	512.16
53.8080	517.64
53.8224	516.92
53.8368	509.88
53.8513	509.19
53.8657	497.59
53.8802	508.22
53.8946	519.81
53.9090	521.95
53.9235	520.16
53.9379	542.11
53.9524	506.70
53.9668	528.43
53.9812	484.68
53.9957	528.58
54.0101	527.00
54.0246	560.73
54.0390	514.96
54.0534	522.14
54.0679	539.38
54.0823	541.86
54.0968	503.92
54.1112	534.00
54.1256	556.71
54.1401	547.61
54.1545	511.59
54.1690	522.63
54.1834	505.11
54.1978	510.91
54.2123	524.66
54.2267	552.60
54.2412	537.79
54.2556	551.77
54.2700	563.00
54.2845	561.47
54.2989	549.39
54.3134	566.77
54.3278	613.83
54.3422	585.19
54.3567	609.09
54.3711	628.26
54.3856	648.77
54.4000	632.85
54.4144	596.18
54.4289	592.14
54.4433	595.06
54.4578	585.96
54.4722	596.53
54.4866	573.72
54.5011	567.77
54.5155	567.10
54.5300	570.99
54.5444	570.15
54.5588	562.25
54.5733	575.41
54.5877	548.89
54.6022	551.15
54.6166	530.01
54.6310	525.22
54.6455	523.98
54.6599	513.88
54.6744	521.66
54.6888	549.58
54.7032	526.38
54.7177	517.53
54.7321	498.08
54.7466	518.89
54.7610	541.00
54.7754	536.65
54.7899	536.50
54.8043	540.99
54.8188	541.23
54.8332	549.23
54.8476	516.28
54.8621	519.49
54.8765	522.11
54.8910	513.27
54.9054	502.54
54.9198	520.63
54.9343	523.99
54.9487	511.98
54.9632	506.82
54.9776	546.11
54.9920	541.06
55.0065	508.01
55.0209	484.40
55.0354	493.94
55.0498	519.70
55.0642	517.13
55.0787	534.97
55.0931	520.72
55.1076	529.83
55.1220	547.42
55.1364	525.59
55.1509	495.85
55.1653	528.59
55.1798	518.36
55.1942	515.28
55.2086	543.29
55.2231	526.86
55.2375	521.05
55.2520	526.20
55.2664	543.70
55.2808	542.21
55.2953	506.06
55.3097	536.56
55.3242	501.64
55.3386	528.81
55.3530	516.95
55.3675	515.29
55.3819	538.63
55.3964	518.82
55.4108	499.33
55.4252	533.46
55.4397	532.02
55.4541	495.00
55.4686	539.36
55.4830	553.97
55.4974	530.88
55.5119	503.50
55.5263	528.02
55.5408	539.09
55.5552	538.74
55.5696	504.62
55.5841	526.26
55.5985	546.68
55.6130	528.76
55.6274	552.42
55.6418	521.69
55.6563	530.18
55.6707	504.71
55.6852	517.59
55.6996	515.54
55.7140	531.86
55.7285	531.93
55.7429	530.46
55.7574	521.67
55.7718	548.91
55.7862	512.84
55.8007	530.76
55.8151	529.96
55.8296	571.69
55.8440	544.46
55.8584	539.96
55.8729	566.70
55.8873	490.43
55.9018	538.88
55.9162	551.05
55.9306	501.30
55.9451	538.02
55.9595	553.28
55.9740	537.11
55.9884	542.16
56.0028	531.02
56.0173	510.18
56.0317	508.18
56.0462	509.65
56.0606	530.63
56.0750	534.25
56.0895	525.72
56.1039	515.49
56.1184	531.00
56.1328	534.81
56.1472	471.55
56.1617	563.69
56.1761	526.82
56.1906	528.00
56.2050	499.75
56.2194	510.45
56.2339	504.89
56.2483	508.17
56.2628	546.87
56.2772	512.75
56.2916	510.56
56.3061	511.58
56.3205	513.43
56.3350	565.42
56.3494	530.72
56.3639	517.73
56.3783	532.64
56.3927	516.89
56.4072	534.32
56.4216	547.06
56.4361	523.46
56.4505	529.09
56.4649	531.12
56.4794	513.53
56.4938	513.25
56.5083	502.47
56.5227	504.97
56.5371	541.98
56.5516	544.41
56.5660	500.00
56.5805	505.52
56.5949	554.64
56.6093	563.29
56.6238	511.44
56.6382	531.43
56.6527	518.83
56.6671	518.48
56.6815	505.94
56.6960	485.50
56.7104	529.92
56.7249	544.79
56.7393	538.06
56.7537	534.36
56.7682	505.70
56.7826	548.35
56.7971	527.63
56.8115	523.95
56.8259	525.23
56.8404	506.45
56.8548	499.48
56.8693	526.25
56.8837	528.01
56.8981	506.49
56.9126	513.09
56.9270	504.25
56.9415	573.25
56.9559	548.91
56.9703	522.38
56.9848	554.81
56.9992	537.92
57.0137	522.90
57.0281	514.23
57.0425	523.09
57.0570	528.64
57.0714	534.01
57.0859	527.95
57.1003	527.59
57.1147	542.45
57.1292	581.88
57.1436	529.67
57.1581	515.46
57.1725	518.03
57.1869	501.91
57.2014	496.22
57.2158	533.31
57.2303	498.15
57.2447	567.82
57.2591	520.34
57.2736	539.77
57.2880	542.70
57.3025	516.54
57.3169	510.25
57.3313	549.86
57.3458	526.91
57.3602	542.43
57.3747	521.60
57.3891	517.10
57.4035	495.32
57.4180	509.07
57.4324	568.39
57.4469	492.63
57.4613	527.72
57.4757	561.45
57.4902	560.31
57.5046	518.70
57.5191	517.46
57.5335	533.62
57.5479	545.54
57.5624	524.55
57.5768	526.14
57.5913	558.07
57.6057	533.43
57.6201	486.77
57.6346	522.47
57.6490	512.77
57.6635	506.24
57.6779	517.41
57.6923	551.54
57.7068	552.72
57.7212	517.39
57.7357	553.46
57.7501	546.41
57.7645	506.80
57.7790	534.78
57.7934	549.15
57.8079	574.09
57.8223	535.31
57.8367	532.23
57.8512	541.53
57.8656	604.85
57.8801	600.37
57.8945	559.13
57.9089	579.54
57.9234	616.98
57.9378	672.52
57.9523	694.55
57.9667	683.47
57.9811	724.40
57.9956	690.77
58.0100	711.67
58.0245	740.98
58.0389	702.19
58.0533	682.27
58.0678	667.13
58.0822	649.16
58.0967	650.25
58.1111	637.22
58.1255	625.10
58.1400	631.72
58.1544	632.86
58.1689	649.70
58.1833	615.81
58.1977	618.57
58.2122	610.90
58.2266	589.64
58.2411	575.40
58.2555	589.22
58.2699	569.03
58.2844	577.34
58.2988	552.78
58.3133	563.68
58.3277	541.94
58.3421	526.17
58.3566	518.52
58.3710	529.10
58.3855	560.74
58.3999	554.79
58.4143	540.10
58.4288	537.20
58.4432	517.70
58.4577	525.30
58.4721	527.71
58.4865	530.46
58.5010	566.79
58.5154	534.17
58.5299	511.54
58.5443	544.94
58.5587	536.45
58.5732	520.39
58.5876	522.28
58.6021	519.62
58.6165	535.75
58.6309	507.97
58.6454	543.07
58.6598	549.83
58.6743	570.70
58.6887	535.53
58.7031	535.04
58.7176	528.23
58.7320	562.75
58.7465	538.25
58.7609	547.17
58.7753	543.66
58.7898	552.90
58.8042	541.47
58.8187	532.94
58.8331	544.29
58.8475	545.78
58.8620	577.70
58.8764	562.79
58.8909	540.51
58.9053	541.07
58.9197	540.09
58.9342	537.62
58.9486	544.43
58.9631	508.29
58.9775	529.45
58.9919	518.96
59.0064	535.78
59.0208	562.31
59.0353	537.73
59.0497	522.92
59.0641	548.51
59.0786	537.64
59.0930	506.81
59.1075	498.97
59.1219	562.82
59.1363	554.76
59.1508	516.39
59.1652	556.49
59.1797	533.16
59.1941	519.21
59.2085	517.65
59.2230	545.42
59.2374	548.82
59.2519	543.88
59.2663	536.42
59.2807	585.96
59.2952	530.74
59.3096	533.85
59.3241	560.77
59.3385	603.07
59.3529	580.14
59.3674	551.09
59.3818	573.82
59.3963	563.20
59.4107	567.72
59.4251	582.78
59.4396	561.56
59.4540	543.05
59.4685	570.47
59.4829	560.81
59.4973	550.94
59.5118	542.21
59.5262	560.66
59.5407	560.57
59.5551	552.87
59.5695	567.63
59.5840	565.26
59.5984	575.62
59.6129	565.34
59.6273	533.59
59.6417	541.60
59.6562	555.34
59.6706	538.32
59.6851	528.61
59.6995	538.70
59.7139	566.39
59.7284	546.19
59.7428	550.73
59.7573	551.45
59.7717	513.89
59.7861	513.25
59.8006	524.44
59.8150	527.23
59.8295	547.14
59.8439	531.52
59.8583	541.82
59.8728	534.59
59.8872	512.13
59.9017	510.81
59.9161	552.87
59.9305	510.92
59.9450	570.10
59.9594	552.84
59.9739	535.26
59.9883	506.67
60.0027	554.46
60.0172	569.49
60.0316	525.99
60.0461	490.01
60.0605	555.29
60.0750	555.98
60.0894	540.40
60.1038	535.04
60.1183	550.24
60.1327	534.07
60.1472	519.94
60.1616	573.12
60.1760	542.92
60.1905	538.58
60.2049	563.28
60.2194	521.96
60.2338	529.12
60.2482	557.45
60.2627	551.26
60.2771	516.28
60.2916	500.91
60.3060	535.57
60.3204	567.51
60.3349	551.74
60.3493	546.03
60.3638	534.25
60.3782	545.15
60.3926	545.73
60.4071	514.54
60.4215	539.60
60.4360	545.01
60.4504	526.39
60.4648	531.46
60.4793	543.53
60.4937	498.48
60.5082	496.59
60.5226	560.30
60.5370	568.64
60.5515	549.79
60.5659	510.07
60.5804	550.75
60.5948	532.68
60.6092	536.02
60.6237	523.87
60.6381	555.46
60.6526	505.45
60.6670	520.23
60.6814	545.46
60.6959	526.98
60.7103	577.90
60.7248	579.97
60.7392	594.83
60.7536	567.08
60.7681	532.07
60.7825	571.79
60.7970	543.88
60.8114	550.77
60.8258	563.87
60.8403	527.30
60.8547	530.26
60.8692	558.04
60.8836	521.23
60.8980	559.97
60.9125	547.78
60.9269	521.12
60.9414	546.96
60.9558	517.75
60.9702	519.67
60.9847	517.20
60.9991	543.14
61.0136	552.75
61.0280	547.56
61.0424	508.01
61.0569	543.17
61.0713	558.85
61.0858	538.07
61.1002	514.58
61.1146	558.72
61.1291	562.96
61.1435	531.35
61.1580	562.22
61.1724	551.43
61.1868	528.64
61.2013	531.29
61.2157	532.69
61.2302	517.48
61.2446	546.59
61.2590	554.77
61.2735	555.93
61.2879	570.11
61.3024	563.37
61.3168	581.97
61.3312	552.15
61.3457	521.40
61.3601	562.01
61.3746	531.04
61.3890	505.19
61.4034	538.78
61.4179	550.70
61.4323	540.41
61.4468	523.79
61.4612	503.57
61.4756	542.25
61.4901	476.64
61.5045	527.43
61.5190	545.04
61.5334	553.23
61.5478	521.21
61.5623	554.89
61.5767	542.13
61.5912	537.96
61.6056	559.18
61.6200	539.14
61.6345	555.73
61.6489	551.39
61.6634	569.98
61.6778	550.38
61.6922	548.87
61.7067	584.64
61.7211	581.12
61.7356	550.47
61.7500	590.10
61.7644	596.98
61.7789	582.02
61.7933	555.67
61.8078	574.11
61.8222	568.96
61.8366	538.87
61.8511	551.40
61.8655	548.86
61.8800	545.13
61.8944	542.88
61.9088	546.24
61.9233	556.20
61.9377	563.01
61.9522	521.45
61.9666	559.50
61.9810	556.17
61.9955	541.06
62.0099	572.34
62.0244	579.95
62.0388	592.87
62.0532	572.16
62.0677	569.24
62.0821	525.53
62.0966	532.85
62.1110	535.39
62.1254	544.95
62.1399	546.36
62.1543	539.74
62.1688	554.26
62.1832	525.43
62.1976	534.48
62.2121	555.84
62.2265	567.99
62.2410	575.14
62.2554	547.15
62.2698	534.99
62.2843	545.27
62.2987	554.40
62.3132	555.35
62.3276	532.46
62.3420	577.79
62.3565	560.07
62.3709	547.81
62.3854	526.91
62.3998	547.15
62.4142	549.21
62.4287	559.61
62.4431	531.80
62.4576	553.54
62.4720	561.75
62.4864	575.37
62.5009	542.52
62.5153	555.55
62.5298	540.20
62.5442	518.04
62.5586	540.48
62.5731	535.33
62.5875	544.40
62.6020	551.56
62.6164	578.50
62.6308	567.33
62.6453	544.20
62.6597	559.25
62.6742	545.07
62.6886	558.23
62.7030	568.34
62.7175	536.24
62.7319	516.82
62.7464	564.91
62.7608	526.27
62.7752	533.98
62.7897	579.12
62.8041	592.87
62.8186	574.25
62.8330	575.60
62.8474	544.20
62.8619	557.67
62.8763	569.98
62.8908	573.73
62.9052	577.24
62.9196	552.50
62.9341	542.90
62.9485	559.17
62.9630	588.65
62.9774	598.73
62.9918	591.74
63.0063	571.18
63.0207	583.52
63.0352	595.97
63.0496	547.05
63.0640	562.86
63.0785	581.86
63.0929	594.41
63.1074	557.41
63.1218	592.26
63.1362	564.50
63.1507	598.17
63.1651	591.49
63.1796	585.42
63.1940	554.32
63.2084	620.88
63.2229	593.79
63.2373	597.53
63.2518	598.81
63.2662	588.79
63.2806	587.44
63.2951	577.23
63.3095	615.96
63.3240	564.49
63.3384	608.75
63.3528	603.79
63.3673	600.92
63.3817	652.74
63.3962	610.56
63.4106	571.99
63.4250	625.49
63.4395	604.30
63.4539	636.24
63.4684	626.19
63.4828	614.03
63.4972	631.39
63.5117	626.02
63.5261	633.19
63.5406	616.34
63.5550	679.37
63.5694	699.89
63.5839	686.06
63.5983	688.20
63.6128	744.81
63.6272	828.27
63.6416	843.44
63.6561	910.10
63.6705	972.16
63.6850	916.06
63.6994	909.63
63.7138	886.87
63.7283	865.68
63.7427	836.56
63.7572	837.82
63.7716	785.35
63.7861	802.56
63.8005	761.72
63.8149	817.94
63.8294	785.93
63.8438	718.71
63.8583	739.82
63.8727	767.87
63.8871	771.24
63.9016	770.57
63.9160	796.23
63.9305	747.87
63.9449	702.52
63.9593	664.77
63.9738	706.16
63.9882	665.65
64.0027	642.64
64.0171	627.35
64.0315	672.45
64.0460	670.51
64.0604	657.95
64.0749	610.86
64.0893	626.02
64.1037	626.92
64.1182	660.85
64.1326	579.45
64.1471	574.76
64.1615	597.23
64.1759	618.56
64.1904	631.02
64.2048	577.34
64.2193	605.70
64.2337	603.05
64.2481	605.41
64.2626	593.30
64.2770	615.80
64.2915	648.60
64.3059	613.48
64.3203	589.09
64.3348	601.66
64.3492	618.56
64.3637	620.03
64.3781	634.81
64.3925	647.80
64.4070	638.48
64.4214	637.58
64.4359	627.41
64.4503	629.49
64.4647	609.95
64.4792	600.70
64.4936	637.86
64.5081	633.02
64.5225	647.25
64.5369	650.86
64.5514	645.96
64.5658	595.33
64.5803	643.14
64.5947	614.65
64.6091	600.07
64.6236	640.14
64.6380	651.85
64.6525	649.10
64.6669	659.09
64.6813	656.57
64.6958	658.54
64.7102	698.33
64.7247	722.81
64.7391	671.11
64.7535	690.27
64.7680	661.36
64.7824	734.27
64.7969	726.70
64.8113	732.61
64.8257	758.40
64.8402	763.98
64.8546	798.97
64.8691	804.42
64.8835	806.90
64.8979	857.90
64.9124	920.58
64.9268	914.48
64.9413	896.57
64.9557	976.65
64.9701	982.12
64.9846	1042.84
64.9990	1165.59
65.0135	1285.67
65.0279	1431.17
65.0423	1627.50
65.0568	1960.28
65.0712	2568.89
65.0857	3420.66
65.1001	4465.94
65.1145	6095.15
65.1290	8030.73
65.1434	9448.41
65.1579	10982.68
65.1723	11786.92
65.1867	11464.68
65.2012	10181.37
65.2156	8505.40
65.2301	6719.32
65.2445	5401.45
65.2589	4557.38
65.2734	4211.50
65.2878	4398.27
65.3023	4939.90
65.3167	5791.45
65.3311	6592.75
65.3456	7002.96
65.3600	7126.42
65.3745	6623.52
65.3889	5549.41
65.4033	4464.10
65.4178	3584.36
65.4322	2783.44
65.4467	2175.74
65.4611	1732.28
65.4755	1475.89
65.4900	1293.29
65.5044	1148.88
65.5189	1038.94
65.5333	957.33
65.5477	913.15
65.5622	943.21
65.5766	868.56
65.5911	821.32
65.6055	792.45
65.6199	786.78
65.6344	803.62
65.6488	749.48
65.6633	741.32
65.6777	729.02
65.6921	731.05
65.7066	711.08
65.7210	675.98
65.7355	727.10
65.7499	701.40
65.7643	679.08
65.7788	680.86
65.7932	650.13
65.8077	658.57
65.8221	691.20
65.8365	688.51
65.8510	647.88
65.8654	653.76
65.8799	640.30
65.8943	639.03
65.9087	670.69
65.9232	620.15
65.9376	655.39
65.9521	663.08
65.9665	651.91
65.9809	598.31
65.9954	635.16
66.0098	616.91
66.0243	674.27
66.0387	659.64
66.0531	633.53
66.0676	612.61
66.0820	604.85
66.0965	582.21
66.1109	605.41
66.1253	628.14
66.1398	621.77
66.1542	629.26
66.1687	614.73
66.1831	624.90
66.1975	622.45
66.2120	641.16
66.2264	635.05
66.2409	646.30
66.2553	644.14
66.2697	581.76
66.2842	616.32
66.2986	629.34
66.3131	643.07
66.3275	620.82
66.3419	612.96
66.3564	603.39
66.3708	571.77
66.3853	576.02
66.3997	574.17
66.4141	609.87
66.4286	601.45
66.4430	600.39
66.4575	576.42
66.4719	595.03
66.4863	589.87
66.5008	608.15
66.5152	584.67
66.5297	586.08
66.5441	581.57
66.5585	614.42
66.5730	593.41
66.5874	544.82
66.6019	575.18
66.6163	571.01
66.6307	568.46
66.6452	578.86
66.6596	583.04
66.6741	580.10
66.6885	580.10
66.7029	571.93
66.7174	580.13
66.7318	576.62
66.7463	576.60
66.7607	569.10
66.7751	576.11
66.7896	605.72
66.8040	649.59
66.8185	606.20
66.8329	600.96
66.8473	602.84
66.8618	573.26
66.8762	555.71
66.8907	557.32
66.9051	603.24
66.9195	596.58
66.9340	586.84
66.9484	586.92
66.9629	582.18
66.9773	547.52
66.9917	587.34
67.0062	597.83
67.0206	570.51
67.0351	585.40
67.0495	591.93
67.0639	603.85
67.0784	572.12
67.0928	623.68
67.1073	578.54
67.1217	583.65
67.1361	599.96
67.1506	567.06
67.1650	577.05
67.1795	594.42
67.1939	572.75
67.2083	577.42
67.2228	589.96
67.2372	588.31
67.2517	597.51
67.2661	574.05
67.2805	585.54
67.2950	569.79
67.3094	565.76
67.3239	569.87
67.3383	614.06
67.3527	570.42
67.3672	560.95
67.3816	600.23
67.3961	549.50
67.4105	564.47
67.4250	554.43
67.4394	582.87
67.4538	589.00
67.4683	607.37
67.4827	585.87
67.4972	559.56
67.5116	580.89
67.5260	582.64
67.5405	583.61
67.5549	591.82
67.5694	601.10
67.5838	570.04
67.5982	572.18
67.6127	575.56
67.6271	593.75
67.6416	593.84
67.6560	559.72
67.6704	599.23
67.6849	566.77
67.6993	576.19
67.7138	569.29
67.7282	545.08
67.7426	546.97
67.7571	539.88
67.7715	584.82
67.7860	594.63
67.8004	598.75
67.8148	594.97
67.8293	557.42
67.8437	545.16
67.8582	555.31
67.8726	571.43
67.8870	568.20
67.9015	594.05
67.9159	571.67
67.9304	571.03
67.9448	606.19
67.9592	557.21
67.9737	521.72
67.9881	585.73
68.0026	585.23
68.0170	609.22
68.0314	605.40
68.0459	612.51
68.0603	586.33
68.0748	572.63
68.0892	609.10
68.1036	584.88
68.1181	609.87
68.1325	594.12
68.1470	567.74
68.1614	606.21
68.1758	576.66
68.1903	602.75
68.2047	567.44
68.2192	546.48
68.2336	587.85
68.2480	630.29
68.2625	563.70
68.2769	535.27
68.2914	544.55
68.3058	559.57
68.3202	596.54
68.3347	571.65
68.3491	542.20
68.3636	534.09
68.3780	579.61
68.3924	608.55
68.4069	550.40
68.4213	613.77
68.4358	589.70
68.4502	570.62
68.4646	602.12
68.4791	545.83
68.4935	588.35
68.5080	575.93
68.5224	573.18
68.5368	584.57
68.5513	544.23
68.5657	541.40
68.5802	554.83
68.5946	545.39
68.6090	606.91
68.6235	552.08
68.6379	579.33
68.6524	565.07
68.6668	583.11
68.6812	552.87
68.6957	577.76
68.7101	591.94
68.7246	600.59
68.7390	542.20
68.7534	563.19
68.7679	558.58
68.7823	567.50
68.7968	583.66
68.8112	601.45
68.8256	591.43
68.8401	586.21
68.8545	565.10
68.8690	586.78
68.8834	641.19
68.8978	597.38
68.9123	598.66
68.9267	600.80
68.9412	576.74
68.9556	530.81
68.9700	574.76
68.9845	513.48
68.9989	555.74
69.0134	587.69
69.0278	590.58
69.0422	589.05
69.0567	637.28
69.0711	589.74
69.0856	576.17
69.1000	543.93
69.1144	600.13
69.1289	641.61
69.1433	543.47
69.1578	580.57
69.1722	578.57
69.1866	530.21
69.2011	572.10
69.2155	538.84
69.2300	599.09
69.2444	595.45
69.2588	595.22
69.2733	590.19
69.2877	552.40
69.3022	551.53
69.3166	578.10
69.3310	584.48
69.3455	599.21
69.3599	529.17
69.3744	621.82
69.3888	587.65
69.4032	605.65
69.4177	562.65
69.4321	583.74
69.4466	599.73
69.4610	540.81
69.4754	589.96
69.4899	583.31
69.5043	545.57
69.5188	567.34
69.5332	559.42
69.5476	587.30
69.5621	554.16
69.5765	568.41
69.5910	538.36
69.6054	589.37
69.6198	577.45
69.6343	593.26
69.6487	551.66
69.6632	601.70
69.6776	587.78
69.6920	561.02
69.7065	635.62
69.7209	580.23
69.7354	594.93
69.7498	637.55
69.7642	552.91
69.7787	630.21
69.7931	591.82
69.8076	589.23
69.8220	620.19
69.8364	590.17
69.8509	552.86
69.8653	609.63
69.8798	618.80
69.8942	611.32
69.9086	620.11
69.9231	594.35
69.9375	547.16
69.9520	533.83
69.9664	546.74
69.9808	575.36
69.9953	587.38
70.0097	570.44
70.0242	541.84
70.0386	561.36
70.0530	579.38
70.0675	589.46
70.0819	584.40
70.0964	604.65
70.1108	521.88
70.1252	561.63
70.1397	534.99
70.1541	520.79
70.1686	592.01
70.1830	616.59
70.1974	584.35
70.2119	622.72
70.2263	571.76
70.2408	579.85
70.2552	618.58
70.2696	586.78
70.2841	614.17
70.2985	594.41
70.3130	587.83
70.3274	607.07
70.3418	615.64
70.3563	656.37
70.3707	587.47
70.3852	605.84
70.3996	611.22
70.4140	566.75
70.4285	601.85
70.4429	593.57
70.4574	611.85
70.4718	581.87
70.4862	531.24
70.5007	534.85
70.5151	553.41
70.5296	586.31
70.5440	562.36
70.5584	582.05
70.5729	577.52
70.5873	535.16
70.6018	565.21
70.6162	576.06
70.6306	624.33
70.6451	556.64
70.6595	542.30
70.6740	602.80
70.6884	571.20
70.7028	587.49
70.7173	607.11
70.7317	600.62
70.7462	589.01
70.7606	596.73
70.7750	619.46
70.7895	603.83
70.8039	612.25
70.8184	598.70
70.8328	600.00
70.8472	542.54
70.8617	551.54
70.8761	585.63
70.8906	568.92
70.9050	587.50
70.9194	559.83
70.9339	576.25
70.9483	620.95
70.9628	568.89
70.9772	594.80
70.9916	628.62
71.0061	551.86
71.0205	582.01
71.0350	594.71
71.0494	564.09
71.0638	569.86
71.0783	619.75
71.0927	589.54
71.1072	578.21
71.1216	579.08
71.1361	544.63
71.1505	551.37
71.1649	567.45
71.1794	526.47
71.1938	537.43
71.2083	589.33
71.2227	530.38
71.2371	534.89
71.2516	585.66
71.2660	606.25
71.2805	550.76
71.2949	580.49
71.3093	643.37
71.3238	642.81
71.3382	574.27
71.3527	516.48
71.3671	555.61
71.3815	564.12
71.3960	573.60
71.4104	570.49
71.4249	584.44
71.4393	593.43
71.4537	587.03
71.4682	580.56
71.4826	596.69
71.4971	630.76
71.5115	586.25
71.5259	544.74
71.5404	541.17
71.5548	551.58
71.5693	537.57
71.5837	515.40
71.5981	557.06
71.6126	608.05
71.6270	604.68
71.6415	612.20
71.6559	591.80
71.6703	577.24
71.6848	521.17
71.6992	526.42
71.7137	532.72
71.7281	568.58
71.7425	575.63
71.7570	558.59
71.7714	552.81
71.7859	545.83
71.8003	488.92
71.8147	524.58
71.8292	606.05
71.8436	602.77
71.8581	562.99
71.8725	556.94
71.8869	552.19
71.9014	644.54
71.9158	617.85
71.9303	591.15
71.9447	609.35
71.9591	637.17
71.9736	589.96
71.9880	587.34
72.0025	501.10
72.0169	499.42
72.0313	580.90
72.0458	530.88
72.0602	521.49
72.0747	587.13
72.0891	668.27
72.1035	668.69
72.1180	572.93
72.1324	570.56
72.1469	611.10
72.1613	584.90
72.1757	563.75
72.1902	591.82
72.2046	563.09
72.2191	560.72
72.2335	588.02
72.2479	569.42
72.2624	524.31
72.2768	567.62
72.2913	621.70
72.3057	576.71
72.3201	591.42
72.3346	643.76
72.3490	598.45
72.3635	538.93
72.3779	542.53
72.3923	607.83
72.4068	640.71
72.4212	620.56
72.4357	574.83
72.4501	571.94
72.4645	571.21
72.4790	599.25
72.4934	674.98
72.5079	628.55
72.5223	515.27
72.5367	471.31
72.5512	588.45
72.5656	631.15
72.5801	624.89
72.5945	618.22
72.6089	530.88
72.6234	490.09
72.6378	542.37
72.6523	566.49
72.6667	514.17
72.6811	519.92
72.6956	581.72
72.7100	608.72
72.7245	549.03
72.7389	574.91
72.7533	581.21
72.7678	620.03
72.7822	587.08
72.7967	540.79
72.8111	574.23
72.8255	607.47
72.8400	604.69
72.8544	540.96
72.8689	527.69
72.8833	554.74