2022.09.19 19:37:17
Îáðàçåö: ß÷åéêà LCoV 16-09-2022
Lambda1 = 1.54060
Lambda2 = 1.54439
Lambdam = 1.54186
R = 0.497
2Theta	I

line¹ 0 ;repeat¹ 0
22.1120	495.43
22.1264	508.49
22.1409	614.65
22.1553	586.95
22.1697	597.73
22.1842	580.84
22.1986	590.04
22.2131	624.55
22.2275	636.05
22.2419	616.52
22.2564	653.28
22.2708	621.50
22.2853	627.59
22.2997	596.56
22.3141	573.89
22.3286	544.86
22.3430	576.17
22.3575	501.87
22.3719	559.88
22.3863	659.73
22.4008	510.65
22.4152	513.81
22.4297	690.51
22.4441	729.22
22.4585	604.62
22.4730	564.37
22.4874	539.43
22.5019	565.84
22.5163	616.06
22.5307	613.25
22.5452	493.55
22.5596	477.81
22.5741	569.02
22.5885	580.91
22.6029	631.07
22.6174	567.51
22.6318	607.23
22.6463	555.10
22.6607	554.57
22.6751	539.59
22.6896	587.32
22.7040	633.87
22.7185	621.10
22.7329	589.85
22.7473	507.75
22.7618	527.60
22.7762	535.15
22.7907	559.03
22.8051	530.55
22.8195	537.77
22.8340	537.57
22.8484	516.20
22.8629	531.99
22.8773	530.45
22.8917	523.42
22.9062	588.03
22.9206	555.03
22.9351	484.58
22.9495	475.67
22.9639	540.59
22.9784	542.00
22.9928	530.86
23.0073	509.71
23.0217	590.95
23.0361	606.06
23.0506	639.41
23.0650	545.19
23.0795	513.72
23.0939	488.55
23.1083	532.07
23.1228	549.65
23.1372	546.88
23.1517	513.21
23.1661	520.08
23.1806	531.74
23.1950	466.24
23.2094	519.77
23.2239	554.41
23.2383	518.90
23.2528	551.27
23.2672	512.04
23.2816	541.95
23.2961	515.45
23.3105	555.66
23.3250	549.85
23.3394	550.79
23.3538	522.93
23.3683	450.11
23.3827	546.67
23.3972	533.00
23.4116	536.85
23.4260	598.39
23.4405	572.49
23.4549	581.95
23.4694	584.87
23.4838	546.80
23.4982	580.95
23.5127	569.28
23.5271	530.29
23.5416	556.82
23.5560	580.54
23.5704	549.23
23.5849	592.31
23.5993	538.57
23.6138	543.58
23.6282	519.80
23.6426	566.99
23.6571	586.47
23.6715	525.51
23.6860	595.64
23.7004	596.74
23.7148	610.45
23.7293	575.18
23.7437	581.32
23.7582	526.00
23.7726	562.96
23.7870	536.53
23.8015	594.22
23.8159	582.18
23.8304	505.58
23.8448	464.34
23.8592	516.71
23.8737	565.87
23.8881	528.50
23.9026	525.71
23.9170	476.70
23.9314	575.64
23.9459	605.57
23.9603	530.06
23.9748	606.08
23.9892	563.28
24.0036	529.20
24.0181	557.14
24.0325	641.40
24.0470	569.86
24.0614	491.36
24.0758	553.68
24.0903	608.52
24.1047	496.27
24.1192	599.68
24.1336	526.69
24.1480	517.42
24.1625	540.32
24.1769	594.16
24.1914	546.19
24.2058	602.32
24.2202	595.75
24.2347	606.71
24.2491	561.31
24.2636	551.36
24.2780	587.69
24.2924	551.61
24.3069	575.89
24.3213	538.18
24.3358	557.69
24.3502	592.05
24.3646	506.62
24.3791	518.26
24.3935	571.41
24.4080	506.07
24.4224	561.50
24.4368	529.06
24.4513	540.29
24.4657	568.64
24.4802	529.83
24.4946	522.97
24.5090	538.01
24.5235	530.78
24.5379	549.19
24.5524	558.71
24.5668	572.73
24.5812	538.84
24.5957	519.82
24.6101	559.79
24.6246	560.06
24.6390	609.18
24.6534	585.87
24.6679	548.86
24.6823	541.30
24.6968	523.71
24.7112	554.15
24.7256	547.29
24.7401	593.78
24.7545	552.56
24.7690	553.23
24.7834	570.43
24.7978	600.79
24.8123	571.73
24.8267	515.48
24.8412	599.14
24.8556	574.42
24.8700	547.28
24.8845	548.52
24.8989	575.29
24.9134	567.83
24.9278	497.96
24.9422	497.27
24.9567	482.79
24.9711	571.33
24.9856	534.09
25.0000	535.24
25.0144	534.56
25.0289	522.52
25.0433	478.31
25.0578	541.02
25.0722	564.02
25.0866	548.86
25.1011	539.05
25.1155	526.91
25.1300	540.98
25.1444	523.39
25.1588	515.23
25.1733	531.17
25.1877	551.62
25.2022	500.24
25.2166	532.72
25.2310	539.33
25.2455	572.36
25.2599	561.48
25.2744	544.24
25.2888	563.07
25.3032	551.40
25.3177	540.68
25.3321	541.78
25.3466	526.34
25.3610	551.24
25.3754	525.21
25.3899	493.21
25.4043	526.69
25.4188	512.79
25.4332	516.51
25.4476	507.51
25.4621	555.60
25.4765	541.11
25.4910	543.29
25.5054	547.02
25.5198	560.93
25.5343	586.54
25.5487	548.52
25.5632	555.03
25.5776	522.35
25.5920	540.23
25.6065	532.70
25.6209	523.23
25.6354	536.66
25.6498	523.94
25.6642	530.35
25.6787	508.48
25.6931	543.29
25.7076	550.50
25.7220	536.73
25.7364	549.77
25.7509	533.88
25.7653	559.69
25.7798	546.59
25.7942	516.33
25.8086	513.28
25.8231	559.47
25.8375	534.02
25.8520	544.16
25.8664	536.84
25.8808	561.87
25.8953	547.20
25.9097	510.13
25.9242	524.01
25.9386	521.36
25.9530	539.91
25.9675	517.59
25.9819	551.12
25.9964	543.87
26.0108	576.85
26.0252	550.47
26.0397	507.61
26.0541	526.64
26.0686	510.14
26.0830	523.41
26.0974	526.08
26.1119	526.33
26.1263	546.13
26.1408	546.75
26.1552	525.32
26.1696	541.07
26.1841	536.66
26.1985	509.71
26.2130	514.99
26.2274	544.50
26.2418	561.68
26.2563	547.06
26.2707	537.83
26.2852	522.02
26.2996	497.13
26.3140	521.36
26.3285	582.27
26.3429	548.08
26.3574	511.64
26.3718	519.44
26.3862	515.81
26.4007	563.52
26.4151	536.64
26.4296	558.02
26.4440	541.39
26.4584	543.29
26.4729	570.87
26.4873	592.54
26.5018	559.50
26.5162	514.59
26.5306	514.06
26.5451	534.05
26.5595	550.90
26.5740	510.32
26.5884	500.94
26.6028	545.63
26.6173	528.80
26.6317	544.94
26.6462	506.60
26.6606	518.11
26.6750	522.83
26.6895	505.28
26.7039	532.57
26.7184	545.28
26.7328	508.61
26.7472	546.24
26.7617	535.82
26.7761	520.37
26.7906	500.39
26.8050	487.75
26.8194	484.00
26.8339	521.41
26.8483	496.41
26.8628	482.53
26.8772	530.54
26.8917	540.08
26.9061	530.49
26.9205	529.64
26.9350	512.09
26.9494	525.28
26.9639	520.39
26.9783	492.51
26.9927	499.27
27.0072	509.53
27.0216	486.37
27.0361	511.94
27.0505	582.69
27.0649	552.43
27.0794	522.15
27.0938	538.75
27.1083	482.22
27.1227	510.13
27.1371	519.95
27.1516	492.13
27.1660	529.24
27.1805	563.06
27.1949	516.98
27.2093	537.16
27.2238	501.57
27.2382	503.88
27.2527	530.11
27.2671	513.06
27.2815	532.41
27.2960	549.99
27.3104	531.08
27.3249	520.69
27.3393	550.47
27.3537	501.75
27.3682	492.35
27.3826	510.11
27.3971	514.54
27.4115	527.36
27.4259	524.93
27.4404	541.83
27.4548	503.09
27.4693	511.73
27.4837	513.41
27.4981	501.98
27.5126	501.45
27.5270	519.89
27.5415	558.94
27.5559	521.51
27.5703	539.45
27.5848	523.65
27.5992	523.18
27.6137	525.90
27.6281	492.41
27.6425	534.19
27.6570	540.19
27.6714	519.27
27.6859	519.83
27.7003	529.84
27.7147	539.19
27.7292	531.45
27.7436	525.69
27.7581	556.55
27.7725	514.09
27.7869	528.76
27.8014	561.15
27.8158	531.31
27.8303	512.23
27.8447	498.73
27.8591	512.57
27.8736	532.02
27.8880	521.69
27.9025	555.24
27.9169	537.07
27.9313	520.50
27.9458	516.07
27.9602	542.40
27.9747	508.11
27.9891	524.74
28.0035	499.34
28.0180	518.36
28.0324	517.74
28.0469	547.54
28.0613	525.04
28.0757	530.64
28.0902	539.01
28.1046	518.99
28.1191	498.60
28.1335	511.93
28.1479	537.42
28.1624	501.66
28.1768	514.86
28.1913	491.06
28.2057	515.46
28.2201	518.05
28.2346	531.26
28.2490	509.64
28.2635	535.21
28.2779	519.96
28.2923	494.65
28.3068	498.70
28.3212	522.05
28.3357	547.38
28.3501	515.50
28.3645	530.63
28.3790	516.85
28.3934	511.69
28.4079	531.72
28.4223	501.51
28.4367	508.72
28.4512	493.75
28.4656	529.54
28.4801	533.86
28.4945	514.44
28.5089	470.19
28.5234	527.12
28.5378	556.70
28.5523	530.15
28.5667	520.73
28.5811	518.76
28.5956	540.02
28.6100	505.13
28.6245	496.31
28.6389	496.91
28.6533	492.76
28.6678	502.25
28.6822	511.01
28.6967	511.41
28.7111	532.30
28.7255	520.12
28.7400	472.03
28.7544	478.95
28.7689	490.29
28.7833	523.39
28.7977	526.38
28.8122	539.54
28.8266	503.39
28.8411	532.52
28.8555	503.11
28.8699	557.36
28.8844	538.66
28.8988	517.42
28.9133	554.12
28.9277	514.60
28.9421	526.59
28.9566	493.37
28.9710	505.55
28.9855	535.86
28.9999	523.59
29.0143	474.79
29.0288	495.66
29.0432	515.01
29.0577	523.85
29.0721	495.31
29.0865	515.22
29.1010	519.78
29.1154	511.10
29.1299	524.03
29.1443	490.94
29.1587	504.75
29.1732	495.14
29.1876	504.26
29.2021	531.03
29.2165	520.81
29.2309	542.74
29.2454	517.29
29.2598	491.96
29.2743	520.61
29.2887	506.64
29.3031	536.66
29.3176	521.46
29.3320	495.87
29.3465	529.39
29.3609	515.92
29.3753	491.28
29.3898	506.70
29.4042	511.46
29.4187	501.79
29.4331	502.03
29.4475	488.27
29.4620	497.88
29.4764	499.07
29.4909	508.60
29.5053	500.88
29.5197	520.21
29.5342	524.46
29.5486	511.33
29.5631	466.37
29.5775	493.02
29.5919	496.74
29.6064	513.82
29.6208	499.33
29.6353	499.98
29.6497	486.29
29.6641	513.51
29.6786	474.04
29.6930	504.17
29.7075	518.60
29.7219	519.93
29.7363	504.22
29.7508	496.99
29.7652	508.86
29.7797	498.51
29.7941	498.83
29.8085	501.67
29.8230	485.46
29.8374	504.94
29.8519	489.21
29.8663	500.21
29.8807	506.26
29.8952	507.73
29.9096	541.06
29.9241	521.03
29.9385	498.88
29.9529	501.78
29.9674	493.37
29.9818	495.10
29.9963	516.28
30.0107	521.06
30.0251	533.33
30.0396	508.51
30.0540	509.83
30.0685	488.17
30.0829	512.97
30.0973	542.78
30.1118	527.60
30.1262	520.58
30.1407	513.42
30.1551	490.84
30.1695	552.24
30.1840	530.70
30.1984	493.97
30.2129	505.09
30.2273	530.32
30.2417	503.32
30.2562	506.02
30.2706	513.50
30.2851	544.03
30.2995	509.40
30.3139	502.65
30.3284	493.04
30.3428	524.83
30.3573	510.32
30.3717	508.86
30.3861	515.83
30.4006	486.72
30.4150	487.44
30.4295	538.41
30.4439	536.31
30.4583	532.08
30.4728	529.23
30.4872	498.77
30.5017	499.99
30.5161	482.94
30.5305	500.96
30.5450	513.66
30.5594	543.68
30.5739	554.61
30.5883	567.91
30.6028	564.91
30.6172	556.08
30.6316	631.12
30.6461	615.99
30.6605	672.45
30.6750	684.16
30.6894	692.62
30.7038	680.77
30.7183	679.07
30.7327	672.07
30.7472	675.70
30.7616	652.55
30.7760	667.21
30.7905	656.62
30.8049	669.98
30.8194	641.44
30.8338	624.50
30.8482	576.86
30.8627	551.82
30.8771	577.79
30.8916	560.19
30.9060	547.49
30.9204	543.21
30.9349	517.76
30.9493	536.51
30.9638	559.89
30.9782	556.45
30.9926	527.16
31.0071	483.44
31.0215	497.79
31.0360	507.04
31.0504	511.18
31.0648	525.29
31.0793	534.91
31.0937	543.36
31.1082	545.82
31.1226	493.08
31.1370	481.42
31.1515	472.31
31.1659	513.09
31.1804	524.31
31.1948	490.18
31.2092	501.56
31.2237	496.47
31.2381	505.66
31.2526	535.45
31.2670	487.09
31.2814	527.94
31.2959	532.03
31.3103	543.40
31.3248	519.95
31.3392	533.36
31.3536	537.34
31.3681	541.67
31.3825	546.08
31.3970	541.71
31.4114	480.57
31.4258	534.32
31.4403	514.66
31.4547	487.72
31.4692	515.91
31.4836	556.72
31.4980	504.78
31.5125	503.25
31.5269	522.92
31.5414	488.40
31.5558	491.52
31.5702	479.50
31.5847	509.84
31.5991	537.41
31.6136	507.76
31.6280	496.14
31.6424	520.81
31.6569	512.73
31.6713	511.95
31.6858	498.13
31.7002	520.07
31.7146	530.31
31.7291	516.30
31.7435	509.28
31.7580	498.27
31.7724	503.92
31.7868	516.73
31.8013	524.28
31.8157	547.68
31.8302	495.86
31.8446	507.90
31.8590	516.21
31.8735	534.70
31.8879	504.90
31.9024	558.37
31.9168	537.43
31.9312	477.11
31.9457	513.14
31.9601	475.79
31.9746	500.55
31.9890	509.87
32.0034	494.76
32.0179	511.57
32.0323	498.32
32.0468	508.27
32.0612	521.47
32.0756	517.61
32.0901	535.93
32.1045	484.75
32.1190	518.69
32.1334	516.62
32.1478	498.11
32.1623	495.99
32.1767	531.41
32.1912	527.70
32.2056	508.23
32.2200	501.75
32.2345	509.72
32.2489	511.06
32.2634	506.21
32.2778	527.34
32.2922	493.87
32.3067	503.75
32.3211	528.35
32.3356	529.80
32.3500	511.04
32.3644	508.88
32.3789	505.09
32.3933	476.39
32.4078	473.49
32.4222	514.85
32.4366	500.74
32.4511	465.04
32.4655	488.57
32.4800	491.89
32.4944	491.10
32.5088	506.02
32.5233	506.49
32.5377	496.14
32.5522	495.98
32.5666	512.63
32.5810	527.91
32.5955	478.66
32.6099	504.90
32.6244	501.80
32.6388	518.58
32.6532	504.12
32.6677	524.26
32.6821	500.81
32.6966	503.75
32.7110	519.81
32.7254	484.28
32.7399	492.40
32.7543	532.16
32.7688	490.89
32.7832	498.18
32.7976	519.91
32.8121	518.60
32.8265	519.19
32.8410	482.42
32.8554	535.32
32.8698	535.04
32.8843	503.10
32.8987	492.93
32.9132	539.42
32.9276	520.06
32.9420	530.04
32.9565	517.10
32.9709	535.21
32.9854	502.03
32.9998	482.30
33.0142	508.61
33.0287	506.59
33.0431	464.34
33.0576	515.97
33.0720	500.71
33.0864	475.45
33.1009	538.40
33.1153	520.62
33.1298	520.55
33.1442	463.09
33.1586	466.03
33.1731	466.04
33.1875	485.89
33.2020	482.19
33.2164	502.62
33.2308	505.87
33.2453	540.55
33.2597	503.87
33.2742	488.66
33.2886	514.64
33.3030	512.27
33.3175	521.31
33.3319	513.06
33.3464	535.32
33.3608	498.45
33.3752	542.78
33.3897	525.82
33.4041	514.46
33.4186	520.53
33.4330	536.79
33.4474	526.30
33.4619	531.80
33.4763	510.12
33.4908	506.05
33.5052	513.00
33.5196	497.88
33.5341	499.11
33.5485	507.77
33.5630	505.83
33.5774	472.15
33.5918	498.97
33.6063	543.35
33.6207	482.69
33.6352	493.79
33.6496	476.03
33.6640	499.52
33.6785	472.89
33.6929	469.40
33.7074	494.35
33.7218	500.16
33.7362	487.91
33.7507	465.39
33.7651	472.12
33.7796	473.83
33.7940	506.05
33.8084	534.00
33.8229	537.14
33.8373	546.94
33.8518	508.34
33.8662	516.39
33.8806	538.04
33.8951	532.80
33.9095	527.64
33.9240	473.95
33.9384	493.30
33.9528	484.92
33.9673	493.91
33.9817	490.66
33.9962	505.78
34.0106	520.81
34.0250	530.32
34.0395	514.25
34.0539	538.08
34.0684	541.51
34.0828	527.10
34.0972	475.79
34.1117	480.95
34.1261	520.63
34.1406	495.45
34.1550	514.20
34.1694	513.26
34.1839	496.35
34.1983	489.30
34.2128	494.28
34.2272	491.33
34.2417	501.40
34.2561	485.06
34.2705	529.45
34.2850	508.28
34.2994	478.53
34.3139	471.44
34.3283	478.45
34.3427	489.70
34.3572	497.89
34.3716	502.70
34.3861	485.93
34.4005	467.38
34.4149	487.32
34.4294	501.87
34.4438	492.53
34.4583	476.94
34.4727	518.91
34.4871	492.76
34.5016	467.19
34.5160	483.30
34.5305	495.65
34.5449	498.19
34.5593	538.13
34.5738	522.00
34.5882	511.97
34.6027	493.69
34.6171	519.70
34.6315	487.18
34.6460	491.19
34.6604	492.29
34.6749	465.94
34.6893	494.50
34.7037	504.97
34.7182	494.30
34.7326	468.09
34.7471	491.15
34.7615	478.73
34.7759	504.56
34.7904	513.21
34.8048	510.65
34.8193	514.78
34.8337	540.18
34.8481	516.11
34.8626	534.02
34.8770	529.20
34.8915	524.22
34.9059	535.58
34.9203	506.33
34.9348	498.81
34.9492	538.99
34.9637	508.62
34.9781	519.51
34.9925	495.66
35.0070	519.31
35.0214	536.04
35.0359	516.72
35.0503	505.74
35.0647	506.59
35.0792	517.86
35.0936	528.75
35.1081	519.03
35.1225	499.99
35.1369	523.64
35.1514	490.89
35.1658	487.67
35.1803	510.54
35.1947	480.50
35.2091	502.57
35.2236	517.87
35.2380	535.07
35.2525	517.81
35.2669	501.92
35.2813	507.98
35.2958	465.50
35.3102	493.21
35.3247	516.04
35.3391	493.69
35.3535	519.49
35.3680	548.21
35.3824	516.31
35.3969	524.78
35.4113	495.68
35.4257	523.57
35.4402	509.46
35.4546	476.54
35.4691	521.20
35.4835	525.44
35.4979	561.61
35.5124	517.37
35.5268	528.89
35.5413	552.52
35.5557	542.81
35.5701	521.94
35.5846	523.83
35.5990	511.30
35.6135	518.15
35.6279	552.17
35.6423	508.61
35.6568	487.49
35.6712	529.30
35.6857	606.08
35.7001	718.39
35.7145	735.47
35.7290	689.53
35.7434	648.31
35.7579	578.01
35.7723	631.06
35.7867	674.47
35.8012	707.22
35.8156	702.39
35.8301	663.70
35.8445	606.02
35.8589	641.27
35.8734	760.43
35.8878	870.41
35.9023	1019.54
35.9167	992.02
35.9311	1132.97
35.9456	1724.82
35.9600	2148.29
35.9745	1990.78
35.9889	2121.59
36.0033	2448.16
36.0178	3063.17
36.0322	2996.72
36.0467	2225.37
36.0611	1840.69
36.0755	1806.78
36.0900	1844.02
36.1044	1643.38
36.1189	1558.51
36.1333	1574.80
36.1477	1383.84
36.1622	1332.61
36.1766	1332.53
36.1911	1223.95
36.2055	1115.73
36.2199	1107.64
36.2344	1025.98
36.2488	951.80
36.2633	832.20
36.2777	768.72
36.2921	775.66
36.3066	735.88
36.3210	713.98
36.3355	685.38
36.3499	655.52
36.3643	629.80
36.3788	589.47
36.3932	596.90
36.4077	586.14
36.4221	567.99
36.4365	594.33
36.4510	555.04
36.4654	553.62
36.4799	546.10
36.4943	523.91
36.5087	557.14
36.5232	537.62
36.5376	545.11
36.5521	558.78
36.5665	520.26
36.5809	507.36
36.5954	552.42
36.6098	546.57
36.6243	492.95
36.6387	536.83
36.6531	543.03
36.6676	527.91
36.6820	507.23
36.6965	526.15
36.7109	530.69
36.7253	522.94
36.7398	546.60
36.7542	506.14
36.7687	512.11
36.7831	553.09
36.7975	572.12
36.8120	576.11
36.8264	590.36
36.8409	559.02
36.8553	592.68
36.8697	605.76
36.8842	602.37
36.8986	624.43
36.9131	626.92
36.9275	569.05
36.9419	583.91
36.9564	558.39
36.9708	576.68
36.9853	548.83
36.9997	555.23
37.0141	556.03
37.0286	535.90
37.0430	499.15
37.0575	522.37
37.0719	544.64
37.0863	495.71
37.1008	528.84
37.1152	543.49
37.1297	517.35
37.1441	519.41
37.1585	515.22
37.1730	495.63
37.1874	498.50
37.2019	488.00
37.2163	519.17
37.2307	495.57
37.2452	538.06
37.2596	522.38
37.2741	502.74
37.2885	489.05
37.3029	481.94
37.3174	509.52
37.3318	514.08
37.3463	523.86
37.3607	500.21
37.3751	500.09
37.3896	507.44
37.4040	493.79
37.4185	508.11
37.4329	514.85
37.4473	491.90
37.4618	505.41
37.4762	487.59
37.4907	499.66
37.5051	505.66
37.5195	527.46
37.5340	519.29
37.5484	525.03
37.5629	489.46
37.5773	462.77
37.5917	528.05
37.6062	519.61
37.6206	478.90
37.6351	493.41
37.6495	489.61
37.6639	509.22
37.6784	484.59
37.6928	521.62
37.7073	551.82
37.7217	534.80
37.7361	491.40
37.7506	505.66
37.7650	513.55
37.7795	505.08
37.7939	532.28
37.8083	484.39
37.8228	521.16
37.8372	533.29
37.8517	513.04
37.8661	559.91
37.8805	518.27
37.8950	489.06
37.9094	509.43
37.9239	481.29
37.9383	517.05
37.9528	535.68
37.9672	489.27
37.9816	497.28
37.9961	471.02
38.0105	498.29
38.0250	504.53
38.0394	451.26
38.0538	478.70
38.0683	536.87
38.0827	486.87
38.0972	512.68
38.1116	487.98
38.1260	507.40
38.1405	485.40
38.1549	484.40
38.1694	486.37
38.1838	456.90
38.1982	490.78
38.2127	514.74
38.2271	460.61
38.2416	505.79
38.2560	533.94
38.2704	492.30
38.2849	490.97
38.2993	522.15
38.3138	505.99
38.3282	520.17
38.3426	508.42
38.3571	515.25
38.3715	542.85
38.3860	529.16
38.4004	523.16
38.4148	565.27
38.4293	581.09
38.4437	577.60
38.4582	590.63
38.4726	654.44
38.4870	653.31
38.5015	689.99
38.5159	784.77
38.5304	784.45
38.5448	804.59
38.5592	789.79
38.5737	769.00
38.5881	743.21
38.6026	736.35
38.6170	687.23
38.6314	690.17
38.6459	677.57
38.6603	643.80
38.6748	599.87
38.6892	569.71
38.7036	556.49
38.7181	533.59
38.7325	495.64
38.7470	524.60
38.7614	522.68
38.7758	533.42
38.7903	493.32
38.8047	488.49
38.8192	524.29
38.8336	481.14
38.8480	480.35
38.8625	518.57
38.8769	517.49
38.8914	501.22
38.9058	516.43
38.9202	535.24
38.9347	526.88
38.9491	528.80
38.9636	511.06
38.9780	474.78
38.9924	490.32
39.0069	483.46
39.0213	481.23
39.0358	498.17
39.0502	519.92
39.0646	530.04
39.0791	471.02
39.0935	509.65
39.1080	508.17
39.1224	503.57
39.1368	527.04
39.1513	508.76
39.1657	471.90
39.1802	519.50
39.1946	498.78
39.2090	495.55
39.2235	530.83
39.2379	537.29
39.2524	522.17
39.2668	513.53
39.2812	528.77
39.2957	514.82
39.3101	524.08
39.3246	521.00
39.3390	524.40
39.3534	497.29
39.3679	483.26
39.3823	504.10
39.3968	490.45
39.4112	522.17
39.4256	523.15
39.4401	481.24
39.4545	465.52
39.4690	474.29
39.4834	491.44
39.4978	498.85
39.5123	461.80
39.5267	467.35
39.5412	487.03
39.5556	522.58
39.5700	497.58
39.5845	502.68
39.5989	485.37
39.6134	481.44
39.6278	489.61
39.6422	460.03
39.6567	474.20
39.6711	480.59
39.6856	490.87
39.7000	483.16
39.7144	504.58
39.7289	456.31
39.7433	522.12
39.7578	491.00
39.7722	529.94
39.7866	494.57
39.8011	501.87
39.8155	514.83
39.8300	489.68
39.8444	475.38
39.8588	540.29
39.8733	495.13
39.8877	503.92
39.9022	496.97
39.9166	500.48
39.9310	526.85
39.9455	487.80
39.9599	470.33
39.9744	517.69
39.9888	511.65
40.0032	511.34
40.0177	508.84
40.0321	498.39
40.0466	502.96
40.0610	473.20
40.0754	473.74
40.0899	505.45
40.1043	482.54
40.1188	488.75
40.1332	491.03
40.1476	449.90
40.1621	503.34
40.1765	494.41
40.1910	493.04
40.2054	471.49
40.2198	513.03
40.2343	498.44
40.2487	499.48
40.2632	490.67
40.2776	499.29
40.2920	526.10
40.3065	493.49
40.3209	504.16
40.3354	498.54
40.3498	486.71
40.3642	487.35
40.3787	478.81
40.3931	446.54
40.4076	449.67
40.4220	516.26
40.4364	509.92
40.4509	473.35
40.4653	501.88
40.4798	505.07
40.4942	463.22
40.5086	476.75
40.5231	462.33
40.5375	478.06
40.5520	464.22
40.5664	495.83
40.5808	533.39
40.5953	481.06
40.6097	495.82
40.6242	502.26
40.6386	518.52
40.6530	509.08
40.6675	473.19
40.6819	489.24
40.6964	472.98
40.7108	502.72
40.7252	488.75
40.7397	491.04
40.7541	506.11
40.7686	520.52
40.7830	540.50
40.7974	539.92
40.8119	513.79
40.8263	499.79
40.8408	469.19
40.8552	478.61
40.8696	483.46
40.8841	459.88
40.8985	485.22
40.9130	500.44
40.9274	511.69
40.9418	499.98
40.9563	490.81
40.9707	516.90
40.9852	486.07
40.9996	491.65
41.0140	524.76
41.0285	473.61
41.0429	468.24
41.0574	475.16
41.0718	540.99
41.0862	515.86
41.1007	520.05
41.1151	533.01
41.1296	525.19
41.1440	497.44
41.1584	463.37
41.1729	477.42
41.1873	482.30
41.2018	486.10
41.2162	464.79
41.2306	514.06
41.2451	515.29
41.2595	509.32
41.2740	480.01
41.2884	472.50
41.3028	532.04
41.3173	507.27
41.3317	512.95
41.3462	529.13
41.3606	526.33
41.3750	514.66
41.3895	505.38
41.4039	483.64
41.4184	512.71
41.4328	531.92
41.4472	482.38
41.4617	485.59
41.4761	502.58
41.4906	487.52
41.5050	467.50
41.5194	496.85
41.5339	511.17
41.5483	515.17
41.5628	539.82
41.5772	508.35
41.5916	475.70
41.6061	483.89
41.6205	515.19
41.6350	509.90
41.6494	481.39
41.6639	490.47
41.6783	451.85
41.6927	470.12
41.7072	473.93
41.7216	534.68
41.7361	515.99
41.7505	524.33
41.7649	498.32
41.7794	525.87
41.7938	494.30
41.8083	494.53
41.8227	522.25
41.8371	523.89
41.8516	511.17
41.8660	541.46
41.8805	519.41
41.8949	510.71
41.9093	522.71
41.9238	556.89
41.9382	563.39
41.9527	593.44
41.9671	597.04
41.9815	557.45
41.9960	575.40
42.0104	547.12
42.0249	568.92
42.0393	532.50
42.0537	567.62
42.0682	564.47
42.0826	588.10
42.0971	578.40
42.1115	576.90
42.1259	602.31
42.1404	634.87
42.1548	628.42
42.1693	614.59
42.1837	691.67
42.1981	754.96
42.2126	837.89
42.2270	953.67
42.2415	1078.15
42.2559	1212.98
42.2703	1346.20
42.2848	1512.89
42.2992	1621.17
42.3137	1708.03
42.3281	1677.04
42.3425	1606.82
42.3570	1528.59
42.3714	1467.21
42.3859	1407.49
42.4003	1355.56
42.4147	1355.78
42.4292	1355.31
42.4436	1190.76
42.4581	1060.49
42.4725	970.32
42.4869	878.68
42.5014	790.13
42.5158	724.25
42.5303	667.35
42.5447	661.79
42.5591	627.40
42.5736	573.73
42.5880	574.92
42.6025	595.61
42.6169	571.59
42.6313	548.49
42.6458	523.55
42.6602	544.57
42.6747	519.85
42.6891	531.71
42.7035	534.26
42.7180	500.61
42.7324	500.35
42.7469	509.75
42.7613	512.55
42.7757	521.43
42.7902	520.22
42.8046	492.75
42.8191	521.14
42.8335	508.52
42.8479	498.18
42.8624	525.61
42.8768	513.47
42.8913	514.97
42.9057	536.63
42.9201	537.08
42.9346	512.38
42.9490	481.34
42.9635	493.38
42.9779	512.41
42.9923	511.90
43.0068	520.08
43.0212	533.29
43.0357	505.17
43.0501	513.55
43.0645	481.44
43.0790	458.97
43.0934	494.65
43.1079	521.70
43.1223	552.95
43.1367	537.72
43.1512	507.32
43.1656	511.70
43.1801	543.58
43.1945	528.14
43.2089	513.11
43.2234	513.23
43.2378	527.07
43.2523	503.98
43.2667	510.34
43.2811	539.62
43.2956	515.25
43.3100	519.66
43.3245	526.60
43.3389	528.73
43.3533	538.15
43.3678	517.17
43.3822	516.64
43.3967	514.54
43.4111	519.06
43.4255	528.89
43.4400	478.21
43.4544	470.98
43.4689	501.59
43.4833	503.65
43.4977	509.65
43.5122	528.63
43.5266	551.17
43.5411	509.36
43.5555	517.43
43.5699	545.84
43.5844	492.53
43.5988	544.22
43.6133	548.19
43.6277	543.63
43.6421	565.67
43.6566	545.56
43.6710	507.53
43.6855	553.73
43.6999	525.14
43.7143	533.54
43.7288	547.94
43.7432	558.69
43.7577	567.57
43.7721	558.93
43.7865	518.14
43.8010	565.32
43.8154	575.10
43.8299	506.27
43.8443	562.76
43.8587	581.05
43.8732	577.65
43.8876	610.12
43.9021	639.86
43.9165	596.13
43.9309	568.55
43.9454	642.47
43.9598	613.30
43.9743	605.65
43.9887	592.71
44.0031	609.66
44.0176	611.77
44.0320	603.95
44.0465	612.09
44.0609	596.46
44.0753	594.41
44.0898	579.76
44.1042	503.94
44.1187	539.59
44.1331	584.06
44.1475	555.13
44.1620	529.71
44.1764	483.03
44.1909	498.26
44.2053	514.41
44.2197	514.79
44.2342	543.15
44.2486	524.03
44.2631	522.06
44.2775	528.58
44.2919	530.70
44.3064	524.53
44.3208	535.96
44.3353	503.10
44.3497	535.72
44.3641	523.06
44.3786	538.41
44.3930	543.06
44.4075	566.61
44.4219	600.28
44.4363	541.65
44.4508	565.58
44.4652	598.85
44.4797	589.92
44.4941	593.30
44.5085	583.12
44.5230	566.57
44.5374	593.28
44.5519	567.03
44.5663	586.69
44.5807	582.56
44.5952	573.44
44.6096	547.63
44.6241	561.95
44.6385	617.64
44.6529	581.54
44.6674	558.68
44.6818	583.28
44.6963	611.61
44.7107	645.20
44.7251	656.49
44.7396	735.34
44.7540	824.70
44.7685	828.23
44.7829	898.93
44.7973	908.68
44.8118	861.32
44.8262	842.42
44.8407	748.31
44.8551	731.29
44.8695	721.70
44.8840	693.86
44.8984	732.96
44.9129	720.36
44.9273	684.03
44.9417	668.45
44.9562	624.05
44.9706	600.71
44.9851	567.66
44.9995	510.66
45.0139	535.90
45.0284	532.81
45.0428	548.13
45.0573	508.60
45.0717	499.39
45.0861	557.55
45.1006	545.05
45.1150	549.93
45.1295	537.63
45.1439	505.69
45.1583	487.60
45.1728	523.81
45.1872	501.31
45.2017	533.04
45.2161	553.35
45.2305	524.55
45.2450	524.31
45.2594	499.43
45.2739	518.06
45.2883	519.11
45.3028	512.02
45.3172	527.87
45.3316	532.85
45.3461	553.65
45.3605	513.73
45.3750	494.45
45.3894	494.68
45.4038	496.16
45.4183	510.55
45.4327	512.51
45.4472	500.58
45.4616	501.56
45.4760	511.60
45.4905	514.99
45.5049	500.92
45.5194	498.64
45.5338	489.66
45.5482	498.01
45.5627	509.16
45.5771	472.71
45.5916	485.23
45.6060	512.90
45.6204	484.50
45.6349	479.51
45.6493	507.26
45.6638	511.23
45.6782	523.48
45.6926	490.85
45.7071	512.75
45.7215	511.59
45.7360	512.39
45.7504	504.48
45.7648	489.86
45.7793	500.08
45.7937	520.36
45.8082	519.36
45.8226	515.58
45.8370	494.03
45.8515	504.09
45.8659	535.12
45.8804	511.64
45.8948	514.30
45.9092	493.32
45.9237	503.67
45.9381	517.27
45.9526	519.20
45.9670	465.05
45.9814	495.02
45.9959	485.94
46.0103	470.81
46.0248	482.42
46.0392	467.66
46.0536	499.41
46.0681	536.43
46.0825	525.76
46.0970	517.55
46.1114	493.76
46.1258	489.37
46.1403	461.23
46.1547	467.78
46.1692	509.13
46.1836	486.72
46.1980	469.54
46.2125	488.19
46.2269	521.15
46.2414	511.71
46.2558	501.04
46.2702	493.32
46.2847	488.76
46.2991	494.31
46.3136	514.96
46.3280	516.91
46.3424	541.45
46.3569	512.02
46.3713	481.75
46.3858	488.39
46.4002	497.00
46.4146	481.18
46.4291	544.19
46.4435	499.38
46.4580	473.79
46.4724	496.78
46.4868	478.68
46.5013	512.40
46.5157	525.51
46.5302	511.54
46.5446	472.25
46.5590	470.79
46.5735	482.24
46.5879	480.39
46.6024	476.33
46.6168	520.42
46.6312	515.27
46.6457	464.60
46.6601	457.48
46.6746	512.94
46.6890	488.67
46.7034	489.18
46.7179	484.83
46.7323	493.15
46.7468	474.23
46.7612	510.17
46.7756	514.54
46.7901	489.97
46.8045	535.69
46.8190	516.62
46.8334	473.24
46.8478	469.07
46.8623	491.56
46.8767	492.22
46.8912	508.71
46.9056	510.17
46.9200	499.37
46.9345	506.12
46.9489	512.25
46.9634	515.91
46.9778	499.30
46.9922	517.35
47.0067	489.21
47.0211	511.92
47.0356	488.56
47.0500	477.50
47.0644	553.54
47.0789	535.80
47.0933	511.17
47.1078	527.31
47.1222	522.01
47.1366	528.55
47.1511	472.84
47.1655	486.31
47.1800	509.96
47.1944	489.27
47.2088	497.27
47.2233	523.49
47.2377	487.36
47.2522	471.82
47.2666	524.16
47.2810	540.73
47.2955	477.87
47.3099	503.31
47.3244	519.01
47.3388	501.92
47.3532	494.53
47.3677	486.96
47.3821	479.94
47.3966	482.35
47.4110	488.76
47.4254	498.37
47.4399	512.58
47.4543	511.34
47.4688	528.25
47.4832	554.90
47.4976	515.88
47.5121	493.80
47.5265	488.03
47.5410	520.49
47.5554	515.35
47.5698	516.86
47.5843	513.82
47.5987	524.46
47.6132	497.08
47.6276	473.94
47.6420	508.40
47.6565	485.21
47.6709	493.96
47.6854	512.39
47.6998	510.75
47.7142	495.72
47.7287	500.23
47.7431	480.82
47.7576	477.28
47.7720	508.78
47.7864	529.23
47.8009	524.24
47.8153	504.58
47.8298	472.77
47.8442	494.11
47.8586	500.97
47.8731	509.16
47.8875	510.53
47.9020	522.14
47.9164	536.03
47.9308	485.62
47.9453	525.12
47.9597	539.96
47.9742	490.54
47.9886	512.85
48.0030	489.63
48.0175	485.56
48.0319	503.92
48.0464	504.11
48.0608	535.50
48.0752	538.59
48.0897	489.18
48.1041	514.08
48.1186	458.56
48.1330	487.38
48.1474	449.77
48.1619	480.73
48.1763	494.88
48.1908	501.89
48.2052	498.61
48.2196	492.14
48.2341	520.95
48.2485	502.79
48.2630	518.14
48.2774	519.29
48.2918	493.99
48.3063	516.06
48.3207	495.58
48.3352	517.26
48.3496	551.50
48.3640	530.89
48.3785	533.00
48.3929	519.99
48.4074	535.55
48.4218	528.03
48.4362	533.10
48.4507	471.98
48.4651	529.05
48.4796	511.62
48.4940	517.40
48.5084	483.96
48.5229	511.90
48.5373	503.76
48.5518	501.69
48.5662	481.75
48.5806	518.95
48.5951	521.68
48.6095	536.83
48.6240	526.01
48.6384	494.07
48.6528	529.73
48.6673	531.25
48.6817	535.41
48.6962	489.15
48.7106	518.79
48.7250	529.06
48.7395	502.90
48.7539	528.32
48.7684	521.78
48.7828	526.61
48.7972	488.40
48.8117	521.18
48.8261	529.86
48.8406	504.83
48.8550	507.42
48.8694	511.31
48.8839	559.56
48.8983	585.11
48.9128	562.75
48.9272	512.88
48.9416	540.36
48.9561	563.05
48.9705	554.62
48.9850	588.64
48.9994	572.70
49.0139	577.01
49.0283	557.80
49.0427	575.76
49.0572	596.21
49.0716	643.03
49.0861	682.23
49.1005	704.89
49.1149	666.45
49.1294	752.68
49.1438	773.17
49.1583	820.88
49.1727	892.51
49.1871	960.99
49.2016	981.38
49.2160	991.67
49.2305	1130.79
49.2449	1269.53
49.2593	1295.06
49.2738	1350.74
49.2882	1492.39
49.3027	1556.59
49.3171	1611.90
49.3315	1787.61
49.3460	1841.66
49.3604	1875.36
49.3749	1853.92
49.3893	1831.10
49.4037	1805.11
49.4182	1789.54
49.4326	1842.25
49.4471	1664.68
49.4615	1680.28
49.4759	1623.00
49.4904	1527.35
49.5048	1434.30
49.5193	1383.77
49.5337	1325.78
49.5481	1192.80
49.5626	1155.33
49.5770	1061.35
49.5915	1028.66
49.6059	969.67
49.6203	833.34
49.6348	819.24
49.6492	792.08
49.6637	737.54
49.6781	727.17
49.6925	710.99
49.7070	680.78
49.7214	695.98
49.7359	599.34
49.7503	596.75
49.7647	602.11
49.7792	621.18
49.7936	596.24
49.8081	590.16
49.8225	577.74
49.8369	589.94
49.8514	601.78
49.8658	578.16
49.8803	563.58
49.8947	566.66
49.9091	556.34
49.9236	547.61
49.9380	551.86
49.9525	505.97
49.9669	508.32
49.9813	515.29
49.9958	499.85
50.0102	513.89
50.0247	548.83
50.0391	566.86
50.0535	523.99
50.0680	516.79
50.0824	502.64
50.0969	519.06
50.1113	519.19
50.1257	529.11
50.1402	518.50
50.1546	506.77
50.1691	531.47
50.1835	516.58
50.1979	516.88
50.2124	533.87
50.2268	535.33
50.2413	521.45
50.2557	473.71
50.2701	467.20
50.2846	521.20
50.2990	534.70
50.3135	498.12
50.3279	504.08
50.3423	503.29
50.3568	505.03
50.3712	494.98
50.3857	512.98
50.4001	517.69
50.4145	503.58
50.4290	508.45
50.4434	493.43
50.4579	491.93
50.4723	501.56
50.4867	516.66
50.5012	536.94
50.5156	502.71
50.5301	496.08
50.5445	508.36
50.5589	542.98
50.5734	497.59
50.5878	505.64
50.6023	515.49
50.6167	498.57
50.6311	491.08
50.6456	508.90
50.6600	484.12
50.6745	520.13
50.6889	517.54
50.7033	524.43
50.7178	503.21
50.7322	507.46
50.7467	509.94
50.7611	501.19
50.7755	494.86
50.7900	501.67
50.8044	514.94
50.8189	522.82
50.8333	546.16
50.8477	495.58
50.8622	463.30
50.8766	525.50
50.8911	505.67
50.9055	529.88
50.9199	530.91
50.9344	519.01
50.9488	503.49
50.9633	504.18
50.9777	514.77
50.9921	519.66
51.0066	495.50
51.0210	491.50
51.0355	505.91
51.0499	506.96
51.0643	496.03
51.0788	483.91
51.0932	513.14
51.1077	529.69
51.1221	531.81
51.1365	507.75
51.1510	468.93
51.1654	513.82
51.1799	497.68
51.1943	478.69
51.2087	488.49
51.2232	493.97
51.2376	527.89
51.2521	498.25
51.2665	493.93
51.2809	471.58
51.2954	499.49
51.3098	500.38
51.3243	520.87
51.3387	502.23
51.3531	475.84
51.3676	507.28
51.3820	496.57
51.3965	500.11
51.4109	496.86
51.4253	530.54
51.4398	506.22
51.4542	506.88
51.4687	508.22
51.4831	513.18
51.4975	518.32
51.5120	509.07
51.5264	488.88
51.5409	509.51
51.5553	482.60
51.5697	476.57
51.5842	507.71
51.5986	492.14
51.6131	474.88
51.6275	507.05
51.6419	495.98
51.6564	523.07
51.6708	494.82
51.6853	527.81
51.6997	505.57
51.7141	506.66
51.7286	505.07
51.7430	486.37
51.7575	514.09
51.7719	465.41
51.7863	508.71
51.8008	504.25
51.8152	495.67
51.8297	487.78
51.8441	485.96
51.8585	534.17
51.8730	501.80
51.8874	482.44
51.9019	515.05
51.9163	503.73
51.9307	492.68
51.9452	532.60
51.9596	492.55
51.9741	484.42
51.9885	506.67
52.0029	505.01
52.0174	518.33
52.0318	514.82
52.0463	526.63
52.0607	484.61
52.0751	536.22
52.0896	563.51
52.1040	498.88
52.1185	488.54
52.1329	503.97
52.1473	506.93
52.1618	478.18
52.1762	500.28
52.1907	496.08
52.2051	520.39
52.2195	519.22
52.2340	513.83
52.2484	513.72
52.2629	536.26
52.2773	493.47
52.2917	492.23
52.3062	511.23
52.3206	520.77
52.3351	483.60
52.3495	472.19
52.3639	522.83
52.3784	512.04
52.3928	484.90
52.4073	467.96
52.4217	488.66
52.4361	496.78
52.4506	502.48
52.4650	526.60
52.4795	566.67
52.4939	513.94
52.5083	517.62
52.5228	488.60
52.5372	501.28
52.5517	540.25
52.5661	528.45
52.5805	513.98
52.5950	491.98
52.6094	489.02
52.6239	527.35
52.6383	506.16
52.6527	512.93
52.6672	513.15
52.6816	492.42
52.6961	477.93
52.7105	501.28
52.7250	476.48
52.7394	515.78
52.7538	536.00
52.7683	525.71
52.7827	481.15
52.7972	537.28
52.8116	520.67
52.8260	489.33
52.8405	522.76
52.8549	518.72
52.8694	513.62
52.8838	510.04
52.8982	515.29
52.9127	527.67
52.9271	505.29
52.9416	490.45
52.9560	503.25
52.9704	491.42
52.9849	492.35
52.9993	502.97
53.0138	536.42
53.0282	500.92
53.0426	490.87
53.0571	501.01
53.0715	505.89
53.0860	537.36
53.1004	530.88
53.1148	528.37
53.1293	524.87
53.1437	479.52
53.1582	484.51
53.1726	523.51
53.1870	512.42
53.2015	470.49
53.2159	518.21
53.2304	512.05
53.2448	520.86
53.2592	525.50
53.2737	531.75
53.2881	536.06
53.3026	483.42
53.3170	524.03
53.3314	534.56
53.3459	533.83
53.3603	522.21
53.3748	530.09
53.3892	498.87
53.4036	496.52
53.4181	528.27
53.4325	551.01
53.4470	491.00
53.4614	524.76
53.4758	499.38
53.4903	500.31
53.5047	507.06
53.5192	532.17
53.5336	546.64
53.5480	485.54
53.5625	517.74
53.5769	513.60
53.5914	534.60
53.6058	511.31
53.6202	496.34
53.6347	523.16
53.6491	526.74
53.6636	509.74
53.6780	471.55
53.6924	497.46
53.7069	531.84
53.7213	501.27
53.7358	506.36
53.7502	498.25
53.7646	520.39
53.7791	540.52
53.7935	503.98
53.8080	539.82
53.8224	481.75
53.8368	541.27
53.8513	542.13
53.8657	518.12
53.8802	513.70
53.8946	546.15
53.9090	517.40
53.9235	515.76
53.9379	496.18
53.9524	476.60
53.9668	492.74
53.9812	520.26
53.9957	517.46
54.0101	499.18
54.0246	527.83
54.0390	527.24
54.0534	552.37
54.0679	533.89
54.0823	559.58
54.0968	512.89
54.1112	477.89
54.1256	515.55
54.1401	471.41
54.1545	487.96
54.1690	519.48
54.1834	538.33
54.1978	549.48
54.2123	529.62
54.2267	514.56
54.2412	522.05
54.2556	518.79
54.2700	519.90
54.2845	537.81
54.2989	561.67
54.3134	551.40
54.3278	527.35
54.3422	533.23
54.3567	569.87
54.3711	560.32
54.3856	554.29
54.4000	554.34
54.4144	550.35
54.4289	568.27
54.4433	568.20
54.4578	572.86
54.4722	593.92
54.4866	618.26
54.5011	596.28
54.5155	604.99
54.5300	606.19
54.5444	578.73
54.5588	576.66
54.5733	589.33
54.5877	593.48
54.6022	585.91
54.6166	564.01
54.6310	553.65
54.6455	577.20
54.6599	560.67
54.6744	561.58
54.6888	550.44
54.7032	576.67
54.7177	547.62
54.7321	534.15
54.7466	530.01
54.7610	523.62
54.7754	536.34
54.7899	517.95
54.8043	529.42
54.8188	564.64
54.8332	522.32
54.8476	504.91
54.8621	534.45
54.8765	553.32
54.8910	539.55
54.9054	519.10
54.9198	528.11
54.9343	526.51
54.9487	543.65
54.9632	520.40
54.9776	489.04
54.9920	498.14
55.0065	517.60
55.0209	526.70
55.0354	517.90
55.0498	503.72
55.0642	530.52
55.0787	512.73
55.0931	525.16
55.1076	546.11
55.1220	500.93
55.1364	505.53
55.1509	478.42
55.1653	490.47
55.1798	481.44
55.1942	480.01
55.2086	514.04
55.2231	507.22
55.2375	497.78
55.2520	511.93
55.2664	529.02
55.2808	526.54
55.2953	496.76
55.3097	520.01
55.3242	525.17
55.3386	548.91
55.3530	543.66
55.3675	532.19
55.3819	515.09
55.3964	523.71
55.4108	516.38
55.4252	535.71
55.4397	510.50
55.4541	521.72
55.4686	517.78
55.4830	532.92
55.4974	525.73
55.5119	525.96
55.5263	549.00
55.5408	497.17
55.5552	472.61
55.5696	513.98
55.5841	520.88
55.5985	542.28
55.6130	514.49
55.6274	503.40
55.6418	489.18
55.6563	508.00
55.6707	520.45
55.6852	505.57
55.6996	518.83
55.7140	508.29
55.7285	500.95
55.7429	519.69
55.7574	496.40
55.7718	510.95
55.7862	543.50
55.8007	523.59
55.8151	522.62
55.8296	509.55
55.8440	489.71
55.8584	505.79
55.8729	520.38
55.8873	521.37
55.9018	560.08
55.9162	496.20
55.9306	493.90
55.9451	510.84
55.9595	448.95
55.9740	479.06
55.9884	510.24
56.0028	526.83
56.0173	484.35
56.0317	522.85
56.0462	516.91
56.0606	541.05
56.0750	501.81
56.0895	509.41
56.1039	544.29
56.1184	519.46
56.1328	547.63
56.1472	511.77
56.1617	551.40
56.1761	525.40
56.1906	536.68
56.2050	506.71
56.2194	532.08
56.2339	507.56
56.2483	553.30
56.2628	490.12
56.2772	530.72
56.2916	526.03
56.3061	515.37
56.3205	501.81
56.3350	516.00
56.3494	513.37
56.3639	524.78
56.3783	503.99
56.3927	539.05
56.4072	498.01
56.4216	508.42
56.4361	532.91
56.4505	493.35
56.4649	536.91
56.4794	562.29
56.4938	532.90
56.5083	500.22
56.5227	498.32
56.5371	501.94
56.5516	517.66
56.5660	505.65
56.5805	523.57
56.5949	547.59
56.6093	508.73
56.6238	482.66
56.6382	494.09
56.6527	504.07
56.6671	507.66
56.6815	531.52
56.6960	493.41
56.7104	555.41
56.7249	524.29
56.7393	500.99
56.7537	503.80
56.7682	502.94
56.7826	495.47
56.7971	542.08
56.8115	518.09
56.8259	541.05
56.8404	505.85
56.8548	497.13
56.8693	501.38
56.8837	521.78
56.8981	526.95
56.9126	519.94
56.9270	491.37
56.9415	531.02
56.9559	512.93
56.9703	512.93
56.9848	512.34
56.9992	519.87
57.0137	555.43
57.0281	554.19
57.0425	539.78
57.0570	510.96
57.0714	528.88
57.0859	548.04
57.1003	508.63
57.1147	563.47
57.1292	556.13
57.1436	519.48
57.1581	503.91
57.1725	532.93
57.1869	541.70
57.2014	526.82
57.2158	508.86
57.2303	534.71
57.2447	557.29
57.2591	527.57
57.2736	495.08
57.2880	495.75
57.3025	523.41
57.3169	516.12
57.3313	519.65
57.3458	545.66
57.3602	527.37
57.3747	507.25
57.3891	510.15
57.4035	494.25
57.4180	498.06
57.4324	537.33
57.4469	511.70
57.4613	522.84
57.4757	507.31
57.4902	538.38
57.5046	503.82
57.5191	519.37
57.5335	524.34
57.5479	505.59
57.5624	506.02
57.5768	505.90
57.5913	510.59
57.6057	507.27
57.6201	537.67
57.6346	505.81
57.6490	519.39
57.6635	531.13
57.6779	493.01
57.6923	499.49
57.7068	492.05
57.7212	527.02
57.7357	512.20
57.7501	555.22
57.7645	516.54
57.7790	549.16
57.7934	513.84
57.8079	507.83
57.8223	505.41
57.8367	552.44
57.8512	531.53
57.8656	567.84
57.8801	552.79
57.8945	547.92
57.9089	582.57
57.9234	573.30
57.9378	580.47
57.9523	561.82
57.9667	558.62
57.9811	553.94
57.9956	595.72
58.0100	587.31
58.0245	620.05
58.0389	635.55
58.0533	607.01
58.0678	643.12
58.0822	662.43
58.0967	621.67
58.1111	664.60
58.1255	698.66
58.1400	644.86
58.1544	637.25
58.1689	648.03
58.1833	646.23
58.1977	638.09
58.2122	640.38
58.2266	656.03
58.2411	658.69
58.2555	666.82
58.2699	658.77
58.2844	645.94
58.2988	601.83
58.3133	589.53
58.3277	594.41
58.3421	590.77
58.3566	611.33
58.3710	581.19
58.3855	603.11
58.3999	578.09
58.4143	603.00
58.4288	604.15
58.4432	563.32
58.4577	565.30
58.4721	594.87
58.4865	577.10
58.5010	556.30
58.5154	520.35
58.5299	536.90
58.5443	516.87
58.5587	521.88
58.5732	517.40
58.5876	522.94
58.6021	536.62
58.6165	543.67
58.6309	561.49
58.6454	557.85
58.6598	548.08
58.6743	541.98
58.6887	546.18
58.7031	558.01
58.7176	521.78
58.7320	531.82
58.7465	513.75
58.7609	535.19
58.7753	548.57
58.7898	520.70
58.8042	526.78
58.8187	557.05
58.8331	537.85
58.8475	519.22
58.8620	561.46
58.8764	551.70
58.8909	551.79
58.9053	588.34
58.9197	580.36
58.9342	554.40
58.9486	550.90
58.9631	523.58
58.9775	498.24
58.9919	512.07
59.0064	537.46
59.0208	551.78
59.0353	561.89
59.0497	547.76
59.0641	556.28
59.0786	544.97
59.0930	574.73
59.1075	567.17
59.1219	531.38
59.1363	526.98
59.1508	522.71
59.1652	561.17
59.1797	540.38
59.1941	547.74
59.2085	565.18
59.2230	555.36
59.2374	534.27
59.2519	603.26
59.2663	567.47
59.2807	541.47
59.2952	530.04
59.3096	561.21
59.3241	543.99
59.3385	561.90
59.3529	567.06
59.3674	588.43
59.3818	543.75
59.3963	546.31
59.4107	577.91
59.4251	582.62
59.4396	544.35
59.4540	558.94
59.4685	561.92
59.4829	582.82
59.4973	561.05
59.5118	515.99
59.5262	514.71
59.5407	550.10
59.5551	567.69
59.5695	570.99
59.5840	559.52
59.5984	546.01
59.6129	523.35
59.6273	541.31
59.6417	587.49
59.6562	576.53
59.6706	503.19
59.6851	533.07
59.6995	558.63
59.7139	553.00
59.7284	553.15
59.7428	539.78
59.7573	528.63
59.7717	524.56
59.7861	525.76
59.8006	517.16
59.8150	524.72
59.8295	542.16
59.8439	539.17
59.8583	552.13
59.8728	520.73
59.8872	516.81
59.9017	573.44
59.9161	532.19
59.9305	500.08
59.9450	537.56
59.9594	500.69
59.9739	560.46
59.9883	546.08
60.0027	531.28
60.0172	554.19
60.0316	588.38
60.0461	558.29
60.0605	558.30
60.0750	535.15
60.0894	576.02
60.1038	540.76
60.1183	534.97
60.1327	556.69
60.1472	537.05
60.1616	514.82
60.1760	529.16
60.1905	521.65
60.2049	515.30
60.2194	555.89
60.2338	539.43
60.2482	538.94
60.2627	507.30
60.2771	536.63
60.2916	523.31
60.3060	537.77
60.3204	520.96
60.3349	553.34
60.3493	558.53
60.3638	538.76
60.3782	539.73
60.3926	504.20
60.4071	521.42
60.4215	555.25
60.4360	511.84
60.4504	536.08
60.4648	554.80
60.4793	520.11
60.4937	527.02
60.5082	502.94
60.5226	555.43
60.5370	538.56
60.5515	535.71
60.5659	537.44
60.5804	553.87
60.5948	531.06
60.6092	544.54
60.6237	547.54
60.6381	545.74
60.6526	533.94
60.6670	558.73
60.6814	519.67
60.6959	530.36
60.7103	555.36
60.7248	536.86
60.7392	517.36
60.7536	519.29
60.7681	538.40
60.7825	542.11
60.7970	543.66
60.8114	529.17
60.8258	544.59
60.8403	486.35
60.8547	566.69
60.8692	580.28
60.8836	516.72
60.8980	530.74
60.9125	559.38
60.9269	516.34
60.9414	547.06
60.9558	553.35
60.9702	534.23
60.9847	495.44
60.9991	504.08
61.0136	546.72
61.0280	565.53
61.0424	528.06
61.0569	533.27
61.0713	500.66
61.0858	562.42
61.1002	557.90
61.1146	522.44
61.1291	552.01
61.1435	497.70
61.1580	521.08
61.1724	529.40
61.1868	532.17
61.2013	514.16
61.2157	528.92
61.2302	508.56
61.2446	558.94
61.2590	546.88
61.2735	495.92
61.2879	541.04
61.3024	570.65
61.3168	533.64
61.3312	538.38
61.3457	546.68
61.3601	548.39
61.3746	558.15
61.3890	531.17
61.4034	524.35
61.4179	547.09
61.4323	538.60
61.4468	521.25
61.4612	535.10
61.4756	538.14
61.4901	542.81
61.5045	539.00
61.5190	530.98
61.5334	551.51
61.5478	556.05
61.5623	571.60
61.5767	538.18
61.5912	555.37
61.6056	575.64
61.6200	552.35
61.6345	541.03
61.6489	590.86
61.6634	545.77
61.6778	516.25
61.6922	574.66
61.7067	540.07
61.7211	526.00
61.7356	540.62
61.7500	543.80
61.7644	531.58
61.7789	567.55
61.7933	557.98
61.8078	534.44
61.8222	561.20
61.8366	584.90
61.8511	550.29
61.8655	569.85
61.8800	518.12
61.8944	542.93
61.9088	562.07
61.9233	549.41
61.9377	548.35
61.9522	569.66
61.9666	579.30
61.9810	543.40
61.9955	561.40
62.0099	563.95
62.0244	544.05
62.0388	534.76
62.0532	552.15
62.0677	540.80
62.0821	523.06
62.0966	528.31
62.1110	570.42
62.1254	561.62
62.1399	549.21
62.1543	529.01
62.1688	556.84
62.1832	566.56
62.1976	542.38
62.2121	544.04
62.2265	557.19
62.2410	541.33
62.2554	566.78
62.2698	551.54
62.2843	557.49
62.2987	525.13
62.3132	547.25
62.3276	542.85
62.3420	519.81
62.3565	549.77
62.3709	565.34
62.3854	558.14
62.3998	549.68
62.4142	539.08
62.4287	575.92
62.4431	550.03
62.4576	511.97
62.4720	566.57
62.4864	580.83
62.5009	588.34
62.5153	555.18
62.5298	542.76
62.5442	532.53
62.5586	525.99
62.5731	540.62
62.5875	554.26
62.6020	554.21
62.6164	549.16
62.6308	524.37
62.6453	552.38
62.6597	567.18
62.6742	544.84
62.6886	514.87
62.7030	529.62
62.7175	524.46
62.7319	505.17
62.7464	521.03
62.7608	575.75
62.7752	568.48
62.7897	555.80
62.8041	594.91
62.8186	566.94
62.8330	565.08
62.8474	549.17
62.8619	598.86
62.8763	563.94
62.8908	557.91
62.9052	582.89
62.9196	558.70
62.9341	573.03
62.9485	531.44
62.9630	520.61
62.9774	566.55
62.9918	566.35
63.0063	552.56
63.0207	527.88
63.0352	551.21
63.0496	567.59
63.0640	578.62
63.0785	562.60
63.0929	552.99
63.1074	583.10
63.1218	588.37
63.1362	587.83
63.1507	572.64
63.1651	576.42
63.1796	551.05
63.1940	562.35
63.2084	551.39
63.2229	606.36
63.2373	575.36
63.2518	578.32
63.2662	564.96
63.2806	569.96
63.2951	589.95
63.3095	599.05
63.3240	571.51
63.3384	596.11
63.3528	594.02
63.3673	602.79
63.3817	590.39
63.3962	547.54
63.4106	561.92
63.4250	596.29
63.4395	597.89
63.4539	578.07
63.4684	580.51
63.4828	605.83
63.4972	591.83
63.5117	565.11
63.5261	574.66
63.5406	596.55
63.5550	608.59
63.5694	610.12
63.5839	626.47
63.5983	583.63
63.6128	589.39
63.6272	595.25
63.6416	628.66
63.6561	665.11
63.6705	678.29
63.6850	670.31
63.6994	669.86
63.7138	678.19
63.7283	707.91
63.7427	721.41
63.7572	692.56
63.7716	731.54
63.7861	755.09
63.8005	783.71
63.8149	773.30
63.8294	744.97
63.8438	769.29
63.8583	803.37
63.8727	809.43
63.8871	783.66
63.9016	864.84
63.9160	788.81
63.9305	842.73
63.9449	821.62
63.9593	780.43
63.9738	785.55
63.9882	822.08
64.0027	818.57
64.0171	762.76
64.0315	768.39
64.0460	714.17
64.0604	786.93
64.0749	767.31
64.0893	737.88
64.1037	753.80
64.1182	772.95
64.1326	694.90
64.1471	615.26
64.1615	708.30
64.1759	666.57
64.1904	648.28
64.2048	641.83
64.2193	635.83
64.2337	647.29
64.2481	661.13
64.2626	628.95
64.2770	619.45
64.2915	607.87
64.3059	621.96
64.3203	645.09
64.3348	622.00
64.3492	635.62
64.3637	611.18
64.3781	606.44
64.3925	607.25
64.4070	596.45
64.4214	666.58
64.4359	643.51
64.4503	633.26
64.4647	672.76
64.4792	646.89
64.4936	652.44
64.5081	667.39
64.5225	625.69
64.5369	632.34
64.5514	645.39
64.5658	625.80
64.5803	628.42
64.5947	637.20
64.6091	602.70
64.6236	625.41
64.6380	656.92
64.6525	675.53
64.6669	645.36
64.6813	705.93
64.6958	654.47
64.7102	700.02
64.7247	654.63
64.7391	675.10
64.7535	697.28
64.7680	715.11
64.7824	704.06
64.7969	714.16
64.8113	777.28
64.8257	779.12
64.8402	830.96
64.8546	850.06
64.8691	837.75
64.8835	855.04
64.8979	852.90
64.9124	862.34
64.9268	862.45
64.9413	901.55
64.9557	920.92
64.9701	980.75
64.9846	1069.79
64.9990	1154.50
65.0135	1189.45
65.0279	1407.14
65.0423	1623.70
65.0568	2007.67
65.0712	2491.64
65.0857	3134.48
65.1001	4242.00
65.1145	5695.71
65.1290	7463.78
65.1434	9246.46
65.1579	10795.75
65.1723	11676.22
65.1867	11632.15
65.2012	10313.48
65.2156	8662.95
65.2301	6710.00
65.2445	5380.63
65.2589	4375.52
65.2734	3999.70
65.2878	4253.15
65.3023	4769.88
65.3167	5590.60
65.3311	6376.33
65.3456	6826.01
65.3600	6936.88
65.3745	6370.26
65.3889	5452.88
65.4033	4515.97
65.4178	3543.92
65.4322	2803.49
65.4467	2085.15
65.4611	1732.98
65.4755	1496.77
65.4900	1247.86
65.5044	1149.43
65.5189	1077.55
65.5333	1004.67
65.5477	967.83
65.5622	948.51
65.5766	863.70
65.5911	767.96
65.6055	750.84
65.6199	748.14
65.6344	758.69
65.6488	735.34
65.6633	733.24
65.6777	735.78
65.6921	723.89
65.7066	729.42
65.7210	720.49
65.7355	637.72
65.7499	657.28
65.7643	663.73
65.7788	699.09
65.7932	726.33
65.8077	706.95
65.8221	685.04
65.8365	662.86
65.8510	697.60
65.8654	663.28
65.8799	615.68
65.8943	608.67
65.9087	650.27
65.9232	654.78
65.9376	635.58
65.9521	620.11
65.9665	599.67
65.9809	635.42
65.9954	645.58
66.0098	648.71
66.0243	632.99
66.0387	620.80
66.0531	654.96
66.0676	627.04
66.0820	634.93
66.0965	628.47
66.1109	611.93
66.1253	608.36
66.1398	584.81
66.1542	552.46
66.1687	600.18
66.1831	626.77
66.1975	592.84
66.2120	604.32
66.2264	625.22
66.2409	625.92
66.2553	570.39
66.2697	603.09
66.2842	599.05
66.2986	614.97
66.3131	636.49
66.3275	610.32
66.3419	625.75
66.3564	615.57
66.3708	631.71
66.3853	591.12
66.3997	588.99
66.4141	592.97
66.4286	618.83
66.4430	612.79
66.4575	590.92
66.4719	620.20
66.4863	590.10
66.5008	586.65
66.5152	581.00
66.5297	604.28
66.5441	597.54
66.5585	610.49
66.5730	609.49
66.5874	607.42
66.6019	621.89
66.6163	592.73
66.6307	578.36
66.6452	595.48
66.6596	631.26
66.6741	596.03
66.6885	599.80
66.7029	630.34
66.7174	625.98
66.7318	577.83
66.7463	571.00
66.7607	586.29
66.7751	602.63
66.7896	605.26
66.8040	605.31
66.8185	589.96
66.8329	586.96
66.8473	583.85
66.8618	613.72
66.8762	596.66
66.8907	545.22
66.9051	584.79
66.9195	570.21
66.9340	581.45
66.9484	579.67
66.9629	557.63
66.9773	571.70
66.9917	552.70
67.0062	564.48
67.0206	582.48
67.0351	630.49
67.0495	605.50
67.0639	581.13
67.0784	581.59
67.0928	637.03
67.1073	578.64
67.1217	613.80
67.1361	586.95
67.1506	575.05
67.1650	577.36
67.1795	597.30
67.1939	581.56
67.2083	586.69
67.2228	593.26
67.2372	611.84
67.2517	603.75
67.2661	585.44
67.2805	560.70
67.2950	563.31
67.3094	569.91
67.3239	592.19
67.3383	588.91
67.3527	597.22
67.3672	582.95
67.3816	566.15
67.3961	558.35
67.4105	553.54
67.4250	592.06
67.4394	598.64
67.4538	548.77
67.4683	563.39
67.4827	569.12
67.4972	555.17
67.5116	566.98
67.5260	579.49
67.5405	587.36
67.5549	590.84
67.5694	582.24
67.5838	577.71
67.5982	562.38
67.6127	557.02
67.6271	555.30
67.6416	540.80
67.6560	578.82
67.6704	553.70
67.6849	535.50
67.6993	536.33
67.7138	571.95
67.7282	587.99
67.7426	598.60
67.7571	570.73
67.7715	561.35
67.7860	580.87
67.8004	571.35
67.8148	577.02
67.8293	562.68
67.8437	561.56
67.8582	568.34
67.8726	573.47
67.8870	575.83
67.9015	577.04
67.9159	582.15
67.9304	569.96
67.9448	610.06
67.9592	523.95
67.9737	561.03
67.9881	554.64
68.0026	568.53
68.0170	551.21
68.0314	595.23
68.0459	550.26
68.0603	556.50
68.0748	567.38
68.0892	617.38
68.1036	594.55
68.1181	580.54
68.1325	589.97
68.1470	559.50
68.1614	573.39
68.1758	585.65
68.1903	571.65
68.2047	564.81
68.2192	604.90
68.2336	569.08
68.2480	596.38
68.2625	581.95
68.2769	588.41
68.2914	581.40
68.3058	572.29
68.3202	573.69
68.3347	586.46
68.3491	604.24
68.3636	586.42
68.3780	561.34
68.3924	586.92
68.4069	592.09
68.4213	564.22
68.4358	572.55
68.4502	559.53
68.4646	618.38
68.4791	578.11
68.4935	570.15
68.5080	563.18
68.5224	562.34
68.5368	566.01
68.5513	601.62
68.5657	607.59
68.5802	584.34
68.5946	563.18
68.6090	580.87
68.6235	615.97
68.6379	588.23
68.6524	569.04
68.6668	561.38
68.6812	574.47
68.6957	541.84
68.7101	566.01
68.7246	557.11
68.7390	566.96
68.7534	580.05
68.7679	560.84
68.7823	578.85
68.7968	523.11
68.8112	560.26
68.8256	557.73
68.8401	585.48
68.8545	594.20
68.8690	590.32
68.8834	569.67
68.8978	615.45
68.9123	605.77
68.9267	584.86
68.9412	547.64
68.9556	548.97
68.9700	586.09
68.9845	630.61
68.9989	590.48
69.0134	586.11
69.0278	597.45
69.0422	580.58
69.0567	598.89
69.0711	586.03
69.0856	606.65
69.1000	564.57
69.1144	595.16
69.1289	562.58
69.1433	627.32
69.1578	562.69
69.1722	541.76
69.1866	597.10
69.2011	570.19
69.2155	571.81
69.2300	583.68
69.2444	565.11
69.2588	554.14
69.2733	560.75
69.2877	588.49
69.3022	565.60
69.3166	571.31
69.3310	589.14
69.3455	573.07
69.3599	572.19
69.3744	566.08
69.3888	571.54
69.4032	562.10
69.4177	599.02
69.4321	628.23
69.4466	559.58
69.4610	577.13
69.4754	624.74
69.4899	576.39
69.5043	572.40
69.5188	531.99
69.5332	572.84
69.5476	583.48
69.5621	582.11
69.5765	566.09
69.5910	585.46
69.6054	614.40
69.6198	549.83
69.6343	648.05
69.6487	601.78
69.6632	577.97
69.6776	620.87
69.6920	582.54
69.7065	624.19
69.7209	602.68
69.7354	564.15
69.7498	561.18
69.7642	602.76
69.7787	652.57
69.7931	588.24
69.8076	585.76
69.8220	582.08
69.8364	574.22
69.8509	545.07
69.8653	563.53
69.8798	564.05
69.8942	586.81
69.9086	554.92
69.9231	529.40
69.9375	564.35
69.9520	594.74
69.9664	603.91
69.9808	586.80
69.9953	575.28
70.0097	536.80
70.0242	575.74
70.0386	566.66
70.0530	574.10
70.0675	592.45
70.0819	558.67
70.0964	578.04
70.1108	612.12
70.1252	596.10
70.1397	591.76
70.1541	586.07
70.1686	584.17
70.1830	563.99
70.1974	596.02
70.2119	586.17
70.2263	539.71
70.2408	533.28
70.2552	577.89
70.2696	539.75
70.2841	529.29
70.2985	570.48
70.3130	547.18
70.3274	551.24
70.3418	566.45
70.3563	587.38
70.3707	575.63
70.3852	556.40
70.3996	595.01
70.4140	572.98
70.4285	625.20
70.4429	562.18
70.4574	598.35
70.4718	647.19
70.4862	624.80
70.5007	571.95
70.5151	578.64
70.5296	563.88
70.5440	641.68
70.5584	553.69
70.5729	544.06
70.5873	550.40
70.6018	569.46
70.6162	625.07
70.6306	604.87
70.6451	627.39
70.6595	551.53
70.6740	532.72
70.6884	497.23
70.7028	581.20
70.7173	581.79
70.7317	558.06
70.7462	521.17
70.7606	532.17
70.7750	584.05
70.7895	572.84
70.8039	628.97
70.8184	567.13
70.8328	532.53
70.8472	546.77
70.8617	575.40
70.8761	564.96
70.8906	542.38
70.9050	572.45
70.9194	588.96
70.9339	593.65
70.9483	604.85
70.9628	588.40
70.9772	603.44
70.9916	603.18
71.0061	551.54
71.0205	599.98
71.0350	596.80
71.0494	578.91
71.0638	579.51
71.0783	565.44
71.0927	573.86
71.1072	569.48
71.1216	545.99
71.1361	578.82
71.1505	627.36
71.1649	619.42
71.1794	581.32
71.1938	544.04
71.2083	592.13
71.2227	561.91
71.2371	493.59
71.2516	557.89
71.2660	551.16
71.2805	525.85
71.2949	541.32
71.3093	556.02
71.3238	561.83
71.3382	582.40
71.3527	614.23
71.3671	576.39
71.3815	569.70
71.3960	552.23
71.4104	547.28
71.4249	603.02
71.4393	614.36
71.4537	530.25
71.4682	538.24
71.4826	553.88
71.4971	568.44
71.5115	558.14
71.5259	537.14
71.5404	580.43
71.5548	599.98
71.5693	583.03
71.5837	566.90
71.5981	583.26
71.6126	594.92
71.6270	589.24
71.6415	582.48
71.6559	591.46
71.6703	616.32
71.6848	578.11
71.6992	585.85
71.7137	568.24
71.7281	562.34
71.7425	550.19
71.7570	540.75
71.7714	615.28
71.7859	552.06
71.8003	534.30
71.8147	601.25
71.8292	641.66
71.8436	618.91
71.8581	596.05
71.8725	584.57
71.8869	584.61
71.9014	633.47
71.9158	592.60
71.9303	575.42
71.9447	533.29
71.9591	596.02
71.9736	636.57
71.9880	579.12
72.0025	529.07
72.0169	562.70
72.0313	633.44
72.0458	592.53
72.0602	531.66
72.0747	494.74
72.0891	554.41
72.1035	601.46
72.1180	567.65
72.1324	593.24
72.1469	537.84
72.1613	572.32
72.1757	645.35
72.1902	665.96
72.2046	565.94
72.2191	569.83
72.2335	622.06
72.2479	579.51
72.2624	555.33
72.2768	582.82
72.2913	550.31
72.3057	577.98
72.3201	570.18
72.3346	512.56
72.3490	599.11
72.3635	594.71
72.3779	588.65
72.3923	558.58
72.4068	518.34
72.4212	569.92
72.4357	699.78
72.4501	720.97
72.4645	651.01
72.4790	534.14
72.4934	529.97
72.5079	609.81
72.5223	612.80
72.5367	599.37
72.5512	609.60
72.5656	569.84
72.5801	558.58
72.5945	556.75
72.6089	540.76
72.6234	587.69
72.6378	525.29
72.6523	620.19
72.6667	637.10
72.6811	652.54
72.6956	690.11
72.7100	638.73
72.7245	572.94
72.7389	598.28
72.7533	561.59
72.7678	518.15
72.7822	588.06
72.7967	552.16
72.8111	509.25
72.8255	592.56
72.8400	597.88
72.8544	557.38
72.8689	528.03
72.8833	523.09

Result vector
22.1120	495.43
22.1264	508.49
22.1409	614.65
22.1553	586.95
22.1697	597.73
22.1842	580.84
22.1986	590.04
22.2131	624.55
22.2275	636.05
22.2419	616.52
22.2564	653.28
22.2708	621.50
22.2853	627.59
22.2997	596.56
22.3141	573.89
22.3286	544.86
22.3430	576.17
22.3575	501.87
22.3719	559.88
22.3863	659.73
22.4008	510.65
22.4152	513.81
22.4297	690.51
22.4441	729.22
22.4585	604.62
22.4730	564.37
22.4874	539.43
22.5019	565.84
22.5163	616.06
22.5307	613.25
22.5452	493.55
22.5596	477.81
22.5741	569.02
22.5885	580.91
22.6029	631.07
22.6174	567.51
22.6318	607.23
22.6463	555.10
22.6607	554.57
22.6751	539.59
22.6896	587.32
22.7040	633.87
22.7185	621.10
22.7329	589.85
22.7473	507.75
22.7618	527.60
22.7762	535.15
22.7907	559.03
22.8051	530.55
22.8195	537.77
22.8340	537.57
22.8484	516.20
22.8629	531.99
22.8773	530.45
22.8917	523.42
22.9062	588.03
22.9206	555.03
22.9351	484.58
22.9495	475.67
22.9639	540.59
22.9784	542.00
22.9928	530.86
23.0073	509.71
23.0217	590.95
23.0361	606.06
23.0506	639.41
23.0650	545.19
23.0795	513.72
23.0939	488.55
23.1083	532.07
23.1228	549.65
23.1372	546.88
23.1517	513.21
23.1661	520.08
23.1806	531.74
23.1950	466.24
23.2094	519.77
23.2239	554.41
23.2383	518.90
23.2528	551.27
23.2672	512.04
23.2816	541.95
23.2961	515.45
23.3105	555.66
23.3250	549.85
23.3394	550.79
23.3538	522.93
23.3683	450.11
23.3827	546.67
23.3972	533.00
23.4116	536.85
23.4260	598.39
23.4405	572.49
23.4549	581.95
23.4694	584.87
23.4838	546.80
23.4982	580.95
23.5127	569.28
23.5271	530.29
23.5416	556.82
23.5560	580.54
23.5704	549.23
23.5849	592.31
23.5993	538.57
23.6138	543.58
23.6282	519.80
23.6426	566.99
23.6571	586.47
23.6715	525.51
23.6860	595.64
23.7004	596.74
23.7148	610.45
23.7293	575.18
23.7437	581.32
23.7582	526.00
23.7726	562.96
23.7870	536.53
23.8015	594.22
23.8159	582.18
23.8304	505.58
23.8448	464.34
23.8592	516.71
23.8737	565.87
23.8881	528.50
23.9026	525.71
23.9170	476.70
23.9314	575.64
23.9459	605.57
23.9603	530.06
23.9748	606.08
23.9892	563.28
24.0036	529.20
24.0181	557.14
24.0325	641.40
24.0470	569.86
24.0614	491.36
24.0758	553.68
24.0903	608.52
24.1047	496.27
24.1192	599.68
24.1336	526.69
24.1480	517.42
24.1625	540.32
24.1769	594.16
24.1914	546.19
24.2058	602.32
24.2202	595.75
24.2347	606.71
24.2491	561.31
24.2636	551.36
24.2780	587.69
24.2924	551.61
24.3069	575.89
24.3213	538.18
24.3358	557.69
24.3502	592.05
24.3646	506.62
24.3791	518.26
24.3935	571.41
24.4080	506.07
24.4224	561.50
24.4368	529.06
24.4513	540.29
24.4657	568.64
24.4802	529.83
24.4946	522.97
24.5090	538.01
24.5235	530.78
24.5379	549.19
24.5524	558.71
24.5668	572.73
24.5812	538.84
24.5957	519.82
24.6101	559.79
24.6246	560.06
24.6390	609.18
24.6534	585.87
24.6679	548.86
24.6823	541.30
24.6968	523.71
24.7112	554.15
24.7256	547.29
24.7401	593.78
24.7545	552.56
24.7690	553.23
24.7834	570.43
24.7978	600.79
24.8123	571.73
24.8267	515.48
24.8412	599.14
24.8556	574.42
24.8700	547.28
24.8845	548.52
24.8989	575.29
24.9134	567.83
24.9278	497.96
24.9422	497.27
24.9567	482.79
24.9711	571.33
24.9856	534.09
25.0000	535.24
25.0144	534.56
25.0289	522.52
25.0433	478.31
25.0578	541.02
25.0722	564.02
25.0866	548.86
25.1011	539.05
25.1155	526.91
25.1300	540.98
25.1444	523.39
25.1588	515.23
25.1733	531.17
25.1877	551.62
25.2022	500.24
25.2166	532.72
25.2310	539.33
25.2455	572.36
25.2599	561.48
25.2744	544.24
25.2888	563.07
25.3032	551.40
25.3177	540.68
25.3321	541.78
25.3466	526.34
25.3610	551.24
25.3754	525.21
25.3899	493.21
25.4043	526.69
25.4188	512.79
25.4332	516.51
25.4476	507.51
25.4621	555.60
25.4765	541.11
25.4910	543.29
25.5054	547.02
25.5198	560.93
25.5343	586.54
25.5487	548.52
25.5632	555.03
25.5776	522.35
25.5920	540.23
25.6065	532.70
25.6209	523.23
25.6354	536.66
25.6498	523.94
25.6642	530.35
25.6787	508.48
25.6931	543.29
25.7076	550.50
25.7220	536.73
25.7364	549.77
25.7509	533.88
25.7653	559.69
25.7798	546.59
25.7942	516.33
25.8086	513.28
25.8231	559.47
25.8375	534.02
25.8520	544.16
25.8664	536.84
25.8808	561.87
25.8953	547.20
25.9097	510.13
25.9242	524.01
25.9386	521.36
25.9530	539.91
25.9675	517.59
25.9819	551.12
25.9964	543.87
26.0108	576.85
26.0252	550.47
26.0397	507.61
26.0541	526.64
26.0686	510.14
26.0830	523.41
26.0974	526.08
26.1119	526.33
26.1263	546.13
26.1408	546.75
26.1552	525.32
26.1696	541.07
26.1841	536.66
26.1985	509.71
26.2130	514.99
26.2274	544.50
26.2418	561.68
26.2563	547.06
26.2707	537.83
26.2852	522.02
26.2996	497.13
26.3140	521.36
26.3285	582.27
26.3429	548.08
26.3574	511.64
26.3718	519.44
26.3862	515.81
26.4007	563.52
26.4151	536.64
26.4296	558.02
26.4440	541.39
26.4584	543.29
26.4729	570.87
26.4873	592.54
26.5018	559.50
26.5162	514.59
26.5306	514.06
26.5451	534.05
26.5595	550.90
26.5740	510.32
26.5884	500.94
26.6028	545.63
26.6173	528.80
26.6317	544.94
26.6462	506.60
26.6606	518.11
26.6750	522.83
26.6895	505.28
26.7039	532.57
26.7184	545.28
26.7328	508.61
26.7472	546.24
26.7617	535.82
26.7761	520.37
26.7906	500.39
26.8050	487.75
26.8194	484.00
26.8339	521.41
26.8483	496.41
26.8628	482.53
26.8772	530.54
26.8917	540.08
26.9061	530.49
26.9205	529.64
26.9350	512.09
26.9494	525.28
26.9639	520.39
26.9783	492.51
26.9927	499.27
27.0072	509.53
27.0216	486.37
27.0361	511.94
27.0505	582.69
27.0649	552.43
27.0794	522.15
27.0938	538.75
27.1083	482.22
27.1227	510.13
27.1371	519.95
27.1516	492.13
27.1660	529.24
27.1805	563.06
27.1949	516.98
27.2093	537.16
27.2238	501.57
27.2382	503.88
27.2527	530.11
27.2671	513.06
27.2815	532.41
27.2960	549.99
27.3104	531.08
27.3249	520.69
27.3393	550.47
27.3537	501.75
27.3682	492.35
27.3826	510.11
27.3971	514.54
27.4115	527.36
27.4259	524.93
27.4404	541.83
27.4548	503.09
27.4693	511.73
27.4837	513.41
27.4981	501.98
27.5126	501.45
27.5270	519.89
27.5415	558.94
27.5559	521.51
27.5703	539.45
27.5848	523.65
27.5992	523.18
27.6137	525.90
27.6281	492.41
27.6425	534.19
27.6570	540.19
27.6714	519.27
27.6859	519.83
27.7003	529.84
27.7147	539.19
27.7292	531.45
27.7436	525.69
27.7581	556.55
27.7725	514.09
27.7869	528.76
27.8014	561.15
27.8158	531.31
27.8303	512.23
27.8447	498.73
27.8591	512.57
27.8736	532.02
27.8880	521.69
27.9025	555.24
27.9169	537.07
27.9313	520.50
27.9458	516.07
27.9602	542.40
27.9747	508.11
27.9891	524.74
28.0035	499.34
28.0180	518.36
28.0324	517.74
28.0469	547.54
28.0613	525.04
28.0757	530.64
28.0902	539.01
28.1046	518.99
28.1191	498.60
28.1335	511.93
28.1479	537.42
28.1624	501.66
28.1768	514.86
28.1913	491.06
28.2057	515.46
28.2201	518.05
28.2346	531.26
28.2490	509.64
28.2635	535.21
28.2779	519.96
28.2923	494.65
28.3068	498.70
28.3212	522.05
28.3357	547.38
28.3501	515.50
28.3645	530.63
28.3790	516.85
28.3934	511.69
28.4079	531.72
28.4223	501.51
28.4367	508.72
28.4512	493.75
28.4656	529.54
28.4801	533.86
28.4945	514.44
28.5089	470.19
28.5234	527.12
28.5378	556.70
28.5523	530.15
28.5667	520.73
28.5811	518.76
28.5956	540.02
28.6100	505.13
28.6245	496.31
28.6389	496.91
28.6533	492.76
28.6678	502.25
28.6822	511.01
28.6967	511.41
28.7111	532.30
28.7255	520.12
28.7400	472.03
28.7544	478.95
28.7689	490.29
28.7833	523.39
28.7977	526.38
28.8122	539.54
28.8266	503.39
28.8411	532.52
28.8555	503.11
28.8699	557.36
28.8844	538.66
28.8988	517.42
28.9133	554.12
28.9277	514.60
28.9421	526.59
28.9566	493.37
28.9710	505.55
28.9855	535.86
28.9999	523.59
29.0143	474.79
29.0288	495.66
29.0432	515.01
29.0577	523.85
29.0721	495.31
29.0865	515.22
29.1010	519.78
29.1154	511.10
29.1299	524.03
29.1443	490.94
29.1587	504.75
29.1732	495.14
29.1876	504.26
29.2021	531.03
29.2165	520.81
29.2309	542.74
29.2454	517.29
29.2598	491.96
29.2743	520.61
29.2887	506.64
29.3031	536.66
29.3176	521.46
29.3320	495.87
29.3465	529.39
29.3609	515.92
29.3753	491.28
29.3898	506.70
29.4042	511.46
29.4187	501.79
29.4331	502.03
29.4475	488.27
29.4620	497.88
29.4764	499.07
29.4909	508.60
29.5053	500.88
29.5197	520.21
29.5342	524.46
29.5486	511.33
29.5631	466.37
29.5775	493.02
29.5919	496.74
29.6064	513.82
29.6208	499.33
29.6353	499.98
29.6497	486.29
29.6641	513.51
29.6786	474.04
29.6930	504.17
29.7075	518.60
29.7219	519.93
29.7363	504.22
29.7508	496.99
29.7652	508.86
29.7797	498.51
29.7941	498.83
29.8085	501.67
29.8230	485.46
29.8374	504.94
29.8519	489.21
29.8663	500.21
29.8807	506.26
29.8952	507.73
29.9096	541.06
29.9241	521.03
29.9385	498.88
29.9529	501.78
29.9674	493.37
29.9818	495.10
29.9963	516.28
30.0107	521.06
30.0251	533.33
30.0396	508.51
30.0540	509.83
30.0685	488.17
30.0829	512.97
30.0973	542.78
30.1118	527.60
30.1262	520.58
30.1407	513.42
30.1551	490.84
30.1695	552.24
30.1840	530.70
30.1984	493.97
30.2129	505.09
30.2273	530.32
30.2417	503.32
30.2562	506.02
30.2706	513.50
30.2851	544.03
30.2995	509.40
30.3139	502.65
30.3284	493.04
30.3428	524.83
30.3573	510.32
30.3717	508.86
30.3861	515.83
30.4006	486.72
30.4150	487.44
30.4295	538.41
30.4439	536.31
30.4583	532.08
30.4728	529.23
30.4872	498.77
30.5017	499.99
30.5161	482.94
30.5305	500.96
30.5450	513.66
30.5594	543.68
30.5739	554.61
30.5883	567.91
30.6028	564.91
30.6172	556.08
30.6316	631.12
30.6461	615.99
30.6605	672.45
30.6750	684.16
30.6894	692.62
30.7038	680.77
30.7183	679.07
30.7327	672.07
30.7472	675.70
30.7616	652.55
30.7760	667.21
30.7905	656.62
30.8049	669.98
30.8194	641.44
30.8338	624.50
30.8482	576.86
30.8627	551.82
30.8771	577.79
30.8916	560.19
30.9060	547.49
30.9204	543.21
30.9349	517.76
30.9493	536.51
30.9638	559.89
30.9782	556.45
30.9926	527.16
31.0071	483.44
31.0215	497.79
31.0360	507.04
31.0504	511.18
31.0648	525.29
31.0793	534.91
31.0937	543.36
31.1082	545.82
31.1226	493.08
31.1370	481.42
31.1515	472.31
31.1659	513.09
31.1804	524.31
31.1948	490.18
31.2092	501.56
31.2237	496.47
31.2381	505.66
31.2526	535.45
31.2670	487.09
31.2814	527.94
31.2959	532.03
31.3103	543.40
31.3248	519.95
31.3392	533.36
31.3536	537.34
31.3681	541.67
31.3825	546.08
31.3970	541.71
31.4114	480.57
31.4258	534.32
31.4403	514.66
31.4547	487.72
31.4692	515.91
31.4836	556.72
31.4980	504.78
31.5125	503.25
31.5269	522.92
31.5414	488.40
31.5558	491.52
31.5702	479.50
31.5847	509.84
31.5991	537.41
31.6136	507.76
31.6280	496.14
31.6424	520.81
31.6569	512.73
31.6713	511.95
31.6858	498.13
31.7002	520.07
31.7146	530.31
31.7291	516.30
31.7435	509.28
31.7580	498.27
31.7724	503.92
31.7868	516.73
31.8013	524.28
31.8157	547.68
31.8302	495.86
31.8446	507.90
31.8590	516.21
31.8735	534.70
31.8879	504.90
31.9024	558.37
31.9168	537.43
31.9312	477.11
31.9457	513.14
31.9601	475.79
31.9746	500.55
31.9890	509.87
32.0034	494.76
32.0179	511.57
32.0323	498.32
32.0468	508.27
32.0612	521.47
32.0756	517.61
32.0901	535.93
32.1045	484.75
32.1190	518.69
32.1334	516.62
32.1478	498.11
32.1623	495.99
32.1767	531.41
32.1912	527.70
32.2056	508.23
32.2200	501.75
32.2345	509.72
32.2489	511.06
32.2634	506.21
32.2778	527.34
32.2922	493.87
32.3067	503.75
32.3211	528.35
32.3356	529.80
32.3500	511.04
32.3644	508.88
32.3789	505.09
32.3933	476.39
32.4078	473.49
32.4222	514.85
32.4366	500.74
32.4511	465.04
32.4655	488.57
32.4800	491.89
32.4944	491.10
32.5088	506.02
32.5233	506.49
32.5377	496.14
32.5522	495.98
32.5666	512.63
32.5810	527.91
32.5955	478.66
32.6099	504.90
32.6244	501.80
32.6388	518.58
32.6532	504.12
32.6677	524.26
32.6821	500.81
32.6966	503.75
32.7110	519.81
32.7254	484.28
32.7399	492.40
32.7543	532.16
32.7688	490.89
32.7832	498.18
32.7976	519.91
32.8121	518.60
32.8265	519.19
32.8410	482.42
32.8554	535.32
32.8698	535.04
32.8843	503.10
32.8987	492.93
32.9132	539.42
32.9276	520.06
32.9420	530.04
32.9565	517.10
32.9709	535.21
32.9854	502.03
32.9998	482.30
33.0142	508.61
33.0287	506.59
33.0431	464.34
33.0576	515.97
33.0720	500.71
33.0864	475.45
33.1009	538.40
33.1153	520.62
33.1298	520.55
33.1442	463.09
33.1586	466.03
33.1731	466.04
33.1875	485.89
33.2020	482.19
33.2164	502.62
33.2308	505.87
33.2453	540.55
33.2597	503.87
33.2742	488.66
33.2886	514.64
33.3030	512.27
33.3175	521.31
33.3319	513.06
33.3464	535.32
33.3608	498.45
33.3752	542.78
33.3897	525.82
33.4041	514.46
33.4186	520.53
33.4330	536.79
33.4474	526.30
33.4619	531.80
33.4763	510.12
33.4908	506.05
33.5052	513.00
33.5196	497.88
33.5341	499.11
33.5485	507.77
33.5630	505.83
33.5774	472.15
33.5918	498.97
33.6063	543.35
33.6207	482.69
33.6352	493.79
33.6496	476.03
33.6640	499.52
33.6785	472.89
33.6929	469.40
33.7074	494.35
33.7218	500.16
33.7362	487.91
33.7507	465.39
33.7651	472.12
33.7796	473.83
33.7940	506.05
33.8084	534.00
33.8229	537.14
33.8373	546.94
33.8518	508.34
33.8662	516.39
33.8806	538.04
33.8951	532.80
33.9095	527.64
33.9240	473.95
33.9384	493.30
33.9528	484.92
33.9673	493.91
33.9817	490.66
33.9962	505.78
34.0106	520.81
34.0250	530.32
34.0395	514.25
34.0539	538.08
34.0684	541.51
34.0828	527.10
34.0972	475.79
34.1117	480.95
34.1261	520.63
34.1406	495.45
34.1550	514.20
34.1694	513.26
34.1839	496.35
34.1983	489.30
34.2128	494.28
34.2272	491.33
34.2417	501.40
34.2561	485.06
34.2705	529.45
34.2850	508.28
34.2994	478.53
34.3139	471.44
34.3283	478.45
34.3427	489.70
34.3572	497.89
34.3716	502.70
34.3861	485.93
34.4005	467.38
34.4149	487.32
34.4294	501.87
34.4438	492.53
34.4583	476.94
34.4727	518.91
34.4871	492.76
34.5016	467.19
34.5160	483.30
34.5305	495.65
34.5449	498.19
34.5593	538.13
34.5738	522.00
34.5882	511.97
34.6027	493.69
34.6171	519.70
34.6315	487.18
34.6460	491.19
34.6604	492.29
34.6749	465.94
34.6893	494.50
34.7037	504.97
34.7182	494.30
34.7326	468.09
34.7471	491.15
34.7615	478.73
34.7759	504.56
34.7904	513.21
34.8048	510.65
34.8193	514.78
34.8337	540.18
34.8481	516.11
34.8626	534.02
34.8770	529.20
34.8915	524.22
34.9059	535.58
34.9203	506.33
34.9348	498.81
34.9492	538.99
34.9637	508.62
34.9781	519.51
34.9925	495.66
35.0070	519.31
35.0214	536.04
35.0359	516.72
35.0503	505.74
35.0647	506.59
35.0792	517.86
35.0936	528.75
35.1081	519.03
35.1225	499.99
35.1369	523.64
35.1514	490.89
35.1658	487.67
35.1803	510.54
35.1947	480.50
35.2091	502.57
35.2236	517.87
35.2380	535.07
35.2525	517.81
35.2669	501.92
35.2813	507.98
35.2958	465.50
35.3102	493.21
35.3247	516.04
35.3391	493.69
35.3535	519.49
35.3680	548.21
35.3824	516.31
35.3969	524.78
35.4113	495.68
35.4257	523.57
35.4402	509.46
35.4546	476.54
35.4691	521.20
35.4835	525.44
35.4979	561.61
35.5124	517.37
35.5268	528.89
35.5413	552.52
35.5557	542.81
35.5701	521.94
35.5846	523.83
35.5990	511.30
35.6135	518.15
35.6279	552.17
35.6423	508.61
35.6568	487.49
35.6712	529.30
35.6857	606.08
35.7001	718.39
35.7145	735.47
35.7290	689.53
35.7434	648.31
35.7579	578.01
35.7723	631.06
35.7867	674.47
35.8012	707.22
35.8156	702.39
35.8301	663.70
35.8445	606.02
35.8589	641.27
35.8734	760.43
35.8878	870.41
35.9023	1019.54
35.9167	992.02
35.9311	1132.97
35.9456	1724.82
35.9600	2148.29
35.9745	1990.78
35.9889	2121.59
36.0033	2448.16
36.0178	3063.17
36.0322	2996.72
36.0467	2225.37
36.0611	1840.69
36.0755	1806.78
36.0900	1844.02
36.1044	1643.38
36.1189	1558.51
36.1333	1574.80
36.1477	1383.84
36.1622	1332.61
36.1766	1332.53
36.1911	1223.95
36.2055	1115.73
36.2199	1107.64
36.2344	1025.98
36.2488	951.80
36.2633	832.20
36.2777	768.72
36.2921	775.66
36.3066	735.88
36.3210	713.98
36.3355	685.38
36.3499	655.52
36.3643	629.80
36.3788	589.47
36.3932	596.90
36.4077	586.14
36.4221	567.99
36.4365	594.33
36.4510	555.04
36.4654	553.62
36.4799	546.10
36.4943	523.91
36.5087	557.14
36.5232	537.62
36.5376	545.11
36.5521	558.78
36.5665	520.26
36.5809	507.36
36.5954	552.42
36.6098	546.57
36.6243	492.95
36.6387	536.83
36.6531	543.03
36.6676	527.91
36.6820	507.23
36.6965	526.15
36.7109	530.69
36.7253	522.94
36.7398	546.60
36.7542	506.14
36.7687	512.11
36.7831	553.09
36.7975	572.12
36.8120	576.11
36.8264	590.36
36.8409	559.02
36.8553	592.68
36.8697	605.76
36.8842	602.37
36.8986	624.43
36.9131	626.92
36.9275	569.05
36.9419	583.91
36.9564	558.39
36.9708	576.68
36.9853	548.83
36.9997	555.23
37.0141	556.03
37.0286	535.90
37.0430	499.15
37.0575	522.37
37.0719	544.64
37.0863	495.71
37.1008	528.84
37.1152	543.49
37.1297	517.35
37.1441	519.41
37.1585	515.22
37.1730	495.63
37.1874	498.50
37.2019	488.00
37.2163	519.17
37.2307	495.57
37.2452	538.06
37.2596	522.38
37.2741	502.74
37.2885	489.05
37.3029	481.94
37.3174	509.52
37.3318	514.08
37.3463	523.86
37.3607	500.21
37.3751	500.09
37.3896	507.44
37.4040	493.79
37.4185	508.11
37.4329	514.85
37.4473	491.90
37.4618	505.41
37.4762	487.59
37.4907	499.66
37.5051	505.66
37.5195	527.46
37.5340	519.29
37.5484	525.03
37.5629	489.46
37.5773	462.77
37.5917	528.05
37.6062	519.61
37.6206	478.90
37.6351	493.41
37.6495	489.61
37.6639	509.22
37.6784	484.59
37.6928	521.62
37.7073	551.82
37.7217	534.80
37.7361	491.40
37.7506	505.66
37.7650	513.55
37.7795	505.08
37.7939	532.28
37.8083	484.39
37.8228	521.16
37.8372	533.29
37.8517	513.04
37.8661	559.91
37.8805	518.27
37.8950	489.06
37.9094	509.43
37.9239	481.29
37.9383	517.05
37.9528	535.68
37.9672	489.27
37.9816	497.28
37.9961	471.02
38.0105	498.29
38.0250	504.53
38.0394	451.26
38.0538	478.70
38.0683	536.87
38.0827	486.87
38.0972	512.68
38.1116	487.98
38.1260	507.40
38.1405	485.40
38.1549	484.40
38.1694	486.37
38.1838	456.90
38.1982	490.78
38.2127	514.74
38.2271	460.61
38.2416	505.79
38.2560	533.94
38.2704	492.30
38.2849	490.97
38.2993	522.15
38.3138	505.99
38.3282	520.17
38.3426	508.42
38.3571	515.25
38.3715	542.85
38.3860	529.16
38.4004	523.16
38.4148	565.27
38.4293	581.09
38.4437	577.60
38.4582	590.63
38.4726	654.44
38.4870	653.31
38.5015	689.99
38.5159	784.77
38.5304	784.45
38.5448	804.59
38.5592	789.79
38.5737	769.00
38.5881	743.21
38.6026	736.35
38.6170	687.23
38.6314	690.17
38.6459	677.57
38.6603	643.80
38.6748	599.87
38.6892	569.71
38.7036	556.49
38.7181	533.59
38.7325	495.64
38.7470	524.60
38.7614	522.68
38.7758	533.42
38.7903	493.32
38.8047	488.49
38.8192	524.29
38.8336	481.14
38.8480	480.35
38.8625	518.57
38.8769	517.49
38.8914	501.22
38.9058	516.43
38.9202	535.24
38.9347	526.88
38.9491	528.80
38.9636	511.06
38.9780	474.78
38.9924	490.32
39.0069	483.46
39.0213	481.23
39.0358	498.17
39.0502	519.92
39.0646	530.04
39.0791	471.02
39.0935	509.65
39.1080	508.17
39.1224	503.57
39.1368	527.04
39.1513	508.76
39.1657	471.90
39.1802	519.50
39.1946	498.78
39.2090	495.55
39.2235	530.83
39.2379	537.29
39.2524	522.17
39.2668	513.53
39.2812	528.77
39.2957	514.82
39.3101	524.08
39.3246	521.00
39.3390	524.40
39.3534	497.29
39.3679	483.26
39.3823	504.10
39.3968	490.45
39.4112	522.17
39.4256	523.15
39.4401	481.24
39.4545	465.52
39.4690	474.29
39.4834	491.44
39.4978	498.85
39.5123	461.80
39.5267	467.35
39.5412	487.03
39.5556	522.58
39.5700	497.58
39.5845	502.68
39.5989	485.37
39.6134	481.44
39.6278	489.61
39.6422	460.03
39.6567	474.20
39.6711	480.59
39.6856	490.87
39.7000	483.16
39.7144	504.58
39.7289	456.31
39.7433	522.12
39.7578	491.00
39.7722	529.94
39.7866	494.57
39.8011	501.87
39.8155	514.83
39.8300	489.68
39.8444	475.38
39.8588	540.29
39.8733	495.13
39.8877	503.92
39.9022	496.97
39.9166	500.48
39.9310	526.85
39.9455	487.80
39.9599	470.33
39.9744	517.69
39.9888	511.65
40.0032	511.34
40.0177	508.84
40.0321	498.39
40.0466	502.96
40.0610	473.20
40.0754	473.74
40.0899	505.45
40.1043	482.54
40.1188	488.75
40.1332	491.03
40.1476	449.90
40.1621	503.34
40.1765	494.41
40.1910	493.04
40.2054	471.49
40.2198	513.03
40.2343	498.44
40.2487	499.48
40.2632	490.67
40.2776	499.29
40.2920	526.10
40.3065	493.49
40.3209	504.16
40.3354	498.54
40.3498	486.71
40.3642	487.35
40.3787	478.81
40.3931	446.54
40.4076	449.67
40.4220	516.26
40.4364	509.92
40.4509	473.35
40.4653	501.88
40.4798	505.07
40.4942	463.22
40.5086	476.75
40.5231	462.33
40.5375	478.06
40.5520	464.22
40.5664	495.83
40.5808	533.39
40.5953	481.06
40.6097	495.82
40.6242	502.26
40.6386	518.52
40.6530	509.08
40.6675	473.19
40.6819	489.24
40.6964	472.98
40.7108	502.72
40.7252	488.75
40.7397	491.04
40.7541	506.11
40.7686	520.52
40.7830	540.50
40.7974	539.92
40.8119	513.79
40.8263	499.79
40.8408	469.19
40.8552	478.61
40.8696	483.46
40.8841	459.88
40.8985	485.22
40.9130	500.44
40.9274	511.69
40.9418	499.98
40.9563	490.81
40.9707	516.90
40.9852	486.07
40.9996	491.65
41.0140	524.76
41.0285	473.61
41.0429	468.24
41.0574	475.16
41.0718	540.99
41.0862	515.86
41.1007	520.05
41.1151	533.01
41.1296	525.19
41.1440	497.44
41.1584	463.37
41.1729	477.42
41.1873	482.30
41.2018	486.10
41.2162	464.79
41.2306	514.06
41.2451	515.29
41.2595	509.32
41.2740	480.01
41.2884	472.50
41.3028	532.04
41.3173	507.27
41.3317	512.95
41.3462	529.13
41.3606	526.33
41.3750	514.66
41.3895	505.38
41.4039	483.64
41.4184	512.71
41.4328	531.92
41.4472	482.38
41.4617	485.59
41.4761	502.58
41.4906	487.52
41.5050	467.50
41.5194	496.85
41.5339	511.17
41.5483	515.17
41.5628	539.82
41.5772	508.35
41.5916	475.70
41.6061	483.89
41.6205	515.19
41.6350	509.90
41.6494	481.39
41.6639	490.47
41.6783	451.85
41.6927	470.12
41.7072	473.93
41.7216	534.68
41.7361	515.99
41.7505	524.33
41.7649	498.32
41.7794	525.87
41.7938	494.30
41.8083	494.53
41.8227	522.25
41.8371	523.89
41.8516	511.17
41.8660	541.46
41.8805	519.41
41.8949	510.71
41.9093	522.71
41.9238	556.89
41.9382	563.39
41.9527	593.44
41.9671	597.04
41.9815	557.45
41.9960	575.40
42.0104	547.12
42.0249	568.92
42.0393	532.50
42.0537	567.62
42.0682	564.47
42.0826	588.10
42.0971	578.40
42.1115	576.90
42.1259	602.31
42.1404	634.87
42.1548	628.42
42.1693	614.59
42.1837	691.67
42.1981	754.96
42.2126	837.89
42.2270	953.67
42.2415	1078.15
42.2559	1212.98
42.2703	1346.20
42.2848	1512.89
42.2992	1621.17
42.3137	1708.03
42.3281	1677.04
42.3425	1606.82
42.3570	1528.59
42.3714	1467.21
42.3859	1407.49
42.4003	1355.56
42.4147	1355.78
42.4292	1355.31
42.4436	1190.76
42.4581	1060.49
42.4725	970.32
42.4869	878.68
42.5014	790.13
42.5158	724.25
42.5303	667.35
42.5447	661.79
42.5591	627.40
42.5736	573.73
42.5880	574.92
42.6025	595.61
42.6169	571.59
42.6313	548.49
42.6458	523.55
42.6602	544.57
42.6747	519.85
42.6891	531.71
42.7035	534.26
42.7180	500.61
42.7324	500.35
42.7469	509.75
42.7613	512.55
42.7757	521.43
42.7902	520.22
42.8046	492.75
42.8191	521.14
42.8335	508.52
42.8479	498.18
42.8624	525.61
42.8768	513.47
42.8913	514.97
42.9057	536.63
42.9201	537.08
42.9346	512.38
42.9490	481.34
42.9635	493.38
42.9779	512.41
42.9923	511.90
43.0068	520.08
43.0212	533.29
43.0357	505.17
43.0501	513.55
43.0645	481.44
43.0790	458.97
43.0934	494.65
43.1079	521.70
43.1223	552.95
43.1367	537.72
43.1512	507.32
43.1656	511.70
43.1801	543.58
43.1945	528.14
43.2089	513.11
43.2234	513.23
43.2378	527.07
43.2523	503.98
43.2667	510.34
43.2811	539.62
43.2956	515.25
43.3100	519.66
43.3245	526.60
43.3389	528.73
43.3533	538.15
43.3678	517.17
43.3822	516.64
43.3967	514.54
43.4111	519.06
43.4255	528.89
43.4400	478.21
43.4544	470.98
43.4689	501.59
43.4833	503.65
43.4977	509.65
43.5122	528.63
43.5266	551.17
43.5411	509.36
43.5555	517.43
43.5699	545.84
43.5844	492.53
43.5988	544.22
43.6133	548.19
43.6277	543.63
43.6421	565.67
43.6566	545.56
43.6710	507.53
43.6855	553.73
43.6999	525.14
43.7143	533.54
43.7288	547.94
43.7432	558.69
43.7577	567.57
43.7721	558.93
43.7865	518.14
43.8010	565.32
43.8154	575.10
43.8299	506.27
43.8443	562.76
43.8587	581.05
43.8732	577.65
43.8876	610.12
43.9021	639.86
43.9165	596.13
43.9309	568.55
43.9454	642.47
43.9598	613.30
43.9743	605.65
43.9887	592.71
44.0031	609.66
44.0176	611.77
44.0320	603.95
44.0465	612.09
44.0609	596.46
44.0753	594.41
44.0898	579.76
44.1042	503.94
44.1187	539.59
44.1331	584.06
44.1475	555.13
44.1620	529.71
44.1764	483.03
44.1909	498.26
44.2053	514.41
44.2197	514.79
44.2342	543.15
44.2486	524.03
44.2631	522.06
44.2775	528.58
44.2919	530.70
44.3064	524.53
44.3208	535.96
44.3353	503.10
44.3497	535.72
44.3641	523.06
44.3786	538.41
44.3930	543.06
44.4075	566.61
44.4219	600.28
44.4363	541.65
44.4508	565.58
44.4652	598.85
44.4797	589.92
44.4941	593.30
44.5085	583.12
44.5230	566.57
44.5374	593.28
44.5519	567.03
44.5663	586.69
44.5807	582.56
44.5952	573.44
44.6096	547.63
44.6241	561.95
44.6385	617.64
44.6529	581.54
44.6674	558.68
44.6818	583.28
44.6963	611.61
44.7107	645.20
44.7251	656.49
44.7396	735.34
44.7540	824.70
44.7685	828.23
44.7829	898.93
44.7973	908.68
44.8118	861.32
44.8262	842.42
44.8407	748.31
44.8551	731.29
44.8695	721.70
44.8840	693.86
44.8984	732.96
44.9129	720.36
44.9273	684.03
44.9417	668.45
44.9562	624.05
44.9706	600.71
44.9851	567.66
44.9995	510.66
45.0139	535.90
45.0284	532.81
45.0428	548.13
45.0573	508.60
45.0717	499.39
45.0861	557.55
45.1006	545.05
45.1150	549.93
45.1295	537.63
45.1439	505.69
45.1583	487.60
45.1728	523.81
45.1872	501.31
45.2017	533.04
45.2161	553.35
45.2305	524.55
45.2450	524.31
45.2594	499.43
45.2739	518.06
45.2883	519.11
45.3028	512.02
45.3172	527.87
45.3316	532.85
45.3461	553.65
45.3605	513.73
45.3750	494.45
45.3894	494.68
45.4038	496.16
45.4183	510.55
45.4327	512.51
45.4472	500.58
45.4616	501.56
45.4760	511.60
45.4905	514.99
45.5049	500.92
45.5194	498.64
45.5338	489.66
45.5482	498.01
45.5627	509.16
45.5771	472.71
45.5916	485.23
45.6060	512.90
45.6204	484.50
45.6349	479.51
45.6493	507.26
45.6638	511.23
45.6782	523.48
45.6926	490.85
45.7071	512.75
45.7215	511.59
45.7360	512.39
45.7504	504.48
45.7648	489.86
45.7793	500.08
45.7937	520.36
45.8082	519.36
45.8226	515.58
45.8370	494.03
45.8515	504.09
45.8659	535.12
45.8804	511.64
45.8948	514.30
45.9092	493.32
45.9237	503.67
45.9381	517.27
45.9526	519.20
45.9670	465.05
45.9814	495.02
45.9959	485.94
46.0103	470.81
46.0248	482.42
46.0392	467.66
46.0536	499.41
46.0681	536.43
46.0825	525.76
46.0970	517.55
46.1114	493.76
46.1258	489.37
46.1403	461.23
46.1547	467.78
46.1692	509.13
46.1836	486.72
46.1980	469.54
46.2125	488.19
46.2269	521.15
46.2414	511.71
46.2558	501.04
46.2702	493.32
46.2847	488.76
46.2991	494.31
46.3136	514.96
46.3280	516.91
46.3424	541.45
46.3569	512.02
46.3713	481.75
46.3858	488.39
46.4002	497.00
46.4146	481.18
46.4291	544.19
46.4435	499.38
46.4580	473.79
46.4724	496.78
46.4868	478.68
46.5013	512.40
46.5157	525.51
46.5302	511.54
46.5446	472.25
46.5590	470.79
46.5735	482.24
46.5879	480.39
46.6024	476.33
46.6168	520.42
46.6312	515.27
46.6457	464.60
46.6601	457.48
46.6746	512.94
46.6890	488.67
46.7034	489.18
46.7179	484.83
46.7323	493.15
46.7468	474.23
46.7612	510.17
46.7756	514.54
46.7901	489.97
46.8045	535.69
46.8190	516.62
46.8334	473.24
46.8478	469.07
46.8623	491.56
46.8767	492.22
46.8912	508.71
46.9056	510.17
46.9200	499.37
46.9345	506.12
46.9489	512.25
46.9634	515.91
46.9778	499.30
46.9922	517.35
47.0067	489.21
47.0211	511.92
47.0356	488.56
47.0500	477.50
47.0644	553.54
47.0789	535.80
47.0933	511.17
47.1078	527.31
47.1222	522.01
47.1366	528.55
47.1511	472.84
47.1655	486.31
47.1800	509.96
47.1944	489.27
47.2088	497.27
47.2233	523.49
47.2377	487.36
47.2522	471.82
47.2666	524.16
47.2810	540.73
47.2955	477.87
47.3099	503.31
47.3244	519.01
47.3388	501.92
47.3532	494.53
47.3677	486.96
47.3821	479.94
47.3966	482.35
47.4110	488.76
47.4254	498.37
47.4399	512.58
47.4543	511.34
47.4688	528.25
47.4832	554.90
47.4976	515.88
47.5121	493.80
47.5265	488.03
47.5410	520.49
47.5554	515.35
47.5698	516.86
47.5843	513.82
47.5987	524.46
47.6132	497.08
47.6276	473.94
47.6420	508.40
47.6565	485.21
47.6709	493.96
47.6854	512.39
47.6998	510.75
47.7142	495.72
47.7287	500.23
47.7431	480.82
47.7576	477.28
47.7720	508.78
47.7864	529.23
47.8009	524.24
47.8153	504.58
47.8298	472.77
47.8442	494.11
47.8586	500.97
47.8731	509.16
47.8875	510.53
47.9020	522.14
47.9164	536.03
47.9308	485.62
47.9453	525.12
47.9597	539.96
47.9742	490.54
47.9886	512.85
48.0030	489.63
48.0175	485.56
48.0319	503.92
48.0464	504.11
48.0608	535.50
48.0752	538.59
48.0897	489.18
48.1041	514.08
48.1186	458.56
48.1330	487.38
48.1474	449.77
48.1619	480.73
48.1763	494.88
48.1908	501.89
48.2052	498.61
48.2196	492.14
48.2341	520.95
48.2485	502.79
48.2630	518.14
48.2774	519.29
48.2918	493.99
48.3063	516.06
48.3207	495.58
48.3352	517.26
48.3496	551.50
48.3640	530.89
48.3785	533.00
48.3929	519.99
48.4074	535.55
48.4218	528.03
48.4362	533.10
48.4507	471.98
48.4651	529.05
48.4796	511.62
48.4940	517.40
48.5084	483.96
48.5229	511.90
48.5373	503.76
48.5518	501.69
48.5662	481.75
48.5806	518.95
48.5951	521.68
48.6095	536.83
48.6240	526.01
48.6384	494.07
48.6528	529.73
48.6673	531.25
48.6817	535.41
48.6962	489.15
48.7106	518.79
48.7250	529.06
48.7395	502.90
48.7539	528.32
48.7684	521.78
48.7828	526.61
48.7972	488.40
48.8117	521.18
48.8261	529.86
48.8406	504.83
48.8550	507.42
48.8694	511.31
48.8839	559.56
48.8983	585.11
48.9128	562.75
48.9272	512.88
48.9416	540.36
48.9561	563.05
48.9705	554.62
48.9850	588.64
48.9994	572.70
49.0139	577.01
49.0283	557.80
49.0427	575.76
49.0572	596.21
49.0716	643.03
49.0861	682.23
49.1005	704.89
49.1149	666.45
49.1294	752.68
49.1438	773.17
49.1583	820.88
49.1727	892.51
49.1871	960.99
49.2016	981.38
49.2160	991.67
49.2305	1130.79
49.2449	1269.53
49.2593	1295.06
49.2738	1350.74
49.2882	1492.39
49.3027	1556.59
49.3171	1611.90
49.3315	1787.61
49.3460	1841.66
49.3604	1875.36
49.3749	1853.92
49.3893	1831.10
49.4037	1805.11
49.4182	1789.54
49.4326	1842.25
49.4471	1664.68
49.4615	1680.28
49.4759	1623.00
49.4904	1527.35
49.5048	1434.30
49.5193	1383.77
49.5337	1325.78
49.5481	1192.80
49.5626	1155.33
49.5770	1061.35
49.5915	1028.66
49.6059	969.67
49.6203	833.34
49.6348	819.24
49.6492	792.08
49.6637	737.54
49.6781	727.17
49.6925	710.99
49.7070	680.78
49.7214	695.98
49.7359	599.34
49.7503	596.75
49.7647	602.11
49.7792	621.18
49.7936	596.24
49.8081	590.16
49.8225	577.74
49.8369	589.94
49.8514	601.78
49.8658	578.16
49.8803	563.58
49.8947	566.66
49.9091	556.34
49.9236	547.61
49.9380	551.86
49.9525	505.97
49.9669	508.32
49.9813	515.29
49.9958	499.85
50.0102	513.89
50.0247	548.83
50.0391	566.86
50.0535	523.99
50.0680	516.79
50.0824	502.64
50.0969	519.06
50.1113	519.19
50.1257	529.11
50.1402	518.50
50.1546	506.77
50.1691	531.47
50.1835	516.58
50.1979	516.88
50.2124	533.87
50.2268	535.33
50.2413	521.45
50.2557	473.71
50.2701	467.20
50.2846	521.20
50.2990	534.70
50.3135	498.12
50.3279	504.08
50.3423	503.29
50.3568	505.03
50.3712	494.98
50.3857	512.98
50.4001	517.69
50.4145	503.58
50.4290	508.45
50.4434	493.43
50.4579	491.93
50.4723	501.56
50.4867	516.66
50.5012	536.94
50.5156	502.71
50.5301	496.08
50.5445	508.36
50.5589	542.98
50.5734	497.59
50.5878	505.64
50.6023	515.49
50.6167	498.57
50.6311	491.08
50.6456	508.90
50.6600	484.12
50.6745	520.13
50.6889	517.54
50.7033	524.43
50.7178	503.21
50.7322	507.46
50.7467	509.94
50.7611	501.19
50.7755	494.86
50.7900	501.67
50.8044	514.94
50.8189	522.82
50.8333	546.16
50.8477	495.58
50.8622	463.30
50.8766	525.50
50.8911	505.67
50.9055	529.88
50.9199	530.91
50.9344	519.01
50.9488	503.49
50.9633	504.18
50.9777	514.77
50.9921	519.66
51.0066	495.50
51.0210	491.50
51.0355	505.91
51.0499	506.96
51.0643	496.03
51.0788	483.91
51.0932	513.14
51.1077	529.69
51.1221	531.81
51.1365	507.75
51.1510	468.93
51.1654	513.82
51.1799	497.68
51.1943	478.69
51.2087	488.49
51.2232	493.97
51.2376	527.89
51.2521	498.25
51.2665	493.93
51.2809	471.58
51.2954	499.49
51.3098	500.38
51.3243	520.87
51.3387	502.23
51.3531	475.84
51.3676	507.28
51.3820	496.57
51.3965	500.11
51.4109	496.86
51.4253	530.54
51.4398	506.22
51.4542	506.88
51.4687	508.22
51.4831	513.18
51.4975	518.32
51.5120	509.07
51.5264	488.88
51.5409	509.51
51.5553	482.60
51.5697	476.57
51.5842	507.71
51.5986	492.14
51.6131	474.88
51.6275	507.05
51.6419	495.98
51.6564	523.07
51.6708	494.82
51.6853	527.81
51.6997	505.57
51.7141	506.66
51.7286	505.07
51.7430	486.37
51.7575	514.09
51.7719	465.41
51.7863	508.71
51.8008	504.25
51.8152	495.67
51.8297	487.78
51.8441	485.96
51.8585	534.17
51.8730	501.80
51.8874	482.44
51.9019	515.05
51.9163	503.73
51.9307	492.68
51.9452	532.60
51.9596	492.55
51.9741	484.42
51.9885	506.67
52.0029	505.01
52.0174	518.33
52.0318	514.82
52.0463	526.63
52.0607	484.61
52.0751	536.22
52.0896	563.51
52.1040	498.88
52.1185	488.54
52.1329	503.97
52.1473	506.93
52.1618	478.18
52.1762	500.28
52.1907	496.08
52.2051	520.39
52.2195	519.22
52.2340	513.83
52.2484	513.72
52.2629	536.26
52.2773	493.47
52.2917	492.23
52.3062	511.23
52.3206	520.77
52.3351	483.60
52.3495	472.19
52.3639	522.83
52.3784	512.04
52.3928	484.90
52.4073	467.96
52.4217	488.66
52.4361	496.78
52.4506	502.48
52.4650	526.60
52.4795	566.67
52.4939	513.94
52.5083	517.62
52.5228	488.60
52.5372	501.28
52.5517	540.25
52.5661	528.45
52.5805	513.98
52.5950	491.98
52.6094	489.02
52.6239	527.35
52.6383	506.16
52.6527	512.93
52.6672	513.15
52.6816	492.42
52.6961	477.93
52.7105	501.28
52.7250	476.48
52.7394	515.78
52.7538	536.00
52.7683	525.71
52.7827	481.15
52.7972	537.28
52.8116	520.67
52.8260	489.33
52.8405	522.76
52.8549	518.72
52.8694	513.62
52.8838	510.04
52.8982	515.29
52.9127	527.67
52.9271	505.29
52.9416	490.45
52.9560	503.25
52.9704	491.42
52.9849	492.35
52.9993	502.97
53.0138	536.42
53.0282	500.92
53.0426	490.87
53.0571	501.01
53.0715	505.89
53.0860	537.36
53.1004	530.88
53.1148	528.37
53.1293	524.87
53.1437	479.52
53.1582	484.51
53.1726	523.51
53.1870	512.42
53.2015	470.49
53.2159	518.21
53.2304	512.05
53.2448	520.86
53.2592	525.50
53.2737	531.75
53.2881	536.06
53.3026	483.42
53.3170	524.03
53.3314	534.56
53.3459	533.83
53.3603	522.21
53.3748	530.09
53.3892	498.87
53.4036	496.52
53.4181	528.27
53.4325	551.01
53.4470	491.00
53.4614	524.76
53.4758	499.38
53.4903	500.31
53.5047	507.06
53.5192	532.17
53.5336	546.64
53.5480	485.54
53.5625	517.74
53.5769	513.60
53.5914	534.60
53.6058	511.31
53.6202	496.34
53.6347	523.16
53.6491	526.74
53.6636	509.74
53.6780	471.55
53.6924	497.46
53.7069	531.84
53.7213	501.27
53.7358	506.36
53.7502	498.25
53.7646	520.39
53.7791	540.52
53.7935	503.98
53.8080	539.82
53.8224	481.75
53.8368	541.27
53.8513	542.13
53.8657	518.12
53.8802	513.70
53.8946	546.15
53.9090	517.40
53.9235	515.76
53.9379	496.18
53.9524	476.60
53.9668	492.74
53.9812	520.26
53.9957	517.46
54.0101	499.18
54.0246	527.83
54.0390	527.24
54.0534	552.37
54.0679	533.89
54.0823	559.58
54.0968	512.89
54.1112	477.89
54.1256	515.55
54.1401	471.41
54.1545	487.96
54.1690	519.48
54.1834	538.33
54.1978	549.48
54.2123	529.62
54.2267	514.56
54.2412	522.05
54.2556	518.79
54.2700	519.90
54.2845	537.81
54.2989	561.67
54.3134	551.40
54.3278	527.35
54.3422	533.23
54.3567	569.87
54.3711	560.32
54.3856	554.29
54.4000	554.34
54.4144	550.35
54.4289	568.27
54.4433	568.20
54.4578	572.86
54.4722	593.92
54.4866	618.26
54.5011	596.28
54.5155	604.99
54.5300	606.19
54.5444	578.73
54.5588	576.66
54.5733	589.33
54.5877	593.48
54.6022	585.91
54.6166	564.01
54.6310	553.65
54.6455	577.20
54.6599	560.67
54.6744	561.58
54.6888	550.44
54.7032	576.67
54.7177	547.62
54.7321	534.15
54.7466	530.01
54.7610	523.62
54.7754	536.34
54.7899	517.95
54.8043	529.42
54.8188	564.64
54.8332	522.32
54.8476	504.91
54.8621	534.45
54.8765	553.32
54.8910	539.55
54.9054	519.10
54.9198	528.11
54.9343	526.51
54.9487	543.65
54.9632	520.40
54.9776	489.04
54.9920	498.14
55.0065	517.60
55.0209	526.70
55.0354	517.90
55.0498	503.72
55.0642	530.52
55.0787	512.73
55.0931	525.16
55.1076	546.11
55.1220	500.93
55.1364	505.53
55.1509	478.42
55.1653	490.47
55.1798	481.44
55.1942	480.01
55.2086	514.04
55.2231	507.22
55.2375	497.78
55.2520	511.93
55.2664	529.02
55.2808	526.54
55.2953	496.76
55.3097	520.01
55.3242	525.17
55.3386	548.91
55.3530	543.66
55.3675	532.19
55.3819	515.09
55.3964	523.71
55.4108	516.38
55.4252	535.71
55.4397	510.50
55.4541	521.72
55.4686	517.78
55.4830	532.92
55.4974	525.73
55.5119	525.96
55.5263	549.00
55.5408	497.17
55.5552	472.61
55.5696	513.98
55.5841	520.88
55.5985	542.28
55.6130	514.49
55.6274	503.40
55.6418	489.18
55.6563	508.00
55.6707	520.45
55.6852	505.57
55.6996	518.83
55.7140	508.29
55.7285	500.95
55.7429	519.69
55.7574	496.40
55.7718	510.95
55.7862	543.50
55.8007	523.59
55.8151	522.62
55.8296	509.55
55.8440	489.71
55.8584	505.79
55.8729	520.38
55.8873	521.37
55.9018	560.08
55.9162	496.20
55.9306	493.90
55.9451	510.84
55.9595	448.95
55.9740	479.06
55.9884	510.24
56.0028	526.83
56.0173	484.35
56.0317	522.85
56.0462	516.91
56.0606	541.05
56.0750	501.81
56.0895	509.41
56.1039	544.29
56.1184	519.46
56.1328	547.63
56.1472	511.77
56.1617	551.40
56.1761	525.40
56.1906	536.68
56.2050	506.71
56.2194	532.08
56.2339	507.56
56.2483	553.30
56.2628	490.12
56.2772	530.72
56.2916	526.03
56.3061	515.37
56.3205	501.81
56.3350	516.00
56.3494	513.37
56.3639	524.78
56.3783	503.99
56.3927	539.05
56.4072	498.01
56.4216	508.42
56.4361	532.91
56.4505	493.35
56.4649	536.91
56.4794	562.29
56.4938	532.90
56.5083	500.22
56.5227	498.32
56.5371	501.94
56.5516	517.66
56.5660	505.65
56.5805	523.57
56.5949	547.59
56.6093	508.73
56.6238	482.66
56.6382	494.09
56.6527	504.07
56.6671	507.66
56.6815	531.52
56.6960	493.41
56.7104	555.41
56.7249	524.29
56.7393	500.99
56.7537	503.80
56.7682	502.94
56.7826	495.47
56.7971	542.08
56.8115	518.09
56.8259	541.05
56.8404	505.85
56.8548	497.13
56.8693	501.38
56.8837	521.78
56.8981	526.95
56.9126	519.94
56.9270	491.37
56.9415	531.02
56.9559	512.93
56.9703	512.93
56.9848	512.34
56.9992	519.87
57.0137	555.43
57.0281	554.19
57.0425	539.78
57.0570	510.96
57.0714	528.88
57.0859	548.04
57.1003	508.63
57.1147	563.47
57.1292	556.13
57.1436	519.48
57.1581	503.91
57.1725	532.93
57.1869	541.70
57.2014	526.82
57.2158	508.86
57.2303	534.71
57.2447	557.29
57.2591	527.57
57.2736	495.08
57.2880	495.75
57.3025	523.41
57.3169	516.12
57.3313	519.65
57.3458	545.66
57.3602	527.37
57.3747	507.25
57.3891	510.15
57.4035	494.25
57.4180	498.06
57.4324	537.33
57.4469	511.70
57.4613	522.84
57.4757	507.31
57.4902	538.38
57.5046	503.82
57.5191	519.37
57.5335	524.34
57.5479	505.59
57.5624	506.02
57.5768	505.90
57.5913	510.59
57.6057	507.27
57.6201	537.67
57.6346	505.81
57.6490	519.39
57.6635	531.13
57.6779	493.01
57.6923	499.49
57.7068	492.05
57.7212	527.02
57.7357	512.20
57.7501	555.22
57.7645	516.54
57.7790	549.16
57.7934	513.84
57.8079	507.83
57.8223	505.41
57.8367	552.44
57.8512	531.53
57.8656	567.84
57.8801	552.79
57.8945	547.92
57.9089	582.57
57.9234	573.30
57.9378	580.47
57.9523	561.82
57.9667	558.62
57.9811	553.94
57.9956	595.72
58.0100	587.31
58.0245	620.05
58.0389	635.55
58.0533	607.01
58.0678	643.12
58.0822	662.43
58.0967	621.67
58.1111	664.60
58.1255	698.66
58.1400	644.86
58.1544	637.25
58.1689	648.03
58.1833	646.23
58.1977	638.09
58.2122	640.38
58.2266	656.03
58.2411	658.69
58.2555	666.82
58.2699	658.77
58.2844	645.94
58.2988	601.83
58.3133	589.53
58.3277	594.41
58.3421	590.77
58.3566	611.33
58.3710	581.19
58.3855	603.11
58.3999	578.09
58.4143	603.00
58.4288	604.15
58.4432	563.32
58.4577	565.30
58.4721	594.87
58.4865	577.10
58.5010	556.30
58.5154	520.35
58.5299	536.90
58.5443	516.87
58.5587	521.88
58.5732	517.40
58.5876	522.94
58.6021	536.62
58.6165	543.67
58.6309	561.49
58.6454	557.85
58.6598	548.08
58.6743	541.98
58.6887	546.18
58.7031	558.01
58.7176	521.78
58.7320	531.82
58.7465	513.75
58.7609	535.19
58.7753	548.57
58.7898	520.70
58.8042	526.78
58.8187	557.05
58.8331	537.85
58.8475	519.22
58.8620	561.46
58.8764	551.70
58.8909	551.79
58.9053	588.34
58.9197	580.36
58.9342	554.40
58.9486	550.90
58.9631	523.58
58.9775	498.24
58.9919	512.07
59.0064	537.46
59.0208	551.78
59.0353	561.89
59.0497	547.76
59.0641	556.28
59.0786	544.97
59.0930	574.73
59.1075	567.17
59.1219	531.38
59.1363	526.98
59.1508	522.71
59.1652	561.17
59.1797	540.38
59.1941	547.74
59.2085	565.18
59.2230	555.36
59.2374	534.27
59.2519	603.26
59.2663	567.47
59.2807	541.47
59.2952	530.04
59.3096	561.21
59.3241	543.99
59.3385	561.90
59.3529	567.06
59.3674	588.43
59.3818	543.75
59.3963	546.31
59.4107	577.91
59.4251	582.62
59.4396	544.35
59.4540	558.94
59.4685	561.92
59.4829	582.82
59.4973	561.05
59.5118	515.99
59.5262	514.71
59.5407	550.10
59.5551	567.69
59.5695	570.99
59.5840	559.52
59.5984	546.01
59.6129	523.35
59.6273	541.31
59.6417	587.49
59.6562	576.53
59.6706	503.19
59.6851	533.07
59.6995	558.63
59.7139	553.00
59.7284	553.15
59.7428	539.78
59.7573	528.63
59.7717	524.56
59.7861	525.76
59.8006	517.16
59.8150	524.72
59.8295	542.16
59.8439	539.17
59.8583	552.13
59.8728	520.73
59.8872	516.81
59.9017	573.44
59.9161	532.19
59.9305	500.08
59.9450	537.56
59.9594	500.69
59.9739	560.46
59.9883	546.08
60.0027	531.28
60.0172	554.19
60.0316	588.38
60.0461	558.29
60.0605	558.30
60.0750	535.15
60.0894	576.02
60.1038	540.76
60.1183	534.97
60.1327	556.69
60.1472	537.05
60.1616	514.82
60.1760	529.16
60.1905	521.65
60.2049	515.30
60.2194	555.89
60.2338	539.43
60.2482	538.94
60.2627	507.30
60.2771	536.63
60.2916	523.31
60.3060	537.77
60.3204	520.96
60.3349	553.34
60.3493	558.53
60.3638	538.76
60.3782	539.73
60.3926	504.20
60.4071	521.42
60.4215	555.25
60.4360	511.84
60.4504	536.08
60.4648	554.80
60.4793	520.11
60.4937	527.02
60.5082	502.94
60.5226	555.43
60.5370	538.56
60.5515	535.71
60.5659	537.44
60.5804	553.87
60.5948	531.06
60.6092	544.54
60.6237	547.54
60.6381	545.74
60.6526	533.94
60.6670	558.73
60.6814	519.67
60.6959	530.36
60.7103	555.36
60.7248	536.86
60.7392	517.36
60.7536	519.29
60.7681	538.40
60.7825	542.11
60.7970	543.66
60.8114	529.17
60.8258	544.59
60.8403	486.35
60.8547	566.69
60.8692	580.28
60.8836	516.72
60.8980	530.74
60.9125	559.38
60.9269	516.34
60.9414	547.06
60.9558	553.35
60.9702	534.23
60.9847	495.44
60.9991	504.08
61.0136	546.72
61.0280	565.53
61.0424	528.06
61.0569	533.27
61.0713	500.66
61.0858	562.42
61.1002	557.90
61.1146	522.44
61.1291	552.01
61.1435	497.70
61.1580	521.08
61.1724	529.40
61.1868	532.17
61.2013	514.16
61.2157	528.92
61.2302	508.56
61.2446	558.94
61.2590	546.88
61.2735	495.92
61.2879	541.04
61.3024	570.65
61.3168	533.64
61.3312	538.38
61.3457	546.68
61.3601	548.39
61.3746	558.15
61.3890	531.17
61.4034	524.35
61.4179	547.09
61.4323	538.60
61.4468	521.25
61.4612	535.10
61.4756	538.14
61.4901	542.81
61.5045	539.00
61.5190	530.98
61.5334	551.51
61.5478	556.05
61.5623	571.60
61.5767	538.18
61.5912	555.37
61.6056	575.64
61.6200	552.35
61.6345	541.03
61.6489	590.86
61.6634	545.77
61.6778	516.25
61.6922	574.66
61.7067	540.07
61.7211	526.00
61.7356	540.62
61.7500	543.80
61.7644	531.58
61.7789	567.55
61.7933	557.98
61.8078	534.44
61.8222	561.20
61.8366	584.90
61.8511	550.29
61.8655	569.85
61.8800	518.12
61.8944	542.93
61.9088	562.07
61.9233	549.41
61.9377	548.35
61.9522	569.66
61.9666	579.30
61.9810	543.40
61.9955	561.40
62.0099	563.95
62.0244	544.05
62.0388	534.76
62.0532	552.15
62.0677	540.80
62.0821	523.06
62.0966	528.31
62.1110	570.42
62.1254	561.62
62.1399	549.21
62.1543	529.01
62.1688	556.84
62.1832	566.56
62.1976	542.38
62.2121	544.04
62.2265	557.19
62.2410	541.33
62.2554	566.78
62.2698	551.54
62.2843	557.49
62.2987	525.13
62.3132	547.25
62.3276	542.85
62.3420	519.81
62.3565	549.77
62.3709	565.34
62.3854	558.14
62.3998	549.68
62.4142	539.08
62.4287	575.92
62.4431	550.03
62.4576	511.97
62.4720	566.57
62.4864	580.83
62.5009	588.34
62.5153	555.18
62.5298	542.76
62.5442	532.53
62.5586	525.99
62.5731	540.62
62.5875	554.26
62.6020	554.21
62.6164	549.16
62.6308	524.37
62.6453	552.38
62.6597	567.18
62.6742	544.84
62.6886	514.87
62.7030	529.62
62.7175	524.46
62.7319	505.17
62.7464	521.03
62.7608	575.75
62.7752	568.48
62.7897	555.80
62.8041	594.91
62.8186	566.94
62.8330	565.08
62.8474	549.17
62.8619	598.86
62.8763	563.94
62.8908	557.91
62.9052	582.89
62.9196	558.70
62.9341	573.03
62.9485	531.44
62.9630	520.61
62.9774	566.55
62.9918	566.35
63.0063	552.56
63.0207	527.88
63.0352	551.21
63.0496	567.59
63.0640	578.62
63.0785	562.60
63.0929	552.99
63.1074	583.10
63.1218	588.37
63.1362	587.83
63.1507	572.64
63.1651	576.42
63.1796	551.05
63.1940	562.35
63.2084	551.39
63.2229	606.36
63.2373	575.36
63.2518	578.32
63.2662	564.96
63.2806	569.96
63.2951	589.95
63.3095	599.05
63.3240	571.51
63.3384	596.11
63.3528	594.02
63.3673	602.79
63.3817	590.39
63.3962	547.54
63.4106	561.92
63.4250	596.29
63.4395	597.89
63.4539	578.07
63.4684	580.51
63.4828	605.83
63.4972	591.83
63.5117	565.11
63.5261	574.66
63.5406	596.55
63.5550	608.59
63.5694	610.12
63.5839	626.47
63.5983	583.63
63.6128	589.39
63.6272	595.25
63.6416	628.66
63.6561	665.11
63.6705	678.29
63.6850	670.31
63.6994	669.86
63.7138	678.19
63.7283	707.91
63.7427	721.41
63.7572	692.56
63.7716	731.54
63.7861	755.09
63.8005	783.71
63.8149	773.30
63.8294	744.97
63.8438	769.29
63.8583	803.37
63.8727	809.43
63.8871	783.66
63.9016	864.84
63.9160	788.81
63.9305	842.73
63.9449	821.62
63.9593	780.43
63.9738	785.55
63.9882	822.08
64.0027	818.57
64.0171	762.76
64.0315	768.39
64.0460	714.17
64.0604	786.93
64.0749	767.31
64.0893	737.88
64.1037	753.80
64.1182	772.95
64.1326	694.90
64.1471	615.26
64.1615	708.30
64.1759	666.57
64.1904	648.28
64.2048	641.83
64.2193	635.83
64.2337	647.29
64.2481	661.13
64.2626	628.95
64.2770	619.45
64.2915	607.87
64.3059	621.96
64.3203	645.09
64.3348	622.00
64.3492	635.62
64.3637	611.18
64.3781	606.44
64.3925	607.25
64.4070	596.45
64.4214	666.58
64.4359	643.51
64.4503	633.26
64.4647	672.76
64.4792	646.89
64.4936	652.44
64.5081	667.39
64.5225	625.69
64.5369	632.34
64.5514	645.39
64.5658	625.80
64.5803	628.42
64.5947	637.20
64.6091	602.70
64.6236	625.41
64.6380	656.92
64.6525	675.53
64.6669	645.36
64.6813	705.93
64.6958	654.47
64.7102	700.02
64.7247	654.63
64.7391	675.10
64.7535	697.28
64.7680	715.11
64.7824	704.06
64.7969	714.16
64.8113	777.28
64.8257	779.12
64.8402	830.96
64.8546	850.06
64.8691	837.75
64.8835	855.04
64.8979	852.90
64.9124	862.34
64.9268	862.45
64.9413	901.55
64.9557	920.92
64.9701	980.75
64.9846	1069.79
64.9990	1154.50
65.0135	1189.45
65.0279	1407.14
65.0423	1623.70
65.0568	2007.67
65.0712	2491.64
65.0857	3134.48
65.1001	4242.00
65.1145	5695.71
65.1290	7463.78
65.1434	9246.46
65.1579	10795.75
65.1723	11676.22
65.1867	11632.15
65.2012	10313.48
65.2156	8662.95
65.2301	6710.00
65.2445	5380.63
65.2589	4375.52
65.2734	3999.70
65.2878	4253.15
65.3023	4769.88
65.3167	5590.60
65.3311	6376.33
65.3456	6826.01
65.3600	6936.88
65.3745	6370.26
65.3889	5452.88
65.4033	4515.97
65.4178	3543.92
65.4322	2803.49
65.4467	2085.15
65.4611	1732.98
65.4755	1496.77
65.4900	1247.86
65.5044	1149.43
65.5189	1077.55
65.5333	1004.67
65.5477	967.83
65.5622	948.51
65.5766	863.70
65.5911	767.96
65.6055	750.84
65.6199	748.14
65.6344	758.69
65.6488	735.34
65.6633	733.24
65.6777	735.78
65.6921	723.89
65.7066	729.42
65.7210	720.49
65.7355	637.72
65.7499	657.28
65.7643	663.73
65.7788	699.09
65.7932	726.33
65.8077	706.95
65.8221	685.04
65.8365	662.86
65.8510	697.60
65.8654	663.28
65.8799	615.68
65.8943	608.67
65.9087	650.27
65.9232	654.78
65.9376	635.58
65.9521	620.11
65.9665	599.67
65.9809	635.42
65.9954	645.58
66.0098	648.71
66.0243	632.99
66.0387	620.80
66.0531	654.96
66.0676	627.04
66.0820	634.93
66.0965	628.47
66.1109	611.93
66.1253	608.36
66.1398	584.81
66.1542	552.46
66.1687	600.18
66.1831	626.77
66.1975	592.84
66.2120	604.32
66.2264	625.22
66.2409	625.92
66.2553	570.39
66.2697	603.09
66.2842	599.05
66.2986	614.97
66.3131	636.49
66.3275	610.32
66.3419	625.75
66.3564	615.57
66.3708	631.71
66.3853	591.12
66.3997	588.99
66.4141	592.97
66.4286	618.83
66.4430	612.79
66.4575	590.92
66.4719	620.20
66.4863	590.10
66.5008	586.65
66.5152	581.00
66.5297	604.28
66.5441	597.54
66.5585	610.49
66.5730	609.49
66.5874	607.42
66.6019	621.89
66.6163	592.73
66.6307	578.36
66.6452	595.48
66.6596	631.26
66.6741	596.03
66.6885	599.80
66.7029	630.34
66.7174	625.98
66.7318	577.83
66.7463	571.00
66.7607	586.29
66.7751	602.63
66.7896	605.26
66.8040	605.31
66.8185	589.96
66.8329	586.96
66.8473	583.85
66.8618	613.72
66.8762	596.66
66.8907	545.22
66.9051	584.79
66.9195	570.21
66.9340	581.45
66.9484	579.67
66.9629	557.63
66.9773	571.70
66.9917	552.70
67.0062	564.48
67.0206	582.48
67.0351	630.49
67.0495	605.50
67.0639	581.13
67.0784	581.59
67.0928	637.03
67.1073	578.64
67.1217	613.80
67.1361	586.95
67.1506	575.05
67.1650	577.36
67.1795	597.30
67.1939	581.56
67.2083	586.69
67.2228	593.26
67.2372	611.84
67.2517	603.75
67.2661	585.44
67.2805	560.70
67.2950	563.31
67.3094	569.91
67.3239	592.19
67.3383	588.91
67.3527	597.22
67.3672	582.95
67.3816	566.15
67.3961	558.35
67.4105	553.54
67.4250	592.06
67.4394	598.64
67.4538	548.77
67.4683	563.39
67.4827	569.12
67.4972	555.17
67.5116	566.98
67.5260	579.49
67.5405	587.36
67.5549	590.84
67.5694	582.24
67.5838	577.71
67.5982	562.38
67.6127	557.02
67.6271	555.30
67.6416	540.80
67.6560	578.82
67.6704	553.70
67.6849	535.50
67.6993	536.33
67.7138	571.95
67.7282	587.99
67.7426	598.60
67.7571	570.73
67.7715	561.35
67.7860	580.87
67.8004	571.35
67.8148	577.02
67.8293	562.68
67.8437	561.56
67.8582	568.34
67.8726	573.47
67.8870	575.83
67.9015	577.04
67.9159	582.15
67.9304	569.96
67.9448	610.06
67.9592	523.95
67.9737	561.03
67.9881	554.64
68.0026	568.53
68.0170	551.21
68.0314	595.23
68.0459	550.26
68.0603	556.50
68.0748	567.38
68.0892	617.38
68.1036	594.55
68.1181	580.54
68.1325	589.97
68.1470	559.50
68.1614	573.39
68.1758	585.65
68.1903	571.65
68.2047	564.81
68.2192	604.90
68.2336	569.08
68.2480	596.38
68.2625	581.95
68.2769	588.41
68.2914	581.40
68.3058	572.29
68.3202	573.69
68.3347	586.46
68.3491	604.24
68.3636	586.42
68.3780	561.34
68.3924	586.92
68.4069	592.09
68.4213	564.22
68.4358	572.55
68.4502	559.53
68.4646	618.38
68.4791	578.11
68.4935	570.15
68.5080	563.18
68.5224	562.34
68.5368	566.01
68.5513	601.62
68.5657	607.59
68.5802	584.34
68.5946	563.18
68.6090	580.87
68.6235	615.97
68.6379	588.23
68.6524	569.04
68.6668	561.38
68.6812	574.47
68.6957	541.84
68.7101	566.01
68.7246	557.11
68.7390	566.96
68.7534	580.05
68.7679	560.84
68.7823	578.85
68.7968	523.11
68.8112	560.26
68.8256	557.73
68.8401	585.48
68.8545	594.20
68.8690	590.32
68.8834	569.67
68.8978	615.45
68.9123	605.77
68.9267	584.86
68.9412	547.64
68.9556	548.97
68.9700	586.09
68.9845	630.61
68.9989	590.48
69.0134	586.11
69.0278	597.45
69.0422	580.58
69.0567	598.89
69.0711	586.03
69.0856	606.65
69.1000	564.57
69.1144	595.16
69.1289	562.58
69.1433	627.32
69.1578	562.69
69.1722	541.76
69.1866	597.10
69.2011	570.19
69.2155	571.81
69.2300	583.68
69.2444	565.11
69.2588	554.14
69.2733	560.75
69.2877	588.49
69.3022	565.60
69.3166	571.31
69.3310	589.14
69.3455	573.07
69.3599	572.19
69.3744	566.08
69.3888	571.54
69.4032	562.10
69.4177	599.02
69.4321	628.23
69.4466	559.58
69.4610	577.13
69.4754	624.74
69.4899	576.39
69.5043	572.40
69.5188	531.99
69.5332	572.84
69.5476	583.48
69.5621	582.11
69.5765	566.09
69.5910	585.46
69.6054	614.40
69.6198	549.83
69.6343	648.05
69.6487	601.78
69.6632	577.97
69.6776	620.87
69.6920	582.54
69.7065	624.19
69.7209	602.68
69.7354	564.15
69.7498	561.18
69.7642	602.76
69.7787	652.57
69.7931	588.24
69.8076	585.76
69.8220	582.08
69.8364	574.22
69.8509	545.07
69.8653	563.53
69.8798	564.05
69.8942	586.81
69.9086	554.92
69.9231	529.40
69.9375	564.35
69.9520	594.74
69.9664	603.91
69.9808	586.80
69.9953	575.28
70.0097	536.80
70.0242	575.74
70.0386	566.66
70.0530	574.10
70.0675	592.45
70.0819	558.67
70.0964	578.04
70.1108	612.12
70.1252	596.10
70.1397	591.76
70.1541	586.07
70.1686	584.17
70.1830	563.99
70.1974	596.02
70.2119	586.17
70.2263	539.71
70.2408	533.28
70.2552	577.89
70.2696	539.75
70.2841	529.29
70.2985	570.48
70.3130	547.18
70.3274	551.24
70.3418	566.45
70.3563	587.38
70.3707	575.63
70.3852	556.40
70.3996	595.01
70.4140	572.98
70.4285	625.20
70.4429	562.18
70.4574	598.35
70.4718	647.19
70.4862	624.80
70.5007	571.95
70.5151	578.64
70.5296	563.88
70.5440	641.68
70.5584	553.69
70.5729	544.06
70.5873	550.40
70.6018	569.46
70.6162	625.07
70.6306	604.87
70.6451	627.39
70.6595	551.53
70.6740	532.72
70.6884	497.23
70.7028	581.20
70.7173	581.79
70.7317	558.06
70.7462	521.17
70.7606	532.17
70.7750	584.05
70.7895	572.84
70.8039	628.97
70.8184	567.13
70.8328	532.53
70.8472	546.77
70.8617	575.40
70.8761	564.96
70.8906	542.38
70.9050	572.45
70.9194	588.96
70.9339	593.65
70.9483	604.85
70.9628	588.40
70.9772	603.44
70.9916	603.18
71.0061	551.54
71.0205	599.98
71.0350	596.80
71.0494	578.91
71.0638	579.51
71.0783	565.44
71.0927	573.86
71.1072	569.48
71.1216	545.99
71.1361	578.82
71.1505	627.36
71.1649	619.42
71.1794	581.32
71.1938	544.04
71.2083	592.13
71.2227	561.91
71.2371	493.59
71.2516	557.89
71.2660	551.16
71.2805	525.85
71.2949	541.32
71.3093	556.02
71.3238	561.83
71.3382	582.40
71.3527	614.23
71.3671	576.39
71.3815	569.70
71.3960	552.23
71.4104	547.28
71.4249	603.02
71.4393	614.36
71.4537	530.25
71.4682	538.24
71.4826	553.88
71.4971	568.44
71.5115	558.14
71.5259	537.14
71.5404	580.43
71.5548	599.98
71.5693	583.03
71.5837	566.90
71.5981	583.26
71.6126	594.92
71.6270	589.24
71.6415	582.48
71.6559	591.46
71.6703	616.32
71.6848	578.11
71.6992	585.85
71.7137	568.24
71.7281	562.34
71.7425	550.19
71.7570	540.75
71.7714	615.28
71.7859	552.06
71.8003	534.30
71.8147	601.25
71.8292	641.66
71.8436	618.91
71.8581	596.05
71.8725	584.57
71.8869	584.61
71.9014	633.47
71.9158	592.60
71.9303	575.42
71.9447	533.29
71.9591	596.02
71.9736	636.57
71.9880	579.12
72.0025	529.07
72.0169	562.70
72.0313	633.44
72.0458	592.53
72.0602	531.66
72.0747	494.74
72.0891	554.41
72.1035	601.46
72.1180	567.65
72.1324	593.24
72.1469	537.84
72.1613	572.32
72.1757	645.35
72.1902	665.96
72.2046	565.94
72.2191	569.83
72.2335	622.06
72.2479	579.51
72.2624	555.33
72.2768	582.82
72.2913	550.31
72.3057	577.98
72.3201	570.18
72.3346	512.56
72.3490	599.11
72.3635	594.71
72.3779	588.65
72.3923	558.58
72.4068	518.34
72.4212	569.92
72.4357	699.78
72.4501	720.97
72.4645	651.01
72.4790	534.14
72.4934	529.97
72.5079	609.81
72.5223	612.80
72.5367	599.37
72.5512	609.60
72.5656	569.84
72.5801	558.58
72.5945	556.75
72.6089	540.76
72.6234	587.69
72.6378	525.29
72.6523	620.19
72.6667	637.10
72.6811	652.54
72.6956	690.11
72.7100	638.73
72.7245	572.94
72.7389	598.28
72.7533	561.59
72.7678	518.15
72.7822	588.06
72.7967	552.16
72.8111	509.25
72.8255	592.56
72.8400	597.88
72.8544	557.38
72.8689	528.03
72.8833	523.09