2022.09.19 19:37:17
Îáðàçåö: ß÷åéêà LCoV 16-09-2022
Lambda1 = 1.54060
Lambda2 = 1.54439
Lambdam = 1.54186
R = 0.497
2Theta	I

line¹ 0 ;repeat¹ 0
22.1120	509.28
22.1264	585.91
22.1409	558.19
22.1553	564.40
22.1697	544.01
22.1842	543.32
22.1986	512.94
22.2131	603.85
22.2275	534.45
22.2419	560.57
22.2564	666.32
22.2708	637.21
22.2853	634.48
22.2997	607.72
22.3141	612.95
22.3286	514.91
22.3430	524.87
22.3575	561.37
22.3719	640.63
22.3863	592.30
22.4008	553.66
22.4152	624.17
22.4297	614.19
22.4441	586.59
22.4585	666.71
22.4730	685.55
22.4874	598.89
22.5019	552.53
22.5163	528.98
22.5307	584.72
22.5452	583.39
22.5596	594.24
22.5741	521.71
22.5885	661.36
22.6029	629.55
22.6174	537.56
22.6318	517.01
22.6463	519.24
22.6607	628.62
22.6751	595.82
22.6896	481.76
22.7040	590.85
22.7185	589.58
22.7329	575.78
22.7473	511.83
22.7618	501.47
22.7762	476.01
22.7907	487.36
22.8051	518.34
22.8195	602.06
22.8340	544.88
22.8484	539.13
22.8629	546.45
22.8773	588.08
22.8917	603.83
22.9062	569.34
22.9206	498.95
22.9351	474.24
22.9495	573.61
22.9639	568.16
22.9784	535.85
22.9928	618.04
23.0073	620.27
23.0217	565.89
23.0361	607.38
23.0506	561.57
23.0650	564.09
23.0795	448.65
23.0939	507.78
23.1083	471.75
23.1228	541.32
23.1372	619.20
23.1517	583.21
23.1661	562.58
23.1806	535.17
23.1950	553.87
23.2094	545.63
23.2239	551.27
23.2383	525.64
23.2528	540.69
23.2672	496.99
23.2816	546.15
23.2961	519.70
23.3105	568.85
23.3250	503.48
23.3394	565.71
23.3538	637.97
23.3683	543.61
23.3827	547.48
23.3972	549.63
23.4116	519.45
23.4260	670.00
23.4405	533.58
23.4549	445.17
23.4694	511.34
23.4838	557.91
23.4982	547.90
23.5127	606.62
23.5271	551.54
23.5416	564.88
23.5560	613.63
23.5704	580.50
23.5849	652.31
23.5993	588.02
23.6138	505.82
23.6282	494.43
23.6426	504.44
23.6571	548.40
23.6715	518.14
23.6860	520.64
23.7004	563.68
23.7148	580.50
23.7293	538.95
23.7437	553.41
23.7582	591.81
23.7726	583.02
23.7870	622.25
23.8015	554.18
23.8159	609.44
23.8304	542.46
23.8448	525.09
23.8592	620.42
23.8737	512.09
23.8881	472.31
23.9026	574.71
23.9170	480.53
23.9314	594.48
23.9459	465.00
23.9603	465.24
23.9748	528.23
23.9892	569.07
24.0036	576.46
24.0181	594.64
24.0325	600.80
24.0470	544.79
24.0614	520.09
24.0758	502.09
24.0903	563.16
24.1047	467.61
24.1192	575.50
24.1336	567.26
24.1480	513.67
24.1625	531.93
24.1769	600.13
24.1914	594.98
24.2058	585.13
24.2202	578.76
24.2347	656.02
24.2491	626.26
24.2636	649.64
24.2780	592.94
24.2924	584.45
24.3069	546.40
24.3213	580.27
24.3358	587.07
24.3502	581.67
24.3646	551.89
24.3791	577.05
24.3935	522.60
24.4080	498.60
24.4224	508.91
24.4368	523.80
24.4513	553.92
24.4657	539.35
24.4802	508.74
24.4946	555.71
24.5090	539.35
24.5235	552.45
24.5379	536.58
24.5524	516.64
24.5668	586.62
24.5812	574.06
24.5957	533.03
24.6101	555.67
24.6246	552.79
24.6390	539.30
24.6534	565.35
24.6679	550.98
24.6823	550.24
24.6968	554.49
24.7112	593.16
24.7256	534.91
24.7401	552.21
24.7545	560.22
24.7690	501.37
24.7834	534.87
24.7978	496.40
24.8123	575.84
24.8267	575.85
24.8412	595.95
24.8556	566.54
24.8700	486.74
24.8845	516.85
24.8989	587.41
24.9134	514.39
24.9278	501.10
24.9422	529.85
24.9567	499.84
24.9711	567.71
24.9856	528.40
25.0000	514.39
25.0144	498.09
25.0289	524.06
25.0433	557.87
25.0578	549.90
25.0722	586.30
25.0866	639.92
25.1011	615.60
25.1155	606.90
25.1300	551.38
25.1444	518.75
25.1588	521.23
25.1733	537.95
25.1877	555.33
25.2022	529.17
25.2166	533.19
25.2310	569.98
25.2455	523.98
25.2599	550.05
25.2744	563.62
25.2888	555.62
25.3032	542.92
25.3177	484.19
25.3321	536.32
25.3466	565.26
25.3610	563.94
25.3754	547.82
25.3899	562.65
25.4043	512.71
25.4188	562.01
25.4332	549.47
25.4476	502.85
25.4621	525.33
25.4765	582.24
25.4910	527.20
25.5054	559.79
25.5198	502.01
25.5343	525.70
25.5487	516.38
25.5632	505.59
25.5776	515.64
25.5920	515.03
25.6065	530.88
25.6209	542.00
25.6354	539.03
25.6498	528.88
25.6642	490.82
25.6787	553.86
25.6931	521.27
25.7076	558.87
25.7220	551.06
25.7364	516.22
25.7509	547.34
25.7653	520.04
25.7798	544.77
25.7942	524.34
25.8086	550.66
25.8231	512.00
25.8375	479.22
25.8520	545.91
25.8664	572.39
25.8808	527.86
25.8953	531.22
25.9097	527.72
25.9242	547.53
25.9386	561.93
25.9530	523.67
25.9675	522.45
25.9819	536.72
25.9964	511.29
26.0108	537.35
26.0252	548.97
26.0397	510.81
26.0541	518.13
26.0686	516.86
26.0830	552.45
26.0974	551.31
26.1119	527.83
26.1263	537.61
26.1408	548.69
26.1552	557.32
26.1696	562.88
26.1841	529.63
26.1985	502.65
26.2130	531.95
26.2274	530.69
26.2418	566.17
26.2563	573.71
26.2707	520.88
26.2852	528.08
26.2996	535.43
26.3140	530.65
26.3285	519.83
26.3429	547.68
26.3574	525.06
26.3718	539.96
26.3862	505.94
26.4007	502.71
26.4151	526.72
26.4296	539.26
26.4440	511.90
26.4584	528.46
26.4729	517.11
26.4873	539.76
26.5018	523.90
26.5162	500.10
26.5306	531.43
26.5451	535.15
26.5595	536.29
26.5740	522.92
26.5884	553.19
26.6028	556.20
26.6173	538.97
26.6317	556.94
26.6462	560.23
26.6606	549.19
26.6750	500.48
26.6895	482.98
26.7039	510.26
26.7184	518.64
26.7328	516.26
26.7472	547.52
26.7617	529.62
26.7761	535.38
26.7906	558.85
26.8050	548.40
26.8194	526.05
26.8339	564.01
26.8483	546.23
26.8628	563.43
26.8772	547.74
26.8917	569.76
26.9061	533.61
26.9205	528.76
26.9350	505.01
26.9494	494.89
26.9639	521.11
26.9783	543.50
26.9927	535.79
27.0072	493.04
27.0216	520.60
27.0361	522.90
27.0505	517.43
27.0649	528.81
27.0794	520.15
27.0938	563.49
27.1083	517.50
27.1227	504.90
27.1371	530.13
27.1516	504.56
27.1660	490.67
27.1805	515.96
27.1949	525.49
27.2093	534.56
27.2238	477.46
27.2382	514.56
27.2527	499.62
27.2671	498.07
27.2815	503.66
27.2960	512.60
27.3104	480.32
27.3249	503.96
27.3393	510.36
27.3537	492.60
27.3682	506.60
27.3826	513.35
27.3971	508.59
27.4115	528.80
27.4259	518.95
27.4404	507.13
27.4548	507.25
27.4693	520.93
27.4837	492.34
27.4981	490.50
27.5126	497.50
27.5270	522.00
27.5415	552.41
27.5559	522.43
27.5703	522.61
27.5848	516.91
27.5992	532.61
27.6137	516.24
27.6281	539.38
27.6425	508.16
27.6570	526.77
27.6714	534.83
27.6859	523.36
27.7003	500.94
27.7147	556.77
27.7292	490.41
27.7436	546.87
27.7581	544.99
27.7725	508.02
27.7869	507.34
27.8014	497.94
27.8158	514.09
27.8303	475.89
27.8447	516.74
27.8591	516.27
27.8736	514.37
27.8880	492.44
27.9025	538.74
27.9169	506.00
27.9313	545.12
27.9458	541.44
27.9602	532.27
27.9747	510.50
27.9891	483.06
28.0035	514.58
28.0180	522.26
28.0324	519.28
28.0469	505.15
28.0613	472.28
28.0757	479.65
28.0902	534.61
28.1046	503.03
28.1191	519.58
28.1335	499.19
28.1479	497.70
28.1624	498.42
28.1768	514.40
28.1913	515.41
28.2057	508.08
28.2201	513.57
28.2346	501.48
28.2490	506.14
28.2635	471.96
28.2779	487.25
28.2923	500.52
28.3068	530.49
28.3212	491.77
28.3357	503.46
28.3501	510.36
28.3645	501.53
28.3790	495.93
28.3934	525.18
28.4079	495.96
28.4223	498.83
28.4367	498.29
28.4512	493.50
28.4656	526.78
28.4801	497.55
28.4945	527.38
28.5089	508.46
28.5234	531.14
28.5378	518.85
28.5523	496.64
28.5667	523.59
28.5811	487.54
28.5956	510.54
28.6100	507.15
28.6245	529.02
28.6389	534.20
28.6533	508.07
28.6678	530.38
28.6822	507.52
28.6967	512.83
28.7111	515.05
28.7255	509.63
28.7400	461.56
28.7544	481.57
28.7689	489.02
28.7833	489.60
28.7977	470.30
28.8122	509.77
28.8266	512.23
28.8411	514.71
28.8555	517.55
28.8699	544.28
28.8844	505.97
28.8988	492.13
28.9133	513.28
28.9277	462.82
28.9421	501.74
28.9566	452.33
28.9710	457.74
28.9855	510.57
28.9999	494.02
29.0143	495.87
29.0288	509.32
29.0432	507.47
29.0577	504.52
29.0721	505.22
29.0865	521.18
29.1010	529.95
29.1154	575.00
29.1299	532.56
29.1443	494.39
29.1587	514.43
29.1732	472.57
29.1876	506.90
29.2021	477.19
29.2165	471.12
29.2309	485.51
29.2454	517.02
29.2598	528.12
29.2743	530.47
29.2887	499.37
29.3031	470.57
29.3176	505.77
29.3320	478.49
29.3465	513.56
29.3609	491.14
29.3753	501.71
29.3898	486.86
29.4042	490.68
29.4187	558.17
29.4331	517.26
29.4475	489.33
29.4620	501.67
29.4764	545.28
29.4909	516.70
29.5053	511.83
29.5197	521.20
29.5342	508.49
29.5486	497.49
29.5631	518.29
29.5775	504.69
29.5919	505.19
29.6064	479.69
29.6208	485.84
29.6353	510.05
29.6497	512.86
29.6641	479.47
29.6786	479.42
29.6930	495.88
29.7075	553.20
29.7219	509.86
29.7363	487.58
29.7508	502.20
29.7652	492.19
29.7797	489.77
29.7941	522.28
29.8085	513.16
29.8230	517.31
29.8374	507.92
29.8519	501.34
29.8663	523.44
29.8807	513.90
29.8952	519.80
29.9096	518.61
29.9241	507.60
29.9385	520.29
29.9529	543.31
29.9674	486.11
29.9818	477.97
29.9963	470.50
30.0107	501.40
30.0251	525.50
30.0396	492.23
30.0540	493.13
30.0685	504.04
30.0829	516.37
30.0973	534.87
30.1118	515.04
30.1262	510.50
30.1407	526.24
30.1551	507.15
30.1695	501.07
30.1840	508.37
30.1984	517.27
30.2129	535.72
30.2273	499.51
30.2417	501.34
30.2562	498.31
30.2706	511.76
30.2851	520.65
30.2995	493.34
30.3139	505.94
30.3284	505.33
30.3428	504.94
30.3573	503.54
30.3717	479.58
30.3861	524.60
30.4006	481.95
30.4150	515.02
30.4295	523.14
30.4439	517.87
30.4583	497.00
30.4728	498.51
30.4872	528.17
30.5017	526.01
30.5161	513.09
30.5305	550.11
30.5450	530.09
30.5594	536.67
30.5739	563.70
30.5883	601.73
30.6028	594.01
30.6172	557.03
30.6316	599.43
30.6461	655.18
30.6605	644.15
30.6750	689.05
30.6894	674.65
30.7038	700.20
30.7183	679.19
30.7327	706.50
30.7472	697.60
30.7616	663.44
30.7760	671.83
30.7905	615.55
30.8049	584.60
30.8194	592.22
30.8338	603.58
30.8482	577.97
30.8627	577.63
30.8771	563.63
30.8916	544.35
30.9060	557.11
30.9204	543.88
30.9349	505.10
30.9493	535.31
30.9638	531.98
30.9782	535.03
30.9926	534.96
31.0071	494.77
31.0215	477.78
31.0360	529.28
31.0504	508.20
31.0648	557.91
31.0793	535.25
31.0937	513.49
31.1082	511.03
31.1226	533.95
31.1370	541.87
31.1515	501.24
31.1659	535.72
31.1804	560.75
31.1948	520.23
31.2092	528.81
31.2237	499.40
31.2381	510.16
31.2526	547.89
31.2670	511.96
31.2814	510.36
31.2959	503.01
31.3103	552.26
31.3248	514.64
31.3392	509.82
31.3536	541.83
31.3681	519.13
31.3825	505.57
31.3970	482.08
31.4114	490.40
31.4258	507.73
31.4403	483.73
31.4547	493.31
31.4692	491.21
31.4836	495.14
31.4980	503.17
31.5125	503.63
31.5269	499.42
31.5414	501.79
31.5558	504.95
31.5702	483.73
31.5847	518.73
31.5991	546.01
31.6136	522.91
31.6280	514.09
31.6424	490.21
31.6569	495.22
31.6713	506.80
31.6858	467.20
31.7002	480.84
31.7146	511.64
31.7291	510.61
31.7435	515.83
31.7580	515.06
31.7724	500.78
31.7868	513.15
31.8013	489.56
31.8157	518.87
31.8302	496.93
31.8446	476.00
31.8590	488.55
31.8735	477.28
31.8879	477.41
31.9024	495.56
31.9168	516.02
31.9312	477.15
31.9457	442.73
31.9601	460.94
31.9746	527.64
31.9890	511.88
32.0034	523.99
32.0179	507.16
32.0323	515.63
32.0468	511.62
32.0612	511.05
32.0756	493.62
32.0901	523.09
32.1045	519.07
32.1190	490.52
32.1334	491.88
32.1478	487.51
32.1623	535.14
32.1767	508.60
32.1912	497.80
32.2056	497.62
32.2200	495.42
32.2345	486.69
32.2489	512.60
32.2634	524.39
32.2778	528.30
32.2922	510.03
32.3067	509.00
32.3211	495.41
32.3356	504.91
32.3500	514.10
32.3644	508.43
32.3789	483.48
32.3933	479.45
32.4078	510.02
32.4222	515.57
32.4366	512.89
32.4511	520.38
32.4655	521.37
32.4800	518.89
32.4944	485.78
32.5088	476.17
32.5233	476.09
32.5377	496.81
32.5522	515.68
32.5666	524.55
32.5810	508.89
32.5955	501.49
32.6099	515.26
32.6244	484.66
32.6388	521.61
32.6532	489.23
32.6677	491.07
32.6821	489.18
32.6966	466.61
32.7110	497.03
32.7254	490.22
32.7399	495.99
32.7543	505.02
32.7688	509.45
32.7832	518.42
32.7976	565.96
32.8121	510.27
32.8265	529.31
32.8410	492.95
32.8554	547.72
32.8698	496.05
32.8843	510.61
32.8987	580.21
32.9132	507.10
32.9276	508.15
32.9420	569.04
32.9565	517.56
32.9709	473.68
32.9854	436.61
32.9998	508.89
33.0142	526.36
33.0287	501.51
33.0431	556.08
33.0576	504.71
33.0720	506.20
33.0864	494.92
33.1009	503.02
33.1153	518.72
33.1298	497.81
33.1442	451.94
33.1586	512.12
33.1731	501.92
33.1875	518.89
33.2020	529.66
33.2164	530.01
33.2308	505.66
33.2453	492.30
33.2597	469.98
33.2742	506.64
33.2886	509.65
33.3030	535.55
33.3175	491.96
33.3319	500.59
33.3464	505.01
33.3608	511.69
33.3752	504.79
33.3897	504.35
33.4041	513.82
33.4186	525.32
33.4330	531.00
33.4474	486.85
33.4619	485.79
33.4763	479.92
33.4908	513.81
33.5052	476.03
33.5196	478.06
33.5341	488.00
33.5485	503.63
33.5630	500.59
33.5774	480.80
33.5918	531.13
33.6063	526.10
33.6207	548.53
33.6352	512.08
33.6496	543.82
33.6640	525.34
33.6785	508.01
33.6929	481.75
33.7074	517.07
33.7218	481.29
33.7362	499.28
33.7507	493.91
33.7651	483.01
33.7796	502.32
33.7940	476.07
33.8084	512.28
33.8229	516.40
33.8373	517.29
33.8518	513.27
33.8662	500.81
33.8806	487.24
33.8951	489.54
33.9095	530.89
33.9240	539.94
33.9384	547.34
33.9528	486.03
33.9673	493.28
33.9817	515.47
33.9962	517.25
34.0106	482.51
34.0250	504.07
34.0395	474.89
34.0539	490.70
34.0684	519.66
34.0828	493.83
34.0972	500.17
34.1117	464.90
34.1261	515.57
34.1406	494.16
34.1550	476.22
34.1694	482.12
34.1839	512.11
34.1983	526.95
34.2128	540.53
34.2272	481.89
34.2417	500.82
34.2561	507.27
34.2705	499.98
34.2850	507.22
34.2994	489.47
34.3139	493.85
34.3283	465.39
34.3427	491.90
34.3572	523.86
34.3716	536.93
34.3861	499.97
34.4005	477.13
34.4149	506.91
34.4294	531.92
34.4438	516.22
34.4583	508.26
34.4727	526.27
34.4871	494.09
34.5016	497.29
34.5160	482.67
34.5305	502.18
34.5449	518.68
34.5593	527.00
34.5738	516.56
34.5882	491.09
34.6027	511.81
34.6171	512.23
34.6315	495.16
34.6460	539.91
34.6604	519.46
34.6749	504.66
34.6893	510.28
34.7037	516.19
34.7182	478.67
34.7326	510.83
34.7471	510.36
34.7615	487.70
34.7759	527.13
34.7904	541.79
34.8048	484.67
34.8193	493.72
34.8337	513.74
34.8481	523.03
34.8626	504.80
34.8770	494.11
34.8915	523.48
34.9059	545.44
34.9203	519.88
34.9348	516.21
34.9492	535.62
34.9637	489.63
34.9781	527.72
34.9925	510.25
35.0070	476.77
35.0214	517.86
35.0359	509.88
35.0503	506.19
35.0647	507.61
35.0792	513.60
35.0936	501.27
35.1081	515.49
35.1225	541.30
35.1369	518.52
35.1514	483.78
35.1658	493.26
35.1803	476.58
35.1947	476.56
35.2091	492.03
35.2236	525.06
35.2380	501.99
35.2525	500.73
35.2669	508.54
35.2813	516.71
35.2958	506.61
35.3102	513.91
35.3247	519.36
35.3391	525.60
35.3535	499.01
35.3680	505.79
35.3824	503.04
35.3969	502.97
35.4113	497.76
35.4257	523.19
35.4402	484.89
35.4546	496.15
35.4691	508.42
35.4835	510.34
35.4979	504.04
35.5124	555.57
35.5268	555.87
35.5413	570.04
35.5557	536.57
35.5701	524.01
35.5846	519.45
35.5990	522.64
35.6135	500.65
35.6279	480.56
35.6423	493.76
35.6568	521.22
35.6712	565.70
35.6857	603.48
35.7001	641.82
35.7145	718.15
35.7290	668.83
35.7434	613.27
35.7579	593.47
35.7723	604.85
35.7867	646.23
35.8012	728.91
35.8156	719.85
35.8301	658.18
35.8445	662.35
35.8589	669.64
35.8734	753.49
35.8878	863.71
35.9023	1018.85
35.9167	1046.97
35.9311	1166.27
35.9456	1723.41
35.9600	2124.46
35.9745	1970.36
35.9889	2021.83
36.0033	2498.60
36.0178	3097.97
36.0322	3129.87
36.0467	2269.05
36.0611	1985.26
36.0755	1908.76
36.0900	1889.16
36.1044	1654.05
36.1189	1584.58
36.1333	1657.79
36.1477	1438.47
36.1622	1364.46
36.1766	1340.87
36.1911	1241.44
36.2055	1103.26
36.2199	1069.81
36.2344	988.40
36.2488	877.48
36.2633	834.50
36.2777	805.06
36.2921	738.30
36.3066	718.18
36.3210	650.00
36.3355	648.00
36.3499	633.23
36.3643	581.35
36.3788	577.87
36.3932	600.01
36.4077	587.90
36.4221	570.88
36.4365	628.49
36.4510	587.53
36.4654	573.30
36.4799	569.45
36.4943	556.09
36.5087	528.75
36.5232	538.97
36.5376	544.01
36.5521	512.38
36.5665	531.75
36.5809	524.41
36.5954	508.84
36.6098	537.04
36.6243	558.70
36.6387	560.25
36.6531	515.87
36.6676	547.53
36.6820	523.00
36.6965	508.00
36.7109	540.07
36.7253	541.29
36.7398	534.72
36.7542	549.47
36.7687	499.89
36.7831	552.29
36.7975	596.37
36.8120	551.36
36.8264	546.21
36.8409	579.05
36.8553	584.30
36.8697	628.18
36.8842	565.62
36.8986	599.16
36.9131	595.17
36.9275	535.44
36.9419	606.96
36.9564	583.03
36.9708	540.76
36.9853	569.74
36.9997	566.82
37.0141	558.10
37.0286	559.87
37.0430	531.26
37.0575	523.46
37.0719	515.28
37.0863	547.83
37.1008	504.39
37.1152	504.41
37.1297	494.73
37.1441	518.18
37.1585	522.07
37.1730	502.21
37.1874	490.04
37.2019	490.95
37.2163	508.11
37.2307	471.43
37.2452	480.42
37.2596	466.61
37.2741	494.24
37.2885	476.62
37.3029	498.82
37.3174	497.10
37.3318	520.06
37.3463	524.68
37.3607	476.27
37.3751	518.60
37.3896	484.30
37.4040	488.29
37.4185	536.77
37.4329	522.25
37.4473	477.48
37.4618	494.01
37.4762	497.76
37.4907	524.96
37.5051	485.67
37.5195	489.21
37.5340	493.58
37.5484	513.83
37.5629	513.58
37.5773	510.72
37.5917	495.94
37.6062	511.80
37.6206	523.11
37.6351	516.81
37.6495	516.86
37.6639	531.35
37.6784	506.83
37.6928	469.75
37.7073	515.32
37.7217	489.51
37.7361	484.34
37.7506	498.03
37.7650	478.65
37.7795	496.15
37.7939	493.12
37.8083	509.38
37.8228	484.71
37.8372	501.84
37.8517	514.25
37.8661	554.75
37.8805	490.61
37.8950	494.08
37.9094	512.89
37.9239	497.14
37.9383	524.89
37.9528	497.76
37.9672	487.28
37.9816	512.05
37.9961	517.49
38.0105	491.63
38.0250	500.09
38.0394	512.48
38.0538	478.14
38.0683	493.62
38.0827	483.23
38.0972	495.29
38.1116	518.12
38.1260	526.76
38.1405	496.86
38.1549	497.10
38.1694	509.86
38.1838	488.76
38.1982	503.54
38.2127	511.22
38.2271	528.97
38.2416	532.21
38.2560	508.15
38.2704	504.36
38.2849	498.31
38.2993	484.19
38.3138	522.30
38.3282	524.84
38.3426	531.97
38.3571	514.61
38.3715	470.01
38.3860	478.09
38.4004	507.31
38.4148	525.54
38.4293	562.66
38.4437	588.64
38.4582	621.65
38.4726	623.90
38.4870	694.24
38.5015	707.33
38.5159	738.70
38.5304	830.13
38.5448	820.60
38.5592	744.39
38.5737	736.54
38.5881	760.47
38.6026	725.40
38.6170	683.71
38.6314	696.94
38.6459	690.83
38.6603	621.33
38.6748	619.04
38.6892	579.64
38.7036	546.88
38.7181	554.83
38.7325	502.20
38.7470	482.42
38.7614	521.19
38.7758	541.97
38.7903	519.21
38.8047	506.46
38.8192	514.80
38.8336	519.82
38.8480	504.02
38.8625	533.38
38.8769	498.26
38.8914	473.00
38.9058	529.56
38.9202	554.29
38.9347	513.70
38.9491	465.00
38.9636	486.60
38.9780	480.64
38.9924	492.17
39.0069	467.70
39.0213	488.48
39.0358	491.87
39.0502	490.42
39.0646	539.04
39.0791	513.15
39.0935	496.46
39.1080	526.90
39.1224	542.19
39.1368	505.22
39.1513	448.95
39.1657	502.43
39.1802	520.53
39.1946	471.15
39.2090	463.30
39.2235	503.89
39.2379	551.96
39.2524	530.64
39.2668	489.83
39.2812	506.19
39.2957	497.40
39.3101	494.56
39.3246	484.94
39.3390	531.80
39.3534	530.98
39.3679	485.90
39.3823	505.28
39.3968	510.68
39.4112	517.46
39.4256	511.85
39.4401	513.03
39.4545	528.30
39.4690	532.01
39.4834	519.09
39.4978	498.44
39.5123	502.60
39.5267	502.69
39.5412	532.48
39.5556	528.44
39.5700	501.15
39.5845	479.48
39.5989	486.74
39.6134	495.04
39.6278	513.96
39.6422	525.81
39.6567	502.85
39.6711	505.66
39.6856	474.80
39.7000	477.65
39.7144	515.74
39.7289	494.58
39.7433	487.68
39.7578	468.63
39.7722	492.34
39.7866	510.16
39.8011	485.35
39.8155	529.29
39.8300	502.65
39.8444	497.98
39.8588	502.31
39.8733	499.05
39.8877	477.17
39.9022	517.13
39.9166	491.96
39.9310	488.76
39.9455	508.84
39.9599	461.73
39.9744	486.03
39.9888	472.96
40.0032	490.68
40.0177	493.31
40.0321	510.86
40.0466	489.21
40.0610	507.99
40.0754	513.51
40.0899	489.29
40.1043	523.73
40.1188	527.37
40.1332	503.10
40.1476	480.92
40.1621	518.02
40.1765	512.70
40.1910	494.16
40.2054	504.49
40.2198	492.86
40.2343	485.13
40.2487	514.12
40.2632	493.98
40.2776	489.18
40.2920	489.10
40.3065	499.50
40.3209	532.51
40.3354	518.46
40.3498	492.28
40.3642	476.30
40.3787	495.50
40.3931	502.70
40.4076	515.27
40.4220	497.71
40.4364	512.45
40.4509	474.64
40.4653	502.76
40.4798	510.02
40.4942	506.83
40.5086	508.55
40.5231	496.21
40.5375	512.02
40.5520	485.65
40.5664	514.52
40.5808	511.69
40.5953	491.04
40.6097	504.81
40.6242	469.66
40.6386	511.32
40.6530	526.30
40.6675	495.51
40.6819	492.05
40.6964	479.44
40.7108	499.90
40.7252	479.46
40.7397	513.03
40.7541	476.66
40.7686	463.31
40.7830	453.16
40.7974	451.09
40.8119	481.41
40.8263	471.48
40.8408	499.57
40.8552	508.20
40.8696	489.25
40.8841	500.47
40.8985	540.51
40.9130	514.19
40.9274	476.51
40.9418	486.89
40.9563	496.84
40.9707	496.04
40.9852	485.28
40.9996	485.96
41.0140	522.88
41.0285	507.84
41.0429	489.47
41.0574	500.91
41.0718	488.10
41.0862	512.73
41.1007	497.76
41.1151	510.75
41.1296	516.01
41.1440	502.31
41.1584	513.60
41.1729	475.44
41.1873	498.10
41.2018	482.19
41.2162	486.78
41.2306	457.73
41.2451	493.73
41.2595	518.00
41.2740	493.31
41.2884	475.64
41.3028	508.41
41.3173	516.92
41.3317	482.29
41.3462	535.32
41.3606	514.21
41.3750	485.97
41.3895	508.53
41.4039	484.63
41.4184	501.49
41.4328	514.94
41.4472	496.05
41.4617	506.00
41.4761	515.87
41.4906	495.79
41.5050	515.39
41.5194	496.94
41.5339	457.43
41.5483	478.66
41.5628	518.42
41.5772	515.42
41.5916	498.82
41.6061	541.52
41.6205	513.24
41.6350	544.55
41.6494	492.88
41.6639	509.62
41.6783	480.56
41.6927	482.46
41.7072	495.04
41.7216	529.05
41.7361	506.87
41.7505	514.30
41.7649	502.57
41.7794	486.59
41.7938	458.11
41.8083	517.82
41.8227	503.08
41.8371	543.29
41.8516	514.78
41.8660	544.98
41.8805	539.75
41.8949	505.32
41.9093	562.22
41.9238	517.20
41.9382	526.79
41.9527	574.84
41.9671	543.04
41.9815	533.36
41.9960	573.18
42.0104	550.39
42.0249	578.24
42.0393	584.61
42.0537	575.04
42.0682	523.42
42.0826	565.34
42.0971	603.90
42.1115	570.47
42.1259	584.78
42.1404	639.91
42.1548	627.69
42.1693	637.18
42.1837	667.15
42.1981	766.72
42.2126	844.32
42.2270	972.39
42.2415	1122.71
42.2559	1229.66
42.2703	1382.16
42.2848	1497.11
42.2992	1592.64
42.3137	1678.51
42.3281	1713.42
42.3425	1622.25
42.3570	1480.67
42.3714	1464.04
42.3859	1394.58
42.4003	1378.81
42.4147	1326.90
42.4292	1266.60
42.4436	1178.60
42.4581	1050.64
42.4725	930.41
42.4869	826.96
42.5014	745.32
42.5158	698.48
42.5303	668.66
42.5447	605.58
42.5591	624.25
42.5736	588.12
42.5880	585.80
42.6025	578.32
42.6169	585.38
42.6313	583.94
42.6458	575.57
42.6602	544.54
42.6747	520.85
42.6891	512.74
42.7035	554.09
42.7180	543.25
42.7324	480.65
42.7469	489.58
42.7613	518.27
42.7757	531.00
42.7902	496.58
42.8046	491.31
42.8191	526.12
42.8335	524.91
42.8479	507.34
42.8624	503.88
42.8768	507.29
42.8913	510.19
42.9057	530.76
42.9201	524.88
42.9346	503.12
42.9490	501.53
42.9635	530.04
42.9779	533.29
42.9923	495.63
43.0068	497.12
43.0212	513.13
43.0357	506.94
43.0501	509.16
43.0645	532.44
43.0790	511.14
43.0934	517.98
43.1079	507.94
43.1223	518.07
43.1367	485.44
43.1512	512.55
43.1656	498.92
43.1801	507.89
43.1945	497.82
43.2089	512.49
43.2234	514.95
43.2378	505.97
43.2523	533.80
43.2667	510.33
43.2811	531.45
43.2956	492.12
43.3100	519.11
43.3245	523.94
43.3389	527.65
43.3533	498.63
43.3678	502.04
43.3822	525.35
43.3967	511.84
43.4111	529.76
43.4255	550.89
43.4400	506.35
43.4544	483.51
43.4689	512.03
43.4833	520.63
43.4977	495.74
43.5122	485.90
43.5266	486.38
43.5411	478.00
43.5555	528.80
43.5699	529.94
43.5844	533.11
43.5988	507.64
43.6133	526.50
43.6277	506.62
43.6421	535.14
43.6566	524.33
43.6710	532.32
43.6855	518.04
43.6999	549.52
43.7143	543.05
43.7288	551.29
43.7432	530.12
43.7577	502.45
43.7721	533.28
43.7865	571.19
43.8010	561.26
43.8154	577.99
43.8299	565.81
43.8443	541.95
43.8587	601.01
43.8732	598.42
43.8876	595.34
43.9021	622.34
43.9165	625.03
43.9309	642.51
43.9454	674.97
43.9598	654.42
43.9743	614.27
43.9887	584.79
44.0031	569.44
44.0176	604.98
44.0320	592.36
44.0465	555.19
44.0609	593.54
44.0753	561.05
44.0898	572.62
44.1042	544.68
44.1187	555.98
44.1331	564.93
44.1475	516.15
44.1620	487.42
44.1764	554.89
44.1909	568.68
44.2053	504.27
44.2197	518.26
44.2342	537.72
44.2486	522.26
44.2631	518.25
44.2775	560.86
44.2919	552.30
44.3064	511.61
44.3208	539.68
44.3353	539.67
44.3497	560.23
44.3641	493.98
44.3786	560.09
44.3930	524.55
44.4075	537.22
44.4219	559.59
44.4363	548.27
44.4508	568.18
44.4652	601.64
44.4797	565.17
44.4941	599.50
44.5085	557.39
44.5230	542.37
44.5374	586.41
44.5519	582.23
44.5663	597.51
44.5807	598.01
44.5952	558.87
44.6096	496.59
44.6241	516.68
44.6385	582.29
44.6529	571.84
44.6674	583.49
44.6818	534.43
44.6963	617.08
44.7107	671.35
44.7251	698.45
44.7396	669.15
44.7540	763.66
44.7685	838.76
44.7829	885.28
44.7973	889.63
44.8118	856.59
44.8262	855.47
44.8407	816.17
44.8551	764.23
44.8695	763.62
44.8840	728.28
44.8984	660.02
44.9129	743.42
44.9273	649.34
44.9417	684.08
44.9562	606.27
44.9706	549.22
44.9851	568.67
44.9995	551.42
45.0139	560.23
45.0284	544.52
45.0428	522.95
45.0573	521.88
45.0717	528.62
45.0861	516.64
45.1006	516.97
45.1150	483.51
45.1295	485.23
45.1439	494.29
45.1583	490.73
45.1728	511.65
45.1872	518.97
45.2017	493.83
45.2161	504.57
45.2305	534.85
45.2450	491.18
45.2594	508.03
45.2739	521.40
45.2883	516.75
45.3028	526.00
45.3172	517.55
45.3316	492.31
45.3461	499.52
45.3605	533.80
45.3750	514.77
45.3894	487.35
45.4038	483.28
45.4183	505.93
45.4327	513.80
45.4472	513.76
45.4616	514.47
45.4760	528.99
45.4905	505.28
45.5049	470.34
45.5194	501.02
45.5338	511.77
45.5482	523.79
45.5627	461.44
45.5771	467.72
45.5916	524.70
45.6060	525.06
45.6204	513.54
45.6349	485.10
45.6493	501.01
45.6638	500.14
45.6782	505.48
45.6926	510.07
45.7071	515.48
45.7215	521.56
45.7360	498.30
45.7504	499.58
45.7648	498.77
45.7793	475.02
45.7937	500.89
45.8082	545.62
45.8226	513.22
45.8370	504.76
45.8515	493.46
45.8659	530.40
45.8804	524.65
45.8948	530.20
45.9092	513.82
45.9237	500.29
45.9381	525.96
45.9526	493.07
45.9670	489.76
45.9814	494.57
45.9959	509.23
46.0103	472.62
46.0248	481.11
46.0392	477.84
46.0536	496.65
46.0681	515.53
46.0825	488.79
46.0970	500.50
46.1114	508.60
46.1258	530.59
46.1403	498.77
46.1547	460.03
46.1692	486.98
46.1836	511.65
46.1980	504.83
46.2125	492.30
46.2269	472.69
46.2414	499.73
46.2558	518.22
46.2702	528.40
46.2847	524.62
46.2991	476.34
46.3136	498.33
46.3280	503.69
46.3424	506.74
46.3569	464.01
46.3713	489.06
46.3858	504.73
46.4002	493.32
46.4146	506.64
46.4291	513.55
46.4435	523.90
46.4580	516.52
46.4724	521.85
46.4868	504.11
46.5013	473.25
46.5157	484.87
46.5302	511.97
46.5446	501.31
46.5590	491.93
46.5735	504.27
46.5879	521.06
46.6024	482.94
46.6168	507.24
46.6312	484.01
46.6457	500.67
46.6601	487.38
46.6746	482.74
46.6890	481.51
46.7034	507.86
46.7179	509.26
46.7323	477.43
46.7468	475.98
46.7612	501.19
46.7756	499.28
46.7901	519.34
46.8045	497.22
46.8190	531.41
46.8334	505.27
46.8478	521.60
46.8623	484.58
46.8767	515.33
46.8912	505.16
46.9056	499.06
46.9200	521.53
46.9345	502.36
46.9489	514.82
46.9634	527.09
46.9778	496.85
46.9922	497.88
47.0067	475.56
47.0211	513.95
47.0356	492.45
47.0500	471.29
47.0644	502.68
47.0789	534.13
47.0933	524.83
47.1078	486.72
47.1222	511.18
47.1366	519.48
47.1511	495.57
47.1655	523.23
47.1800	511.45
47.1944	482.11
47.2088	482.16
47.2233	512.65
47.2377	514.65
47.2522	499.16
47.2666	476.20
47.2810	501.55
47.2955	522.76
47.3099	524.91
47.3244	480.25
47.3388	475.78
47.3532	489.84
47.3677	518.56
47.3821	517.12
47.3966	497.39
47.4110	497.52
47.4254	509.42
47.4399	489.01
47.4543	487.51
47.4688	515.19
47.4832	501.70
47.4976	512.69
47.5121	523.45
47.5265	521.61
47.5410	492.27
47.5554	507.79
47.5698	499.11
47.5843	485.29
47.5987	511.22
47.6132	524.90
47.6276	502.86
47.6420	521.17
47.6565	522.38
47.6709	504.77
47.6854	481.76
47.6998	501.21
47.7142	532.03
47.7287	500.65
47.7431	472.04
47.7576	495.07
47.7720	492.75
47.7864	523.52
47.8009	475.96
47.8153	513.43
47.8298	517.38
47.8442	468.31
47.8586	495.62
47.8731	485.14
47.8875	495.60
47.9020	506.10
47.9164	493.38
47.9308	467.65
47.9453	511.76
47.9597	514.67
47.9742	548.53
47.9886	514.29
48.0030	542.51
48.0175	518.98
48.0319	510.78
48.0464	482.45
48.0608	522.45
48.0752	499.01
48.0897	492.04
48.1041	496.16
48.1186	502.98
48.1330	539.51
48.1474	493.57
48.1619	523.04
48.1763	522.23
48.1908	494.73
48.2052	510.34
48.2196	506.90
48.2341	497.82
48.2485	504.39
48.2630	482.51
48.2774	499.96
48.2918	519.72
48.3063	503.66
48.3207	498.34
48.3352	494.49
48.3496	506.78
48.3640	481.20
48.3785	477.31
48.3929	477.48
48.4074	485.47
48.4218	556.73
48.4362	517.44
48.4507	490.25
48.4651	498.09
48.4796	542.19
48.4940	515.53
48.5084	490.13
48.5229	530.47
48.5373	535.22
48.5518	513.37
48.5662	510.62
48.5806	541.77
48.5951	508.64
48.6095	520.76
48.6240	503.42
48.6384	515.18
48.6528	534.80
48.6673	520.76
48.6817	510.33
48.6962	534.10
48.7106	494.21
48.7250	499.52
48.7395	506.86
48.7539	522.08
48.7684	523.55
48.7828	511.28
48.7972	529.63
48.8117	546.26
48.8261	535.89
48.8406	536.48
48.8550	568.95
48.8694	518.96
48.8839	544.63
48.8983	576.78
48.9128	548.68
48.9272	511.65
48.9416	550.68
48.9561	527.17
48.9705	559.17
48.9850	568.61
48.9994	607.13
49.0139	565.64
49.0283	573.54
49.0427	593.40
49.0572	596.58
49.0716	606.63
49.0861	640.06
49.1005	716.49
49.1149	684.88
49.1294	725.68
49.1438	743.00
49.1583	766.16
49.1727	862.09
49.1871	897.86
49.2016	952.71
49.2160	1056.33
49.2305	1144.02
49.2449	1239.30
49.2593	1313.28
49.2738	1380.72
49.2882	1491.68
49.3027	1589.98
49.3171	1596.17
49.3315	1743.76
49.3460	1776.43
49.3604	1899.04
49.3749	1779.95
49.3893	1788.25
49.4037	1793.28
49.4182	1784.71
49.4326	1763.65
49.4471	1701.03
49.4615	1627.78
49.4759	1583.02
49.4904	1486.27
49.5048	1398.93
49.5193	1329.87
49.5337	1271.59
49.5481	1189.16
49.5626	1143.61
49.5770	1065.59
49.5915	951.90
49.6059	950.04
49.6203	839.12
49.6348	788.09
49.6492	827.46
49.6637	767.32
49.6781	701.71
49.6925	691.51
49.7070	696.01
49.7214	659.92
49.7359	643.30
49.7503	596.07
49.7647	595.16
49.7792	591.24
49.7936	550.47
49.8081	574.64
49.8225	590.84
49.8369	597.53
49.8514	565.45
49.8658	615.69
49.8803	563.99
49.8947	529.01
49.9091	539.75
49.9236	548.18
49.9380	556.84
49.9525	534.50
49.9669	486.56
49.9813	510.28
49.9958	517.53
50.0102	546.79
50.0247	550.15
50.0391	495.87
50.0535	524.05
50.0680	527.69
50.0824	512.56
50.0969	507.46
50.1113	540.22
50.1257	537.29
50.1402	540.30
50.1546	508.32
50.1691	503.10
50.1835	511.77
50.1979	493.08
50.2124	530.94
50.2268	514.93
50.2413	507.21
50.2557	483.48
50.2701	512.11
50.2846	495.76
50.2990	511.55
50.3135	507.67
50.3279	531.10
50.3423	495.82
50.3568	510.95
50.3712	514.47
50.3857	497.69
50.4001	476.43
50.4145	482.44
50.4290	527.88
50.4434	502.20
50.4579	483.10
50.4723	519.71
50.4867	521.85
50.5012	518.91
50.5156	515.50
50.5301	537.80
50.5445	503.38
50.5589	521.40
50.5734	504.54
50.5878	500.13
50.6023	482.19
50.6167	528.63
50.6311	496.61
50.6456	498.51
50.6600	490.93
50.6745	511.31
50.6889	499.60
50.7033	514.43
50.7178	529.37
50.7322	503.99
50.7467	472.98
50.7611	504.42
50.7755	526.97
50.7900	526.11
50.8044	509.37
50.8189	492.84
50.8333	528.47
50.8477	533.15
50.8622	518.28
50.8766	493.28
50.8911	504.07
50.9055	561.63
50.9199	527.64
50.9344	504.96
50.9488	514.84
50.9633	471.28
50.9777	484.62
50.9921	519.36
51.0066	478.94
51.0210	469.14
51.0355	495.97
51.0499	492.68
51.0643	511.33
51.0788	541.81
51.0932	538.96
51.1077	528.20
51.1221	523.65
51.1365	507.79
51.1510	495.06
51.1654	505.81
51.1799	497.55
51.1943	532.76
51.2087	514.04
51.2232	526.91
51.2376	520.83
51.2521	527.97
51.2665	467.28
51.2809	475.42
51.2954	500.75
51.3098	517.52
51.3243	499.07
51.3387	508.32
51.3531	494.33
51.3676	493.53
51.3820	494.65
51.3965	505.97
51.4109	504.18
51.4253	518.75
51.4398	504.35
51.4542	500.62
51.4687	506.26
51.4831	520.69
51.4975	500.57
51.5120	483.83
51.5264	519.03
51.5409	519.32
51.5553	517.89
51.5697	469.86
51.5842	491.54
51.5986	491.24
51.6131	522.46
51.6275	512.77
51.6419	501.81
51.6564	492.69
51.6708	496.78
51.6853	494.64
51.6997	494.20
51.7141	494.04
51.7286	468.95
51.7430	465.93
51.7575	475.72
51.7719	483.89
51.7863	490.02
51.8008	514.53
51.8152	534.51
51.8297	517.71
51.8441	507.61
51.8585	512.03
51.8730	507.74
51.8874	504.11
51.9019	508.08
51.9163	502.76
51.9307	502.37
51.9452	568.89
51.9596	501.80
51.9741	545.36
51.9885	526.03
52.0029	508.99
52.0174	540.74
52.0318	535.85
52.0463	510.18
52.0607	518.49
52.0751	517.64
52.0896	531.28
52.1040	566.23
52.1185	533.75
52.1329	495.74
52.1473	498.32
52.1618	514.77
52.1762	493.35
52.1907	478.28
52.2051	459.72
52.2195	469.82
52.2340	513.30
52.2484	497.03
52.2629	492.18
52.2773	508.41
52.2917	494.77
52.3062	501.28
52.3206	509.51
52.3351	521.14
52.3495	490.62
52.3639	484.90
52.3784	488.05
52.3928	467.52
52.4073	484.41
52.4217	470.98
52.4361	504.14
52.4506	504.17
52.4650	504.77
52.4795	506.93
52.4939	510.52
52.5083	485.98
52.5228	502.08
52.5372	498.71
52.5517	491.47
52.5661	510.31
52.5805	474.75
52.5950	532.50
52.6094	493.52
52.6239	512.15
52.6383	523.46
52.6527	519.43
52.6672	526.82
52.6816	509.28
52.6961	508.15
52.7105	495.57
52.7250	493.71
52.7394	510.52
52.7538	512.59
52.7683	449.56
52.7827	493.99
52.7972	501.31
52.8116	513.08
52.8260	516.24
52.8405	529.65
52.8549	499.62
52.8694	521.13
52.8838	489.83
52.8982	524.48
52.9127	536.51
52.9271	509.59
52.9416	548.11
52.9560	522.91
52.9704	520.42
52.9849	506.80
52.9993	497.43
53.0138	503.07
53.0282	529.66
53.0426	535.89
53.0571	520.10
53.0715	463.33
53.0860	517.96
53.1004	474.22
53.1148	498.98
53.1293	534.49
53.1437	499.81
53.1582	517.25
53.1726	533.85
53.1870	494.83
53.2015	507.50
53.2159	483.86
53.2304	505.86
53.2448	507.05
53.2592	515.15
53.2737	511.63
53.2881	523.80
53.3026	493.75
53.3170	499.41
53.3314	530.28
53.3459	517.54
53.3603	505.23
53.3748	493.82
53.3892	514.24
53.4036	511.85
53.4181	517.11
53.4325	521.56
53.4470	519.19
53.4614	550.41
53.4758	539.03
53.4903	520.25
53.5047	532.98
53.5192	483.54
53.5336	500.11
53.5480	542.08
53.5625	542.88
53.5769	509.31
53.5914	500.94
53.6058	530.01
53.6202	512.44
53.6347	503.80
53.6491	507.40
53.6636	481.04
53.6780	482.10
53.6924	497.62
53.7069	517.74
53.7213	533.79
53.7358	503.61
53.7502	495.46
53.7646	491.29
53.7791	484.63
53.7935	517.66
53.8080	510.18
53.8224	512.61
53.8368	543.40
53.8513	515.07
53.8657	532.16
53.8802	514.67
53.8946	494.56
53.9090	511.23
53.9235	531.03
53.9379	530.55
53.9524	499.87
53.9668	495.02
53.9812	546.98
53.9957	554.89
54.0101	501.61
54.0246	520.58
54.0390	509.13
54.0534	511.45
54.0679	537.66
54.0823	547.49
54.0968	538.65
54.1112	529.14
54.1256	542.38
54.1401	527.85
54.1545	512.08
54.1690	545.10
54.1834	483.02
54.1978	467.64
54.2123	508.37
54.2267	513.71
54.2412	543.75
54.2556	531.22
54.2700	516.96
54.2845	551.40
54.2989	532.56
54.3134	541.79
54.3278	548.98
54.3422	577.45
54.3567	591.15
54.3711	583.51
54.3856	543.96
54.4000	542.01
54.4144	550.94
54.4289	583.67
54.4433	574.63
54.4578	565.70
54.4722	603.84
54.4866	614.68
54.5011	607.67
54.5155	596.46
54.5300	592.42
54.5444	571.00
54.5588	594.85
54.5733	568.04
54.5877	588.48
54.6022	592.23
54.6166	617.61
54.6310	557.20
54.6455	551.29
54.6599	556.09
54.6744	535.57
54.6888	524.66
54.7032	588.14
54.7177	590.33
54.7321	525.89
54.7466	502.33
54.7610	551.87
54.7754	557.44
54.7899	548.85
54.8043	527.96
54.8188	526.68
54.8332	521.53
54.8476	504.20
54.8621	525.89
54.8765	496.67
54.8910	512.12
54.9054	518.36
54.9198	493.22
54.9343	536.26
54.9487	526.53
54.9632	511.72
54.9776	512.74
54.9920	516.64
55.0065	502.07
55.0209	540.44
55.0354	544.95
55.0498	511.32
55.0642	539.34
55.0787	555.78
55.0931	529.58
55.1076	518.92
55.1220	507.83
55.1364	520.55
55.1509	521.22
55.1653	512.21
55.1798	553.20
55.1942	539.04
55.2086	507.97
55.2231	502.39
55.2375	505.86
55.2520	472.14
55.2664	494.69
55.2808	503.45
55.2953	491.10
55.3097	531.32
55.3242	539.05
55.3386	536.54
55.3530	524.91
55.3675	537.93
55.3819	501.70
55.3964	466.19
55.4108	497.85
55.4252	529.91
55.4397	496.80
55.4541	516.29
55.4686	528.17
55.4830	509.61
55.4974	498.87
55.5119	505.34
55.5263	513.44
55.5408	502.05
55.5552	537.57
55.5696	538.94
55.5841	512.85
55.5985	534.65
55.6130	514.53
55.6274	498.26
55.6418	536.41
55.6563	514.42
55.6707	521.45
55.6852	504.04
55.6996	503.86
55.7140	534.38
55.7285	534.08
55.7429	512.27
55.7574	514.05
55.7718	481.30
55.7862	522.74
55.8007	523.51
55.8151	522.22
55.8296	502.56
55.8440	527.70
55.8584	500.44
55.8729	494.80
55.8873	496.00
55.9018	538.91
55.9162	547.32
55.9306	513.49
55.9451	540.56
55.9595	520.00
55.9740	521.31
55.9884	526.75
56.0028	530.96
56.0173	516.99
56.0317	521.89
56.0462	541.25
56.0606	512.02
56.0750	476.71
56.0895	524.73
56.1039	522.30
56.1184	561.45
56.1328	520.67
56.1472	486.20
56.1617	513.66
56.1761	513.72
56.1906	485.89
56.2050	480.05
56.2194	511.05
56.2339	486.18
56.2483	515.37
56.2628	509.09
56.2772	496.84
56.2916	538.95
56.3061	539.55
56.3205	538.15
56.3350	543.66
56.3494	498.20
56.3639	478.19
56.3783	464.82
56.3927	492.82
56.4072	508.65
56.4216	498.54
56.4361	491.58
56.4505	522.17
56.4649	540.75
56.4794	522.47
56.4938	491.30
56.5083	509.66
56.5227	504.91
56.5371	553.58
56.5516	548.73
56.5660	535.12
56.5805	505.14
56.5949	517.11
56.6093	489.27
56.6238	511.08
56.6382	545.61
56.6527	504.14
56.6671	496.17
56.6815	497.05
56.6960	514.35
56.7104	535.81
56.7249	513.83
56.7393	510.56
56.7537	501.15
56.7682	517.54
56.7826	512.47
56.7971	486.88
56.8115	511.10
56.8259	500.52
56.8404	467.39
56.8548	548.86
56.8693	531.94
56.8837	509.07
56.8981	567.95
56.9126	534.77
56.9270	505.03
56.9415	557.13
56.9559	503.86
56.9703	496.68
56.9848	501.71
56.9992	539.39
57.0137	511.53
57.0281	498.35
57.0425	454.97
57.0570	481.29
57.0714	530.67
57.0859	521.42
57.1003	505.40
57.1147	502.20
57.1292	520.28
57.1436	510.79
57.1581	548.56
57.1725	562.10
57.1869	525.87
57.2014	519.55
57.2158	509.55
57.2303	548.41
57.2447	528.56
57.2591	487.99
57.2736	514.66
57.2880	522.87
57.3025	515.26
57.3169	559.63
57.3313	544.21
57.3458	543.13
57.3602	499.81
57.3747	499.18
57.3891	528.02
57.4035	489.78
57.4180	526.51
57.4324	573.82
57.4469	541.30
57.4613	533.90
57.4757	554.55
57.4902	498.66
57.5046	516.07
57.5191	522.09
57.5335	486.19
57.5479	538.49
57.5624	551.57
57.5768	517.64
57.5913	521.37
57.6057	537.72
57.6201	504.96
57.6346	527.95
57.6490	527.92
57.6635	528.01
57.6779	510.73
57.6923	518.44
57.7068	546.22
57.7212	523.14
57.7357	511.98
57.7501	544.72
57.7645	532.53
57.7790	515.73
57.7934	540.96
57.8079	549.10
57.8223	515.63
57.8367	510.45
57.8512	542.31
57.8656	551.86
57.8801	565.30
57.8945	590.62
57.9089	534.55
57.9234	556.40
57.9378	570.42
57.9523	556.47
57.9667	567.48
57.9811	612.13
57.9956	604.49
58.0100	579.06
58.0245	610.30
58.0389	615.35
58.0533	645.17
58.0678	631.63
58.0822	654.77
58.0967	627.57
58.1111	644.19
58.1255	694.42
58.1400	648.43
58.1544	611.87
58.1689	623.95
58.1833	649.04
58.1977	646.75
58.2122	653.59
58.2266	678.53
58.2411	667.01
58.2555	650.21
58.2699	628.08
58.2844	653.88
58.2988	610.09
58.3133	646.93
58.3277	624.26
58.3421	610.58
58.3566	581.29
58.3710	603.45
58.3855	538.91
58.3999	548.07
58.4143	552.85
58.4288	600.77
58.4432	553.77
58.4577	554.30
58.4721	554.29
58.4865	586.81
58.5010	524.58
58.5154	527.13
58.5299	538.11
58.5443	571.13
58.5587	555.03
58.5732	537.95
58.5876	538.88
58.6021	561.60
58.6165	540.88
58.6309	525.27
58.6454	529.78
58.6598	562.20
58.6743	534.77
58.6887	508.17
58.7031	545.76
58.7176	527.37
58.7320	520.93
58.7465	537.25
58.7609	546.99
58.7753	545.62
58.7898	535.25
58.8042	556.20
58.8187	550.26
58.8331	555.82
58.8475	545.01
58.8620	536.12
58.8764	554.09
58.8909	522.54
58.9053	529.63
58.9197	519.17
58.9342	515.81
58.9486	507.34
58.9631	493.31
58.9775	537.61
58.9919	562.70
59.0064	525.17
59.0208	503.51
59.0353	513.78
59.0497	521.52
59.0641	546.57
59.0786	570.33
59.0930	576.38
59.1075	542.03
59.1219	540.81
59.1363	547.06
59.1508	511.31
59.1652	549.28
59.1797	537.32
59.1941	509.52
59.2085	535.25
59.2230	522.41
59.2374	544.99
59.2519	550.08
59.2663	524.00
59.2807	565.79
59.2952	549.94
59.3096	541.43
59.3241	536.13
59.3385	550.33
59.3529	595.33
59.3674	586.43
59.3818	540.63
59.3963	552.55
59.4107	537.05
59.4251	559.83
59.4396	535.84
59.4540	517.17
59.4685	566.92
59.4829	517.05
59.4973	524.20
59.5118	537.30
59.5262	556.67
59.5407	556.53
59.5551	543.09
59.5695	531.37
59.5840	553.02
59.5984	514.35
59.6129	537.54
59.6273	529.12
59.6417	588.04
59.6562	558.29
59.6706	554.20
59.6851	517.01
59.6995	525.18
59.7139	567.54
59.7284	513.41
59.7428	521.72
59.7573	527.71
59.7717	528.02
59.7861	558.62
59.8006	515.15
59.8150	541.80
59.8295	536.65
59.8439	542.61
59.8583	509.06
59.8728	537.86
59.8872	557.68
59.9017	520.55
59.9161	525.54
59.9305	541.71
59.9450	523.15
59.9594	543.63
59.9739	503.62
59.9883	539.51
60.0027	542.59
60.0172	570.51
60.0316	547.96
60.0461	528.85
60.0605	513.06
60.0750	508.37
60.0894	522.78
60.1038	517.75
60.1183	551.67
60.1327	563.79
60.1472	495.43
60.1616	556.70
60.1760	545.82
60.1905	539.35
60.2049	562.95
60.2194	529.54
60.2338	563.64
60.2482	533.94
60.2627	510.34
60.2771	539.68
60.2916	568.24
60.3060	544.48
60.3204	514.61
60.3349	584.47
60.3493	549.60
60.3638	552.54
60.3782	553.92
60.3926	553.46
60.4071	544.77
60.4215	558.81
60.4360	566.35
60.4504	554.11
60.4648	535.74
60.4793	488.47
60.4937	539.27
60.5082	528.48
60.5226	517.95
60.5370	528.44
60.5515	504.04
60.5659	512.24
60.5804	501.59
60.5948	527.69
60.6092	521.09
60.6237	511.02
60.6381	526.72
60.6526	563.54
60.6670	513.96
60.6814	500.58
60.6959	560.62
60.7103	567.22
60.7248	537.40
60.7392	521.17
60.7536	519.07
60.7681	535.82
60.7825	551.83
60.7970	524.28
60.8114	512.34
60.8258	542.65
60.8403	518.67
60.8547	571.31
60.8692	538.77
60.8836	497.20
60.8980	537.75
60.9125	572.21
60.9269	538.06
60.9414	522.53
60.9558	503.57
60.9702	483.11
60.9847	511.47
60.9991	582.37
61.0136	530.72
61.0280	537.60
61.0424	570.42
61.0569	537.82
61.0713	539.99
61.0858	559.49
61.1002	568.50
61.1146	607.24
61.1291	587.48
61.1435	541.36
61.1580	527.42
61.1724	538.33
61.1868	513.74
61.2013	505.50
61.2157	513.31
61.2302	524.51
61.2446	562.64
61.2590	536.65
61.2735	545.20
61.2879	553.54
61.3024	525.53
61.3168	552.83
61.3312	559.62
61.3457	588.38
61.3601	560.63
61.3746	543.32
61.3890	518.14
61.4034	535.00
61.4179	546.30
61.4323	538.25
61.4468	523.79
61.4612	524.36
61.4756	558.53
61.4901	547.50
61.5045	533.13
61.5190	553.89
61.5334	553.12
61.5478	472.12
61.5623	549.26
61.5767	522.60
61.5912	511.40
61.6056	535.76
61.6200	544.92
61.6345	539.29
61.6489	543.01
61.6634	523.47
61.6778	548.93
61.6922	528.67
61.7067	558.22
61.7211	548.93
61.7356	531.43
61.7500	540.01
61.7644	532.78
61.7789	520.31
61.7933	505.43
61.8078	558.69
61.8222	534.29
61.8366	538.91
61.8511	515.31
61.8655	558.59
61.8800	535.48
61.8944	566.62
61.9088	556.51
61.9233	542.04
61.9377	553.55
61.9522	545.53
61.9666	526.32
61.9810	518.23
61.9955	583.73
62.0099	555.75
62.0244	554.74
62.0388	558.96
62.0532	536.29
62.0677	572.83
62.0821	522.41
62.0966	555.43
62.1110	565.98
62.1254	583.41
62.1399	570.23
62.1543	529.69
62.1688	549.08
62.1832	537.51
62.1976	515.94
62.2121	525.18
62.2265	540.68
62.2410	528.32
62.2554	543.90
62.2698	554.59
62.2843	567.62
62.2987	522.96
62.3132	522.83
62.3276	555.12
62.3420	545.17
62.3565	545.90
62.3709	531.91
62.3854	530.21
62.3998	530.61
62.4142	563.78
62.4287	585.77
62.4431	532.15
62.4576	543.06
62.4720	531.51
62.4864	565.53
62.5009	556.17
62.5153	563.73
62.5298	545.66
62.5442	560.48
62.5586	542.36
62.5731	542.70
62.5875	528.91
62.6020	570.82
62.6164	564.27
62.6308	559.32
62.6453	575.95
62.6597	558.92
62.6742	525.94
62.6886	521.29
62.7030	560.16
62.7175	558.42
62.7319	552.71
62.7464	563.57
62.7608	549.50
62.7752	571.01
62.7897	558.84
62.8041	548.29
62.8186	583.73
62.8330	533.97
62.8474	560.80
62.8619	546.53
62.8763	555.43
62.8908	560.27
62.9052	556.51
62.9196	556.06
62.9341	548.64
62.9485	544.75
62.9630	555.32
62.9774	571.17
62.9918	569.83
63.0063	532.56
63.0207	580.17
63.0352	598.55
63.0496	566.07
63.0640	567.03
63.0785	585.70
63.0929	590.76
63.1074	534.05
63.1218	556.32
63.1362	548.12
63.1507	554.48
63.1651	568.84
63.1796	591.47
63.1940	546.43
63.2084	552.38
63.2229	563.60
63.2373	594.35
63.2518	590.66
63.2662	549.08
63.2806	592.04
63.2951	585.52
63.3095	569.33
63.3240	566.82
63.3384	565.12
63.3528	588.67
63.3673	561.38
63.3817	564.28
63.3962	536.68
63.4106	539.58
63.4250	605.69
63.4395	601.10
63.4539	555.06
63.4684	583.46
63.4828	593.63
63.4972	590.51
63.5117	585.44
63.5261	605.31
63.5406	582.25
63.5550	581.62
63.5694	643.42
63.5839	602.24
63.5983	668.82
63.6128	658.31
63.6272	640.21
63.6416	663.92
63.6561	695.39
63.6705	633.10
63.6850	650.50
63.6994	712.84
63.7138	728.42
63.7283	690.18
63.7427	720.42
63.7572	770.74
63.7716	761.01
63.7861	765.66
63.8005	727.99
63.8149	764.13
63.8294	782.78
63.8438	794.25
63.8583	762.87
63.8727	847.99
63.8871	809.83
63.9016	878.80
63.9160	835.53
63.9305	853.64
63.9449	870.21
63.9593	811.51
63.9738	785.02
63.9882	807.02
64.0027	778.89
64.0171	794.36
64.0315	815.63
64.0460	747.56
64.0604	718.70
64.0749	728.89
64.0893	716.38
64.1037	710.43
64.1182	688.03
64.1326	646.67
64.1471	611.85
64.1615	641.67
64.1759	643.58
64.1904	642.58
64.2048	647.43
64.2193	624.49
64.2337	639.63
64.2481	630.11
64.2626	627.86
64.2770	669.60
64.2915	643.75
64.3059	605.20
64.3203	611.10
64.3348	630.98
64.3492	604.98
64.3637	625.63
64.3781	628.22
64.3925	611.34
64.4070	586.55
64.4214	614.49
64.4359	620.72
64.4503	605.16
64.4647	602.87
64.4792	648.15
64.4936	676.02
64.5081	603.14
64.5225	613.75
64.5369	612.89
64.5514	605.36
64.5658	653.88
64.5803	633.24
64.5947	666.83
64.6091	672.16
64.6236	651.58
64.6380	647.21
64.6525	630.18
64.6669	628.84
64.6813	628.78
64.6958	632.02
64.7102	698.13
64.7247	697.93
64.7391	675.02
64.7535	689.41
64.7680	650.35
64.7824	733.41
64.7969	710.58
64.8113	784.22
64.8257	820.66
64.8402	802.44
64.8546	833.42
64.8691	846.47
64.8835	816.22
64.8979	832.23
64.9124	843.25
64.9268	844.49
64.9413	906.31
64.9557	943.68
64.9701	954.58
64.9846	1015.76
64.9990	1153.05
65.0135	1199.42
65.0279	1420.25
65.0423	1626.21
65.0568	2011.75
65.0712	2505.48
65.0857	3155.76
65.1001	4238.25
65.1145	5688.81
65.1290	7567.20
65.1434	9107.66
65.1579	10757.39
65.1723	11567.14
65.1867	11455.79
65.2012	10128.45
65.2156	8392.73
65.2301	6570.50
65.2445	5376.48
65.2589	4422.51
65.2734	4166.01
65.2878	4286.69
65.3023	4824.20
65.3167	5474.75
65.3311	6363.42
65.3456	6842.67
65.3600	6955.42
65.3745	6470.93
65.3889	5453.40
65.4033	4514.67
65.4178	3585.99
65.4322	2836.33
65.4467	2115.82
65.4611	1774.77
65.4755	1521.89
65.4900	1308.76
65.5044	1132.82
65.5189	1057.61
65.5333	980.78
65.5477	901.14
65.5622	909.28
65.5766	831.58
65.5911	844.42
65.6055	815.18
65.6199	763.63
65.6344	764.46
65.6488	710.35
65.6633	734.64
65.6777	719.31
65.6921	703.14
65.7066	745.70
65.7210	681.48
65.7355	670.13
65.7499	725.58
65.7643	711.53
65.7788	678.18
65.7932	688.09
65.8077	670.54
65.8221	659.83
65.8365	654.84
65.8510	645.55
65.8654	655.20
65.8799	622.24
65.8943	635.09
65.9087	640.46
65.9232	610.57
65.9376	658.56
65.9521	644.30
65.9665	592.63
65.9809	639.94
65.9954	603.50
66.0098	592.65
66.0243	630.08
66.0387	602.67
66.0531	607.75
66.0676	626.44
66.0820	631.40
66.0965	633.56
66.1109	615.96
66.1253	594.51
66.1398	620.71
66.1542	624.01
66.1687	631.48
66.1831	634.99
66.1975	636.94
66.2120	613.11
66.2264	614.66
66.2409	603.63
66.2553	572.84
66.2697	600.43
66.2842	585.36
66.2986	561.65
66.3131	575.61
66.3275	590.68
66.3419	587.23
66.3564	602.08
66.3708	606.59
66.3853	581.80
66.3997	556.63
66.4141	610.06
66.4286	656.14
66.4430	597.96
66.4575	548.41
66.4719	594.82
66.4863	602.85
66.5008	610.52
66.5152	620.53
66.5297	596.96
66.5441	569.37
66.5585	597.15
66.5730	588.90
66.5874	594.74
66.6019	599.87
66.6163	562.02
66.6307	604.17
66.6452	594.36
66.6596	568.48
66.6741	591.74
66.6885	594.01
66.7029	618.81
66.7174	557.83
66.7318	557.88
66.7463	582.68
66.7607	578.80
66.7751	568.20
66.7896	553.53
66.8040	591.34
66.8185	607.29
66.8329	578.58
66.8473	568.18
66.8618	580.57
66.8762	586.01
66.8907	590.38
66.9051	583.04
66.9195	594.50
66.9340	601.04
66.9484	579.91
66.9629	580.32
66.9773	568.40
66.9917	588.72
67.0062	578.53
67.0206	571.30
67.0351	579.31
67.0495	579.23
67.0639	591.32
67.0784	615.34
67.0928	639.91
67.1073	596.44
67.1217	584.43
67.1361	615.11
67.1506	568.81
67.1650	602.09
67.1795	594.74
67.1939	548.21
67.2083	574.67
67.2228	556.49
67.2372	567.70
67.2517	554.55
67.2661	548.58
67.2805	592.39
67.2950	574.53
67.3094	561.36
67.3239	569.13
67.3383	585.59
67.3527	603.48
67.3672	582.82
67.3816	560.36
67.3961	547.55
67.4105	551.64
67.4250	555.04
67.4394	560.25
67.4538	586.62
67.4683	590.83
67.4827	585.22
67.4972	540.51
67.5116	560.47
67.5260	595.63
67.5405	622.61
67.5549	609.03
67.5694	577.07
67.5838	609.19
67.5982	576.57
67.6127	562.87
67.6271	561.96
67.6416	599.72
67.6560	578.46
67.6704	559.14
67.6849	552.74
67.6993	559.06
67.7138	569.53
67.7282	582.99
67.7426	524.69
67.7571	582.61
67.7715	566.39
67.7860	559.71
67.8004	589.13
67.8148	574.53
67.8293	610.75
67.8437	572.06
67.8582	572.44
67.8726	563.31
67.8870	571.91
67.9015	578.75
67.9159	533.83
67.9304	545.85
67.9448	575.70
67.9592	578.62
67.9737	567.25
67.9881	577.52
68.0026	552.17
68.0170	502.90
68.0314	554.78
68.0459	560.90
68.0603	572.57
68.0748	603.88
68.0892	592.49
68.1036	560.76
68.1181	557.71
68.1325	587.63
68.1470	570.68
68.1614	590.65
68.1758	570.56
68.1903	563.29
68.2047	570.08
68.2192	593.54
68.2336	610.80
68.2480	598.01
68.2625	555.90
68.2769	589.26
68.2914	587.91
68.3058	605.13
68.3202	583.00
68.3347	572.59
68.3491	561.03
68.3636	588.17
68.3780	575.53
68.3924	581.38
68.4069	599.18
68.4213	593.05
68.4358	585.48
68.4502	557.70
68.4646	553.84
68.4791	581.38
68.4935	580.77
68.5080	559.19
68.5224	570.62
68.5368	617.67
68.5513	586.64
68.5657	593.54
68.5802	562.38
68.5946	584.14
68.6090	528.28
68.6235	554.25
68.6379	574.09
68.6524	543.14
68.6668	560.27
68.6812	570.67
68.6957	622.64
68.7101	580.84
68.7246	554.04
68.7390	560.69
68.7534	586.09
68.7679	542.68
68.7823	588.57
68.7968	615.84
68.8112	546.28
68.8256	578.89
68.8401	602.62
68.8545	584.97
68.8690	597.78
68.8834	566.77
68.8978	552.65
68.9123	602.70
68.9267	584.67
68.9412	559.73
68.9556	561.29
68.9700	569.61
68.9845	563.55
68.9989	581.49
69.0134	569.58
69.0278	586.52
69.0422	564.61
69.0567	596.53
69.0711	558.08
69.0856	576.47
69.1000	592.15
69.1144	577.44
69.1289	555.38
69.1433	560.06
69.1578	570.21
69.1722	594.00
69.1866	563.45
69.2011	578.98
69.2155	574.89
69.2300	513.91
69.2444	601.72
69.2588	608.59
69.2733	577.20
69.2877	573.72
69.3022	555.38
69.3166	638.10
69.3310	556.37
69.3455	578.98
69.3599	556.29
69.3744	554.50
69.3888	589.58
69.4032	598.54
69.4177	589.90
69.4321	634.60
69.4466	517.90
69.4610	563.51
69.4754	573.06
69.4899	565.25
69.5043	615.11
69.5188	599.74
69.5332	555.84
69.5476	542.25
69.5621	596.54
69.5765	557.16
69.5910	592.06
69.6054	577.66
69.6198	588.55
69.6343	617.25
69.6487	565.03
69.6632	581.58
69.6776	599.10
69.6920	575.77
69.7065	581.28
69.7209	589.87
69.7354	561.65
69.7498	586.11
69.7642	552.41
69.7787	571.39
69.7931	526.40
69.8076	537.87
69.8220	572.90
69.8364	618.41
69.8509	596.96
69.8653	593.46
69.8798	588.59
69.8942	566.89
69.9086	553.58
69.9231	552.36
69.9375	594.53
69.9520	618.15
69.9664	565.19
69.9808	553.11
69.9953	572.78
70.0097	605.02
70.0242	589.61
70.0386	559.48
70.0530	554.34
70.0675	580.41
70.0819	570.57
70.0964	520.67
70.1108	598.75
70.1252	551.36
70.1397	572.20
70.1541	498.22
70.1686	540.76
70.1830	643.02
70.1974	622.44
70.2119	585.49
70.2263	584.11
70.2408	603.96
70.2552	544.64
70.2696	589.23
70.2841	586.39
70.2985	554.35
70.3130	601.37
70.3274	630.83
70.3418	592.62
70.3563	578.64
70.3707	615.25
70.3852	594.11
70.3996	551.92
70.4140	583.16
70.4285	612.81
70.4429	598.93
70.4574	603.13
70.4718	610.02
70.4862	585.15
70.5007	595.24
70.5151	609.64
70.5296	580.18
70.5440	570.29
70.5584	606.96
70.5729	587.82
70.5873	546.05
70.6018	535.78
70.6162	542.42
70.6306	567.58
70.6451	546.79
70.6595	578.55
70.6740	563.83
70.6884	533.11
70.7028	598.90
70.7173	582.19
70.7317	603.44
70.7462	611.15
70.7606	518.64
70.7750	606.65
70.7895	596.83
70.8039	602.24
70.8184	554.00
70.8328	565.80
70.8472	584.54
70.8617	573.18
70.8761	603.17
70.8906	534.65
70.9050	580.80
70.9194	615.68
70.9339	561.63
70.9483	530.14
70.9628	540.74
70.9772	576.79
70.9916	611.02
71.0061	587.84
71.0205	565.94
71.0350	578.37
71.0494	554.55
71.0638	541.77
71.0783	556.15
71.0927	611.89
71.1072	584.62
71.1216	567.98
71.1361	562.64
71.1505	538.53
71.1649	590.82
71.1794	623.28
71.1938	610.50
71.2083	603.32
71.2227	552.91
71.2371	575.65
71.2516	567.40
71.2660	592.67
71.2805	613.15
71.2949	552.28
71.3093	572.73
71.3238	594.24
71.3382	592.11
71.3527	597.58
71.3671	607.29
71.3815	606.15
71.3960	575.22
71.4104	567.85
71.4249	628.94
71.4393	613.61
71.4537	550.47
71.4682	563.38
71.4826	576.94
71.4971	561.98
71.5115	528.94
71.5259	524.10
71.5404	565.47
71.5548	620.80
71.5693	611.85
71.5837	557.52
71.5981	532.58
71.6126	519.74
71.6270	553.80
71.6415	563.08
71.6559	567.50
71.6703	581.69
71.6848	568.44
71.6992	588.56
71.7137	566.71
71.7281	551.94
71.7425	566.36
71.7570	577.81
71.7714	614.90
71.7859	603.43
71.8003	557.73
71.8147	605.78
71.8292	650.45
71.8436	655.67
71.8581	593.67
71.8725	546.82
71.8869	565.66
71.9014	571.38
71.9158	544.87
71.9303	587.68
71.9447	546.51
71.9591	626.47
71.9736	644.61
71.9880	616.32
72.0025	646.54
72.0169	579.23
72.0313	588.10
72.0458	582.82
72.0602	605.51
72.0747	679.27
72.0891	632.88
72.1035	671.55
72.1180	604.38
72.1324	555.42
72.1469	576.27
72.1613	597.53
72.1757	585.66
72.1902	558.68
72.2046	521.44
72.2191	534.84
72.2335	553.98
72.2479	523.49
72.2624	523.94
72.2768	590.70
72.2913	532.85
72.3057	541.59
72.3201	589.41
72.3346	641.04
72.3490	613.32
72.3635	574.84
72.3779	552.28
72.3923	574.95
72.4068	554.53
72.4212	623.18
72.4357	611.95
72.4501	589.50
72.4645	582.62
72.4790	568.19
72.4934	485.42
72.5079	582.56
72.5223	702.47
72.5367	664.57
72.5512	613.69
72.5656	564.66
72.5801	571.87
72.5945	615.71
72.6089	621.82
72.6234	564.49
72.6378	549.93
72.6523	570.60
72.6667	594.85
72.6811	622.35
72.6956	581.23
72.7100	531.77
72.7245	548.32
72.7389	508.24
72.7533	487.57
72.7678	517.08
72.7822	600.82
72.7967	617.29
72.8111	602.99
72.8255	654.97
72.8400	602.08
72.8544	545.60
72.8689	607.35
72.8833	517.33

Result vector
22.1120	509.28
22.1264	585.91
22.1409	558.19
22.1553	564.40
22.1697	544.01
22.1842	543.32
22.1986	512.94
22.2131	603.85
22.2275	534.45
22.2419	560.57
22.2564	666.32
22.2708	637.21
22.2853	634.48
22.2997	607.72
22.3141	612.95
22.3286	514.91
22.3430	524.87
22.3575	561.37
22.3719	640.63
22.3863	592.30
22.4008	553.66
22.4152	624.17
22.4297	614.19
22.4441	586.59
22.4585	666.71
22.4730	685.55
22.4874	598.89
22.5019	552.53
22.5163	528.98
22.5307	584.72
22.5452	583.39
22.5596	594.24
22.5741	521.71
22.5885	661.36
22.6029	629.55
22.6174	537.56
22.6318	517.01
22.6463	519.24
22.6607	628.62
22.6751	595.82
22.6896	481.76
22.7040	590.85
22.7185	589.58
22.7329	575.78
22.7473	511.83
22.7618	501.47
22.7762	476.01
22.7907	487.36
22.8051	518.34
22.8195	602.06
22.8340	544.88
22.8484	539.13
22.8629	546.45
22.8773	588.08
22.8917	603.83
22.9062	569.34
22.9206	498.95
22.9351	474.24
22.9495	573.61
22.9639	568.16
22.9784	535.85
22.9928	618.04
23.0073	620.27
23.0217	565.89
23.0361	607.38
23.0506	561.57
23.0650	564.09
23.0795	448.65
23.0939	507.78
23.1083	471.75
23.1228	541.32
23.1372	619.20
23.1517	583.21
23.1661	562.58
23.1806	535.17
23.1950	553.87
23.2094	545.63
23.2239	551.27
23.2383	525.64
23.2528	540.69
23.2672	496.99
23.2816	546.15
23.2961	519.70
23.3105	568.85
23.3250	503.48
23.3394	565.71
23.3538	637.97
23.3683	543.61
23.3827	547.48
23.3972	549.63
23.4116	519.45
23.4260	670.00
23.4405	533.58
23.4549	445.17
23.4694	511.34
23.4838	557.91
23.4982	547.90
23.5127	606.62
23.5271	551.54
23.5416	564.88
23.5560	613.63
23.5704	580.50
23.5849	652.31
23.5993	588.02
23.6138	505.82
23.6282	494.43
23.6426	504.44
23.6571	548.40
23.6715	518.14
23.6860	520.64
23.7004	563.68
23.7148	580.50
23.7293	538.95
23.7437	553.41
23.7582	591.81
23.7726	583.02
23.7870	622.25
23.8015	554.18
23.8159	609.44
23.8304	542.46
23.8448	525.09
23.8592	620.42
23.8737	512.09
23.8881	472.31
23.9026	574.71
23.9170	480.53
23.9314	594.48
23.9459	465.00
23.9603	465.24
23.9748	528.23
23.9892	569.07
24.0036	576.46
24.0181	594.64
24.0325	600.80
24.0470	544.79
24.0614	520.09
24.0758	502.09
24.0903	563.16
24.1047	467.61
24.1192	575.50
24.1336	567.26
24.1480	513.67
24.1625	531.93
24.1769	600.13
24.1914	594.98
24.2058	585.13
24.2202	578.76
24.2347	656.02
24.2491	626.26
24.2636	649.64
24.2780	592.94
24.2924	584.45
24.3069	546.40
24.3213	580.27
24.3358	587.07
24.3502	581.67
24.3646	551.89
24.3791	577.05
24.3935	522.60
24.4080	498.60
24.4224	508.91
24.4368	523.80
24.4513	553.92
24.4657	539.35
24.4802	508.74
24.4946	555.71
24.5090	539.35
24.5235	552.45
24.5379	536.58
24.5524	516.64
24.5668	586.62
24.5812	574.06
24.5957	533.03
24.6101	555.67
24.6246	552.79
24.6390	539.30
24.6534	565.35
24.6679	550.98
24.6823	550.24
24.6968	554.49
24.7112	593.16
24.7256	534.91
24.7401	552.21
24.7545	560.22
24.7690	501.37
24.7834	534.87
24.7978	496.40
24.8123	575.84
24.8267	575.85
24.8412	595.95
24.8556	566.54
24.8700	486.74
24.8845	516.85
24.8989	587.41
24.9134	514.39
24.9278	501.10
24.9422	529.85
24.9567	499.84
24.9711	567.71
24.9856	528.40
25.0000	514.39
25.0144	498.09
25.0289	524.06
25.0433	557.87
25.0578	549.90
25.0722	586.30
25.0866	639.92
25.1011	615.60
25.1155	606.90
25.1300	551.38
25.1444	518.75
25.1588	521.23
25.1733	537.95
25.1877	555.33
25.2022	529.17
25.2166	533.19
25.2310	569.98
25.2455	523.98
25.2599	550.05
25.2744	563.62
25.2888	555.62
25.3032	542.92
25.3177	484.19
25.3321	536.32
25.3466	565.26
25.3610	563.94
25.3754	547.82
25.3899	562.65
25.4043	512.71
25.4188	562.01
25.4332	549.47
25.4476	502.85
25.4621	525.33
25.4765	582.24
25.4910	527.20
25.5054	559.79
25.5198	502.01
25.5343	525.70
25.5487	516.38
25.5632	505.59
25.5776	515.64
25.5920	515.03
25.6065	530.88
25.6209	542.00
25.6354	539.03
25.6498	528.88
25.6642	490.82
25.6787	553.86
25.6931	521.27
25.7076	558.87
25.7220	551.06
25.7364	516.22
25.7509	547.34
25.7653	520.04
25.7798	544.77
25.7942	524.34
25.8086	550.66
25.8231	512.00
25.8375	479.22
25.8520	545.91
25.8664	572.39
25.8808	527.86
25.8953	531.22
25.9097	527.72
25.9242	547.53
25.9386	561.93
25.9530	523.67
25.9675	522.45
25.9819	536.72
25.9964	511.29
26.0108	537.35
26.0252	548.97
26.0397	510.81
26.0541	518.13
26.0686	516.86
26.0830	552.45
26.0974	551.31
26.1119	527.83
26.1263	537.61
26.1408	548.69
26.1552	557.32
26.1696	562.88
26.1841	529.63
26.1985	502.65
26.2130	531.95
26.2274	530.69
26.2418	566.17
26.2563	573.71
26.2707	520.88
26.2852	528.08
26.2996	535.43
26.3140	530.65
26.3285	519.83
26.3429	547.68
26.3574	525.06
26.3718	539.96
26.3862	505.94
26.4007	502.71
26.4151	526.72
26.4296	539.26
26.4440	511.90
26.4584	528.46
26.4729	517.11
26.4873	539.76
26.5018	523.90
26.5162	500.10
26.5306	531.43
26.5451	535.15
26.5595	536.29
26.5740	522.92
26.5884	553.19
26.6028	556.20
26.6173	538.97
26.6317	556.94
26.6462	560.23
26.6606	549.19
26.6750	500.48
26.6895	482.98
26.7039	510.26
26.7184	518.64
26.7328	516.26
26.7472	547.52
26.7617	529.62
26.7761	535.38
26.7906	558.85
26.8050	548.40
26.8194	526.05
26.8339	564.01
26.8483	546.23
26.8628	563.43
26.8772	547.74
26.8917	569.76
26.9061	533.61
26.9205	528.76
26.9350	505.01
26.9494	494.89
26.9639	521.11
26.9783	543.50
26.9927	535.79
27.0072	493.04
27.0216	520.60
27.0361	522.90
27.0505	517.43
27.0649	528.81
27.0794	520.15
27.0938	563.49
27.1083	517.50
27.1227	504.90
27.1371	530.13
27.1516	504.56
27.1660	490.67
27.1805	515.96
27.1949	525.49
27.2093	534.56
27.2238	477.46
27.2382	514.56
27.2527	499.62
27.2671	498.07
27.2815	503.66
27.2960	512.60
27.3104	480.32
27.3249	503.96
27.3393	510.36
27.3537	492.60
27.3682	506.60
27.3826	513.35
27.3971	508.59
27.4115	528.80
27.4259	518.95
27.4404	507.13
27.4548	507.25
27.4693	520.93
27.4837	492.34
27.4981	490.50
27.5126	497.50
27.5270	522.00
27.5415	552.41
27.5559	522.43
27.5703	522.61
27.5848	516.91
27.5992	532.61
27.6137	516.24
27.6281	539.38
27.6425	508.16
27.6570	526.77
27.6714	534.83
27.6859	523.36
27.7003	500.94
27.7147	556.77
27.7292	490.41
27.7436	546.87
27.7581	544.99
27.7725	508.02
27.7869	507.34
27.8014	497.94
27.8158	514.09
27.8303	475.89
27.8447	516.74
27.8591	516.27
27.8736	514.37
27.8880	492.44
27.9025	538.74
27.9169	506.00
27.9313	545.12
27.9458	541.44
27.9602	532.27
27.9747	510.50
27.9891	483.06
28.0035	514.58
28.0180	522.26
28.0324	519.28
28.0469	505.15
28.0613	472.28
28.0757	479.65
28.0902	534.61
28.1046	503.03
28.1191	519.58
28.1335	499.19
28.1479	497.70
28.1624	498.42
28.1768	514.40
28.1913	515.41
28.2057	508.08
28.2201	513.57
28.2346	501.48
28.2490	506.14
28.2635	471.96
28.2779	487.25
28.2923	500.52
28.3068	530.49
28.3212	491.77
28.3357	503.46
28.3501	510.36
28.3645	501.53
28.3790	495.93
28.3934	525.18
28.4079	495.96
28.4223	498.83
28.4367	498.29
28.4512	493.50
28.4656	526.78
28.4801	497.55
28.4945	527.38
28.5089	508.46
28.5234	531.14
28.5378	518.85
28.5523	496.64
28.5667	523.59
28.5811	487.54
28.5956	510.54
28.6100	507.15
28.6245	529.02
28.6389	534.20
28.6533	508.07
28.6678	530.38
28.6822	507.52
28.6967	512.83
28.7111	515.05
28.7255	509.63
28.7400	461.56
28.7544	481.57
28.7689	489.02
28.7833	489.60
28.7977	470.30
28.8122	509.77
28.8266	512.23
28.8411	514.71
28.8555	517.55
28.8699	544.28
28.8844	505.97
28.8988	492.13
28.9133	513.28
28.9277	462.82
28.9421	501.74
28.9566	452.33
28.9710	457.74
28.9855	510.57
28.9999	494.02
29.0143	495.87
29.0288	509.32
29.0432	507.47
29.0577	504.52
29.0721	505.22
29.0865	521.18
29.1010	529.95
29.1154	575.00
29.1299	532.56
29.1443	494.39
29.1587	514.43
29.1732	472.57
29.1876	506.90
29.2021	477.19
29.2165	471.12
29.2309	485.51
29.2454	517.02
29.2598	528.12
29.2743	530.47
29.2887	499.37
29.3031	470.57
29.3176	505.77
29.3320	478.49
29.3465	513.56
29.3609	491.14
29.3753	501.71
29.3898	486.86
29.4042	490.68
29.4187	558.17
29.4331	517.26
29.4475	489.33
29.4620	501.67
29.4764	545.28
29.4909	516.70
29.5053	511.83
29.5197	521.20
29.5342	508.49
29.5486	497.49
29.5631	518.29
29.5775	504.69
29.5919	505.19
29.6064	479.69
29.6208	485.84
29.6353	510.05
29.6497	512.86
29.6641	479.47
29.6786	479.42
29.6930	495.88
29.7075	553.20
29.7219	509.86
29.7363	487.58
29.7508	502.20
29.7652	492.19
29.7797	489.77
29.7941	522.28
29.8085	513.16
29.8230	517.31
29.8374	507.92
29.8519	501.34
29.8663	523.44
29.8807	513.90
29.8952	519.80
29.9096	518.61
29.9241	507.60
29.9385	520.29
29.9529	543.31
29.9674	486.11
29.9818	477.97
29.9963	470.50
30.0107	501.40
30.0251	525.50
30.0396	492.23
30.0540	493.13
30.0685	504.04
30.0829	516.37
30.0973	534.87
30.1118	515.04
30.1262	510.50
30.1407	526.24
30.1551	507.15
30.1695	501.07
30.1840	508.37
30.1984	517.27
30.2129	535.72
30.2273	499.51
30.2417	501.34
30.2562	498.31
30.2706	511.76
30.2851	520.65
30.2995	493.34
30.3139	505.94
30.3284	505.33
30.3428	504.94
30.3573	503.54
30.3717	479.58
30.3861	524.60
30.4006	481.95
30.4150	515.02
30.4295	523.14
30.4439	517.87
30.4583	497.00
30.4728	498.51
30.4872	528.17
30.5017	526.01
30.5161	513.09
30.5305	550.11
30.5450	530.09
30.5594	536.67
30.5739	563.70
30.5883	601.73
30.6028	594.01
30.6172	557.03
30.6316	599.43
30.6461	655.18
30.6605	644.15
30.6750	689.05
30.6894	674.65
30.7038	700.20
30.7183	679.19
30.7327	706.50
30.7472	697.60
30.7616	663.44
30.7760	671.83
30.7905	615.55
30.8049	584.60
30.8194	592.22
30.8338	603.58
30.8482	577.97
30.8627	577.63
30.8771	563.63
30.8916	544.35
30.9060	557.11
30.9204	543.88
30.9349	505.10
30.9493	535.31
30.9638	531.98
30.9782	535.03
30.9926	534.96
31.0071	494.77
31.0215	477.78
31.0360	529.28
31.0504	508.20
31.0648	557.91
31.0793	535.25
31.0937	513.49
31.1082	511.03
31.1226	533.95
31.1370	541.87
31.1515	501.24
31.1659	535.72
31.1804	560.75
31.1948	520.23
31.2092	528.81
31.2237	499.40
31.2381	510.16
31.2526	547.89
31.2670	511.96
31.2814	510.36
31.2959	503.01
31.3103	552.26
31.3248	514.64
31.3392	509.82
31.3536	541.83
31.3681	519.13
31.3825	505.57
31.3970	482.08
31.4114	490.40
31.4258	507.73
31.4403	483.73
31.4547	493.31
31.4692	491.21
31.4836	495.14
31.4980	503.17
31.5125	503.63
31.5269	499.42
31.5414	501.79
31.5558	504.95
31.5702	483.73
31.5847	518.73
31.5991	546.01
31.6136	522.91
31.6280	514.09
31.6424	490.21
31.6569	495.22
31.6713	506.80
31.6858	467.20
31.7002	480.84
31.7146	511.64
31.7291	510.61
31.7435	515.83
31.7580	515.06
31.7724	500.78
31.7868	513.15
31.8013	489.56
31.8157	518.87
31.8302	496.93
31.8446	476.00
31.8590	488.55
31.8735	477.28
31.8879	477.41
31.9024	495.56
31.9168	516.02
31.9312	477.15
31.9457	442.73
31.9601	460.94
31.9746	527.64
31.9890	511.88
32.0034	523.99
32.0179	507.16
32.0323	515.63
32.0468	511.62
32.0612	511.05
32.0756	493.62
32.0901	523.09
32.1045	519.07
32.1190	490.52
32.1334	491.88
32.1478	487.51
32.1623	535.14
32.1767	508.60
32.1912	497.80
32.2056	497.62
32.2200	495.42
32.2345	486.69
32.2489	512.60
32.2634	524.39
32.2778	528.30
32.2922	510.03
32.3067	509.00
32.3211	495.41
32.3356	504.91
32.3500	514.10
32.3644	508.43
32.3789	483.48
32.3933	479.45
32.4078	510.02
32.4222	515.57
32.4366	512.89
32.4511	520.38
32.4655	521.37
32.4800	518.89
32.4944	485.78
32.5088	476.17
32.5233	476.09
32.5377	496.81
32.5522	515.68
32.5666	524.55
32.5810	508.89
32.5955	501.49
32.6099	515.26
32.6244	484.66
32.6388	521.61
32.6532	489.23
32.6677	491.07
32.6821	489.18
32.6966	466.61
32.7110	497.03
32.7254	490.22
32.7399	495.99
32.7543	505.02
32.7688	509.45
32.7832	518.42
32.7976	565.96
32.8121	510.27
32.8265	529.31
32.8410	492.95
32.8554	547.72
32.8698	496.05
32.8843	510.61
32.8987	580.21
32.9132	507.10
32.9276	508.15
32.9420	569.04
32.9565	517.56
32.9709	473.68
32.9854	436.61
32.9998	508.89
33.0142	526.36
33.0287	501.51
33.0431	556.08
33.0576	504.71
33.0720	506.20
33.0864	494.92
33.1009	503.02
33.1153	518.72
33.1298	497.81
33.1442	451.94
33.1586	512.12
33.1731	501.92
33.1875	518.89
33.2020	529.66
33.2164	530.01
33.2308	505.66
33.2453	492.30
33.2597	469.98
33.2742	506.64
33.2886	509.65
33.3030	535.55
33.3175	491.96
33.3319	500.59
33.3464	505.01
33.3608	511.69
33.3752	504.79
33.3897	504.35
33.4041	513.82
33.4186	525.32
33.4330	531.00
33.4474	486.85
33.4619	485.79
33.4763	479.92
33.4908	513.81
33.5052	476.03
33.5196	478.06
33.5341	488.00
33.5485	503.63
33.5630	500.59
33.5774	480.80
33.5918	531.13
33.6063	526.10
33.6207	548.53
33.6352	512.08
33.6496	543.82
33.6640	525.34
33.6785	508.01
33.6929	481.75
33.7074	517.07
33.7218	481.29
33.7362	499.28
33.7507	493.91
33.7651	483.01
33.7796	502.32
33.7940	476.07
33.8084	512.28
33.8229	516.40
33.8373	517.29
33.8518	513.27
33.8662	500.81
33.8806	487.24
33.8951	489.54
33.9095	530.89
33.9240	539.94
33.9384	547.34
33.9528	486.03
33.9673	493.28
33.9817	515.47
33.9962	517.25
34.0106	482.51
34.0250	504.07
34.0395	474.89
34.0539	490.70
34.0684	519.66
34.0828	493.83
34.0972	500.17
34.1117	464.90
34.1261	515.57
34.1406	494.16
34.1550	476.22
34.1694	482.12
34.1839	512.11
34.1983	526.95
34.2128	540.53
34.2272	481.89
34.2417	500.82
34.2561	507.27
34.2705	499.98
34.2850	507.22
34.2994	489.47
34.3139	493.85
34.3283	465.39
34.3427	491.90
34.3572	523.86
34.3716	536.93
34.3861	499.97
34.4005	477.13
34.4149	506.91
34.4294	531.92
34.4438	516.22
34.4583	508.26
34.4727	526.27
34.4871	494.09
34.5016	497.29
34.5160	482.67
34.5305	502.18
34.5449	518.68
34.5593	527.00
34.5738	516.56
34.5882	491.09
34.6027	511.81
34.6171	512.23
34.6315	495.16
34.6460	539.91
34.6604	519.46
34.6749	504.66
34.6893	510.28
34.7037	516.19
34.7182	478.67
34.7326	510.83
34.7471	510.36
34.7615	487.70
34.7759	527.13
34.7904	541.79
34.8048	484.67
34.8193	493.72
34.8337	513.74
34.8481	523.03
34.8626	504.80
34.8770	494.11
34.8915	523.48
34.9059	545.44
34.9203	519.88
34.9348	516.21
34.9492	535.62
34.9637	489.63
34.9781	527.72
34.9925	510.25
35.0070	476.77
35.0214	517.86
35.0359	509.88
35.0503	506.19
35.0647	507.61
35.0792	513.60
35.0936	501.27
35.1081	515.49
35.1225	541.30
35.1369	518.52
35.1514	483.78
35.1658	493.26
35.1803	476.58
35.1947	476.56
35.2091	492.03
35.2236	525.06
35.2380	501.99
35.2525	500.73
35.2669	508.54
35.2813	516.71
35.2958	506.61
35.3102	513.91
35.3247	519.36
35.3391	525.60
35.3535	499.01
35.3680	505.79
35.3824	503.04
35.3969	502.97
35.4113	497.76
35.4257	523.19
35.4402	484.89
35.4546	496.15
35.4691	508.42
35.4835	510.34
35.4979	504.04
35.5124	555.57
35.5268	555.87
35.5413	570.04
35.5557	536.57
35.5701	524.01
35.5846	519.45
35.5990	522.64
35.6135	500.65
35.6279	480.56
35.6423	493.76
35.6568	521.22
35.6712	565.70
35.6857	603.48
35.7001	641.82
35.7145	718.15
35.7290	668.83
35.7434	613.27
35.7579	593.47
35.7723	604.85
35.7867	646.23
35.8012	728.91
35.8156	719.85
35.8301	658.18
35.8445	662.35
35.8589	669.64
35.8734	753.49
35.8878	863.71
35.9023	1018.85
35.9167	1046.97
35.9311	1166.27
35.9456	1723.41
35.9600	2124.46
35.9745	1970.36
35.9889	2021.83
36.0033	2498.60
36.0178	3097.97
36.0322	3129.87
36.0467	2269.05
36.0611	1985.26
36.0755	1908.76
36.0900	1889.16
36.1044	1654.05
36.1189	1584.58
36.1333	1657.79
36.1477	1438.47
36.1622	1364.46
36.1766	1340.87
36.1911	1241.44
36.2055	1103.26
36.2199	1069.81
36.2344	988.40
36.2488	877.48
36.2633	834.50
36.2777	805.06
36.2921	738.30
36.3066	718.18
36.3210	650.00
36.3355	648.00
36.3499	633.23
36.3643	581.35
36.3788	577.87
36.3932	600.01
36.4077	587.90
36.4221	570.88
36.4365	628.49
36.4510	587.53
36.4654	573.30
36.4799	569.45
36.4943	556.09
36.5087	528.75
36.5232	538.97
36.5376	544.01
36.5521	512.38
36.5665	531.75
36.5809	524.41
36.5954	508.84
36.6098	537.04
36.6243	558.70
36.6387	560.25
36.6531	515.87
36.6676	547.53
36.6820	523.00
36.6965	508.00
36.7109	540.07
36.7253	541.29
36.7398	534.72
36.7542	549.47
36.7687	499.89
36.7831	552.29
36.7975	596.37
36.8120	551.36
36.8264	546.21
36.8409	579.05
36.8553	584.30
36.8697	628.18
36.8842	565.62
36.8986	599.16
36.9131	595.17
36.9275	535.44
36.9419	606.96
36.9564	583.03
36.9708	540.76
36.9853	569.74
36.9997	566.82
37.0141	558.10
37.0286	559.87
37.0430	531.26
37.0575	523.46
37.0719	515.28
37.0863	547.83
37.1008	504.39
37.1152	504.41
37.1297	494.73
37.1441	518.18
37.1585	522.07
37.1730	502.21
37.1874	490.04
37.2019	490.95
37.2163	508.11
37.2307	471.43
37.2452	480.42
37.2596	466.61
37.2741	494.24
37.2885	476.62
37.3029	498.82
37.3174	497.10
37.3318	520.06
37.3463	524.68
37.3607	476.27
37.3751	518.60
37.3896	484.30
37.4040	488.29
37.4185	536.77
37.4329	522.25
37.4473	477.48
37.4618	494.01
37.4762	497.76
37.4907	524.96
37.5051	485.67
37.5195	489.21
37.5340	493.58
37.5484	513.83
37.5629	513.58
37.5773	510.72
37.5917	495.94
37.6062	511.80
37.6206	523.11
37.6351	516.81
37.6495	516.86
37.6639	531.35
37.6784	506.83
37.6928	469.75
37.7073	515.32
37.7217	489.51
37.7361	484.34
37.7506	498.03
37.7650	478.65
37.7795	496.15
37.7939	493.12
37.8083	509.38
37.8228	484.71
37.8372	501.84
37.8517	514.25
37.8661	554.75
37.8805	490.61
37.8950	494.08
37.9094	512.89
37.9239	497.14
37.9383	524.89
37.9528	497.76
37.9672	487.28
37.9816	512.05
37.9961	517.49
38.0105	491.63
38.0250	500.09
38.0394	512.48
38.0538	478.14
38.0683	493.62
38.0827	483.23
38.0972	495.29
38.1116	518.12
38.1260	526.76
38.1405	496.86
38.1549	497.10
38.1694	509.86
38.1838	488.76
38.1982	503.54
38.2127	511.22
38.2271	528.97
38.2416	532.21
38.2560	508.15
38.2704	504.36
38.2849	498.31
38.2993	484.19
38.3138	522.30
38.3282	524.84
38.3426	531.97
38.3571	514.61
38.3715	470.01
38.3860	478.09
38.4004	507.31
38.4148	525.54
38.4293	562.66
38.4437	588.64
38.4582	621.65
38.4726	623.90
38.4870	694.24
38.5015	707.33
38.5159	738.70
38.5304	830.13
38.5448	820.60
38.5592	744.39
38.5737	736.54
38.5881	760.47
38.6026	725.40
38.6170	683.71
38.6314	696.94
38.6459	690.83
38.6603	621.33
38.6748	619.04
38.6892	579.64
38.7036	546.88
38.7181	554.83
38.7325	502.20
38.7470	482.42
38.7614	521.19
38.7758	541.97
38.7903	519.21
38.8047	506.46
38.8192	514.80
38.8336	519.82
38.8480	504.02
38.8625	533.38
38.8769	498.26
38.8914	473.00
38.9058	529.56
38.9202	554.29
38.9347	513.70
38.9491	465.00
38.9636	486.60
38.9780	480.64
38.9924	492.17
39.0069	467.70
39.0213	488.48
39.0358	491.87
39.0502	490.42
39.0646	539.04
39.0791	513.15
39.0935	496.46
39.1080	526.90
39.1224	542.19
39.1368	505.22
39.1513	448.95
39.1657	502.43
39.1802	520.53
39.1946	471.15
39.2090	463.30
39.2235	503.89
39.2379	551.96
39.2524	530.64
39.2668	489.83
39.2812	506.19
39.2957	497.40
39.3101	494.56
39.3246	484.94
39.3390	531.80
39.3534	530.98
39.3679	485.90
39.3823	505.28
39.3968	510.68
39.4112	517.46
39.4256	511.85
39.4401	513.03
39.4545	528.30
39.4690	532.01
39.4834	519.09
39.4978	498.44
39.5123	502.60
39.5267	502.69
39.5412	532.48
39.5556	528.44
39.5700	501.15
39.5845	479.48
39.5989	486.74
39.6134	495.04
39.6278	513.96
39.6422	525.81
39.6567	502.85
39.6711	505.66
39.6856	474.80
39.7000	477.65
39.7144	515.74
39.7289	494.58
39.7433	487.68
39.7578	468.63
39.7722	492.34
39.7866	510.16
39.8011	485.35
39.8155	529.29
39.8300	502.65
39.8444	497.98
39.8588	502.31
39.8733	499.05
39.8877	477.17
39.9022	517.13
39.9166	491.96
39.9310	488.76
39.9455	508.84
39.9599	461.73
39.9744	486.03
39.9888	472.96
40.0032	490.68
40.0177	493.31
40.0321	510.86
40.0466	489.21
40.0610	507.99
40.0754	513.51
40.0899	489.29
40.1043	523.73
40.1188	527.37
40.1332	503.10
40.1476	480.92
40.1621	518.02
40.1765	512.70
40.1910	494.16
40.2054	504.49
40.2198	492.86
40.2343	485.13
40.2487	514.12
40.2632	493.98
40.2776	489.18
40.2920	489.10
40.3065	499.50
40.3209	532.51
40.3354	518.46
40.3498	492.28
40.3642	476.30
40.3787	495.50
40.3931	502.70
40.4076	515.27
40.4220	497.71
40.4364	512.45
40.4509	474.64
40.4653	502.76
40.4798	510.02
40.4942	506.83
40.5086	508.55
40.5231	496.21
40.5375	512.02
40.5520	485.65
40.5664	514.52
40.5808	511.69
40.5953	491.04
40.6097	504.81
40.6242	469.66
40.6386	511.32
40.6530	526.30
40.6675	495.51
40.6819	492.05
40.6964	479.44
40.7108	499.90
40.7252	479.46
40.7397	513.03
40.7541	476.66
40.7686	463.31
40.7830	453.16
40.7974	451.09
40.8119	481.41
40.8263	471.48
40.8408	499.57
40.8552	508.20
40.8696	489.25
40.8841	500.47
40.8985	540.51
40.9130	514.19
40.9274	476.51
40.9418	486.89
40.9563	496.84
40.9707	496.04
40.9852	485.28
40.9996	485.96
41.0140	522.88
41.0285	507.84
41.0429	489.47
41.0574	500.91
41.0718	488.10
41.0862	512.73
41.1007	497.76
41.1151	510.75
41.1296	516.01
41.1440	502.31
41.1584	513.60
41.1729	475.44
41.1873	498.10
41.2018	482.19
41.2162	486.78
41.2306	457.73
41.2451	493.73
41.2595	518.00
41.2740	493.31
41.2884	475.64
41.3028	508.41
41.3173	516.92
41.3317	482.29
41.3462	535.32
41.3606	514.21
41.3750	485.97
41.3895	508.53
41.4039	484.63
41.4184	501.49
41.4328	514.94
41.4472	496.05
41.4617	506.00
41.4761	515.87
41.4906	495.79
41.5050	515.39
41.5194	496.94
41.5339	457.43
41.5483	478.66
41.5628	518.42
41.5772	515.42
41.5916	498.82
41.6061	541.52
41.6205	513.24
41.6350	544.55
41.6494	492.88
41.6639	509.62
41.6783	480.56
41.6927	482.46
41.7072	495.04
41.7216	529.05
41.7361	506.87
41.7505	514.30
41.7649	502.57
41.7794	486.59
41.7938	458.11
41.8083	517.82
41.8227	503.08
41.8371	543.29
41.8516	514.78
41.8660	544.98
41.8805	539.75
41.8949	505.32
41.9093	562.22
41.9238	517.20
41.9382	526.79
41.9527	574.84
41.9671	543.04
41.9815	533.36
41.9960	573.18
42.0104	550.39
42.0249	578.24
42.0393	584.61
42.0537	575.04
42.0682	523.42
42.0826	565.34
42.0971	603.90
42.1115	570.47
42.1259	584.78
42.1404	639.91
42.1548	627.69
42.1693	637.18
42.1837	667.15
42.1981	766.72
42.2126	844.32
42.2270	972.39
42.2415	1122.71
42.2559	1229.66
42.2703	1382.16
42.2848	1497.11
42.2992	1592.64
42.3137	1678.51
42.3281	1713.42
42.3425	1622.25
42.3570	1480.67
42.3714	1464.04
42.3859	1394.58
42.4003	1378.81
42.4147	1326.90
42.4292	1266.60
42.4436	1178.60
42.4581	1050.64
42.4725	930.41
42.4869	826.96
42.5014	745.32
42.5158	698.48
42.5303	668.66
42.5447	605.58
42.5591	624.25
42.5736	588.12
42.5880	585.80
42.6025	578.32
42.6169	585.38
42.6313	583.94
42.6458	575.57
42.6602	544.54
42.6747	520.85
42.6891	512.74
42.7035	554.09
42.7180	543.25
42.7324	480.65
42.7469	489.58
42.7613	518.27
42.7757	531.00
42.7902	496.58
42.8046	491.31
42.8191	526.12
42.8335	524.91
42.8479	507.34
42.8624	503.88
42.8768	507.29
42.8913	510.19
42.9057	530.76
42.9201	524.88
42.9346	503.12
42.9490	501.53
42.9635	530.04
42.9779	533.29
42.9923	495.63
43.0068	497.12
43.0212	513.13
43.0357	506.94
43.0501	509.16
43.0645	532.44
43.0790	511.14
43.0934	517.98
43.1079	507.94
43.1223	518.07
43.1367	485.44
43.1512	512.55
43.1656	498.92
43.1801	507.89
43.1945	497.82
43.2089	512.49
43.2234	514.95
43.2378	505.97
43.2523	533.80
43.2667	510.33
43.2811	531.45
43.2956	492.12
43.3100	519.11
43.3245	523.94
43.3389	527.65
43.3533	498.63
43.3678	502.04
43.3822	525.35
43.3967	511.84
43.4111	529.76
43.4255	550.89
43.4400	506.35
43.4544	483.51
43.4689	512.03
43.4833	520.63
43.4977	495.74
43.5122	485.90
43.5266	486.38
43.5411	478.00
43.5555	528.80
43.5699	529.94
43.5844	533.11
43.5988	507.64
43.6133	526.50
43.6277	506.62
43.6421	535.14
43.6566	524.33
43.6710	532.32
43.6855	518.04
43.6999	549.52
43.7143	543.05
43.7288	551.29
43.7432	530.12
43.7577	502.45
43.7721	533.28
43.7865	571.19
43.8010	561.26
43.8154	577.99
43.8299	565.81
43.8443	541.95
43.8587	601.01
43.8732	598.42
43.8876	595.34
43.9021	622.34
43.9165	625.03
43.9309	642.51
43.9454	674.97
43.9598	654.42
43.9743	614.27
43.9887	584.79
44.0031	569.44
44.0176	604.98
44.0320	592.36
44.0465	555.19
44.0609	593.54
44.0753	561.05
44.0898	572.62
44.1042	544.68
44.1187	555.98
44.1331	564.93
44.1475	516.15
44.1620	487.42
44.1764	554.89
44.1909	568.68
44.2053	504.27
44.2197	518.26
44.2342	537.72
44.2486	522.26
44.2631	518.25
44.2775	560.86
44.2919	552.30
44.3064	511.61
44.3208	539.68
44.3353	539.67
44.3497	560.23
44.3641	493.98
44.3786	560.09
44.3930	524.55
44.4075	537.22
44.4219	559.59
44.4363	548.27
44.4508	568.18
44.4652	601.64
44.4797	565.17
44.4941	599.50
44.5085	557.39
44.5230	542.37
44.5374	586.41
44.5519	582.23
44.5663	597.51
44.5807	598.01
44.5952	558.87
44.6096	496.59
44.6241	516.68
44.6385	582.29
44.6529	571.84
44.6674	583.49
44.6818	534.43
44.6963	617.08
44.7107	671.35
44.7251	698.45
44.7396	669.15
44.7540	763.66
44.7685	838.76
44.7829	885.28
44.7973	889.63
44.8118	856.59
44.8262	855.47
44.8407	816.17
44.8551	764.23
44.8695	763.62
44.8840	728.28
44.8984	660.02
44.9129	743.42
44.9273	649.34
44.9417	684.08
44.9562	606.27
44.9706	549.22
44.9851	568.67
44.9995	551.42
45.0139	560.23
45.0284	544.52
45.0428	522.95
45.0573	521.88
45.0717	528.62
45.0861	516.64
45.1006	516.97
45.1150	483.51
45.1295	485.23
45.1439	494.29
45.1583	490.73
45.1728	511.65
45.1872	518.97
45.2017	493.83
45.2161	504.57
45.2305	534.85
45.2450	491.18
45.2594	508.03
45.2739	521.40
45.2883	516.75
45.3028	526.00
45.3172	517.55
45.3316	492.31
45.3461	499.52
45.3605	533.80
45.3750	514.77
45.3894	487.35
45.4038	483.28
45.4183	505.93
45.4327	513.80
45.4472	513.76
45.4616	514.47
45.4760	528.99
45.4905	505.28
45.5049	470.34
45.5194	501.02
45.5338	511.77
45.5482	523.79
45.5627	461.44
45.5771	467.72
45.5916	524.70
45.6060	525.06
45.6204	513.54
45.6349	485.10
45.6493	501.01
45.6638	500.14
45.6782	505.48
45.6926	510.07
45.7071	515.48
45.7215	521.56
45.7360	498.30
45.7504	499.58
45.7648	498.77
45.7793	475.02
45.7937	500.89
45.8082	545.62
45.8226	513.22
45.8370	504.76
45.8515	493.46
45.8659	530.40
45.8804	524.65
45.8948	530.20
45.9092	513.82
45.9237	500.29
45.9381	525.96
45.9526	493.07
45.9670	489.76
45.9814	494.57
45.9959	509.23
46.0103	472.62
46.0248	481.11
46.0392	477.84
46.0536	496.65
46.0681	515.53
46.0825	488.79
46.0970	500.50
46.1114	508.60
46.1258	530.59
46.1403	498.77
46.1547	460.03
46.1692	486.98
46.1836	511.65
46.1980	504.83
46.2125	492.30
46.2269	472.69
46.2414	499.73
46.2558	518.22
46.2702	528.40
46.2847	524.62
46.2991	476.34
46.3136	498.33
46.3280	503.69
46.3424	506.74
46.3569	464.01
46.3713	489.06
46.3858	504.73
46.4002	493.32
46.4146	506.64
46.4291	513.55
46.4435	523.90
46.4580	516.52
46.4724	521.85
46.4868	504.11
46.5013	473.25
46.5157	484.87
46.5302	511.97
46.5446	501.31
46.5590	491.93
46.5735	504.27
46.5879	521.06
46.6024	482.94
46.6168	507.24
46.6312	484.01
46.6457	500.67
46.6601	487.38
46.6746	482.74
46.6890	481.51
46.7034	507.86
46.7179	509.26
46.7323	477.43
46.7468	475.98
46.7612	501.19
46.7756	499.28
46.7901	519.34
46.8045	497.22
46.8190	531.41
46.8334	505.27
46.8478	521.60
46.8623	484.58
46.8767	515.33
46.8912	505.16
46.9056	499.06
46.9200	521.53
46.9345	502.36
46.9489	514.82
46.9634	527.09
46.9778	496.85
46.9922	497.88
47.0067	475.56
47.0211	513.95
47.0356	492.45
47.0500	471.29
47.0644	502.68
47.0789	534.13
47.0933	524.83
47.1078	486.72
47.1222	511.18
47.1366	519.48
47.1511	495.57
47.1655	523.23
47.1800	511.45
47.1944	482.11
47.2088	482.16
47.2233	512.65
47.2377	514.65
47.2522	499.16
47.2666	476.20
47.2810	501.55
47.2955	522.76
47.3099	524.91
47.3244	480.25
47.3388	475.78
47.3532	489.84
47.3677	518.56
47.3821	517.12
47.3966	497.39
47.4110	497.52
47.4254	509.42
47.4399	489.01
47.4543	487.51
47.4688	515.19
47.4832	501.70
47.4976	512.69
47.5121	523.45
47.5265	521.61
47.5410	492.27
47.5554	507.79
47.5698	499.11
47.5843	485.29
47.5987	511.22
47.6132	524.90
47.6276	502.86
47.6420	521.17
47.6565	522.38
47.6709	504.77
47.6854	481.76
47.6998	501.21
47.7142	532.03
47.7287	500.65
47.7431	472.04
47.7576	495.07
47.7720	492.75
47.7864	523.52
47.8009	475.96
47.8153	513.43
47.8298	517.38
47.8442	468.31
47.8586	495.62
47.8731	485.14
47.8875	495.60
47.9020	506.10
47.9164	493.38
47.9308	467.65
47.9453	511.76
47.9597	514.67
47.9742	548.53
47.9886	514.29
48.0030	542.51
48.0175	518.98
48.0319	510.78
48.0464	482.45
48.0608	522.45
48.0752	499.01
48.0897	492.04
48.1041	496.16
48.1186	502.98
48.1330	539.51
48.1474	493.57
48.1619	523.04
48.1763	522.23
48.1908	494.73
48.2052	510.34
48.2196	506.90
48.2341	497.82
48.2485	504.39
48.2630	482.51
48.2774	499.96
48.2918	519.72
48.3063	503.66
48.3207	498.34
48.3352	494.49
48.3496	506.78
48.3640	481.20
48.3785	477.31
48.3929	477.48
48.4074	485.47
48.4218	556.73
48.4362	517.44
48.4507	490.25
48.4651	498.09
48.4796	542.19
48.4940	515.53
48.5084	490.13
48.5229	530.47
48.5373	535.22
48.5518	513.37
48.5662	510.62
48.5806	541.77
48.5951	508.64
48.6095	520.76
48.6240	503.42
48.6384	515.18
48.6528	534.80
48.6673	520.76
48.6817	510.33
48.6962	534.10
48.7106	494.21
48.7250	499.52
48.7395	506.86
48.7539	522.08
48.7684	523.55
48.7828	511.28
48.7972	529.63
48.8117	546.26
48.8261	535.89
48.8406	536.48
48.8550	568.95
48.8694	518.96
48.8839	544.63
48.8983	576.78
48.9128	548.68
48.9272	511.65
48.9416	550.68
48.9561	527.17
48.9705	559.17
48.9850	568.61
48.9994	607.13
49.0139	565.64
49.0283	573.54
49.0427	593.40
49.0572	596.58
49.0716	606.63
49.0861	640.06
49.1005	716.49
49.1149	684.88
49.1294	725.68
49.1438	743.00
49.1583	766.16
49.1727	862.09
49.1871	897.86
49.2016	952.71
49.2160	1056.33
49.2305	1144.02
49.2449	1239.30
49.2593	1313.28
49.2738	1380.72
49.2882	1491.68
49.3027	1589.98
49.3171	1596.17
49.3315	1743.76
49.3460	1776.43
49.3604	1899.04
49.3749	1779.95
49.3893	1788.25
49.4037	1793.28
49.4182	1784.71
49.4326	1763.65
49.4471	1701.03
49.4615	1627.78
49.4759	1583.02
49.4904	1486.27
49.5048	1398.93
49.5193	1329.87
49.5337	1271.59
49.5481	1189.16
49.5626	1143.61
49.5770	1065.59
49.5915	951.90
49.6059	950.04
49.6203	839.12
49.6348	788.09
49.6492	827.46
49.6637	767.32
49.6781	701.71
49.6925	691.51
49.7070	696.01
49.7214	659.92
49.7359	643.30
49.7503	596.07
49.7647	595.16
49.7792	591.24
49.7936	550.47
49.8081	574.64
49.8225	590.84
49.8369	597.53
49.8514	565.45
49.8658	615.69
49.8803	563.99
49.8947	529.01
49.9091	539.75
49.9236	548.18
49.9380	556.84
49.9525	534.50
49.9669	486.56
49.9813	510.28
49.9958	517.53
50.0102	546.79
50.0247	550.15
50.0391	495.87
50.0535	524.05
50.0680	527.69
50.0824	512.56
50.0969	507.46
50.1113	540.22
50.1257	537.29
50.1402	540.30
50.1546	508.32
50.1691	503.10
50.1835	511.77
50.1979	493.08
50.2124	530.94
50.2268	514.93
50.2413	507.21
50.2557	483.48
50.2701	512.11
50.2846	495.76
50.2990	511.55
50.3135	507.67
50.3279	531.10
50.3423	495.82
50.3568	510.95
50.3712	514.47
50.3857	497.69
50.4001	476.43
50.4145	482.44
50.4290	527.88
50.4434	502.20
50.4579	483.10
50.4723	519.71
50.4867	521.85
50.5012	518.91
50.5156	515.50
50.5301	537.80
50.5445	503.38
50.5589	521.40
50.5734	504.54
50.5878	500.13
50.6023	482.19
50.6167	528.63
50.6311	496.61
50.6456	498.51
50.6600	490.93
50.6745	511.31
50.6889	499.60
50.7033	514.43
50.7178	529.37
50.7322	503.99
50.7467	472.98
50.7611	504.42
50.7755	526.97
50.7900	526.11
50.8044	509.37
50.8189	492.84
50.8333	528.47
50.8477	533.15
50.8622	518.28
50.8766	493.28
50.8911	504.07
50.9055	561.63
50.9199	527.64
50.9344	504.96
50.9488	514.84
50.9633	471.28
50.9777	484.62
50.9921	519.36
51.0066	478.94
51.0210	469.14
51.0355	495.97
51.0499	492.68
51.0643	511.33
51.0788	541.81
51.0932	538.96
51.1077	528.20
51.1221	523.65
51.1365	507.79
51.1510	495.06
51.1654	505.81
51.1799	497.55
51.1943	532.76
51.2087	514.04
51.2232	526.91
51.2376	520.83
51.2521	527.97
51.2665	467.28
51.2809	475.42
51.2954	500.75
51.3098	517.52
51.3243	499.07
51.3387	508.32
51.3531	494.33
51.3676	493.53
51.3820	494.65
51.3965	505.97
51.4109	504.18
51.4253	518.75
51.4398	504.35
51.4542	500.62
51.4687	506.26
51.4831	520.69
51.4975	500.57
51.5120	483.83
51.5264	519.03
51.5409	519.32
51.5553	517.89
51.5697	469.86
51.5842	491.54
51.5986	491.24
51.6131	522.46
51.6275	512.77
51.6419	501.81
51.6564	492.69
51.6708	496.78
51.6853	494.64
51.6997	494.20
51.7141	494.04
51.7286	468.95
51.7430	465.93
51.7575	475.72
51.7719	483.89
51.7863	490.02
51.8008	514.53
51.8152	534.51
51.8297	517.71
51.8441	507.61
51.8585	512.03
51.8730	507.74
51.8874	504.11
51.9019	508.08
51.9163	502.76
51.9307	502.37
51.9452	568.89
51.9596	501.80
51.9741	545.36
51.9885	526.03
52.0029	508.99
52.0174	540.74
52.0318	535.85
52.0463	510.18
52.0607	518.49
52.0751	517.64
52.0896	531.28
52.1040	566.23
52.1185	533.75
52.1329	495.74
52.1473	498.32
52.1618	514.77
52.1762	493.35
52.1907	478.28
52.2051	459.72
52.2195	469.82
52.2340	513.30
52.2484	497.03
52.2629	492.18
52.2773	508.41
52.2917	494.77
52.3062	501.28
52.3206	509.51
52.3351	521.14
52.3495	490.62
52.3639	484.90
52.3784	488.05
52.3928	467.52
52.4073	484.41
52.4217	470.98
52.4361	504.14
52.4506	504.17
52.4650	504.77
52.4795	506.93
52.4939	510.52
52.5083	485.98
52.5228	502.08
52.5372	498.71
52.5517	491.47
52.5661	510.31
52.5805	474.75
52.5950	532.50
52.6094	493.52
52.6239	512.15
52.6383	523.46
52.6527	519.43
52.6672	526.82
52.6816	509.28
52.6961	508.15
52.7105	495.57
52.7250	493.71
52.7394	510.52
52.7538	512.59
52.7683	449.56
52.7827	493.99
52.7972	501.31
52.8116	513.08
52.8260	516.24
52.8405	529.65
52.8549	499.62
52.8694	521.13
52.8838	489.83
52.8982	524.48
52.9127	536.51
52.9271	509.59
52.9416	548.11
52.9560	522.91
52.9704	520.42
52.9849	506.80
52.9993	497.43
53.0138	503.07
53.0282	529.66
53.0426	535.89
53.0571	520.10
53.0715	463.33
53.0860	517.96
53.1004	474.22
53.1148	498.98
53.1293	534.49
53.1437	499.81
53.1582	517.25
53.1726	533.85
53.1870	494.83
53.2015	507.50
53.2159	483.86
53.2304	505.86
53.2448	507.05
53.2592	515.15
53.2737	511.63
53.2881	523.80
53.3026	493.75
53.3170	499.41
53.3314	530.28
53.3459	517.54
53.3603	505.23
53.3748	493.82
53.3892	514.24
53.4036	511.85
53.4181	517.11
53.4325	521.56
53.4470	519.19
53.4614	550.41
53.4758	539.03
53.4903	520.25
53.5047	532.98
53.5192	483.54
53.5336	500.11
53.5480	542.08
53.5625	542.88
53.5769	509.31
53.5914	500.94
53.6058	530.01
53.6202	512.44
53.6347	503.80
53.6491	507.40
53.6636	481.04
53.6780	482.10
53.6924	497.62
53.7069	517.74
53.7213	533.79
53.7358	503.61
53.7502	495.46
53.7646	491.29
53.7791	484.63
53.7935	517.66
53.8080	510.18
53.8224	512.61
53.8368	543.40
53.8513	515.07
53.8657	532.16
53.8802	514.67
53.8946	494.56
53.9090	511.23
53.9235	531.03
53.9379	530.55
53.9524	499.87
53.9668	495.02
53.9812	546.98
53.9957	554.89
54.0101	501.61
54.0246	520.58
54.0390	509.13
54.0534	511.45
54.0679	537.66
54.0823	547.49
54.0968	538.65
54.1112	529.14
54.1256	542.38
54.1401	527.85
54.1545	512.08
54.1690	545.10
54.1834	483.02
54.1978	467.64
54.2123	508.37
54.2267	513.71
54.2412	543.75
54.2556	531.22
54.2700	516.96
54.2845	551.40
54.2989	532.56
54.3134	541.79
54.3278	548.98
54.3422	577.45
54.3567	591.15
54.3711	583.51
54.3856	543.96
54.4000	542.01
54.4144	550.94
54.4289	583.67
54.4433	574.63
54.4578	565.70
54.4722	603.84
54.4866	614.68
54.5011	607.67
54.5155	596.46
54.5300	592.42
54.5444	571.00
54.5588	594.85
54.5733	568.04
54.5877	588.48
54.6022	592.23
54.6166	617.61
54.6310	557.20
54.6455	551.29
54.6599	556.09
54.6744	535.57
54.6888	524.66
54.7032	588.14
54.7177	590.33
54.7321	525.89
54.7466	502.33
54.7610	551.87
54.7754	557.44
54.7899	548.85
54.8043	527.96
54.8188	526.68
54.8332	521.53
54.8476	504.20
54.8621	525.89
54.8765	496.67
54.8910	512.12
54.9054	518.36
54.9198	493.22
54.9343	536.26
54.9487	526.53
54.9632	511.72
54.9776	512.74
54.9920	516.64
55.0065	502.07
55.0209	540.44
55.0354	544.95
55.0498	511.32
55.0642	539.34
55.0787	555.78
55.0931	529.58
55.1076	518.92
55.1220	507.83
55.1364	520.55
55.1509	521.22
55.1653	512.21
55.1798	553.20
55.1942	539.04
55.2086	507.97
55.2231	502.39
55.2375	505.86
55.2520	472.14
55.2664	494.69
55.2808	503.45
55.2953	491.10
55.3097	531.32
55.3242	539.05
55.3386	536.54
55.3530	524.91
55.3675	537.93
55.3819	501.70
55.3964	466.19
55.4108	497.85
55.4252	529.91
55.4397	496.80
55.4541	516.29
55.4686	528.17
55.4830	509.61
55.4974	498.87
55.5119	505.34
55.5263	513.44
55.5408	502.05
55.5552	537.57
55.5696	538.94
55.5841	512.85
55.5985	534.65
55.6130	514.53
55.6274	498.26
55.6418	536.41
55.6563	514.42
55.6707	521.45
55.6852	504.04
55.6996	503.86
55.7140	534.38
55.7285	534.08
55.7429	512.27
55.7574	514.05
55.7718	481.30
55.7862	522.74
55.8007	523.51
55.8151	522.22
55.8296	502.56
55.8440	527.70
55.8584	500.44
55.8729	494.80
55.8873	496.00
55.9018	538.91
55.9162	547.32
55.9306	513.49
55.9451	540.56
55.9595	520.00
55.9740	521.31
55.9884	526.75
56.0028	530.96
56.0173	516.99
56.0317	521.89
56.0462	541.25
56.0606	512.02
56.0750	476.71
56.0895	524.73
56.1039	522.30
56.1184	561.45
56.1328	520.67
56.1472	486.20
56.1617	513.66
56.1761	513.72
56.1906	485.89
56.2050	480.05
56.2194	511.05
56.2339	486.18
56.2483	515.37
56.2628	509.09
56.2772	496.84
56.2916	538.95
56.3061	539.55
56.3205	538.15
56.3350	543.66
56.3494	498.20
56.3639	478.19
56.3783	464.82
56.3927	492.82
56.4072	508.65
56.4216	498.54
56.4361	491.58
56.4505	522.17
56.4649	540.75
56.4794	522.47
56.4938	491.30
56.5083	509.66
56.5227	504.91
56.5371	553.58
56.5516	548.73
56.5660	535.12
56.5805	505.14
56.5949	517.11
56.6093	489.27
56.6238	511.08
56.6382	545.61
56.6527	504.14
56.6671	496.17
56.6815	497.05
56.6960	514.35
56.7104	535.81
56.7249	513.83
56.7393	510.56
56.7537	501.15
56.7682	517.54
56.7826	512.47
56.7971	486.88
56.8115	511.10
56.8259	500.52
56.8404	467.39
56.8548	548.86
56.8693	531.94
56.8837	509.07
56.8981	567.95
56.9126	534.77
56.9270	505.03
56.9415	557.13
56.9559	503.86
56.9703	496.68
56.9848	501.71
56.9992	539.39
57.0137	511.53
57.0281	498.35
57.0425	454.97
57.0570	481.29
57.0714	530.67
57.0859	521.42
57.1003	505.40
57.1147	502.20
57.1292	520.28
57.1436	510.79
57.1581	548.56
57.1725	562.10
57.1869	525.87
57.2014	519.55
57.2158	509.55
57.2303	548.41
57.2447	528.56
57.2591	487.99
57.2736	514.66
57.2880	522.87
57.3025	515.26
57.3169	559.63
57.3313	544.21
57.3458	543.13
57.3602	499.81
57.3747	499.18
57.3891	528.02
57.4035	489.78
57.4180	526.51
57.4324	573.82
57.4469	541.30
57.4613	533.90
57.4757	554.55
57.4902	498.66
57.5046	516.07
57.5191	522.09
57.5335	486.19
57.5479	538.49
57.5624	551.57
57.5768	517.64
57.5913	521.37
57.6057	537.72
57.6201	504.96
57.6346	527.95
57.6490	527.92
57.6635	528.01
57.6779	510.73
57.6923	518.44
57.7068	546.22
57.7212	523.14
57.7357	511.98
57.7501	544.72
57.7645	532.53
57.7790	515.73
57.7934	540.96
57.8079	549.10
57.8223	515.63
57.8367	510.45
57.8512	542.31
57.8656	551.86
57.8801	565.30
57.8945	590.62
57.9089	534.55
57.9234	556.40
57.9378	570.42
57.9523	556.47
57.9667	567.48
57.9811	612.13
57.9956	604.49
58.0100	579.06
58.0245	610.30
58.0389	615.35
58.0533	645.17
58.0678	631.63
58.0822	654.77
58.0967	627.57
58.1111	644.19
58.1255	694.42
58.1400	648.43
58.1544	611.87
58.1689	623.95
58.1833	649.04
58.1977	646.75
58.2122	653.59
58.2266	678.53
58.2411	667.01
58.2555	650.21
58.2699	628.08
58.2844	653.88
58.2988	610.09
58.3133	646.93
58.3277	624.26
58.3421	610.58
58.3566	581.29
58.3710	603.45
58.3855	538.91
58.3999	548.07
58.4143	552.85
58.4288	600.77
58.4432	553.77
58.4577	554.30
58.4721	554.29
58.4865	586.81
58.5010	524.58
58.5154	527.13
58.5299	538.11
58.5443	571.13
58.5587	555.03
58.5732	537.95
58.5876	538.88
58.6021	561.60
58.6165	540.88
58.6309	525.27
58.6454	529.78
58.6598	562.20
58.6743	534.77
58.6887	508.17
58.7031	545.76
58.7176	527.37
58.7320	520.93
58.7465	537.25
58.7609	546.99
58.7753	545.62
58.7898	535.25
58.8042	556.20
58.8187	550.26
58.8331	555.82
58.8475	545.01
58.8620	536.12
58.8764	554.09
58.8909	522.54
58.9053	529.63
58.9197	519.17
58.9342	515.81
58.9486	507.34
58.9631	493.31
58.9775	537.61
58.9919	562.70
59.0064	525.17
59.0208	503.51
59.0353	513.78
59.0497	521.52
59.0641	546.57
59.0786	570.33
59.0930	576.38
59.1075	542.03
59.1219	540.81
59.1363	547.06
59.1508	511.31
59.1652	549.28
59.1797	537.32
59.1941	509.52
59.2085	535.25
59.2230	522.41
59.2374	544.99
59.2519	550.08
59.2663	524.00
59.2807	565.79
59.2952	549.94
59.3096	541.43
59.3241	536.13
59.3385	550.33
59.3529	595.33
59.3674	586.43
59.3818	540.63
59.3963	552.55
59.4107	537.05
59.4251	559.83
59.4396	535.84
59.4540	517.17
59.4685	566.92
59.4829	517.05
59.4973	524.20
59.5118	537.30
59.5262	556.67
59.5407	556.53
59.5551	543.09
59.5695	531.37
59.5840	553.02
59.5984	514.35
59.6129	537.54
59.6273	529.12
59.6417	588.04
59.6562	558.29
59.6706	554.20
59.6851	517.01
59.6995	525.18
59.7139	567.54
59.7284	513.41
59.7428	521.72
59.7573	527.71
59.7717	528.02
59.7861	558.62
59.8006	515.15
59.8150	541.80
59.8295	536.65
59.8439	542.61
59.8583	509.06
59.8728	537.86
59.8872	557.68
59.9017	520.55
59.9161	525.54
59.9305	541.71
59.9450	523.15
59.9594	543.63
59.9739	503.62
59.9883	539.51
60.0027	542.59
60.0172	570.51
60.0316	547.96
60.0461	528.85
60.0605	513.06
60.0750	508.37
60.0894	522.78
60.1038	517.75
60.1183	551.67
60.1327	563.79
60.1472	495.43
60.1616	556.70
60.1760	545.82
60.1905	539.35
60.2049	562.95
60.2194	529.54
60.2338	563.64
60.2482	533.94
60.2627	510.34
60.2771	539.68
60.2916	568.24
60.3060	544.48
60.3204	514.61
60.3349	584.47
60.3493	549.60
60.3638	552.54
60.3782	553.92
60.3926	553.46
60.4071	544.77
60.4215	558.81
60.4360	566.35
60.4504	554.11
60.4648	535.74
60.4793	488.47
60.4937	539.27
60.5082	528.48
60.5226	517.95
60.5370	528.44
60.5515	504.04
60.5659	512.24
60.5804	501.59
60.5948	527.69
60.6092	521.09
60.6237	511.02
60.6381	526.72
60.6526	563.54
60.6670	513.96
60.6814	500.58
60.6959	560.62
60.7103	567.22
60.7248	537.40
60.7392	521.17
60.7536	519.07
60.7681	535.82
60.7825	551.83
60.7970	524.28
60.8114	512.34
60.8258	542.65
60.8403	518.67
60.8547	571.31
60.8692	538.77
60.8836	497.20
60.8980	537.75
60.9125	572.21
60.9269	538.06
60.9414	522.53
60.9558	503.57
60.9702	483.11
60.9847	511.47
60.9991	582.37
61.0136	530.72
61.0280	537.60
61.0424	570.42
61.0569	537.82
61.0713	539.99
61.0858	559.49
61.1002	568.50
61.1146	607.24
61.1291	587.48
61.1435	541.36
61.1580	527.42
61.1724	538.33
61.1868	513.74
61.2013	505.50
61.2157	513.31
61.2302	524.51
61.2446	562.64
61.2590	536.65
61.2735	545.20
61.2879	553.54
61.3024	525.53
61.3168	552.83
61.3312	559.62
61.3457	588.38
61.3601	560.63
61.3746	543.32
61.3890	518.14
61.4034	535.00
61.4179	546.30
61.4323	538.25
61.4468	523.79
61.4612	524.36
61.4756	558.53
61.4901	547.50
61.5045	533.13
61.5190	553.89
61.5334	553.12
61.5478	472.12
61.5623	549.26
61.5767	522.60
61.5912	511.40
61.6056	535.76
61.6200	544.92
61.6345	539.29
61.6489	543.01
61.6634	523.47
61.6778	548.93
61.6922	528.67
61.7067	558.22
61.7211	548.93
61.7356	531.43
61.7500	540.01
61.7644	532.78
61.7789	520.31
61.7933	505.43
61.8078	558.69
61.8222	534.29
61.8366	538.91
61.8511	515.31
61.8655	558.59
61.8800	535.48
61.8944	566.62
61.9088	556.51
61.9233	542.04
61.9377	553.55
61.9522	545.53
61.9666	526.32
61.9810	518.23
61.9955	583.73
62.0099	555.75
62.0244	554.74
62.0388	558.96
62.0532	536.29
62.0677	572.83
62.0821	522.41
62.0966	555.43
62.1110	565.98
62.1254	583.41
62.1399	570.23
62.1543	529.69
62.1688	549.08
62.1832	537.51
62.1976	515.94
62.2121	525.18
62.2265	540.68
62.2410	528.32
62.2554	543.90
62.2698	554.59
62.2843	567.62
62.2987	522.96
62.3132	522.83
62.3276	555.12
62.3420	545.17
62.3565	545.90
62.3709	531.91
62.3854	530.21
62.3998	530.61
62.4142	563.78
62.4287	585.77
62.4431	532.15
62.4576	543.06
62.4720	531.51
62.4864	565.53
62.5009	556.17
62.5153	563.73
62.5298	545.66
62.5442	560.48
62.5586	542.36
62.5731	542.70
62.5875	528.91
62.6020	570.82
62.6164	564.27
62.6308	559.32
62.6453	575.95
62.6597	558.92
62.6742	525.94
62.6886	521.29
62.7030	560.16
62.7175	558.42
62.7319	552.71
62.7464	563.57
62.7608	549.50
62.7752	571.01
62.7897	558.84
62.8041	548.29
62.8186	583.73
62.8330	533.97
62.8474	560.80
62.8619	546.53
62.8763	555.43
62.8908	560.27
62.9052	556.51
62.9196	556.06
62.9341	548.64
62.9485	544.75
62.9630	555.32
62.9774	571.17
62.9918	569.83
63.0063	532.56
63.0207	580.17
63.0352	598.55
63.0496	566.07
63.0640	567.03
63.0785	585.70
63.0929	590.76
63.1074	534.05
63.1218	556.32
63.1362	548.12
63.1507	554.48
63.1651	568.84
63.1796	591.47
63.1940	546.43
63.2084	552.38
63.2229	563.60
63.2373	594.35
63.2518	590.66
63.2662	549.08
63.2806	592.04
63.2951	585.52
63.3095	569.33
63.3240	566.82
63.3384	565.12
63.3528	588.67
63.3673	561.38
63.3817	564.28
63.3962	536.68
63.4106	539.58
63.4250	605.69
63.4395	601.10
63.4539	555.06
63.4684	583.46
63.4828	593.63
63.4972	590.51
63.5117	585.44
63.5261	605.31
63.5406	582.25
63.5550	581.62
63.5694	643.42
63.5839	602.24
63.5983	668.82
63.6128	658.31
63.6272	640.21
63.6416	663.92
63.6561	695.39
63.6705	633.10
63.6850	650.50
63.6994	712.84
63.7138	728.42
63.7283	690.18
63.7427	720.42
63.7572	770.74
63.7716	761.01
63.7861	765.66
63.8005	727.99
63.8149	764.13
63.8294	782.78
63.8438	794.25
63.8583	762.87
63.8727	847.99
63.8871	809.83
63.9016	878.80
63.9160	835.53
63.9305	853.64
63.9449	870.21
63.9593	811.51
63.9738	785.02
63.9882	807.02
64.0027	778.89
64.0171	794.36
64.0315	815.63
64.0460	747.56
64.0604	718.70
64.0749	728.89
64.0893	716.38
64.1037	710.43
64.1182	688.03
64.1326	646.67
64.1471	611.85
64.1615	641.67
64.1759	643.58
64.1904	642.58
64.2048	647.43
64.2193	624.49
64.2337	639.63
64.2481	630.11
64.2626	627.86
64.2770	669.60
64.2915	643.75
64.3059	605.20
64.3203	611.10
64.3348	630.98
64.3492	604.98
64.3637	625.63
64.3781	628.22
64.3925	611.34
64.4070	586.55
64.4214	614.49
64.4359	620.72
64.4503	605.16
64.4647	602.87
64.4792	648.15
64.4936	676.02
64.5081	603.14
64.5225	613.75
64.5369	612.89
64.5514	605.36
64.5658	653.88
64.5803	633.24
64.5947	666.83
64.6091	672.16
64.6236	651.58
64.6380	647.21
64.6525	630.18
64.6669	628.84
64.6813	628.78
64.6958	632.02
64.7102	698.13
64.7247	697.93
64.7391	675.02
64.7535	689.41
64.7680	650.35
64.7824	733.41
64.7969	710.58
64.8113	784.22
64.8257	820.66
64.8402	802.44
64.8546	833.42
64.8691	846.47
64.8835	816.22
64.8979	832.23
64.9124	843.25
64.9268	844.49
64.9413	906.31
64.9557	943.68
64.9701	954.58
64.9846	1015.76
64.9990	1153.05
65.0135	1199.42
65.0279	1420.25
65.0423	1626.21
65.0568	2011.75
65.0712	2505.48
65.0857	3155.76
65.1001	4238.25
65.1145	5688.81
65.1290	7567.20
65.1434	9107.66
65.1579	10757.39
65.1723	11567.14
65.1867	11455.79
65.2012	10128.45
65.2156	8392.73
65.2301	6570.50
65.2445	5376.48
65.2589	4422.51
65.2734	4166.01
65.2878	4286.69
65.3023	4824.20
65.3167	5474.75
65.3311	6363.42
65.3456	6842.67
65.3600	6955.42
65.3745	6470.93
65.3889	5453.40
65.4033	4514.67
65.4178	3585.99
65.4322	2836.33
65.4467	2115.82
65.4611	1774.77
65.4755	1521.89
65.4900	1308.76
65.5044	1132.82
65.5189	1057.61
65.5333	980.78
65.5477	901.14
65.5622	909.28
65.5766	831.58
65.5911	844.42
65.6055	815.18
65.6199	763.63
65.6344	764.46
65.6488	710.35
65.6633	734.64
65.6777	719.31
65.6921	703.14
65.7066	745.70
65.7210	681.48
65.7355	670.13
65.7499	725.58
65.7643	711.53
65.7788	678.18
65.7932	688.09
65.8077	670.54
65.8221	659.83
65.8365	654.84
65.8510	645.55
65.8654	655.20
65.8799	622.24
65.8943	635.09
65.9087	640.46
65.9232	610.57
65.9376	658.56
65.9521	644.30
65.9665	592.63
65.9809	639.94
65.9954	603.50
66.0098	592.65
66.0243	630.08
66.0387	602.67
66.0531	607.75
66.0676	626.44
66.0820	631.40
66.0965	633.56
66.1109	615.96
66.1253	594.51
66.1398	620.71
66.1542	624.01
66.1687	631.48
66.1831	634.99
66.1975	636.94
66.2120	613.11
66.2264	614.66
66.2409	603.63
66.2553	572.84
66.2697	600.43
66.2842	585.36
66.2986	561.65
66.3131	575.61
66.3275	590.68
66.3419	587.23
66.3564	602.08
66.3708	606.59
66.3853	581.80
66.3997	556.63
66.4141	610.06
66.4286	656.14
66.4430	597.96
66.4575	548.41
66.4719	594.82
66.4863	602.85
66.5008	610.52
66.5152	620.53
66.5297	596.96
66.5441	569.37
66.5585	597.15
66.5730	588.90
66.5874	594.74
66.6019	599.87
66.6163	562.02
66.6307	604.17
66.6452	594.36
66.6596	568.48
66.6741	591.74
66.6885	594.01
66.7029	618.81
66.7174	557.83
66.7318	557.88
66.7463	582.68
66.7607	578.80
66.7751	568.20
66.7896	553.53
66.8040	591.34
66.8185	607.29
66.8329	578.58
66.8473	568.18
66.8618	580.57
66.8762	586.01
66.8907	590.38
66.9051	583.04
66.9195	594.50
66.9340	601.04
66.9484	579.91
66.9629	580.32
66.9773	568.40
66.9917	588.72
67.0062	578.53
67.0206	571.30
67.0351	579.31
67.0495	579.23
67.0639	591.32
67.0784	615.34
67.0928	639.91
67.1073	596.44
67.1217	584.43
67.1361	615.11
67.1506	568.81
67.1650	602.09
67.1795	594.74
67.1939	548.21
67.2083	574.67
67.2228	556.49
67.2372	567.70
67.2517	554.55
67.2661	548.58
67.2805	592.39
67.2950	574.53
67.3094	561.36
67.3239	569.13
67.3383	585.59
67.3527	603.48
67.3672	582.82
67.3816	560.36
67.3961	547.55
67.4105	551.64
67.4250	555.04
67.4394	560.25
67.4538	586.62
67.4683	590.83
67.4827	585.22
67.4972	540.51
67.5116	560.47
67.5260	595.63
67.5405	622.61
67.5549	609.03
67.5694	577.07
67.5838	609.19
67.5982	576.57
67.6127	562.87
67.6271	561.96
67.6416	599.72
67.6560	578.46
67.6704	559.14
67.6849	552.74
67.6993	559.06
67.7138	569.53
67.7282	582.99
67.7426	524.69
67.7571	582.61
67.7715	566.39
67.7860	559.71
67.8004	589.13
67.8148	574.53
67.8293	610.75
67.8437	572.06
67.8582	572.44
67.8726	563.31
67.8870	571.91
67.9015	578.75
67.9159	533.83
67.9304	545.85
67.9448	575.70
67.9592	578.62
67.9737	567.25
67.9881	577.52
68.0026	552.17
68.0170	502.90
68.0314	554.78
68.0459	560.90
68.0603	572.57
68.0748	603.88
68.0892	592.49
68.1036	560.76
68.1181	557.71
68.1325	587.63
68.1470	570.68
68.1614	590.65
68.1758	570.56
68.1903	563.29
68.2047	570.08
68.2192	593.54
68.2336	610.80
68.2480	598.01
68.2625	555.90
68.2769	589.26
68.2914	587.91
68.3058	605.13
68.3202	583.00
68.3347	572.59
68.3491	561.03
68.3636	588.17
68.3780	575.53
68.3924	581.38
68.4069	599.18
68.4213	593.05
68.4358	585.48
68.4502	557.70
68.4646	553.84
68.4791	581.38
68.4935	580.77
68.5080	559.19
68.5224	570.62
68.5368	617.67
68.5513	586.64
68.5657	593.54
68.5802	562.38
68.5946	584.14
68.6090	528.28
68.6235	554.25
68.6379	574.09
68.6524	543.14
68.6668	560.27
68.6812	570.67
68.6957	622.64
68.7101	580.84
68.7246	554.04
68.7390	560.69
68.7534	586.09
68.7679	542.68
68.7823	588.57
68.7968	615.84
68.8112	546.28
68.8256	578.89
68.8401	602.62
68.8545	584.97
68.8690	597.78
68.8834	566.77
68.8978	552.65
68.9123	602.70
68.9267	584.67
68.9412	559.73
68.9556	561.29
68.9700	569.61
68.9845	563.55
68.9989	581.49
69.0134	569.58
69.0278	586.52
69.0422	564.61
69.0567	596.53
69.0711	558.08
69.0856	576.47
69.1000	592.15
69.1144	577.44
69.1289	555.38
69.1433	560.06
69.1578	570.21
69.1722	594.00
69.1866	563.45
69.2011	578.98
69.2155	574.89
69.2300	513.91
69.2444	601.72
69.2588	608.59
69.2733	577.20
69.2877	573.72
69.3022	555.38
69.3166	638.10
69.3310	556.37
69.3455	578.98
69.3599	556.29
69.3744	554.50
69.3888	589.58
69.4032	598.54
69.4177	589.90
69.4321	634.60
69.4466	517.90
69.4610	563.51
69.4754	573.06
69.4899	565.25
69.5043	615.11
69.5188	599.74
69.5332	555.84
69.5476	542.25
69.5621	596.54
69.5765	557.16
69.5910	592.06
69.6054	577.66
69.6198	588.55
69.6343	617.25
69.6487	565.03
69.6632	581.58
69.6776	599.10
69.6920	575.77
69.7065	581.28
69.7209	589.87
69.7354	561.65
69.7498	586.11
69.7642	552.41
69.7787	571.39
69.7931	526.40
69.8076	537.87
69.8220	572.90
69.8364	618.41
69.8509	596.96
69.8653	593.46
69.8798	588.59
69.8942	566.89
69.9086	553.58
69.9231	552.36
69.9375	594.53
69.9520	618.15
69.9664	565.19
69.9808	553.11
69.9953	572.78
70.0097	605.02
70.0242	589.61
70.0386	559.48
70.0530	554.34
70.0675	580.41
70.0819	570.57
70.0964	520.67
70.1108	598.75
70.1252	551.36
70.1397	572.20
70.1541	498.22
70.1686	540.76
70.1830	643.02
70.1974	622.44
70.2119	585.49
70.2263	584.11
70.2408	603.96
70.2552	544.64
70.2696	589.23
70.2841	586.39
70.2985	554.35
70.3130	601.37
70.3274	630.83
70.3418	592.62
70.3563	578.64
70.3707	615.25
70.3852	594.11
70.3996	551.92
70.4140	583.16
70.4285	612.81
70.4429	598.93
70.4574	603.13
70.4718	610.02
70.4862	585.15
70.5007	595.24
70.5151	609.64
70.5296	580.18
70.5440	570.29
70.5584	606.96
70.5729	587.82
70.5873	546.05
70.6018	535.78
70.6162	542.42
70.6306	567.58
70.6451	546.79
70.6595	578.55
70.6740	563.83
70.6884	533.11
70.7028	598.90
70.7173	582.19
70.7317	603.44
70.7462	611.15
70.7606	518.64
70.7750	606.65
70.7895	596.83
70.8039	602.24
70.8184	554.00
70.8328	565.80
70.8472	584.54
70.8617	573.18
70.8761	603.17
70.8906	534.65
70.9050	580.80
70.9194	615.68
70.9339	561.63
70.9483	530.14
70.9628	540.74
70.9772	576.79
70.9916	611.02
71.0061	587.84
71.0205	565.94
71.0350	578.37
71.0494	554.55
71.0638	541.77
71.0783	556.15
71.0927	611.89
71.1072	584.62
71.1216	567.98
71.1361	562.64
71.1505	538.53
71.1649	590.82
71.1794	623.28
71.1938	610.50
71.2083	603.32
71.2227	552.91
71.2371	575.65
71.2516	567.40
71.2660	592.67
71.2805	613.15
71.2949	552.28
71.3093	572.73
71.3238	594.24
71.3382	592.11
71.3527	597.58
71.3671	607.29
71.3815	606.15
71.3960	575.22
71.4104	567.85
71.4249	628.94
71.4393	613.61
71.4537	550.47
71.4682	563.38
71.4826	576.94
71.4971	561.98
71.5115	528.94
71.5259	524.10
71.5404	565.47
71.5548	620.80
71.5693	611.85
71.5837	557.52
71.5981	532.58
71.6126	519.74
71.6270	553.80
71.6415	563.08
71.6559	567.50
71.6703	581.69
71.6848	568.44
71.6992	588.56
71.7137	566.71
71.7281	551.94
71.7425	566.36
71.7570	577.81
71.7714	614.90
71.7859	603.43
71.8003	557.73
71.8147	605.78
71.8292	650.45
71.8436	655.67
71.8581	593.67
71.8725	546.82
71.8869	565.66
71.9014	571.38
71.9158	544.87
71.9303	587.68
71.9447	546.51
71.9591	626.47
71.9736	644.61
71.9880	616.32
72.0025	646.54
72.0169	579.23
72.0313	588.10
72.0458	582.82
72.0602	605.51
72.0747	679.27
72.0891	632.88
72.1035	671.55
72.1180	604.38
72.1324	555.42
72.1469	576.27
72.1613	597.53
72.1757	585.66
72.1902	558.68
72.2046	521.44
72.2191	534.84
72.2335	553.98
72.2479	523.49
72.2624	523.94
72.2768	590.70
72.2913	532.85
72.3057	541.59
72.3201	589.41
72.3346	641.04
72.3490	613.32
72.3635	574.84
72.3779	552.28
72.3923	574.95
72.4068	554.53
72.4212	623.18
72.4357	611.95
72.4501	589.50
72.4645	582.62
72.4790	568.19
72.4934	485.42
72.5079	582.56
72.5223	702.47
72.5367	664.57
72.5512	613.69
72.5656	564.66
72.5801	571.87
72.5945	615.71
72.6089	621.82
72.6234	564.49
72.6378	549.93
72.6523	570.60
72.6667	594.85
72.6811	622.35
72.6956	581.23
72.7100	531.77
72.7245	548.32
72.7389	508.24
72.7533	487.57
72.7678	517.08
72.7822	600.82
72.7967	617.29
72.8111	602.99
72.8255	654.97
72.8400	602.08
72.8544	545.60
72.8689	607.35
72.8833	517.33