2022.09.19 19:37:17
Îáðàçåö: ß÷åéêà LCoV 16-09-2022
Lambda1 = 1.54060
Lambda2 = 1.54439
Lambdam = 1.54186
R = 0.497
2Theta	I

line¹ 0 ;repeat¹ 0
22.1120	503.87
22.1264	617.22
22.1409	601.74
22.1553	524.77
22.1697	595.40
22.1842	582.42
22.1986	535.59
22.2131	581.61
22.2275	604.61
22.2419	605.80
22.2564	671.68
22.2708	591.91
22.2853	541.04
22.2997	633.40
22.3141	634.82
22.3286	524.81
22.3430	496.58
22.3575	579.31
22.3719	598.15
22.3863	613.72
22.4008	503.05
22.4152	579.34
22.4297	658.30
22.4441	660.97
22.4585	528.31
22.4730	576.21
22.4874	605.43
22.5019	563.15
22.5163	626.39
22.5307	651.51
22.5452	601.48
22.5596	604.03
22.5741	542.11
22.5885	540.27
22.6029	544.54
22.6174	587.22
22.6318	545.12
22.6463	598.52
22.6607	696.57
22.6751	598.82
22.6896	499.26
22.7040	619.38
22.7185	605.55
22.7329	632.80
22.7473	602.36
22.7618	499.88
22.7762	593.67
22.7907	582.32
22.8051	592.47
22.8195	590.55
22.8340	530.45
22.8484	533.60
22.8629	569.23
22.8773	555.10
22.8917	626.89
22.9062	619.65
22.9206	513.21
22.9351	559.34
22.9495	523.39
22.9639	501.83
22.9784	490.24
22.9928	495.99
23.0073	504.54
23.0217	549.70
23.0361	645.68
23.0506	627.06
23.0650	594.43
23.0795	535.35
23.0939	520.84
23.1083	574.15
23.1228	557.25
23.1372	503.15
23.1517	577.84
23.1661	586.01
23.1806	557.71
23.1950	534.84
23.2094	587.13
23.2239	516.32
23.2383	607.94
23.2528	499.30
23.2672	520.51
23.2816	638.51
23.2961	539.15
23.3105	589.74
23.3250	593.43
23.3394	549.06
23.3538	521.88
23.3683	583.57
23.3827	558.73
23.3972	515.91
23.4116	518.09
23.4260	552.99
23.4405	574.38
23.4549	523.84
23.4694	529.04
23.4838	542.83
23.4982	573.74
23.5127	544.45
23.5271	594.09
23.5416	555.87
23.5560	521.78
23.5704	547.84
23.5849	551.12
23.5993	521.34
23.6138	501.68
23.6282	459.59
23.6426	511.99
23.6571	525.07
23.6715	542.40
23.6860	557.33
23.7004	580.73
23.7148	511.46
23.7293	501.65
23.7437	471.51
23.7582	545.62
23.7726	567.64
23.7870	598.16
23.8015	507.69
23.8159	572.60
23.8304	498.94
23.8448	568.33
23.8592	631.57
23.8737	633.31
23.8881	535.94
23.9026	528.00
23.9170	568.16
23.9314	544.54
23.9459	549.24
23.9603	481.40
23.9748	558.13
23.9892	559.95
24.0036	543.85
24.0181	588.44
24.0325	572.23
24.0470	617.01
24.0614	570.63
24.0758	545.41
24.0903	582.17
24.1047	581.65
24.1192	541.05
24.1336	546.37
24.1480	504.25
24.1625	547.66
24.1769	572.66
24.1914	524.92
24.2058	498.37
24.2202	535.53
24.2347	580.55
24.2491	586.60
24.2636	571.03
24.2780	558.81
24.2924	587.21
24.3069	599.47
24.3213	580.92
24.3358	576.03
24.3502	586.65
24.3646	514.00
24.3791	507.92
24.3935	560.25
24.4080	580.13
24.4224	522.15
24.4368	564.28
24.4513	548.73
24.4657	558.93
24.4802	544.87
24.4946	577.36
24.5090	547.41
24.5235	581.83
24.5379	546.07
24.5524	547.75
24.5668	520.85
24.5812	523.43
24.5957	575.72
24.6101	522.76
24.6246	510.81
24.6390	542.58
24.6534	558.55
24.6679	542.37
24.6823	493.84
24.6968	537.73
24.7112	561.06
24.7256	558.71
24.7401	574.48
24.7545	511.91
24.7690	552.48
24.7834	476.50
24.7978	532.49
24.8123	563.40
24.8267	506.41
24.8412	533.79
24.8556	536.97
24.8700	534.15
24.8845	519.22
24.8989	541.29
24.9134	584.88
24.9278	497.29
24.9422	506.61
24.9567	559.66
24.9711	505.61
24.9856	559.32
25.0000	529.58
25.0144	565.35
25.0289	479.66
25.0433	528.52
25.0578	511.35
25.0722	547.96
25.0866	534.84
25.1011	517.81
25.1155	513.37
25.1300	529.39
25.1444	537.48
25.1588	513.78
25.1733	549.38
25.1877	532.60
25.2022	552.97
25.2166	515.97
25.2310	566.93
25.2455	551.49
25.2599	524.75
25.2744	502.71
25.2888	511.40
25.3032	495.11
25.3177	562.50
25.3321	555.92
25.3466	528.00
25.3610	499.77
25.3754	518.74
25.3899	535.09
25.4043	533.52
25.4188	543.10
25.4332	551.67
25.4476	511.10
25.4621	520.32
25.4765	513.52
25.4910	549.79
25.5054	555.30
25.5198	523.19
25.5343	536.65
25.5487	515.32
25.5632	516.64
25.5776	505.84
25.5920	579.19
25.6065	566.43
25.6209	519.28
25.6354	529.14
25.6498	565.96
25.6642	540.73
25.6787	549.08
25.6931	511.07
25.7076	562.20
25.7220	540.03
25.7364	518.43
25.7509	576.97
25.7653	560.35
25.7798	564.28
25.7942	552.19
25.8086	544.32
25.8231	531.44
25.8375	560.04
25.8520	566.53
25.8664	538.28
25.8808	549.75
25.8953	549.80
25.9097	558.19
25.9242	557.38
25.9386	546.19
25.9530	514.27
25.9675	500.01
25.9819	517.50
25.9964	574.30
26.0108	570.59
26.0252	538.81
26.0397	528.44
26.0541	555.93
26.0686	581.00
26.0830	559.52
26.0974	543.44
26.1119	513.91
26.1263	542.15
26.1408	544.87
26.1552	518.07
26.1696	537.92
26.1841	548.43
26.1985	518.29
26.2130	504.33
26.2274	502.82
26.2418	515.00
26.2563	531.90
26.2707	512.46
26.2852	519.26
26.2996	518.14
26.3140	522.74
26.3285	509.95
26.3429	528.52
26.3574	520.22
26.3718	515.60
26.3862	502.02
26.4007	496.31
26.4151	482.06
26.4296	522.12
26.4440	541.60
26.4584	495.85
26.4729	534.82
26.4873	515.85
26.5018	524.08
26.5162	535.09
26.5306	553.50
26.5451	550.98
26.5595	537.10
26.5740	556.61
26.5884	538.95
26.6028	542.05
26.6173	535.66
26.6317	538.59
26.6462	574.53
26.6606	562.64
26.6750	539.70
26.6895	517.50
26.7039	516.35
26.7184	527.91
26.7328	519.92
26.7472	538.50
26.7617	553.96
26.7761	525.61
26.7906	500.35
26.8050	518.54
26.8194	504.31
26.8339	494.74
26.8483	521.02
26.8628	513.89
26.8772	489.32
26.8917	512.93
26.9061	523.47
26.9205	525.69
26.9350	571.40
26.9494	537.80
26.9639	509.65
26.9783	516.78
26.9927	516.55
27.0072	549.65
27.0216	541.95
27.0361	502.06
27.0505	503.04
27.0649	504.37
27.0794	531.26
27.0938	513.95
27.1083	494.83
27.1227	532.13
27.1371	514.69
27.1516	506.85
27.1660	513.76
27.1805	499.07
27.1949	499.46
27.2093	530.27
27.2238	506.74
27.2382	521.60
27.2527	537.21
27.2671	511.85
27.2815	551.60
27.2960	529.31
27.3104	547.85
27.3249	543.55
27.3393	554.78
27.3537	562.84
27.3682	528.42
27.3826	508.37
27.3971	504.81
27.4115	488.11
27.4259	521.30
27.4404	528.54
27.4548	519.51
27.4693	525.41
27.4837	528.88
27.4981	523.25
27.5126	496.95
27.5270	499.17
27.5415	541.68
27.5559	540.97
27.5703	529.18
27.5848	484.25
27.5992	518.58
27.6137	509.02
27.6281	503.52
27.6425	520.09
27.6570	540.15
27.6714	500.97
27.6859	481.69
27.7003	523.86
27.7147	528.37
27.7292	510.07
27.7436	522.90
27.7581	541.79
27.7725	506.70
27.7869	523.69
27.8014	501.06
27.8158	489.39
27.8303	516.80
27.8447	527.74
27.8591	528.63
27.8736	540.88
27.8880	498.32
27.9025	474.51
27.9169	488.92
27.9313	524.02
27.9458	503.96
27.9602	508.21
27.9747	539.77
27.9891	505.02
28.0035	525.97
28.0180	544.02
28.0324	520.34
28.0469	472.62
28.0613	497.68
28.0757	510.14
28.0902	527.39
28.1046	520.65
28.1191	505.68
28.1335	523.94
28.1479	524.36
28.1624	501.63
28.1768	506.18
28.1913	526.62
28.2057	502.03
28.2201	500.43
28.2346	489.98
28.2490	499.83
28.2635	525.19
28.2779	493.43
28.2923	508.18
28.3068	492.22
28.3212	505.56
28.3357	528.37
28.3501	532.97
28.3645	547.68
28.3790	501.36
28.3934	475.36
28.4079	514.76
28.4223	577.99
28.4367	524.98
28.4512	527.20
28.4656	532.02
28.4801	512.64
28.4945	527.18
28.5089	509.14
28.5234	527.11
28.5378	536.95
28.5523	491.45
28.5667	490.34
28.5811	507.95
28.5956	509.21
28.6100	505.56
28.6245	483.84
28.6389	519.83
28.6533	502.97
28.6678	502.37
28.6822	486.25
28.6967	490.46
28.7111	529.11
28.7255	494.14
28.7400	545.91
28.7544	546.98
28.7689	511.06
28.7833	478.28
28.7977	527.09
28.8122	553.11
28.8266	559.45
28.8411	490.07
28.8555	505.07
28.8699	486.40
28.8844	484.31
28.8988	500.77
28.9133	522.99
28.9277	513.39
28.9421	518.32
28.9566	498.74
28.9710	488.58
28.9855	522.95
28.9999	500.58
29.0143	527.85
29.0288	515.01
29.0432	484.72
29.0577	537.63
29.0721	521.03
29.0865	566.15
29.1010	493.75
29.1154	521.30
29.1299	524.88
29.1443	465.28
29.1587	507.19
29.1732	555.96
29.1876	544.39
29.2021	518.90
29.2165	517.24
29.2309	533.79
29.2454	564.63
29.2598	511.29
29.2743	549.28
29.2887	582.36
29.3031	539.41
29.3176	499.08
29.3320	524.45
29.3465	533.13
29.3609	506.72
29.3753	506.54
29.3898	512.10
29.4042	525.77
29.4187	508.37
29.4331	512.98
29.4475	514.16
29.4620	499.09
29.4764	503.37
29.4909	523.09
29.5053	480.90
29.5197	490.30
29.5342	477.26
29.5486	504.24
29.5631	498.19
29.5775	511.46
29.5919	530.50
29.6064	486.53
29.6208	483.55
29.6353	553.61
29.6497	510.20
29.6641	503.77
29.6786	501.56
29.6930	490.93
29.7075	514.45
29.7219	513.40
29.7363	480.47
29.7508	513.25
29.7652	485.75
29.7797	486.61
29.7941	484.79
29.8085	513.14
29.8230	519.14
29.8374	509.11
29.8519	472.77
29.8663	486.32
29.8807	463.91
29.8952	474.13
29.9096	519.81
29.9241	504.99
29.9385	495.73
29.9529	502.77
29.9674	519.65
29.9818	502.80
29.9963	521.30
30.0107	466.15
30.0251	551.82
30.0396	535.91
30.0540	507.23
30.0685	507.59
30.0829	534.36
30.0973	529.27
30.1118	515.21
30.1262	539.27
30.1407	503.34
30.1551	503.18
30.1695	515.35
30.1840	504.76
30.1984	520.18
30.2129	507.63
30.2273	509.47
30.2417	529.17
30.2562	517.31
30.2706	520.02
30.2851	511.06
30.2995	489.04
30.3139	528.77
30.3284	474.91
30.3428	503.40
30.3573	495.25
30.3717	491.49
30.3861	510.72
30.4006	508.33
30.4150	488.33
30.4295	538.03
30.4439	524.37
30.4583	538.88
30.4728	550.58
30.4872	538.90
30.5017	531.50
30.5161	505.52
30.5305	525.52
30.5450	520.92
30.5594	567.72
30.5739	549.62
30.5883	553.83
30.6028	620.02
30.6172	623.61
30.6316	625.75
30.6461	662.38
30.6605	659.64
30.6750	666.06
30.6894	685.39
30.7038	676.10
30.7183	704.33
30.7327	690.46
30.7472	684.76
30.7616	634.64
30.7760	644.29
30.7905	612.68
30.8049	631.17
30.8194	611.02
30.8338	593.19
30.8482	565.67
30.8627	574.46
30.8771	561.99
30.8916	514.62
30.9060	532.23
30.9204	537.86
30.9349	519.26
30.9493	517.52
30.9638	495.41
30.9782	518.49
30.9926	503.72
31.0071	494.08
31.0215	516.05
31.0360	511.71
31.0504	504.28
31.0648	543.12
31.0793	486.15
31.0937	502.88
31.1082	532.14
31.1226	539.98
31.1370	526.89
31.1515	523.88
31.1659	534.95
31.1804	505.76
31.1948	503.45
31.2092	536.02
31.2237	544.36
31.2381	505.91
31.2526	498.67
31.2670	553.08
31.2814	517.96
31.2959	540.94
31.3103	545.10
31.3248	531.65
31.3392	517.36
31.3536	527.75
31.3681	511.67
31.3825	491.35
31.3970	496.17
31.4114	469.52
31.4258	499.99
31.4403	533.34
31.4547	507.60
31.4692	498.86
31.4836	510.40
31.4980	494.42
31.5125	507.32
31.5269	507.59
31.5414	528.19
31.5558	479.81
31.5702	496.67
31.5847	497.16
31.5991	486.77
31.6136	510.07
31.6280	493.43
31.6424	512.19
31.6569	528.43
31.6713	521.28
31.6858	514.58
31.7002	540.79
31.7146	563.14
31.7291	525.00
31.7435	521.72
31.7580	510.47
31.7724	489.86
31.7868	494.24
31.8013	513.34
31.8157	500.61
31.8302	499.16
31.8446	500.43
31.8590	522.11
31.8735	539.32
31.8879	498.86
31.9024	515.51
31.9168	485.45
31.9312	499.52
31.9457	528.84
31.9601	500.83
31.9746	502.74
31.9890	520.58
32.0034	513.48
32.0179	498.70
32.0323	483.54
32.0468	491.06
32.0612	540.26
32.0756	543.27
32.0901	532.70
32.1045	513.32
32.1190	527.50
32.1334	513.05
32.1478	507.19
32.1623	505.51
32.1767	492.16
32.1912	486.74
32.2056	488.49
32.2200	482.81
32.2345	513.66
32.2489	491.46
32.2634	489.22
32.2778	541.54
32.2922	505.53
32.3067	517.94
32.3211	544.41
32.3356	523.08
32.3500	525.86
32.3644	508.61
32.3789	492.25
32.3933	497.24
32.4078	482.85
32.4222	516.57
32.4366	495.39
32.4511	492.97
32.4655	493.77
32.4800	493.53
32.4944	501.19
32.5088	522.36
32.5233	490.16
32.5377	491.14
32.5522	523.96
32.5666	484.56
32.5810	499.85
32.5955	517.78
32.6099	481.49
32.6244	496.93
32.6388	527.89
32.6532	482.65
32.6677	479.39
32.6821	481.10
32.6966	503.71
32.7110	497.97
32.7254	515.37
32.7399	495.17
32.7543	492.99
32.7688	485.10
32.7832	522.61
32.7976	499.09
32.8121	487.82
32.8265	430.31
32.8410	466.52
32.8554	512.53
32.8698	493.87
32.8843	485.58
32.8987	479.84
32.9132	481.87
32.9276	470.40
32.9420	507.11
32.9565	484.36
32.9709	494.52
32.9854	492.36
32.9998	501.90
33.0142	496.12
33.0287	485.42
33.0431	509.25
33.0576	528.89
33.0720	513.42
33.0864	521.88
33.1009	499.47
33.1153	533.63
33.1298	532.41
33.1442	512.07
33.1586	509.20
33.1731	502.89
33.1875	469.99
33.2020	493.32
33.2164	509.99
33.2308	483.28
33.2453	499.81
33.2597	504.40
33.2742	481.17
33.2886	502.18
33.3030	506.38
33.3175	489.81
33.3319	481.42
33.3464	478.89
33.3608	456.55
33.3752	502.24
33.3897	482.74
33.4041	488.98
33.4186	508.52
33.4330	488.40
33.4474	489.86
33.4619	525.00
33.4763	535.40
33.4908	510.10
33.5052	506.38
33.5196	507.97
33.5341	529.10
33.5485	504.55
33.5630	506.54
33.5774	500.79
33.5918	495.30
33.6063	484.71
33.6207	483.28
33.6352	523.87
33.6496	502.17
33.6640	508.29
33.6785	498.90
33.6929	506.71
33.7074	489.14
33.7218	532.83
33.7362	488.00
33.7507	482.53
33.7651	493.41
33.7796	533.58
33.7940	497.87
33.8084	507.47
33.8229	513.59
33.8373	503.15
33.8518	508.92
33.8662	519.39
33.8806	544.30
33.8951	521.06
33.9095	507.83
33.9240	496.17
33.9384	472.47
33.9528	492.22
33.9673	476.81
33.9817	491.36
33.9962	498.41
34.0106	476.56
34.0250	475.26
34.0395	487.21
34.0539	490.24
34.0684	501.05
34.0828	487.74
34.0972	503.94
34.1117	498.68
34.1261	534.37
34.1406	506.16
34.1550	500.20
34.1694	511.76
34.1839	519.91
34.1983	479.40
34.2128	486.66
34.2272	476.96
34.2417	522.96
34.2561	508.60
34.2705	513.14
34.2850	512.38
34.2994	514.90
34.3139	518.81
34.3283	502.60
34.3427	519.27
34.3572	537.72
34.3716	489.99
34.3861	490.37
34.4005	505.14
34.4149	489.31
34.4294	536.32
34.4438	523.37
34.4583	509.32
34.4727	539.24
34.4871	519.37
34.5016	507.80
34.5160	478.22
34.5305	477.03
34.5449	491.99
34.5593	486.08
34.5738	493.42
34.5882	507.08
34.6027	513.03
34.6171	506.23
34.6315	505.13
34.6460	531.15
34.6604	529.12
34.6749	498.50
34.6893	488.02
34.7037	503.08
34.7182	494.40
34.7326	508.48
34.7471	523.64
34.7615	496.90
34.7759	496.71
34.7904	489.15
34.8048	478.98
34.8193	503.41
34.8337	522.37
34.8481	500.65
34.8626	507.30
34.8770	505.77
34.8915	492.51
34.9059	496.27
34.9203	495.85
34.9348	518.60
34.9492	501.51
34.9637	487.17
34.9781	519.95
34.9925	520.88
35.0070	493.85
35.0214	512.48
35.0359	511.88
35.0503	505.31
35.0647	511.81
35.0792	491.79
35.0936	508.99
35.1081	495.53
35.1225	509.47
35.1369	518.33
35.1514	493.43
35.1658	506.41
35.1803	497.77
35.1947	472.90
35.2091	500.20
35.2236	522.77
35.2380	512.80
35.2525	491.37
35.2669	500.40
35.2813	540.96
35.2958	522.30
35.3102	534.27
35.3247	497.16
35.3391	527.24
35.3535	525.54
35.3680	499.03
35.3824	506.02
35.3969	519.31
35.4113	493.93
35.4257	541.03
35.4402	508.69
35.4546	523.79
35.4691	517.31
35.4835	549.86
35.4979	540.81
35.5124	563.10
35.5268	550.41
35.5413	523.30
35.5557	494.84
35.5701	513.75
35.5846	538.07
35.5990	534.45
35.6135	558.42
35.6279	524.98
35.6423	534.66
35.6568	565.66
35.6712	556.49
35.6857	590.38
35.7001	706.62
35.7145	748.20
35.7290	672.02
35.7434	673.01
35.7579	633.00
35.7723	630.76
35.7867	670.11
35.8012	706.56
35.8156	700.99
35.8301	668.06
35.8445	652.00
35.8589	678.19
35.8734	747.47
35.8878	862.38
35.9023	959.20
35.9167	1002.77
35.9311	1108.96
35.9456	1671.32
35.9600	2153.02
35.9745	1967.81
35.9889	1995.06
36.0033	2403.66
36.0178	3163.20
36.0322	3190.43
36.0467	2297.25
36.0611	1909.41
36.0755	1941.45
36.0900	1975.98
36.1044	1716.64
36.1189	1668.22
36.1333	1608.78
36.1477	1398.82
36.1622	1336.09
36.1766	1352.90
36.1911	1189.18
36.2055	1172.77
36.2199	1065.01
36.2344	948.49
36.2488	855.87
36.2633	771.02
36.2777	734.16
36.2921	701.88
36.3066	688.81
36.3210	651.47
36.3355	612.95
36.3499	612.91
36.3643	569.16
36.3788	585.94
36.3932	578.27
36.4077	579.80
36.4221	571.35
36.4365	599.19
36.4510	559.15
36.4654	548.44
36.4799	539.17
36.4943	543.50
36.5087	529.00
36.5232	529.15
36.5376	522.92
36.5521	511.63
36.5665	531.14
36.5809	547.50
36.5954	538.87
36.6098	531.18
36.6243	513.22
36.6387	539.47
36.6531	521.99
36.6676	520.31
36.6820	530.76
36.6965	516.60
36.7109	533.85
36.7253	490.62
36.7398	505.77
36.7542	559.10
36.7687	546.51
36.7831	544.92
36.7975	533.59
36.8120	561.85
36.8264	534.28
36.8409	546.42
36.8553	586.62
36.8697	604.61
36.8842	570.00
36.8986	582.96
36.9131	618.43
36.9275	582.88
36.9419	581.16
36.9564	558.64
36.9708	577.53
36.9853	545.68
36.9997	586.44
37.0141	535.97
37.0286	565.12
37.0430	516.89
37.0575	532.49
37.0719	549.00
37.0863	504.03
37.1008	484.96
37.1152	497.19
37.1297	542.80
37.1441	495.02
37.1585	472.60
37.1730	505.05
37.1874	513.52
37.2019	457.30
37.2163	485.43
37.2307	515.47
37.2452	502.14
37.2596	507.42
37.2741	493.67
37.2885	535.61
37.3029	508.40
37.3174	512.24
37.3318	548.42
37.3463	537.15
37.3607	526.41
37.3751	502.34
37.3896	500.78
37.4040	501.79
37.4185	505.00
37.4329	516.41
37.4473	527.16
37.4618	546.80
37.4762	548.71
37.4907	509.38
37.5051	503.57
37.5195	486.53
37.5340	508.65
37.5484	498.56
37.5629	523.34
37.5773	481.23
37.5917	476.57
37.6062	488.70
37.6206	490.88
37.6351	494.23
37.6495	493.07
37.6639	508.11
37.6784	469.69
37.6928	496.13
37.7073	507.20
37.7217	507.48
37.7361	546.84
37.7506	516.92
37.7650	475.50
37.7795	493.38
37.7939	491.99
37.8083	519.16
37.8228	535.52
37.8372	504.32
37.8517	487.49
37.8661	508.00
37.8805	525.97
37.8950	546.32
37.9094	506.40
37.9239	502.88
37.9383	514.83
37.9528	501.47
37.9672	515.60
37.9816	508.50
37.9961	492.83
38.0105	497.19
38.0250	533.17
38.0394	497.75
38.0538	534.35
38.0683	547.79
38.0827	528.21
38.0972	537.61
38.1116	521.69
38.1260	501.64
38.1405	493.44
38.1549	487.31
38.1694	489.40
38.1838	467.63
38.1982	496.29
38.2127	481.48
38.2271	489.48
38.2416	509.74
38.2560	521.47
38.2704	513.78
38.2849	526.00
38.2993	502.60
38.3138	498.61
38.3282	503.20
38.3426	512.39
38.3571	519.41
38.3715	529.59
38.3860	496.99
38.4004	562.82
38.4148	570.62
38.4293	586.50
38.4437	558.92
38.4582	619.73
38.4726	640.32
38.4870	671.14
38.5015	712.38
38.5159	732.54
38.5304	797.63
38.5448	811.59
38.5592	821.71
38.5737	767.61
38.5881	737.57
38.6026	725.12
38.6170	703.70
38.6314	681.53
38.6459	646.09
38.6603	629.80
38.6748	622.27
38.6892	578.68
38.7036	595.69
38.7181	567.16
38.7325	541.05
38.7470	542.12
38.7614	495.59
38.7758	504.16
38.7903	504.30
38.8047	499.43
38.8192	530.99
38.8336	524.41
38.8480	493.75
38.8625	487.76
38.8769	505.66
38.8914	493.06
38.9058	474.35
38.9202	481.65
38.9347	481.40
38.9491	508.86
38.9636	493.12
38.9780	515.96
38.9924	525.29
39.0069	499.72
39.0213	512.10
39.0358	486.79
39.0502	474.42
39.0646	478.79
39.0791	522.64
39.0935	522.25
39.1080	477.86
39.1224	515.05
39.1368	517.98
39.1513	467.23
39.1657	518.50
39.1802	529.11
39.1946	516.04
39.2090	513.31
39.2235	529.54
39.2379	537.98
39.2524	536.50
39.2668	491.49
39.2812	510.65
39.2957	498.46
39.3101	483.18
39.3246	508.97
39.3390	488.32
39.3534	486.89
39.3679	513.53
39.3823	514.87
39.3968	483.37
39.4112	486.73
39.4256	512.76
39.4401	506.27
39.4545	507.81
39.4690	506.75
39.4834	483.11
39.4978	457.80
39.5123	474.85
39.5267	518.98
39.5412	499.43
39.5556	518.30
39.5700	500.22
39.5845	502.57
39.5989	503.08
39.6134	467.61
39.6278	501.23
39.6422	513.65
39.6567	490.76
39.6711	507.15
39.6856	498.96
39.7000	475.25
39.7144	483.34
39.7289	515.62
39.7433	485.46
39.7578	509.93
39.7722	509.35
39.7866	526.15
39.8011	490.98
39.8155	528.07
39.8300	523.68
39.8444	476.98
39.8588	491.60
39.8733	511.23
39.8877	489.91
39.9022	521.27
39.9166	476.72
39.9310	470.01
39.9455	490.85
39.9599	513.00
39.9744	486.88
39.9888	456.10
40.0032	509.30
40.0177	492.51
40.0321	503.56
40.0466	504.06
40.0610	483.08
40.0754	488.72
40.0899	534.94
40.1043	475.91
40.1188	507.37
40.1332	517.18
40.1476	515.18
40.1621	519.16
40.1765	506.03
40.1910	477.84
40.2054	485.40
40.2198	482.95
40.2343	477.95
40.2487	527.16
40.2632	532.83
40.2776	535.10
40.2920	497.60
40.3065	504.83
40.3209	499.54
40.3354	500.67
40.3498	483.96
40.3642	509.45
40.3787	490.94
40.3931	483.67
40.4076	509.86
40.4220	476.39
40.4364	494.11
40.4509	497.94
40.4653	504.61
40.4798	480.94
40.4942	496.00
40.5086	498.14
40.5231	510.96
40.5375	510.30
40.5520	481.76
40.5664	517.02
40.5808	508.64
40.5953	492.42
40.6097	487.03
40.6242	473.35
40.6386	483.41
40.6530	486.78
40.6675	489.42
40.6819	506.91
40.6964	499.29
40.7108	498.44
40.7252	509.83
40.7397	503.64
40.7541	516.84
40.7686	492.34
40.7830	501.01
40.7974	491.44
40.8119	527.42
40.8263	482.45
40.8408	503.85
40.8552	492.16
40.8696	536.85
40.8841	518.98
40.8985	538.79
40.9130	511.10
40.9274	499.00
40.9418	501.21
40.9563	489.06
40.9707	493.53
40.9852	455.64
40.9996	443.28
41.0140	504.08
41.0285	495.07
41.0429	490.97
41.0574	501.66
41.0718	518.23
41.0862	483.15
41.1007	514.20
41.1151	516.15
41.1296	512.89
41.1440	529.92
41.1584	483.47
41.1729	508.69
41.1873	531.39
41.2018	515.29
41.2162	486.69
41.2306	502.54
41.2451	492.70
41.2595	479.32
41.2740	476.11
41.2884	508.61
41.3028	496.69
41.3173	531.79
41.3317	496.03
41.3462	476.48
41.3606	486.50
41.3750	501.13
41.3895	512.35
41.4039	517.09
41.4184	491.99
41.4328	517.82
41.4472	487.56
41.4617	499.37
41.4761	477.94
41.4906	503.89
41.5050	496.44
41.5194	492.28
41.5339	487.06
41.5483	496.41
41.5628	471.63
41.5772	477.61
41.5916	490.97
41.6061	468.92
41.6205	478.31
41.6350	510.36
41.6494	482.31
41.6639	483.91
41.6783	481.89
41.6927	511.83
41.7072	531.80
41.7216	521.96
41.7361	508.66
41.7505	506.52
41.7649	475.53
41.7794	487.30
41.7938	532.90
41.8083	528.21
41.8227	494.41
41.8371	533.04
41.8516	522.31
41.8660	567.93
41.8805	531.27
41.8949	538.34
41.9093	559.67
41.9238	518.73
41.9382	571.86
41.9527	535.07
41.9671	512.14
41.9815	534.44
41.9960	544.41
42.0104	528.58
42.0249	576.42
42.0393	536.88
42.0537	582.92
42.0682	567.47
42.0826	560.56
42.0971	553.46
42.1115	575.65
42.1259	622.35
42.1404	588.32
42.1548	595.35
42.1693	660.32
42.1837	690.36
42.1981	757.10
42.2126	823.80
42.2270	927.87
42.2415	1063.23
42.2559	1184.67
42.2703	1367.68
42.2848	1545.21
42.2992	1665.90
42.3137	1657.13
42.3281	1681.80
42.3425	1626.08
42.3570	1524.85
42.3714	1466.54
42.3859	1363.65
42.4003	1338.19
42.4147	1353.05
42.4292	1360.59
42.4436	1176.66
42.4581	1079.36
42.4725	968.74
42.4869	879.33
42.5014	818.39
42.5158	699.62
42.5303	655.96
42.5447	628.82
42.5591	599.47
42.5736	569.87
42.5880	548.98
42.6025	559.65
42.6169	560.45
42.6313	548.71
42.6458	556.33
42.6602	551.93
42.6747	548.13
42.6891	532.42
42.7035	550.07
42.7180	537.36
42.7324	505.98
42.7469	528.26
42.7613	511.28
42.7757	526.17
42.7902	518.52
42.8046	501.36
42.8191	516.33
42.8335	538.24
42.8479	529.13
42.8624	528.16
42.8768	511.22
42.8913	488.44
42.9057	503.43
42.9201	495.22
42.9346	494.21
42.9490	525.89
42.9635	499.52
42.9779	508.25
42.9923	510.23
43.0068	511.64
43.0212	485.86
43.0357	482.33
43.0501	475.92
43.0645	507.57
43.0790	550.73
43.0934	539.15
43.1079	545.39
43.1223	519.65
43.1367	507.45
43.1512	495.85
43.1656	505.37
43.1801	483.31
43.1945	501.60
43.2089	524.30
43.2234	530.54
43.2378	551.88
43.2523	531.87
43.2667	510.20
43.2811	507.96
43.2956	510.50
43.3100	539.65
43.3245	514.65
43.3389	526.35
43.3533	506.52
43.3678	487.47
43.3822	485.97
43.3967	504.82
43.4111	500.46
43.4255	524.58
43.4400	549.81
43.4544	526.96
43.4689	529.20
43.4833	520.03
43.4977	540.52
43.5122	508.86
43.5266	538.24
43.5411	527.19
43.5555	475.82
43.5699	488.86
43.5844	522.50
43.5988	520.90
43.6133	538.16
43.6277	511.11
43.6421	517.90
43.6566	519.50
43.6710	497.93
43.6855	540.93
43.6999	553.18
43.7143	551.17
43.7288	543.67
43.7432	514.39
43.7577	549.24
43.7721	551.10
43.7865	544.59
43.8010	553.87
43.8154	577.24
43.8299	584.83
43.8443	570.34
43.8587	580.96
43.8732	618.29
43.8876	604.77
43.9021	668.47
43.9165	678.49
43.9309	641.06
43.9454	638.14
43.9598	650.58
43.9743	610.66
43.9887	613.41
44.0031	579.02
44.0176	544.29
44.0320	574.88
44.0465	600.12
44.0609	593.78
44.0753	572.38
44.0898	599.46
44.1042	612.24
44.1187	577.93
44.1331	536.71
44.1475	506.58
44.1620	519.70
44.1764	491.50
44.1909	525.03
44.2053	534.89
44.2197	523.47
44.2342	535.21
44.2486	531.67
44.2631	540.71
44.2775	545.70
44.2919	537.87
44.3064	551.16
44.3208	500.48
44.3353	524.45
44.3497	530.31
44.3641	532.29
44.3786	531.27
44.3930	519.22
44.4075	584.28
44.4219	580.66
44.4363	505.40
44.4508	536.72
44.4652	573.48
44.4797	597.27
44.4941	591.79
44.5085	581.78
44.5230	589.55
44.5374	593.41
44.5519	561.53
44.5663	543.97
44.5807	547.82
44.5952	545.30
44.6096	578.69
44.6241	593.72
44.6385	573.30
44.6529	584.36
44.6674	623.30
44.6818	591.03
44.6963	610.75
44.7107	634.84
44.7251	639.97
44.7396	704.67
44.7540	791.77
44.7685	863.41
44.7829	889.03
44.7973	866.26
44.8118	866.77
44.8262	810.55
44.8407	750.77
44.8551	727.38
44.8695	781.26
44.8840	752.08
44.8984	728.85
44.9129	761.83
44.9273	667.05
44.9417	683.67
44.9562	621.97
44.9706	633.81
44.9851	578.95
44.9995	540.69
45.0139	574.62
45.0284	552.29
45.0428	515.11
45.0573	537.60
45.0717	512.31
45.0861	524.52
45.1006	515.51
45.1150	483.59
45.1295	476.71
45.1439	508.43
45.1583	517.44
45.1728	535.44
45.1872	512.94
45.2017	507.76
45.2161	507.49
45.2305	506.20
45.2450	533.36
45.2594	535.80
45.2739	476.89
45.2883	482.80
45.3028	487.62
45.3172	489.06
45.3316	515.02
45.3461	521.53
45.3605	485.82
45.3750	498.11
45.3894	516.83
45.4038	501.81
45.4183	496.73
45.4327	514.17
45.4472	501.51
45.4616	511.80
45.4760	519.70
45.4905	521.18
45.5049	488.61
45.5194	545.48
45.5338	536.47
45.5482	481.20
45.5627	498.50
45.5771	490.37
45.5916	506.68
45.6060	520.22
45.6204	503.97
45.6349	516.89
45.6493	521.80
45.6638	470.39
45.6782	479.29
45.6926	486.97
45.7071	494.23
45.7215	489.69
45.7360	486.52
45.7504	480.27
45.7648	468.86
45.7793	509.14
45.7937	513.37
45.8082	495.55
45.8226	492.01
45.8370	526.59
45.8515	481.98
45.8659	518.95
45.8804	505.28
45.8948	490.48
45.9092	536.62
45.9237	518.65
45.9381	527.08
45.9526	510.81
45.9670	501.02
45.9814	506.53
45.9959	489.51
46.0103	480.21
46.0248	510.37
46.0392	495.26
46.0536	511.20
46.0681	501.13
46.0825	476.28
46.0970	518.56
46.1114	506.30
46.1258	520.61
46.1403	502.62
46.1547	483.29
46.1692	477.33
46.1836	497.49
46.1980	457.33
46.2125	465.91
46.2269	494.83
46.2414	506.47
46.2558	538.55
46.2702	508.18
46.2847	500.88
46.2991	459.80
46.3136	502.51
46.3280	514.86
46.3424	519.11
46.3569	503.13
46.3713	505.48
46.3858	519.35
46.4002	475.44
46.4146	461.75
46.4291	522.23
46.4435	516.61
46.4580	508.99
46.4724	501.97
46.4868	499.68
46.5013	495.63
46.5157	474.92
46.5302	475.96
46.5446	501.45
46.5590	485.39
46.5735	485.05
46.5879	479.12
46.6024	498.04
46.6168	492.35
46.6312	517.78
46.6457	483.43
46.6601	469.31
46.6746	490.94
46.6890	484.19
46.7034	514.74
46.7179	491.64
46.7323	498.73
46.7468	503.81
46.7612	507.03
46.7756	498.61
46.7901	525.41
46.8045	489.95
46.8190	507.00
46.8334	520.40
46.8478	482.63
46.8623	496.95
46.8767	520.30
46.8912	506.19
46.9056	526.04
46.9200	532.96
46.9345	511.05
46.9489	499.48
46.9634	527.04
46.9778	495.96
46.9922	507.72
47.0067	518.83
47.0211	557.52
47.0356	535.59
47.0500	517.48
47.0644	535.58
47.0789	536.76
47.0933	562.99
47.1078	506.70
47.1222	511.23
47.1366	518.94
47.1511	475.18
47.1655	504.80
47.1800	509.68
47.1944	480.03
47.2088	484.97
47.2233	512.18
47.2377	518.18
47.2522	484.73
47.2666	496.39
47.2810	518.49
47.2955	485.52
47.3099	464.74
47.3244	528.04
47.3388	507.71
47.3532	517.75
47.3677	495.28
47.3821	470.70
47.3966	478.32
47.4110	475.42
47.4254	498.94
47.4399	480.15
47.4543	513.16
47.4688	511.29
47.4832	539.75
47.4976	508.78
47.5121	464.13
47.5265	504.43
47.5410	481.28
47.5554	534.11
47.5698	519.95
47.5843	527.98
47.5987	514.97
47.6132	509.50
47.6276	507.68
47.6420	522.35
47.6565	483.62
47.6709	491.77
47.6854	513.85
47.6998	504.15
47.7142	524.93
47.7287	503.28
47.7431	473.34
47.7576	497.89
47.7720	500.90
47.7864	519.67
47.8009	524.83
47.8153	523.30
47.8298	511.70
47.8442	508.61
47.8586	524.59
47.8731	481.96
47.8875	484.85
47.9020	509.68
47.9164	507.03
47.9308	500.54
47.9453	497.56
47.9597	531.74
47.9742	525.84
47.9886	509.25
48.0030	455.86
48.0175	510.56
48.0319	496.73
48.0464	527.18
48.0608	512.62
48.0752	532.50
48.0897	511.01
48.1041	486.80
48.1186	520.20
48.1330	520.94
48.1474	479.89
48.1619	478.19
48.1763	487.01
48.1908	490.89
48.2052	486.96
48.2196	541.01
48.2341	534.13
48.2485	518.65
48.2630	517.20
48.2774	494.42
48.2918	478.30
48.3063	512.81
48.3207	509.87
48.3352	526.00
48.3496	506.40
48.3640	504.59
48.3785	514.97
48.3929	546.59
48.4074	522.68
48.4218	532.22
48.4362	571.11
48.4507	521.71
48.4651	491.37
48.4796	519.75
48.4940	521.02
48.5084	516.72
48.5229	503.35
48.5373	525.81
48.5518	533.97
48.5662	516.34
48.5806	533.61
48.5951	501.29
48.6095	500.39
48.6240	506.05
48.6384	545.28
48.6528	558.27
48.6673	503.40
48.6817	491.28
48.6962	508.33
48.7106	523.29
48.7250	525.73
48.7395	518.90
48.7539	535.25
48.7684	466.90
48.7828	496.75
48.7972	564.16
48.8117	516.54
48.8261	570.73
48.8406	543.38
48.8550	542.22
48.8694	564.75
48.8839	513.59
48.8983	548.47
48.9128	569.68
48.9272	564.63
48.9416	519.64
48.9561	552.59
48.9705	544.50
48.9850	572.40
48.9994	594.21
49.0139	579.88
49.0283	679.38
49.0427	601.68
49.0572	611.40
49.0716	624.58
49.0861	616.26
49.1005	673.68
49.1149	700.52
49.1294	702.90
49.1438	758.37
49.1583	783.40
49.1727	841.91
49.1871	874.65
49.2016	1000.31
49.2160	1077.85
49.2305	1132.29
49.2449	1203.65
49.2593	1308.75
49.2738	1389.51
49.2882	1502.07
49.3027	1613.31
49.3171	1658.51
49.3315	1770.12
49.3460	1780.22
49.3604	1844.32
49.3749	1842.98
49.3893	1873.14
49.4037	1807.98
49.4182	1838.93
49.4326	1780.77
49.4471	1688.58
49.4615	1694.21
49.4759	1629.77
49.4904	1539.48
49.5048	1410.86
49.5193	1315.26
49.5337	1310.91
49.5481	1241.98
49.5626	1182.23
49.5770	1053.98
49.5915	989.45
49.6059	950.52
49.6203	913.41
49.6348	843.25
49.6492	790.41
49.6637	738.11
49.6781	721.58
49.6925	691.01
49.7070	701.96
49.7214	620.36
49.7359	596.57
49.7503	625.68
49.7647	634.86
49.7792	630.12
49.7936	570.54
49.8081	580.41
49.8225	560.38
49.8369	547.24
49.8514	533.10
49.8658	550.12
49.8803	575.16
49.8947	542.31
49.9091	528.92
49.9236	544.66
49.9380	536.53
49.9525	521.63
49.9669	492.28
49.9813	535.73
49.9958	549.49
50.0102	494.57
50.0247	494.57
50.0391	545.77
50.0535	525.47
50.0680	483.85
50.0824	527.14
50.0969	533.43
50.1113	533.04
50.1257	561.12
50.1402	506.84
50.1546	482.50
50.1691	515.12
50.1835	480.58
50.1979	531.01
50.2124	534.54
50.2268	525.57
50.2413	509.07
50.2557	543.66
50.2701	532.77
50.2846	526.42
50.2990	511.65
50.3135	525.19
50.3279	497.14
50.3423	482.98
50.3568	532.57
50.3712	489.11
50.3857	502.66
50.4001	501.06
50.4145	530.98
50.4290	544.16
50.4434	503.07
50.4579	512.56
50.4723	538.10
50.4867	548.02
50.5012	500.74
50.5156	490.38
50.5301	476.69
50.5445	504.56
50.5589	530.36
50.5734	521.69
50.5878	508.47
50.6023	516.14
50.6167	536.84
50.6311	550.54
50.6456	535.16
50.6600	517.02
50.6745	511.35
50.6889	497.01
50.7033	531.39
50.7178	530.89
50.7322	490.83
50.7467	500.22
50.7611	495.23
50.7755	512.98
50.7900	517.94
50.8044	487.14
50.8189	522.22
50.8333	479.63
50.8477	467.72
50.8622	491.95
50.8766	479.73
50.8911	492.05
50.9055	516.14
50.9199	500.18
50.9344	514.56
50.9488	472.15
50.9633	486.51
50.9777	492.98
50.9921	489.14
51.0066	503.27
51.0210	511.52
51.0355	517.90
51.0499	513.89
51.0643	518.03
51.0788	511.93
51.0932	509.52
51.1077	485.86
51.1221	485.14
51.1365	504.21
51.1510	511.21
51.1654	501.56
51.1799	529.18
51.1943	495.87
51.2087	511.49
51.2232	535.60
51.2376	523.40
51.2521	484.23
51.2665	514.87
51.2809	527.44
51.2954	489.24
51.3098	511.38
51.3243	525.38
51.3387	512.26
51.3531	491.81
51.3676	532.44
51.3820	509.18
51.3965	502.61
51.4109	499.39
51.4253	515.12
51.4398	497.06
51.4542	465.47
51.4687	472.59
51.4831	513.64
51.4975	524.17
51.5120	505.44
51.5264	527.58
51.5409	510.39
51.5553	513.48
51.5697	521.77
51.5842	528.19
51.5986	496.83
51.6131	508.19
51.6275	499.77
51.6419	505.33
51.6564	519.93
51.6708	527.28
51.6853	511.29
51.6997	502.80
51.7141	508.70
51.7286	513.21
51.7430	532.28
51.7575	501.86
51.7719	504.19
51.7863	520.15
51.8008	495.13
51.8152	515.56
51.8297	526.23
51.8441	524.11
51.8585	507.63
51.8730	505.72
51.8874	498.84
51.9019	534.36
51.9163	545.42
51.9307	507.21
51.9452	490.84
51.9596	459.93
51.9741	469.18
51.9885	490.72
52.0029	484.44
52.0174	477.33
52.0318	496.31
52.0463	498.28
52.0607	514.28
52.0751	526.81
52.0896	505.80
52.1040	490.16
52.1185	511.41
52.1329	517.20
52.1473	517.10
52.1618	488.50
52.1762	515.44
52.1907	496.75
52.2051	500.63
52.2195	491.04
52.2340	516.07
52.2484	517.51
52.2629	496.78
52.2773	519.39
52.2917	524.02
52.3062	518.62
52.3206	495.04
52.3351	505.15
52.3495	509.59
52.3639	480.00
52.3784	513.73
52.3928	481.11
52.4073	502.57
52.4217	505.63
52.4361	536.58
52.4506	512.52
52.4650	525.65
52.4795	516.55
52.4939	522.31
52.5083	530.56
52.5228	516.40
52.5372	551.47
52.5517	520.30
52.5661	491.14
52.5805	510.50
52.5950	501.84
52.6094	520.78
52.6239	476.88
52.6383	518.41
52.6527	504.14
52.6672	505.33
52.6816	481.23
52.6961	482.64
52.7105	524.27
52.7250	483.84
52.7394	484.85
52.7538	510.71
52.7683	515.51
52.7827	475.02
52.7972	498.94
52.8116	495.93
52.8260	533.93
52.8405	504.26
52.8549	521.23
52.8694	522.62
52.8838	517.06
52.8982	514.19
52.9127	510.15
52.9271	496.90
52.9416	550.31
52.9560	486.33
52.9704	516.90
52.9849	536.60
52.9993	508.13
53.0138	517.72
53.0282	523.08
53.0426	500.83
53.0571	521.92
53.0715	518.16
53.0860	533.61
53.1004	554.72
53.1148	521.19
53.1293	483.28
53.1437	488.77
53.1582	485.73
53.1726	502.56
53.1870	514.13
53.2015	522.11
53.2159	526.20
53.2304	480.78
53.2448	483.78
53.2592	518.02
53.2737	488.48
53.2881	466.00
53.3026	521.50
53.3170	486.89
53.3314	498.46
53.3459	546.46
53.3603	484.83
53.3748	501.83
53.3892	499.53
53.4036	522.50
53.4181	511.02
53.4325	546.97
53.4470	498.56
53.4614	495.84
53.4758	502.30
53.4903	511.26
53.5047	489.64
53.5192	529.50
53.5336	512.80
53.5480	515.39
53.5625	529.59
53.5769	509.34
53.5914	524.51
53.6058	529.49
53.6202	517.34
53.6347	538.55
53.6491	534.03
53.6636	501.83
53.6780	468.63
53.6924	497.07
53.7069	530.38
53.7213	514.70
53.7358	494.64
53.7502	491.54
53.7646	493.50
53.7791	508.45
53.7935	524.66
53.8080	518.04
53.8224	510.87
53.8368	510.02
53.8513	503.31
53.8657	541.57
53.8802	522.13
53.8946	500.55
53.9090	512.59
53.9235	509.79
53.9379	556.07
53.9524	510.43
53.9668	494.80
53.9812	537.59
53.9957	562.07
54.0101	505.12
54.0246	509.77
54.0390	534.49
54.0534	530.96
54.0679	501.58
54.0823	548.99
54.0968	520.25
54.1112	487.52
54.1256	529.71
54.1401	538.93
54.1545	509.59
54.1690	531.49
54.1834	510.42
54.1978	472.87
54.2123	490.06
54.2267	507.87
54.2412	517.72
54.2556	527.70
54.2700	506.89
54.2845	520.46
54.2989	527.49
54.3134	573.40
54.3278	562.63
54.3422	557.23
54.3567	551.96
54.3711	544.97
54.3856	515.70
54.4000	563.40
54.4144	520.44
54.4289	586.39
54.4433	575.45
54.4578	584.65
54.4722	611.38
54.4866	595.52
54.5011	573.10
54.5155	583.19
54.5300	633.89
54.5444	583.87
54.5588	618.43
54.5733	591.82
54.5877	554.03
54.6022	554.73
54.6166	575.04
54.6310	573.21
54.6455	555.75
54.6599	552.98
54.6744	561.37
54.6888	521.45
54.7032	525.03
54.7177	547.66
54.7321	563.33
54.7466	510.68
54.7610	520.08
54.7754	567.10
54.7899	526.26
54.8043	526.43
54.8188	522.53
54.8332	511.57
54.8476	486.63
54.8621	525.93
54.8765	539.22
54.8910	517.06
54.9054	513.83
54.9198	485.67
54.9343	473.70
54.9487	496.22
54.9632	468.06
54.9776	503.89
54.9920	507.15
55.0065	524.80
55.0209	514.73
55.0354	502.26
55.0498	504.69
55.0642	505.11
55.0787	540.99
55.0931	544.04
55.1076	530.58
55.1220	496.94
55.1364	496.59
55.1509	490.56
55.1653	519.10
55.1798	503.43
55.1942	494.82
55.2086	543.46
55.2231	558.41
55.2375	533.65
55.2520	509.25
55.2664	519.07
55.2808	529.90
55.2953	519.76
55.3097	494.68
55.3242	493.30
55.3386	540.53
55.3530	532.77
55.3675	517.31
55.3819	496.20
55.3964	484.56
55.4108	531.90
55.4252	541.93
55.4397	530.15
55.4541	532.55
55.4686	531.90
55.4830	531.78
55.4974	491.55
55.5119	494.95
55.5263	508.43
55.5408	511.98
55.5552	531.56
55.5696	545.39
55.5841	523.56
55.5985	530.71
55.6130	538.03
55.6274	503.68
55.6418	511.53
55.6563	495.15
55.6707	521.74
55.6852	493.99
55.6996	516.69
55.7140	539.07
55.7285	509.92
55.7429	511.62
55.7574	535.69
55.7718	507.59
55.7862	528.36
55.8007	541.06
55.8151	528.71
55.8296	510.04
55.8440	518.42
55.8584	528.01
55.8729	526.66
55.8873	489.08
55.9018	533.20
55.9162	520.39
55.9306	488.74
55.9451	505.21
55.9595	548.77
55.9740	519.48
55.9884	502.43
56.0028	530.63
56.0173	585.71
56.0317	565.32
56.0462	522.72
56.0606	522.71
56.0750	524.60
56.0895	556.94
56.1039	508.58
56.1184	502.84
56.1328	489.23
56.1472	484.24
56.1617	505.59
56.1761	517.41
56.1906	495.50
56.2050	515.23
56.2194	513.58
56.2339	512.35
56.2483	520.11
56.2628	519.09
56.2772	520.13
56.2916	520.60
56.3061	480.82
56.3205	499.47
56.3350	533.99
56.3494	530.62
56.3639	543.63
56.3783	531.22
56.3927	538.73
56.4072	518.47
56.4216	511.11
56.4361	527.98
56.4505	501.95
56.4649	533.85
56.4794	532.32
56.4938	488.99
56.5083	506.49
56.5227	483.75
56.5371	536.65
56.5516	519.93
56.5660	532.13
56.5805	521.79
56.5949	508.69
56.6093	517.85
56.6238	509.73
56.6382	518.78
56.6527	498.83
56.6671	485.16
56.6815	463.00
56.6960	502.29
56.7104	537.34
56.7249	491.91
56.7393	512.94
56.7537	523.26
56.7682	509.50
56.7826	558.85
56.7971	497.10
56.8115	510.01
56.8259	498.22
56.8404	493.65
56.8548	509.87
56.8693	530.21
56.8837	506.27
56.8981	526.48
56.9126	530.17
56.9270	493.93
56.9415	562.73
56.9559	531.32
56.9703	500.27
56.9848	517.54
56.9992	538.57
57.0137	512.14
57.0281	485.24
57.0425	531.00
57.0570	548.35
57.0714	550.91
57.0859	531.35
57.1003	531.74
57.1147	524.03
57.1292	530.59
57.1436	515.77
57.1581	496.33
57.1725	540.32
57.1869	532.99
57.2014	521.91
57.2158	531.27
57.2303	540.97
57.2447	480.67
57.2591	493.00
57.2736	498.57
57.2880	490.11
57.3025	516.96
57.3169	541.69
57.3313	571.51
57.3458	517.95
57.3602	522.13
57.3747	519.16
57.3891	499.63
57.4035	542.68
57.4180	557.39
57.4324	510.39
57.4469	494.82
57.4613	533.38
57.4757	534.38
57.4902	510.29
57.5046	525.87
57.5191	517.40
57.5335	517.07
57.5479	514.38
57.5624	551.02
57.5768	500.39
57.5913	518.67
57.6057	530.38
57.6201	538.71
57.6346	517.18
57.6490	530.33
57.6635	523.28
57.6779	500.62
57.6923	541.54
57.7068	550.28
57.7212	542.06
57.7357	493.65
57.7501	542.37
57.7645	546.45
57.7790	574.47
57.7934	547.28
57.8079	527.84
57.8223	543.53
57.8367	536.92
57.8512	541.48
57.8656	551.86
57.8801	541.25
57.8945	579.57
57.9089	575.04
57.9234	587.94
57.9378	602.63
57.9523	585.72
57.9667	610.01
57.9811	624.77
57.9956	639.32
58.0100	617.35
58.0245	633.17
58.0389	627.76
58.0533	609.63
58.0678	612.64
58.0822	616.00
58.0967	626.81
58.1111	673.91
58.1255	704.55
58.1400	683.88
58.1544	651.42
58.1689	697.99
58.1833	673.15
58.1977	630.18
58.2122	608.33
58.2266	630.18
58.2411	669.99
58.2555	631.70
58.2699	617.98
58.2844	617.10
58.2988	638.75
58.3133	638.19
58.3277	624.97
58.3421	614.14
58.3566	595.86
58.3710	586.60
58.3855	585.26
58.3999	559.16
58.4143	569.47
58.4288	571.19
58.4432	565.89
58.4577	562.22
58.4721	543.57
58.4865	542.42
58.5010	511.76
58.5154	551.24
58.5299	565.46
58.5443	528.75
58.5587	527.67
58.5732	525.52
58.5876	527.99
58.6021	526.38
58.6165	512.11
58.6309	512.57
58.6454	570.66
58.6598	541.33
58.6743	524.72
58.6887	534.83
58.7031	557.88
58.7176	543.04
58.7320	561.00
58.7465	554.11
58.7609	538.48
58.7753	541.29
58.7898	531.36
58.8042	519.95
58.8187	536.64
58.8331	562.75
58.8475	533.41
58.8620	528.85
58.8764	558.88
58.8909	523.68
58.9053	547.48
58.9197	561.48
58.9342	554.14
58.9486	543.81
58.9631	523.72
58.9775	523.43
58.9919	492.90
59.0064	510.68
59.0208	547.04
59.0353	544.10
59.0497	505.32
59.0641	499.66
59.0786	480.42
59.0930	525.64
59.1075	539.43
59.1219	585.56
59.1363	562.27
59.1508	538.19
59.1652	542.35
59.1797	526.50
59.1941	510.16
59.2085	551.40
59.2230	578.37
59.2374	565.65
59.2519	553.66
59.2663	528.34
59.2807	525.23
59.2952	540.49
59.3096	567.27
59.3241	593.01
59.3385	557.18
59.3529	522.54
59.3674	569.00
59.3818	563.36
59.3963	535.87
59.4107	579.46
59.4251	592.59
59.4396	551.94
59.4540	541.98
59.4685	558.22
59.4829	544.79
59.4973	561.57
59.5118	543.33
59.5262	537.98
59.5407	571.98
59.5551	548.13
59.5695	550.52
59.5840	560.18
59.5984	538.05
59.6129	553.63
59.6273	551.97
59.6417	587.69
59.6562	559.55
59.6706	540.72
59.6851	497.68
59.6995	482.69
59.7139	518.02
59.7284	514.10
59.7428	521.10
59.7573	550.02
59.7717	519.89
59.7861	556.30
59.8006	548.37
59.8150	570.80
59.8295	540.64
59.8439	542.31
59.8583	554.34
59.8728	546.73
59.8872	524.45
59.9017	535.49
59.9161	485.20
59.9305	545.14
59.9450	503.61
59.9594	511.16
59.9739	519.83
59.9883	540.81
60.0027	571.29
60.0172	533.62
60.0316	513.82
60.0461	547.33
60.0605	557.90
60.0750	562.91
60.0894	563.64
60.1038	548.58
60.1183	574.89
60.1327	563.21
60.1472	558.27
60.1616	527.41
60.1760	532.53
60.1905	515.75
60.2049	497.61
60.2194	508.76
60.2338	517.38
60.2482	559.87
60.2627	513.89
60.2771	548.77
60.2916	560.82
60.3060	557.51
60.3204	561.34
60.3349	552.40
60.3493	519.81
60.3638	545.77
60.3782	519.68
60.3926	492.24
60.4071	500.11
60.4215	512.46
60.4360	561.26
60.4504	537.26
60.4648	534.85
60.4793	543.16
60.4937	558.62
60.5082	520.13
60.5226	523.48
60.5370	568.83
60.5515	509.02
60.5659	519.52
60.5804	491.80
60.5948	525.51
60.6092	519.49
60.6237	553.49
60.6381	552.50
60.6526	528.30
60.6670	564.74
60.6814	511.13
60.6959	522.58
60.7103	575.09
60.7248	549.73
60.7392	549.04
60.7536	562.85
60.7681	542.02
60.7825	548.30
60.7970	540.03
60.8114	553.91
60.8258	519.91
60.8403	567.38
60.8547	538.59
60.8692	557.06
60.8836	539.45
60.8980	572.55
60.9125	547.90
60.9269	547.32
60.9414	556.76
60.9558	529.39
60.9702	569.00
60.9847	526.92
60.9991	550.27
61.0136	516.73
61.0280	524.49
61.0424	527.48
61.0569	535.66
61.0713	528.71
61.0858	536.55
61.1002	508.93
61.1146	527.07
61.1291	536.37
61.1435	544.89
61.1580	557.88
61.1724	571.87
61.1868	532.32
61.2013	523.07
61.2157	534.56
61.2302	535.07
61.2446	536.85
61.2590	572.08
61.2735	516.89
61.2879	569.95
61.3024	563.77
61.3168	508.53
61.3312	545.73
61.3457	544.63
61.3601	537.69
61.3746	527.67
61.3890	541.80
61.4034	520.83
61.4179	547.50
61.4323	525.49
61.4468	538.15
61.4612	535.20
61.4756	530.64
61.4901	569.91
61.5045	559.33
61.5190	516.30
61.5334	538.82
61.5478	532.75
61.5623	564.78
61.5767	517.83
61.5912	523.46
61.6056	569.35
61.6200	561.22
61.6345	546.97
61.6489	548.93
61.6634	549.03
61.6778	536.42
61.6922	548.26
61.7067	547.59
61.7211	524.09
61.7356	531.11
61.7500	585.79
61.7644	514.81
61.7789	543.05
61.7933	538.31
61.8078	565.26
61.8222	558.46
61.8366	552.04
61.8511	567.13
61.8655	573.63
61.8800	528.48
61.8944	538.92
61.9088	583.01
61.9233	565.97
61.9377	557.65
61.9522	553.47
61.9666	534.79
61.9810	550.52
61.9955	554.14
62.0099	548.27
62.0244	560.83
62.0388	530.73
62.0532	500.10
62.0677	506.94
62.0821	541.39
62.0966	536.58
62.1110	586.34
62.1254	576.80
62.1399	546.78
62.1543	493.99
62.1688	541.39
62.1832	537.13
62.1976	549.95
62.2121	546.62
62.2265	541.23
62.2410	550.33
62.2554	570.50
62.2698	562.07
62.2843	559.66
62.2987	554.39
62.3132	569.37
62.3276	538.83
62.3420	548.60
62.3565	539.98
62.3709	565.51
62.3854	553.46
62.3998	545.63
62.4142	520.44
62.4287	563.43
62.4431	546.32
62.4576	549.51
62.4720	558.33
62.4864	537.06
62.5009	555.19
62.5153	531.16
62.5298	553.89
62.5442	570.71
62.5586	539.57
62.5731	517.76
62.5875	553.28
62.6020	579.45
62.6164	564.92
62.6308	536.97
62.6453	546.70
62.6597	581.02
62.6742	546.38
62.6886	536.05
62.7030	556.95
62.7175	546.35
62.7319	546.60
62.7464	550.67
62.7608	551.02
62.7752	560.97
62.7897	573.40
62.8041	569.65
62.8186	566.42
62.8330	577.75
62.8474	569.69
62.8619	584.82
62.8763	593.76
62.8908	571.36
62.9052	555.79
62.9196	551.48
62.9341	547.05
62.9485	540.51
62.9630	590.35
62.9774	553.19
62.9918	544.78
63.0063	528.42
63.0207	598.57
63.0352	584.47
63.0496	577.30
63.0640	593.08
63.0785	556.32
63.0929	576.33
63.1074	561.71
63.1218	588.95
63.1362	582.93
63.1507	577.01
63.1651	586.17
63.1796	560.30
63.1940	551.22
63.2084	533.51
63.2229	564.41
63.2373	544.63
63.2518	575.22
63.2662	559.25
63.2806	598.41
63.2951	581.79
63.3095	585.17
63.3240	593.55
63.3384	584.37
63.3528	592.22
63.3673	577.84
63.3817	565.71
63.3962	577.21
63.4106	594.94
63.4250	621.65
63.4395	576.00
63.4539	566.52
63.4684	598.46
63.4828	619.11
63.4972	593.27
63.5117	594.94
63.5261	595.61
63.5406	580.23
63.5550	617.08
63.5694	636.38
63.5839	608.98
63.5983	610.16
63.6128	627.33
63.6272	647.47
63.6416	658.23
63.6561	678.55
63.6705	666.53
63.6850	663.28
63.6994	698.19
63.7138	744.81
63.7283	756.99
63.7427	745.97
63.7572	740.51
63.7716	776.26
63.7861	769.05
63.8005	773.09
63.8149	786.15
63.8294	794.38
63.8438	759.91
63.8583	815.14
63.8727	791.19
63.8871	807.66
63.9016	838.06
63.9160	829.98
63.9305	840.02
63.9449	863.05
63.9593	836.06
63.9738	795.48
63.9882	767.01
64.0027	740.19
64.0171	735.20
64.0315	782.82
64.0460	735.24
64.0604	756.94
64.0749	690.89
64.0893	689.01
64.1037	669.69
64.1182	681.74
64.1326	688.91
64.1471	667.68
64.1615	669.38
64.1759	683.02
64.1904	641.62
64.2048	616.32
64.2193	646.23
64.2337	640.84
64.2481	609.82
64.2626	604.85
64.2770	618.22
64.2915	612.96
64.3059	604.29
64.3203	648.62
64.3348	650.12
64.3492	589.26
64.3637	600.32
64.3781	607.29
64.3925	608.12
64.4070	621.81
64.4214	642.68
64.4359	667.07
64.4503	610.28
64.4647	608.13
64.4792	615.42
64.4936	606.05
64.5081	600.11
64.5225	599.89
64.5369	622.69
64.5514	656.51
64.5658	615.78
64.5803	637.20
64.5947	595.73
64.6091	599.49
64.6236	643.96
64.6380	659.99
64.6525	667.21
64.6669	672.02
64.6813	647.44
64.6958	679.71
64.7102	684.08
64.7247	652.72
64.7391	685.62
64.7535	698.67
64.7680	693.57
64.7824	712.64
64.7969	716.22
64.8113	745.21
64.8257	744.21
64.8402	807.99
64.8546	827.92
64.8691	793.98
64.8835	811.38
64.8979	893.83
64.9124	833.53
64.9268	848.39
64.9413	887.30
64.9557	845.93
64.9701	967.73
64.9846	1039.58
64.9990	1097.18
65.0135	1277.37
65.0279	1372.35
65.0423	1641.07
65.0568	1973.08
65.0712	2466.27
65.0857	3207.66
65.1001	4297.04
65.1145	5657.27
65.1290	7423.72
65.1434	9003.20
65.1579	10688.30
65.1723	11542.45
65.1867	11341.70
65.2012	10157.75
65.2156	8523.84
65.2301	6726.31
65.2445	5478.41
65.2589	4542.14
65.2734	4099.68
65.2878	4302.79
65.3023	4747.66
65.3167	5532.92
65.3311	6237.34
65.3456	6836.32
65.3600	6958.61
65.3745	6474.40
65.3889	5461.90
65.4033	4418.45
65.4178	3481.06
65.4322	2769.76
65.4467	2097.83
65.4611	1735.38
65.4755	1505.34
65.4900	1308.61
65.5044	1169.11
65.5189	1066.52
65.5333	974.08
65.5477	928.45
65.5622	894.25
65.5766	867.49
65.5911	822.14
65.6055	790.23
65.6199	772.39
65.6344	785.96
65.6488	761.97
65.6633	718.96
65.6777	698.37
65.6921	701.05
65.7066	791.59
65.7210	686.41
65.7355	651.79
65.7499	695.57
65.7643	632.64
65.7788	643.07
65.7932	650.17
65.8077	663.83
65.8221	622.13
65.8365	667.30
65.8510	672.68
65.8654	687.76
65.8799	653.86
65.8943	610.01
65.9087	658.05
65.9232	656.77
65.9376	667.28
65.9521	592.96
65.9665	591.82
65.9809	591.96
65.9954	613.68
66.0098	618.96
66.0243	606.73
66.0387	619.53
66.0531	632.96
66.0676	634.47
66.0820	664.72
66.0965	599.96
66.1109	629.83
66.1253	604.85
66.1398	614.54
66.1542	612.16
66.1687	607.12
66.1831	596.20
66.1975	603.28
66.2120	597.61
66.2264	640.95
66.2409	637.57
66.2553	608.86
66.2697	604.68
66.2842	602.51
66.2986	599.15
66.3131	624.18
66.3275	596.78
66.3419	577.42
66.3564	586.43
66.3708	611.20
66.3853	627.25
66.3997	593.40
66.4141	597.27
66.4286	603.07
66.4430	589.64
66.4575	567.14
66.4719	596.53
66.4863	630.84
66.5008	618.08
66.5152	585.60
66.5297	595.20
66.5441	605.81
66.5585	580.37
66.5730	596.11
66.5874	610.66
66.6019	564.98
66.6163	572.37
66.6307	587.74
66.6452	582.01
66.6596	591.56
66.6741	540.23
66.6885	555.26
66.7029	588.20
66.7174	588.88
66.7318	582.43
66.7463	598.99
66.7607	580.53
66.7751	605.12
66.7896	623.38
66.8040	592.48
66.8185	583.76
66.8329	588.39
66.8473	598.31
66.8618	620.23
66.8762	629.21
66.8907	612.21
66.9051	618.68
66.9195	597.86
66.9340	572.12
66.9484	575.80
66.9629	575.31
66.9773	546.95
66.9917	558.92
67.0062	567.87
67.0206	590.73
67.0351	581.04
67.0495	553.98
67.0639	552.82
67.0784	562.60
67.0928	603.77
67.1073	566.95
67.1217	547.58
67.1361	582.72
67.1506	594.67
67.1650	596.85
67.1795	592.44
67.1939	578.90
67.2083	591.62
67.2228	579.86
67.2372	582.57
67.2517	597.83
67.2661	595.07
67.2805	598.21
67.2950	597.03
67.3094	547.93
67.3239	574.09
67.3383	586.69
67.3527	574.91
67.3672	556.18
67.3816	559.96
67.3961	536.42
67.4105	546.65
67.4250	571.40
67.4394	558.68
67.4538	571.48
67.4683	602.79
67.4827	581.46
67.4972	596.68
67.5116	565.39
67.5260	536.55
67.5405	561.28
67.5549	572.06
67.5694	576.31
67.5838	605.36
67.5982	573.84
67.6127	563.78
67.6271	564.99
67.6416	571.56
67.6560	579.51
67.6704	587.42
67.6849	573.28
67.6993	560.02
67.7138	574.21
67.7282	559.49
67.7426	571.17
67.7571	567.10
67.7715	560.59
67.7860	599.74
67.8004	596.77
67.8148	584.43
67.8293	571.77
67.8437	568.10
67.8582	570.25
67.8726	596.00
67.8870	599.97
67.9015	626.47
67.9159	596.44
67.9304	616.10
67.9448	582.99
67.9592	518.71
67.9737	547.55
67.9881	594.43
68.0026	555.43
68.0170	576.47
68.0314	611.51
68.0459	575.98
68.0603	591.00
68.0748	615.82
68.0892	616.79
68.1036	537.64
68.1181	591.61
68.1325	593.81
68.1470	585.96
68.1614	575.98
68.1758	569.76
68.1903	593.26
68.2047	546.94
68.2192	607.61
68.2336	572.93
68.2480	595.10
68.2625	555.96
68.2769	533.48
68.2914	544.75
68.3058	538.93
68.3202	550.45
68.3347	563.80
68.3491	548.96
68.3636	589.37
68.3780	549.40
68.3924	603.93
68.4069	567.52
68.4213	566.55
68.4358	593.72
68.4502	576.79
68.4646	560.80
68.4791	581.58
68.4935	548.72
68.5080	544.32
68.5224	552.00
68.5368	618.73
68.5513	593.15
68.5657	566.94
68.5802	568.14
68.5946	566.01
68.6090	579.85
68.6235	599.88
68.6379	564.00
68.6524	557.82
68.6668	566.34
68.6812	534.85
68.6957	544.26
68.7101	588.28
68.7246	533.51
68.7390	554.74
68.7534	593.99
68.7679	574.96
68.7823	592.13
68.7968	572.28
68.8112	586.28
68.8256	554.21
68.8401	557.67
68.8545	568.62
68.8690	620.03
68.8834	576.47
68.8978	635.38
68.9123	584.66
68.9267	574.99
68.9412	617.16
68.9556	607.09
68.9700	568.34
68.9845	579.62
68.9989	611.85
69.0134	577.49
69.0278	609.17
69.0422	571.38
69.0567	603.15
69.0711	586.96
69.0856	590.00
69.1000	571.40
69.1144	598.23
69.1289	616.15
69.1433	527.55
69.1578	554.24
69.1722	570.91
69.1866	616.45
69.2011	547.79
69.2155	581.73
69.2300	532.31
69.2444	584.26
69.2588	568.75
69.2733	563.26
69.2877	586.36
69.3022	598.64
69.3166	558.35
69.3310	596.30
69.3455	568.11
69.3599	566.69
69.3744	572.82
69.3888	547.60
69.4032	561.21
69.4177	572.81
69.4321	593.78
69.4466	549.51
69.4610	602.89
69.4754	614.10
69.4899	592.76
69.5043	612.16
69.5188	543.50
69.5332	625.61
69.5476	597.99
69.5621	566.38
69.5765	583.56
69.5910	576.71
69.6054	584.24
69.6198	572.54
69.6343	608.86
69.6487	616.56
69.6632	612.65
69.6776	569.38
69.6920	589.89
69.7065	572.94
69.7209	551.33
69.7354	526.90
69.7498	581.74
69.7642	522.58
69.7787	572.73
69.7931	580.05
69.8076	572.80
69.8220	583.64
69.8364	592.55
69.8509	580.36
69.8653	587.48
69.8798	580.22
69.8942	607.41
69.9086	563.42
69.9231	587.59
69.9375	608.36
69.9520	593.33
69.9664	577.18
69.9808	598.42
69.9953	609.56
70.0097	626.18
70.0242	569.95
70.0386	563.35
70.0530	516.66
70.0675	525.14
70.0819	567.87
70.0964	522.15
70.1108	601.55
70.1252	599.32
70.1397	556.59
70.1541	533.32
70.1686	581.54
70.1830	596.11
70.1974	616.11
70.2119	602.85
70.2263	596.72
70.2408	596.00
70.2552	576.89
70.2696	550.29
70.2841	562.86
70.2985	626.83
70.3130	576.16
70.3274	515.90
70.3418	536.15
70.3563	555.83
70.3707	518.34
70.3852	535.01
70.3996	524.06
70.4140	527.02
70.4285	570.96
70.4429	590.51
70.4574	582.50
70.4718	568.21
70.4862	598.65
70.5007	623.45
70.5151	587.75
70.5296	560.63
70.5440	545.88
70.5584	595.72
70.5729	569.72
70.5873	551.01
70.6018	523.72
70.6162	564.13
70.6306	587.36
70.6451	568.50
70.6595	555.51
70.6740	570.24
70.6884	509.96
70.7028	578.06
70.7173	591.88
70.7317	562.12
70.7462	610.97
70.7606	566.81
70.7750	577.91
70.7895	560.58
70.8039	616.75
70.8184	583.23
70.8328	535.83
70.8472	511.51
70.8617	560.57
70.8761	586.43
70.8906	566.09
70.9050	513.82
70.9194	542.21
70.9339	568.10
70.9483	606.58
70.9628	616.41
70.9772	616.75
70.9916	591.30
71.0061	566.21
71.0205	582.31
71.0350	578.40
71.0494	567.54
71.0638	534.75
71.0783	585.25
71.0927	591.93
71.1072	568.42
71.1216	568.03
71.1361	590.03
71.1505	604.23
71.1649	573.04
71.1794	589.58
71.1938	618.35
71.2083	622.00
71.2227	582.19
71.2371	574.63
71.2516	574.07
71.2660	568.09
71.2805	556.47
71.2949	557.07
71.3093	574.49
71.3238	556.43
71.3382	584.70
71.3527	572.41
71.3671	570.42
71.3815	600.87
71.3960	556.81
71.4104	548.59
71.4249	616.22
71.4393	584.99
71.4537	557.24
71.4682	570.29
71.4826	546.16
71.4971	554.51
71.5115	608.33
71.5259	585.65
71.5404	545.69
71.5548	528.30
71.5693	585.45
71.5837	578.98
71.5981	560.97
71.6126	575.24
71.6270	610.43
71.6415	592.77
71.6559	583.67
71.6703	607.37
71.6848	580.26
71.6992	582.60
71.7137	601.81
71.7281	553.20
71.7425	550.80
71.7570	564.87
71.7714	623.56
71.7859	594.78
71.8003	550.96
71.8147	515.38
71.8292	512.92
71.8436	552.85
71.8581	567.80
71.8725	621.92
71.8869	628.78
71.9014	600.30
71.9158	570.84
71.9303	590.28
71.9447	620.15
71.9591	598.88
71.9736	562.61
71.9880	533.22
72.0025	543.87
72.0169	562.74
72.0313	553.04
72.0458	519.94
72.0602	563.46
72.0747	545.10
72.0891	520.50
72.1035	583.04
72.1180	604.74
72.1324	569.03
72.1469	536.34
72.1613	546.34
72.1757	572.84
72.1902	612.00
72.2046	603.34
72.2191	557.83
72.2335	531.94
72.2479	537.75
72.2624	550.99
72.2768	583.80
72.2913	561.21
72.3057	595.85
72.3201	621.38
72.3346	550.04
72.3490	513.18
72.3635	556.43
72.3779	608.57
72.3923	605.91
72.4068	561.71
72.4212	552.90
72.4357	594.44
72.4501	632.55
72.4645	674.49
72.4790	626.85
72.4934	605.75
72.5079	600.87
72.5223	652.40
72.5367	626.05
72.5512	534.45
72.5656	526.05
72.5801	568.27
72.5945	549.39
72.6089	537.53
72.6234	526.04
72.6378	498.69
72.6523	568.26
72.6667	570.42
72.6811	528.56
72.6956	519.36
72.7100	559.82
72.7245	526.75
72.7389	544.36
72.7533	549.38
72.7678	542.23
72.7822	588.93
72.7967	582.98
72.8111	590.42
72.8255	614.07
72.8400	573.37
72.8544	571.32
72.8689	637.30
72.8833	566.55

Result vector
22.1120	503.87
22.1264	617.22
22.1409	601.74
22.1553	524.77
22.1697	595.40
22.1842	582.42
22.1986	535.59
22.2131	581.61
22.2275	604.61
22.2419	605.80
22.2564	671.68
22.2708	591.91
22.2853	541.04
22.2997	633.40
22.3141	634.82
22.3286	524.81
22.3430	496.58
22.3575	579.31
22.3719	598.15
22.3863	613.72
22.4008	503.05
22.4152	579.34
22.4297	658.30
22.4441	660.97
22.4585	528.31
22.4730	576.21
22.4874	605.43
22.5019	563.15
22.5163	626.39
22.5307	651.51
22.5452	601.48
22.5596	604.03
22.5741	542.11
22.5885	540.27
22.6029	544.54
22.6174	587.22
22.6318	545.12
22.6463	598.52
22.6607	696.57
22.6751	598.82
22.6896	499.26
22.7040	619.38
22.7185	605.55
22.7329	632.80
22.7473	602.36
22.7618	499.88
22.7762	593.67
22.7907	582.32
22.8051	592.47
22.8195	590.55
22.8340	530.45
22.8484	533.60
22.8629	569.23
22.8773	555.10
22.8917	626.89
22.9062	619.65
22.9206	513.21
22.9351	559.34
22.9495	523.39
22.9639	501.83
22.9784	490.24
22.9928	495.99
23.0073	504.54
23.0217	549.70
23.0361	645.68
23.0506	627.06
23.0650	594.43
23.0795	535.35
23.0939	520.84
23.1083	574.15
23.1228	557.25
23.1372	503.15
23.1517	577.84
23.1661	586.01
23.1806	557.71
23.1950	534.84
23.2094	587.13
23.2239	516.32
23.2383	607.94
23.2528	499.30
23.2672	520.51
23.2816	638.51
23.2961	539.15
23.3105	589.74
23.3250	593.43
23.3394	549.06
23.3538	521.88
23.3683	583.57
23.3827	558.73
23.3972	515.91
23.4116	518.09
23.4260	552.99
23.4405	574.38
23.4549	523.84
23.4694	529.04
23.4838	542.83
23.4982	573.74
23.5127	544.45
23.5271	594.09
23.5416	555.87
23.5560	521.78
23.5704	547.84
23.5849	551.12
23.5993	521.34
23.6138	501.68
23.6282	459.59
23.6426	511.99
23.6571	525.07
23.6715	542.40
23.6860	557.33
23.7004	580.73
23.7148	511.46
23.7293	501.65
23.7437	471.51
23.7582	545.62
23.7726	567.64
23.7870	598.16
23.8015	507.69
23.8159	572.60
23.8304	498.94
23.8448	568.33
23.8592	631.57
23.8737	633.31
23.8881	535.94
23.9026	528.00
23.9170	568.16
23.9314	544.54
23.9459	549.24
23.9603	481.40
23.9748	558.13
23.9892	559.95
24.0036	543.85
24.0181	588.44
24.0325	572.23
24.0470	617.01
24.0614	570.63
24.0758	545.41
24.0903	582.17
24.1047	581.65
24.1192	541.05
24.1336	546.37
24.1480	504.25
24.1625	547.66
24.1769	572.66
24.1914	524.92
24.2058	498.37
24.2202	535.53
24.2347	580.55
24.2491	586.60
24.2636	571.03
24.2780	558.81
24.2924	587.21
24.3069	599.47
24.3213	580.92
24.3358	576.03
24.3502	586.65
24.3646	514.00
24.3791	507.92
24.3935	560.25
24.4080	580.13
24.4224	522.15
24.4368	564.28
24.4513	548.73
24.4657	558.93
24.4802	544.87
24.4946	577.36
24.5090	547.41
24.5235	581.83
24.5379	546.07
24.5524	547.75
24.5668	520.85
24.5812	523.43
24.5957	575.72
24.6101	522.76
24.6246	510.81
24.6390	542.58
24.6534	558.55
24.6679	542.37
24.6823	493.84
24.6968	537.73
24.7112	561.06
24.7256	558.71
24.7401	574.48
24.7545	511.91
24.7690	552.48
24.7834	476.50
24.7978	532.49
24.8123	563.40
24.8267	506.41
24.8412	533.79
24.8556	536.97
24.8700	534.15
24.8845	519.22
24.8989	541.29
24.9134	584.88
24.9278	497.29
24.9422	506.61
24.9567	559.66
24.9711	505.61
24.9856	559.32
25.0000	529.58
25.0144	565.35
25.0289	479.66
25.0433	528.52
25.0578	511.35
25.0722	547.96
25.0866	534.84
25.1011	517.81
25.1155	513.37
25.1300	529.39
25.1444	537.48
25.1588	513.78
25.1733	549.38
25.1877	532.60
25.2022	552.97
25.2166	515.97
25.2310	566.93
25.2455	551.49
25.2599	524.75
25.2744	502.71
25.2888	511.40
25.3032	495.11
25.3177	562.50
25.3321	555.92
25.3466	528.00
25.3610	499.77
25.3754	518.74
25.3899	535.09
25.4043	533.52
25.4188	543.10
25.4332	551.67
25.4476	511.10
25.4621	520.32
25.4765	513.52
25.4910	549.79
25.5054	555.30
25.5198	523.19
25.5343	536.65
25.5487	515.32
25.5632	516.64
25.5776	505.84
25.5920	579.19
25.6065	566.43
25.6209	519.28
25.6354	529.14
25.6498	565.96
25.6642	540.73
25.6787	549.08
25.6931	511.07
25.7076	562.20
25.7220	540.03
25.7364	518.43
25.7509	576.97
25.7653	560.35
25.7798	564.28
25.7942	552.19
25.8086	544.32
25.8231	531.44
25.8375	560.04
25.8520	566.53
25.8664	538.28
25.8808	549.75
25.8953	549.80
25.9097	558.19
25.9242	557.38
25.9386	546.19
25.9530	514.27
25.9675	500.01
25.9819	517.50
25.9964	574.30
26.0108	570.59
26.0252	538.81
26.0397	528.44
26.0541	555.93
26.0686	581.00
26.0830	559.52
26.0974	543.44
26.1119	513.91
26.1263	542.15
26.1408	544.87
26.1552	518.07
26.1696	537.92
26.1841	548.43
26.1985	518.29
26.2130	504.33
26.2274	502.82
26.2418	515.00
26.2563	531.90
26.2707	512.46
26.2852	519.26
26.2996	518.14
26.3140	522.74
26.3285	509.95
26.3429	528.52
26.3574	520.22
26.3718	515.60
26.3862	502.02
26.4007	496.31
26.4151	482.06
26.4296	522.12
26.4440	541.60
26.4584	495.85
26.4729	534.82
26.4873	515.85
26.5018	524.08
26.5162	535.09
26.5306	553.50
26.5451	550.98
26.5595	537.10
26.5740	556.61
26.5884	538.95
26.6028	542.05
26.6173	535.66
26.6317	538.59
26.6462	574.53
26.6606	562.64
26.6750	539.70
26.6895	517.50
26.7039	516.35
26.7184	527.91
26.7328	519.92
26.7472	538.50
26.7617	553.96
26.7761	525.61
26.7906	500.35
26.8050	518.54
26.8194	504.31
26.8339	494.74
26.8483	521.02
26.8628	513.89
26.8772	489.32
26.8917	512.93
26.9061	523.47
26.9205	525.69
26.9350	571.40
26.9494	537.80
26.9639	509.65
26.9783	516.78
26.9927	516.55
27.0072	549.65
27.0216	541.95
27.0361	502.06
27.0505	503.04
27.0649	504.37
27.0794	531.26
27.0938	513.95
27.1083	494.83
27.1227	532.13
27.1371	514.69
27.1516	506.85
27.1660	513.76
27.1805	499.07
27.1949	499.46
27.2093	530.27
27.2238	506.74
27.2382	521.60
27.2527	537.21
27.2671	511.85
27.2815	551.60
27.2960	529.31
27.3104	547.85
27.3249	543.55
27.3393	554.78
27.3537	562.84
27.3682	528.42
27.3826	508.37
27.3971	504.81
27.4115	488.11
27.4259	521.30
27.4404	528.54
27.4548	519.51
27.4693	525.41
27.4837	528.88
27.4981	523.25
27.5126	496.95
27.5270	499.17
27.5415	541.68
27.5559	540.97
27.5703	529.18
27.5848	484.25
27.5992	518.58
27.6137	509.02
27.6281	503.52
27.6425	520.09
27.6570	540.15
27.6714	500.97
27.6859	481.69
27.7003	523.86
27.7147	528.37
27.7292	510.07
27.7436	522.90
27.7581	541.79
27.7725	506.70
27.7869	523.69
27.8014	501.06
27.8158	489.39
27.8303	516.80
27.8447	527.74
27.8591	528.63
27.8736	540.88
27.8880	498.32
27.9025	474.51
27.9169	488.92
27.9313	524.02
27.9458	503.96
27.9602	508.21
27.9747	539.77
27.9891	505.02
28.0035	525.97
28.0180	544.02
28.0324	520.34
28.0469	472.62
28.0613	497.68
28.0757	510.14
28.0902	527.39
28.1046	520.65
28.1191	505.68
28.1335	523.94
28.1479	524.36
28.1624	501.63
28.1768	506.18
28.1913	526.62
28.2057	502.03
28.2201	500.43
28.2346	489.98
28.2490	499.83
28.2635	525.19
28.2779	493.43
28.2923	508.18
28.3068	492.22
28.3212	505.56
28.3357	528.37
28.3501	532.97
28.3645	547.68
28.3790	501.36
28.3934	475.36
28.4079	514.76
28.4223	577.99
28.4367	524.98
28.4512	527.20
28.4656	532.02
28.4801	512.64
28.4945	527.18
28.5089	509.14
28.5234	527.11
28.5378	536.95
28.5523	491.45
28.5667	490.34
28.5811	507.95
28.5956	509.21
28.6100	505.56
28.6245	483.84
28.6389	519.83
28.6533	502.97
28.6678	502.37
28.6822	486.25
28.6967	490.46
28.7111	529.11
28.7255	494.14
28.7400	545.91
28.7544	546.98
28.7689	511.06
28.7833	478.28
28.7977	527.09
28.8122	553.11
28.8266	559.45
28.8411	490.07
28.8555	505.07
28.8699	486.40
28.8844	484.31
28.8988	500.77
28.9133	522.99
28.9277	513.39
28.9421	518.32
28.9566	498.74
28.9710	488.58
28.9855	522.95
28.9999	500.58
29.0143	527.85
29.0288	515.01
29.0432	484.72
29.0577	537.63
29.0721	521.03
29.0865	566.15
29.1010	493.75
29.1154	521.30
29.1299	524.88
29.1443	465.28
29.1587	507.19
29.1732	555.96
29.1876	544.39
29.2021	518.90
29.2165	517.24
29.2309	533.79
29.2454	564.63
29.2598	511.29
29.2743	549.28
29.2887	582.36
29.3031	539.41
29.3176	499.08
29.3320	524.45
29.3465	533.13
29.3609	506.72
29.3753	506.54
29.3898	512.10
29.4042	525.77
29.4187	508.37
29.4331	512.98
29.4475	514.16
29.4620	499.09
29.4764	503.37
29.4909	523.09
29.5053	480.90
29.5197	490.30
29.5342	477.26
29.5486	504.24
29.5631	498.19
29.5775	511.46
29.5919	530.50
29.6064	486.53
29.6208	483.55
29.6353	553.61
29.6497	510.20
29.6641	503.77
29.6786	501.56
29.6930	490.93
29.7075	514.45
29.7219	513.40
29.7363	480.47
29.7508	513.25
29.7652	485.75
29.7797	486.61
29.7941	484.79
29.8085	513.14
29.8230	519.14
29.8374	509.11
29.8519	472.77
29.8663	486.32
29.8807	463.91
29.8952	474.13
29.9096	519.81
29.9241	504.99
29.9385	495.73
29.9529	502.77
29.9674	519.65
29.9818	502.80
29.9963	521.30
30.0107	466.15
30.0251	551.82
30.0396	535.91
30.0540	507.23
30.0685	507.59
30.0829	534.36
30.0973	529.27
30.1118	515.21
30.1262	539.27
30.1407	503.34
30.1551	503.18
30.1695	515.35
30.1840	504.76
30.1984	520.18
30.2129	507.63
30.2273	509.47
30.2417	529.17
30.2562	517.31
30.2706	520.02
30.2851	511.06
30.2995	489.04
30.3139	528.77
30.3284	474.91
30.3428	503.40
30.3573	495.25
30.3717	491.49
30.3861	510.72
30.4006	508.33
30.4150	488.33
30.4295	538.03
30.4439	524.37
30.4583	538.88
30.4728	550.58
30.4872	538.90
30.5017	531.50
30.5161	505.52
30.5305	525.52
30.5450	520.92
30.5594	567.72
30.5739	549.62
30.5883	553.83
30.6028	620.02
30.6172	623.61
30.6316	625.75
30.6461	662.38
30.6605	659.64
30.6750	666.06
30.6894	685.39
30.7038	676.10
30.7183	704.33
30.7327	690.46
30.7472	684.76
30.7616	634.64
30.7760	644.29
30.7905	612.68
30.8049	631.17
30.8194	611.02
30.8338	593.19
30.8482	565.67
30.8627	574.46
30.8771	561.99
30.8916	514.62
30.9060	532.23
30.9204	537.86
30.9349	519.26
30.9493	517.52
30.9638	495.41
30.9782	518.49
30.9926	503.72
31.0071	494.08
31.0215	516.05
31.0360	511.71
31.0504	504.28
31.0648	543.12
31.0793	486.15
31.0937	502.88
31.1082	532.14
31.1226	539.98
31.1370	526.89
31.1515	523.88
31.1659	534.95
31.1804	505.76
31.1948	503.45
31.2092	536.02
31.2237	544.36
31.2381	505.91
31.2526	498.67
31.2670	553.08
31.2814	517.96
31.2959	540.94
31.3103	545.10
31.3248	531.65
31.3392	517.36
31.3536	527.75
31.3681	511.67
31.3825	491.35
31.3970	496.17
31.4114	469.52
31.4258	499.99
31.4403	533.34
31.4547	507.60
31.4692	498.86
31.4836	510.40
31.4980	494.42
31.5125	507.32
31.5269	507.59
31.5414	528.19
31.5558	479.81
31.5702	496.67
31.5847	497.16
31.5991	486.77
31.6136	510.07
31.6280	493.43
31.6424	512.19
31.6569	528.43
31.6713	521.28
31.6858	514.58
31.7002	540.79
31.7146	563.14
31.7291	525.00
31.7435	521.72
31.7580	510.47
31.7724	489.86
31.7868	494.24
31.8013	513.34
31.8157	500.61
31.8302	499.16
31.8446	500.43
31.8590	522.11
31.8735	539.32
31.8879	498.86
31.9024	515.51
31.9168	485.45
31.9312	499.52
31.9457	528.84
31.9601	500.83
31.9746	502.74
31.9890	520.58
32.0034	513.48
32.0179	498.70
32.0323	483.54
32.0468	491.06
32.0612	540.26
32.0756	543.27
32.0901	532.70
32.1045	513.32
32.1190	527.50
32.1334	513.05
32.1478	507.19
32.1623	505.51
32.1767	492.16
32.1912	486.74
32.2056	488.49
32.2200	482.81
32.2345	513.66
32.2489	491.46
32.2634	489.22
32.2778	541.54
32.2922	505.53
32.3067	517.94
32.3211	544.41
32.3356	523.08
32.3500	525.86
32.3644	508.61
32.3789	492.25
32.3933	497.24
32.4078	482.85
32.4222	516.57
32.4366	495.39
32.4511	492.97
32.4655	493.77
32.4800	493.53
32.4944	501.19
32.5088	522.36
32.5233	490.16
32.5377	491.14
32.5522	523.96
32.5666	484.56
32.5810	499.85
32.5955	517.78
32.6099	481.49
32.6244	496.93
32.6388	527.89
32.6532	482.65
32.6677	479.39
32.6821	481.10
32.6966	503.71
32.7110	497.97
32.7254	515.37
32.7399	495.17
32.7543	492.99
32.7688	485.10
32.7832	522.61
32.7976	499.09
32.8121	487.82
32.8265	430.31
32.8410	466.52
32.8554	512.53
32.8698	493.87
32.8843	485.58
32.8987	479.84
32.9132	481.87
32.9276	470.40
32.9420	507.11
32.9565	484.36
32.9709	494.52
32.9854	492.36
32.9998	501.90
33.0142	496.12
33.0287	485.42
33.0431	509.25
33.0576	528.89
33.0720	513.42
33.0864	521.88
33.1009	499.47
33.1153	533.63
33.1298	532.41
33.1442	512.07
33.1586	509.20
33.1731	502.89
33.1875	469.99
33.2020	493.32
33.2164	509.99
33.2308	483.28
33.2453	499.81
33.2597	504.40
33.2742	481.17
33.2886	502.18
33.3030	506.38
33.3175	489.81
33.3319	481.42
33.3464	478.89
33.3608	456.55
33.3752	502.24
33.3897	482.74
33.4041	488.98
33.4186	508.52
33.4330	488.40
33.4474	489.86
33.4619	525.00
33.4763	535.40
33.4908	510.10
33.5052	506.38
33.5196	507.97
33.5341	529.10
33.5485	504.55
33.5630	506.54
33.5774	500.79
33.5918	495.30
33.6063	484.71
33.6207	483.28
33.6352	523.87
33.6496	502.17
33.6640	508.29
33.6785	498.90
33.6929	506.71
33.7074	489.14
33.7218	532.83
33.7362	488.00
33.7507	482.53
33.7651	493.41
33.7796	533.58
33.7940	497.87
33.8084	507.47
33.8229	513.59
33.8373	503.15
33.8518	508.92
33.8662	519.39
33.8806	544.30
33.8951	521.06
33.9095	507.83
33.9240	496.17
33.9384	472.47
33.9528	492.22
33.9673	476.81
33.9817	491.36
33.9962	498.41
34.0106	476.56
34.0250	475.26
34.0395	487.21
34.0539	490.24
34.0684	501.05
34.0828	487.74
34.0972	503.94
34.1117	498.68
34.1261	534.37
34.1406	506.16
34.1550	500.20
34.1694	511.76
34.1839	519.91
34.1983	479.40
34.2128	486.66
34.2272	476.96
34.2417	522.96
34.2561	508.60
34.2705	513.14
34.2850	512.38
34.2994	514.90
34.3139	518.81
34.3283	502.60
34.3427	519.27
34.3572	537.72
34.3716	489.99
34.3861	490.37
34.4005	505.14
34.4149	489.31
34.4294	536.32
34.4438	523.37
34.4583	509.32
34.4727	539.24
34.4871	519.37
34.5016	507.80
34.5160	478.22
34.5305	477.03
34.5449	491.99
34.5593	486.08
34.5738	493.42
34.5882	507.08
34.6027	513.03
34.6171	506.23
34.6315	505.13
34.6460	531.15
34.6604	529.12
34.6749	498.50
34.6893	488.02
34.7037	503.08
34.7182	494.40
34.7326	508.48
34.7471	523.64
34.7615	496.90
34.7759	496.71
34.7904	489.15
34.8048	478.98
34.8193	503.41
34.8337	522.37
34.8481	500.65
34.8626	507.30
34.8770	505.77
34.8915	492.51
34.9059	496.27
34.9203	495.85
34.9348	518.60
34.9492	501.51
34.9637	487.17
34.9781	519.95
34.9925	520.88
35.0070	493.85
35.0214	512.48
35.0359	511.88
35.0503	505.31
35.0647	511.81
35.0792	491.79
35.0936	508.99
35.1081	495.53
35.1225	509.47
35.1369	518.33
35.1514	493.43
35.1658	506.41
35.1803	497.77
35.1947	472.90
35.2091	500.20
35.2236	522.77
35.2380	512.80
35.2525	491.37
35.2669	500.40
35.2813	540.96
35.2958	522.30
35.3102	534.27
35.3247	497.16
35.3391	527.24
35.3535	525.54
35.3680	499.03
35.3824	506.02
35.3969	519.31
35.4113	493.93
35.4257	541.03
35.4402	508.69
35.4546	523.79
35.4691	517.31
35.4835	549.86
35.4979	540.81
35.5124	563.10
35.5268	550.41
35.5413	523.30
35.5557	494.84
35.5701	513.75
35.5846	538.07
35.5990	534.45
35.6135	558.42
35.6279	524.98
35.6423	534.66
35.6568	565.66
35.6712	556.49
35.6857	590.38
35.7001	706.62
35.7145	748.20
35.7290	672.02
35.7434	673.01
35.7579	633.00
35.7723	630.76
35.7867	670.11
35.8012	706.56
35.8156	700.99
35.8301	668.06
35.8445	652.00
35.8589	678.19
35.8734	747.47
35.8878	862.38
35.9023	959.20
35.9167	1002.77
35.9311	1108.96
35.9456	1671.32
35.9600	2153.02
35.9745	1967.81
35.9889	1995.06
36.0033	2403.66
36.0178	3163.20
36.0322	3190.43
36.0467	2297.25
36.0611	1909.41
36.0755	1941.45
36.0900	1975.98
36.1044	1716.64
36.1189	1668.22
36.1333	1608.78
36.1477	1398.82
36.1622	1336.09
36.1766	1352.90
36.1911	1189.18
36.2055	1172.77
36.2199	1065.01
36.2344	948.49
36.2488	855.87
36.2633	771.02
36.2777	734.16
36.2921	701.88
36.3066	688.81
36.3210	651.47
36.3355	612.95
36.3499	612.91
36.3643	569.16
36.3788	585.94
36.3932	578.27
36.4077	579.80
36.4221	571.35
36.4365	599.19
36.4510	559.15
36.4654	548.44
36.4799	539.17
36.4943	543.50
36.5087	529.00
36.5232	529.15
36.5376	522.92
36.5521	511.63
36.5665	531.14
36.5809	547.50
36.5954	538.87
36.6098	531.18
36.6243	513.22
36.6387	539.47
36.6531	521.99
36.6676	520.31
36.6820	530.76
36.6965	516.60
36.7109	533.85
36.7253	490.62
36.7398	505.77
36.7542	559.10
36.7687	546.51
36.7831	544.92
36.7975	533.59
36.8120	561.85
36.8264	534.28
36.8409	546.42
36.8553	586.62
36.8697	604.61
36.8842	570.00
36.8986	582.96
36.9131	618.43
36.9275	582.88
36.9419	581.16
36.9564	558.64
36.9708	577.53
36.9853	545.68
36.9997	586.44
37.0141	535.97
37.0286	565.12
37.0430	516.89
37.0575	532.49
37.0719	549.00
37.0863	504.03
37.1008	484.96
37.1152	497.19
37.1297	542.80
37.1441	495.02
37.1585	472.60
37.1730	505.05
37.1874	513.52
37.2019	457.30
37.2163	485.43
37.2307	515.47
37.2452	502.14
37.2596	507.42
37.2741	493.67
37.2885	535.61
37.3029	508.40
37.3174	512.24
37.3318	548.42
37.3463	537.15
37.3607	526.41
37.3751	502.34
37.3896	500.78
37.4040	501.79
37.4185	505.00
37.4329	516.41
37.4473	527.16
37.4618	546.80
37.4762	548.71
37.4907	509.38
37.5051	503.57
37.5195	486.53
37.5340	508.65
37.5484	498.56
37.5629	523.34
37.5773	481.23
37.5917	476.57
37.6062	488.70
37.6206	490.88
37.6351	494.23
37.6495	493.07
37.6639	508.11
37.6784	469.69
37.6928	496.13
37.7073	507.20
37.7217	507.48
37.7361	546.84
37.7506	516.92
37.7650	475.50
37.7795	493.38
37.7939	491.99
37.8083	519.16
37.8228	535.52
37.8372	504.32
37.8517	487.49
37.8661	508.00
37.8805	525.97
37.8950	546.32
37.9094	506.40
37.9239	502.88
37.9383	514.83
37.9528	501.47
37.9672	515.60
37.9816	508.50
37.9961	492.83
38.0105	497.19
38.0250	533.17
38.0394	497.75
38.0538	534.35
38.0683	547.79
38.0827	528.21
38.0972	537.61
38.1116	521.69
38.1260	501.64
38.1405	493.44
38.1549	487.31
38.1694	489.40
38.1838	467.63
38.1982	496.29
38.2127	481.48
38.2271	489.48
38.2416	509.74
38.2560	521.47
38.2704	513.78
38.2849	526.00
38.2993	502.60
38.3138	498.61
38.3282	503.20
38.3426	512.39
38.3571	519.41
38.3715	529.59
38.3860	496.99
38.4004	562.82
38.4148	570.62
38.4293	586.50
38.4437	558.92
38.4582	619.73
38.4726	640.32
38.4870	671.14
38.5015	712.38
38.5159	732.54
38.5304	797.63
38.5448	811.59
38.5592	821.71
38.5737	767.61
38.5881	737.57
38.6026	725.12
38.6170	703.70
38.6314	681.53
38.6459	646.09
38.6603	629.80
38.6748	622.27
38.6892	578.68
38.7036	595.69
38.7181	567.16
38.7325	541.05
38.7470	542.12
38.7614	495.59
38.7758	504.16
38.7903	504.30
38.8047	499.43
38.8192	530.99
38.8336	524.41
38.8480	493.75
38.8625	487.76
38.8769	505.66
38.8914	493.06
38.9058	474.35
38.9202	481.65
38.9347	481.40
38.9491	508.86
38.9636	493.12
38.9780	515.96
38.9924	525.29
39.0069	499.72
39.0213	512.10
39.0358	486.79
39.0502	474.42
39.0646	478.79
39.0791	522.64
39.0935	522.25
39.1080	477.86
39.1224	515.05
39.1368	517.98
39.1513	467.23
39.1657	518.50
39.1802	529.11
39.1946	516.04
39.2090	513.31
39.2235	529.54
39.2379	537.98
39.2524	536.50
39.2668	491.49
39.2812	510.65
39.2957	498.46
39.3101	483.18
39.3246	508.97
39.3390	488.32
39.3534	486.89
39.3679	513.53
39.3823	514.87
39.3968	483.37
39.4112	486.73
39.4256	512.76
39.4401	506.27
39.4545	507.81
39.4690	506.75
39.4834	483.11
39.4978	457.80
39.5123	474.85
39.5267	518.98
39.5412	499.43
39.5556	518.30
39.5700	500.22
39.5845	502.57
39.5989	503.08
39.6134	467.61
39.6278	501.23
39.6422	513.65
39.6567	490.76
39.6711	507.15
39.6856	498.96
39.7000	475.25
39.7144	483.34
39.7289	515.62
39.7433	485.46
39.7578	509.93
39.7722	509.35
39.7866	526.15
39.8011	490.98
39.8155	528.07
39.8300	523.68
39.8444	476.98
39.8588	491.60
39.8733	511.23
39.8877	489.91
39.9022	521.27
39.9166	476.72
39.9310	470.01
39.9455	490.85
39.9599	513.00
39.9744	486.88
39.9888	456.10
40.0032	509.30
40.0177	492.51
40.0321	503.56
40.0466	504.06
40.0610	483.08
40.0754	488.72
40.0899	534.94
40.1043	475.91
40.1188	507.37
40.1332	517.18
40.1476	515.18
40.1621	519.16
40.1765	506.03
40.1910	477.84
40.2054	485.40
40.2198	482.95
40.2343	477.95
40.2487	527.16
40.2632	532.83
40.2776	535.10
40.2920	497.60
40.3065	504.83
40.3209	499.54
40.3354	500.67
40.3498	483.96
40.3642	509.45
40.3787	490.94
40.3931	483.67
40.4076	509.86
40.4220	476.39
40.4364	494.11
40.4509	497.94
40.4653	504.61
40.4798	480.94
40.4942	496.00
40.5086	498.14
40.5231	510.96
40.5375	510.30
40.5520	481.76
40.5664	517.02
40.5808	508.64
40.5953	492.42
40.6097	487.03
40.6242	473.35
40.6386	483.41
40.6530	486.78
40.6675	489.42
40.6819	506.91
40.6964	499.29
40.7108	498.44
40.7252	509.83
40.7397	503.64
40.7541	516.84
40.7686	492.34
40.7830	501.01
40.7974	491.44
40.8119	527.42
40.8263	482.45
40.8408	503.85
40.8552	492.16
40.8696	536.85
40.8841	518.98
40.8985	538.79
40.9130	511.10
40.9274	499.00
40.9418	501.21
40.9563	489.06
40.9707	493.53
40.9852	455.64
40.9996	443.28
41.0140	504.08
41.0285	495.07
41.0429	490.97
41.0574	501.66
41.0718	518.23
41.0862	483.15
41.1007	514.20
41.1151	516.15
41.1296	512.89
41.1440	529.92
41.1584	483.47
41.1729	508.69
41.1873	531.39
41.2018	515.29
41.2162	486.69
41.2306	502.54
41.2451	492.70
41.2595	479.32
41.2740	476.11
41.2884	508.61
41.3028	496.69
41.3173	531.79
41.3317	496.03
41.3462	476.48
41.3606	486.50
41.3750	501.13
41.3895	512.35
41.4039	517.09
41.4184	491.99
41.4328	517.82
41.4472	487.56
41.4617	499.37
41.4761	477.94
41.4906	503.89
41.5050	496.44
41.5194	492.28
41.5339	487.06
41.5483	496.41
41.5628	471.63
41.5772	477.61
41.5916	490.97
41.6061	468.92
41.6205	478.31
41.6350	510.36
41.6494	482.31
41.6639	483.91
41.6783	481.89
41.6927	511.83
41.7072	531.80
41.7216	521.96
41.7361	508.66
41.7505	506.52
41.7649	475.53
41.7794	487.30
41.7938	532.90
41.8083	528.21
41.8227	494.41
41.8371	533.04
41.8516	522.31
41.8660	567.93
41.8805	531.27
41.8949	538.34
41.9093	559.67
41.9238	518.73
41.9382	571.86
41.9527	535.07
41.9671	512.14
41.9815	534.44
41.9960	544.41
42.0104	528.58
42.0249	576.42
42.0393	536.88
42.0537	582.92
42.0682	567.47
42.0826	560.56
42.0971	553.46
42.1115	575.65
42.1259	622.35
42.1404	588.32
42.1548	595.35
42.1693	660.32
42.1837	690.36
42.1981	757.10
42.2126	823.80
42.2270	927.87
42.2415	1063.23
42.2559	1184.67
42.2703	1367.68
42.2848	1545.21
42.2992	1665.90
42.3137	1657.13
42.3281	1681.80
42.3425	1626.08
42.3570	1524.85
42.3714	1466.54
42.3859	1363.65
42.4003	1338.19
42.4147	1353.05
42.4292	1360.59
42.4436	1176.66
42.4581	1079.36
42.4725	968.74
42.4869	879.33
42.5014	818.39
42.5158	699.62
42.5303	655.96
42.5447	628.82
42.5591	599.47
42.5736	569.87
42.5880	548.98
42.6025	559.65
42.6169	560.45
42.6313	548.71
42.6458	556.33
42.6602	551.93
42.6747	548.13
42.6891	532.42
42.7035	550.07
42.7180	537.36
42.7324	505.98
42.7469	528.26
42.7613	511.28
42.7757	526.17
42.7902	518.52
42.8046	501.36
42.8191	516.33
42.8335	538.24
42.8479	529.13
42.8624	528.16
42.8768	511.22
42.8913	488.44
42.9057	503.43
42.9201	495.22
42.9346	494.21
42.9490	525.89
42.9635	499.52
42.9779	508.25
42.9923	510.23
43.0068	511.64
43.0212	485.86
43.0357	482.33
43.0501	475.92
43.0645	507.57
43.0790	550.73
43.0934	539.15
43.1079	545.39
43.1223	519.65
43.1367	507.45
43.1512	495.85
43.1656	505.37
43.1801	483.31
43.1945	501.60
43.2089	524.30
43.2234	530.54
43.2378	551.88
43.2523	531.87
43.2667	510.20
43.2811	507.96
43.2956	510.50
43.3100	539.65
43.3245	514.65
43.3389	526.35
43.3533	506.52
43.3678	487.47
43.3822	485.97
43.3967	504.82
43.4111	500.46
43.4255	524.58
43.4400	549.81
43.4544	526.96
43.4689	529.20
43.4833	520.03
43.4977	540.52
43.5122	508.86
43.5266	538.24
43.5411	527.19
43.5555	475.82
43.5699	488.86
43.5844	522.50
43.5988	520.90
43.6133	538.16
43.6277	511.11
43.6421	517.90
43.6566	519.50
43.6710	497.93
43.6855	540.93
43.6999	553.18
43.7143	551.17
43.7288	543.67
43.7432	514.39
43.7577	549.24
43.7721	551.10
43.7865	544.59
43.8010	553.87
43.8154	577.24
43.8299	584.83
43.8443	570.34
43.8587	580.96
43.8732	618.29
43.8876	604.77
43.9021	668.47
43.9165	678.49
43.9309	641.06
43.9454	638.14
43.9598	650.58
43.9743	610.66
43.9887	613.41
44.0031	579.02
44.0176	544.29
44.0320	574.88
44.0465	600.12
44.0609	593.78
44.0753	572.38
44.0898	599.46
44.1042	612.24
44.1187	577.93
44.1331	536.71
44.1475	506.58
44.1620	519.70
44.1764	491.50
44.1909	525.03
44.2053	534.89
44.2197	523.47
44.2342	535.21
44.2486	531.67
44.2631	540.71
44.2775	545.70
44.2919	537.87
44.3064	551.16
44.3208	500.48
44.3353	524.45
44.3497	530.31
44.3641	532.29
44.3786	531.27
44.3930	519.22
44.4075	584.28
44.4219	580.66
44.4363	505.40
44.4508	536.72
44.4652	573.48
44.4797	597.27
44.4941	591.79
44.5085	581.78
44.5230	589.55
44.5374	593.41
44.5519	561.53
44.5663	543.97
44.5807	547.82
44.5952	545.30
44.6096	578.69
44.6241	593.72
44.6385	573.30
44.6529	584.36
44.6674	623.30
44.6818	591.03
44.6963	610.75
44.7107	634.84
44.7251	639.97
44.7396	704.67
44.7540	791.77
44.7685	863.41
44.7829	889.03
44.7973	866.26
44.8118	866.77
44.8262	810.55
44.8407	750.77
44.8551	727.38
44.8695	781.26
44.8840	752.08
44.8984	728.85
44.9129	761.83
44.9273	667.05
44.9417	683.67
44.9562	621.97
44.9706	633.81
44.9851	578.95
44.9995	540.69
45.0139	574.62
45.0284	552.29
45.0428	515.11
45.0573	537.60
45.0717	512.31
45.0861	524.52
45.1006	515.51
45.1150	483.59
45.1295	476.71
45.1439	508.43
45.1583	517.44
45.1728	535.44
45.1872	512.94
45.2017	507.76
45.2161	507.49
45.2305	506.20
45.2450	533.36
45.2594	535.80
45.2739	476.89
45.2883	482.80
45.3028	487.62
45.3172	489.06
45.3316	515.02
45.3461	521.53
45.3605	485.82
45.3750	498.11
45.3894	516.83
45.4038	501.81
45.4183	496.73
45.4327	514.17
45.4472	501.51
45.4616	511.80
45.4760	519.70
45.4905	521.18
45.5049	488.61
45.5194	545.48
45.5338	536.47
45.5482	481.20
45.5627	498.50
45.5771	490.37
45.5916	506.68
45.6060	520.22
45.6204	503.97
45.6349	516.89
45.6493	521.80
45.6638	470.39
45.6782	479.29
45.6926	486.97
45.7071	494.23
45.7215	489.69
45.7360	486.52
45.7504	480.27
45.7648	468.86
45.7793	509.14
45.7937	513.37
45.8082	495.55
45.8226	492.01
45.8370	526.59
45.8515	481.98
45.8659	518.95
45.8804	505.28
45.8948	490.48
45.9092	536.62
45.9237	518.65
45.9381	527.08
45.9526	510.81
45.9670	501.02
45.9814	506.53
45.9959	489.51
46.0103	480.21
46.0248	510.37
46.0392	495.26
46.0536	511.20
46.0681	501.13
46.0825	476.28
46.0970	518.56
46.1114	506.30
46.1258	520.61
46.1403	502.62
46.1547	483.29
46.1692	477.33
46.1836	497.49
46.1980	457.33
46.2125	465.91
46.2269	494.83
46.2414	506.47
46.2558	538.55
46.2702	508.18
46.2847	500.88
46.2991	459.80
46.3136	502.51
46.3280	514.86
46.3424	519.11
46.3569	503.13
46.3713	505.48
46.3858	519.35
46.4002	475.44
46.4146	461.75
46.4291	522.23
46.4435	516.61
46.4580	508.99
46.4724	501.97
46.4868	499.68
46.5013	495.63
46.5157	474.92
46.5302	475.96
46.5446	501.45
46.5590	485.39
46.5735	485.05
46.5879	479.12
46.6024	498.04
46.6168	492.35
46.6312	517.78
46.6457	483.43
46.6601	469.31
46.6746	490.94
46.6890	484.19
46.7034	514.74
46.7179	491.64
46.7323	498.73
46.7468	503.81
46.7612	507.03
46.7756	498.61
46.7901	525.41
46.8045	489.95
46.8190	507.00
46.8334	520.40
46.8478	482.63
46.8623	496.95
46.8767	520.30
46.8912	506.19
46.9056	526.04
46.9200	532.96
46.9345	511.05
46.9489	499.48
46.9634	527.04
46.9778	495.96
46.9922	507.72
47.0067	518.83
47.0211	557.52
47.0356	535.59
47.0500	517.48
47.0644	535.58
47.0789	536.76
47.0933	562.99
47.1078	506.70
47.1222	511.23
47.1366	518.94
47.1511	475.18
47.1655	504.80
47.1800	509.68
47.1944	480.03
47.2088	484.97
47.2233	512.18
47.2377	518.18
47.2522	484.73
47.2666	496.39
47.2810	518.49
47.2955	485.52
47.3099	464.74
47.3244	528.04
47.3388	507.71
47.3532	517.75
47.3677	495.28
47.3821	470.70
47.3966	478.32
47.4110	475.42
47.4254	498.94
47.4399	480.15
47.4543	513.16
47.4688	511.29
47.4832	539.75
47.4976	508.78
47.5121	464.13
47.5265	504.43
47.5410	481.28
47.5554	534.11
47.5698	519.95
47.5843	527.98
47.5987	514.97
47.6132	509.50
47.6276	507.68
47.6420	522.35
47.6565	483.62
47.6709	491.77
47.6854	513.85
47.6998	504.15
47.7142	524.93
47.7287	503.28
47.7431	473.34
47.7576	497.89
47.7720	500.90
47.7864	519.67
47.8009	524.83
47.8153	523.30
47.8298	511.70
47.8442	508.61
47.8586	524.59
47.8731	481.96
47.8875	484.85
47.9020	509.68
47.9164	507.03
47.9308	500.54
47.9453	497.56
47.9597	531.74
47.9742	525.84
47.9886	509.25
48.0030	455.86
48.0175	510.56
48.0319	496.73
48.0464	527.18
48.0608	512.62
48.0752	532.50
48.0897	511.01
48.1041	486.80
48.1186	520.20
48.1330	520.94
48.1474	479.89
48.1619	478.19
48.1763	487.01
48.1908	490.89
48.2052	486.96
48.2196	541.01
48.2341	534.13
48.2485	518.65
48.2630	517.20
48.2774	494.42
48.2918	478.30
48.3063	512.81
48.3207	509.87
48.3352	526.00
48.3496	506.40
48.3640	504.59
48.3785	514.97
48.3929	546.59
48.4074	522.68
48.4218	532.22
48.4362	571.11
48.4507	521.71
48.4651	491.37
48.4796	519.75
48.4940	521.02
48.5084	516.72
48.5229	503.35
48.5373	525.81
48.5518	533.97
48.5662	516.34
48.5806	533.61
48.5951	501.29
48.6095	500.39
48.6240	506.05
48.6384	545.28
48.6528	558.27
48.6673	503.40
48.6817	491.28
48.6962	508.33
48.7106	523.29
48.7250	525.73
48.7395	518.90
48.7539	535.25
48.7684	466.90
48.7828	496.75
48.7972	564.16
48.8117	516.54
48.8261	570.73
48.8406	543.38
48.8550	542.22
48.8694	564.75
48.8839	513.59
48.8983	548.47
48.9128	569.68
48.9272	564.63
48.9416	519.64
48.9561	552.59
48.9705	544.50
48.9850	572.40
48.9994	594.21
49.0139	579.88
49.0283	679.38
49.0427	601.68
49.0572	611.40
49.0716	624.58
49.0861	616.26
49.1005	673.68
49.1149	700.52
49.1294	702.90
49.1438	758.37
49.1583	783.40
49.1727	841.91
49.1871	874.65
49.2016	1000.31
49.2160	1077.85
49.2305	1132.29
49.2449	1203.65
49.2593	1308.75
49.2738	1389.51
49.2882	1502.07
49.3027	1613.31
49.3171	1658.51
49.3315	1770.12
49.3460	1780.22
49.3604	1844.32
49.3749	1842.98
49.3893	1873.14
49.4037	1807.98
49.4182	1838.93
49.4326	1780.77
49.4471	1688.58
49.4615	1694.21
49.4759	1629.77
49.4904	1539.48
49.5048	1410.86
49.5193	1315.26
49.5337	1310.91
49.5481	1241.98
49.5626	1182.23
49.5770	1053.98
49.5915	989.45
49.6059	950.52
49.6203	913.41
49.6348	843.25
49.6492	790.41
49.6637	738.11
49.6781	721.58
49.6925	691.01
49.7070	701.96
49.7214	620.36
49.7359	596.57
49.7503	625.68
49.7647	634.86
49.7792	630.12
49.7936	570.54
49.8081	580.41
49.8225	560.38
49.8369	547.24
49.8514	533.10
49.8658	550.12
49.8803	575.16
49.8947	542.31
49.9091	528.92
49.9236	544.66
49.9380	536.53
49.9525	521.63
49.9669	492.28
49.9813	535.73
49.9958	549.49
50.0102	494.57
50.0247	494.57
50.0391	545.77
50.0535	525.47
50.0680	483.85
50.0824	527.14
50.0969	533.43
50.1113	533.04
50.1257	561.12
50.1402	506.84
50.1546	482.50
50.1691	515.12
50.1835	480.58
50.1979	531.01
50.2124	534.54
50.2268	525.57
50.2413	509.07
50.2557	543.66
50.2701	532.77
50.2846	526.42
50.2990	511.65
50.3135	525.19
50.3279	497.14
50.3423	482.98
50.3568	532.57
50.3712	489.11
50.3857	502.66
50.4001	501.06
50.4145	530.98
50.4290	544.16
50.4434	503.07
50.4579	512.56
50.4723	538.10
50.4867	548.02
50.5012	500.74
50.5156	490.38
50.5301	476.69
50.5445	504.56
50.5589	530.36
50.5734	521.69
50.5878	508.47
50.6023	516.14
50.6167	536.84
50.6311	550.54
50.6456	535.16
50.6600	517.02
50.6745	511.35
50.6889	497.01
50.7033	531.39
50.7178	530.89
50.7322	490.83
50.7467	500.22
50.7611	495.23
50.7755	512.98
50.7900	517.94
50.8044	487.14
50.8189	522.22
50.8333	479.63
50.8477	467.72
50.8622	491.95
50.8766	479.73
50.8911	492.05
50.9055	516.14
50.9199	500.18
50.9344	514.56
50.9488	472.15
50.9633	486.51
50.9777	492.98
50.9921	489.14
51.0066	503.27
51.0210	511.52
51.0355	517.90
51.0499	513.89
51.0643	518.03
51.0788	511.93
51.0932	509.52
51.1077	485.86
51.1221	485.14
51.1365	504.21
51.1510	511.21
51.1654	501.56
51.1799	529.18
51.1943	495.87
51.2087	511.49
51.2232	535.60
51.2376	523.40
51.2521	484.23
51.2665	514.87
51.2809	527.44
51.2954	489.24
51.3098	511.38
51.3243	525.38
51.3387	512.26
51.3531	491.81
51.3676	532.44
51.3820	509.18
51.3965	502.61
51.4109	499.39
51.4253	515.12
51.4398	497.06
51.4542	465.47
51.4687	472.59
51.4831	513.64
51.4975	524.17
51.5120	505.44
51.5264	527.58
51.5409	510.39
51.5553	513.48
51.5697	521.77
51.5842	528.19
51.5986	496.83
51.6131	508.19
51.6275	499.77
51.6419	505.33
51.6564	519.93
51.6708	527.28
51.6853	511.29
51.6997	502.80
51.7141	508.70
51.7286	513.21
51.7430	532.28
51.7575	501.86
51.7719	504.19
51.7863	520.15
51.8008	495.13
51.8152	515.56
51.8297	526.23
51.8441	524.11
51.8585	507.63
51.8730	505.72
51.8874	498.84
51.9019	534.36
51.9163	545.42
51.9307	507.21
51.9452	490.84
51.9596	459.93
51.9741	469.18
51.9885	490.72
52.0029	484.44
52.0174	477.33
52.0318	496.31
52.0463	498.28
52.0607	514.28
52.0751	526.81
52.0896	505.80
52.1040	490.16
52.1185	511.41
52.1329	517.20
52.1473	517.10
52.1618	488.50
52.1762	515.44
52.1907	496.75
52.2051	500.63
52.2195	491.04
52.2340	516.07
52.2484	517.51
52.2629	496.78
52.2773	519.39
52.2917	524.02
52.3062	518.62
52.3206	495.04
52.3351	505.15
52.3495	509.59
52.3639	480.00
52.3784	513.73
52.3928	481.11
52.4073	502.57
52.4217	505.63
52.4361	536.58
52.4506	512.52
52.4650	525.65
52.4795	516.55
52.4939	522.31
52.5083	530.56
52.5228	516.40
52.5372	551.47
52.5517	520.30
52.5661	491.14
52.5805	510.50
52.5950	501.84
52.6094	520.78
52.6239	476.88
52.6383	518.41
52.6527	504.14
52.6672	505.33
52.6816	481.23
52.6961	482.64
52.7105	524.27
52.7250	483.84
52.7394	484.85
52.7538	510.71
52.7683	515.51
52.7827	475.02
52.7972	498.94
52.8116	495.93
52.8260	533.93
52.8405	504.26
52.8549	521.23
52.8694	522.62
52.8838	517.06
52.8982	514.19
52.9127	510.15
52.9271	496.90
52.9416	550.31
52.9560	486.33
52.9704	516.90
52.9849	536.60
52.9993	508.13
53.0138	517.72
53.0282	523.08
53.0426	500.83
53.0571	521.92
53.0715	518.16
53.0860	533.61
53.1004	554.72
53.1148	521.19
53.1293	483.28
53.1437	488.77
53.1582	485.73
53.1726	502.56
53.1870	514.13
53.2015	522.11
53.2159	526.20
53.2304	480.78
53.2448	483.78
53.2592	518.02
53.2737	488.48
53.2881	466.00
53.3026	521.50
53.3170	486.89
53.3314	498.46
53.3459	546.46
53.3603	484.83
53.3748	501.83
53.3892	499.53
53.4036	522.50
53.4181	511.02
53.4325	546.97
53.4470	498.56
53.4614	495.84
53.4758	502.30
53.4903	511.26
53.5047	489.64
53.5192	529.50
53.5336	512.80
53.5480	515.39
53.5625	529.59
53.5769	509.34
53.5914	524.51
53.6058	529.49
53.6202	517.34
53.6347	538.55
53.6491	534.03
53.6636	501.83
53.6780	468.63
53.6924	497.07
53.7069	530.38
53.7213	514.70
53.7358	494.64
53.7502	491.54
53.7646	493.50
53.7791	508.45
53.7935	524.66
53.8080	518.04
53.8224	510.87
53.8368	510.02
53.8513	503.31
53.8657	541.57
53.8802	522.13
53.8946	500.55
53.9090	512.59
53.9235	509.79
53.9379	556.07
53.9524	510.43
53.9668	494.80
53.9812	537.59
53.9957	562.07
54.0101	505.12
54.0246	509.77
54.0390	534.49
54.0534	530.96
54.0679	501.58
54.0823	548.99
54.0968	520.25
54.1112	487.52
54.1256	529.71
54.1401	538.93
54.1545	509.59
54.1690	531.49
54.1834	510.42
54.1978	472.87
54.2123	490.06
54.2267	507.87
54.2412	517.72
54.2556	527.70
54.2700	506.89
54.2845	520.46
54.2989	527.49
54.3134	573.40
54.3278	562.63
54.3422	557.23
54.3567	551.96
54.3711	544.97
54.3856	515.70
54.4000	563.40
54.4144	520.44
54.4289	586.39
54.4433	575.45
54.4578	584.65
54.4722	611.38
54.4866	595.52
54.5011	573.10
54.5155	583.19
54.5300	633.89
54.5444	583.87
54.5588	618.43
54.5733	591.82
54.5877	554.03
54.6022	554.73
54.6166	575.04
54.6310	573.21
54.6455	555.75
54.6599	552.98
54.6744	561.37
54.6888	521.45
54.7032	525.03
54.7177	547.66
54.7321	563.33
54.7466	510.68
54.7610	520.08
54.7754	567.10
54.7899	526.26
54.8043	526.43
54.8188	522.53
54.8332	511.57
54.8476	486.63
54.8621	525.93
54.8765	539.22
54.8910	517.06
54.9054	513.83
54.9198	485.67
54.9343	473.70
54.9487	496.22
54.9632	468.06
54.9776	503.89
54.9920	507.15
55.0065	524.80
55.0209	514.73
55.0354	502.26
55.0498	504.69
55.0642	505.11
55.0787	540.99
55.0931	544.04
55.1076	530.58
55.1220	496.94
55.1364	496.59
55.1509	490.56
55.1653	519.10
55.1798	503.43
55.1942	494.82
55.2086	543.46
55.2231	558.41
55.2375	533.65
55.2520	509.25
55.2664	519.07
55.2808	529.90
55.2953	519.76
55.3097	494.68
55.3242	493.30
55.3386	540.53
55.3530	532.77
55.3675	517.31
55.3819	496.20
55.3964	484.56
55.4108	531.90
55.4252	541.93
55.4397	530.15
55.4541	532.55
55.4686	531.90
55.4830	531.78
55.4974	491.55
55.5119	494.95
55.5263	508.43
55.5408	511.98
55.5552	531.56
55.5696	545.39
55.5841	523.56
55.5985	530.71
55.6130	538.03
55.6274	503.68
55.6418	511.53
55.6563	495.15
55.6707	521.74
55.6852	493.99
55.6996	516.69
55.7140	539.07
55.7285	509.92
55.7429	511.62
55.7574	535.69
55.7718	507.59
55.7862	528.36
55.8007	541.06
55.8151	528.71
55.8296	510.04
55.8440	518.42
55.8584	528.01
55.8729	526.66
55.8873	489.08
55.9018	533.20
55.9162	520.39
55.9306	488.74
55.9451	505.21
55.9595	548.77
55.9740	519.48
55.9884	502.43
56.0028	530.63
56.0173	585.71
56.0317	565.32
56.0462	522.72
56.0606	522.71
56.0750	524.60
56.0895	556.94
56.1039	508.58
56.1184	502.84
56.1328	489.23
56.1472	484.24
56.1617	505.59
56.1761	517.41
56.1906	495.50
56.2050	515.23
56.2194	513.58
56.2339	512.35
56.2483	520.11
56.2628	519.09
56.2772	520.13
56.2916	520.60
56.3061	480.82
56.3205	499.47
56.3350	533.99
56.3494	530.62
56.3639	543.63
56.3783	531.22
56.3927	538.73
56.4072	518.47
56.4216	511.11
56.4361	527.98
56.4505	501.95
56.4649	533.85
56.4794	532.32
56.4938	488.99
56.5083	506.49
56.5227	483.75
56.5371	536.65
56.5516	519.93
56.5660	532.13
56.5805	521.79
56.5949	508.69
56.6093	517.85
56.6238	509.73
56.6382	518.78
56.6527	498.83
56.6671	485.16
56.6815	463.00
56.6960	502.29
56.7104	537.34
56.7249	491.91
56.7393	512.94
56.7537	523.26
56.7682	509.50
56.7826	558.85
56.7971	497.10
56.8115	510.01
56.8259	498.22
56.8404	493.65
56.8548	509.87
56.8693	530.21
56.8837	506.27
56.8981	526.48
56.9126	530.17
56.9270	493.93
56.9415	562.73
56.9559	531.32
56.9703	500.27
56.9848	517.54
56.9992	538.57
57.0137	512.14
57.0281	485.24
57.0425	531.00
57.0570	548.35
57.0714	550.91
57.0859	531.35
57.1003	531.74
57.1147	524.03
57.1292	530.59
57.1436	515.77
57.1581	496.33
57.1725	540.32
57.1869	532.99
57.2014	521.91
57.2158	531.27
57.2303	540.97
57.2447	480.67
57.2591	493.00
57.2736	498.57
57.2880	490.11
57.3025	516.96
57.3169	541.69
57.3313	571.51
57.3458	517.95
57.3602	522.13
57.3747	519.16
57.3891	499.63
57.4035	542.68
57.4180	557.39
57.4324	510.39
57.4469	494.82
57.4613	533.38
57.4757	534.38
57.4902	510.29
57.5046	525.87
57.5191	517.40
57.5335	517.07
57.5479	514.38
57.5624	551.02
57.5768	500.39
57.5913	518.67
57.6057	530.38
57.6201	538.71
57.6346	517.18
57.6490	530.33
57.6635	523.28
57.6779	500.62
57.6923	541.54
57.7068	550.28
57.7212	542.06
57.7357	493.65
57.7501	542.37
57.7645	546.45
57.7790	574.47
57.7934	547.28
57.8079	527.84
57.8223	543.53
57.8367	536.92
57.8512	541.48
57.8656	551.86
57.8801	541.25
57.8945	579.57
57.9089	575.04
57.9234	587.94
57.9378	602.63
57.9523	585.72
57.9667	610.01
57.9811	624.77
57.9956	639.32
58.0100	617.35
58.0245	633.17
58.0389	627.76
58.0533	609.63
58.0678	612.64
58.0822	616.00
58.0967	626.81
58.1111	673.91
58.1255	704.55
58.1400	683.88
58.1544	651.42
58.1689	697.99
58.1833	673.15
58.1977	630.18
58.2122	608.33
58.2266	630.18
58.2411	669.99
58.2555	631.70
58.2699	617.98
58.2844	617.10
58.2988	638.75
58.3133	638.19
58.3277	624.97
58.3421	614.14
58.3566	595.86
58.3710	586.60
58.3855	585.26
58.3999	559.16
58.4143	569.47
58.4288	571.19
58.4432	565.89
58.4577	562.22
58.4721	543.57
58.4865	542.42
58.5010	511.76
58.5154	551.24
58.5299	565.46
58.5443	528.75
58.5587	527.67
58.5732	525.52
58.5876	527.99
58.6021	526.38
58.6165	512.11
58.6309	512.57
58.6454	570.66
58.6598	541.33
58.6743	524.72
58.6887	534.83
58.7031	557.88
58.7176	543.04
58.7320	561.00
58.7465	554.11
58.7609	538.48
58.7753	541.29
58.7898	531.36
58.8042	519.95
58.8187	536.64
58.8331	562.75
58.8475	533.41
58.8620	528.85
58.8764	558.88
58.8909	523.68
58.9053	547.48
58.9197	561.48
58.9342	554.14
58.9486	543.81
58.9631	523.72
58.9775	523.43
58.9919	492.90
59.0064	510.68
59.0208	547.04
59.0353	544.10
59.0497	505.32
59.0641	499.66
59.0786	480.42
59.0930	525.64
59.1075	539.43
59.1219	585.56
59.1363	562.27
59.1508	538.19
59.1652	542.35
59.1797	526.50
59.1941	510.16
59.2085	551.40
59.2230	578.37
59.2374	565.65
59.2519	553.66
59.2663	528.34
59.2807	525.23
59.2952	540.49
59.3096	567.27
59.3241	593.01
59.3385	557.18
59.3529	522.54
59.3674	569.00
59.3818	563.36
59.3963	535.87
59.4107	579.46
59.4251	592.59
59.4396	551.94
59.4540	541.98
59.4685	558.22
59.4829	544.79
59.4973	561.57
59.5118	543.33
59.5262	537.98
59.5407	571.98
59.5551	548.13
59.5695	550.52
59.5840	560.18
59.5984	538.05
59.6129	553.63
59.6273	551.97
59.6417	587.69
59.6562	559.55
59.6706	540.72
59.6851	497.68
59.6995	482.69
59.7139	518.02
59.7284	514.10
59.7428	521.10
59.7573	550.02
59.7717	519.89
59.7861	556.30
59.8006	548.37
59.8150	570.80
59.8295	540.64
59.8439	542.31
59.8583	554.34
59.8728	546.73
59.8872	524.45
59.9017	535.49
59.9161	485.20
59.9305	545.14
59.9450	503.61
59.9594	511.16
59.9739	519.83
59.9883	540.81
60.0027	571.29
60.0172	533.62
60.0316	513.82
60.0461	547.33
60.0605	557.90
60.0750	562.91
60.0894	563.64
60.1038	548.58
60.1183	574.89
60.1327	563.21
60.1472	558.27
60.1616	527.41
60.1760	532.53
60.1905	515.75
60.2049	497.61
60.2194	508.76
60.2338	517.38
60.2482	559.87
60.2627	513.89
60.2771	548.77
60.2916	560.82
60.3060	557.51
60.3204	561.34
60.3349	552.40
60.3493	519.81
60.3638	545.77
60.3782	519.68
60.3926	492.24
60.4071	500.11
60.4215	512.46
60.4360	561.26
60.4504	537.26
60.4648	534.85
60.4793	543.16
60.4937	558.62
60.5082	520.13
60.5226	523.48
60.5370	568.83
60.5515	509.02
60.5659	519.52
60.5804	491.80
60.5948	525.51
60.6092	519.49
60.6237	553.49
60.6381	552.50
60.6526	528.30
60.6670	564.74
60.6814	511.13
60.6959	522.58
60.7103	575.09
60.7248	549.73
60.7392	549.04
60.7536	562.85
60.7681	542.02
60.7825	548.30
60.7970	540.03
60.8114	553.91
60.8258	519.91
60.8403	567.38
60.8547	538.59
60.8692	557.06
60.8836	539.45
60.8980	572.55
60.9125	547.90
60.9269	547.32
60.9414	556.76
60.9558	529.39
60.9702	569.00
60.9847	526.92
60.9991	550.27
61.0136	516.73
61.0280	524.49
61.0424	527.48
61.0569	535.66
61.0713	528.71
61.0858	536.55
61.1002	508.93
61.1146	527.07
61.1291	536.37
61.1435	544.89
61.1580	557.88
61.1724	571.87
61.1868	532.32
61.2013	523.07
61.2157	534.56
61.2302	535.07
61.2446	536.85
61.2590	572.08
61.2735	516.89
61.2879	569.95
61.3024	563.77
61.3168	508.53
61.3312	545.73
61.3457	544.63
61.3601	537.69
61.3746	527.67
61.3890	541.80
61.4034	520.83
61.4179	547.50
61.4323	525.49
61.4468	538.15
61.4612	535.20
61.4756	530.64
61.4901	569.91
61.5045	559.33
61.5190	516.30
61.5334	538.82
61.5478	532.75
61.5623	564.78
61.5767	517.83
61.5912	523.46
61.6056	569.35
61.6200	561.22
61.6345	546.97
61.6489	548.93
61.6634	549.03
61.6778	536.42
61.6922	548.26
61.7067	547.59
61.7211	524.09
61.7356	531.11
61.7500	585.79
61.7644	514.81
61.7789	543.05
61.7933	538.31
61.8078	565.26
61.8222	558.46
61.8366	552.04
61.8511	567.13
61.8655	573.63
61.8800	528.48
61.8944	538.92
61.9088	583.01
61.9233	565.97
61.9377	557.65
61.9522	553.47
61.9666	534.79
61.9810	550.52
61.9955	554.14
62.0099	548.27
62.0244	560.83
62.0388	530.73
62.0532	500.10
62.0677	506.94
62.0821	541.39
62.0966	536.58
62.1110	586.34
62.1254	576.80
62.1399	546.78
62.1543	493.99
62.1688	541.39
62.1832	537.13
62.1976	549.95
62.2121	546.62
62.2265	541.23
62.2410	550.33
62.2554	570.50
62.2698	562.07
62.2843	559.66
62.2987	554.39
62.3132	569.37
62.3276	538.83
62.3420	548.60
62.3565	539.98
62.3709	565.51
62.3854	553.46
62.3998	545.63
62.4142	520.44
62.4287	563.43
62.4431	546.32
62.4576	549.51
62.4720	558.33
62.4864	537.06
62.5009	555.19
62.5153	531.16
62.5298	553.89
62.5442	570.71
62.5586	539.57
62.5731	517.76
62.5875	553.28
62.6020	579.45
62.6164	564.92
62.6308	536.97
62.6453	546.70
62.6597	581.02
62.6742	546.38
62.6886	536.05
62.7030	556.95
62.7175	546.35
62.7319	546.60
62.7464	550.67
62.7608	551.02
62.7752	560.97
62.7897	573.40
62.8041	569.65
62.8186	566.42
62.8330	577.75
62.8474	569.69
62.8619	584.82
62.8763	593.76
62.8908	571.36
62.9052	555.79
62.9196	551.48
62.9341	547.05
62.9485	540.51
62.9630	590.35
62.9774	553.19
62.9918	544.78
63.0063	528.42
63.0207	598.57
63.0352	584.47
63.0496	577.30
63.0640	593.08
63.0785	556.32
63.0929	576.33
63.1074	561.71
63.1218	588.95
63.1362	582.93
63.1507	577.01
63.1651	586.17
63.1796	560.30
63.1940	551.22
63.2084	533.51
63.2229	564.41
63.2373	544.63
63.2518	575.22
63.2662	559.25
63.2806	598.41
63.2951	581.79
63.3095	585.17
63.3240	593.55
63.3384	584.37
63.3528	592.22
63.3673	577.84
63.3817	565.71
63.3962	577.21
63.4106	594.94
63.4250	621.65
63.4395	576.00
63.4539	566.52
63.4684	598.46
63.4828	619.11
63.4972	593.27
63.5117	594.94
63.5261	595.61
63.5406	580.23
63.5550	617.08
63.5694	636.38
63.5839	608.98
63.5983	610.16
63.6128	627.33
63.6272	647.47
63.6416	658.23
63.6561	678.55
63.6705	666.53
63.6850	663.28
63.6994	698.19
63.7138	744.81
63.7283	756.99
63.7427	745.97
63.7572	740.51
63.7716	776.26
63.7861	769.05
63.8005	773.09
63.8149	786.15
63.8294	794.38
63.8438	759.91
63.8583	815.14
63.8727	791.19
63.8871	807.66
63.9016	838.06
63.9160	829.98
63.9305	840.02
63.9449	863.05
63.9593	836.06
63.9738	795.48
63.9882	767.01
64.0027	740.19
64.0171	735.20
64.0315	782.82
64.0460	735.24
64.0604	756.94
64.0749	690.89
64.0893	689.01
64.1037	669.69
64.1182	681.74
64.1326	688.91
64.1471	667.68
64.1615	669.38
64.1759	683.02
64.1904	641.62
64.2048	616.32
64.2193	646.23
64.2337	640.84
64.2481	609.82
64.2626	604.85
64.2770	618.22
64.2915	612.96
64.3059	604.29
64.3203	648.62
64.3348	650.12
64.3492	589.26
64.3637	600.32
64.3781	607.29
64.3925	608.12
64.4070	621.81
64.4214	642.68
64.4359	667.07
64.4503	610.28
64.4647	608.13
64.4792	615.42
64.4936	606.05
64.5081	600.11
64.5225	599.89
64.5369	622.69
64.5514	656.51
64.5658	615.78
64.5803	637.20
64.5947	595.73
64.6091	599.49
64.6236	643.96
64.6380	659.99
64.6525	667.21
64.6669	672.02
64.6813	647.44
64.6958	679.71
64.7102	684.08
64.7247	652.72
64.7391	685.62
64.7535	698.67
64.7680	693.57
64.7824	712.64
64.7969	716.22
64.8113	745.21
64.8257	744.21
64.8402	807.99
64.8546	827.92
64.8691	793.98
64.8835	811.38
64.8979	893.83
64.9124	833.53
64.9268	848.39
64.9413	887.30
64.9557	845.93
64.9701	967.73
64.9846	1039.58
64.9990	1097.18
65.0135	1277.37
65.0279	1372.35
65.0423	1641.07
65.0568	1973.08
65.0712	2466.27
65.0857	3207.66
65.1001	4297.04
65.1145	5657.27
65.1290	7423.72
65.1434	9003.20
65.1579	10688.30
65.1723	11542.45
65.1867	11341.70
65.2012	10157.75
65.2156	8523.84
65.2301	6726.31
65.2445	5478.41
65.2589	4542.14
65.2734	4099.68
65.2878	4302.79
65.3023	4747.66
65.3167	5532.92
65.3311	6237.34
65.3456	6836.32
65.3600	6958.61
65.3745	6474.40
65.3889	5461.90
65.4033	4418.45
65.4178	3481.06
65.4322	2769.76
65.4467	2097.83
65.4611	1735.38
65.4755	1505.34
65.4900	1308.61
65.5044	1169.11
65.5189	1066.52
65.5333	974.08
65.5477	928.45
65.5622	894.25
65.5766	867.49
65.5911	822.14
65.6055	790.23
65.6199	772.39
65.6344	785.96
65.6488	761.97
65.6633	718.96
65.6777	698.37
65.6921	701.05
65.7066	791.59
65.7210	686.41
65.7355	651.79
65.7499	695.57
65.7643	632.64
65.7788	643.07
65.7932	650.17
65.8077	663.83
65.8221	622.13
65.8365	667.30
65.8510	672.68
65.8654	687.76
65.8799	653.86
65.8943	610.01
65.9087	658.05
65.9232	656.77
65.9376	667.28
65.9521	592.96
65.9665	591.82
65.9809	591.96
65.9954	613.68
66.0098	618.96
66.0243	606.73
66.0387	619.53
66.0531	632.96
66.0676	634.47
66.0820	664.72
66.0965	599.96
66.1109	629.83
66.1253	604.85
66.1398	614.54
66.1542	612.16
66.1687	607.12
66.1831	596.20
66.1975	603.28
66.2120	597.61
66.2264	640.95
66.2409	637.57
66.2553	608.86
66.2697	604.68
66.2842	602.51
66.2986	599.15
66.3131	624.18
66.3275	596.78
66.3419	577.42
66.3564	586.43
66.3708	611.20
66.3853	627.25
66.3997	593.40
66.4141	597.27
66.4286	603.07
66.4430	589.64
66.4575	567.14
66.4719	596.53
66.4863	630.84
66.5008	618.08
66.5152	585.60
66.5297	595.20
66.5441	605.81
66.5585	580.37
66.5730	596.11
66.5874	610.66
66.6019	564.98
66.6163	572.37
66.6307	587.74
66.6452	582.01
66.6596	591.56
66.6741	540.23
66.6885	555.26
66.7029	588.20
66.7174	588.88
66.7318	582.43
66.7463	598.99
66.7607	580.53
66.7751	605.12
66.7896	623.38
66.8040	592.48
66.8185	583.76
66.8329	588.39
66.8473	598.31
66.8618	620.23
66.8762	629.21
66.8907	612.21
66.9051	618.68
66.9195	597.86
66.9340	572.12
66.9484	575.80
66.9629	575.31
66.9773	546.95
66.9917	558.92
67.0062	567.87
67.0206	590.73
67.0351	581.04
67.0495	553.98
67.0639	552.82
67.0784	562.60
67.0928	603.77
67.1073	566.95
67.1217	547.58
67.1361	582.72
67.1506	594.67
67.1650	596.85
67.1795	592.44
67.1939	578.90
67.2083	591.62
67.2228	579.86
67.2372	582.57
67.2517	597.83
67.2661	595.07
67.2805	598.21
67.2950	597.03
67.3094	547.93
67.3239	574.09
67.3383	586.69
67.3527	574.91
67.3672	556.18
67.3816	559.96
67.3961	536.42
67.4105	546.65
67.4250	571.40
67.4394	558.68
67.4538	571.48
67.4683	602.79
67.4827	581.46
67.4972	596.68
67.5116	565.39
67.5260	536.55
67.5405	561.28
67.5549	572.06
67.5694	576.31
67.5838	605.36
67.5982	573.84
67.6127	563.78
67.6271	564.99
67.6416	571.56
67.6560	579.51
67.6704	587.42
67.6849	573.28
67.6993	560.02
67.7138	574.21
67.7282	559.49
67.7426	571.17
67.7571	567.10
67.7715	560.59
67.7860	599.74
67.8004	596.77
67.8148	584.43
67.8293	571.77
67.8437	568.10
67.8582	570.25
67.8726	596.00
67.8870	599.97
67.9015	626.47
67.9159	596.44
67.9304	616.10
67.9448	582.99
67.9592	518.71
67.9737	547.55
67.9881	594.43
68.0026	555.43
68.0170	576.47
68.0314	611.51
68.0459	575.98
68.0603	591.00
68.0748	615.82
68.0892	616.79
68.1036	537.64
68.1181	591.61
68.1325	593.81
68.1470	585.96
68.1614	575.98
68.1758	569.76
68.1903	593.26
68.2047	546.94
68.2192	607.61
68.2336	572.93
68.2480	595.10
68.2625	555.96
68.2769	533.48
68.2914	544.75
68.3058	538.93
68.3202	550.45
68.3347	563.80
68.3491	548.96
68.3636	589.37
68.3780	549.40
68.3924	603.93
68.4069	567.52
68.4213	566.55
68.4358	593.72
68.4502	576.79
68.4646	560.80
68.4791	581.58
68.4935	548.72
68.5080	544.32
68.5224	552.00
68.5368	618.73
68.5513	593.15
68.5657	566.94
68.5802	568.14
68.5946	566.01
68.6090	579.85
68.6235	599.88
68.6379	564.00
68.6524	557.82
68.6668	566.34
68.6812	534.85
68.6957	544.26
68.7101	588.28
68.7246	533.51
68.7390	554.74
68.7534	593.99
68.7679	574.96
68.7823	592.13
68.7968	572.28
68.8112	586.28
68.8256	554.21
68.8401	557.67
68.8545	568.62
68.8690	620.03
68.8834	576.47
68.8978	635.38
68.9123	584.66
68.9267	574.99
68.9412	617.16
68.9556	607.09
68.9700	568.34
68.9845	579.62
68.9989	611.85
69.0134	577.49
69.0278	609.17
69.0422	571.38
69.0567	603.15
69.0711	586.96
69.0856	590.00
69.1000	571.40
69.1144	598.23
69.1289	616.15
69.1433	527.55
69.1578	554.24
69.1722	570.91
69.1866	616.45
69.2011	547.79
69.2155	581.73
69.2300	532.31
69.2444	584.26
69.2588	568.75
69.2733	563.26
69.2877	586.36
69.3022	598.64
69.3166	558.35
69.3310	596.30
69.3455	568.11
69.3599	566.69
69.3744	572.82
69.3888	547.60
69.4032	561.21
69.4177	572.81
69.4321	593.78
69.4466	549.51
69.4610	602.89
69.4754	614.10
69.4899	592.76
69.5043	612.16
69.5188	543.50
69.5332	625.61
69.5476	597.99
69.5621	566.38
69.5765	583.56
69.5910	576.71
69.6054	584.24
69.6198	572.54
69.6343	608.86
69.6487	616.56
69.6632	612.65
69.6776	569.38
69.6920	589.89
69.7065	572.94
69.7209	551.33
69.7354	526.90
69.7498	581.74
69.7642	522.58
69.7787	572.73
69.7931	580.05
69.8076	572.80
69.8220	583.64
69.8364	592.55
69.8509	580.36
69.8653	587.48
69.8798	580.22
69.8942	607.41
69.9086	563.42
69.9231	587.59
69.9375	608.36
69.9520	593.33
69.9664	577.18
69.9808	598.42
69.9953	609.56
70.0097	626.18
70.0242	569.95
70.0386	563.35
70.0530	516.66
70.0675	525.14
70.0819	567.87
70.0964	522.15
70.1108	601.55
70.1252	599.32
70.1397	556.59
70.1541	533.32
70.1686	581.54
70.1830	596.11
70.1974	616.11
70.2119	602.85
70.2263	596.72
70.2408	596.00
70.2552	576.89
70.2696	550.29
70.2841	562.86
70.2985	626.83
70.3130	576.16
70.3274	515.90
70.3418	536.15
70.3563	555.83
70.3707	518.34
70.3852	535.01
70.3996	524.06
70.4140	527.02
70.4285	570.96
70.4429	590.51
70.4574	582.50
70.4718	568.21
70.4862	598.65
70.5007	623.45
70.5151	587.75
70.5296	560.63
70.5440	545.88
70.5584	595.72
70.5729	569.72
70.5873	551.01
70.6018	523.72
70.6162	564.13
70.6306	587.36
70.6451	568.50
70.6595	555.51
70.6740	570.24
70.6884	509.96
70.7028	578.06
70.7173	591.88
70.7317	562.12
70.7462	610.97
70.7606	566.81
70.7750	577.91
70.7895	560.58
70.8039	616.75
70.8184	583.23
70.8328	535.83
70.8472	511.51
70.8617	560.57
70.8761	586.43
70.8906	566.09
70.9050	513.82
70.9194	542.21
70.9339	568.10
70.9483	606.58
70.9628	616.41
70.9772	616.75
70.9916	591.30
71.0061	566.21
71.0205	582.31
71.0350	578.40
71.0494	567.54
71.0638	534.75
71.0783	585.25
71.0927	591.93
71.1072	568.42
71.1216	568.03
71.1361	590.03
71.1505	604.23
71.1649	573.04
71.1794	589.58
71.1938	618.35
71.2083	622.00
71.2227	582.19
71.2371	574.63
71.2516	574.07
71.2660	568.09
71.2805	556.47
71.2949	557.07
71.3093	574.49
71.3238	556.43
71.3382	584.70
71.3527	572.41
71.3671	570.42
71.3815	600.87
71.3960	556.81
71.4104	548.59
71.4249	616.22
71.4393	584.99
71.4537	557.24
71.4682	570.29
71.4826	546.16
71.4971	554.51
71.5115	608.33
71.5259	585.65
71.5404	545.69
71.5548	528.30
71.5693	585.45
71.5837	578.98
71.5981	560.97
71.6126	575.24
71.6270	610.43
71.6415	592.77
71.6559	583.67
71.6703	607.37
71.6848	580.26
71.6992	582.60
71.7137	601.81
71.7281	553.20
71.7425	550.80
71.7570	564.87
71.7714	623.56
71.7859	594.78
71.8003	550.96
71.8147	515.38
71.8292	512.92
71.8436	552.85
71.8581	567.80
71.8725	621.92
71.8869	628.78
71.9014	600.30
71.9158	570.84
71.9303	590.28
71.9447	620.15
71.9591	598.88
71.9736	562.61
71.9880	533.22
72.0025	543.87
72.0169	562.74
72.0313	553.04
72.0458	519.94
72.0602	563.46
72.0747	545.10
72.0891	520.50
72.1035	583.04
72.1180	604.74
72.1324	569.03
72.1469	536.34
72.1613	546.34
72.1757	572.84
72.1902	612.00
72.2046	603.34
72.2191	557.83
72.2335	531.94
72.2479	537.75
72.2624	550.99
72.2768	583.80
72.2913	561.21
72.3057	595.85
72.3201	621.38
72.3346	550.04
72.3490	513.18
72.3635	556.43
72.3779	608.57
72.3923	605.91
72.4068	561.71
72.4212	552.90
72.4357	594.44
72.4501	632.55
72.4645	674.49
72.4790	626.85
72.4934	605.75
72.5079	600.87
72.5223	652.40
72.5367	626.05
72.5512	534.45
72.5656	526.05
72.5801	568.27
72.5945	549.39
72.6089	537.53
72.6234	526.04
72.6378	498.69
72.6523	568.26
72.6667	570.42
72.6811	528.56
72.6956	519.36
72.7100	559.82
72.7245	526.75
72.7389	544.36
72.7533	549.38
72.7678	542.23
72.7822	588.93
72.7967	582.98
72.8111	590.42
72.8255	614.07
72.8400	573.37
72.8544	571.32
72.8689	637.30
72.8833	566.55