2022.09.19 19:37:17
Îáðàçåö: ß÷åéêà LCoV 16-09-2022
Lambda1 = 1.54060
Lambda2 = 1.54439
Lambdam = 1.54186
R = 0.497
2Theta	I

line¹ 0 ;repeat¹ 0
22.1120	572.39
22.1264	571.70
22.1409	561.60
22.1553	597.74
22.1697	612.96
22.1842	671.00
22.1986	582.00
22.2131	561.68
22.2275	551.33
22.2419	576.24
22.2564	558.98
22.2708	563.24
22.2853	595.77
22.2997	570.14
22.3141	583.86
22.3286	562.91
22.3430	638.69
22.3575	590.81
22.3719	588.13
22.3863	612.32
22.4008	659.43
22.4152	652.17
22.4297	660.95
22.4441	567.04
22.4585	561.27
22.4730	642.20
22.4874	608.86
22.5019	581.21
22.5163	578.25
22.5307	543.16
22.5452	610.28
22.5596	648.67
22.5741	661.36
22.5885	685.63
22.6029	698.85
22.6174	537.27
22.6318	519.38
22.6463	572.23
22.6607	604.21
22.6751	451.83
22.6896	481.82
22.7040	524.47
22.7185	608.11
22.7329	593.43
22.7473	572.50
22.7618	590.69
22.7762	559.00
22.7907	517.30
22.8051	509.52
22.8195	574.87
22.8340	549.35
22.8484	570.72
22.8629	586.88
22.8773	649.70
22.8917	572.19
22.9062	539.15
22.9206	519.02
22.9351	541.90
22.9495	569.63
22.9639	521.37
22.9784	601.62
22.9928	477.57
23.0073	449.83
23.0217	472.97
23.0361	496.80
23.0506	573.07
23.0650	607.31
23.0795	563.59
23.0939	569.06
23.1083	591.28
23.1228	594.71
23.1372	531.12
23.1517	563.00
23.1661	550.16
23.1806	603.78
23.1950	568.37
23.2094	563.78
23.2239	537.54
23.2383	582.49
23.2528	611.07
23.2672	505.30
23.2816	550.72
23.2961	586.93
23.3105	572.59
23.3250	578.59
23.3394	574.51
23.3538	563.19
23.3683	587.62
23.3827	600.87
23.3972	518.80
23.4116	592.62
23.4260	571.87
23.4405	554.85
23.4549	587.30
23.4694	554.64
23.4838	608.75
23.4982	516.76
23.5127	504.61
23.5271	543.77
23.5416	538.36
23.5560	540.14
23.5704	595.96
23.5849	538.05
23.5993	573.96
23.6138	532.15
23.6282	503.16
23.6426	534.03
23.6571	565.62
23.6715	600.31
23.6860	513.13
23.7004	608.81
23.7148	546.89
23.7293	594.87
23.7437	543.12
23.7582	566.92
23.7726	493.54
23.7870	563.84
23.8015	519.66
23.8159	574.59
23.8304	517.54
23.8448	536.14
23.8592	584.10
23.8737	524.38
23.8881	571.82
23.9026	554.66
23.9170	473.94
23.9314	530.31
23.9459	521.42
23.9603	584.62
23.9748	568.82
23.9892	600.50
24.0036	503.47
24.0181	577.65
24.0325	468.92
24.0470	543.54
24.0614	589.97
24.0758	576.31
24.0903	611.31
24.1047	577.18
24.1192	554.64
24.1336	627.89
24.1480	548.94
24.1625	578.05
24.1769	583.85
24.1914	563.91
24.2058	554.76
24.2202	541.09
24.2347	554.03
24.2491	577.92
24.2636	577.78
24.2780	595.81
24.2924	642.40
24.3069	557.93
24.3213	530.23
24.3358	535.11
24.3502	556.68
24.3646	568.81
24.3791	530.88
24.3935	521.13
24.4080	541.06
24.4224	569.99
24.4368	533.38
24.4513	558.46
24.4657	564.22
24.4802	500.75
24.4946	539.41
24.5090	582.03
24.5235	543.73
24.5379	545.48
24.5524	521.36
24.5668	567.23
24.5812	567.31
24.5957	547.90
24.6101	482.32
24.6246	542.33
24.6390	590.25
24.6534	563.12
24.6679	549.61
24.6823	523.65
24.6968	513.06
24.7112	536.53
24.7256	497.96
24.7401	578.98
24.7545	589.78
24.7690	566.04
24.7834	583.23
24.7978	458.89
24.8123	511.24
24.8267	550.39
24.8412	563.34
24.8556	585.38
24.8700	621.66
24.8845	595.41
24.8989	539.50
24.9134	560.92
24.9278	534.92
24.9422	528.29
24.9567	533.29
24.9711	567.12
24.9856	505.11
25.0000	514.07
25.0144	568.81
25.0289	505.42
25.0433	550.22
25.0578	548.04
25.0722	554.64
25.0866	520.94
25.1011	588.09
25.1155	554.62
25.1300	566.73
25.1444	517.84
25.1588	507.74
25.1733	557.87
25.1877	496.79
25.2022	516.82
25.2166	541.40
25.2310	566.24
25.2455	553.68
25.2599	510.89
25.2744	543.77
25.2888	548.13
25.3032	545.48
25.3177	527.57
25.3321	530.77
25.3466	554.61
25.3610	549.89
25.3754	533.32
25.3899	516.73
25.4043	541.27
25.4188	566.25
25.4332	520.22
25.4476	483.99
25.4621	514.02
25.4765	487.77
25.4910	547.38
25.5054	526.69
25.5198	534.08
25.5343	536.93
25.5487	556.43
25.5632	545.13
25.5776	550.73
25.5920	579.56
25.6065	513.26
25.6209	525.98
25.6354	545.56
25.6498	517.11
25.6642	515.13
25.6787	528.60
25.6931	517.24
25.7076	551.71
25.7220	550.88
25.7364	544.52
25.7509	512.12
25.7653	499.62
25.7798	517.97
25.7942	519.45
25.8086	508.72
25.8231	551.23
25.8375	543.63
25.8520	537.78
25.8664	537.16
25.8808	552.52
25.8953	516.41
25.9097	500.92
25.9242	521.25
25.9386	517.86
25.9530	515.07
25.9675	536.13
25.9819	540.13
25.9964	545.66
26.0108	548.53
26.0252	563.80
26.0397	537.20
26.0541	492.08
26.0686	525.38
26.0830	536.62
26.0974	504.41
26.1119	556.14
26.1263	570.14
26.1408	506.78
26.1552	538.80
26.1696	551.29
26.1841	542.64
26.1985	554.17
26.2130	558.04
26.2274	560.30
26.2418	536.28
26.2563	486.00
26.2707	516.31
26.2852	548.67
26.2996	529.21
26.3140	513.88
26.3285	496.27
26.3429	509.13
26.3574	519.95
26.3718	561.61
26.3862	518.26
26.4007	509.88
26.4151	551.35
26.4296	575.29
26.4440	546.20
26.4584	544.10
26.4729	555.46
26.4873	527.27
26.5018	516.35
26.5162	515.46
26.5306	522.61
26.5451	528.75
26.5595	515.77
26.5740	510.21
26.5884	539.38
26.6028	541.93
26.6173	555.58
26.6317	531.24
26.6462	503.43
26.6606	535.86
26.6750	545.94
26.6895	511.94
26.7039	508.38
26.7184	521.26
26.7328	527.22
26.7472	527.46
26.7617	496.28
26.7761	521.35
26.7906	548.28
26.8050	528.62
26.8194	538.26
26.8339	537.15
26.8483	504.31
26.8628	542.38
26.8772	522.05
26.8917	527.05
26.9061	537.20
26.9205	534.77
26.9350	518.94
26.9494	516.08
26.9639	534.66
26.9783	523.10
26.9927	524.42
27.0072	493.08
27.0216	499.96
27.0361	522.89
27.0505	527.73
27.0649	524.95
27.0794	514.31
27.0938	521.78
27.1083	523.55
27.1227	542.41
27.1371	498.95
27.1516	478.44
27.1660	521.43
27.1805	545.03
27.1949	505.98
27.2093	487.26
27.2238	492.35
27.2382	526.25
27.2527	497.44
27.2671	497.96
27.2815	507.66
27.2960	496.16
27.3104	526.20
27.3249	525.62
27.3393	504.88
27.3537	460.91
27.3682	487.92
27.3826	537.17
27.3971	505.75
27.4115	526.39
27.4259	591.59
27.4404	515.75
27.4548	493.95
27.4693	498.72
27.4837	514.48
27.4981	502.39
27.5126	500.88
27.5270	521.89
27.5415	505.29
27.5559	516.13
27.5703	506.36
27.5848	519.61
27.5992	534.75
27.6137	521.80
27.6281	484.99
27.6425	536.69
27.6570	502.67
27.6714	495.29
27.6859	517.65
27.7003	535.04
27.7147	529.96
27.7292	529.68
27.7436	526.88
27.7581	503.23
27.7725	478.45
27.7869	479.86
27.8014	516.94
27.8158	541.61
27.8303	491.71
27.8447	494.48
27.8591	524.62
27.8736	539.39
27.8880	494.26
27.9025	532.12
27.9169	549.14
27.9313	499.11
27.9458	545.01
27.9602	548.77
27.9747	532.63
27.9891	531.66
28.0035	511.01
28.0180	505.92
28.0324	536.56
28.0469	495.30
28.0613	515.12
28.0757	511.39
28.0902	540.36
28.1046	498.01
28.1191	509.10
28.1335	506.33
28.1479	456.67
28.1624	524.66
28.1768	509.54
28.1913	535.28
28.2057	524.23
28.2201	549.53
28.2346	506.08
28.2490	519.12
28.2635	497.10
28.2779	497.51
28.2923	501.12
28.3068	493.98
28.3212	503.93
28.3357	521.97
28.3501	506.83
28.3645	487.16
28.3790	487.06
28.3934	519.05
28.4079	527.75
28.4223	546.37
28.4367	545.81
28.4512	500.46
28.4656	513.97
28.4801	512.01
28.4945	529.73
28.5089	528.12
28.5234	550.13
28.5378	514.38
28.5523	504.93
28.5667	505.05
28.5811	515.51
28.5956	484.54
28.6100	544.11
28.6245	546.83
28.6389	511.22
28.6533	494.38
28.6678	508.85
28.6822	523.03
28.6967	477.27
28.7111	526.18
28.7255	493.86
28.7400	509.14
28.7544	519.88
28.7689	508.90
28.7833	532.29
28.7977	523.73
28.8122	531.51
28.8266	538.28
28.8411	498.61
28.8555	511.26
28.8699	537.91
28.8844	492.94
28.8988	526.46
28.9133	498.06
28.9277	500.59
28.9421	532.87
28.9566	494.30
28.9710	489.94
28.9855	504.75
28.9999	476.96
29.0143	467.09
29.0288	519.52
29.0432	452.67
29.0577	505.63
29.0721	493.50
29.0865	480.28
29.1010	521.91
29.1154	516.90
29.1299	522.43
29.1443	514.80
29.1587	529.37
29.1732	487.39
29.1876	499.89
29.2021	460.18
29.2165	514.60
29.2309	531.15
29.2454	524.72
29.2598	492.53
29.2743	477.61
29.2887	506.30
29.3031	497.70
29.3176	507.20
29.3320	537.14
29.3465	486.54
29.3609	495.88
29.3753	496.15
29.3898	494.65
29.4042	497.74
29.4187	495.66
29.4331	528.11
29.4475	541.82
29.4620	521.72
29.4764	522.08
29.4909	483.08
29.5053	488.96
29.5197	505.95
29.5342	520.48
29.5486	518.68
29.5631	503.38
29.5775	465.41
29.5919	467.38
29.6064	498.57
29.6208	497.19
29.6353	517.80
29.6497	525.85
29.6641	520.97
29.6786	463.18
29.6930	521.14
29.7075	529.84
29.7219	489.04
29.7363	511.36
29.7508	512.10
29.7652	492.87
29.7797	519.01
29.7941	490.06
29.8085	461.83
29.8230	475.89
29.8374	501.61
29.8519	499.59
29.8663	567.37
29.8807	533.60
29.8952	512.51
29.9096	505.62
29.9241	483.28
29.9385	486.32
29.9529	503.11
29.9674	515.26
29.9818	500.22
29.9963	511.76
30.0107	498.25
30.0251	515.65
30.0396	482.12
30.0540	498.89
30.0685	489.82
30.0829	527.00
30.0973	487.72
30.1118	489.52
30.1262	531.10
30.1407	515.85
30.1551	462.57
30.1695	500.16
30.1840	526.22
30.1984	493.13
30.2129	511.73
30.2273	523.81
30.2417	519.18
30.2562	502.84
30.2706	532.75
30.2851	510.14
30.2995	493.85
30.3139	511.26
30.3284	524.04
30.3428	520.51
30.3573	507.73
30.3717	513.88
30.3861	486.02
30.4006	494.55
30.4150	497.18
30.4295	523.75
30.4439	505.36
30.4583	553.76
30.4728	538.36
30.4872	531.58
30.5017	538.36
30.5161	554.98
30.5305	542.66
30.5450	531.11
30.5594	547.79
30.5739	583.58
30.5883	587.54
30.6028	605.19
30.6172	633.90
30.6316	645.60
30.6461	680.45
30.6605	680.89
30.6750	666.87
30.6894	687.25
30.7038	682.36
30.7183	718.40
30.7327	680.13
30.7472	677.98
30.7616	639.94
30.7760	667.57
30.7905	619.36
30.8049	619.22
30.8194	587.28
30.8338	559.08
30.8482	565.54
30.8627	572.39
30.8771	524.04
30.8916	543.61
30.9060	542.88
30.9204	539.16
30.9349	515.53
30.9493	515.98
30.9638	507.21
30.9782	502.11
30.9926	495.43
31.0071	527.19
31.0215	538.41
31.0360	542.83
31.0504	540.05
31.0648	502.63
31.0793	497.46
31.0937	513.61
31.1082	513.38
31.1226	530.21
31.1370	515.31
31.1515	468.60
31.1659	485.82
31.1804	512.98
31.1948	499.84
31.2092	530.22
31.2237	509.21
31.2381	513.22
31.2526	523.91
31.2670	532.96
31.2814	527.06
31.2959	487.95
31.3103	500.65
31.3248	510.51
31.3392	540.49
31.3536	509.25
31.3681	543.84
31.3825	514.98
31.3970	536.53
31.4114	506.79
31.4258	522.01
31.4403	500.88
31.4547	528.04
31.4692	507.59
31.4836	490.56
31.4980	509.05
31.5125	500.72
31.5269	506.20
31.5414	513.14
31.5558	519.63
31.5702	486.52
31.5847	489.04
31.5991	472.20
31.6136	490.29
31.6280	512.83
31.6424	525.18
31.6569	511.66
31.6713	519.26
31.6858	508.87
31.7002	494.83
31.7146	496.07
31.7291	502.79
31.7435	518.36
31.7580	498.63
31.7724	473.00
31.7868	493.73
31.8013	514.82
31.8157	510.08
31.8302	470.25
31.8446	522.95
31.8590	543.71
31.8735	506.84
31.8879	518.34
31.9024	500.21
31.9168	522.95
31.9312	532.73
31.9457	516.04
31.9601	482.45
31.9746	483.14
31.9890	511.13
32.0034	500.07
32.0179	517.79
32.0323	483.17
32.0468	499.84
32.0612	485.50
32.0756	503.78
32.0901	509.45
32.1045	506.37
32.1190	493.38
32.1334	509.31
32.1478	483.66
32.1623	514.57
32.1767	514.63
32.1912	506.13
32.2056	518.86
32.2200	496.28
32.2345	515.89
32.2489	523.53
32.2634	502.15
32.2778	504.98
32.2922	509.18
32.3067	495.17
32.3211	485.08
32.3356	518.46
32.3500	506.98
32.3644	497.39
32.3789	485.66
32.3933	483.28
32.4078	479.90
32.4222	499.57
32.4366	499.79
32.4511	476.11
32.4655	494.00
32.4800	519.69
32.4944	480.59
32.5088	502.55
32.5233	520.66
32.5377	498.90
32.5522	515.56
32.5666	465.40
32.5810	500.92
32.5955	495.41
32.6099	480.33
32.6244	510.47
32.6388	513.24
32.6532	502.32
32.6677	502.26
32.6821	496.40
32.6966	506.44
32.7110	516.21
32.7254	512.20
32.7399	471.81
32.7543	467.11
32.7688	519.54
32.7832	518.38
32.7976	516.35
32.8121	512.95
32.8265	510.39
32.8410	495.17
32.8554	507.74
32.8698	493.60
32.8843	475.27
32.8987	461.48
32.9132	476.02
32.9276	497.21
32.9420	522.33
32.9565	484.05
32.9709	487.68
32.9854	482.68
32.9998	500.79
33.0142	504.19
33.0287	505.91
33.0431	504.20
33.0576	509.85
33.0720	480.99
33.0864	509.79
33.1009	510.18
33.1153	514.57
33.1298	504.31
33.1442	474.06
33.1586	487.37
33.1731	517.70
33.1875	475.61
33.2020	489.27
33.2164	525.97
33.2308	509.87
33.2453	573.44
33.2597	471.68
33.2742	493.69
33.2886	501.16
33.3030	484.52
33.3175	531.92
33.3319	505.40
33.3464	510.91
33.3608	489.89
33.3752	498.10
33.3897	490.69
33.4041	499.36
33.4186	517.86
33.4330	502.57
33.4474	500.41
33.4619	501.92
33.4763	528.52
33.4908	483.04
33.5052	481.31
33.5196	498.22
33.5341	521.93
33.5485	487.98
33.5630	546.30
33.5774	507.83
33.5918	515.11
33.6063	519.06
33.6207	526.61
33.6352	536.14
33.6496	511.47
33.6640	520.77
33.6785	516.72
33.6929	510.77
33.7074	538.20
33.7218	505.26
33.7362	471.19
33.7507	468.98
33.7651	515.08
33.7796	536.29
33.7940	476.61
33.8084	520.14
33.8229	508.12
33.8373	529.22
33.8518	529.48
33.8662	523.95
33.8806	541.47
33.8951	496.62
33.9095	508.13
33.9240	479.06
33.9384	495.53
33.9528	517.86
33.9673	488.46
33.9817	484.27
33.9962	525.00
34.0106	479.11
34.0250	449.37
34.0395	527.18
34.0539	462.13
34.0684	469.11
34.0828	519.59
34.0972	506.07
34.1117	493.49
34.1261	518.88
34.1406	527.55
34.1550	503.84
34.1694	509.17
34.1839	508.25
34.1983	503.05
34.2128	489.45
34.2272	523.85
34.2417	515.95
34.2561	524.53
34.2705	510.07
34.2850	512.44
34.2994	518.02
34.3139	507.37
34.3283	497.29
34.3427	503.41
34.3572	510.26
34.3716	492.29
34.3861	532.61
34.4005	490.48
34.4149	496.20
34.4294	506.88
34.4438	508.68
34.4583	502.89
34.4727	507.75
34.4871	502.38
34.5016	503.99
34.5160	505.26
34.5305	521.81
34.5449	504.94
34.5593	514.16
34.5738	511.03
34.5882	489.61
34.6027	474.20
34.6171	515.63
34.6315	499.44
34.6460	509.22
34.6604	523.04
34.6749	500.73
34.6893	468.48
34.7037	497.97
34.7182	516.94
34.7326	492.46
34.7471	509.00
34.7615	484.98
34.7759	476.44
34.7904	490.67
34.8048	493.27
34.8193	503.57
34.8337	498.45
34.8481	499.62
34.8626	520.00
34.8770	493.49
34.8915	503.18
34.9059	512.48
34.9203	499.82
34.9348	504.34
34.9492	482.82
34.9637	488.24
34.9781	492.08
34.9925	489.84
35.0070	493.23
35.0214	476.03
35.0359	481.94
35.0503	523.09
35.0647	537.10
35.0792	521.74
35.0936	503.81
35.1081	503.89
35.1225	508.78
35.1369	514.03
35.1514	503.68
35.1658	506.98
35.1803	506.67
35.1947	489.98
35.2091	479.61
35.2236	513.94
35.2380	523.23
35.2525	502.43
35.2669	511.99
35.2813	472.39
35.2958	467.15
35.3102	493.65
35.3247	504.35
35.3391	505.25
35.3535	491.42
35.3680	518.34
35.3824	512.87
35.3969	508.22
35.4113	519.20
35.4257	543.50
35.4402	529.20
35.4546	490.59
35.4691	519.48
35.4835	507.44
35.4979	500.57
35.5124	534.05
35.5268	564.96
35.5413	533.93
35.5557	573.56
35.5701	519.59
35.5846	515.69
35.5990	532.95
35.6135	534.31
35.6279	546.94
35.6423	538.34
35.6568	514.66
35.6712	565.84
35.6857	588.28
35.7001	658.56
35.7145	717.18
35.7290	681.67
35.7434	603.05
35.7579	591.71
35.7723	642.25
35.7867	671.81
35.8012	713.01
35.8156	729.94
35.8301	693.62
35.8445	665.81
35.8589	697.26
35.8734	776.93
35.8878	823.12
35.9023	973.42
35.9167	1028.78
35.9311	1198.82
35.9456	1608.80
35.9600	2019.44
35.9745	1939.54
35.9889	2123.09
36.0033	2506.11
36.0178	3034.35
36.0322	3049.46
36.0467	2234.56
36.0611	1966.16
36.0755	1948.58
36.0900	1894.85
36.1044	1821.27
36.1189	1656.65
36.1333	1610.73
36.1477	1466.82
36.1622	1409.64
36.1766	1307.90
36.1911	1162.05
36.2055	1058.61
36.2199	1009.23
36.2344	926.04
36.2488	840.91
36.2633	793.89
36.2777	762.52
36.2921	704.26
36.3066	648.03
36.3210	600.67
36.3355	641.60
36.3499	612.93
36.3643	535.94
36.3788	577.25
36.3932	525.29
36.4077	535.39
36.4221	593.25
36.4365	590.13
36.4510	555.38
36.4654	549.97
36.4799	551.21
36.4943	539.29
36.5087	532.29
36.5232	506.17
36.5376	550.38
36.5521	539.87
36.5665	496.71
36.5809	505.44
36.5954	504.77
36.6098	539.42
36.6243	520.08
36.6387	522.19
36.6531	542.91
36.6676	524.02
36.6820	533.47
36.6965	524.42
36.7109	524.83
36.7253	500.08
36.7398	490.63
36.7542	578.34
36.7687	515.13
36.7831	537.85
36.7975	532.56
36.8120	557.22
36.8264	581.28
36.8409	586.57
36.8553	601.93
36.8697	601.09
36.8842	564.64
36.8986	624.09
36.9131	611.61
36.9275	596.36
36.9419	599.16
36.9564	554.47
36.9708	574.73
36.9853	575.13
36.9997	537.92
37.0141	508.60
37.0286	540.92
37.0430	526.54
37.0575	548.78
37.0719	550.69
37.0863	579.99
37.1008	534.79
37.1152	489.06
37.1297	509.72
37.1441	491.26
37.1585	504.54
37.1730	501.40
37.1874	519.09
37.2019	511.24
37.2163	489.26
37.2307	508.41
37.2452	520.48
37.2596	483.79
37.2741	514.19
37.2885	495.65
37.3029	494.92
37.3174	508.15
37.3318	509.72
37.3463	513.69
37.3607	514.79
37.3751	517.48
37.3896	470.14
37.4040	474.74
37.4185	502.72
37.4329	566.93
37.4473	525.35
37.4618	498.33
37.4762	533.14
37.4907	518.63
37.5051	497.85
37.5195	514.51
37.5340	490.17
37.5484	480.79
37.5629	489.79
37.5773	485.27
37.5917	492.40
37.6062	516.66
37.6206	499.72
37.6351	530.08
37.6495	512.45
37.6639	495.75
37.6784	484.31
37.6928	516.07
37.7073	535.83
37.7217	519.38
37.7361	489.68
37.7506	502.13
37.7650	497.73
37.7795	509.30
37.7939	526.08
37.8083	477.69
37.8228	499.28
37.8372	510.67
37.8517	514.78
37.8661	529.91
37.8805	547.77
37.8950	511.76
37.9094	520.21
37.9239	496.39
37.9383	499.42
37.9528	478.07
37.9672	455.16
37.9816	522.15
37.9961	515.08
38.0105	521.67
38.0250	519.22
38.0394	532.87
38.0538	489.58
38.0683	515.49
38.0827	490.38
38.0972	504.13
38.1116	491.56
38.1260	528.86
38.1405	485.74
38.1549	485.01
38.1694	506.53
38.1838	528.16
38.1982	525.85
38.2127	483.47
38.2271	518.81
38.2416	504.83
38.2560	511.46
38.2704	503.56
38.2849	480.97
38.2993	470.58
38.3138	502.67
38.3282	520.52
38.3426	531.48
38.3571	524.44
38.3715	532.12
38.3860	557.82
38.4004	537.16
38.4148	576.22
38.4293	585.27
38.4437	581.04
38.4582	603.83
38.4726	676.20
38.4870	680.82
38.5015	715.26
38.5159	744.00
38.5304	803.73
38.5448	806.17
38.5592	796.89
38.5737	772.09
38.5881	751.37
38.6026	749.12
38.6170	734.73
38.6314	691.40
38.6459	707.87
38.6603	663.04
38.6748	625.62
38.6892	572.27
38.7036	565.48
38.7181	545.61
38.7325	513.34
38.7470	499.40
38.7614	481.14
38.7758	503.01
38.7903	505.15
38.8047	504.84
38.8192	543.57
38.8336	501.52
38.8480	485.12
38.8625	501.45
38.8769	517.08
38.8914	512.55
38.9058	544.47
38.9202	488.32
38.9347	493.04
38.9491	494.86
38.9636	482.64
38.9780	492.28
38.9924	491.04
39.0069	485.03
39.0213	509.80
39.0358	489.20
39.0502	503.66
39.0646	498.37
39.0791	498.56
39.0935	500.88
39.1080	491.02
39.1224	506.75
39.1368	530.42
39.1513	479.40
39.1657	504.54
39.1802	518.55
39.1946	499.00
39.2090	491.43
39.2235	506.47
39.2379	537.26
39.2524	533.99
39.2668	499.59
39.2812	483.53
39.2957	519.48
39.3101	522.65
39.3246	513.71
39.3390	512.09
39.3534	481.86
39.3679	475.80
39.3823	469.90
39.3968	500.86
39.4112	508.71
39.4256	544.19
39.4401	498.06
39.4545	475.36
39.4690	505.04
39.4834	519.45
39.4978	498.26
39.5123	475.85
39.5267	535.06
39.5412	520.22
39.5556	502.09
39.5700	482.14
39.5845	499.37
39.5989	494.55
39.6134	498.28
39.6278	512.86
39.6422	486.77
39.6567	501.18
39.6711	527.62
39.6856	491.89
39.7000	497.53
39.7144	518.31
39.7289	487.85
39.7433	508.59
39.7578	486.08
39.7722	522.32
39.7866	518.83
39.8011	507.12
39.8155	502.27
39.8300	482.26
39.8444	448.70
39.8588	483.19
39.8733	512.48
39.8877	519.65
39.9022	479.52
39.9166	456.81
39.9310	486.97
39.9455	522.67
39.9599	488.55
39.9744	484.78
39.9888	498.46
40.0032	540.96
40.0177	501.29
40.0321	505.14
40.0466	511.73
40.0610	527.15
40.0754	501.05
40.0899	512.24
40.1043	497.01
40.1188	459.75
40.1332	520.74
40.1476	485.60
40.1621	481.94
40.1765	495.48
40.1910	484.14
40.2054	498.05
40.2198	522.20
40.2343	501.20
40.2487	502.25
40.2632	454.16
40.2776	462.85
40.2920	493.55
40.3065	495.99
40.3209	476.85
40.3354	483.16
40.3498	548.19
40.3642	510.35
40.3787	516.91
40.3931	538.21
40.4076	482.09
40.4220	500.32
40.4364	491.90
40.4509	463.55
40.4653	466.64
40.4798	494.95
40.4942	482.55
40.5086	478.09
40.5231	470.91
40.5375	489.78
40.5520	500.72
40.5664	469.20
40.5808	484.27
40.5953	496.90
40.6097	506.84
40.6242	477.37
40.6386	490.78
40.6530	490.53
40.6675	479.66
40.6819	500.77
40.6964	501.91
40.7108	534.66
40.7252	493.47
40.7397	507.20
40.7541	523.66
40.7686	525.13
40.7830	504.17
40.7974	491.99
40.8119	511.79
40.8263	491.39
40.8408	528.97
40.8552	518.15
40.8696	495.00
40.8841	479.60
40.8985	547.24
40.9130	516.60
40.9274	470.93
40.9418	525.97
40.9563	509.70
40.9707	505.60
40.9852	505.49
40.9996	474.71
41.0140	486.93
41.0285	451.30
41.0429	488.41
41.0574	472.63
41.0718	481.74
41.0862	534.52
41.1007	500.33
41.1151	487.21
41.1296	513.37
41.1440	515.74
41.1584	508.81
41.1729	506.15
41.1873	480.07
41.2018	463.49
41.2162	485.86
41.2306	487.95
41.2451	482.38
41.2595	511.17
41.2740	477.54
41.2884	480.65
41.3028	505.75
41.3173	522.48
41.3317	551.12
41.3462	519.87
41.3606	472.01
41.3750	495.09
41.3895	477.06
41.4039	500.30
41.4184	490.12
41.4328	511.52
41.4472	513.15
41.4617	506.76
41.4761	509.54
41.4906	524.36
41.5050	496.69
41.5194	487.77
41.5339	497.52
41.5483	502.76
41.5628	511.05
41.5772	488.60
41.5916	531.29
41.6061	484.12
41.6205	508.67
41.6350	535.67
41.6494	490.99
41.6639	499.30
41.6783	461.45
41.6927	467.19
41.7072	510.14
41.7216	510.64
41.7361	489.14
41.7505	504.60
41.7649	481.39
41.7794	480.50
41.7938	505.26
41.8083	489.61
41.8227	452.71
41.8371	530.76
41.8516	482.22
41.8660	529.78
41.8805	540.79
41.8949	573.79
41.9093	538.53
41.9238	507.61
41.9382	546.81
41.9527	575.79
41.9671	565.87
41.9815	551.79
41.9960	528.53
42.0104	570.24
42.0249	598.61
42.0393	591.88
42.0537	619.73
42.0682	600.12
42.0826	578.25
42.0971	602.26
42.1115	559.40
42.1259	602.54
42.1404	602.37
42.1548	585.14
42.1693	660.31
42.1837	752.57
42.1981	718.80
42.2126	831.96
42.2270	958.24
42.2415	1061.53
42.2559	1182.64
42.2703	1385.61
42.2848	1509.20
42.2992	1628.39
42.3137	1716.02
42.3281	1703.89
42.3425	1587.98
42.3570	1493.42
42.3714	1445.26
42.3859	1357.54
42.4003	1355.15
42.4147	1361.70
42.4292	1304.83
42.4436	1164.31
42.4581	1048.61
42.4725	975.16
42.4869	879.97
42.5014	748.53
42.5158	711.66
42.5303	660.64
42.5447	633.56
42.5591	639.07
42.5736	592.76
42.5880	585.24
42.6025	570.42
42.6169	581.77
42.6313	556.69
42.6458	554.39
42.6602	530.21
42.6747	502.42
42.6891	515.31
42.7035	533.31
42.7180	527.47
42.7324	496.09
42.7469	555.35
42.7613	509.06
42.7757	509.54
42.7902	508.15
42.8046	522.44
42.8191	534.50
42.8335	523.95
42.8479	509.14
42.8624	525.87
42.8768	510.08
42.8913	508.52
42.9057	513.24
42.9201	525.35
42.9346	498.35
42.9490	511.16
42.9635	536.62
42.9779	530.75
42.9923	523.45
43.0068	530.90
43.0212	495.24
43.0357	496.86
43.0501	517.25
43.0645	544.15
43.0790	532.02
43.0934	535.57
43.1079	532.51
43.1223	505.32
43.1367	494.42
43.1512	509.51
43.1656	512.25
43.1801	529.91
43.1945	519.60
43.2089	515.69
43.2234	531.87
43.2378	522.53
43.2523	512.28
43.2667	529.31
43.2811	529.32
43.2956	491.85
43.3100	501.76
43.3245	511.79
43.3389	530.10
43.3533	527.56
43.3678	530.17
43.3822	540.30
43.3967	491.01
43.4111	502.46
43.4255	534.35
43.4400	512.33
43.4544	512.52
43.4689	528.19
43.4833	542.51
43.4977	492.28
43.5122	480.94
43.5266	535.17
43.5411	512.16
43.5555	473.91
43.5699	499.44
43.5844	510.78
43.5988	517.15
43.6133	515.24
43.6277	546.97
43.6421	529.47
43.6566	508.74
43.6710	526.71
43.6855	520.36
43.6999	550.40
43.7143	550.41
43.7288	537.01
43.7432	555.28
43.7577	558.08
43.7721	568.52
43.7865	580.44
43.8010	557.79
43.8154	602.46
43.8299	638.91
43.8443	655.72
43.8587	664.40
43.8732	666.10
43.8876	600.83
43.9021	680.45
43.9165	684.49
43.9309	626.97
43.9454	622.16
43.9598	581.51
43.9743	610.40
43.9887	610.60
44.0031	591.89
44.0176	595.83
44.0320	608.22
44.0465	547.22
44.0609	557.90
44.0753	568.09
44.0898	572.11
44.1042	556.83
44.1187	545.29
44.1331	517.31
44.1475	509.78
44.1620	546.44
44.1764	532.75
44.1909	523.03
44.2053	543.91
44.2197	540.33
44.2342	518.79
44.2486	501.97
44.2631	504.51
44.2775	544.80
44.2919	519.02
44.3064	531.78
44.3208	546.51
44.3353	534.77
44.3497	525.46
44.3641	549.23
44.3786	525.40
44.3930	565.01
44.4075	544.31
44.4219	585.46
44.4363	574.57
44.4508	590.78
44.4652	564.72
44.4797	568.55
44.4941	567.01
44.5085	569.50
44.5230	566.02
44.5374	588.36
44.5519	597.17
44.5663	628.49
44.5807	594.25
44.5952	587.45
44.6096	582.62
44.6241	578.24
44.6385	593.91
44.6529	559.41
44.6674	577.02
44.6818	580.63
44.6963	623.83
44.7107	639.53
44.7251	655.66
44.7396	715.46
44.7540	792.32
44.7685	825.41
44.7829	842.96
44.7973	863.43
44.8118	879.24
44.8262	836.70
44.8407	770.92
44.8551	753.50
44.8695	735.94
44.8840	722.78
44.8984	746.15
44.9129	745.02
44.9273	722.52
44.9417	662.36
44.9562	627.67
44.9706	561.78
44.9851	528.58
44.9995	519.63
45.0139	505.57
45.0284	556.02
45.0428	536.50
45.0573	567.56
45.0717	493.84
45.0861	557.80
45.1006	544.90
45.1150	501.49
45.1295	507.60
45.1439	540.21
45.1583	527.48
45.1728	525.33
45.1872	523.44
45.2017	525.91
45.2161	514.77
45.2305	512.14
45.2450	523.65
45.2594	503.49
45.2739	495.76
45.2883	503.33
45.3028	489.03
45.3172	496.95
45.3316	482.28
45.3461	511.22
45.3605	505.46
45.3750	510.33
45.3894	482.73
45.4038	511.71
45.4183	522.07
45.4327	531.77
45.4472	486.94
45.4616	489.04
45.4760	529.58
45.4905	536.10
45.5049	509.83
45.5194	489.93
45.5338	449.28
45.5482	474.31
45.5627	539.42
45.5771	501.18
45.5916	505.44
45.6060	497.64
45.6204	501.37
45.6349	506.76
45.6493	493.87
45.6638	504.97
45.6782	508.58
45.6926	487.76
45.7071	512.92
45.7215	481.73
45.7360	491.12
45.7504	509.15
45.7648	495.31
45.7793	492.13
45.7937	514.70
45.8082	514.37
45.8226	516.12
45.8370	517.46
45.8515	478.52
45.8659	503.06
45.8804	520.98
45.8948	531.42
45.9092	489.00
45.9237	517.77
45.9381	522.80
45.9526	509.83
45.9670	554.07
45.9814	503.48
45.9959	452.86
46.0103	520.21
46.0248	533.35
46.0392	481.29
46.0536	519.08
46.0681	515.64
46.0825	487.75
46.0970	488.64
46.1114	491.42
46.1258	515.44
46.1403	521.34
46.1547	484.78
46.1692	491.51
46.1836	515.71
46.1980	514.93
46.2125	522.96
46.2269	486.80
46.2414	498.35
46.2558	495.15
46.2702	513.35
46.2847	510.18
46.2991	536.58
46.3136	520.43
46.3280	512.80
46.3424	508.93
46.3569	491.43
46.3713	483.19
46.3858	486.67
46.4002	480.35
46.4146	478.78
46.4291	537.86
46.4435	504.76
46.4580	508.17
46.4724	515.09
46.4868	516.51
46.5013	498.86
46.5157	472.11
46.5302	476.67
46.5446	458.43
46.5590	494.83
46.5735	483.27
46.5879	495.22
46.6024	503.95
46.6168	486.13
46.6312	474.77
46.6457	488.80
46.6601	512.32
46.6746	505.02
46.6890	497.08
46.7034	485.27
46.7179	501.35
46.7323	485.25
46.7468	512.85
46.7612	513.81
46.7756	514.58
46.7901	507.76
46.8045	502.78
46.8190	517.16
46.8334	533.86
46.8478	527.65
46.8623	518.39
46.8767	492.72
46.8912	488.05
46.9056	500.27
46.9200	483.09
46.9345	503.25
46.9489	484.85
46.9634	503.40
46.9778	498.22
46.9922	471.03
47.0067	510.02
47.0211	513.68
47.0356	515.37
47.0500	516.23
47.0644	495.53
47.0789	493.55
47.0933	503.80
47.1078	495.78
47.1222	513.08
47.1366	517.68
47.1511	523.56
47.1655	501.65
47.1800	516.58
47.1944	485.47
47.2088	521.80
47.2233	504.46
47.2377	516.63
47.2522	497.27
47.2666	510.79
47.2810	511.56
47.2955	494.19
47.3099	514.67
47.3244	539.07
47.3388	536.62
47.3532	526.35
47.3677	526.62
47.3821	497.60
47.3966	485.53
47.4110	485.95
47.4254	500.59
47.4399	497.60
47.4543	497.64
47.4688	495.29
47.4832	531.40
47.4976	493.89
47.5121	453.99
47.5265	495.82
47.5410	526.14
47.5554	526.97
47.5698	493.32
47.5843	490.76
47.5987	482.31
47.6132	498.73
47.6276	477.37
47.6420	477.10
47.6565	489.97
47.6709	498.87
47.6854	498.50
47.6998	522.35
47.7142	495.90
47.7287	499.66
47.7431	525.53
47.7576	522.29
47.7720	517.66
47.7864	502.67
47.8009	508.95
47.8153	499.86
47.8298	484.51
47.8442	489.49
47.8586	493.11
47.8731	523.60
47.8875	500.13
47.9020	483.80
47.9164	487.36
47.9308	476.00
47.9453	507.22
47.9597	516.19
47.9742	523.20
47.9886	517.87
48.0030	485.13
48.0175	484.23
48.0319	500.93
48.0464	510.35
48.0608	511.22
48.0752	565.29
48.0897	582.99
48.1041	513.98
48.1186	510.11
48.1330	513.36
48.1474	487.10
48.1619	474.24
48.1763	507.89
48.1908	510.93
48.2052	518.10
48.2196	528.49
48.2341	510.41
48.2485	457.43
48.2630	491.25
48.2774	520.79
48.2918	500.33
48.3063	518.32
48.3207	558.24
48.3352	547.17
48.3496	481.80
48.3640	527.69
48.3785	542.70
48.3929	507.38
48.4074	489.31
48.4218	498.61
48.4362	523.96
48.4507	492.57
48.4651	515.15
48.4796	526.30
48.4940	503.32
48.5084	487.90
48.5229	525.70
48.5373	533.92
48.5518	527.01
48.5662	505.15
48.5806	487.79
48.5951	499.47
48.6095	524.20
48.6240	516.01
48.6384	530.64
48.6528	512.39
48.6673	527.22
48.6817	495.75
48.6962	510.27
48.7106	555.11
48.7250	521.92
48.7395	495.55
48.7539	504.63
48.7684	493.13
48.7828	538.71
48.7972	504.02
48.8117	515.48
48.8261	499.95
48.8406	515.19
48.8550	560.78
48.8694	558.61
48.8839	536.66
48.8983	541.04
48.9128	525.94
48.9272	537.68
48.9416	582.42
48.9561	594.16
48.9705	566.50
48.9850	577.60
48.9994	576.68
49.0139	558.39
49.0283	615.68
49.0427	602.59
49.0572	659.29
49.0716	603.56
49.0861	638.64
49.1005	677.48
49.1149	692.36
49.1294	773.99
49.1438	758.06
49.1583	812.00
49.1727	870.49
49.1871	872.63
49.2016	965.95
49.2160	1070.56
49.2305	1111.02
49.2449	1213.19
49.2593	1254.41
49.2738	1335.40
49.2882	1490.66
49.3027	1572.61
49.3171	1679.07
49.3315	1807.00
49.3460	1765.15
49.3604	1806.66
49.3749	1809.96
49.3893	1793.01
49.4037	1832.55
49.4182	1782.16
49.4326	1840.96
49.4471	1746.94
49.4615	1581.68
49.4759	1604.20
49.4904	1550.00
49.5048	1426.06
49.5193	1332.38
49.5337	1328.43
49.5481	1249.12
49.5626	1130.27
49.5770	1091.00
49.5915	994.37
49.6059	973.14
49.6203	904.77
49.6348	820.22
49.6492	755.05
49.6637	734.22
49.6781	700.35
49.6925	697.97
49.7070	667.59
49.7214	625.37
49.7359	630.87
49.7503	586.11
49.7647	617.67
49.7792	581.91
49.7936	584.88
49.8081	584.70
49.8225	575.93
49.8369	594.01
49.8514	600.51
49.8658	571.18
49.8803	547.85
49.8947	562.70
49.9091	540.48
49.9236	525.60
49.9380	558.25
49.9525	541.70
49.9669	528.93
49.9813	532.36
49.9958	533.00
50.0102	517.59
50.0247	532.88
50.0391	495.23
50.0535	523.08
50.0680	547.03
50.0824	514.70
50.0969	535.84
50.1113	521.60
50.1257	516.85
50.1402	532.86
50.1546	494.73
50.1691	521.37
50.1835	475.42
50.1979	491.49
50.2124	550.18
50.2268	550.37
50.2413	495.60
50.2557	507.22
50.2701	510.70
50.2846	517.61
50.2990	511.59
50.3135	521.91
50.3279	496.31
50.3423	496.68
50.3568	494.79
50.3712	488.19
50.3857	490.92
50.4001	500.70
50.4145	528.81
50.4290	541.87
50.4434	485.12
50.4579	493.66
50.4723	496.05
50.4867	494.82
50.5012	491.49
50.5156	488.78
50.5301	506.24
50.5445	513.62
50.5589	535.59
50.5734	528.21
50.5878	506.28
50.6023	519.37
50.6167	503.85
50.6311	506.32
50.6456	519.74
50.6600	515.10
50.6745	492.42
50.6889	505.25
50.7033	518.49
50.7178	494.70
50.7322	530.31
50.7467	489.86
50.7611	494.93
50.7755	502.85
50.7900	505.52
50.8044	524.51
50.8189	472.16
50.8333	478.01
50.8477	463.07
50.8622	490.20
50.8766	525.39
50.8911	509.35
50.9055	508.99
50.9199	518.44
50.9344	502.57
50.9488	501.76
50.9633	475.66
50.9777	506.25
50.9921	518.62
51.0066	524.68
51.0210	508.03
51.0355	469.10
51.0499	492.26
51.0643	494.48
51.0788	505.11
51.0932	521.78
51.1077	502.79
51.1221	485.99
51.1365	513.92
51.1510	478.63
51.1654	502.12
51.1799	547.76
51.1943	511.37
51.2087	503.31
51.2232	540.38
51.2376	532.53
51.2521	491.90
51.2665	510.20
51.2809	519.05
51.2954	502.84
51.3098	473.02
51.3243	490.60
51.3387	508.61
51.3531	505.76
51.3676	493.73
51.3820	479.75
51.3965	475.12
51.4109	460.69
51.4253	499.26
51.4398	490.52
51.4542	507.70
51.4687	513.87
51.4831	518.03
51.4975	511.00
51.5120	515.17
51.5264	542.01
51.5409	517.03
51.5553	522.18
51.5697	496.29
51.5842	534.94
51.5986	516.85
51.6131	497.98
51.6275	512.95
51.6419	522.27
51.6564	496.01
51.6708	506.71
51.6853	498.89
51.6997	514.85
51.7141	554.14
51.7286	488.64
51.7430	492.55
51.7575	514.13
51.7719	503.26
51.7863	492.76
51.8008	486.87
51.8152	507.01
51.8297	486.56
51.8441	487.27
51.8585	520.37
51.8730	538.10
51.8874	506.60
51.9019	491.43
51.9163	504.92
51.9307	503.37
51.9452	513.54
51.9596	495.16
51.9741	507.85
51.9885	533.64
52.0029	543.20
52.0174	528.70
52.0318	529.18
52.0463	512.22
52.0607	529.78
52.0751	519.19
52.0896	542.52
52.1040	502.73
52.1185	520.44
52.1329	496.98
52.1473	478.49
52.1618	511.62
52.1762	529.12
52.1907	518.72
52.2051	500.82
52.2195	494.27
52.2340	514.13
52.2484	552.89
52.2629	542.01
52.2773	507.55
52.2917	502.52
52.3062	482.25
52.3206	526.31
52.3351	498.85
52.3495	504.87
52.3639	538.05
52.3784	505.87
52.3928	494.03
52.4073	493.10
52.4217	517.16
52.4361	508.84
52.4506	489.52
52.4650	538.24
52.4795	522.95
52.4939	512.07
52.5083	517.87
52.5228	509.23
52.5372	497.41
52.5517	520.13
52.5661	491.10
52.5805	518.07
52.5950	502.05
52.6094	537.42
52.6239	527.20
52.6383	520.73
52.6527	529.66
52.6672	528.83
52.6816	512.95
52.6961	467.21
52.7105	490.23
52.7250	492.06
52.7394	508.12
52.7538	520.63
52.7683	491.54
52.7827	491.26
52.7972	501.21
52.8116	548.31
52.8260	508.79
52.8405	515.09
52.8549	524.94
52.8694	487.49
52.8838	494.11
52.8982	543.20
52.9127	525.65
52.9271	478.38
52.9416	528.11
52.9560	498.28
52.9704	502.45
52.9849	485.15
52.9993	525.41
53.0138	494.97
53.0282	493.80
53.0426	498.47
53.0571	498.27
53.0715	534.68
53.0860	535.24
53.1004	494.01
53.1148	504.98
53.1293	501.13
53.1437	482.98
53.1582	500.00
53.1726	541.26
53.1870	501.60
53.2015	514.34
53.2159	491.33
53.2304	500.56
53.2448	494.63
53.2592	501.26
53.2737	535.14
53.2881	464.96
53.3026	516.68
53.3170	517.02
53.3314	516.99
53.3459	492.82
53.3603	524.94
53.3748	534.82
53.3892	516.93
53.4036	497.90
53.4181	511.91
53.4325	559.88
53.4470	516.12
53.4614	516.44
53.4758	530.53
53.4903	506.85
53.5047	490.16
53.5192	533.97
53.5336	481.45
53.5480	507.35
53.5625	523.44
53.5769	467.64
53.5914	488.92
53.6058	498.71
53.6202	503.50
53.6347	516.04
53.6491	520.66
53.6636	534.70
53.6780	525.58
53.6924	496.96
53.7069	531.53
53.7213	513.51
53.7358	511.40
53.7502	522.97
53.7646	501.54
53.7791	505.21
53.7935	494.85
53.8080	503.34
53.8224	528.36
53.8368	560.25
53.8513	509.55
53.8657	536.59
53.8802	521.34
53.8946	550.61
53.9090	540.88
53.9235	517.45
53.9379	504.51
53.9524	505.14
53.9668	506.53
53.9812	505.43
53.9957	511.58
54.0101	517.90
54.0246	503.93
54.0390	505.18
54.0534	503.04
54.0679	514.72
54.0823	502.41
54.0968	547.12
54.1112	526.20
54.1256	525.06
54.1401	489.10
54.1545	511.29
54.1690	555.09
54.1834	542.45
54.1978	513.56
54.2123	501.74
54.2267	519.57
54.2412	504.82
54.2556	502.21
54.2700	528.14
54.2845	539.11
54.2989	501.77
54.3134	538.01
54.3278	570.46
54.3422	561.77
54.3567	545.65
54.3711	565.81
54.3856	559.57
54.4000	585.38
54.4144	592.45
54.4289	627.95
54.4433	592.75
54.4578	562.85
54.4722	610.38
54.4866	622.60
54.5011	595.51
54.5155	580.49
54.5300	559.13
54.5444	544.81
54.5588	608.70
54.5733	578.89
54.5877	582.63
54.6022	607.42
54.6166	586.11
54.6310	604.53
54.6455	584.29
54.6599	548.66
54.6744	561.57
54.6888	538.16
54.7032	525.05
54.7177	548.74
54.7321	529.34
54.7466	520.51
54.7610	477.82
54.7754	509.54
54.7899	560.76
54.8043	537.94
54.8188	545.27
54.8332	525.90
54.8476	506.00
54.8621	540.87
54.8765	523.09
54.8910	500.28
54.9054	525.04
54.9198	535.67
54.9343	524.23
54.9487	518.55
54.9632	512.43
54.9776	534.28
54.9920	534.39
55.0065	529.95
55.0209	535.55
55.0354	533.82
55.0498	499.22
55.0642	536.36
55.0787	524.13
55.0931	536.04
55.1076	510.17
55.1220	533.91
55.1364	523.29
55.1509	523.71
55.1653	538.55
55.1798	533.15
55.1942	517.38
55.2086	517.07
55.2231	525.52
55.2375	531.77
55.2520	490.74
55.2664	509.77
55.2808	520.89
55.2953	514.30
55.3097	520.08
55.3242	499.55
55.3386	526.45
55.3530	528.35
55.3675	498.86
55.3819	501.92
55.3964	518.33
55.4108	537.48
55.4252	556.51
55.4397	533.80
55.4541	540.91
55.4686	548.81
55.4830	518.59
55.4974	511.70
55.5119	503.99
55.5263	510.18
55.5408	507.21
55.5552	558.52
55.5696	525.91
55.5841	492.35
55.5985	486.95
55.6130	515.71
55.6274	537.52
55.6418	553.47
55.6563	522.38
55.6707	479.67
55.6852	508.56
55.6996	497.86
55.7140	519.53
55.7285	506.74
55.7429	501.22
55.7574	504.13
55.7718	523.33
55.7862	536.68
55.8007	501.70
55.8151	526.14
55.8296	533.52
55.8440	526.88
55.8584	524.95
55.8729	513.55
55.8873	506.39
55.9018	569.22
55.9162	530.37
55.9306	489.56
55.9451	484.44
55.9595	496.64
55.9740	489.45
55.9884	508.34
56.0028	522.07
56.0173	554.89
56.0317	495.99
56.0462	523.78
56.0606	530.97
56.0750	532.49
56.0895	519.96
56.1039	477.15
56.1184	508.30
56.1328	523.03
56.1472	475.76
56.1617	525.19
56.1761	535.77
56.1906	514.54
56.2050	537.73
56.2194	520.59
56.2339	537.50
56.2483	520.41
56.2628	533.47
56.2772	529.56
56.2916	533.35
56.3061	494.18
56.3205	542.83
56.3350	548.12
56.3494	526.31
56.3639	479.48
56.3783	493.24
56.3927	469.10
56.4072	480.34
56.4216	538.05
56.4361	505.42
56.4505	508.67
56.4649	504.85
56.4794	495.12
56.4938	528.39
56.5083	530.27
56.5227	546.25
56.5371	544.00
56.5516	517.41
56.5660	553.98
56.5805	536.17
56.5949	540.85
56.6093	529.67
56.6238	519.77
56.6382	511.81
56.6527	547.24
56.6671	527.89
56.6815	489.36
56.6960	543.22
56.7104	513.29
56.7249	545.88
56.7393	477.78
56.7537	493.28
56.7682	499.64
56.7826	516.70
56.7971	514.05
56.8115	546.19
56.8259	536.60
56.8404	511.99
56.8548	501.45
56.8693	515.96
56.8837	486.73
56.8981	546.08
56.9126	531.56
56.9270	529.54
56.9415	566.35
56.9559	515.93
56.9703	497.07
56.9848	521.52
56.9992	499.09
57.0137	501.47
57.0281	533.93
57.0425	518.09
57.0570	572.09
57.0714	524.74
57.0859	502.67
57.1003	525.67
57.1147	524.74
57.1292	540.11
57.1436	489.91
57.1581	516.90
57.1725	548.82
57.1869	534.32
57.2014	542.19
57.2158	522.34
57.2303	524.28
57.2447	531.45
57.2591	556.16
57.2736	531.00
57.2880	522.67
57.3025	502.20
57.3169	517.15
57.3313	527.86
57.3458	535.87
57.3602	536.63
57.3747	480.69
57.3891	505.03
57.4035	489.53
57.4180	496.33
57.4324	527.83
57.4469	538.14
57.4613	548.02
57.4757	531.14
57.4902	560.77
57.5046	542.46
57.5191	532.78
57.5335	503.04
57.5479	513.84
57.5624	527.07
57.5768	504.76
57.5913	542.42
57.6057	507.60
57.6201	552.53
57.6346	499.63
57.6490	506.49
57.6635	514.97
57.6779	523.70
57.6923	499.50
57.7068	559.40
57.7212	505.18
57.7357	490.65
57.7501	507.68
57.7645	500.25
57.7790	517.59
57.7934	519.55
57.8079	571.36
57.8223	561.30
57.8367	549.79
57.8512	577.18
57.8656	609.08
57.8801	552.49
57.8945	551.14
57.9089	594.01
57.9234	564.81
57.9378	626.79
57.9523	620.33
57.9667	596.23
57.9811	578.75
57.9956	615.66
58.0100	631.65
58.0245	679.41
58.0389	668.32
58.0533	698.42
58.0678	673.19
58.0822	654.06
58.0967	666.22
58.1111	666.76
58.1255	676.50
58.1400	621.60
58.1544	631.55
58.1689	643.79
58.1833	639.61
58.1977	652.61
58.2122	623.60
58.2266	605.81
58.2411	617.64
58.2555	620.85
58.2699	624.93
58.2844	617.86
58.2988	621.10
58.3133	604.84
58.3277	585.42
58.3421	559.58
58.3566	578.27
58.3710	569.76
58.3855	573.75
58.3999	554.48
58.4143	543.05
58.4288	588.37
58.4432	537.77
58.4577	504.00
58.4721	553.07
58.4865	563.65
58.5010	549.23
58.5154	566.95
58.5299	523.99
58.5443	520.72
58.5587	537.66
58.5732	546.24
58.5876	548.81
58.6021	510.13
58.6165	497.24
58.6309	543.83
58.6454	571.38
58.6598	551.97
58.6743	548.28
58.6887	534.39
58.7031	519.10
58.7176	551.93
58.7320	534.65
58.7465	552.47
58.7609	537.77
58.7753	543.32
58.7898	568.64
58.8042	533.68
58.8187	548.02
58.8331	555.42
58.8475	506.86
58.8620	531.79
58.8764	539.49
58.8909	527.07
58.9053	552.74
58.9197	551.27
58.9342	537.72
58.9486	517.50
58.9631	518.54
58.9775	525.28
58.9919	553.98
59.0064	539.44
59.0208	508.85
59.0353	533.96
59.0497	515.31
59.0641	531.28
59.0786	548.94
59.0930	555.41
59.1075	524.61
59.1219	550.24
59.1363	563.13
59.1508	534.71
59.1652	533.00
59.1797	526.05
59.1941	508.40
59.2085	532.76
59.2230	512.38
59.2374	532.86
59.2519	544.08
59.2663	535.53
59.2807	582.07
59.2952	557.28
59.3096	597.33
59.3241	609.63
59.3385	567.23
59.3529	580.78
59.3674	549.38
59.3818	567.28
59.3963	564.34
59.4107	571.84
59.4251	572.06
59.4396	539.50
59.4540	557.40
59.4685	561.10
59.4829	557.56
59.4973	516.37
59.5118	505.33
59.5262	530.62
59.5407	544.18
59.5551	541.35
59.5695	564.60
59.5840	551.78
59.5984	512.28
59.6129	534.61
59.6273	548.31
59.6417	561.42
59.6562	505.43
59.6706	511.85
59.6851	492.70
59.6995	516.71
59.7139	519.77
59.7284	500.69
59.7428	516.85
59.7573	521.26
59.7717	516.60
59.7861	508.06
59.8006	512.09
59.8150	529.13
59.8295	526.83
59.8439	534.72
59.8583	556.29
59.8728	546.15
59.8872	534.35
59.9017	542.22
59.9161	546.51
59.9305	525.38
59.9450	524.95
59.9594	533.05
59.9739	533.62
59.9883	549.82
60.0027	553.70
60.0172	501.07
60.0316	494.80
60.0461	511.75
60.0605	534.15
60.0750	536.11
60.0894	535.80
60.1038	544.99
60.1183	541.45
60.1327	545.85
60.1472	511.99
60.1616	551.86
60.1760	561.96
60.1905	549.75
60.2049	537.34
60.2194	518.21
60.2338	539.49
60.2482	524.38
60.2627	531.37
60.2771	528.93
60.2916	531.99
60.3060	545.43
60.3204	529.18
60.3349	541.13
60.3493	547.54
60.3638	547.59
60.3782	502.06
60.3926	504.40
60.4071	495.21
60.4215	550.23
60.4360	551.74
60.4504	542.60
60.4648	532.05
60.4793	504.95
60.4937	546.37
60.5082	524.85
60.5226	522.40
60.5370	549.78
60.5515	551.15
60.5659	515.57
60.5804	513.47
60.5948	538.18
60.6092	525.97
60.6237	536.70
60.6381	522.21
60.6526	574.10
60.6670	514.54
60.6814	544.46
60.6959	516.78
60.7103	568.55
60.7248	562.92
60.7392	526.05
60.7536	554.22
60.7681	537.64
60.7825	518.26
60.7970	550.94
60.8114	530.60
60.8258	544.53
60.8403	577.21
60.8547	549.77
60.8692	496.50
60.8836	528.05
60.8980	577.09
60.9125	563.45
60.9269	544.02
60.9414	537.82
60.9558	540.17
60.9702	560.29
60.9847	547.13
60.9991	557.09
61.0136	587.24
61.0280	543.56
61.0424	556.41
61.0569	540.01
61.0713	544.54
61.0858	583.21
61.1002	575.48
61.1146	575.20
61.1291	547.19
61.1435	542.62
61.1580	547.67
61.1724	525.34
61.1868	519.87
61.2013	531.92
61.2157	549.00
61.2302	543.97
61.2446	542.45
61.2590	567.34
61.2735	558.57
61.2879	553.35
61.3024	549.96
61.3168	545.34
61.3312	563.53
61.3457	557.08
61.3601	533.55
61.3746	568.44
61.3890	544.09
61.4034	531.30
61.4179	558.38
61.4323	576.28
61.4468	540.92
61.4612	518.01
61.4756	558.51
61.4901	530.47
61.5045	511.34
61.5190	538.85
61.5334	559.28
61.5478	579.23
61.5623	537.44
61.5767	524.73
61.5912	562.56
61.6056	565.72
61.6200	551.02
61.6345	538.01
61.6489	551.60
61.6634	533.63
61.6778	541.93
61.6922	565.43
61.7067	559.57
61.7211	539.64
61.7356	521.48
61.7500	529.46
61.7644	560.48
61.7789	540.71
61.7933	577.04
61.8078	564.34
61.8222	532.72
61.8366	539.54
61.8511	522.02
61.8655	563.92
61.8800	529.32
61.8944	540.51
61.9088	530.17
61.9233	522.97
61.9377	543.16
61.9522	514.15
61.9666	502.43
61.9810	549.20
61.9955	558.65
62.0099	541.88
62.0244	549.78
62.0388	559.49
62.0532	548.54
62.0677	526.54
62.0821	545.38
62.0966	590.37
62.1110	569.95
62.1254	573.86
62.1399	547.55
62.1543	531.81
62.1688	585.31
62.1832	543.71
62.1976	533.79
62.2121	556.50
62.2265	526.44
62.2410	535.00
62.2554	540.25
62.2698	553.08
62.2843	579.17
62.2987	579.04
62.3132	566.85
62.3276	552.34
62.3420	540.04
62.3565	581.92
62.3709	539.54
62.3854	521.84
62.3998	541.27
62.4142	540.25
62.4287	568.58
62.4431	550.11
62.4576	552.67
62.4720	571.49
62.4864	546.77
62.5009	553.90
62.5153	554.42
62.5298	545.77
62.5442	538.45
62.5586	568.68
62.5731	533.33
62.5875	530.69
62.6020	526.91
62.6164	564.29
62.6308	588.33
62.6453	574.94
62.6597	576.53
62.6742	559.68
62.6886	542.10
62.7030	541.87
62.7175	584.20
62.7319	566.04
62.7464	568.98
62.7608	548.18
62.7752	550.92
62.7897	584.57
62.8041	564.67
62.8186	578.01
62.8330	567.59
62.8474	578.61
62.8619	585.54
62.8763	548.08
62.8908	541.80
62.9052	557.94
62.9196	553.59
62.9341	550.46
62.9485	550.37
62.9630	557.53
62.9774	547.38
62.9918	565.37
63.0063	573.07
63.0207	572.91
63.0352	579.52
63.0496	578.18
63.0640	585.18
63.0785	593.40
63.0929	593.50
63.1074	594.74
63.1218	588.29
63.1362	576.69
63.1507	553.88
63.1651	588.88
63.1796	567.97
63.1940	578.95
63.2084	583.26
63.2229	579.58
63.2373	598.91
63.2518	629.60
63.2662	597.80
63.2806	578.29
63.2951	621.93
63.3095	553.40
63.3240	546.71
63.3384	555.73
63.3528	601.06
63.3673	611.85
63.3817	596.25
63.3962	578.68
63.4106	580.80
63.4250	598.12
63.4395	584.30
63.4539	568.76
63.4684	617.11
63.4828	608.69
63.4972	619.82
63.5117	600.82
63.5261	603.11
63.5406	603.80
63.5550	586.67
63.5694	585.75
63.5839	593.62
63.5983	676.13
63.6128	669.41
63.6272	684.52
63.6416	704.20
63.6561	685.68
63.6705	725.44
63.6850	743.06
63.6994	738.78
63.7138	774.15
63.7283	702.31
63.7427	767.13
63.7572	777.88
63.7716	770.86
63.7861	783.08
63.8005	764.86
63.8149	748.02
63.8294	785.49
63.8438	795.50
63.8583	793.26
63.8727	835.97
63.8871	786.57
63.9016	851.62
63.9160	847.10
63.9305	838.00
63.9449	816.79
63.9593	821.08
63.9738	797.72
63.9882	790.53
64.0027	770.58
64.0171	744.45
64.0315	696.34
64.0460	720.46
64.0604	707.86
64.0749	659.57
64.0893	710.38
64.1037	648.69
64.1182	673.89
64.1326	652.98
64.1471	584.08
64.1615	645.14
64.1759	653.38
64.1904	630.00
64.2048	604.97
64.2193	634.16
64.2337	616.11
64.2481	590.29
64.2626	609.60
64.2770	650.79
64.2915	581.74
64.3059	596.28
64.3203	600.72
64.3348	647.57
64.3492	605.56
64.3637	565.79
64.3781	591.68
64.3925	587.37
64.4070	588.34
64.4214	637.76
64.4359	638.68
64.4503	589.70
64.4647	597.07
64.4792	640.31
64.4936	644.69
64.5081	616.28
64.5225	653.09
64.5369	612.28
64.5514	603.05
64.5658	622.20
64.5803	609.49
64.5947	662.71
64.6091	655.77
64.6236	654.52
64.6380	677.01
64.6525	654.15
64.6669	667.37
64.6813	688.13
64.6958	658.15
64.7102	676.79
64.7247	643.53
64.7391	694.99
64.7535	678.99
64.7680	685.97
64.7824	735.61
64.7969	739.13
64.8113	721.18
64.8257	795.62
64.8402	779.42
64.8546	829.44
64.8691	876.49
64.8835	818.93
64.8979	831.25
64.9124	865.50
64.9268	879.64
64.9413	916.99
64.9557	945.50
64.9701	926.90
64.9846	1004.95
64.9990	1104.80
65.0135	1197.77
65.0279	1437.70
65.0423	1630.79
65.0568	1973.00
65.0712	2476.45
65.0857	3300.40
65.1001	4205.04
65.1145	5602.75
65.1290	7410.90
65.1434	8976.98
65.1579	10679.92
65.1723	11541.86
65.1867	11172.18
65.2012	10026.16
65.2156	8587.83
65.2301	6796.62
65.2445	5370.46
65.2589	4466.21
65.2734	4042.23
65.2878	4181.85
65.3023	4680.16
65.3167	5530.26
65.3311	6330.73
65.3456	6898.53
65.3600	7022.83
65.3745	6481.87
65.3889	5502.42
65.4033	4504.67
65.4178	3563.64
65.4322	2755.28
65.4467	2059.95
65.4611	1686.86
65.4755	1557.60
65.4900	1307.62
65.5044	1152.46
65.5189	1050.48
65.5333	1012.29
65.5477	926.34
65.5622	859.85
65.5766	859.05
65.5911	833.56
65.6055	820.75
65.6199	808.62
65.6344	785.25
65.6488	759.38
65.6633	704.88
65.6777	700.65
65.6921	655.98
65.7066	708.23
65.7210	751.20
65.7355	710.79
65.7499	677.77
65.7643	642.69
65.7788	704.19
65.7932	662.67
65.8077	641.21
65.8221	647.88
65.8365	669.74
65.8510	602.81
65.8654	658.29
65.8799	631.75
65.8943	688.45
65.9087	653.54
65.9232	611.35
65.9376	620.15
65.9521	617.35
65.9665	638.36
65.9809	622.43
65.9954	589.42
66.0098	630.61
66.0243	641.04
66.0387	654.84
66.0531	618.86
66.0676	626.89
66.0820	645.75
66.0965	587.38
66.1109	608.08
66.1253	610.36
66.1398	608.52
66.1542	583.13
66.1687	623.08
66.1831	591.16
66.1975	611.62
66.2120	603.98
66.2264	639.23
66.2409	616.57
66.2553	601.73
66.2697	597.21
66.2842	635.05
66.2986	578.20
66.3131	594.45
66.3275	587.93
66.3419	614.43
66.3564	584.08
66.3708	595.08
66.3853	613.71
66.3997	570.36
66.4141	585.94
66.4286	589.68
66.4430	572.54
66.4575	612.34
66.4719	622.33
66.4863	620.53
66.5008	598.65
66.5152	607.67
66.5297	590.48
66.5441	615.52
66.5585	620.31
66.5730	596.58
66.5874	619.64
66.6019	587.08
66.6163	561.37
66.6307	562.25
66.6452	598.78
66.6596	601.54
66.6741	548.93
66.6885	590.69
66.7029	625.38
66.7174	628.61
66.7318	598.07
66.7463	555.12
66.7607	564.81
66.7751	570.22
66.7896	579.46
66.8040	583.23
66.8185	584.39
66.8329	586.48
66.8473	568.17
66.8618	597.57
66.8762	580.51
66.8907	557.29
66.9051	588.09
66.9195	562.04
66.9340	571.77
66.9484	568.60
66.9629	536.82
66.9773	574.97
66.9917	591.26
67.0062	586.84
67.0206	601.47
67.0351	589.71
67.0495	572.96
67.0639	573.30
67.0784	602.55
67.0928	611.01
67.1073	570.07
67.1217	587.18
67.1361	579.73
67.1506	532.11
67.1650	591.07
67.1795	617.32
67.1939	583.40
67.2083	584.09
67.2228	551.15
67.2372	557.74
67.2517	598.27
67.2661	567.44
67.2805	562.64
67.2950	517.70
67.3094	551.90
67.3239	580.66
67.3383	607.83
67.3527	569.90
67.3672	588.49
67.3816	552.02
67.3961	570.18
67.4105	582.15
67.4250	575.62
67.4394	597.89
67.4538	557.44
67.4683	572.42
67.4827	572.64
67.4972	575.85
67.5116	551.91
67.5260	533.08
67.5405	591.36
67.5549	620.22
67.5694	543.14
67.5838	566.47
67.5982	604.52
67.6127	583.73
67.6271	585.49
67.6416	578.17
67.6560	568.29
67.6704	577.68
67.6849	543.99
67.6993	556.40
67.7138	597.90
67.7282	535.62
67.7426	554.72
67.7571	590.07
67.7715	553.44
67.7860	591.38
67.8004	596.77
67.8148	596.60
67.8293	560.24
67.8437	567.93
67.8582	583.20
67.8726	574.82
67.8870	591.48
67.9015	595.48
67.9159	547.11
67.9304	570.19
67.9448	541.61
67.9592	501.37
67.9737	541.97
67.9881	559.78
68.0026	575.44
68.0170	584.64
68.0314	569.50
68.0459	542.19
68.0603	598.48
68.0748	593.70
68.0892	621.44
68.1036	571.77
68.1181	601.78
68.1325	587.51
68.1470	533.08
68.1614	557.47
68.1758	547.77
68.1903	595.64
68.2047	585.96
68.2192	565.17
68.2336	583.13
68.2480	531.03
68.2625	544.94
68.2769	557.09
68.2914	579.61
68.3058	526.13
68.3202	579.56
68.3347	637.89
68.3491	586.25
68.3636	582.43
68.3780	575.33
68.3924	593.97
68.4069	563.11
68.4213	529.22
68.4358	573.86
68.4502	538.15
68.4646	572.85
68.4791	570.00
68.4935	611.69
68.5080	590.92
68.5224	586.27
68.5368	594.19
68.5513	586.30
68.5657	597.95
68.5802	602.05
68.5946	579.69
68.6090	589.09
68.6235	566.24
68.6379	559.51
68.6524	526.33
68.6668	566.56
68.6812	580.14
68.6957	536.20
68.7101	585.55
68.7246	599.24
68.7390	552.89
68.7534	595.96
68.7679	542.33
68.7823	547.78
68.7968	548.32
68.8112	546.32
68.8256	574.13
68.8401	598.25
68.8545	557.30
68.8690	537.49
68.8834	581.18
68.8978	637.70
68.9123	639.78
68.9267	568.58
68.9412	603.29
68.9556	589.93
68.9700	551.06
68.9845	533.84
68.9989	581.18
69.0134	595.98
69.0278	578.07
69.0422	560.03
69.0567	559.24
69.0711	557.25
69.0856	585.00
69.1000	544.78
69.1144	555.95
69.1289	597.96
69.1433	540.14
69.1578	601.65
69.1722	585.99
69.1866	565.75
69.2011	574.38
69.2155	561.01
69.2300	555.20
69.2444	584.95
69.2588	558.16
69.2733	547.21
69.2877	530.61
69.3022	552.27
69.3166	533.57
69.3310	609.90
69.3455	566.36
69.3599	581.84
69.3744	574.04
69.3888	573.32
69.4032	564.71
69.4177	557.97
69.4321	561.39
69.4466	567.80
69.4610	587.83
69.4754	593.30
69.4899	584.83
69.5043	567.31
69.5188	610.79
69.5332	598.64
69.5476	573.07
69.5621	561.40
69.5765	571.88
69.5910	557.19
69.6054	579.82
69.6198	574.92
69.6343	630.61
69.6487	555.29
69.6632	582.97
69.6776	600.07
69.6920	573.38
69.7065	617.89
69.7209	592.55
69.7354	583.46
69.7498	562.50
69.7642	578.44
69.7787	599.55
69.7931	596.00
69.8076	574.21
69.8220	593.89
69.8364	573.59
69.8509	553.06
69.8653	553.26
69.8798	591.60
69.8942	571.15
69.9086	568.84
69.9231	536.93
69.9375	569.57
69.9520	557.20
69.9664	543.36
69.9808	548.72
69.9953	517.71
70.0097	530.47
70.0242	573.90
70.0386	574.04
70.0530	538.77
70.0675	574.50
70.0819	560.42
70.0964	606.13
70.1108	566.80
70.1252	618.33
70.1397	602.05
70.1541	585.32
70.1686	519.80
70.1830	553.71
70.1974	585.90
70.2119	578.52
70.2263	552.53
70.2408	574.10
70.2552	576.12
70.2696	602.63
70.2841	552.56
70.2985	568.84
70.3130	577.46
70.3274	538.81
70.3418	635.83
70.3563	659.00
70.3707	554.41
70.3852	594.83
70.3996	588.43
70.4140	594.84
70.4285	596.92
70.4429	576.68
70.4574	559.19
70.4718	623.82
70.4862	594.94
70.5007	574.29
70.5151	565.45
70.5296	561.91
70.5440	624.50
70.5584	609.01
70.5729	544.31
70.5873	529.06
70.6018	569.84
70.6162	528.13
70.6306	568.70
70.6451	549.91
70.6595	603.22
70.6740	572.92
70.6884	501.02
70.7028	600.31
70.7173	582.78
70.7317	577.98
70.7462	609.44
70.7606	579.32
70.7750	627.01
70.7895	637.25
70.8039	597.78
70.8184	597.02
70.8328	548.34
70.8472	572.53
70.8617	556.76
70.8761	529.99
70.8906	580.50
70.9050	632.49
70.9194	605.63
70.9339	597.91
70.9483	582.27
70.9628	584.47
70.9772	591.84
70.9916	612.12
71.0061	515.19
71.0205	551.00
71.0350	555.26
71.0494	467.93
71.0638	518.09
71.0783	538.74
71.0927	564.86
71.1072	604.71
71.1216	564.46
71.1361	584.15
71.1505	595.29
71.1649	564.84
71.1794	528.91
71.1938	549.07
71.2083	570.63
71.2227	526.61
71.2371	524.80
71.2516	567.49
71.2660	554.54
71.2805	581.55
71.2949	569.55
71.3093	554.46
71.3238	548.34
71.3382	559.47
71.3527	607.01
71.3671	568.84
71.3815	561.47
71.3960	589.50
71.4104	573.69
71.4249	620.66
71.4393	629.88
71.4537	581.43
71.4682	549.45
71.4826	541.37
71.4971	561.96
71.5115	544.72
71.5259	505.23
71.5404	549.21
71.5548	619.69
71.5693	562.07
71.5837	584.33
71.5981	628.64
71.6126	584.28
71.6270	533.45
71.6415	543.98
71.6559	546.12
71.6703	553.99
71.6848	597.28
71.6992	623.89
71.7137	607.47
71.7281	580.11
71.7425	557.96
71.7570	504.40
71.7714	552.63
71.7859	577.93
71.8003	601.59
71.8147	626.10
71.8292	597.91
71.8436	561.01
71.8581	534.59
71.8725	548.51
71.8869	541.05
71.9014	580.98
71.9158	581.62
71.9303	607.43
71.9447	581.97
71.9591	626.07
71.9736	580.56
71.9880	501.94
72.0025	540.64
72.0169	577.60
72.0313	569.23
72.0458	595.74
72.0602	574.23
72.0747	566.20
72.0891	582.88
72.1035	605.86
72.1180	605.74
72.1324	607.16
72.1469	545.42
72.1613	566.57
72.1757	625.14
72.1902	632.92
72.2046	569.34
72.2191	552.56
72.2335	591.31
72.2479	616.48
72.2624	567.26
72.2768	621.10
72.2913	597.31
72.3057	573.09
72.3201	591.34
72.3346	626.53
72.3490	633.97
72.3635	593.69
72.3779	570.79
72.3923	572.87
72.4068	606.40
72.4212	549.73
72.4357	572.21
72.4501	569.65
72.4645	584.63
72.4790	652.57
72.4934	616.86
72.5079	608.95
72.5223	581.26
72.5367	559.17
72.5512	556.87
72.5656	633.10
72.5801	551.72
72.5945	545.63
72.6089	586.59
72.6234	577.25
72.6378	614.97
72.6523	620.06
72.6667	608.65
72.6811	648.47
72.6956	593.57
72.7100	629.03
72.7245	522.43
72.7389	576.71
72.7533	532.28
72.7678	482.06
72.7822	607.45
72.7967	616.42
72.8111	593.21
72.8255	567.00
72.8400	608.14
72.8544	672.86
72.8689	693.99
72.8833	682.31

Result vector
22.1120	572.39
22.1264	571.70
22.1409	561.60
22.1553	597.74
22.1697	612.96
22.1842	671.00
22.1986	582.00
22.2131	561.68
22.2275	551.33
22.2419	576.24
22.2564	558.98
22.2708	563.24
22.2853	595.77
22.2997	570.14
22.3141	583.86
22.3286	562.91
22.3430	638.69
22.3575	590.81
22.3719	588.13
22.3863	612.32
22.4008	659.43
22.4152	652.17
22.4297	660.95
22.4441	567.04
22.4585	561.27
22.4730	642.20
22.4874	608.86
22.5019	581.21
22.5163	578.25
22.5307	543.16
22.5452	610.28
22.5596	648.67
22.5741	661.36
22.5885	685.63
22.6029	698.85
22.6174	537.27
22.6318	519.38
22.6463	572.23
22.6607	604.21
22.6751	451.83
22.6896	481.82
22.7040	524.47
22.7185	608.11
22.7329	593.43
22.7473	572.50
22.7618	590.69
22.7762	559.00
22.7907	517.30
22.8051	509.52
22.8195	574.87
22.8340	549.35
22.8484	570.72
22.8629	586.88
22.8773	649.70
22.8917	572.19
22.9062	539.15
22.9206	519.02
22.9351	541.90
22.9495	569.63
22.9639	521.37
22.9784	601.62
22.9928	477.57
23.0073	449.83
23.0217	472.97
23.0361	496.80
23.0506	573.07
23.0650	607.31
23.0795	563.59
23.0939	569.06
23.1083	591.28
23.1228	594.71
23.1372	531.12
23.1517	563.00
23.1661	550.16
23.1806	603.78
23.1950	568.37
23.2094	563.78
23.2239	537.54
23.2383	582.49
23.2528	611.07
23.2672	505.30
23.2816	550.72
23.2961	586.93
23.3105	572.59
23.3250	578.59
23.3394	574.51
23.3538	563.19
23.3683	587.62
23.3827	600.87
23.3972	518.80
23.4116	592.62
23.4260	571.87
23.4405	554.85
23.4549	587.30
23.4694	554.64
23.4838	608.75
23.4982	516.76
23.5127	504.61
23.5271	543.77
23.5416	538.36
23.5560	540.14
23.5704	595.96
23.5849	538.05
23.5993	573.96
23.6138	532.15
23.6282	503.16
23.6426	534.03
23.6571	565.62
23.6715	600.31
23.6860	513.13
23.7004	608.81
23.7148	546.89
23.7293	594.87
23.7437	543.12
23.7582	566.92
23.7726	493.54
23.7870	563.84
23.8015	519.66
23.8159	574.59
23.8304	517.54
23.8448	536.14
23.8592	584.10
23.8737	524.38
23.8881	571.82
23.9026	554.66
23.9170	473.94
23.9314	530.31
23.9459	521.42
23.9603	584.62
23.9748	568.82
23.9892	600.50
24.0036	503.47
24.0181	577.65
24.0325	468.92
24.0470	543.54
24.0614	589.97
24.0758	576.31
24.0903	611.31
24.1047	577.18
24.1192	554.64
24.1336	627.89
24.1480	548.94
24.1625	578.05
24.1769	583.85
24.1914	563.91
24.2058	554.76
24.2202	541.09
24.2347	554.03
24.2491	577.92
24.2636	577.78
24.2780	595.81
24.2924	642.40
24.3069	557.93
24.3213	530.23
24.3358	535.11
24.3502	556.68
24.3646	568.81
24.3791	530.88
24.3935	521.13
24.4080	541.06
24.4224	569.99
24.4368	533.38
24.4513	558.46
24.4657	564.22
24.4802	500.75
24.4946	539.41
24.5090	582.03
24.5235	543.73
24.5379	545.48
24.5524	521.36
24.5668	567.23
24.5812	567.31
24.5957	547.90
24.6101	482.32
24.6246	542.33
24.6390	590.25
24.6534	563.12
24.6679	549.61
24.6823	523.65
24.6968	513.06
24.7112	536.53
24.7256	497.96
24.7401	578.98
24.7545	589.78
24.7690	566.04
24.7834	583.23
24.7978	458.89
24.8123	511.24
24.8267	550.39
24.8412	563.34
24.8556	585.38
24.8700	621.66
24.8845	595.41
24.8989	539.50
24.9134	560.92
24.9278	534.92
24.9422	528.29
24.9567	533.29
24.9711	567.12
24.9856	505.11
25.0000	514.07
25.0144	568.81
25.0289	505.42
25.0433	550.22
25.0578	548.04
25.0722	554.64
25.0866	520.94
25.1011	588.09
25.1155	554.62
25.1300	566.73
25.1444	517.84
25.1588	507.74
25.1733	557.87
25.1877	496.79
25.2022	516.82
25.2166	541.40
25.2310	566.24
25.2455	553.68
25.2599	510.89
25.2744	543.77
25.2888	548.13
25.3032	545.48
25.3177	527.57
25.3321	530.77
25.3466	554.61
25.3610	549.89
25.3754	533.32
25.3899	516.73
25.4043	541.27
25.4188	566.25
25.4332	520.22
25.4476	483.99
25.4621	514.02
25.4765	487.77
25.4910	547.38
25.5054	526.69
25.5198	534.08
25.5343	536.93
25.5487	556.43
25.5632	545.13
25.5776	550.73
25.5920	579.56
25.6065	513.26
25.6209	525.98
25.6354	545.56
25.6498	517.11
25.6642	515.13
25.6787	528.60
25.6931	517.24
25.7076	551.71
25.7220	550.88
25.7364	544.52
25.7509	512.12
25.7653	499.62
25.7798	517.97
25.7942	519.45
25.8086	508.72
25.8231	551.23
25.8375	543.63
25.8520	537.78
25.8664	537.16
25.8808	552.52
25.8953	516.41
25.9097	500.92
25.9242	521.25
25.9386	517.86
25.9530	515.07
25.9675	536.13
25.9819	540.13
25.9964	545.66
26.0108	548.53
26.0252	563.80
26.0397	537.20
26.0541	492.08
26.0686	525.38
26.0830	536.62
26.0974	504.41
26.1119	556.14
26.1263	570.14
26.1408	506.78
26.1552	538.80
26.1696	551.29
26.1841	542.64
26.1985	554.17
26.2130	558.04
26.2274	560.30
26.2418	536.28
26.2563	486.00
26.2707	516.31
26.2852	548.67
26.2996	529.21
26.3140	513.88
26.3285	496.27
26.3429	509.13
26.3574	519.95
26.3718	561.61
26.3862	518.26
26.4007	509.88
26.4151	551.35
26.4296	575.29
26.4440	546.20
26.4584	544.10
26.4729	555.46
26.4873	527.27
26.5018	516.35
26.5162	515.46
26.5306	522.61
26.5451	528.75
26.5595	515.77
26.5740	510.21
26.5884	539.38
26.6028	541.93
26.6173	555.58
26.6317	531.24
26.6462	503.43
26.6606	535.86
26.6750	545.94
26.6895	511.94
26.7039	508.38
26.7184	521.26
26.7328	527.22
26.7472	527.46
26.7617	496.28
26.7761	521.35
26.7906	548.28
26.8050	528.62
26.8194	538.26
26.8339	537.15
26.8483	504.31
26.8628	542.38
26.8772	522.05
26.8917	527.05
26.9061	537.20
26.9205	534.77
26.9350	518.94
26.9494	516.08
26.9639	534.66
26.9783	523.10
26.9927	524.42
27.0072	493.08
27.0216	499.96
27.0361	522.89
27.0505	527.73
27.0649	524.95
27.0794	514.31
27.0938	521.78
27.1083	523.55
27.1227	542.41
27.1371	498.95
27.1516	478.44
27.1660	521.43
27.1805	545.03
27.1949	505.98
27.2093	487.26
27.2238	492.35
27.2382	526.25
27.2527	497.44
27.2671	497.96
27.2815	507.66
27.2960	496.16
27.3104	526.20
27.3249	525.62
27.3393	504.88
27.3537	460.91
27.3682	487.92
27.3826	537.17
27.3971	505.75
27.4115	526.39
27.4259	591.59
27.4404	515.75
27.4548	493.95
27.4693	498.72
27.4837	514.48
27.4981	502.39
27.5126	500.88
27.5270	521.89
27.5415	505.29
27.5559	516.13
27.5703	506.36
27.5848	519.61
27.5992	534.75
27.6137	521.80
27.6281	484.99
27.6425	536.69
27.6570	502.67
27.6714	495.29
27.6859	517.65
27.7003	535.04
27.7147	529.96
27.7292	529.68
27.7436	526.88
27.7581	503.23
27.7725	478.45
27.7869	479.86
27.8014	516.94
27.8158	541.61
27.8303	491.71
27.8447	494.48
27.8591	524.62
27.8736	539.39
27.8880	494.26
27.9025	532.12
27.9169	549.14
27.9313	499.11
27.9458	545.01
27.9602	548.77
27.9747	532.63
27.9891	531.66
28.0035	511.01
28.0180	505.92
28.0324	536.56
28.0469	495.30
28.0613	515.12
28.0757	511.39
28.0902	540.36
28.1046	498.01
28.1191	509.10
28.1335	506.33
28.1479	456.67
28.1624	524.66
28.1768	509.54
28.1913	535.28
28.2057	524.23
28.2201	549.53
28.2346	506.08
28.2490	519.12
28.2635	497.10
28.2779	497.51
28.2923	501.12
28.3068	493.98
28.3212	503.93
28.3357	521.97
28.3501	506.83
28.3645	487.16
28.3790	487.06
28.3934	519.05
28.4079	527.75
28.4223	546.37
28.4367	545.81
28.4512	500.46
28.4656	513.97
28.4801	512.01
28.4945	529.73
28.5089	528.12
28.5234	550.13
28.5378	514.38
28.5523	504.93
28.5667	505.05
28.5811	515.51
28.5956	484.54
28.6100	544.11
28.6245	546.83
28.6389	511.22
28.6533	494.38
28.6678	508.85
28.6822	523.03
28.6967	477.27
28.7111	526.18
28.7255	493.86
28.7400	509.14
28.7544	519.88
28.7689	508.90
28.7833	532.29
28.7977	523.73
28.8122	531.51
28.8266	538.28
28.8411	498.61
28.8555	511.26
28.8699	537.91
28.8844	492.94
28.8988	526.46
28.9133	498.06
28.9277	500.59
28.9421	532.87
28.9566	494.30
28.9710	489.94
28.9855	504.75
28.9999	476.96
29.0143	467.09
29.0288	519.52
29.0432	452.67
29.0577	505.63
29.0721	493.50
29.0865	480.28
29.1010	521.91
29.1154	516.90
29.1299	522.43
29.1443	514.80
29.1587	529.37
29.1732	487.39
29.1876	499.89
29.2021	460.18
29.2165	514.60
29.2309	531.15
29.2454	524.72
29.2598	492.53
29.2743	477.61
29.2887	506.30
29.3031	497.70
29.3176	507.20
29.3320	537.14
29.3465	486.54
29.3609	495.88
29.3753	496.15
29.3898	494.65
29.4042	497.74
29.4187	495.66
29.4331	528.11
29.4475	541.82
29.4620	521.72
29.4764	522.08
29.4909	483.08
29.5053	488.96
29.5197	505.95
29.5342	520.48
29.5486	518.68
29.5631	503.38
29.5775	465.41
29.5919	467.38
29.6064	498.57
29.6208	497.19
29.6353	517.80
29.6497	525.85
29.6641	520.97
29.6786	463.18
29.6930	521.14
29.7075	529.84
29.7219	489.04
29.7363	511.36
29.7508	512.10
29.7652	492.87
29.7797	519.01
29.7941	490.06
29.8085	461.83
29.8230	475.89
29.8374	501.61
29.8519	499.59
29.8663	567.37
29.8807	533.60
29.8952	512.51
29.9096	505.62
29.9241	483.28
29.9385	486.32
29.9529	503.11
29.9674	515.26
29.9818	500.22
29.9963	511.76
30.0107	498.25
30.0251	515.65
30.0396	482.12
30.0540	498.89
30.0685	489.82
30.0829	527.00
30.0973	487.72
30.1118	489.52
30.1262	531.10
30.1407	515.85
30.1551	462.57
30.1695	500.16
30.1840	526.22
30.1984	493.13
30.2129	511.73
30.2273	523.81
30.2417	519.18
30.2562	502.84
30.2706	532.75
30.2851	510.14
30.2995	493.85
30.3139	511.26
30.3284	524.04
30.3428	520.51
30.3573	507.73
30.3717	513.88
30.3861	486.02
30.4006	494.55
30.4150	497.18
30.4295	523.75
30.4439	505.36
30.4583	553.76
30.4728	538.36
30.4872	531.58
30.5017	538.36
30.5161	554.98
30.5305	542.66
30.5450	531.11
30.5594	547.79
30.5739	583.58
30.5883	587.54
30.6028	605.19
30.6172	633.90
30.6316	645.60
30.6461	680.45
30.6605	680.89
30.6750	666.87
30.6894	687.25
30.7038	682.36
30.7183	718.40
30.7327	680.13
30.7472	677.98
30.7616	639.94
30.7760	667.57
30.7905	619.36
30.8049	619.22
30.8194	587.28
30.8338	559.08
30.8482	565.54
30.8627	572.39
30.8771	524.04
30.8916	543.61
30.9060	542.88
30.9204	539.16
30.9349	515.53
30.9493	515.98
30.9638	507.21
30.9782	502.11
30.9926	495.43
31.0071	527.19
31.0215	538.41
31.0360	542.83
31.0504	540.05
31.0648	502.63
31.0793	497.46
31.0937	513.61
31.1082	513.38
31.1226	530.21
31.1370	515.31
31.1515	468.60
31.1659	485.82
31.1804	512.98
31.1948	499.84
31.2092	530.22
31.2237	509.21
31.2381	513.22
31.2526	523.91
31.2670	532.96
31.2814	527.06
31.2959	487.95
31.3103	500.65
31.3248	510.51
31.3392	540.49
31.3536	509.25
31.3681	543.84
31.3825	514.98
31.3970	536.53
31.4114	506.79
31.4258	522.01
31.4403	500.88
31.4547	528.04
31.4692	507.59
31.4836	490.56
31.4980	509.05
31.5125	500.72
31.5269	506.20
31.5414	513.14
31.5558	519.63
31.5702	486.52
31.5847	489.04
31.5991	472.20
31.6136	490.29
31.6280	512.83
31.6424	525.18
31.6569	511.66
31.6713	519.26
31.6858	508.87
31.7002	494.83
31.7146	496.07
31.7291	502.79
31.7435	518.36
31.7580	498.63
31.7724	473.00
31.7868	493.73
31.8013	514.82
31.8157	510.08
31.8302	470.25
31.8446	522.95
31.8590	543.71
31.8735	506.84
31.8879	518.34
31.9024	500.21
31.9168	522.95
31.9312	532.73
31.9457	516.04
31.9601	482.45
31.9746	483.14
31.9890	511.13
32.0034	500.07
32.0179	517.79
32.0323	483.17
32.0468	499.84
32.0612	485.50
32.0756	503.78
32.0901	509.45
32.1045	506.37
32.1190	493.38
32.1334	509.31
32.1478	483.66
32.1623	514.57
32.1767	514.63
32.1912	506.13
32.2056	518.86
32.2200	496.28
32.2345	515.89
32.2489	523.53
32.2634	502.15
32.2778	504.98
32.2922	509.18
32.3067	495.17
32.3211	485.08
32.3356	518.46
32.3500	506.98
32.3644	497.39
32.3789	485.66
32.3933	483.28
32.4078	479.90
32.4222	499.57
32.4366	499.79
32.4511	476.11
32.4655	494.00
32.4800	519.69
32.4944	480.59
32.5088	502.55
32.5233	520.66
32.5377	498.90
32.5522	515.56
32.5666	465.40
32.5810	500.92
32.5955	495.41
32.6099	480.33
32.6244	510.47
32.6388	513.24
32.6532	502.32
32.6677	502.26
32.6821	496.40
32.6966	506.44
32.7110	516.21
32.7254	512.20
32.7399	471.81
32.7543	467.11
32.7688	519.54
32.7832	518.38
32.7976	516.35
32.8121	512.95
32.8265	510.39
32.8410	495.17
32.8554	507.74
32.8698	493.60
32.8843	475.27
32.8987	461.48
32.9132	476.02
32.9276	497.21
32.9420	522.33
32.9565	484.05
32.9709	487.68
32.9854	482.68
32.9998	500.79
33.0142	504.19
33.0287	505.91
33.0431	504.20
33.0576	509.85
33.0720	480.99
33.0864	509.79
33.1009	510.18
33.1153	514.57
33.1298	504.31
33.1442	474.06
33.1586	487.37
33.1731	517.70
33.1875	475.61
33.2020	489.27
33.2164	525.97
33.2308	509.87
33.2453	573.44
33.2597	471.68
33.2742	493.69
33.2886	501.16
33.3030	484.52
33.3175	531.92
33.3319	505.40
33.3464	510.91
33.3608	489.89
33.3752	498.10
33.3897	490.69
33.4041	499.36
33.4186	517.86
33.4330	502.57
33.4474	500.41
33.4619	501.92
33.4763	528.52
33.4908	483.04
33.5052	481.31
33.5196	498.22
33.5341	521.93
33.5485	487.98
33.5630	546.30
33.5774	507.83
33.5918	515.11
33.6063	519.06
33.6207	526.61
33.6352	536.14
33.6496	511.47
33.6640	520.77
33.6785	516.72
33.6929	510.77
33.7074	538.20
33.7218	505.26
33.7362	471.19
33.7507	468.98
33.7651	515.08
33.7796	536.29
33.7940	476.61
33.8084	520.14
33.8229	508.12
33.8373	529.22
33.8518	529.48
33.8662	523.95
33.8806	541.47
33.8951	496.62
33.9095	508.13
33.9240	479.06
33.9384	495.53
33.9528	517.86
33.9673	488.46
33.9817	484.27
33.9962	525.00
34.0106	479.11
34.0250	449.37
34.0395	527.18
34.0539	462.13
34.0684	469.11
34.0828	519.59
34.0972	506.07
34.1117	493.49
34.1261	518.88
34.1406	527.55
34.1550	503.84
34.1694	509.17
34.1839	508.25
34.1983	503.05
34.2128	489.45
34.2272	523.85
34.2417	515.95
34.2561	524.53
34.2705	510.07
34.2850	512.44
34.2994	518.02
34.3139	507.37
34.3283	497.29
34.3427	503.41
34.3572	510.26
34.3716	492.29
34.3861	532.61
34.4005	490.48
34.4149	496.20
34.4294	506.88
34.4438	508.68
34.4583	502.89
34.4727	507.75
34.4871	502.38
34.5016	503.99
34.5160	505.26
34.5305	521.81
34.5449	504.94
34.5593	514.16
34.5738	511.03
34.5882	489.61
34.6027	474.20
34.6171	515.63
34.6315	499.44
34.6460	509.22
34.6604	523.04
34.6749	500.73
34.6893	468.48
34.7037	497.97
34.7182	516.94
34.7326	492.46
34.7471	509.00
34.7615	484.98
34.7759	476.44
34.7904	490.67
34.8048	493.27
34.8193	503.57
34.8337	498.45
34.8481	499.62
34.8626	520.00
34.8770	493.49
34.8915	503.18
34.9059	512.48
34.9203	499.82
34.9348	504.34
34.9492	482.82
34.9637	488.24
34.9781	492.08
34.9925	489.84
35.0070	493.23
35.0214	476.03
35.0359	481.94
35.0503	523.09
35.0647	537.10
35.0792	521.74
35.0936	503.81
35.1081	503.89
35.1225	508.78
35.1369	514.03
35.1514	503.68
35.1658	506.98
35.1803	506.67
35.1947	489.98
35.2091	479.61
35.2236	513.94
35.2380	523.23
35.2525	502.43
35.2669	511.99
35.2813	472.39
35.2958	467.15
35.3102	493.65
35.3247	504.35
35.3391	505.25
35.3535	491.42
35.3680	518.34
35.3824	512.87
35.3969	508.22
35.4113	519.20
35.4257	543.50
35.4402	529.20
35.4546	490.59
35.4691	519.48
35.4835	507.44
35.4979	500.57
35.5124	534.05
35.5268	564.96
35.5413	533.93
35.5557	573.56
35.5701	519.59
35.5846	515.69
35.5990	532.95
35.6135	534.31
35.6279	546.94
35.6423	538.34
35.6568	514.66
35.6712	565.84
35.6857	588.28
35.7001	658.56
35.7145	717.18
35.7290	681.67
35.7434	603.05
35.7579	591.71
35.7723	642.25
35.7867	671.81
35.8012	713.01
35.8156	729.94
35.8301	693.62
35.8445	665.81
35.8589	697.26
35.8734	776.93
35.8878	823.12
35.9023	973.42
35.9167	1028.78
35.9311	1198.82
35.9456	1608.80
35.9600	2019.44
35.9745	1939.54
35.9889	2123.09
36.0033	2506.11
36.0178	3034.35
36.0322	3049.46
36.0467	2234.56
36.0611	1966.16
36.0755	1948.58
36.0900	1894.85
36.1044	1821.27
36.1189	1656.65
36.1333	1610.73
36.1477	1466.82
36.1622	1409.64
36.1766	1307.90
36.1911	1162.05
36.2055	1058.61
36.2199	1009.23
36.2344	926.04
36.2488	840.91
36.2633	793.89
36.2777	762.52
36.2921	704.26
36.3066	648.03
36.3210	600.67
36.3355	641.60
36.3499	612.93
36.3643	535.94
36.3788	577.25
36.3932	525.29
36.4077	535.39
36.4221	593.25
36.4365	590.13
36.4510	555.38
36.4654	549.97
36.4799	551.21
36.4943	539.29
36.5087	532.29
36.5232	506.17
36.5376	550.38
36.5521	539.87
36.5665	496.71
36.5809	505.44
36.5954	504.77
36.6098	539.42
36.6243	520.08
36.6387	522.19
36.6531	542.91
36.6676	524.02
36.6820	533.47
36.6965	524.42
36.7109	524.83
36.7253	500.08
36.7398	490.63
36.7542	578.34
36.7687	515.13
36.7831	537.85
36.7975	532.56
36.8120	557.22
36.8264	581.28
36.8409	586.57
36.8553	601.93
36.8697	601.09
36.8842	564.64
36.8986	624.09
36.9131	611.61
36.9275	596.36
36.9419	599.16
36.9564	554.47
36.9708	574.73
36.9853	575.13
36.9997	537.92
37.0141	508.60
37.0286	540.92
37.0430	526.54
37.0575	548.78
37.0719	550.69
37.0863	579.99
37.1008	534.79
37.1152	489.06
37.1297	509.72
37.1441	491.26
37.1585	504.54
37.1730	501.40
37.1874	519.09
37.2019	511.24
37.2163	489.26
37.2307	508.41
37.2452	520.48
37.2596	483.79
37.2741	514.19
37.2885	495.65
37.3029	494.92
37.3174	508.15
37.3318	509.72
37.3463	513.69
37.3607	514.79
37.3751	517.48
37.3896	470.14
37.4040	474.74
37.4185	502.72
37.4329	566.93
37.4473	525.35
37.4618	498.33
37.4762	533.14
37.4907	518.63
37.5051	497.85
37.5195	514.51
37.5340	490.17
37.5484	480.79
37.5629	489.79
37.5773	485.27
37.5917	492.40
37.6062	516.66
37.6206	499.72
37.6351	530.08
37.6495	512.45
37.6639	495.75
37.6784	484.31
37.6928	516.07
37.7073	535.83
37.7217	519.38
37.7361	489.68
37.7506	502.13
37.7650	497.73
37.7795	509.30
37.7939	526.08
37.8083	477.69
37.8228	499.28
37.8372	510.67
37.8517	514.78
37.8661	529.91
37.8805	547.77
37.8950	511.76
37.9094	520.21
37.9239	496.39
37.9383	499.42
37.9528	478.07
37.9672	455.16
37.9816	522.15
37.9961	515.08
38.0105	521.67
38.0250	519.22
38.0394	532.87
38.0538	489.58
38.0683	515.49
38.0827	490.38
38.0972	504.13
38.1116	491.56
38.1260	528.86
38.1405	485.74
38.1549	485.01
38.1694	506.53
38.1838	528.16
38.1982	525.85
38.2127	483.47
38.2271	518.81
38.2416	504.83
38.2560	511.46
38.2704	503.56
38.2849	480.97
38.2993	470.58
38.3138	502.67
38.3282	520.52
38.3426	531.48
38.3571	524.44
38.3715	532.12
38.3860	557.82
38.4004	537.16
38.4148	576.22
38.4293	585.27
38.4437	581.04
38.4582	603.83
38.4726	676.20
38.4870	680.82
38.5015	715.26
38.5159	744.00
38.5304	803.73
38.5448	806.17
38.5592	796.89
38.5737	772.09
38.5881	751.37
38.6026	749.12
38.6170	734.73
38.6314	691.40
38.6459	707.87
38.6603	663.04
38.6748	625.62
38.6892	572.27
38.7036	565.48
38.7181	545.61
38.7325	513.34
38.7470	499.40
38.7614	481.14
38.7758	503.01
38.7903	505.15
38.8047	504.84
38.8192	543.57
38.8336	501.52
38.8480	485.12
38.8625	501.45
38.8769	517.08
38.8914	512.55
38.9058	544.47
38.9202	488.32
38.9347	493.04
38.9491	494.86
38.9636	482.64
38.9780	492.28
38.9924	491.04
39.0069	485.03
39.0213	509.80
39.0358	489.20
39.0502	503.66
39.0646	498.37
39.0791	498.56
39.0935	500.88
39.1080	491.02
39.1224	506.75
39.1368	530.42
39.1513	479.40
39.1657	504.54
39.1802	518.55
39.1946	499.00
39.2090	491.43
39.2235	506.47
39.2379	537.26
39.2524	533.99
39.2668	499.59
39.2812	483.53
39.2957	519.48
39.3101	522.65
39.3246	513.71
39.3390	512.09
39.3534	481.86
39.3679	475.80
39.3823	469.90
39.3968	500.86
39.4112	508.71
39.4256	544.19
39.4401	498.06
39.4545	475.36
39.4690	505.04
39.4834	519.45
39.4978	498.26
39.5123	475.85
39.5267	535.06
39.5412	520.22
39.5556	502.09
39.5700	482.14
39.5845	499.37
39.5989	494.55
39.6134	498.28
39.6278	512.86
39.6422	486.77
39.6567	501.18
39.6711	527.62
39.6856	491.89
39.7000	497.53
39.7144	518.31
39.7289	487.85
39.7433	508.59
39.7578	486.08
39.7722	522.32
39.7866	518.83
39.8011	507.12
39.8155	502.27
39.8300	482.26
39.8444	448.70
39.8588	483.19
39.8733	512.48
39.8877	519.65
39.9022	479.52
39.9166	456.81
39.9310	486.97
39.9455	522.67
39.9599	488.55
39.9744	484.78
39.9888	498.46
40.0032	540.96
40.0177	501.29
40.0321	505.14
40.0466	511.73
40.0610	527.15
40.0754	501.05
40.0899	512.24
40.1043	497.01
40.1188	459.75
40.1332	520.74
40.1476	485.60
40.1621	481.94
40.1765	495.48
40.1910	484.14
40.2054	498.05
40.2198	522.20
40.2343	501.20
40.2487	502.25
40.2632	454.16
40.2776	462.85
40.2920	493.55
40.3065	495.99
40.3209	476.85
40.3354	483.16
40.3498	548.19
40.3642	510.35
40.3787	516.91
40.3931	538.21
40.4076	482.09
40.4220	500.32
40.4364	491.90
40.4509	463.55
40.4653	466.64
40.4798	494.95
40.4942	482.55
40.5086	478.09
40.5231	470.91
40.5375	489.78
40.5520	500.72
40.5664	469.20
40.5808	484.27
40.5953	496.90
40.6097	506.84
40.6242	477.37
40.6386	490.78
40.6530	490.53
40.6675	479.66
40.6819	500.77
40.6964	501.91
40.7108	534.66
40.7252	493.47
40.7397	507.20
40.7541	523.66
40.7686	525.13
40.7830	504.17
40.7974	491.99
40.8119	511.79
40.8263	491.39
40.8408	528.97
40.8552	518.15
40.8696	495.00
40.8841	479.60
40.8985	547.24
40.9130	516.60
40.9274	470.93
40.9418	525.97
40.9563	509.70
40.9707	505.60
40.9852	505.49
40.9996	474.71
41.0140	486.93
41.0285	451.30
41.0429	488.41
41.0574	472.63
41.0718	481.74
41.0862	534.52
41.1007	500.33
41.1151	487.21
41.1296	513.37
41.1440	515.74
41.1584	508.81
41.1729	506.15
41.1873	480.07
41.2018	463.49
41.2162	485.86
41.2306	487.95
41.2451	482.38
41.2595	511.17
41.2740	477.54
41.2884	480.65
41.3028	505.75
41.3173	522.48
41.3317	551.12
41.3462	519.87
41.3606	472.01
41.3750	495.09
41.3895	477.06
41.4039	500.30
41.4184	490.12
41.4328	511.52
41.4472	513.15
41.4617	506.76
41.4761	509.54
41.4906	524.36
41.5050	496.69
41.5194	487.77
41.5339	497.52
41.5483	502.76
41.5628	511.05
41.5772	488.60
41.5916	531.29
41.6061	484.12
41.6205	508.67
41.6350	535.67
41.6494	490.99
41.6639	499.30
41.6783	461.45
41.6927	467.19
41.7072	510.14
41.7216	510.64
41.7361	489.14
41.7505	504.60
41.7649	481.39
41.7794	480.50
41.7938	505.26
41.8083	489.61
41.8227	452.71
41.8371	530.76
41.8516	482.22
41.8660	529.78
41.8805	540.79
41.8949	573.79
41.9093	538.53
41.9238	507.61
41.9382	546.81
41.9527	575.79
41.9671	565.87
41.9815	551.79
41.9960	528.53
42.0104	570.24
42.0249	598.61
42.0393	591.88
42.0537	619.73
42.0682	600.12
42.0826	578.25
42.0971	602.26
42.1115	559.40
42.1259	602.54
42.1404	602.37
42.1548	585.14
42.1693	660.31
42.1837	752.57
42.1981	718.80
42.2126	831.96
42.2270	958.24
42.2415	1061.53
42.2559	1182.64
42.2703	1385.61
42.2848	1509.20
42.2992	1628.39
42.3137	1716.02
42.3281	1703.89
42.3425	1587.98
42.3570	1493.42
42.3714	1445.26
42.3859	1357.54
42.4003	1355.15
42.4147	1361.70
42.4292	1304.83
42.4436	1164.31
42.4581	1048.61
42.4725	975.16
42.4869	879.97
42.5014	748.53
42.5158	711.66
42.5303	660.64
42.5447	633.56
42.5591	639.07
42.5736	592.76
42.5880	585.24
42.6025	570.42
42.6169	581.77
42.6313	556.69
42.6458	554.39
42.6602	530.21
42.6747	502.42
42.6891	515.31
42.7035	533.31
42.7180	527.47
42.7324	496.09
42.7469	555.35
42.7613	509.06
42.7757	509.54
42.7902	508.15
42.8046	522.44
42.8191	534.50
42.8335	523.95
42.8479	509.14
42.8624	525.87
42.8768	510.08
42.8913	508.52
42.9057	513.24
42.9201	525.35
42.9346	498.35
42.9490	511.16
42.9635	536.62
42.9779	530.75
42.9923	523.45
43.0068	530.90
43.0212	495.24
43.0357	496.86
43.0501	517.25
43.0645	544.15
43.0790	532.02
43.0934	535.57
43.1079	532.51
43.1223	505.32
43.1367	494.42
43.1512	509.51
43.1656	512.25
43.1801	529.91
43.1945	519.60
43.2089	515.69
43.2234	531.87
43.2378	522.53
43.2523	512.28
43.2667	529.31
43.2811	529.32
43.2956	491.85
43.3100	501.76
43.3245	511.79
43.3389	530.10
43.3533	527.56
43.3678	530.17
43.3822	540.30
43.3967	491.01
43.4111	502.46
43.4255	534.35
43.4400	512.33
43.4544	512.52
43.4689	528.19
43.4833	542.51
43.4977	492.28
43.5122	480.94
43.5266	535.17
43.5411	512.16
43.5555	473.91
43.5699	499.44
43.5844	510.78
43.5988	517.15
43.6133	515.24
43.6277	546.97
43.6421	529.47
43.6566	508.74
43.6710	526.71
43.6855	520.36
43.6999	550.40
43.7143	550.41
43.7288	537.01
43.7432	555.28
43.7577	558.08
43.7721	568.52
43.7865	580.44
43.8010	557.79
43.8154	602.46
43.8299	638.91
43.8443	655.72
43.8587	664.40
43.8732	666.10
43.8876	600.83
43.9021	680.45
43.9165	684.49
43.9309	626.97
43.9454	622.16
43.9598	581.51
43.9743	610.40
43.9887	610.60
44.0031	591.89
44.0176	595.83
44.0320	608.22
44.0465	547.22
44.0609	557.90
44.0753	568.09
44.0898	572.11
44.1042	556.83
44.1187	545.29
44.1331	517.31
44.1475	509.78
44.1620	546.44
44.1764	532.75
44.1909	523.03
44.2053	543.91
44.2197	540.33
44.2342	518.79
44.2486	501.97
44.2631	504.51
44.2775	544.80
44.2919	519.02
44.3064	531.78
44.3208	546.51
44.3353	534.77
44.3497	525.46
44.3641	549.23
44.3786	525.40
44.3930	565.01
44.4075	544.31
44.4219	585.46
44.4363	574.57
44.4508	590.78
44.4652	564.72
44.4797	568.55
44.4941	567.01
44.5085	569.50
44.5230	566.02
44.5374	588.36
44.5519	597.17
44.5663	628.49
44.5807	594.25
44.5952	587.45
44.6096	582.62
44.6241	578.24
44.6385	593.91
44.6529	559.41
44.6674	577.02
44.6818	580.63
44.6963	623.83
44.7107	639.53
44.7251	655.66
44.7396	715.46
44.7540	792.32
44.7685	825.41
44.7829	842.96
44.7973	863.43
44.8118	879.24
44.8262	836.70
44.8407	770.92
44.8551	753.50
44.8695	735.94
44.8840	722.78
44.8984	746.15
44.9129	745.02
44.9273	722.52
44.9417	662.36
44.9562	627.67
44.9706	561.78
44.9851	528.58
44.9995	519.63
45.0139	505.57
45.0284	556.02
45.0428	536.50
45.0573	567.56
45.0717	493.84
45.0861	557.80
45.1006	544.90
45.1150	501.49
45.1295	507.60
45.1439	540.21
45.1583	527.48
45.1728	525.33
45.1872	523.44
45.2017	525.91
45.2161	514.77
45.2305	512.14
45.2450	523.65
45.2594	503.49
45.2739	495.76
45.2883	503.33
45.3028	489.03
45.3172	496.95
45.3316	482.28
45.3461	511.22
45.3605	505.46
45.3750	510.33
45.3894	482.73
45.4038	511.71
45.4183	522.07
45.4327	531.77
45.4472	486.94
45.4616	489.04
45.4760	529.58
45.4905	536.10
45.5049	509.83
45.5194	489.93
45.5338	449.28
45.5482	474.31
45.5627	539.42
45.5771	501.18
45.5916	505.44
45.6060	497.64
45.6204	501.37
45.6349	506.76
45.6493	493.87
45.6638	504.97
45.6782	508.58
45.6926	487.76
45.7071	512.92
45.7215	481.73
45.7360	491.12
45.7504	509.15
45.7648	495.31
45.7793	492.13
45.7937	514.70
45.8082	514.37
45.8226	516.12
45.8370	517.46
45.8515	478.52
45.8659	503.06
45.8804	520.98
45.8948	531.42
45.9092	489.00
45.9237	517.77
45.9381	522.80
45.9526	509.83
45.9670	554.07
45.9814	503.48
45.9959	452.86
46.0103	520.21
46.0248	533.35
46.0392	481.29
46.0536	519.08
46.0681	515.64
46.0825	487.75
46.0970	488.64
46.1114	491.42
46.1258	515.44
46.1403	521.34
46.1547	484.78
46.1692	491.51
46.1836	515.71
46.1980	514.93
46.2125	522.96
46.2269	486.80
46.2414	498.35
46.2558	495.15
46.2702	513.35
46.2847	510.18
46.2991	536.58
46.3136	520.43
46.3280	512.80
46.3424	508.93
46.3569	491.43
46.3713	483.19
46.3858	486.67
46.4002	480.35
46.4146	478.78
46.4291	537.86
46.4435	504.76
46.4580	508.17
46.4724	515.09
46.4868	516.51
46.5013	498.86
46.5157	472.11
46.5302	476.67
46.5446	458.43
46.5590	494.83
46.5735	483.27
46.5879	495.22
46.6024	503.95
46.6168	486.13
46.6312	474.77
46.6457	488.80
46.6601	512.32
46.6746	505.02
46.6890	497.08
46.7034	485.27
46.7179	501.35
46.7323	485.25
46.7468	512.85
46.7612	513.81
46.7756	514.58
46.7901	507.76
46.8045	502.78
46.8190	517.16
46.8334	533.86
46.8478	527.65
46.8623	518.39
46.8767	492.72
46.8912	488.05
46.9056	500.27
46.9200	483.09
46.9345	503.25
46.9489	484.85
46.9634	503.40
46.9778	498.22
46.9922	471.03
47.0067	510.02
47.0211	513.68
47.0356	515.37
47.0500	516.23
47.0644	495.53
47.0789	493.55
47.0933	503.80
47.1078	495.78
47.1222	513.08
47.1366	517.68
47.1511	523.56
47.1655	501.65
47.1800	516.58
47.1944	485.47
47.2088	521.80
47.2233	504.46
47.2377	516.63
47.2522	497.27
47.2666	510.79
47.2810	511.56
47.2955	494.19
47.3099	514.67
47.3244	539.07
47.3388	536.62
47.3532	526.35
47.3677	526.62
47.3821	497.60
47.3966	485.53
47.4110	485.95
47.4254	500.59
47.4399	497.60
47.4543	497.64
47.4688	495.29
47.4832	531.40
47.4976	493.89
47.5121	453.99
47.5265	495.82
47.5410	526.14
47.5554	526.97
47.5698	493.32
47.5843	490.76
47.5987	482.31
47.6132	498.73
47.6276	477.37
47.6420	477.10
47.6565	489.97
47.6709	498.87
47.6854	498.50
47.6998	522.35
47.7142	495.90
47.7287	499.66
47.7431	525.53
47.7576	522.29
47.7720	517.66
47.7864	502.67
47.8009	508.95
47.8153	499.86
47.8298	484.51
47.8442	489.49
47.8586	493.11
47.8731	523.60
47.8875	500.13
47.9020	483.80
47.9164	487.36
47.9308	476.00
47.9453	507.22
47.9597	516.19
47.9742	523.20
47.9886	517.87
48.0030	485.13
48.0175	484.23
48.0319	500.93
48.0464	510.35
48.0608	511.22
48.0752	565.29
48.0897	582.99
48.1041	513.98
48.1186	510.11
48.1330	513.36
48.1474	487.10
48.1619	474.24
48.1763	507.89
48.1908	510.93
48.2052	518.10
48.2196	528.49
48.2341	510.41
48.2485	457.43
48.2630	491.25
48.2774	520.79
48.2918	500.33
48.3063	518.32
48.3207	558.24
48.3352	547.17
48.3496	481.80
48.3640	527.69
48.3785	542.70
48.3929	507.38
48.4074	489.31
48.4218	498.61
48.4362	523.96
48.4507	492.57
48.4651	515.15
48.4796	526.30
48.4940	503.32
48.5084	487.90
48.5229	525.70
48.5373	533.92
48.5518	527.01
48.5662	505.15
48.5806	487.79
48.5951	499.47
48.6095	524.20
48.6240	516.01
48.6384	530.64
48.6528	512.39
48.6673	527.22
48.6817	495.75
48.6962	510.27
48.7106	555.11
48.7250	521.92
48.7395	495.55
48.7539	504.63
48.7684	493.13
48.7828	538.71
48.7972	504.02
48.8117	515.48
48.8261	499.95
48.8406	515.19
48.8550	560.78
48.8694	558.61
48.8839	536.66
48.8983	541.04
48.9128	525.94
48.9272	537.68
48.9416	582.42
48.9561	594.16
48.9705	566.50
48.9850	577.60
48.9994	576.68
49.0139	558.39
49.0283	615.68
49.0427	602.59
49.0572	659.29
49.0716	603.56
49.0861	638.64
49.1005	677.48
49.1149	692.36
49.1294	773.99
49.1438	758.06
49.1583	812.00
49.1727	870.49
49.1871	872.63
49.2016	965.95
49.2160	1070.56
49.2305	1111.02
49.2449	1213.19
49.2593	1254.41
49.2738	1335.40
49.2882	1490.66
49.3027	1572.61
49.3171	1679.07
49.3315	1807.00
49.3460	1765.15
49.3604	1806.66
49.3749	1809.96
49.3893	1793.01
49.4037	1832.55
49.4182	1782.16
49.4326	1840.96
49.4471	1746.94
49.4615	1581.68
49.4759	1604.20
49.4904	1550.00
49.5048	1426.06
49.5193	1332.38
49.5337	1328.43
49.5481	1249.12
49.5626	1130.27
49.5770	1091.00
49.5915	994.37
49.6059	973.14
49.6203	904.77
49.6348	820.22
49.6492	755.05
49.6637	734.22
49.6781	700.35
49.6925	697.97
49.7070	667.59
49.7214	625.37
49.7359	630.87
49.7503	586.11
49.7647	617.67
49.7792	581.91
49.7936	584.88
49.8081	584.70
49.8225	575.93
49.8369	594.01
49.8514	600.51
49.8658	571.18
49.8803	547.85
49.8947	562.70
49.9091	540.48
49.9236	525.60
49.9380	558.25
49.9525	541.70
49.9669	528.93
49.9813	532.36
49.9958	533.00
50.0102	517.59
50.0247	532.88
50.0391	495.23
50.0535	523.08
50.0680	547.03
50.0824	514.70
50.0969	535.84
50.1113	521.60
50.1257	516.85
50.1402	532.86
50.1546	494.73
50.1691	521.37
50.1835	475.42
50.1979	491.49
50.2124	550.18
50.2268	550.37
50.2413	495.60
50.2557	507.22
50.2701	510.70
50.2846	517.61
50.2990	511.59
50.3135	521.91
50.3279	496.31
50.3423	496.68
50.3568	494.79
50.3712	488.19
50.3857	490.92
50.4001	500.70
50.4145	528.81
50.4290	541.87
50.4434	485.12
50.4579	493.66
50.4723	496.05
50.4867	494.82
50.5012	491.49
50.5156	488.78
50.5301	506.24
50.5445	513.62
50.5589	535.59
50.5734	528.21
50.5878	506.28
50.6023	519.37
50.6167	503.85
50.6311	506.32
50.6456	519.74
50.6600	515.10
50.6745	492.42
50.6889	505.25
50.7033	518.49
50.7178	494.70
50.7322	530.31
50.7467	489.86
50.7611	494.93
50.7755	502.85
50.7900	505.52
50.8044	524.51
50.8189	472.16
50.8333	478.01
50.8477	463.07
50.8622	490.20
50.8766	525.39
50.8911	509.35
50.9055	508.99
50.9199	518.44
50.9344	502.57
50.9488	501.76
50.9633	475.66
50.9777	506.25
50.9921	518.62
51.0066	524.68
51.0210	508.03
51.0355	469.10
51.0499	492.26
51.0643	494.48
51.0788	505.11
51.0932	521.78
51.1077	502.79
51.1221	485.99
51.1365	513.92
51.1510	478.63
51.1654	502.12
51.1799	547.76
51.1943	511.37
51.2087	503.31
51.2232	540.38
51.2376	532.53
51.2521	491.90
51.2665	510.20
51.2809	519.05
51.2954	502.84
51.3098	473.02
51.3243	490.60
51.3387	508.61
51.3531	505.76
51.3676	493.73
51.3820	479.75
51.3965	475.12
51.4109	460.69
51.4253	499.26
51.4398	490.52
51.4542	507.70
51.4687	513.87
51.4831	518.03
51.4975	511.00
51.5120	515.17
51.5264	542.01
51.5409	517.03
51.5553	522.18
51.5697	496.29
51.5842	534.94
51.5986	516.85
51.6131	497.98
51.6275	512.95
51.6419	522.27
51.6564	496.01
51.6708	506.71
51.6853	498.89
51.6997	514.85
51.7141	554.14
51.7286	488.64
51.7430	492.55
51.7575	514.13
51.7719	503.26
51.7863	492.76
51.8008	486.87
51.8152	507.01
51.8297	486.56
51.8441	487.27
51.8585	520.37
51.8730	538.10
51.8874	506.60
51.9019	491.43
51.9163	504.92
51.9307	503.37
51.9452	513.54
51.9596	495.16
51.9741	507.85
51.9885	533.64
52.0029	543.20
52.0174	528.70
52.0318	529.18
52.0463	512.22
52.0607	529.78
52.0751	519.19
52.0896	542.52
52.1040	502.73
52.1185	520.44
52.1329	496.98
52.1473	478.49
52.1618	511.62
52.1762	529.12
52.1907	518.72
52.2051	500.82
52.2195	494.27
52.2340	514.13
52.2484	552.89
52.2629	542.01
52.2773	507.55
52.2917	502.52
52.3062	482.25
52.3206	526.31
52.3351	498.85
52.3495	504.87
52.3639	538.05
52.3784	505.87
52.3928	494.03
52.4073	493.10
52.4217	517.16
52.4361	508.84
52.4506	489.52
52.4650	538.24
52.4795	522.95
52.4939	512.07
52.5083	517.87
52.5228	509.23
52.5372	497.41
52.5517	520.13
52.5661	491.10
52.5805	518.07
52.5950	502.05
52.6094	537.42
52.6239	527.20
52.6383	520.73
52.6527	529.66
52.6672	528.83
52.6816	512.95
52.6961	467.21
52.7105	490.23
52.7250	492.06
52.7394	508.12
52.7538	520.63
52.7683	491.54
52.7827	491.26
52.7972	501.21
52.8116	548.31
52.8260	508.79
52.8405	515.09
52.8549	524.94
52.8694	487.49
52.8838	494.11
52.8982	543.20
52.9127	525.65
52.9271	478.38
52.9416	528.11
52.9560	498.28
52.9704	502.45
52.9849	485.15
52.9993	525.41
53.0138	494.97
53.0282	493.80
53.0426	498.47
53.0571	498.27
53.0715	534.68
53.0860	535.24
53.1004	494.01
53.1148	504.98
53.1293	501.13
53.1437	482.98
53.1582	500.00
53.1726	541.26
53.1870	501.60
53.2015	514.34
53.2159	491.33
53.2304	500.56
53.2448	494.63
53.2592	501.26
53.2737	535.14
53.2881	464.96
53.3026	516.68
53.3170	517.02
53.3314	516.99
53.3459	492.82
53.3603	524.94
53.3748	534.82
53.3892	516.93
53.4036	497.90
53.4181	511.91
53.4325	559.88
53.4470	516.12
53.4614	516.44
53.4758	530.53
53.4903	506.85
53.5047	490.16
53.5192	533.97
53.5336	481.45
53.5480	507.35
53.5625	523.44
53.5769	467.64
53.5914	488.92
53.6058	498.71
53.6202	503.50
53.6347	516.04
53.6491	520.66
53.6636	534.70
53.6780	525.58
53.6924	496.96
53.7069	531.53
53.7213	513.51
53.7358	511.40
53.7502	522.97
53.7646	501.54
53.7791	505.21
53.7935	494.85
53.8080	503.34
53.8224	528.36
53.8368	560.25
53.8513	509.55
53.8657	536.59
53.8802	521.34
53.8946	550.61
53.9090	540.88
53.9235	517.45
53.9379	504.51
53.9524	505.14
53.9668	506.53
53.9812	505.43
53.9957	511.58
54.0101	517.90
54.0246	503.93
54.0390	505.18
54.0534	503.04
54.0679	514.72
54.0823	502.41
54.0968	547.12
54.1112	526.20
54.1256	525.06
54.1401	489.10
54.1545	511.29
54.1690	555.09
54.1834	542.45
54.1978	513.56
54.2123	501.74
54.2267	519.57
54.2412	504.82
54.2556	502.21
54.2700	528.14
54.2845	539.11
54.2989	501.77
54.3134	538.01
54.3278	570.46
54.3422	561.77
54.3567	545.65
54.3711	565.81
54.3856	559.57
54.4000	585.38
54.4144	592.45
54.4289	627.95
54.4433	592.75
54.4578	562.85
54.4722	610.38
54.4866	622.60
54.5011	595.51
54.5155	580.49
54.5300	559.13
54.5444	544.81
54.5588	608.70
54.5733	578.89
54.5877	582.63
54.6022	607.42
54.6166	586.11
54.6310	604.53
54.6455	584.29
54.6599	548.66
54.6744	561.57
54.6888	538.16
54.7032	525.05
54.7177	548.74
54.7321	529.34
54.7466	520.51
54.7610	477.82
54.7754	509.54
54.7899	560.76
54.8043	537.94
54.8188	545.27
54.8332	525.90
54.8476	506.00
54.8621	540.87
54.8765	523.09
54.8910	500.28
54.9054	525.04
54.9198	535.67
54.9343	524.23
54.9487	518.55
54.9632	512.43
54.9776	534.28
54.9920	534.39
55.0065	529.95
55.0209	535.55
55.0354	533.82
55.0498	499.22
55.0642	536.36
55.0787	524.13
55.0931	536.04
55.1076	510.17
55.1220	533.91
55.1364	523.29
55.1509	523.71
55.1653	538.55
55.1798	533.15
55.1942	517.38
55.2086	517.07
55.2231	525.52
55.2375	531.77
55.2520	490.74
55.2664	509.77
55.2808	520.89
55.2953	514.30
55.3097	520.08
55.3242	499.55
55.3386	526.45
55.3530	528.35
55.3675	498.86
55.3819	501.92
55.3964	518.33
55.4108	537.48
55.4252	556.51
55.4397	533.80
55.4541	540.91
55.4686	548.81
55.4830	518.59
55.4974	511.70
55.5119	503.99
55.5263	510.18
55.5408	507.21
55.5552	558.52
55.5696	525.91
55.5841	492.35
55.5985	486.95
55.6130	515.71
55.6274	537.52
55.6418	553.47
55.6563	522.38
55.6707	479.67
55.6852	508.56
55.6996	497.86
55.7140	519.53
55.7285	506.74
55.7429	501.22
55.7574	504.13
55.7718	523.33
55.7862	536.68
55.8007	501.70
55.8151	526.14
55.8296	533.52
55.8440	526.88
55.8584	524.95
55.8729	513.55
55.8873	506.39
55.9018	569.22
55.9162	530.37
55.9306	489.56
55.9451	484.44
55.9595	496.64
55.9740	489.45
55.9884	508.34
56.0028	522.07
56.0173	554.89
56.0317	495.99
56.0462	523.78
56.0606	530.97
56.0750	532.49
56.0895	519.96
56.1039	477.15
56.1184	508.30
56.1328	523.03
56.1472	475.76
56.1617	525.19
56.1761	535.77
56.1906	514.54
56.2050	537.73
56.2194	520.59
56.2339	537.50
56.2483	520.41
56.2628	533.47
56.2772	529.56
56.2916	533.35
56.3061	494.18
56.3205	542.83
56.3350	548.12
56.3494	526.31
56.3639	479.48
56.3783	493.24
56.3927	469.10
56.4072	480.34
56.4216	538.05
56.4361	505.42
56.4505	508.67
56.4649	504.85
56.4794	495.12
56.4938	528.39
56.5083	530.27
56.5227	546.25
56.5371	544.00
56.5516	517.41
56.5660	553.98
56.5805	536.17
56.5949	540.85
56.6093	529.67
56.6238	519.77
56.6382	511.81
56.6527	547.24
56.6671	527.89
56.6815	489.36
56.6960	543.22
56.7104	513.29
56.7249	545.88
56.7393	477.78
56.7537	493.28
56.7682	499.64
56.7826	516.70
56.7971	514.05
56.8115	546.19
56.8259	536.60
56.8404	511.99
56.8548	501.45
56.8693	515.96
56.8837	486.73
56.8981	546.08
56.9126	531.56
56.9270	529.54
56.9415	566.35
56.9559	515.93
56.9703	497.07
56.9848	521.52
56.9992	499.09
57.0137	501.47
57.0281	533.93
57.0425	518.09
57.0570	572.09
57.0714	524.74
57.0859	502.67
57.1003	525.67
57.1147	524.74
57.1292	540.11
57.1436	489.91
57.1581	516.90
57.1725	548.82
57.1869	534.32
57.2014	542.19
57.2158	522.34
57.2303	524.28
57.2447	531.45
57.2591	556.16
57.2736	531.00
57.2880	522.67
57.3025	502.20
57.3169	517.15
57.3313	527.86
57.3458	535.87
57.3602	536.63
57.3747	480.69
57.3891	505.03
57.4035	489.53
57.4180	496.33
57.4324	527.83
57.4469	538.14
57.4613	548.02
57.4757	531.14
57.4902	560.77
57.5046	542.46
57.5191	532.78
57.5335	503.04
57.5479	513.84
57.5624	527.07
57.5768	504.76
57.5913	542.42
57.6057	507.60
57.6201	552.53
57.6346	499.63
57.6490	506.49
57.6635	514.97
57.6779	523.70
57.6923	499.50
57.7068	559.40
57.7212	505.18
57.7357	490.65
57.7501	507.68
57.7645	500.25
57.7790	517.59
57.7934	519.55
57.8079	571.36
57.8223	561.30
57.8367	549.79
57.8512	577.18
57.8656	609.08
57.8801	552.49
57.8945	551.14
57.9089	594.01
57.9234	564.81
57.9378	626.79
57.9523	620.33
57.9667	596.23
57.9811	578.75
57.9956	615.66
58.0100	631.65
58.0245	679.41
58.0389	668.32
58.0533	698.42
58.0678	673.19
58.0822	654.06
58.0967	666.22
58.1111	666.76
58.1255	676.50
58.1400	621.60
58.1544	631.55
58.1689	643.79
58.1833	639.61
58.1977	652.61
58.2122	623.60
58.2266	605.81
58.2411	617.64
58.2555	620.85
58.2699	624.93
58.2844	617.86
58.2988	621.10
58.3133	604.84
58.3277	585.42
58.3421	559.58
58.3566	578.27
58.3710	569.76
58.3855	573.75
58.3999	554.48
58.4143	543.05
58.4288	588.37
58.4432	537.77
58.4577	504.00
58.4721	553.07
58.4865	563.65
58.5010	549.23
58.5154	566.95
58.5299	523.99
58.5443	520.72
58.5587	537.66
58.5732	546.24
58.5876	548.81
58.6021	510.13
58.6165	497.24
58.6309	543.83
58.6454	571.38
58.6598	551.97
58.6743	548.28
58.6887	534.39
58.7031	519.10
58.7176	551.93
58.7320	534.65
58.7465	552.47
58.7609	537.77
58.7753	543.32
58.7898	568.64
58.8042	533.68
58.8187	548.02
58.8331	555.42
58.8475	506.86
58.8620	531.79
58.8764	539.49
58.8909	527.07
58.9053	552.74
58.9197	551.27
58.9342	537.72
58.9486	517.50
58.9631	518.54
58.9775	525.28
58.9919	553.98
59.0064	539.44
59.0208	508.85
59.0353	533.96
59.0497	515.31
59.0641	531.28
59.0786	548.94
59.0930	555.41
59.1075	524.61
59.1219	550.24
59.1363	563.13
59.1508	534.71
59.1652	533.00
59.1797	526.05
59.1941	508.40
59.2085	532.76
59.2230	512.38
59.2374	532.86
59.2519	544.08
59.2663	535.53
59.2807	582.07
59.2952	557.28
59.3096	597.33
59.3241	609.63
59.3385	567.23
59.3529	580.78
59.3674	549.38
59.3818	567.28
59.3963	564.34
59.4107	571.84
59.4251	572.06
59.4396	539.50
59.4540	557.40
59.4685	561.10
59.4829	557.56
59.4973	516.37
59.5118	505.33
59.5262	530.62
59.5407	544.18
59.5551	541.35
59.5695	564.60
59.5840	551.78
59.5984	512.28
59.6129	534.61
59.6273	548.31
59.6417	561.42
59.6562	505.43
59.6706	511.85
59.6851	492.70
59.6995	516.71
59.7139	519.77
59.7284	500.69
59.7428	516.85
59.7573	521.26
59.7717	516.60
59.7861	508.06
59.8006	512.09
59.8150	529.13
59.8295	526.83
59.8439	534.72
59.8583	556.29
59.8728	546.15
59.8872	534.35
59.9017	542.22
59.9161	546.51
59.9305	525.38
59.9450	524.95
59.9594	533.05
59.9739	533.62
59.9883	549.82
60.0027	553.70
60.0172	501.07
60.0316	494.80
60.0461	511.75
60.0605	534.15
60.0750	536.11
60.0894	535.80
60.1038	544.99
60.1183	541.45
60.1327	545.85
60.1472	511.99
60.1616	551.86
60.1760	561.96
60.1905	549.75
60.2049	537.34
60.2194	518.21
60.2338	539.49
60.2482	524.38
60.2627	531.37
60.2771	528.93
60.2916	531.99
60.3060	545.43
60.3204	529.18
60.3349	541.13
60.3493	547.54
60.3638	547.59
60.3782	502.06
60.3926	504.40
60.4071	495.21
60.4215	550.23
60.4360	551.74
60.4504	542.60
60.4648	532.05
60.4793	504.95
60.4937	546.37
60.5082	524.85
60.5226	522.40
60.5370	549.78
60.5515	551.15
60.5659	515.57
60.5804	513.47
60.5948	538.18
60.6092	525.97
60.6237	536.70
60.6381	522.21
60.6526	574.10
60.6670	514.54
60.6814	544.46
60.6959	516.78
60.7103	568.55
60.7248	562.92
60.7392	526.05
60.7536	554.22
60.7681	537.64
60.7825	518.26
60.7970	550.94
60.8114	530.60
60.8258	544.53
60.8403	577.21
60.8547	549.77
60.8692	496.50
60.8836	528.05
60.8980	577.09
60.9125	563.45
60.9269	544.02
60.9414	537.82
60.9558	540.17
60.9702	560.29
60.9847	547.13
60.9991	557.09
61.0136	587.24
61.0280	543.56
61.0424	556.41
61.0569	540.01
61.0713	544.54
61.0858	583.21
61.1002	575.48
61.1146	575.20
61.1291	547.19
61.1435	542.62
61.1580	547.67
61.1724	525.34
61.1868	519.87
61.2013	531.92
61.2157	549.00
61.2302	543.97
61.2446	542.45
61.2590	567.34
61.2735	558.57
61.2879	553.35
61.3024	549.96
61.3168	545.34
61.3312	563.53
61.3457	557.08
61.3601	533.55
61.3746	568.44
61.3890	544.09
61.4034	531.30
61.4179	558.38
61.4323	576.28
61.4468	540.92
61.4612	518.01
61.4756	558.51
61.4901	530.47
61.5045	511.34
61.5190	538.85
61.5334	559.28
61.5478	579.23
61.5623	537.44
61.5767	524.73
61.5912	562.56
61.6056	565.72
61.6200	551.02
61.6345	538.01
61.6489	551.60
61.6634	533.63
61.6778	541.93
61.6922	565.43
61.7067	559.57
61.7211	539.64
61.7356	521.48
61.7500	529.46
61.7644	560.48
61.7789	540.71
61.7933	577.04
61.8078	564.34
61.8222	532.72
61.8366	539.54
61.8511	522.02
61.8655	563.92
61.8800	529.32
61.8944	540.51
61.9088	530.17
61.9233	522.97
61.9377	543.16
61.9522	514.15
61.9666	502.43
61.9810	549.20
61.9955	558.65
62.0099	541.88
62.0244	549.78
62.0388	559.49
62.0532	548.54
62.0677	526.54
62.0821	545.38
62.0966	590.37
62.1110	569.95
62.1254	573.86
62.1399	547.55
62.1543	531.81
62.1688	585.31
62.1832	543.71
62.1976	533.79
62.2121	556.50
62.2265	526.44
62.2410	535.00
62.2554	540.25
62.2698	553.08
62.2843	579.17
62.2987	579.04
62.3132	566.85
62.3276	552.34
62.3420	540.04
62.3565	581.92
62.3709	539.54
62.3854	521.84
62.3998	541.27
62.4142	540.25
62.4287	568.58
62.4431	550.11
62.4576	552.67
62.4720	571.49
62.4864	546.77
62.5009	553.90
62.5153	554.42
62.5298	545.77
62.5442	538.45
62.5586	568.68
62.5731	533.33
62.5875	530.69
62.6020	526.91
62.6164	564.29
62.6308	588.33
62.6453	574.94
62.6597	576.53
62.6742	559.68
62.6886	542.10
62.7030	541.87
62.7175	584.20
62.7319	566.04
62.7464	568.98
62.7608	548.18
62.7752	550.92
62.7897	584.57
62.8041	564.67
62.8186	578.01
62.8330	567.59
62.8474	578.61
62.8619	585.54
62.8763	548.08
62.8908	541.80
62.9052	557.94
62.9196	553.59
62.9341	550.46
62.9485	550.37
62.9630	557.53
62.9774	547.38
62.9918	565.37
63.0063	573.07
63.0207	572.91
63.0352	579.52
63.0496	578.18
63.0640	585.18
63.0785	593.40
63.0929	593.50
63.1074	594.74
63.1218	588.29
63.1362	576.69
63.1507	553.88
63.1651	588.88
63.1796	567.97
63.1940	578.95
63.2084	583.26
63.2229	579.58
63.2373	598.91
63.2518	629.60
63.2662	597.80
63.2806	578.29
63.2951	621.93
63.3095	553.40
63.3240	546.71
63.3384	555.73
63.3528	601.06
63.3673	611.85
63.3817	596.25
63.3962	578.68
63.4106	580.80
63.4250	598.12
63.4395	584.30
63.4539	568.76
63.4684	617.11
63.4828	608.69
63.4972	619.82
63.5117	600.82
63.5261	603.11
63.5406	603.80
63.5550	586.67
63.5694	585.75
63.5839	593.62
63.5983	676.13
63.6128	669.41
63.6272	684.52
63.6416	704.20
63.6561	685.68
63.6705	725.44
63.6850	743.06
63.6994	738.78
63.7138	774.15
63.7283	702.31
63.7427	767.13
63.7572	777.88
63.7716	770.86
63.7861	783.08
63.8005	764.86
63.8149	748.02
63.8294	785.49
63.8438	795.50
63.8583	793.26
63.8727	835.97
63.8871	786.57
63.9016	851.62
63.9160	847.10
63.9305	838.00
63.9449	816.79
63.9593	821.08
63.9738	797.72
63.9882	790.53
64.0027	770.58
64.0171	744.45
64.0315	696.34
64.0460	720.46
64.0604	707.86
64.0749	659.57
64.0893	710.38
64.1037	648.69
64.1182	673.89
64.1326	652.98
64.1471	584.08
64.1615	645.14
64.1759	653.38
64.1904	630.00
64.2048	604.97
64.2193	634.16
64.2337	616.11
64.2481	590.29
64.2626	609.60
64.2770	650.79
64.2915	581.74
64.3059	596.28
64.3203	600.72
64.3348	647.57
64.3492	605.56
64.3637	565.79
64.3781	591.68
64.3925	587.37
64.4070	588.34
64.4214	637.76
64.4359	638.68
64.4503	589.70
64.4647	597.07
64.4792	640.31
64.4936	644.69
64.5081	616.28
64.5225	653.09
64.5369	612.28
64.5514	603.05
64.5658	622.20
64.5803	609.49
64.5947	662.71
64.6091	655.77
64.6236	654.52
64.6380	677.01
64.6525	654.15
64.6669	667.37
64.6813	688.13
64.6958	658.15
64.7102	676.79
64.7247	643.53
64.7391	694.99
64.7535	678.99
64.7680	685.97
64.7824	735.61
64.7969	739.13
64.8113	721.18
64.8257	795.62
64.8402	779.42
64.8546	829.44
64.8691	876.49
64.8835	818.93
64.8979	831.25
64.9124	865.50
64.9268	879.64
64.9413	916.99
64.9557	945.50
64.9701	926.90
64.9846	1004.95
64.9990	1104.80
65.0135	1197.77
65.0279	1437.70
65.0423	1630.79
65.0568	1973.00
65.0712	2476.45
65.0857	3300.40
65.1001	4205.04
65.1145	5602.75
65.1290	7410.90
65.1434	8976.98
65.1579	10679.92
65.1723	11541.86
65.1867	11172.18
65.2012	10026.16
65.2156	8587.83
65.2301	6796.62
65.2445	5370.46
65.2589	4466.21
65.2734	4042.23
65.2878	4181.85
65.3023	4680.16
65.3167	5530.26
65.3311	6330.73
65.3456	6898.53
65.3600	7022.83
65.3745	6481.87
65.3889	5502.42
65.4033	4504.67
65.4178	3563.64
65.4322	2755.28
65.4467	2059.95
65.4611	1686.86
65.4755	1557.60
65.4900	1307.62
65.5044	1152.46
65.5189	1050.48
65.5333	1012.29
65.5477	926.34
65.5622	859.85
65.5766	859.05
65.5911	833.56
65.6055	820.75
65.6199	808.62
65.6344	785.25
65.6488	759.38
65.6633	704.88
65.6777	700.65
65.6921	655.98
65.7066	708.23
65.7210	751.20
65.7355	710.79
65.7499	677.77
65.7643	642.69
65.7788	704.19
65.7932	662.67
65.8077	641.21
65.8221	647.88
65.8365	669.74
65.8510	602.81
65.8654	658.29
65.8799	631.75
65.8943	688.45
65.9087	653.54
65.9232	611.35
65.9376	620.15
65.9521	617.35
65.9665	638.36
65.9809	622.43
65.9954	589.42
66.0098	630.61
66.0243	641.04
66.0387	654.84
66.0531	618.86
66.0676	626.89
66.0820	645.75
66.0965	587.38
66.1109	608.08
66.1253	610.36
66.1398	608.52
66.1542	583.13
66.1687	623.08
66.1831	591.16
66.1975	611.62
66.2120	603.98
66.2264	639.23
66.2409	616.57
66.2553	601.73
66.2697	597.21
66.2842	635.05
66.2986	578.20
66.3131	594.45
66.3275	587.93
66.3419	614.43
66.3564	584.08
66.3708	595.08
66.3853	613.71
66.3997	570.36
66.4141	585.94
66.4286	589.68
66.4430	572.54
66.4575	612.34
66.4719	622.33
66.4863	620.53
66.5008	598.65
66.5152	607.67
66.5297	590.48
66.5441	615.52
66.5585	620.31
66.5730	596.58
66.5874	619.64
66.6019	587.08
66.6163	561.37
66.6307	562.25
66.6452	598.78
66.6596	601.54
66.6741	548.93
66.6885	590.69
66.7029	625.38
66.7174	628.61
66.7318	598.07
66.7463	555.12
66.7607	564.81
66.7751	570.22
66.7896	579.46
66.8040	583.23
66.8185	584.39
66.8329	586.48
66.8473	568.17
66.8618	597.57
66.8762	580.51
66.8907	557.29
66.9051	588.09
66.9195	562.04
66.9340	571.77
66.9484	568.60
66.9629	536.82
66.9773	574.97
66.9917	591.26
67.0062	586.84
67.0206	601.47
67.0351	589.71
67.0495	572.96
67.0639	573.30
67.0784	602.55
67.0928	611.01
67.1073	570.07
67.1217	587.18
67.1361	579.73
67.1506	532.11
67.1650	591.07
67.1795	617.32
67.1939	583.40
67.2083	584.09
67.2228	551.15
67.2372	557.74
67.2517	598.27
67.2661	567.44
67.2805	562.64
67.2950	517.70
67.3094	551.90
67.3239	580.66
67.3383	607.83
67.3527	569.90
67.3672	588.49
67.3816	552.02
67.3961	570.18
67.4105	582.15
67.4250	575.62
67.4394	597.89
67.4538	557.44
67.4683	572.42
67.4827	572.64
67.4972	575.85
67.5116	551.91
67.5260	533.08
67.5405	591.36
67.5549	620.22
67.5694	543.14
67.5838	566.47
67.5982	604.52
67.6127	583.73
67.6271	585.49
67.6416	578.17
67.6560	568.29
67.6704	577.68
67.6849	543.99
67.6993	556.40
67.7138	597.90
67.7282	535.62
67.7426	554.72
67.7571	590.07
67.7715	553.44
67.7860	591.38
67.8004	596.77
67.8148	596.60
67.8293	560.24
67.8437	567.93
67.8582	583.20
67.8726	574.82
67.8870	591.48
67.9015	595.48
67.9159	547.11
67.9304	570.19
67.9448	541.61
67.9592	501.37
67.9737	541.97
67.9881	559.78
68.0026	575.44
68.0170	584.64
68.0314	569.50
68.0459	542.19
68.0603	598.48
68.0748	593.70
68.0892	621.44
68.1036	571.77
68.1181	601.78
68.1325	587.51
68.1470	533.08
68.1614	557.47
68.1758	547.77
68.1903	595.64
68.2047	585.96
68.2192	565.17
68.2336	583.13
68.2480	531.03
68.2625	544.94
68.2769	557.09
68.2914	579.61
68.3058	526.13
68.3202	579.56
68.3347	637.89
68.3491	586.25
68.3636	582.43
68.3780	575.33
68.3924	593.97
68.4069	563.11
68.4213	529.22
68.4358	573.86
68.4502	538.15
68.4646	572.85
68.4791	570.00
68.4935	611.69
68.5080	590.92
68.5224	586.27
68.5368	594.19
68.5513	586.30
68.5657	597.95
68.5802	602.05
68.5946	579.69
68.6090	589.09
68.6235	566.24
68.6379	559.51
68.6524	526.33
68.6668	566.56
68.6812	580.14
68.6957	536.20
68.7101	585.55
68.7246	599.24
68.7390	552.89
68.7534	595.96
68.7679	542.33
68.7823	547.78
68.7968	548.32
68.8112	546.32
68.8256	574.13
68.8401	598.25
68.8545	557.30
68.8690	537.49
68.8834	581.18
68.8978	637.70
68.9123	639.78
68.9267	568.58
68.9412	603.29
68.9556	589.93
68.9700	551.06
68.9845	533.84
68.9989	581.18
69.0134	595.98
69.0278	578.07
69.0422	560.03
69.0567	559.24
69.0711	557.25
69.0856	585.00
69.1000	544.78
69.1144	555.95
69.1289	597.96
69.1433	540.14
69.1578	601.65
69.1722	585.99
69.1866	565.75
69.2011	574.38
69.2155	561.01
69.2300	555.20
69.2444	584.95
69.2588	558.16
69.2733	547.21
69.2877	530.61
69.3022	552.27
69.3166	533.57
69.3310	609.90
69.3455	566.36
69.3599	581.84
69.3744	574.04
69.3888	573.32
69.4032	564.71
69.4177	557.97
69.4321	561.39
69.4466	567.80
69.4610	587.83
69.4754	593.30
69.4899	584.83
69.5043	567.31
69.5188	610.79
69.5332	598.64
69.5476	573.07
69.5621	561.40
69.5765	571.88
69.5910	557.19
69.6054	579.82
69.6198	574.92
69.6343	630.61
69.6487	555.29
69.6632	582.97
69.6776	600.07
69.6920	573.38
69.7065	617.89
69.7209	592.55
69.7354	583.46
69.7498	562.50
69.7642	578.44
69.7787	599.55
69.7931	596.00
69.8076	574.21
69.8220	593.89
69.8364	573.59
69.8509	553.06
69.8653	553.26
69.8798	591.60
69.8942	571.15
69.9086	568.84
69.9231	536.93
69.9375	569.57
69.9520	557.20
69.9664	543.36
69.9808	548.72
69.9953	517.71
70.0097	530.47
70.0242	573.90
70.0386	574.04
70.0530	538.77
70.0675	574.50
70.0819	560.42
70.0964	606.13
70.1108	566.80
70.1252	618.33
70.1397	602.05
70.1541	585.32
70.1686	519.80
70.1830	553.71
70.1974	585.90
70.2119	578.52
70.2263	552.53
70.2408	574.10
70.2552	576.12
70.2696	602.63
70.2841	552.56
70.2985	568.84
70.3130	577.46
70.3274	538.81
70.3418	635.83
70.3563	659.00
70.3707	554.41
70.3852	594.83
70.3996	588.43
70.4140	594.84
70.4285	596.92
70.4429	576.68
70.4574	559.19
70.4718	623.82
70.4862	594.94
70.5007	574.29
70.5151	565.45
70.5296	561.91
70.5440	624.50
70.5584	609.01
70.5729	544.31
70.5873	529.06
70.6018	569.84
70.6162	528.13
70.6306	568.70
70.6451	549.91
70.6595	603.22
70.6740	572.92
70.6884	501.02
70.7028	600.31
70.7173	582.78
70.7317	577.98
70.7462	609.44
70.7606	579.32
70.7750	627.01
70.7895	637.25
70.8039	597.78
70.8184	597.02
70.8328	548.34
70.8472	572.53
70.8617	556.76
70.8761	529.99
70.8906	580.50
70.9050	632.49
70.9194	605.63
70.9339	597.91
70.9483	582.27
70.9628	584.47
70.9772	591.84
70.9916	612.12
71.0061	515.19
71.0205	551.00
71.0350	555.26
71.0494	467.93
71.0638	518.09
71.0783	538.74
71.0927	564.86
71.1072	604.71
71.1216	564.46
71.1361	584.15
71.1505	595.29
71.1649	564.84
71.1794	528.91
71.1938	549.07
71.2083	570.63
71.2227	526.61
71.2371	524.80
71.2516	567.49
71.2660	554.54
71.2805	581.55
71.2949	569.55
71.3093	554.46
71.3238	548.34
71.3382	559.47
71.3527	607.01
71.3671	568.84
71.3815	561.47
71.3960	589.50
71.4104	573.69
71.4249	620.66
71.4393	629.88
71.4537	581.43
71.4682	549.45
71.4826	541.37
71.4971	561.96
71.5115	544.72
71.5259	505.23
71.5404	549.21
71.5548	619.69
71.5693	562.07
71.5837	584.33
71.5981	628.64
71.6126	584.28
71.6270	533.45
71.6415	543.98
71.6559	546.12
71.6703	553.99
71.6848	597.28
71.6992	623.89
71.7137	607.47
71.7281	580.11
71.7425	557.96
71.7570	504.40
71.7714	552.63
71.7859	577.93
71.8003	601.59
71.8147	626.10
71.8292	597.91
71.8436	561.01
71.8581	534.59
71.8725	548.51
71.8869	541.05
71.9014	580.98
71.9158	581.62
71.9303	607.43
71.9447	581.97
71.9591	626.07
71.9736	580.56
71.9880	501.94
72.0025	540.64
72.0169	577.60
72.0313	569.23
72.0458	595.74
72.0602	574.23
72.0747	566.20
72.0891	582.88
72.1035	605.86
72.1180	605.74
72.1324	607.16
72.1469	545.42
72.1613	566.57
72.1757	625.14
72.1902	632.92
72.2046	569.34
72.2191	552.56
72.2335	591.31
72.2479	616.48
72.2624	567.26
72.2768	621.10
72.2913	597.31
72.3057	573.09
72.3201	591.34
72.3346	626.53
72.3490	633.97
72.3635	593.69
72.3779	570.79
72.3923	572.87
72.4068	606.40
72.4212	549.73
72.4357	572.21
72.4501	569.65
72.4645	584.63
72.4790	652.57
72.4934	616.86
72.5079	608.95
72.5223	581.26
72.5367	559.17
72.5512	556.87
72.5656	633.10
72.5801	551.72
72.5945	545.63
72.6089	586.59
72.6234	577.25
72.6378	614.97
72.6523	620.06
72.6667	608.65
72.6811	648.47
72.6956	593.57
72.7100	629.03
72.7245	522.43
72.7389	576.71
72.7533	532.28
72.7678	482.06
72.7822	607.45
72.7967	616.42
72.8111	593.21
72.8255	567.00
72.8400	608.14
72.8544	672.86
72.8689	693.99
72.8833	682.31