2022.09.19 19:37:17
Îáðàçåö: ß÷åéêà LCoV 16-09-2022
Lambda1 = 1.54060
Lambda2 = 1.54439
Lambdam = 1.54186
R = 0.497
2Theta	I

line¹ 0 ;repeat¹ 0
22.1120	586.59
22.1264	582.02
22.1409	555.61
22.1553	514.53
22.1697	507.61
22.1842	533.26
22.1986	569.37
22.2131	521.41
22.2275	549.78
22.2419	545.61
22.2564	632.21
22.2708	607.67
22.2853	586.59
22.2997	580.45
22.3141	558.98
22.3286	541.73
22.3430	550.61
22.3575	611.14
22.3719	618.42
22.3863	602.26
22.4008	539.44
22.4152	570.51
22.4297	593.48
22.4441	554.39
22.4585	666.33
22.4730	668.30
22.4874	603.05
22.5019	626.49
22.5163	588.22
22.5307	522.99
22.5452	531.98
22.5596	585.59
22.5741	516.61
22.5885	508.30
22.6029	626.85
22.6174	587.54
22.6318	489.40
22.6463	511.28
22.6607	486.35
22.6751	516.34
22.6896	594.99
22.7040	740.28
22.7185	601.71
22.7329	559.73
22.7473	584.74
22.7618	549.30
22.7762	585.90
22.7907	615.55
22.8051	487.86
22.8195	531.58
22.8340	470.12
22.8484	494.95
22.8629	566.32
22.8773	497.28
22.8917	445.79
22.9062	517.58
22.9206	513.23
22.9351	582.08
22.9495	642.97
22.9639	591.79
22.9784	670.73
22.9928	529.33
23.0073	529.63
23.0217	611.82
23.0361	522.13
23.0506	550.19
23.0650	635.66
23.0795	428.91
23.0939	516.45
23.1083	641.21
23.1228	670.44
23.1372	532.30
23.1517	542.01
23.1661	516.30
23.1806	546.15
23.1950	530.91
23.2094	548.28
23.2239	543.43
23.2383	583.69
23.2528	583.78
23.2672	525.26
23.2816	619.38
23.2961	540.77
23.3105	542.44
23.3250	520.77
23.3394	594.24
23.3538	500.34
23.3683	544.45
23.3827	562.97
23.3972	550.70
23.4116	507.84
23.4260	590.03
23.4405	575.56
23.4549	478.35
23.4694	529.64
23.4838	591.00
23.4982	516.59
23.5127	579.01
23.5271	526.30
23.5416	573.62
23.5560	599.67
23.5704	596.57
23.5849	595.43
23.5993	533.82
23.6138	580.70
23.6282	524.70
23.6426	543.06
23.6571	575.12
23.6715	451.52
23.6860	516.07
23.7004	512.39
23.7148	542.23
23.7293	590.64
23.7437	561.75
23.7582	560.40
23.7726	594.16
23.7870	564.08
23.8015	562.23
23.8159	604.18
23.8304	555.53
23.8448	540.01
23.8592	589.77
23.8737	643.10
23.8881	475.11
23.9026	561.46
23.9170	487.38
23.9314	543.98
23.9459	552.52
23.9603	479.77
23.9748	547.26
23.9892	541.33
24.0036	531.71
24.0181	596.16
24.0325	612.27
24.0470	628.77
24.0614	607.06
24.0758	544.79
24.0903	673.35
24.1047	501.98
24.1192	526.75
24.1336	570.17
24.1480	511.96
24.1625	519.56
24.1769	599.34
24.1914	519.41
24.2058	538.81
24.2202	545.40
24.2347	624.50
24.2491	619.33
24.2636	563.83
24.2780	601.31
24.2924	583.95
24.3069	558.97
24.3213	548.61
24.3358	540.56
24.3502	552.64
24.3646	510.45
24.3791	533.22
24.3935	524.10
24.4080	545.26
24.4224	614.12
24.4368	572.23
24.4513	558.55
24.4657	591.38
24.4802	525.10
24.4946	544.00
24.5090	539.27
24.5235	532.40
24.5379	550.82
24.5524	585.42
24.5668	628.27
24.5812	591.16
24.5957	590.50
24.6101	611.39
24.6246	564.14
24.6390	555.22
24.6534	471.38
24.6679	603.88
24.6823	552.75
24.6968	551.90
24.7112	601.07
24.7256	512.83
24.7401	521.76
24.7545	557.60
24.7690	513.19
24.7834	565.38
24.7978	564.26
24.8123	570.30
24.8267	569.96
24.8412	543.77
24.8556	585.48
24.8700	543.24
24.8845	570.18
24.8989	548.72
24.9134	501.46
24.9278	501.42
24.9422	494.62
24.9567	534.49
24.9711	607.53
24.9856	535.01
25.0000	489.40
25.0144	593.32
25.0289	580.95
25.0433	527.87
25.0578	544.34
25.0722	519.78
25.0866	544.59
25.1011	540.15
25.1155	526.18
25.1300	571.84
25.1444	528.07
25.1588	563.51
25.1733	518.38
25.1877	473.46
25.2022	514.29
25.2166	562.21
25.2310	548.30
25.2455	533.32
25.2599	537.99
25.2744	513.16
25.2888	539.22
25.3032	493.60
25.3177	499.84
25.3321	539.63
25.3466	589.97
25.3610	601.34
25.3754	562.61
25.3899	524.38
25.4043	534.29
25.4188	586.58
25.4332	534.69
25.4476	532.83
25.4621	544.68
25.4765	541.51
25.4910	560.02
25.5054	503.38
25.5198	535.87
25.5343	556.87
25.5487	546.50
25.5632	511.37
25.5776	527.73
25.5920	524.31
25.6065	530.22
25.6209	531.28
25.6354	538.36
25.6498	551.83
25.6642	533.59
25.6787	553.48
25.6931	489.27
25.7076	510.77
25.7220	536.58
25.7364	542.19
25.7509	528.04
25.7653	552.86
25.7798	539.88
25.7942	523.78
25.8086	516.94
25.8231	577.42
25.8375	526.14
25.8520	524.84
25.8664	508.77
25.8808	523.40
25.8953	551.01
25.9097	542.43
25.9242	568.24
25.9386	560.74
25.9530	508.00
25.9675	489.84
25.9819	546.62
25.9964	538.14
26.0108	511.03
26.0252	553.90
26.0397	526.96
26.0541	544.53
26.0686	558.55
26.0830	567.53
26.0974	555.99
26.1119	536.37
26.1263	529.15
26.1408	522.84
26.1552	518.60
26.1696	538.77
26.1841	546.51
26.1985	512.43
26.2130	525.70
26.2274	527.27
26.2418	548.45
26.2563	522.98
26.2707	510.11
26.2852	540.72
26.2996	532.57
26.3140	540.26
26.3285	531.51
26.3429	522.78
26.3574	519.34
26.3718	535.99
26.3862	498.11
26.4007	498.40
26.4151	528.51
26.4296	568.56
26.4440	539.06
26.4584	518.29
26.4729	508.05
26.4873	534.91
26.5018	545.40
26.5162	555.63
26.5306	544.00
26.5451	535.91
26.5595	559.42
26.5740	555.31
26.5884	555.21
26.6028	550.73
26.6173	532.81
26.6317	539.82
26.6462	532.97
26.6606	550.86
26.6750	512.69
26.6895	486.03
26.7039	531.30
26.7184	501.38
26.7328	501.81
26.7472	568.01
26.7617	536.78
26.7761	495.02
26.7906	507.06
26.8050	548.77
26.8194	501.38
26.8339	517.49
26.8483	540.74
26.8628	520.70
26.8772	504.39
26.8917	529.82
26.9061	502.83
26.9205	486.94
26.9350	539.14
26.9494	562.77
26.9639	529.75
26.9783	537.02
26.9927	512.03
27.0072	518.65
27.0216	522.08
27.0361	475.42
27.0505	502.83
27.0649	493.68
27.0794	494.85
27.0938	497.58
27.1083	505.23
27.1227	581.29
27.1371	555.11
27.1516	517.98
27.1660	523.69
27.1805	532.50
27.1949	488.96
27.2093	523.75
27.2238	550.25
27.2382	524.58
27.2527	534.34
27.2671	542.23
27.2815	499.19
27.2960	482.04
27.3104	512.61
27.3249	494.40
27.3393	499.10
27.3537	504.16
27.3682	511.09
27.3826	486.55
27.3971	459.26
27.4115	515.73
27.4259	498.93
27.4404	508.09
27.4548	495.15
27.4693	504.66
27.4837	534.27
27.4981	517.36
27.5126	521.74
27.5270	530.41
27.5415	516.61
27.5559	536.50
27.5703	520.33
27.5848	496.85
27.5992	496.98
27.6137	492.36
27.6281	537.77
27.6425	495.61
27.6570	494.62
27.6714	508.21
27.6859	515.76
27.7003	506.61
27.7147	526.05
27.7292	513.26
27.7436	511.20
27.7581	497.93
27.7725	517.11
27.7869	545.49
27.8014	533.58
27.8158	516.34
27.8303	521.92
27.8447	486.36
27.8591	513.84
27.8736	562.10
27.8880	529.56
27.9025	540.35
27.9169	528.16
27.9313	506.50
27.9458	519.17
27.9602	517.61
27.9747	517.92
27.9891	521.78
28.0035	500.51
28.0180	531.57
28.0324	485.66
28.0469	503.62
28.0613	522.44
28.0757	479.11
28.0902	505.25
28.1046	502.23
28.1191	510.93
28.1335	497.10
28.1479	499.70
28.1624	530.30
28.1768	551.10
28.1913	499.48
28.2057	514.69
28.2201	500.75
28.2346	519.66
28.2490	501.69
28.2635	531.27
28.2779	468.49
28.2923	494.94
28.3068	516.95
28.3212	491.28
28.3357	513.29
28.3501	548.09
28.3645	532.61
28.3790	525.59
28.3934	500.20
28.4079	513.37
28.4223	536.13
28.4367	524.56
28.4512	512.16
28.4656	510.01
28.4801	498.19
28.4945	520.94
28.5089	515.69
28.5234	528.32
28.5378	516.59
28.5523	583.66
28.5667	509.26
28.5811	512.07
28.5956	491.42
28.6100	479.90
28.6245	491.14
28.6389	531.16
28.6533	493.88
28.6678	507.52
28.6822	495.77
28.6967	511.66
28.7111	534.81
28.7255	494.57
28.7400	493.66
28.7544	541.89
28.7689	514.17
28.7833	525.69
28.7977	493.44
28.8122	518.74
28.8266	474.66
28.8411	511.18
28.8555	553.63
28.8699	524.61
28.8844	486.06
28.8988	536.50
28.9133	520.27
28.9277	527.10
28.9421	509.20
28.9566	496.13
28.9710	524.30
28.9855	516.98
28.9999	497.76
29.0143	526.23
29.0288	483.85
29.0432	485.11
29.0577	498.84
29.0721	480.98
29.0865	534.25
29.1010	531.42
29.1154	536.17
29.1299	530.33
29.1443	482.55
29.1587	499.57
29.1732	497.32
29.1876	527.57
29.2021	512.21
29.2165	515.29
29.2309	507.98
29.2454	516.37
29.2598	481.28
29.2743	472.07
29.2887	499.12
29.3031	495.25
29.3176	516.51
29.3320	531.18
29.3465	524.56
29.3609	470.48
29.3753	526.29
29.3898	503.09
29.4042	477.81
29.4187	524.73
29.4331	526.71
29.4475	481.75
29.4620	526.11
29.4764	503.25
29.4909	522.77
29.5053	533.10
29.5197	453.05
29.5342	522.91
29.5486	533.54
29.5631	526.11
29.5775	522.61
29.5919	541.95
29.6064	500.96
29.6208	464.83
29.6353	493.86
29.6497	526.03
29.6641	484.39
29.6786	492.98
29.6930	503.43
29.7075	506.28
29.7219	505.52
29.7363	540.64
29.7508	521.15
29.7652	491.13
29.7797	498.97
29.7941	483.26
29.8085	520.50
29.8230	516.43
29.8374	482.85
29.8519	499.33
29.8663	491.82
29.8807	503.71
29.8952	515.64
29.9096	520.35
29.9241	523.10
29.9385	514.01
29.9529	480.82
29.9674	495.20
29.9818	508.49
29.9963	479.13
30.0107	492.35
30.0251	529.61
30.0396	495.78
30.0540	507.77
30.0685	503.34
30.0829	516.30
30.0973	496.53
30.1118	475.93
30.1262	517.94
30.1407	496.50
30.1551	500.51
30.1695	512.30
30.1840	532.53
30.1984	501.94
30.2129	489.51
30.2273	488.24
30.2417	504.85
30.2562	509.29
30.2706	500.50
30.2851	517.24
30.2995	513.01
30.3139	499.71
30.3284	531.61
30.3428	530.30
30.3573	553.68
30.3717	515.24
30.3861	512.98
30.4006	503.83
30.4150	518.71
30.4295	530.26
30.4439	502.58
30.4583	486.84
30.4728	525.61
30.4872	524.91
30.5017	516.56
30.5161	520.70
30.5305	562.48
30.5450	574.12
30.5594	604.60
30.5739	600.14
30.5883	577.86
30.6028	631.85
30.6172	643.81
30.6316	677.54
30.6461	718.11
30.6605	720.40
30.6750	698.17
30.6894	685.25
30.7038	714.03
30.7183	717.86
30.7327	692.87
30.7472	678.92
30.7616	640.20
30.7760	646.73
30.7905	631.94
30.8049	599.33
30.8194	591.70
30.8338	573.24
30.8482	554.54
30.8627	550.98
30.8771	537.24
30.8916	542.82
30.9060	539.27
30.9204	488.26
30.9349	503.41
30.9493	522.93
30.9638	524.00
30.9782	524.38
30.9926	515.41
31.0071	508.71
31.0215	513.24
31.0360	510.19
31.0504	523.68
31.0648	522.88
31.0793	514.79
31.0937	561.07
31.1082	525.77
31.1226	521.92
31.1370	537.96
31.1515	527.02
31.1659	491.13
31.1804	519.33
31.1948	495.38
31.2092	515.94
31.2237	500.80
31.2381	513.51
31.2526	479.33
31.2670	524.79
31.2814	552.33
31.2959	543.98
31.3103	559.18
31.3248	558.05
31.3392	555.95
31.3536	513.07
31.3681	513.53
31.3825	510.78
31.3970	513.33
31.4114	548.23
31.4258	542.40
31.4403	537.84
31.4547	500.84
31.4692	516.22
31.4836	477.26
31.4980	508.72
31.5125	517.47
31.5269	525.39
31.5414	500.09
31.5558	495.83
31.5702	491.75
31.5847	476.38
31.5991	475.24
31.6136	492.06
31.6280	522.05
31.6424	526.47
31.6569	498.61
31.6713	500.69
31.6858	505.58
31.7002	521.81
31.7146	528.13
31.7291	511.18
31.7435	499.42
31.7580	504.72
31.7724	512.43
31.7868	514.95
31.8013	490.27
31.8157	516.06
31.8302	516.41
31.8446	508.61
31.8590	491.49
31.8735	500.30
31.8879	471.71
31.9024	528.14
31.9168	550.39
31.9312	522.77
31.9457	547.65
31.9601	494.68
31.9746	480.81
31.9890	501.53
32.0034	494.31
32.0179	496.53
32.0323	512.49
32.0468	500.76
32.0612	496.56
32.0756	530.76
32.0901	535.04
32.1045	517.01
32.1190	492.95
32.1334	499.18
32.1478	503.16
32.1623	535.93
32.1767	518.87
32.1912	478.39
32.2056	486.00
32.2200	494.68
32.2345	507.70
32.2489	521.04
32.2634	493.57
32.2778	507.56
32.2922	496.35
32.3067	468.10
32.3211	474.66
32.3356	510.59
32.3500	506.86
32.3644	511.41
32.3789	516.97
32.3933	480.94
32.4078	496.53
32.4222	502.30
32.4366	473.68
32.4511	490.04
32.4655	556.43
32.4800	533.34
32.4944	513.93
32.5088	499.35
32.5233	506.27
32.5377	470.28
32.5522	502.78
32.5666	504.16
32.5810	463.97
32.5955	484.13
32.6099	496.63
32.6244	498.08
32.6388	492.11
32.6532	459.57
32.6677	477.86
32.6821	450.53
32.6966	483.77
32.7110	515.28
32.7254	496.75
32.7399	499.92
32.7543	472.32
32.7688	524.93
32.7832	515.90
32.7976	502.44
32.8121	516.20
32.8265	498.69
32.8410	484.86
32.8554	523.18
32.8698	522.05
32.8843	487.77
32.8987	496.91
32.9132	488.44
32.9276	494.31
32.9420	497.55
32.9565	541.91
32.9709	503.74
32.9854	505.93
32.9998	532.99
33.0142	501.97
33.0287	524.37
33.0431	510.34
33.0576	504.95
33.0720	481.72
33.0864	506.62
33.1009	514.40
33.1153	513.10
33.1298	485.02
33.1442	490.90
33.1586	504.01
33.1731	524.47
33.1875	511.14
33.2020	478.49
33.2164	524.39
33.2308	522.37
33.2453	519.49
33.2597	508.47
33.2742	502.77
33.2886	520.35
33.3030	508.89
33.3175	476.42
33.3319	517.63
33.3464	551.02
33.3608	491.33
33.3752	493.71
33.3897	488.69
33.4041	457.84
33.4186	476.61
33.4330	524.83
33.4474	504.58
33.4619	504.99
33.4763	524.95
33.4908	492.28
33.5052	526.51
33.5196	487.29
33.5341	508.43
33.5485	510.49
33.5630	521.69
33.5774	554.25
33.5918	539.56
33.6063	475.27
33.6207	492.38
33.6352	493.20
33.6496	483.85
33.6640	502.46
33.6785	485.82
33.6929	499.16
33.7074	515.15
33.7218	499.64
33.7362	506.17
33.7507	488.61
33.7651	510.10
33.7796	478.59
33.7940	492.34
33.8084	540.92
33.8229	567.97
33.8373	516.03
33.8518	526.02
33.8662	498.25
33.8806	464.86
33.8951	521.43
33.9095	542.72
33.9240	489.31
33.9384	504.07
33.9528	509.59
33.9673	506.31
33.9817	497.59
33.9962	478.56
34.0106	497.96
34.0250	486.19
34.0395	517.18
34.0539	522.65
34.0684	522.56
34.0828	513.21
34.0972	520.47
34.1117	512.75
34.1261	482.68
34.1406	493.53
34.1550	502.92
34.1694	523.24
34.1839	502.58
34.1983	529.22
34.2128	520.32
34.2272	528.13
34.2417	544.17
34.2561	519.84
34.2705	478.02
34.2850	500.12
34.2994	485.63
34.3139	491.83
34.3283	506.40
34.3427	532.39
34.3572	520.57
34.3716	491.89
34.3861	492.70
34.4005	517.18
34.4149	521.28
34.4294	536.22
34.4438	500.54
34.4583	496.17
34.4727	511.46
34.4871	487.71
34.5016	510.47
34.5160	527.12
34.5305	539.48
34.5449	504.79
34.5593	501.25
34.5738	497.46
34.5882	505.18
34.6027	524.85
34.6171	503.28
34.6315	543.80
34.6460	516.90
34.6604	489.44
34.6749	497.06
34.6893	506.77
34.7037	507.27
34.7182	519.61
34.7326	525.53
34.7471	511.51
34.7615	499.50
34.7759	513.30
34.7904	501.41
34.8048	504.53
34.8193	502.63
34.8337	526.43
34.8481	512.47
34.8626	508.28
34.8770	498.60
34.8915	529.95
34.9059	551.29
34.9203	509.62
34.9348	486.47
34.9492	529.26
34.9637	484.48
34.9781	491.44
34.9925	498.92
35.0070	487.63
35.0214	503.85
35.0359	474.62
35.0503	466.86
35.0647	465.13
35.0792	498.62
35.0936	525.33
35.1081	506.47
35.1225	493.31
35.1369	540.61
35.1514	468.92
35.1658	493.95
35.1803	498.55
35.1947	486.64
35.2091	487.09
35.2236	506.93
35.2380	514.69
35.2525	505.79
35.2669	526.09
35.2813	533.95
35.2958	516.90
35.3102	491.57
35.3247	495.88
35.3391	488.28
35.3535	467.10
35.3680	471.33
35.3824	504.86
35.3969	513.26
35.4113	527.51
35.4257	514.89
35.4402	517.12
35.4546	538.35
35.4691	519.30
35.4835	560.43
35.4979	543.31
35.5124	513.33
35.5268	515.39
35.5413	561.92
35.5557	569.49
35.5701	520.84
35.5846	541.51
35.5990	514.95
35.6135	508.42
35.6279	563.40
35.6423	568.39
35.6568	536.59
35.6712	565.02
35.6857	583.77
35.7001	678.88
35.7145	717.98
35.7290	690.06
35.7434	646.31
35.7579	606.90
35.7723	595.62
35.7867	624.06
35.8012	695.64
35.8156	715.44
35.8301	689.06
35.8445	690.25
35.8589	695.48
35.8734	803.23
35.8878	889.04
35.9023	969.38
35.9167	1028.78
35.9311	1179.97
35.9456	1635.89
35.9600	2098.69
35.9745	2001.08
35.9889	2107.22
36.0033	2444.44
36.0178	3003.10
36.0322	3208.85
36.0467	2437.77
36.0611	2062.69
36.0755	2047.57
36.0900	2024.26
36.1044	1820.97
36.1189	1645.13
36.1333	1608.39
36.1477	1452.12
36.1622	1313.51
36.1766	1264.24
36.1911	1075.64
36.2055	1042.45
36.2199	948.50
36.2344	882.72
36.2488	767.78
36.2633	734.97
36.2777	695.28
36.2921	674.53
36.3066	639.74
36.3210	606.56
36.3355	616.09
36.3499	605.08
36.3643	563.46
36.3788	548.03
36.3932	545.49
36.4077	528.84
36.4221	567.86
36.4365	578.53
36.4510	530.14
36.4654	547.48
36.4799	524.00
36.4943	538.35
36.5087	521.44
36.5232	520.70
36.5376	534.58
36.5521	544.37
36.5665	509.88
36.5809	513.04
36.5954	493.45
36.6098	525.17
36.6243	468.99
36.6387	508.99
36.6531	533.62
36.6676	523.80
36.6820	505.75
36.6965	533.78
36.7109	526.02
36.7253	523.90
36.7398	532.58
36.7542	560.29
36.7687	523.22
36.7831	531.50
36.7975	536.01
36.8120	566.99
36.8264	558.86
36.8409	547.22
36.8553	566.17
36.8697	612.23
36.8842	575.96
36.8986	577.07
36.9131	581.13
36.9275	597.48
36.9419	590.35
36.9564	593.29
36.9708	550.33
36.9853	553.65
36.9997	562.77
37.0141	560.46
37.0286	532.89
37.0430	487.48
37.0575	552.45
37.0719	503.58
37.0863	513.13
37.1008	526.64
37.1152	520.35
37.1297	512.12
37.1441	484.27
37.1585	464.51
37.1730	521.15
37.1874	476.59
37.2019	498.80
37.2163	464.20
37.2307	464.90
37.2452	490.83
37.2596	450.30
37.2741	486.92
37.2885	533.60
37.3029	488.86
37.3174	464.08
37.3318	504.86
37.3463	520.43
37.3607	514.75
37.3751	512.94
37.3896	480.79
37.4040	511.31
37.4185	513.21
37.4329	530.83
37.4473	488.51
37.4618	494.06
37.4762	492.75
37.4907	462.47
37.5051	479.31
37.5195	485.76
37.5340	488.47
37.5484	499.00
37.5629	483.38
37.5773	493.66
37.5917	565.66
37.6062	546.31
37.6206	485.60
37.6351	496.07
37.6495	494.42
37.6639	489.28
37.6784	512.83
37.6928	522.87
37.7073	521.37
37.7217	508.67
37.7361	461.22
37.7506	501.71
37.7650	488.20
37.7795	504.49
37.7939	522.87
37.8083	503.07
37.8228	507.29
37.8372	471.88
37.8517	461.72
37.8661	508.93
37.8805	537.29
37.8950	526.91
37.9094	554.24
37.9239	516.00
37.9383	497.02
37.9528	498.42
37.9672	513.14
37.9816	501.54
37.9961	523.77
38.0105	513.28
38.0250	509.59
38.0394	495.28
38.0538	518.10
38.0683	543.10
38.0827	545.28
38.0972	540.26
38.1116	511.19
38.1260	519.42
38.1405	500.70
38.1549	514.31
38.1694	509.62
38.1838	502.58
38.1982	488.78
38.2127	512.46
38.2271	509.62
38.2416	501.86
38.2560	542.51
38.2704	519.11
38.2849	494.89
38.2993	482.73
38.3138	503.39
38.3282	494.66
38.3426	498.69
38.3571	514.37
38.3715	487.88
38.3860	485.14
38.4004	520.11
38.4148	543.99
38.4293	564.11
38.4437	563.29
38.4582	583.25
38.4726	613.24
38.4870	659.46
38.5015	730.94
38.5159	729.28
38.5304	769.75
38.5448	817.15
38.5592	833.41
38.5737	732.52
38.5881	724.93
38.6026	718.26
38.6170	691.88
38.6314	677.85
38.6459	636.96
38.6603	637.77
38.6748	632.34
38.6892	574.41
38.7036	591.65
38.7181	573.72
38.7325	539.67
38.7470	535.04
38.7614	503.57
38.7758	504.52
38.7903	524.40
38.8047	516.25
38.8192	497.03
38.8336	500.91
38.8480	480.21
38.8625	515.17
38.8769	509.47
38.8914	484.75
38.9058	481.19
38.9202	479.46
38.9347	488.69
38.9491	495.10
38.9636	520.71
38.9780	518.09
38.9924	517.41
39.0069	560.42
39.0213	526.92
39.0358	486.84
39.0502	511.87
39.0646	525.92
39.0791	496.22
39.0935	501.65
39.1080	509.09
39.1224	518.92
39.1368	493.95
39.1513	461.23
39.1657	488.60
39.1802	517.21
39.1946	486.19
39.2090	495.07
39.2235	497.33
39.2379	493.91
39.2524	483.88
39.2668	501.47
39.2812	536.79
39.2957	487.54
39.3101	512.48
39.3246	536.79
39.3390	527.21
39.3534	513.20
39.3679	488.75
39.3823	486.39
39.3968	494.43
39.4112	483.18
39.4256	504.84
39.4401	529.13
39.4545	486.64
39.4690	525.42
39.4834	511.41
39.4978	526.95
39.5123	511.13
39.5267	512.37
39.5412	507.61
39.5556	499.49
39.5700	506.45
39.5845	503.06
39.5989	476.04
39.6134	471.50
39.6278	478.71
39.6422	504.51
39.6567	502.74
39.6711	527.14
39.6856	453.36
39.7000	484.93
39.7144	486.82
39.7289	488.29
39.7433	487.88
39.7578	469.65
39.7722	461.48
39.7866	515.48
39.8011	499.65
39.8155	503.52
39.8300	519.46
39.8444	520.28
39.8588	510.52
39.8733	483.46
39.8877	480.30
39.9022	499.72
39.9166	508.80
39.9310	476.77
39.9455	478.09
39.9599	504.94
39.9744	475.80
39.9888	487.87
40.0032	480.79
40.0177	506.39
40.0321	495.49
40.0466	475.29
40.0610	505.54
40.0754	486.09
40.0899	504.15
40.1043	511.54
40.1188	537.74
40.1332	531.76
40.1476	489.69
40.1621	511.70
40.1765	483.54
40.1910	481.91
40.2054	473.46
40.2198	494.96
40.2343	472.55
40.2487	540.23
40.2632	473.80
40.2776	488.34
40.2920	517.51
40.3065	503.79
40.3209	534.11
40.3354	509.25
40.3498	487.02
40.3642	506.64
40.3787	504.94
40.3931	484.19
40.4076	479.48
40.4220	537.77
40.4364	514.38
40.4509	475.37
40.4653	457.59
40.4798	510.78
40.4942	495.89
40.5086	481.81
40.5231	478.88
40.5375	496.73
40.5520	499.09
40.5664	485.88
40.5808	512.08
40.5953	518.17
40.6097	496.95
40.6242	520.15
40.6386	485.67
40.6530	461.40
40.6675	495.71
40.6819	452.60
40.6964	463.90
40.7108	522.08
40.7252	504.93
40.7397	515.13
40.7541	534.66
40.7686	509.62
40.7830	506.27
40.7974	502.00
40.8119	474.90
40.8263	514.24
40.8408	465.13
40.8552	509.95
40.8696	536.12
40.8841	488.49
40.8985	469.22
40.9130	501.27
40.9274	512.69
40.9418	551.40
40.9563	499.93
40.9707	456.35
40.9852	499.47
40.9996	523.35
41.0140	512.85
41.0285	522.14
41.0429	509.11
41.0574	446.71
41.0718	450.91
41.0862	492.18
41.1007	490.82
41.1151	518.51
41.1296	540.79
41.1440	505.72
41.1584	499.63
41.1729	472.34
41.1873	461.99
41.2018	466.02
41.2162	504.00
41.2306	516.88
41.2451	482.24
41.2595	492.61
41.2740	484.69
41.2884	528.28
41.3028	466.09
41.3173	487.21
41.3317	488.54
41.3462	517.44
41.3606	504.43
41.3750	524.13
41.3895	480.95
41.4039	525.33
41.4184	505.95
41.4328	482.33
41.4472	478.46
41.4617	491.02
41.4761	509.98
41.4906	504.83
41.5050	473.66
41.5194	528.00
41.5339	508.27
41.5483	524.38
41.5628	496.32
41.5772	447.85
41.5916	494.40
41.6061	504.43
41.6205	482.61
41.6350	507.38
41.6494	478.27
41.6639	480.35
41.6783	494.72
41.6927	503.79
41.7072	517.02
41.7216	520.43
41.7361	500.05
41.7505	532.51
41.7649	484.58
41.7794	504.77
41.7938	499.79
41.8083	528.05
41.8227	518.19
41.8371	547.34
41.8516	517.26
41.8660	525.62
41.8805	492.91
41.8949	520.28
41.9093	565.67
41.9238	571.87
41.9382	533.29
41.9527	570.92
41.9671	579.42
41.9815	584.63
41.9960	579.48
42.0104	580.91
42.0249	582.52
42.0393	515.85
42.0537	540.40
42.0682	544.99
42.0826	554.08
42.0971	575.27
42.1115	568.17
42.1259	617.49
42.1404	630.35
42.1548	629.14
42.1693	659.24
42.1837	692.91
42.1981	745.53
42.2126	863.01
42.2270	946.11
42.2415	1049.53
42.2559	1236.75
42.2703	1366.71
42.2848	1497.13
42.2992	1602.85
42.3137	1676.18
42.3281	1691.27
42.3425	1632.77
42.3570	1498.66
42.3714	1399.63
42.3859	1384.54
42.4003	1338.85
42.4147	1391.33
42.4292	1358.79
42.4436	1167.83
42.4581	1034.08
42.4725	941.66
42.4869	859.44
42.5014	758.17
42.5158	721.28
42.5303	682.40
42.5447	648.60
42.5591	632.72
42.5736	569.75
42.5880	574.76
42.6025	596.99
42.6169	554.90
42.6313	554.62
42.6458	570.15
42.6602	536.58
42.6747	537.38
42.6891	531.35
42.7035	544.85
42.7180	547.89
42.7324	522.13
42.7469	531.28
42.7613	515.93
42.7757	517.83
42.7902	533.71
42.8046	522.27
42.8191	517.27
42.8335	511.54
42.8479	498.83
42.8624	504.04
42.8768	512.91
42.8913	497.39
42.9057	511.50
42.9201	506.19
42.9346	495.22
42.9490	502.53
42.9635	507.74
42.9779	504.12
42.9923	510.82
43.0068	497.72
43.0212	511.78
43.0357	541.86
43.0501	519.06
43.0645	498.33
43.0790	528.57
43.0934	501.26
43.1079	466.77
43.1223	511.61
43.1367	559.49
43.1512	493.80
43.1656	529.35
43.1801	521.13
43.1945	498.28
43.2089	519.51
43.2234	513.63
43.2378	528.33
43.2523	512.54
43.2667	516.46
43.2811	553.02
43.2956	545.06
43.3100	532.06
43.3245	513.48
43.3389	556.07
43.3533	537.64
43.3678	508.91
43.3822	512.46
43.3967	504.35
43.4111	494.91
43.4255	502.40
43.4400	522.05
43.4544	514.82
43.4689	527.64
43.4833	534.51
43.4977	515.01
43.5122	516.12
43.5266	492.53
43.5411	488.24
43.5555	505.72
43.5699	506.36
43.5844	498.43
43.5988	516.00
43.6133	482.88
43.6277	490.86
43.6421	552.03
43.6566	528.31
43.6710	489.44
43.6855	502.04
43.6999	514.94
43.7143	529.49
43.7288	530.61
43.7432	562.19
43.7577	550.71
43.7721	575.19
43.7865	586.43
43.8010	569.23
43.8154	613.54
43.8299	596.92
43.8443	608.09
43.8587	637.15
43.8732	616.83
43.8876	628.39
43.9021	633.66
43.9165	615.92
43.9309	588.35
43.9454	603.16
43.9598	589.48
43.9743	602.73
43.9887	621.21
44.0031	585.77
44.0176	549.43
44.0320	528.70
44.0465	521.60
44.0609	518.57
44.0753	546.58
44.0898	543.07
44.1042	527.68
44.1187	537.72
44.1331	547.07
44.1475	492.85
44.1620	533.00
44.1764	549.09
44.1909	518.60
44.2053	542.22
44.2197	527.55
44.2342	509.75
44.2486	544.72
44.2631	511.17
44.2775	512.66
44.2919	522.80
44.3064	538.57
44.3208	541.77
44.3353	538.01
44.3497	548.23
44.3641	521.46
44.3786	576.89
44.3930	543.95
44.4075	524.16
44.4219	558.35
44.4363	590.71
44.4508	568.17
44.4652	601.30
44.4797	611.48
44.4941	569.18
44.5085	594.86
44.5230	582.08
44.5374	579.44
44.5519	569.90
44.5663	560.56
44.5807	572.73
44.5952	579.92
44.6096	575.64
44.6241	545.95
44.6385	572.57
44.6529	579.05
44.6674	581.67
44.6818	580.54
44.6963	618.09
44.7107	687.10
44.7251	707.58
44.7396	744.57
44.7540	799.63
44.7685	803.43
44.7829	889.61
44.7973	874.93
44.8118	865.50
44.8262	819.83
44.8407	776.65
44.8551	756.48
44.8695	732.87
44.8840	722.90
44.8984	711.49
44.9129	753.63
44.9273	753.00
44.9417	630.81
44.9562	576.84
44.9706	594.89
44.9851	566.29
44.9995	538.39
45.0139	560.28
45.0284	550.85
45.0428	520.08
45.0573	535.43
45.0717	519.06
45.0861	527.17
45.1006	516.01
45.1150	496.38
45.1295	534.76
45.1439	533.91
45.1583	507.61
45.1728	480.44
45.1872	500.11
45.2017	507.15
45.2161	498.41
45.2305	520.46
45.2450	521.24
45.2594	503.27
45.2739	483.68
45.2883	493.78
45.3028	494.54
45.3172	505.34
45.3316	545.51
45.3461	524.17
45.3605	503.19
45.3750	486.46
45.3894	510.96
45.4038	517.20
45.4183	480.60
45.4327	483.55
45.4472	452.19
45.4616	515.44
45.4760	489.29
45.4905	487.06
45.5049	497.82
45.5194	526.25
45.5338	513.69
45.5482	502.64
45.5627	518.20
45.5771	496.11
45.5916	495.27
45.6060	476.65
45.6204	517.38
45.6349	529.35
45.6493	531.64
45.6638	505.74
45.6782	485.09
45.6926	496.51
45.7071	499.21
45.7215	488.81
45.7360	509.25
45.7504	501.02
45.7648	501.92
45.7793	494.26
45.7937	514.48
45.8082	534.46
45.8226	504.53
45.8370	494.72
45.8515	483.49
45.8659	512.71
45.8804	539.70
45.8948	504.26
45.9092	540.52
45.9237	513.54
45.9381	549.28
45.9526	492.17
45.9670	487.92
45.9814	472.06
45.9959	475.29
46.0103	486.63
46.0248	490.90
46.0392	487.15
46.0536	483.21
46.0681	498.66
46.0825	501.39
46.0970	505.14
46.1114	496.03
46.1258	509.33
46.1403	503.51
46.1547	471.49
46.1692	503.33
46.1836	484.90
46.1980	456.16
46.2125	500.48
46.2269	520.20
46.2414	481.71
46.2558	473.30
46.2702	491.09
46.2847	493.35
46.2991	513.29
46.3136	494.64
46.3280	479.54
46.3424	480.19
46.3569	513.81
46.3713	496.91
46.3858	474.57
46.4002	491.55
46.4146	475.15
46.4291	508.05
46.4435	472.59
46.4580	477.13
46.4724	517.04
46.4868	518.36
46.5013	475.67
46.5157	474.54
46.5302	502.16
46.5446	503.07
46.5590	513.39
46.5735	484.65
46.5879	501.59
46.6024	507.87
46.6168	485.52
46.6312	486.96
46.6457	485.59
46.6601	474.07
46.6746	507.83
46.6890	481.29
46.7034	485.07
46.7179	498.21
46.7323	502.27
46.7468	507.52
46.7612	535.15
46.7756	520.81
46.7901	498.15
46.8045	502.14
46.8190	493.96
46.8334	517.34
46.8478	512.60
46.8623	517.28
46.8767	518.39
46.8912	500.88
46.9056	486.78
46.9200	506.92
46.9345	521.30
46.9489	523.38
46.9634	520.92
46.9778	518.94
46.9922	532.93
47.0067	508.27
47.0211	499.87
47.0356	517.43
47.0500	492.48
47.0644	491.82
47.0789	479.03
47.0933	466.35
47.1078	489.69
47.1222	496.83
47.1366	495.43
47.1511	485.73
47.1655	534.47
47.1800	516.91
47.1944	495.57
47.2088	479.69
47.2233	458.68
47.2377	478.88
47.2522	525.03
47.2666	488.93
47.2810	511.43
47.2955	509.83
47.3099	493.30
47.3244	508.77
47.3388	522.65
47.3532	479.42
47.3677	482.84
47.3821	486.89
47.3966	500.29
47.4110	488.99
47.4254	548.35
47.4399	496.33
47.4543	522.67
47.4688	557.43
47.4832	551.80
47.4976	505.55
47.5121	481.15
47.5265	517.82
47.5410	511.69
47.5554	500.57
47.5698	508.05
47.5843	474.28
47.5987	486.01
47.6132	490.27
47.6276	486.37
47.6420	522.70
47.6565	519.51
47.6709	502.72
47.6854	482.89
47.6998	512.28
47.7142	507.50
47.7287	498.24
47.7431	484.24
47.7576	493.17
47.7720	481.52
47.7864	500.71
47.8009	480.52
47.8153	495.39
47.8298	500.51
47.8442	473.83
47.8586	506.29
47.8731	529.06
47.8875	523.95
47.9020	497.28
47.9164	470.27
47.9308	527.03
47.9453	512.97
47.9597	532.47
47.9742	496.54
47.9886	470.69
48.0030	485.22
48.0175	520.22
48.0319	490.66
48.0464	491.72
48.0608	500.73
48.0752	478.03
48.0897	520.42
48.1041	500.59
48.1186	509.50
48.1330	514.38
48.1474	469.12
48.1619	496.41
48.1763	483.92
48.1908	541.83
48.2052	477.94
48.2196	535.48
48.2341	504.54
48.2485	502.74
48.2630	473.82
48.2774	519.31
48.2918	501.82
48.3063	495.59
48.3207	493.29
48.3352	528.68
48.3496	504.42
48.3640	492.08
48.3785	504.80
48.3929	477.70
48.4074	504.63
48.4218	518.76
48.4362	532.60
48.4507	487.99
48.4651	489.83
48.4796	496.03
48.4940	517.41
48.5084	514.64
48.5229	503.93
48.5373	494.39
48.5518	527.75
48.5662	501.56
48.5806	492.22
48.5951	478.43
48.6095	507.32
48.6240	545.59
48.6384	509.63
48.6528	517.45
48.6673	501.42
48.6817	517.68
48.6962	504.11
48.7106	517.11
48.7250	473.88
48.7395	521.06
48.7539	537.83
48.7684	506.53
48.7828	522.87
48.7972	532.69
48.8117	515.20
48.8261	512.37
48.8406	529.60
48.8550	544.95
48.8694	541.96
48.8839	553.86
48.8983	557.04
48.9128	563.19
48.9272	539.74
48.9416	594.07
48.9561	517.59
48.9705	570.14
48.9850	565.95
48.9994	593.73
49.0139	596.76
49.0283	614.12
49.0427	598.07
49.0572	604.93
49.0716	638.90
49.0861	695.07
49.1005	704.81
49.1149	685.09
49.1294	762.66
49.1438	738.23
49.1583	785.50
49.1727	863.48
49.1871	885.13
49.2016	954.42
49.2160	1014.67
49.2305	1129.35
49.2449	1223.25
49.2593	1307.80
49.2738	1407.13
49.2882	1501.55
49.3027	1606.01
49.3171	1692.53
49.3315	1811.52
49.3460	1869.56
49.3604	1899.00
49.3749	1874.12
49.3893	1810.82
49.4037	1813.52
49.4182	1890.86
49.4326	1783.55
49.4471	1656.82
49.4615	1613.26
49.4759	1603.02
49.4904	1538.20
49.5048	1456.77
49.5193	1374.95
49.5337	1346.06
49.5481	1270.62
49.5626	1165.75
49.5770	1066.65
49.5915	1007.68
49.6059	938.22
49.6203	903.33
49.6348	836.16
49.6492	846.20
49.6637	788.39
49.6781	699.70
49.6925	664.07
49.7070	662.07
49.7214	628.99
49.7359	603.54
49.7503	620.86
49.7647	595.45
49.7792	586.97
49.7936	554.19
49.8081	568.42
49.8225	556.49
49.8369	549.09
49.8514	556.63
49.8658	570.44
49.8803	530.50
49.8947	566.68
49.9091	563.46
49.9236	533.69
49.9380	545.52
49.9525	511.50
49.9669	506.38
49.9813	561.09
49.9958	518.80
50.0102	529.28
50.0247	526.83
50.0391	515.23
50.0535	523.59
50.0680	532.60
50.0824	542.69
50.0969	553.32
50.1113	532.93
50.1257	536.47
50.1402	523.74
50.1546	521.27
50.1691	527.53
50.1835	523.90
50.1979	513.28
50.2124	508.64
50.2268	519.46
50.2413	546.35
50.2557	529.29
50.2701	524.14
50.2846	484.93
50.2990	506.15
50.3135	518.44
50.3279	513.93
50.3423	516.71
50.3568	543.82
50.3712	521.50
50.3857	506.87
50.4001	506.21
50.4145	518.48
50.4290	505.22
50.4434	520.41
50.4579	510.52
50.4723	544.73
50.4867	524.87
50.5012	502.45
50.5156	497.37
50.5301	512.04
50.5445	503.86
50.5589	519.09
50.5734	473.99
50.5878	508.86
50.6023	499.67
50.6167	494.35
50.6311	509.54
50.6456	523.16
50.6600	521.46
50.6745	534.27
50.6889	477.80
50.7033	503.18
50.7178	505.94
50.7322	492.28
50.7467	482.28
50.7611	466.14
50.7755	508.37
50.7900	499.95
50.8044	529.79
50.8189	527.16
50.8333	486.38
50.8477	485.66
50.8622	529.68
50.8766	525.21
50.8911	515.68
50.9055	511.84
50.9199	507.64
50.9344	551.77
50.9488	498.94
50.9633	454.99
50.9777	503.98
50.9921	529.80
51.0066	489.55
51.0210	474.24
51.0355	496.56
51.0499	514.69
51.0643	500.89
51.0788	509.44
51.0932	528.88
51.1077	531.18
51.1221	556.94
51.1365	533.10
51.1510	494.31
51.1654	505.38
51.1799	511.39
51.1943	477.26
51.2087	470.15
51.2232	477.37
51.2376	515.27
51.2521	498.14
51.2665	492.46
51.2809	521.75
51.2954	489.33
51.3098	482.56
51.3243	511.25
51.3387	492.58
51.3531	500.32
51.3676	493.64
51.3820	486.99
51.3965	499.82
51.4109	525.64
51.4253	504.50
51.4398	502.40
51.4542	497.42
51.4687	531.80
51.4831	502.42
51.4975	491.27
51.5120	510.84
51.5264	502.17
51.5409	523.26
51.5553	515.68
51.5697	516.06
51.5842	523.61
51.5986	503.60
51.6131	493.07
51.6275	506.22
51.6419	485.56
51.6564	503.00
51.6708	484.32
51.6853	509.90
51.6997	505.04
51.7141	566.71
51.7286	525.03
51.7430	527.17
51.7575	527.93
51.7719	537.02
51.7863	504.85
51.8008	512.83
51.8152	486.48
51.8297	484.17
51.8441	480.56
51.8585	498.99
51.8730	542.09
51.8874	512.02
51.9019	510.08
51.9163	511.92
51.9307	538.61
51.9452	515.68
51.9596	475.64
51.9741	501.06
51.9885	513.74
52.0029	529.43
52.0174	481.45
52.0318	519.37
52.0463	474.71
52.0607	507.91
52.0751	506.81
52.0896	505.64
52.1040	475.49
52.1185	478.86
52.1329	502.63
52.1473	509.27
52.1618	536.80
52.1762	516.82
52.1907	490.20
52.2051	491.03
52.2195	507.42
52.2340	521.48
52.2484	492.20
52.2629	496.78
52.2773	508.73
52.2917	507.78
52.3062	489.35
52.3206	516.01
52.3351	526.49
52.3495	519.10
52.3639	507.99
52.3784	541.04
52.3928	494.93
52.4073	486.16
52.4217	501.57
52.4361	518.56
52.4506	524.99
52.4650	517.24
52.4795	489.14
52.4939	505.88
52.5083	483.66
52.5228	498.99
52.5372	524.10
52.5517	518.14
52.5661	525.45
52.5805	532.17
52.5950	511.09
52.6094	463.06
52.6239	519.47
52.6383	513.78
52.6527	472.43
52.6672	534.26
52.6816	494.70
52.6961	518.39
52.7105	538.25
52.7250	484.74
52.7394	522.37
52.7538	501.32
52.7683	474.04
52.7827	517.88
52.7972	502.78
52.8116	493.68
52.8260	476.86
52.8405	491.41
52.8549	500.12
52.8694	537.27
52.8838	519.00
52.8982	524.73
52.9127	499.04
52.9271	508.18
52.9416	512.98
52.9560	507.84
52.9704	515.85
52.9849	479.89
52.9993	502.21
53.0138	490.14
53.0282	476.47
53.0426	528.07
53.0571	503.84
53.0715	507.80
53.0860	534.88
53.1004	498.93
53.1148	509.59
53.1293	478.52
53.1437	491.93
53.1582	495.18
53.1726	494.93
53.1870	492.17
53.2015	522.57
53.2159	517.90
53.2304	505.34
53.2448	534.23
53.2592	502.35
53.2737	527.08
53.2881	508.94
53.3026	526.99
53.3170	496.27
53.3314	496.57
53.3459	513.06
53.3603	561.99
53.3748	492.82
53.3892	484.46
53.4036	494.77
53.4181	479.07
53.4325	547.57
53.4470	504.87
53.4614	511.15
53.4758	551.82
53.4903	544.18
53.5047	521.82
53.5192	502.25
53.5336	497.05
53.5480	529.69
53.5625	553.68
53.5769	492.18
53.5914	496.11
53.6058	482.66
53.6202	515.10
53.6347	501.06
53.6491	503.60
53.6636	506.63
53.6780	525.01
53.6924	506.45
53.7069	535.30
53.7213	483.93
53.7358	489.50
53.7502	538.82
53.7646	554.08
53.7791	517.80
53.7935	527.13
53.8080	522.52
53.8224	519.56
53.8368	510.15
53.8513	526.36
53.8657	508.45
53.8802	480.54
53.8946	515.57
53.9090	553.90
53.9235	518.14
53.9379	510.16
53.9524	533.69
53.9668	504.36
53.9812	499.87
53.9957	491.93
54.0101	487.68
54.0246	529.01
54.0390	499.09
54.0534	500.98
54.0679	515.19
54.0823	517.07
54.0968	520.89
54.1112	515.57
54.1256	532.14
54.1401	501.80
54.1545	516.92
54.1690	546.43
54.1834	547.76
54.1978	512.82
54.2123	517.48
54.2267	533.58
54.2412	533.66
54.2556	517.69
54.2700	536.70
54.2845	540.31
54.2989	553.82
54.3134	546.30
54.3278	586.68
54.3422	541.26
54.3567	589.53
54.3711	567.88
54.3856	554.36
54.4000	567.88
54.4144	565.62
54.4289	565.02
54.4433	575.89
54.4578	587.49
54.4722	587.87
54.4866	589.38
54.5011	582.45
54.5155	570.18
54.5300	613.42
54.5444	597.35
54.5588	570.18
54.5733	560.55
54.5877	527.79
54.6022	552.77
54.6166	575.76
54.6310	559.89
54.6455	585.03
54.6599	538.55
54.6744	536.18
54.6888	541.38
54.7032	562.88
54.7177	552.96
54.7321	513.11
54.7466	510.69
54.7610	531.30
54.7754	525.21
54.7899	499.33
54.8043	503.95
54.8188	530.90
54.8332	535.18
54.8476	514.53
54.8621	542.25
54.8765	503.33
54.8910	478.35
54.9054	528.05
54.9198	513.95
54.9343	500.95
54.9487	535.26
54.9632	516.31
54.9776	548.37
54.9920	542.72
55.0065	517.42
55.0209	538.70
55.0354	517.56
55.0498	463.68
55.0642	487.70
55.0787	534.76
55.0931	535.18
55.1076	514.49
55.1220	530.75
55.1364	500.48
55.1509	482.80
55.1653	533.14
55.1798	515.87
55.1942	491.44
55.2086	506.00
55.2231	542.93
55.2375	516.80
55.2520	540.32
55.2664	517.17
55.2808	522.46
55.2953	524.26
55.3097	528.79
55.3242	530.11
55.3386	532.71
55.3530	514.43
55.3675	520.00
55.3819	500.86
55.3964	506.67
55.4108	477.52
55.4252	489.11
55.4397	517.07
55.4541	515.67
55.4686	522.12
55.4830	548.37
55.4974	527.39
55.5119	525.93
55.5263	511.25
55.5408	504.61
55.5552	532.27
55.5696	499.16
55.5841	519.65
55.5985	506.08
55.6130	521.05
55.6274	530.18
55.6418	516.84
55.6563	501.13
55.6707	529.73
55.6852	550.91
55.6996	548.74
55.7140	525.02
55.7285	526.88
55.7429	520.25
55.7574	533.67
55.7718	510.50
55.7862	533.78
55.8007	501.44
55.8151	510.82
55.8296	509.00
55.8440	508.24
55.8584	507.58
55.8729	497.07
55.8873	523.91
55.9018	535.26
55.9162	512.76
55.9306	511.46
55.9451	530.62
55.9595	519.83
55.9740	510.74
55.9884	527.89
56.0028	527.38
56.0173	515.74
56.0317	517.06
56.0462	532.29
56.0606	520.90
56.0750	530.83
56.0895	526.86
56.1039	523.41
56.1184	547.09
56.1328	536.10
56.1472	499.19
56.1617	547.70
56.1761	545.07
56.1906	551.77
56.2050	514.51
56.2194	543.67
56.2339	505.58
56.2483	520.31
56.2628	517.19
56.2772	520.55
56.2916	533.97
56.3061	500.63
56.3205	512.82
56.3350	531.45
56.3494	525.92
56.3639	480.54
56.3783	519.71
56.3927	494.28
56.4072	540.84
56.4216	530.27
56.4361	504.95
56.4505	492.09
56.4649	535.90
56.4794	552.69
56.4938	539.85
56.5083	513.83
56.5227	505.47
56.5371	490.33
56.5516	511.04
56.5660	522.57
56.5805	532.15
56.5949	550.12
56.6093	548.25
56.6238	545.92
56.6382	560.83
56.6527	530.82
56.6671	528.03
56.6815	514.91
56.6960	491.47
56.7104	542.63
56.7249	515.65
56.7393	492.25
56.7537	515.04
56.7682	510.31
56.7826	546.52
56.7971	537.41
56.8115	531.13
56.8259	523.72
56.8404	530.23
56.8548	531.05
56.8693	508.42
56.8837	494.51
56.8981	516.01
56.9126	485.48
56.9270	477.98
56.9415	525.89
56.9559	491.06
56.9703	496.20
56.9848	511.32
56.9992	516.95
57.0137	496.81
57.0281	507.85
57.0425	526.94
57.0570	500.71
57.0714	524.89
57.0859	519.04
57.1003	508.37
57.1147	505.97
57.1292	522.95
57.1436	491.14
57.1581	517.63
57.1725	524.57
57.1869	509.64
57.2014	535.53
57.2158	535.34
57.2303	535.80
57.2447	527.87
57.2591	523.21
57.2736	503.23
57.2880	551.17
57.3025	525.25
57.3169	543.59
57.3313	552.87
57.3458	513.03
57.3602	507.51
57.3747	548.92
57.3891	533.78
57.4035	513.32
57.4180	521.70
57.4324	516.91
57.4469	477.09
57.4613	542.88
57.4757	522.87
57.4902	539.96
57.5046	523.85
57.5191	530.65
57.5335	528.06
57.5479	552.89
57.5624	540.47
57.5768	541.71
57.5913	561.92
57.6057	528.02
57.6201	534.56
57.6346	526.55
57.6490	544.23
57.6635	535.19
57.6779	503.94
57.6923	524.06
57.7068	532.82
57.7212	519.56
57.7357	516.08
57.7501	535.12
57.7645	558.42
57.7790	532.46
57.7934	541.33
57.8079	559.70
57.8223	565.31
57.8367	548.04
57.8512	554.31
57.8656	559.21
57.8801	556.04
57.8945	561.72
57.9089	602.97
57.9234	590.66
57.9378	601.21
57.9523	625.02
57.9667	630.40
57.9811	670.17
57.9956	601.01
58.0100	616.80
58.0245	663.11
58.0389	634.09
58.0533	677.99
58.0678	681.44
58.0822	692.89
58.0967	660.71
58.1111	645.12
58.1255	642.15
58.1400	646.31
58.1544	627.07
58.1689	612.20
58.1833	611.76
58.1977	622.69
58.2122	583.60
58.2266	611.94
58.2411	661.28
58.2555	638.75
58.2699	617.57
58.2844	593.84
58.2988	578.42
58.3133	561.47
58.3277	561.76
58.3421	559.67
58.3566	546.20
58.3710	553.18
58.3855	553.77
58.3999	549.55
58.4143	543.19
58.4288	579.54
58.4432	549.54
58.4577	528.78
58.4721	524.32
58.4865	531.41
58.5010	547.43
58.5154	531.93
58.5299	525.26
58.5443	546.00
58.5587	543.41
58.5732	514.90
58.5876	526.81
58.6021	523.70
58.6165	544.18
58.6309	527.38
58.6454	544.55
58.6598	527.19
58.6743	508.38
58.6887	511.62
58.7031	512.58
58.7176	532.55
58.7320	550.65
58.7465	522.74
58.7609	521.88
58.7753	493.83
58.7898	521.45
58.8042	535.66
58.8187	518.37
58.8331	518.50
58.8475	524.54
58.8620	527.06
58.8764	564.71
58.8909	537.54
58.9053	539.68
58.9197	544.42
58.9342	537.06
58.9486	559.84
58.9631	533.41
58.9775	503.98
58.9919	551.99
59.0064	548.52
59.0208	531.65
59.0353	504.52
59.0497	509.29
59.0641	541.29
59.0786	559.51
59.0930	538.59
59.1075	554.03
59.1219	543.54
59.1363	542.55
59.1508	511.87
59.1652	538.07
59.1797	534.49
59.1941	538.63
59.2085	539.65
59.2230	541.58
59.2374	565.37
59.2519	541.68
59.2663	536.55
59.2807	535.25
59.2952	522.56
59.3096	524.29
59.3241	565.88
59.3385	550.54
59.3529	563.27
59.3674	556.07
59.3818	562.46
59.3963	524.50
59.4107	583.73
59.4251	582.29
59.4396	535.39
59.4540	513.68
59.4685	508.23
59.4829	545.53
59.4973	548.73
59.5118	559.17
59.5262	541.82
59.5407	555.53
59.5551	554.87
59.5695	576.15
59.5840	560.60
59.5984	544.83
59.6129	545.00
59.6273	533.42
59.6417	523.82
59.6562	530.62
59.6706	533.19
59.6851	530.79
59.6995	530.94
59.7139	535.42
59.7284	526.80
59.7428	523.01
59.7573	541.52
59.7717	527.13
59.7861	534.32
59.8006	546.12
59.8150	552.59
59.8295	521.77
59.8439	516.59
59.8583	510.66
59.8728	536.85
59.8872	530.78
59.9017	544.00
59.9161	529.53
59.9305	546.97
59.9450	540.48
59.9594	489.93
59.9739	529.27
59.9883	519.29
60.0027	571.80
60.0172	548.91
60.0316	566.19
60.0461	523.39
60.0605	565.81
60.0750	541.67
60.0894	510.25
60.1038	501.55
60.1183	550.85
60.1327	559.89
60.1472	549.95
60.1616	545.79
60.1760	550.16
60.1905	515.11
60.2049	527.29
60.2194	542.68
60.2338	580.84
60.2482	555.98
60.2627	566.78
60.2771	549.03
60.2916	541.12
60.3060	536.71
60.3204	547.76
60.3349	574.79
60.3493	554.55
60.3638	519.76
60.3782	540.53
60.3926	494.39
60.4071	494.34
60.4215	543.99
60.4360	554.43
60.4504	530.66
60.4648	549.28
60.4793	584.80
60.4937	547.95
60.5082	533.76
60.5226	544.45
60.5370	550.07
60.5515	516.50
60.5659	555.65
60.5804	533.22
60.5948	527.43
60.6092	547.17
60.6237	523.68
60.6381	523.86
60.6526	521.69
60.6670	519.52
60.6814	490.60
60.6959	500.98
60.7103	531.79
60.7248	541.51
60.7392	513.65
60.7536	501.53
60.7681	506.60
60.7825	553.52
60.7970	536.20
60.8114	509.13
60.8258	516.01
60.8403	572.34
60.8547	549.49
60.8692	565.52
60.8836	523.06
60.8980	544.81
60.9125	535.21
60.9269	525.94
60.9414	537.06
60.9558	483.73
60.9702	523.83
60.9847	557.60
60.9991	504.00
61.0136	513.01
61.0280	568.61
61.0424	547.38
61.0569	553.19
61.0713	545.08
61.0858	590.86
61.1002	572.57
61.1146	573.92
61.1291	566.90
61.1435	525.09
61.1580	526.71
61.1724	557.71
61.1868	563.62
61.2013	570.10
61.2157	500.99
61.2302	518.63
61.2446	528.61
61.2590	558.85
61.2735	592.43
61.2879	550.50
61.3024	591.69
61.3168	550.87
61.3312	532.09
61.3457	524.18
61.3601	523.07
61.3746	561.17
61.3890	517.76
61.4034	495.41
61.4179	519.33
61.4323	538.97
61.4468	516.28
61.4612	511.87
61.4756	559.70
61.4901	556.26
61.5045	512.42
61.5190	524.98
61.5334	556.00
61.5478	557.05
61.5623	529.50
61.5767	522.85
61.5912	518.69
61.6056	558.20
61.6200	522.77
61.6345	544.79
61.6489	555.67
61.6634	554.48
61.6778	507.66
61.6922	532.72
61.7067	544.10
61.7211	516.69
61.7356	517.57
61.7500	557.41
61.7644	511.25
61.7789	582.51
61.7933	558.93
61.8078	580.93
61.8222	538.17
61.8366	571.88
61.8511	562.25
61.8655	534.81
61.8800	558.32
61.8944	569.55
61.9088	536.87
61.9233	512.58
61.9377	549.64
61.9522	554.67
61.9666	562.01
61.9810	508.52
61.9955	564.06
62.0099	566.34
62.0244	545.29
62.0388	516.56
62.0532	536.43
62.0677	553.87
62.0821	544.58
62.0966	540.58
62.1110	548.94
62.1254	553.09
62.1399	539.15
62.1543	543.69
62.1688	520.32
62.1832	553.88
62.1976	522.71
62.2121	534.04
62.2265	549.98
62.2410	552.24
62.2554	506.06
62.2698	542.13
62.2843	543.77
62.2987	546.05
62.3132	536.45
62.3276	535.93
62.3420	535.42
62.3565	561.95
62.3709	552.91
62.3854	550.34
62.3998	540.87
62.4142	545.15
62.4287	576.49
62.4431	548.64
62.4576	555.67
62.4720	554.85
62.4864	558.58
62.5009	541.65
62.5153	505.42
62.5298	539.67
62.5442	566.99
62.5586	563.92
62.5731	535.09
62.5875	564.85
62.6020	585.04
62.6164	560.50
62.6308	545.49
62.6453	551.54
62.6597	533.96
62.6742	563.43
62.6886	530.01
62.7030	568.29
62.7175	586.93
62.7319	580.66
62.7464	555.60
62.7608	586.25
62.7752	556.32
62.7897	549.64
62.8041	569.37
62.8186	582.01
62.8330	558.64
62.8474	558.08
62.8619	589.41
62.8763	601.80
62.8908	559.90
62.9052	578.72
62.9196	551.30
62.9341	558.39
62.9485	574.34
62.9630	571.49
62.9774	553.52
62.9918	564.16
63.0063	591.73
63.0207	593.61
63.0352	547.91
63.0496	540.30
63.0640	558.19
63.0785	545.70
63.0929	560.06
63.1074	575.47
63.1218	561.13
63.1362	570.48
63.1507	551.92
63.1651	559.47
63.1796	557.83
63.1940	559.04
63.2084	578.45
63.2229	591.61
63.2373	591.76
63.2518	597.95
63.2662	529.50
63.2806	569.99
63.2951	568.45
63.3095	570.85
63.3240	579.13
63.3384	587.80
63.3528	544.82
63.3673	559.71
63.3817	575.37
63.3962	575.13
63.4106	584.88
63.4250	591.25
63.4395	609.51
63.4539	583.19
63.4684	575.06
63.4828	586.71
63.4972	578.13
63.5117	604.96
63.5261	626.77
63.5406	618.52
63.5550	601.57
63.5694	637.99
63.5839	646.61
63.5983	678.17
63.6128	697.06
63.6272	673.80
63.6416	691.73
63.6561	722.03
63.6705	728.68
63.6850	763.20
63.6994	773.94
63.7138	832.20
63.7283	804.80
63.7427	764.19
63.7572	800.99
63.7716	784.28
63.7861	768.48
63.8005	783.62
63.8149	851.65
63.8294	801.82
63.8438	798.39
63.8583	848.30
63.8727	813.81
63.8871	809.86
63.9016	788.50
63.9160	721.13
63.9305	775.73
63.9449	784.26
63.9593	792.95
63.9738	724.69
63.9882	757.99
64.0027	752.66
64.0171	700.35
64.0315	683.96
64.0460	652.26
64.0604	653.70
64.0749	665.09
64.0893	666.97
64.1037	657.48
64.1182	638.85
64.1326	634.64
64.1471	588.99
64.1615	632.46
64.1759	661.69
64.1904	626.11
64.2048	633.98
64.2193	647.50
64.2337	642.05
64.2481	632.29
64.2626	598.91
64.2770	633.21
64.2915	628.78
64.3059	608.46
64.3203	637.29
64.3348	594.29
64.3492	596.43
64.3637	634.42
64.3781	603.65
64.3925	581.30
64.4070	608.23
64.4214	607.61
64.4359	644.13
64.4503	614.26
64.4647	611.57
64.4792	604.35
64.4936	621.52
64.5081	615.77
64.5225	594.67
64.5369	641.26
64.5514	641.69
64.5658	625.34
64.5803	620.44
64.5947	606.29
64.6091	611.08
64.6236	608.46
64.6380	658.35
64.6525	658.36
64.6669	643.03
64.6813	648.59
64.6958	657.11
64.7102	688.28
64.7247	695.10
64.7391	688.01
64.7535	687.38
64.7680	700.17
64.7824	704.03
64.7969	708.31
64.8113	752.88
64.8257	776.67
64.8402	796.71
64.8546	771.72
64.8691	846.19
64.8835	832.92
64.8979	852.81
64.9124	830.66
64.9268	862.69
64.9413	901.67
64.9557	852.08
64.9701	921.27
64.9846	1050.63
64.9990	1130.46
65.0135	1215.46
65.0279	1429.15
65.0423	1625.40
65.0568	1994.16
65.0712	2413.66
65.0857	3180.54
65.1001	4171.49
65.1145	5604.45
65.1290	7446.09
65.1434	9026.61
65.1579	10764.67
65.1723	11520.96
65.1867	11471.60
65.2012	10099.79
65.2156	8392.76
65.2301	6752.47
65.2445	5551.74
65.2589	4577.89
65.2734	4111.53
65.2878	4209.08
65.3023	4791.18
65.3167	5487.98
65.3311	6424.39
65.3456	6868.15
65.3600	6877.12
65.3745	6517.28
65.3889	5457.91
65.4033	4483.32
65.4178	3575.07
65.4322	2698.94
65.4467	2096.57
65.4611	1725.79
65.4755	1471.63
65.4900	1308.51
65.5044	1113.71
65.5189	1047.38
65.5333	994.68
65.5477	956.45
65.5622	918.32
65.5766	853.39
65.5911	792.33
65.6055	787.34
65.6199	777.06
65.6344	780.76
65.6488	774.66
65.6633	740.38
65.6777	767.00
65.6921	721.70
65.7066	730.69
65.7210	712.81
65.7355	675.14
65.7499	729.64
65.7643	636.36
65.7788	676.36
65.7932	658.90
65.8077	656.95
65.8221	662.30
65.8365	667.62
65.8510	664.25
65.8654	688.99
65.8799	656.08
65.8943	644.12
65.9087	627.88
65.9232	603.10
65.9376	619.10
65.9521	593.05
65.9665	597.83
65.9809	635.22
65.9954	615.17
66.0098	612.78
66.0243	652.34
66.0387	623.92
66.0531	628.02
66.0676	635.63
66.0820	596.62
66.0965	588.60
66.1109	599.61
66.1253	645.89
66.1398	620.99
66.1542	615.04
66.1687	631.15
66.1831	635.79
66.1975	667.47
66.2120	627.18
66.2264	617.21
66.2409	613.45
66.2553	575.87
66.2697	597.44
66.2842	637.66
66.2986	601.46
66.3131	596.41
66.3275	618.39
66.3419	593.58
66.3564	587.41
66.3708	590.73
66.3853	617.79
66.3997	562.59
66.4141	612.88
66.4286	642.09
66.4430	604.54
66.4575	585.74
66.4719	621.94
66.4863	633.00
66.5008	583.21
66.5152	574.23
66.5297	618.45
66.5441	619.97
66.5585	612.98
66.5730	609.27
66.5874	573.66
66.6019	621.20
66.6163	615.30
66.6307	594.66
66.6452	563.06
66.6596	570.31
66.6741	614.34
66.6885	614.95
66.7029	593.89
66.7174	542.85
66.7318	567.44
66.7463	559.90
66.7607	576.37
66.7751	577.98
66.7896	576.10
66.8040	572.73
66.8185	584.38
66.8329	587.22
66.8473	584.20
66.8618	614.97
66.8762	592.57
66.8907	558.21
66.9051	578.18
66.9195	557.67
66.9340	569.12
66.9484	558.25
66.9629	561.88
66.9773	555.48
66.9917	565.39
67.0062	576.38
67.0206	583.93
67.0351	614.69
67.0495	597.05
67.0639	593.43
67.0784	588.62
67.0928	573.49
67.1073	555.21
67.1217	607.13
67.1361	584.44
67.1506	551.84
67.1650	582.44
67.1795	595.03
67.1939	558.10
67.2083	566.12
67.2228	606.77
67.2372	573.15
67.2517	552.82
67.2661	544.57
67.2805	571.46
67.2950	556.89
67.3094	543.42
67.3239	552.56
67.3383	580.66
67.3527	591.65
67.3672	599.91
67.3816	570.88
67.3961	581.01
67.4105	555.83
67.4250	565.15
67.4394	559.78
67.4538	580.09
67.4683	534.54
67.4827	585.50
67.4972	605.02
67.5116	582.02
67.5260	579.89
67.5405	591.11
67.5549	607.33
67.5694	564.81
67.5838	600.29
67.5982	586.65
67.6127	588.65
67.6271	574.63
67.6416	568.47
67.6560	564.17
67.6704	563.75
67.6849	575.06
67.6993	603.97
67.7138	592.00
67.7282	543.91
67.7426	562.82
67.7571	567.40
67.7715	598.39
67.7860	596.74
67.8004	577.56
67.8148	539.43
67.8293	572.55
67.8437	602.28
67.8582	603.53
67.8726	600.68
67.8870	558.69
67.9015	600.70
67.9159	576.63
67.9304	566.36
67.9448	581.57
67.9592	543.53
67.9737	567.92
67.9881	616.90
68.0026	559.78
68.0170	573.41
68.0314	596.04
68.0459	587.05
68.0603	598.86
68.0748	576.55
68.0892	579.88
68.1036	585.66
68.1181	596.92
68.1325	604.42
68.1470	552.26
68.1614	568.29
68.1758	576.84
68.1903	553.84
68.2047	565.84
68.2192	561.97
68.2336	560.91
68.2480	576.49
68.2625	572.29
68.2769	578.42
68.2914	594.24
68.3058	609.53
68.3202	583.98
68.3347	599.30
68.3491	570.20
68.3636	561.62
68.3780	588.76
68.3924	569.79
68.4069	562.70
68.4213	600.81
68.4358	598.84
68.4502	577.59
68.4646	555.76
68.4791	604.56
68.4935	595.72
68.5080	572.00
68.5224	592.37
68.5368	563.66
68.5513	577.49
68.5657	536.95
68.5802	551.27
68.5946	527.85
68.6090	553.22
68.6235	586.04
68.6379	563.02
68.6524	573.32
68.6668	568.01
68.6812	543.52
68.6957	573.50
68.7101	538.15
68.7246	572.63
68.7390	539.60
68.7534	571.45
68.7679	571.10
68.7823	613.10
68.7968	543.13
68.8112	580.75
68.8256	586.45
68.8401	599.72
68.8545	585.96
68.8690	591.26
68.8834	514.94
68.8978	558.26
68.9123	564.14
68.9267	629.17
68.9412	551.70
68.9556	555.13
68.9700	531.45
68.9845	569.56
68.9989	580.21
69.0134	554.59
69.0278	581.85
69.0422	578.84
69.0567	556.27
69.0711	579.18
69.0856	572.65
69.1000	588.04
69.1144	576.39
69.1289	591.84
69.1433	560.22
69.1578	558.44
69.1722	549.20
69.1866	585.10
69.2011	583.26
69.2155	594.73
69.2300	559.25
69.2444	585.11
69.2588	566.13
69.2733	515.81
69.2877	575.65
69.3022	551.85
69.3166	549.82
69.3310	561.97
69.3455	588.24
69.3599	613.42
69.3744	567.57
69.3888	583.87
69.4032	568.58
69.4177	590.84
69.4321	578.54
69.4466	570.49
69.4610	560.19
69.4754	555.35
69.4899	616.04
69.5043	600.74
69.5188	582.03
69.5332	602.67
69.5476	549.08
69.5621	547.88
69.5765	573.13
69.5910	572.88
69.6054	577.73
69.6198	556.04
69.6343	560.69
69.6487	581.51
69.6632	581.55
69.6776	590.26
69.6920	574.22
69.7065	579.32
69.7209	577.28
69.7354	564.27
69.7498	552.18
69.7642	533.80
69.7787	584.01
69.7931	588.74
69.8076	583.42
69.8220	586.09
69.8364	590.74
69.8509	544.63
69.8653	543.56
69.8798	553.89
69.8942	550.70
69.9086	580.36
69.9231	605.52
69.9375	622.28
69.9520	562.05
69.9664	560.25
69.9808	538.82
69.9953	606.94
70.0097	545.45
70.0242	577.85
70.0386	574.97
70.0530	500.50
70.0675	537.39
70.0819	574.57
70.0964	580.28
70.1108	558.49
70.1252	579.04
70.1397	554.80
70.1541	566.35
70.1686	597.87
70.1830	592.37
70.1974	619.70
70.2119	575.97
70.2263	523.25
70.2408	588.41
70.2552	605.53
70.2696	581.40
70.2841	545.29
70.2985	511.48
70.3130	554.82
70.3274	612.36
70.3418	609.63
70.3563	551.58
70.3707	534.75
70.3852	526.17
70.3996	571.77
70.4140	542.03
70.4285	593.40
70.4429	569.28
70.4574	580.33
70.4718	574.25
70.4862	545.80
70.5007	533.19
70.5151	530.20
70.5296	602.22
70.5440	525.44
70.5584	550.19
70.5729	577.35
70.5873	585.80
70.6018	524.78
70.6162	520.00
70.6306	574.16
70.6451	561.18
70.6595	568.40
70.6740	582.67
70.6884	568.38
70.7028	605.36
70.7173	641.78
70.7317	556.53
70.7462	576.51
70.7606	562.34
70.7750	600.72
70.7895	581.17
70.8039	536.18
70.8184	568.06
70.8328	544.74
70.8472	527.29
70.8617	557.99
70.8761	605.73
70.8906	601.31
70.9050	685.02
70.9194	649.16
70.9339	657.93
70.9483	626.66
70.9628	598.08
70.9772	603.52
70.9916	598.93
71.0061	553.64
71.0205	558.32
71.0350	599.09
71.0494	572.28
71.0638	580.62
71.0783	557.48
71.0927	570.64
71.1072	587.60
71.1216	580.01
71.1361	550.42
71.1505	546.69
71.1649	563.66
71.1794	584.17
71.1938	619.68
71.2083	626.08
71.2227	565.47
71.2371	582.80
71.2516	620.60
71.2660	616.83
71.2805	595.55
71.2949	570.67
71.3093	616.79
71.3238	586.57
71.3382	577.28
71.3527	594.11
71.3671	599.12
71.3815	589.46
71.3960	579.72
71.4104	531.86
71.4249	532.36
71.4393	577.59
71.4537	564.83
71.4682	636.52
71.4826	623.43
71.4971	553.72
71.5115	538.94
71.5259	549.49
71.5404	539.29
71.5548	584.79
71.5693	628.69
71.5837	574.96
71.5981	541.81
71.6126	540.78
71.6270	576.37
71.6415	607.93
71.6559	561.55
71.6703	527.78
71.6848	506.89
71.6992	570.47
71.7137	602.53
71.7281	593.33
71.7425	618.85
71.7570	587.17
71.7714	558.75
71.7859	578.21
71.8003	597.03
71.8147	601.81
71.8292	569.15
71.8436	548.48
71.8581	551.29
71.8725	551.59
71.8869	558.14
71.9014	594.12
71.9158	593.84
71.9303	578.35
71.9447	614.93
71.9591	637.30
71.9736	585.71
71.9880	547.09
72.0025	522.52
72.0169	526.62
72.0313	547.90
72.0458	578.39
72.0602	572.65
72.0747	579.11
72.0891	624.02
72.1035	681.70
72.1180	648.22
72.1324	550.87
72.1469	553.85
72.1613	632.81
72.1757	643.95
72.1902	594.23
72.2046	588.05
72.2191	574.13
72.2335	557.34
72.2479	619.08
72.2624	665.70
72.2768	641.31
72.2913	580.65
72.3057	542.34
72.3201	574.09
72.3346	602.17
72.3490	620.77
72.3635	601.48
72.3779	600.46
72.3923	556.67
72.4068	517.11
72.4212	562.55
72.4357	552.88
72.4501	552.59
72.4645	612.43
72.4790	614.66
72.4934	601.11
72.5079	625.14
72.5223	601.92
72.5367	602.17
72.5512	567.20
72.5656	543.43
72.5801	512.20
72.5945	574.38
72.6089	587.31
72.6234	532.32
72.6378	539.86
72.6523	562.16
72.6667	560.52
72.6811	607.44
72.6956	616.43
72.7100	572.23
72.7245	547.95
72.7389	606.37
72.7533	594.13
72.7678	590.76
72.7822	650.93
72.7967	632.40
72.8111	598.96
72.8255	617.27
72.8400	638.75
72.8544	618.39
72.8689	609.46
72.8833	541.09

Result vector
22.1120	586.59
22.1264	582.02
22.1409	555.61
22.1553	514.53
22.1697	507.61
22.1842	533.26
22.1986	569.37
22.2131	521.41
22.2275	549.78
22.2419	545.61
22.2564	632.21
22.2708	607.67
22.2853	586.59
22.2997	580.45
22.3141	558.98
22.3286	541.73
22.3430	550.61
22.3575	611.14
22.3719	618.42
22.3863	602.26
22.4008	539.44
22.4152	570.51
22.4297	593.48
22.4441	554.39
22.4585	666.33
22.4730	668.30
22.4874	603.05
22.5019	626.49
22.5163	588.22
22.5307	522.99
22.5452	531.98
22.5596	585.59
22.5741	516.61
22.5885	508.30
22.6029	626.85
22.6174	587.54
22.6318	489.40
22.6463	511.28
22.6607	486.35
22.6751	516.34
22.6896	594.99
22.7040	740.28
22.7185	601.71
22.7329	559.73
22.7473	584.74
22.7618	549.30
22.7762	585.90
22.7907	615.55
22.8051	487.86
22.8195	531.58
22.8340	470.12
22.8484	494.95
22.8629	566.32
22.8773	497.28
22.8917	445.79
22.9062	517.58
22.9206	513.23
22.9351	582.08
22.9495	642.97
22.9639	591.79
22.9784	670.73
22.9928	529.33
23.0073	529.63
23.0217	611.82
23.0361	522.13
23.0506	550.19
23.0650	635.66
23.0795	428.91
23.0939	516.45
23.1083	641.21
23.1228	670.44
23.1372	532.30
23.1517	542.01
23.1661	516.30
23.1806	546.15
23.1950	530.91
23.2094	548.28
23.2239	543.43
23.2383	583.69
23.2528	583.78
23.2672	525.26
23.2816	619.38
23.2961	540.77
23.3105	542.44
23.3250	520.77
23.3394	594.24
23.3538	500.34
23.3683	544.45
23.3827	562.97
23.3972	550.70
23.4116	507.84
23.4260	590.03
23.4405	575.56
23.4549	478.35
23.4694	529.64
23.4838	591.00
23.4982	516.59
23.5127	579.01
23.5271	526.30
23.5416	573.62
23.5560	599.67
23.5704	596.57
23.5849	595.43
23.5993	533.82
23.6138	580.70
23.6282	524.70
23.6426	543.06
23.6571	575.12
23.6715	451.52
23.6860	516.07
23.7004	512.39
23.7148	542.23
23.7293	590.64
23.7437	561.75
23.7582	560.40
23.7726	594.16
23.7870	564.08
23.8015	562.23
23.8159	604.18
23.8304	555.53
23.8448	540.01
23.8592	589.77
23.8737	643.10
23.8881	475.11
23.9026	561.46
23.9170	487.38
23.9314	543.98
23.9459	552.52
23.9603	479.77
23.9748	547.26
23.9892	541.33
24.0036	531.71
24.0181	596.16
24.0325	612.27
24.0470	628.77
24.0614	607.06
24.0758	544.79
24.0903	673.35
24.1047	501.98
24.1192	526.75
24.1336	570.17
24.1480	511.96
24.1625	519.56
24.1769	599.34
24.1914	519.41
24.2058	538.81
24.2202	545.40
24.2347	624.50
24.2491	619.33
24.2636	563.83
24.2780	601.31
24.2924	583.95
24.3069	558.97
24.3213	548.61
24.3358	540.56
24.3502	552.64
24.3646	510.45
24.3791	533.22
24.3935	524.10
24.4080	545.26
24.4224	614.12
24.4368	572.23
24.4513	558.55
24.4657	591.38
24.4802	525.10
24.4946	544.00
24.5090	539.27
24.5235	532.40
24.5379	550.82
24.5524	585.42
24.5668	628.27
24.5812	591.16
24.5957	590.50
24.6101	611.39
24.6246	564.14
24.6390	555.22
24.6534	471.38
24.6679	603.88
24.6823	552.75
24.6968	551.90
24.7112	601.07
24.7256	512.83
24.7401	521.76
24.7545	557.60
24.7690	513.19
24.7834	565.38
24.7978	564.26
24.8123	570.30
24.8267	569.96
24.8412	543.77
24.8556	585.48
24.8700	543.24
24.8845	570.18
24.8989	548.72
24.9134	501.46
24.9278	501.42
24.9422	494.62
24.9567	534.49
24.9711	607.53
24.9856	535.01
25.0000	489.40
25.0144	593.32
25.0289	580.95
25.0433	527.87
25.0578	544.34
25.0722	519.78
25.0866	544.59
25.1011	540.15
25.1155	526.18
25.1300	571.84
25.1444	528.07
25.1588	563.51
25.1733	518.38
25.1877	473.46
25.2022	514.29
25.2166	562.21
25.2310	548.30
25.2455	533.32
25.2599	537.99
25.2744	513.16
25.2888	539.22
25.3032	493.60
25.3177	499.84
25.3321	539.63
25.3466	589.97
25.3610	601.34
25.3754	562.61
25.3899	524.38
25.4043	534.29
25.4188	586.58
25.4332	534.69
25.4476	532.83
25.4621	544.68
25.4765	541.51
25.4910	560.02
25.5054	503.38
25.5198	535.87
25.5343	556.87
25.5487	546.50
25.5632	511.37
25.5776	527.73
25.5920	524.31
25.6065	530.22
25.6209	531.28
25.6354	538.36
25.6498	551.83
25.6642	533.59
25.6787	553.48
25.6931	489.27
25.7076	510.77
25.7220	536.58
25.7364	542.19
25.7509	528.04
25.7653	552.86
25.7798	539.88
25.7942	523.78
25.8086	516.94
25.8231	577.42
25.8375	526.14
25.8520	524.84
25.8664	508.77
25.8808	523.40
25.8953	551.01
25.9097	542.43
25.9242	568.24
25.9386	560.74
25.9530	508.00
25.9675	489.84
25.9819	546.62
25.9964	538.14
26.0108	511.03
26.0252	553.90
26.0397	526.96
26.0541	544.53
26.0686	558.55
26.0830	567.53
26.0974	555.99
26.1119	536.37
26.1263	529.15
26.1408	522.84
26.1552	518.60
26.1696	538.77
26.1841	546.51
26.1985	512.43
26.2130	525.70
26.2274	527.27
26.2418	548.45
26.2563	522.98
26.2707	510.11
26.2852	540.72
26.2996	532.57
26.3140	540.26
26.3285	531.51
26.3429	522.78
26.3574	519.34
26.3718	535.99
26.3862	498.11
26.4007	498.40
26.4151	528.51
26.4296	568.56
26.4440	539.06
26.4584	518.29
26.4729	508.05
26.4873	534.91
26.5018	545.40
26.5162	555.63
26.5306	544.00
26.5451	535.91
26.5595	559.42
26.5740	555.31
26.5884	555.21
26.6028	550.73
26.6173	532.81
26.6317	539.82
26.6462	532.97
26.6606	550.86
26.6750	512.69
26.6895	486.03
26.7039	531.30
26.7184	501.38
26.7328	501.81
26.7472	568.01
26.7617	536.78
26.7761	495.02
26.7906	507.06
26.8050	548.77
26.8194	501.38
26.8339	517.49
26.8483	540.74
26.8628	520.70
26.8772	504.39
26.8917	529.82
26.9061	502.83
26.9205	486.94
26.9350	539.14
26.9494	562.77
26.9639	529.75
26.9783	537.02
26.9927	512.03
27.0072	518.65
27.0216	522.08
27.0361	475.42
27.0505	502.83
27.0649	493.68
27.0794	494.85
27.0938	497.58
27.1083	505.23
27.1227	581.29
27.1371	555.11
27.1516	517.98
27.1660	523.69
27.1805	532.50
27.1949	488.96
27.2093	523.75
27.2238	550.25
27.2382	524.58
27.2527	534.34
27.2671	542.23
27.2815	499.19
27.2960	482.04
27.3104	512.61
27.3249	494.40
27.3393	499.10
27.3537	504.16
27.3682	511.09
27.3826	486.55
27.3971	459.26
27.4115	515.73
27.4259	498.93
27.4404	508.09
27.4548	495.15
27.4693	504.66
27.4837	534.27
27.4981	517.36
27.5126	521.74
27.5270	530.41
27.5415	516.61
27.5559	536.50
27.5703	520.33
27.5848	496.85
27.5992	496.98
27.6137	492.36
27.6281	537.77
27.6425	495.61
27.6570	494.62
27.6714	508.21
27.6859	515.76
27.7003	506.61
27.7147	526.05
27.7292	513.26
27.7436	511.20
27.7581	497.93
27.7725	517.11
27.7869	545.49
27.8014	533.58
27.8158	516.34
27.8303	521.92
27.8447	486.36
27.8591	513.84
27.8736	562.10
27.8880	529.56
27.9025	540.35
27.9169	528.16
27.9313	506.50
27.9458	519.17
27.9602	517.61
27.9747	517.92
27.9891	521.78
28.0035	500.51
28.0180	531.57
28.0324	485.66
28.0469	503.62
28.0613	522.44
28.0757	479.11
28.0902	505.25
28.1046	502.23
28.1191	510.93
28.1335	497.10
28.1479	499.70
28.1624	530.30
28.1768	551.10
28.1913	499.48
28.2057	514.69
28.2201	500.75
28.2346	519.66
28.2490	501.69
28.2635	531.27
28.2779	468.49
28.2923	494.94
28.3068	516.95
28.3212	491.28
28.3357	513.29
28.3501	548.09
28.3645	532.61
28.3790	525.59
28.3934	500.20
28.4079	513.37
28.4223	536.13
28.4367	524.56
28.4512	512.16
28.4656	510.01
28.4801	498.19
28.4945	520.94
28.5089	515.69
28.5234	528.32
28.5378	516.59
28.5523	583.66
28.5667	509.26
28.5811	512.07
28.5956	491.42
28.6100	479.90
28.6245	491.14
28.6389	531.16
28.6533	493.88
28.6678	507.52
28.6822	495.77
28.6967	511.66
28.7111	534.81
28.7255	494.57
28.7400	493.66
28.7544	541.89
28.7689	514.17
28.7833	525.69
28.7977	493.44
28.8122	518.74
28.8266	474.66
28.8411	511.18
28.8555	553.63
28.8699	524.61
28.8844	486.06
28.8988	536.50
28.9133	520.27
28.9277	527.10
28.9421	509.20
28.9566	496.13
28.9710	524.30
28.9855	516.98
28.9999	497.76
29.0143	526.23
29.0288	483.85
29.0432	485.11
29.0577	498.84
29.0721	480.98
29.0865	534.25
29.1010	531.42
29.1154	536.17
29.1299	530.33
29.1443	482.55
29.1587	499.57
29.1732	497.32
29.1876	527.57
29.2021	512.21
29.2165	515.29
29.2309	507.98
29.2454	516.37
29.2598	481.28
29.2743	472.07
29.2887	499.12
29.3031	495.25
29.3176	516.51
29.3320	531.18
29.3465	524.56
29.3609	470.48
29.3753	526.29
29.3898	503.09
29.4042	477.81
29.4187	524.73
29.4331	526.71
29.4475	481.75
29.4620	526.11
29.4764	503.25
29.4909	522.77
29.5053	533.10
29.5197	453.05
29.5342	522.91
29.5486	533.54
29.5631	526.11
29.5775	522.61
29.5919	541.95
29.6064	500.96
29.6208	464.83
29.6353	493.86
29.6497	526.03
29.6641	484.39
29.6786	492.98
29.6930	503.43
29.7075	506.28
29.7219	505.52
29.7363	540.64
29.7508	521.15
29.7652	491.13
29.7797	498.97
29.7941	483.26
29.8085	520.50
29.8230	516.43
29.8374	482.85
29.8519	499.33
29.8663	491.82
29.8807	503.71
29.8952	515.64
29.9096	520.35
29.9241	523.10
29.9385	514.01
29.9529	480.82
29.9674	495.20
29.9818	508.49
29.9963	479.13
30.0107	492.35
30.0251	529.61
30.0396	495.78
30.0540	507.77
30.0685	503.34
30.0829	516.30
30.0973	496.53
30.1118	475.93
30.1262	517.94
30.1407	496.50
30.1551	500.51
30.1695	512.30
30.1840	532.53
30.1984	501.94
30.2129	489.51
30.2273	488.24
30.2417	504.85
30.2562	509.29
30.2706	500.50
30.2851	517.24
30.2995	513.01
30.3139	499.71
30.3284	531.61
30.3428	530.30
30.3573	553.68
30.3717	515.24
30.3861	512.98
30.4006	503.83
30.4150	518.71
30.4295	530.26
30.4439	502.58
30.4583	486.84
30.4728	525.61
30.4872	524.91
30.5017	516.56
30.5161	520.70
30.5305	562.48
30.5450	574.12
30.5594	604.60
30.5739	600.14
30.5883	577.86
30.6028	631.85
30.6172	643.81
30.6316	677.54
30.6461	718.11
30.6605	720.40
30.6750	698.17
30.6894	685.25
30.7038	714.03
30.7183	717.86
30.7327	692.87
30.7472	678.92
30.7616	640.20
30.7760	646.73
30.7905	631.94
30.8049	599.33
30.8194	591.70
30.8338	573.24
30.8482	554.54
30.8627	550.98
30.8771	537.24
30.8916	542.82
30.9060	539.27
30.9204	488.26
30.9349	503.41
30.9493	522.93
30.9638	524.00
30.9782	524.38
30.9926	515.41
31.0071	508.71
31.0215	513.24
31.0360	510.19
31.0504	523.68
31.0648	522.88
31.0793	514.79
31.0937	561.07
31.1082	525.77
31.1226	521.92
31.1370	537.96
31.1515	527.02
31.1659	491.13
31.1804	519.33
31.1948	495.38
31.2092	515.94
31.2237	500.80
31.2381	513.51
31.2526	479.33
31.2670	524.79
31.2814	552.33
31.2959	543.98
31.3103	559.18
31.3248	558.05
31.3392	555.95
31.3536	513.07
31.3681	513.53
31.3825	510.78
31.3970	513.33
31.4114	548.23
31.4258	542.40
31.4403	537.84
31.4547	500.84
31.4692	516.22
31.4836	477.26
31.4980	508.72
31.5125	517.47
31.5269	525.39
31.5414	500.09
31.5558	495.83
31.5702	491.75
31.5847	476.38
31.5991	475.24
31.6136	492.06
31.6280	522.05
31.6424	526.47
31.6569	498.61
31.6713	500.69
31.6858	505.58
31.7002	521.81
31.7146	528.13
31.7291	511.18
31.7435	499.42
31.7580	504.72
31.7724	512.43
31.7868	514.95
31.8013	490.27
31.8157	516.06
31.8302	516.41
31.8446	508.61
31.8590	491.49
31.8735	500.30
31.8879	471.71
31.9024	528.14
31.9168	550.39
31.9312	522.77
31.9457	547.65
31.9601	494.68
31.9746	480.81
31.9890	501.53
32.0034	494.31
32.0179	496.53
32.0323	512.49
32.0468	500.76
32.0612	496.56
32.0756	530.76
32.0901	535.04
32.1045	517.01
32.1190	492.95
32.1334	499.18
32.1478	503.16
32.1623	535.93
32.1767	518.87
32.1912	478.39
32.2056	486.00
32.2200	494.68
32.2345	507.70
32.2489	521.04
32.2634	493.57
32.2778	507.56
32.2922	496.35
32.3067	468.10
32.3211	474.66
32.3356	510.59
32.3500	506.86
32.3644	511.41
32.3789	516.97
32.3933	480.94
32.4078	496.53
32.4222	502.30
32.4366	473.68
32.4511	490.04
32.4655	556.43
32.4800	533.34
32.4944	513.93
32.5088	499.35
32.5233	506.27
32.5377	470.28
32.5522	502.78
32.5666	504.16
32.5810	463.97
32.5955	484.13
32.6099	496.63
32.6244	498.08
32.6388	492.11
32.6532	459.57
32.6677	477.86
32.6821	450.53
32.6966	483.77
32.7110	515.28
32.7254	496.75
32.7399	499.92
32.7543	472.32
32.7688	524.93
32.7832	515.90
32.7976	502.44
32.8121	516.20
32.8265	498.69
32.8410	484.86
32.8554	523.18
32.8698	522.05
32.8843	487.77
32.8987	496.91
32.9132	488.44
32.9276	494.31
32.9420	497.55
32.9565	541.91
32.9709	503.74
32.9854	505.93
32.9998	532.99
33.0142	501.97
33.0287	524.37
33.0431	510.34
33.0576	504.95
33.0720	481.72
33.0864	506.62
33.1009	514.40
33.1153	513.10
33.1298	485.02
33.1442	490.90
33.1586	504.01
33.1731	524.47
33.1875	511.14
33.2020	478.49
33.2164	524.39
33.2308	522.37
33.2453	519.49
33.2597	508.47
33.2742	502.77
33.2886	520.35
33.3030	508.89
33.3175	476.42
33.3319	517.63
33.3464	551.02
33.3608	491.33
33.3752	493.71
33.3897	488.69
33.4041	457.84
33.4186	476.61
33.4330	524.83
33.4474	504.58
33.4619	504.99
33.4763	524.95
33.4908	492.28
33.5052	526.51
33.5196	487.29
33.5341	508.43
33.5485	510.49
33.5630	521.69
33.5774	554.25
33.5918	539.56
33.6063	475.27
33.6207	492.38
33.6352	493.20
33.6496	483.85
33.6640	502.46
33.6785	485.82
33.6929	499.16
33.7074	515.15
33.7218	499.64
33.7362	506.17
33.7507	488.61
33.7651	510.10
33.7796	478.59
33.7940	492.34
33.8084	540.92
33.8229	567.97
33.8373	516.03
33.8518	526.02
33.8662	498.25
33.8806	464.86
33.8951	521.43
33.9095	542.72
33.9240	489.31
33.9384	504.07
33.9528	509.59
33.9673	506.31
33.9817	497.59
33.9962	478.56
34.0106	497.96
34.0250	486.19
34.0395	517.18
34.0539	522.65
34.0684	522.56
34.0828	513.21
34.0972	520.47
34.1117	512.75
34.1261	482.68
34.1406	493.53
34.1550	502.92
34.1694	523.24
34.1839	502.58
34.1983	529.22
34.2128	520.32
34.2272	528.13
34.2417	544.17
34.2561	519.84
34.2705	478.02
34.2850	500.12
34.2994	485.63
34.3139	491.83
34.3283	506.40
34.3427	532.39
34.3572	520.57
34.3716	491.89
34.3861	492.70
34.4005	517.18
34.4149	521.28
34.4294	536.22
34.4438	500.54
34.4583	496.17
34.4727	511.46
34.4871	487.71
34.5016	510.47
34.5160	527.12
34.5305	539.48
34.5449	504.79
34.5593	501.25
34.5738	497.46
34.5882	505.18
34.6027	524.85
34.6171	503.28
34.6315	543.80
34.6460	516.90
34.6604	489.44
34.6749	497.06
34.6893	506.77
34.7037	507.27
34.7182	519.61
34.7326	525.53
34.7471	511.51
34.7615	499.50
34.7759	513.30
34.7904	501.41
34.8048	504.53
34.8193	502.63
34.8337	526.43
34.8481	512.47
34.8626	508.28
34.8770	498.60
34.8915	529.95
34.9059	551.29
34.9203	509.62
34.9348	486.47
34.9492	529.26
34.9637	484.48
34.9781	491.44
34.9925	498.92
35.0070	487.63
35.0214	503.85
35.0359	474.62
35.0503	466.86
35.0647	465.13
35.0792	498.62
35.0936	525.33
35.1081	506.47
35.1225	493.31
35.1369	540.61
35.1514	468.92
35.1658	493.95
35.1803	498.55
35.1947	486.64
35.2091	487.09
35.2236	506.93
35.2380	514.69
35.2525	505.79
35.2669	526.09
35.2813	533.95
35.2958	516.90
35.3102	491.57
35.3247	495.88
35.3391	488.28
35.3535	467.10
35.3680	471.33
35.3824	504.86
35.3969	513.26
35.4113	527.51
35.4257	514.89
35.4402	517.12
35.4546	538.35
35.4691	519.30
35.4835	560.43
35.4979	543.31
35.5124	513.33
35.5268	515.39
35.5413	561.92
35.5557	569.49
35.5701	520.84
35.5846	541.51
35.5990	514.95
35.6135	508.42
35.6279	563.40
35.6423	568.39
35.6568	536.59
35.6712	565.02
35.6857	583.77
35.7001	678.88
35.7145	717.98
35.7290	690.06
35.7434	646.31
35.7579	606.90
35.7723	595.62
35.7867	624.06
35.8012	695.64
35.8156	715.44
35.8301	689.06
35.8445	690.25
35.8589	695.48
35.8734	803.23
35.8878	889.04
35.9023	969.38
35.9167	1028.78
35.9311	1179.97
35.9456	1635.89
35.9600	2098.69
35.9745	2001.08
35.9889	2107.22
36.0033	2444.44
36.0178	3003.10
36.0322	3208.85
36.0467	2437.77
36.0611	2062.69
36.0755	2047.57
36.0900	2024.26
36.1044	1820.97
36.1189	1645.13
36.1333	1608.39
36.1477	1452.12
36.1622	1313.51
36.1766	1264.24
36.1911	1075.64
36.2055	1042.45
36.2199	948.50
36.2344	882.72
36.2488	767.78
36.2633	734.97
36.2777	695.28
36.2921	674.53
36.3066	639.74
36.3210	606.56
36.3355	616.09
36.3499	605.08
36.3643	563.46
36.3788	548.03
36.3932	545.49
36.4077	528.84
36.4221	567.86
36.4365	578.53
36.4510	530.14
36.4654	547.48
36.4799	524.00
36.4943	538.35
36.5087	521.44
36.5232	520.70
36.5376	534.58
36.5521	544.37
36.5665	509.88
36.5809	513.04
36.5954	493.45
36.6098	525.17
36.6243	468.99
36.6387	508.99
36.6531	533.62
36.6676	523.80
36.6820	505.75
36.6965	533.78
36.7109	526.02
36.7253	523.90
36.7398	532.58
36.7542	560.29
36.7687	523.22
36.7831	531.50
36.7975	536.01
36.8120	566.99
36.8264	558.86
36.8409	547.22
36.8553	566.17
36.8697	612.23
36.8842	575.96
36.8986	577.07
36.9131	581.13
36.9275	597.48
36.9419	590.35
36.9564	593.29
36.9708	550.33
36.9853	553.65
36.9997	562.77
37.0141	560.46
37.0286	532.89
37.0430	487.48
37.0575	552.45
37.0719	503.58
37.0863	513.13
37.1008	526.64
37.1152	520.35
37.1297	512.12
37.1441	484.27
37.1585	464.51
37.1730	521.15
37.1874	476.59
37.2019	498.80
37.2163	464.20
37.2307	464.90
37.2452	490.83
37.2596	450.30
37.2741	486.92
37.2885	533.60
37.3029	488.86
37.3174	464.08
37.3318	504.86
37.3463	520.43
37.3607	514.75
37.3751	512.94
37.3896	480.79
37.4040	511.31
37.4185	513.21
37.4329	530.83
37.4473	488.51
37.4618	494.06
37.4762	492.75
37.4907	462.47
37.5051	479.31
37.5195	485.76
37.5340	488.47
37.5484	499.00
37.5629	483.38
37.5773	493.66
37.5917	565.66
37.6062	546.31
37.6206	485.60
37.6351	496.07
37.6495	494.42
37.6639	489.28
37.6784	512.83
37.6928	522.87
37.7073	521.37
37.7217	508.67
37.7361	461.22
37.7506	501.71
37.7650	488.20
37.7795	504.49
37.7939	522.87
37.8083	503.07
37.8228	507.29
37.8372	471.88
37.8517	461.72
37.8661	508.93
37.8805	537.29
37.8950	526.91
37.9094	554.24
37.9239	516.00
37.9383	497.02
37.9528	498.42
37.9672	513.14
37.9816	501.54
37.9961	523.77
38.0105	513.28
38.0250	509.59
38.0394	495.28
38.0538	518.10
38.0683	543.10
38.0827	545.28
38.0972	540.26
38.1116	511.19
38.1260	519.42
38.1405	500.70
38.1549	514.31
38.1694	509.62
38.1838	502.58
38.1982	488.78
38.2127	512.46
38.2271	509.62
38.2416	501.86
38.2560	542.51
38.2704	519.11
38.2849	494.89
38.2993	482.73
38.3138	503.39
38.3282	494.66
38.3426	498.69
38.3571	514.37
38.3715	487.88
38.3860	485.14
38.4004	520.11
38.4148	543.99
38.4293	564.11
38.4437	563.29
38.4582	583.25
38.4726	613.24
38.4870	659.46
38.5015	730.94
38.5159	729.28
38.5304	769.75
38.5448	817.15
38.5592	833.41
38.5737	732.52
38.5881	724.93
38.6026	718.26
38.6170	691.88
38.6314	677.85
38.6459	636.96
38.6603	637.77
38.6748	632.34
38.6892	574.41
38.7036	591.65
38.7181	573.72
38.7325	539.67
38.7470	535.04
38.7614	503.57
38.7758	504.52
38.7903	524.40
38.8047	516.25
38.8192	497.03
38.8336	500.91
38.8480	480.21
38.8625	515.17
38.8769	509.47
38.8914	484.75
38.9058	481.19
38.9202	479.46
38.9347	488.69
38.9491	495.10
38.9636	520.71
38.9780	518.09
38.9924	517.41
39.0069	560.42
39.0213	526.92
39.0358	486.84
39.0502	511.87
39.0646	525.92
39.0791	496.22
39.0935	501.65
39.1080	509.09
39.1224	518.92
39.1368	493.95
39.1513	461.23
39.1657	488.60
39.1802	517.21
39.1946	486.19
39.2090	495.07
39.2235	497.33
39.2379	493.91
39.2524	483.88
39.2668	501.47
39.2812	536.79
39.2957	487.54
39.3101	512.48
39.3246	536.79
39.3390	527.21
39.3534	513.20
39.3679	488.75
39.3823	486.39
39.3968	494.43
39.4112	483.18
39.4256	504.84
39.4401	529.13
39.4545	486.64
39.4690	525.42
39.4834	511.41
39.4978	526.95
39.5123	511.13
39.5267	512.37
39.5412	507.61
39.5556	499.49
39.5700	506.45
39.5845	503.06
39.5989	476.04
39.6134	471.50
39.6278	478.71
39.6422	504.51
39.6567	502.74
39.6711	527.14
39.6856	453.36
39.7000	484.93
39.7144	486.82
39.7289	488.29
39.7433	487.88
39.7578	469.65
39.7722	461.48
39.7866	515.48
39.8011	499.65
39.8155	503.52
39.8300	519.46
39.8444	520.28
39.8588	510.52
39.8733	483.46
39.8877	480.30
39.9022	499.72
39.9166	508.80
39.9310	476.77
39.9455	478.09
39.9599	504.94
39.9744	475.80
39.9888	487.87
40.0032	480.79
40.0177	506.39
40.0321	495.49
40.0466	475.29
40.0610	505.54
40.0754	486.09
40.0899	504.15
40.1043	511.54
40.1188	537.74
40.1332	531.76
40.1476	489.69
40.1621	511.70
40.1765	483.54
40.1910	481.91
40.2054	473.46
40.2198	494.96
40.2343	472.55
40.2487	540.23
40.2632	473.80
40.2776	488.34
40.2920	517.51
40.3065	503.79
40.3209	534.11
40.3354	509.25
40.3498	487.02
40.3642	506.64
40.3787	504.94
40.3931	484.19
40.4076	479.48
40.4220	537.77
40.4364	514.38
40.4509	475.37
40.4653	457.59
40.4798	510.78
40.4942	495.89
40.5086	481.81
40.5231	478.88
40.5375	496.73
40.5520	499.09
40.5664	485.88
40.5808	512.08
40.5953	518.17
40.6097	496.95
40.6242	520.15
40.6386	485.67
40.6530	461.40
40.6675	495.71
40.6819	452.60
40.6964	463.90
40.7108	522.08
40.7252	504.93
40.7397	515.13
40.7541	534.66
40.7686	509.62
40.7830	506.27
40.7974	502.00
40.8119	474.90
40.8263	514.24
40.8408	465.13
40.8552	509.95
40.8696	536.12
40.8841	488.49
40.8985	469.22
40.9130	501.27
40.9274	512.69
40.9418	551.40
40.9563	499.93
40.9707	456.35
40.9852	499.47
40.9996	523.35
41.0140	512.85
41.0285	522.14
41.0429	509.11
41.0574	446.71
41.0718	450.91
41.0862	492.18
41.1007	490.82
41.1151	518.51
41.1296	540.79
41.1440	505.72
41.1584	499.63
41.1729	472.34
41.1873	461.99
41.2018	466.02
41.2162	504.00
41.2306	516.88
41.2451	482.24
41.2595	492.61
41.2740	484.69
41.2884	528.28
41.3028	466.09
41.3173	487.21
41.3317	488.54
41.3462	517.44
41.3606	504.43
41.3750	524.13
41.3895	480.95
41.4039	525.33
41.4184	505.95
41.4328	482.33
41.4472	478.46
41.4617	491.02
41.4761	509.98
41.4906	504.83
41.5050	473.66
41.5194	528.00
41.5339	508.27
41.5483	524.38
41.5628	496.32
41.5772	447.85
41.5916	494.40
41.6061	504.43
41.6205	482.61
41.6350	507.38
41.6494	478.27
41.6639	480.35
41.6783	494.72
41.6927	503.79
41.7072	517.02
41.7216	520.43
41.7361	500.05
41.7505	532.51
41.7649	484.58
41.7794	504.77
41.7938	499.79
41.8083	528.05
41.8227	518.19
41.8371	547.34
41.8516	517.26
41.8660	525.62
41.8805	492.91
41.8949	520.28
41.9093	565.67
41.9238	571.87
41.9382	533.29
41.9527	570.92
41.9671	579.42
41.9815	584.63
41.9960	579.48
42.0104	580.91
42.0249	582.52
42.0393	515.85
42.0537	540.40
42.0682	544.99
42.0826	554.08
42.0971	575.27
42.1115	568.17
42.1259	617.49
42.1404	630.35
42.1548	629.14
42.1693	659.24
42.1837	692.91
42.1981	745.53
42.2126	863.01
42.2270	946.11
42.2415	1049.53
42.2559	1236.75
42.2703	1366.71
42.2848	1497.13
42.2992	1602.85
42.3137	1676.18
42.3281	1691.27
42.3425	1632.77
42.3570	1498.66
42.3714	1399.63
42.3859	1384.54
42.4003	1338.85
42.4147	1391.33
42.4292	1358.79
42.4436	1167.83
42.4581	1034.08
42.4725	941.66
42.4869	859.44
42.5014	758.17
42.5158	721.28
42.5303	682.40
42.5447	648.60
42.5591	632.72
42.5736	569.75
42.5880	574.76
42.6025	596.99
42.6169	554.90
42.6313	554.62
42.6458	570.15
42.6602	536.58
42.6747	537.38
42.6891	531.35
42.7035	544.85
42.7180	547.89
42.7324	522.13
42.7469	531.28
42.7613	515.93
42.7757	517.83
42.7902	533.71
42.8046	522.27
42.8191	517.27
42.8335	511.54
42.8479	498.83
42.8624	504.04
42.8768	512.91
42.8913	497.39
42.9057	511.50
42.9201	506.19
42.9346	495.22
42.9490	502.53
42.9635	507.74
42.9779	504.12
42.9923	510.82
43.0068	497.72
43.0212	511.78
43.0357	541.86
43.0501	519.06
43.0645	498.33
43.0790	528.57
43.0934	501.26
43.1079	466.77
43.1223	511.61
43.1367	559.49
43.1512	493.80
43.1656	529.35
43.1801	521.13
43.1945	498.28
43.2089	519.51
43.2234	513.63
43.2378	528.33
43.2523	512.54
43.2667	516.46
43.2811	553.02
43.2956	545.06
43.3100	532.06
43.3245	513.48
43.3389	556.07
43.3533	537.64
43.3678	508.91
43.3822	512.46
43.3967	504.35
43.4111	494.91
43.4255	502.40
43.4400	522.05
43.4544	514.82
43.4689	527.64
43.4833	534.51
43.4977	515.01
43.5122	516.12
43.5266	492.53
43.5411	488.24
43.5555	505.72
43.5699	506.36
43.5844	498.43
43.5988	516.00
43.6133	482.88
43.6277	490.86
43.6421	552.03
43.6566	528.31
43.6710	489.44
43.6855	502.04
43.6999	514.94
43.7143	529.49
43.7288	530.61
43.7432	562.19
43.7577	550.71
43.7721	575.19
43.7865	586.43
43.8010	569.23
43.8154	613.54
43.8299	596.92
43.8443	608.09
43.8587	637.15
43.8732	616.83
43.8876	628.39
43.9021	633.66
43.9165	615.92
43.9309	588.35
43.9454	603.16
43.9598	589.48
43.9743	602.73
43.9887	621.21
44.0031	585.77
44.0176	549.43
44.0320	528.70
44.0465	521.60
44.0609	518.57
44.0753	546.58
44.0898	543.07
44.1042	527.68
44.1187	537.72
44.1331	547.07
44.1475	492.85
44.1620	533.00
44.1764	549.09
44.1909	518.60
44.2053	542.22
44.2197	527.55
44.2342	509.75
44.2486	544.72
44.2631	511.17
44.2775	512.66
44.2919	522.80
44.3064	538.57
44.3208	541.77
44.3353	538.01
44.3497	548.23
44.3641	521.46
44.3786	576.89
44.3930	543.95
44.4075	524.16
44.4219	558.35
44.4363	590.71
44.4508	568.17
44.4652	601.30
44.4797	611.48
44.4941	569.18
44.5085	594.86
44.5230	582.08
44.5374	579.44
44.5519	569.90
44.5663	560.56
44.5807	572.73
44.5952	579.92
44.6096	575.64
44.6241	545.95
44.6385	572.57
44.6529	579.05
44.6674	581.67
44.6818	580.54
44.6963	618.09
44.7107	687.10
44.7251	707.58
44.7396	744.57
44.7540	799.63
44.7685	803.43
44.7829	889.61
44.7973	874.93
44.8118	865.50
44.8262	819.83
44.8407	776.65
44.8551	756.48
44.8695	732.87
44.8840	722.90
44.8984	711.49
44.9129	753.63
44.9273	753.00
44.9417	630.81
44.9562	576.84
44.9706	594.89
44.9851	566.29
44.9995	538.39
45.0139	560.28
45.0284	550.85
45.0428	520.08
45.0573	535.43
45.0717	519.06
45.0861	527.17
45.1006	516.01
45.1150	496.38
45.1295	534.76
45.1439	533.91
45.1583	507.61
45.1728	480.44
45.1872	500.11
45.2017	507.15
45.2161	498.41
45.2305	520.46
45.2450	521.24
45.2594	503.27
45.2739	483.68
45.2883	493.78
45.3028	494.54
45.3172	505.34
45.3316	545.51
45.3461	524.17
45.3605	503.19
45.3750	486.46
45.3894	510.96
45.4038	517.20
45.4183	480.60
45.4327	483.55
45.4472	452.19
45.4616	515.44
45.4760	489.29
45.4905	487.06
45.5049	497.82
45.5194	526.25
45.5338	513.69
45.5482	502.64
45.5627	518.20
45.5771	496.11
45.5916	495.27
45.6060	476.65
45.6204	517.38
45.6349	529.35
45.6493	531.64
45.6638	505.74
45.6782	485.09
45.6926	496.51
45.7071	499.21
45.7215	488.81
45.7360	509.25
45.7504	501.02
45.7648	501.92
45.7793	494.26
45.7937	514.48
45.8082	534.46
45.8226	504.53
45.8370	494.72
45.8515	483.49
45.8659	512.71
45.8804	539.70
45.8948	504.26
45.9092	540.52
45.9237	513.54
45.9381	549.28
45.9526	492.17
45.9670	487.92
45.9814	472.06
45.9959	475.29
46.0103	486.63
46.0248	490.90
46.0392	487.15
46.0536	483.21
46.0681	498.66
46.0825	501.39
46.0970	505.14
46.1114	496.03
46.1258	509.33
46.1403	503.51
46.1547	471.49
46.1692	503.33
46.1836	484.90
46.1980	456.16
46.2125	500.48
46.2269	520.20
46.2414	481.71
46.2558	473.30
46.2702	491.09
46.2847	493.35
46.2991	513.29
46.3136	494.64
46.3280	479.54
46.3424	480.19
46.3569	513.81
46.3713	496.91
46.3858	474.57
46.4002	491.55
46.4146	475.15
46.4291	508.05
46.4435	472.59
46.4580	477.13
46.4724	517.04
46.4868	518.36
46.5013	475.67
46.5157	474.54
46.5302	502.16
46.5446	503.07
46.5590	513.39
46.5735	484.65
46.5879	501.59
46.6024	507.87
46.6168	485.52
46.6312	486.96
46.6457	485.59
46.6601	474.07
46.6746	507.83
46.6890	481.29
46.7034	485.07
46.7179	498.21
46.7323	502.27
46.7468	507.52
46.7612	535.15
46.7756	520.81
46.7901	498.15
46.8045	502.14
46.8190	493.96
46.8334	517.34
46.8478	512.60
46.8623	517.28
46.8767	518.39
46.8912	500.88
46.9056	486.78
46.9200	506.92
46.9345	521.30
46.9489	523.38
46.9634	520.92
46.9778	518.94
46.9922	532.93
47.0067	508.27
47.0211	499.87
47.0356	517.43
47.0500	492.48
47.0644	491.82
47.0789	479.03
47.0933	466.35
47.1078	489.69
47.1222	496.83
47.1366	495.43
47.1511	485.73
47.1655	534.47
47.1800	516.91
47.1944	495.57
47.2088	479.69
47.2233	458.68
47.2377	478.88
47.2522	525.03
47.2666	488.93
47.2810	511.43
47.2955	509.83
47.3099	493.30
47.3244	508.77
47.3388	522.65
47.3532	479.42
47.3677	482.84
47.3821	486.89
47.3966	500.29
47.4110	488.99
47.4254	548.35
47.4399	496.33
47.4543	522.67
47.4688	557.43
47.4832	551.80
47.4976	505.55
47.5121	481.15
47.5265	517.82
47.5410	511.69
47.5554	500.57
47.5698	508.05
47.5843	474.28
47.5987	486.01
47.6132	490.27
47.6276	486.37
47.6420	522.70
47.6565	519.51
47.6709	502.72
47.6854	482.89
47.6998	512.28
47.7142	507.50
47.7287	498.24
47.7431	484.24
47.7576	493.17
47.7720	481.52
47.7864	500.71
47.8009	480.52
47.8153	495.39
47.8298	500.51
47.8442	473.83
47.8586	506.29
47.8731	529.06
47.8875	523.95
47.9020	497.28
47.9164	470.27
47.9308	527.03
47.9453	512.97
47.9597	532.47
47.9742	496.54
47.9886	470.69
48.0030	485.22
48.0175	520.22
48.0319	490.66
48.0464	491.72
48.0608	500.73
48.0752	478.03
48.0897	520.42
48.1041	500.59
48.1186	509.50
48.1330	514.38
48.1474	469.12
48.1619	496.41
48.1763	483.92
48.1908	541.83
48.2052	477.94
48.2196	535.48
48.2341	504.54
48.2485	502.74
48.2630	473.82
48.2774	519.31
48.2918	501.82
48.3063	495.59
48.3207	493.29
48.3352	528.68
48.3496	504.42
48.3640	492.08
48.3785	504.80
48.3929	477.70
48.4074	504.63
48.4218	518.76
48.4362	532.60
48.4507	487.99
48.4651	489.83
48.4796	496.03
48.4940	517.41
48.5084	514.64
48.5229	503.93
48.5373	494.39
48.5518	527.75
48.5662	501.56
48.5806	492.22
48.5951	478.43
48.6095	507.32
48.6240	545.59
48.6384	509.63
48.6528	517.45
48.6673	501.42
48.6817	517.68
48.6962	504.11
48.7106	517.11
48.7250	473.88
48.7395	521.06
48.7539	537.83
48.7684	506.53
48.7828	522.87
48.7972	532.69
48.8117	515.20
48.8261	512.37
48.8406	529.60
48.8550	544.95
48.8694	541.96
48.8839	553.86
48.8983	557.04
48.9128	563.19
48.9272	539.74
48.9416	594.07
48.9561	517.59
48.9705	570.14
48.9850	565.95
48.9994	593.73
49.0139	596.76
49.0283	614.12
49.0427	598.07
49.0572	604.93
49.0716	638.90
49.0861	695.07
49.1005	704.81
49.1149	685.09
49.1294	762.66
49.1438	738.23
49.1583	785.50
49.1727	863.48
49.1871	885.13
49.2016	954.42
49.2160	1014.67
49.2305	1129.35
49.2449	1223.25
49.2593	1307.80
49.2738	1407.13
49.2882	1501.55
49.3027	1606.01
49.3171	1692.53
49.3315	1811.52
49.3460	1869.56
49.3604	1899.00
49.3749	1874.12
49.3893	1810.82
49.4037	1813.52
49.4182	1890.86
49.4326	1783.55
49.4471	1656.82
49.4615	1613.26
49.4759	1603.02
49.4904	1538.20
49.5048	1456.77
49.5193	1374.95
49.5337	1346.06
49.5481	1270.62
49.5626	1165.75
49.5770	1066.65
49.5915	1007.68
49.6059	938.22
49.6203	903.33
49.6348	836.16
49.6492	846.20
49.6637	788.39
49.6781	699.70
49.6925	664.07
49.7070	662.07
49.7214	628.99
49.7359	603.54
49.7503	620.86
49.7647	595.45
49.7792	586.97
49.7936	554.19
49.8081	568.42
49.8225	556.49
49.8369	549.09
49.8514	556.63
49.8658	570.44
49.8803	530.50
49.8947	566.68
49.9091	563.46
49.9236	533.69
49.9380	545.52
49.9525	511.50
49.9669	506.38
49.9813	561.09
49.9958	518.80
50.0102	529.28
50.0247	526.83
50.0391	515.23
50.0535	523.59
50.0680	532.60
50.0824	542.69
50.0969	553.32
50.1113	532.93
50.1257	536.47
50.1402	523.74
50.1546	521.27
50.1691	527.53
50.1835	523.90
50.1979	513.28
50.2124	508.64
50.2268	519.46
50.2413	546.35
50.2557	529.29
50.2701	524.14
50.2846	484.93
50.2990	506.15
50.3135	518.44
50.3279	513.93
50.3423	516.71
50.3568	543.82
50.3712	521.50
50.3857	506.87
50.4001	506.21
50.4145	518.48
50.4290	505.22
50.4434	520.41
50.4579	510.52
50.4723	544.73
50.4867	524.87
50.5012	502.45
50.5156	497.37
50.5301	512.04
50.5445	503.86
50.5589	519.09
50.5734	473.99
50.5878	508.86
50.6023	499.67
50.6167	494.35
50.6311	509.54
50.6456	523.16
50.6600	521.46
50.6745	534.27
50.6889	477.80
50.7033	503.18
50.7178	505.94
50.7322	492.28
50.7467	482.28
50.7611	466.14
50.7755	508.37
50.7900	499.95
50.8044	529.79
50.8189	527.16
50.8333	486.38
50.8477	485.66
50.8622	529.68
50.8766	525.21
50.8911	515.68
50.9055	511.84
50.9199	507.64
50.9344	551.77
50.9488	498.94
50.9633	454.99
50.9777	503.98
50.9921	529.80
51.0066	489.55
51.0210	474.24
51.0355	496.56
51.0499	514.69
51.0643	500.89
51.0788	509.44
51.0932	528.88
51.1077	531.18
51.1221	556.94
51.1365	533.10
51.1510	494.31
51.1654	505.38
51.1799	511.39
51.1943	477.26
51.2087	470.15
51.2232	477.37
51.2376	515.27
51.2521	498.14
51.2665	492.46
51.2809	521.75
51.2954	489.33
51.3098	482.56
51.3243	511.25
51.3387	492.58
51.3531	500.32
51.3676	493.64
51.3820	486.99
51.3965	499.82
51.4109	525.64
51.4253	504.50
51.4398	502.40
51.4542	497.42
51.4687	531.80
51.4831	502.42
51.4975	491.27
51.5120	510.84
51.5264	502.17
51.5409	523.26
51.5553	515.68
51.5697	516.06
51.5842	523.61
51.5986	503.60
51.6131	493.07
51.6275	506.22
51.6419	485.56
51.6564	503.00
51.6708	484.32
51.6853	509.90
51.6997	505.04
51.7141	566.71
51.7286	525.03
51.7430	527.17
51.7575	527.93
51.7719	537.02
51.7863	504.85
51.8008	512.83
51.8152	486.48
51.8297	484.17
51.8441	480.56
51.8585	498.99
51.8730	542.09
51.8874	512.02
51.9019	510.08
51.9163	511.92
51.9307	538.61
51.9452	515.68
51.9596	475.64
51.9741	501.06
51.9885	513.74
52.0029	529.43
52.0174	481.45
52.0318	519.37
52.0463	474.71
52.0607	507.91
52.0751	506.81
52.0896	505.64
52.1040	475.49
52.1185	478.86
52.1329	502.63
52.1473	509.27
52.1618	536.80
52.1762	516.82
52.1907	490.20
52.2051	491.03
52.2195	507.42
52.2340	521.48
52.2484	492.20
52.2629	496.78
52.2773	508.73
52.2917	507.78
52.3062	489.35
52.3206	516.01
52.3351	526.49
52.3495	519.10
52.3639	507.99
52.3784	541.04
52.3928	494.93
52.4073	486.16
52.4217	501.57
52.4361	518.56
52.4506	524.99
52.4650	517.24
52.4795	489.14
52.4939	505.88
52.5083	483.66
52.5228	498.99
52.5372	524.10
52.5517	518.14
52.5661	525.45
52.5805	532.17
52.5950	511.09
52.6094	463.06
52.6239	519.47
52.6383	513.78
52.6527	472.43
52.6672	534.26
52.6816	494.70
52.6961	518.39
52.7105	538.25
52.7250	484.74
52.7394	522.37
52.7538	501.32
52.7683	474.04
52.7827	517.88
52.7972	502.78
52.8116	493.68
52.8260	476.86
52.8405	491.41
52.8549	500.12
52.8694	537.27
52.8838	519.00
52.8982	524.73
52.9127	499.04
52.9271	508.18
52.9416	512.98
52.9560	507.84
52.9704	515.85
52.9849	479.89
52.9993	502.21
53.0138	490.14
53.0282	476.47
53.0426	528.07
53.0571	503.84
53.0715	507.80
53.0860	534.88
53.1004	498.93
53.1148	509.59
53.1293	478.52
53.1437	491.93
53.1582	495.18
53.1726	494.93
53.1870	492.17
53.2015	522.57
53.2159	517.90
53.2304	505.34
53.2448	534.23
53.2592	502.35
53.2737	527.08
53.2881	508.94
53.3026	526.99
53.3170	496.27
53.3314	496.57
53.3459	513.06
53.3603	561.99
53.3748	492.82
53.3892	484.46
53.4036	494.77
53.4181	479.07
53.4325	547.57
53.4470	504.87
53.4614	511.15
53.4758	551.82
53.4903	544.18
53.5047	521.82
53.5192	502.25
53.5336	497.05
53.5480	529.69
53.5625	553.68
53.5769	492.18
53.5914	496.11
53.6058	482.66
53.6202	515.10
53.6347	501.06
53.6491	503.60
53.6636	506.63
53.6780	525.01
53.6924	506.45
53.7069	535.30
53.7213	483.93
53.7358	489.50
53.7502	538.82
53.7646	554.08
53.7791	517.80
53.7935	527.13
53.8080	522.52
53.8224	519.56
53.8368	510.15
53.8513	526.36
53.8657	508.45
53.8802	480.54
53.8946	515.57
53.9090	553.90
53.9235	518.14
53.9379	510.16
53.9524	533.69
53.9668	504.36
53.9812	499.87
53.9957	491.93
54.0101	487.68
54.0246	529.01
54.0390	499.09
54.0534	500.98
54.0679	515.19
54.0823	517.07
54.0968	520.89
54.1112	515.57
54.1256	532.14
54.1401	501.80
54.1545	516.92
54.1690	546.43
54.1834	547.76
54.1978	512.82
54.2123	517.48
54.2267	533.58
54.2412	533.66
54.2556	517.69
54.2700	536.70
54.2845	540.31
54.2989	553.82
54.3134	546.30
54.3278	586.68
54.3422	541.26
54.3567	589.53
54.3711	567.88
54.3856	554.36
54.4000	567.88
54.4144	565.62
54.4289	565.02
54.4433	575.89
54.4578	587.49
54.4722	587.87
54.4866	589.38
54.5011	582.45
54.5155	570.18
54.5300	613.42
54.5444	597.35
54.5588	570.18
54.5733	560.55
54.5877	527.79
54.6022	552.77
54.6166	575.76
54.6310	559.89
54.6455	585.03
54.6599	538.55
54.6744	536.18
54.6888	541.38
54.7032	562.88
54.7177	552.96
54.7321	513.11
54.7466	510.69
54.7610	531.30
54.7754	525.21
54.7899	499.33
54.8043	503.95
54.8188	530.90
54.8332	535.18
54.8476	514.53
54.8621	542.25
54.8765	503.33
54.8910	478.35
54.9054	528.05
54.9198	513.95
54.9343	500.95
54.9487	535.26
54.9632	516.31
54.9776	548.37
54.9920	542.72
55.0065	517.42
55.0209	538.70
55.0354	517.56
55.0498	463.68
55.0642	487.70
55.0787	534.76
55.0931	535.18
55.1076	514.49
55.1220	530.75
55.1364	500.48
55.1509	482.80
55.1653	533.14
55.1798	515.87
55.1942	491.44
55.2086	506.00
55.2231	542.93
55.2375	516.80
55.2520	540.32
55.2664	517.17
55.2808	522.46
55.2953	524.26
55.3097	528.79
55.3242	530.11
55.3386	532.71
55.3530	514.43
55.3675	520.00
55.3819	500.86
55.3964	506.67
55.4108	477.52
55.4252	489.11
55.4397	517.07
55.4541	515.67
55.4686	522.12
55.4830	548.37
55.4974	527.39
55.5119	525.93
55.5263	511.25
55.5408	504.61
55.5552	532.27
55.5696	499.16
55.5841	519.65
55.5985	506.08
55.6130	521.05
55.6274	530.18
55.6418	516.84
55.6563	501.13
55.6707	529.73
55.6852	550.91
55.6996	548.74
55.7140	525.02
55.7285	526.88
55.7429	520.25
55.7574	533.67
55.7718	510.50
55.7862	533.78
55.8007	501.44
55.8151	510.82
55.8296	509.00
55.8440	508.24
55.8584	507.58
55.8729	497.07
55.8873	523.91
55.9018	535.26
55.9162	512.76
55.9306	511.46
55.9451	530.62
55.9595	519.83
55.9740	510.74
55.9884	527.89
56.0028	527.38
56.0173	515.74
56.0317	517.06
56.0462	532.29
56.0606	520.90
56.0750	530.83
56.0895	526.86
56.1039	523.41
56.1184	547.09
56.1328	536.10
56.1472	499.19
56.1617	547.70
56.1761	545.07
56.1906	551.77
56.2050	514.51
56.2194	543.67
56.2339	505.58
56.2483	520.31
56.2628	517.19
56.2772	520.55
56.2916	533.97
56.3061	500.63
56.3205	512.82
56.3350	531.45
56.3494	525.92
56.3639	480.54
56.3783	519.71
56.3927	494.28
56.4072	540.84
56.4216	530.27
56.4361	504.95
56.4505	492.09
56.4649	535.90
56.4794	552.69
56.4938	539.85
56.5083	513.83
56.5227	505.47
56.5371	490.33
56.5516	511.04
56.5660	522.57
56.5805	532.15
56.5949	550.12
56.6093	548.25
56.6238	545.92
56.6382	560.83
56.6527	530.82
56.6671	528.03
56.6815	514.91
56.6960	491.47
56.7104	542.63
56.7249	515.65
56.7393	492.25
56.7537	515.04
56.7682	510.31
56.7826	546.52
56.7971	537.41
56.8115	531.13
56.8259	523.72
56.8404	530.23
56.8548	531.05
56.8693	508.42
56.8837	494.51
56.8981	516.01
56.9126	485.48
56.9270	477.98
56.9415	525.89
56.9559	491.06
56.9703	496.20
56.9848	511.32
56.9992	516.95
57.0137	496.81
57.0281	507.85
57.0425	526.94
57.0570	500.71
57.0714	524.89
57.0859	519.04
57.1003	508.37
57.1147	505.97
57.1292	522.95
57.1436	491.14
57.1581	517.63
57.1725	524.57
57.1869	509.64
57.2014	535.53
57.2158	535.34
57.2303	535.80
57.2447	527.87
57.2591	523.21
57.2736	503.23
57.2880	551.17
57.3025	525.25
57.3169	543.59
57.3313	552.87
57.3458	513.03
57.3602	507.51
57.3747	548.92
57.3891	533.78
57.4035	513.32
57.4180	521.70
57.4324	516.91
57.4469	477.09
57.4613	542.88
57.4757	522.87
57.4902	539.96
57.5046	523.85
57.5191	530.65
57.5335	528.06
57.5479	552.89
57.5624	540.47
57.5768	541.71
57.5913	561.92
57.6057	528.02
57.6201	534.56
57.6346	526.55
57.6490	544.23
57.6635	535.19
57.6779	503.94
57.6923	524.06
57.7068	532.82
57.7212	519.56
57.7357	516.08
57.7501	535.12
57.7645	558.42
57.7790	532.46
57.7934	541.33
57.8079	559.70
57.8223	565.31
57.8367	548.04
57.8512	554.31
57.8656	559.21
57.8801	556.04
57.8945	561.72
57.9089	602.97
57.9234	590.66
57.9378	601.21
57.9523	625.02
57.9667	630.40
57.9811	670.17
57.9956	601.01
58.0100	616.80
58.0245	663.11
58.0389	634.09
58.0533	677.99
58.0678	681.44
58.0822	692.89
58.0967	660.71
58.1111	645.12
58.1255	642.15
58.1400	646.31
58.1544	627.07
58.1689	612.20
58.1833	611.76
58.1977	622.69
58.2122	583.60
58.2266	611.94
58.2411	661.28
58.2555	638.75
58.2699	617.57
58.2844	593.84
58.2988	578.42
58.3133	561.47
58.3277	561.76
58.3421	559.67
58.3566	546.20
58.3710	553.18
58.3855	553.77
58.3999	549.55
58.4143	543.19
58.4288	579.54
58.4432	549.54
58.4577	528.78
58.4721	524.32
58.4865	531.41
58.5010	547.43
58.5154	531.93
58.5299	525.26
58.5443	546.00
58.5587	543.41
58.5732	514.90
58.5876	526.81
58.6021	523.70
58.6165	544.18
58.6309	527.38
58.6454	544.55
58.6598	527.19
58.6743	508.38
58.6887	511.62
58.7031	512.58
58.7176	532.55
58.7320	550.65
58.7465	522.74
58.7609	521.88
58.7753	493.83
58.7898	521.45
58.8042	535.66
58.8187	518.37
58.8331	518.50
58.8475	524.54
58.8620	527.06
58.8764	564.71
58.8909	537.54
58.9053	539.68
58.9197	544.42
58.9342	537.06
58.9486	559.84
58.9631	533.41
58.9775	503.98
58.9919	551.99
59.0064	548.52
59.0208	531.65
59.0353	504.52
59.0497	509.29
59.0641	541.29
59.0786	559.51
59.0930	538.59
59.1075	554.03
59.1219	543.54
59.1363	542.55
59.1508	511.87
59.1652	538.07
59.1797	534.49
59.1941	538.63
59.2085	539.65
59.2230	541.58
59.2374	565.37
59.2519	541.68
59.2663	536.55
59.2807	535.25
59.2952	522.56
59.3096	524.29
59.3241	565.88
59.3385	550.54
59.3529	563.27
59.3674	556.07
59.3818	562.46
59.3963	524.50
59.4107	583.73
59.4251	582.29
59.4396	535.39
59.4540	513.68
59.4685	508.23
59.4829	545.53
59.4973	548.73
59.5118	559.17
59.5262	541.82
59.5407	555.53
59.5551	554.87
59.5695	576.15
59.5840	560.60
59.5984	544.83
59.6129	545.00
59.6273	533.42
59.6417	523.82
59.6562	530.62
59.6706	533.19
59.6851	530.79
59.6995	530.94
59.7139	535.42
59.7284	526.80
59.7428	523.01
59.7573	541.52
59.7717	527.13
59.7861	534.32
59.8006	546.12
59.8150	552.59
59.8295	521.77
59.8439	516.59
59.8583	510.66
59.8728	536.85
59.8872	530.78
59.9017	544.00
59.9161	529.53
59.9305	546.97
59.9450	540.48
59.9594	489.93
59.9739	529.27
59.9883	519.29
60.0027	571.80
60.0172	548.91
60.0316	566.19
60.0461	523.39
60.0605	565.81
60.0750	541.67
60.0894	510.25
60.1038	501.55
60.1183	550.85
60.1327	559.89
60.1472	549.95
60.1616	545.79
60.1760	550.16
60.1905	515.11
60.2049	527.29
60.2194	542.68
60.2338	580.84
60.2482	555.98
60.2627	566.78
60.2771	549.03
60.2916	541.12
60.3060	536.71
60.3204	547.76
60.3349	574.79
60.3493	554.55
60.3638	519.76
60.3782	540.53
60.3926	494.39
60.4071	494.34
60.4215	543.99
60.4360	554.43
60.4504	530.66
60.4648	549.28
60.4793	584.80
60.4937	547.95
60.5082	533.76
60.5226	544.45
60.5370	550.07
60.5515	516.50
60.5659	555.65
60.5804	533.22
60.5948	527.43
60.6092	547.17
60.6237	523.68
60.6381	523.86
60.6526	521.69
60.6670	519.52
60.6814	490.60
60.6959	500.98
60.7103	531.79
60.7248	541.51
60.7392	513.65
60.7536	501.53
60.7681	506.60
60.7825	553.52
60.7970	536.20
60.8114	509.13
60.8258	516.01
60.8403	572.34
60.8547	549.49
60.8692	565.52
60.8836	523.06
60.8980	544.81
60.9125	535.21
60.9269	525.94
60.9414	537.06
60.9558	483.73
60.9702	523.83
60.9847	557.60
60.9991	504.00
61.0136	513.01
61.0280	568.61
61.0424	547.38
61.0569	553.19
61.0713	545.08
61.0858	590.86
61.1002	572.57
61.1146	573.92
61.1291	566.90
61.1435	525.09
61.1580	526.71
61.1724	557.71
61.1868	563.62
61.2013	570.10
61.2157	500.99
61.2302	518.63
61.2446	528.61
61.2590	558.85
61.2735	592.43
61.2879	550.50
61.3024	591.69
61.3168	550.87
61.3312	532.09
61.3457	524.18
61.3601	523.07
61.3746	561.17
61.3890	517.76
61.4034	495.41
61.4179	519.33
61.4323	538.97
61.4468	516.28
61.4612	511.87
61.4756	559.70
61.4901	556.26
61.5045	512.42
61.5190	524.98
61.5334	556.00
61.5478	557.05
61.5623	529.50
61.5767	522.85
61.5912	518.69
61.6056	558.20
61.6200	522.77
61.6345	544.79
61.6489	555.67
61.6634	554.48
61.6778	507.66
61.6922	532.72
61.7067	544.10
61.7211	516.69
61.7356	517.57
61.7500	557.41
61.7644	511.25
61.7789	582.51
61.7933	558.93
61.8078	580.93
61.8222	538.17
61.8366	571.88
61.8511	562.25
61.8655	534.81
61.8800	558.32
61.8944	569.55
61.9088	536.87
61.9233	512.58
61.9377	549.64
61.9522	554.67
61.9666	562.01
61.9810	508.52
61.9955	564.06
62.0099	566.34
62.0244	545.29
62.0388	516.56
62.0532	536.43
62.0677	553.87
62.0821	544.58
62.0966	540.58
62.1110	548.94
62.1254	553.09
62.1399	539.15
62.1543	543.69
62.1688	520.32
62.1832	553.88
62.1976	522.71
62.2121	534.04
62.2265	549.98
62.2410	552.24
62.2554	506.06
62.2698	542.13
62.2843	543.77
62.2987	546.05
62.3132	536.45
62.3276	535.93
62.3420	535.42
62.3565	561.95
62.3709	552.91
62.3854	550.34
62.3998	540.87
62.4142	545.15
62.4287	576.49
62.4431	548.64
62.4576	555.67
62.4720	554.85
62.4864	558.58
62.5009	541.65
62.5153	505.42
62.5298	539.67
62.5442	566.99
62.5586	563.92
62.5731	535.09
62.5875	564.85
62.6020	585.04
62.6164	560.50
62.6308	545.49
62.6453	551.54
62.6597	533.96
62.6742	563.43
62.6886	530.01
62.7030	568.29
62.7175	586.93
62.7319	580.66
62.7464	555.60
62.7608	586.25
62.7752	556.32
62.7897	549.64
62.8041	569.37
62.8186	582.01
62.8330	558.64
62.8474	558.08
62.8619	589.41
62.8763	601.80
62.8908	559.90
62.9052	578.72
62.9196	551.30
62.9341	558.39
62.9485	574.34
62.9630	571.49
62.9774	553.52
62.9918	564.16
63.0063	591.73
63.0207	593.61
63.0352	547.91
63.0496	540.30
63.0640	558.19
63.0785	545.70
63.0929	560.06
63.1074	575.47
63.1218	561.13
63.1362	570.48
63.1507	551.92
63.1651	559.47
63.1796	557.83
63.1940	559.04
63.2084	578.45
63.2229	591.61
63.2373	591.76
63.2518	597.95
63.2662	529.50
63.2806	569.99
63.2951	568.45
63.3095	570.85
63.3240	579.13
63.3384	587.80
63.3528	544.82
63.3673	559.71
63.3817	575.37
63.3962	575.13
63.4106	584.88
63.4250	591.25
63.4395	609.51
63.4539	583.19
63.4684	575.06
63.4828	586.71
63.4972	578.13
63.5117	604.96
63.5261	626.77
63.5406	618.52
63.5550	601.57
63.5694	637.99
63.5839	646.61
63.5983	678.17
63.6128	697.06
63.6272	673.80
63.6416	691.73
63.6561	722.03
63.6705	728.68
63.6850	763.20
63.6994	773.94
63.7138	832.20
63.7283	804.80
63.7427	764.19
63.7572	800.99
63.7716	784.28
63.7861	768.48
63.8005	783.62
63.8149	851.65
63.8294	801.82
63.8438	798.39
63.8583	848.30
63.8727	813.81
63.8871	809.86
63.9016	788.50
63.9160	721.13
63.9305	775.73
63.9449	784.26
63.9593	792.95
63.9738	724.69
63.9882	757.99
64.0027	752.66
64.0171	700.35
64.0315	683.96
64.0460	652.26
64.0604	653.70
64.0749	665.09
64.0893	666.97
64.1037	657.48
64.1182	638.85
64.1326	634.64
64.1471	588.99
64.1615	632.46
64.1759	661.69
64.1904	626.11
64.2048	633.98
64.2193	647.50
64.2337	642.05
64.2481	632.29
64.2626	598.91
64.2770	633.21
64.2915	628.78
64.3059	608.46
64.3203	637.29
64.3348	594.29
64.3492	596.43
64.3637	634.42
64.3781	603.65
64.3925	581.30
64.4070	608.23
64.4214	607.61
64.4359	644.13
64.4503	614.26
64.4647	611.57
64.4792	604.35
64.4936	621.52
64.5081	615.77
64.5225	594.67
64.5369	641.26
64.5514	641.69
64.5658	625.34
64.5803	620.44
64.5947	606.29
64.6091	611.08
64.6236	608.46
64.6380	658.35
64.6525	658.36
64.6669	643.03
64.6813	648.59
64.6958	657.11
64.7102	688.28
64.7247	695.10
64.7391	688.01
64.7535	687.38
64.7680	700.17
64.7824	704.03
64.7969	708.31
64.8113	752.88
64.8257	776.67
64.8402	796.71
64.8546	771.72
64.8691	846.19
64.8835	832.92
64.8979	852.81
64.9124	830.66
64.9268	862.69
64.9413	901.67
64.9557	852.08
64.9701	921.27
64.9846	1050.63
64.9990	1130.46
65.0135	1215.46
65.0279	1429.15
65.0423	1625.40
65.0568	1994.16
65.0712	2413.66
65.0857	3180.54
65.1001	4171.49
65.1145	5604.45
65.1290	7446.09
65.1434	9026.61
65.1579	10764.67
65.1723	11520.96
65.1867	11471.60
65.2012	10099.79
65.2156	8392.76
65.2301	6752.47
65.2445	5551.74
65.2589	4577.89
65.2734	4111.53
65.2878	4209.08
65.3023	4791.18
65.3167	5487.98
65.3311	6424.39
65.3456	6868.15
65.3600	6877.12
65.3745	6517.28
65.3889	5457.91
65.4033	4483.32
65.4178	3575.07
65.4322	2698.94
65.4467	2096.57
65.4611	1725.79
65.4755	1471.63
65.4900	1308.51
65.5044	1113.71
65.5189	1047.38
65.5333	994.68
65.5477	956.45
65.5622	918.32
65.5766	853.39
65.5911	792.33
65.6055	787.34
65.6199	777.06
65.6344	780.76
65.6488	774.66
65.6633	740.38
65.6777	767.00
65.6921	721.70
65.7066	730.69
65.7210	712.81
65.7355	675.14
65.7499	729.64
65.7643	636.36
65.7788	676.36
65.7932	658.90
65.8077	656.95
65.8221	662.30
65.8365	667.62
65.8510	664.25
65.8654	688.99
65.8799	656.08
65.8943	644.12
65.9087	627.88
65.9232	603.10
65.9376	619.10
65.9521	593.05
65.9665	597.83
65.9809	635.22
65.9954	615.17
66.0098	612.78
66.0243	652.34
66.0387	623.92
66.0531	628.02
66.0676	635.63
66.0820	596.62
66.0965	588.60
66.1109	599.61
66.1253	645.89
66.1398	620.99
66.1542	615.04
66.1687	631.15
66.1831	635.79
66.1975	667.47
66.2120	627.18
66.2264	617.21
66.2409	613.45
66.2553	575.87
66.2697	597.44
66.2842	637.66
66.2986	601.46
66.3131	596.41
66.3275	618.39
66.3419	593.58
66.3564	587.41
66.3708	590.73
66.3853	617.79
66.3997	562.59
66.4141	612.88
66.4286	642.09
66.4430	604.54
66.4575	585.74
66.4719	621.94
66.4863	633.00
66.5008	583.21
66.5152	574.23
66.5297	618.45
66.5441	619.97
66.5585	612.98
66.5730	609.27
66.5874	573.66
66.6019	621.20
66.6163	615.30
66.6307	594.66
66.6452	563.06
66.6596	570.31
66.6741	614.34
66.6885	614.95
66.7029	593.89
66.7174	542.85
66.7318	567.44
66.7463	559.90
66.7607	576.37
66.7751	577.98
66.7896	576.10
66.8040	572.73
66.8185	584.38
66.8329	587.22
66.8473	584.20
66.8618	614.97
66.8762	592.57
66.8907	558.21
66.9051	578.18
66.9195	557.67
66.9340	569.12
66.9484	558.25
66.9629	561.88
66.9773	555.48
66.9917	565.39
67.0062	576.38
67.0206	583.93
67.0351	614.69
67.0495	597.05
67.0639	593.43
67.0784	588.62
67.0928	573.49
67.1073	555.21
67.1217	607.13
67.1361	584.44
67.1506	551.84
67.1650	582.44
67.1795	595.03
67.1939	558.10
67.2083	566.12
67.2228	606.77
67.2372	573.15
67.2517	552.82
67.2661	544.57
67.2805	571.46
67.2950	556.89
67.3094	543.42
67.3239	552.56
67.3383	580.66
67.3527	591.65
67.3672	599.91
67.3816	570.88
67.3961	581.01
67.4105	555.83
67.4250	565.15
67.4394	559.78
67.4538	580.09
67.4683	534.54
67.4827	585.50
67.4972	605.02
67.5116	582.02
67.5260	579.89
67.5405	591.11
67.5549	607.33
67.5694	564.81
67.5838	600.29
67.5982	586.65
67.6127	588.65
67.6271	574.63
67.6416	568.47
67.6560	564.17
67.6704	563.75
67.6849	575.06
67.6993	603.97
67.7138	592.00
67.7282	543.91
67.7426	562.82
67.7571	567.40
67.7715	598.39
67.7860	596.74
67.8004	577.56
67.8148	539.43
67.8293	572.55
67.8437	602.28
67.8582	603.53
67.8726	600.68
67.8870	558.69
67.9015	600.70
67.9159	576.63
67.9304	566.36
67.9448	581.57
67.9592	543.53
67.9737	567.92
67.9881	616.90
68.0026	559.78
68.0170	573.41
68.0314	596.04
68.0459	587.05
68.0603	598.86
68.0748	576.55
68.0892	579.88
68.1036	585.66
68.1181	596.92
68.1325	604.42
68.1470	552.26
68.1614	568.29
68.1758	576.84
68.1903	553.84
68.2047	565.84
68.2192	561.97
68.2336	560.91
68.2480	576.49
68.2625	572.29
68.2769	578.42
68.2914	594.24
68.3058	609.53
68.3202	583.98
68.3347	599.30
68.3491	570.20
68.3636	561.62
68.3780	588.76
68.3924	569.79
68.4069	562.70
68.4213	600.81
68.4358	598.84
68.4502	577.59
68.4646	555.76
68.4791	604.56
68.4935	595.72
68.5080	572.00
68.5224	592.37
68.5368	563.66
68.5513	577.49
68.5657	536.95
68.5802	551.27
68.5946	527.85
68.6090	553.22
68.6235	586.04
68.6379	563.02
68.6524	573.32
68.6668	568.01
68.6812	543.52
68.6957	573.50
68.7101	538.15
68.7246	572.63
68.7390	539.60
68.7534	571.45
68.7679	571.10
68.7823	613.10
68.7968	543.13
68.8112	580.75
68.8256	586.45
68.8401	599.72
68.8545	585.96
68.8690	591.26
68.8834	514.94
68.8978	558.26
68.9123	564.14
68.9267	629.17
68.9412	551.70
68.9556	555.13
68.9700	531.45
68.9845	569.56
68.9989	580.21
69.0134	554.59
69.0278	581.85
69.0422	578.84
69.0567	556.27
69.0711	579.18
69.0856	572.65
69.1000	588.04
69.1144	576.39
69.1289	591.84
69.1433	560.22
69.1578	558.44
69.1722	549.20
69.1866	585.10
69.2011	583.26
69.2155	594.73
69.2300	559.25
69.2444	585.11
69.2588	566.13
69.2733	515.81
69.2877	575.65
69.3022	551.85
69.3166	549.82
69.3310	561.97
69.3455	588.24
69.3599	613.42
69.3744	567.57
69.3888	583.87
69.4032	568.58
69.4177	590.84
69.4321	578.54
69.4466	570.49
69.4610	560.19
69.4754	555.35
69.4899	616.04
69.5043	600.74
69.5188	582.03
69.5332	602.67
69.5476	549.08
69.5621	547.88
69.5765	573.13
69.5910	572.88
69.6054	577.73
69.6198	556.04
69.6343	560.69
69.6487	581.51
69.6632	581.55
69.6776	590.26
69.6920	574.22
69.7065	579.32
69.7209	577.28
69.7354	564.27
69.7498	552.18
69.7642	533.80
69.7787	584.01
69.7931	588.74
69.8076	583.42
69.8220	586.09
69.8364	590.74
69.8509	544.63
69.8653	543.56
69.8798	553.89
69.8942	550.70
69.9086	580.36
69.9231	605.52
69.9375	622.28
69.9520	562.05
69.9664	560.25
69.9808	538.82
69.9953	606.94
70.0097	545.45
70.0242	577.85
70.0386	574.97
70.0530	500.50
70.0675	537.39
70.0819	574.57
70.0964	580.28
70.1108	558.49
70.1252	579.04
70.1397	554.80
70.1541	566.35
70.1686	597.87
70.1830	592.37
70.1974	619.70
70.2119	575.97
70.2263	523.25
70.2408	588.41
70.2552	605.53
70.2696	581.40
70.2841	545.29
70.2985	511.48
70.3130	554.82
70.3274	612.36
70.3418	609.63
70.3563	551.58
70.3707	534.75
70.3852	526.17
70.3996	571.77
70.4140	542.03
70.4285	593.40
70.4429	569.28
70.4574	580.33
70.4718	574.25
70.4862	545.80
70.5007	533.19
70.5151	530.20
70.5296	602.22
70.5440	525.44
70.5584	550.19
70.5729	577.35
70.5873	585.80
70.6018	524.78
70.6162	520.00
70.6306	574.16
70.6451	561.18
70.6595	568.40
70.6740	582.67
70.6884	568.38
70.7028	605.36
70.7173	641.78
70.7317	556.53
70.7462	576.51
70.7606	562.34
70.7750	600.72
70.7895	581.17
70.8039	536.18
70.8184	568.06
70.8328	544.74
70.8472	527.29
70.8617	557.99
70.8761	605.73
70.8906	601.31
70.9050	685.02
70.9194	649.16
70.9339	657.93
70.9483	626.66
70.9628	598.08
70.9772	603.52
70.9916	598.93
71.0061	553.64
71.0205	558.32
71.0350	599.09
71.0494	572.28
71.0638	580.62
71.0783	557.48
71.0927	570.64
71.1072	587.60
71.1216	580.01
71.1361	550.42
71.1505	546.69
71.1649	563.66
71.1794	584.17
71.1938	619.68
71.2083	626.08
71.2227	565.47
71.2371	582.80
71.2516	620.60
71.2660	616.83
71.2805	595.55
71.2949	570.67
71.3093	616.79
71.3238	586.57
71.3382	577.28
71.3527	594.11
71.3671	599.12
71.3815	589.46
71.3960	579.72
71.4104	531.86
71.4249	532.36
71.4393	577.59
71.4537	564.83
71.4682	636.52
71.4826	623.43
71.4971	553.72
71.5115	538.94
71.5259	549.49
71.5404	539.29
71.5548	584.79
71.5693	628.69
71.5837	574.96
71.5981	541.81
71.6126	540.78
71.6270	576.37
71.6415	607.93
71.6559	561.55
71.6703	527.78
71.6848	506.89
71.6992	570.47
71.7137	602.53
71.7281	593.33
71.7425	618.85
71.7570	587.17
71.7714	558.75
71.7859	578.21
71.8003	597.03
71.8147	601.81
71.8292	569.15
71.8436	548.48
71.8581	551.29
71.8725	551.59
71.8869	558.14
71.9014	594.12
71.9158	593.84
71.9303	578.35
71.9447	614.93
71.9591	637.30
71.9736	585.71
71.9880	547.09
72.0025	522.52
72.0169	526.62
72.0313	547.90
72.0458	578.39
72.0602	572.65
72.0747	579.11
72.0891	624.02
72.1035	681.70
72.1180	648.22
72.1324	550.87
72.1469	553.85
72.1613	632.81
72.1757	643.95
72.1902	594.23
72.2046	588.05
72.2191	574.13
72.2335	557.34
72.2479	619.08
72.2624	665.70
72.2768	641.31
72.2913	580.65
72.3057	542.34
72.3201	574.09
72.3346	602.17
72.3490	620.77
72.3635	601.48
72.3779	600.46
72.3923	556.67
72.4068	517.11
72.4212	562.55
72.4357	552.88
72.4501	552.59
72.4645	612.43
72.4790	614.66
72.4934	601.11
72.5079	625.14
72.5223	601.92
72.5367	602.17
72.5512	567.20
72.5656	543.43
72.5801	512.20
72.5945	574.38
72.6089	587.31
72.6234	532.32
72.6378	539.86
72.6523	562.16
72.6667	560.52
72.6811	607.44
72.6956	616.43
72.7100	572.23
72.7245	547.95
72.7389	606.37
72.7533	594.13
72.7678	590.76
72.7822	650.93
72.7967	632.40
72.8111	598.96
72.8255	617.27
72.8400	638.75
72.8544	618.39
72.8689	609.46
72.8833	541.09