2022.09.19 19:37:17
Îáðàçåö: ß÷åéêà LCoV 16-09-2022
Lambda1 = 1.54060
Lambda2 = 1.54439
Lambdam = 1.54186
R = 0.497
2Theta	I

line¹ 0 ;repeat¹ 0
22.1120	638.02
22.1264	592.15
22.1409	514.88
22.1553	520.28
22.1697	528.65
22.1842	559.79
22.1986	531.37
22.2131	570.88
22.2275	559.75
22.2419	532.93
22.2564	550.52
22.2708	504.59
22.2853	582.04
22.2997	618.77
22.3141	603.91
22.3286	660.96
22.3430	617.96
22.3575	538.65
22.3719	531.42
22.3863	553.97
22.4008	524.12
22.4152	544.02
22.4297	530.63
22.4441	601.16
22.4585	588.14
22.4730	547.46
22.4874	611.87
22.5019	614.70
22.5163	549.65
22.5307	607.85
22.5452	497.44
22.5596	466.64
22.5741	561.10
22.5885	547.04
22.6029	667.41
22.6174	640.51
22.6318	508.53
22.6463	511.71
22.6607	557.76
22.6751	467.58
22.6896	535.26
22.7040	646.18
22.7185	564.22
22.7329	509.26
22.7473	527.41
22.7618	506.08
22.7762	526.76
22.7907	549.77
22.8051	475.14
22.8195	557.62
22.8340	537.94
22.8484	583.76
22.8629	573.47
22.8773	530.61
22.8917	603.97
22.9062	661.35
22.9206	490.37
22.9351	448.19
22.9495	601.18
22.9639	546.26
22.9784	549.46
22.9928	514.53
23.0073	530.77
23.0217	501.73
23.0361	492.18
23.0506	469.35
23.0650	555.52
23.0795	604.62
23.0939	582.16
23.1083	652.77
23.1228	524.78
23.1372	531.13
23.1517	569.96
23.1661	593.36
23.1806	531.64
23.1950	495.00
23.2094	534.81
23.2239	554.59
23.2383	569.68
23.2528	512.45
23.2672	549.20
23.2816	529.03
23.2961	612.35
23.3105	556.17
23.3250	488.33
23.3394	598.00
23.3538	579.93
23.3683	583.86
23.3827	553.34
23.3972	563.36
23.4116	554.31
23.4260	541.57
23.4405	536.28
23.4549	576.62
23.4694	593.64
23.4838	587.24
23.4982	619.15
23.5127	533.68
23.5271	517.29
23.5416	592.87
23.5560	614.65
23.5704	563.90
23.5849	557.56
23.5993	607.85
23.6138	578.14
23.6282	528.68
23.6426	546.76
23.6571	466.97
23.6715	488.98
23.6860	566.10
23.7004	554.22
23.7148	470.87
23.7293	570.66
23.7437	512.86
23.7582	513.35
23.7726	529.65
23.7870	535.28
23.8015	517.87
23.8159	486.10
23.8304	574.91
23.8448	586.72
23.8592	609.87
23.8737	636.31
23.8881	531.71
23.9026	542.79
23.9170	533.76
23.9314	478.54
23.9459	590.99
23.9603	548.74
23.9748	565.70
23.9892	583.09
24.0036	553.22
24.0181	562.85
24.0325	500.59
24.0470	560.88
24.0614	547.97
24.0758	531.95
24.0903	501.00
24.1047	484.68
24.1192	495.37
24.1336	549.67
24.1480	575.51
24.1625	631.59
24.1769	565.87
24.1914	594.08
24.2058	568.03
24.2202	581.45
24.2347	648.24
24.2491	604.23
24.2636	575.91
24.2780	583.18
24.2924	580.23
24.3069	580.17
24.3213	536.64
24.3358	590.14
24.3502	555.86
24.3646	529.67
24.3791	562.21
24.3935	604.80
24.4080	525.64
24.4224	639.84
24.4368	556.94
24.4513	558.82
24.4657	525.29
24.4802	536.69
24.4946	530.62
24.5090	494.28
24.5235	489.04
24.5379	537.10
24.5524	549.98
24.5668	540.18
24.5812	547.47
24.5957	526.01
24.6101	505.99
24.6246	552.15
24.6390	547.24
24.6534	542.94
24.6679	590.29
24.6823	501.46
24.6968	562.22
24.7112	603.49
24.7256	543.81
24.7401	549.08
24.7545	527.23
24.7690	535.15
24.7834	518.25
24.7978	527.19
24.8123	540.98
24.8267	555.39
24.8412	497.16
24.8556	576.63
24.8700	535.11
24.8845	545.89
24.8989	558.56
24.9134	520.55
24.9278	528.72
24.9422	522.82
24.9567	474.55
24.9711	524.66
24.9856	592.50
25.0000	555.56
25.0144	582.98
25.0289	480.52
25.0433	509.03
25.0578	568.84
25.0722	549.14
25.0866	625.32
25.1011	531.29
25.1155	608.12
25.1300	561.01
25.1444	514.82
25.1588	542.45
25.1733	541.98
25.1877	522.66
25.2022	562.80
25.2166	562.53
25.2310	555.23
25.2455	538.30
25.2599	550.33
25.2744	541.37
25.2888	524.81
25.3032	524.57
25.3177	542.15
25.3321	541.91
25.3466	547.57
25.3610	551.41
25.3754	509.71
25.3899	518.92
25.4043	502.58
25.4188	546.54
25.4332	555.55
25.4476	534.27
25.4621	511.45
25.4765	529.28
25.4910	579.96
25.5054	574.08
25.5198	558.00
25.5343	580.00
25.5487	558.23
25.5632	507.90
25.5776	502.74
25.5920	494.24
25.6065	528.95
25.6209	554.92
25.6354	548.87
25.6498	544.21
25.6642	535.30
25.6787	521.39
25.6931	506.30
25.7076	521.59
25.7220	551.85
25.7364	565.21
25.7509	544.51
25.7653	527.49
25.7798	506.95
25.7942	513.63
25.8086	559.73
25.8231	555.94
25.8375	521.01
25.8520	556.61
25.8664	579.71
25.8808	561.03
25.8953	540.55
25.9097	591.49
25.9242	543.59
25.9386	539.44
25.9530	494.98
25.9675	531.72
25.9819	549.45
25.9964	544.82
26.0108	530.15
26.0252	558.18
26.0397	524.68
26.0541	496.49
26.0686	506.84
26.0830	539.90
26.0974	543.64
26.1119	551.64
26.1263	588.75
26.1408	536.07
26.1552	503.32
26.1696	503.27
26.1841	526.25
26.1985	528.19
26.2130	542.89
26.2274	524.20
26.2418	520.41
26.2563	540.98
26.2707	539.37
26.2852	501.16
26.2996	546.84
26.3140	518.35
26.3285	518.85
26.3429	524.52
26.3574	531.28
26.3718	518.38
26.3862	515.36
26.4007	489.32
26.4151	518.49
26.4296	526.09
26.4440	528.78
26.4584	515.84
26.4729	548.69
26.4873	538.27
26.5018	529.90
26.5162	524.92
26.5306	560.78
26.5451	546.67
26.5595	535.98
26.5740	548.08
26.5884	540.27
26.6028	551.91
26.6173	540.35
26.6317	555.14
26.6462	561.97
26.6606	529.43
26.6750	511.12
26.6895	521.52
26.7039	516.08
26.7184	550.40
26.7328	548.26
26.7472	534.84
26.7617	512.92
26.7761	492.52
26.7906	525.58
26.8050	556.97
26.8194	522.10
26.8339	516.26
26.8483	533.27
26.8628	554.55
26.8772	518.24
26.8917	525.36
26.9061	549.47
26.9205	515.54
26.9350	518.11
26.9494	502.53
26.9639	518.03
26.9783	521.70
26.9927	519.60
27.0072	500.34
27.0216	534.69
27.0361	516.07
27.0505	515.27
27.0649	515.65
27.0794	502.97
27.0938	496.37
27.1083	525.46
27.1227	523.74
27.1371	499.81
27.1516	505.07
27.1660	541.76
27.1805	521.58
27.1949	502.42
27.2093	530.05
27.2238	508.62
27.2382	557.60
27.2527	527.23
27.2671	501.01
27.2815	490.94
27.2960	488.15
27.3104	527.48
27.3249	545.39
27.3393	533.81
27.3537	563.19
27.3682	531.49
27.3826	513.53
27.3971	524.72
27.4115	523.36
27.4259	542.58
27.4404	508.37
27.4548	503.86
27.4693	533.06
27.4837	477.07
27.4981	524.84
27.5126	535.61
27.5270	492.51
27.5415	515.08
27.5559	538.34
27.5703	536.45
27.5848	533.48
27.5992	522.07
27.6137	512.65
27.6281	532.38
27.6425	551.04
27.6570	542.18
27.6714	493.66
27.6859	504.99
27.7003	519.42
27.7147	488.64
27.7292	513.62
27.7436	508.31
27.7581	493.82
27.7725	508.58
27.7869	538.20
27.8014	553.14
27.8158	529.75
27.8303	514.50
27.8447	522.85
27.8591	529.81
27.8736	531.19
27.8880	508.66
27.9025	531.93
27.9169	525.92
27.9313	474.50
27.9458	524.62
27.9602	502.35
27.9747	531.64
27.9891	500.27
28.0035	561.76
28.0180	517.36
28.0324	504.08
28.0469	526.80
28.0613	498.77
28.0757	539.37
28.0902	528.94
28.1046	484.28
28.1191	529.15
28.1335	521.23
28.1479	502.38
28.1624	530.06
28.1768	548.14
28.1913	503.40
28.2057	524.77
28.2201	498.43
28.2346	478.44
28.2490	481.25
28.2635	492.11
28.2779	505.21
28.2923	524.51
28.3068	526.68
28.3212	517.25
28.3357	528.83
28.3501	521.82
28.3645	508.15
28.3790	523.20
28.3934	537.00
28.4079	533.10
28.4223	544.78
28.4367	527.32
28.4512	495.45
28.4656	532.60
28.4801	516.79
28.4945	521.30
28.5089	499.93
28.5234	521.06
28.5378	520.83
28.5523	499.88
28.5667	512.23
28.5811	522.27
28.5956	549.83
28.6100	505.39
28.6245	485.35
28.6389	499.06
28.6533	514.57
28.6678	506.07
28.6822	530.33
28.6967	510.22
28.7111	504.29
28.7255	490.83
28.7400	462.28
28.7544	488.76
28.7689	500.59
28.7833	518.47
28.7977	457.80
28.8122	504.64
28.8266	474.81
28.8411	513.59
28.8555	515.30
28.8699	516.98
28.8844	519.76
28.8988	521.34
28.9133	489.95
28.9277	534.58
28.9421	559.56
28.9566	515.67
28.9710	512.21
28.9855	481.64
28.9999	500.48
29.0143	531.53
29.0288	511.50
29.0432	494.21
29.0577	545.14
29.0721	507.79
29.0865	514.87
29.1010	475.22
29.1154	469.83
29.1299	486.09
29.1443	481.99
29.1587	482.75
29.1732	516.25
29.1876	493.34
29.2021	472.57
29.2165	472.66
29.2309	479.88
29.2454	491.14
29.2598	476.64
29.2743	507.98
29.2887	523.85
29.3031	523.27
29.3176	480.62
29.3320	511.03
29.3465	508.54
29.3609	502.01
29.3753	498.16
29.3898	502.95
29.4042	471.38
29.4187	494.94
29.4331	501.88
29.4475	460.52
29.4620	518.19
29.4764	534.84
29.4909	523.93
29.5053	520.57
29.5197	506.98
29.5342	505.57
29.5486	495.49
29.5631	489.83
29.5775	490.99
29.5919	480.69
29.6064	533.68
29.6208	487.87
29.6353	494.23
29.6497	494.81
29.6641	510.48
29.6786	479.76
29.6930	490.54
29.7075	547.54
29.7219	514.75
29.7363	519.31
29.7508	512.83
29.7652	490.06
29.7797	495.65
29.7941	503.01
29.8085	532.14
29.8230	478.49
29.8374	502.05
29.8519	494.95
29.8663	516.00
29.8807	480.04
29.8952	531.02
29.9096	557.89
29.9241	501.12
29.9385	494.14
29.9529	480.10
29.9674	509.02
29.9818	507.31
29.9963	536.32
30.0107	481.89
30.0251	467.47
30.0396	473.21
30.0540	492.84
30.0685	501.75
30.0829	496.94
30.0973	513.74
30.1118	498.96
30.1262	483.86
30.1407	506.99
30.1551	494.40
30.1695	518.23
30.1840	528.64
30.1984	476.35
30.2129	492.00
30.2273	484.88
30.2417	535.13
30.2562	515.46
30.2706	527.62
30.2851	503.47
30.2995	504.20
30.3139	537.13
30.3284	524.57
30.3428	511.65
30.3573	526.91
30.3717	517.48
30.3861	491.56
30.4006	493.27
30.4150	518.68
30.4295	512.07
30.4439	487.17
30.4583	486.77
30.4728	500.28
30.4872	559.67
30.5017	556.40
30.5161	556.40
30.5305	574.60
30.5450	580.28
30.5594	610.41
30.5739	609.23
30.5883	640.37
30.6028	638.75
30.6172	645.80
30.6316	687.03
30.6461	680.05
30.6605	713.98
30.6750	698.09
30.6894	698.43
30.7038	678.69
30.7183	661.27
30.7327	634.34
30.7472	631.87
30.7616	583.39
30.7760	594.26
30.7905	581.21
30.8049	558.15
30.8194	566.40
30.8338	525.63
30.8482	539.26
30.8627	571.19
30.8771	539.36
30.8916	549.55
30.9060	524.18
30.9204	511.66
30.9349	531.78
30.9493	530.30
30.9638	541.34
30.9782	501.69
30.9926	496.12
31.0071	478.90
31.0215	512.67
31.0360	499.30
31.0504	505.88
31.0648	502.85
31.0793	501.50
31.0937	532.69
31.1082	534.82
31.1226	488.67
31.1370	489.67
31.1515	495.36
31.1659	525.56
31.1804	498.12
31.1948	488.76
31.2092	538.66
31.2237	501.55
31.2381	521.12
31.2526	493.47
31.2670	502.64
31.2814	538.98
31.2959	543.76
31.3103	534.82
31.3248	526.73
31.3392	541.16
31.3536	511.18
31.3681	511.89
31.3825	513.73
31.3970	514.48
31.4114	481.68
31.4258	494.46
31.4403	502.95
31.4547	496.11
31.4692	527.84
31.4836	539.20
31.4980	477.11
31.5125	496.05
31.5269	503.34
31.5414	493.19
31.5558	460.50
31.5702	481.06
31.5847	519.94
31.5991	523.22
31.6136	492.37
31.6280	481.15
31.6424	512.56
31.6569	507.94
31.6713	490.63
31.6858	498.84
31.7002	486.23
31.7146	488.53
31.7291	479.15
31.7435	461.43
31.7580	492.16
31.7724	519.84
31.7868	517.75
31.8013	501.38
31.8157	532.34
31.8302	515.25
31.8446	513.33
31.8590	536.63
31.8735	518.17
31.8879	514.81
31.9024	528.86
31.9168	503.37
31.9312	527.16
31.9457	540.38
31.9601	502.40
31.9746	519.78
31.9890	496.80
32.0034	473.69
32.0179	528.24
32.0323	558.34
32.0468	507.86
32.0612	488.66
32.0756	513.19
32.0901	517.15
32.1045	524.73
32.1190	513.19
32.1334	527.52
32.1478	490.00
32.1623	514.31
32.1767	484.41
32.1912	510.63
32.2056	494.37
32.2200	510.05
32.2345	501.21
32.2489	531.24
32.2634	471.50
32.2778	505.95
32.2922	485.29
32.3067	514.59
32.3211	520.54
32.3356	524.83
32.3500	531.50
32.3644	494.83
32.3789	454.87
32.3933	491.68
32.4078	479.33
32.4222	491.46
32.4366	515.56
32.4511	468.25
32.4655	496.53
32.4800	501.16
32.4944	517.66
32.5088	492.83
32.5233	477.94
32.5377	502.81
32.5522	523.77
32.5666	505.54
32.5810	495.03
32.5955	499.02
32.6099	505.64
32.6244	511.61
32.6388	514.17
32.6532	504.84
32.6677	474.46
32.6821	479.38
32.6966	500.06
32.7110	480.16
32.7254	501.29
32.7399	520.03
32.7543	513.55
32.7688	477.70
32.7832	509.13
32.7976	492.40
32.8121	502.68
32.8265	483.69
32.8410	461.80
32.8554	492.44
32.8698	539.55
32.8843	481.85
32.8987	498.94
32.9132	531.52
32.9276	477.96
32.9420	526.67
32.9565	498.20
32.9709	478.74
32.9854	533.69
32.9998	537.73
33.0142	511.05
33.0287	557.44
33.0431	536.84
33.0576	523.51
33.0720	499.31
33.0864	499.33
33.1009	470.71
33.1153	488.26
33.1298	504.15
33.1442	521.66
33.1586	520.67
33.1731	522.93
33.1875	511.54
33.2020	502.34
33.2164	483.01
33.2308	499.83
33.2453	503.92
33.2597	503.86
33.2742	528.16
33.2886	516.39
33.3030	494.48
33.3175	501.08
33.3319	536.18
33.3464	531.48
33.3608	516.30
33.3752	465.49
33.3897	500.64
33.4041	492.25
33.4186	495.43
33.4330	499.71
33.4474	487.02
33.4619	479.99
33.4763	466.87
33.4908	490.43
33.5052	481.02
33.5196	501.81
33.5341	497.60
33.5485	507.77
33.5630	511.13
33.5774	497.19
33.5918	497.76
33.6063	503.68
33.6207	474.95
33.6352	505.48
33.6496	497.47
33.6640	523.80
33.6785	499.68
33.6929	507.61
33.7074	526.85
33.7218	477.22
33.7362	500.47
33.7507	532.55
33.7651	506.00
33.7796	478.25
33.7940	474.44
33.8084	497.47
33.8229	497.27
33.8373	503.14
33.8518	503.59
33.8662	545.80
33.8806	509.62
33.8951	507.34
33.9095	504.28
33.9240	504.73
33.9384	527.51
33.9528	531.92
33.9673	495.43
33.9817	495.52
33.9962	524.74
34.0106	511.25
34.0250	496.19
34.0395	490.24
34.0539	535.04
34.0684	507.45
34.0828	498.71
34.0972	526.30
34.1117	516.53
34.1261	522.37
34.1406	506.74
34.1550	520.45
34.1694	514.87
34.1839	453.42
34.1983	463.80
34.2128	478.00
34.2272	487.21
34.2417	498.07
34.2561	521.09
34.2705	495.51
34.2850	507.65
34.2994	507.41
34.3139	526.29
34.3283	521.57
34.3427	522.49
34.3572	494.75
34.3716	497.82
34.3861	483.18
34.4005	481.22
34.4149	462.68
34.4294	491.63
34.4438	502.49
34.4583	512.98
34.4727	523.35
34.4871	508.35
34.5016	493.13
34.5160	480.46
34.5305	501.76
34.5449	515.83
34.5593	510.18
34.5738	521.44
34.5882	504.28
34.6027	515.11
34.6171	517.24
34.6315	480.59
34.6460	511.69
34.6604	503.17
34.6749	516.10
34.6893	483.47
34.7037	517.88
34.7182	523.14
34.7326	470.69
34.7471	505.47
34.7615	524.60
34.7759	502.94
34.7904	493.01
34.8048	505.30
34.8193	508.34
34.8337	494.85
34.8481	495.38
34.8626	527.25
34.8770	504.69
34.8915	460.70
34.9059	537.90
34.9203	532.82
34.9348	506.09
34.9492	525.26
34.9637	520.37
34.9781	549.44
34.9925	548.37
35.0070	515.73
35.0214	515.88
35.0359	497.99
35.0503	519.40
35.0647	518.98
35.0792	498.52
35.0936	500.44
35.1081	461.47
35.1225	511.20
35.1369	517.79
35.1514	483.65
35.1658	496.01
35.1803	507.69
35.1947	527.48
35.2091	523.34
35.2236	539.22
35.2380	531.58
35.2525	512.80
35.2669	468.53
35.2813	501.78
35.2958	494.59
35.3102	521.29
35.3247	527.25
35.3391	534.90
35.3535	493.62
35.3680	490.13
35.3824	496.61
35.3969	499.75
35.4113	517.29
35.4257	554.46
35.4402	512.71
35.4546	507.05
35.4691	528.79
35.4835	500.39
35.4979	513.60
35.5124	508.06
35.5268	532.29
35.5413	533.41
35.5557	522.05
35.5701	512.48
35.5846	532.52
35.5990	522.01
35.6135	529.89
35.6279	514.14
35.6423	547.32
35.6568	500.92
35.6712	512.80
35.6857	581.18
35.7001	663.48
35.7145	734.95
35.7290	668.85
35.7434	563.62
35.7579	586.70
35.7723	614.32
35.7867	639.26
35.8012	691.62
35.8156	693.78
35.8301	672.67
35.8445	650.69
35.8589	654.11
35.8734	740.22
35.8878	794.64
35.9023	991.23
35.9167	1037.68
35.9311	1171.75
35.9456	1615.51
35.9600	2041.22
35.9745	1947.07
35.9889	2047.66
36.0033	2440.33
36.0178	2859.31
36.0322	3148.17
36.0467	2441.66
36.0611	2033.53
36.0755	2087.05
36.0900	2096.12
36.1044	1789.69
36.1189	1643.04
36.1333	1662.64
36.1477	1426.94
36.1622	1322.98
36.1766	1209.50
36.1911	1119.45
36.2055	1011.92
36.2199	950.22
36.2344	882.81
36.2488	783.68
36.2633	690.53
36.2777	653.91
36.2921	645.45
36.3066	585.74
36.3210	621.55
36.3355	607.40
36.3499	596.29
36.3643	556.10
36.3788	572.21
36.3932	553.15
36.4077	562.44
36.4221	571.80
36.4365	556.94
36.4510	516.03
36.4654	533.57
36.4799	555.44
36.4943	522.21
36.5087	532.37
36.5232	513.83
36.5376	533.58
36.5521	513.54
36.5665	527.24
36.5809	543.75
36.5954	532.41
36.6098	494.75
36.6243	523.10
36.6387	534.89
36.6531	526.33
36.6676	538.29
36.6820	495.48
36.6965	485.29
36.7109	524.66
36.7253	534.31
36.7398	535.67
36.7542	557.48
36.7687	500.83
36.7831	566.20
36.7975	558.72
36.8120	573.65
36.8264	591.71
36.8409	578.12
36.8553	571.24
36.8697	624.03
36.8842	584.95
36.8986	631.27
36.9131	540.53
36.9275	563.52
36.9419	582.13
36.9564	551.00
36.9708	591.56
36.9853	588.98
36.9997	561.16
37.0141	570.03
37.0286	570.67
37.0430	514.88
37.0575	539.26
37.0719	528.14
37.0863	538.93
37.1008	514.07
37.1152	521.82
37.1297	515.79
37.1441	486.31
37.1585	480.74
37.1730	501.19
37.1874	543.90
37.2019	506.96
37.2163	519.12
37.2307	519.53
37.2452	486.88
37.2596	507.70
37.2741	490.81
37.2885	498.08
37.3029	496.15
37.3174	507.64
37.3318	522.72
37.3463	500.49
37.3607	505.48
37.3751	480.35
37.3896	461.36
37.4040	470.06
37.4185	504.98
37.4329	531.90
37.4473	516.05
37.4618	525.48
37.4762	527.40
37.4907	522.10
37.5051	487.22
37.5195	515.25
37.5340	525.93
37.5484	501.38
37.5629	517.21
37.5773	501.42
37.5917	495.88
37.6062	522.25
37.6206	508.32
37.6351	497.53
37.6495	473.87
37.6639	498.71
37.6784	485.06
37.6928	480.09
37.7073	536.48
37.7217	508.20
37.7361	526.19
37.7506	507.96
37.7650	513.15
37.7795	502.08
37.7939	481.70
37.8083	515.29
37.8228	525.05
37.8372	534.72
37.8517	526.77
37.8661	515.70
37.8805	470.93
37.8950	505.24
37.9094	522.39
37.9239	508.18
37.9383	497.20
37.9528	480.84
37.9672	510.78
37.9816	495.36
37.9961	491.29
38.0105	441.58
38.0250	469.67
38.0394	525.62
38.0538	502.59
38.0683	483.04
38.0827	520.20
38.0972	536.71
38.1116	497.47
38.1260	504.42
38.1405	483.12
38.1549	464.39
38.1694	477.63
38.1838	485.40
38.1982	500.61
38.2127	486.88
38.2271	479.45
38.2416	471.09
38.2560	475.89
38.2704	499.63
38.2849	470.04
38.2993	489.29
38.3138	535.65
38.3282	520.94
38.3426	491.02
38.3571	507.28
38.3715	529.00
38.3860	504.26
38.4004	546.23
38.4148	534.03
38.4293	557.93
38.4437	564.21
38.4582	605.41
38.4726	661.12
38.4870	708.29
38.5015	716.87
38.5159	737.33
38.5304	742.61
38.5448	789.30
38.5592	796.91
38.5737	799.41
38.5881	721.35
38.6026	660.80
38.6170	675.91
38.6314	710.90
38.6459	685.84
38.6603	635.59
38.6748	611.85
38.6892	614.73
38.7036	577.00
38.7181	522.28
38.7325	528.79
38.7470	530.22
38.7614	480.65
38.7758	499.63
38.7903	508.40
38.8047	523.08
38.8192	516.33
38.8336	501.43
38.8480	502.78
38.8625	531.18
38.8769	516.62
38.8914	510.16
38.9058	526.75
38.9202	523.33
38.9347	501.35
38.9491	498.74
38.9636	490.33
38.9780	492.57
38.9924	516.35
39.0069	484.47
39.0213	473.92
39.0358	507.06
39.0502	500.21
39.0646	545.87
39.0791	518.15
39.0935	498.41
39.1080	494.43
39.1224	508.50
39.1368	490.41
39.1513	453.75
39.1657	525.34
39.1802	528.46
39.1946	464.67
39.2090	490.82
39.2235	497.39
39.2379	504.51
39.2524	522.35
39.2668	496.86
39.2812	518.29
39.2957	515.28
39.3101	517.17
39.3246	523.50
39.3390	502.88
39.3534	493.96
39.3679	517.47
39.3823	509.13
39.3968	506.81
39.4112	515.14
39.4256	530.66
39.4401	499.02
39.4545	487.23
39.4690	507.92
39.4834	505.15
39.4978	478.87
39.5123	491.76
39.5267	498.52
39.5412	484.57
39.5556	497.36
39.5700	490.56
39.5845	482.67
39.5989	497.86
39.6134	496.21
39.6278	489.89
39.6422	487.09
39.6567	490.66
39.6711	479.34
39.6856	456.79
39.7000	481.05
39.7144	512.08
39.7289	534.23
39.7433	476.86
39.7578	469.56
39.7722	477.34
39.7866	523.54
39.8011	489.53
39.8155	498.35
39.8300	500.90
39.8444	474.08
39.8588	490.88
39.8733	471.10
39.8877	481.24
39.9022	507.94
39.9166	451.99
39.9310	474.26
39.9455	503.43
39.9599	498.31
39.9744	473.92
39.9888	482.77
40.0032	489.71
40.0177	478.91
40.0321	502.06
40.0466	494.85
40.0610	526.80
40.0754	485.03
40.0899	508.24
40.1043	481.27
40.1188	510.13
40.1332	504.70
40.1476	457.82
40.1621	473.80
40.1765	497.58
40.1910	506.76
40.2054	473.40
40.2198	494.98
40.2343	485.44
40.2487	519.35
40.2632	493.67
40.2776	498.67
40.2920	496.87
40.3065	532.93
40.3209	499.70
40.3354	518.45
40.3498	471.41
40.3642	493.62
40.3787	480.30
40.3931	490.16
40.4076	517.39
40.4220	521.07
40.4364	526.18
40.4509	492.62
40.4653	504.19
40.4798	498.99
40.4942	467.36
40.5086	463.73
40.5231	487.71
40.5375	504.26
40.5520	505.00
40.5664	548.27
40.5808	476.60
40.5953	462.67
40.6097	478.33
40.6242	495.22
40.6386	521.58
40.6530	475.87
40.6675	500.01
40.6819	454.95
40.6964	475.75
40.7108	504.28
40.7252	517.41
40.7397	483.08
40.7541	481.35
40.7686	500.17
40.7830	508.49
40.7974	505.88
40.8119	519.21
40.8263	509.95
40.8408	515.80
40.8552	502.72
40.8696	529.34
40.8841	500.45
40.8985	494.33
40.9130	534.30
40.9274	470.11
40.9418	487.17
40.9563	469.38
40.9707	515.28
40.9852	486.54
40.9996	484.50
41.0140	489.54
41.0285	532.91
41.0429	515.53
41.0574	468.54
41.0718	476.98
41.0862	522.79
41.1007	511.60
41.1151	505.50
41.1296	509.77
41.1440	493.14
41.1584	463.99
41.1729	528.39
41.1873	525.19
41.2018	524.53
41.2162	510.67
41.2306	505.11
41.2451	525.42
41.2595	527.45
41.2740	519.98
41.2884	483.73
41.3028	505.51
41.3173	470.12
41.3317	508.54
41.3462	475.14
41.3606	477.45
41.3750	515.61
41.3895	485.33
41.4039	472.08
41.4184	486.89
41.4328	534.22
41.4472	495.35
41.4617	487.84
41.4761	506.38
41.4906	522.62
41.5050	479.09
41.5194	510.61
41.5339	513.38
41.5483	495.33
41.5628	533.54
41.5772	487.57
41.5916	486.39
41.6061	501.11
41.6205	486.79
41.6350	516.31
41.6494	480.42
41.6639	448.77
41.6783	482.11
41.6927	529.16
41.7072	514.41
41.7216	519.98
41.7361	491.94
41.7505	472.74
41.7649	498.20
41.7794	490.05
41.7938	523.52
41.8083	535.64
41.8227	510.22
41.8371	500.72
41.8516	480.54
41.8660	533.84
41.8805	471.37
41.8949	500.02
41.9093	575.99
41.9238	562.89
41.9382	550.45
41.9527	530.08
41.9671	516.60
41.9815	523.85
41.9960	545.48
42.0104	540.00
42.0249	580.28
42.0393	546.94
42.0537	532.81
42.0682	587.42
42.0826	567.84
42.0971	564.79
42.1115	558.60
42.1259	580.88
42.1404	561.83
42.1548	614.26
42.1693	662.44
42.1837	711.71
42.1981	745.45
42.2126	779.63
42.2270	903.29
42.2415	1093.96
42.2559	1204.68
42.2703	1373.72
42.2848	1582.41
42.2992	1685.52
42.3137	1732.65
42.3281	1735.15
42.3425	1657.39
42.3570	1557.51
42.3714	1452.55
42.3859	1404.10
42.4003	1314.63
42.4147	1356.20
42.4292	1345.73
42.4436	1143.29
42.4581	1029.04
42.4725	940.56
42.4869	830.33
42.5014	771.83
42.5158	722.73
42.5303	644.79
42.5447	639.84
42.5591	656.25
42.5736	612.64
42.5880	579.90
42.6025	580.82
42.6169	574.07
42.6313	544.85
42.6458	551.15
42.6602	524.00
42.6747	539.10
42.6891	541.34
42.7035	497.68
42.7180	516.21
42.7324	510.75
42.7469	524.58
42.7613	539.87
42.7757	543.15
42.7902	539.63
42.8046	561.54
42.8191	540.12
42.8335	541.87
42.8479	545.12
42.8624	534.09
42.8768	521.88
42.8913	498.12
42.9057	529.01
42.9201	545.28
42.9346	529.71
42.9490	535.02
42.9635	505.33
42.9779	488.19
42.9923	504.51
43.0068	499.63
43.0212	537.20
43.0357	536.71
43.0501	501.80
43.0645	492.42
43.0790	511.81
43.0934	535.98
43.1079	501.58
43.1223	530.48
43.1367	468.84
43.1512	466.39
43.1656	512.20
43.1801	490.46
43.1945	525.61
43.2089	540.23
43.2234	506.42
43.2378	529.97
43.2523	517.04
43.2667	507.91
43.2811	552.20
43.2956	516.06
43.3100	489.92
43.3245	525.05
43.3389	525.05
43.3533	509.70
43.3678	514.35
43.3822	497.28
43.3967	470.17
43.4111	491.34
43.4255	509.35
43.4400	491.49
43.4544	501.79
43.4689	510.71
43.4833	518.53
43.4977	511.00
43.5122	499.36
43.5266	503.27
43.5411	512.31
43.5555	518.47
43.5699	499.83
43.5844	494.87
43.5988	486.38
43.6133	503.14
43.6277	518.52
43.6421	518.98
43.6566	538.13
43.6710	544.56
43.6855	509.13
43.6999	515.77
43.7143	557.58
43.7288	513.39
43.7432	557.19
43.7577	576.71
43.7721	593.65
43.7865	598.59
43.8010	633.93
43.8154	626.17
43.8299	653.59
43.8443	626.21
43.8587	647.12
43.8732	634.63
43.8876	618.18
43.9021	645.36
43.9165	620.34
43.9309	627.32
43.9454	615.85
43.9598	591.63
43.9743	614.20
43.9887	568.71
44.0031	552.28
44.0176	575.96
44.0320	572.60
44.0465	526.02
44.0609	530.99
44.0753	551.57
44.0898	539.23
44.1042	513.73
44.1187	501.77
44.1331	522.62
44.1475	492.28
44.1620	503.89
44.1764	533.45
44.1909	548.85
44.2053	524.32
44.2197	506.13
44.2342	487.31
44.2486	523.95
44.2631	531.20
44.2775	533.45
44.2919	553.15
44.3064	503.46
44.3208	511.07
44.3353	538.16
44.3497	594.70
44.3641	554.43
44.3786	522.29
44.3930	500.29
44.4075	518.04
44.4219	579.22
44.4363	581.99
44.4508	547.76
44.4652	539.78
44.4797	568.50
44.4941	555.66
44.5085	533.22
44.5230	564.02
44.5374	540.19
44.5519	596.39
44.5663	604.67
44.5807	571.59
44.5952	591.72
44.6096	569.07
44.6241	569.24
44.6385	592.54
44.6529	599.17
44.6674	595.03
44.6818	525.18
44.6963	604.47
44.7107	611.79
44.7251	697.65
44.7396	702.08
44.7540	765.95
44.7685	826.00
44.7829	841.94
44.7973	794.92
44.8118	799.61
44.8262	825.62
44.8407	779.13
44.8551	736.89
44.8695	754.28
44.8840	731.75
44.8984	729.90
44.9129	730.34
44.9273	706.24
44.9417	682.19
44.9562	601.15
44.9706	546.36
44.9851	550.26
44.9995	502.71
45.0139	558.74
45.0284	572.53
45.0428	492.05
45.0573	510.13
45.0717	520.13
45.0861	512.80
45.1006	549.22
45.1150	530.30
45.1295	501.48
45.1439	487.46
45.1583	482.51
45.1728	507.88
45.1872	512.74
45.2017	493.76
45.2161	530.39
45.2305	508.67
45.2450	499.67
45.2594	520.27
45.2739	502.97
45.2883	486.91
45.3028	486.41
45.3172	497.04
45.3316	491.60
45.3461	508.66
45.3605	477.89
45.3750	487.36
45.3894	486.76
45.4038	469.64
45.4183	471.14
45.4327	482.87
45.4472	530.46
45.4616	543.41
45.4760	538.75
45.4905	490.26
45.5049	478.75
45.5194	505.02
45.5338	489.97
45.5482	501.04
45.5627	529.56
45.5771	494.47
45.5916	494.25
45.6060	532.90
45.6204	507.57
45.6349	513.54
45.6493	483.05
45.6638	484.65
45.6782	484.48
45.6926	509.66
45.7071	502.80
45.7215	508.84
45.7360	511.38
45.7504	529.96
45.7648	511.30
45.7793	531.11
45.7937	510.12
45.8082	484.16
45.8226	518.61
45.8370	493.90
45.8515	488.97
45.8659	485.23
45.8804	482.74
45.8948	505.09
45.9092	482.42
45.9237	464.30
45.9381	485.26
45.9526	478.46
45.9670	493.96
45.9814	507.35
45.9959	474.66
46.0103	494.62
46.0248	531.42
46.0392	532.33
46.0536	530.29
46.0681	508.77
46.0825	488.02
46.0970	470.02
46.1114	518.08
46.1258	532.12
46.1403	489.92
46.1547	488.92
46.1692	500.03
46.1836	494.18
46.1980	493.51
46.2125	516.30
46.2269	496.87
46.2414	500.19
46.2558	516.74
46.2702	496.23
46.2847	498.96
46.2991	489.75
46.3136	491.62
46.3280	505.46
46.3424	504.26
46.3569	527.14
46.3713	516.54
46.3858	504.85
46.4002	486.50
46.4146	520.51
46.4291	528.63
46.4435	481.17
46.4580	487.17
46.4724	489.80
46.4868	491.87
46.5013	473.90
46.5157	497.48
46.5302	520.37
46.5446	509.75
46.5590	497.25
46.5735	498.89
46.5879	486.22
46.6024	502.21
46.6168	510.00
46.6312	505.28
46.6457	499.09
46.6601	528.46
46.6746	513.92
46.6890	454.76
46.7034	499.06
46.7179	520.04
46.7323	521.89
46.7468	489.60
46.7612	489.53
46.7756	500.80
46.7901	506.46
46.8045	500.96
46.8190	506.80
46.8334	458.90
46.8478	481.24
46.8623	514.98
46.8767	500.76
46.8912	485.61
46.9056	498.21
46.9200	505.08
46.9345	506.89
46.9489	504.82
46.9634	492.83
46.9778	479.10
46.9922	496.49
47.0067	483.48
47.0211	486.51
47.0356	538.46
47.0500	514.45
47.0644	512.04
47.0789	499.44
47.0933	514.86
47.1078	518.43
47.1222	498.82
47.1366	490.06
47.1511	478.06
47.1655	515.26
47.1800	486.92
47.1944	498.85
47.2088	506.26
47.2233	507.91
47.2377	519.43
47.2522	474.80
47.2666	503.61
47.2810	537.38
47.2955	520.22
47.3099	510.49
47.3244	528.61
47.3388	519.96
47.3532	513.47
47.3677	533.01
47.3821	510.90
47.3966	511.98
47.4110	533.63
47.4254	561.45
47.4399	531.21
47.4543	494.35
47.4688	502.20
47.4832	499.73
47.4976	512.80
47.5121	518.12
47.5265	488.90
47.5410	483.30
47.5554	526.88
47.5698	505.16
47.5843	467.00
47.5987	514.06
47.6132	500.41
47.6276	515.55
47.6420	511.08
47.6565	491.37
47.6709	491.13
47.6854	476.88
47.6998	481.64
47.7142	528.90
47.7287	535.41
47.7431	498.94
47.7576	503.81
47.7720	514.68
47.7864	524.05
47.8009	508.30
47.8153	515.53
47.8298	509.73
47.8442	526.94
47.8586	537.26
47.8731	540.44
47.8875	483.31
47.9020	497.83
47.9164	489.52
47.9308	485.92
47.9453	527.81
47.9597	505.07
47.9742	478.01
47.9886	482.25
48.0030	490.48
48.0175	483.15
48.0319	515.73
48.0464	502.05
48.0608	480.59
48.0752	487.09
48.0897	497.19
48.1041	484.47
48.1186	508.15
48.1330	500.06
48.1474	464.75
48.1619	521.56
48.1763	532.86
48.1908	494.41
48.2052	525.30
48.2196	511.11
48.2341	496.54
48.2485	477.21
48.2630	491.84
48.2774	539.27
48.2918	529.10
48.3063	507.68
48.3207	489.03
48.3352	561.66
48.3496	538.70
48.3640	520.98
48.3785	502.32
48.3929	530.83
48.4074	500.35
48.4218	503.69
48.4362	489.86
48.4507	496.20
48.4651	518.67
48.4796	533.38
48.4940	528.14
48.5084	494.84
48.5229	479.20
48.5373	520.81
48.5518	508.58
48.5662	529.53
48.5806	448.27
48.5951	483.61
48.6095	531.41
48.6240	514.37
48.6384	538.64
48.6528	504.03
48.6673	499.74
48.6817	526.52
48.6962	508.31
48.7106	514.57
48.7250	506.12
48.7395	495.34
48.7539	502.42
48.7684	536.39
48.7828	550.98
48.7972	501.86
48.8117	501.08
48.8261	504.16
48.8406	543.72
48.8550	532.87
48.8694	557.40
48.8839	548.94
48.8983	579.40
48.9128	566.41
48.9272	567.98
48.9416	604.11
48.9561	593.50
48.9705	567.17
48.9850	536.85
48.9994	524.03
49.0139	597.08
49.0283	610.52
49.0427	583.07
49.0572	661.05
49.0716	669.57
49.0861	695.60
49.1005	681.54
49.1149	680.79
49.1294	682.01
49.1438	758.55
49.1583	830.91
49.1727	880.60
49.1871	883.86
49.2016	983.81
49.2160	1106.56
49.2305	1097.05
49.2449	1197.95
49.2593	1353.09
49.2738	1366.83
49.2882	1435.77
49.3027	1535.29
49.3171	1597.32
49.3315	1819.46
49.3460	1796.08
49.3604	1847.20
49.3749	1837.03
49.3893	1805.17
49.4037	1860.40
49.4182	1848.53
49.4326	1767.31
49.4471	1687.86
49.4615	1691.90
49.4759	1619.80
49.4904	1533.29
49.5048	1384.86
49.5193	1376.20
49.5337	1305.75
49.5481	1166.29
49.5626	1102.16
49.5770	1094.84
49.5915	1034.44
49.6059	937.73
49.6203	868.50
49.6348	826.54
49.6492	810.43
49.6637	755.76
49.6781	706.07
49.6925	665.70
49.7070	664.41
49.7214	663.21
49.7359	649.70
49.7503	635.90
49.7647	580.87
49.7792	607.96
49.7936	590.96
49.8081	577.72
49.8225	567.53
49.8369	572.88
49.8514	566.23
49.8658	565.70
49.8803	560.74
49.8947	588.00
49.9091	598.24
49.9236	540.44
49.9380	553.96
49.9525	561.58
49.9669	531.22
49.9813	545.17
49.9958	555.15
50.0102	514.07
50.0247	548.57
50.0391	513.41
50.0535	505.35
50.0680	537.85
50.0824	505.69
50.0969	514.53
50.1113	503.99
50.1257	512.06
50.1402	498.54
50.1546	492.21
50.1691	513.03
50.1835	521.79
50.1979	492.63
50.2124	514.34
50.2268	525.32
50.2413	519.56
50.2557	518.82
50.2701	481.39
50.2846	540.93
50.2990	507.24
50.3135	525.92
50.3279	555.35
50.3423	491.62
50.3568	506.28
50.3712	486.71
50.3857	510.63
50.4001	509.61
50.4145	484.91
50.4290	548.66
50.4434	536.39
50.4579	526.55
50.4723	493.12
50.4867	500.40
50.5012	532.81
50.5156	494.53
50.5301	526.07
50.5445	507.64
50.5589	506.92
50.5734	520.39
50.5878	545.45
50.6023	509.66
50.6167	499.73
50.6311	534.12
50.6456	521.11
50.6600	513.99
50.6745	516.50
50.6889	494.59
50.7033	542.02
50.7178	517.01
50.7322	501.50
50.7467	524.33
50.7611	506.60
50.7755	536.07
50.7900	508.92
50.8044	467.84
50.8189	517.97
50.8333	540.28
50.8477	482.36
50.8622	517.27
50.8766	512.35
50.8911	507.71
50.9055	511.43
50.9199	526.80
50.9344	513.14
50.9488	495.52
50.9633	492.74
50.9777	501.30
50.9921	522.84
51.0066	495.93
51.0210	523.76
51.0355	502.90
51.0499	509.31
51.0643	498.14
51.0788	506.36
51.0932	502.44
51.1077	498.01
51.1221	503.06
51.1365	522.01
51.1510	489.05
51.1654	539.19
51.1799	539.92
51.1943	517.49
51.2087	496.09
51.2232	514.73
51.2376	493.00
51.2521	514.52
51.2665	498.95
51.2809	504.36
51.2954	503.46
51.3098	498.72
51.3243	516.02
51.3387	522.22
51.3531	513.53
51.3676	516.73
51.3820	442.77
51.3965	476.17
51.4109	468.97
51.4253	494.04
51.4398	498.52
51.4542	533.80
51.4687	481.40
51.4831	497.24
51.4975	494.00
51.5120	517.86
51.5264	504.08
51.5409	500.05
51.5553	497.33
51.5697	472.03
51.5842	511.90
51.5986	496.80
51.6131	515.56
51.6275	530.32
51.6419	509.24
51.6564	484.84
51.6708	501.76
51.6853	524.97
51.6997	520.82
51.7141	532.95
51.7286	503.01
51.7430	525.13
51.7575	518.70
51.7719	510.47
51.7863	542.66
51.8008	552.21
51.8152	514.62
51.8297	525.68
51.8441	503.94
51.8585	533.46
51.8730	512.85
51.8874	512.91
51.9019	525.79
51.9163	503.19
51.9307	520.64
51.9452	514.81
51.9596	487.31
51.9741	486.24
51.9885	524.49
52.0029	491.46
52.0174	511.17
52.0318	501.52
52.0463	551.01
52.0607	520.31
52.0751	486.95
52.0896	520.76
52.1040	463.94
52.1185	485.78
52.1329	514.53
52.1473	477.44
52.1618	490.86
52.1762	520.04
52.1907	499.61
52.2051	501.15
52.2195	524.49
52.2340	519.92
52.2484	512.00
52.2629	504.33
52.2773	499.63
52.2917	485.90
52.3062	474.11
52.3206	493.74
52.3351	524.28
52.3495	524.37
52.3639	515.02
52.3784	501.56
52.3928	484.13
52.4073	512.84
52.4217	551.60
52.4361	541.66
52.4506	497.79
52.4650	506.19
52.4795	525.59
52.4939	497.26
52.5083	485.83
52.5228	532.16
52.5372	510.39
52.5517	530.44
52.5661	513.34
52.5805	510.93
52.5950	523.81
52.6094	508.31
52.6239	522.97
52.6383	543.22
52.6527	500.53
52.6672	531.17
52.6816	526.66
52.6961	482.78
52.7105	491.68
52.7250	539.69
52.7394	508.62
52.7538	529.09
52.7683	495.52
52.7827	530.15
52.7972	464.55
52.8116	521.03
52.8260	547.99
52.8405	506.46
52.8549	518.74
52.8694	509.14
52.8838	551.68
52.8982	498.42
52.9127	497.06
52.9271	463.95
52.9416	512.38
52.9560	489.00
52.9704	521.91
52.9849	495.09
52.9993	514.20
53.0138	481.76
53.0282	541.49
53.0426	537.46
53.0571	518.43
53.0715	554.22
53.0860	496.10
53.1004	514.37
53.1148	533.78
53.1293	528.92
53.1437	512.90
53.1582	507.51
53.1726	525.09
53.1870	537.73
53.2015	482.14
53.2159	489.05
53.2304	513.61
53.2448	518.63
53.2592	473.04
53.2737	550.43
53.2881	545.85
53.3026	526.57
53.3170	526.01
53.3314	511.45
53.3459	519.78
53.3603	513.96
53.3748	474.62
53.3892	494.53
53.4036	502.81
53.4181	502.95
53.4325	563.76
53.4470	501.91
53.4614	489.61
53.4758	544.03
53.4903	519.44
53.5047	500.33
53.5192	480.16
53.5336	529.97
53.5480	470.95
53.5625	473.70
53.5769	478.64
53.5914	478.75
53.6058	527.27
53.6202	511.45
53.6347	519.48
53.6491	534.75
53.6636	537.78
53.6780	528.21
53.6924	500.47
53.7069	492.30
53.7213	497.06
53.7358	534.01
53.7502	519.28
53.7646	510.84
53.7791	517.76
53.7935	530.44
53.8080	517.46
53.8224	522.73
53.8368	537.55
53.8513	513.95
53.8657	486.91
53.8802	483.00
53.8946	516.24
53.9090	510.18
53.9235	511.21
53.9379	542.87
53.9524	565.24
53.9668	507.78
53.9812	499.90
53.9957	517.37
54.0101	503.22
54.0246	484.15
54.0390	518.94
54.0534	547.65
54.0679	540.91
54.0823	513.85
54.0968	521.62
54.1112	519.01
54.1256	527.19
54.1401	495.98
54.1545	523.62
54.1690	525.94
54.1834	491.97
54.1978	516.97
54.2123	574.68
54.2267	518.48
54.2412	547.13
54.2556	526.63
54.2700	537.32
54.2845	583.38
54.2989	583.66
54.3134	603.83
54.3278	605.57
54.3422	589.29
54.3567	566.30
54.3711	580.67
54.3856	614.47
54.4000	581.98
54.4144	576.09
54.4289	624.22
54.4433	587.00
54.4578	591.14
54.4722	605.00
54.4866	574.66
54.5011	583.77
54.5155	588.60
54.5300	590.47
54.5444	628.04
54.5588	584.90
54.5733	534.55
54.5877	551.12
54.6022	569.87
54.6166	553.58
54.6310	581.04
54.6455	569.70
54.6599	540.45
54.6744	537.92
54.6888	514.48
54.7032	546.23
54.7177	546.76
54.7321	531.29
54.7466	516.55
54.7610	509.16
54.7754	561.53
54.7899	537.34
54.8043	544.71
54.8188	529.93
54.8332	491.57
54.8476	511.53
54.8621	525.35
54.8765	522.51
54.8910	509.75
54.9054	508.34
54.9198	502.63
54.9343	517.17
54.9487	531.56
54.9632	514.93
54.9776	492.37
54.9920	474.79
55.0065	501.15
55.0209	506.15
55.0354	509.06
55.0498	518.11
55.0642	524.06
55.0787	537.25
55.0931	556.74
55.1076	540.32
55.1220	537.93
55.1364	505.92
55.1509	502.61
55.1653	512.12
55.1798	506.23
55.1942	518.93
55.2086	504.66
55.2231	500.06
55.2375	511.85
55.2520	539.65
55.2664	530.32
55.2808	525.69
55.2953	521.78
55.3097	550.88
55.3242	537.10
55.3386	499.92
55.3530	492.78
55.3675	500.27
55.3819	515.54
55.3964	490.08
55.4108	516.78
55.4252	492.59
55.4397	498.47
55.4541	540.95
55.4686	528.49
55.4830	521.46
55.4974	529.41
55.5119	520.09
55.5263	498.11
55.5408	511.61
55.5552	560.75
55.5696	533.47
55.5841	496.29
55.5985	510.58
55.6130	509.98
55.6274	506.50
55.6418	511.08
55.6563	516.40
55.6707	524.73
55.6852	512.36
55.6996	536.58
55.7140	561.72
55.7285	522.93
55.7429	472.30
55.7574	471.35
55.7718	516.72
55.7862	545.07
55.8007	521.01
55.8151	491.66
55.8296	519.48
55.8440	498.41
55.8584	524.41
55.8729	551.23
55.8873	495.07
55.9018	520.97
55.9162	519.39
55.9306	505.66
55.9451	568.51
55.9595	525.99
55.9740	532.45
55.9884	500.15
56.0028	520.87
56.0173	550.11
56.0317	510.30
56.0462	509.69
56.0606	531.29
56.0750	498.34
56.0895	526.13
56.1039	469.85
56.1184	534.25
56.1328	549.52
56.1472	493.00
56.1617	506.07
56.1761	533.00
56.1906	515.14
56.2050	516.38
56.2194	516.16
56.2339	495.52
56.2483	484.37
56.2628	525.61
56.2772	504.44
56.2916	508.17
56.3061	544.72
56.3205	553.28
56.3350	515.51
56.3494	495.20
56.3639	512.02
56.3783	518.52
56.3927	497.91
56.4072	534.66
56.4216	537.69
56.4361	546.60
56.4505	493.31
56.4649	498.58
56.4794	512.85
56.4938	523.13
56.5083	531.59
56.5227	524.53
56.5371	506.40
56.5516	537.86
56.5660	522.79
56.5805	535.25
56.5949	511.02
56.6093	545.17
56.6238	507.97
56.6382	519.07
56.6527	526.64
56.6671	520.62
56.6815	463.18
56.6960	501.30
56.7104	512.87
56.7249	537.42
56.7393	528.78
56.7537	556.39
56.7682	544.66
56.7826	517.56
56.7971	526.65
56.8115	556.48
56.8259	532.19
56.8404	512.87
56.8548	569.38
56.8693	528.45
56.8837	491.25
56.8981	536.34
56.9126	526.26
56.9270	508.56
56.9415	548.58
56.9559	517.23
56.9703	483.47
56.9848	513.26
56.9992	470.59
57.0137	567.10
57.0281	524.52
57.0425	532.83
57.0570	556.15
57.0714	544.02
57.0859	544.14
57.1003	520.60
57.1147	517.82
57.1292	540.63
57.1436	521.92
57.1581	520.92
57.1725	527.83
57.1869	523.38
57.2014	501.14
57.2158	503.85
57.2303	520.64
57.2447	511.74
57.2591	507.17
57.2736	500.62
57.2880	525.00
57.3025	556.03
57.3169	518.63
57.3313	510.76
57.3458	505.43
57.3602	523.91
57.3747	511.69
57.3891	521.02
57.4035	517.36
57.4180	503.18
57.4324	517.36
57.4469	507.55
57.4613	524.76
57.4757	544.86
57.4902	520.25
57.5046	504.35
57.5191	515.24
57.5335	549.17
57.5479	510.78
57.5624	534.98
57.5768	524.30
57.5913	551.06
57.6057	547.91
57.6201	530.69
57.6346	531.64
57.6490	526.95
57.6635	537.75
57.6779	527.31
57.6923	526.75
57.7068	520.63
57.7212	555.03
57.7357	533.28
57.7501	542.04
57.7645	521.38
57.7790	539.59
57.7934	551.29
57.8079	540.49
57.8223	585.87
57.8367	580.96
57.8512	557.32
57.8656	579.92
57.8801	597.27
57.8945	627.54
57.9089	606.89
57.9234	606.12
57.9378	632.96
57.9523	641.51
57.9667	639.05
57.9811	634.85
57.9956	673.53
58.0100	670.29
58.0245	628.90
58.0389	655.28
58.0533	719.01
58.0678	704.22
58.0822	684.54
58.0967	661.84
58.1111	675.09
58.1255	666.05
58.1400	639.68
58.1544	611.26
58.1689	642.29
58.1833	612.75
58.1977	628.11
58.2122	614.17
58.2266	620.25
58.2411	619.58
58.2555	569.88
58.2699	584.93
58.2844	601.06
58.2988	566.97
58.3133	584.89
58.3277	588.47
58.3421	574.37
58.3566	566.01
58.3710	565.72
58.3855	565.19
58.3999	560.47
58.4143	542.72
58.4288	553.14
58.4432	526.81
58.4577	544.48
58.4721	567.42
58.4865	553.31
58.5010	548.27
58.5154	549.69
58.5299	546.08
58.5443	556.14
58.5587	534.57
58.5732	520.18
58.5876	508.53
58.6021	509.47
58.6165	522.21
58.6309	529.02
58.6454	523.13
58.6598	546.74
58.6743	581.26
58.6887	511.39
58.7031	539.15
58.7176	537.32
58.7320	517.57
58.7465	530.72
58.7609	500.57
58.7753	502.36
58.7898	509.09
58.8042	522.13
58.8187	537.68
58.8331	540.10
58.8475	541.93
58.8620	595.65
58.8764	530.35
58.8909	522.88
58.9053	549.78
58.9197	520.34
58.9342	531.46
58.9486	519.48
58.9631	502.94
58.9775	482.32
58.9919	531.60
59.0064	529.84
59.0208	552.78
59.0353	558.09
59.0497	560.55
59.0641	539.89
59.0786	547.29
59.0930	572.67
59.1075	568.46
59.1219	549.14
59.1363	521.37
59.1508	511.99
59.1652	545.92
59.1797	546.12
59.1941	511.75
59.2085	522.92
59.2230	550.46
59.2374	540.26
59.2519	543.75
59.2663	550.24
59.2807	541.01
59.2952	521.36
59.3096	529.96
59.3241	570.19
59.3385	591.18
59.3529	536.44
59.3674	566.64
59.3818	560.58
59.3963	531.94
59.4107	555.44
59.4251	567.07
59.4396	565.48
59.4540	573.68
59.4685	554.35
59.4829	546.03
59.4973	573.80
59.5118	526.88
59.5262	541.04
59.5407	548.01
59.5551	568.57
59.5695	551.71
59.5840	538.94
59.5984	515.41
59.6129	522.78
59.6273	574.44
59.6417	585.96
59.6562	558.30
59.6706	541.59
59.6851	522.77
59.6995	525.27
59.7139	513.90
59.7284	483.77
59.7428	485.47
59.7573	522.47
59.7717	527.73
59.7861	530.11
59.8006	527.79
59.8150	562.70
59.8295	559.48
59.8439	536.95
59.8583	545.87
59.8728	538.23
59.8872	512.22
59.9017	550.23
59.9161	544.60
59.9305	538.31
59.9450	528.22
59.9594	507.94
59.9739	560.44
59.9883	548.79
60.0027	528.78
60.0172	538.88
60.0316	555.82
60.0461	538.63
60.0605	541.06
60.0750	549.24
60.0894	509.77
60.1038	514.21
60.1183	514.75
60.1327	533.44
60.1472	509.65
60.1616	532.23
60.1760	510.91
60.1905	505.64
60.2049	521.67
60.2194	533.06
60.2338	546.47
60.2482	580.17
60.2627	559.31
60.2771	547.90
60.2916	544.42
60.3060	516.07
60.3204	551.72
60.3349	529.75
60.3493	543.86
60.3638	540.20
60.3782	532.28
60.3926	520.64
60.4071	549.10
60.4215	555.08
60.4360	558.76
60.4504	520.50
60.4648	533.00
60.4793	530.07
60.4937	538.79
60.5082	521.10
60.5226	535.30
60.5370	526.33
60.5515	568.72
60.5659	537.73
60.5804	530.24
60.5948	549.96
60.6092	543.75
60.6237	555.91
60.6381	494.60
60.6526	528.26
60.6670	519.90
60.6814	520.67
60.6959	553.39
60.7103	541.57
60.7248	535.89
60.7392	550.99
60.7536	528.23
60.7681	536.21
60.7825	530.73
60.7970	541.61
60.8114	570.09
60.8258	527.94
60.8403	538.32
60.8547	526.00
60.8692	517.45
60.8836	510.50
60.8980	546.56
60.9125	559.66
60.9269	563.60
60.9414	571.00
60.9558	535.41
60.9702	524.62
60.9847	527.97
60.9991	521.06
61.0136	547.22
61.0280	509.07
61.0424	532.15
61.0569	509.21
61.0713	545.16
61.0858	558.30
61.1002	531.59
61.1146	540.33
61.1291	543.86
61.1435	515.89
61.1580	527.38
61.1724	533.98
61.1868	531.72
61.2013	531.44
61.2157	548.38
61.2302	535.80
61.2446	549.78
61.2590	570.70
61.2735	570.82
61.2879	528.07
61.3024	543.40
61.3168	600.29
61.3312	538.11
61.3457	520.93
61.3601	516.68
61.3746	547.55
61.3890	504.79
61.4034	500.41
61.4179	545.99
61.4323	538.12
61.4468	558.47
61.4612	533.39
61.4756	538.86
61.4901	549.04
61.5045	544.48
61.5190	539.87
61.5334	545.59
61.5478	513.91
61.5623	543.32
61.5767	535.90
61.5912	494.97
61.6056	521.10
61.6200	541.39
61.6345	517.55
61.6489	518.30
61.6634	514.93
61.6778	509.63
61.6922	544.56
61.7067	537.51
61.7211	544.21
61.7356	509.79
61.7500	512.01
61.7644	562.88
61.7789	537.74
61.7933	527.73
61.8078	530.82
61.8222	545.55
61.8366	563.33
61.8511	571.82
61.8655	558.92
61.8800	543.61
61.8944	538.01
61.9088	552.85
61.9233	573.33
61.9377	570.31
61.9522	547.89
61.9666	548.03
61.9810	532.57
61.9955	538.32
62.0099	549.07
62.0244	524.65
62.0388	500.37
62.0532	545.31
62.0677	562.36
62.0821	578.76
62.0966	559.44
62.1110	584.31
62.1254	585.90
62.1399	540.23
62.1543	529.24
62.1688	575.25
62.1832	567.39
62.1976	550.05
62.2121	572.52
62.2265	549.78
62.2410	558.96
62.2554	566.91
62.2698	560.83
62.2843	580.94
62.2987	564.94
62.3132	564.78
62.3276	577.22
62.3420	570.50
62.3565	584.95
62.3709	553.90
62.3854	543.04
62.3998	547.67
62.4142	555.58
62.4287	569.05
62.4431	546.90
62.4576	546.33
62.4720	573.95
62.4864	534.30
62.5009	573.63
62.5153	573.21
62.5298	567.08
62.5442	573.11
62.5586	556.10
62.5731	552.94
62.5875	533.30
62.6020	532.72
62.6164	554.95
62.6308	563.25
62.6453	540.39
62.6597	560.60
62.6742	523.11
62.6886	540.38
62.7030	581.41
62.7175	568.32
62.7319	595.77
62.7464	587.20
62.7608	547.92
62.7752	556.64
62.7897	546.54
62.8041	564.79
62.8186	576.46
62.8330	570.41
62.8474	560.23
62.8619	564.63
62.8763	574.52
62.8908	566.52
62.9052	588.00
62.9196	571.83
62.9341	565.56
62.9485	545.11
62.9630	543.78
62.9774	546.21
62.9918	569.79
63.0063	581.47
63.0207	551.98
63.0352	552.15
63.0496	555.45
63.0640	562.51
63.0785	568.82
63.0929	607.69
63.1074	564.88
63.1218	551.70
63.1362	552.73
63.1507	525.77
63.1651	542.21
63.1796	560.05
63.1940	557.08
63.2084	544.60
63.2229	589.35
63.2373	569.12
63.2518	589.11
63.2662	590.14
63.2806	607.59
63.2951	553.02
63.3095	568.42
63.3240	579.45
63.3384	586.50
63.3528	555.57
63.3673	564.11
63.3817	574.00
63.3962	570.18
63.4106	560.80
63.4250	620.99
63.4395	602.39
63.4539	573.65
63.4684	598.07
63.4828	618.09
63.4972	606.04
63.5117	630.80
63.5261	636.21
63.5406	641.61
63.5550	625.17
63.5694	637.15
63.5839	673.97
63.5983	717.21
63.6128	684.32
63.6272	684.51
63.6416	758.24
63.6561	774.32
63.6705	743.62
63.6850	791.84
63.6994	808.12
63.7138	835.89
63.7283	833.81
63.7427	814.97
63.7572	805.67
63.7716	814.13
63.7861	821.01
63.8005	793.03
63.8149	813.00
63.8294	814.61
63.8438	813.53
63.8583	812.78
63.8727	815.03
63.8871	788.97
63.9016	831.58
63.9160	807.99
63.9305	756.21
63.9449	714.20
63.9593	693.85
63.9738	724.41
63.9882	687.18
64.0027	660.26
64.0171	659.91
64.0315	681.16
64.0460	650.15
64.0604	641.19
64.0749	628.51
64.0893	641.32
64.1037	624.43
64.1182	662.38
64.1326	667.76
64.1471	629.82
64.1615	612.71
64.1759	567.03
64.1904	591.58
64.2048	603.22
64.2193	596.68
64.2337	597.67
64.2481	602.04
64.2626	595.57
64.2770	618.91
64.2915	577.75
64.3059	609.92
64.3203	605.73
64.3348	642.40
64.3492	610.70
64.3637	611.20
64.3781	620.26
64.3925	582.84
64.4070	595.30
64.4214	600.25
64.4359	598.47
64.4503	610.41
64.4647	647.46
64.4792	626.00
64.4936	618.91
64.5081	612.55
64.5225	633.25
64.5369	640.60
64.5514	610.80
64.5658	647.25
64.5803	608.59
64.5947	641.23
64.6091	670.58
64.6236	631.61
64.6380	608.15
64.6525	630.52
64.6669	660.13
64.6813	644.65
64.6958	662.15
64.7102	670.29
64.7247	664.15
64.7391	665.82
64.7535	706.18
64.7680	686.67
64.7824	726.07
64.7969	715.06
64.8113	754.03
64.8257	769.43
64.8402	791.26
64.8546	811.62
64.8691	799.10
64.8835	794.49
64.8979	836.44
64.9124	876.84
64.9268	874.94
64.9413	863.24
64.9557	925.49
64.9701	969.98
64.9846	1055.67
64.9990	1097.70
65.0135	1229.56
65.0279	1438.51
65.0423	1625.18
65.0568	2022.20
65.0712	2494.59
65.0857	3249.82
65.1001	4207.76
65.1145	5624.43
65.1290	7449.60
65.1434	9113.30
65.1579	10667.05
65.1723	11423.44
65.1867	11223.92
65.2012	10136.65
65.2156	8559.07
65.2301	6657.82
65.2445	5364.45
65.2589	4469.97
65.2734	4151.42
65.2878	4210.53
65.3023	4717.60
65.3167	5481.28
65.3311	6312.89
65.3456	6872.91
65.3600	6915.73
65.3745	6413.18
65.3889	5415.11
65.4033	4514.85
65.4178	3507.10
65.4322	2694.20
65.4467	2059.33
65.4611	1696.69
65.4755	1494.23
65.4900	1311.69
65.5044	1117.67
65.5189	981.60
65.5333	945.62
65.5477	904.07
65.5622	855.32
65.5766	876.87
65.5911	819.65
65.6055	774.90
65.6199	772.97
65.6344	748.73
65.6488	772.03
65.6633	718.03
65.6777	721.52
65.6921	704.23
65.7066	727.23
65.7210	716.55
65.7355	701.82
65.7499	668.30
65.7643	702.31
65.7788	685.01
65.7932	671.99
65.8077	650.73
65.8221	600.35
65.8365	660.01
65.8510	639.42
65.8654	642.80
65.8799	650.48
65.8943	665.06
65.9087	661.71
65.9232	689.67
65.9376	659.10
65.9521	618.26
65.9665	614.30
65.9809	634.57
65.9954	654.39
66.0098	629.28
66.0243	638.40
66.0387	632.92
66.0531	594.52
66.0676	629.01
66.0820	614.02
66.0965	632.38
66.1109	642.36
66.1253	642.87
66.1398	596.88
66.1542	591.31
66.1687	635.42
66.1831	602.64
66.1975	605.84
66.2120	582.09
66.2264	597.80
66.2409	597.76
66.2553	603.63
66.2697	633.56
66.2842	652.46
66.2986	588.42
66.3131	583.43
66.3275	653.23
66.3419	645.89
66.3564	600.68
66.3708	600.90
66.3853	596.66
66.3997	594.04
66.4141	623.81
66.4286	645.05
66.4430	602.12
66.4575	595.87
66.4719	578.68
66.4863	580.08
66.5008	616.55
66.5152	597.24
66.5297	572.19
66.5441	565.60
66.5585	591.73
66.5730	599.23
66.5874	600.53
66.6019	588.14
66.6163	593.66
66.6307	585.86
66.6452	557.97
66.6596	575.92
66.6741	573.68
66.6885	571.27
66.7029	602.08
66.7174	583.25
66.7318	585.93
66.7463	581.20
66.7607	579.43
66.7751	584.51
66.7896	614.96
66.8040	625.50
66.8185	580.67
66.8329	577.84
66.8473	587.46
66.8618	606.49
66.8762	591.75
66.8907	593.58
66.9051	614.16
66.9195	584.62
66.9340	584.71
66.9484	597.93
66.9629	557.34
66.9773	563.10
66.9917	587.89
67.0062	583.57
67.0206	587.53
67.0351	579.42
67.0495	585.14
67.0639	602.98
67.0784	615.49
67.0928	608.83
67.1073	595.16
67.1217	602.34
67.1361	586.00
67.1506	587.79
67.1650	649.76
67.1795	608.09
67.1939	551.17
67.2083	579.44
67.2228	565.77
67.2372	540.61
67.2517	568.54
67.2661	579.64
67.2805	596.01
67.2950	562.57
67.3094	556.65
67.3239	590.31
67.3383	571.14
67.3527	564.17
67.3672	571.86
67.3816	589.09
67.3961	563.41
67.4105	590.99
67.4250	594.45
67.4394	569.76
67.4538	573.60
67.4683	581.49
67.4827	572.75
67.4972	582.77
67.5116	533.80
67.5260	576.43
67.5405	596.78
67.5549	585.31
67.5694	574.74
67.5838	606.03
67.5982	592.38
67.6127	565.95
67.6271	567.50
67.6416	581.89
67.6560	585.50
67.6704	600.44
67.6849	568.24
67.6993	536.56
67.7138	581.78
67.7282	587.42
67.7426	621.92
67.7571	552.92
67.7715	551.16
67.7860	601.50
67.8004	571.93
67.8148	593.30
67.8293	579.33
67.8437	603.24
67.8582	569.27
67.8726	563.24
67.8870	578.64
67.9015	607.09
67.9159	592.24
67.9304	524.18
67.9448	579.31
67.9592	595.58
67.9737	606.21
67.9881	586.56
68.0026	588.18
68.0170	559.75
68.0314	601.58
68.0459	580.38
68.0603	579.71
68.0748	573.10
68.0892	577.62
68.1036	575.49
68.1181	602.84
68.1325	564.10
68.1470	541.96
68.1614	561.21
68.1758	567.15
68.1903	555.26
68.2047	576.44
68.2192	592.01
68.2336	563.83
68.2480	582.54
68.2625	589.39
68.2769	595.14
68.2914	633.52
68.3058	579.99
68.3202	545.25
68.3347	585.86
68.3491	586.07
68.3636	554.38
68.3780	569.15
68.3924	563.63
68.4069	543.22
68.4213	521.48
68.4358	583.04
68.4502	600.90
68.4646	583.09
68.4791	602.54
68.4935	576.73
68.5080	576.01
68.5224	574.39
68.5368	559.39
68.5513	503.57
68.5657	517.77
68.5802	562.04
68.5946	582.15
68.6090	594.51
68.6235	573.40
68.6379	581.36
68.6524	556.95
68.6668	550.26
68.6812	555.07
68.6957	548.52
68.7101	582.81
68.7246	571.77
68.7390	591.15
68.7534	580.56
68.7679	551.77
68.7823	573.60
68.7968	539.84
68.8112	589.13
68.8256	567.25
68.8401	559.08
68.8545	578.12
68.8690	518.38
68.8834	532.61
68.8978	555.65
68.9123	585.04
68.9267	541.29
68.9412	576.31
68.9556	536.47
68.9700	561.63
68.9845	553.55
68.9989	563.58
69.0134	549.58
69.0278	611.09
69.0422	603.92
69.0567	586.89
69.0711	539.12
69.0856	601.17
69.1000	554.92
69.1144	595.20
69.1289	550.36
69.1433	550.37
69.1578	495.30
69.1722	550.43
69.1866	594.84
69.2011	572.97
69.2155	597.06
69.2300	576.53
69.2444	573.33
69.2588	546.06
69.2733	529.35
69.2877	580.24
69.3022	564.56
69.3166	573.08
69.3310	619.32
69.3455	596.78
69.3599	539.62
69.3744	593.01
69.3888	586.32
69.4032	514.46
69.4177	586.04
69.4321	600.30
69.4466	565.41
69.4610	571.15
69.4754	606.35
69.4899	561.58
69.5043	576.21
69.5188	555.64
69.5332	566.92
69.5476	545.64
69.5621	583.77
69.5765	588.15
69.5910	613.91
69.6054	552.38
69.6198	560.96
69.6343	560.31
69.6487	531.22
69.6632	564.37
69.6776	548.48
69.6920	549.74
69.7065	576.65
69.7209	628.24
69.7354	548.68
69.7498	582.38
69.7642	550.46
69.7787	555.27
69.7931	578.49
69.8076	637.90
69.8220	545.58
69.8364	590.72
69.8509	582.39
69.8653	608.46
69.8798	593.41
69.8942	551.18
69.9086	568.00
69.9231	545.72
69.9375	558.53
69.9520	602.90
69.9664	562.70
69.9808	593.79
69.9953	572.54
70.0097	585.08
70.0242	593.71
70.0386	585.68
70.0530	639.63
70.0675	612.44
70.0819	598.28
70.0964	615.84
70.1108	595.45
70.1252	592.38
70.1397	590.20
70.1541	591.31
70.1686	580.24
70.1830	550.44
70.1974	569.99
70.2119	582.58
70.2263	585.66
70.2408	531.83
70.2552	566.07
70.2696	561.27
70.2841	554.49
70.2985	571.88
70.3130	557.68
70.3274	612.44
70.3418	588.54
70.3563	585.58
70.3707	550.51
70.3852	567.30
70.3996	600.95
70.4140	529.36
70.4285	603.81
70.4429	585.01
70.4574	578.03
70.4718	541.96
70.4862	567.95
70.5007	604.82
70.5151	601.04
70.5296	584.67
70.5440	563.20
70.5584	540.63
70.5729	556.53
70.5873	574.21
70.6018	569.82
70.6162	595.85
70.6306	571.28
70.6451	593.09
70.6595	573.20
70.6740	550.71
70.6884	542.96
70.7028	553.98
70.7173	584.73
70.7317	591.91
70.7462	587.39
70.7606	530.18
70.7750	584.48
70.7895	600.85
70.8039	618.43
70.8184	611.05
70.8328	621.87
70.8472	584.68
70.8617	546.71
70.8761	557.21
70.8906	556.00
70.9050	619.99
70.9194	631.24
70.9339	586.93
70.9483	605.04
70.9628	572.73
70.9772	556.92
70.9916	555.95
71.0061	531.67
71.0205	553.54
71.0350	581.39
71.0494	530.05
71.0638	571.38
71.0783	610.29
71.0927	580.17
71.1072	577.67
71.1216	555.13
71.1361	537.72
71.1505	519.97
71.1649	572.75
71.1794	564.20
71.1938	564.33
71.2083	570.73
71.2227	576.01
71.2371	576.06
71.2516	533.37
71.2660	538.23
71.2805	581.17
71.2949	608.80
71.3093	618.00
71.3238	589.31
71.3382	633.96
71.3527	553.74
71.3671	540.71
71.3815	564.49
71.3960	573.15
71.4104	579.91
71.4249	606.10
71.4393	619.08
71.4537	528.18
71.4682	590.17
71.4826	641.04
71.4971	574.44
71.5115	592.67
71.5259	576.92
71.5404	525.80
71.5548	605.48
71.5693	581.28
71.5837	575.86
71.5981	569.76
71.6126	533.17
71.6270	574.54
71.6415	619.03
71.6559	582.04
71.6703	523.75
71.6848	535.05
71.6992	612.52
71.7137	610.77
71.7281	570.67
71.7425	554.65
71.7570	567.15
71.7714	565.01
71.7859	516.18
71.8003	633.74
71.8147	616.03
71.8292	550.59
71.8436	549.51
71.8581	544.85
71.8725	553.11
71.8869	560.34
71.9014	592.21
71.9158	566.55
71.9303	520.73
71.9447	577.41
71.9591	605.03
71.9736	632.41
71.9880	631.10
72.0025	621.03
72.0169	531.55
72.0313	542.21
72.0458	520.22
72.0602	450.42
72.0747	440.92
72.0891	526.05
72.1035	609.37
72.1180	576.79
72.1324	490.64
72.1469	588.54
72.1613	676.71
72.1757	557.69
72.1902	553.66
72.2046	627.86
72.2191	644.58
72.2335	676.14
72.2479	686.46
72.2624	585.19
72.2768	553.65
72.2913	520.96
72.3057	612.62
72.3201	745.25
72.3346	692.10
72.3490	595.06
72.3635	572.03
72.3779	573.45
72.3923	572.29
72.4068	571.89
72.4212	576.44
72.4357	649.60
72.4501	595.00
72.4645	589.90
72.4790	602.69
72.4934	541.03
72.5079	612.59
72.5223	601.53
72.5367	527.15
72.5512	553.16
72.5656	574.40
72.5801	575.61
72.5945	543.29
72.6089	590.19
72.6234	643.55
72.6378	629.22
72.6523	537.35
72.6667	555.50
72.6811	556.76
72.6956	570.60
72.7100	559.82
72.7245	580.48
72.7389	587.84
72.7533	467.79
72.7678	528.26
72.7822	654.34
72.7967	620.70
72.8111	607.67
72.8255	605.55
72.8400	555.50
72.8544	535.66
72.8689	516.53
72.8833	575.04

Result vector
22.1120	638.02
22.1264	592.15
22.1409	514.88
22.1553	520.28
22.1697	528.65
22.1842	559.79
22.1986	531.37
22.2131	570.88
22.2275	559.75
22.2419	532.93
22.2564	550.52
22.2708	504.59
22.2853	582.04
22.2997	618.77
22.3141	603.91
22.3286	660.96
22.3430	617.96
22.3575	538.65
22.3719	531.42
22.3863	553.97
22.4008	524.12
22.4152	544.02
22.4297	530.63
22.4441	601.16
22.4585	588.14
22.4730	547.46
22.4874	611.87
22.5019	614.70
22.5163	549.65
22.5307	607.85
22.5452	497.44
22.5596	466.64
22.5741	561.10
22.5885	547.04
22.6029	667.41
22.6174	640.51
22.6318	508.53
22.6463	511.71
22.6607	557.76
22.6751	467.58
22.6896	535.26
22.7040	646.18
22.7185	564.22
22.7329	509.26
22.7473	527.41
22.7618	506.08
22.7762	526.76
22.7907	549.77
22.8051	475.14
22.8195	557.62
22.8340	537.94
22.8484	583.76
22.8629	573.47
22.8773	530.61
22.8917	603.97
22.9062	661.35
22.9206	490.37
22.9351	448.19
22.9495	601.18
22.9639	546.26
22.9784	549.46
22.9928	514.53
23.0073	530.77
23.0217	501.73
23.0361	492.18
23.0506	469.35
23.0650	555.52
23.0795	604.62
23.0939	582.16
23.1083	652.77
23.1228	524.78
23.1372	531.13
23.1517	569.96
23.1661	593.36
23.1806	531.64
23.1950	495.00
23.2094	534.81
23.2239	554.59
23.2383	569.68
23.2528	512.45
23.2672	549.20
23.2816	529.03
23.2961	612.35
23.3105	556.17
23.3250	488.33
23.3394	598.00
23.3538	579.93
23.3683	583.86
23.3827	553.34
23.3972	563.36
23.4116	554.31
23.4260	541.57
23.4405	536.28
23.4549	576.62
23.4694	593.64
23.4838	587.24
23.4982	619.15
23.5127	533.68
23.5271	517.29
23.5416	592.87
23.5560	614.65
23.5704	563.90
23.5849	557.56
23.5993	607.85
23.6138	578.14
23.6282	528.68
23.6426	546.76
23.6571	466.97
23.6715	488.98
23.6860	566.10
23.7004	554.22
23.7148	470.87
23.7293	570.66
23.7437	512.86
23.7582	513.35
23.7726	529.65
23.7870	535.28
23.8015	517.87
23.8159	486.10
23.8304	574.91
23.8448	586.72
23.8592	609.87
23.8737	636.31
23.8881	531.71
23.9026	542.79
23.9170	533.76
23.9314	478.54
23.9459	590.99
23.9603	548.74
23.9748	565.70
23.9892	583.09
24.0036	553.22
24.0181	562.85
24.0325	500.59
24.0470	560.88
24.0614	547.97
24.0758	531.95
24.0903	501.00
24.1047	484.68
24.1192	495.37
24.1336	549.67
24.1480	575.51
24.1625	631.59
24.1769	565.87
24.1914	594.08
24.2058	568.03
24.2202	581.45
24.2347	648.24
24.2491	604.23
24.2636	575.91
24.2780	583.18
24.2924	580.23
24.3069	580.17
24.3213	536.64
24.3358	590.14
24.3502	555.86
24.3646	529.67
24.3791	562.21
24.3935	604.80
24.4080	525.64
24.4224	639.84
24.4368	556.94
24.4513	558.82
24.4657	525.29
24.4802	536.69
24.4946	530.62
24.5090	494.28
24.5235	489.04
24.5379	537.10
24.5524	549.98
24.5668	540.18
24.5812	547.47
24.5957	526.01
24.6101	505.99
24.6246	552.15
24.6390	547.24
24.6534	542.94
24.6679	590.29
24.6823	501.46
24.6968	562.22
24.7112	603.49
24.7256	543.81
24.7401	549.08
24.7545	527.23
24.7690	535.15
24.7834	518.25
24.7978	527.19
24.8123	540.98
24.8267	555.39
24.8412	497.16
24.8556	576.63
24.8700	535.11
24.8845	545.89
24.8989	558.56
24.9134	520.55
24.9278	528.72
24.9422	522.82
24.9567	474.55
24.9711	524.66
24.9856	592.50
25.0000	555.56
25.0144	582.98
25.0289	480.52
25.0433	509.03
25.0578	568.84
25.0722	549.14
25.0866	625.32
25.1011	531.29
25.1155	608.12
25.1300	561.01
25.1444	514.82
25.1588	542.45
25.1733	541.98
25.1877	522.66
25.2022	562.80
25.2166	562.53
25.2310	555.23
25.2455	538.30
25.2599	550.33
25.2744	541.37
25.2888	524.81
25.3032	524.57
25.3177	542.15
25.3321	541.91
25.3466	547.57
25.3610	551.41
25.3754	509.71
25.3899	518.92
25.4043	502.58
25.4188	546.54
25.4332	555.55
25.4476	534.27
25.4621	511.45
25.4765	529.28
25.4910	579.96
25.5054	574.08
25.5198	558.00
25.5343	580.00
25.5487	558.23
25.5632	507.90
25.5776	502.74
25.5920	494.24
25.6065	528.95
25.6209	554.92
25.6354	548.87
25.6498	544.21
25.6642	535.30
25.6787	521.39
25.6931	506.30
25.7076	521.59
25.7220	551.85
25.7364	565.21
25.7509	544.51
25.7653	527.49
25.7798	506.95
25.7942	513.63
25.8086	559.73
25.8231	555.94
25.8375	521.01
25.8520	556.61
25.8664	579.71
25.8808	561.03
25.8953	540.55
25.9097	591.49
25.9242	543.59
25.9386	539.44
25.9530	494.98
25.9675	531.72
25.9819	549.45
25.9964	544.82
26.0108	530.15
26.0252	558.18
26.0397	524.68
26.0541	496.49
26.0686	506.84
26.0830	539.90
26.0974	543.64
26.1119	551.64
26.1263	588.75
26.1408	536.07
26.1552	503.32
26.1696	503.27
26.1841	526.25
26.1985	528.19
26.2130	542.89
26.2274	524.20
26.2418	520.41
26.2563	540.98
26.2707	539.37
26.2852	501.16
26.2996	546.84
26.3140	518.35
26.3285	518.85
26.3429	524.52
26.3574	531.28
26.3718	518.38
26.3862	515.36
26.4007	489.32
26.4151	518.49
26.4296	526.09
26.4440	528.78
26.4584	515.84
26.4729	548.69
26.4873	538.27
26.5018	529.90
26.5162	524.92
26.5306	560.78
26.5451	546.67
26.5595	535.98
26.5740	548.08
26.5884	540.27
26.6028	551.91
26.6173	540.35
26.6317	555.14
26.6462	561.97
26.6606	529.43
26.6750	511.12
26.6895	521.52
26.7039	516.08
26.7184	550.40
26.7328	548.26
26.7472	534.84
26.7617	512.92
26.7761	492.52
26.7906	525.58
26.8050	556.97
26.8194	522.10
26.8339	516.26
26.8483	533.27
26.8628	554.55
26.8772	518.24
26.8917	525.36
26.9061	549.47
26.9205	515.54
26.9350	518.11
26.9494	502.53
26.9639	518.03
26.9783	521.70
26.9927	519.60
27.0072	500.34
27.0216	534.69
27.0361	516.07
27.0505	515.27
27.0649	515.65
27.0794	502.97
27.0938	496.37
27.1083	525.46
27.1227	523.74
27.1371	499.81
27.1516	505.07
27.1660	541.76
27.1805	521.58
27.1949	502.42
27.2093	530.05
27.2238	508.62
27.2382	557.60
27.2527	527.23
27.2671	501.01
27.2815	490.94
27.2960	488.15
27.3104	527.48
27.3249	545.39
27.3393	533.81
27.3537	563.19
27.3682	531.49
27.3826	513.53
27.3971	524.72
27.4115	523.36
27.4259	542.58
27.4404	508.37
27.4548	503.86
27.4693	533.06
27.4837	477.07
27.4981	524.84
27.5126	535.61
27.5270	492.51
27.5415	515.08
27.5559	538.34
27.5703	536.45
27.5848	533.48
27.5992	522.07
27.6137	512.65
27.6281	532.38
27.6425	551.04
27.6570	542.18
27.6714	493.66
27.6859	504.99
27.7003	519.42
27.7147	488.64
27.7292	513.62
27.7436	508.31
27.7581	493.82
27.7725	508.58
27.7869	538.20
27.8014	553.14
27.8158	529.75
27.8303	514.50
27.8447	522.85
27.8591	529.81
27.8736	531.19
27.8880	508.66
27.9025	531.93
27.9169	525.92
27.9313	474.50
27.9458	524.62
27.9602	502.35
27.9747	531.64
27.9891	500.27
28.0035	561.76
28.0180	517.36
28.0324	504.08
28.0469	526.80
28.0613	498.77
28.0757	539.37
28.0902	528.94
28.1046	484.28
28.1191	529.15
28.1335	521.23
28.1479	502.38
28.1624	530.06
28.1768	548.14
28.1913	503.40
28.2057	524.77
28.2201	498.43
28.2346	478.44
28.2490	481.25
28.2635	492.11
28.2779	505.21
28.2923	524.51
28.3068	526.68
28.3212	517.25
28.3357	528.83
28.3501	521.82
28.3645	508.15
28.3790	523.20
28.3934	537.00
28.4079	533.10
28.4223	544.78
28.4367	527.32
28.4512	495.45
28.4656	532.60
28.4801	516.79
28.4945	521.30
28.5089	499.93
28.5234	521.06
28.5378	520.83
28.5523	499.88
28.5667	512.23
28.5811	522.27
28.5956	549.83
28.6100	505.39
28.6245	485.35
28.6389	499.06
28.6533	514.57
28.6678	506.07
28.6822	530.33
28.6967	510.22
28.7111	504.29
28.7255	490.83
28.7400	462.28
28.7544	488.76
28.7689	500.59
28.7833	518.47
28.7977	457.80
28.8122	504.64
28.8266	474.81
28.8411	513.59
28.8555	515.30
28.8699	516.98
28.8844	519.76
28.8988	521.34
28.9133	489.95
28.9277	534.58
28.9421	559.56
28.9566	515.67
28.9710	512.21
28.9855	481.64
28.9999	500.48
29.0143	531.53
29.0288	511.50
29.0432	494.21
29.0577	545.14
29.0721	507.79
29.0865	514.87
29.1010	475.22
29.1154	469.83
29.1299	486.09
29.1443	481.99
29.1587	482.75
29.1732	516.25
29.1876	493.34
29.2021	472.57
29.2165	472.66
29.2309	479.88
29.2454	491.14
29.2598	476.64
29.2743	507.98
29.2887	523.85
29.3031	523.27
29.3176	480.62
29.3320	511.03
29.3465	508.54
29.3609	502.01
29.3753	498.16
29.3898	502.95
29.4042	471.38
29.4187	494.94
29.4331	501.88
29.4475	460.52
29.4620	518.19
29.4764	534.84
29.4909	523.93
29.5053	520.57
29.5197	506.98
29.5342	505.57
29.5486	495.49
29.5631	489.83
29.5775	490.99
29.5919	480.69
29.6064	533.68
29.6208	487.87
29.6353	494.23
29.6497	494.81
29.6641	510.48
29.6786	479.76
29.6930	490.54
29.7075	547.54
29.7219	514.75
29.7363	519.31
29.7508	512.83
29.7652	490.06
29.7797	495.65
29.7941	503.01
29.8085	532.14
29.8230	478.49
29.8374	502.05
29.8519	494.95
29.8663	516.00
29.8807	480.04
29.8952	531.02
29.9096	557.89
29.9241	501.12
29.9385	494.14
29.9529	480.10
29.9674	509.02
29.9818	507.31
29.9963	536.32
30.0107	481.89
30.0251	467.47
30.0396	473.21
30.0540	492.84
30.0685	501.75
30.0829	496.94
30.0973	513.74
30.1118	498.96
30.1262	483.86
30.1407	506.99
30.1551	494.40
30.1695	518.23
30.1840	528.64
30.1984	476.35
30.2129	492.00
30.2273	484.88
30.2417	535.13
30.2562	515.46
30.2706	527.62
30.2851	503.47
30.2995	504.20
30.3139	537.13
30.3284	524.57
30.3428	511.65
30.3573	526.91
30.3717	517.48
30.3861	491.56
30.4006	493.27
30.4150	518.68
30.4295	512.07
30.4439	487.17
30.4583	486.77
30.4728	500.28
30.4872	559.67
30.5017	556.40
30.5161	556.40
30.5305	574.60
30.5450	580.28
30.5594	610.41
30.5739	609.23
30.5883	640.37
30.6028	638.75
30.6172	645.80
30.6316	687.03
30.6461	680.05
30.6605	713.98
30.6750	698.09
30.6894	698.43
30.7038	678.69
30.7183	661.27
30.7327	634.34
30.7472	631.87
30.7616	583.39
30.7760	594.26
30.7905	581.21
30.8049	558.15
30.8194	566.40
30.8338	525.63
30.8482	539.26
30.8627	571.19
30.8771	539.36
30.8916	549.55
30.9060	524.18
30.9204	511.66
30.9349	531.78
30.9493	530.30
30.9638	541.34
30.9782	501.69
30.9926	496.12
31.0071	478.90
31.0215	512.67
31.0360	499.30
31.0504	505.88
31.0648	502.85
31.0793	501.50
31.0937	532.69
31.1082	534.82
31.1226	488.67
31.1370	489.67
31.1515	495.36
31.1659	525.56
31.1804	498.12
31.1948	488.76
31.2092	538.66
31.2237	501.55
31.2381	521.12
31.2526	493.47
31.2670	502.64
31.2814	538.98
31.2959	543.76
31.3103	534.82
31.3248	526.73
31.3392	541.16
31.3536	511.18
31.3681	511.89
31.3825	513.73
31.3970	514.48
31.4114	481.68
31.4258	494.46
31.4403	502.95
31.4547	496.11
31.4692	527.84
31.4836	539.20
31.4980	477.11
31.5125	496.05
31.5269	503.34
31.5414	493.19
31.5558	460.50
31.5702	481.06
31.5847	519.94
31.5991	523.22
31.6136	492.37
31.6280	481.15
31.6424	512.56
31.6569	507.94
31.6713	490.63
31.6858	498.84
31.7002	486.23
31.7146	488.53
31.7291	479.15
31.7435	461.43
31.7580	492.16
31.7724	519.84
31.7868	517.75
31.8013	501.38
31.8157	532.34
31.8302	515.25
31.8446	513.33
31.8590	536.63
31.8735	518.17
31.8879	514.81
31.9024	528.86
31.9168	503.37
31.9312	527.16
31.9457	540.38
31.9601	502.40
31.9746	519.78
31.9890	496.80
32.0034	473.69
32.0179	528.24
32.0323	558.34
32.0468	507.86
32.0612	488.66
32.0756	513.19
32.0901	517.15
32.1045	524.73
32.1190	513.19
32.1334	527.52
32.1478	490.00
32.1623	514.31
32.1767	484.41
32.1912	510.63
32.2056	494.37
32.2200	510.05
32.2345	501.21
32.2489	531.24
32.2634	471.50
32.2778	505.95
32.2922	485.29
32.3067	514.59
32.3211	520.54
32.3356	524.83
32.3500	531.50
32.3644	494.83
32.3789	454.87
32.3933	491.68
32.4078	479.33
32.4222	491.46
32.4366	515.56
32.4511	468.25
32.4655	496.53
32.4800	501.16
32.4944	517.66
32.5088	492.83
32.5233	477.94
32.5377	502.81
32.5522	523.77
32.5666	505.54
32.5810	495.03
32.5955	499.02
32.6099	505.64
32.6244	511.61
32.6388	514.17
32.6532	504.84
32.6677	474.46
32.6821	479.38
32.6966	500.06
32.7110	480.16
32.7254	501.29
32.7399	520.03
32.7543	513.55
32.7688	477.70
32.7832	509.13
32.7976	492.40
32.8121	502.68
32.8265	483.69
32.8410	461.80
32.8554	492.44
32.8698	539.55
32.8843	481.85
32.8987	498.94
32.9132	531.52
32.9276	477.96
32.9420	526.67
32.9565	498.20
32.9709	478.74
32.9854	533.69
32.9998	537.73
33.0142	511.05
33.0287	557.44
33.0431	536.84
33.0576	523.51
33.0720	499.31
33.0864	499.33
33.1009	470.71
33.1153	488.26
33.1298	504.15
33.1442	521.66
33.1586	520.67
33.1731	522.93
33.1875	511.54
33.2020	502.34
33.2164	483.01
33.2308	499.83
33.2453	503.92
33.2597	503.86
33.2742	528.16
33.2886	516.39
33.3030	494.48
33.3175	501.08
33.3319	536.18
33.3464	531.48
33.3608	516.30
33.3752	465.49
33.3897	500.64
33.4041	492.25
33.4186	495.43
33.4330	499.71
33.4474	487.02
33.4619	479.99
33.4763	466.87
33.4908	490.43
33.5052	481.02
33.5196	501.81
33.5341	497.60
33.5485	507.77
33.5630	511.13
33.5774	497.19
33.5918	497.76
33.6063	503.68
33.6207	474.95
33.6352	505.48
33.6496	497.47
33.6640	523.80
33.6785	499.68
33.6929	507.61
33.7074	526.85
33.7218	477.22
33.7362	500.47
33.7507	532.55
33.7651	506.00
33.7796	478.25
33.7940	474.44
33.8084	497.47
33.8229	497.27
33.8373	503.14
33.8518	503.59
33.8662	545.80
33.8806	509.62
33.8951	507.34
33.9095	504.28
33.9240	504.73
33.9384	527.51
33.9528	531.92
33.9673	495.43
33.9817	495.52
33.9962	524.74
34.0106	511.25
34.0250	496.19
34.0395	490.24
34.0539	535.04
34.0684	507.45
34.0828	498.71
34.0972	526.30
34.1117	516.53
34.1261	522.37
34.1406	506.74
34.1550	520.45
34.1694	514.87
34.1839	453.42
34.1983	463.80
34.2128	478.00
34.2272	487.21
34.2417	498.07
34.2561	521.09
34.2705	495.51
34.2850	507.65
34.2994	507.41
34.3139	526.29
34.3283	521.57
34.3427	522.49
34.3572	494.75
34.3716	497.82
34.3861	483.18
34.4005	481.22
34.4149	462.68
34.4294	491.63
34.4438	502.49
34.4583	512.98
34.4727	523.35
34.4871	508.35
34.5016	493.13
34.5160	480.46
34.5305	501.76
34.5449	515.83
34.5593	510.18
34.5738	521.44
34.5882	504.28
34.6027	515.11
34.6171	517.24
34.6315	480.59
34.6460	511.69
34.6604	503.17
34.6749	516.10
34.6893	483.47
34.7037	517.88
34.7182	523.14
34.7326	470.69
34.7471	505.47
34.7615	524.60
34.7759	502.94
34.7904	493.01
34.8048	505.30
34.8193	508.34
34.8337	494.85
34.8481	495.38
34.8626	527.25
34.8770	504.69
34.8915	460.70
34.9059	537.90
34.9203	532.82
34.9348	506.09
34.9492	525.26
34.9637	520.37
34.9781	549.44
34.9925	548.37
35.0070	515.73
35.0214	515.88
35.0359	497.99
35.0503	519.40
35.0647	518.98
35.0792	498.52
35.0936	500.44
35.1081	461.47
35.1225	511.20
35.1369	517.79
35.1514	483.65
35.1658	496.01
35.1803	507.69
35.1947	527.48
35.2091	523.34
35.2236	539.22
35.2380	531.58
35.2525	512.80
35.2669	468.53
35.2813	501.78
35.2958	494.59
35.3102	521.29
35.3247	527.25
35.3391	534.90
35.3535	493.62
35.3680	490.13
35.3824	496.61
35.3969	499.75
35.4113	517.29
35.4257	554.46
35.4402	512.71
35.4546	507.05
35.4691	528.79
35.4835	500.39
35.4979	513.60
35.5124	508.06
35.5268	532.29
35.5413	533.41
35.5557	522.05
35.5701	512.48
35.5846	532.52
35.5990	522.01
35.6135	529.89
35.6279	514.14
35.6423	547.32
35.6568	500.92
35.6712	512.80
35.6857	581.18
35.7001	663.48
35.7145	734.95
35.7290	668.85
35.7434	563.62
35.7579	586.70
35.7723	614.32
35.7867	639.26
35.8012	691.62
35.8156	693.78
35.8301	672.67
35.8445	650.69
35.8589	654.11
35.8734	740.22
35.8878	794.64
35.9023	991.23
35.9167	1037.68
35.9311	1171.75
35.9456	1615.51
35.9600	2041.22
35.9745	1947.07
35.9889	2047.66
36.0033	2440.33
36.0178	2859.31
36.0322	3148.17
36.0467	2441.66
36.0611	2033.53
36.0755	2087.05
36.0900	2096.12
36.1044	1789.69
36.1189	1643.04
36.1333	1662.64
36.1477	1426.94
36.1622	1322.98
36.1766	1209.50
36.1911	1119.45
36.2055	1011.92
36.2199	950.22
36.2344	882.81
36.2488	783.68
36.2633	690.53
36.2777	653.91
36.2921	645.45
36.3066	585.74
36.3210	621.55
36.3355	607.40
36.3499	596.29
36.3643	556.10
36.3788	572.21
36.3932	553.15
36.4077	562.44
36.4221	571.80
36.4365	556.94
36.4510	516.03
36.4654	533.57
36.4799	555.44
36.4943	522.21
36.5087	532.37
36.5232	513.83
36.5376	533.58
36.5521	513.54
36.5665	527.24
36.5809	543.75
36.5954	532.41
36.6098	494.75
36.6243	523.10
36.6387	534.89
36.6531	526.33
36.6676	538.29
36.6820	495.48
36.6965	485.29
36.7109	524.66
36.7253	534.31
36.7398	535.67
36.7542	557.48
36.7687	500.83
36.7831	566.20
36.7975	558.72
36.8120	573.65
36.8264	591.71
36.8409	578.12
36.8553	571.24
36.8697	624.03
36.8842	584.95
36.8986	631.27
36.9131	540.53
36.9275	563.52
36.9419	582.13
36.9564	551.00
36.9708	591.56
36.9853	588.98
36.9997	561.16
37.0141	570.03
37.0286	570.67
37.0430	514.88
37.0575	539.26
37.0719	528.14
37.0863	538.93
37.1008	514.07
37.1152	521.82
37.1297	515.79
37.1441	486.31
37.1585	480.74
37.1730	501.19
37.1874	543.90
37.2019	506.96
37.2163	519.12
37.2307	519.53
37.2452	486.88
37.2596	507.70
37.2741	490.81
37.2885	498.08
37.3029	496.15
37.3174	507.64
37.3318	522.72
37.3463	500.49
37.3607	505.48
37.3751	480.35
37.3896	461.36
37.4040	470.06
37.4185	504.98
37.4329	531.90
37.4473	516.05
37.4618	525.48
37.4762	527.40
37.4907	522.10
37.5051	487.22
37.5195	515.25
37.5340	525.93
37.5484	501.38
37.5629	517.21
37.5773	501.42
37.5917	495.88
37.6062	522.25
37.6206	508.32
37.6351	497.53
37.6495	473.87
37.6639	498.71
37.6784	485.06
37.6928	480.09
37.7073	536.48
37.7217	508.20
37.7361	526.19
37.7506	507.96
37.7650	513.15
37.7795	502.08
37.7939	481.70
37.8083	515.29
37.8228	525.05
37.8372	534.72
37.8517	526.77
37.8661	515.70
37.8805	470.93
37.8950	505.24
37.9094	522.39
37.9239	508.18
37.9383	497.20
37.9528	480.84
37.9672	510.78
37.9816	495.36
37.9961	491.29
38.0105	441.58
38.0250	469.67
38.0394	525.62
38.0538	502.59
38.0683	483.04
38.0827	520.20
38.0972	536.71
38.1116	497.47
38.1260	504.42
38.1405	483.12
38.1549	464.39
38.1694	477.63
38.1838	485.40
38.1982	500.61
38.2127	486.88
38.2271	479.45
38.2416	471.09
38.2560	475.89
38.2704	499.63
38.2849	470.04
38.2993	489.29
38.3138	535.65
38.3282	520.94
38.3426	491.02
38.3571	507.28
38.3715	529.00
38.3860	504.26
38.4004	546.23
38.4148	534.03
38.4293	557.93
38.4437	564.21
38.4582	605.41
38.4726	661.12
38.4870	708.29
38.5015	716.87
38.5159	737.33
38.5304	742.61
38.5448	789.30
38.5592	796.91
38.5737	799.41
38.5881	721.35
38.6026	660.80
38.6170	675.91
38.6314	710.90
38.6459	685.84
38.6603	635.59
38.6748	611.85
38.6892	614.73
38.7036	577.00
38.7181	522.28
38.7325	528.79
38.7470	530.22
38.7614	480.65
38.7758	499.63
38.7903	508.40
38.8047	523.08
38.8192	516.33
38.8336	501.43
38.8480	502.78
38.8625	531.18
38.8769	516.62
38.8914	510.16
38.9058	526.75
38.9202	523.33
38.9347	501.35
38.9491	498.74
38.9636	490.33
38.9780	492.57
38.9924	516.35
39.0069	484.47
39.0213	473.92
39.0358	507.06
39.0502	500.21
39.0646	545.87
39.0791	518.15
39.0935	498.41
39.1080	494.43
39.1224	508.50
39.1368	490.41
39.1513	453.75
39.1657	525.34
39.1802	528.46
39.1946	464.67
39.2090	490.82
39.2235	497.39
39.2379	504.51
39.2524	522.35
39.2668	496.86
39.2812	518.29
39.2957	515.28
39.3101	517.17
39.3246	523.50
39.3390	502.88
39.3534	493.96
39.3679	517.47
39.3823	509.13
39.3968	506.81
39.4112	515.14
39.4256	530.66
39.4401	499.02
39.4545	487.23
39.4690	507.92
39.4834	505.15
39.4978	478.87
39.5123	491.76
39.5267	498.52
39.5412	484.57
39.5556	497.36
39.5700	490.56
39.5845	482.67
39.5989	497.86
39.6134	496.21
39.6278	489.89
39.6422	487.09
39.6567	490.66
39.6711	479.34
39.6856	456.79
39.7000	481.05
39.7144	512.08
39.7289	534.23
39.7433	476.86
39.7578	469.56
39.7722	477.34
39.7866	523.54
39.8011	489.53
39.8155	498.35
39.8300	500.90
39.8444	474.08
39.8588	490.88
39.8733	471.10
39.8877	481.24
39.9022	507.94
39.9166	451.99
39.9310	474.26
39.9455	503.43
39.9599	498.31
39.9744	473.92
39.9888	482.77
40.0032	489.71
40.0177	478.91
40.0321	502.06
40.0466	494.85
40.0610	526.80
40.0754	485.03
40.0899	508.24
40.1043	481.27
40.1188	510.13
40.1332	504.70
40.1476	457.82
40.1621	473.80
40.1765	497.58
40.1910	506.76
40.2054	473.40
40.2198	494.98
40.2343	485.44
40.2487	519.35
40.2632	493.67
40.2776	498.67
40.2920	496.87
40.3065	532.93
40.3209	499.70
40.3354	518.45
40.3498	471.41
40.3642	493.62
40.3787	480.30
40.3931	490.16
40.4076	517.39
40.4220	521.07
40.4364	526.18
40.4509	492.62
40.4653	504.19
40.4798	498.99
40.4942	467.36
40.5086	463.73
40.5231	487.71
40.5375	504.26
40.5520	505.00
40.5664	548.27
40.5808	476.60
40.5953	462.67
40.6097	478.33
40.6242	495.22
40.6386	521.58
40.6530	475.87
40.6675	500.01
40.6819	454.95
40.6964	475.75
40.7108	504.28
40.7252	517.41
40.7397	483.08
40.7541	481.35
40.7686	500.17
40.7830	508.49
40.7974	505.88
40.8119	519.21
40.8263	509.95
40.8408	515.80
40.8552	502.72
40.8696	529.34
40.8841	500.45
40.8985	494.33
40.9130	534.30
40.9274	470.11
40.9418	487.17
40.9563	469.38
40.9707	515.28
40.9852	486.54
40.9996	484.50
41.0140	489.54
41.0285	532.91
41.0429	515.53
41.0574	468.54
41.0718	476.98
41.0862	522.79
41.1007	511.60
41.1151	505.50
41.1296	509.77
41.1440	493.14
41.1584	463.99
41.1729	528.39
41.1873	525.19
41.2018	524.53
41.2162	510.67
41.2306	505.11
41.2451	525.42
41.2595	527.45
41.2740	519.98
41.2884	483.73
41.3028	505.51
41.3173	470.12
41.3317	508.54
41.3462	475.14
41.3606	477.45
41.3750	515.61
41.3895	485.33
41.4039	472.08
41.4184	486.89
41.4328	534.22
41.4472	495.35
41.4617	487.84
41.4761	506.38
41.4906	522.62
41.5050	479.09
41.5194	510.61
41.5339	513.38
41.5483	495.33
41.5628	533.54
41.5772	487.57
41.5916	486.39
41.6061	501.11
41.6205	486.79
41.6350	516.31
41.6494	480.42
41.6639	448.77
41.6783	482.11
41.6927	529.16
41.7072	514.41
41.7216	519.98
41.7361	491.94
41.7505	472.74
41.7649	498.20
41.7794	490.05
41.7938	523.52
41.8083	535.64
41.8227	510.22
41.8371	500.72
41.8516	480.54
41.8660	533.84
41.8805	471.37
41.8949	500.02
41.9093	575.99
41.9238	562.89
41.9382	550.45
41.9527	530.08
41.9671	516.60
41.9815	523.85
41.9960	545.48
42.0104	540.00
42.0249	580.28
42.0393	546.94
42.0537	532.81
42.0682	587.42
42.0826	567.84
42.0971	564.79
42.1115	558.60
42.1259	580.88
42.1404	561.83
42.1548	614.26
42.1693	662.44
42.1837	711.71
42.1981	745.45
42.2126	779.63
42.2270	903.29
42.2415	1093.96
42.2559	1204.68
42.2703	1373.72
42.2848	1582.41
42.2992	1685.52
42.3137	1732.65
42.3281	1735.15
42.3425	1657.39
42.3570	1557.51
42.3714	1452.55
42.3859	1404.10
42.4003	1314.63
42.4147	1356.20
42.4292	1345.73
42.4436	1143.29
42.4581	1029.04
42.4725	940.56
42.4869	830.33
42.5014	771.83
42.5158	722.73
42.5303	644.79
42.5447	639.84
42.5591	656.25
42.5736	612.64
42.5880	579.90
42.6025	580.82
42.6169	574.07
42.6313	544.85
42.6458	551.15
42.6602	524.00
42.6747	539.10
42.6891	541.34
42.7035	497.68
42.7180	516.21
42.7324	510.75
42.7469	524.58
42.7613	539.87
42.7757	543.15
42.7902	539.63
42.8046	561.54
42.8191	540.12
42.8335	541.87
42.8479	545.12
42.8624	534.09
42.8768	521.88
42.8913	498.12
42.9057	529.01
42.9201	545.28
42.9346	529.71
42.9490	535.02
42.9635	505.33
42.9779	488.19
42.9923	504.51
43.0068	499.63
43.0212	537.20
43.0357	536.71
43.0501	501.80
43.0645	492.42
43.0790	511.81
43.0934	535.98
43.1079	501.58
43.1223	530.48
43.1367	468.84
43.1512	466.39
43.1656	512.20
43.1801	490.46
43.1945	525.61
43.2089	540.23
43.2234	506.42
43.2378	529.97
43.2523	517.04
43.2667	507.91
43.2811	552.20
43.2956	516.06
43.3100	489.92
43.3245	525.05
43.3389	525.05
43.3533	509.70
43.3678	514.35
43.3822	497.28
43.3967	470.17
43.4111	491.34
43.4255	509.35
43.4400	491.49
43.4544	501.79
43.4689	510.71
43.4833	518.53
43.4977	511.00
43.5122	499.36
43.5266	503.27
43.5411	512.31
43.5555	518.47
43.5699	499.83
43.5844	494.87
43.5988	486.38
43.6133	503.14
43.6277	518.52
43.6421	518.98
43.6566	538.13
43.6710	544.56
43.6855	509.13
43.6999	515.77
43.7143	557.58
43.7288	513.39
43.7432	557.19
43.7577	576.71
43.7721	593.65
43.7865	598.59
43.8010	633.93
43.8154	626.17
43.8299	653.59
43.8443	626.21
43.8587	647.12
43.8732	634.63
43.8876	618.18
43.9021	645.36
43.9165	620.34
43.9309	627.32
43.9454	615.85
43.9598	591.63
43.9743	614.20
43.9887	568.71
44.0031	552.28
44.0176	575.96
44.0320	572.60
44.0465	526.02
44.0609	530.99
44.0753	551.57
44.0898	539.23
44.1042	513.73
44.1187	501.77
44.1331	522.62
44.1475	492.28
44.1620	503.89
44.1764	533.45
44.1909	548.85
44.2053	524.32
44.2197	506.13
44.2342	487.31
44.2486	523.95
44.2631	531.20
44.2775	533.45
44.2919	553.15
44.3064	503.46
44.3208	511.07
44.3353	538.16
44.3497	594.70
44.3641	554.43
44.3786	522.29
44.3930	500.29
44.4075	518.04
44.4219	579.22
44.4363	581.99
44.4508	547.76
44.4652	539.78
44.4797	568.50
44.4941	555.66
44.5085	533.22
44.5230	564.02
44.5374	540.19
44.5519	596.39
44.5663	604.67
44.5807	571.59
44.5952	591.72
44.6096	569.07
44.6241	569.24
44.6385	592.54
44.6529	599.17
44.6674	595.03
44.6818	525.18
44.6963	604.47
44.7107	611.79
44.7251	697.65
44.7396	702.08
44.7540	765.95
44.7685	826.00
44.7829	841.94
44.7973	794.92
44.8118	799.61
44.8262	825.62
44.8407	779.13
44.8551	736.89
44.8695	754.28
44.8840	731.75
44.8984	729.90
44.9129	730.34
44.9273	706.24
44.9417	682.19
44.9562	601.15
44.9706	546.36
44.9851	550.26
44.9995	502.71
45.0139	558.74
45.0284	572.53
45.0428	492.05
45.0573	510.13
45.0717	520.13
45.0861	512.80
45.1006	549.22
45.1150	530.30
45.1295	501.48
45.1439	487.46
45.1583	482.51
45.1728	507.88
45.1872	512.74
45.2017	493.76
45.2161	530.39
45.2305	508.67
45.2450	499.67
45.2594	520.27
45.2739	502.97
45.2883	486.91
45.3028	486.41
45.3172	497.04
45.3316	491.60
45.3461	508.66
45.3605	477.89
45.3750	487.36
45.3894	486.76
45.4038	469.64
45.4183	471.14
45.4327	482.87
45.4472	530.46
45.4616	543.41
45.4760	538.75
45.4905	490.26
45.5049	478.75
45.5194	505.02
45.5338	489.97
45.5482	501.04
45.5627	529.56
45.5771	494.47
45.5916	494.25
45.6060	532.90
45.6204	507.57
45.6349	513.54
45.6493	483.05
45.6638	484.65
45.6782	484.48
45.6926	509.66
45.7071	502.80
45.7215	508.84
45.7360	511.38
45.7504	529.96
45.7648	511.30
45.7793	531.11
45.7937	510.12
45.8082	484.16
45.8226	518.61
45.8370	493.90
45.8515	488.97
45.8659	485.23
45.8804	482.74
45.8948	505.09
45.9092	482.42
45.9237	464.30
45.9381	485.26
45.9526	478.46
45.9670	493.96
45.9814	507.35
45.9959	474.66
46.0103	494.62
46.0248	531.42
46.0392	532.33
46.0536	530.29
46.0681	508.77
46.0825	488.02
46.0970	470.02
46.1114	518.08
46.1258	532.12
46.1403	489.92
46.1547	488.92
46.1692	500.03
46.1836	494.18
46.1980	493.51
46.2125	516.30
46.2269	496.87
46.2414	500.19
46.2558	516.74
46.2702	496.23
46.2847	498.96
46.2991	489.75
46.3136	491.62
46.3280	505.46
46.3424	504.26
46.3569	527.14
46.3713	516.54
46.3858	504.85
46.4002	486.50
46.4146	520.51
46.4291	528.63
46.4435	481.17
46.4580	487.17
46.4724	489.80
46.4868	491.87
46.5013	473.90
46.5157	497.48
46.5302	520.37
46.5446	509.75
46.5590	497.25
46.5735	498.89
46.5879	486.22
46.6024	502.21
46.6168	510.00
46.6312	505.28
46.6457	499.09
46.6601	528.46
46.6746	513.92
46.6890	454.76
46.7034	499.06
46.7179	520.04
46.7323	521.89
46.7468	489.60
46.7612	489.53
46.7756	500.80
46.7901	506.46
46.8045	500.96
46.8190	506.80
46.8334	458.90
46.8478	481.24
46.8623	514.98
46.8767	500.76
46.8912	485.61
46.9056	498.21
46.9200	505.08
46.9345	506.89
46.9489	504.82
46.9634	492.83
46.9778	479.10
46.9922	496.49
47.0067	483.48
47.0211	486.51
47.0356	538.46
47.0500	514.45
47.0644	512.04
47.0789	499.44
47.0933	514.86
47.1078	518.43
47.1222	498.82
47.1366	490.06
47.1511	478.06
47.1655	515.26
47.1800	486.92
47.1944	498.85
47.2088	506.26
47.2233	507.91
47.2377	519.43
47.2522	474.80
47.2666	503.61
47.2810	537.38
47.2955	520.22
47.3099	510.49
47.3244	528.61
47.3388	519.96
47.3532	513.47
47.3677	533.01
47.3821	510.90
47.3966	511.98
47.4110	533.63
47.4254	561.45
47.4399	531.21
47.4543	494.35
47.4688	502.20
47.4832	499.73
47.4976	512.80
47.5121	518.12
47.5265	488.90
47.5410	483.30
47.5554	526.88
47.5698	505.16
47.5843	467.00
47.5987	514.06
47.6132	500.41
47.6276	515.55
47.6420	511.08
47.6565	491.37
47.6709	491.13
47.6854	476.88
47.6998	481.64
47.7142	528.90
47.7287	535.41
47.7431	498.94
47.7576	503.81
47.7720	514.68
47.7864	524.05
47.8009	508.30
47.8153	515.53
47.8298	509.73
47.8442	526.94
47.8586	537.26
47.8731	540.44
47.8875	483.31
47.9020	497.83
47.9164	489.52
47.9308	485.92
47.9453	527.81
47.9597	505.07
47.9742	478.01
47.9886	482.25
48.0030	490.48
48.0175	483.15
48.0319	515.73
48.0464	502.05
48.0608	480.59
48.0752	487.09
48.0897	497.19
48.1041	484.47
48.1186	508.15
48.1330	500.06
48.1474	464.75
48.1619	521.56
48.1763	532.86
48.1908	494.41
48.2052	525.30
48.2196	511.11
48.2341	496.54
48.2485	477.21
48.2630	491.84
48.2774	539.27
48.2918	529.10
48.3063	507.68
48.3207	489.03
48.3352	561.66
48.3496	538.70
48.3640	520.98
48.3785	502.32
48.3929	530.83
48.4074	500.35
48.4218	503.69
48.4362	489.86
48.4507	496.20
48.4651	518.67
48.4796	533.38
48.4940	528.14
48.5084	494.84
48.5229	479.20
48.5373	520.81
48.5518	508.58
48.5662	529.53
48.5806	448.27
48.5951	483.61
48.6095	531.41
48.6240	514.37
48.6384	538.64
48.6528	504.03
48.6673	499.74
48.6817	526.52
48.6962	508.31
48.7106	514.57
48.7250	506.12
48.7395	495.34
48.7539	502.42
48.7684	536.39
48.7828	550.98
48.7972	501.86
48.8117	501.08
48.8261	504.16
48.8406	543.72
48.8550	532.87
48.8694	557.40
48.8839	548.94
48.8983	579.40
48.9128	566.41
48.9272	567.98
48.9416	604.11
48.9561	593.50
48.9705	567.17
48.9850	536.85
48.9994	524.03
49.0139	597.08
49.0283	610.52
49.0427	583.07
49.0572	661.05
49.0716	669.57
49.0861	695.60
49.1005	681.54
49.1149	680.79
49.1294	682.01
49.1438	758.55
49.1583	830.91
49.1727	880.60
49.1871	883.86
49.2016	983.81
49.2160	1106.56
49.2305	1097.05
49.2449	1197.95
49.2593	1353.09
49.2738	1366.83
49.2882	1435.77
49.3027	1535.29
49.3171	1597.32
49.3315	1819.46
49.3460	1796.08
49.3604	1847.20
49.3749	1837.03
49.3893	1805.17
49.4037	1860.40
49.4182	1848.53
49.4326	1767.31
49.4471	1687.86
49.4615	1691.90
49.4759	1619.80
49.4904	1533.29
49.5048	1384.86
49.5193	1376.20
49.5337	1305.75
49.5481	1166.29
49.5626	1102.16
49.5770	1094.84
49.5915	1034.44
49.6059	937.73
49.6203	868.50
49.6348	826.54
49.6492	810.43
49.6637	755.76
49.6781	706.07
49.6925	665.70
49.7070	664.41
49.7214	663.21
49.7359	649.70
49.7503	635.90
49.7647	580.87
49.7792	607.96
49.7936	590.96
49.8081	577.72
49.8225	567.53
49.8369	572.88
49.8514	566.23
49.8658	565.70
49.8803	560.74
49.8947	588.00
49.9091	598.24
49.9236	540.44
49.9380	553.96
49.9525	561.58
49.9669	531.22
49.9813	545.17
49.9958	555.15
50.0102	514.07
50.0247	548.57
50.0391	513.41
50.0535	505.35
50.0680	537.85
50.0824	505.69
50.0969	514.53
50.1113	503.99
50.1257	512.06
50.1402	498.54
50.1546	492.21
50.1691	513.03
50.1835	521.79
50.1979	492.63
50.2124	514.34
50.2268	525.32
50.2413	519.56
50.2557	518.82
50.2701	481.39
50.2846	540.93
50.2990	507.24
50.3135	525.92
50.3279	555.35
50.3423	491.62
50.3568	506.28
50.3712	486.71
50.3857	510.63
50.4001	509.61
50.4145	484.91
50.4290	548.66
50.4434	536.39
50.4579	526.55
50.4723	493.12
50.4867	500.40
50.5012	532.81
50.5156	494.53
50.5301	526.07
50.5445	507.64
50.5589	506.92
50.5734	520.39
50.5878	545.45
50.6023	509.66
50.6167	499.73
50.6311	534.12
50.6456	521.11
50.6600	513.99
50.6745	516.50
50.6889	494.59
50.7033	542.02
50.7178	517.01
50.7322	501.50
50.7467	524.33
50.7611	506.60
50.7755	536.07
50.7900	508.92
50.8044	467.84
50.8189	517.97
50.8333	540.28
50.8477	482.36
50.8622	517.27
50.8766	512.35
50.8911	507.71
50.9055	511.43
50.9199	526.80
50.9344	513.14
50.9488	495.52
50.9633	492.74
50.9777	501.30
50.9921	522.84
51.0066	495.93
51.0210	523.76
51.0355	502.90
51.0499	509.31
51.0643	498.14
51.0788	506.36
51.0932	502.44
51.1077	498.01
51.1221	503.06
51.1365	522.01
51.1510	489.05
51.1654	539.19
51.1799	539.92
51.1943	517.49
51.2087	496.09
51.2232	514.73
51.2376	493.00
51.2521	514.52
51.2665	498.95
51.2809	504.36
51.2954	503.46
51.3098	498.72
51.3243	516.02
51.3387	522.22
51.3531	513.53
51.3676	516.73
51.3820	442.77
51.3965	476.17
51.4109	468.97
51.4253	494.04
51.4398	498.52
51.4542	533.80
51.4687	481.40
51.4831	497.24
51.4975	494.00
51.5120	517.86
51.5264	504.08
51.5409	500.05
51.5553	497.33
51.5697	472.03
51.5842	511.90
51.5986	496.80
51.6131	515.56
51.6275	530.32
51.6419	509.24
51.6564	484.84
51.6708	501.76
51.6853	524.97
51.6997	520.82
51.7141	532.95
51.7286	503.01
51.7430	525.13
51.7575	518.70
51.7719	510.47
51.7863	542.66
51.8008	552.21
51.8152	514.62
51.8297	525.68
51.8441	503.94
51.8585	533.46
51.8730	512.85
51.8874	512.91
51.9019	525.79
51.9163	503.19
51.9307	520.64
51.9452	514.81
51.9596	487.31
51.9741	486.24
51.9885	524.49
52.0029	491.46
52.0174	511.17
52.0318	501.52
52.0463	551.01
52.0607	520.31
52.0751	486.95
52.0896	520.76
52.1040	463.94
52.1185	485.78
52.1329	514.53
52.1473	477.44
52.1618	490.86
52.1762	520.04
52.1907	499.61
52.2051	501.15
52.2195	524.49
52.2340	519.92
52.2484	512.00
52.2629	504.33
52.2773	499.63
52.2917	485.90
52.3062	474.11
52.3206	493.74
52.3351	524.28
52.3495	524.37
52.3639	515.02
52.3784	501.56
52.3928	484.13
52.4073	512.84
52.4217	551.60
52.4361	541.66
52.4506	497.79
52.4650	506.19
52.4795	525.59
52.4939	497.26
52.5083	485.83
52.5228	532.16
52.5372	510.39
52.5517	530.44
52.5661	513.34
52.5805	510.93
52.5950	523.81
52.6094	508.31
52.6239	522.97
52.6383	543.22
52.6527	500.53
52.6672	531.17
52.6816	526.66
52.6961	482.78
52.7105	491.68
52.7250	539.69
52.7394	508.62
52.7538	529.09
52.7683	495.52
52.7827	530.15
52.7972	464.55
52.8116	521.03
52.8260	547.99
52.8405	506.46
52.8549	518.74
52.8694	509.14
52.8838	551.68
52.8982	498.42
52.9127	497.06
52.9271	463.95
52.9416	512.38
52.9560	489.00
52.9704	521.91
52.9849	495.09
52.9993	514.20
53.0138	481.76
53.0282	541.49
53.0426	537.46
53.0571	518.43
53.0715	554.22
53.0860	496.10
53.1004	514.37
53.1148	533.78
53.1293	528.92
53.1437	512.90
53.1582	507.51
53.1726	525.09
53.1870	537.73
53.2015	482.14
53.2159	489.05
53.2304	513.61
53.2448	518.63
53.2592	473.04
53.2737	550.43
53.2881	545.85
53.3026	526.57
53.3170	526.01
53.3314	511.45
53.3459	519.78
53.3603	513.96
53.3748	474.62
53.3892	494.53
53.4036	502.81
53.4181	502.95
53.4325	563.76
53.4470	501.91
53.4614	489.61
53.4758	544.03
53.4903	519.44
53.5047	500.33
53.5192	480.16
53.5336	529.97
53.5480	470.95
53.5625	473.70
53.5769	478.64
53.5914	478.75
53.6058	527.27
53.6202	511.45
53.6347	519.48
53.6491	534.75
53.6636	537.78
53.6780	528.21
53.6924	500.47
53.7069	492.30
53.7213	497.06
53.7358	534.01
53.7502	519.28
53.7646	510.84
53.7791	517.76
53.7935	530.44
53.8080	517.46
53.8224	522.73
53.8368	537.55
53.8513	513.95
53.8657	486.91
53.8802	483.00
53.8946	516.24
53.9090	510.18
53.9235	511.21
53.9379	542.87
53.9524	565.24
53.9668	507.78
53.9812	499.90
53.9957	517.37
54.0101	503.22
54.0246	484.15
54.0390	518.94
54.0534	547.65
54.0679	540.91
54.0823	513.85
54.0968	521.62
54.1112	519.01
54.1256	527.19
54.1401	495.98
54.1545	523.62
54.1690	525.94
54.1834	491.97
54.1978	516.97
54.2123	574.68
54.2267	518.48
54.2412	547.13
54.2556	526.63
54.2700	537.32
54.2845	583.38
54.2989	583.66
54.3134	603.83
54.3278	605.57
54.3422	589.29
54.3567	566.30
54.3711	580.67
54.3856	614.47
54.4000	581.98
54.4144	576.09
54.4289	624.22
54.4433	587.00
54.4578	591.14
54.4722	605.00
54.4866	574.66
54.5011	583.77
54.5155	588.60
54.5300	590.47
54.5444	628.04
54.5588	584.90
54.5733	534.55
54.5877	551.12
54.6022	569.87
54.6166	553.58
54.6310	581.04
54.6455	569.70
54.6599	540.45
54.6744	537.92
54.6888	514.48
54.7032	546.23
54.7177	546.76
54.7321	531.29
54.7466	516.55
54.7610	509.16
54.7754	561.53
54.7899	537.34
54.8043	544.71
54.8188	529.93
54.8332	491.57
54.8476	511.53
54.8621	525.35
54.8765	522.51
54.8910	509.75
54.9054	508.34
54.9198	502.63
54.9343	517.17
54.9487	531.56
54.9632	514.93
54.9776	492.37
54.9920	474.79
55.0065	501.15
55.0209	506.15
55.0354	509.06
55.0498	518.11
55.0642	524.06
55.0787	537.25
55.0931	556.74
55.1076	540.32
55.1220	537.93
55.1364	505.92
55.1509	502.61
55.1653	512.12
55.1798	506.23
55.1942	518.93
55.2086	504.66
55.2231	500.06
55.2375	511.85
55.2520	539.65
55.2664	530.32
55.2808	525.69
55.2953	521.78
55.3097	550.88
55.3242	537.10
55.3386	499.92
55.3530	492.78
55.3675	500.27
55.3819	515.54
55.3964	490.08
55.4108	516.78
55.4252	492.59
55.4397	498.47
55.4541	540.95
55.4686	528.49
55.4830	521.46
55.4974	529.41
55.5119	520.09
55.5263	498.11
55.5408	511.61
55.5552	560.75
55.5696	533.47
55.5841	496.29
55.5985	510.58
55.6130	509.98
55.6274	506.50
55.6418	511.08
55.6563	516.40
55.6707	524.73
55.6852	512.36
55.6996	536.58
55.7140	561.72
55.7285	522.93
55.7429	472.30
55.7574	471.35
55.7718	516.72
55.7862	545.07
55.8007	521.01
55.8151	491.66
55.8296	519.48
55.8440	498.41
55.8584	524.41
55.8729	551.23
55.8873	495.07
55.9018	520.97
55.9162	519.39
55.9306	505.66
55.9451	568.51
55.9595	525.99
55.9740	532.45
55.9884	500.15
56.0028	520.87
56.0173	550.11
56.0317	510.30
56.0462	509.69
56.0606	531.29
56.0750	498.34
56.0895	526.13
56.1039	469.85
56.1184	534.25
56.1328	549.52
56.1472	493.00
56.1617	506.07
56.1761	533.00
56.1906	515.14
56.2050	516.38
56.2194	516.16
56.2339	495.52
56.2483	484.37
56.2628	525.61
56.2772	504.44
56.2916	508.17
56.3061	544.72
56.3205	553.28
56.3350	515.51
56.3494	495.20
56.3639	512.02
56.3783	518.52
56.3927	497.91
56.4072	534.66
56.4216	537.69
56.4361	546.60
56.4505	493.31
56.4649	498.58
56.4794	512.85
56.4938	523.13
56.5083	531.59
56.5227	524.53
56.5371	506.40
56.5516	537.86
56.5660	522.79
56.5805	535.25
56.5949	511.02
56.6093	545.17
56.6238	507.97
56.6382	519.07
56.6527	526.64
56.6671	520.62
56.6815	463.18
56.6960	501.30
56.7104	512.87
56.7249	537.42
56.7393	528.78
56.7537	556.39
56.7682	544.66
56.7826	517.56
56.7971	526.65
56.8115	556.48
56.8259	532.19
56.8404	512.87
56.8548	569.38
56.8693	528.45
56.8837	491.25
56.8981	536.34
56.9126	526.26
56.9270	508.56
56.9415	548.58
56.9559	517.23
56.9703	483.47
56.9848	513.26
56.9992	470.59
57.0137	567.10
57.0281	524.52
57.0425	532.83
57.0570	556.15
57.0714	544.02
57.0859	544.14
57.1003	520.60
57.1147	517.82
57.1292	540.63
57.1436	521.92
57.1581	520.92
57.1725	527.83
57.1869	523.38
57.2014	501.14
57.2158	503.85
57.2303	520.64
57.2447	511.74
57.2591	507.17
57.2736	500.62
57.2880	525.00
57.3025	556.03
57.3169	518.63
57.3313	510.76
57.3458	505.43
57.3602	523.91
57.3747	511.69
57.3891	521.02
57.4035	517.36
57.4180	503.18
57.4324	517.36
57.4469	507.55
57.4613	524.76
57.4757	544.86
57.4902	520.25
57.5046	504.35
57.5191	515.24
57.5335	549.17
57.5479	510.78
57.5624	534.98
57.5768	524.30
57.5913	551.06
57.6057	547.91
57.6201	530.69
57.6346	531.64
57.6490	526.95
57.6635	537.75
57.6779	527.31
57.6923	526.75
57.7068	520.63
57.7212	555.03
57.7357	533.28
57.7501	542.04
57.7645	521.38
57.7790	539.59
57.7934	551.29
57.8079	540.49
57.8223	585.87
57.8367	580.96
57.8512	557.32
57.8656	579.92
57.8801	597.27
57.8945	627.54
57.9089	606.89
57.9234	606.12
57.9378	632.96
57.9523	641.51
57.9667	639.05
57.9811	634.85
57.9956	673.53
58.0100	670.29
58.0245	628.90
58.0389	655.28
58.0533	719.01
58.0678	704.22
58.0822	684.54
58.0967	661.84
58.1111	675.09
58.1255	666.05
58.1400	639.68
58.1544	611.26
58.1689	642.29
58.1833	612.75
58.1977	628.11
58.2122	614.17
58.2266	620.25
58.2411	619.58
58.2555	569.88
58.2699	584.93
58.2844	601.06
58.2988	566.97
58.3133	584.89
58.3277	588.47
58.3421	574.37
58.3566	566.01
58.3710	565.72
58.3855	565.19
58.3999	560.47
58.4143	542.72
58.4288	553.14
58.4432	526.81
58.4577	544.48
58.4721	567.42
58.4865	553.31
58.5010	548.27
58.5154	549.69
58.5299	546.08
58.5443	556.14
58.5587	534.57
58.5732	520.18
58.5876	508.53
58.6021	509.47
58.6165	522.21
58.6309	529.02
58.6454	523.13
58.6598	546.74
58.6743	581.26
58.6887	511.39
58.7031	539.15
58.7176	537.32
58.7320	517.57
58.7465	530.72
58.7609	500.57
58.7753	502.36
58.7898	509.09
58.8042	522.13
58.8187	537.68
58.8331	540.10
58.8475	541.93
58.8620	595.65
58.8764	530.35
58.8909	522.88
58.9053	549.78
58.9197	520.34
58.9342	531.46
58.9486	519.48
58.9631	502.94
58.9775	482.32
58.9919	531.60
59.0064	529.84
59.0208	552.78
59.0353	558.09
59.0497	560.55
59.0641	539.89
59.0786	547.29
59.0930	572.67
59.1075	568.46
59.1219	549.14
59.1363	521.37
59.1508	511.99
59.1652	545.92
59.1797	546.12
59.1941	511.75
59.2085	522.92
59.2230	550.46
59.2374	540.26
59.2519	543.75
59.2663	550.24
59.2807	541.01
59.2952	521.36
59.3096	529.96
59.3241	570.19
59.3385	591.18
59.3529	536.44
59.3674	566.64
59.3818	560.58
59.3963	531.94
59.4107	555.44
59.4251	567.07
59.4396	565.48
59.4540	573.68
59.4685	554.35
59.4829	546.03
59.4973	573.80
59.5118	526.88
59.5262	541.04
59.5407	548.01
59.5551	568.57
59.5695	551.71
59.5840	538.94
59.5984	515.41
59.6129	522.78
59.6273	574.44
59.6417	585.96
59.6562	558.30
59.6706	541.59
59.6851	522.77
59.6995	525.27
59.7139	513.90
59.7284	483.77
59.7428	485.47
59.7573	522.47
59.7717	527.73
59.7861	530.11
59.8006	527.79
59.8150	562.70
59.8295	559.48
59.8439	536.95
59.8583	545.87
59.8728	538.23
59.8872	512.22
59.9017	550.23
59.9161	544.60
59.9305	538.31
59.9450	528.22
59.9594	507.94
59.9739	560.44
59.9883	548.79
60.0027	528.78
60.0172	538.88
60.0316	555.82
60.0461	538.63
60.0605	541.06
60.0750	549.24
60.0894	509.77
60.1038	514.21
60.1183	514.75
60.1327	533.44
60.1472	509.65
60.1616	532.23
60.1760	510.91
60.1905	505.64
60.2049	521.67
60.2194	533.06
60.2338	546.47
60.2482	580.17
60.2627	559.31
60.2771	547.90
60.2916	544.42
60.3060	516.07
60.3204	551.72
60.3349	529.75
60.3493	543.86
60.3638	540.20
60.3782	532.28
60.3926	520.64
60.4071	549.10
60.4215	555.08
60.4360	558.76
60.4504	520.50
60.4648	533.00
60.4793	530.07
60.4937	538.79
60.5082	521.10
60.5226	535.30
60.5370	526.33
60.5515	568.72
60.5659	537.73
60.5804	530.24
60.5948	549.96
60.6092	543.75
60.6237	555.91
60.6381	494.60
60.6526	528.26
60.6670	519.90
60.6814	520.67
60.6959	553.39
60.7103	541.57
60.7248	535.89
60.7392	550.99
60.7536	528.23
60.7681	536.21
60.7825	530.73
60.7970	541.61
60.8114	570.09
60.8258	527.94
60.8403	538.32
60.8547	526.00
60.8692	517.45
60.8836	510.50
60.8980	546.56
60.9125	559.66
60.9269	563.60
60.9414	571.00
60.9558	535.41
60.9702	524.62
60.9847	527.97
60.9991	521.06
61.0136	547.22
61.0280	509.07
61.0424	532.15
61.0569	509.21
61.0713	545.16
61.0858	558.30
61.1002	531.59
61.1146	540.33
61.1291	543.86
61.1435	515.89
61.1580	527.38
61.1724	533.98
61.1868	531.72
61.2013	531.44
61.2157	548.38
61.2302	535.80
61.2446	549.78
61.2590	570.70
61.2735	570.82
61.2879	528.07
61.3024	543.40
61.3168	600.29
61.3312	538.11
61.3457	520.93
61.3601	516.68
61.3746	547.55
61.3890	504.79
61.4034	500.41
61.4179	545.99
61.4323	538.12
61.4468	558.47
61.4612	533.39
61.4756	538.86
61.4901	549.04
61.5045	544.48
61.5190	539.87
61.5334	545.59
61.5478	513.91
61.5623	543.32
61.5767	535.90
61.5912	494.97
61.6056	521.10
61.6200	541.39
61.6345	517.55
61.6489	518.30
61.6634	514.93
61.6778	509.63
61.6922	544.56
61.7067	537.51
61.7211	544.21
61.7356	509.79
61.7500	512.01
61.7644	562.88
61.7789	537.74
61.7933	527.73
61.8078	530.82
61.8222	545.55
61.8366	563.33
61.8511	571.82
61.8655	558.92
61.8800	543.61
61.8944	538.01
61.9088	552.85
61.9233	573.33
61.9377	570.31
61.9522	547.89
61.9666	548.03
61.9810	532.57
61.9955	538.32
62.0099	549.07
62.0244	524.65
62.0388	500.37
62.0532	545.31
62.0677	562.36
62.0821	578.76
62.0966	559.44
62.1110	584.31
62.1254	585.90
62.1399	540.23
62.1543	529.24
62.1688	575.25
62.1832	567.39
62.1976	550.05
62.2121	572.52
62.2265	549.78
62.2410	558.96
62.2554	566.91
62.2698	560.83
62.2843	580.94
62.2987	564.94
62.3132	564.78
62.3276	577.22
62.3420	570.50
62.3565	584.95
62.3709	553.90
62.3854	543.04
62.3998	547.67
62.4142	555.58
62.4287	569.05
62.4431	546.90
62.4576	546.33
62.4720	573.95
62.4864	534.30
62.5009	573.63
62.5153	573.21
62.5298	567.08
62.5442	573.11
62.5586	556.10
62.5731	552.94
62.5875	533.30
62.6020	532.72
62.6164	554.95
62.6308	563.25
62.6453	540.39
62.6597	560.60
62.6742	523.11
62.6886	540.38
62.7030	581.41
62.7175	568.32
62.7319	595.77
62.7464	587.20
62.7608	547.92
62.7752	556.64
62.7897	546.54
62.8041	564.79
62.8186	576.46
62.8330	570.41
62.8474	560.23
62.8619	564.63
62.8763	574.52
62.8908	566.52
62.9052	588.00
62.9196	571.83
62.9341	565.56
62.9485	545.11
62.9630	543.78
62.9774	546.21
62.9918	569.79
63.0063	581.47
63.0207	551.98
63.0352	552.15
63.0496	555.45
63.0640	562.51
63.0785	568.82
63.0929	607.69
63.1074	564.88
63.1218	551.70
63.1362	552.73
63.1507	525.77
63.1651	542.21
63.1796	560.05
63.1940	557.08
63.2084	544.60
63.2229	589.35
63.2373	569.12
63.2518	589.11
63.2662	590.14
63.2806	607.59
63.2951	553.02
63.3095	568.42
63.3240	579.45
63.3384	586.50
63.3528	555.57
63.3673	564.11
63.3817	574.00
63.3962	570.18
63.4106	560.80
63.4250	620.99
63.4395	602.39
63.4539	573.65
63.4684	598.07
63.4828	618.09
63.4972	606.04
63.5117	630.80
63.5261	636.21
63.5406	641.61
63.5550	625.17
63.5694	637.15
63.5839	673.97
63.5983	717.21
63.6128	684.32
63.6272	684.51
63.6416	758.24
63.6561	774.32
63.6705	743.62
63.6850	791.84
63.6994	808.12
63.7138	835.89
63.7283	833.81
63.7427	814.97
63.7572	805.67
63.7716	814.13
63.7861	821.01
63.8005	793.03
63.8149	813.00
63.8294	814.61
63.8438	813.53
63.8583	812.78
63.8727	815.03
63.8871	788.97
63.9016	831.58
63.9160	807.99
63.9305	756.21
63.9449	714.20
63.9593	693.85
63.9738	724.41
63.9882	687.18
64.0027	660.26
64.0171	659.91
64.0315	681.16
64.0460	650.15
64.0604	641.19
64.0749	628.51
64.0893	641.32
64.1037	624.43
64.1182	662.38
64.1326	667.76
64.1471	629.82
64.1615	612.71
64.1759	567.03
64.1904	591.58
64.2048	603.22
64.2193	596.68
64.2337	597.67
64.2481	602.04
64.2626	595.57
64.2770	618.91
64.2915	577.75
64.3059	609.92
64.3203	605.73
64.3348	642.40
64.3492	610.70
64.3637	611.20
64.3781	620.26
64.3925	582.84
64.4070	595.30
64.4214	600.25
64.4359	598.47
64.4503	610.41
64.4647	647.46
64.4792	626.00
64.4936	618.91
64.5081	612.55
64.5225	633.25
64.5369	640.60
64.5514	610.80
64.5658	647.25
64.5803	608.59
64.5947	641.23
64.6091	670.58
64.6236	631.61
64.6380	608.15
64.6525	630.52
64.6669	660.13
64.6813	644.65
64.6958	662.15
64.7102	670.29
64.7247	664.15
64.7391	665.82
64.7535	706.18
64.7680	686.67
64.7824	726.07
64.7969	715.06
64.8113	754.03
64.8257	769.43
64.8402	791.26
64.8546	811.62
64.8691	799.10
64.8835	794.49
64.8979	836.44
64.9124	876.84
64.9268	874.94
64.9413	863.24
64.9557	925.49
64.9701	969.98
64.9846	1055.67
64.9990	1097.70
65.0135	1229.56
65.0279	1438.51
65.0423	1625.18
65.0568	2022.20
65.0712	2494.59
65.0857	3249.82
65.1001	4207.76
65.1145	5624.43
65.1290	7449.60
65.1434	9113.30
65.1579	10667.05
65.1723	11423.44
65.1867	11223.92
65.2012	10136.65
65.2156	8559.07
65.2301	6657.82
65.2445	5364.45
65.2589	4469.97
65.2734	4151.42
65.2878	4210.53
65.3023	4717.60
65.3167	5481.28
65.3311	6312.89
65.3456	6872.91
65.3600	6915.73
65.3745	6413.18
65.3889	5415.11
65.4033	4514.85
65.4178	3507.10
65.4322	2694.20
65.4467	2059.33
65.4611	1696.69
65.4755	1494.23
65.4900	1311.69
65.5044	1117.67
65.5189	981.60
65.5333	945.62
65.5477	904.07
65.5622	855.32
65.5766	876.87
65.5911	819.65
65.6055	774.90
65.6199	772.97
65.6344	748.73
65.6488	772.03
65.6633	718.03
65.6777	721.52
65.6921	704.23
65.7066	727.23
65.7210	716.55
65.7355	701.82
65.7499	668.30
65.7643	702.31
65.7788	685.01
65.7932	671.99
65.8077	650.73
65.8221	600.35
65.8365	660.01
65.8510	639.42
65.8654	642.80
65.8799	650.48
65.8943	665.06
65.9087	661.71
65.9232	689.67
65.9376	659.10
65.9521	618.26
65.9665	614.30
65.9809	634.57
65.9954	654.39
66.0098	629.28
66.0243	638.40
66.0387	632.92
66.0531	594.52
66.0676	629.01
66.0820	614.02
66.0965	632.38
66.1109	642.36
66.1253	642.87
66.1398	596.88
66.1542	591.31
66.1687	635.42
66.1831	602.64
66.1975	605.84
66.2120	582.09
66.2264	597.80
66.2409	597.76
66.2553	603.63
66.2697	633.56
66.2842	652.46
66.2986	588.42
66.3131	583.43
66.3275	653.23
66.3419	645.89
66.3564	600.68
66.3708	600.90
66.3853	596.66
66.3997	594.04
66.4141	623.81
66.4286	645.05
66.4430	602.12
66.4575	595.87
66.4719	578.68
66.4863	580.08
66.5008	616.55
66.5152	597.24
66.5297	572.19
66.5441	565.60
66.5585	591.73
66.5730	599.23
66.5874	600.53
66.6019	588.14
66.6163	593.66
66.6307	585.86
66.6452	557.97
66.6596	575.92
66.6741	573.68
66.6885	571.27
66.7029	602.08
66.7174	583.25
66.7318	585.93
66.7463	581.20
66.7607	579.43
66.7751	584.51
66.7896	614.96
66.8040	625.50
66.8185	580.67
66.8329	577.84
66.8473	587.46
66.8618	606.49
66.8762	591.75
66.8907	593.58
66.9051	614.16
66.9195	584.62
66.9340	584.71
66.9484	597.93
66.9629	557.34
66.9773	563.10
66.9917	587.89
67.0062	583.57
67.0206	587.53
67.0351	579.42
67.0495	585.14
67.0639	602.98
67.0784	615.49
67.0928	608.83
67.1073	595.16
67.1217	602.34
67.1361	586.00
67.1506	587.79
67.1650	649.76
67.1795	608.09
67.1939	551.17
67.2083	579.44
67.2228	565.77
67.2372	540.61
67.2517	568.54
67.2661	579.64
67.2805	596.01
67.2950	562.57
67.3094	556.65
67.3239	590.31
67.3383	571.14
67.3527	564.17
67.3672	571.86
67.3816	589.09
67.3961	563.41
67.4105	590.99
67.4250	594.45
67.4394	569.76
67.4538	573.60
67.4683	581.49
67.4827	572.75
67.4972	582.77
67.5116	533.80
67.5260	576.43
67.5405	596.78
67.5549	585.31
67.5694	574.74
67.5838	606.03
67.5982	592.38
67.6127	565.95
67.6271	567.50
67.6416	581.89
67.6560	585.50
67.6704	600.44
67.6849	568.24
67.6993	536.56
67.7138	581.78
67.7282	587.42
67.7426	621.92
67.7571	552.92
67.7715	551.16
67.7860	601.50
67.8004	571.93
67.8148	593.30
67.8293	579.33
67.8437	603.24
67.8582	569.27
67.8726	563.24
67.8870	578.64
67.9015	607.09
67.9159	592.24
67.9304	524.18
67.9448	579.31
67.9592	595.58
67.9737	606.21
67.9881	586.56
68.0026	588.18
68.0170	559.75
68.0314	601.58
68.0459	580.38
68.0603	579.71
68.0748	573.10
68.0892	577.62
68.1036	575.49
68.1181	602.84
68.1325	564.10
68.1470	541.96
68.1614	561.21
68.1758	567.15
68.1903	555.26
68.2047	576.44
68.2192	592.01
68.2336	563.83
68.2480	582.54
68.2625	589.39
68.2769	595.14
68.2914	633.52
68.3058	579.99
68.3202	545.25
68.3347	585.86
68.3491	586.07
68.3636	554.38
68.3780	569.15
68.3924	563.63
68.4069	543.22
68.4213	521.48
68.4358	583.04
68.4502	600.90
68.4646	583.09
68.4791	602.54
68.4935	576.73
68.5080	576.01
68.5224	574.39
68.5368	559.39
68.5513	503.57
68.5657	517.77
68.5802	562.04
68.5946	582.15
68.6090	594.51
68.6235	573.40
68.6379	581.36
68.6524	556.95
68.6668	550.26
68.6812	555.07
68.6957	548.52
68.7101	582.81
68.7246	571.77
68.7390	591.15
68.7534	580.56
68.7679	551.77
68.7823	573.60
68.7968	539.84
68.8112	589.13
68.8256	567.25
68.8401	559.08
68.8545	578.12
68.8690	518.38
68.8834	532.61
68.8978	555.65
68.9123	585.04
68.9267	541.29
68.9412	576.31
68.9556	536.47
68.9700	561.63
68.9845	553.55
68.9989	563.58
69.0134	549.58
69.0278	611.09
69.0422	603.92
69.0567	586.89
69.0711	539.12
69.0856	601.17
69.1000	554.92
69.1144	595.20
69.1289	550.36
69.1433	550.37
69.1578	495.30
69.1722	550.43
69.1866	594.84
69.2011	572.97
69.2155	597.06
69.2300	576.53
69.2444	573.33
69.2588	546.06
69.2733	529.35
69.2877	580.24
69.3022	564.56
69.3166	573.08
69.3310	619.32
69.3455	596.78
69.3599	539.62
69.3744	593.01
69.3888	586.32
69.4032	514.46
69.4177	586.04
69.4321	600.30
69.4466	565.41
69.4610	571.15
69.4754	606.35
69.4899	561.58
69.5043	576.21
69.5188	555.64
69.5332	566.92
69.5476	545.64
69.5621	583.77
69.5765	588.15
69.5910	613.91
69.6054	552.38
69.6198	560.96
69.6343	560.31
69.6487	531.22
69.6632	564.37
69.6776	548.48
69.6920	549.74
69.7065	576.65
69.7209	628.24
69.7354	548.68
69.7498	582.38
69.7642	550.46
69.7787	555.27
69.7931	578.49
69.8076	637.90
69.8220	545.58
69.8364	590.72
69.8509	582.39
69.8653	608.46
69.8798	593.41
69.8942	551.18
69.9086	568.00
69.9231	545.72
69.9375	558.53
69.9520	602.90
69.9664	562.70
69.9808	593.79
69.9953	572.54
70.0097	585.08
70.0242	593.71
70.0386	585.68
70.0530	639.63
70.0675	612.44
70.0819	598.28
70.0964	615.84
70.1108	595.45
70.1252	592.38
70.1397	590.20
70.1541	591.31
70.1686	580.24
70.1830	550.44
70.1974	569.99
70.2119	582.58
70.2263	585.66
70.2408	531.83
70.2552	566.07
70.2696	561.27
70.2841	554.49
70.2985	571.88
70.3130	557.68
70.3274	612.44
70.3418	588.54
70.3563	585.58
70.3707	550.51
70.3852	567.30
70.3996	600.95
70.4140	529.36
70.4285	603.81
70.4429	585.01
70.4574	578.03
70.4718	541.96
70.4862	567.95
70.5007	604.82
70.5151	601.04
70.5296	584.67
70.5440	563.20
70.5584	540.63
70.5729	556.53
70.5873	574.21
70.6018	569.82
70.6162	595.85
70.6306	571.28
70.6451	593.09
70.6595	573.20
70.6740	550.71
70.6884	542.96
70.7028	553.98
70.7173	584.73
70.7317	591.91
70.7462	587.39
70.7606	530.18
70.7750	584.48
70.7895	600.85
70.8039	618.43
70.8184	611.05
70.8328	621.87
70.8472	584.68
70.8617	546.71
70.8761	557.21
70.8906	556.00
70.9050	619.99
70.9194	631.24
70.9339	586.93
70.9483	605.04
70.9628	572.73
70.9772	556.92
70.9916	555.95
71.0061	531.67
71.0205	553.54
71.0350	581.39
71.0494	530.05
71.0638	571.38
71.0783	610.29
71.0927	580.17
71.1072	577.67
71.1216	555.13
71.1361	537.72
71.1505	519.97
71.1649	572.75
71.1794	564.20
71.1938	564.33
71.2083	570.73
71.2227	576.01
71.2371	576.06
71.2516	533.37
71.2660	538.23
71.2805	581.17
71.2949	608.80
71.3093	618.00
71.3238	589.31
71.3382	633.96
71.3527	553.74
71.3671	540.71
71.3815	564.49
71.3960	573.15
71.4104	579.91
71.4249	606.10
71.4393	619.08
71.4537	528.18
71.4682	590.17
71.4826	641.04
71.4971	574.44
71.5115	592.67
71.5259	576.92
71.5404	525.80
71.5548	605.48
71.5693	581.28
71.5837	575.86
71.5981	569.76
71.6126	533.17
71.6270	574.54
71.6415	619.03
71.6559	582.04
71.6703	523.75
71.6848	535.05
71.6992	612.52
71.7137	610.77
71.7281	570.67
71.7425	554.65
71.7570	567.15
71.7714	565.01
71.7859	516.18
71.8003	633.74
71.8147	616.03
71.8292	550.59
71.8436	549.51
71.8581	544.85
71.8725	553.11
71.8869	560.34
71.9014	592.21
71.9158	566.55
71.9303	520.73
71.9447	577.41
71.9591	605.03
71.9736	632.41
71.9880	631.10
72.0025	621.03
72.0169	531.55
72.0313	542.21
72.0458	520.22
72.0602	450.42
72.0747	440.92
72.0891	526.05
72.1035	609.37
72.1180	576.79
72.1324	490.64
72.1469	588.54
72.1613	676.71
72.1757	557.69
72.1902	553.66
72.2046	627.86
72.2191	644.58
72.2335	676.14
72.2479	686.46
72.2624	585.19
72.2768	553.65
72.2913	520.96
72.3057	612.62
72.3201	745.25
72.3346	692.10
72.3490	595.06
72.3635	572.03
72.3779	573.45
72.3923	572.29
72.4068	571.89
72.4212	576.44
72.4357	649.60
72.4501	595.00
72.4645	589.90
72.4790	602.69
72.4934	541.03
72.5079	612.59
72.5223	601.53
72.5367	527.15
72.5512	553.16
72.5656	574.40
72.5801	575.61
72.5945	543.29
72.6089	590.19
72.6234	643.55
72.6378	629.22
72.6523	537.35
72.6667	555.50
72.6811	556.76
72.6956	570.60
72.7100	559.82
72.7245	580.48
72.7389	587.84
72.7533	467.79
72.7678	528.26
72.7822	654.34
72.7967	620.70
72.8111	607.67
72.8255	605.55
72.8400	555.50
72.8544	535.66
72.8689	516.53
72.8833	575.04