2022.09.19 19:37:17
Îáðàçåö: ß÷åéêà LCoV 16-09-2022
Lambda1 = 1.54060
Lambda2 = 1.54439
Lambdam = 1.54186
R = 0.497
2Theta	I

line¹ 0 ;repeat¹ 0
22.1120	624.16
22.1264	525.40
22.1409	629.90
22.1553	621.55
22.1697	601.09
22.1842	645.31
22.1986	572.41
22.2131	571.64
22.2275	547.87
22.2419	584.33
22.2564	665.18
22.2708	680.98
22.2853	726.79
22.2997	587.39
22.3141	602.65
22.3286	559.78
22.3430	579.31
22.3575	545.88
22.3719	484.27
22.3863	533.30
22.4008	532.16
22.4152	574.37
22.4297	660.97
22.4441	634.90
22.4585	585.08
22.4730	548.21
22.4874	641.78
22.5019	653.35
22.5163	629.09
22.5307	644.23
22.5452	553.43
22.5596	498.62
22.5741	557.84
22.5885	563.91
22.6029	583.87
22.6174	572.69
22.6318	520.60
22.6463	553.19
22.6607	586.51
22.6751	502.34
22.6896	537.59
22.7040	535.06
22.7185	541.65
22.7329	534.15
22.7473	574.35
22.7618	488.31
22.7762	500.58
22.7907	663.74
22.8051	573.00
22.8195	491.87
22.8340	543.88
22.8484	589.06
22.8629	520.72
22.8773	577.83
22.8917	526.24
22.9062	544.90
22.9206	519.03
22.9351	514.65
22.9495	522.09
22.9639	492.77
22.9784	551.08
22.9928	484.36
23.0073	522.90
23.0217	541.58
23.0361	456.54
23.0506	498.20
23.0650	481.20
23.0795	614.24
23.0939	571.84
23.1083	532.30
23.1228	554.78
23.1372	572.67
23.1517	484.49
23.1661	625.01
23.1806	597.01
23.1950	541.88
23.2094	522.80
23.2239	574.61
23.2383	491.44
23.2528	541.06
23.2672	536.24
23.2816	522.77
23.2961	467.05
23.3105	521.41
23.3250	508.69
23.3394	570.09
23.3538	602.96
23.3683	584.02
23.3827	563.43
23.3972	508.12
23.4116	533.86
23.4260	546.69
23.4405	551.91
23.4549	466.96
23.4694	575.63
23.4838	551.70
23.4982	514.50
23.5127	579.17
23.5271	592.45
23.5416	566.47
23.5560	635.52
23.5704	589.84
23.5849	524.00
23.5993	576.15
23.6138	565.18
23.6282	558.45
23.6426	556.11
23.6571	563.76
23.6715	538.04
23.6860	568.37
23.7004	557.11
23.7148	520.98
23.7293	501.77
23.7437	549.33
23.7582	560.70
23.7726	549.46
23.7870	508.93
23.8015	510.74
23.8159	620.92
23.8304	560.27
23.8448	549.44
23.8592	568.20
23.8737	577.95
23.8881	513.98
23.9026	628.11
23.9170	534.02
23.9314	499.80
23.9459	538.32
23.9603	585.95
23.9748	572.08
23.9892	546.46
24.0036	520.96
24.0181	510.45
24.0325	549.21
24.0470	502.21
24.0614	596.23
24.0758	534.84
24.0903	567.46
24.1047	519.08
24.1192	536.87
24.1336	598.59
24.1480	563.98
24.1625	611.19
24.1769	574.66
24.1914	557.53
24.2058	499.17
24.2202	559.03
24.2347	662.07
24.2491	645.31
24.2636	587.63
24.2780	609.59
24.2924	593.71
24.3069	596.92
24.3213	554.03
24.3358	588.16
24.3502	607.20
24.3646	551.90
24.3791	550.26
24.3935	529.60
24.4080	554.20
24.4224	567.81
24.4368	612.14
24.4513	544.54
24.4657	542.71
24.4802	616.41
24.4946	540.26
24.5090	565.64
24.5235	553.53
24.5379	524.00
24.5524	528.26
24.5668	546.31
24.5812	527.53
24.5957	558.75
24.6101	555.97
24.6246	593.62
24.6390	561.42
24.6534	542.16
24.6679	555.31
24.6823	543.75
24.6968	574.80
24.7112	541.13
24.7256	531.72
24.7401	481.79
24.7545	506.47
24.7690	583.44
24.7834	501.29
24.7978	543.95
24.8123	486.16
24.8267	581.29
24.8412	549.12
24.8556	543.45
24.8700	563.49
24.8845	536.24
24.8989	519.16
24.9134	534.39
24.9278	490.93
24.9422	457.97
24.9567	513.71
24.9711	514.47
24.9856	604.12
25.0000	525.49
25.0144	513.62
25.0289	518.03
25.0433	554.31
25.0578	581.21
25.0722	507.45
25.0866	514.44
25.1011	476.40
25.1155	541.29
25.1300	573.98
25.1444	512.09
25.1588	573.67
25.1733	576.66
25.1877	514.86
25.2022	523.73
25.2166	584.15
25.2310	544.18
25.2455	539.31
25.2599	569.35
25.2744	510.79
25.2888	552.75
25.3032	555.90
25.3177	516.81
25.3321	559.11
25.3466	563.66
25.3610	525.90
25.3754	518.37
25.3899	538.03
25.4043	528.31
25.4188	535.89
25.4332	517.22
25.4476	503.14
25.4621	522.82
25.4765	554.57
25.4910	557.76
25.5054	561.39
25.5198	523.89
25.5343	501.41
25.5487	510.99
25.5632	549.22
25.5776	564.73
25.5920	535.78
25.6065	542.93
25.6209	498.99
25.6354	525.17
25.6498	546.26
25.6642	512.70
25.6787	484.38
25.6931	503.91
25.7076	523.18
25.7220	553.88
25.7364	561.63
25.7509	572.87
25.7653	540.08
25.7798	518.03
25.7942	517.06
25.8086	534.32
25.8231	540.92
25.8375	524.48
25.8520	503.24
25.8664	590.51
25.8808	577.83
25.8953	525.40
25.9097	524.46
25.9242	544.17
25.9386	586.64
25.9530	584.97
25.9675	530.77
25.9819	550.26
25.9964	540.24
26.0108	521.76
26.0252	518.21
26.0397	572.43
26.0541	516.35
26.0686	543.77
26.0830	527.14
26.0974	538.77
26.1119	504.98
26.1263	561.00
26.1408	523.56
26.1552	500.87
26.1696	529.18
26.1841	520.93
26.1985	539.18
26.2130	517.22
26.2274	556.78
26.2418	534.49
26.2563	500.24
26.2707	519.57
26.2852	573.74
26.2996	564.23
26.3140	563.45
26.3285	531.02
26.3429	527.31
26.3574	510.63
26.3718	517.01
26.3862	518.15
26.4007	503.05
26.4151	534.33
26.4296	522.64
26.4440	523.09
26.4584	538.61
26.4729	535.64
26.4873	536.92
26.5018	549.51
26.5162	561.80
26.5306	562.10
26.5451	540.22
26.5595	523.72
26.5740	533.50
26.5884	575.44
26.6028	589.21
26.6173	515.65
26.6317	510.74
26.6462	519.59
26.6606	519.73
26.6750	511.58
26.6895	541.48
26.7039	541.90
26.7184	537.19
26.7328	515.94
26.7472	518.92
26.7617	535.01
26.7761	516.63
26.7906	552.16
26.8050	537.59
26.8194	538.59
26.8339	520.70
26.8483	552.72
26.8628	535.49
26.8772	520.43
26.8917	524.87
26.9061	511.69
26.9205	543.97
26.9350	510.40
26.9494	497.03
26.9639	532.06
26.9783	523.31
26.9927	521.02
27.0072	529.88
27.0216	539.42
27.0361	510.78
27.0505	511.66
27.0649	503.33
27.0794	509.67
27.0938	507.58
27.1083	523.58
27.1227	534.36
27.1371	522.45
27.1516	500.88
27.1660	512.22
27.1805	568.36
27.1949	550.01
27.2093	535.51
27.2238	501.98
27.2382	528.02
27.2527	529.82
27.2671	512.02
27.2815	541.31
27.2960	473.99
27.3104	496.95
27.3249	503.50
27.3393	527.20
27.3537	541.43
27.3682	529.04
27.3826	517.68
27.3971	501.16
27.4115	493.38
27.4259	517.38
27.4404	537.77
27.4548	483.48
27.4693	512.97
27.4837	527.31
27.4981	491.15
27.5126	497.87
27.5270	508.03
27.5415	547.29
27.5559	521.83
27.5703	502.94
27.5848	513.74
27.5992	513.73
27.6137	513.60
27.6281	533.47
27.6425	562.41
27.6570	550.66
27.6714	527.31
27.6859	525.03
27.7003	537.23
27.7147	525.46
27.7292	517.52
27.7436	522.55
27.7581	502.70
27.7725	512.67
27.7869	502.46
27.8014	517.44
27.8158	538.32
27.8303	508.99
27.8447	530.12
27.8591	515.36
27.8736	524.31
27.8880	503.50
27.9025	518.12
27.9169	477.73
27.9313	512.11
27.9458	513.55
27.9602	510.31
27.9747	500.07
27.9891	483.96
28.0035	538.76
28.0180	546.48
28.0324	523.62
28.0469	528.17
28.0613	548.49
28.0757	526.36
28.0902	548.61
28.1046	523.52
28.1191	508.08
28.1335	525.41
28.1479	473.14
28.1624	479.72
28.1768	540.71
28.1913	487.08
28.2057	494.28
28.2201	533.19
28.2346	530.76
28.2490	532.94
28.2635	495.32
28.2779	505.42
28.2923	534.87
28.3068	521.76
28.3212	526.13
28.3357	518.42
28.3501	488.03
28.3645	492.51
28.3790	504.68
28.3934	480.65
28.4079	518.78
28.4223	526.76
28.4367	531.38
28.4512	486.63
28.4656	560.75
28.4801	531.82
28.4945	498.70
28.5089	513.03
28.5234	560.80
28.5378	528.31
28.5523	490.60
28.5667	481.82
28.5811	521.86
28.5956	557.94
28.6100	544.69
28.6245	524.88
28.6389	513.20
28.6533	493.68
28.6678	501.96
28.6822	499.21
28.6967	529.88
28.7111	519.65
28.7255	534.36
28.7400	513.27
28.7544	520.71
28.7689	507.89
28.7833	472.50
28.7977	499.14
28.8122	530.42
28.8266	497.73
28.8411	537.51
28.8555	505.94
28.8699	528.96
28.8844	506.81
28.8988	495.13
28.9133	544.45
28.9277	546.40
28.9421	507.96
28.9566	468.92
28.9710	490.65
28.9855	507.51
28.9999	496.18
29.0143	545.43
29.0288	520.16
29.0432	520.03
29.0577	524.49
29.0721	545.95
29.0865	498.78
29.1010	522.47
29.1154	512.36
29.1299	477.65
29.1443	478.95
29.1587	491.52
29.1732	537.57
29.1876	516.68
29.2021	489.15
29.2165	512.97
29.2309	491.11
29.2454	492.42
29.2598	464.52
29.2743	512.80
29.2887	495.14
29.3031	507.89
29.3176	503.88
29.3320	536.89
29.3465	507.84
29.3609	539.06
29.3753	514.91
29.3898	536.73
29.4042	510.66
29.4187	503.46
29.4331	546.84
29.4475	487.48
29.4620	484.41
29.4764	478.64
29.4909	515.75
29.5053	471.84
29.5197	510.47
29.5342	520.77
29.5486	504.72
29.5631	510.46
29.5775	527.04
29.5919	544.95
29.6064	517.39
29.6208	489.81
29.6353	492.71
29.6497	512.56
29.6641	532.29
29.6786	493.24
29.6930	485.04
29.7075	505.14
29.7219	474.46
29.7363	506.49
29.7508	499.81
29.7652	516.39
29.7797	524.04
29.7941	526.30
29.8085	509.16
29.8230	499.31
29.8374	505.70
29.8519	496.12
29.8663	525.13
29.8807	499.18
29.8952	499.51
29.9096	536.01
29.9241	511.39
29.9385	493.23
29.9529	496.79
29.9674	518.71
29.9818	492.09
29.9963	467.51
30.0107	498.18
30.0251	518.30
30.0396	497.19
30.0540	519.11
30.0685	503.43
30.0829	527.89
30.0973	510.41
30.1118	474.39
30.1262	505.43
30.1407	516.84
30.1551	511.47
30.1695	507.77
30.1840	490.39
30.1984	498.63
30.2129	494.85
30.2273	501.81
30.2417	531.91
30.2562	516.08
30.2706	508.05
30.2851	497.75
30.2995	523.72
30.3139	511.14
30.3284	511.44
30.3428	543.22
30.3573	544.21
30.3717	508.58
30.3861	508.56
30.4006	533.27
30.4150	510.08
30.4295	544.72
30.4439	509.19
30.4583	539.42
30.4728	555.03
30.4872	502.31
30.5017	518.92
30.5161	526.41
30.5305	542.38
30.5450	594.00
30.5594	592.43
30.5739	581.30
30.5883	641.99
30.6028	686.49
30.6172	706.06
30.6316	745.25
30.6461	720.96
30.6605	714.52
30.6750	681.79
30.6894	696.12
30.7038	707.92
30.7183	640.86
30.7327	646.32
30.7472	624.90
30.7616	622.23
30.7760	600.19
30.7905	563.86
30.8049	567.50
30.8194	562.19
30.8338	542.77
30.8482	555.34
30.8627	540.78
30.8771	541.53
30.8916	514.62
30.9060	528.90
30.9204	527.13
30.9349	512.71
30.9493	529.42
30.9638	496.93
30.9782	515.66
30.9926	529.98
31.0071	531.03
31.0215	533.47
31.0360	529.96
31.0504	512.43
31.0648	497.27
31.0793	520.47
31.0937	520.82
31.1082	488.49
31.1226	495.18
31.1370	476.79
31.1515	464.09
31.1659	486.69
31.1804	492.09
31.1948	494.68
31.2092	510.41
31.2237	497.86
31.2381	512.45
31.2526	528.39
31.2670	527.90
31.2814	532.82
31.2959	525.32
31.3103	564.98
31.3248	550.09
31.3392	528.80
31.3536	515.10
31.3681	511.30
31.3825	507.24
31.3970	542.46
31.4114	509.90
31.4258	545.04
31.4403	536.15
31.4547	505.21
31.4692	501.47
31.4836	476.41
31.4980	518.19
31.5125	517.85
31.5269	466.55
31.5414	500.55
31.5558	537.71
31.5702	496.69
31.5847	455.12
31.5991	515.44
31.6136	518.65
31.6280	491.29
31.6424	495.14
31.6569	503.08
31.6713	493.37
31.6858	520.20
31.7002	486.65
31.7146	501.38
31.7291	472.48
31.7435	527.91
31.7580	506.43
31.7724	506.69
31.7868	464.45
31.8013	453.06
31.8157	517.67
31.8302	523.86
31.8446	472.98
31.8590	500.12
31.8735	501.15
31.8879	473.30
31.9024	506.66
31.9168	500.62
31.9312	500.94
31.9457	488.72
31.9601	505.14
31.9746	484.75
31.9890	542.70
32.0034	505.74
32.0179	488.82
32.0323	520.49
32.0468	510.90
32.0612	499.40
32.0756	537.89
32.0901	529.45
32.1045	494.41
32.1190	515.03
32.1334	512.30
32.1478	483.98
32.1623	517.04
32.1767	500.60
32.1912	464.87
32.2056	475.31
32.2200	505.84
32.2345	516.13
32.2489	494.32
32.2634	531.27
32.2778	484.50
32.2922	507.74
32.3067	478.47
32.3211	519.44
32.3356	517.60
32.3500	498.22
32.3644	492.03
32.3789	487.53
32.3933	492.07
32.4078	500.92
32.4222	510.10
32.4366	516.44
32.4511	500.97
32.4655	517.14
32.4800	523.20
32.4944	508.30
32.5088	521.32
32.5233	523.41
32.5377	507.71
32.5522	488.15
32.5666	503.24
32.5810	484.04
32.5955	517.52
32.6099	508.91
32.6244	503.89
32.6388	518.15
32.6532	517.67
32.6677	476.72
32.6821	479.39
32.6966	510.64
32.7110	511.66
32.7254	484.03
32.7399	529.10
32.7543	519.34
32.7688	493.80
32.7832	513.44
32.7976	496.58
32.8121	495.45
32.8265	505.61
32.8410	510.36
32.8554	490.18
32.8698	488.60
32.8843	488.05
32.8987	508.92
32.9132	500.06
32.9276	512.63
32.9420	508.68
32.9565	500.48
32.9709	489.25
32.9854	500.76
32.9998	497.67
33.0142	505.11
33.0287	480.85
33.0431	505.85
33.0576	538.99
33.0720	460.77
33.0864	471.70
33.1009	528.75
33.1153	486.51
33.1298	486.19
33.1442	487.53
33.1586	480.68
33.1731	508.86
33.1875	533.35
33.2020	509.89
33.2164	494.96
33.2308	478.63
33.2453	511.32
33.2597	520.63
33.2742	506.72
33.2886	467.06
33.3030	492.03
33.3175	487.16
33.3319	514.89
33.3464	491.86
33.3608	505.06
33.3752	499.23
33.3897	510.87
33.4041	500.84
33.4186	548.84
33.4330	480.73
33.4474	516.71
33.4619	482.73
33.4763	506.60
33.4908	483.15
33.5052	534.47
33.5196	471.62
33.5341	481.72
33.5485	505.84
33.5630	531.69
33.5774	465.85
33.5918	497.93
33.6063	503.84
33.6207	499.93
33.6352	479.04
33.6496	518.70
33.6640	506.67
33.6785	502.00
33.6929	507.06
33.7074	523.74
33.7218	497.49
33.7362	514.46
33.7507	534.41
33.7651	511.87
33.7796	489.78
33.7940	494.54
33.8084	488.75
33.8229	489.10
33.8373	514.78
33.8518	509.74
33.8662	544.67
33.8806	496.07
33.8951	510.91
33.9095	488.51
33.9240	510.51
33.9384	513.94
33.9528	507.14
33.9673	506.19
33.9817	500.17
33.9962	496.89
34.0106	491.27
34.0250	532.20
34.0395	536.40
34.0539	532.85
34.0684	564.38
34.0828	494.93
34.0972	473.11
34.1117	489.19
34.1261	523.06
34.1406	486.11
34.1550	480.60
34.1694	506.88
34.1839	523.02
34.1983	494.44
34.2128	516.54
34.2272	520.81
34.2417	496.39
34.2561	520.08
34.2705	531.15
34.2850	498.11
34.2994	463.03
34.3139	509.25
34.3283	475.32
34.3427	504.11
34.3572	500.09
34.3716	506.39
34.3861	483.23
34.4005	465.10
34.4149	487.61
34.4294	547.19
34.4438	527.84
34.4583	483.43
34.4727	475.08
34.4871	502.59
34.5016	502.74
34.5160	483.54
34.5305	497.80
34.5449	490.87
34.5593	475.95
34.5738	471.73
34.5882	504.67
34.6027	489.90
34.6171	476.04
34.6315	499.58
34.6460	514.69
34.6604	493.29
34.6749	496.89
34.6893	515.62
34.7037	533.35
34.7182	514.77
34.7326	496.68
34.7471	500.13
34.7615	501.86
34.7759	481.05
34.7904	481.34
34.8048	520.62
34.8193	526.13
34.8337	496.57
34.8481	480.82
34.8626	511.10
34.8770	517.53
34.8915	519.48
34.9059	523.06
34.9203	529.95
34.9348	535.73
34.9492	495.26
34.9637	485.56
34.9781	520.22
34.9925	512.61
35.0070	513.62
35.0214	536.61
35.0359	516.81
35.0503	499.02
35.0647	500.50
35.0792	504.33
35.0936	497.70
35.1081	510.01
35.1225	544.41
35.1369	505.63
35.1514	492.36
35.1658	489.24
35.1803	524.55
35.1947	533.60
35.2091	479.07
35.2236	471.92
35.2380	502.60
35.2525	515.66
35.2669	524.26
35.2813	492.75
35.2958	492.31
35.3102	499.86
35.3247	511.26
35.3391	542.38
35.3535	541.99
35.3680	505.40
35.3824	512.81
35.3969	514.58
35.4113	486.37
35.4257	503.10
35.4402	510.39
35.4546	512.33
35.4691	550.34
35.4835	539.61
35.4979	522.94
35.5124	524.80
35.5268	525.84
35.5413	534.95
35.5557	499.33
35.5701	504.39
35.5846	520.55
35.5990	519.08
35.6135	524.72
35.6279	512.15
35.6423	523.45
35.6568	536.89
35.6712	525.93
35.6857	583.53
35.7001	638.61
35.7145	721.07
35.7290	687.92
35.7434	615.09
35.7579	599.87
35.7723	594.49
35.7867	637.53
35.8012	738.96
35.8156	726.18
35.8301	681.41
35.8445	675.35
35.8589	682.48
35.8734	758.37
35.8878	910.46
35.9023	1033.03
35.9167	1059.57
35.9311	1156.60
35.9456	1582.07
35.9600	2066.41
35.9745	1982.67
35.9889	2075.33
36.0033	2575.73
36.0178	2985.32
36.0322	3172.55
36.0467	2510.16
36.0611	2178.15
36.0755	2045.62
36.0900	2154.03
36.1044	1784.03
36.1189	1638.25
36.1333	1594.76
36.1477	1408.32
36.1622	1270.28
36.1766	1182.16
36.1911	1018.38
36.2055	969.91
36.2199	907.66
36.2344	866.37
36.2488	761.36
36.2633	663.14
36.2777	623.93
36.2921	608.13
36.3066	604.21
36.3210	613.15
36.3355	606.74
36.3499	578.18
36.3643	586.48
36.3788	534.23
36.3932	537.94
36.4077	530.05
36.4221	512.36
36.4365	531.26
36.4510	518.38
36.4654	548.19
36.4799	534.81
36.4943	560.53
36.5087	533.38
36.5232	528.16
36.5376	522.73
36.5521	527.19
36.5665	525.52
36.5809	540.14
36.5954	510.97
36.6098	511.29
36.6243	498.32
36.6387	527.59
36.6531	513.74
36.6676	493.99
36.6820	541.77
36.6965	536.15
36.7109	561.24
36.7253	517.67
36.7398	522.54
36.7542	531.41
36.7687	556.42
36.7831	563.11
36.7975	543.17
36.8120	592.87
36.8264	562.20
36.8409	594.64
36.8553	563.98
36.8697	595.39
36.8842	548.83
36.8986	611.88
36.9131	564.98
36.9275	559.08
36.9419	582.11
36.9564	575.89
36.9708	570.17
36.9853	557.39
36.9997	564.42
37.0141	550.66
37.0286	511.23
37.0430	509.19
37.0575	506.02
37.0719	538.05
37.0863	531.49
37.1008	573.10
37.1152	540.75
37.1297	525.65
37.1441	497.61
37.1585	505.00
37.1730	526.59
37.1874	495.09
37.2019	495.23
37.2163	503.94
37.2307	500.67
37.2452	478.25
37.2596	497.02
37.2741	499.05
37.2885	486.30
37.3029	477.10
37.3174	508.88
37.3318	510.46
37.3463	494.10
37.3607	514.02
37.3751	502.91
37.3896	505.13
37.4040	493.63
37.4185	495.03
37.4329	459.23
37.4473	510.43
37.4618	486.94
37.4762	466.97
37.4907	517.78
37.5051	501.49
37.5195	522.23
37.5340	497.60
37.5484	522.80
37.5629	506.39
37.5773	501.29
37.5917	535.10
37.6062	476.69
37.6206	502.38
37.6351	530.34
37.6495	537.30
37.6639	507.36
37.6784	516.30
37.6928	494.49
37.7073	481.99
37.7217	512.08
37.7361	507.64
37.7506	507.08
37.7650	503.02
37.7795	515.96
37.7939	504.49
37.8083	513.46
37.8228	508.91
37.8372	524.95
37.8517	537.59
37.8661	532.32
37.8805	485.05
37.8950	508.03
37.9094	528.74
37.9239	496.56
37.9383	456.89
37.9528	488.92
37.9672	491.37
37.9816	479.45
37.9961	507.43
38.0105	496.92
38.0250	507.17
38.0394	487.00
38.0538	487.52
38.0683	517.00
38.0827	511.40
38.0972	473.48
38.1116	523.35
38.1260	497.18
38.1405	495.55
38.1549	476.41
38.1694	505.69
38.1838	517.28
38.1982	502.25
38.2127	499.28
38.2271	496.55
38.2416	502.17
38.2560	526.66
38.2704	484.29
38.2849	518.81
38.2993	517.99
38.3138	540.17
38.3282	511.90
38.3426	525.24
38.3571	543.23
38.3715	529.79
38.3860	513.56
38.4004	519.93
38.4148	532.05
38.4293	561.19
38.4437	558.23
38.4582	570.41
38.4726	612.03
38.4870	661.29
38.5015	728.85
38.5159	762.29
38.5304	801.54
38.5448	824.54
38.5592	794.16
38.5737	762.53
38.5881	713.04
38.6026	670.25
38.6170	661.48
38.6314	688.70
38.6459	680.13
38.6603	674.52
38.6748	629.89
38.6892	594.01
38.7036	609.28
38.7181	561.38
38.7325	540.45
38.7470	517.10
38.7614	513.06
38.7758	545.32
38.7903	535.20
38.8047	505.20
38.8192	474.53
38.8336	482.51
38.8480	500.15
38.8625	519.87
38.8769	484.96
38.8914	499.26
38.9058	511.68
38.9202	502.40
38.9347	522.45
38.9491	519.03
38.9636	503.28
38.9780	521.51
38.9924	469.37
39.0069	465.85
39.0213	518.12
39.0358	523.60
39.0502	503.47
39.0646	503.91
39.0791	528.48
39.0935	526.98
39.1080	480.25
39.1224	477.26
39.1368	503.77
39.1513	482.81
39.1657	488.44
39.1802	493.36
39.1946	504.03
39.2090	515.60
39.2235	511.66
39.2379	474.43
39.2524	515.17
39.2668	518.59
39.2812	500.15
39.2957	491.67
39.3101	498.70
39.3246	508.29
39.3390	524.35
39.3534	524.84
39.3679	497.89
39.3823	492.05
39.3968	530.85
39.4112	518.04
39.4256	512.59
39.4401	521.87
39.4545	475.06
39.4690	475.18
39.4834	494.33
39.4978	495.07
39.5123	537.06
39.5267	508.22
39.5412	507.82
39.5556	530.99
39.5700	518.37
39.5845	502.10
39.5989	506.12
39.6134	476.99
39.6278	507.46
39.6422	496.04
39.6567	479.70
39.6711	469.22
39.6856	477.36
39.7000	516.61
39.7144	498.33
39.7289	430.34
39.7433	481.70
39.7578	493.13
39.7722	484.94
39.7866	509.85
39.8011	478.48
39.8155	484.49
39.8300	474.41
39.8444	500.61
39.8588	482.82
39.8733	500.96
39.8877	474.58
39.9022	493.53
39.9166	453.02
39.9310	482.88
39.9455	489.43
39.9599	455.27
39.9744	478.08
39.9888	512.75
40.0032	509.79
40.0177	505.93
40.0321	485.74
40.0466	470.02
40.0610	494.52
40.0754	505.67
40.0899	484.08
40.1043	476.68
40.1188	487.59
40.1332	474.67
40.1476	492.38
40.1621	473.48
40.1765	491.25
40.1910	493.74
40.2054	480.27
40.2198	489.86
40.2343	474.90
40.2487	479.07
40.2632	476.90
40.2776	486.73
40.2920	488.72
40.3065	484.20
40.3209	468.94
40.3354	515.51
40.3498	514.49
40.3642	511.48
40.3787	507.21
40.3931	475.84
40.4076	475.53
40.4220	501.87
40.4364	517.49
40.4509	476.23
40.4653	517.27
40.4798	505.10
40.4942	489.66
40.5086	485.82
40.5231	487.80
40.5375	506.52
40.5520	453.41
40.5664	502.91
40.5808	493.62
40.5953	486.54
40.6097	513.86
40.6242	496.75
40.6386	522.84
40.6530	494.92
40.6675	506.94
40.6819	487.84
40.6964	485.86
40.7108	505.73
40.7252	513.59
40.7397	479.67
40.7541	490.46
40.7686	489.04
40.7830	513.58
40.7974	487.67
40.8119	517.11
40.8263	483.94
40.8408	509.23
40.8552	500.62
40.8696	546.47
40.8841	519.52
40.8985	493.78
40.9130	550.17
40.9274	502.16
40.9418	480.55
40.9563	529.57
40.9707	478.18
40.9852	509.16
40.9996	523.64
41.0140	489.72
41.0285	512.50
41.0429	504.26
41.0574	483.71
41.0718	463.28
41.0862	498.36
41.1007	538.37
41.1151	518.34
41.1296	490.59
41.1440	444.59
41.1584	464.99
41.1729	482.61
41.1873	510.41
41.2018	470.05
41.2162	500.72
41.2306	503.40
41.2451	500.74
41.2595	485.30
41.2740	490.95
41.2884	498.06
41.3028	532.71
41.3173	523.89
41.3317	503.25
41.3462	500.33
41.3606	487.83
41.3750	484.70
41.3895	511.14
41.4039	510.10
41.4184	529.57
41.4328	519.30
41.4472	493.76
41.4617	491.99
41.4761	514.28
41.4906	503.14
41.5050	483.68
41.5194	488.75
41.5339	481.00
41.5483	476.82
41.5628	486.38
41.5772	508.74
41.5916	486.33
41.6061	459.73
41.6205	478.78
41.6350	492.49
41.6494	490.71
41.6639	503.09
41.6783	478.31
41.6927	451.96
41.7072	517.42
41.7216	496.13
41.7361	438.41
41.7505	508.35
41.7649	489.84
41.7794	501.29
41.7938	535.67
41.8083	527.93
41.8227	476.60
41.8371	506.63
41.8516	512.80
41.8660	555.25
41.8805	548.57
41.8949	538.62
41.9093	557.11
41.9238	541.58
41.9382	555.11
41.9527	529.04
41.9671	506.85
41.9815	523.09
41.9960	554.54
42.0104	557.84
42.0249	538.19
42.0393	561.77
42.0537	578.40
42.0682	549.96
42.0826	552.76
42.0971	576.65
42.1115	572.03
42.1259	597.49
42.1404	591.26
42.1548	601.42
42.1693	642.04
42.1837	661.34
42.1981	716.13
42.2126	855.70
42.2270	1001.78
42.2415	1076.67
42.2559	1225.91
42.2703	1371.76
42.2848	1557.99
42.2992	1693.56
42.3137	1712.84
42.3281	1684.32
42.3425	1611.86
42.3570	1490.14
42.3714	1409.50
42.3859	1390.25
42.4003	1376.43
42.4147	1308.58
42.4292	1319.97
42.4436	1193.42
42.4581	1019.10
42.4725	967.26
42.4869	832.88
42.5014	784.61
42.5158	713.80
42.5303	651.99
42.5447	624.41
42.5591	598.32
42.5736	570.91
42.5880	569.75
42.6025	579.64
42.6169	579.96
42.6313	564.79
42.6458	526.23
42.6602	556.56
42.6747	562.01
42.6891	517.04
42.7035	550.36
42.7180	554.50
42.7324	539.53
42.7469	521.50
42.7613	514.39
42.7757	550.75
42.7902	525.71
42.8046	510.84
42.8191	572.81
42.8335	537.41
42.8479	520.87
42.8624	505.49
42.8768	517.14
42.8913	508.14
42.9057	533.56
42.9201	501.02
42.9346	485.20
42.9490	498.59
42.9635	519.39
42.9779	544.55
42.9923	507.55
43.0068	488.20
43.0212	536.46
43.0357	539.29
43.0501	538.48
43.0645	527.25
43.0790	468.43
43.0934	512.75
43.1079	543.78
43.1223	510.12
43.1367	500.97
43.1512	505.82
43.1656	517.90
43.1801	547.90
43.1945	509.84
43.2089	523.27
43.2234	537.29
43.2378	519.73
43.2523	499.70
43.2667	493.39
43.2811	545.05
43.2956	510.24
43.3100	504.79
43.3245	498.61
43.3389	515.34
43.3533	515.27
43.3678	528.09
43.3822	477.92
43.3967	522.29
43.4111	538.15
43.4255	541.69
43.4400	529.23
43.4544	483.32
43.4689	491.77
43.4833	487.95
43.4977	509.54
43.5122	521.11
43.5266	518.24
43.5411	489.32
43.5555	499.86
43.5699	522.55
43.5844	578.57
43.5988	533.59
43.6133	520.14
43.6277	530.48
43.6421	513.76
43.6566	557.33
43.6710	539.12
43.6855	534.57
43.6999	525.41
43.7143	527.49
43.7288	541.78
43.7432	554.63
43.7577	583.93
43.7721	609.71
43.7865	619.76
43.8010	588.64
43.8154	654.49
43.8299	610.48
43.8443	656.97
43.8587	640.89
43.8732	641.20
43.8876	611.65
43.9021	666.41
43.9165	623.63
43.9309	605.79
43.9454	635.23
43.9598	557.54
43.9743	542.94
43.9887	600.27
44.0031	550.84
44.0176	579.92
44.0320	567.24
44.0465	527.70
44.0609	541.21
44.0753	547.73
44.0898	530.82
44.1042	536.23
44.1187	527.92
44.1331	512.25
44.1475	499.79
44.1620	526.94
44.1764	487.78
44.1909	468.11
44.2053	490.28
44.2197	517.88
44.2342	511.69
44.2486	502.40
44.2631	510.43
44.2775	521.79
44.2919	531.88
44.3064	519.41
44.3208	560.29
44.3353	528.53
44.3497	537.26
44.3641	540.33
44.3786	524.01
44.3930	549.85
44.4075	514.07
44.4219	552.63
44.4363	589.49
44.4508	550.15
44.4652	582.38
44.4797	611.06
44.4941	556.71
44.5085	559.22
44.5230	576.29
44.5374	606.40
44.5519	568.39
44.5663	545.34
44.5807	572.95
44.5952	548.45
44.6096	566.79
44.6241	531.39
44.6385	546.56
44.6529	565.77
44.6674	550.86
44.6818	556.61
44.6963	612.77
44.7107	678.36
44.7251	700.13
44.7396	699.72
44.7540	753.69
44.7685	778.67
44.7829	848.95
44.7973	854.30
44.8118	831.20
44.8262	800.57
44.8407	775.25
44.8551	732.29
44.8695	719.22
44.8840	730.92
44.8984	759.38
44.9129	701.70
44.9273	712.17
44.9417	674.49
44.9562	618.16
44.9706	594.39
44.9851	540.99
44.9995	526.02
45.0139	522.40
45.0284	555.03
45.0428	532.48
45.0573	518.60
45.0717	513.96
45.0861	519.24
45.1006	515.06
45.1150	533.91
45.1295	508.41
45.1439	533.24
45.1583	529.10
45.1728	510.47
45.1872	479.02
45.2017	507.63
45.2161	496.50
45.2305	529.43
45.2450	526.74
45.2594	524.85
45.2739	484.88
45.2883	510.71
45.3028	516.97
45.3172	524.57
45.3316	534.46
45.3461	516.32
45.3605	498.20
45.3750	494.73
45.3894	503.85
45.4038	479.07
45.4183	503.17
45.4327	502.78
45.4472	516.04
45.4616	529.49
45.4760	538.91
45.4905	511.59
45.5049	473.37
45.5194	466.35
45.5338	514.10
45.5482	478.33
45.5627	522.31
45.5771	502.86
45.5916	506.26
45.6060	504.67
45.6204	516.76
45.6349	507.02
45.6493	512.49
45.6638	514.67
45.6782	492.99
45.6926	486.48
45.7071	540.40
45.7215	486.99
45.7360	484.05
45.7504	509.22
45.7648	490.78
45.7793	523.22
45.7937	519.75
45.8082	516.30
45.8226	482.03
45.8370	499.89
45.8515	507.57
45.8659	492.66
45.8804	475.75
45.8948	460.43
45.9092	480.99
45.9237	480.38
45.9381	531.26
45.9526	512.75
45.9670	513.49
45.9814	527.24
45.9959	494.21
46.0103	472.64
46.0248	472.47
46.0392	462.73
46.0536	471.54
46.0681	490.34
46.0825	508.41
46.0970	503.09
46.1114	489.67
46.1258	522.96
46.1403	508.10
46.1547	492.38
46.1692	523.33
46.1836	531.43
46.1980	536.00
46.2125	474.29
46.2269	488.52
46.2414	503.43
46.2558	508.03
46.2702	500.99
46.2847	506.69
46.2991	482.95
46.3136	482.27
46.3280	497.04
46.3424	512.83
46.3569	513.70
46.3713	509.04
46.3858	497.43
46.4002	497.70
46.4146	510.44
46.4291	518.74
46.4435	514.51
46.4580	490.50
46.4724	460.09
46.4868	486.23
46.5013	498.93
46.5157	517.25
46.5302	499.38
46.5446	524.52
46.5590	513.42
46.5735	476.91
46.5879	496.98
46.6024	472.36
46.6168	492.19
46.6312	515.11
46.6457	520.27
46.6601	482.02
46.6746	457.70
46.6890	463.24
46.7034	513.02
46.7179	518.42
46.7323	482.81
46.7468	524.40
46.7612	506.61
46.7756	484.99
46.7901	520.37
46.8045	509.36
46.8190	480.81
46.8334	454.61
46.8478	478.32
46.8623	513.90
46.8767	496.81
46.8912	488.86
46.9056	501.24
46.9200	515.63
46.9345	517.47
46.9489	526.59
46.9634	513.50
46.9778	512.05
46.9922	512.65
47.0067	478.17
47.0211	513.21
47.0356	524.18
47.0500	525.03
47.0644	509.85
47.0789	530.13
47.0933	529.44
47.1078	499.29
47.1222	513.74
47.1366	513.17
47.1511	489.55
47.1655	494.52
47.1800	504.32
47.1944	506.55
47.2088	494.78
47.2233	474.93
47.2377	483.15
47.2522	516.39
47.2666	500.13
47.2810	479.02
47.2955	476.56
47.3099	496.30
47.3244	507.13
47.3388	540.07
47.3532	515.99
47.3677	492.55
47.3821	506.61
47.3966	498.55
47.4110	491.48
47.4254	518.41
47.4399	520.00
47.4543	485.41
47.4688	503.80
47.4832	523.96
47.4976	498.66
47.5121	514.31
47.5265	509.90
47.5410	503.24
47.5554	493.32
47.5698	485.09
47.5843	507.32
47.5987	517.23
47.6132	535.93
47.6276	514.99
47.6420	500.97
47.6565	532.60
47.6709	519.22
47.6854	507.70
47.6998	495.98
47.7142	473.90
47.7287	474.90
47.7431	522.86
47.7576	504.13
47.7720	507.33
47.7864	502.85
47.8009	492.97
47.8153	504.97
47.8298	505.11
47.8442	485.44
47.8586	529.82
47.8731	517.07
47.8875	498.21
47.9020	500.51
47.9164	481.14
47.9308	477.17
47.9453	483.28
47.9597	468.65
47.9742	496.07
47.9886	471.79
48.0030	489.80
48.0175	509.75
48.0319	479.28
48.0464	507.70
48.0608	528.50
48.0752	525.26
48.0897	519.15
48.1041	511.41
48.1186	509.15
48.1330	526.44
48.1474	486.72
48.1619	488.09
48.1763	504.70
48.1908	491.54
48.2052	518.92
48.2196	493.52
48.2341	492.23
48.2485	538.17
48.2630	498.44
48.2774	543.45
48.2918	516.24
48.3063	514.74
48.3207	502.27
48.3352	505.10
48.3496	514.34
48.3640	520.32
48.3785	529.63
48.3929	484.41
48.4074	511.40
48.4218	506.20
48.4362	521.11
48.4507	463.13
48.4651	481.51
48.4796	540.52
48.4940	504.59
48.5084	474.39
48.5229	518.96
48.5373	490.65
48.5518	488.81
48.5662	485.80
48.5806	520.41
48.5951	479.46
48.6095	514.22
48.6240	520.09
48.6384	519.62
48.6528	524.16
48.6673	566.13
48.6817	535.83
48.6962	528.64
48.7106	561.53
48.7250	507.76
48.7395	499.30
48.7539	520.98
48.7684	510.81
48.7828	536.79
48.7972	534.68
48.8117	554.75
48.8261	565.97
48.8406	538.75
48.8550	528.76
48.8694	554.39
48.8839	546.26
48.8983	518.81
48.9128	538.44
48.9272	544.55
48.9416	534.31
48.9561	561.89
48.9705	544.89
48.9850	535.31
48.9994	529.54
49.0139	529.02
49.0283	615.29
49.0427	605.74
49.0572	613.76
49.0716	653.92
49.0861	707.77
49.1005	690.93
49.1149	717.38
49.1294	724.49
49.1438	740.96
49.1583	826.47
49.1727	850.31
49.1871	875.90
49.2016	972.21
49.2160	1035.16
49.2305	1098.81
49.2449	1208.76
49.2593	1318.46
49.2738	1428.36
49.2882	1485.07
49.3027	1529.16
49.3171	1678.37
49.3315	1784.45
49.3460	1829.18
49.3604	1778.21
49.3749	1795.47
49.3893	1813.78
49.4037	1794.68
49.4182	1787.10
49.4326	1844.15
49.4471	1652.50
49.4615	1645.67
49.4759	1578.36
49.4904	1511.62
49.5048	1432.10
49.5193	1369.50
49.5337	1299.34
49.5481	1194.19
49.5626	1126.91
49.5770	1060.80
49.5915	973.30
49.6059	935.16
49.6203	865.29
49.6348	781.82
49.6492	779.23
49.6637	754.20
49.6781	690.85
49.6925	674.66
49.7070	680.04
49.7214	656.80
49.7359	621.19
49.7503	621.49
49.7647	572.80
49.7792	570.95
49.7936	588.80
49.8081	554.04
49.8225	539.49
49.8369	588.01
49.8514	562.06
49.8658	555.27
49.8803	552.12
49.8947	557.02
49.9091	547.27
49.9236	522.51
49.9380	556.66
49.9525	523.85
49.9669	530.71
49.9813	538.31
49.9958	510.84
50.0102	528.16
50.0247	534.88
50.0391	544.77
50.0535	507.56
50.0680	530.34
50.0824	533.64
50.0969	519.16
50.1113	506.83
50.1257	512.20
50.1402	485.81
50.1546	507.89
50.1691	507.12
50.1835	516.80
50.1979	490.31
50.2124	508.60
50.2268	500.12
50.2413	514.35
50.2557	486.47
50.2701	517.58
50.2846	526.16
50.2990	509.25
50.3135	499.44
50.3279	495.02
50.3423	504.47
50.3568	501.16
50.3712	489.00
50.3857	496.82
50.4001	490.48
50.4145	482.58
50.4290	519.75
50.4434	505.83
50.4579	493.17
50.4723	524.17
50.4867	501.29
50.5012	516.01
50.5156	525.90
50.5301	533.40
50.5445	537.09
50.5589	504.38
50.5734	517.11
50.5878	522.50
50.6023	510.89
50.6167	493.53
50.6311	480.96
50.6456	511.96
50.6600	493.50
50.6745	476.99
50.6889	487.41
50.7033	517.97
50.7178	505.44
50.7322	513.17
50.7467	519.71
50.7611	503.35
50.7755	484.75
50.7900	472.60
50.8044	485.65
50.8189	513.25
50.8333	524.14
50.8477	513.35
50.8622	524.15
50.8766	495.68
50.8911	497.81
50.9055	531.54
50.9199	504.38
50.9344	489.99
50.9488	490.16
50.9633	499.06
50.9777	521.29
50.9921	513.37
51.0066	511.51
51.0210	522.98
51.0355	500.82
51.0499	477.88
51.0643	528.64
51.0788	525.69
51.0932	520.56
51.1077	513.21
51.1221	523.22
51.1365	502.89
51.1510	449.65
51.1654	551.45
51.1799	530.75
51.1943	505.14
51.2087	481.44
51.2232	501.16
51.2376	506.23
51.2521	498.02
51.2665	520.90
51.2809	513.86
51.2954	504.83
51.3098	535.06
51.3243	527.21
51.3387	523.17
51.3531	536.92
51.3676	483.00
51.3820	503.83
51.3965	507.96
51.4109	513.50
51.4253	541.70
51.4398	521.53
51.4542	501.67
51.4687	541.84
51.4831	490.30
51.4975	525.04
51.5120	515.07
51.5264	524.96
51.5409	482.51
51.5553	481.16
51.5697	529.54
51.5842	499.36
51.5986	519.11
51.6131	526.73
51.6275	501.46
51.6419	513.02
51.6564	507.79
51.6708	492.27
51.6853	539.83
51.6997	516.00
51.7141	500.95
51.7286	503.50
51.7430	475.84
51.7575	494.79
51.7719	503.51
51.7863	509.52
51.8008	523.84
51.8152	505.94
51.8297	487.24
51.8441	468.94
51.8585	494.54
51.8730	495.84
51.8874	479.00
51.9019	492.85
51.9163	495.02
51.9307	499.04
51.9452	565.75
51.9596	480.79
51.9741	509.08
51.9885	527.79
52.0029	523.11
52.0174	488.44
52.0318	538.53
52.0463	500.45
52.0607	500.34
52.0751	483.75
52.0896	527.63
52.1040	506.27
52.1185	499.70
52.1329	488.87
52.1473	461.32
52.1618	494.62
52.1762	499.00
52.1907	530.76
52.2051	525.24
52.2195	529.14
52.2340	492.86
52.2484	503.87
52.2629	466.96
52.2773	478.96
52.2917	515.52
52.3062	492.24
52.3206	492.43
52.3351	501.61
52.3495	516.75
52.3639	520.91
52.3784	508.30
52.3928	496.66
52.4073	447.45
52.4217	518.31
52.4361	536.07
52.4506	505.21
52.4650	499.55
52.4795	494.87
52.4939	481.54
52.5083	484.19
52.5228	502.30
52.5372	519.63
52.5517	497.42
52.5661	506.86
52.5805	502.26
52.5950	480.38
52.6094	465.65
52.6239	515.65
52.6383	524.82
52.6527	524.99
52.6672	520.16
52.6816	489.95
52.6961	523.68
52.7105	485.65
52.7250	497.29
52.7394	501.50
52.7538	504.00
52.7683	489.89
52.7827	520.16
52.7972	486.18
52.8116	515.65
52.8260	537.55
52.8405	506.90
52.8549	529.64
52.8694	545.65
52.8838	488.57
52.8982	519.79
52.9127	523.08
52.9271	517.89
52.9416	500.59
52.9560	509.87
52.9704	457.76
52.9849	503.96
52.9993	489.36
53.0138	509.07
53.0282	524.88
53.0426	524.70
53.0571	517.90
53.0715	500.07
53.0860	528.60
53.1004	530.52
53.1148	520.73
53.1293	529.42
53.1437	523.55
53.1582	528.70
53.1726	483.30
53.1870	517.69
53.2015	530.52
53.2159	521.80
53.2304	527.64
53.2448	545.06
53.2592	523.07
53.2737	524.65
53.2881	542.00
53.3026	508.56
53.3170	499.12
53.3314	517.80
53.3459	532.04
53.3603	522.30
53.3748	514.32
53.3892	492.42
53.4036	513.54
53.4181	502.90
53.4325	498.20
53.4470	500.01
53.4614	508.75
53.4758	497.35
53.4903	480.51
53.5047	493.36
53.5192	504.36
53.5336	549.01
53.5480	521.07
53.5625	549.86
53.5769	532.10
53.5914	486.44
53.6058	520.52
53.6202	481.66
53.6347	496.64
53.6491	499.79
53.6636	511.63
53.6780	524.71
53.6924	494.90
53.7069	505.80
53.7213	535.46
53.7358	496.59
53.7502	517.80
53.7646	494.70
53.7791	506.54
53.7935	539.08
53.8080	517.11
53.8224	512.15
53.8368	538.82
53.8513	535.47
53.8657	528.73
53.8802	509.24
53.8946	545.06
53.9090	592.01
53.9235	535.79
53.9379	520.68
53.9524	502.82
53.9668	544.72
53.9812	548.01
53.9957	560.92
54.0101	531.08
54.0246	514.75
54.0390	514.90
54.0534	539.91
54.0679	535.63
54.0823	521.70
54.0968	549.43
54.1112	547.97
54.1256	558.76
54.1401	501.21
54.1545	525.69
54.1690	534.32
54.1834	530.44
54.1978	548.84
54.2123	514.68
54.2267	526.79
54.2412	542.65
54.2556	545.61
54.2700	560.34
54.2845	551.73
54.2989	561.21
54.3134	588.05
54.3278	590.94
54.3422	592.33
54.3567	591.90
54.3711	593.97
54.3856	602.92
54.4000	603.40
54.4144	596.84
54.4289	593.24
54.4433	601.36
54.4578	582.01
54.4722	615.23
54.4866	620.76
54.5011	599.74
54.5155	592.49
54.5300	591.14
54.5444	568.85
54.5588	588.92
54.5733	583.77
54.5877	574.81
54.6022	533.68
54.6166	562.47
54.6310	580.52
54.6455	567.67
54.6599	515.05
54.6744	489.09
54.6888	517.80
54.7032	513.68
54.7177	489.01
54.7321	510.06
54.7466	509.48
54.7610	518.26
54.7754	517.77
54.7899	527.56
54.8043	558.96
54.8188	566.69
54.8332	541.79
54.8476	515.62
54.8621	542.32
54.8765	489.97
54.8910	509.25
54.9054	551.93
54.9198	547.21
54.9343	520.02
54.9487	526.41
54.9632	499.13
54.9776	521.74
54.9920	545.40
55.0065	510.18
55.0209	515.85
55.0354	557.88
55.0498	540.43
55.0642	541.88
55.0787	524.64
55.0931	558.88
55.1076	554.90
55.1220	511.97
55.1364	557.14
55.1509	526.97
55.1653	495.66
55.1798	482.75
55.1942	489.60
55.2086	497.13
55.2231	524.79
55.2375	526.44
55.2520	520.29
55.2664	506.49
55.2808	500.00
55.2953	494.68
55.3097	493.90
55.3242	506.16
55.3386	509.34
55.3530	499.89
55.3675	494.29
55.3819	528.20
55.3964	510.42
55.4108	510.78
55.4252	548.50
55.4397	545.35
55.4541	523.62
55.4686	531.51
55.4830	531.79
55.4974	524.34
55.5119	521.26
55.5263	528.13
55.5408	521.40
55.5552	566.48
55.5696	529.90
55.5841	550.33
55.5985	529.75
55.6130	477.86
55.6274	504.21
55.6418	543.06
55.6563	527.49
55.6707	507.14
55.6852	516.75
55.6996	540.46
55.7140	527.75
55.7285	531.73
55.7429	529.89
55.7574	502.35
55.7718	559.02
55.7862	511.64
55.8007	513.77
55.8151	496.31
55.8296	529.48
55.8440	498.94
55.8584	538.04
55.8729	532.36
55.8873	498.75
55.9018	528.75
55.9162	517.57
55.9306	525.79
55.9451	529.36
55.9595	541.45
55.9740	542.20
55.9884	501.64
56.0028	524.21
56.0173	546.78
56.0317	517.95
56.0462	506.78
56.0606	472.87
56.0750	496.00
56.0895	515.91
56.1039	510.53
56.1184	516.35
56.1328	525.35
56.1472	509.25
56.1617	528.12
56.1761	533.72
56.1906	552.42
56.2050	551.72
56.2194	495.95
56.2339	510.40
56.2483	551.15
56.2628	514.03
56.2772	523.11
56.2916	489.89
56.3061	477.21
56.3205	517.54
56.3350	504.42
56.3494	513.84
56.3639	526.03
56.3783	500.99
56.3927	490.67
56.4072	499.52
56.4216	534.93
56.4361	519.28
56.4505	493.10
56.4649	494.74
56.4794	558.63
56.4938	501.90
56.5083	496.82
56.5227	532.02
56.5371	542.37
56.5516	540.49
56.5660	527.30
56.5805	539.07
56.5949	506.89
56.6093	515.70
56.6238	535.95
56.6382	518.46
56.6527	505.11
56.6671	514.98
56.6815	496.14
56.6960	496.49
56.7104	514.17
56.7249	521.28
56.7393	513.15
56.7537	535.98
56.7682	487.11
56.7826	501.76
56.7971	483.25
56.8115	484.41
56.8259	494.77
56.8404	503.14
56.8548	506.26
56.8693	546.92
56.8837	509.62
56.8981	531.75
56.9126	529.75
56.9270	557.26
56.9415	562.30
56.9559	518.19
56.9703	494.17
56.9848	541.99
56.9992	520.92
57.0137	527.78
57.0281	486.57
57.0425	528.36
57.0570	523.99
57.0714	562.64
57.0859	503.88
57.1003	497.04
57.1147	510.86
57.1292	540.67
57.1436	507.12
57.1581	517.71
57.1725	522.78
57.1869	524.56
57.2014	533.25
57.2158	489.91
57.2303	530.11
57.2447	565.58
57.2591	511.32
57.2736	536.94
57.2880	521.52
57.3025	539.89
57.3169	521.07
57.3313	530.38
57.3458	518.75
57.3602	508.68
57.3747	533.40
57.3891	496.63
57.4035	503.70
57.4180	475.91
57.4324	499.77
57.4469	496.13
57.4613	500.71
57.4757	521.68
57.4902	561.76
57.5046	535.72
57.5191	527.96
57.5335	568.13
57.5479	547.49
57.5624	545.58
57.5768	534.80
57.5913	492.96
57.6057	514.75
57.6201	503.37
57.6346	507.11
57.6490	516.59
57.6635	535.67
57.6779	526.94
57.6923	557.16
57.7068	536.75
57.7212	530.69
57.7357	496.02
57.7501	563.52
57.7645	523.72
57.7790	537.72
57.7934	553.30
57.8079	561.15
57.8223	540.59
57.8367	543.35
57.8512	530.79
57.8656	593.63
57.8801	598.67
57.8945	604.23
57.9089	630.14
57.9234	601.19
57.9378	609.32
57.9523	674.06
57.9667	676.63
57.9811	651.17
57.9956	639.78
58.0100	631.43
58.0245	646.52
58.0389	661.14
58.0533	686.82
58.0678	675.81
58.0822	638.52
58.0967	667.03
58.1111	678.47
58.1255	679.74
58.1400	645.36
58.1544	601.33
58.1689	618.59
58.1833	623.22
58.1977	611.65
58.2122	632.53
58.2266	602.35
58.2411	626.71
58.2555	592.68
58.2699	584.03
58.2844	584.27
58.2988	555.27
58.3133	532.06
58.3277	531.47
58.3421	560.66
58.3566	580.30
58.3710	553.97
58.3855	537.40
58.3999	549.29
58.4143	548.06
58.4288	563.00
58.4432	537.77
58.4577	506.74
58.4721	553.85
58.4865	571.54
58.5010	538.16
58.5154	540.08
58.5299	542.01
58.5443	511.94
58.5587	530.95
58.5732	518.68
58.5876	542.56
58.6021	554.29
58.6165	535.08
58.6309	539.66
58.6454	532.92
58.6598	545.40
58.6743	547.51
58.6887	496.00
58.7031	537.59
58.7176	538.70
58.7320	532.25
58.7465	539.72
58.7609	507.71
58.7753	526.17
58.7898	531.01
58.8042	525.36
58.8187	521.02
58.8331	536.02
58.8475	545.52
58.8620	554.81
58.8764	554.07
58.8909	526.96
58.9053	571.11
58.9197	552.88
58.9342	532.89
58.9486	522.50
58.9631	505.14
58.9775	548.37
58.9919	556.36
59.0064	551.33
59.0208	519.01
59.0353	523.54
59.0497	552.29
59.0641	533.62
59.0786	516.34
59.0930	522.96
59.1075	534.80
59.1219	557.36
59.1363	516.24
59.1508	503.83
59.1652	527.84
59.1797	517.13
59.1941	555.14
59.2085	557.69
59.2230	560.84
59.2374	579.69
59.2519	592.33
59.2663	556.54
59.2807	579.89
59.2952	553.88
59.3096	543.69
59.3241	537.97
59.3385	580.22
59.3529	578.20
59.3674	576.19
59.3818	537.31
59.3963	532.25
59.4107	549.44
59.4251	574.41
59.4396	563.15
59.4540	517.00
59.4685	580.83
59.4829	559.44
59.4973	565.83
59.5118	573.74
59.5262	553.56
59.5407	564.85
59.5551	541.71
59.5695	509.15
59.5840	534.72
59.5984	534.29
59.6129	564.54
59.6273	551.57
59.6417	544.36
59.6562	517.67
59.6706	536.77
59.6851	548.96
59.6995	534.44
59.7139	543.05
59.7284	486.11
59.7428	499.79
59.7573	523.59
59.7717	509.22
59.7861	545.45
59.8006	549.95
59.8150	569.75
59.8295	531.51
59.8439	507.37
59.8583	523.32
59.8728	556.77
59.8872	547.02
59.9017	546.46
59.9161	545.40
59.9305	532.38
59.9450	540.88
59.9594	530.24
59.9739	502.38
59.9883	494.68
60.0027	500.08
60.0172	544.09
60.0316	554.90
60.0461	548.23
60.0605	544.94
60.0750	537.80
60.0894	507.63
60.1038	512.21
60.1183	551.98
60.1327	551.95
60.1472	496.73
60.1616	516.77
60.1760	513.43
60.1905	495.01
60.2049	512.66
60.2194	538.34
60.2338	538.48
60.2482	542.76
60.2627	522.62
60.2771	511.40
60.2916	543.61
60.3060	568.97
60.3204	528.53
60.3349	523.19
60.3493	544.40
60.3638	494.46
60.3782	542.74
60.3926	512.82
60.4071	532.10
60.4215	552.76
60.4360	513.75
60.4504	473.81
60.4648	515.94
60.4793	553.88
60.4937	550.73
60.5082	533.96
60.5226	523.53
60.5370	522.84
60.5515	543.58
60.5659	533.24
60.5804	543.64
60.5948	541.62
60.6092	547.23
60.6237	529.86
60.6381	541.48
60.6526	538.28
60.6670	517.93
60.6814	506.87
60.6959	553.00
60.7103	566.04
60.7248	536.99
60.7392	537.35
60.7536	545.25
60.7681	601.36
60.7825	546.59
60.7970	530.28
60.8114	570.98
60.8258	527.97
60.8403	510.69
60.8547	503.34
60.8692	548.78
60.8836	526.08
60.8980	563.01
60.9125	523.05
60.9269	532.00
60.9414	522.01
60.9558	507.25
60.9702	536.17
60.9847	538.23
60.9991	533.38
61.0136	524.60
61.0280	584.32
61.0424	537.06
61.0569	529.82
61.0713	517.34
61.0858	544.51
61.1002	526.18
61.1146	549.78
61.1291	571.51
61.1435	554.58
61.1580	528.00
61.1724	532.87
61.1868	530.55
61.2013	548.82
61.2157	530.74
61.2302	534.70
61.2446	526.32
61.2590	508.26
61.2735	525.28
61.2879	539.91
61.3024	548.65
61.3168	538.92
61.3312	577.86
61.3457	520.23
61.3601	508.05
61.3746	539.02
61.3890	562.96
61.4034	540.02
61.4179	547.52
61.4323	549.72
61.4468	510.05
61.4612	519.96
61.4756	516.50
61.4901	535.31
61.5045	541.92
61.5190	540.10
61.5334	541.21
61.5478	530.01
61.5623	537.69
61.5767	499.25
61.5912	532.11
61.6056	511.45
61.6200	513.50
61.6345	525.94
61.6489	553.14
61.6634	535.03
61.6778	514.11
61.6922	531.74
61.7067	531.69
61.7211	530.77
61.7356	497.94
61.7500	499.81
61.7644	507.62
61.7789	543.48
61.7933	551.43
61.8078	582.41
61.8222	564.95
61.8366	530.31
61.8511	517.19
61.8655	593.57
61.8800	568.06
61.8944	572.28
61.9088	583.95
61.9233	548.36
61.9377	546.76
61.9522	549.26
61.9666	532.02
61.9810	564.88
61.9955	555.50
62.0099	535.06
62.0244	516.07
62.0388	513.03
62.0532	533.97
62.0677	558.90
62.0821	566.02
62.0966	538.33
62.1110	514.11
62.1254	568.01
62.1399	563.71
62.1543	566.39
62.1688	576.61
62.1832	570.09
62.1976	525.68
62.2121	516.25
62.2265	541.72
62.2410	563.29
62.2554	564.19
62.2698	541.60
62.2843	546.20
62.2987	507.55
62.3132	544.89
62.3276	552.23
62.3420	539.37
62.3565	542.39
62.3709	552.10
62.3854	507.59
62.3998	520.14
62.4142	539.69
62.4287	557.82
62.4431	542.18
62.4576	527.65
62.4720	554.86
62.4864	550.74
62.5009	559.17
62.5153	564.33
62.5298	575.02
62.5442	582.77
62.5586	557.77
62.5731	538.19
62.5875	536.32
62.6020	537.29
62.6164	541.86
62.6308	552.22
62.6453	553.56
62.6597	563.78
62.6742	576.18
62.6886	545.18
62.7030	582.00
62.7175	570.22
62.7319	538.38
62.7464	531.29
62.7608	544.83
62.7752	557.98
62.7897	524.30
62.8041	537.90
62.8186	572.03
62.8330	566.60
62.8474	546.59
62.8619	526.88
62.8763	529.17
62.8908	527.10
62.9052	562.56
62.9196	574.35
62.9341	588.66
62.9485	573.15
62.9630	536.01
62.9774	577.73
62.9918	538.76
63.0063	535.69
63.0207	575.74
63.0352	561.28
63.0496	558.08
63.0640	570.86
63.0785	567.84
63.0929	596.13
63.1074	555.79
63.1218	551.98
63.1362	573.60
63.1507	558.78
63.1651	543.61
63.1796	578.70
63.1940	542.24
63.2084	584.57
63.2229	596.33
63.2373	571.36
63.2518	574.96
63.2662	562.11
63.2806	580.54
63.2951	545.11
63.3095	567.73
63.3240	592.54
63.3384	620.06
63.3528	617.98
63.3673	583.14
63.3817	591.21
63.3962	580.85
63.4106	551.00
63.4250	618.17
63.4395	625.72
63.4539	600.70
63.4684	617.66
63.4828	599.92
63.4972	578.67
63.5117	605.01
63.5261	634.35
63.5406	663.89
63.5550	680.16
63.5694	689.86
63.5839	687.31
63.5983	714.21
63.6128	725.97
63.6272	744.89
63.6416	750.73
63.6561	776.45
63.6705	802.09
63.6850	800.13
63.6994	827.96
63.7138	826.63
63.7283	803.17
63.7427	821.48
63.7572	821.04
63.7716	814.95
63.7861	869.81
63.8005	829.68
63.8149	800.83
63.8294	807.70
63.8438	773.10
63.8583	798.49
63.8727	795.60
63.8871	770.09
63.9016	764.01
63.9160	755.92
63.9305	703.43
63.9449	716.25
63.9593	676.77
63.9738	692.18
63.9882	631.04
64.0027	638.00
64.0171	659.43
64.0315	626.53
64.0460	655.94
64.0604	691.38
64.0749	642.59
64.0893	644.69
64.1037	634.95
64.1182	622.71
64.1326	649.32
64.1471	608.42
64.1615	613.82
64.1759	643.15
64.1904	635.86
64.2048	580.67
64.2193	588.82
64.2337	622.40
64.2481	609.13
64.2626	595.95
64.2770	607.09
64.2915	583.14
64.3059	618.19
64.3203	579.80
64.3348	622.14
64.3492	656.10
64.3637	621.27
64.3781	614.14
64.3925	608.96
64.4070	648.97
64.4214	650.37
64.4359	646.59
64.4503	584.96
64.4647	645.00
64.4792	666.92
64.4936	597.76
64.5081	590.55
64.5225	614.39
64.5369	626.70
64.5514	614.37
64.5658	649.04
64.5803	659.72
64.5947	648.94
64.6091	637.53
64.6236	624.81
64.6380	655.36
64.6525	641.25
64.6669	639.19
64.6813	640.01
64.6958	676.00
64.7102	707.20
64.7247	679.85
64.7391	656.02
64.7535	666.24
64.7680	684.52
64.7824	714.70
64.7969	740.51
64.8113	756.46
64.8257	748.71
64.8402	774.60
64.8546	769.15
64.8691	840.22
64.8835	829.77
64.8979	845.77
64.9124	846.19
64.9268	864.89
64.9413	912.45
64.9557	885.81
64.9701	953.07
64.9846	968.78
64.9990	1102.12
65.0135	1267.47
65.0279	1447.92
65.0423	1740.41
65.0568	2015.71
65.0712	2475.51
65.0857	3125.83
65.1001	4332.44
65.1145	5607.49
65.1290	7475.19
65.1434	9079.42
65.1579	10590.64
65.1723	11484.39
65.1867	11086.95
65.2012	10118.09
65.2156	8491.78
65.2301	6741.95
65.2445	5407.55
65.2589	4385.28
65.2734	4064.59
65.2878	4302.79
65.3023	4746.93
65.3167	5543.50
65.3311	6335.08
65.3456	6787.58
65.3600	6877.60
65.3745	6334.73
65.3889	5466.87
65.4033	4466.97
65.4178	3539.88
65.4322	2813.15
65.4467	2080.53
65.4611	1770.32
65.4755	1499.45
65.4900	1281.76
65.5044	1134.34
65.5189	1059.46
65.5333	969.13
65.5477	926.34
65.5622	882.34
65.5766	813.84
65.5911	839.68
65.6055	797.44
65.6199	767.57
65.6344	819.64
65.6488	724.75
65.6633	733.31
65.6777	705.96
65.6921	713.78
65.7066	649.16
65.7210	661.59
65.7355	635.57
65.7499	685.12
65.7643	648.70
65.7788	682.06
65.7932	637.25
65.8077	651.82
65.8221	692.76
65.8365	673.41
65.8510	596.44
65.8654	637.01
65.8799	657.54
65.8943	623.41
65.9087	656.80
65.9232	609.01
65.9376	650.70
65.9521	634.75
65.9665	573.37
65.9809	614.45
65.9954	629.63
66.0098	619.76
66.0243	664.66
66.0387	621.89
66.0531	645.23
66.0676	605.91
66.0820	617.12
66.0965	590.63
66.1109	621.99
66.1253	640.96
66.1398	600.42
66.1542	582.51
66.1687	633.15
66.1831	618.67
66.1975	574.21
66.2120	591.63
66.2264	602.99
66.2409	592.13
66.2553	567.72
66.2697	595.95
66.2842	635.19
66.2986	577.22
66.3131	563.47
66.3275	589.40
66.3419	611.23
66.3564	588.74
66.3708	572.52
66.3853	568.81
66.3997	582.42
66.4141	598.89
66.4286	640.09
66.4430	605.48
66.4575	601.06
66.4719	636.63
66.4863	603.74
66.5008	596.77
66.5152	603.75
66.5297	597.35
66.5441	594.45
66.5585	573.88
66.5730	576.08
66.5874	571.57
66.6019	626.61
66.6163	614.88
66.6307	593.85
66.6452	586.14
66.6596	580.14
66.6741	567.02
66.6885	582.89
66.7029	601.43
66.7174	588.73
66.7318	561.36
66.7463	607.95
66.7607	566.99
66.7751	579.17
66.7896	576.85
66.8040	608.77
66.8185	608.88
66.8329	563.81
66.8473	549.56
66.8618	601.73
66.8762	590.10
66.8907	589.39
66.9051	594.06
66.9195	594.09
66.9340	570.31
66.9484	531.45
66.9629	573.86
66.9773	589.52
66.9917	563.65
67.0062	572.68
67.0206	569.82
67.0351	583.78
67.0495	549.77
67.0639	549.00
67.0784	581.47
67.0928	643.07
67.1073	584.93
67.1217	552.05
67.1361	556.42
67.1506	562.83
67.1650	571.77
67.1795	575.54
67.1939	567.51
67.2083	550.51
67.2228	571.21
67.2372	565.59
67.2517	550.36
67.2661	576.28
67.2805	604.80
67.2950	591.10
67.3094	566.66
67.3239	564.81
67.3383	530.82
67.3527	565.20
67.3672	579.12
67.3816	578.62
67.3961	564.73
67.4105	550.48
67.4250	545.87
67.4394	544.96
67.4538	555.16
67.4683	594.08
67.4827	602.49
67.4972	579.96
67.5116	585.08
67.5260	613.40
67.5405	613.24
67.5549	605.17
67.5694	525.08
67.5838	549.35
67.5982	573.69
67.6127	565.64
67.6271	555.40
67.6416	538.23
67.6560	561.79
67.6704	560.13
67.6849	566.89
67.6993	571.05
67.7138	588.76
67.7282	567.77
67.7426	556.36
67.7571	542.09
67.7715	553.74
67.7860	556.59
67.8004	568.47
67.8148	578.86
67.8293	522.03
67.8437	544.47
67.8582	585.90
67.8726	589.54
67.8870	554.67
67.9015	584.39
67.9159	593.09
67.9304	544.64
67.9448	583.27
67.9592	589.73
67.9737	573.52
67.9881	589.61
68.0026	528.28
68.0170	579.53
68.0314	578.06
68.0459	550.59
68.0603	584.38
68.0748	559.74
68.0892	554.30
68.1036	532.83
68.1181	565.82
68.1325	611.29
68.1470	581.59
68.1614	599.44
68.1758	560.61
68.1903	565.91
68.2047	579.76
68.2192	521.46
68.2336	576.50
68.2480	589.70
68.2625	578.79
68.2769	547.39
68.2914	568.32
68.3058	584.79
68.3202	535.10
68.3347	568.87
68.3491	584.74
68.3636	572.68
68.3780	562.99
68.3924	547.39
68.4069	598.07
68.4213	584.79
68.4358	585.12
68.4502	557.14
68.4646	593.29
68.4791	590.34
68.4935	554.68
68.5080	587.36
68.5224	561.01
68.5368	582.68
68.5513	591.75
68.5657	558.62
68.5802	546.63
68.5946	561.90
68.6090	514.46
68.6235	569.02
68.6379	605.08
68.6524	554.79
68.6668	599.36
68.6812	562.80
68.6957	543.20
68.7101	573.96
68.7246	542.96
68.7390	557.11
68.7534	601.83
68.7679	514.29
68.7823	609.47
68.7968	591.87
68.8112	588.79
68.8256	610.30
68.8401	557.55
68.8545	597.16
68.8690	571.18
68.8834	581.80
68.8978	565.11
68.9123	625.77
68.9267	584.63
68.9412	520.51
68.9556	559.60
68.9700	584.53
68.9845	542.05
68.9989	580.33
69.0134	605.88
69.0278	586.95
69.0422	556.48
69.0567	560.12
69.0711	575.00
69.0856	604.41
69.1000	560.06
69.1144	558.66
69.1289	634.72
69.1433	572.88
69.1578	542.71
69.1722	585.82
69.1866	523.77
69.2011	588.95
69.2155	600.28
69.2300	610.71
69.2444	588.01
69.2588	593.29
69.2733	576.48
69.2877	551.16
69.3022	610.49
69.3166	562.63
69.3310	570.18
69.3455	585.43
69.3599	552.93
69.3744	592.79
69.3888	587.41
69.4032	569.77
69.4177	535.88
69.4321	605.50
69.4466	560.21
69.4610	555.98
69.4754	615.84
69.4899	627.38
69.5043	582.28
69.5188	564.35
69.5332	574.73
69.5476	587.82
69.5621	562.60
69.5765	555.93
69.5910	606.27
69.6054	594.33
69.6198	553.46
69.6343	565.92
69.6487	597.15
69.6632	581.48
69.6776	571.14
69.6920	552.11
69.7065	564.70
69.7209	630.45
69.7354	583.03
69.7498	563.13
69.7642	572.47
69.7787	573.14
69.7931	571.93
69.8076	587.95
69.8220	534.93
69.8364	571.70
69.8509	578.12
69.8653	576.33
69.8798	574.38
69.8942	555.21
69.9086	604.33
69.9231	599.32
69.9375	571.07
69.9520	564.88
69.9664	543.59
69.9808	551.41
69.9953	566.69
70.0097	532.43
70.0242	540.08
70.0386	590.84
70.0530	594.98
70.0675	573.79
70.0819	584.67
70.0964	630.43
70.1108	559.40
70.1252	591.80
70.1397	541.99
70.1541	579.77
70.1686	552.49
70.1830	554.60
70.1974	579.42
70.2119	551.99
70.2263	603.27
70.2408	557.82
70.2552	551.31
70.2696	544.41
70.2841	529.22
70.2985	539.05
70.3130	546.52
70.3274	540.72
70.3418	572.36
70.3563	591.47
70.3707	531.39
70.3852	546.96
70.3996	521.97
70.4140	562.64
70.4285	618.06
70.4429	573.17
70.4574	578.98
70.4718	664.55
70.4862	613.58
70.5007	568.21
70.5151	537.84
70.5296	582.25
70.5440	553.50
70.5584	487.21
70.5729	507.70
70.5873	574.47
70.6018	558.36
70.6162	536.38
70.6306	486.46
70.6451	548.68
70.6595	528.30
70.6740	573.03
70.6884	556.93
70.7028	588.38
70.7173	570.51
70.7317	554.42
70.7462	558.72
70.7606	544.45
70.7750	525.75
70.7895	544.53
70.8039	566.35
70.8184	555.26
70.8328	585.26
70.8472	533.03
70.8617	574.01
70.8761	577.50
70.8906	509.02
70.9050	509.21
70.9194	557.83
70.9339	599.41
70.9483	631.70
70.9628	596.03
70.9772	536.90
70.9916	548.82
71.0061	620.26
71.0205	617.44
71.0350	592.14
71.0494	588.67
71.0638	573.73
71.0783	607.99
71.0927	604.84
71.1072	562.90
71.1216	570.74
71.1361	581.55
71.1505	607.34
71.1649	572.28
71.1794	573.98
71.1938	554.22
71.2083	572.35
71.2227	564.01
71.2371	528.09
71.2516	528.55
71.2660	589.97
71.2805	545.34
71.2949	512.87
71.3093	574.89
71.3238	569.69
71.3382	574.90
71.3527	566.55
71.3671	507.39
71.3815	589.86
71.3960	615.09
71.4104	604.94
71.4249	606.75
71.4393	576.50
71.4537	579.88
71.4682	589.14
71.4826	569.66
71.4971	589.46
71.5115	564.00
71.5259	592.66
71.5404	564.53
71.5548	561.71
71.5693	552.04
71.5837	576.61
71.5981	579.85
71.6126	578.49
71.6270	577.00
71.6415	574.82
71.6559	562.17
71.6703	612.70
71.6848	636.25
71.6992	599.64
71.7137	591.03
71.7281	559.86
71.7425	550.10
71.7570	597.57
71.7714	593.16
71.7859	552.09
71.8003	554.73
71.8147	557.76
71.8292	540.04
71.8436	542.57
71.8581	553.67
71.8725	556.22
71.8869	521.60
71.9014	495.01
71.9158	525.86
71.9303	603.85
71.9447	618.79
71.9591	653.26
71.9736	645.60
71.9880	557.67
72.0025	520.90
72.0169	536.51
72.0313	539.63
72.0458	565.38
72.0602	529.09
72.0747	521.76
72.0891	553.25
72.1035	609.60
72.1180	553.78
72.1324	566.95
72.1469	627.25
72.1613	610.57
72.1757	666.41
72.1902	590.36
72.2046	587.60
72.2191	568.37
72.2335	530.48
72.2479	568.90
72.2624	561.63
72.2768	558.42
72.2913	563.39
72.3057	606.22
72.3201	583.50
72.3346	579.52
72.3490	591.35
72.3635	554.77
72.3779	553.84
72.3923	546.92
72.4068	561.99
72.4212	610.18
72.4357	714.16
72.4501	667.41
72.4645	626.04
72.4790	593.54
72.4934	504.80
72.5079	550.82
72.5223	567.03
72.5367	476.26
72.5512	546.24
72.5656	643.03
72.5801	607.78
72.5945	558.02
72.6089	561.08
72.6234	538.25
72.6378	523.16
72.6523	541.11
72.6667	576.00
72.6811	531.07
72.6956	542.37
72.7100	568.81
72.7245	547.95
72.7389	590.01
72.7533	574.91
72.7678	616.30
72.7822	661.85
72.7967	599.17
72.8111	615.76
72.8255	647.51
72.8400	620.66
72.8544	563.13
72.8689	571.35
72.8833	557.39

Result vector
22.1120	624.16
22.1264	525.40
22.1409	629.90
22.1553	621.55
22.1697	601.09
22.1842	645.31
22.1986	572.41
22.2131	571.64
22.2275	547.87
22.2419	584.33
22.2564	665.18
22.2708	680.98
22.2853	726.79
22.2997	587.39
22.3141	602.65
22.3286	559.78
22.3430	579.31
22.3575	545.88
22.3719	484.27
22.3863	533.30
22.4008	532.16
22.4152	574.37
22.4297	660.97
22.4441	634.90
22.4585	585.08
22.4730	548.21
22.4874	641.78
22.5019	653.35
22.5163	629.09
22.5307	644.23
22.5452	553.43
22.5596	498.62
22.5741	557.84
22.5885	563.91
22.6029	583.87
22.6174	572.69
22.6318	520.60
22.6463	553.19
22.6607	586.51
22.6751	502.34
22.6896	537.59
22.7040	535.06
22.7185	541.65
22.7329	534.15
22.7473	574.35
22.7618	488.31
22.7762	500.58
22.7907	663.74
22.8051	573.00
22.8195	491.87
22.8340	543.88
22.8484	589.06
22.8629	520.72
22.8773	577.83
22.8917	526.24
22.9062	544.90
22.9206	519.03
22.9351	514.65
22.9495	522.09
22.9639	492.77
22.9784	551.08
22.9928	484.36
23.0073	522.90
23.0217	541.58
23.0361	456.54
23.0506	498.20
23.0650	481.20
23.0795	614.24
23.0939	571.84
23.1083	532.30
23.1228	554.78
23.1372	572.67
23.1517	484.49
23.1661	625.01
23.1806	597.01
23.1950	541.88
23.2094	522.80
23.2239	574.61
23.2383	491.44
23.2528	541.06
23.2672	536.24
23.2816	522.77
23.2961	467.05
23.3105	521.41
23.3250	508.69
23.3394	570.09
23.3538	602.96
23.3683	584.02
23.3827	563.43
23.3972	508.12
23.4116	533.86
23.4260	546.69
23.4405	551.91
23.4549	466.96
23.4694	575.63
23.4838	551.70
23.4982	514.50
23.5127	579.17
23.5271	592.45
23.5416	566.47
23.5560	635.52
23.5704	589.84
23.5849	524.00
23.5993	576.15
23.6138	565.18
23.6282	558.45
23.6426	556.11
23.6571	563.76
23.6715	538.04
23.6860	568.37
23.7004	557.11
23.7148	520.98
23.7293	501.77
23.7437	549.33
23.7582	560.70
23.7726	549.46
23.7870	508.93
23.8015	510.74
23.8159	620.92
23.8304	560.27
23.8448	549.44
23.8592	568.20
23.8737	577.95
23.8881	513.98
23.9026	628.11
23.9170	534.02
23.9314	499.80
23.9459	538.32
23.9603	585.95
23.9748	572.08
23.9892	546.46
24.0036	520.96
24.0181	510.45
24.0325	549.21
24.0470	502.21
24.0614	596.23
24.0758	534.84
24.0903	567.46
24.1047	519.08
24.1192	536.87
24.1336	598.59
24.1480	563.98
24.1625	611.19
24.1769	574.66
24.1914	557.53
24.2058	499.17
24.2202	559.03
24.2347	662.07
24.2491	645.31
24.2636	587.63
24.2780	609.59
24.2924	593.71
24.3069	596.92
24.3213	554.03
24.3358	588.16
24.3502	607.20
24.3646	551.90
24.3791	550.26
24.3935	529.60
24.4080	554.20
24.4224	567.81
24.4368	612.14
24.4513	544.54
24.4657	542.71
24.4802	616.41
24.4946	540.26
24.5090	565.64
24.5235	553.53
24.5379	524.00
24.5524	528.26
24.5668	546.31
24.5812	527.53
24.5957	558.75
24.6101	555.97
24.6246	593.62
24.6390	561.42
24.6534	542.16
24.6679	555.31
24.6823	543.75
24.6968	574.80
24.7112	541.13
24.7256	531.72
24.7401	481.79
24.7545	506.47
24.7690	583.44
24.7834	501.29
24.7978	543.95
24.8123	486.16
24.8267	581.29
24.8412	549.12
24.8556	543.45
24.8700	563.49
24.8845	536.24
24.8989	519.16
24.9134	534.39
24.9278	490.93
24.9422	457.97
24.9567	513.71
24.9711	514.47
24.9856	604.12
25.0000	525.49
25.0144	513.62
25.0289	518.03
25.0433	554.31
25.0578	581.21
25.0722	507.45
25.0866	514.44
25.1011	476.40
25.1155	541.29
25.1300	573.98
25.1444	512.09
25.1588	573.67
25.1733	576.66
25.1877	514.86
25.2022	523.73
25.2166	584.15
25.2310	544.18
25.2455	539.31
25.2599	569.35
25.2744	510.79
25.2888	552.75
25.3032	555.90
25.3177	516.81
25.3321	559.11
25.3466	563.66
25.3610	525.90
25.3754	518.37
25.3899	538.03
25.4043	528.31
25.4188	535.89
25.4332	517.22
25.4476	503.14
25.4621	522.82
25.4765	554.57
25.4910	557.76
25.5054	561.39
25.5198	523.89
25.5343	501.41
25.5487	510.99
25.5632	549.22
25.5776	564.73
25.5920	535.78
25.6065	542.93
25.6209	498.99
25.6354	525.17
25.6498	546.26
25.6642	512.70
25.6787	484.38
25.6931	503.91
25.7076	523.18
25.7220	553.88
25.7364	561.63
25.7509	572.87
25.7653	540.08
25.7798	518.03
25.7942	517.06
25.8086	534.32
25.8231	540.92
25.8375	524.48
25.8520	503.24
25.8664	590.51
25.8808	577.83
25.8953	525.40
25.9097	524.46
25.9242	544.17
25.9386	586.64
25.9530	584.97
25.9675	530.77
25.9819	550.26
25.9964	540.24
26.0108	521.76
26.0252	518.21
26.0397	572.43
26.0541	516.35
26.0686	543.77
26.0830	527.14
26.0974	538.77
26.1119	504.98
26.1263	561.00
26.1408	523.56
26.1552	500.87
26.1696	529.18
26.1841	520.93
26.1985	539.18
26.2130	517.22
26.2274	556.78
26.2418	534.49
26.2563	500.24
26.2707	519.57
26.2852	573.74
26.2996	564.23
26.3140	563.45
26.3285	531.02
26.3429	527.31
26.3574	510.63
26.3718	517.01
26.3862	518.15
26.4007	503.05
26.4151	534.33
26.4296	522.64
26.4440	523.09
26.4584	538.61
26.4729	535.64
26.4873	536.92
26.5018	549.51
26.5162	561.80
26.5306	562.10
26.5451	540.22
26.5595	523.72
26.5740	533.50
26.5884	575.44
26.6028	589.21
26.6173	515.65
26.6317	510.74
26.6462	519.59
26.6606	519.73
26.6750	511.58
26.6895	541.48
26.7039	541.90
26.7184	537.19
26.7328	515.94
26.7472	518.92
26.7617	535.01
26.7761	516.63
26.7906	552.16
26.8050	537.59
26.8194	538.59
26.8339	520.70
26.8483	552.72
26.8628	535.49
26.8772	520.43
26.8917	524.87
26.9061	511.69
26.9205	543.97
26.9350	510.40
26.9494	497.03
26.9639	532.06
26.9783	523.31
26.9927	521.02
27.0072	529.88
27.0216	539.42
27.0361	510.78
27.0505	511.66
27.0649	503.33
27.0794	509.67
27.0938	507.58
27.1083	523.58
27.1227	534.36
27.1371	522.45
27.1516	500.88
27.1660	512.22
27.1805	568.36
27.1949	550.01
27.2093	535.51
27.2238	501.98
27.2382	528.02
27.2527	529.82
27.2671	512.02
27.2815	541.31
27.2960	473.99
27.3104	496.95
27.3249	503.50
27.3393	527.20
27.3537	541.43
27.3682	529.04
27.3826	517.68
27.3971	501.16
27.4115	493.38
27.4259	517.38
27.4404	537.77
27.4548	483.48
27.4693	512.97
27.4837	527.31
27.4981	491.15
27.5126	497.87
27.5270	508.03
27.5415	547.29
27.5559	521.83
27.5703	502.94
27.5848	513.74
27.5992	513.73
27.6137	513.60
27.6281	533.47
27.6425	562.41
27.6570	550.66
27.6714	527.31
27.6859	525.03
27.7003	537.23
27.7147	525.46
27.7292	517.52
27.7436	522.55
27.7581	502.70
27.7725	512.67
27.7869	502.46
27.8014	517.44
27.8158	538.32
27.8303	508.99
27.8447	530.12
27.8591	515.36
27.8736	524.31
27.8880	503.50
27.9025	518.12
27.9169	477.73
27.9313	512.11
27.9458	513.55
27.9602	510.31
27.9747	500.07
27.9891	483.96
28.0035	538.76
28.0180	546.48
28.0324	523.62
28.0469	528.17
28.0613	548.49
28.0757	526.36
28.0902	548.61
28.1046	523.52
28.1191	508.08
28.1335	525.41
28.1479	473.14
28.1624	479.72
28.1768	540.71
28.1913	487.08
28.2057	494.28
28.2201	533.19
28.2346	530.76
28.2490	532.94
28.2635	495.32
28.2779	505.42
28.2923	534.87
28.3068	521.76
28.3212	526.13
28.3357	518.42
28.3501	488.03
28.3645	492.51
28.3790	504.68
28.3934	480.65
28.4079	518.78
28.4223	526.76
28.4367	531.38
28.4512	486.63
28.4656	560.75
28.4801	531.82
28.4945	498.70
28.5089	513.03
28.5234	560.80
28.5378	528.31
28.5523	490.60
28.5667	481.82
28.5811	521.86
28.5956	557.94
28.6100	544.69
28.6245	524.88
28.6389	513.20
28.6533	493.68
28.6678	501.96
28.6822	499.21
28.6967	529.88
28.7111	519.65
28.7255	534.36
28.7400	513.27
28.7544	520.71
28.7689	507.89
28.7833	472.50
28.7977	499.14
28.8122	530.42
28.8266	497.73
28.8411	537.51
28.8555	505.94
28.8699	528.96
28.8844	506.81
28.8988	495.13
28.9133	544.45
28.9277	546.40
28.9421	507.96
28.9566	468.92
28.9710	490.65
28.9855	507.51
28.9999	496.18
29.0143	545.43
29.0288	520.16
29.0432	520.03
29.0577	524.49
29.0721	545.95
29.0865	498.78
29.1010	522.47
29.1154	512.36
29.1299	477.65
29.1443	478.95
29.1587	491.52
29.1732	537.57
29.1876	516.68
29.2021	489.15
29.2165	512.97
29.2309	491.11
29.2454	492.42
29.2598	464.52
29.2743	512.80
29.2887	495.14
29.3031	507.89
29.3176	503.88
29.3320	536.89
29.3465	507.84
29.3609	539.06
29.3753	514.91
29.3898	536.73
29.4042	510.66
29.4187	503.46
29.4331	546.84
29.4475	487.48
29.4620	484.41
29.4764	478.64
29.4909	515.75
29.5053	471.84
29.5197	510.47
29.5342	520.77
29.5486	504.72
29.5631	510.46
29.5775	527.04
29.5919	544.95
29.6064	517.39
29.6208	489.81
29.6353	492.71
29.6497	512.56
29.6641	532.29
29.6786	493.24
29.6930	485.04
29.7075	505.14
29.7219	474.46
29.7363	506.49
29.7508	499.81
29.7652	516.39
29.7797	524.04
29.7941	526.30
29.8085	509.16
29.8230	499.31
29.8374	505.70
29.8519	496.12
29.8663	525.13
29.8807	499.18
29.8952	499.51
29.9096	536.01
29.9241	511.39
29.9385	493.23
29.9529	496.79
29.9674	518.71
29.9818	492.09
29.9963	467.51
30.0107	498.18
30.0251	518.30
30.0396	497.19
30.0540	519.11
30.0685	503.43
30.0829	527.89
30.0973	510.41
30.1118	474.39
30.1262	505.43
30.1407	516.84
30.1551	511.47
30.1695	507.77
30.1840	490.39
30.1984	498.63
30.2129	494.85
30.2273	501.81
30.2417	531.91
30.2562	516.08
30.2706	508.05
30.2851	497.75
30.2995	523.72
30.3139	511.14
30.3284	511.44
30.3428	543.22
30.3573	544.21
30.3717	508.58
30.3861	508.56
30.4006	533.27
30.4150	510.08
30.4295	544.72
30.4439	509.19
30.4583	539.42
30.4728	555.03
30.4872	502.31
30.5017	518.92
30.5161	526.41
30.5305	542.38
30.5450	594.00
30.5594	592.43
30.5739	581.30
30.5883	641.99
30.6028	686.49
30.6172	706.06
30.6316	745.25
30.6461	720.96
30.6605	714.52
30.6750	681.79
30.6894	696.12
30.7038	707.92
30.7183	640.86
30.7327	646.32
30.7472	624.90
30.7616	622.23
30.7760	600.19
30.7905	563.86
30.8049	567.50
30.8194	562.19
30.8338	542.77
30.8482	555.34
30.8627	540.78
30.8771	541.53
30.8916	514.62
30.9060	528.90
30.9204	527.13
30.9349	512.71
30.9493	529.42
30.9638	496.93
30.9782	515.66
30.9926	529.98
31.0071	531.03
31.0215	533.47
31.0360	529.96
31.0504	512.43
31.0648	497.27
31.0793	520.47
31.0937	520.82
31.1082	488.49
31.1226	495.18
31.1370	476.79
31.1515	464.09
31.1659	486.69
31.1804	492.09
31.1948	494.68
31.2092	510.41
31.2237	497.86
31.2381	512.45
31.2526	528.39
31.2670	527.90
31.2814	532.82
31.2959	525.32
31.3103	564.98
31.3248	550.09
31.3392	528.80
31.3536	515.10
31.3681	511.30
31.3825	507.24
31.3970	542.46
31.4114	509.90
31.4258	545.04
31.4403	536.15
31.4547	505.21
31.4692	501.47
31.4836	476.41
31.4980	518.19
31.5125	517.85
31.5269	466.55
31.5414	500.55
31.5558	537.71
31.5702	496.69
31.5847	455.12
31.5991	515.44
31.6136	518.65
31.6280	491.29
31.6424	495.14
31.6569	503.08
31.6713	493.37
31.6858	520.20
31.7002	486.65
31.7146	501.38
31.7291	472.48
31.7435	527.91
31.7580	506.43
31.7724	506.69
31.7868	464.45
31.8013	453.06
31.8157	517.67
31.8302	523.86
31.8446	472.98
31.8590	500.12
31.8735	501.15
31.8879	473.30
31.9024	506.66
31.9168	500.62
31.9312	500.94
31.9457	488.72
31.9601	505.14
31.9746	484.75
31.9890	542.70
32.0034	505.74
32.0179	488.82
32.0323	520.49
32.0468	510.90
32.0612	499.40
32.0756	537.89
32.0901	529.45
32.1045	494.41
32.1190	515.03
32.1334	512.30
32.1478	483.98
32.1623	517.04
32.1767	500.60
32.1912	464.87
32.2056	475.31
32.2200	505.84
32.2345	516.13
32.2489	494.32
32.2634	531.27
32.2778	484.50
32.2922	507.74
32.3067	478.47
32.3211	519.44
32.3356	517.60
32.3500	498.22
32.3644	492.03
32.3789	487.53
32.3933	492.07
32.4078	500.92
32.4222	510.10
32.4366	516.44
32.4511	500.97
32.4655	517.14
32.4800	523.20
32.4944	508.30
32.5088	521.32
32.5233	523.41
32.5377	507.71
32.5522	488.15
32.5666	503.24
32.5810	484.04
32.5955	517.52
32.6099	508.91
32.6244	503.89
32.6388	518.15
32.6532	517.67
32.6677	476.72
32.6821	479.39
32.6966	510.64
32.7110	511.66
32.7254	484.03
32.7399	529.10
32.7543	519.34
32.7688	493.80
32.7832	513.44
32.7976	496.58
32.8121	495.45
32.8265	505.61
32.8410	510.36
32.8554	490.18
32.8698	488.60
32.8843	488.05
32.8987	508.92
32.9132	500.06
32.9276	512.63
32.9420	508.68
32.9565	500.48
32.9709	489.25
32.9854	500.76
32.9998	497.67
33.0142	505.11
33.0287	480.85
33.0431	505.85
33.0576	538.99
33.0720	460.77
33.0864	471.70
33.1009	528.75
33.1153	486.51
33.1298	486.19
33.1442	487.53
33.1586	480.68
33.1731	508.86
33.1875	533.35
33.2020	509.89
33.2164	494.96
33.2308	478.63
33.2453	511.32
33.2597	520.63
33.2742	506.72
33.2886	467.06
33.3030	492.03
33.3175	487.16
33.3319	514.89
33.3464	491.86
33.3608	505.06
33.3752	499.23
33.3897	510.87
33.4041	500.84
33.4186	548.84
33.4330	480.73
33.4474	516.71
33.4619	482.73
33.4763	506.60
33.4908	483.15
33.5052	534.47
33.5196	471.62
33.5341	481.72
33.5485	505.84
33.5630	531.69
33.5774	465.85
33.5918	497.93
33.6063	503.84
33.6207	499.93
33.6352	479.04
33.6496	518.70
33.6640	506.67
33.6785	502.00
33.6929	507.06
33.7074	523.74
33.7218	497.49
33.7362	514.46
33.7507	534.41
33.7651	511.87
33.7796	489.78
33.7940	494.54
33.8084	488.75
33.8229	489.10
33.8373	514.78
33.8518	509.74
33.8662	544.67
33.8806	496.07
33.8951	510.91
33.9095	488.51
33.9240	510.51
33.9384	513.94
33.9528	507.14
33.9673	506.19
33.9817	500.17
33.9962	496.89
34.0106	491.27
34.0250	532.20
34.0395	536.40
34.0539	532.85
34.0684	564.38
34.0828	494.93
34.0972	473.11
34.1117	489.19
34.1261	523.06
34.1406	486.11
34.1550	480.60
34.1694	506.88
34.1839	523.02
34.1983	494.44
34.2128	516.54
34.2272	520.81
34.2417	496.39
34.2561	520.08
34.2705	531.15
34.2850	498.11
34.2994	463.03
34.3139	509.25
34.3283	475.32
34.3427	504.11
34.3572	500.09
34.3716	506.39
34.3861	483.23
34.4005	465.10
34.4149	487.61
34.4294	547.19
34.4438	527.84
34.4583	483.43
34.4727	475.08
34.4871	502.59
34.5016	502.74
34.5160	483.54
34.5305	497.80
34.5449	490.87
34.5593	475.95
34.5738	471.73
34.5882	504.67
34.6027	489.90
34.6171	476.04
34.6315	499.58
34.6460	514.69
34.6604	493.29
34.6749	496.89
34.6893	515.62
34.7037	533.35
34.7182	514.77
34.7326	496.68
34.7471	500.13
34.7615	501.86
34.7759	481.05
34.7904	481.34
34.8048	520.62
34.8193	526.13
34.8337	496.57
34.8481	480.82
34.8626	511.10
34.8770	517.53
34.8915	519.48
34.9059	523.06
34.9203	529.95
34.9348	535.73
34.9492	495.26
34.9637	485.56
34.9781	520.22
34.9925	512.61
35.0070	513.62
35.0214	536.61
35.0359	516.81
35.0503	499.02
35.0647	500.50
35.0792	504.33
35.0936	497.70
35.1081	510.01
35.1225	544.41
35.1369	505.63
35.1514	492.36
35.1658	489.24
35.1803	524.55
35.1947	533.60
35.2091	479.07
35.2236	471.92
35.2380	502.60
35.2525	515.66
35.2669	524.26
35.2813	492.75
35.2958	492.31
35.3102	499.86
35.3247	511.26
35.3391	542.38
35.3535	541.99
35.3680	505.40
35.3824	512.81
35.3969	514.58
35.4113	486.37
35.4257	503.10
35.4402	510.39
35.4546	512.33
35.4691	550.34
35.4835	539.61
35.4979	522.94
35.5124	524.80
35.5268	525.84
35.5413	534.95
35.5557	499.33
35.5701	504.39
35.5846	520.55
35.5990	519.08
35.6135	524.72
35.6279	512.15
35.6423	523.45
35.6568	536.89
35.6712	525.93
35.6857	583.53
35.7001	638.61
35.7145	721.07
35.7290	687.92
35.7434	615.09
35.7579	599.87
35.7723	594.49
35.7867	637.53
35.8012	738.96
35.8156	726.18
35.8301	681.41
35.8445	675.35
35.8589	682.48
35.8734	758.37
35.8878	910.46
35.9023	1033.03
35.9167	1059.57
35.9311	1156.60
35.9456	1582.07
35.9600	2066.41
35.9745	1982.67
35.9889	2075.33
36.0033	2575.73
36.0178	2985.32
36.0322	3172.55
36.0467	2510.16
36.0611	2178.15
36.0755	2045.62
36.0900	2154.03
36.1044	1784.03
36.1189	1638.25
36.1333	1594.76
36.1477	1408.32
36.1622	1270.28
36.1766	1182.16
36.1911	1018.38
36.2055	969.91
36.2199	907.66
36.2344	866.37
36.2488	761.36
36.2633	663.14
36.2777	623.93
36.2921	608.13
36.3066	604.21
36.3210	613.15
36.3355	606.74
36.3499	578.18
36.3643	586.48
36.3788	534.23
36.3932	537.94
36.4077	530.05
36.4221	512.36
36.4365	531.26
36.4510	518.38
36.4654	548.19
36.4799	534.81
36.4943	560.53
36.5087	533.38
36.5232	528.16
36.5376	522.73
36.5521	527.19
36.5665	525.52
36.5809	540.14
36.5954	510.97
36.6098	511.29
36.6243	498.32
36.6387	527.59
36.6531	513.74
36.6676	493.99
36.6820	541.77
36.6965	536.15
36.7109	561.24
36.7253	517.67
36.7398	522.54
36.7542	531.41
36.7687	556.42
36.7831	563.11
36.7975	543.17
36.8120	592.87
36.8264	562.20
36.8409	594.64
36.8553	563.98
36.8697	595.39
36.8842	548.83
36.8986	611.88
36.9131	564.98
36.9275	559.08
36.9419	582.11
36.9564	575.89
36.9708	570.17
36.9853	557.39
36.9997	564.42
37.0141	550.66
37.0286	511.23
37.0430	509.19
37.0575	506.02
37.0719	538.05
37.0863	531.49
37.1008	573.10
37.1152	540.75
37.1297	525.65
37.1441	497.61
37.1585	505.00
37.1730	526.59
37.1874	495.09
37.2019	495.23
37.2163	503.94
37.2307	500.67
37.2452	478.25
37.2596	497.02
37.2741	499.05
37.2885	486.30
37.3029	477.10
37.3174	508.88
37.3318	510.46
37.3463	494.10
37.3607	514.02
37.3751	502.91
37.3896	505.13
37.4040	493.63
37.4185	495.03
37.4329	459.23
37.4473	510.43
37.4618	486.94
37.4762	466.97
37.4907	517.78
37.5051	501.49
37.5195	522.23
37.5340	497.60
37.5484	522.80
37.5629	506.39
37.5773	501.29
37.5917	535.10
37.6062	476.69
37.6206	502.38
37.6351	530.34
37.6495	537.30
37.6639	507.36
37.6784	516.30
37.6928	494.49
37.7073	481.99
37.7217	512.08
37.7361	507.64
37.7506	507.08
37.7650	503.02
37.7795	515.96
37.7939	504.49
37.8083	513.46
37.8228	508.91
37.8372	524.95
37.8517	537.59
37.8661	532.32
37.8805	485.05
37.8950	508.03
37.9094	528.74
37.9239	496.56
37.9383	456.89
37.9528	488.92
37.9672	491.37
37.9816	479.45
37.9961	507.43
38.0105	496.92
38.0250	507.17
38.0394	487.00
38.0538	487.52
38.0683	517.00
38.0827	511.40
38.0972	473.48
38.1116	523.35
38.1260	497.18
38.1405	495.55
38.1549	476.41
38.1694	505.69
38.1838	517.28
38.1982	502.25
38.2127	499.28
38.2271	496.55
38.2416	502.17
38.2560	526.66
38.2704	484.29
38.2849	518.81
38.2993	517.99
38.3138	540.17
38.3282	511.90
38.3426	525.24
38.3571	543.23
38.3715	529.79
38.3860	513.56
38.4004	519.93
38.4148	532.05
38.4293	561.19
38.4437	558.23
38.4582	570.41
38.4726	612.03
38.4870	661.29
38.5015	728.85
38.5159	762.29
38.5304	801.54
38.5448	824.54
38.5592	794.16
38.5737	762.53
38.5881	713.04
38.6026	670.25
38.6170	661.48
38.6314	688.70
38.6459	680.13
38.6603	674.52
38.6748	629.89
38.6892	594.01
38.7036	609.28
38.7181	561.38
38.7325	540.45
38.7470	517.10
38.7614	513.06
38.7758	545.32
38.7903	535.20
38.8047	505.20
38.8192	474.53
38.8336	482.51
38.8480	500.15
38.8625	519.87
38.8769	484.96
38.8914	499.26
38.9058	511.68
38.9202	502.40
38.9347	522.45
38.9491	519.03
38.9636	503.28
38.9780	521.51
38.9924	469.37
39.0069	465.85
39.0213	518.12
39.0358	523.60
39.0502	503.47
39.0646	503.91
39.0791	528.48
39.0935	526.98
39.1080	480.25
39.1224	477.26
39.1368	503.77
39.1513	482.81
39.1657	488.44
39.1802	493.36
39.1946	504.03
39.2090	515.60
39.2235	511.66
39.2379	474.43
39.2524	515.17
39.2668	518.59
39.2812	500.15
39.2957	491.67
39.3101	498.70
39.3246	508.29
39.3390	524.35
39.3534	524.84
39.3679	497.89
39.3823	492.05
39.3968	530.85
39.4112	518.04
39.4256	512.59
39.4401	521.87
39.4545	475.06
39.4690	475.18
39.4834	494.33
39.4978	495.07
39.5123	537.06
39.5267	508.22
39.5412	507.82
39.5556	530.99
39.5700	518.37
39.5845	502.10
39.5989	506.12
39.6134	476.99
39.6278	507.46
39.6422	496.04
39.6567	479.70
39.6711	469.22
39.6856	477.36
39.7000	516.61
39.7144	498.33
39.7289	430.34
39.7433	481.70
39.7578	493.13
39.7722	484.94
39.7866	509.85
39.8011	478.48
39.8155	484.49
39.8300	474.41
39.8444	500.61
39.8588	482.82
39.8733	500.96
39.8877	474.58
39.9022	493.53
39.9166	453.02
39.9310	482.88
39.9455	489.43
39.9599	455.27
39.9744	478.08
39.9888	512.75
40.0032	509.79
40.0177	505.93
40.0321	485.74
40.0466	470.02
40.0610	494.52
40.0754	505.67
40.0899	484.08
40.1043	476.68
40.1188	487.59
40.1332	474.67
40.1476	492.38
40.1621	473.48
40.1765	491.25
40.1910	493.74
40.2054	480.27
40.2198	489.86
40.2343	474.90
40.2487	479.07
40.2632	476.90
40.2776	486.73
40.2920	488.72
40.3065	484.20
40.3209	468.94
40.3354	515.51
40.3498	514.49
40.3642	511.48
40.3787	507.21
40.3931	475.84
40.4076	475.53
40.4220	501.87
40.4364	517.49
40.4509	476.23
40.4653	517.27
40.4798	505.10
40.4942	489.66
40.5086	485.82
40.5231	487.80
40.5375	506.52
40.5520	453.41
40.5664	502.91
40.5808	493.62
40.5953	486.54
40.6097	513.86
40.6242	496.75
40.6386	522.84
40.6530	494.92
40.6675	506.94
40.6819	487.84
40.6964	485.86
40.7108	505.73
40.7252	513.59
40.7397	479.67
40.7541	490.46
40.7686	489.04
40.7830	513.58
40.7974	487.67
40.8119	517.11
40.8263	483.94
40.8408	509.23
40.8552	500.62
40.8696	546.47
40.8841	519.52
40.8985	493.78
40.9130	550.17
40.9274	502.16
40.9418	480.55
40.9563	529.57
40.9707	478.18
40.9852	509.16
40.9996	523.64
41.0140	489.72
41.0285	512.50
41.0429	504.26
41.0574	483.71
41.0718	463.28
41.0862	498.36
41.1007	538.37
41.1151	518.34
41.1296	490.59
41.1440	444.59
41.1584	464.99
41.1729	482.61
41.1873	510.41
41.2018	470.05
41.2162	500.72
41.2306	503.40
41.2451	500.74
41.2595	485.30
41.2740	490.95
41.2884	498.06
41.3028	532.71
41.3173	523.89
41.3317	503.25
41.3462	500.33
41.3606	487.83
41.3750	484.70
41.3895	511.14
41.4039	510.10
41.4184	529.57
41.4328	519.30
41.4472	493.76
41.4617	491.99
41.4761	514.28
41.4906	503.14
41.5050	483.68
41.5194	488.75
41.5339	481.00
41.5483	476.82
41.5628	486.38
41.5772	508.74
41.5916	486.33
41.6061	459.73
41.6205	478.78
41.6350	492.49
41.6494	490.71
41.6639	503.09
41.6783	478.31
41.6927	451.96
41.7072	517.42
41.7216	496.13
41.7361	438.41
41.7505	508.35
41.7649	489.84
41.7794	501.29
41.7938	535.67
41.8083	527.93
41.8227	476.60
41.8371	506.63
41.8516	512.80
41.8660	555.25
41.8805	548.57
41.8949	538.62
41.9093	557.11
41.9238	541.58
41.9382	555.11
41.9527	529.04
41.9671	506.85
41.9815	523.09
41.9960	554.54
42.0104	557.84
42.0249	538.19
42.0393	561.77
42.0537	578.40
42.0682	549.96
42.0826	552.76
42.0971	576.65
42.1115	572.03
42.1259	597.49
42.1404	591.26
42.1548	601.42
42.1693	642.04
42.1837	661.34
42.1981	716.13
42.2126	855.70
42.2270	1001.78
42.2415	1076.67
42.2559	1225.91
42.2703	1371.76
42.2848	1557.99
42.2992	1693.56
42.3137	1712.84
42.3281	1684.32
42.3425	1611.86
42.3570	1490.14
42.3714	1409.50
42.3859	1390.25
42.4003	1376.43
42.4147	1308.58
42.4292	1319.97
42.4436	1193.42
42.4581	1019.10
42.4725	967.26
42.4869	832.88
42.5014	784.61
42.5158	713.80
42.5303	651.99
42.5447	624.41
42.5591	598.32
42.5736	570.91
42.5880	569.75
42.6025	579.64
42.6169	579.96
42.6313	564.79
42.6458	526.23
42.6602	556.56
42.6747	562.01
42.6891	517.04
42.7035	550.36
42.7180	554.50
42.7324	539.53
42.7469	521.50
42.7613	514.39
42.7757	550.75
42.7902	525.71
42.8046	510.84
42.8191	572.81
42.8335	537.41
42.8479	520.87
42.8624	505.49
42.8768	517.14
42.8913	508.14
42.9057	533.56
42.9201	501.02
42.9346	485.20
42.9490	498.59
42.9635	519.39
42.9779	544.55
42.9923	507.55
43.0068	488.20
43.0212	536.46
43.0357	539.29
43.0501	538.48
43.0645	527.25
43.0790	468.43
43.0934	512.75
43.1079	543.78
43.1223	510.12
43.1367	500.97
43.1512	505.82
43.1656	517.90
43.1801	547.90
43.1945	509.84
43.2089	523.27
43.2234	537.29
43.2378	519.73
43.2523	499.70
43.2667	493.39
43.2811	545.05
43.2956	510.24
43.3100	504.79
43.3245	498.61
43.3389	515.34
43.3533	515.27
43.3678	528.09
43.3822	477.92
43.3967	522.29
43.4111	538.15
43.4255	541.69
43.4400	529.23
43.4544	483.32
43.4689	491.77
43.4833	487.95
43.4977	509.54
43.5122	521.11
43.5266	518.24
43.5411	489.32
43.5555	499.86
43.5699	522.55
43.5844	578.57
43.5988	533.59
43.6133	520.14
43.6277	530.48
43.6421	513.76
43.6566	557.33
43.6710	539.12
43.6855	534.57
43.6999	525.41
43.7143	527.49
43.7288	541.78
43.7432	554.63
43.7577	583.93
43.7721	609.71
43.7865	619.76
43.8010	588.64
43.8154	654.49
43.8299	610.48
43.8443	656.97
43.8587	640.89
43.8732	641.20
43.8876	611.65
43.9021	666.41
43.9165	623.63
43.9309	605.79
43.9454	635.23
43.9598	557.54
43.9743	542.94
43.9887	600.27
44.0031	550.84
44.0176	579.92
44.0320	567.24
44.0465	527.70
44.0609	541.21
44.0753	547.73
44.0898	530.82
44.1042	536.23
44.1187	527.92
44.1331	512.25
44.1475	499.79
44.1620	526.94
44.1764	487.78
44.1909	468.11
44.2053	490.28
44.2197	517.88
44.2342	511.69
44.2486	502.40
44.2631	510.43
44.2775	521.79
44.2919	531.88
44.3064	519.41
44.3208	560.29
44.3353	528.53
44.3497	537.26
44.3641	540.33
44.3786	524.01
44.3930	549.85
44.4075	514.07
44.4219	552.63
44.4363	589.49
44.4508	550.15
44.4652	582.38
44.4797	611.06
44.4941	556.71
44.5085	559.22
44.5230	576.29
44.5374	606.40
44.5519	568.39
44.5663	545.34
44.5807	572.95
44.5952	548.45
44.6096	566.79
44.6241	531.39
44.6385	546.56
44.6529	565.77
44.6674	550.86
44.6818	556.61
44.6963	612.77
44.7107	678.36
44.7251	700.13
44.7396	699.72
44.7540	753.69
44.7685	778.67
44.7829	848.95
44.7973	854.30
44.8118	831.20
44.8262	800.57
44.8407	775.25
44.8551	732.29
44.8695	719.22
44.8840	730.92
44.8984	759.38
44.9129	701.70
44.9273	712.17
44.9417	674.49
44.9562	618.16
44.9706	594.39
44.9851	540.99
44.9995	526.02
45.0139	522.40
45.0284	555.03
45.0428	532.48
45.0573	518.60
45.0717	513.96
45.0861	519.24
45.1006	515.06
45.1150	533.91
45.1295	508.41
45.1439	533.24
45.1583	529.10
45.1728	510.47
45.1872	479.02
45.2017	507.63
45.2161	496.50
45.2305	529.43
45.2450	526.74
45.2594	524.85
45.2739	484.88
45.2883	510.71
45.3028	516.97
45.3172	524.57
45.3316	534.46
45.3461	516.32
45.3605	498.20
45.3750	494.73
45.3894	503.85
45.4038	479.07
45.4183	503.17
45.4327	502.78
45.4472	516.04
45.4616	529.49
45.4760	538.91
45.4905	511.59
45.5049	473.37
45.5194	466.35
45.5338	514.10
45.5482	478.33
45.5627	522.31
45.5771	502.86
45.5916	506.26
45.6060	504.67
45.6204	516.76
45.6349	507.02
45.6493	512.49
45.6638	514.67
45.6782	492.99
45.6926	486.48
45.7071	540.40
45.7215	486.99
45.7360	484.05
45.7504	509.22
45.7648	490.78
45.7793	523.22
45.7937	519.75
45.8082	516.30
45.8226	482.03
45.8370	499.89
45.8515	507.57
45.8659	492.66
45.8804	475.75
45.8948	460.43
45.9092	480.99
45.9237	480.38
45.9381	531.26
45.9526	512.75
45.9670	513.49
45.9814	527.24
45.9959	494.21
46.0103	472.64
46.0248	472.47
46.0392	462.73
46.0536	471.54
46.0681	490.34
46.0825	508.41
46.0970	503.09
46.1114	489.67
46.1258	522.96
46.1403	508.10
46.1547	492.38
46.1692	523.33
46.1836	531.43
46.1980	536.00
46.2125	474.29
46.2269	488.52
46.2414	503.43
46.2558	508.03
46.2702	500.99
46.2847	506.69
46.2991	482.95
46.3136	482.27
46.3280	497.04
46.3424	512.83
46.3569	513.70
46.3713	509.04
46.3858	497.43
46.4002	497.70
46.4146	510.44
46.4291	518.74
46.4435	514.51
46.4580	490.50
46.4724	460.09
46.4868	486.23
46.5013	498.93
46.5157	517.25
46.5302	499.38
46.5446	524.52
46.5590	513.42
46.5735	476.91
46.5879	496.98
46.6024	472.36
46.6168	492.19
46.6312	515.11
46.6457	520.27
46.6601	482.02
46.6746	457.70
46.6890	463.24
46.7034	513.02
46.7179	518.42
46.7323	482.81
46.7468	524.40
46.7612	506.61
46.7756	484.99
46.7901	520.37
46.8045	509.36
46.8190	480.81
46.8334	454.61
46.8478	478.32
46.8623	513.90
46.8767	496.81
46.8912	488.86
46.9056	501.24
46.9200	515.63
46.9345	517.47
46.9489	526.59
46.9634	513.50
46.9778	512.05
46.9922	512.65
47.0067	478.17
47.0211	513.21
47.0356	524.18
47.0500	525.03
47.0644	509.85
47.0789	530.13
47.0933	529.44
47.1078	499.29
47.1222	513.74
47.1366	513.17
47.1511	489.55
47.1655	494.52
47.1800	504.32
47.1944	506.55
47.2088	494.78
47.2233	474.93
47.2377	483.15
47.2522	516.39
47.2666	500.13
47.2810	479.02
47.2955	476.56
47.3099	496.30
47.3244	507.13
47.3388	540.07
47.3532	515.99
47.3677	492.55
47.3821	506.61
47.3966	498.55
47.4110	491.48
47.4254	518.41
47.4399	520.00
47.4543	485.41
47.4688	503.80
47.4832	523.96
47.4976	498.66
47.5121	514.31
47.5265	509.90
47.5410	503.24
47.5554	493.32
47.5698	485.09
47.5843	507.32
47.5987	517.23
47.6132	535.93
47.6276	514.99
47.6420	500.97
47.6565	532.60
47.6709	519.22
47.6854	507.70
47.6998	495.98
47.7142	473.90
47.7287	474.90
47.7431	522.86
47.7576	504.13
47.7720	507.33
47.7864	502.85
47.8009	492.97
47.8153	504.97
47.8298	505.11
47.8442	485.44
47.8586	529.82
47.8731	517.07
47.8875	498.21
47.9020	500.51
47.9164	481.14
47.9308	477.17
47.9453	483.28
47.9597	468.65
47.9742	496.07
47.9886	471.79
48.0030	489.80
48.0175	509.75
48.0319	479.28
48.0464	507.70
48.0608	528.50
48.0752	525.26
48.0897	519.15
48.1041	511.41
48.1186	509.15
48.1330	526.44
48.1474	486.72
48.1619	488.09
48.1763	504.70
48.1908	491.54
48.2052	518.92
48.2196	493.52
48.2341	492.23
48.2485	538.17
48.2630	498.44
48.2774	543.45
48.2918	516.24
48.3063	514.74
48.3207	502.27
48.3352	505.10
48.3496	514.34
48.3640	520.32
48.3785	529.63
48.3929	484.41
48.4074	511.40
48.4218	506.20
48.4362	521.11
48.4507	463.13
48.4651	481.51
48.4796	540.52
48.4940	504.59
48.5084	474.39
48.5229	518.96
48.5373	490.65
48.5518	488.81
48.5662	485.80
48.5806	520.41
48.5951	479.46
48.6095	514.22
48.6240	520.09
48.6384	519.62
48.6528	524.16
48.6673	566.13
48.6817	535.83
48.6962	528.64
48.7106	561.53
48.7250	507.76
48.7395	499.30
48.7539	520.98
48.7684	510.81
48.7828	536.79
48.7972	534.68
48.8117	554.75
48.8261	565.97
48.8406	538.75
48.8550	528.76
48.8694	554.39
48.8839	546.26
48.8983	518.81
48.9128	538.44
48.9272	544.55
48.9416	534.31
48.9561	561.89
48.9705	544.89
48.9850	535.31
48.9994	529.54
49.0139	529.02
49.0283	615.29
49.0427	605.74
49.0572	613.76
49.0716	653.92
49.0861	707.77
49.1005	690.93
49.1149	717.38
49.1294	724.49
49.1438	740.96
49.1583	826.47
49.1727	850.31
49.1871	875.90
49.2016	972.21
49.2160	1035.16
49.2305	1098.81
49.2449	1208.76
49.2593	1318.46
49.2738	1428.36
49.2882	1485.07
49.3027	1529.16
49.3171	1678.37
49.3315	1784.45
49.3460	1829.18
49.3604	1778.21
49.3749	1795.47
49.3893	1813.78
49.4037	1794.68
49.4182	1787.10
49.4326	1844.15
49.4471	1652.50
49.4615	1645.67
49.4759	1578.36
49.4904	1511.62
49.5048	1432.10
49.5193	1369.50
49.5337	1299.34
49.5481	1194.19
49.5626	1126.91
49.5770	1060.80
49.5915	973.30
49.6059	935.16
49.6203	865.29
49.6348	781.82
49.6492	779.23
49.6637	754.20
49.6781	690.85
49.6925	674.66
49.7070	680.04
49.7214	656.80
49.7359	621.19
49.7503	621.49
49.7647	572.80
49.7792	570.95
49.7936	588.80
49.8081	554.04
49.8225	539.49
49.8369	588.01
49.8514	562.06
49.8658	555.27
49.8803	552.12
49.8947	557.02
49.9091	547.27
49.9236	522.51
49.9380	556.66
49.9525	523.85
49.9669	530.71
49.9813	538.31
49.9958	510.84
50.0102	528.16
50.0247	534.88
50.0391	544.77
50.0535	507.56
50.0680	530.34
50.0824	533.64
50.0969	519.16
50.1113	506.83
50.1257	512.20
50.1402	485.81
50.1546	507.89
50.1691	507.12
50.1835	516.80
50.1979	490.31
50.2124	508.60
50.2268	500.12
50.2413	514.35
50.2557	486.47
50.2701	517.58
50.2846	526.16
50.2990	509.25
50.3135	499.44
50.3279	495.02
50.3423	504.47
50.3568	501.16
50.3712	489.00
50.3857	496.82
50.4001	490.48
50.4145	482.58
50.4290	519.75
50.4434	505.83
50.4579	493.17
50.4723	524.17
50.4867	501.29
50.5012	516.01
50.5156	525.90
50.5301	533.40
50.5445	537.09
50.5589	504.38
50.5734	517.11
50.5878	522.50
50.6023	510.89
50.6167	493.53
50.6311	480.96
50.6456	511.96
50.6600	493.50
50.6745	476.99
50.6889	487.41
50.7033	517.97
50.7178	505.44
50.7322	513.17
50.7467	519.71
50.7611	503.35
50.7755	484.75
50.7900	472.60
50.8044	485.65
50.8189	513.25
50.8333	524.14
50.8477	513.35
50.8622	524.15
50.8766	495.68
50.8911	497.81
50.9055	531.54
50.9199	504.38
50.9344	489.99
50.9488	490.16
50.9633	499.06
50.9777	521.29
50.9921	513.37
51.0066	511.51
51.0210	522.98
51.0355	500.82
51.0499	477.88
51.0643	528.64
51.0788	525.69
51.0932	520.56
51.1077	513.21
51.1221	523.22
51.1365	502.89
51.1510	449.65
51.1654	551.45
51.1799	530.75
51.1943	505.14
51.2087	481.44
51.2232	501.16
51.2376	506.23
51.2521	498.02
51.2665	520.90
51.2809	513.86
51.2954	504.83
51.3098	535.06
51.3243	527.21
51.3387	523.17
51.3531	536.92
51.3676	483.00
51.3820	503.83
51.3965	507.96
51.4109	513.50
51.4253	541.70
51.4398	521.53
51.4542	501.67
51.4687	541.84
51.4831	490.30
51.4975	525.04
51.5120	515.07
51.5264	524.96
51.5409	482.51
51.5553	481.16
51.5697	529.54
51.5842	499.36
51.5986	519.11
51.6131	526.73
51.6275	501.46
51.6419	513.02
51.6564	507.79
51.6708	492.27
51.6853	539.83
51.6997	516.00
51.7141	500.95
51.7286	503.50
51.7430	475.84
51.7575	494.79
51.7719	503.51
51.7863	509.52
51.8008	523.84
51.8152	505.94
51.8297	487.24
51.8441	468.94
51.8585	494.54
51.8730	495.84
51.8874	479.00
51.9019	492.85
51.9163	495.02
51.9307	499.04
51.9452	565.75
51.9596	480.79
51.9741	509.08
51.9885	527.79
52.0029	523.11
52.0174	488.44
52.0318	538.53
52.0463	500.45
52.0607	500.34
52.0751	483.75
52.0896	527.63
52.1040	506.27
52.1185	499.70
52.1329	488.87
52.1473	461.32
52.1618	494.62
52.1762	499.00
52.1907	530.76
52.2051	525.24
52.2195	529.14
52.2340	492.86
52.2484	503.87
52.2629	466.96
52.2773	478.96
52.2917	515.52
52.3062	492.24
52.3206	492.43
52.3351	501.61
52.3495	516.75
52.3639	520.91
52.3784	508.30
52.3928	496.66
52.4073	447.45
52.4217	518.31
52.4361	536.07
52.4506	505.21
52.4650	499.55
52.4795	494.87
52.4939	481.54
52.5083	484.19
52.5228	502.30
52.5372	519.63
52.5517	497.42
52.5661	506.86
52.5805	502.26
52.5950	480.38
52.6094	465.65
52.6239	515.65
52.6383	524.82
52.6527	524.99
52.6672	520.16
52.6816	489.95
52.6961	523.68
52.7105	485.65
52.7250	497.29
52.7394	501.50
52.7538	504.00
52.7683	489.89
52.7827	520.16
52.7972	486.18
52.8116	515.65
52.8260	537.55
52.8405	506.90
52.8549	529.64
52.8694	545.65
52.8838	488.57
52.8982	519.79
52.9127	523.08
52.9271	517.89
52.9416	500.59
52.9560	509.87
52.9704	457.76
52.9849	503.96
52.9993	489.36
53.0138	509.07
53.0282	524.88
53.0426	524.70
53.0571	517.90
53.0715	500.07
53.0860	528.60
53.1004	530.52
53.1148	520.73
53.1293	529.42
53.1437	523.55
53.1582	528.70
53.1726	483.30
53.1870	517.69
53.2015	530.52
53.2159	521.80
53.2304	527.64
53.2448	545.06
53.2592	523.07
53.2737	524.65
53.2881	542.00
53.3026	508.56
53.3170	499.12
53.3314	517.80
53.3459	532.04
53.3603	522.30
53.3748	514.32
53.3892	492.42
53.4036	513.54
53.4181	502.90
53.4325	498.20
53.4470	500.01
53.4614	508.75
53.4758	497.35
53.4903	480.51
53.5047	493.36
53.5192	504.36
53.5336	549.01
53.5480	521.07
53.5625	549.86
53.5769	532.10
53.5914	486.44
53.6058	520.52
53.6202	481.66
53.6347	496.64
53.6491	499.79
53.6636	511.63
53.6780	524.71
53.6924	494.90
53.7069	505.80
53.7213	535.46
53.7358	496.59
53.7502	517.80
53.7646	494.70
53.7791	506.54
53.7935	539.08
53.8080	517.11
53.8224	512.15
53.8368	538.82
53.8513	535.47
53.8657	528.73
53.8802	509.24
53.8946	545.06
53.9090	592.01
53.9235	535.79
53.9379	520.68
53.9524	502.82
53.9668	544.72
53.9812	548.01
53.9957	560.92
54.0101	531.08
54.0246	514.75
54.0390	514.90
54.0534	539.91
54.0679	535.63
54.0823	521.70
54.0968	549.43
54.1112	547.97
54.1256	558.76
54.1401	501.21
54.1545	525.69
54.1690	534.32
54.1834	530.44
54.1978	548.84
54.2123	514.68
54.2267	526.79
54.2412	542.65
54.2556	545.61
54.2700	560.34
54.2845	551.73
54.2989	561.21
54.3134	588.05
54.3278	590.94
54.3422	592.33
54.3567	591.90
54.3711	593.97
54.3856	602.92
54.4000	603.40
54.4144	596.84
54.4289	593.24
54.4433	601.36
54.4578	582.01
54.4722	615.23
54.4866	620.76
54.5011	599.74
54.5155	592.49
54.5300	591.14
54.5444	568.85
54.5588	588.92
54.5733	583.77
54.5877	574.81
54.6022	533.68
54.6166	562.47
54.6310	580.52
54.6455	567.67
54.6599	515.05
54.6744	489.09
54.6888	517.80
54.7032	513.68
54.7177	489.01
54.7321	510.06
54.7466	509.48
54.7610	518.26
54.7754	517.77
54.7899	527.56
54.8043	558.96
54.8188	566.69
54.8332	541.79
54.8476	515.62
54.8621	542.32
54.8765	489.97
54.8910	509.25
54.9054	551.93
54.9198	547.21
54.9343	520.02
54.9487	526.41
54.9632	499.13
54.9776	521.74
54.9920	545.40
55.0065	510.18
55.0209	515.85
55.0354	557.88
55.0498	540.43
55.0642	541.88
55.0787	524.64
55.0931	558.88
55.1076	554.90
55.1220	511.97
55.1364	557.14
55.1509	526.97
55.1653	495.66
55.1798	482.75
55.1942	489.60
55.2086	497.13
55.2231	524.79
55.2375	526.44
55.2520	520.29
55.2664	506.49
55.2808	500.00
55.2953	494.68
55.3097	493.90
55.3242	506.16
55.3386	509.34
55.3530	499.89
55.3675	494.29
55.3819	528.20
55.3964	510.42
55.4108	510.78
55.4252	548.50
55.4397	545.35
55.4541	523.62
55.4686	531.51
55.4830	531.79
55.4974	524.34
55.5119	521.26
55.5263	528.13
55.5408	521.40
55.5552	566.48
55.5696	529.90
55.5841	550.33
55.5985	529.75
55.6130	477.86
55.6274	504.21
55.6418	543.06
55.6563	527.49
55.6707	507.14
55.6852	516.75
55.6996	540.46
55.7140	527.75
55.7285	531.73
55.7429	529.89
55.7574	502.35
55.7718	559.02
55.7862	511.64
55.8007	513.77
55.8151	496.31
55.8296	529.48
55.8440	498.94
55.8584	538.04
55.8729	532.36
55.8873	498.75
55.9018	528.75
55.9162	517.57
55.9306	525.79
55.9451	529.36
55.9595	541.45
55.9740	542.20
55.9884	501.64
56.0028	524.21
56.0173	546.78
56.0317	517.95
56.0462	506.78
56.0606	472.87
56.0750	496.00
56.0895	515.91
56.1039	510.53
56.1184	516.35
56.1328	525.35
56.1472	509.25
56.1617	528.12
56.1761	533.72
56.1906	552.42
56.2050	551.72
56.2194	495.95
56.2339	510.40
56.2483	551.15
56.2628	514.03
56.2772	523.11
56.2916	489.89
56.3061	477.21
56.3205	517.54
56.3350	504.42
56.3494	513.84
56.3639	526.03
56.3783	500.99
56.3927	490.67
56.4072	499.52
56.4216	534.93
56.4361	519.28
56.4505	493.10
56.4649	494.74
56.4794	558.63
56.4938	501.90
56.5083	496.82
56.5227	532.02
56.5371	542.37
56.5516	540.49
56.5660	527.30
56.5805	539.07
56.5949	506.89
56.6093	515.70
56.6238	535.95
56.6382	518.46
56.6527	505.11
56.6671	514.98
56.6815	496.14
56.6960	496.49
56.7104	514.17
56.7249	521.28
56.7393	513.15
56.7537	535.98
56.7682	487.11
56.7826	501.76
56.7971	483.25
56.8115	484.41
56.8259	494.77
56.8404	503.14
56.8548	506.26
56.8693	546.92
56.8837	509.62
56.8981	531.75
56.9126	529.75
56.9270	557.26
56.9415	562.30
56.9559	518.19
56.9703	494.17
56.9848	541.99
56.9992	520.92
57.0137	527.78
57.0281	486.57
57.0425	528.36
57.0570	523.99
57.0714	562.64
57.0859	503.88
57.1003	497.04
57.1147	510.86
57.1292	540.67
57.1436	507.12
57.1581	517.71
57.1725	522.78
57.1869	524.56
57.2014	533.25
57.2158	489.91
57.2303	530.11
57.2447	565.58
57.2591	511.32
57.2736	536.94
57.2880	521.52
57.3025	539.89
57.3169	521.07
57.3313	530.38
57.3458	518.75
57.3602	508.68
57.3747	533.40
57.3891	496.63
57.4035	503.70
57.4180	475.91
57.4324	499.77
57.4469	496.13
57.4613	500.71
57.4757	521.68
57.4902	561.76
57.5046	535.72
57.5191	527.96
57.5335	568.13
57.5479	547.49
57.5624	545.58
57.5768	534.80
57.5913	492.96
57.6057	514.75
57.6201	503.37
57.6346	507.11
57.6490	516.59
57.6635	535.67
57.6779	526.94
57.6923	557.16
57.7068	536.75
57.7212	530.69
57.7357	496.02
57.7501	563.52
57.7645	523.72
57.7790	537.72
57.7934	553.30
57.8079	561.15
57.8223	540.59
57.8367	543.35
57.8512	530.79
57.8656	593.63
57.8801	598.67
57.8945	604.23
57.9089	630.14
57.9234	601.19
57.9378	609.32
57.9523	674.06
57.9667	676.63
57.9811	651.17
57.9956	639.78
58.0100	631.43
58.0245	646.52
58.0389	661.14
58.0533	686.82
58.0678	675.81
58.0822	638.52
58.0967	667.03
58.1111	678.47
58.1255	679.74
58.1400	645.36
58.1544	601.33
58.1689	618.59
58.1833	623.22
58.1977	611.65
58.2122	632.53
58.2266	602.35
58.2411	626.71
58.2555	592.68
58.2699	584.03
58.2844	584.27
58.2988	555.27
58.3133	532.06
58.3277	531.47
58.3421	560.66
58.3566	580.30
58.3710	553.97
58.3855	537.40
58.3999	549.29
58.4143	548.06
58.4288	563.00
58.4432	537.77
58.4577	506.74
58.4721	553.85
58.4865	571.54
58.5010	538.16
58.5154	540.08
58.5299	542.01
58.5443	511.94
58.5587	530.95
58.5732	518.68
58.5876	542.56
58.6021	554.29
58.6165	535.08
58.6309	539.66
58.6454	532.92
58.6598	545.40
58.6743	547.51
58.6887	496.00
58.7031	537.59
58.7176	538.70
58.7320	532.25
58.7465	539.72
58.7609	507.71
58.7753	526.17
58.7898	531.01
58.8042	525.36
58.8187	521.02
58.8331	536.02
58.8475	545.52
58.8620	554.81
58.8764	554.07
58.8909	526.96
58.9053	571.11
58.9197	552.88
58.9342	532.89
58.9486	522.50
58.9631	505.14
58.9775	548.37
58.9919	556.36
59.0064	551.33
59.0208	519.01
59.0353	523.54
59.0497	552.29
59.0641	533.62
59.0786	516.34
59.0930	522.96
59.1075	534.80
59.1219	557.36
59.1363	516.24
59.1508	503.83
59.1652	527.84
59.1797	517.13
59.1941	555.14
59.2085	557.69
59.2230	560.84
59.2374	579.69
59.2519	592.33
59.2663	556.54
59.2807	579.89
59.2952	553.88
59.3096	543.69
59.3241	537.97
59.3385	580.22
59.3529	578.20
59.3674	576.19
59.3818	537.31
59.3963	532.25
59.4107	549.44
59.4251	574.41
59.4396	563.15
59.4540	517.00
59.4685	580.83
59.4829	559.44
59.4973	565.83
59.5118	573.74
59.5262	553.56
59.5407	564.85
59.5551	541.71
59.5695	509.15
59.5840	534.72
59.5984	534.29
59.6129	564.54
59.6273	551.57
59.6417	544.36
59.6562	517.67
59.6706	536.77
59.6851	548.96
59.6995	534.44
59.7139	543.05
59.7284	486.11
59.7428	499.79
59.7573	523.59
59.7717	509.22
59.7861	545.45
59.8006	549.95
59.8150	569.75
59.8295	531.51
59.8439	507.37
59.8583	523.32
59.8728	556.77
59.8872	547.02
59.9017	546.46
59.9161	545.40
59.9305	532.38
59.9450	540.88
59.9594	530.24
59.9739	502.38
59.9883	494.68
60.0027	500.08
60.0172	544.09
60.0316	554.90
60.0461	548.23
60.0605	544.94
60.0750	537.80
60.0894	507.63
60.1038	512.21
60.1183	551.98
60.1327	551.95
60.1472	496.73
60.1616	516.77
60.1760	513.43
60.1905	495.01
60.2049	512.66
60.2194	538.34
60.2338	538.48
60.2482	542.76
60.2627	522.62
60.2771	511.40
60.2916	543.61
60.3060	568.97
60.3204	528.53
60.3349	523.19
60.3493	544.40
60.3638	494.46
60.3782	542.74
60.3926	512.82
60.4071	532.10
60.4215	552.76
60.4360	513.75
60.4504	473.81
60.4648	515.94
60.4793	553.88
60.4937	550.73
60.5082	533.96
60.5226	523.53
60.5370	522.84
60.5515	543.58
60.5659	533.24
60.5804	543.64
60.5948	541.62
60.6092	547.23
60.6237	529.86
60.6381	541.48
60.6526	538.28
60.6670	517.93
60.6814	506.87
60.6959	553.00
60.7103	566.04
60.7248	536.99
60.7392	537.35
60.7536	545.25
60.7681	601.36
60.7825	546.59
60.7970	530.28
60.8114	570.98
60.8258	527.97
60.8403	510.69
60.8547	503.34
60.8692	548.78
60.8836	526.08
60.8980	563.01
60.9125	523.05
60.9269	532.00
60.9414	522.01
60.9558	507.25
60.9702	536.17
60.9847	538.23
60.9991	533.38
61.0136	524.60
61.0280	584.32
61.0424	537.06
61.0569	529.82
61.0713	517.34
61.0858	544.51
61.1002	526.18
61.1146	549.78
61.1291	571.51
61.1435	554.58
61.1580	528.00
61.1724	532.87
61.1868	530.55
61.2013	548.82
61.2157	530.74
61.2302	534.70
61.2446	526.32
61.2590	508.26
61.2735	525.28
61.2879	539.91
61.3024	548.65
61.3168	538.92
61.3312	577.86
61.3457	520.23
61.3601	508.05
61.3746	539.02
61.3890	562.96
61.4034	540.02
61.4179	547.52
61.4323	549.72
61.4468	510.05
61.4612	519.96
61.4756	516.50
61.4901	535.31
61.5045	541.92
61.5190	540.10
61.5334	541.21
61.5478	530.01
61.5623	537.69
61.5767	499.25
61.5912	532.11
61.6056	511.45
61.6200	513.50
61.6345	525.94
61.6489	553.14
61.6634	535.03
61.6778	514.11
61.6922	531.74
61.7067	531.69
61.7211	530.77
61.7356	497.94
61.7500	499.81
61.7644	507.62
61.7789	543.48
61.7933	551.43
61.8078	582.41
61.8222	564.95
61.8366	530.31
61.8511	517.19
61.8655	593.57
61.8800	568.06
61.8944	572.28
61.9088	583.95
61.9233	548.36
61.9377	546.76
61.9522	549.26
61.9666	532.02
61.9810	564.88
61.9955	555.50
62.0099	535.06
62.0244	516.07
62.0388	513.03
62.0532	533.97
62.0677	558.90
62.0821	566.02
62.0966	538.33
62.1110	514.11
62.1254	568.01
62.1399	563.71
62.1543	566.39
62.1688	576.61
62.1832	570.09
62.1976	525.68
62.2121	516.25
62.2265	541.72
62.2410	563.29
62.2554	564.19
62.2698	541.60
62.2843	546.20
62.2987	507.55
62.3132	544.89
62.3276	552.23
62.3420	539.37
62.3565	542.39
62.3709	552.10
62.3854	507.59
62.3998	520.14
62.4142	539.69
62.4287	557.82
62.4431	542.18
62.4576	527.65
62.4720	554.86
62.4864	550.74
62.5009	559.17
62.5153	564.33
62.5298	575.02
62.5442	582.77
62.5586	557.77
62.5731	538.19
62.5875	536.32
62.6020	537.29
62.6164	541.86
62.6308	552.22
62.6453	553.56
62.6597	563.78
62.6742	576.18
62.6886	545.18
62.7030	582.00
62.7175	570.22
62.7319	538.38
62.7464	531.29
62.7608	544.83
62.7752	557.98
62.7897	524.30
62.8041	537.90
62.8186	572.03
62.8330	566.60
62.8474	546.59
62.8619	526.88
62.8763	529.17
62.8908	527.10
62.9052	562.56
62.9196	574.35
62.9341	588.66
62.9485	573.15
62.9630	536.01
62.9774	577.73
62.9918	538.76
63.0063	535.69
63.0207	575.74
63.0352	561.28
63.0496	558.08
63.0640	570.86
63.0785	567.84
63.0929	596.13
63.1074	555.79
63.1218	551.98
63.1362	573.60
63.1507	558.78
63.1651	543.61
63.1796	578.70
63.1940	542.24
63.2084	584.57
63.2229	596.33
63.2373	571.36
63.2518	574.96
63.2662	562.11
63.2806	580.54
63.2951	545.11
63.3095	567.73
63.3240	592.54
63.3384	620.06
63.3528	617.98
63.3673	583.14
63.3817	591.21
63.3962	580.85
63.4106	551.00
63.4250	618.17
63.4395	625.72
63.4539	600.70
63.4684	617.66
63.4828	599.92
63.4972	578.67
63.5117	605.01
63.5261	634.35
63.5406	663.89
63.5550	680.16
63.5694	689.86
63.5839	687.31
63.5983	714.21
63.6128	725.97
63.6272	744.89
63.6416	750.73
63.6561	776.45
63.6705	802.09
63.6850	800.13
63.6994	827.96
63.7138	826.63
63.7283	803.17
63.7427	821.48
63.7572	821.04
63.7716	814.95
63.7861	869.81
63.8005	829.68
63.8149	800.83
63.8294	807.70
63.8438	773.10
63.8583	798.49
63.8727	795.60
63.8871	770.09
63.9016	764.01
63.9160	755.92
63.9305	703.43
63.9449	716.25
63.9593	676.77
63.9738	692.18
63.9882	631.04
64.0027	638.00
64.0171	659.43
64.0315	626.53
64.0460	655.94
64.0604	691.38
64.0749	642.59
64.0893	644.69
64.1037	634.95
64.1182	622.71
64.1326	649.32
64.1471	608.42
64.1615	613.82
64.1759	643.15
64.1904	635.86
64.2048	580.67
64.2193	588.82
64.2337	622.40
64.2481	609.13
64.2626	595.95
64.2770	607.09
64.2915	583.14
64.3059	618.19
64.3203	579.80
64.3348	622.14
64.3492	656.10
64.3637	621.27
64.3781	614.14
64.3925	608.96
64.4070	648.97
64.4214	650.37
64.4359	646.59
64.4503	584.96
64.4647	645.00
64.4792	666.92
64.4936	597.76
64.5081	590.55
64.5225	614.39
64.5369	626.70
64.5514	614.37
64.5658	649.04
64.5803	659.72
64.5947	648.94
64.6091	637.53
64.6236	624.81
64.6380	655.36
64.6525	641.25
64.6669	639.19
64.6813	640.01
64.6958	676.00
64.7102	707.20
64.7247	679.85
64.7391	656.02
64.7535	666.24
64.7680	684.52
64.7824	714.70
64.7969	740.51
64.8113	756.46
64.8257	748.71
64.8402	774.60
64.8546	769.15
64.8691	840.22
64.8835	829.77
64.8979	845.77
64.9124	846.19
64.9268	864.89
64.9413	912.45
64.9557	885.81
64.9701	953.07
64.9846	968.78
64.9990	1102.12
65.0135	1267.47
65.0279	1447.92
65.0423	1740.41
65.0568	2015.71
65.0712	2475.51
65.0857	3125.83
65.1001	4332.44
65.1145	5607.49
65.1290	7475.19
65.1434	9079.42
65.1579	10590.64
65.1723	11484.39
65.1867	11086.95
65.2012	10118.09
65.2156	8491.78
65.2301	6741.95
65.2445	5407.55
65.2589	4385.28
65.2734	4064.59
65.2878	4302.79
65.3023	4746.93
65.3167	5543.50
65.3311	6335.08
65.3456	6787.58
65.3600	6877.60
65.3745	6334.73
65.3889	5466.87
65.4033	4466.97
65.4178	3539.88
65.4322	2813.15
65.4467	2080.53
65.4611	1770.32
65.4755	1499.45
65.4900	1281.76
65.5044	1134.34
65.5189	1059.46
65.5333	969.13
65.5477	926.34
65.5622	882.34
65.5766	813.84
65.5911	839.68
65.6055	797.44
65.6199	767.57
65.6344	819.64
65.6488	724.75
65.6633	733.31
65.6777	705.96
65.6921	713.78
65.7066	649.16
65.7210	661.59
65.7355	635.57
65.7499	685.12
65.7643	648.70
65.7788	682.06
65.7932	637.25
65.8077	651.82
65.8221	692.76
65.8365	673.41
65.8510	596.44
65.8654	637.01
65.8799	657.54
65.8943	623.41
65.9087	656.80
65.9232	609.01
65.9376	650.70
65.9521	634.75
65.9665	573.37
65.9809	614.45
65.9954	629.63
66.0098	619.76
66.0243	664.66
66.0387	621.89
66.0531	645.23
66.0676	605.91
66.0820	617.12
66.0965	590.63
66.1109	621.99
66.1253	640.96
66.1398	600.42
66.1542	582.51
66.1687	633.15
66.1831	618.67
66.1975	574.21
66.2120	591.63
66.2264	602.99
66.2409	592.13
66.2553	567.72
66.2697	595.95
66.2842	635.19
66.2986	577.22
66.3131	563.47
66.3275	589.40
66.3419	611.23
66.3564	588.74
66.3708	572.52
66.3853	568.81
66.3997	582.42
66.4141	598.89
66.4286	640.09
66.4430	605.48
66.4575	601.06
66.4719	636.63
66.4863	603.74
66.5008	596.77
66.5152	603.75
66.5297	597.35
66.5441	594.45
66.5585	573.88
66.5730	576.08
66.5874	571.57
66.6019	626.61
66.6163	614.88
66.6307	593.85
66.6452	586.14
66.6596	580.14
66.6741	567.02
66.6885	582.89
66.7029	601.43
66.7174	588.73
66.7318	561.36
66.7463	607.95
66.7607	566.99
66.7751	579.17
66.7896	576.85
66.8040	608.77
66.8185	608.88
66.8329	563.81
66.8473	549.56
66.8618	601.73
66.8762	590.10
66.8907	589.39
66.9051	594.06
66.9195	594.09
66.9340	570.31
66.9484	531.45
66.9629	573.86
66.9773	589.52
66.9917	563.65
67.0062	572.68
67.0206	569.82
67.0351	583.78
67.0495	549.77
67.0639	549.00
67.0784	581.47
67.0928	643.07
67.1073	584.93
67.1217	552.05
67.1361	556.42
67.1506	562.83
67.1650	571.77
67.1795	575.54
67.1939	567.51
67.2083	550.51
67.2228	571.21
67.2372	565.59
67.2517	550.36
67.2661	576.28
67.2805	604.80
67.2950	591.10
67.3094	566.66
67.3239	564.81
67.3383	530.82
67.3527	565.20
67.3672	579.12
67.3816	578.62
67.3961	564.73
67.4105	550.48
67.4250	545.87
67.4394	544.96
67.4538	555.16
67.4683	594.08
67.4827	602.49
67.4972	579.96
67.5116	585.08
67.5260	613.40
67.5405	613.24
67.5549	605.17
67.5694	525.08
67.5838	549.35
67.5982	573.69
67.6127	565.64
67.6271	555.40
67.6416	538.23
67.6560	561.79
67.6704	560.13
67.6849	566.89
67.6993	571.05
67.7138	588.76
67.7282	567.77
67.7426	556.36
67.7571	542.09
67.7715	553.74
67.7860	556.59
67.8004	568.47
67.8148	578.86
67.8293	522.03
67.8437	544.47
67.8582	585.90
67.8726	589.54
67.8870	554.67
67.9015	584.39
67.9159	593.09
67.9304	544.64
67.9448	583.27
67.9592	589.73
67.9737	573.52
67.9881	589.61
68.0026	528.28
68.0170	579.53
68.0314	578.06
68.0459	550.59
68.0603	584.38
68.0748	559.74
68.0892	554.30
68.1036	532.83
68.1181	565.82
68.1325	611.29
68.1470	581.59
68.1614	599.44
68.1758	560.61
68.1903	565.91
68.2047	579.76
68.2192	521.46
68.2336	576.50
68.2480	589.70
68.2625	578.79
68.2769	547.39
68.2914	568.32
68.3058	584.79
68.3202	535.10
68.3347	568.87
68.3491	584.74
68.3636	572.68
68.3780	562.99
68.3924	547.39
68.4069	598.07
68.4213	584.79
68.4358	585.12
68.4502	557.14
68.4646	593.29
68.4791	590.34
68.4935	554.68
68.5080	587.36
68.5224	561.01
68.5368	582.68
68.5513	591.75
68.5657	558.62
68.5802	546.63
68.5946	561.90
68.6090	514.46
68.6235	569.02
68.6379	605.08
68.6524	554.79
68.6668	599.36
68.6812	562.80
68.6957	543.20
68.7101	573.96
68.7246	542.96
68.7390	557.11
68.7534	601.83
68.7679	514.29
68.7823	609.47
68.7968	591.87
68.8112	588.79
68.8256	610.30
68.8401	557.55
68.8545	597.16
68.8690	571.18
68.8834	581.80
68.8978	565.11
68.9123	625.77
68.9267	584.63
68.9412	520.51
68.9556	559.60
68.9700	584.53
68.9845	542.05
68.9989	580.33
69.0134	605.88
69.0278	586.95
69.0422	556.48
69.0567	560.12
69.0711	575.00
69.0856	604.41
69.1000	560.06
69.1144	558.66
69.1289	634.72
69.1433	572.88
69.1578	542.71
69.1722	585.82
69.1866	523.77
69.2011	588.95
69.2155	600.28
69.2300	610.71
69.2444	588.01
69.2588	593.29
69.2733	576.48
69.2877	551.16
69.3022	610.49
69.3166	562.63
69.3310	570.18
69.3455	585.43
69.3599	552.93
69.3744	592.79
69.3888	587.41
69.4032	569.77
69.4177	535.88
69.4321	605.50
69.4466	560.21
69.4610	555.98
69.4754	615.84
69.4899	627.38
69.5043	582.28
69.5188	564.35
69.5332	574.73
69.5476	587.82
69.5621	562.60
69.5765	555.93
69.5910	606.27
69.6054	594.33
69.6198	553.46
69.6343	565.92
69.6487	597.15
69.6632	581.48
69.6776	571.14
69.6920	552.11
69.7065	564.70
69.7209	630.45
69.7354	583.03
69.7498	563.13
69.7642	572.47
69.7787	573.14
69.7931	571.93
69.8076	587.95
69.8220	534.93
69.8364	571.70
69.8509	578.12
69.8653	576.33
69.8798	574.38
69.8942	555.21
69.9086	604.33
69.9231	599.32
69.9375	571.07
69.9520	564.88
69.9664	543.59
69.9808	551.41
69.9953	566.69
70.0097	532.43
70.0242	540.08
70.0386	590.84
70.0530	594.98
70.0675	573.79
70.0819	584.67
70.0964	630.43
70.1108	559.40
70.1252	591.80
70.1397	541.99
70.1541	579.77
70.1686	552.49
70.1830	554.60
70.1974	579.42
70.2119	551.99
70.2263	603.27
70.2408	557.82
70.2552	551.31
70.2696	544.41
70.2841	529.22
70.2985	539.05
70.3130	546.52
70.3274	540.72
70.3418	572.36
70.3563	591.47
70.3707	531.39
70.3852	546.96
70.3996	521.97
70.4140	562.64
70.4285	618.06
70.4429	573.17
70.4574	578.98
70.4718	664.55
70.4862	613.58
70.5007	568.21
70.5151	537.84
70.5296	582.25
70.5440	553.50
70.5584	487.21
70.5729	507.70
70.5873	574.47
70.6018	558.36
70.6162	536.38
70.6306	486.46
70.6451	548.68
70.6595	528.30
70.6740	573.03
70.6884	556.93
70.7028	588.38
70.7173	570.51
70.7317	554.42
70.7462	558.72
70.7606	544.45
70.7750	525.75
70.7895	544.53
70.8039	566.35
70.8184	555.26
70.8328	585.26
70.8472	533.03
70.8617	574.01
70.8761	577.50
70.8906	509.02
70.9050	509.21
70.9194	557.83
70.9339	599.41
70.9483	631.70
70.9628	596.03
70.9772	536.90
70.9916	548.82
71.0061	620.26
71.0205	617.44
71.0350	592.14
71.0494	588.67
71.0638	573.73
71.0783	607.99
71.0927	604.84
71.1072	562.90
71.1216	570.74
71.1361	581.55
71.1505	607.34
71.1649	572.28
71.1794	573.98
71.1938	554.22
71.2083	572.35
71.2227	564.01
71.2371	528.09
71.2516	528.55
71.2660	589.97
71.2805	545.34
71.2949	512.87
71.3093	574.89
71.3238	569.69
71.3382	574.90
71.3527	566.55
71.3671	507.39
71.3815	589.86
71.3960	615.09
71.4104	604.94
71.4249	606.75
71.4393	576.50
71.4537	579.88
71.4682	589.14
71.4826	569.66
71.4971	589.46
71.5115	564.00
71.5259	592.66
71.5404	564.53
71.5548	561.71
71.5693	552.04
71.5837	576.61
71.5981	579.85
71.6126	578.49
71.6270	577.00
71.6415	574.82
71.6559	562.17
71.6703	612.70
71.6848	636.25
71.6992	599.64
71.7137	591.03
71.7281	559.86
71.7425	550.10
71.7570	597.57
71.7714	593.16
71.7859	552.09
71.8003	554.73
71.8147	557.76
71.8292	540.04
71.8436	542.57
71.8581	553.67
71.8725	556.22
71.8869	521.60
71.9014	495.01
71.9158	525.86
71.9303	603.85
71.9447	618.79
71.9591	653.26
71.9736	645.60
71.9880	557.67
72.0025	520.90
72.0169	536.51
72.0313	539.63
72.0458	565.38
72.0602	529.09
72.0747	521.76
72.0891	553.25
72.1035	609.60
72.1180	553.78
72.1324	566.95
72.1469	627.25
72.1613	610.57
72.1757	666.41
72.1902	590.36
72.2046	587.60
72.2191	568.37
72.2335	530.48
72.2479	568.90
72.2624	561.63
72.2768	558.42
72.2913	563.39
72.3057	606.22
72.3201	583.50
72.3346	579.52
72.3490	591.35
72.3635	554.77
72.3779	553.84
72.3923	546.92
72.4068	561.99
72.4212	610.18
72.4357	714.16
72.4501	667.41
72.4645	626.04
72.4790	593.54
72.4934	504.80
72.5079	550.82
72.5223	567.03
72.5367	476.26
72.5512	546.24
72.5656	643.03
72.5801	607.78
72.5945	558.02
72.6089	561.08
72.6234	538.25
72.6378	523.16
72.6523	541.11
72.6667	576.00
72.6811	531.07
72.6956	542.37
72.7100	568.81
72.7245	547.95
72.7389	590.01
72.7533	574.91
72.7678	616.30
72.7822	661.85
72.7967	599.17
72.8111	615.76
72.8255	647.51
72.8400	620.66
72.8544	563.13
72.8689	571.35
72.8833	557.39