2022.09.19 19:37:17
Îáðàçåö: ß÷åéêà LCoV 16-09-2022
Lambda1 = 1.54060
Lambda2 = 1.54439
Lambdam = 1.54186
R = 0.497
2Theta	I

line¹ 0 ;repeat¹ 0
22.1120	664.91
22.1264	610.09
22.1409	540.70
22.1553	510.93
22.1697	603.85
22.1842	614.56
22.1986	622.66
22.2131	557.46
22.2275	543.66
22.2419	562.83
22.2564	573.91
22.2708	517.19
22.2853	526.46
22.2997	571.96
22.3141	523.39
22.3286	555.84
22.3430	491.57
22.3575	557.10
22.3719	569.69
22.3863	532.55
22.4008	554.77
22.4152	572.44
22.4297	645.64
22.4441	619.18
22.4585	544.03
22.4730	595.37
22.4874	665.58
22.5019	638.43
22.5163	587.31
22.5307	621.10
22.5452	605.87
22.5596	572.72
22.5741	592.02
22.5885	572.06
22.6029	531.79
22.6174	482.13
22.6318	581.78
22.6463	562.64
22.6607	571.29
22.6751	526.84
22.6896	567.84
22.7040	583.02
22.7185	614.49
22.7329	567.17
22.7473	594.20
22.7618	504.77
22.7762	544.17
22.7907	629.94
22.8051	626.22
22.8195	543.52
22.8340	557.93
22.8484	594.03
22.8629	615.01
22.8773	517.62
22.8917	544.94
22.9062	546.33
22.9206	458.64
22.9351	464.32
22.9495	505.97
22.9639	554.77
22.9784	615.05
22.9928	640.37
23.0073	541.02
23.0217	498.60
23.0361	537.43
23.0506	552.51
23.0650	527.24
23.0795	564.71
23.0939	570.19
23.1083	532.76
23.1228	545.54
23.1372	687.99
23.1517	512.89
23.1661	546.95
23.1806	607.41
23.1950	515.58
23.2094	487.54
23.2239	548.26
23.2383	601.16
23.2528	529.94
23.2672	538.39
23.2816	549.52
23.2961	489.33
23.3105	586.81
23.3250	580.00
23.3394	569.07
23.3538	565.49
23.3683	535.37
23.3827	563.54
23.3972	501.28
23.4116	555.51
23.4260	541.96
23.4405	514.74
23.4549	562.70
23.4694	509.37
23.4838	533.44
23.4982	580.36
23.5127	581.75
23.5271	626.70
23.5416	547.11
23.5560	575.11
23.5704	586.40
23.5849	532.73
23.5993	536.42
23.6138	562.81
23.6282	595.61
23.6426	550.56
23.6571	580.39
23.6715	541.45
23.6860	490.24
23.7004	552.61
23.7148	488.78
23.7293	488.74
23.7437	540.15
23.7582	587.59
23.7726	586.20
23.7870	594.10
23.8015	551.41
23.8159	516.36
23.8304	617.58
23.8448	497.73
23.8592	597.45
23.8737	528.30
23.8881	517.71
23.9026	588.85
23.9170	607.20
23.9314	533.56
23.9459	520.44
23.9603	451.37
23.9748	547.83
23.9892	536.31
24.0036	508.82
24.0181	518.24
24.0325	543.85
24.0470	548.09
24.0614	581.27
24.0758	558.65
24.0903	504.74
24.1047	524.91
24.1192	586.61
24.1336	568.03
24.1480	546.01
24.1625	588.04
24.1769	553.92
24.1914	612.70
24.2058	597.73
24.2202	614.62
24.2347	648.33
24.2491	523.82
24.2636	549.16
24.2780	615.74
24.2924	594.53
24.3069	584.53
24.3213	596.49
24.3358	599.52
24.3502	562.62
24.3646	557.30
24.3791	520.24
24.3935	543.39
24.4080	574.89
24.4224	516.82
24.4368	519.69
24.4513	478.02
24.4657	538.36
24.4802	508.31
24.4946	540.70
24.5090	568.28
24.5235	466.86
24.5379	578.62
24.5524	559.92
24.5668	541.43
24.5812	562.46
24.5957	532.27
24.6101	556.89
24.6246	548.84
24.6390	562.43
24.6534	551.28
24.6679	546.28
24.6823	475.80
24.6968	548.95
24.7112	536.38
24.7256	474.67
24.7401	497.42
24.7545	518.20
24.7690	557.46
24.7834	552.66
24.7978	565.42
24.8123	563.41
24.8267	566.13
24.8412	500.43
24.8556	572.71
24.8700	562.58
24.8845	577.21
24.8989	577.39
24.9134	577.34
24.9278	544.63
24.9422	540.80
24.9567	543.01
24.9711	478.89
24.9856	500.98
25.0000	556.43
25.0144	591.86
25.0289	504.35
25.0433	514.50
25.0578	475.14
25.0722	557.81
25.0866	527.34
25.1011	511.25
25.1155	555.11
25.1300	584.67
25.1444	561.51
25.1588	522.57
25.1733	542.75
25.1877	544.53
25.2022	517.57
25.2166	532.18
25.2310	574.17
25.2455	510.30
25.2599	534.64
25.2744	589.29
25.2888	511.39
25.3032	459.45
25.3177	494.04
25.3321	532.51
25.3466	523.91
25.3610	528.96
25.3754	556.12
25.3899	544.65
25.4043	516.96
25.4188	540.08
25.4332	536.35
25.4476	499.46
25.4621	468.60
25.4765	536.73
25.4910	513.33
25.5054	519.51
25.5198	541.80
25.5343	531.06
25.5487	502.94
25.5632	513.47
25.5776	511.60
25.5920	568.42
25.6065	574.08
25.6209	529.77
25.6354	523.67
25.6498	531.26
25.6642	552.28
25.6787	501.82
25.6931	523.01
25.7076	568.76
25.7220	527.18
25.7364	530.85
25.7509	516.42
25.7653	509.97
25.7798	523.58
25.7942	500.34
25.8086	506.10
25.8231	510.32
25.8375	522.66
25.8520	518.61
25.8664	550.32
25.8808	573.79
25.8953	546.80
25.9097	539.58
25.9242	550.86
25.9386	551.73
25.9530	496.79
25.9675	531.06
25.9819	531.85
25.9964	540.35
26.0108	559.89
26.0252	558.29
26.0397	537.65
26.0541	527.47
26.0686	481.26
26.0830	510.11
26.0974	541.56
26.1119	557.10
26.1263	520.65
26.1408	523.36
26.1552	532.37
26.1696	525.47
26.1841	506.73
26.1985	497.21
26.2130	523.65
26.2274	544.91
26.2418	527.25
26.2563	524.19
26.2707	524.08
26.2852	552.98
26.2996	522.03
26.3140	528.16
26.3285	520.40
26.3429	505.62
26.3574	517.60
26.3718	540.23
26.3862	506.48
26.4007	526.05
26.4151	538.07
26.4296	527.39
26.4440	544.75
26.4584	552.92
26.4729	545.69
26.4873	554.89
26.5018	522.35
26.5162	502.33
26.5306	508.25
26.5451	545.30
26.5595	546.80
26.5740	523.11
26.5884	510.68
26.6028	540.39
26.6173	544.36
26.6317	559.31
26.6462	564.41
26.6606	549.10
26.6750	500.11
26.6895	508.06
26.7039	551.19
26.7184	573.69
26.7328	502.86
26.7472	505.18
26.7617	548.19
26.7761	539.21
26.7906	546.19
26.8050	529.22
26.8194	545.64
26.8339	519.94
26.8483	505.76
26.8628	506.28
26.8772	502.43
26.8917	530.67
26.9061	553.80
26.9205	575.98
26.9350	550.25
26.9494	530.59
26.9639	523.45
26.9783	541.14
26.9927	541.32
27.0072	534.74
27.0216	504.06
27.0361	510.18
27.0505	532.08
27.0649	544.22
27.0794	528.39
27.0938	516.30
27.1083	523.28
27.1227	532.60
27.1371	506.81
27.1516	512.18
27.1660	509.12
27.1805	515.42
27.1949	520.39
27.2093	509.15
27.2238	484.11
27.2382	500.90
27.2527	517.77
27.2671	524.78
27.2815	548.06
27.2960	521.21
27.3104	527.14
27.3249	523.28
27.3393	555.21
27.3537	535.93
27.3682	513.52
27.3826	501.13
27.3971	493.47
27.4115	518.07
27.4259	541.15
27.4404	494.41
27.4548	496.28
27.4693	517.67
27.4837	528.96
27.4981	519.69
27.5126	465.60
27.5270	478.70
27.5415	504.13
27.5559	546.06
27.5703	529.48
27.5848	499.84
27.5992	501.82
27.6137	487.69
27.6281	493.26
27.6425	510.07
27.6570	532.82
27.6714	536.77
27.6859	511.28
27.7003	498.98
27.7147	525.74
27.7292	494.13
27.7436	489.36
27.7581	495.73
27.7725	538.95
27.7869	508.40
27.8014	525.97
27.8158	546.16
27.8303	506.41
27.8447	556.51
27.8591	567.83
27.8736	505.39
27.8880	524.55
27.9025	518.51
27.9169	515.28
27.9313	530.64
27.9458	505.50
27.9602	475.59
27.9747	518.50
27.9891	547.20
28.0035	468.75
28.0180	488.66
28.0324	490.35
28.0469	489.51
28.0613	492.78
28.0757	503.93
28.0902	530.25
28.1046	497.74
28.1191	524.79
28.1335	557.41
28.1479	500.05
28.1624	510.86
28.1768	526.04
28.1913	507.65
28.2057	528.88
28.2201	542.10
28.2346	494.86
28.2490	510.21
28.2635	534.32
28.2779	503.09
28.2923	537.57
28.3068	520.57
28.3212	512.56
28.3357	535.02
28.3501	496.59
28.3645	510.57
28.3790	469.87
28.3934	488.48
28.4079	504.78
28.4223	483.38
28.4367	504.13
28.4512	488.36
28.4656	476.59
28.4801	525.01
28.4945	501.63
28.5089	473.84
28.5234	489.00
28.5378	513.28
28.5523	531.44
28.5667	492.01
28.5811	480.67
28.5956	496.21
28.6100	503.56
28.6245	491.50
28.6389	507.13
28.6533	480.38
28.6678	517.19
28.6822	518.09
28.6967	489.45
28.7111	524.47
28.7255	495.19
28.7400	476.25
28.7544	566.74
28.7689	532.05
28.7833	530.44
28.7977	505.39
28.8122	526.28
28.8266	515.91
28.8411	500.43
28.8555	468.91
28.8699	492.34
28.8844	492.46
28.8988	508.43
28.9133	538.05
28.9277	504.33
28.9421	540.33
28.9566	543.57
28.9710	492.08
28.9855	546.17
28.9999	516.56
29.0143	496.70
29.0288	528.43
29.0432	510.68
29.0577	485.34
29.0721	485.91
29.0865	516.43
29.1010	498.38
29.1154	517.66
29.1299	540.95
29.1443	519.66
29.1587	490.89
29.1732	500.99
29.1876	529.23
29.2021	500.19
29.2165	504.90
29.2309	478.25
29.2454	484.25
29.2598	470.78
29.2743	506.14
29.2887	497.93
29.3031	526.35
29.3176	518.46
29.3320	538.52
29.3465	516.94
29.3609	507.15
29.3753	498.56
29.3898	519.32
29.4042	501.16
29.4187	516.48
29.4331	492.70
29.4475	484.68
29.4620	492.52
29.4764	472.41
29.4909	487.80
29.5053	509.59
29.5197	511.10
29.5342	528.00
29.5486	511.01
29.5631	515.24
29.5775	492.04
29.5919	477.84
29.6064	522.37
29.6208	515.40
29.6353	497.25
29.6497	468.94
29.6641	509.66
29.6786	512.11
29.6930	496.88
29.7075	498.94
29.7219	483.12
29.7363	483.84
29.7508	487.45
29.7652	450.25
29.7797	456.90
29.7941	497.30
29.8085	533.60
29.8230	509.92
29.8374	526.84
29.8519	499.01
29.8663	494.17
29.8807	453.31
29.8952	496.53
29.9096	507.90
29.9241	486.58
29.9385	515.36
29.9529	510.08
29.9674	500.91
29.9818	487.89
29.9963	490.53
30.0107	527.33
30.0251	487.86
30.0396	519.83
30.0540	503.39
30.0685	484.22
30.0829	498.68
30.0973	518.80
30.1118	532.54
30.1262	537.98
30.1407	475.54
30.1551	476.97
30.1695	535.06
30.1840	500.03
30.1984	479.43
30.2129	496.90
30.2273	494.88
30.2417	515.23
30.2562	492.89
30.2706	513.71
30.2851	549.37
30.2995	490.40
30.3139	499.29
30.3284	509.55
30.3428	501.74
30.3573	498.88
30.3717	496.43
30.3861	505.82
30.4006	497.88
30.4150	508.47
30.4295	519.66
30.4439	534.25
30.4583	545.01
30.4728	553.35
30.4872	543.43
30.5017	536.24
30.5161	547.47
30.5305	577.30
30.5450	585.60
30.5594	631.05
30.5739	620.79
30.5883	645.41
30.6028	665.14
30.6172	686.68
30.6316	679.70
30.6461	710.44
30.6605	698.47
30.6750	708.46
30.6894	667.78
30.7038	725.75
30.7183	655.81
30.7327	630.97
30.7472	654.27
30.7616	565.91
30.7760	570.15
30.7905	543.02
30.8049	556.91
30.8194	550.16
30.8338	547.81
30.8482	545.35
30.8627	538.52
30.8771	598.30
30.8916	548.28
30.9060	572.57
30.9204	521.82
30.9349	511.12
30.9493	520.12
30.9638	523.65
30.9782	504.10
30.9926	503.52
31.0071	501.73
31.0215	524.45
31.0360	509.33
31.0504	497.53
31.0648	506.34
31.0793	473.77
31.0937	517.49
31.1082	514.32
31.1226	532.08
31.1370	517.09
31.1515	530.22
31.1659	518.35
31.1804	503.07
31.1948	496.21
31.2092	489.49
31.2237	490.34
31.2381	518.27
31.2526	491.19
31.2670	484.66
31.2814	521.87
31.2959	496.99
31.3103	549.22
31.3248	518.98
31.3392	558.28
31.3536	489.38
31.3681	486.54
31.3825	549.70
31.3970	515.74
31.4114	516.81
31.4258	514.92
31.4403	516.92
31.4547	498.75
31.4692	474.65
31.4836	501.23
31.4980	500.84
31.5125	521.51
31.5269	498.66
31.5414	467.61
31.5558	490.15
31.5702	500.86
31.5847	508.90
31.5991	524.94
31.6136	492.33
31.6280	509.75
31.6424	488.26
31.6569	493.68
31.6713	520.12
31.6858	480.68
31.7002	493.51
31.7146	501.83
31.7291	475.97
31.7435	512.59
31.7580	496.62
31.7724	503.08
31.7868	536.91
31.8013	487.05
31.8157	522.09
31.8302	530.56
31.8446	504.31
31.8590	499.69
31.8735	506.23
31.8879	478.57
31.9024	521.02
31.9168	489.76
31.9312	474.19
31.9457	497.73
31.9601	474.95
31.9746	502.04
31.9890	506.36
32.0034	525.39
32.0179	510.60
32.0323	439.63
32.0468	532.91
32.0612	520.26
32.0756	499.71
32.0901	474.27
32.1045	451.56
32.1190	517.98
32.1334	517.23
32.1478	461.68
32.1623	492.35
32.1767	500.60
32.1912	501.34
32.2056	472.99
32.2200	516.59
32.2345	504.96
32.2489	518.94
32.2634	483.16
32.2778	467.85
32.2922	505.43
32.3067	520.39
32.3211	508.79
32.3356	496.13
32.3500	496.75
32.3644	488.24
32.3789	517.33
32.3933	472.01
32.4078	439.04
32.4222	530.40
32.4366	501.59
32.4511	499.40
32.4655	508.34
32.4800	540.19
32.4944	551.59
32.5088	506.87
32.5233	496.04
32.5377	518.66
32.5522	493.89
32.5666	484.57
32.5810	474.71
32.5955	504.46
32.6099	519.33
32.6244	505.24
32.6388	485.71
32.6532	485.87
32.6677	468.79
32.6821	493.49
32.6966	511.43
32.7110	503.31
32.7254	497.11
32.7399	479.53
32.7543	514.59
32.7688	501.41
32.7832	532.47
32.7976	522.49
32.8121	517.13
32.8265	497.87
32.8410	514.61
32.8554	508.94
32.8698	506.96
32.8843	500.11
32.8987	505.37
32.9132	541.92
32.9276	524.55
32.9420	513.23
32.9565	496.98
32.9709	505.41
32.9854	484.70
32.9998	496.31
33.0142	477.72
33.0287	507.12
33.0431	499.55
33.0576	492.45
33.0720	514.71
33.0864	493.74
33.1009	482.26
33.1153	514.14
33.1298	499.41
33.1442	490.11
33.1586	489.22
33.1731	461.33
33.1875	491.02
33.2020	475.57
33.2164	497.68
33.2308	522.38
33.2453	485.85
33.2597	484.02
33.2742	497.61
33.2886	515.89
33.3030	497.00
33.3175	497.68
33.3319	487.76
33.3464	491.22
33.3608	497.60
33.3752	504.52
33.3897	487.55
33.4041	457.11
33.4186	470.36
33.4330	512.95
33.4474	498.22
33.4619	507.47
33.4763	513.54
33.4908	510.08
33.5052	489.85
33.5196	512.99
33.5341	516.75
33.5485	495.45
33.5630	485.80
33.5774	492.11
33.5918	506.88
33.6063	479.71
33.6207	445.52
33.6352	498.62
33.6496	512.79
33.6640	517.38
33.6785	484.53
33.6929	491.70
33.7074	513.17
33.7218	458.20
33.7362	476.36
33.7507	463.58
33.7651	481.23
33.7796	506.25
33.7940	523.28
33.8084	507.39
33.8229	505.83
33.8373	505.44
33.8518	495.34
33.8662	482.33
33.8806	503.55
33.8951	535.56
33.9095	509.97
33.9240	507.51
33.9384	519.67
33.9528	501.74
33.9673	492.76
33.9817	511.93
33.9962	477.68
34.0106	464.27
34.0250	551.45
34.0395	507.63
34.0539	469.82
34.0684	493.80
34.0828	498.91
34.0972	495.11
34.1117	501.57
34.1261	535.70
34.1406	494.32
34.1550	484.63
34.1694	537.25
34.1839	490.36
34.1983	454.74
34.2128	479.86
34.2272	495.01
34.2417	524.58
34.2561	503.82
34.2705	487.78
34.2850	482.12
34.2994	509.70
34.3139	515.22
34.3283	502.40
34.3427	486.84
34.3572	489.39
34.3716	508.54
34.3861	513.51
34.4005	487.61
34.4149	536.06
34.4294	515.05
34.4438	485.10
34.4583	505.22
34.4727	481.47
34.4871	495.78
34.5016	518.94
34.5160	532.04
34.5305	485.76
34.5449	506.31
34.5593	497.36
34.5738	491.44
34.5882	482.95
34.6027	506.55
34.6171	493.53
34.6315	491.82
34.6460	512.36
34.6604	519.35
34.6749	536.48
34.6893	484.11
34.7037	521.28
34.7182	527.10
34.7326	485.73
34.7471	483.52
34.7615	497.77
34.7759	484.94
34.7904	482.82
34.8048	506.03
34.8193	513.54
34.8337	502.45
34.8481	498.05
34.8626	488.22
34.8770	502.83
34.8915	530.36
34.9059	538.75
34.9203	511.58
34.9348	509.78
34.9492	496.43
34.9637	481.81
34.9781	512.65
34.9925	487.08
35.0070	511.44
35.0214	496.97
35.0359	477.17
35.0503	479.85
35.0647	529.60
35.0792	532.15
35.0936	513.66
35.1081	515.69
35.1225	511.55
35.1369	498.73
35.1514	493.67
35.1658	480.64
35.1803	495.84
35.1947	512.19
35.2091	516.74
35.2236	530.30
35.2380	500.75
35.2525	490.97
35.2669	505.27
35.2813	522.12
35.2958	497.64
35.3102	493.34
35.3247	512.11
35.3391	497.17
35.3535	522.10
35.3680	522.27
35.3824	496.34
35.3969	514.34
35.4113	518.79
35.4257	507.20
35.4402	508.59
35.4546	516.61
35.4691	549.97
35.4835	574.61
35.4979	538.94
35.5124	541.60
35.5268	536.54
35.5413	554.98
35.5557	533.46
35.5701	526.65
35.5846	537.09
35.5990	542.33
35.6135	527.43
35.6279	528.66
35.6423	514.41
35.6568	498.99
35.6712	545.12
35.6857	626.24
35.7001	672.59
35.7145	747.76
35.7290	690.42
35.7434	634.37
35.7579	623.96
35.7723	553.22
35.7867	632.70
35.8012	689.56
35.8156	719.97
35.8301	699.98
35.8445	660.60
35.8589	678.62
35.8734	797.80
35.8878	917.03
35.9023	1005.35
35.9167	1016.34
35.9311	1127.30
35.9456	1542.90
35.9600	2058.46
35.9745	1974.18
35.9889	2105.31
36.0033	2586.59
36.0178	3037.94
36.0322	3132.26
36.0467	2610.63
36.0611	2182.03
36.0755	2044.86
36.0900	2123.15
36.1044	1834.88
36.1189	1641.67
36.1333	1619.36
36.1477	1386.93
36.1622	1268.76
36.1766	1126.78
36.1911	979.15
36.2055	958.48
36.2199	892.53
36.2344	776.57
36.2488	690.49
36.2633	606.17
36.2777	603.29
36.2921	604.38
36.3066	617.64
36.3210	548.27
36.3355	543.70
36.3499	540.71
36.3643	522.20
36.3788	523.86
36.3932	585.76
36.4077	547.60
36.4221	526.50
36.4365	548.29
36.4510	527.39
36.4654	531.92
36.4799	498.70
36.4943	556.46
36.5087	571.00
36.5232	534.72
36.5376	492.67
36.5521	525.65
36.5665	495.92
36.5809	526.46
36.5954	512.94
36.6098	540.38
36.6243	533.91
36.6387	527.33
36.6531	508.16
36.6676	528.91
36.6820	513.29
36.6965	544.96
36.7109	574.56
36.7253	549.22
36.7398	486.68
36.7542	512.65
36.7687	567.77
36.7831	570.65
36.7975	561.42
36.8120	563.13
36.8264	575.61
36.8409	572.23
36.8553	605.01
36.8697	589.06
36.8842	602.16
36.8986	610.10
36.9131	620.65
36.9275	572.78
36.9419	558.83
36.9564	555.39
36.9708	559.25
36.9853	536.27
36.9997	551.90
37.0141	520.89
37.0286	554.67
37.0430	540.94
37.0575	542.13
37.0719	517.69
37.0863	543.21
37.1008	539.68
37.1152	517.99
37.1297	517.51
37.1441	482.71
37.1585	511.17
37.1730	515.97
37.1874	500.83
37.2019	482.04
37.2163	514.78
37.2307	490.45
37.2452	535.50
37.2596	501.34
37.2741	539.11
37.2885	536.02
37.3029	472.96
37.3174	512.69
37.3318	513.51
37.3463	522.92
37.3607	514.30
37.3751	506.88
37.3896	500.20
37.4040	519.42
37.4185	520.83
37.4329	508.87
37.4473	477.74
37.4618	503.45
37.4762	499.44
37.4907	502.33
37.5051	499.80
37.5195	469.27
37.5340	485.17
37.5484	487.99
37.5629	477.05
37.5773	486.83
37.5917	490.60
37.6062	529.89
37.6206	505.50
37.6351	518.22
37.6495	530.37
37.6639	494.28
37.6784	483.07
37.6928	500.88
37.7073	513.99
37.7217	508.38
37.7361	521.67
37.7506	482.20
37.7650	507.63
37.7795	484.66
37.7939	464.34
37.8083	525.58
37.8228	514.52
37.8372	504.69
37.8517	519.07
37.8661	497.75
37.8805	514.78
37.8950	510.51
37.9094	533.07
37.9239	523.79
37.9383	556.48
37.9528	520.81
37.9672	491.03
37.9816	514.02
37.9961	522.62
38.0105	459.75
38.0250	484.45
38.0394	517.53
38.0538	513.92
38.0683	526.65
38.0827	527.85
38.0972	514.33
38.1116	526.96
38.1260	517.72
38.1405	501.16
38.1549	484.26
38.1694	513.03
38.1838	506.38
38.1982	498.68
38.2127	478.37
38.2271	505.71
38.2416	486.11
38.2560	498.76
38.2704	531.11
38.2849	510.10
38.2993	522.46
38.3138	517.97
38.3282	507.32
38.3426	540.16
38.3571	513.72
38.3715	517.21
38.3860	505.71
38.4004	504.76
38.4148	573.57
38.4293	557.97
38.4437	561.13
38.4582	591.55
38.4726	631.97
38.4870	669.61
38.5015	734.71
38.5159	792.90
38.5304	809.63
38.5448	785.60
38.5592	752.31
38.5737	779.43
38.5881	754.63
38.6026	690.48
38.6170	672.47
38.6314	656.30
38.6459	665.81
38.6603	654.81
38.6748	642.40
38.6892	610.30
38.7036	583.70
38.7181	554.17
38.7325	525.53
38.7470	535.69
38.7614	531.91
38.7758	526.49
38.7903	482.79
38.8047	484.70
38.8192	500.55
38.8336	502.01
38.8480	492.96
38.8625	531.26
38.8769	503.01
38.8914	505.43
38.9058	488.63
38.9202	478.96
38.9347	495.22
38.9491	510.16
38.9636	486.21
38.9780	476.26
38.9924	521.16
39.0069	479.45
39.0213	483.12
39.0358	479.68
39.0502	497.75
39.0646	506.50
39.0791	510.47
39.0935	535.82
39.1080	500.88
39.1224	488.35
39.1368	454.11
39.1513	485.48
39.1657	492.72
39.1802	510.52
39.1946	499.87
39.2090	481.94
39.2235	531.77
39.2379	529.37
39.2524	518.85
39.2668	485.16
39.2812	499.34
39.2957	502.21
39.3101	515.99
39.3246	504.46
39.3390	533.48
39.3534	516.33
39.3679	505.88
39.3823	488.25
39.3968	468.67
39.4112	499.60
39.4256	505.31
39.4401	488.88
39.4545	466.37
39.4690	512.68
39.4834	519.44
39.4978	488.06
39.5123	456.64
39.5267	461.27
39.5412	469.70
39.5556	492.30
39.5700	506.95
39.5845	506.74
39.5989	502.37
39.6134	479.38
39.6278	485.98
39.6422	537.33
39.6567	524.50
39.6711	475.93
39.6856	456.43
39.7000	499.00
39.7144	510.28
39.7289	505.75
39.7433	517.24
39.7578	463.52
39.7722	500.58
39.7866	493.29
39.8011	520.01
39.8155	489.52
39.8300	511.13
39.8444	488.97
39.8588	492.41
39.8733	510.26
39.8877	462.36
39.9022	539.18
39.9166	517.31
39.9310	534.28
39.9455	476.89
39.9599	488.38
39.9744	472.99
39.9888	494.32
40.0032	497.68
40.0177	487.10
40.0321	496.62
40.0466	488.27
40.0610	518.40
40.0754	483.03
40.0899	500.58
40.1043	513.36
40.1188	475.26
40.1332	514.86
40.1476	461.58
40.1621	488.98
40.1765	479.86
40.1910	496.78
40.2054	505.94
40.2198	509.29
40.2343	488.55
40.2487	474.93
40.2632	514.21
40.2776	531.47
40.2920	482.44
40.3065	494.54
40.3209	501.49
40.3354	510.06
40.3498	477.79
40.3642	476.77
40.3787	479.30
40.3931	490.88
40.4076	461.07
40.4220	478.85
40.4364	488.93
40.4509	470.86
40.4653	495.10
40.4798	498.39
40.4942	486.58
40.5086	510.10
40.5231	474.06
40.5375	452.54
40.5520	508.86
40.5664	511.32
40.5808	486.21
40.5953	457.47
40.6097	472.75
40.6242	489.94
40.6386	490.68
40.6530	518.41
40.6675	466.89
40.6819	497.97
40.6964	502.21
40.7108	536.22
40.7252	476.09
40.7397	490.43
40.7541	491.74
40.7686	499.09
40.7830	529.31
40.7974	486.12
40.8119	477.40
40.8263	480.64
40.8408	473.70
40.8552	480.21
40.8696	517.68
40.8841	491.05
40.8985	496.17
40.9130	520.73
40.9274	501.96
40.9418	486.80
40.9563	476.53
40.9707	478.66
40.9852	496.69
40.9996	480.16
41.0140	499.33
41.0285	499.02
41.0429	488.12
41.0574	532.70
41.0718	494.57
41.0862	522.94
41.1007	516.55
41.1151	495.00
41.1296	530.32
41.1440	498.38
41.1584	489.90
41.1729	512.27
41.1873	476.83
41.2018	471.36
41.2162	467.02
41.2306	491.46
41.2451	503.88
41.2595	507.70
41.2740	497.07
41.2884	479.64
41.3028	480.25
41.3173	502.93
41.3317	539.05
41.3462	520.27
41.3606	499.91
41.3750	450.29
41.3895	482.96
41.4039	502.25
41.4184	493.52
41.4328	507.90
41.4472	492.21
41.4617	467.84
41.4761	472.93
41.4906	507.08
41.5050	488.04
41.5194	538.75
41.5339	499.39
41.5483	499.19
41.5628	508.22
41.5772	495.55
41.5916	488.93
41.6061	529.59
41.6205	483.38
41.6350	511.74
41.6494	525.21
41.6639	534.07
41.6783	506.30
41.6927	484.97
41.7072	525.11
41.7216	487.77
41.7361	461.54
41.7505	513.64
41.7649	488.13
41.7794	494.61
41.7938	512.96
41.8083	505.95
41.8227	503.19
41.8371	493.67
41.8516	528.77
41.8660	504.62
41.8805	520.97
41.8949	553.47
41.9093	561.42
41.9238	541.09
41.9382	579.23
41.9527	572.14
41.9671	575.67
41.9815	578.86
41.9960	570.37
42.0104	561.14
42.0249	560.91
42.0393	555.51
42.0537	578.46
42.0682	559.85
42.0826	566.54
42.0971	542.92
42.1115	554.47
42.1259	589.56
42.1404	611.72
42.1548	609.36
42.1693	634.85
42.1837	698.45
42.1981	748.09
42.2126	838.46
42.2270	915.51
42.2415	1101.83
42.2559	1224.35
42.2703	1381.93
42.2848	1540.18
42.2992	1599.67
42.3137	1641.00
42.3281	1659.34
42.3425	1597.44
42.3570	1492.44
42.3714	1425.16
42.3859	1390.27
42.4003	1350.72
42.4147	1358.49
42.4292	1316.62
42.4436	1187.44
42.4581	1056.03
42.4725	926.60
42.4869	840.40
42.5014	749.68
42.5158	687.52
42.5303	666.25
42.5447	654.88
42.5591	637.82
42.5736	607.13
42.5880	627.31
42.6025	582.51
42.6169	556.96
42.6313	540.70
42.6458	540.33
42.6602	558.82
42.6747	557.94
42.6891	519.69
42.7035	575.69
42.7180	537.96
42.7324	472.50
42.7469	508.36
42.7613	506.21
42.7757	475.47
42.7902	510.58
42.8046	530.42
42.8191	506.07
42.8335	517.76
42.8479	499.05
42.8624	526.90
42.8768	543.83
42.8913	489.34
42.9057	511.35
42.9201	517.45
42.9346	519.43
42.9490	504.21
42.9635	498.20
42.9779	502.41
42.9923	481.72
43.0068	503.70
43.0212	544.14
43.0357	502.77
43.0501	488.70
43.0645	508.06
43.0790	498.41
43.0934	512.68
43.1079	521.79
43.1223	524.87
43.1367	485.64
43.1512	452.76
43.1656	514.88
43.1801	527.95
43.1945	518.02
43.2089	519.97
43.2234	544.62
43.2378	528.99
43.2523	529.99
43.2667	507.83
43.2811	537.41
43.2956	542.93
43.3100	495.57
43.3245	513.83
43.3389	540.68
43.3533	534.18
43.3678	514.44
43.3822	474.55
43.3967	524.56
43.4111	504.18
43.4255	508.98
43.4400	514.38
43.4544	507.62
43.4689	536.22
43.4833	509.73
43.4977	510.38
43.5122	488.70
43.5266	511.20
43.5411	522.79
43.5555	516.97
43.5699	479.24
43.5844	472.32
43.5988	507.47
43.6133	516.94
43.6277	535.93
43.6421	544.53
43.6566	502.14
43.6710	517.07
43.6855	519.54
43.6999	523.60
43.7143	546.94
43.7288	521.56
43.7432	537.38
43.7577	592.13
43.7721	604.97
43.7865	621.27
43.8010	621.18
43.8154	669.67
43.8299	644.37
43.8443	656.16
43.8587	640.63
43.8732	642.44
43.8876	642.95
43.9021	643.46
43.9165	616.85
43.9309	617.27
43.9454	600.57
43.9598	548.22
43.9743	587.16
43.9887	556.17
44.0031	567.33
44.0176	530.54
44.0320	558.32
44.0465	521.09
44.0609	499.36
44.0753	506.08
44.0898	541.98
44.1042	526.87
44.1187	498.58
44.1331	517.61
44.1475	510.11
44.1620	533.17
44.1764	522.87
44.1909	523.69
44.2053	509.53
44.2197	502.39
44.2342	511.59
44.2486	540.53
44.2631	514.75
44.2775	514.37
44.2919	501.32
44.3064	547.88
44.3208	538.33
44.3353	519.91
44.3497	541.88
44.3641	517.45
44.3786	527.47
44.3930	566.72
44.4075	563.32
44.4219	589.65
44.4363	603.74
44.4508	572.09
44.4652	559.70
44.4797	575.47
44.4941	568.23
44.5085	587.87
44.5230	600.44
44.5374	625.61
44.5519	631.79
44.5663	573.80
44.5807	559.61
44.5952	555.04
44.6096	531.82
44.6241	531.64
44.6385	572.04
44.6529	548.31
44.6674	555.70
44.6818	583.17
44.6963	584.77
44.7107	663.71
44.7251	671.38
44.7396	724.85
44.7540	768.15
44.7685	782.13
44.7829	846.43
44.7973	853.92
44.8118	877.73
44.8262	802.33
44.8407	818.36
44.8551	754.55
44.8695	739.63
44.8840	729.80
44.8984	788.51
44.9129	715.93
44.9273	705.97
44.9417	707.76
44.9562	635.32
44.9706	612.34
44.9851	535.39
44.9995	599.76
45.0139	545.45
45.0284	535.13
45.0428	551.35
45.0573	534.04
45.0717	507.03
45.0861	511.93
45.1006	504.72
45.1150	529.47
45.1295	564.23
45.1439	525.54
45.1583	494.76
45.1728	467.12
45.1872	481.20
45.2017	523.94
45.2161	502.83
45.2305	501.43
45.2450	508.93
45.2594	453.71
45.2739	485.37
45.2883	513.74
45.3028	504.11
45.3172	483.23
45.3316	513.77
45.3461	483.92
45.3605	534.75
45.3750	501.02
45.3894	464.62
45.4038	490.68
45.4183	505.20
45.4327	534.92
45.4472	483.55
45.4616	519.16
45.4760	513.94
45.4905	498.72
45.5049	489.33
45.5194	531.00
45.5338	539.66
45.5482	524.20
45.5627	472.71
45.5771	504.88
45.5916	480.54
45.6060	513.84
45.6204	505.69
45.6349	507.65
45.6493	513.36
45.6638	502.20
45.6782	505.05
45.6926	490.48
45.7071	530.82
45.7215	533.58
45.7360	498.19
45.7504	504.92
45.7648	478.41
45.7793	516.04
45.7937	503.72
45.8082	504.51
45.8226	538.80
45.8370	506.28
45.8515	475.93
45.8659	536.19
45.8804	524.49
45.8948	505.17
45.9092	511.51
45.9237	495.11
45.9381	511.60
45.9526	473.97
45.9670	490.59
45.9814	480.82
45.9959	485.96
46.0103	499.16
46.0248	509.75
46.0392	526.64
46.0536	506.75
46.0681	515.52
46.0825	512.88
46.0970	495.01
46.1114	499.49
46.1258	498.00
46.1403	514.24
46.1547	492.90
46.1692	504.65
46.1836	511.43
46.1980	512.81
46.2125	494.36
46.2269	493.62
46.2414	499.37
46.2558	502.80
46.2702	515.32
46.2847	532.58
46.2991	501.37
46.3136	521.10
46.3280	492.89
46.3424	477.87
46.3569	489.76
46.3713	518.11
46.3858	506.32
46.4002	472.54
46.4146	501.82
46.4291	528.48
46.4435	505.30
46.4580	510.28
46.4724	499.94
46.4868	475.51
46.5013	500.59
46.5157	523.89
46.5302	520.98
46.5446	516.87
46.5590	508.11
46.5735	505.20
46.5879	478.06
46.6024	497.64
46.6168	513.17
46.6312	478.30
46.6457	459.79
46.6601	470.34
46.6746	502.05
46.6890	503.04
46.7034	520.58
46.7179	497.59
46.7323	500.52
46.7468	528.13
46.7612	497.40
46.7756	505.42
46.7901	475.04
46.8045	512.24
46.8190	508.02
46.8334	536.36
46.8478	495.40
46.8623	514.63
46.8767	512.07
46.8912	506.17
46.9056	512.80
46.9200	493.80
46.9345	509.96
46.9489	525.18
46.9634	497.43
46.9778	503.75
46.9922	497.56
47.0067	481.49
47.0211	504.67
47.0356	492.40
47.0500	474.13
47.0644	490.99
47.0789	519.89
47.0933	527.13
47.1078	487.39
47.1222	497.56
47.1366	483.84
47.1511	491.55
47.1655	526.60
47.1800	509.92
47.1944	513.98
47.2088	522.75
47.2233	481.02
47.2377	513.43
47.2522	490.13
47.2666	522.09
47.2810	537.62
47.2955	511.17
47.3099	501.70
47.3244	506.98
47.3388	531.78
47.3532	517.57
47.3677	469.78
47.3821	485.45
47.3966	491.99
47.4110	491.92
47.4254	525.58
47.4399	505.37
47.4543	514.99
47.4688	528.92
47.4832	520.01
47.4976	491.54
47.5121	496.20
47.5265	502.45
47.5410	526.22
47.5554	502.54
47.5698	510.13
47.5843	509.56
47.5987	494.88
47.6132	488.09
47.6276	488.86
47.6420	505.46
47.6565	504.91
47.6709	505.78
47.6854	504.80
47.6998	473.57
47.7142	514.28
47.7287	503.96
47.7431	470.27
47.7576	498.25
47.7720	491.51
47.7864	524.41
47.8009	484.09
47.8153	510.98
47.8298	489.61
47.8442	504.27
47.8586	514.62
47.8731	511.79
47.8875	514.64
47.9020	515.45
47.9164	520.48
47.9308	495.03
47.9453	477.38
47.9597	482.56
47.9742	473.78
47.9886	523.83
48.0030	523.52
48.0175	507.76
48.0319	511.96
48.0464	528.20
48.0608	514.65
48.0752	502.82
48.0897	511.35
48.1041	526.69
48.1186	503.96
48.1330	513.11
48.1474	472.04
48.1619	508.07
48.1763	498.92
48.1908	506.96
48.2052	510.80
48.2196	506.06
48.2341	508.56
48.2485	512.70
48.2630	523.89
48.2774	561.16
48.2918	493.24
48.3063	492.51
48.3207	501.70
48.3352	512.96
48.3496	530.51
48.3640	502.44
48.3785	484.13
48.3929	471.31
48.4074	492.75
48.4218	525.65
48.4362	496.31
48.4507	488.46
48.4651	506.26
48.4796	538.59
48.4940	517.11
48.5084	517.41
48.5229	524.03
48.5373	525.48
48.5518	536.54
48.5662	537.58
48.5806	483.42
48.5951	490.99
48.6095	493.20
48.6240	490.40
48.6384	500.25
48.6528	510.29
48.6673	470.06
48.6817	481.66
48.6962	495.70
48.7106	499.13
48.7250	489.68
48.7395	510.96
48.7539	503.32
48.7684	511.54
48.7828	540.01
48.7972	547.51
48.8117	522.45
48.8261	521.02
48.8406	554.18
48.8550	534.77
48.8694	563.00
48.8839	526.71
48.8983	564.29
48.9128	559.74
48.9272	564.54
48.9416	566.49
48.9561	577.17
48.9705	567.93
48.9850	586.53
48.9994	597.02
49.0139	590.65
49.0283	614.94
49.0427	579.25
49.0572	631.08
49.0716	688.48
49.0861	693.26
49.1005	701.05
49.1149	679.03
49.1294	748.77
49.1438	754.32
49.1583	774.60
49.1727	876.20
49.1871	870.78
49.2016	899.39
49.2160	1035.93
49.2305	1103.69
49.2449	1179.83
49.2593	1254.36
49.2738	1429.34
49.2882	1517.57
49.3027	1601.19
49.3171	1707.73
49.3315	1783.46
49.3460	1787.96
49.3604	1843.18
49.3749	1857.04
49.3893	1827.52
49.4037	1805.77
49.4182	1764.88
49.4326	1798.64
49.4471	1676.35
49.4615	1617.84
49.4759	1545.15
49.4904	1579.14
49.5048	1452.64
49.5193	1354.29
49.5337	1339.84
49.5481	1210.09
49.5626	1134.87
49.5770	1022.79
49.5915	977.79
49.6059	978.54
49.6203	858.98
49.6348	814.34
49.6492	789.13
49.6637	730.97
49.6781	742.35
49.6925	710.71
49.7070	698.02
49.7214	654.73
49.7359	599.73
49.7503	610.81
49.7647	604.33
49.7792	656.88
49.7936	609.25
49.8081	566.30
49.8225	577.34
49.8369	543.58
49.8514	528.41
49.8658	595.56
49.8803	557.09
49.8947	530.82
49.9091	566.72
49.9236	543.51
49.9380	544.92
49.9525	553.74
49.9669	535.53
49.9813	527.46
49.9958	540.74
50.0102	531.47
50.0247	526.26
50.0391	531.74
50.0535	543.03
50.0680	480.18
50.0824	510.12
50.0969	487.39
50.1113	511.63
50.1257	528.99
50.1402	513.99
50.1546	500.34
50.1691	488.20
50.1835	494.09
50.1979	492.26
50.2124	571.16
50.2268	531.55
50.2413	527.36
50.2557	531.01
50.2701	529.98
50.2846	539.21
50.2990	515.72
50.3135	517.50
50.3279	514.22
50.3423	508.11
50.3568	501.43
50.3712	516.00
50.3857	501.07
50.4001	482.36
50.4145	494.91
50.4290	512.19
50.4434	522.59
50.4579	513.50
50.4723	516.98
50.4867	487.24
50.5012	526.26
50.5156	510.18
50.5301	481.89
50.5445	488.11
50.5589	525.79
50.5734	513.76
50.5878	528.82
50.6023	495.25
50.6167	495.61
50.6311	483.03
50.6456	500.32
50.6600	498.63
50.6745	500.72
50.6889	508.54
50.7033	531.16
50.7178	529.73
50.7322	506.44
50.7467	497.96
50.7611	483.92
50.7755	493.28
50.7900	490.78
50.8044	491.68
50.8189	495.03
50.8333	529.01
50.8477	501.75
50.8622	486.34
50.8766	504.62
50.8911	489.61
50.9055	482.91
50.9199	467.79
50.9344	513.57
50.9488	529.60
50.9633	521.65
50.9777	487.23
50.9921	505.65
51.0066	468.02
51.0210	496.13
51.0355	470.84
51.0499	480.09
51.0643	516.75
51.0788	513.28
51.0932	502.65
51.1077	512.83
51.1221	534.80
51.1365	517.14
51.1510	483.47
51.1654	478.58
51.1799	531.99
51.1943	487.05
51.2087	459.34
51.2232	510.42
51.2376	546.02
51.2521	491.49
51.2665	484.72
51.2809	531.52
51.2954	500.48
51.3098	500.65
51.3243	494.53
51.3387	512.55
51.3531	521.15
51.3676	532.15
51.3820	516.31
51.3965	448.34
51.4109	493.38
51.4253	523.55
51.4398	533.81
51.4542	511.72
51.4687	525.58
51.4831	502.88
51.4975	511.30
51.5120	518.04
51.5264	530.28
51.5409	534.22
51.5553	514.01
51.5697	509.57
51.5842	518.45
51.5986	483.58
51.6131	510.39
51.6275	476.07
51.6419	482.47
51.6564	507.75
51.6708	497.99
51.6853	505.97
51.6997	503.72
51.7141	504.21
51.7286	527.37
51.7430	490.79
51.7575	512.16
51.7719	505.40
51.7863	488.53
51.8008	493.89
51.8152	538.08
51.8297	535.30
51.8441	499.55
51.8585	533.10
51.8730	523.30
51.8874	490.04
51.9019	536.46
51.9163	514.09
51.9307	490.15
51.9452	522.27
51.9596	527.04
51.9741	521.10
51.9885	506.39
52.0029	492.46
52.0174	501.39
52.0318	525.28
52.0463	514.36
52.0607	508.75
52.0751	502.44
52.0896	490.20
52.1040	469.92
52.1185	519.62
52.1329	500.71
52.1473	508.12
52.1618	486.94
52.1762	521.14
52.1907	516.63
52.2051	506.77
52.2195	509.26
52.2340	545.79
52.2484	519.18
52.2629	485.19
52.2773	486.86
52.2917	497.37
52.3062	509.31
52.3206	507.28
52.3351	497.72
52.3495	491.71
52.3639	557.68
52.3784	535.70
52.3928	467.86
52.4073	479.74
52.4217	514.66
52.4361	503.64
52.4506	464.31
52.4650	489.54
52.4795	518.74
52.4939	516.08
52.5083	500.46
52.5228	500.82
52.5372	505.43
52.5517	525.66
52.5661	504.41
52.5805	496.56
52.5950	492.55
52.6094	512.44
52.6239	527.67
52.6383	510.76
52.6527	495.19
52.6672	477.52
52.6816	505.39
52.6961	508.08
52.7105	489.74
52.7250	480.58
52.7394	493.71
52.7538	504.18
52.7683	520.79
52.7827	496.24
52.7972	472.96
52.8116	510.98
52.8260	485.26
52.8405	533.87
52.8549	522.74
52.8694	523.86
52.8838	471.92
52.8982	515.61
52.9127	544.18
52.9271	479.38
52.9416	484.91
52.9560	491.02
52.9704	474.18
52.9849	486.58
52.9993	497.43
53.0138	489.31
53.0282	495.85
53.0426	529.39
53.0571	478.40
53.0715	526.57
53.0860	530.68
53.1004	531.88
53.1148	512.72
53.1293	495.39
53.1437	524.75
53.1582	527.22
53.1726	535.80
53.1870	473.66
53.2015	494.62
53.2159	492.11
53.2304	483.29
53.2448	511.86
53.2592	511.69
53.2737	496.51
53.2881	513.24
53.3026	507.02
53.3170	525.88
53.3314	515.55
53.3459	544.18
53.3603	536.87
53.3748	504.26
53.3892	505.70
53.4036	514.52
53.4181	527.20
53.4325	535.11
53.4470	458.38
53.4614	484.19
53.4758	519.85
53.4903	516.68
53.5047	545.05
53.5192	531.50
53.5336	519.69
53.5480	539.11
53.5625	507.91
53.5769	513.26
53.5914	508.23
53.6058	507.64
53.6202	521.90
53.6347	526.34
53.6491	524.03
53.6636	517.95
53.6780	479.28
53.6924	506.95
53.7069	510.67
53.7213	494.09
53.7358	484.88
53.7502	515.80
53.7646	508.11
53.7791	542.51
53.7935	520.92
53.8080	523.42
53.8224	521.39
53.8368	505.74
53.8513	556.29
53.8657	545.81
53.8802	517.24
53.8946	517.08
53.9090	512.26
53.9235	507.22
53.9379	504.22
53.9524	517.41
53.9668	492.15
53.9812	498.83
53.9957	532.68
54.0101	520.62
54.0246	517.36
54.0390	539.87
54.0534	508.06
54.0679	525.08
54.0823	540.61
54.0968	514.66
54.1112	504.27
54.1256	542.07
54.1401	513.86
54.1545	502.40
54.1690	530.34
54.1834	550.18
54.1978	500.98
54.2123	531.85
54.2267	557.14
54.2412	561.24
54.2556	540.40
54.2700	560.58
54.2845	575.57
54.2989	590.99
54.3134	613.23
54.3278	578.50
54.3422	594.55
54.3567	592.55
54.3711	596.45
54.3856	623.39
54.4000	613.51
54.4144	623.39
54.4289	641.90
54.4433	605.15
54.4578	594.03
54.4722	632.49
54.4866	608.80
54.5011	559.01
54.5155	544.11
54.5300	584.11
54.5444	572.56
54.5588	569.24
54.5733	568.40
54.5877	564.85
54.6022	527.64
54.6166	571.85
54.6310	561.72
54.6455	509.18
54.6599	533.04
54.6744	503.19
54.6888	529.59
54.7032	527.90
54.7177	553.75
54.7321	525.61
54.7466	509.72
54.7610	483.23
54.7754	494.19
54.7899	503.96
54.8043	512.08
54.8188	504.65
54.8332	527.09
54.8476	504.02
54.8621	512.04
54.8765	539.52
54.8910	547.61
54.9054	552.04
54.9198	514.81
54.9343	496.81
54.9487	495.95
54.9632	492.34
54.9776	523.70
54.9920	516.82
55.0065	516.68
55.0209	541.59
55.0354	510.61
55.0498	521.86
55.0642	495.76
55.0787	499.85
55.0931	491.34
55.1076	508.83
55.1220	570.90
55.1364	509.33
55.1509	483.36
55.1653	516.91
55.1798	536.47
55.1942	498.15
55.2086	507.00
55.2231	520.54
55.2375	533.82
55.2520	537.85
55.2664	532.94
55.2808	503.45
55.2953	509.65
55.3097	525.60
55.3242	501.92
55.3386	514.66
55.3530	519.71
55.3675	512.08
55.3819	516.36
55.3964	510.41
55.4108	496.94
55.4252	505.03
55.4397	505.82
55.4541	489.12
55.4686	507.96
55.4830	533.43
55.4974	500.67
55.5119	501.79
55.5263	507.06
55.5408	551.87
55.5552	474.36
55.5696	484.76
55.5841	522.59
55.5985	528.08
55.6130	544.09
55.6274	515.06
55.6418	535.91
55.6563	533.12
55.6707	515.09
55.6852	523.59
55.6996	534.89
55.7140	519.54
55.7285	480.22
55.7429	487.82
55.7574	510.63
55.7718	535.74
55.7862	490.11
55.8007	471.93
55.8151	505.26
55.8296	534.68
55.8440	517.00
55.8584	528.20
55.8729	522.23
55.8873	510.56
55.9018	510.34
55.9162	511.52
55.9306	497.30
55.9451	535.11
55.9595	531.00
55.9740	531.12
55.9884	508.83
56.0028	517.91
56.0173	536.17
56.0317	508.59
56.0462	489.65
56.0606	546.12
56.0750	548.37
56.0895	494.16
56.1039	500.26
56.1184	549.14
56.1328	562.99
56.1472	498.62
56.1617	528.49
56.1761	522.25
56.1906	515.26
56.2050	494.16
56.2194	499.36
56.2339	528.40
56.2483	508.73
56.2628	497.81
56.2772	519.83
56.2916	548.40
56.3061	506.41
56.3205	498.68
56.3350	539.89
56.3494	530.12
56.3639	553.44
56.3783	542.67
56.3927	526.24
56.4072	527.84
56.4216	513.21
56.4361	491.44
56.4505	489.14
56.4649	513.93
56.4794	515.70
56.4938	533.69
56.5083	488.30
56.5227	503.73
56.5371	516.94
56.5516	540.10
56.5660	523.87
56.5805	545.31
56.5949	545.19
56.6093	484.73
56.6238	521.03
56.6382	554.38
56.6527	528.65
56.6671	542.86
56.6815	476.96
56.6960	488.10
56.7104	488.04
56.7249	500.42
56.7393	512.73
56.7537	487.99
56.7682	527.61
56.7826	533.43
56.7971	487.62
56.8115	502.12
56.8259	509.86
56.8404	512.72
56.8548	505.09
56.8693	509.53
56.8837	512.53
56.8981	521.58
56.9126	508.32
56.9270	516.23
56.9415	531.95
56.9559	503.48
56.9703	490.17
56.9848	508.85
56.9992	527.36
57.0137	546.88
57.0281	511.22
57.0425	503.95
57.0570	512.79
57.0714	505.98
57.0859	550.07
57.1003	547.42
57.1147	485.27
57.1292	535.46
57.1436	527.21
57.1581	511.25
57.1725	501.77
57.1869	542.22
57.2014	527.19
57.2158	505.65
57.2303	531.10
57.2447	507.02
57.2591	521.58
57.2736	501.54
57.2880	545.40
57.3025	536.50
57.3169	505.71
57.3313	504.90
57.3458	536.18
57.3602	520.60
57.3747	509.93
57.3891	485.04
57.4035	538.29
57.4180	503.13
57.4324	532.68
57.4469	479.45
57.4613	503.44
57.4757	535.76
57.4902	534.25
57.5046	507.78
57.5191	514.96
57.5335	527.14
57.5479	548.46
57.5624	540.41
57.5768	518.52
57.5913	535.83
57.6057	504.24
57.6201	494.43
57.6346	531.64
57.6490	559.41
57.6635	529.37
57.6779	541.76
57.6923	546.81
57.7068	533.11
57.7212	544.28
57.7357	519.23
57.7501	562.09
57.7645	555.64
57.7790	577.64
57.7934	569.03
57.8079	533.51
57.8223	558.93
57.8367	584.55
57.8512	554.00
57.8656	616.42
57.8801	603.40
57.8945	649.31
57.9089	670.67
57.9234	676.19
57.9378	646.93
57.9523	698.03
57.9667	670.31
57.9811	651.19
57.9956	691.07
58.0100	683.54
58.0245	689.01
58.0389	679.24
58.0533	659.70
58.0678	661.80
58.0822	646.76
58.0967	680.64
58.1111	677.43
58.1255	673.28
58.1400	611.19
58.1544	601.06
58.1689	604.27
58.1833	602.13
58.1977	592.98
58.2122	592.10
58.2266	614.62
58.2411	582.85
58.2555	537.34
58.2699	578.23
58.2844	558.95
58.2988	571.10
58.3133	548.50
58.3277	559.57
58.3421	589.09
58.3566	532.95
58.3710	548.85
58.3855	554.28
58.3999	545.67
58.4143	528.95
58.4288	549.68
58.4432	533.62
58.4577	497.69
58.4721	551.35
58.4865	569.16
58.5010	525.49
58.5154	530.14
58.5299	557.82
58.5443	506.40
58.5587	498.94
58.5732	482.87
58.5876	520.16
58.6021	515.84
58.6165	514.19
58.6309	531.45
58.6454	538.00
58.6598	525.46
58.6743	568.90
58.6887	519.80
58.7031	549.23
58.7176	553.92
58.7320	517.42
58.7465	547.22
58.7609	516.70
58.7753	521.85
58.7898	511.25
58.8042	500.72
58.8187	516.84
58.8331	501.97
58.8475	501.32
58.8620	537.79
58.8764	521.73
58.8909	521.83
58.9053	527.64
58.9197	520.37
58.9342	538.79
58.9486	529.22
58.9631	526.90
58.9775	505.31
58.9919	526.55
59.0064	536.81
59.0208	539.43
59.0353	516.37
59.0497	495.04
59.0641	514.84
59.0786	516.11
59.0930	545.91
59.1075	542.35
59.1219	554.20
59.1363	518.38
59.1508	497.56
59.1652	520.03
59.1797	539.55
59.1941	530.00
59.2085	531.22
59.2230	545.50
59.2374	512.46
59.2519	535.69
59.2663	546.71
59.2807	571.31
59.2952	576.57
59.3096	551.95
59.3241	519.54
59.3385	527.91
59.3529	552.43
59.3674	540.11
59.3818	570.80
59.3963	549.79
59.4107	539.75
59.4251	563.48
59.4396	587.19
59.4540	556.74
59.4685	553.01
59.4829	543.35
59.4973	540.80
59.5118	546.92
59.5262	545.20
59.5407	523.87
59.5551	544.90
59.5695	545.89
59.5840	535.59
59.5984	535.86
59.6129	546.25
59.6273	540.44
59.6417	559.72
59.6562	547.05
59.6706	534.60
59.6851	503.90
59.6995	564.42
59.7139	563.24
59.7284	511.78
59.7428	522.93
59.7573	524.50
59.7717	530.88
59.7861	543.75
59.8006	531.88
59.8150	546.65
59.8295	501.00
59.8439	546.74
59.8583	532.68
59.8728	559.39
59.8872	558.54
59.9017	532.96
59.9161	548.02
59.9305	551.95
59.9450	520.97
59.9594	492.91
59.9739	500.71
59.9883	560.16
60.0027	547.12
60.0172	547.77
60.0316	534.09
60.0461	490.54
60.0605	533.91
60.0750	506.71
60.0894	532.85
60.1038	539.08
60.1183	522.33
60.1327	562.75
60.1472	498.71
60.1616	531.33
60.1760	538.26
60.1905	530.08
60.2049	528.77
60.2194	519.89
60.2338	534.04
60.2482	523.33
60.2627	547.34
60.2771	581.35
60.2916	567.32
60.3060	528.02
60.3204	565.91
60.3349	537.56
60.3493	524.28
60.3638	526.19
60.3782	545.47
60.3926	544.84
60.4071	546.30
60.4215	565.84
60.4360	517.26
60.4504	499.20
60.4648	548.71
60.4793	529.80
60.4937	555.30
60.5082	529.79
60.5226	519.80
60.5370	539.06
60.5515	569.27
60.5659	551.21
60.5804	552.34
60.5948	527.43
60.6092	491.44
60.6237	529.09
60.6381	526.31
60.6526	524.14
60.6670	542.06
60.6814	548.65
60.6959	533.35
60.7103	571.82
60.7248	548.32
60.7392	490.45
60.7536	527.24
60.7681	526.16
60.7825	533.27
60.7970	533.30
60.8114	533.83
60.8258	520.35
60.8403	508.26
60.8547	498.17
60.8692	515.04
60.8836	534.58
60.8980	557.14
60.9125	582.05
60.9269	516.41
60.9414	540.43
60.9558	555.31
60.9702	549.20
60.9847	567.92
60.9991	532.02
61.0136	555.72
61.0280	534.06
61.0424	551.49
61.0569	534.39
61.0713	578.44
61.0858	579.54
61.1002	579.79
61.1146	560.92
61.1291	530.43
61.1435	511.28
61.1580	512.70
61.1724	546.47
61.1868	508.71
61.2013	558.99
61.2157	548.39
61.2302	536.27
61.2446	553.39
61.2590	542.03
61.2735	518.35
61.2879	542.24
61.3024	513.82
61.3168	532.31
61.3312	542.88
61.3457	548.72
61.3601	523.05
61.3746	528.68
61.3890	512.34
61.4034	492.46
61.4179	530.80
61.4323	557.71
61.4468	521.80
61.4612	522.47
61.4756	527.01
61.4901	527.56
61.5045	551.96
61.5190	572.48
61.5334	529.00
61.5478	531.34
61.5623	508.60
61.5767	509.47
61.5912	576.89
61.6056	564.10
61.6200	522.77
61.6345	536.26
61.6489	556.08
61.6634	538.64
61.6778	514.15
61.6922	517.86
61.7067	558.96
61.7211	547.20
61.7356	502.67
61.7500	545.79
61.7644	538.21
61.7789	574.29
61.7933	526.64
61.8078	530.76
61.8222	517.75
61.8366	522.78
61.8511	545.79
61.8655	530.80
61.8800	509.28
61.8944	523.92
61.9088	554.28
61.9233	557.34
61.9377	554.62
61.9522	529.10
61.9666	530.75
61.9810	573.98
61.9955	538.12
62.0099	533.67
62.0244	569.56
62.0388	566.06
62.0532	555.15
62.0677	557.87
62.0821	533.41
62.0966	559.85
62.1110	536.01
62.1254	566.00
62.1399	524.34
62.1543	513.93
62.1688	516.42
62.1832	504.66
62.1976	529.89
62.2121	533.05
62.2265	559.25
62.2410	556.96
62.2554	559.61
62.2698	558.53
62.2843	546.79
62.2987	538.84
62.3132	521.15
62.3276	546.53
62.3420	540.22
62.3565	541.64
62.3709	529.46
62.3854	538.24
62.3998	539.24
62.4142	551.71
62.4287	550.36
62.4431	550.18
62.4576	551.98
62.4720	533.24
62.4864	549.57
62.5009	533.40
62.5153	527.41
62.5298	570.60
62.5442	547.59
62.5586	563.80
62.5731	553.79
62.5875	552.28
62.6020	542.87
62.6164	527.62
62.6308	551.57
62.6453	556.22
62.6597	563.19
62.6742	532.42
62.6886	506.48
62.7030	522.79
62.7175	575.63
62.7319	536.19
62.7464	532.09
62.7608	547.39
62.7752	564.05
62.7897	552.49
62.8041	583.69
62.8186	572.77
62.8330	581.70
62.8474	594.34
62.8619	593.58
62.8763	597.89
62.8908	588.21
62.9052	584.67
62.9196	535.70
62.9341	559.87
62.9485	569.85
62.9630	574.56
62.9774	575.10
62.9918	554.75
63.0063	560.26
63.0207	553.84
63.0352	554.23
63.0496	574.68
63.0640	584.62
63.0785	569.97
63.0929	551.78
63.1074	558.31
63.1218	569.90
63.1362	580.50
63.1507	563.44
63.1651	565.46
63.1796	575.21
63.1940	553.56
63.2084	530.77
63.2229	543.47
63.2373	582.63
63.2518	593.50
63.2662	540.15
63.2806	603.75
63.2951	595.11
63.3095	560.01
63.3240	586.76
63.3384	604.48
63.3528	609.10
63.3673	595.40
63.3817	573.93
63.3962	572.75
63.4106	567.52
63.4250	641.34
63.4395	600.64
63.4539	617.30
63.4684	619.48
63.4828	636.68
63.4972	612.73
63.5117	612.78
63.5261	669.21
63.5406	652.30
63.5550	673.99
63.5694	745.16
63.5839	752.34
63.5983	794.14
63.6128	778.20
63.6272	791.82
63.6416	803.50
63.6561	823.03
63.6705	769.22
63.6850	807.35
63.6994	812.61
63.7138	866.18
63.7283	817.62
63.7427	820.69
63.7572	829.39
63.7716	834.03
63.7861	832.17
63.8005	816.81
63.8149	802.37
63.8294	764.56
63.8438	784.05
63.8583	799.46
63.8727	759.65
63.8871	730.44
63.9016	726.46
63.9160	745.57
63.9305	730.39
63.9449	696.66
63.9593	658.75
63.9738	632.69
63.9882	690.16
64.0027	648.32
64.0171	623.35
64.0315	630.82
64.0460	666.50
64.0604	662.69
64.0749	594.13
64.0893	641.99
64.1037	652.68
64.1182	623.18
64.1326	613.14
64.1471	555.31
64.1615	561.69
64.1759	578.91
64.1904	584.14
64.2048	616.16
64.2193	596.44
64.2337	576.76
64.2481	625.71
64.2626	602.94
64.2770	592.93
64.2915	623.84
64.3059	578.89
64.3203	643.77
64.3348	636.43
64.3492	624.29
64.3637	630.42
64.3781	615.29
64.3925	605.69
64.4070	606.61
64.4214	634.06
64.4359	631.18
64.4503	586.03
64.4647	627.77
64.4792	634.71
64.4936	640.93
64.5081	592.39
64.5225	605.98
64.5369	624.28
64.5514	601.82
64.5658	631.75
64.5803	631.88
64.5947	627.11
64.6091	617.23
64.6236	619.32
64.6380	654.91
64.6525	588.27
64.6669	641.47
64.6813	656.03
64.6958	624.98
64.7102	657.30
64.7247	664.23
64.7391	697.62
64.7535	685.68
64.7680	690.01
64.7824	677.78
64.7969	694.62
64.8113	746.30
64.8257	760.38
64.8402	806.73
64.8546	823.81
64.8691	879.69
64.8835	810.65
64.8979	859.47
64.9124	834.17
64.9268	827.34
64.9413	892.43
64.9557	884.75
64.9701	940.12
64.9846	1047.78
64.9990	1048.67
65.0135	1255.44
65.0279	1395.40
65.0423	1627.74
65.0568	1915.86
65.0712	2518.83
65.0857	3163.24
65.1001	4225.74
65.1145	5682.99
65.1290	7513.54
65.1434	9026.39
65.1579	10643.40
65.1723	11485.45
65.1867	11159.71
65.2012	9953.66
65.2156	8504.23
65.2301	6749.62
65.2445	5324.20
65.2589	4421.05
65.2734	4168.81
65.2878	4318.95
65.3023	4762.83
65.3167	5458.35
65.3311	6269.91
65.3456	6834.66
65.3600	6943.13
65.3745	6497.92
65.3889	5518.41
65.4033	4508.51
65.4178	3564.47
65.4322	2806.79
65.4467	2080.82
65.4611	1700.23
65.4755	1479.97
65.4900	1301.22
65.5044	1160.33
65.5189	1103.35
65.5333	977.51
65.5477	952.04
65.5622	938.53
65.5766	890.95
65.5911	859.68
65.6055	811.80
65.6199	756.98
65.6344	777.30
65.6488	716.88
65.6633	730.26
65.6777	680.61
65.6921	683.41
65.7066	698.71
65.7210	692.10
65.7355	713.75
65.7499	668.75
65.7643	634.36
65.7788	654.07
65.7932	641.60
65.8077	664.76
65.8221	674.03
65.8365	684.68
65.8510	664.99
65.8654	652.30
65.8799	649.65
65.8943	658.16
65.9087	695.52
65.9232	613.22
65.9376	646.82
65.9521	639.34
65.9665	643.68
65.9809	637.39
65.9954	634.17
66.0098	619.80
66.0243	590.39
66.0387	591.21
66.0531	620.85
66.0676	659.59
66.0820	615.38
66.0965	681.09
66.1109	633.64
66.1253	622.25
66.1398	624.05
66.1542	575.45
66.1687	606.92
66.1831	613.53
66.1975	584.82
66.2120	609.70
66.2264	621.08
66.2409	629.66
66.2553	645.02
66.2697	563.07
66.2842	618.25
66.2986	586.28
66.3131	617.17
66.3275	635.05
66.3419	603.78
66.3564	608.34
66.3708	570.35
66.3853	595.03
66.3997	592.93
66.4141	602.40
66.4286	594.51
66.4430	556.27
66.4575	552.30
66.4719	588.09
66.4863	605.19
66.5008	578.97
66.5152	585.14
66.5297	591.15
66.5441	594.49
66.5585	567.25
66.5730	586.44
66.5874	561.60
66.6019	566.16
66.6163	577.56
66.6307	590.60
66.6452	595.07
66.6596	614.96
66.6741	581.49
66.6885	550.23
66.7029	593.77
66.7174	589.11
66.7318	572.23
66.7463	580.80
66.7607	573.01
66.7751	573.21
66.7896	564.72
66.8040	583.19
66.8185	605.92
66.8329	598.34
66.8473	584.70
66.8618	595.74
66.8762	585.05
66.8907	562.81
66.9051	616.01
66.9195	593.05
66.9340	573.95
66.9484	575.79
66.9629	533.18
66.9773	541.29
66.9917	569.74
67.0062	591.83
67.0206	585.26
67.0351	553.22
67.0495	588.04
67.0639	590.62
67.0784	592.91
67.0928	603.78
67.1073	561.23
67.1217	589.65
67.1361	576.64
67.1506	563.96
67.1650	605.13
67.1795	614.67
67.1939	568.14
67.2083	562.25
67.2228	563.05
67.2372	568.58
67.2517	620.55
67.2661	547.35
67.2805	568.41
67.2950	564.79
67.3094	595.84
67.3239	593.99
67.3383	584.31
67.3527	562.21
67.3672	562.46
67.3816	573.76
67.3961	555.39
67.4105	577.72
67.4250	579.84
67.4394	586.68
67.4538	584.59
67.4683	567.56
67.4827	591.43
67.4972	583.91
67.5116	593.20
67.5260	585.01
67.5405	604.45
67.5549	571.22
67.5694	561.73
67.5838	545.56
67.5982	576.92
67.6127	555.51
67.6271	519.09
67.6416	580.43
67.6560	592.90
67.6704	560.51
67.6849	589.70
67.6993	579.87
67.7138	564.48
67.7282	566.80
67.7426	558.04
67.7571	551.16
67.7715	556.81
67.7860	529.72
67.8004	532.73
67.8148	572.38
67.8293	589.72
67.8437	569.08
67.8582	550.18
67.8726	550.74
67.8870	598.01
67.9015	606.24
67.9159	603.70
67.9304	558.13
67.9448	608.27
67.9592	580.89
67.9737	534.68
67.9881	593.48
68.0026	565.96
68.0170	591.32
68.0314	586.64
68.0459	603.55
68.0603	579.91
68.0748	568.91
68.0892	562.34
68.1036	563.55
68.1181	555.68
68.1325	582.46
68.1470	555.90
68.1614	597.08
68.1758	617.09
68.1903	582.34
68.2047	517.31
68.2192	560.22
68.2336	609.64
68.2480	574.79
68.2625	558.14
68.2769	552.79
68.2914	549.79
68.3058	564.73
68.3202	627.82
68.3347	605.85
68.3491	551.64
68.3636	582.99
68.3780	605.56
68.3924	561.73
68.4069	582.02
68.4213	542.91
68.4358	571.25
68.4502	564.40
68.4646	596.72
68.4791	580.86
68.4935	606.89
68.5080	534.01
68.5224	552.68
68.5368	559.24
68.5513	594.27
68.5657	593.63
68.5802	590.20
68.5946	564.27
68.6090	567.73
68.6235	565.11
68.6379	549.35
68.6524	579.34
68.6668	568.98
68.6812	542.86
68.6957	562.83
68.7101	597.19
68.7246	535.76
68.7390	546.64
68.7534	590.09
68.7679	553.37
68.7823	557.64
68.7968	561.69
68.8112	539.51
68.8256	551.38
68.8401	577.23
68.8545	581.04
68.8690	551.36
68.8834	557.65
68.8978	602.99
68.9123	597.91
68.9267	574.62
68.9412	573.41
68.9556	583.33
68.9700	572.76
68.9845	535.98
68.9989	568.77
69.0134	546.10
69.0278	560.66
69.0422	562.94
69.0567	566.52
69.0711	616.02
69.0856	578.74
69.1000	573.58
69.1144	600.72
69.1289	625.14
69.1433	574.84
69.1578	579.30
69.1722	623.06
69.1866	572.12
69.2011	565.65
69.2155	571.50
69.2300	496.58
69.2444	531.25
69.2588	577.28
69.2733	588.07
69.2877	561.09
69.3022	545.59
69.3166	540.49
69.3310	587.09
69.3455	581.20
69.3599	554.34
69.3744	595.23
69.3888	599.41
69.4032	567.02
69.4177	587.96
69.4321	592.00
69.4466	567.29
69.4610	530.58
69.4754	566.10
69.4899	585.85
69.5043	555.03
69.5188	560.20
69.5332	570.96
69.5476	565.65
69.5621	595.67
69.5765	537.89
69.5910	582.47
69.6054	559.50
69.6198	541.72
69.6343	592.98
69.6487	593.63
69.6632	628.81
69.6776	556.43
69.6920	563.93
69.7065	618.09
69.7209	570.14
69.7354	541.61
69.7498	579.99
69.7642	540.82
69.7787	539.89
69.7931	552.45
69.8076	576.70
69.8220	563.45
69.8364	588.52
69.8509	573.79
69.8653	581.67
69.8798	603.77
69.8942	587.01
69.9086	512.14
69.9231	601.64
69.9375	593.78
69.9520	568.26
69.9664	563.01
69.9808	563.61
69.9953	660.09
70.0097	617.42
70.0242	563.50
70.0386	569.12
70.0530	536.28
70.0675	581.72
70.0819	564.63
70.0964	583.34
70.1108	613.35
70.1252	564.06
70.1397	567.00
70.1541	573.10
70.1686	572.69
70.1830	583.89
70.1974	631.65
70.2119	580.53
70.2263	584.21
70.2408	562.89
70.2552	575.26
70.2696	556.17
70.2841	575.81
70.2985	579.06
70.3130	587.68
70.3274	529.25
70.3418	594.32
70.3563	617.96
70.3707	604.89
70.3852	598.07
70.3996	633.94
70.4140	547.72
70.4285	619.42
70.4429	577.45
70.4574	560.86
70.4718	601.84
70.4862	561.86
70.5007	591.78
70.5151	551.42
70.5296	546.80
70.5440	572.99
70.5584	569.62
70.5729	544.31
70.5873	559.92
70.6018	568.71
70.6162	527.24
70.6306	574.47
70.6451	531.71
70.6595	535.97
70.6740	529.36
70.6884	506.76
70.7028	535.72
70.7173	577.47
70.7317	534.15
70.7462	600.80
70.7606	570.71
70.7750	533.91
70.7895	547.51
70.8039	616.46
70.8184	618.35
70.8328	611.35
70.8472	572.64
70.8617	595.16
70.8761	569.17
70.8906	570.59
70.9050	561.12
70.9194	553.41
70.9339	605.75
70.9483	598.09
70.9628	570.36
70.9772	572.91
70.9916	595.46
71.0061	587.73
71.0205	630.45
71.0350	595.23
71.0494	494.00
71.0638	559.08
71.0783	552.00
71.0927	605.38
71.1072	637.18
71.1216	619.25
71.1361	581.62
71.1505	550.20
71.1649	527.45
71.1794	523.41
71.1938	551.59
71.2083	528.68
71.2227	536.68
71.2371	528.14
71.2516	553.08
71.2660	573.16
71.2805	536.71
71.2949	555.88
71.3093	580.92
71.3238	575.28
71.3382	650.83
71.3527	626.36
71.3671	566.88
71.3815	542.30
71.3960	551.11
71.4104	538.31
71.4249	519.56
71.4393	549.76
71.4537	540.76
71.4682	587.18
71.4826	585.21
71.4971	551.91
71.5115	500.36
71.5259	511.38
71.5404	538.65
71.5548	521.90
71.5693	482.77
71.5837	550.44
71.5981	579.60
71.6126	583.15
71.6270	572.10
71.6415	600.09
71.6559	567.62
71.6703	559.60
71.6848	603.01
71.6992	639.41
71.7137	623.38
71.7281	541.32
71.7425	543.83
71.7570	587.63
71.7714	559.76
71.7859	509.75
71.8003	520.45
71.8147	565.46
71.8292	571.80
71.8436	524.48
71.8581	554.16
71.8725	587.16
71.8869	561.27
71.9014	621.57
71.9158	686.34
71.9303	636.62
71.9447	589.50
71.9591	458.62
71.9736	430.11
71.9880	564.51
72.0025	556.97
72.0169	573.35
72.0313	617.20
72.0458	564.25
72.0602	562.26
72.0747	488.99
72.0891	516.99
72.1035	630.36
72.1180	648.86
72.1324	556.01
72.1469	547.18
72.1613	608.67
72.1757	588.85
72.1902	578.54
72.2046	596.14
72.2191	578.93
72.2335	589.95
72.2479	565.09
72.2624	551.54
72.2768	579.86
72.2913	553.29
72.3057	520.34
72.3201	547.71
72.3346	593.39
72.3490	618.07
72.3635	587.94
72.3779	579.20
72.3923	566.24
72.4068	555.96
72.4212	551.86
72.4357	595.49
72.4501	542.19
72.4645	543.89
72.4790	636.47
72.4934	648.35
72.5079	571.89
72.5223	476.91
72.5367	506.02
72.5512	591.08
72.5656	562.14
72.5801	551.20
72.5945	556.40
72.6089	564.13
72.6234	587.32
72.6378	511.31
72.6523	476.42
72.6667	540.03
72.6811	579.42
72.6956	589.45
72.7100	576.37
72.7245	524.05
72.7389	597.02
72.7533	599.17
72.7678	580.65
72.7822	608.04
72.7967	647.11
72.8111	642.38
72.8255	713.54
72.8400	630.39
72.8544	514.04
72.8689	564.17
72.8833	511.58

Result vector
22.1120	664.91
22.1264	610.09
22.1409	540.70
22.1553	510.93
22.1697	603.85
22.1842	614.56
22.1986	622.66
22.2131	557.46
22.2275	543.66
22.2419	562.83
22.2564	573.91
22.2708	517.19
22.2853	526.46
22.2997	571.96
22.3141	523.39
22.3286	555.84
22.3430	491.57
22.3575	557.10
22.3719	569.69
22.3863	532.55
22.4008	554.77
22.4152	572.44
22.4297	645.64
22.4441	619.18
22.4585	544.03
22.4730	595.37
22.4874	665.58
22.5019	638.43
22.5163	587.31
22.5307	621.10
22.5452	605.87
22.5596	572.72
22.5741	592.02
22.5885	572.06
22.6029	531.79
22.6174	482.13
22.6318	581.78
22.6463	562.64
22.6607	571.29
22.6751	526.84
22.6896	567.84
22.7040	583.02
22.7185	614.49
22.7329	567.17
22.7473	594.20
22.7618	504.77
22.7762	544.17
22.7907	629.94
22.8051	626.22
22.8195	543.52
22.8340	557.93
22.8484	594.03
22.8629	615.01
22.8773	517.62
22.8917	544.94
22.9062	546.33
22.9206	458.64
22.9351	464.32
22.9495	505.97
22.9639	554.77
22.9784	615.05
22.9928	640.37
23.0073	541.02
23.0217	498.60
23.0361	537.43
23.0506	552.51
23.0650	527.24
23.0795	564.71
23.0939	570.19
23.1083	532.76
23.1228	545.54
23.1372	687.99
23.1517	512.89
23.1661	546.95
23.1806	607.41
23.1950	515.58
23.2094	487.54
23.2239	548.26
23.2383	601.16
23.2528	529.94
23.2672	538.39
23.2816	549.52
23.2961	489.33
23.3105	586.81
23.3250	580.00
23.3394	569.07
23.3538	565.49
23.3683	535.37
23.3827	563.54
23.3972	501.28
23.4116	555.51
23.4260	541.96
23.4405	514.74
23.4549	562.70
23.4694	509.37
23.4838	533.44
23.4982	580.36
23.5127	581.75
23.5271	626.70
23.5416	547.11
23.5560	575.11
23.5704	586.40
23.5849	532.73
23.5993	536.42
23.6138	562.81
23.6282	595.61
23.6426	550.56
23.6571	580.39
23.6715	541.45
23.6860	490.24
23.7004	552.61
23.7148	488.78
23.7293	488.74
23.7437	540.15
23.7582	587.59
23.7726	586.20
23.7870	594.10
23.8015	551.41
23.8159	516.36
23.8304	617.58
23.8448	497.73
23.8592	597.45
23.8737	528.30
23.8881	517.71
23.9026	588.85
23.9170	607.20
23.9314	533.56
23.9459	520.44
23.9603	451.37
23.9748	547.83
23.9892	536.31
24.0036	508.82
24.0181	518.24
24.0325	543.85
24.0470	548.09
24.0614	581.27
24.0758	558.65
24.0903	504.74
24.1047	524.91
24.1192	586.61
24.1336	568.03
24.1480	546.01
24.1625	588.04
24.1769	553.92
24.1914	612.70
24.2058	597.73
24.2202	614.62
24.2347	648.33
24.2491	523.82
24.2636	549.16
24.2780	615.74
24.2924	594.53
24.3069	584.53
24.3213	596.49
24.3358	599.52
24.3502	562.62
24.3646	557.30
24.3791	520.24
24.3935	543.39
24.4080	574.89
24.4224	516.82
24.4368	519.69
24.4513	478.02
24.4657	538.36
24.4802	508.31
24.4946	540.70
24.5090	568.28
24.5235	466.86
24.5379	578.62
24.5524	559.92
24.5668	541.43
24.5812	562.46
24.5957	532.27
24.6101	556.89
24.6246	548.84
24.6390	562.43
24.6534	551.28
24.6679	546.28
24.6823	475.80
24.6968	548.95
24.7112	536.38
24.7256	474.67
24.7401	497.42
24.7545	518.20
24.7690	557.46
24.7834	552.66
24.7978	565.42
24.8123	563.41
24.8267	566.13
24.8412	500.43
24.8556	572.71
24.8700	562.58
24.8845	577.21
24.8989	577.39
24.9134	577.34
24.9278	544.63
24.9422	540.80
24.9567	543.01
24.9711	478.89
24.9856	500.98
25.0000	556.43
25.0144	591.86
25.0289	504.35
25.0433	514.50
25.0578	475.14
25.0722	557.81
25.0866	527.34
25.1011	511.25
25.1155	555.11
25.1300	584.67
25.1444	561.51
25.1588	522.57
25.1733	542.75
25.1877	544.53
25.2022	517.57
25.2166	532.18
25.2310	574.17
25.2455	510.30
25.2599	534.64
25.2744	589.29
25.2888	511.39
25.3032	459.45
25.3177	494.04
25.3321	532.51
25.3466	523.91
25.3610	528.96
25.3754	556.12
25.3899	544.65
25.4043	516.96
25.4188	540.08
25.4332	536.35
25.4476	499.46
25.4621	468.60
25.4765	536.73
25.4910	513.33
25.5054	519.51
25.5198	541.80
25.5343	531.06
25.5487	502.94
25.5632	513.47
25.5776	511.60
25.5920	568.42
25.6065	574.08
25.6209	529.77
25.6354	523.67
25.6498	531.26
25.6642	552.28
25.6787	501.82
25.6931	523.01
25.7076	568.76
25.7220	527.18
25.7364	530.85
25.7509	516.42
25.7653	509.97
25.7798	523.58
25.7942	500.34
25.8086	506.10
25.8231	510.32
25.8375	522.66
25.8520	518.61
25.8664	550.32
25.8808	573.79
25.8953	546.80
25.9097	539.58
25.9242	550.86
25.9386	551.73
25.9530	496.79
25.9675	531.06
25.9819	531.85
25.9964	540.35
26.0108	559.89
26.0252	558.29
26.0397	537.65
26.0541	527.47
26.0686	481.26
26.0830	510.11
26.0974	541.56
26.1119	557.10
26.1263	520.65
26.1408	523.36
26.1552	532.37
26.1696	525.47
26.1841	506.73
26.1985	497.21
26.2130	523.65
26.2274	544.91
26.2418	527.25
26.2563	524.19
26.2707	524.08
26.2852	552.98
26.2996	522.03
26.3140	528.16
26.3285	520.40
26.3429	505.62
26.3574	517.60
26.3718	540.23
26.3862	506.48
26.4007	526.05
26.4151	538.07
26.4296	527.39
26.4440	544.75
26.4584	552.92
26.4729	545.69
26.4873	554.89
26.5018	522.35
26.5162	502.33
26.5306	508.25
26.5451	545.30
26.5595	546.80
26.5740	523.11
26.5884	510.68
26.6028	540.39
26.6173	544.36
26.6317	559.31
26.6462	564.41
26.6606	549.10
26.6750	500.11
26.6895	508.06
26.7039	551.19
26.7184	573.69
26.7328	502.86
26.7472	505.18
26.7617	548.19
26.7761	539.21
26.7906	546.19
26.8050	529.22
26.8194	545.64
26.8339	519.94
26.8483	505.76
26.8628	506.28
26.8772	502.43
26.8917	530.67
26.9061	553.80
26.9205	575.98
26.9350	550.25
26.9494	530.59
26.9639	523.45
26.9783	541.14
26.9927	541.32
27.0072	534.74
27.0216	504.06
27.0361	510.18
27.0505	532.08
27.0649	544.22
27.0794	528.39
27.0938	516.30
27.1083	523.28
27.1227	532.60
27.1371	506.81
27.1516	512.18
27.1660	509.12
27.1805	515.42
27.1949	520.39
27.2093	509.15
27.2238	484.11
27.2382	500.90
27.2527	517.77
27.2671	524.78
27.2815	548.06
27.2960	521.21
27.3104	527.14
27.3249	523.28
27.3393	555.21
27.3537	535.93
27.3682	513.52
27.3826	501.13
27.3971	493.47
27.4115	518.07
27.4259	541.15
27.4404	494.41
27.4548	496.28
27.4693	517.67
27.4837	528.96
27.4981	519.69
27.5126	465.60
27.5270	478.70
27.5415	504.13
27.5559	546.06
27.5703	529.48
27.5848	499.84
27.5992	501.82
27.6137	487.69
27.6281	493.26
27.6425	510.07
27.6570	532.82
27.6714	536.77
27.6859	511.28
27.7003	498.98
27.7147	525.74
27.7292	494.13
27.7436	489.36
27.7581	495.73
27.7725	538.95
27.7869	508.40
27.8014	525.97
27.8158	546.16
27.8303	506.41
27.8447	556.51
27.8591	567.83
27.8736	505.39
27.8880	524.55
27.9025	518.51
27.9169	515.28
27.9313	530.64
27.9458	505.50
27.9602	475.59
27.9747	518.50
27.9891	547.20
28.0035	468.75
28.0180	488.66
28.0324	490.35
28.0469	489.51
28.0613	492.78
28.0757	503.93
28.0902	530.25
28.1046	497.74
28.1191	524.79
28.1335	557.41
28.1479	500.05
28.1624	510.86
28.1768	526.04
28.1913	507.65
28.2057	528.88
28.2201	542.10
28.2346	494.86
28.2490	510.21
28.2635	534.32
28.2779	503.09
28.2923	537.57
28.3068	520.57
28.3212	512.56
28.3357	535.02
28.3501	496.59
28.3645	510.57
28.3790	469.87
28.3934	488.48
28.4079	504.78
28.4223	483.38
28.4367	504.13
28.4512	488.36
28.4656	476.59
28.4801	525.01
28.4945	501.63
28.5089	473.84
28.5234	489.00
28.5378	513.28
28.5523	531.44
28.5667	492.01
28.5811	480.67
28.5956	496.21
28.6100	503.56
28.6245	491.50
28.6389	507.13
28.6533	480.38
28.6678	517.19
28.6822	518.09
28.6967	489.45
28.7111	524.47
28.7255	495.19
28.7400	476.25
28.7544	566.74
28.7689	532.05
28.7833	530.44
28.7977	505.39
28.8122	526.28
28.8266	515.91
28.8411	500.43
28.8555	468.91
28.8699	492.34
28.8844	492.46
28.8988	508.43
28.9133	538.05
28.9277	504.33
28.9421	540.33
28.9566	543.57
28.9710	492.08
28.9855	546.17
28.9999	516.56
29.0143	496.70
29.0288	528.43
29.0432	510.68
29.0577	485.34
29.0721	485.91
29.0865	516.43
29.1010	498.38
29.1154	517.66
29.1299	540.95
29.1443	519.66
29.1587	490.89
29.1732	500.99
29.1876	529.23
29.2021	500.19
29.2165	504.90
29.2309	478.25
29.2454	484.25
29.2598	470.78
29.2743	506.14
29.2887	497.93
29.3031	526.35
29.3176	518.46
29.3320	538.52
29.3465	516.94
29.3609	507.15
29.3753	498.56
29.3898	519.32
29.4042	501.16
29.4187	516.48
29.4331	492.70
29.4475	484.68
29.4620	492.52
29.4764	472.41
29.4909	487.80
29.5053	509.59
29.5197	511.10
29.5342	528.00
29.5486	511.01
29.5631	515.24
29.5775	492.04
29.5919	477.84
29.6064	522.37
29.6208	515.40
29.6353	497.25
29.6497	468.94
29.6641	509.66
29.6786	512.11
29.6930	496.88
29.7075	498.94
29.7219	483.12
29.7363	483.84
29.7508	487.45
29.7652	450.25
29.7797	456.90
29.7941	497.30
29.8085	533.60
29.8230	509.92
29.8374	526.84
29.8519	499.01
29.8663	494.17
29.8807	453.31
29.8952	496.53
29.9096	507.90
29.9241	486.58
29.9385	515.36
29.9529	510.08
29.9674	500.91
29.9818	487.89
29.9963	490.53
30.0107	527.33
30.0251	487.86
30.0396	519.83
30.0540	503.39
30.0685	484.22
30.0829	498.68
30.0973	518.80
30.1118	532.54
30.1262	537.98
30.1407	475.54
30.1551	476.97
30.1695	535.06
30.1840	500.03
30.1984	479.43
30.2129	496.90
30.2273	494.88
30.2417	515.23
30.2562	492.89
30.2706	513.71
30.2851	549.37
30.2995	490.40
30.3139	499.29
30.3284	509.55
30.3428	501.74
30.3573	498.88
30.3717	496.43
30.3861	505.82
30.4006	497.88
30.4150	508.47
30.4295	519.66
30.4439	534.25
30.4583	545.01
30.4728	553.35
30.4872	543.43
30.5017	536.24
30.5161	547.47
30.5305	577.30
30.5450	585.60
30.5594	631.05
30.5739	620.79
30.5883	645.41
30.6028	665.14
30.6172	686.68
30.6316	679.70
30.6461	710.44
30.6605	698.47
30.6750	708.46
30.6894	667.78
30.7038	725.75
30.7183	655.81
30.7327	630.97
30.7472	654.27
30.7616	565.91
30.7760	570.15
30.7905	543.02
30.8049	556.91
30.8194	550.16
30.8338	547.81
30.8482	545.35
30.8627	538.52
30.8771	598.30
30.8916	548.28
30.9060	572.57
30.9204	521.82
30.9349	511.12
30.9493	520.12
30.9638	523.65
30.9782	504.10
30.9926	503.52
31.0071	501.73
31.0215	524.45
31.0360	509.33
31.0504	497.53
31.0648	506.34
31.0793	473.77
31.0937	517.49
31.1082	514.32
31.1226	532.08
31.1370	517.09
31.1515	530.22
31.1659	518.35
31.1804	503.07
31.1948	496.21
31.2092	489.49
31.2237	490.34
31.2381	518.27
31.2526	491.19
31.2670	484.66
31.2814	521.87
31.2959	496.99
31.3103	549.22
31.3248	518.98
31.3392	558.28
31.3536	489.38
31.3681	486.54
31.3825	549.70
31.3970	515.74
31.4114	516.81
31.4258	514.92
31.4403	516.92
31.4547	498.75
31.4692	474.65
31.4836	501.23
31.4980	500.84
31.5125	521.51
31.5269	498.66
31.5414	467.61
31.5558	490.15
31.5702	500.86
31.5847	508.90
31.5991	524.94
31.6136	492.33
31.6280	509.75
31.6424	488.26
31.6569	493.68
31.6713	520.12
31.6858	480.68
31.7002	493.51
31.7146	501.83
31.7291	475.97
31.7435	512.59
31.7580	496.62
31.7724	503.08
31.7868	536.91
31.8013	487.05
31.8157	522.09
31.8302	530.56
31.8446	504.31
31.8590	499.69
31.8735	506.23
31.8879	478.57
31.9024	521.02
31.9168	489.76
31.9312	474.19
31.9457	497.73
31.9601	474.95
31.9746	502.04
31.9890	506.36
32.0034	525.39
32.0179	510.60
32.0323	439.63
32.0468	532.91
32.0612	520.26
32.0756	499.71
32.0901	474.27
32.1045	451.56
32.1190	517.98
32.1334	517.23
32.1478	461.68
32.1623	492.35
32.1767	500.60
32.1912	501.34
32.2056	472.99
32.2200	516.59
32.2345	504.96
32.2489	518.94
32.2634	483.16
32.2778	467.85
32.2922	505.43
32.3067	520.39
32.3211	508.79
32.3356	496.13
32.3500	496.75
32.3644	488.24
32.3789	517.33
32.3933	472.01
32.4078	439.04
32.4222	530.40
32.4366	501.59
32.4511	499.40
32.4655	508.34
32.4800	540.19
32.4944	551.59
32.5088	506.87
32.5233	496.04
32.5377	518.66
32.5522	493.89
32.5666	484.57
32.5810	474.71
32.5955	504.46
32.6099	519.33
32.6244	505.24
32.6388	485.71
32.6532	485.87
32.6677	468.79
32.6821	493.49
32.6966	511.43
32.7110	503.31
32.7254	497.11
32.7399	479.53
32.7543	514.59
32.7688	501.41
32.7832	532.47
32.7976	522.49
32.8121	517.13
32.8265	497.87
32.8410	514.61
32.8554	508.94
32.8698	506.96
32.8843	500.11
32.8987	505.37
32.9132	541.92
32.9276	524.55
32.9420	513.23
32.9565	496.98
32.9709	505.41
32.9854	484.70
32.9998	496.31
33.0142	477.72
33.0287	507.12
33.0431	499.55
33.0576	492.45
33.0720	514.71
33.0864	493.74
33.1009	482.26
33.1153	514.14
33.1298	499.41
33.1442	490.11
33.1586	489.22
33.1731	461.33
33.1875	491.02
33.2020	475.57
33.2164	497.68
33.2308	522.38
33.2453	485.85
33.2597	484.02
33.2742	497.61
33.2886	515.89
33.3030	497.00
33.3175	497.68
33.3319	487.76
33.3464	491.22
33.3608	497.60
33.3752	504.52
33.3897	487.55
33.4041	457.11
33.4186	470.36
33.4330	512.95
33.4474	498.22
33.4619	507.47
33.4763	513.54
33.4908	510.08
33.5052	489.85
33.5196	512.99
33.5341	516.75
33.5485	495.45
33.5630	485.80
33.5774	492.11
33.5918	506.88
33.6063	479.71
33.6207	445.52
33.6352	498.62
33.6496	512.79
33.6640	517.38
33.6785	484.53
33.6929	491.70
33.7074	513.17
33.7218	458.20
33.7362	476.36
33.7507	463.58
33.7651	481.23
33.7796	506.25
33.7940	523.28
33.8084	507.39
33.8229	505.83
33.8373	505.44
33.8518	495.34
33.8662	482.33
33.8806	503.55
33.8951	535.56
33.9095	509.97
33.9240	507.51
33.9384	519.67
33.9528	501.74
33.9673	492.76
33.9817	511.93
33.9962	477.68
34.0106	464.27
34.0250	551.45
34.0395	507.63
34.0539	469.82
34.0684	493.80
34.0828	498.91
34.0972	495.11
34.1117	501.57
34.1261	535.70
34.1406	494.32
34.1550	484.63
34.1694	537.25
34.1839	490.36
34.1983	454.74
34.2128	479.86
34.2272	495.01
34.2417	524.58
34.2561	503.82
34.2705	487.78
34.2850	482.12
34.2994	509.70
34.3139	515.22
34.3283	502.40
34.3427	486.84
34.3572	489.39
34.3716	508.54
34.3861	513.51
34.4005	487.61
34.4149	536.06
34.4294	515.05
34.4438	485.10
34.4583	505.22
34.4727	481.47
34.4871	495.78
34.5016	518.94
34.5160	532.04
34.5305	485.76
34.5449	506.31
34.5593	497.36
34.5738	491.44
34.5882	482.95
34.6027	506.55
34.6171	493.53
34.6315	491.82
34.6460	512.36
34.6604	519.35
34.6749	536.48
34.6893	484.11
34.7037	521.28
34.7182	527.10
34.7326	485.73
34.7471	483.52
34.7615	497.77
34.7759	484.94
34.7904	482.82
34.8048	506.03
34.8193	513.54
34.8337	502.45
34.8481	498.05
34.8626	488.22
34.8770	502.83
34.8915	530.36
34.9059	538.75
34.9203	511.58
34.9348	509.78
34.9492	496.43
34.9637	481.81
34.9781	512.65
34.9925	487.08
35.0070	511.44
35.0214	496.97
35.0359	477.17
35.0503	479.85
35.0647	529.60
35.0792	532.15
35.0936	513.66
35.1081	515.69
35.1225	511.55
35.1369	498.73
35.1514	493.67
35.1658	480.64
35.1803	495.84
35.1947	512.19
35.2091	516.74
35.2236	530.30
35.2380	500.75
35.2525	490.97
35.2669	505.27
35.2813	522.12
35.2958	497.64
35.3102	493.34
35.3247	512.11
35.3391	497.17
35.3535	522.10
35.3680	522.27
35.3824	496.34
35.3969	514.34
35.4113	518.79
35.4257	507.20
35.4402	508.59
35.4546	516.61
35.4691	549.97
35.4835	574.61
35.4979	538.94
35.5124	541.60
35.5268	536.54
35.5413	554.98
35.5557	533.46
35.5701	526.65
35.5846	537.09
35.5990	542.33
35.6135	527.43
35.6279	528.66
35.6423	514.41
35.6568	498.99
35.6712	545.12
35.6857	626.24
35.7001	672.59
35.7145	747.76
35.7290	690.42
35.7434	634.37
35.7579	623.96
35.7723	553.22
35.7867	632.70
35.8012	689.56
35.8156	719.97
35.8301	699.98
35.8445	660.60
35.8589	678.62
35.8734	797.80
35.8878	917.03
35.9023	1005.35
35.9167	1016.34
35.9311	1127.30
35.9456	1542.90
35.9600	2058.46
35.9745	1974.18
35.9889	2105.31
36.0033	2586.59
36.0178	3037.94
36.0322	3132.26
36.0467	2610.63
36.0611	2182.03
36.0755	2044.86
36.0900	2123.15
36.1044	1834.88
36.1189	1641.67
36.1333	1619.36
36.1477	1386.93
36.1622	1268.76
36.1766	1126.78
36.1911	979.15
36.2055	958.48
36.2199	892.53
36.2344	776.57
36.2488	690.49
36.2633	606.17
36.2777	603.29
36.2921	604.38
36.3066	617.64
36.3210	548.27
36.3355	543.70
36.3499	540.71
36.3643	522.20
36.3788	523.86
36.3932	585.76
36.4077	547.60
36.4221	526.50
36.4365	548.29
36.4510	527.39
36.4654	531.92
36.4799	498.70
36.4943	556.46
36.5087	571.00
36.5232	534.72
36.5376	492.67
36.5521	525.65
36.5665	495.92
36.5809	526.46
36.5954	512.94
36.6098	540.38
36.6243	533.91
36.6387	527.33
36.6531	508.16
36.6676	528.91
36.6820	513.29
36.6965	544.96
36.7109	574.56
36.7253	549.22
36.7398	486.68
36.7542	512.65
36.7687	567.77
36.7831	570.65
36.7975	561.42
36.8120	563.13
36.8264	575.61
36.8409	572.23
36.8553	605.01
36.8697	589.06
36.8842	602.16
36.8986	610.10
36.9131	620.65
36.9275	572.78
36.9419	558.83
36.9564	555.39
36.9708	559.25
36.9853	536.27
36.9997	551.90
37.0141	520.89
37.0286	554.67
37.0430	540.94
37.0575	542.13
37.0719	517.69
37.0863	543.21
37.1008	539.68
37.1152	517.99
37.1297	517.51
37.1441	482.71
37.1585	511.17
37.1730	515.97
37.1874	500.83
37.2019	482.04
37.2163	514.78
37.2307	490.45
37.2452	535.50
37.2596	501.34
37.2741	539.11
37.2885	536.02
37.3029	472.96
37.3174	512.69
37.3318	513.51
37.3463	522.92
37.3607	514.30
37.3751	506.88
37.3896	500.20
37.4040	519.42
37.4185	520.83
37.4329	508.87
37.4473	477.74
37.4618	503.45
37.4762	499.44
37.4907	502.33
37.5051	499.80
37.5195	469.27
37.5340	485.17
37.5484	487.99
37.5629	477.05
37.5773	486.83
37.5917	490.60
37.6062	529.89
37.6206	505.50
37.6351	518.22
37.6495	530.37
37.6639	494.28
37.6784	483.07
37.6928	500.88
37.7073	513.99
37.7217	508.38
37.7361	521.67
37.7506	482.20
37.7650	507.63
37.7795	484.66
37.7939	464.34
37.8083	525.58
37.8228	514.52
37.8372	504.69
37.8517	519.07
37.8661	497.75
37.8805	514.78
37.8950	510.51
37.9094	533.07
37.9239	523.79
37.9383	556.48
37.9528	520.81
37.9672	491.03
37.9816	514.02
37.9961	522.62
38.0105	459.75
38.0250	484.45
38.0394	517.53
38.0538	513.92
38.0683	526.65
38.0827	527.85
38.0972	514.33
38.1116	526.96
38.1260	517.72
38.1405	501.16
38.1549	484.26
38.1694	513.03
38.1838	506.38
38.1982	498.68
38.2127	478.37
38.2271	505.71
38.2416	486.11
38.2560	498.76
38.2704	531.11
38.2849	510.10
38.2993	522.46
38.3138	517.97
38.3282	507.32
38.3426	540.16
38.3571	513.72
38.3715	517.21
38.3860	505.71
38.4004	504.76
38.4148	573.57
38.4293	557.97
38.4437	561.13
38.4582	591.55
38.4726	631.97
38.4870	669.61
38.5015	734.71
38.5159	792.90
38.5304	809.63
38.5448	785.60
38.5592	752.31
38.5737	779.43
38.5881	754.63
38.6026	690.48
38.6170	672.47
38.6314	656.30
38.6459	665.81
38.6603	654.81
38.6748	642.40
38.6892	610.30
38.7036	583.70
38.7181	554.17
38.7325	525.53
38.7470	535.69
38.7614	531.91
38.7758	526.49
38.7903	482.79
38.8047	484.70
38.8192	500.55
38.8336	502.01
38.8480	492.96
38.8625	531.26
38.8769	503.01
38.8914	505.43
38.9058	488.63
38.9202	478.96
38.9347	495.22
38.9491	510.16
38.9636	486.21
38.9780	476.26
38.9924	521.16
39.0069	479.45
39.0213	483.12
39.0358	479.68
39.0502	497.75
39.0646	506.50
39.0791	510.47
39.0935	535.82
39.1080	500.88
39.1224	488.35
39.1368	454.11
39.1513	485.48
39.1657	492.72
39.1802	510.52
39.1946	499.87
39.2090	481.94
39.2235	531.77
39.2379	529.37
39.2524	518.85
39.2668	485.16
39.2812	499.34
39.2957	502.21
39.3101	515.99
39.3246	504.46
39.3390	533.48
39.3534	516.33
39.3679	505.88
39.3823	488.25
39.3968	468.67
39.4112	499.60
39.4256	505.31
39.4401	488.88
39.4545	466.37
39.4690	512.68
39.4834	519.44
39.4978	488.06
39.5123	456.64
39.5267	461.27
39.5412	469.70
39.5556	492.30
39.5700	506.95
39.5845	506.74
39.5989	502.37
39.6134	479.38
39.6278	485.98
39.6422	537.33
39.6567	524.50
39.6711	475.93
39.6856	456.43
39.7000	499.00
39.7144	510.28
39.7289	505.75
39.7433	517.24
39.7578	463.52
39.7722	500.58
39.7866	493.29
39.8011	520.01
39.8155	489.52
39.8300	511.13
39.8444	488.97
39.8588	492.41
39.8733	510.26
39.8877	462.36
39.9022	539.18
39.9166	517.31
39.9310	534.28
39.9455	476.89
39.9599	488.38
39.9744	472.99
39.9888	494.32
40.0032	497.68
40.0177	487.10
40.0321	496.62
40.0466	488.27
40.0610	518.40
40.0754	483.03
40.0899	500.58
40.1043	513.36
40.1188	475.26
40.1332	514.86
40.1476	461.58
40.1621	488.98
40.1765	479.86
40.1910	496.78
40.2054	505.94
40.2198	509.29
40.2343	488.55
40.2487	474.93
40.2632	514.21
40.2776	531.47
40.2920	482.44
40.3065	494.54
40.3209	501.49
40.3354	510.06
40.3498	477.79
40.3642	476.77
40.3787	479.30
40.3931	490.88
40.4076	461.07
40.4220	478.85
40.4364	488.93
40.4509	470.86
40.4653	495.10
40.4798	498.39
40.4942	486.58
40.5086	510.10
40.5231	474.06
40.5375	452.54
40.5520	508.86
40.5664	511.32
40.5808	486.21
40.5953	457.47
40.6097	472.75
40.6242	489.94
40.6386	490.68
40.6530	518.41
40.6675	466.89
40.6819	497.97
40.6964	502.21
40.7108	536.22
40.7252	476.09
40.7397	490.43
40.7541	491.74
40.7686	499.09
40.7830	529.31
40.7974	486.12
40.8119	477.40
40.8263	480.64
40.8408	473.70
40.8552	480.21
40.8696	517.68
40.8841	491.05
40.8985	496.17
40.9130	520.73
40.9274	501.96
40.9418	486.80
40.9563	476.53
40.9707	478.66
40.9852	496.69
40.9996	480.16
41.0140	499.33
41.0285	499.02
41.0429	488.12
41.0574	532.70
41.0718	494.57
41.0862	522.94
41.1007	516.55
41.1151	495.00
41.1296	530.32
41.1440	498.38
41.1584	489.90
41.1729	512.27
41.1873	476.83
41.2018	471.36
41.2162	467.02
41.2306	491.46
41.2451	503.88
41.2595	507.70
41.2740	497.07
41.2884	479.64
41.3028	480.25
41.3173	502.93
41.3317	539.05
41.3462	520.27
41.3606	499.91
41.3750	450.29
41.3895	482.96
41.4039	502.25
41.4184	493.52
41.4328	507.90
41.4472	492.21
41.4617	467.84
41.4761	472.93
41.4906	507.08
41.5050	488.04
41.5194	538.75
41.5339	499.39
41.5483	499.19
41.5628	508.22
41.5772	495.55
41.5916	488.93
41.6061	529.59
41.6205	483.38
41.6350	511.74
41.6494	525.21
41.6639	534.07
41.6783	506.30
41.6927	484.97
41.7072	525.11
41.7216	487.77
41.7361	461.54
41.7505	513.64
41.7649	488.13
41.7794	494.61
41.7938	512.96
41.8083	505.95
41.8227	503.19
41.8371	493.67
41.8516	528.77
41.8660	504.62
41.8805	520.97
41.8949	553.47
41.9093	561.42
41.9238	541.09
41.9382	579.23
41.9527	572.14
41.9671	575.67
41.9815	578.86
41.9960	570.37
42.0104	561.14
42.0249	560.91
42.0393	555.51
42.0537	578.46
42.0682	559.85
42.0826	566.54
42.0971	542.92
42.1115	554.47
42.1259	589.56
42.1404	611.72
42.1548	609.36
42.1693	634.85
42.1837	698.45
42.1981	748.09
42.2126	838.46
42.2270	915.51
42.2415	1101.83
42.2559	1224.35
42.2703	1381.93
42.2848	1540.18
42.2992	1599.67
42.3137	1641.00
42.3281	1659.34
42.3425	1597.44
42.3570	1492.44
42.3714	1425.16
42.3859	1390.27
42.4003	1350.72
42.4147	1358.49
42.4292	1316.62
42.4436	1187.44
42.4581	1056.03
42.4725	926.60
42.4869	840.40
42.5014	749.68
42.5158	687.52
42.5303	666.25
42.5447	654.88
42.5591	637.82
42.5736	607.13
42.5880	627.31
42.6025	582.51
42.6169	556.96
42.6313	540.70
42.6458	540.33
42.6602	558.82
42.6747	557.94
42.6891	519.69
42.7035	575.69
42.7180	537.96
42.7324	472.50
42.7469	508.36
42.7613	506.21
42.7757	475.47
42.7902	510.58
42.8046	530.42
42.8191	506.07
42.8335	517.76
42.8479	499.05
42.8624	526.90
42.8768	543.83
42.8913	489.34
42.9057	511.35
42.9201	517.45
42.9346	519.43
42.9490	504.21
42.9635	498.20
42.9779	502.41
42.9923	481.72
43.0068	503.70
43.0212	544.14
43.0357	502.77
43.0501	488.70
43.0645	508.06
43.0790	498.41
43.0934	512.68
43.1079	521.79
43.1223	524.87
43.1367	485.64
43.1512	452.76
43.1656	514.88
43.1801	527.95
43.1945	518.02
43.2089	519.97
43.2234	544.62
43.2378	528.99
43.2523	529.99
43.2667	507.83
43.2811	537.41
43.2956	542.93
43.3100	495.57
43.3245	513.83
43.3389	540.68
43.3533	534.18
43.3678	514.44
43.3822	474.55
43.3967	524.56
43.4111	504.18
43.4255	508.98
43.4400	514.38
43.4544	507.62
43.4689	536.22
43.4833	509.73
43.4977	510.38
43.5122	488.70
43.5266	511.20
43.5411	522.79
43.5555	516.97
43.5699	479.24
43.5844	472.32
43.5988	507.47
43.6133	516.94
43.6277	535.93
43.6421	544.53
43.6566	502.14
43.6710	517.07
43.6855	519.54
43.6999	523.60
43.7143	546.94
43.7288	521.56
43.7432	537.38
43.7577	592.13
43.7721	604.97
43.7865	621.27
43.8010	621.18
43.8154	669.67
43.8299	644.37
43.8443	656.16
43.8587	640.63
43.8732	642.44
43.8876	642.95
43.9021	643.46
43.9165	616.85
43.9309	617.27
43.9454	600.57
43.9598	548.22
43.9743	587.16
43.9887	556.17
44.0031	567.33
44.0176	530.54
44.0320	558.32
44.0465	521.09
44.0609	499.36
44.0753	506.08
44.0898	541.98
44.1042	526.87
44.1187	498.58
44.1331	517.61
44.1475	510.11
44.1620	533.17
44.1764	522.87
44.1909	523.69
44.2053	509.53
44.2197	502.39
44.2342	511.59
44.2486	540.53
44.2631	514.75
44.2775	514.37
44.2919	501.32
44.3064	547.88
44.3208	538.33
44.3353	519.91
44.3497	541.88
44.3641	517.45
44.3786	527.47
44.3930	566.72
44.4075	563.32
44.4219	589.65
44.4363	603.74
44.4508	572.09
44.4652	559.70
44.4797	575.47
44.4941	568.23
44.5085	587.87
44.5230	600.44
44.5374	625.61
44.5519	631.79
44.5663	573.80
44.5807	559.61
44.5952	555.04
44.6096	531.82
44.6241	531.64
44.6385	572.04
44.6529	548.31
44.6674	555.70
44.6818	583.17
44.6963	584.77
44.7107	663.71
44.7251	671.38
44.7396	724.85
44.7540	768.15
44.7685	782.13
44.7829	846.43
44.7973	853.92
44.8118	877.73
44.8262	802.33
44.8407	818.36
44.8551	754.55
44.8695	739.63
44.8840	729.80
44.8984	788.51
44.9129	715.93
44.9273	705.97
44.9417	707.76
44.9562	635.32
44.9706	612.34
44.9851	535.39
44.9995	599.76
45.0139	545.45
45.0284	535.13
45.0428	551.35
45.0573	534.04
45.0717	507.03
45.0861	511.93
45.1006	504.72
45.1150	529.47
45.1295	564.23
45.1439	525.54
45.1583	494.76
45.1728	467.12
45.1872	481.20
45.2017	523.94
45.2161	502.83
45.2305	501.43
45.2450	508.93
45.2594	453.71
45.2739	485.37
45.2883	513.74
45.3028	504.11
45.3172	483.23
45.3316	513.77
45.3461	483.92
45.3605	534.75
45.3750	501.02
45.3894	464.62
45.4038	490.68
45.4183	505.20
45.4327	534.92
45.4472	483.55
45.4616	519.16
45.4760	513.94
45.4905	498.72
45.5049	489.33
45.5194	531.00
45.5338	539.66
45.5482	524.20
45.5627	472.71
45.5771	504.88
45.5916	480.54
45.6060	513.84
45.6204	505.69
45.6349	507.65
45.6493	513.36
45.6638	502.20
45.6782	505.05
45.6926	490.48
45.7071	530.82
45.7215	533.58
45.7360	498.19
45.7504	504.92
45.7648	478.41
45.7793	516.04
45.7937	503.72
45.8082	504.51
45.8226	538.80
45.8370	506.28
45.8515	475.93
45.8659	536.19
45.8804	524.49
45.8948	505.17
45.9092	511.51
45.9237	495.11
45.9381	511.60
45.9526	473.97
45.9670	490.59
45.9814	480.82
45.9959	485.96
46.0103	499.16
46.0248	509.75
46.0392	526.64
46.0536	506.75
46.0681	515.52
46.0825	512.88
46.0970	495.01
46.1114	499.49
46.1258	498.00
46.1403	514.24
46.1547	492.90
46.1692	504.65
46.1836	511.43
46.1980	512.81
46.2125	494.36
46.2269	493.62
46.2414	499.37
46.2558	502.80
46.2702	515.32
46.2847	532.58
46.2991	501.37
46.3136	521.10
46.3280	492.89
46.3424	477.87
46.3569	489.76
46.3713	518.11
46.3858	506.32
46.4002	472.54
46.4146	501.82
46.4291	528.48
46.4435	505.30
46.4580	510.28
46.4724	499.94
46.4868	475.51
46.5013	500.59
46.5157	523.89
46.5302	520.98
46.5446	516.87
46.5590	508.11
46.5735	505.20
46.5879	478.06
46.6024	497.64
46.6168	513.17
46.6312	478.30
46.6457	459.79
46.6601	470.34
46.6746	502.05
46.6890	503.04
46.7034	520.58
46.7179	497.59
46.7323	500.52
46.7468	528.13
46.7612	497.40
46.7756	505.42
46.7901	475.04
46.8045	512.24
46.8190	508.02
46.8334	536.36
46.8478	495.40
46.8623	514.63
46.8767	512.07
46.8912	506.17
46.9056	512.80
46.9200	493.80
46.9345	509.96
46.9489	525.18
46.9634	497.43
46.9778	503.75
46.9922	497.56
47.0067	481.49
47.0211	504.67
47.0356	492.40
47.0500	474.13
47.0644	490.99
47.0789	519.89
47.0933	527.13
47.1078	487.39
47.1222	497.56
47.1366	483.84
47.1511	491.55
47.1655	526.60
47.1800	509.92
47.1944	513.98
47.2088	522.75
47.2233	481.02
47.2377	513.43
47.2522	490.13
47.2666	522.09
47.2810	537.62
47.2955	511.17
47.3099	501.70
47.3244	506.98
47.3388	531.78
47.3532	517.57
47.3677	469.78
47.3821	485.45
47.3966	491.99
47.4110	491.92
47.4254	525.58
47.4399	505.37
47.4543	514.99
47.4688	528.92
47.4832	520.01
47.4976	491.54
47.5121	496.20
47.5265	502.45
47.5410	526.22
47.5554	502.54
47.5698	510.13
47.5843	509.56
47.5987	494.88
47.6132	488.09
47.6276	488.86
47.6420	505.46
47.6565	504.91
47.6709	505.78
47.6854	504.80
47.6998	473.57
47.7142	514.28
47.7287	503.96
47.7431	470.27
47.7576	498.25
47.7720	491.51
47.7864	524.41
47.8009	484.09
47.8153	510.98
47.8298	489.61
47.8442	504.27
47.8586	514.62
47.8731	511.79
47.8875	514.64
47.9020	515.45
47.9164	520.48
47.9308	495.03
47.9453	477.38
47.9597	482.56
47.9742	473.78
47.9886	523.83
48.0030	523.52
48.0175	507.76
48.0319	511.96
48.0464	528.20
48.0608	514.65
48.0752	502.82
48.0897	511.35
48.1041	526.69
48.1186	503.96
48.1330	513.11
48.1474	472.04
48.1619	508.07
48.1763	498.92
48.1908	506.96
48.2052	510.80
48.2196	506.06
48.2341	508.56
48.2485	512.70
48.2630	523.89
48.2774	561.16
48.2918	493.24
48.3063	492.51
48.3207	501.70
48.3352	512.96
48.3496	530.51
48.3640	502.44
48.3785	484.13
48.3929	471.31
48.4074	492.75
48.4218	525.65
48.4362	496.31
48.4507	488.46
48.4651	506.26
48.4796	538.59
48.4940	517.11
48.5084	517.41
48.5229	524.03
48.5373	525.48
48.5518	536.54
48.5662	537.58
48.5806	483.42
48.5951	490.99
48.6095	493.20
48.6240	490.40
48.6384	500.25
48.6528	510.29
48.6673	470.06
48.6817	481.66
48.6962	495.70
48.7106	499.13
48.7250	489.68
48.7395	510.96
48.7539	503.32
48.7684	511.54
48.7828	540.01
48.7972	547.51
48.8117	522.45
48.8261	521.02
48.8406	554.18
48.8550	534.77
48.8694	563.00
48.8839	526.71
48.8983	564.29
48.9128	559.74
48.9272	564.54
48.9416	566.49
48.9561	577.17
48.9705	567.93
48.9850	586.53
48.9994	597.02
49.0139	590.65
49.0283	614.94
49.0427	579.25
49.0572	631.08
49.0716	688.48
49.0861	693.26
49.1005	701.05
49.1149	679.03
49.1294	748.77
49.1438	754.32
49.1583	774.60
49.1727	876.20
49.1871	870.78
49.2016	899.39
49.2160	1035.93
49.2305	1103.69
49.2449	1179.83
49.2593	1254.36
49.2738	1429.34
49.2882	1517.57
49.3027	1601.19
49.3171	1707.73
49.3315	1783.46
49.3460	1787.96
49.3604	1843.18
49.3749	1857.04
49.3893	1827.52
49.4037	1805.77
49.4182	1764.88
49.4326	1798.64
49.4471	1676.35
49.4615	1617.84
49.4759	1545.15
49.4904	1579.14
49.5048	1452.64
49.5193	1354.29
49.5337	1339.84
49.5481	1210.09
49.5626	1134.87
49.5770	1022.79
49.5915	977.79
49.6059	978.54
49.6203	858.98
49.6348	814.34
49.6492	789.13
49.6637	730.97
49.6781	742.35
49.6925	710.71
49.7070	698.02
49.7214	654.73
49.7359	599.73
49.7503	610.81
49.7647	604.33
49.7792	656.88
49.7936	609.25
49.8081	566.30
49.8225	577.34
49.8369	543.58
49.8514	528.41
49.8658	595.56
49.8803	557.09
49.8947	530.82
49.9091	566.72
49.9236	543.51
49.9380	544.92
49.9525	553.74
49.9669	535.53
49.9813	527.46
49.9958	540.74
50.0102	531.47
50.0247	526.26
50.0391	531.74
50.0535	543.03
50.0680	480.18
50.0824	510.12
50.0969	487.39
50.1113	511.63
50.1257	528.99
50.1402	513.99
50.1546	500.34
50.1691	488.20
50.1835	494.09
50.1979	492.26
50.2124	571.16
50.2268	531.55
50.2413	527.36
50.2557	531.01
50.2701	529.98
50.2846	539.21
50.2990	515.72
50.3135	517.50
50.3279	514.22
50.3423	508.11
50.3568	501.43
50.3712	516.00
50.3857	501.07
50.4001	482.36
50.4145	494.91
50.4290	512.19
50.4434	522.59
50.4579	513.50
50.4723	516.98
50.4867	487.24
50.5012	526.26
50.5156	510.18
50.5301	481.89
50.5445	488.11
50.5589	525.79
50.5734	513.76
50.5878	528.82
50.6023	495.25
50.6167	495.61
50.6311	483.03
50.6456	500.32
50.6600	498.63
50.6745	500.72
50.6889	508.54
50.7033	531.16
50.7178	529.73
50.7322	506.44
50.7467	497.96
50.7611	483.92
50.7755	493.28
50.7900	490.78
50.8044	491.68
50.8189	495.03
50.8333	529.01
50.8477	501.75
50.8622	486.34
50.8766	504.62
50.8911	489.61
50.9055	482.91
50.9199	467.79
50.9344	513.57
50.9488	529.60
50.9633	521.65
50.9777	487.23
50.9921	505.65
51.0066	468.02
51.0210	496.13
51.0355	470.84
51.0499	480.09
51.0643	516.75
51.0788	513.28
51.0932	502.65
51.1077	512.83
51.1221	534.80
51.1365	517.14
51.1510	483.47
51.1654	478.58
51.1799	531.99
51.1943	487.05
51.2087	459.34
51.2232	510.42
51.2376	546.02
51.2521	491.49
51.2665	484.72
51.2809	531.52
51.2954	500.48
51.3098	500.65
51.3243	494.53
51.3387	512.55
51.3531	521.15
51.3676	532.15
51.3820	516.31
51.3965	448.34
51.4109	493.38
51.4253	523.55
51.4398	533.81
51.4542	511.72
51.4687	525.58
51.4831	502.88
51.4975	511.30
51.5120	518.04
51.5264	530.28
51.5409	534.22
51.5553	514.01
51.5697	509.57
51.5842	518.45
51.5986	483.58
51.6131	510.39
51.6275	476.07
51.6419	482.47
51.6564	507.75
51.6708	497.99
51.6853	505.97
51.6997	503.72
51.7141	504.21
51.7286	527.37
51.7430	490.79
51.7575	512.16
51.7719	505.40
51.7863	488.53
51.8008	493.89
51.8152	538.08
51.8297	535.30
51.8441	499.55
51.8585	533.10
51.8730	523.30
51.8874	490.04
51.9019	536.46
51.9163	514.09
51.9307	490.15
51.9452	522.27
51.9596	527.04
51.9741	521.10
51.9885	506.39
52.0029	492.46
52.0174	501.39
52.0318	525.28
52.0463	514.36
52.0607	508.75
52.0751	502.44
52.0896	490.20
52.1040	469.92
52.1185	519.62
52.1329	500.71
52.1473	508.12
52.1618	486.94
52.1762	521.14
52.1907	516.63
52.2051	506.77
52.2195	509.26
52.2340	545.79
52.2484	519.18
52.2629	485.19
52.2773	486.86
52.2917	497.37
52.3062	509.31
52.3206	507.28
52.3351	497.72
52.3495	491.71
52.3639	557.68
52.3784	535.70
52.3928	467.86
52.4073	479.74
52.4217	514.66
52.4361	503.64
52.4506	464.31
52.4650	489.54
52.4795	518.74
52.4939	516.08
52.5083	500.46
52.5228	500.82
52.5372	505.43
52.5517	525.66
52.5661	504.41
52.5805	496.56
52.5950	492.55
52.6094	512.44
52.6239	527.67
52.6383	510.76
52.6527	495.19
52.6672	477.52
52.6816	505.39
52.6961	508.08
52.7105	489.74
52.7250	480.58
52.7394	493.71
52.7538	504.18
52.7683	520.79
52.7827	496.24
52.7972	472.96
52.8116	510.98
52.8260	485.26
52.8405	533.87
52.8549	522.74
52.8694	523.86
52.8838	471.92
52.8982	515.61
52.9127	544.18
52.9271	479.38
52.9416	484.91
52.9560	491.02
52.9704	474.18
52.9849	486.58
52.9993	497.43
53.0138	489.31
53.0282	495.85
53.0426	529.39
53.0571	478.40
53.0715	526.57
53.0860	530.68
53.1004	531.88
53.1148	512.72
53.1293	495.39
53.1437	524.75
53.1582	527.22
53.1726	535.80
53.1870	473.66
53.2015	494.62
53.2159	492.11
53.2304	483.29
53.2448	511.86
53.2592	511.69
53.2737	496.51
53.2881	513.24
53.3026	507.02
53.3170	525.88
53.3314	515.55
53.3459	544.18
53.3603	536.87
53.3748	504.26
53.3892	505.70
53.4036	514.52
53.4181	527.20
53.4325	535.11
53.4470	458.38
53.4614	484.19
53.4758	519.85
53.4903	516.68
53.5047	545.05
53.5192	531.50
53.5336	519.69
53.5480	539.11
53.5625	507.91
53.5769	513.26
53.5914	508.23
53.6058	507.64
53.6202	521.90
53.6347	526.34
53.6491	524.03
53.6636	517.95
53.6780	479.28
53.6924	506.95
53.7069	510.67
53.7213	494.09
53.7358	484.88
53.7502	515.80
53.7646	508.11
53.7791	542.51
53.7935	520.92
53.8080	523.42
53.8224	521.39
53.8368	505.74
53.8513	556.29
53.8657	545.81
53.8802	517.24
53.8946	517.08
53.9090	512.26
53.9235	507.22
53.9379	504.22
53.9524	517.41
53.9668	492.15
53.9812	498.83
53.9957	532.68
54.0101	520.62
54.0246	517.36
54.0390	539.87
54.0534	508.06
54.0679	525.08
54.0823	540.61
54.0968	514.66
54.1112	504.27
54.1256	542.07
54.1401	513.86
54.1545	502.40
54.1690	530.34
54.1834	550.18
54.1978	500.98
54.2123	531.85
54.2267	557.14
54.2412	561.24
54.2556	540.40
54.2700	560.58
54.2845	575.57
54.2989	590.99
54.3134	613.23
54.3278	578.50
54.3422	594.55
54.3567	592.55
54.3711	596.45
54.3856	623.39
54.4000	613.51
54.4144	623.39
54.4289	641.90
54.4433	605.15
54.4578	594.03
54.4722	632.49
54.4866	608.80
54.5011	559.01
54.5155	544.11
54.5300	584.11
54.5444	572.56
54.5588	569.24
54.5733	568.40
54.5877	564.85
54.6022	527.64
54.6166	571.85
54.6310	561.72
54.6455	509.18
54.6599	533.04
54.6744	503.19
54.6888	529.59
54.7032	527.90
54.7177	553.75
54.7321	525.61
54.7466	509.72
54.7610	483.23
54.7754	494.19
54.7899	503.96
54.8043	512.08
54.8188	504.65
54.8332	527.09
54.8476	504.02
54.8621	512.04
54.8765	539.52
54.8910	547.61
54.9054	552.04
54.9198	514.81
54.9343	496.81
54.9487	495.95
54.9632	492.34
54.9776	523.70
54.9920	516.82
55.0065	516.68
55.0209	541.59
55.0354	510.61
55.0498	521.86
55.0642	495.76
55.0787	499.85
55.0931	491.34
55.1076	508.83
55.1220	570.90
55.1364	509.33
55.1509	483.36
55.1653	516.91
55.1798	536.47
55.1942	498.15
55.2086	507.00
55.2231	520.54
55.2375	533.82
55.2520	537.85
55.2664	532.94
55.2808	503.45
55.2953	509.65
55.3097	525.60
55.3242	501.92
55.3386	514.66
55.3530	519.71
55.3675	512.08
55.3819	516.36
55.3964	510.41
55.4108	496.94
55.4252	505.03
55.4397	505.82
55.4541	489.12
55.4686	507.96
55.4830	533.43
55.4974	500.67
55.5119	501.79
55.5263	507.06
55.5408	551.87
55.5552	474.36
55.5696	484.76
55.5841	522.59
55.5985	528.08
55.6130	544.09
55.6274	515.06
55.6418	535.91
55.6563	533.12
55.6707	515.09
55.6852	523.59
55.6996	534.89
55.7140	519.54
55.7285	480.22
55.7429	487.82
55.7574	510.63
55.7718	535.74
55.7862	490.11
55.8007	471.93
55.8151	505.26
55.8296	534.68
55.8440	517.00
55.8584	528.20
55.8729	522.23
55.8873	510.56
55.9018	510.34
55.9162	511.52
55.9306	497.30
55.9451	535.11
55.9595	531.00
55.9740	531.12
55.9884	508.83
56.0028	517.91
56.0173	536.17
56.0317	508.59
56.0462	489.65
56.0606	546.12
56.0750	548.37
56.0895	494.16
56.1039	500.26
56.1184	549.14
56.1328	562.99
56.1472	498.62
56.1617	528.49
56.1761	522.25
56.1906	515.26
56.2050	494.16
56.2194	499.36
56.2339	528.40
56.2483	508.73
56.2628	497.81
56.2772	519.83
56.2916	548.40
56.3061	506.41
56.3205	498.68
56.3350	539.89
56.3494	530.12
56.3639	553.44
56.3783	542.67
56.3927	526.24
56.4072	527.84
56.4216	513.21
56.4361	491.44
56.4505	489.14
56.4649	513.93
56.4794	515.70
56.4938	533.69
56.5083	488.30
56.5227	503.73
56.5371	516.94
56.5516	540.10
56.5660	523.87
56.5805	545.31
56.5949	545.19
56.6093	484.73
56.6238	521.03
56.6382	554.38
56.6527	528.65
56.6671	542.86
56.6815	476.96
56.6960	488.10
56.7104	488.04
56.7249	500.42
56.7393	512.73
56.7537	487.99
56.7682	527.61
56.7826	533.43
56.7971	487.62
56.8115	502.12
56.8259	509.86
56.8404	512.72
56.8548	505.09
56.8693	509.53
56.8837	512.53
56.8981	521.58
56.9126	508.32
56.9270	516.23
56.9415	531.95
56.9559	503.48
56.9703	490.17
56.9848	508.85
56.9992	527.36
57.0137	546.88
57.0281	511.22
57.0425	503.95
57.0570	512.79
57.0714	505.98
57.0859	550.07
57.1003	547.42
57.1147	485.27
57.1292	535.46
57.1436	527.21
57.1581	511.25
57.1725	501.77
57.1869	542.22
57.2014	527.19
57.2158	505.65
57.2303	531.10
57.2447	507.02
57.2591	521.58
57.2736	501.54
57.2880	545.40
57.3025	536.50
57.3169	505.71
57.3313	504.90
57.3458	536.18
57.3602	520.60
57.3747	509.93
57.3891	485.04
57.4035	538.29
57.4180	503.13
57.4324	532.68
57.4469	479.45
57.4613	503.44
57.4757	535.76
57.4902	534.25
57.5046	507.78
57.5191	514.96
57.5335	527.14
57.5479	548.46
57.5624	540.41
57.5768	518.52
57.5913	535.83
57.6057	504.24
57.6201	494.43
57.6346	531.64
57.6490	559.41
57.6635	529.37
57.6779	541.76
57.6923	546.81
57.7068	533.11
57.7212	544.28
57.7357	519.23
57.7501	562.09
57.7645	555.64
57.7790	577.64
57.7934	569.03
57.8079	533.51
57.8223	558.93
57.8367	584.55
57.8512	554.00
57.8656	616.42
57.8801	603.40
57.8945	649.31
57.9089	670.67
57.9234	676.19
57.9378	646.93
57.9523	698.03
57.9667	670.31
57.9811	651.19
57.9956	691.07
58.0100	683.54
58.0245	689.01
58.0389	679.24
58.0533	659.70
58.0678	661.80
58.0822	646.76
58.0967	680.64
58.1111	677.43
58.1255	673.28
58.1400	611.19
58.1544	601.06
58.1689	604.27
58.1833	602.13
58.1977	592.98
58.2122	592.10
58.2266	614.62
58.2411	582.85
58.2555	537.34
58.2699	578.23
58.2844	558.95
58.2988	571.10
58.3133	548.50
58.3277	559.57
58.3421	589.09
58.3566	532.95
58.3710	548.85
58.3855	554.28
58.3999	545.67
58.4143	528.95
58.4288	549.68
58.4432	533.62
58.4577	497.69
58.4721	551.35
58.4865	569.16
58.5010	525.49
58.5154	530.14
58.5299	557.82
58.5443	506.40
58.5587	498.94
58.5732	482.87
58.5876	520.16
58.6021	515.84
58.6165	514.19
58.6309	531.45
58.6454	538.00
58.6598	525.46
58.6743	568.90
58.6887	519.80
58.7031	549.23
58.7176	553.92
58.7320	517.42
58.7465	547.22
58.7609	516.70
58.7753	521.85
58.7898	511.25
58.8042	500.72
58.8187	516.84
58.8331	501.97
58.8475	501.32
58.8620	537.79
58.8764	521.73
58.8909	521.83
58.9053	527.64
58.9197	520.37
58.9342	538.79
58.9486	529.22
58.9631	526.90
58.9775	505.31
58.9919	526.55
59.0064	536.81
59.0208	539.43
59.0353	516.37
59.0497	495.04
59.0641	514.84
59.0786	516.11
59.0930	545.91
59.1075	542.35
59.1219	554.20
59.1363	518.38
59.1508	497.56
59.1652	520.03
59.1797	539.55
59.1941	530.00
59.2085	531.22
59.2230	545.50
59.2374	512.46
59.2519	535.69
59.2663	546.71
59.2807	571.31
59.2952	576.57
59.3096	551.95
59.3241	519.54
59.3385	527.91
59.3529	552.43
59.3674	540.11
59.3818	570.80
59.3963	549.79
59.4107	539.75
59.4251	563.48
59.4396	587.19
59.4540	556.74
59.4685	553.01
59.4829	543.35
59.4973	540.80
59.5118	546.92
59.5262	545.20
59.5407	523.87
59.5551	544.90
59.5695	545.89
59.5840	535.59
59.5984	535.86
59.6129	546.25
59.6273	540.44
59.6417	559.72
59.6562	547.05
59.6706	534.60
59.6851	503.90
59.6995	564.42
59.7139	563.24
59.7284	511.78
59.7428	522.93
59.7573	524.50
59.7717	530.88
59.7861	543.75
59.8006	531.88
59.8150	546.65
59.8295	501.00
59.8439	546.74
59.8583	532.68
59.8728	559.39
59.8872	558.54
59.9017	532.96
59.9161	548.02
59.9305	551.95
59.9450	520.97
59.9594	492.91
59.9739	500.71
59.9883	560.16
60.0027	547.12
60.0172	547.77
60.0316	534.09
60.0461	490.54
60.0605	533.91
60.0750	506.71
60.0894	532.85
60.1038	539.08
60.1183	522.33
60.1327	562.75
60.1472	498.71
60.1616	531.33
60.1760	538.26
60.1905	530.08
60.2049	528.77
60.2194	519.89
60.2338	534.04
60.2482	523.33
60.2627	547.34
60.2771	581.35
60.2916	567.32
60.3060	528.02
60.3204	565.91
60.3349	537.56
60.3493	524.28
60.3638	526.19
60.3782	545.47
60.3926	544.84
60.4071	546.30
60.4215	565.84
60.4360	517.26
60.4504	499.20
60.4648	548.71
60.4793	529.80
60.4937	555.30
60.5082	529.79
60.5226	519.80
60.5370	539.06
60.5515	569.27
60.5659	551.21
60.5804	552.34
60.5948	527.43
60.6092	491.44
60.6237	529.09
60.6381	526.31
60.6526	524.14
60.6670	542.06
60.6814	548.65
60.6959	533.35
60.7103	571.82
60.7248	548.32
60.7392	490.45
60.7536	527.24
60.7681	526.16
60.7825	533.27
60.7970	533.30
60.8114	533.83
60.8258	520.35
60.8403	508.26
60.8547	498.17
60.8692	515.04
60.8836	534.58
60.8980	557.14
60.9125	582.05
60.9269	516.41
60.9414	540.43
60.9558	555.31
60.9702	549.20
60.9847	567.92
60.9991	532.02
61.0136	555.72
61.0280	534.06
61.0424	551.49
61.0569	534.39
61.0713	578.44
61.0858	579.54
61.1002	579.79
61.1146	560.92
61.1291	530.43
61.1435	511.28
61.1580	512.70
61.1724	546.47
61.1868	508.71
61.2013	558.99
61.2157	548.39
61.2302	536.27
61.2446	553.39
61.2590	542.03
61.2735	518.35
61.2879	542.24
61.3024	513.82
61.3168	532.31
61.3312	542.88
61.3457	548.72
61.3601	523.05
61.3746	528.68
61.3890	512.34
61.4034	492.46
61.4179	530.80
61.4323	557.71
61.4468	521.80
61.4612	522.47
61.4756	527.01
61.4901	527.56
61.5045	551.96
61.5190	572.48
61.5334	529.00
61.5478	531.34
61.5623	508.60
61.5767	509.47
61.5912	576.89
61.6056	564.10
61.6200	522.77
61.6345	536.26
61.6489	556.08
61.6634	538.64
61.6778	514.15
61.6922	517.86
61.7067	558.96
61.7211	547.20
61.7356	502.67
61.7500	545.79
61.7644	538.21
61.7789	574.29
61.7933	526.64
61.8078	530.76
61.8222	517.75
61.8366	522.78
61.8511	545.79
61.8655	530.80
61.8800	509.28
61.8944	523.92
61.9088	554.28
61.9233	557.34
61.9377	554.62
61.9522	529.10
61.9666	530.75
61.9810	573.98
61.9955	538.12
62.0099	533.67
62.0244	569.56
62.0388	566.06
62.0532	555.15
62.0677	557.87
62.0821	533.41
62.0966	559.85
62.1110	536.01
62.1254	566.00
62.1399	524.34
62.1543	513.93
62.1688	516.42
62.1832	504.66
62.1976	529.89
62.2121	533.05
62.2265	559.25
62.2410	556.96
62.2554	559.61
62.2698	558.53
62.2843	546.79
62.2987	538.84
62.3132	521.15
62.3276	546.53
62.3420	540.22
62.3565	541.64
62.3709	529.46
62.3854	538.24
62.3998	539.24
62.4142	551.71
62.4287	550.36
62.4431	550.18
62.4576	551.98
62.4720	533.24
62.4864	549.57
62.5009	533.40
62.5153	527.41
62.5298	570.60
62.5442	547.59
62.5586	563.80
62.5731	553.79
62.5875	552.28
62.6020	542.87
62.6164	527.62
62.6308	551.57
62.6453	556.22
62.6597	563.19
62.6742	532.42
62.6886	506.48
62.7030	522.79
62.7175	575.63
62.7319	536.19
62.7464	532.09
62.7608	547.39
62.7752	564.05
62.7897	552.49
62.8041	583.69
62.8186	572.77
62.8330	581.70
62.8474	594.34
62.8619	593.58
62.8763	597.89
62.8908	588.21
62.9052	584.67
62.9196	535.70
62.9341	559.87
62.9485	569.85
62.9630	574.56
62.9774	575.10
62.9918	554.75
63.0063	560.26
63.0207	553.84
63.0352	554.23
63.0496	574.68
63.0640	584.62
63.0785	569.97
63.0929	551.78
63.1074	558.31
63.1218	569.90
63.1362	580.50
63.1507	563.44
63.1651	565.46
63.1796	575.21
63.1940	553.56
63.2084	530.77
63.2229	543.47
63.2373	582.63
63.2518	593.50
63.2662	540.15
63.2806	603.75
63.2951	595.11
63.3095	560.01
63.3240	586.76
63.3384	604.48
63.3528	609.10
63.3673	595.40
63.3817	573.93
63.3962	572.75
63.4106	567.52
63.4250	641.34
63.4395	600.64
63.4539	617.30
63.4684	619.48
63.4828	636.68
63.4972	612.73
63.5117	612.78
63.5261	669.21
63.5406	652.30
63.5550	673.99
63.5694	745.16
63.5839	752.34
63.5983	794.14
63.6128	778.20
63.6272	791.82
63.6416	803.50
63.6561	823.03
63.6705	769.22
63.6850	807.35
63.6994	812.61
63.7138	866.18
63.7283	817.62
63.7427	820.69
63.7572	829.39
63.7716	834.03
63.7861	832.17
63.8005	816.81
63.8149	802.37
63.8294	764.56
63.8438	784.05
63.8583	799.46
63.8727	759.65
63.8871	730.44
63.9016	726.46
63.9160	745.57
63.9305	730.39
63.9449	696.66
63.9593	658.75
63.9738	632.69
63.9882	690.16
64.0027	648.32
64.0171	623.35
64.0315	630.82
64.0460	666.50
64.0604	662.69
64.0749	594.13
64.0893	641.99
64.1037	652.68
64.1182	623.18
64.1326	613.14
64.1471	555.31
64.1615	561.69
64.1759	578.91
64.1904	584.14
64.2048	616.16
64.2193	596.44
64.2337	576.76
64.2481	625.71
64.2626	602.94
64.2770	592.93
64.2915	623.84
64.3059	578.89
64.3203	643.77
64.3348	636.43
64.3492	624.29
64.3637	630.42
64.3781	615.29
64.3925	605.69
64.4070	606.61
64.4214	634.06
64.4359	631.18
64.4503	586.03
64.4647	627.77
64.4792	634.71
64.4936	640.93
64.5081	592.39
64.5225	605.98
64.5369	624.28
64.5514	601.82
64.5658	631.75
64.5803	631.88
64.5947	627.11
64.6091	617.23
64.6236	619.32
64.6380	654.91
64.6525	588.27
64.6669	641.47
64.6813	656.03
64.6958	624.98
64.7102	657.30
64.7247	664.23
64.7391	697.62
64.7535	685.68
64.7680	690.01
64.7824	677.78
64.7969	694.62
64.8113	746.30
64.8257	760.38
64.8402	806.73
64.8546	823.81
64.8691	879.69
64.8835	810.65
64.8979	859.47
64.9124	834.17
64.9268	827.34
64.9413	892.43
64.9557	884.75
64.9701	940.12
64.9846	1047.78
64.9990	1048.67
65.0135	1255.44
65.0279	1395.40
65.0423	1627.74
65.0568	1915.86
65.0712	2518.83
65.0857	3163.24
65.1001	4225.74
65.1145	5682.99
65.1290	7513.54
65.1434	9026.39
65.1579	10643.40
65.1723	11485.45
65.1867	11159.71
65.2012	9953.66
65.2156	8504.23
65.2301	6749.62
65.2445	5324.20
65.2589	4421.05
65.2734	4168.81
65.2878	4318.95
65.3023	4762.83
65.3167	5458.35
65.3311	6269.91
65.3456	6834.66
65.3600	6943.13
65.3745	6497.92
65.3889	5518.41
65.4033	4508.51
65.4178	3564.47
65.4322	2806.79
65.4467	2080.82
65.4611	1700.23
65.4755	1479.97
65.4900	1301.22
65.5044	1160.33
65.5189	1103.35
65.5333	977.51
65.5477	952.04
65.5622	938.53
65.5766	890.95
65.5911	859.68
65.6055	811.80
65.6199	756.98
65.6344	777.30
65.6488	716.88
65.6633	730.26
65.6777	680.61
65.6921	683.41
65.7066	698.71
65.7210	692.10
65.7355	713.75
65.7499	668.75
65.7643	634.36
65.7788	654.07
65.7932	641.60
65.8077	664.76
65.8221	674.03
65.8365	684.68
65.8510	664.99
65.8654	652.30
65.8799	649.65
65.8943	658.16
65.9087	695.52
65.9232	613.22
65.9376	646.82
65.9521	639.34
65.9665	643.68
65.9809	637.39
65.9954	634.17
66.0098	619.80
66.0243	590.39
66.0387	591.21
66.0531	620.85
66.0676	659.59
66.0820	615.38
66.0965	681.09
66.1109	633.64
66.1253	622.25
66.1398	624.05
66.1542	575.45
66.1687	606.92
66.1831	613.53
66.1975	584.82
66.2120	609.70
66.2264	621.08
66.2409	629.66
66.2553	645.02
66.2697	563.07
66.2842	618.25
66.2986	586.28
66.3131	617.17
66.3275	635.05
66.3419	603.78
66.3564	608.34
66.3708	570.35
66.3853	595.03
66.3997	592.93
66.4141	602.40
66.4286	594.51
66.4430	556.27
66.4575	552.30
66.4719	588.09
66.4863	605.19
66.5008	578.97
66.5152	585.14
66.5297	591.15
66.5441	594.49
66.5585	567.25
66.5730	586.44
66.5874	561.60
66.6019	566.16
66.6163	577.56
66.6307	590.60
66.6452	595.07
66.6596	614.96
66.6741	581.49
66.6885	550.23
66.7029	593.77
66.7174	589.11
66.7318	572.23
66.7463	580.80
66.7607	573.01
66.7751	573.21
66.7896	564.72
66.8040	583.19
66.8185	605.92
66.8329	598.34
66.8473	584.70
66.8618	595.74
66.8762	585.05
66.8907	562.81
66.9051	616.01
66.9195	593.05
66.9340	573.95
66.9484	575.79
66.9629	533.18
66.9773	541.29
66.9917	569.74
67.0062	591.83
67.0206	585.26
67.0351	553.22
67.0495	588.04
67.0639	590.62
67.0784	592.91
67.0928	603.78
67.1073	561.23
67.1217	589.65
67.1361	576.64
67.1506	563.96
67.1650	605.13
67.1795	614.67
67.1939	568.14
67.2083	562.25
67.2228	563.05
67.2372	568.58
67.2517	620.55
67.2661	547.35
67.2805	568.41
67.2950	564.79
67.3094	595.84
67.3239	593.99
67.3383	584.31
67.3527	562.21
67.3672	562.46
67.3816	573.76
67.3961	555.39
67.4105	577.72
67.4250	579.84
67.4394	586.68
67.4538	584.59
67.4683	567.56
67.4827	591.43
67.4972	583.91
67.5116	593.20
67.5260	585.01
67.5405	604.45
67.5549	571.22
67.5694	561.73
67.5838	545.56
67.5982	576.92
67.6127	555.51
67.6271	519.09
67.6416	580.43
67.6560	592.90
67.6704	560.51
67.6849	589.70
67.6993	579.87
67.7138	564.48
67.7282	566.80
67.7426	558.04
67.7571	551.16
67.7715	556.81
67.7860	529.72
67.8004	532.73
67.8148	572.38
67.8293	589.72
67.8437	569.08
67.8582	550.18
67.8726	550.74
67.8870	598.01
67.9015	606.24
67.9159	603.70
67.9304	558.13
67.9448	608.27
67.9592	580.89
67.9737	534.68
67.9881	593.48
68.0026	565.96
68.0170	591.32
68.0314	586.64
68.0459	603.55
68.0603	579.91
68.0748	568.91
68.0892	562.34
68.1036	563.55
68.1181	555.68
68.1325	582.46
68.1470	555.90
68.1614	597.08
68.1758	617.09
68.1903	582.34
68.2047	517.31
68.2192	560.22
68.2336	609.64
68.2480	574.79
68.2625	558.14
68.2769	552.79
68.2914	549.79
68.3058	564.73
68.3202	627.82
68.3347	605.85
68.3491	551.64
68.3636	582.99
68.3780	605.56
68.3924	561.73
68.4069	582.02
68.4213	542.91
68.4358	571.25
68.4502	564.40
68.4646	596.72
68.4791	580.86
68.4935	606.89
68.5080	534.01
68.5224	552.68
68.5368	559.24
68.5513	594.27
68.5657	593.63
68.5802	590.20
68.5946	564.27
68.6090	567.73
68.6235	565.11
68.6379	549.35
68.6524	579.34
68.6668	568.98
68.6812	542.86
68.6957	562.83
68.7101	597.19
68.7246	535.76
68.7390	546.64
68.7534	590.09
68.7679	553.37
68.7823	557.64
68.7968	561.69
68.8112	539.51
68.8256	551.38
68.8401	577.23
68.8545	581.04
68.8690	551.36
68.8834	557.65
68.8978	602.99
68.9123	597.91
68.9267	574.62
68.9412	573.41
68.9556	583.33
68.9700	572.76
68.9845	535.98
68.9989	568.77
69.0134	546.10
69.0278	560.66
69.0422	562.94
69.0567	566.52
69.0711	616.02
69.0856	578.74
69.1000	573.58
69.1144	600.72
69.1289	625.14
69.1433	574.84
69.1578	579.30
69.1722	623.06
69.1866	572.12
69.2011	565.65
69.2155	571.50
69.2300	496.58
69.2444	531.25
69.2588	577.28
69.2733	588.07
69.2877	561.09
69.3022	545.59
69.3166	540.49
69.3310	587.09
69.3455	581.20
69.3599	554.34
69.3744	595.23
69.3888	599.41
69.4032	567.02
69.4177	587.96
69.4321	592.00
69.4466	567.29
69.4610	530.58
69.4754	566.10
69.4899	585.85
69.5043	555.03
69.5188	560.20
69.5332	570.96
69.5476	565.65
69.5621	595.67
69.5765	537.89
69.5910	582.47
69.6054	559.50
69.6198	541.72
69.6343	592.98
69.6487	593.63
69.6632	628.81
69.6776	556.43
69.6920	563.93
69.7065	618.09
69.7209	570.14
69.7354	541.61
69.7498	579.99
69.7642	540.82
69.7787	539.89
69.7931	552.45
69.8076	576.70
69.8220	563.45
69.8364	588.52
69.8509	573.79
69.8653	581.67
69.8798	603.77
69.8942	587.01
69.9086	512.14
69.9231	601.64
69.9375	593.78
69.9520	568.26
69.9664	563.01
69.9808	563.61
69.9953	660.09
70.0097	617.42
70.0242	563.50
70.0386	569.12
70.0530	536.28
70.0675	581.72
70.0819	564.63
70.0964	583.34
70.1108	613.35
70.1252	564.06
70.1397	567.00
70.1541	573.10
70.1686	572.69
70.1830	583.89
70.1974	631.65
70.2119	580.53
70.2263	584.21
70.2408	562.89
70.2552	575.26
70.2696	556.17
70.2841	575.81
70.2985	579.06
70.3130	587.68
70.3274	529.25
70.3418	594.32
70.3563	617.96
70.3707	604.89
70.3852	598.07
70.3996	633.94
70.4140	547.72
70.4285	619.42
70.4429	577.45
70.4574	560.86
70.4718	601.84
70.4862	561.86
70.5007	591.78
70.5151	551.42
70.5296	546.80
70.5440	572.99
70.5584	569.62
70.5729	544.31
70.5873	559.92
70.6018	568.71
70.6162	527.24
70.6306	574.47
70.6451	531.71
70.6595	535.97
70.6740	529.36
70.6884	506.76
70.7028	535.72
70.7173	577.47
70.7317	534.15
70.7462	600.80
70.7606	570.71
70.7750	533.91
70.7895	547.51
70.8039	616.46
70.8184	618.35
70.8328	611.35
70.8472	572.64
70.8617	595.16
70.8761	569.17
70.8906	570.59
70.9050	561.12
70.9194	553.41
70.9339	605.75
70.9483	598.09
70.9628	570.36
70.9772	572.91
70.9916	595.46
71.0061	587.73
71.0205	630.45
71.0350	595.23
71.0494	494.00
71.0638	559.08
71.0783	552.00
71.0927	605.38
71.1072	637.18
71.1216	619.25
71.1361	581.62
71.1505	550.20
71.1649	527.45
71.1794	523.41
71.1938	551.59
71.2083	528.68
71.2227	536.68
71.2371	528.14
71.2516	553.08
71.2660	573.16
71.2805	536.71
71.2949	555.88
71.3093	580.92
71.3238	575.28
71.3382	650.83
71.3527	626.36
71.3671	566.88
71.3815	542.30
71.3960	551.11
71.4104	538.31
71.4249	519.56
71.4393	549.76
71.4537	540.76
71.4682	587.18
71.4826	585.21
71.4971	551.91
71.5115	500.36
71.5259	511.38
71.5404	538.65
71.5548	521.90
71.5693	482.77
71.5837	550.44
71.5981	579.60
71.6126	583.15
71.6270	572.10
71.6415	600.09
71.6559	567.62
71.6703	559.60
71.6848	603.01
71.6992	639.41
71.7137	623.38
71.7281	541.32
71.7425	543.83
71.7570	587.63
71.7714	559.76
71.7859	509.75
71.8003	520.45
71.8147	565.46
71.8292	571.80
71.8436	524.48
71.8581	554.16
71.8725	587.16
71.8869	561.27
71.9014	621.57
71.9158	686.34
71.9303	636.62
71.9447	589.50
71.9591	458.62
71.9736	430.11
71.9880	564.51
72.0025	556.97
72.0169	573.35
72.0313	617.20
72.0458	564.25
72.0602	562.26
72.0747	488.99
72.0891	516.99
72.1035	630.36
72.1180	648.86
72.1324	556.01
72.1469	547.18
72.1613	608.67
72.1757	588.85
72.1902	578.54
72.2046	596.14
72.2191	578.93
72.2335	589.95
72.2479	565.09
72.2624	551.54
72.2768	579.86
72.2913	553.29
72.3057	520.34
72.3201	547.71
72.3346	593.39
72.3490	618.07
72.3635	587.94
72.3779	579.20
72.3923	566.24
72.4068	555.96
72.4212	551.86
72.4357	595.49
72.4501	542.19
72.4645	543.89
72.4790	636.47
72.4934	648.35
72.5079	571.89
72.5223	476.91
72.5367	506.02
72.5512	591.08
72.5656	562.14
72.5801	551.20
72.5945	556.40
72.6089	564.13
72.6234	587.32
72.6378	511.31
72.6523	476.42
72.6667	540.03
72.6811	579.42
72.6956	589.45
72.7100	576.37
72.7245	524.05
72.7389	597.02
72.7533	599.17
72.7678	580.65
72.7822	608.04
72.7967	647.11
72.8111	642.38
72.8255	713.54
72.8400	630.39
72.8544	514.04
72.8689	564.17
72.8833	511.58