2022.09.19 19:37:17
Îáðàçåö: ß÷åéêà LCoV 16-09-2022
Lambda1 = 1.54060
Lambda2 = 1.54439
Lambdam = 1.54186
R = 0.497
2Theta	I

line¹ 0 ;repeat¹ 0
22.1120	558.51
22.1264	603.01
22.1409	574.62
22.1553	429.34
22.1697	480.75
22.1842	513.73
22.1986	525.64
22.2131	526.39
22.2275	585.82
22.2419	576.65
22.2564	614.92
22.2708	551.74
22.2853	576.58
22.2997	526.81
22.3141	565.93
22.3286	608.46
22.3430	630.33
22.3575	643.31
22.3719	578.86
22.3863	497.65
22.4008	512.23
22.4152	547.51
22.4297	633.39
22.4441	701.23
22.4585	608.84
22.4730	584.28
22.4874	605.01
22.5019	581.65
22.5163	561.25
22.5307	580.49
22.5452	577.30
22.5596	613.83
22.5741	641.50
22.5885	687.90
22.6029	578.43
22.6174	587.22
22.6318	539.08
22.6463	534.84
22.6607	543.86
22.6751	530.32
22.6896	476.73
22.7040	650.31
22.7185	657.52
22.7329	574.89
22.7473	554.87
22.7618	564.11
22.7762	613.87
22.7907	599.29
22.8051	569.34
22.8195	557.62
22.8340	530.64
22.8484	565.20
22.8629	606.75
22.8773	596.53
22.8917	547.80
22.9062	542.02
22.9206	478.71
22.9351	553.40
22.9495	611.02
22.9639	604.00
22.9784	565.10
22.9928	561.94
23.0073	582.53
23.0217	557.67
23.0361	575.09
23.0506	558.47
23.0650	511.60
23.0795	518.10
23.0939	500.85
23.1083	569.02
23.1228	623.28
23.1372	584.71
23.1517	507.24
23.1661	582.00
23.1806	550.83
23.1950	538.86
23.2094	580.97
23.2239	584.72
23.2383	523.27
23.2528	591.96
23.2672	453.48
23.2816	486.15
23.2961	520.71
23.3105	626.45
23.3250	637.02
23.3394	560.94
23.3538	552.74
23.3683	527.17
23.3827	509.60
23.3972	566.71
23.4116	607.77
23.4260	520.59
23.4405	524.73
23.4549	515.12
23.4694	609.15
23.4838	565.08
23.4982	528.29
23.5127	554.76
23.5271	604.32
23.5416	598.82
23.5560	541.38
23.5704	529.23
23.5849	591.38
23.5993	572.10
23.6138	524.69
23.6282	510.23
23.6426	549.83
23.6571	583.94
23.6715	570.18
23.6860	513.66
23.7004	508.87
23.7148	558.80
23.7293	555.90
23.7437	550.72
23.7582	548.21
23.7726	482.75
23.7870	595.75
23.8015	614.31
23.8159	617.82
23.8304	585.59
23.8448	558.31
23.8592	567.37
23.8737	649.90
23.8881	532.54
23.9026	666.24
23.9170	526.33
23.9314	505.07
23.9459	605.10
23.9603	563.68
23.9748	550.98
23.9892	495.69
24.0036	539.88
24.0181	567.41
24.0325	569.85
24.0470	568.60
24.0614	542.67
24.0758	553.48
24.0903	570.77
24.1047	550.51
24.1192	550.52
24.1336	554.95
24.1480	570.43
24.1625	562.15
24.1769	565.66
24.1914	519.94
24.2058	540.99
24.2202	595.68
24.2347	611.84
24.2491	597.35
24.2636	574.84
24.2780	577.44
24.2924	591.41
24.3069	588.88
24.3213	590.94
24.3358	577.48
24.3502	588.58
24.3646	552.86
24.3791	582.53
24.3935	568.83
24.4080	572.11
24.4224	581.88
24.4368	564.80
24.4513	524.61
24.4657	563.89
24.4802	604.61
24.4946	508.10
24.5090	524.57
24.5235	551.04
24.5379	548.38
24.5524	665.00
24.5668	618.68
24.5812	517.03
24.5957	625.72
24.6101	532.59
24.6246	581.18
24.6390	594.09
24.6534	592.89
24.6679	519.02
24.6823	538.21
24.6968	522.28
24.7112	532.07
24.7256	554.30
24.7401	513.78
24.7545	505.30
24.7690	536.89
24.7834	562.18
24.7978	512.66
24.8123	529.25
24.8267	517.16
24.8412	511.94
24.8556	497.00
24.8700	550.21
24.8845	537.71
24.8989	616.52
24.9134	548.64
24.9278	568.26
24.9422	515.47
24.9567	584.48
24.9711	524.63
24.9856	516.13
25.0000	517.62
25.0144	546.03
25.0289	560.36
25.0433	514.36
25.0578	488.41
25.0722	565.13
25.0866	522.54
25.1011	537.39
25.1155	547.98
25.1300	547.60
25.1444	545.42
25.1588	535.63
25.1733	585.15
25.1877	535.58
25.2022	514.72
25.2166	547.13
25.2310	530.92
25.2455	553.78
25.2599	523.66
25.2744	519.43
25.2888	574.30
25.3032	530.19
25.3177	508.34
25.3321	533.59
25.3466	548.89
25.3610	539.55
25.3754	510.18
25.3899	500.26
25.4043	489.99
25.4188	514.75
25.4332	528.77
25.4476	508.34
25.4621	516.77
25.4765	564.00
25.4910	537.58
25.5054	512.36
25.5198	531.20
25.5343	538.27
25.5487	554.76
25.5632	527.23
25.5776	521.50
25.5920	518.51
25.6065	516.57
25.6209	549.97
25.6354	514.50
25.6498	567.43
25.6642	570.90
25.6787	539.42
25.6931	558.44
25.7076	543.35
25.7220	531.91
25.7364	532.54
25.7509	494.54
25.7653	555.29
25.7798	539.74
25.7942	538.30
25.8086	529.53
25.8231	564.71
25.8375	522.86
25.8520	553.02
25.8664	544.31
25.8808	508.22
25.8953	515.33
25.9097	566.07
25.9242	540.72
25.9386	545.68
25.9530	533.17
25.9675	511.04
25.9819	544.03
25.9964	560.89
26.0108	549.45
26.0252	535.61
26.0397	508.77
26.0541	527.09
26.0686	569.72
26.0830	546.50
26.0974	509.87
26.1119	510.08
26.1263	545.52
26.1408	519.26
26.1552	517.92
26.1696	528.23
26.1841	532.73
26.1985	510.33
26.2130	554.14
26.2274	525.17
26.2418	523.46
26.2563	529.72
26.2707	541.84
26.2852	540.18
26.2996	512.32
26.3140	517.19
26.3285	507.10
26.3429	485.45
26.3574	499.26
26.3718	534.75
26.3862	515.50
26.4007	538.70
26.4151	541.83
26.4296	542.62
26.4440	535.96
26.4584	524.42
26.4729	549.08
26.4873	524.22
26.5018	536.95
26.5162	530.31
26.5306	548.41
26.5451	555.67
26.5595	518.09
26.5740	526.93
26.5884	563.09
26.6028	567.53
26.6173	553.24
26.6317	567.46
26.6462	524.88
26.6606	536.06
26.6750	523.49
26.6895	516.97
26.7039	523.52
26.7184	537.12
26.7328	514.12
26.7472	503.11
26.7617	479.71
26.7761	507.81
26.7906	531.89
26.8050	538.31
26.8194	534.28
26.8339	545.38
26.8483	519.77
26.8628	509.80
26.8772	512.19
26.8917	505.12
26.9061	517.14
26.9205	526.13
26.9350	504.11
26.9494	523.57
26.9639	520.68
26.9783	524.56
26.9927	538.90
27.0072	519.36
27.0216	529.08
27.0361	531.91
27.0505	528.64
27.0649	563.18
27.0794	539.88
27.0938	503.21
27.1083	503.29
27.1227	503.16
27.1371	519.51
27.1516	510.82
27.1660	532.27
27.1805	508.79
27.1949	507.90
27.2093	521.36
27.2238	558.45
27.2382	515.08
27.2527	530.11
27.2671	524.37
27.2815	530.13
27.2960	518.64
27.3104	541.54
27.3249	516.63
27.3393	505.15
27.3537	510.05
27.3682	480.72
27.3826	498.76
27.3971	506.18
27.4115	528.34
27.4259	552.59
27.4404	538.40
27.4548	513.30
27.4693	498.82
27.4837	506.97
27.4981	530.76
27.5126	555.82
27.5270	521.70
27.5415	489.14
27.5559	499.32
27.5703	521.57
27.5848	512.74
27.5992	527.80
27.6137	498.51
27.6281	491.87
27.6425	499.78
27.6570	489.96
27.6714	528.08
27.6859	536.08
27.7003	539.44
27.7147	535.31
27.7292	528.10
27.7436	493.14
27.7581	498.78
27.7725	522.40
27.7869	533.99
27.8014	578.08
27.8158	535.49
27.8303	550.94
27.8447	532.07
27.8591	518.45
27.8736	494.14
27.8880	494.68
27.9025	523.68
27.9169	506.95
27.9313	496.44
27.9458	535.00
27.9602	565.07
27.9747	499.21
27.9891	471.34
28.0035	499.41
28.0180	535.26
28.0324	525.64
28.0469	530.74
28.0613	531.03
28.0757	508.02
28.0902	512.88
28.1046	507.57
28.1191	502.80
28.1335	538.78
28.1479	519.15
28.1624	483.49
28.1768	525.93
28.1913	518.30
28.2057	519.36
28.2201	521.33
28.2346	516.66
28.2490	518.86
28.2635	537.71
28.2779	530.92
28.2923	512.07
28.3068	494.62
28.3212	502.65
28.3357	505.32
28.3501	516.12
28.3645	497.06
28.3790	509.47
28.3934	497.52
28.4079	475.41
28.4223	499.75
28.4367	518.64
28.4512	524.56
28.4656	521.40
28.4801	530.64
28.4945	508.89
28.5089	545.63
28.5234	524.64
28.5378	536.54
28.5523	477.82
28.5667	508.59
28.5811	506.94
28.5956	517.35
28.6100	531.14
28.6245	503.14
28.6389	550.10
28.6533	549.59
28.6678	523.62
28.6822	510.15
28.6967	485.22
28.7111	523.16
28.7255	513.80
28.7400	509.79
28.7544	503.27
28.7689	478.90
28.7833	491.43
28.7977	529.98
28.8122	527.43
28.8266	504.66
28.8411	500.09
28.8555	491.42
28.8699	515.40
28.8844	499.09
28.8988	524.11
28.9133	527.29
28.9277	511.79
28.9421	510.57
28.9566	499.53
28.9710	501.33
28.9855	497.36
28.9999	498.29
29.0143	484.96
29.0288	466.84
29.0432	494.84
29.0577	502.05
29.0721	500.37
29.0865	495.33
29.1010	495.24
29.1154	501.31
29.1299	447.85
29.1443	457.64
29.1587	481.93
29.1732	526.74
29.1876	507.17
29.2021	486.22
29.2165	528.83
29.2309	514.52
29.2454	505.06
29.2598	504.94
29.2743	512.95
29.2887	487.33
29.3031	490.65
29.3176	500.13
29.3320	529.05
29.3465	542.63
29.3609	529.87
29.3753	509.34
29.3898	508.41
29.4042	504.67
29.4187	507.22
29.4331	510.89
29.4475	523.66
29.4620	510.74
29.4764	511.91
29.4909	502.36
29.5053	478.51
29.5197	519.00
29.5342	497.60
29.5486	537.18
29.5631	516.28
29.5775	501.14
29.5919	476.67
29.6064	514.96
29.6208	525.50
29.6353	477.65
29.6497	475.92
29.6641	500.70
29.6786	495.48
29.6930	498.21
29.7075	530.72
29.7219	508.92
29.7363	509.88
29.7508	487.41
29.7652	504.82
29.7797	521.32
29.7941	513.54
29.8085	551.16
29.8230	491.92
29.8374	529.65
29.8519	529.09
29.8663	489.35
29.8807	520.33
29.8952	495.78
29.9096	518.97
29.9241	516.17
29.9385	518.33
29.9529	512.58
29.9674	494.28
29.9818	508.40
29.9963	531.76
30.0107	525.20
30.0251	535.15
30.0396	577.42
30.0540	526.15
30.0685	513.92
30.0829	544.86
30.0973	520.81
30.1118	523.81
30.1262	529.41
30.1407	492.91
30.1551	494.96
30.1695	494.77
30.1840	517.77
30.1984	500.96
30.2129	523.17
30.2273	517.36
30.2417	505.81
30.2562	486.77
30.2706	462.03
30.2851	497.87
30.2995	528.93
30.3139	535.53
30.3284	489.75
30.3428	534.05
30.3573	500.28
30.3717	474.20
30.3861	521.08
30.4006	501.42
30.4150	517.25
30.4295	525.32
30.4439	545.19
30.4583	536.68
30.4728	541.45
30.4872	537.16
30.5017	540.29
30.5161	565.96
30.5305	587.63
30.5450	612.31
30.5594	587.89
30.5739	625.42
30.5883	673.72
30.6028	711.09
30.6172	733.47
30.6316	705.60
30.6461	713.33
30.6605	697.80
30.6750	723.84
30.6894	694.99
30.7038	656.42
30.7183	654.16
30.7327	621.90
30.7472	589.07
30.7616	533.52
30.7760	560.59
30.7905	557.18
30.8049	571.51
30.8194	582.47
30.8338	546.04
30.8482	520.74
30.8627	546.86
30.8771	534.13
30.8916	482.74
30.9060	517.73
30.9204	512.07
30.9349	514.52
30.9493	514.24
30.9638	509.59
30.9782	513.61
30.9926	502.72
31.0071	499.86
31.0215	502.19
31.0360	534.67
31.0504	545.82
31.0648	511.89
31.0793	497.23
31.0937	506.36
31.1082	532.16
31.1226	566.46
31.1370	511.37
31.1515	481.84
31.1659	474.43
31.1804	483.68
31.1948	542.86
31.2092	490.13
31.2237	521.76
31.2381	524.62
31.2526	521.67
31.2670	506.17
31.2814	540.89
31.2959	543.30
31.3103	555.79
31.3248	548.60
31.3392	500.48
31.3536	514.38
31.3681	520.53
31.3825	506.46
31.3970	497.34
31.4114	505.39
31.4258	520.89
31.4403	506.54
31.4547	524.09
31.4692	547.01
31.4836	534.78
31.4980	505.89
31.5125	489.79
31.5269	473.16
31.5414	506.00
31.5558	514.32
31.5702	504.96
31.5847	481.01
31.5991	464.36
31.6136	523.95
31.6280	517.10
31.6424	505.51
31.6569	508.56
31.6713	519.27
31.6858	494.48
31.7002	528.03
31.7146	490.14
31.7291	540.41
31.7435	499.40
31.7580	500.33
31.7724	517.28
31.7868	512.66
31.8013	499.55
31.8157	513.69
31.8302	512.30
31.8446	514.70
31.8590	530.73
31.8735	534.06
31.8879	494.76
31.9024	513.60
31.9168	451.30
31.9312	494.26
31.9457	513.65
31.9601	487.07
31.9746	493.58
31.9890	506.21
32.0034	517.37
32.0179	487.40
32.0323	494.41
32.0468	535.33
32.0612	523.45
32.0756	483.66
32.0901	508.82
32.1045	478.61
32.1190	473.06
32.1334	549.05
32.1478	498.29
32.1623	497.76
32.1767	492.69
32.1912	494.71
32.2056	499.97
32.2200	513.44
32.2345	534.97
32.2489	527.58
32.2634	486.21
32.2778	472.84
32.2922	509.18
32.3067	525.07
32.3211	511.07
32.3356	535.55
32.3500	514.75
32.3644	498.03
32.3789	481.50
32.3933	499.13
32.4078	490.20
32.4222	496.46
32.4366	511.43
32.4511	489.97
32.4655	506.82
32.4800	503.98
32.4944	517.77
32.5088	496.10
32.5233	492.51
32.5377	483.06
32.5522	458.88
32.5666	472.44
32.5810	516.83
32.5955	512.81
32.6099	474.18
32.6244	477.26
32.6388	531.50
32.6532	532.22
32.6677	498.17
32.6821	496.91
32.6966	489.57
32.7110	523.56
32.7254	495.10
32.7399	516.20
32.7543	481.49
32.7688	471.54
32.7832	478.84
32.7976	494.59
32.8121	470.85
32.8265	508.91
32.8410	504.07
32.8554	518.20
32.8698	515.14
32.8843	491.52
32.8987	515.11
32.9132	536.83
32.9276	450.90
32.9420	507.22
32.9565	484.04
32.9709	485.36
32.9854	480.06
32.9998	487.13
33.0142	478.76
33.0287	494.05
33.0431	525.39
33.0576	475.81
33.0720	497.49
33.0864	529.59
33.1009	493.61
33.1153	525.93
33.1298	518.24
33.1442	480.96
33.1586	476.56
33.1731	502.46
33.1875	514.63
33.2020	526.40
33.2164	544.98
33.2308	528.53
33.2453	499.12
33.2597	491.93
33.2742	493.54
33.2886	515.97
33.3030	496.06
33.3175	516.42
33.3319	561.60
33.3464	503.30
33.3608	475.21
33.3752	511.69
33.3897	484.62
33.4041	493.84
33.4186	501.23
33.4330	493.45
33.4474	529.15
33.4619	512.24
33.4763	494.96
33.4908	528.50
33.5052	484.28
33.5196	497.52
33.5341	495.08
33.5485	496.72
33.5630	492.03
33.5774	487.95
33.5918	477.13
33.6063	485.29
33.6207	508.66
33.6352	503.98
33.6496	530.30
33.6640	506.23
33.6785	474.86
33.6929	473.55
33.7074	516.31
33.7218	494.36
33.7362	487.15
33.7507	479.50
33.7651	494.93
33.7796	494.67
33.7940	480.07
33.8084	491.26
33.8229	501.30
33.8373	483.39
33.8518	526.20
33.8662	527.19
33.8806	490.75
33.8951	544.55
33.9095	527.22
33.9240	514.47
33.9384	492.08
33.9528	528.15
33.9673	508.51
33.9817	489.47
33.9962	484.13
34.0106	507.48
34.0250	527.77
34.0395	499.32
34.0539	522.65
34.0684	517.05
34.0828	504.70
34.0972	523.16
34.1117	498.50
34.1261	526.83
34.1406	490.33
34.1550	492.09
34.1694	492.39
34.1839	513.54
34.1983	487.84
34.2128	487.82
34.2272	489.94
34.2417	465.58
34.2561	528.95
34.2705	522.74
34.2850	490.17
34.2994	493.57
34.3139	513.49
34.3283	499.90
34.3427	505.75
34.3572	498.77
34.3716	516.15
34.3861	510.09
34.4005	510.94
34.4149	518.79
34.4294	527.53
34.4438	496.15
34.4583	493.49
34.4727	511.69
34.4871	520.91
34.5016	505.82
34.5160	521.67
34.5305	491.64
34.5449	496.42
34.5593	531.33
34.5738	499.07
34.5882	471.50
34.6027	493.29
34.6171	514.44
34.6315	536.99
34.6460	501.57
34.6604	487.64
34.6749	496.17
34.6893	504.93
34.7037	485.27
34.7182	515.04
34.7326	517.66
34.7471	495.15
34.7615	512.56
34.7759	519.62
34.7904	520.89
34.8048	512.93
34.8193	489.00
34.8337	513.31
34.8481	482.57
34.8626	521.94
34.8770	526.90
34.8915	519.81
34.9059	496.07
34.9203	458.06
34.9348	489.08
34.9492	519.93
34.9637	471.24
34.9781	496.38
34.9925	498.30
35.0070	507.39
35.0214	511.04
35.0359	492.62
35.0503	487.04
35.0647	489.12
35.0792	496.51
35.0936	536.98
35.1081	483.68
35.1225	495.67
35.1369	511.58
35.1514	493.33
35.1658	499.17
35.1803	501.94
35.1947	503.34
35.2091	522.39
35.2236	504.21
35.2380	488.03
35.2525	509.39
35.2669	513.38
35.2813	482.19
35.2958	471.79
35.3102	459.24
35.3247	489.12
35.3391	511.68
35.3535	514.46
35.3680	496.91
35.3824	519.85
35.3969	510.12
35.4113	514.39
35.4257	493.39
35.4402	503.33
35.4546	510.96
35.4691	571.51
35.4835	545.34
35.4979	523.93
35.5124	507.62
35.5268	563.57
35.5413	562.46
35.5557	536.01
35.5701	533.33
35.5846	547.60
35.5990	524.39
35.6135	497.95
35.6279	550.91
35.6423	525.43
35.6568	517.30
35.6712	498.02
35.6857	572.87
35.7001	656.49
35.7145	732.58
35.7290	706.54
35.7434	653.56
35.7579	600.91
35.7723	631.47
35.7867	679.37
35.8012	719.19
35.8156	754.90
35.8301	698.68
35.8445	702.87
35.8589	741.93
35.8734	790.48
35.8878	853.22
35.9023	1027.50
35.9167	1046.59
35.9311	1195.16
35.9456	1611.69
35.9600	2108.31
35.9745	2048.00
35.9889	2257.13
36.0033	2654.21
36.0178	3040.96
36.0322	3212.91
36.0467	2625.02
36.0611	2193.78
36.0755	2060.61
36.0900	2155.04
36.1044	1746.14
36.1189	1551.48
36.1333	1544.56
36.1477	1363.30
36.1622	1256.10
36.1766	1110.26
36.1911	965.98
36.2055	877.00
36.2199	852.37
36.2344	721.24
36.2488	702.44
36.2633	615.65
36.2777	574.34
36.2921	584.18
36.3066	569.16
36.3210	575.06
36.3355	577.27
36.3499	569.40
36.3643	556.22
36.3788	564.56
36.3932	528.03
36.4077	522.16
36.4221	562.95
36.4365	579.68
36.4510	540.75
36.4654	557.03
36.4799	558.13
36.4943	540.94
36.5087	536.74
36.5232	534.66
36.5376	558.64
36.5521	543.70
36.5665	548.13
36.5809	568.45
36.5954	525.90
36.6098	519.61
36.6243	545.72
36.6387	545.83
36.6531	507.96
36.6676	517.20
36.6820	536.54
36.6965	519.72
36.7109	508.00
36.7253	520.07
36.7398	540.27
36.7542	532.19
36.7687	509.77
36.7831	509.67
36.7975	522.14
36.8120	542.50
36.8264	579.53
36.8409	583.22
36.8553	590.64
36.8697	609.49
36.8842	604.36
36.8986	537.85
36.9131	553.45
36.9275	600.26
36.9419	639.47
36.9564	580.20
36.9708	573.19
36.9853	575.03
36.9997	543.54
37.0141	586.68
37.0286	556.83
37.0430	539.21
37.0575	524.20
37.0719	546.95
37.0863	515.98
37.1008	520.31
37.1152	523.66
37.1297	560.26
37.1441	513.04
37.1585	500.99
37.1730	541.57
37.1874	504.15
37.2019	513.15
37.2163	520.57
37.2307	477.71
37.2452	514.10
37.2596	483.86
37.2741	490.84
37.2885	507.21
37.3029	515.78
37.3174	495.23
37.3318	521.65
37.3463	528.23
37.3607	487.63
37.3751	515.78
37.3896	510.27
37.4040	513.11
37.4185	498.89
37.4329	531.59
37.4473	511.21
37.4618	512.07
37.4762	447.85
37.4907	512.87
37.5051	498.84
37.5195	481.85
37.5340	496.11
37.5484	522.30
37.5629	507.85
37.5773	548.32
37.5917	512.87
37.6062	468.73
37.6206	478.74
37.6351	486.14
37.6495	508.78
37.6639	523.28
37.6784	500.27
37.6928	521.67
37.7073	501.39
37.7217	467.97
37.7361	508.14
37.7506	520.87
37.7650	499.40
37.7795	501.41
37.7939	505.70
37.8083	512.69
37.8228	478.20
37.8372	516.03
37.8517	517.14
37.8661	508.97
37.8805	499.55
37.8950	478.02
37.9094	508.87
37.9239	489.22
37.9383	509.09
37.9528	493.41
37.9672	496.40
37.9816	496.10
37.9961	524.80
38.0105	538.20
38.0250	527.11
38.0394	523.35
38.0538	494.18
38.0683	499.06
38.0827	519.30
38.0972	528.49
38.1116	517.62
38.1260	475.20
38.1405	471.77
38.1549	505.25
38.1694	528.79
38.1838	500.25
38.1982	495.97
38.2127	521.74
38.2271	471.71
38.2416	482.26
38.2560	509.14
38.2704	492.09
38.2849	493.05
38.2993	485.21
38.3138	488.69
38.3282	526.34
38.3426	553.21
38.3571	540.76
38.3715	520.02
38.3860	526.29
38.4004	535.32
38.4148	549.39
38.4293	571.72
38.4437	566.40
38.4582	611.10
38.4726	647.32
38.4870	690.04
38.5015	733.04
38.5159	802.18
38.5304	810.15
38.5448	789.88
38.5592	794.85
38.5737	781.80
38.5881	743.81
38.6026	721.97
38.6170	716.72
38.6314	718.85
38.6459	679.00
38.6603	630.26
38.6748	575.82
38.6892	581.01
38.7036	571.12
38.7181	536.13
38.7325	525.85
38.7470	520.86
38.7614	476.01
38.7758	496.99
38.7903	526.25
38.8047	481.43
38.8192	508.89
38.8336	511.34
38.8480	498.02
38.8625	528.20
38.8769	530.99
38.8914	513.29
38.9058	512.81
38.9202	482.53
38.9347	506.08
38.9491	518.21
38.9636	524.25
38.9780	509.64
38.9924	509.44
39.0069	489.78
39.0213	488.58
39.0358	495.35
39.0502	487.66
39.0646	529.65
39.0791	517.11
39.0935	523.38
39.1080	484.35
39.1224	516.91
39.1368	518.09
39.1513	469.29
39.1657	497.12
39.1802	505.64
39.1946	498.92
39.2090	523.11
39.2235	495.05
39.2379	505.00
39.2524	518.95
39.2668	486.02
39.2812	514.84
39.2957	536.21
39.3101	512.74
39.3246	506.75
39.3390	520.56
39.3534	501.78
39.3679	540.50
39.3823	521.10
39.3968	503.52
39.4112	492.16
39.4256	532.95
39.4401	496.13
39.4545	499.71
39.4690	497.28
39.4834	516.42
39.4978	542.57
39.5123	493.21
39.5267	514.20
39.5412	501.53
39.5556	504.65
39.5700	510.90
39.5845	469.84
39.5989	476.63
39.6134	496.08
39.6278	496.70
39.6422	479.96
39.6567	482.55
39.6711	492.16
39.6856	491.01
39.7000	491.93
39.7144	476.45
39.7289	481.43
39.7433	486.46
39.7578	484.89
39.7722	490.54
39.7866	532.36
39.8011	504.57
39.8155	503.15
39.8300	507.52
39.8444	504.46
39.8588	502.23
39.8733	500.71
39.8877	510.34
39.9022	504.01
39.9166	518.40
39.9310	468.24
39.9455	519.27
39.9599	494.63
39.9744	493.56
39.9888	470.88
40.0032	471.08
40.0177	483.09
40.0321	503.66
40.0466	490.28
40.0610	511.88
40.0754	464.34
40.0899	523.52
40.1043	478.71
40.1188	495.23
40.1332	492.57
40.1476	500.10
40.1621	468.28
40.1765	474.69
40.1910	500.67
40.2054	510.73
40.2198	489.31
40.2343	493.69
40.2487	469.17
40.2632	490.79
40.2776	510.03
40.2920	478.22
40.3065	491.94
40.3209	514.34
40.3354	512.84
40.3498	493.52
40.3642	466.69
40.3787	462.71
40.3931	487.13
40.4076	506.61
40.4220	483.32
40.4364	499.76
40.4509	480.71
40.4653	491.23
40.4798	518.75
40.4942	494.72
40.5086	488.82
40.5231	499.49
40.5375	508.13
40.5520	518.84
40.5664	504.20
40.5808	523.80
40.5953	487.78
40.6097	483.13
40.6242	515.13
40.6386	513.91
40.6530	515.10
40.6675	487.50
40.6819	504.06
40.6964	489.66
40.7108	526.68
40.7252	494.03
40.7397	452.58
40.7541	460.23
40.7686	487.64
40.7830	516.76
40.7974	490.27
40.8119	526.28
40.8263	519.52
40.8408	515.04
40.8552	490.92
40.8696	524.48
40.8841	492.84
40.8985	487.10
40.9130	461.56
40.9274	505.19
40.9418	496.36
40.9563	469.14
40.9707	478.98
40.9852	475.80
40.9996	506.51
41.0140	505.01
41.0285	481.59
41.0429	497.16
41.0574	501.96
41.0718	524.79
41.0862	528.56
41.1007	477.00
41.1151	496.28
41.1296	502.02
41.1440	466.83
41.1584	448.23
41.1729	478.68
41.1873	455.47
41.2018	477.93
41.2162	478.19
41.2306	496.67
41.2451	495.92
41.2595	463.24
41.2740	467.65
41.2884	463.03
41.3028	477.78
41.3173	491.38
41.3317	489.18
41.3462	485.66
41.3606	515.25
41.3750	494.63
41.3895	471.43
41.4039	515.58
41.4184	495.41
41.4328	489.32
41.4472	491.80
41.4617	511.38
41.4761	517.03
41.4906	476.31
41.5050	499.43
41.5194	501.31
41.5339	497.67
41.5483	514.12
41.5628	488.47
41.5772	484.25
41.5916	495.04
41.6061	502.82
41.6205	511.09
41.6350	503.69
41.6494	493.85
41.6639	484.59
41.6783	471.48
41.6927	497.63
41.7072	533.87
41.7216	552.73
41.7361	484.57
41.7505	475.34
41.7649	486.11
41.7794	503.50
41.7938	471.68
41.8083	508.34
41.8227	477.24
41.8371	473.61
41.8516	525.11
41.8660	531.81
41.8805	551.30
41.8949	557.27
41.9093	567.96
41.9238	548.68
41.9382	521.10
41.9527	552.62
41.9671	528.27
41.9815	534.26
41.9960	548.79
42.0104	577.56
42.0249	583.21
42.0393	570.14
42.0537	558.90
42.0682	568.89
42.0826	573.95
42.0971	583.32
42.1115	600.41
42.1259	631.97
42.1404	578.81
42.1548	564.47
42.1693	623.45
42.1837	707.22
42.1981	724.16
42.2126	780.85
42.2270	952.94
42.2415	1107.69
42.2559	1202.96
42.2703	1328.96
42.2848	1481.09
42.2992	1661.86
42.3137	1673.57
42.3281	1680.14
42.3425	1647.78
42.3570	1485.00
42.3714	1462.15
42.3859	1378.90
42.4003	1307.54
42.4147	1352.17
42.4292	1283.05
42.4436	1151.17
42.4581	1072.85
42.4725	950.70
42.4869	823.59
42.5014	787.40
42.5158	723.49
42.5303	692.21
42.5447	645.51
42.5591	610.62
42.5736	610.18
42.5880	580.45
42.6025	582.33
42.6169	569.26
42.6313	565.86
42.6458	546.96
42.6602	525.13
42.6747	555.84
42.6891	523.82
42.7035	539.14
42.7180	537.41
42.7324	536.31
42.7469	510.72
42.7613	521.70
42.7757	529.78
42.7902	537.62
42.8046	544.23
42.8191	517.67
42.8335	499.83
42.8479	510.33
42.8624	526.51
42.8768	532.99
42.8913	529.26
42.9057	533.44
42.9201	475.72
42.9346	495.57
42.9490	531.48
42.9635	505.62
42.9779	514.43
42.9923	484.74
43.0068	474.17
43.0212	490.13
43.0357	510.95
43.0501	519.18
43.0645	496.04
43.0790	486.82
43.0934	499.69
43.1079	508.39
43.1223	530.36
43.1367	517.34
43.1512	499.84
43.1656	539.48
43.1801	476.52
43.1945	492.53
43.2089	515.74
43.2234	530.10
43.2378	528.65
43.2523	528.98
43.2667	525.55
43.2811	506.21
43.2956	483.20
43.3100	516.74
43.3245	518.14
43.3389	546.21
43.3533	509.05
43.3678	492.14
43.3822	512.35
43.3967	502.58
43.4111	505.41
43.4255	546.37
43.4400	502.65
43.4544	503.34
43.4689	520.59
43.4833	516.44
43.4977	527.45
43.5122	486.95
43.5266	499.15
43.5411	507.87
43.5555	506.40
43.5699	537.84
43.5844	509.94
43.5988	518.49
43.6133	536.87
43.6277	534.16
43.6421	530.14
43.6566	510.01
43.6710	513.51
43.6855	509.92
43.6999	525.67
43.7143	547.04
43.7288	560.93
43.7432	598.45
43.7577	626.18
43.7721	629.93
43.7865	632.86
43.8010	661.58
43.8154	668.28
43.8299	669.28
43.8443	662.44
43.8587	645.00
43.8732	622.26
43.8876	629.49
43.9021	611.35
43.9165	599.28
43.9309	631.24
43.9454	605.77
43.9598	546.62
43.9743	561.47
43.9887	507.75
44.0031	553.67
44.0176	522.15
44.0320	540.30
44.0465	517.42
44.0609	546.03
44.0753	511.30
44.0898	513.64
44.1042	508.37
44.1187	548.45
44.1331	550.96
44.1475	495.47
44.1620	523.39
44.1764	513.93
44.1909	515.17
44.2053	543.06
44.2197	538.43
44.2342	505.65
44.2486	504.96
44.2631	532.57
44.2775	509.73
44.2919	500.78
44.3064	530.65
44.3208	522.37
44.3353	499.07
44.3497	521.29
44.3641	563.42
44.3786	533.19
44.3930	553.13
44.4075	522.48
44.4219	563.00
44.4363	564.50
44.4508	564.24
44.4652	590.26
44.4797	572.93
44.4941	571.53
44.5085	555.41
44.5230	528.19
44.5374	573.27
44.5519	562.37
44.5663	539.53
44.5807	574.12
44.5952	567.53
44.6096	564.14
44.6241	556.95
44.6385	563.00
44.6529	592.60
44.6674	606.17
44.6818	610.35
44.6963	579.83
44.7107	629.62
44.7251	676.31
44.7396	740.82
44.7540	778.70
44.7685	880.77
44.7829	876.45
44.7973	828.17
44.8118	879.95
44.8262	825.01
44.8407	797.03
44.8551	738.54
44.8695	753.57
44.8840	720.50
44.8984	775.63
44.9129	755.31
44.9273	679.85
44.9417	694.87
44.9562	629.04
44.9706	649.20
44.9851	585.01
44.9995	561.23
45.0139	566.81
45.0284	516.58
45.0428	514.80
45.0573	553.51
45.0717	550.84
45.0861	524.84
45.1006	544.68
45.1150	502.81
45.1295	547.42
45.1439	503.20
45.1583	501.73
45.1728	495.33
45.1872	518.15
45.2017	465.25
45.2161	550.40
45.2305	500.95
45.2450	504.47
45.2594	478.63
45.2739	483.04
45.2883	488.04
45.3028	489.18
45.3172	484.78
45.3316	528.41
45.3461	477.23
45.3605	471.75
45.3750	472.27
45.3894	486.34
45.4038	529.62
45.4183	539.13
45.4327	511.34
45.4472	483.24
45.4616	478.57
45.4760	535.00
45.4905	527.90
45.5049	526.22
45.5194	495.43
45.5338	534.88
45.5482	492.30
45.5627	515.14
45.5771	493.29
45.5916	508.14
45.6060	524.77
45.6204	503.66
45.6349	514.08
45.6493	547.94
45.6638	536.62
45.6782	499.66
45.6926	503.49
45.7071	510.40
45.7215	474.32
45.7360	471.60
45.7504	529.86
45.7648	474.42
45.7793	483.53
45.7937	490.41
45.8082	496.91
45.8226	531.27
45.8370	521.73
45.8515	497.48
45.8659	506.20
45.8804	478.55
45.8948	501.23
45.9092	509.79
45.9237	470.55
45.9381	521.68
45.9526	509.48
45.9670	466.63
45.9814	470.84
45.9959	503.90
46.0103	489.68
46.0248	484.75
46.0392	503.41
46.0536	485.06
46.0681	498.24
46.0825	492.84
46.0970	468.21
46.1114	486.29
46.1258	520.45
46.1403	512.66
46.1547	462.95
46.1692	495.27
46.1836	471.74
46.1980	466.55
46.2125	506.02
46.2269	521.30
46.2414	498.30
46.2558	469.33
46.2702	493.78
46.2847	534.87
46.2991	486.25
46.3136	482.72
46.3280	507.27
46.3424	506.26
46.3569	486.46
46.3713	494.11
46.3858	518.26
46.4002	504.53
46.4146	473.67
46.4291	525.13
46.4435	499.53
46.4580	525.78
46.4724	495.27
46.4868	501.16
46.5013	493.85
46.5157	469.38
46.5302	508.33
46.5446	505.29
46.5590	497.88
46.5735	488.19
46.5879	486.44
46.6024	505.36
46.6168	501.55
46.6312	517.11
46.6457	514.48
46.6601	502.52
46.6746	506.18
46.6890	496.29
46.7034	519.79
46.7179	505.28
46.7323	502.74
46.7468	504.67
46.7612	472.45
46.7756	507.67
46.7901	501.16
46.8045	474.46
46.8190	512.10
46.8334	517.55
46.8478	521.01
46.8623	497.16
46.8767	484.25
46.8912	490.97
46.9056	522.74
46.9200	495.41
46.9345	525.84
46.9489	523.69
46.9634	512.09
46.9778	511.98
46.9922	507.20
47.0067	504.56
47.0211	521.14
47.0356	503.78
47.0500	505.71
47.0644	491.50
47.0789	475.66
47.0933	500.10
47.1078	502.26
47.1222	509.06
47.1366	489.10
47.1511	480.88
47.1655	512.58
47.1800	493.64
47.1944	512.90
47.2088	509.73
47.2233	514.04
47.2377	501.07
47.2522	527.44
47.2666	497.40
47.2810	482.55
47.2955	474.30
47.3099	490.10
47.3244	511.73
47.3388	515.83
47.3532	467.45
47.3677	446.74
47.3821	465.31
47.3966	481.04
47.4110	491.87
47.4254	472.74
47.4399	487.61
47.4543	479.31
47.4688	521.15
47.4832	510.36
47.4976	503.49
47.5121	507.37
47.5265	478.69
47.5410	503.33
47.5554	500.03
47.5698	507.48
47.5843	480.30
47.5987	519.99
47.6132	516.50
47.6276	515.49
47.6420	526.19
47.6565	518.40
47.6709	484.38
47.6854	515.20
47.6998	520.00
47.7142	493.25
47.7287	486.35
47.7431	474.19
47.7576	488.07
47.7720	518.71
47.7864	522.81
47.8009	505.57
47.8153	536.50
47.8298	532.84
47.8442	513.03
47.8586	480.56
47.8731	498.47
47.8875	479.62
47.9020	515.33
47.9164	483.81
47.9308	506.90
47.9453	518.92
47.9597	485.53
47.9742	501.39
47.9886	532.43
48.0030	505.29
48.0175	480.72
48.0319	521.04
48.0464	496.46
48.0608	496.27
48.0752	456.68
48.0897	459.61
48.1041	493.63
48.1186	504.29
48.1330	497.52
48.1474	467.51
48.1619	514.82
48.1763	525.65
48.1908	504.12
48.2052	477.79
48.2196	470.08
48.2341	547.42
48.2485	532.24
48.2630	493.04
48.2774	472.56
48.2918	519.23
48.3063	502.19
48.3207	521.30
48.3352	500.54
48.3496	476.11
48.3640	477.63
48.3785	513.62
48.3929	544.62
48.4074	500.38
48.4218	507.20
48.4362	551.59
48.4507	500.40
48.4651	492.30
48.4796	499.34
48.4940	515.44
48.5084	495.61
48.5229	500.42
48.5373	512.06
48.5518	492.75
48.5662	521.98
48.5806	477.95
48.5951	486.02
48.6095	520.32
48.6240	472.20
48.6384	506.68
48.6528	524.62
48.6673	504.78
48.6817	527.40
48.6962	498.43
48.7106	557.43
48.7250	532.33
48.7395	525.08
48.7539	555.41
48.7684	490.57
48.7828	521.74
48.7972	532.55
48.8117	543.35
48.8261	532.76
48.8406	554.63
48.8550	532.63
48.8694	496.60
48.8839	544.44
48.8983	567.82
48.9128	582.60
48.9272	527.70
48.9416	504.22
48.9561	521.90
48.9705	539.30
48.9850	556.85
48.9994	587.87
49.0139	574.47
49.0283	595.77
49.0427	617.42
49.0572	618.47
49.0716	659.96
49.0861	667.05
49.1005	673.43
49.1149	694.94
49.1294	749.10
49.1438	728.00
49.1583	806.25
49.1727	843.26
49.1871	888.28
49.2016	975.66
49.2160	1031.60
49.2305	1147.18
49.2449	1267.56
49.2593	1260.44
49.2738	1371.37
49.2882	1518.64
49.3027	1606.39
49.3171	1665.48
49.3315	1719.84
49.3460	1727.92
49.3604	1837.10
49.3749	1789.61
49.3893	1796.97
49.4037	1801.06
49.4182	1794.23
49.4326	1795.53
49.4471	1699.61
49.4615	1682.18
49.4759	1631.87
49.4904	1533.93
49.5048	1417.26
49.5193	1391.06
49.5337	1275.34
49.5481	1185.78
49.5626	1124.65
49.5770	1025.37
49.5915	940.22
49.6059	912.01
49.6203	888.99
49.6348	840.38
49.6492	790.05
49.6637	730.39
49.6781	717.99
49.6925	701.30
49.7070	705.32
49.7214	627.37
49.7359	562.98
49.7503	597.22
49.7647	619.27
49.7792	633.96
49.7936	571.24
49.8081	573.20
49.8225	557.50
49.8369	549.87
49.8514	549.97
49.8658	554.26
49.8803	579.03
49.8947	540.80
49.9091	537.52
49.9236	538.91
49.9380	524.03
49.9525	510.60
49.9669	519.74
49.9813	563.26
49.9958	535.84
50.0102	515.67
50.0247	508.43
50.0391	522.43
50.0535	497.27
50.0680	541.59
50.0824	533.52
50.0969	518.09
50.1113	542.42
50.1257	541.64
50.1402	557.15
50.1546	535.56
50.1691	542.96
50.1835	512.38
50.1979	481.53
50.2124	477.11
50.2268	518.01
50.2413	512.81
50.2557	525.13
50.2701	498.33
50.2846	501.75
50.2990	503.49
50.3135	520.53
50.3279	492.52
50.3423	509.78
50.3568	524.54
50.3712	549.89
50.3857	510.51
50.4001	488.52
50.4145	500.10
50.4290	545.17
50.4434	526.59
50.4579	492.70
50.4723	530.80
50.4867	532.56
50.5012	518.77
50.5156	513.10
50.5301	500.00
50.5445	511.57
50.5589	518.64
50.5734	500.55
50.5878	508.11
50.6023	494.63
50.6167	497.67
50.6311	500.13
50.6456	507.79
50.6600	507.80
50.6745	489.61
50.6889	490.66
50.7033	521.49
50.7178	482.50
50.7322	459.00
50.7467	500.51
50.7611	492.32
50.7755	516.36
50.7900	526.10
50.8044	510.52
50.8189	517.64
50.8333	502.50
50.8477	510.67
50.8622	488.59
50.8766	489.34
50.8911	508.68
50.9055	495.63
50.9199	501.59
50.9344	516.14
50.9488	523.73
50.9633	506.50
50.9777	487.91
50.9921	523.46
51.0066	509.35
51.0210	485.21
51.0355	497.32
51.0499	474.12
51.0643	499.41
51.0788	515.68
51.0932	533.81
51.1077	521.16
51.1221	517.72
51.1365	485.56
51.1510	488.10
51.1654	500.18
51.1799	496.35
51.1943	470.91
51.2087	468.18
51.2232	500.18
51.2376	513.36
51.2521	488.54
51.2665	503.69
51.2809	509.93
51.2954	494.74
51.3098	498.50
51.3243	513.51
51.3387	518.34
51.3531	524.46
51.3676	519.51
51.3820	514.88
51.3965	513.97
51.4109	491.60
51.4253	491.85
51.4398	496.87
51.4542	491.67
51.4687	535.60
51.4831	518.57
51.4975	501.56
51.5120	503.39
51.5264	526.02
51.5409	496.48
51.5553	498.31
51.5697	520.07
51.5842	500.40
51.5986	512.58
51.6131	510.81
51.6275	537.62
51.6419	499.56
51.6564	512.60
51.6708	510.31
51.6853	492.57
51.6997	532.08
51.7141	547.27
51.7286	527.50
51.7430	524.29
51.7575	486.63
51.7719	499.98
51.7863	506.32
51.8008	485.40
51.8152	497.10
51.8297	474.99
51.8441	501.55
51.8585	544.13
51.8730	523.13
51.8874	494.57
51.9019	523.59
51.9163	497.30
51.9307	538.42
51.9452	505.84
51.9596	470.98
51.9741	506.38
51.9885	526.14
52.0029	481.92
52.0174	498.82
52.0318	490.96
52.0463	491.14
52.0607	538.23
52.0751	517.21
52.0896	510.94
52.1040	484.28
52.1185	530.02
52.1329	511.60
52.1473	507.17
52.1618	486.85
52.1762	509.84
52.1907	521.22
52.2051	534.09
52.2195	530.17
52.2340	513.26
52.2484	506.01
52.2629	496.95
52.2773	516.02
52.2917	512.01
52.3062	506.78
52.3206	479.43
52.3351	504.32
52.3495	528.73
52.3639	522.27
52.3784	525.67
52.3928	535.30
52.4073	492.31
52.4217	523.75
52.4361	544.79
52.4506	523.39
52.4650	494.97
52.4795	486.64
52.4939	500.19
52.5083	513.69
52.5228	505.10
52.5372	502.61
52.5517	515.48
52.5661	532.67
52.5805	516.95
52.5950	563.60
52.6094	538.02
52.6239	508.42
52.6383	493.59
52.6527	505.36
52.6672	499.48
52.6816	498.49
52.6961	512.38
52.7105	530.47
52.7250	535.28
52.7394	497.84
52.7538	492.55
52.7683	486.26
52.7827	491.59
52.7972	507.09
52.8116	513.42
52.8260	493.01
52.8405	508.28
52.8549	505.90
52.8694	498.79
52.8838	511.27
52.8982	516.72
52.9127	534.98
52.9271	482.23
52.9416	530.92
52.9560	497.75
52.9704	469.12
52.9849	492.38
52.9993	514.84
53.0138	543.76
53.0282	520.35
53.0426	493.90
53.0571	486.32
53.0715	506.20
53.0860	558.16
53.1004	478.09
53.1148	519.27
53.1293	510.64
53.1437	508.85
53.1582	519.70
53.1726	515.66
53.1870	507.87
53.2015	470.35
53.2159	468.74
53.2304	495.91
53.2448	505.00
53.2592	519.28
53.2737	480.57
53.2881	459.28
53.3026	504.91
53.3170	506.30
53.3314	522.64
53.3459	535.39
53.3603	504.20
53.3748	497.76
53.3892	521.28
53.4036	510.09
53.4181	521.15
53.4325	538.06
53.4470	486.68
53.4614	467.67
53.4758	533.92
53.4903	514.81
53.5047	508.31
53.5192	515.49
53.5336	515.51
53.5480	512.83
53.5625	502.49
53.5769	510.54
53.5914	507.44
53.6058	507.46
53.6202	506.16
53.6347	524.50
53.6491	487.05
53.6636	493.69
53.6780	499.45
53.6924	509.03
53.7069	507.39
53.7213	496.35
53.7358	471.14
53.7502	524.64
53.7646	474.23
53.7791	491.45
53.7935	480.63
53.8080	502.05
53.8224	493.65
53.8368	526.96
53.8513	495.15
53.8657	519.44
53.8802	527.97
53.8946	535.56
53.9090	519.70
53.9235	503.00
53.9379	522.52
53.9524	528.16
53.9668	527.70
53.9812	522.01
53.9957	504.45
54.0101	539.87
54.0246	544.99
54.0390	524.99
54.0534	522.13
54.0679	518.00
54.0823	510.21
54.0968	551.18
54.1112	534.18
54.1256	563.85
54.1401	522.52
54.1545	500.93
54.1690	562.51
54.1834	555.67
54.1978	535.74
54.2123	536.16
54.2267	576.78
54.2412	593.36
54.2556	560.45
54.2700	579.78
54.2845	577.55
54.2989	582.24
54.3134	595.63
54.3278	626.14
54.3422	614.35
54.3567	629.13
54.3711	598.93
54.3856	608.89
54.4000	612.77
54.4144	603.75
54.4289	618.85
54.4433	575.33
54.4578	587.09
54.4722	609.95
54.4866	604.99
54.5011	601.46
54.5155	594.42
54.5300	578.47
54.5444	591.82
54.5588	552.57
54.5733	541.35
54.5877	496.49
54.6022	529.53
54.6166	534.20
54.6310	548.70
54.6455	536.59
54.6599	537.99
54.6744	523.20
54.6888	516.51
54.7032	539.32
54.7177	563.55
54.7321	510.47
54.7466	479.28
54.7610	491.58
54.7754	508.66
54.7899	519.40
54.8043	530.76
54.8188	511.89
54.8332	542.94
54.8476	546.37
54.8621	535.00
54.8765	533.51
54.8910	523.01
54.9054	529.83
54.9198	529.71
54.9343	517.43
54.9487	546.24
54.9632	511.15
54.9776	535.80
54.9920	505.14
55.0065	492.81
55.0209	503.80
55.0354	510.39
55.0498	500.05
55.0642	493.29
55.0787	518.85
55.0931	531.83
55.1076	509.05
55.1220	527.19
55.1364	531.27
55.1509	486.09
55.1653	518.77
55.1798	511.45
55.1942	502.24
55.2086	496.93
55.2231	478.73
55.2375	519.38
55.2520	519.08
55.2664	534.41
55.2808	534.54
55.2953	491.53
55.3097	541.18
55.3242	526.04
55.3386	529.09
55.3530	535.74
55.3675	539.15
55.3819	534.10
55.3964	524.30
55.4108	508.26
55.4252	531.14
55.4397	506.22
55.4541	492.38
55.4686	473.91
55.4830	489.97
55.4974	493.90
55.5119	525.24
55.5263	548.39
55.5408	526.70
55.5552	508.90
55.5696	510.57
55.5841	526.42
55.5985	520.81
55.6130	545.57
55.6274	529.75
55.6418	518.52
55.6563	527.91
55.6707	539.67
55.6852	522.56
55.6996	554.90
55.7140	549.48
55.7285	527.91
55.7429	508.76
55.7574	496.74
55.7718	504.28
55.7862	508.10
55.8007	555.06
55.8151	537.62
55.8296	532.29
55.8440	506.73
55.8584	523.64
55.8729	507.60
55.8873	493.39
55.9018	548.31
55.9162	534.44
55.9306	548.36
55.9451	496.13
55.9595	488.60
55.9740	522.30
55.9884	494.36
56.0028	502.46
56.0173	497.00
56.0317	506.40
56.0462	550.15
56.0606	570.99
56.0750	530.71
56.0895	541.36
56.1039	535.56
56.1184	535.17
56.1328	540.25
56.1472	500.86
56.1617	542.35
56.1761	496.40
56.1906	540.97
56.2050	531.46
56.2194	499.02
56.2339	520.55
56.2483	556.86
56.2628	525.45
56.2772	517.32
56.2916	506.47
56.3061	514.56
56.3205	516.72
56.3350	507.62
56.3494	533.05
56.3639	523.98
56.3783	533.25
56.3927	500.48
56.4072	515.00
56.4216	510.86
56.4361	506.98
56.4505	510.92
56.4649	517.74
56.4794	515.55
56.4938	504.69
56.5083	545.02
56.5227	494.30
56.5371	502.97
56.5516	513.16
56.5660	533.21
56.5805	533.08
56.5949	527.43
56.6093	460.51
56.6238	505.07
56.6382	495.15
56.6527	496.08
56.6671	527.61
56.6815	531.65
56.6960	514.14
56.7104	520.40
56.7249	496.44
56.7393	480.54
56.7537	523.41
56.7682	502.37
56.7826	505.58
56.7971	568.70
56.8115	542.68
56.8259	505.64
56.8404	488.11
56.8548	480.07
56.8693	497.53
56.8837	490.57
56.8981	585.69
56.9126	465.16
56.9270	521.47
56.9415	483.10
56.9559	469.18
56.9703	528.54
56.9848	536.73
56.9992	512.36
57.0137	512.75
57.0281	504.11
57.0425	514.93
57.0570	500.65
57.0714	526.13
57.0859	561.83
57.1003	538.96
57.1147	522.03
57.1292	506.44
57.1436	498.37
57.1581	488.48
57.1725	541.33
57.1869	503.34
57.2014	506.74
57.2158	517.33
57.2303	508.11
57.2447	507.70
57.2591	518.36
57.2736	503.51
57.2880	512.78
57.3025	506.17
57.3169	508.84
57.3313	537.10
57.3458	552.96
57.3602	526.60
57.3747	521.22
57.3891	502.63
57.4035	484.26
57.4180	515.81
57.4324	521.83
57.4469	510.46
57.4613	492.27
57.4757	546.33
57.4902	533.10
57.5046	508.61
57.5191	515.90
57.5335	532.29
57.5479	562.55
57.5624	520.89
57.5768	514.09
57.5913	515.79
57.6057	515.60
57.6201	524.87
57.6346	536.09
57.6490	523.80
57.6635	534.67
57.6779	528.63
57.6923	519.09
57.7068	510.43
57.7212	519.28
57.7357	529.40
57.7501	545.06
57.7645	542.40
57.7790	564.02
57.7934	560.68
57.8079	514.20
57.8223	561.52
57.8367	577.66
57.8512	613.33
57.8656	637.38
57.8801	641.11
57.8945	647.16
57.9089	714.73
57.9234	734.71
57.9378	703.02
57.9523	690.30
57.9667	710.62
57.9811	683.50
57.9956	666.64
58.0100	656.82
58.0245	642.97
58.0389	647.59
58.0533	697.71
58.0678	704.98
58.0822	645.41
58.0967	631.21
58.1111	657.73
58.1255	666.90
58.1400	627.74
58.1544	609.03
58.1689	593.98
58.1833	610.48
58.1977	584.58
58.2122	597.11
58.2266	576.10
58.2411	587.31
58.2555	575.99
58.2699	584.75
58.2844	563.65
58.2988	588.38
58.3133	576.00
58.3277	579.22
58.3421	576.36
58.3566	565.47
58.3710	566.54
58.3855	554.17
58.3999	542.52
58.4143	531.41
58.4288	559.71
58.4432	522.20
58.4577	558.36
58.4721	561.90
58.4865	522.34
58.5010	512.33
58.5154	540.35
58.5299	517.61
58.5443	501.93
58.5587	559.11
58.5732	538.84
58.5876	536.71
58.6021	534.00
58.6165	521.98
58.6309	520.16
58.6454	533.01
58.6598	520.76
58.6743	518.23
58.6887	511.83
58.7031	500.81
58.7176	491.51
58.7320	531.12
58.7465	539.04
58.7609	524.63
58.7753	502.26
58.7898	517.05
58.8042	543.47
58.8187	549.49
58.8331	545.09
58.8475	553.65
58.8620	555.31
58.8764	538.17
58.8909	545.04
58.9053	568.56
58.9197	528.13
58.9342	522.77
58.9486	521.99
58.9631	527.64
58.9775	522.20
58.9919	530.10
59.0064	537.60
59.0208	530.82
59.0353	515.73
59.0497	515.60
59.0641	496.22
59.0786	514.98
59.0930	547.88
59.1075	538.10
59.1219	573.90
59.1363	544.07
59.1508	505.48
59.1652	513.19
59.1797	529.11
59.1941	506.91
59.2085	520.23
59.2230	557.30
59.2374	555.10
59.2519	532.41
59.2663	557.70
59.2807	558.00
59.2952	536.34
59.3096	538.80
59.3241	550.98
59.3385	586.58
59.3529	586.72
59.3674	554.27
59.3818	546.62
59.3963	556.82
59.4107	575.58
59.4251	585.64
59.4396	590.79
59.4540	585.58
59.4685	573.39
59.4829	544.83
59.4973	562.11
59.5118	536.51
59.5262	531.33
59.5407	554.97
59.5551	584.76
59.5695	550.19
59.5840	527.43
59.5984	548.67
59.6129	546.23
59.6273	523.82
59.6417	503.52
59.6562	547.98
59.6706	525.82
59.6851	496.36
59.6995	539.57
59.7139	574.66
59.7284	557.82
59.7428	545.22
59.7573	566.65
59.7717	538.15
59.7861	534.58
59.8006	519.72
59.8150	528.89
59.8295	535.63
59.8439	512.72
59.8583	548.95
59.8728	531.11
59.8872	543.69
59.9017	551.90
59.9161	533.05
59.9305	507.53
59.9450	548.56
59.9594	503.69
59.9739	520.37
59.9883	558.66
60.0027	527.49
60.0172	542.41
60.0316	551.65
60.0461	536.91
60.0605	513.42
60.0750	534.83
60.0894	555.99
60.1038	550.44
60.1183	556.18
60.1327	561.16
60.1472	497.69
60.1616	535.99
60.1760	522.38
60.1905	507.58
60.2049	521.76
60.2194	548.51
60.2338	545.73
60.2482	554.47
60.2627	579.05
60.2771	533.66
60.2916	567.93
60.3060	517.40
60.3204	526.79
60.3349	515.91
60.3493	539.15
60.3638	539.04
60.3782	525.96
60.3926	529.13
60.4071	546.32
60.4215	526.79
60.4360	555.04
60.4504	504.14
60.4648	551.66
60.4793	556.81
60.4937	548.66
60.5082	494.21
60.5226	494.92
60.5370	532.86
60.5515	512.10
60.5659	548.04
60.5804	508.12
60.5948	536.66
60.6092	573.18
60.6237	499.10
60.6381	519.90
60.6526	519.11
60.6670	557.38
60.6814	510.19
60.6959	554.82
60.7103	546.21
60.7248	525.29
60.7392	544.66
60.7536	552.18
60.7681	503.08
60.7825	534.38
60.7970	534.47
60.8114	540.44
60.8258	546.19
60.8403	548.87
60.8547	508.68
60.8692	512.29
60.8836	526.55
60.8980	559.13
60.9125	558.53
60.9269	534.33
60.9414	548.63
60.9558	533.46
60.9702	503.38
60.9847	537.05
60.9991	531.90
61.0136	547.92
61.0280	555.66
61.0424	541.12
61.0569	615.54
61.0713	561.27
61.0858	553.49
61.1002	548.32
61.1146	540.01
61.1291	545.73
61.1435	518.40
61.1580	507.68
61.1724	544.68
61.1868	562.27
61.2013	537.59
61.2157	524.25
61.2302	535.53
61.2446	550.34
61.2590	520.77
61.2735	556.52
61.2879	531.05
61.3024	544.06
61.3168	531.42
61.3312	572.62
61.3457	578.67
61.3601	569.17
61.3746	509.92
61.3890	516.12
61.4034	503.18
61.4179	526.08
61.4323	539.95
61.4468	519.10
61.4612	542.85
61.4756	561.89
61.4901	534.06
61.5045	511.32
61.5190	541.20
61.5334	525.14
61.5478	526.46
61.5623	551.64
61.5767	521.78
61.5912	507.66
61.6056	549.37
61.6200	511.26
61.6345	538.44
61.6489	561.22
61.6634	523.62
61.6778	522.89
61.6922	530.27
61.7067	561.97
61.7211	587.12
61.7356	513.16
61.7500	506.63
61.7644	531.40
61.7789	578.28
61.7933	577.76
61.8078	589.49
61.8222	551.72
61.8366	511.60
61.8511	524.31
61.8655	547.38
61.8800	515.17
61.8944	539.56
61.9088	544.09
61.9233	527.34
61.9377	594.22
61.9522	580.99
61.9666	575.73
61.9810	558.75
61.9955	549.64
62.0099	512.79
62.0244	520.26
62.0388	566.44
62.0532	514.10
62.0677	528.04
62.0821	563.52
62.0966	540.47
62.1110	531.56
62.1254	568.46
62.1399	529.60
62.1543	534.92
62.1688	560.87
62.1832	522.20
62.1976	525.38
62.2121	545.40
62.2265	540.09
62.2410	546.69
62.2554	544.71
62.2698	534.28
62.2843	534.54
62.2987	558.99
62.3132	569.83
62.3276	584.07
62.3420	552.45
62.3565	568.08
62.3709	536.93
62.3854	541.51
62.3998	542.34
62.4142	539.39
62.4287	544.67
62.4431	520.10
62.4576	549.74
62.4720	582.79
62.4864	542.89
62.5009	517.05
62.5153	520.19
62.5298	531.33
62.5442	541.49
62.5586	557.40
62.5731	540.59
62.5875	533.04
62.6020	543.65
62.6164	540.37
62.6308	580.95
62.6453	567.77
62.6597	539.92
62.6742	516.27
62.6886	545.07
62.7030	558.85
62.7175	556.30
62.7319	520.83
62.7464	545.23
62.7608	556.50
62.7752	565.33
62.7897	580.48
62.8041	571.79
62.8186	576.76
62.8330	558.91
62.8474	527.49
62.8619	566.09
62.8763	567.27
62.8908	557.79
62.9052	574.83
62.9196	589.92
62.9341	574.49
62.9485	572.79
62.9630	545.77
62.9774	554.28
62.9918	557.60
63.0063	576.04
63.0207	574.32
63.0352	564.19
63.0496	535.15
63.0640	574.73
63.0785	571.23
63.0929	583.95
63.1074	559.35
63.1218	550.42
63.1362	595.26
63.1507	574.84
63.1651	580.34
63.1796	572.03
63.1940	570.47
63.2084	565.41
63.2229	569.98
63.2373	563.85
63.2518	571.78
63.2662	552.91
63.2806	588.30
63.2951	578.07
63.3095	629.96
63.3240	599.53
63.3384	612.06
63.3528	569.69
63.3673	575.73
63.3817	598.04
63.3962	557.42
63.4106	588.34
63.4250	627.74
63.4395	610.78
63.4539	606.95
63.4684	627.09
63.4828	678.88
63.4972	679.20
63.5117	672.48
63.5261	678.42
63.5406	677.08
63.5550	699.01
63.5694	787.26
63.5839	794.61
63.5983	789.65
63.6128	820.39
63.6272	833.80
63.6416	838.19
63.6561	842.06
63.6705	856.94
63.6850	857.58
63.6994	856.72
63.7138	905.89
63.7283	864.78
63.7427	808.14
63.7572	837.13
63.7716	845.03
63.7861	820.18
63.8005	752.45
63.8149	770.89
63.8294	782.58
63.8438	769.61
63.8583	764.35
63.8727	734.71
63.8871	710.48
63.9016	746.40
63.9160	696.12
63.9305	688.25
63.9449	652.20
63.9593	616.58
63.9738	632.17
63.9882	623.68
64.0027	676.04
64.0171	665.57
64.0315	606.98
64.0460	642.29
64.0604	629.60
64.0749	621.44
64.0893	640.68
64.1037	628.05
64.1182	630.38
64.1326	637.61
64.1471	583.81
64.1615	603.45
64.1759	610.79
64.1904	592.55
64.2048	609.18
64.2193	618.30
64.2337	620.91
64.2481	582.10
64.2626	607.48
64.2770	629.32
64.2915	599.76
64.3059	625.77
64.3203	601.10
64.3348	596.82
64.3492	625.41
64.3637	610.75
64.3781	608.73
64.3925	616.45
64.4070	614.92
64.4214	623.79
64.4359	636.77
64.4503	602.40
64.4647	583.44
64.4792	608.25
64.4936	616.04
64.5081	640.69
64.5225	613.64
64.5369	626.23
64.5514	610.11
64.5658	632.13
64.5803	595.21
64.5947	591.36
64.6091	621.51
64.6236	633.26
64.6380	655.30
64.6525	637.04
64.6669	707.33
64.6813	678.91
64.6958	673.39
64.7102	721.82
64.7247	645.14
64.7391	638.49
64.7535	715.95
64.7680	673.82
64.7824	712.78
64.7969	727.05
64.8113	761.85
64.8257	746.58
64.8402	773.52
64.8546	800.93
64.8691	809.44
64.8835	831.92
64.8979	849.32
64.9124	828.37
64.9268	835.07
64.9413	933.79
64.9557	918.02
64.9701	924.67
64.9846	1034.46
64.9990	1105.01
65.0135	1240.69
65.0279	1393.12
65.0423	1646.81
65.0568	2018.63
65.0712	2532.35
65.0857	3171.66
65.1001	4187.39
65.1145	5658.88
65.1290	7509.79
65.1434	9015.14
65.1579	10650.55
65.1723	11598.18
65.1867	11220.79
65.2012	9902.23
65.2156	8397.47
65.2301	6630.36
65.2445	5343.35
65.2589	4468.67
65.2734	4127.97
65.2878	4221.06
65.3023	4724.48
65.3167	5579.11
65.3311	6401.27
65.3456	7005.17
65.3600	6971.51
65.3745	6409.69
65.3889	5489.47
65.4033	4459.76
65.4178	3499.86
65.4322	2833.35
65.4467	2154.84
65.4611	1777.47
65.4755	1471.09
65.4900	1250.82
65.5044	1181.72
65.5189	1079.58
65.5333	1038.09
65.5477	979.51
65.5622	882.27
65.5766	823.54
65.5911	819.41
65.6055	809.97
65.6199	761.82
65.6344	760.43
65.6488	730.82
65.6633	728.65
65.6777	703.48
65.6921	656.35
65.7066	728.52
65.7210	691.40
65.7355	651.11
65.7499	687.37
65.7643	680.87
65.7788	659.58
65.7932	668.39
65.8077	645.86
65.8221	661.86
65.8365	625.81
65.8510	641.16
65.8654	629.22
65.8799	633.30
65.8943	643.81
65.9087	574.89
65.9232	650.56
65.9376	661.62
65.9521	622.11
65.9665	595.13
65.9809	633.36
65.9954	634.53
66.0098	612.17
66.0243	632.99
66.0387	617.87
66.0531	613.30
66.0676	599.03
66.0820	596.05
66.0965	634.55
66.1109	624.55
66.1253	630.92
66.1398	584.75
66.1542	609.92
66.1687	609.64
66.1831	588.32
66.1975	582.26
66.2120	625.44
66.2264	571.71
66.2409	606.71
66.2553	643.57
66.2697	612.88
66.2842	623.79
66.2986	627.68
66.3131	607.14
66.3275	591.87
66.3419	646.58
66.3564	614.50
66.3708	598.50
66.3853	596.23
66.3997	579.86
66.4141	581.73
66.4286	616.02
66.4430	577.57
66.4575	570.30
66.4719	630.06
66.4863	623.92
66.5008	564.38
66.5152	596.37
66.5297	608.70
66.5441	584.43
66.5585	594.85
66.5730	598.04
66.5874	587.82
66.6019	628.96
66.6163	592.71
66.6307	591.23
66.6452	592.11
66.6596	612.82
66.6741	606.99
66.6885	581.44
66.7029	604.77
66.7174	581.55
66.7318	543.96
66.7463	575.21
66.7607	600.46
66.7751	605.82
66.7896	582.09
66.8040	578.50
66.8185	608.88
66.8329	615.79
66.8473	583.07
66.8618	595.66
66.8762	585.56
66.8907	556.10
66.9051	569.11
66.9195	587.54
66.9340	593.61
66.9484	610.21
66.9629	546.13
66.9773	550.93
66.9917	597.20
67.0062	589.05
67.0206	579.81
67.0351	572.41
67.0495	569.61
67.0639	576.31
67.0784	593.54
67.0928	589.62
67.1073	583.30
67.1217	610.34
67.1361	574.73
67.1506	543.15
67.1650	584.92
67.1795	602.40
67.1939	607.50
67.2083	604.45
67.2228	560.58
67.2372	569.61
67.2517	560.28
67.2661	598.10
67.2805	597.00
67.2950	587.67
67.3094	586.97
67.3239	569.69
67.3383	605.94
67.3527	590.87
67.3672	546.71
67.3816	547.22
67.3961	562.42
67.4105	580.16
67.4250	596.62
67.4394	559.81
67.4538	549.40
67.4683	570.51
67.4827	593.59
67.4972	584.50
67.5116	602.38
67.5260	609.19
67.5405	596.20
67.5549	603.29
67.5694	588.12
67.5838	549.07
67.5982	557.31
67.6127	566.21
67.6271	580.13
67.6416	582.41
67.6560	586.30
67.6704	559.30
67.6849	536.52
67.6993	531.44
67.7138	567.84
67.7282	568.26
67.7426	554.82
67.7571	578.07
67.7715	531.25
67.7860	565.91
67.8004	561.68
67.8148	561.15
67.8293	574.10
67.8437	576.36
67.8582	590.97
67.8726	543.16
67.8870	566.53
67.9015	562.04
67.9159	588.11
67.9304	567.04
67.9448	585.13
67.9592	601.12
67.9737	621.05
67.9881	554.71
68.0026	566.42
68.0170	598.60
68.0314	579.61
68.0459	581.87
68.0603	594.82
68.0748	580.95
68.0892	604.05
68.1036	559.99
68.1181	567.25
68.1325	574.13
68.1470	584.64
68.1614	564.06
68.1758	559.41
68.1903	574.00
68.2047	592.20
68.2192	596.84
68.2336	589.71
68.2480	630.37
68.2625	585.24
68.2769	568.01
68.2914	588.83
68.3058	558.38
68.3202	574.17
68.3347	565.41
68.3491	524.79
68.3636	541.17
68.3780	603.46
68.3924	614.96
68.4069	562.48
68.4213	521.91
68.4358	609.52
68.4502	508.57
68.4646	551.23
68.4791	559.18
68.4935	590.36
68.5080	577.04
68.5224	504.77
68.5368	603.27
68.5513	543.73
68.5657	544.02
68.5802	576.20
68.5946	565.12
68.6090	571.55
68.6235	553.11
68.6379	573.07
68.6524	542.15
68.6668	532.15
68.6812	571.86
68.6957	561.08
68.7101	609.59
68.7246	589.16
68.7390	577.21
68.7534	555.63
68.7679	587.00
68.7823	601.14
68.7968	600.23
68.8112	586.86
68.8256	577.70
68.8401	573.12
68.8545	565.74
68.8690	579.75
68.8834	571.59
68.8978	614.03
68.9123	571.45
68.9267	571.01
68.9412	581.63
68.9556	560.15
68.9700	529.98
68.9845	507.42
68.9989	570.34
69.0134	568.82
69.0278	565.24
69.0422	592.76
69.0567	593.63
69.0711	538.86
69.0856	581.20
69.1000	586.10
69.1144	558.92
69.1289	571.56
69.1433	558.75
69.1578	521.02
69.1722	604.90
69.1866	577.67
69.2011	558.70
69.2155	570.08
69.2300	593.47
69.2444	594.45
69.2588	587.07
69.2733	565.56
69.2877	602.59
69.3022	591.54
69.3166	549.01
69.3310	576.22
69.3455	606.38
69.3599	593.85
69.3744	571.22
69.3888	643.51
69.4032	621.93
69.4177	595.62
69.4321	589.42
69.4466	555.76
69.4610	620.01
69.4754	591.39
69.4899	621.39
69.5043	583.92
69.5188	560.99
69.5332	601.01
69.5476	563.48
69.5621	558.51
69.5765	584.74
69.5910	571.27
69.6054	538.57
69.6198	556.84
69.6343	525.53
69.6487	583.26
69.6632	594.02
69.6776	574.82
69.6920	559.26
69.7065	587.30
69.7209	581.09
69.7354	559.10
69.7498	575.71
69.7642	529.12
69.7787	565.49
69.7931	543.78
69.8076	541.55
69.8220	527.53
69.8364	607.16
69.8509	579.02
69.8653	545.33
69.8798	514.44
69.8942	552.34
69.9086	589.09
69.9231	613.33
69.9375	589.54
69.9520	626.98
69.9664	567.64
69.9808	587.70
69.9953	556.76
70.0097	548.51
70.0242	572.21
70.0386	561.59
70.0530	575.33
70.0675	514.36
70.0819	582.22
70.0964	645.49
70.1108	601.45
70.1252	618.26
70.1397	590.42
70.1541	557.42
70.1686	610.26
70.1830	601.51
70.1974	607.93
70.2119	608.58
70.2263	596.58
70.2408	559.83
70.2552	580.81
70.2696	544.56
70.2841	521.91
70.2985	557.53
70.3130	625.16
70.3274	628.69
70.3418	573.56
70.3563	539.85
70.3707	571.59
70.3852	566.62
70.3996	553.12
70.4140	595.30
70.4285	626.28
70.4429	591.66
70.4574	549.23
70.4718	566.23
70.4862	605.00
70.5007	585.75
70.5151	585.53
70.5296	551.28
70.5440	565.02
70.5584	547.22
70.5729	516.06
70.5873	582.11
70.6018	560.34
70.6162	577.14
70.6306	565.31
70.6451	561.47
70.6595	581.22
70.6740	560.18
70.6884	553.45
70.7028	631.94
70.7173	589.14
70.7317	550.34
70.7462	590.36
70.7606	605.56
70.7750	581.90
70.7895	592.34
70.8039	568.53
70.8184	593.88
70.8328	603.16
70.8472	519.90
70.8617	549.54
70.8761	569.90
70.8906	556.78
70.9050	537.24
70.9194	551.35
70.9339	603.44
70.9483	636.87
70.9628	593.27
70.9772	577.75
70.9916	576.64
71.0061	554.25
71.0205	568.87
71.0350	552.32
71.0494	592.90
71.0638	609.20
71.0783	575.26
71.0927	583.71
71.1072	568.65
71.1216	609.41
71.1361	587.33
71.1505	513.99
71.1649	573.78
71.1794	589.27
71.1938	576.50
71.2083	616.56
71.2227	589.34
71.2371	550.14
71.2516	576.97
71.2660	558.04
71.2805	540.30
71.2949	578.48
71.3093	554.61
71.3238	580.86
71.3382	589.77
71.3527	565.09
71.3671	551.31
71.3815	521.50
71.3960	517.01
71.4104	529.09
71.4249	642.15
71.4393	647.37
71.4537	581.82
71.4682	544.27
71.4826	531.50
71.4971	553.23
71.5115	546.60
71.5259	531.37
71.5404	565.73
71.5548	615.99
71.5693	593.31
71.5837	601.23
71.5981	622.99
71.6126	611.60
71.6270	573.45
71.6415	547.79
71.6559	513.89
71.6703	582.41
71.6848	619.06
71.6992	601.32
71.7137	616.91
71.7281	606.25
71.7425	560.66
71.7570	545.05
71.7714	611.42
71.7859	615.63
71.8003	570.54
71.8147	536.18
71.8292	544.67
71.8436	588.08
71.8581	592.38
71.8725	627.05
71.8869	570.43
71.9014	505.21
71.9158	566.09
71.9303	591.80
71.9447	576.28
71.9591	544.91
71.9736	595.71
71.9880	580.73
72.0025	561.97
72.0169	571.02
72.0313	581.51
72.0458	646.56
72.0602	615.61
72.0747	579.11
72.0891	592.35
72.1035	548.58
72.1180	525.23
72.1324	584.78
72.1469	656.12
72.1613	721.64
72.1757	689.57
72.1902	660.83
72.2046	612.89
72.2191	569.34
72.2335	571.74
72.2479	534.47
72.2624	527.43
72.2768	600.48
72.2913	541.99
72.3057	485.21
72.3201	533.83
72.3346	590.35
72.3490	614.02
72.3635	565.25
72.3779	566.37
72.3923	588.06
72.4068	623.37
72.4212	601.53
72.4357	609.35
72.4501	569.29
72.4645	632.36
72.4790	594.23
72.4934	556.56
72.5079	614.29
72.5223	626.46
72.5367	558.85
72.5512	611.35
72.5656	570.61
72.5801	534.09
72.5945	463.49
72.6089	497.45
72.6234	552.09
72.6378	538.08
72.6523	529.26
72.6667	532.33
72.6811	600.57
72.6956	648.63
72.7100	524.41
72.7245	524.59
72.7389	532.50
72.7533	550.12
72.7678	597.21
72.7822	614.08
72.7967	587.46
72.8111	624.47
72.8255	677.97
72.8400	594.03
72.8544	553.38
72.8689	591.77
72.8833	578.55

Result vector
22.1120	558.51
22.1264	603.01
22.1409	574.62
22.1553	429.34
22.1697	480.75
22.1842	513.73
22.1986	525.64
22.2131	526.39
22.2275	585.82
22.2419	576.65
22.2564	614.92
22.2708	551.74
22.2853	576.58
22.2997	526.81
22.3141	565.93
22.3286	608.46
22.3430	630.33
22.3575	643.31
22.3719	578.86
22.3863	497.65
22.4008	512.23
22.4152	547.51
22.4297	633.39
22.4441	701.23
22.4585	608.84
22.4730	584.28
22.4874	605.01
22.5019	581.65
22.5163	561.25
22.5307	580.49
22.5452	577.30
22.5596	613.83
22.5741	641.50
22.5885	687.90
22.6029	578.43
22.6174	587.22
22.6318	539.08
22.6463	534.84
22.6607	543.86
22.6751	530.32
22.6896	476.73
22.7040	650.31
22.7185	657.52
22.7329	574.89
22.7473	554.87
22.7618	564.11
22.7762	613.87
22.7907	599.29
22.8051	569.34
22.8195	557.62
22.8340	530.64
22.8484	565.20
22.8629	606.75
22.8773	596.53
22.8917	547.80
22.9062	542.02
22.9206	478.71
22.9351	553.40
22.9495	611.02
22.9639	604.00
22.9784	565.10
22.9928	561.94
23.0073	582.53
23.0217	557.67
23.0361	575.09
23.0506	558.47
23.0650	511.60
23.0795	518.10
23.0939	500.85
23.1083	569.02
23.1228	623.28
23.1372	584.71
23.1517	507.24
23.1661	582.00
23.1806	550.83
23.1950	538.86
23.2094	580.97
23.2239	584.72
23.2383	523.27
23.2528	591.96
23.2672	453.48
23.2816	486.15
23.2961	520.71
23.3105	626.45
23.3250	637.02
23.3394	560.94
23.3538	552.74
23.3683	527.17
23.3827	509.60
23.3972	566.71
23.4116	607.77
23.4260	520.59
23.4405	524.73
23.4549	515.12
23.4694	609.15
23.4838	565.08
23.4982	528.29
23.5127	554.76
23.5271	604.32
23.5416	598.82
23.5560	541.38
23.5704	529.23
23.5849	591.38
23.5993	572.10
23.6138	524.69
23.6282	510.23
23.6426	549.83
23.6571	583.94
23.6715	570.18
23.6860	513.66
23.7004	508.87
23.7148	558.80
23.7293	555.90
23.7437	550.72
23.7582	548.21
23.7726	482.75
23.7870	595.75
23.8015	614.31
23.8159	617.82
23.8304	585.59
23.8448	558.31
23.8592	567.37
23.8737	649.90
23.8881	532.54
23.9026	666.24
23.9170	526.33
23.9314	505.07
23.9459	605.10
23.9603	563.68
23.9748	550.98
23.9892	495.69
24.0036	539.88
24.0181	567.41
24.0325	569.85
24.0470	568.60
24.0614	542.67
24.0758	553.48
24.0903	570.77
24.1047	550.51
24.1192	550.52
24.1336	554.95
24.1480	570.43
24.1625	562.15
24.1769	565.66
24.1914	519.94
24.2058	540.99
24.2202	595.68
24.2347	611.84
24.2491	597.35
24.2636	574.84
24.2780	577.44
24.2924	591.41
24.3069	588.88
24.3213	590.94
24.3358	577.48
24.3502	588.58
24.3646	552.86
24.3791	582.53
24.3935	568.83
24.4080	572.11
24.4224	581.88
24.4368	564.80
24.4513	524.61
24.4657	563.89
24.4802	604.61
24.4946	508.10
24.5090	524.57
24.5235	551.04
24.5379	548.38
24.5524	665.00
24.5668	618.68
24.5812	517.03
24.5957	625.72
24.6101	532.59
24.6246	581.18
24.6390	594.09
24.6534	592.89
24.6679	519.02
24.6823	538.21
24.6968	522.28
24.7112	532.07
24.7256	554.30
24.7401	513.78
24.7545	505.30
24.7690	536.89
24.7834	562.18
24.7978	512.66
24.8123	529.25
24.8267	517.16
24.8412	511.94
24.8556	497.00
24.8700	550.21
24.8845	537.71
24.8989	616.52
24.9134	548.64
24.9278	568.26
24.9422	515.47
24.9567	584.48
24.9711	524.63
24.9856	516.13
25.0000	517.62
25.0144	546.03
25.0289	560.36
25.0433	514.36
25.0578	488.41
25.0722	565.13
25.0866	522.54
25.1011	537.39
25.1155	547.98
25.1300	547.60
25.1444	545.42
25.1588	535.63
25.1733	585.15
25.1877	535.58
25.2022	514.72
25.2166	547.13
25.2310	530.92
25.2455	553.78
25.2599	523.66
25.2744	519.43
25.2888	574.30
25.3032	530.19
25.3177	508.34
25.3321	533.59
25.3466	548.89
25.3610	539.55
25.3754	510.18
25.3899	500.26
25.4043	489.99
25.4188	514.75
25.4332	528.77
25.4476	508.34
25.4621	516.77
25.4765	564.00
25.4910	537.58
25.5054	512.36
25.5198	531.20
25.5343	538.27
25.5487	554.76
25.5632	527.23
25.5776	521.50
25.5920	518.51
25.6065	516.57
25.6209	549.97
25.6354	514.50
25.6498	567.43
25.6642	570.90
25.6787	539.42
25.6931	558.44
25.7076	543.35
25.7220	531.91
25.7364	532.54
25.7509	494.54
25.7653	555.29
25.7798	539.74
25.7942	538.30
25.8086	529.53
25.8231	564.71
25.8375	522.86
25.8520	553.02
25.8664	544.31
25.8808	508.22
25.8953	515.33
25.9097	566.07
25.9242	540.72
25.9386	545.68
25.9530	533.17
25.9675	511.04
25.9819	544.03
25.9964	560.89
26.0108	549.45
26.0252	535.61
26.0397	508.77
26.0541	527.09
26.0686	569.72
26.0830	546.50
26.0974	509.87
26.1119	510.08
26.1263	545.52
26.1408	519.26
26.1552	517.92
26.1696	528.23
26.1841	532.73
26.1985	510.33
26.2130	554.14
26.2274	525.17
26.2418	523.46
26.2563	529.72
26.2707	541.84
26.2852	540.18
26.2996	512.32
26.3140	517.19
26.3285	507.10
26.3429	485.45
26.3574	499.26
26.3718	534.75
26.3862	515.50
26.4007	538.70
26.4151	541.83
26.4296	542.62
26.4440	535.96
26.4584	524.42
26.4729	549.08
26.4873	524.22
26.5018	536.95
26.5162	530.31
26.5306	548.41
26.5451	555.67
26.5595	518.09
26.5740	526.93
26.5884	563.09
26.6028	567.53
26.6173	553.24
26.6317	567.46
26.6462	524.88
26.6606	536.06
26.6750	523.49
26.6895	516.97
26.7039	523.52
26.7184	537.12
26.7328	514.12
26.7472	503.11
26.7617	479.71
26.7761	507.81
26.7906	531.89
26.8050	538.31
26.8194	534.28
26.8339	545.38
26.8483	519.77
26.8628	509.80
26.8772	512.19
26.8917	505.12
26.9061	517.14
26.9205	526.13
26.9350	504.11
26.9494	523.57
26.9639	520.68
26.9783	524.56
26.9927	538.90
27.0072	519.36
27.0216	529.08
27.0361	531.91
27.0505	528.64
27.0649	563.18
27.0794	539.88
27.0938	503.21
27.1083	503.29
27.1227	503.16
27.1371	519.51
27.1516	510.82
27.1660	532.27
27.1805	508.79
27.1949	507.90
27.2093	521.36
27.2238	558.45
27.2382	515.08
27.2527	530.11
27.2671	524.37
27.2815	530.13
27.2960	518.64
27.3104	541.54
27.3249	516.63
27.3393	505.15
27.3537	510.05
27.3682	480.72
27.3826	498.76
27.3971	506.18
27.4115	528.34
27.4259	552.59
27.4404	538.40
27.4548	513.30
27.4693	498.82
27.4837	506.97
27.4981	530.76
27.5126	555.82
27.5270	521.70
27.5415	489.14
27.5559	499.32
27.5703	521.57
27.5848	512.74
27.5992	527.80
27.6137	498.51
27.6281	491.87
27.6425	499.78
27.6570	489.96
27.6714	528.08
27.6859	536.08
27.7003	539.44
27.7147	535.31
27.7292	528.10
27.7436	493.14
27.7581	498.78
27.7725	522.40
27.7869	533.99
27.8014	578.08
27.8158	535.49
27.8303	550.94
27.8447	532.07
27.8591	518.45
27.8736	494.14
27.8880	494.68
27.9025	523.68
27.9169	506.95
27.9313	496.44
27.9458	535.00
27.9602	565.07
27.9747	499.21
27.9891	471.34
28.0035	499.41
28.0180	535.26
28.0324	525.64
28.0469	530.74
28.0613	531.03
28.0757	508.02
28.0902	512.88
28.1046	507.57
28.1191	502.80
28.1335	538.78
28.1479	519.15
28.1624	483.49
28.1768	525.93
28.1913	518.30
28.2057	519.36
28.2201	521.33
28.2346	516.66
28.2490	518.86
28.2635	537.71
28.2779	530.92
28.2923	512.07
28.3068	494.62
28.3212	502.65
28.3357	505.32
28.3501	516.12
28.3645	497.06
28.3790	509.47
28.3934	497.52
28.4079	475.41
28.4223	499.75
28.4367	518.64
28.4512	524.56
28.4656	521.40
28.4801	530.64
28.4945	508.89
28.5089	545.63
28.5234	524.64
28.5378	536.54
28.5523	477.82
28.5667	508.59
28.5811	506.94
28.5956	517.35
28.6100	531.14
28.6245	503.14
28.6389	550.10
28.6533	549.59
28.6678	523.62
28.6822	510.15
28.6967	485.22
28.7111	523.16
28.7255	513.80
28.7400	509.79
28.7544	503.27
28.7689	478.90
28.7833	491.43
28.7977	529.98
28.8122	527.43
28.8266	504.66
28.8411	500.09
28.8555	491.42
28.8699	515.40
28.8844	499.09
28.8988	524.11
28.9133	527.29
28.9277	511.79
28.9421	510.57
28.9566	499.53
28.9710	501.33
28.9855	497.36
28.9999	498.29
29.0143	484.96
29.0288	466.84
29.0432	494.84
29.0577	502.05
29.0721	500.37
29.0865	495.33
29.1010	495.24
29.1154	501.31
29.1299	447.85
29.1443	457.64
29.1587	481.93
29.1732	526.74
29.1876	507.17
29.2021	486.22
29.2165	528.83
29.2309	514.52
29.2454	505.06
29.2598	504.94
29.2743	512.95
29.2887	487.33
29.3031	490.65
29.3176	500.13
29.3320	529.05
29.3465	542.63
29.3609	529.87
29.3753	509.34
29.3898	508.41
29.4042	504.67
29.4187	507.22
29.4331	510.89
29.4475	523.66
29.4620	510.74
29.4764	511.91
29.4909	502.36
29.5053	478.51
29.5197	519.00
29.5342	497.60
29.5486	537.18
29.5631	516.28
29.5775	501.14
29.5919	476.67
29.6064	514.96
29.6208	525.50
29.6353	477.65
29.6497	475.92
29.6641	500.70
29.6786	495.48
29.6930	498.21
29.7075	530.72
29.7219	508.92
29.7363	509.88
29.7508	487.41
29.7652	504.82
29.7797	521.32
29.7941	513.54
29.8085	551.16
29.8230	491.92
29.8374	529.65
29.8519	529.09
29.8663	489.35
29.8807	520.33
29.8952	495.78
29.9096	518.97
29.9241	516.17
29.9385	518.33
29.9529	512.58
29.9674	494.28
29.9818	508.40
29.9963	531.76
30.0107	525.20
30.0251	535.15
30.0396	577.42
30.0540	526.15
30.0685	513.92
30.0829	544.86
30.0973	520.81
30.1118	523.81
30.1262	529.41
30.1407	492.91
30.1551	494.96
30.1695	494.77
30.1840	517.77
30.1984	500.96
30.2129	523.17
30.2273	517.36
30.2417	505.81
30.2562	486.77
30.2706	462.03
30.2851	497.87
30.2995	528.93
30.3139	535.53
30.3284	489.75
30.3428	534.05
30.3573	500.28
30.3717	474.20
30.3861	521.08
30.4006	501.42
30.4150	517.25
30.4295	525.32
30.4439	545.19
30.4583	536.68
30.4728	541.45
30.4872	537.16
30.5017	540.29
30.5161	565.96
30.5305	587.63
30.5450	612.31
30.5594	587.89
30.5739	625.42
30.5883	673.72
30.6028	711.09
30.6172	733.47
30.6316	705.60
30.6461	713.33
30.6605	697.80
30.6750	723.84
30.6894	694.99
30.7038	656.42
30.7183	654.16
30.7327	621.90
30.7472	589.07
30.7616	533.52
30.7760	560.59
30.7905	557.18
30.8049	571.51
30.8194	582.47
30.8338	546.04
30.8482	520.74
30.8627	546.86
30.8771	534.13
30.8916	482.74
30.9060	517.73
30.9204	512.07
30.9349	514.52
30.9493	514.24
30.9638	509.59
30.9782	513.61
30.9926	502.72
31.0071	499.86
31.0215	502.19
31.0360	534.67
31.0504	545.82
31.0648	511.89
31.0793	497.23
31.0937	506.36
31.1082	532.16
31.1226	566.46
31.1370	511.37
31.1515	481.84
31.1659	474.43
31.1804	483.68
31.1948	542.86
31.2092	490.13
31.2237	521.76
31.2381	524.62
31.2526	521.67
31.2670	506.17
31.2814	540.89
31.2959	543.30
31.3103	555.79
31.3248	548.60
31.3392	500.48
31.3536	514.38
31.3681	520.53
31.3825	506.46
31.3970	497.34
31.4114	505.39
31.4258	520.89
31.4403	506.54
31.4547	524.09
31.4692	547.01
31.4836	534.78
31.4980	505.89
31.5125	489.79
31.5269	473.16
31.5414	506.00
31.5558	514.32
31.5702	504.96
31.5847	481.01
31.5991	464.36
31.6136	523.95
31.6280	517.10
31.6424	505.51
31.6569	508.56
31.6713	519.27
31.6858	494.48
31.7002	528.03
31.7146	490.14
31.7291	540.41
31.7435	499.40
31.7580	500.33
31.7724	517.28
31.7868	512.66
31.8013	499.55
31.8157	513.69
31.8302	512.30
31.8446	514.70
31.8590	530.73
31.8735	534.06
31.8879	494.76
31.9024	513.60
31.9168	451.30
31.9312	494.26
31.9457	513.65
31.9601	487.07
31.9746	493.58
31.9890	506.21
32.0034	517.37
32.0179	487.40
32.0323	494.41
32.0468	535.33
32.0612	523.45
32.0756	483.66
32.0901	508.82
32.1045	478.61
32.1190	473.06
32.1334	549.05
32.1478	498.29
32.1623	497.76
32.1767	492.69
32.1912	494.71
32.2056	499.97
32.2200	513.44
32.2345	534.97
32.2489	527.58
32.2634	486.21
32.2778	472.84
32.2922	509.18
32.3067	525.07
32.3211	511.07
32.3356	535.55
32.3500	514.75
32.3644	498.03
32.3789	481.50
32.3933	499.13
32.4078	490.20
32.4222	496.46
32.4366	511.43
32.4511	489.97
32.4655	506.82
32.4800	503.98
32.4944	517.77
32.5088	496.10
32.5233	492.51
32.5377	483.06
32.5522	458.88
32.5666	472.44
32.5810	516.83
32.5955	512.81
32.6099	474.18
32.6244	477.26
32.6388	531.50
32.6532	532.22
32.6677	498.17
32.6821	496.91
32.6966	489.57
32.7110	523.56
32.7254	495.10
32.7399	516.20
32.7543	481.49
32.7688	471.54
32.7832	478.84
32.7976	494.59
32.8121	470.85
32.8265	508.91
32.8410	504.07
32.8554	518.20
32.8698	515.14
32.8843	491.52
32.8987	515.11
32.9132	536.83
32.9276	450.90
32.9420	507.22
32.9565	484.04
32.9709	485.36
32.9854	480.06
32.9998	487.13
33.0142	478.76
33.0287	494.05
33.0431	525.39
33.0576	475.81
33.0720	497.49
33.0864	529.59
33.1009	493.61
33.1153	525.93
33.1298	518.24
33.1442	480.96
33.1586	476.56
33.1731	502.46
33.1875	514.63
33.2020	526.40
33.2164	544.98
33.2308	528.53
33.2453	499.12
33.2597	491.93
33.2742	493.54
33.2886	515.97
33.3030	496.06
33.3175	516.42
33.3319	561.60
33.3464	503.30
33.3608	475.21
33.3752	511.69
33.3897	484.62
33.4041	493.84
33.4186	501.23
33.4330	493.45
33.4474	529.15
33.4619	512.24
33.4763	494.96
33.4908	528.50
33.5052	484.28
33.5196	497.52
33.5341	495.08
33.5485	496.72
33.5630	492.03
33.5774	487.95
33.5918	477.13
33.6063	485.29
33.6207	508.66
33.6352	503.98
33.6496	530.30
33.6640	506.23
33.6785	474.86
33.6929	473.55
33.7074	516.31
33.7218	494.36
33.7362	487.15
33.7507	479.50
33.7651	494.93
33.7796	494.67
33.7940	480.07
33.8084	491.26
33.8229	501.30
33.8373	483.39
33.8518	526.20
33.8662	527.19
33.8806	490.75
33.8951	544.55
33.9095	527.22
33.9240	514.47
33.9384	492.08
33.9528	528.15
33.9673	508.51
33.9817	489.47
33.9962	484.13
34.0106	507.48
34.0250	527.77
34.0395	499.32
34.0539	522.65
34.0684	517.05
34.0828	504.70
34.0972	523.16
34.1117	498.50
34.1261	526.83
34.1406	490.33
34.1550	492.09
34.1694	492.39
34.1839	513.54
34.1983	487.84
34.2128	487.82
34.2272	489.94
34.2417	465.58
34.2561	528.95
34.2705	522.74
34.2850	490.17
34.2994	493.57
34.3139	513.49
34.3283	499.90
34.3427	505.75
34.3572	498.77
34.3716	516.15
34.3861	510.09
34.4005	510.94
34.4149	518.79
34.4294	527.53
34.4438	496.15
34.4583	493.49
34.4727	511.69
34.4871	520.91
34.5016	505.82
34.5160	521.67
34.5305	491.64
34.5449	496.42
34.5593	531.33
34.5738	499.07
34.5882	471.50
34.6027	493.29
34.6171	514.44
34.6315	536.99
34.6460	501.57
34.6604	487.64
34.6749	496.17
34.6893	504.93
34.7037	485.27
34.7182	515.04
34.7326	517.66
34.7471	495.15
34.7615	512.56
34.7759	519.62
34.7904	520.89
34.8048	512.93
34.8193	489.00
34.8337	513.31
34.8481	482.57
34.8626	521.94
34.8770	526.90
34.8915	519.81
34.9059	496.07
34.9203	458.06
34.9348	489.08
34.9492	519.93
34.9637	471.24
34.9781	496.38
34.9925	498.30
35.0070	507.39
35.0214	511.04
35.0359	492.62
35.0503	487.04
35.0647	489.12
35.0792	496.51
35.0936	536.98
35.1081	483.68
35.1225	495.67
35.1369	511.58
35.1514	493.33
35.1658	499.17
35.1803	501.94
35.1947	503.34
35.2091	522.39
35.2236	504.21
35.2380	488.03
35.2525	509.39
35.2669	513.38
35.2813	482.19
35.2958	471.79
35.3102	459.24
35.3247	489.12
35.3391	511.68
35.3535	514.46
35.3680	496.91
35.3824	519.85
35.3969	510.12
35.4113	514.39
35.4257	493.39
35.4402	503.33
35.4546	510.96
35.4691	571.51
35.4835	545.34
35.4979	523.93
35.5124	507.62
35.5268	563.57
35.5413	562.46
35.5557	536.01
35.5701	533.33
35.5846	547.60
35.5990	524.39
35.6135	497.95
35.6279	550.91
35.6423	525.43
35.6568	517.30
35.6712	498.02
35.6857	572.87
35.7001	656.49
35.7145	732.58
35.7290	706.54
35.7434	653.56
35.7579	600.91
35.7723	631.47
35.7867	679.37
35.8012	719.19
35.8156	754.90
35.8301	698.68
35.8445	702.87
35.8589	741.93
35.8734	790.48
35.8878	853.22
35.9023	1027.50
35.9167	1046.59
35.9311	1195.16
35.9456	1611.69
35.9600	2108.31
35.9745	2048.00
35.9889	2257.13
36.0033	2654.21
36.0178	3040.96
36.0322	3212.91
36.0467	2625.02
36.0611	2193.78
36.0755	2060.61
36.0900	2155.04
36.1044	1746.14
36.1189	1551.48
36.1333	1544.56
36.1477	1363.30
36.1622	1256.10
36.1766	1110.26
36.1911	965.98
36.2055	877.00
36.2199	852.37
36.2344	721.24
36.2488	702.44
36.2633	615.65
36.2777	574.34
36.2921	584.18
36.3066	569.16
36.3210	575.06
36.3355	577.27
36.3499	569.40
36.3643	556.22
36.3788	564.56
36.3932	528.03
36.4077	522.16
36.4221	562.95
36.4365	579.68
36.4510	540.75
36.4654	557.03
36.4799	558.13
36.4943	540.94
36.5087	536.74
36.5232	534.66
36.5376	558.64
36.5521	543.70
36.5665	548.13
36.5809	568.45
36.5954	525.90
36.6098	519.61
36.6243	545.72
36.6387	545.83
36.6531	507.96
36.6676	517.20
36.6820	536.54
36.6965	519.72
36.7109	508.00
36.7253	520.07
36.7398	540.27
36.7542	532.19
36.7687	509.77
36.7831	509.67
36.7975	522.14
36.8120	542.50
36.8264	579.53
36.8409	583.22
36.8553	590.64
36.8697	609.49
36.8842	604.36
36.8986	537.85
36.9131	553.45
36.9275	600.26
36.9419	639.47
36.9564	580.20
36.9708	573.19
36.9853	575.03
36.9997	543.54
37.0141	586.68
37.0286	556.83
37.0430	539.21
37.0575	524.20
37.0719	546.95
37.0863	515.98
37.1008	520.31
37.1152	523.66
37.1297	560.26
37.1441	513.04
37.1585	500.99
37.1730	541.57
37.1874	504.15
37.2019	513.15
37.2163	520.57
37.2307	477.71
37.2452	514.10
37.2596	483.86
37.2741	490.84
37.2885	507.21
37.3029	515.78
37.3174	495.23
37.3318	521.65
37.3463	528.23
37.3607	487.63
37.3751	515.78
37.3896	510.27
37.4040	513.11
37.4185	498.89
37.4329	531.59
37.4473	511.21
37.4618	512.07
37.4762	447.85
37.4907	512.87
37.5051	498.84
37.5195	481.85
37.5340	496.11
37.5484	522.30
37.5629	507.85
37.5773	548.32
37.5917	512.87
37.6062	468.73
37.6206	478.74
37.6351	486.14
37.6495	508.78
37.6639	523.28
37.6784	500.27
37.6928	521.67
37.7073	501.39
37.7217	467.97
37.7361	508.14
37.7506	520.87
37.7650	499.40
37.7795	501.41
37.7939	505.70
37.8083	512.69
37.8228	478.20
37.8372	516.03
37.8517	517.14
37.8661	508.97
37.8805	499.55
37.8950	478.02
37.9094	508.87
37.9239	489.22
37.9383	509.09
37.9528	493.41
37.9672	496.40
37.9816	496.10
37.9961	524.80
38.0105	538.20
38.0250	527.11
38.0394	523.35
38.0538	494.18
38.0683	499.06
38.0827	519.30
38.0972	528.49
38.1116	517.62
38.1260	475.20
38.1405	471.77
38.1549	505.25
38.1694	528.79
38.1838	500.25
38.1982	495.97
38.2127	521.74
38.2271	471.71
38.2416	482.26
38.2560	509.14
38.2704	492.09
38.2849	493.05
38.2993	485.21
38.3138	488.69
38.3282	526.34
38.3426	553.21
38.3571	540.76
38.3715	520.02
38.3860	526.29
38.4004	535.32
38.4148	549.39
38.4293	571.72
38.4437	566.40
38.4582	611.10
38.4726	647.32
38.4870	690.04
38.5015	733.04
38.5159	802.18
38.5304	810.15
38.5448	789.88
38.5592	794.85
38.5737	781.80
38.5881	743.81
38.6026	721.97
38.6170	716.72
38.6314	718.85
38.6459	679.00
38.6603	630.26
38.6748	575.82
38.6892	581.01
38.7036	571.12
38.7181	536.13
38.7325	525.85
38.7470	520.86
38.7614	476.01
38.7758	496.99
38.7903	526.25
38.8047	481.43
38.8192	508.89
38.8336	511.34
38.8480	498.02
38.8625	528.20
38.8769	530.99
38.8914	513.29
38.9058	512.81
38.9202	482.53
38.9347	506.08
38.9491	518.21
38.9636	524.25
38.9780	509.64
38.9924	509.44
39.0069	489.78
39.0213	488.58
39.0358	495.35
39.0502	487.66
39.0646	529.65
39.0791	517.11
39.0935	523.38
39.1080	484.35
39.1224	516.91
39.1368	518.09
39.1513	469.29
39.1657	497.12
39.1802	505.64
39.1946	498.92
39.2090	523.11
39.2235	495.05
39.2379	505.00
39.2524	518.95
39.2668	486.02
39.2812	514.84
39.2957	536.21
39.3101	512.74
39.3246	506.75
39.3390	520.56
39.3534	501.78
39.3679	540.50
39.3823	521.10
39.3968	503.52
39.4112	492.16
39.4256	532.95
39.4401	496.13
39.4545	499.71
39.4690	497.28
39.4834	516.42
39.4978	542.57
39.5123	493.21
39.5267	514.20
39.5412	501.53
39.5556	504.65
39.5700	510.90
39.5845	469.84
39.5989	476.63
39.6134	496.08
39.6278	496.70
39.6422	479.96
39.6567	482.55
39.6711	492.16
39.6856	491.01
39.7000	491.93
39.7144	476.45
39.7289	481.43
39.7433	486.46
39.7578	484.89
39.7722	490.54
39.7866	532.36
39.8011	504.57
39.8155	503.15
39.8300	507.52
39.8444	504.46
39.8588	502.23
39.8733	500.71
39.8877	510.34
39.9022	504.01
39.9166	518.40
39.9310	468.24
39.9455	519.27
39.9599	494.63
39.9744	493.56
39.9888	470.88
40.0032	471.08
40.0177	483.09
40.0321	503.66
40.0466	490.28
40.0610	511.88
40.0754	464.34
40.0899	523.52
40.1043	478.71
40.1188	495.23
40.1332	492.57
40.1476	500.10
40.1621	468.28
40.1765	474.69
40.1910	500.67
40.2054	510.73
40.2198	489.31
40.2343	493.69
40.2487	469.17
40.2632	490.79
40.2776	510.03
40.2920	478.22
40.3065	491.94
40.3209	514.34
40.3354	512.84
40.3498	493.52
40.3642	466.69
40.3787	462.71
40.3931	487.13
40.4076	506.61
40.4220	483.32
40.4364	499.76
40.4509	480.71
40.4653	491.23
40.4798	518.75
40.4942	494.72
40.5086	488.82
40.5231	499.49
40.5375	508.13
40.5520	518.84
40.5664	504.20
40.5808	523.80
40.5953	487.78
40.6097	483.13
40.6242	515.13
40.6386	513.91
40.6530	515.10
40.6675	487.50
40.6819	504.06
40.6964	489.66
40.7108	526.68
40.7252	494.03
40.7397	452.58
40.7541	460.23
40.7686	487.64
40.7830	516.76
40.7974	490.27
40.8119	526.28
40.8263	519.52
40.8408	515.04
40.8552	490.92
40.8696	524.48
40.8841	492.84
40.8985	487.10
40.9130	461.56
40.9274	505.19
40.9418	496.36
40.9563	469.14
40.9707	478.98
40.9852	475.80
40.9996	506.51
41.0140	505.01
41.0285	481.59
41.0429	497.16
41.0574	501.96
41.0718	524.79
41.0862	528.56
41.1007	477.00
41.1151	496.28
41.1296	502.02
41.1440	466.83
41.1584	448.23
41.1729	478.68
41.1873	455.47
41.2018	477.93
41.2162	478.19
41.2306	496.67
41.2451	495.92
41.2595	463.24
41.2740	467.65
41.2884	463.03
41.3028	477.78
41.3173	491.38
41.3317	489.18
41.3462	485.66
41.3606	515.25
41.3750	494.63
41.3895	471.43
41.4039	515.58
41.4184	495.41
41.4328	489.32
41.4472	491.80
41.4617	511.38
41.4761	517.03
41.4906	476.31
41.5050	499.43
41.5194	501.31
41.5339	497.67
41.5483	514.12
41.5628	488.47
41.5772	484.25
41.5916	495.04
41.6061	502.82
41.6205	511.09
41.6350	503.69
41.6494	493.85
41.6639	484.59
41.6783	471.48
41.6927	497.63
41.7072	533.87
41.7216	552.73
41.7361	484.57
41.7505	475.34
41.7649	486.11
41.7794	503.50
41.7938	471.68
41.8083	508.34
41.8227	477.24
41.8371	473.61
41.8516	525.11
41.8660	531.81
41.8805	551.30
41.8949	557.27
41.9093	567.96
41.9238	548.68
41.9382	521.10
41.9527	552.62
41.9671	528.27
41.9815	534.26
41.9960	548.79
42.0104	577.56
42.0249	583.21
42.0393	570.14
42.0537	558.90
42.0682	568.89
42.0826	573.95
42.0971	583.32
42.1115	600.41
42.1259	631.97
42.1404	578.81
42.1548	564.47
42.1693	623.45
42.1837	707.22
42.1981	724.16
42.2126	780.85
42.2270	952.94
42.2415	1107.69
42.2559	1202.96
42.2703	1328.96
42.2848	1481.09
42.2992	1661.86
42.3137	1673.57
42.3281	1680.14
42.3425	1647.78
42.3570	1485.00
42.3714	1462.15
42.3859	1378.90
42.4003	1307.54
42.4147	1352.17
42.4292	1283.05
42.4436	1151.17
42.4581	1072.85
42.4725	950.70
42.4869	823.59
42.5014	787.40
42.5158	723.49
42.5303	692.21
42.5447	645.51
42.5591	610.62
42.5736	610.18
42.5880	580.45
42.6025	582.33
42.6169	569.26
42.6313	565.86
42.6458	546.96
42.6602	525.13
42.6747	555.84
42.6891	523.82
42.7035	539.14
42.7180	537.41
42.7324	536.31
42.7469	510.72
42.7613	521.70
42.7757	529.78
42.7902	537.62
42.8046	544.23
42.8191	517.67
42.8335	499.83
42.8479	510.33
42.8624	526.51
42.8768	532.99
42.8913	529.26
42.9057	533.44
42.9201	475.72
42.9346	495.57
42.9490	531.48
42.9635	505.62
42.9779	514.43
42.9923	484.74
43.0068	474.17
43.0212	490.13
43.0357	510.95
43.0501	519.18
43.0645	496.04
43.0790	486.82
43.0934	499.69
43.1079	508.39
43.1223	530.36
43.1367	517.34
43.1512	499.84
43.1656	539.48
43.1801	476.52
43.1945	492.53
43.2089	515.74
43.2234	530.10
43.2378	528.65
43.2523	528.98
43.2667	525.55
43.2811	506.21
43.2956	483.20
43.3100	516.74
43.3245	518.14
43.3389	546.21
43.3533	509.05
43.3678	492.14
43.3822	512.35
43.3967	502.58
43.4111	505.41
43.4255	546.37
43.4400	502.65
43.4544	503.34
43.4689	520.59
43.4833	516.44
43.4977	527.45
43.5122	486.95
43.5266	499.15
43.5411	507.87
43.5555	506.40
43.5699	537.84
43.5844	509.94
43.5988	518.49
43.6133	536.87
43.6277	534.16
43.6421	530.14
43.6566	510.01
43.6710	513.51
43.6855	509.92
43.6999	525.67
43.7143	547.04
43.7288	560.93
43.7432	598.45
43.7577	626.18
43.7721	629.93
43.7865	632.86
43.8010	661.58
43.8154	668.28
43.8299	669.28
43.8443	662.44
43.8587	645.00
43.8732	622.26
43.8876	629.49
43.9021	611.35
43.9165	599.28
43.9309	631.24
43.9454	605.77
43.9598	546.62
43.9743	561.47
43.9887	507.75
44.0031	553.67
44.0176	522.15
44.0320	540.30
44.0465	517.42
44.0609	546.03
44.0753	511.30
44.0898	513.64
44.1042	508.37
44.1187	548.45
44.1331	550.96
44.1475	495.47
44.1620	523.39
44.1764	513.93
44.1909	515.17
44.2053	543.06
44.2197	538.43
44.2342	505.65
44.2486	504.96
44.2631	532.57
44.2775	509.73
44.2919	500.78
44.3064	530.65
44.3208	522.37
44.3353	499.07
44.3497	521.29
44.3641	563.42
44.3786	533.19
44.3930	553.13
44.4075	522.48
44.4219	563.00
44.4363	564.50
44.4508	564.24
44.4652	590.26
44.4797	572.93
44.4941	571.53
44.5085	555.41
44.5230	528.19
44.5374	573.27
44.5519	562.37
44.5663	539.53
44.5807	574.12
44.5952	567.53
44.6096	564.14
44.6241	556.95
44.6385	563.00
44.6529	592.60
44.6674	606.17
44.6818	610.35
44.6963	579.83
44.7107	629.62
44.7251	676.31
44.7396	740.82
44.7540	778.70
44.7685	880.77
44.7829	876.45
44.7973	828.17
44.8118	879.95
44.8262	825.01
44.8407	797.03
44.8551	738.54
44.8695	753.57
44.8840	720.50
44.8984	775.63
44.9129	755.31
44.9273	679.85
44.9417	694.87
44.9562	629.04
44.9706	649.20
44.9851	585.01
44.9995	561.23
45.0139	566.81
45.0284	516.58
45.0428	514.80
45.0573	553.51
45.0717	550.84
45.0861	524.84
45.1006	544.68
45.1150	502.81
45.1295	547.42
45.1439	503.20
45.1583	501.73
45.1728	495.33
45.1872	518.15
45.2017	465.25
45.2161	550.40
45.2305	500.95
45.2450	504.47
45.2594	478.63
45.2739	483.04
45.2883	488.04
45.3028	489.18
45.3172	484.78
45.3316	528.41
45.3461	477.23
45.3605	471.75
45.3750	472.27
45.3894	486.34
45.4038	529.62
45.4183	539.13
45.4327	511.34
45.4472	483.24
45.4616	478.57
45.4760	535.00
45.4905	527.90
45.5049	526.22
45.5194	495.43
45.5338	534.88
45.5482	492.30
45.5627	515.14
45.5771	493.29
45.5916	508.14
45.6060	524.77
45.6204	503.66
45.6349	514.08
45.6493	547.94
45.6638	536.62
45.6782	499.66
45.6926	503.49
45.7071	510.40
45.7215	474.32
45.7360	471.60
45.7504	529.86
45.7648	474.42
45.7793	483.53
45.7937	490.41
45.8082	496.91
45.8226	531.27
45.8370	521.73
45.8515	497.48
45.8659	506.20
45.8804	478.55
45.8948	501.23
45.9092	509.79
45.9237	470.55
45.9381	521.68
45.9526	509.48
45.9670	466.63
45.9814	470.84
45.9959	503.90
46.0103	489.68
46.0248	484.75
46.0392	503.41
46.0536	485.06
46.0681	498.24
46.0825	492.84
46.0970	468.21
46.1114	486.29
46.1258	520.45
46.1403	512.66
46.1547	462.95
46.1692	495.27
46.1836	471.74
46.1980	466.55
46.2125	506.02
46.2269	521.30
46.2414	498.30
46.2558	469.33
46.2702	493.78
46.2847	534.87
46.2991	486.25
46.3136	482.72
46.3280	507.27
46.3424	506.26
46.3569	486.46
46.3713	494.11
46.3858	518.26
46.4002	504.53
46.4146	473.67
46.4291	525.13
46.4435	499.53
46.4580	525.78
46.4724	495.27
46.4868	501.16
46.5013	493.85
46.5157	469.38
46.5302	508.33
46.5446	505.29
46.5590	497.88
46.5735	488.19
46.5879	486.44
46.6024	505.36
46.6168	501.55
46.6312	517.11
46.6457	514.48
46.6601	502.52
46.6746	506.18
46.6890	496.29
46.7034	519.79
46.7179	505.28
46.7323	502.74
46.7468	504.67
46.7612	472.45
46.7756	507.67
46.7901	501.16
46.8045	474.46
46.8190	512.10
46.8334	517.55
46.8478	521.01
46.8623	497.16
46.8767	484.25
46.8912	490.97
46.9056	522.74
46.9200	495.41
46.9345	525.84
46.9489	523.69
46.9634	512.09
46.9778	511.98
46.9922	507.20
47.0067	504.56
47.0211	521.14
47.0356	503.78
47.0500	505.71
47.0644	491.50
47.0789	475.66
47.0933	500.10
47.1078	502.26
47.1222	509.06
47.1366	489.10
47.1511	480.88
47.1655	512.58
47.1800	493.64
47.1944	512.90
47.2088	509.73
47.2233	514.04
47.2377	501.07
47.2522	527.44
47.2666	497.40
47.2810	482.55
47.2955	474.30
47.3099	490.10
47.3244	511.73
47.3388	515.83
47.3532	467.45
47.3677	446.74
47.3821	465.31
47.3966	481.04
47.4110	491.87
47.4254	472.74
47.4399	487.61
47.4543	479.31
47.4688	521.15
47.4832	510.36
47.4976	503.49
47.5121	507.37
47.5265	478.69
47.5410	503.33
47.5554	500.03
47.5698	507.48
47.5843	480.30
47.5987	519.99
47.6132	516.50
47.6276	515.49
47.6420	526.19
47.6565	518.40
47.6709	484.38
47.6854	515.20
47.6998	520.00
47.7142	493.25
47.7287	486.35
47.7431	474.19
47.7576	488.07
47.7720	518.71
47.7864	522.81
47.8009	505.57
47.8153	536.50
47.8298	532.84
47.8442	513.03
47.8586	480.56
47.8731	498.47
47.8875	479.62
47.9020	515.33
47.9164	483.81
47.9308	506.90
47.9453	518.92
47.9597	485.53
47.9742	501.39
47.9886	532.43
48.0030	505.29
48.0175	480.72
48.0319	521.04
48.0464	496.46
48.0608	496.27
48.0752	456.68
48.0897	459.61
48.1041	493.63
48.1186	504.29
48.1330	497.52
48.1474	467.51
48.1619	514.82
48.1763	525.65
48.1908	504.12
48.2052	477.79
48.2196	470.08
48.2341	547.42
48.2485	532.24
48.2630	493.04
48.2774	472.56
48.2918	519.23
48.3063	502.19
48.3207	521.30
48.3352	500.54
48.3496	476.11
48.3640	477.63
48.3785	513.62
48.3929	544.62
48.4074	500.38
48.4218	507.20
48.4362	551.59
48.4507	500.40
48.4651	492.30
48.4796	499.34
48.4940	515.44
48.5084	495.61
48.5229	500.42
48.5373	512.06
48.5518	492.75
48.5662	521.98
48.5806	477.95
48.5951	486.02
48.6095	520.32
48.6240	472.20
48.6384	506.68
48.6528	524.62
48.6673	504.78
48.6817	527.40
48.6962	498.43
48.7106	557.43
48.7250	532.33
48.7395	525.08
48.7539	555.41
48.7684	490.57
48.7828	521.74
48.7972	532.55
48.8117	543.35
48.8261	532.76
48.8406	554.63
48.8550	532.63
48.8694	496.60
48.8839	544.44
48.8983	567.82
48.9128	582.60
48.9272	527.70
48.9416	504.22
48.9561	521.90
48.9705	539.30
48.9850	556.85
48.9994	587.87
49.0139	574.47
49.0283	595.77
49.0427	617.42
49.0572	618.47
49.0716	659.96
49.0861	667.05
49.1005	673.43
49.1149	694.94
49.1294	749.10
49.1438	728.00
49.1583	806.25
49.1727	843.26
49.1871	888.28
49.2016	975.66
49.2160	1031.60
49.2305	1147.18
49.2449	1267.56
49.2593	1260.44
49.2738	1371.37
49.2882	1518.64
49.3027	1606.39
49.3171	1665.48
49.3315	1719.84
49.3460	1727.92
49.3604	1837.10
49.3749	1789.61
49.3893	1796.97
49.4037	1801.06
49.4182	1794.23
49.4326	1795.53
49.4471	1699.61
49.4615	1682.18
49.4759	1631.87
49.4904	1533.93
49.5048	1417.26
49.5193	1391.06
49.5337	1275.34
49.5481	1185.78
49.5626	1124.65
49.5770	1025.37
49.5915	940.22
49.6059	912.01
49.6203	888.99
49.6348	840.38
49.6492	790.05
49.6637	730.39
49.6781	717.99
49.6925	701.30
49.7070	705.32
49.7214	627.37
49.7359	562.98
49.7503	597.22
49.7647	619.27
49.7792	633.96
49.7936	571.24
49.8081	573.20
49.8225	557.50
49.8369	549.87
49.8514	549.97
49.8658	554.26
49.8803	579.03
49.8947	540.80
49.9091	537.52
49.9236	538.91
49.9380	524.03
49.9525	510.60
49.9669	519.74
49.9813	563.26
49.9958	535.84
50.0102	515.67
50.0247	508.43
50.0391	522.43
50.0535	497.27
50.0680	541.59
50.0824	533.52
50.0969	518.09
50.1113	542.42
50.1257	541.64
50.1402	557.15
50.1546	535.56
50.1691	542.96
50.1835	512.38
50.1979	481.53
50.2124	477.11
50.2268	518.01
50.2413	512.81
50.2557	525.13
50.2701	498.33
50.2846	501.75
50.2990	503.49
50.3135	520.53
50.3279	492.52
50.3423	509.78
50.3568	524.54
50.3712	549.89
50.3857	510.51
50.4001	488.52
50.4145	500.10
50.4290	545.17
50.4434	526.59
50.4579	492.70
50.4723	530.80
50.4867	532.56
50.5012	518.77
50.5156	513.10
50.5301	500.00
50.5445	511.57
50.5589	518.64
50.5734	500.55
50.5878	508.11
50.6023	494.63
50.6167	497.67
50.6311	500.13
50.6456	507.79
50.6600	507.80
50.6745	489.61
50.6889	490.66
50.7033	521.49
50.7178	482.50
50.7322	459.00
50.7467	500.51
50.7611	492.32
50.7755	516.36
50.7900	526.10
50.8044	510.52
50.8189	517.64
50.8333	502.50
50.8477	510.67
50.8622	488.59
50.8766	489.34
50.8911	508.68
50.9055	495.63
50.9199	501.59
50.9344	516.14
50.9488	523.73
50.9633	506.50
50.9777	487.91
50.9921	523.46
51.0066	509.35
51.0210	485.21
51.0355	497.32
51.0499	474.12
51.0643	499.41
51.0788	515.68
51.0932	533.81
51.1077	521.16
51.1221	517.72
51.1365	485.56
51.1510	488.10
51.1654	500.18
51.1799	496.35
51.1943	470.91
51.2087	468.18
51.2232	500.18
51.2376	513.36
51.2521	488.54
51.2665	503.69
51.2809	509.93
51.2954	494.74
51.3098	498.50
51.3243	513.51
51.3387	518.34
51.3531	524.46
51.3676	519.51
51.3820	514.88
51.3965	513.97
51.4109	491.60
51.4253	491.85
51.4398	496.87
51.4542	491.67
51.4687	535.60
51.4831	518.57
51.4975	501.56
51.5120	503.39
51.5264	526.02
51.5409	496.48
51.5553	498.31
51.5697	520.07
51.5842	500.40
51.5986	512.58
51.6131	510.81
51.6275	537.62
51.6419	499.56
51.6564	512.60
51.6708	510.31
51.6853	492.57
51.6997	532.08
51.7141	547.27
51.7286	527.50
51.7430	524.29
51.7575	486.63
51.7719	499.98
51.7863	506.32
51.8008	485.40
51.8152	497.10
51.8297	474.99
51.8441	501.55
51.8585	544.13
51.8730	523.13
51.8874	494.57
51.9019	523.59
51.9163	497.30
51.9307	538.42
51.9452	505.84
51.9596	470.98
51.9741	506.38
51.9885	526.14
52.0029	481.92
52.0174	498.82
52.0318	490.96
52.0463	491.14
52.0607	538.23
52.0751	517.21
52.0896	510.94
52.1040	484.28
52.1185	530.02
52.1329	511.60
52.1473	507.17
52.1618	486.85
52.1762	509.84
52.1907	521.22
52.2051	534.09
52.2195	530.17
52.2340	513.26
52.2484	506.01
52.2629	496.95
52.2773	516.02
52.2917	512.01
52.3062	506.78
52.3206	479.43
52.3351	504.32
52.3495	528.73
52.3639	522.27
52.3784	525.67
52.3928	535.30
52.4073	492.31
52.4217	523.75
52.4361	544.79
52.4506	523.39
52.4650	494.97
52.4795	486.64
52.4939	500.19
52.5083	513.69
52.5228	505.10
52.5372	502.61
52.5517	515.48
52.5661	532.67
52.5805	516.95
52.5950	563.60
52.6094	538.02
52.6239	508.42
52.6383	493.59
52.6527	505.36
52.6672	499.48
52.6816	498.49
52.6961	512.38
52.7105	530.47
52.7250	535.28
52.7394	497.84
52.7538	492.55
52.7683	486.26
52.7827	491.59
52.7972	507.09
52.8116	513.42
52.8260	493.01
52.8405	508.28
52.8549	505.90
52.8694	498.79
52.8838	511.27
52.8982	516.72
52.9127	534.98
52.9271	482.23
52.9416	530.92
52.9560	497.75
52.9704	469.12
52.9849	492.38
52.9993	514.84
53.0138	543.76
53.0282	520.35
53.0426	493.90
53.0571	486.32
53.0715	506.20
53.0860	558.16
53.1004	478.09
53.1148	519.27
53.1293	510.64
53.1437	508.85
53.1582	519.70
53.1726	515.66
53.1870	507.87
53.2015	470.35
53.2159	468.74
53.2304	495.91
53.2448	505.00
53.2592	519.28
53.2737	480.57
53.2881	459.28
53.3026	504.91
53.3170	506.30
53.3314	522.64
53.3459	535.39
53.3603	504.20
53.3748	497.76
53.3892	521.28
53.4036	510.09
53.4181	521.15
53.4325	538.06
53.4470	486.68
53.4614	467.67
53.4758	533.92
53.4903	514.81
53.5047	508.31
53.5192	515.49
53.5336	515.51
53.5480	512.83
53.5625	502.49
53.5769	510.54
53.5914	507.44
53.6058	507.46
53.6202	506.16
53.6347	524.50
53.6491	487.05
53.6636	493.69
53.6780	499.45
53.6924	509.03
53.7069	507.39
53.7213	496.35
53.7358	471.14
53.7502	524.64
53.7646	474.23
53.7791	491.45
53.7935	480.63
53.8080	502.05
53.8224	493.65
53.8368	526.96
53.8513	495.15
53.8657	519.44
53.8802	527.97
53.8946	535.56
53.9090	519.70
53.9235	503.00
53.9379	522.52
53.9524	528.16
53.9668	527.70
53.9812	522.01
53.9957	504.45
54.0101	539.87
54.0246	544.99
54.0390	524.99
54.0534	522.13
54.0679	518.00
54.0823	510.21
54.0968	551.18
54.1112	534.18
54.1256	563.85
54.1401	522.52
54.1545	500.93
54.1690	562.51
54.1834	555.67
54.1978	535.74
54.2123	536.16
54.2267	576.78
54.2412	593.36
54.2556	560.45
54.2700	579.78
54.2845	577.55
54.2989	582.24
54.3134	595.63
54.3278	626.14
54.3422	614.35
54.3567	629.13
54.3711	598.93
54.3856	608.89
54.4000	612.77
54.4144	603.75
54.4289	618.85
54.4433	575.33
54.4578	587.09
54.4722	609.95
54.4866	604.99
54.5011	601.46
54.5155	594.42
54.5300	578.47
54.5444	591.82
54.5588	552.57
54.5733	541.35
54.5877	496.49
54.6022	529.53
54.6166	534.20
54.6310	548.70
54.6455	536.59
54.6599	537.99
54.6744	523.20
54.6888	516.51
54.7032	539.32
54.7177	563.55
54.7321	510.47
54.7466	479.28
54.7610	491.58
54.7754	508.66
54.7899	519.40
54.8043	530.76
54.8188	511.89
54.8332	542.94
54.8476	546.37
54.8621	535.00
54.8765	533.51
54.8910	523.01
54.9054	529.83
54.9198	529.71
54.9343	517.43
54.9487	546.24
54.9632	511.15
54.9776	535.80
54.9920	505.14
55.0065	492.81
55.0209	503.80
55.0354	510.39
55.0498	500.05
55.0642	493.29
55.0787	518.85
55.0931	531.83
55.1076	509.05
55.1220	527.19
55.1364	531.27
55.1509	486.09
55.1653	518.77
55.1798	511.45
55.1942	502.24
55.2086	496.93
55.2231	478.73
55.2375	519.38
55.2520	519.08
55.2664	534.41
55.2808	534.54
55.2953	491.53
55.3097	541.18
55.3242	526.04
55.3386	529.09
55.3530	535.74
55.3675	539.15
55.3819	534.10
55.3964	524.30
55.4108	508.26
55.4252	531.14
55.4397	506.22
55.4541	492.38
55.4686	473.91
55.4830	489.97
55.4974	493.90
55.5119	525.24
55.5263	548.39
55.5408	526.70
55.5552	508.90
55.5696	510.57
55.5841	526.42
55.5985	520.81
55.6130	545.57
55.6274	529.75
55.6418	518.52
55.6563	527.91
55.6707	539.67
55.6852	522.56
55.6996	554.90
55.7140	549.48
55.7285	527.91
55.7429	508.76
55.7574	496.74
55.7718	504.28
55.7862	508.10
55.8007	555.06
55.8151	537.62
55.8296	532.29
55.8440	506.73
55.8584	523.64
55.8729	507.60
55.8873	493.39
55.9018	548.31
55.9162	534.44
55.9306	548.36
55.9451	496.13
55.9595	488.60
55.9740	522.30
55.9884	494.36
56.0028	502.46
56.0173	497.00
56.0317	506.40
56.0462	550.15
56.0606	570.99
56.0750	530.71
56.0895	541.36
56.1039	535.56
56.1184	535.17
56.1328	540.25
56.1472	500.86
56.1617	542.35
56.1761	496.40
56.1906	540.97
56.2050	531.46
56.2194	499.02
56.2339	520.55
56.2483	556.86
56.2628	525.45
56.2772	517.32
56.2916	506.47
56.3061	514.56
56.3205	516.72
56.3350	507.62
56.3494	533.05
56.3639	523.98
56.3783	533.25
56.3927	500.48
56.4072	515.00
56.4216	510.86
56.4361	506.98
56.4505	510.92
56.4649	517.74
56.4794	515.55
56.4938	504.69
56.5083	545.02
56.5227	494.30
56.5371	502.97
56.5516	513.16
56.5660	533.21
56.5805	533.08
56.5949	527.43
56.6093	460.51
56.6238	505.07
56.6382	495.15
56.6527	496.08
56.6671	527.61
56.6815	531.65
56.6960	514.14
56.7104	520.40
56.7249	496.44
56.7393	480.54
56.7537	523.41
56.7682	502.37
56.7826	505.58
56.7971	568.70
56.8115	542.68
56.8259	505.64
56.8404	488.11
56.8548	480.07
56.8693	497.53
56.8837	490.57
56.8981	585.69
56.9126	465.16
56.9270	521.47
56.9415	483.10
56.9559	469.18
56.9703	528.54
56.9848	536.73
56.9992	512.36
57.0137	512.75
57.0281	504.11
57.0425	514.93
57.0570	500.65
57.0714	526.13
57.0859	561.83
57.1003	538.96
57.1147	522.03
57.1292	506.44
57.1436	498.37
57.1581	488.48
57.1725	541.33
57.1869	503.34
57.2014	506.74
57.2158	517.33
57.2303	508.11
57.2447	507.70
57.2591	518.36
57.2736	503.51
57.2880	512.78
57.3025	506.17
57.3169	508.84
57.3313	537.10
57.3458	552.96
57.3602	526.60
57.3747	521.22
57.3891	502.63
57.4035	484.26
57.4180	515.81
57.4324	521.83
57.4469	510.46
57.4613	492.27
57.4757	546.33
57.4902	533.10
57.5046	508.61
57.5191	515.90
57.5335	532.29
57.5479	562.55
57.5624	520.89
57.5768	514.09
57.5913	515.79
57.6057	515.60
57.6201	524.87
57.6346	536.09
57.6490	523.80
57.6635	534.67
57.6779	528.63
57.6923	519.09
57.7068	510.43
57.7212	519.28
57.7357	529.40
57.7501	545.06
57.7645	542.40
57.7790	564.02
57.7934	560.68
57.8079	514.20
57.8223	561.52
57.8367	577.66
57.8512	613.33
57.8656	637.38
57.8801	641.11
57.8945	647.16
57.9089	714.73
57.9234	734.71
57.9378	703.02
57.9523	690.30
57.9667	710.62
57.9811	683.50
57.9956	666.64
58.0100	656.82
58.0245	642.97
58.0389	647.59
58.0533	697.71
58.0678	704.98
58.0822	645.41
58.0967	631.21
58.1111	657.73
58.1255	666.90
58.1400	627.74
58.1544	609.03
58.1689	593.98
58.1833	610.48
58.1977	584.58
58.2122	597.11
58.2266	576.10
58.2411	587.31
58.2555	575.99
58.2699	584.75
58.2844	563.65
58.2988	588.38
58.3133	576.00
58.3277	579.22
58.3421	576.36
58.3566	565.47
58.3710	566.54
58.3855	554.17
58.3999	542.52
58.4143	531.41
58.4288	559.71
58.4432	522.20
58.4577	558.36
58.4721	561.90
58.4865	522.34
58.5010	512.33
58.5154	540.35
58.5299	517.61
58.5443	501.93
58.5587	559.11
58.5732	538.84
58.5876	536.71
58.6021	534.00
58.6165	521.98
58.6309	520.16
58.6454	533.01
58.6598	520.76
58.6743	518.23
58.6887	511.83
58.7031	500.81
58.7176	491.51
58.7320	531.12
58.7465	539.04
58.7609	524.63
58.7753	502.26
58.7898	517.05
58.8042	543.47
58.8187	549.49
58.8331	545.09
58.8475	553.65
58.8620	555.31
58.8764	538.17
58.8909	545.04
58.9053	568.56
58.9197	528.13
58.9342	522.77
58.9486	521.99
58.9631	527.64
58.9775	522.20
58.9919	530.10
59.0064	537.60
59.0208	530.82
59.0353	515.73
59.0497	515.60
59.0641	496.22
59.0786	514.98
59.0930	547.88
59.1075	538.10
59.1219	573.90
59.1363	544.07
59.1508	505.48
59.1652	513.19
59.1797	529.11
59.1941	506.91
59.2085	520.23
59.2230	557.30
59.2374	555.10
59.2519	532.41
59.2663	557.70
59.2807	558.00
59.2952	536.34
59.3096	538.80
59.3241	550.98
59.3385	586.58
59.3529	586.72
59.3674	554.27
59.3818	546.62
59.3963	556.82
59.4107	575.58
59.4251	585.64
59.4396	590.79
59.4540	585.58
59.4685	573.39
59.4829	544.83
59.4973	562.11
59.5118	536.51
59.5262	531.33
59.5407	554.97
59.5551	584.76
59.5695	550.19
59.5840	527.43
59.5984	548.67
59.6129	546.23
59.6273	523.82
59.6417	503.52
59.6562	547.98
59.6706	525.82
59.6851	496.36
59.6995	539.57
59.7139	574.66
59.7284	557.82
59.7428	545.22
59.7573	566.65
59.7717	538.15
59.7861	534.58
59.8006	519.72
59.8150	528.89
59.8295	535.63
59.8439	512.72
59.8583	548.95
59.8728	531.11
59.8872	543.69
59.9017	551.90
59.9161	533.05
59.9305	507.53
59.9450	548.56
59.9594	503.69
59.9739	520.37
59.9883	558.66
60.0027	527.49
60.0172	542.41
60.0316	551.65
60.0461	536.91
60.0605	513.42
60.0750	534.83
60.0894	555.99
60.1038	550.44
60.1183	556.18
60.1327	561.16
60.1472	497.69
60.1616	535.99
60.1760	522.38
60.1905	507.58
60.2049	521.76
60.2194	548.51
60.2338	545.73
60.2482	554.47
60.2627	579.05
60.2771	533.66
60.2916	567.93
60.3060	517.40
60.3204	526.79
60.3349	515.91
60.3493	539.15
60.3638	539.04
60.3782	525.96
60.3926	529.13
60.4071	546.32
60.4215	526.79
60.4360	555.04
60.4504	504.14
60.4648	551.66
60.4793	556.81
60.4937	548.66
60.5082	494.21
60.5226	494.92
60.5370	532.86
60.5515	512.10
60.5659	548.04
60.5804	508.12
60.5948	536.66
60.6092	573.18
60.6237	499.10
60.6381	519.90
60.6526	519.11
60.6670	557.38
60.6814	510.19
60.6959	554.82
60.7103	546.21
60.7248	525.29
60.7392	544.66
60.7536	552.18
60.7681	503.08
60.7825	534.38
60.7970	534.47
60.8114	540.44
60.8258	546.19
60.8403	548.87
60.8547	508.68
60.8692	512.29
60.8836	526.55
60.8980	559.13
60.9125	558.53
60.9269	534.33
60.9414	548.63
60.9558	533.46
60.9702	503.38
60.9847	537.05
60.9991	531.90
61.0136	547.92
61.0280	555.66
61.0424	541.12
61.0569	615.54
61.0713	561.27
61.0858	553.49
61.1002	548.32
61.1146	540.01
61.1291	545.73
61.1435	518.40
61.1580	507.68
61.1724	544.68
61.1868	562.27
61.2013	537.59
61.2157	524.25
61.2302	535.53
61.2446	550.34
61.2590	520.77
61.2735	556.52
61.2879	531.05
61.3024	544.06
61.3168	531.42
61.3312	572.62
61.3457	578.67
61.3601	569.17
61.3746	509.92
61.3890	516.12
61.4034	503.18
61.4179	526.08
61.4323	539.95
61.4468	519.10
61.4612	542.85
61.4756	561.89
61.4901	534.06
61.5045	511.32
61.5190	541.20
61.5334	525.14
61.5478	526.46
61.5623	551.64
61.5767	521.78
61.5912	507.66
61.6056	549.37
61.6200	511.26
61.6345	538.44
61.6489	561.22
61.6634	523.62
61.6778	522.89
61.6922	530.27
61.7067	561.97
61.7211	587.12
61.7356	513.16
61.7500	506.63
61.7644	531.40
61.7789	578.28
61.7933	577.76
61.8078	589.49
61.8222	551.72
61.8366	511.60
61.8511	524.31
61.8655	547.38
61.8800	515.17
61.8944	539.56
61.9088	544.09
61.9233	527.34
61.9377	594.22
61.9522	580.99
61.9666	575.73
61.9810	558.75
61.9955	549.64
62.0099	512.79
62.0244	520.26
62.0388	566.44
62.0532	514.10
62.0677	528.04
62.0821	563.52
62.0966	540.47
62.1110	531.56
62.1254	568.46
62.1399	529.60
62.1543	534.92
62.1688	560.87
62.1832	522.20
62.1976	525.38
62.2121	545.40
62.2265	540.09
62.2410	546.69
62.2554	544.71
62.2698	534.28
62.2843	534.54
62.2987	558.99
62.3132	569.83
62.3276	584.07
62.3420	552.45
62.3565	568.08
62.3709	536.93
62.3854	541.51
62.3998	542.34
62.4142	539.39
62.4287	544.67
62.4431	520.10
62.4576	549.74
62.4720	582.79
62.4864	542.89
62.5009	517.05
62.5153	520.19
62.5298	531.33
62.5442	541.49
62.5586	557.40
62.5731	540.59
62.5875	533.04
62.6020	543.65
62.6164	540.37
62.6308	580.95
62.6453	567.77
62.6597	539.92
62.6742	516.27
62.6886	545.07
62.7030	558.85
62.7175	556.30
62.7319	520.83
62.7464	545.23
62.7608	556.50
62.7752	565.33
62.7897	580.48
62.8041	571.79
62.8186	576.76
62.8330	558.91
62.8474	527.49
62.8619	566.09
62.8763	567.27
62.8908	557.79
62.9052	574.83
62.9196	589.92
62.9341	574.49
62.9485	572.79
62.9630	545.77
62.9774	554.28
62.9918	557.60
63.0063	576.04
63.0207	574.32
63.0352	564.19
63.0496	535.15
63.0640	574.73
63.0785	571.23
63.0929	583.95
63.1074	559.35
63.1218	550.42
63.1362	595.26
63.1507	574.84
63.1651	580.34
63.1796	572.03
63.1940	570.47
63.2084	565.41
63.2229	569.98
63.2373	563.85
63.2518	571.78
63.2662	552.91
63.2806	588.30
63.2951	578.07
63.3095	629.96
63.3240	599.53
63.3384	612.06
63.3528	569.69
63.3673	575.73
63.3817	598.04
63.3962	557.42
63.4106	588.34
63.4250	627.74
63.4395	610.78
63.4539	606.95
63.4684	627.09
63.4828	678.88
63.4972	679.20
63.5117	672.48
63.5261	678.42
63.5406	677.08
63.5550	699.01
63.5694	787.26
63.5839	794.61
63.5983	789.65
63.6128	820.39
63.6272	833.80
63.6416	838.19
63.6561	842.06
63.6705	856.94
63.6850	857.58
63.6994	856.72
63.7138	905.89
63.7283	864.78
63.7427	808.14
63.7572	837.13
63.7716	845.03
63.7861	820.18
63.8005	752.45
63.8149	770.89
63.8294	782.58
63.8438	769.61
63.8583	764.35
63.8727	734.71
63.8871	710.48
63.9016	746.40
63.9160	696.12
63.9305	688.25
63.9449	652.20
63.9593	616.58
63.9738	632.17
63.9882	623.68
64.0027	676.04
64.0171	665.57
64.0315	606.98
64.0460	642.29
64.0604	629.60
64.0749	621.44
64.0893	640.68
64.1037	628.05
64.1182	630.38
64.1326	637.61
64.1471	583.81
64.1615	603.45
64.1759	610.79
64.1904	592.55
64.2048	609.18
64.2193	618.30
64.2337	620.91
64.2481	582.10
64.2626	607.48
64.2770	629.32
64.2915	599.76
64.3059	625.77
64.3203	601.10
64.3348	596.82
64.3492	625.41
64.3637	610.75
64.3781	608.73
64.3925	616.45
64.4070	614.92
64.4214	623.79
64.4359	636.77
64.4503	602.40
64.4647	583.44
64.4792	608.25
64.4936	616.04
64.5081	640.69
64.5225	613.64
64.5369	626.23
64.5514	610.11
64.5658	632.13
64.5803	595.21
64.5947	591.36
64.6091	621.51
64.6236	633.26
64.6380	655.30
64.6525	637.04
64.6669	707.33
64.6813	678.91
64.6958	673.39
64.7102	721.82
64.7247	645.14
64.7391	638.49
64.7535	715.95
64.7680	673.82
64.7824	712.78
64.7969	727.05
64.8113	761.85
64.8257	746.58
64.8402	773.52
64.8546	800.93
64.8691	809.44
64.8835	831.92
64.8979	849.32
64.9124	828.37
64.9268	835.07
64.9413	933.79
64.9557	918.02
64.9701	924.67
64.9846	1034.46
64.9990	1105.01
65.0135	1240.69
65.0279	1393.12
65.0423	1646.81
65.0568	2018.63
65.0712	2532.35
65.0857	3171.66
65.1001	4187.39
65.1145	5658.88
65.1290	7509.79
65.1434	9015.14
65.1579	10650.55
65.1723	11598.18
65.1867	11220.79
65.2012	9902.23
65.2156	8397.47
65.2301	6630.36
65.2445	5343.35
65.2589	4468.67
65.2734	4127.97
65.2878	4221.06
65.3023	4724.48
65.3167	5579.11
65.3311	6401.27
65.3456	7005.17
65.3600	6971.51
65.3745	6409.69
65.3889	5489.47
65.4033	4459.76
65.4178	3499.86
65.4322	2833.35
65.4467	2154.84
65.4611	1777.47
65.4755	1471.09
65.4900	1250.82
65.5044	1181.72
65.5189	1079.58
65.5333	1038.09
65.5477	979.51
65.5622	882.27
65.5766	823.54
65.5911	819.41
65.6055	809.97
65.6199	761.82
65.6344	760.43
65.6488	730.82
65.6633	728.65
65.6777	703.48
65.6921	656.35
65.7066	728.52
65.7210	691.40
65.7355	651.11
65.7499	687.37
65.7643	680.87
65.7788	659.58
65.7932	668.39
65.8077	645.86
65.8221	661.86
65.8365	625.81
65.8510	641.16
65.8654	629.22
65.8799	633.30
65.8943	643.81
65.9087	574.89
65.9232	650.56
65.9376	661.62
65.9521	622.11
65.9665	595.13
65.9809	633.36
65.9954	634.53
66.0098	612.17
66.0243	632.99
66.0387	617.87
66.0531	613.30
66.0676	599.03
66.0820	596.05
66.0965	634.55
66.1109	624.55
66.1253	630.92
66.1398	584.75
66.1542	609.92
66.1687	609.64
66.1831	588.32
66.1975	582.26
66.2120	625.44
66.2264	571.71
66.2409	606.71
66.2553	643.57
66.2697	612.88
66.2842	623.79
66.2986	627.68
66.3131	607.14
66.3275	591.87
66.3419	646.58
66.3564	614.50
66.3708	598.50
66.3853	596.23
66.3997	579.86
66.4141	581.73
66.4286	616.02
66.4430	577.57
66.4575	570.30
66.4719	630.06
66.4863	623.92
66.5008	564.38
66.5152	596.37
66.5297	608.70
66.5441	584.43
66.5585	594.85
66.5730	598.04
66.5874	587.82
66.6019	628.96
66.6163	592.71
66.6307	591.23
66.6452	592.11
66.6596	612.82
66.6741	606.99
66.6885	581.44
66.7029	604.77
66.7174	581.55
66.7318	543.96
66.7463	575.21
66.7607	600.46
66.7751	605.82
66.7896	582.09
66.8040	578.50
66.8185	608.88
66.8329	615.79
66.8473	583.07
66.8618	595.66
66.8762	585.56
66.8907	556.10
66.9051	569.11
66.9195	587.54
66.9340	593.61
66.9484	610.21
66.9629	546.13
66.9773	550.93
66.9917	597.20
67.0062	589.05
67.0206	579.81
67.0351	572.41
67.0495	569.61
67.0639	576.31
67.0784	593.54
67.0928	589.62
67.1073	583.30
67.1217	610.34
67.1361	574.73
67.1506	543.15
67.1650	584.92
67.1795	602.40
67.1939	607.50
67.2083	604.45
67.2228	560.58
67.2372	569.61
67.2517	560.28
67.2661	598.10
67.2805	597.00
67.2950	587.67
67.3094	586.97
67.3239	569.69
67.3383	605.94
67.3527	590.87
67.3672	546.71
67.3816	547.22
67.3961	562.42
67.4105	580.16
67.4250	596.62
67.4394	559.81
67.4538	549.40
67.4683	570.51
67.4827	593.59
67.4972	584.50
67.5116	602.38
67.5260	609.19
67.5405	596.20
67.5549	603.29
67.5694	588.12
67.5838	549.07
67.5982	557.31
67.6127	566.21
67.6271	580.13
67.6416	582.41
67.6560	586.30
67.6704	559.30
67.6849	536.52
67.6993	531.44
67.7138	567.84
67.7282	568.26
67.7426	554.82
67.7571	578.07
67.7715	531.25
67.7860	565.91
67.8004	561.68
67.8148	561.15
67.8293	574.10
67.8437	576.36
67.8582	590.97
67.8726	543.16
67.8870	566.53
67.9015	562.04
67.9159	588.11
67.9304	567.04
67.9448	585.13
67.9592	601.12
67.9737	621.05
67.9881	554.71
68.0026	566.42
68.0170	598.60
68.0314	579.61
68.0459	581.87
68.0603	594.82
68.0748	580.95
68.0892	604.05
68.1036	559.99
68.1181	567.25
68.1325	574.13
68.1470	584.64
68.1614	564.06
68.1758	559.41
68.1903	574.00
68.2047	592.20
68.2192	596.84
68.2336	589.71
68.2480	630.37
68.2625	585.24
68.2769	568.01
68.2914	588.83
68.3058	558.38
68.3202	574.17
68.3347	565.41
68.3491	524.79
68.3636	541.17
68.3780	603.46
68.3924	614.96
68.4069	562.48
68.4213	521.91
68.4358	609.52
68.4502	508.57
68.4646	551.23
68.4791	559.18
68.4935	590.36
68.5080	577.04
68.5224	504.77
68.5368	603.27
68.5513	543.73
68.5657	544.02
68.5802	576.20
68.5946	565.12
68.6090	571.55
68.6235	553.11
68.6379	573.07
68.6524	542.15
68.6668	532.15
68.6812	571.86
68.6957	561.08
68.7101	609.59
68.7246	589.16
68.7390	577.21
68.7534	555.63
68.7679	587.00
68.7823	601.14
68.7968	600.23
68.8112	586.86
68.8256	577.70
68.8401	573.12
68.8545	565.74
68.8690	579.75
68.8834	571.59
68.8978	614.03
68.9123	571.45
68.9267	571.01
68.9412	581.63
68.9556	560.15
68.9700	529.98
68.9845	507.42
68.9989	570.34
69.0134	568.82
69.0278	565.24
69.0422	592.76
69.0567	593.63
69.0711	538.86
69.0856	581.20
69.1000	586.10
69.1144	558.92
69.1289	571.56
69.1433	558.75
69.1578	521.02
69.1722	604.90
69.1866	577.67
69.2011	558.70
69.2155	570.08
69.2300	593.47
69.2444	594.45
69.2588	587.07
69.2733	565.56
69.2877	602.59
69.3022	591.54
69.3166	549.01
69.3310	576.22
69.3455	606.38
69.3599	593.85
69.3744	571.22
69.3888	643.51
69.4032	621.93
69.4177	595.62
69.4321	589.42
69.4466	555.76
69.4610	620.01
69.4754	591.39
69.4899	621.39
69.5043	583.92
69.5188	560.99
69.5332	601.01
69.5476	563.48
69.5621	558.51
69.5765	584.74
69.5910	571.27
69.6054	538.57
69.6198	556.84
69.6343	525.53
69.6487	583.26
69.6632	594.02
69.6776	574.82
69.6920	559.26
69.7065	587.30
69.7209	581.09
69.7354	559.10
69.7498	575.71
69.7642	529.12
69.7787	565.49
69.7931	543.78
69.8076	541.55
69.8220	527.53
69.8364	607.16
69.8509	579.02
69.8653	545.33
69.8798	514.44
69.8942	552.34
69.9086	589.09
69.9231	613.33
69.9375	589.54
69.9520	626.98
69.9664	567.64
69.9808	587.70
69.9953	556.76
70.0097	548.51
70.0242	572.21
70.0386	561.59
70.0530	575.33
70.0675	514.36
70.0819	582.22
70.0964	645.49
70.1108	601.45
70.1252	618.26
70.1397	590.42
70.1541	557.42
70.1686	610.26
70.1830	601.51
70.1974	607.93
70.2119	608.58
70.2263	596.58
70.2408	559.83
70.2552	580.81
70.2696	544.56
70.2841	521.91
70.2985	557.53
70.3130	625.16
70.3274	628.69
70.3418	573.56
70.3563	539.85
70.3707	571.59
70.3852	566.62
70.3996	553.12
70.4140	595.30
70.4285	626.28
70.4429	591.66
70.4574	549.23
70.4718	566.23
70.4862	605.00
70.5007	585.75
70.5151	585.53
70.5296	551.28
70.5440	565.02
70.5584	547.22
70.5729	516.06
70.5873	582.11
70.6018	560.34
70.6162	577.14
70.6306	565.31
70.6451	561.47
70.6595	581.22
70.6740	560.18
70.6884	553.45
70.7028	631.94
70.7173	589.14
70.7317	550.34
70.7462	590.36
70.7606	605.56
70.7750	581.90
70.7895	592.34
70.8039	568.53
70.8184	593.88
70.8328	603.16
70.8472	519.90
70.8617	549.54
70.8761	569.90
70.8906	556.78
70.9050	537.24
70.9194	551.35
70.9339	603.44
70.9483	636.87
70.9628	593.27
70.9772	577.75
70.9916	576.64
71.0061	554.25
71.0205	568.87
71.0350	552.32
71.0494	592.90
71.0638	609.20
71.0783	575.26
71.0927	583.71
71.1072	568.65
71.1216	609.41
71.1361	587.33
71.1505	513.99
71.1649	573.78
71.1794	589.27
71.1938	576.50
71.2083	616.56
71.2227	589.34
71.2371	550.14
71.2516	576.97
71.2660	558.04
71.2805	540.30
71.2949	578.48
71.3093	554.61
71.3238	580.86
71.3382	589.77
71.3527	565.09
71.3671	551.31
71.3815	521.50
71.3960	517.01
71.4104	529.09
71.4249	642.15
71.4393	647.37
71.4537	581.82
71.4682	544.27
71.4826	531.50
71.4971	553.23
71.5115	546.60
71.5259	531.37
71.5404	565.73
71.5548	615.99
71.5693	593.31
71.5837	601.23
71.5981	622.99
71.6126	611.60
71.6270	573.45
71.6415	547.79
71.6559	513.89
71.6703	582.41
71.6848	619.06
71.6992	601.32
71.7137	616.91
71.7281	606.25
71.7425	560.66
71.7570	545.05
71.7714	611.42
71.7859	615.63
71.8003	570.54
71.8147	536.18
71.8292	544.67
71.8436	588.08
71.8581	592.38
71.8725	627.05
71.8869	570.43
71.9014	505.21
71.9158	566.09
71.9303	591.80
71.9447	576.28
71.9591	544.91
71.9736	595.71
71.9880	580.73
72.0025	561.97
72.0169	571.02
72.0313	581.51
72.0458	646.56
72.0602	615.61
72.0747	579.11
72.0891	592.35
72.1035	548.58
72.1180	525.23
72.1324	584.78
72.1469	656.12
72.1613	721.64
72.1757	689.57
72.1902	660.83
72.2046	612.89
72.2191	569.34
72.2335	571.74
72.2479	534.47
72.2624	527.43
72.2768	600.48
72.2913	541.99
72.3057	485.21
72.3201	533.83
72.3346	590.35
72.3490	614.02
72.3635	565.25
72.3779	566.37
72.3923	588.06
72.4068	623.37
72.4212	601.53
72.4357	609.35
72.4501	569.29
72.4645	632.36
72.4790	594.23
72.4934	556.56
72.5079	614.29
72.5223	626.46
72.5367	558.85
72.5512	611.35
72.5656	570.61
72.5801	534.09
72.5945	463.49
72.6089	497.45
72.6234	552.09
72.6378	538.08
72.6523	529.26
72.6667	532.33
72.6811	600.57
72.6956	648.63
72.7100	524.41
72.7245	524.59
72.7389	532.50
72.7533	550.12
72.7678	597.21
72.7822	614.08
72.7967	587.46
72.8111	624.47
72.8255	677.97
72.8400	594.03
72.8544	553.38
72.8689	591.77
72.8833	578.55