2022.09.19 19:37:17
Îáðàçåö: ß÷åéêà LCoV 16-09-2022
Lambda1 = 1.54060
Lambda2 = 1.54439
Lambdam = 1.54186
R = 0.497
2Theta	I

line¹ 0 ;repeat¹ 0
22.1120	600.98
22.1264	519.94
22.1409	494.58
22.1553	506.80
22.1697	532.94
22.1842	531.73
22.1986	562.08
22.2131	525.24
22.2275	606.53
22.2419	573.53
22.2564	498.40
22.2708	520.35
22.2853	629.13
22.2997	590.01
22.3141	550.55
22.3286	560.18
22.3430	579.64
22.3575	567.52
22.3719	642.12
22.3863	563.99
22.4008	590.06
22.4152	639.92
22.4297	699.69
22.4441	637.20
22.4585	557.05
22.4730	655.98
22.4874	645.32
22.5019	601.44
22.5163	673.32
22.5307	603.98
22.5452	542.11
22.5596	532.65
22.5741	553.82
22.5885	661.23
22.6029	538.19
22.6174	619.91
22.6318	532.47
22.6463	522.53
22.6607	612.26
22.6751	533.10
22.6896	623.08
22.7040	646.41
22.7185	581.48
22.7329	557.76
22.7473	666.92
22.7618	626.16
22.7762	554.89
22.7907	587.58
22.8051	683.86
22.8195	565.54
22.8340	432.96
22.8484	509.44
22.8629	606.58
22.8773	537.54
22.8917	486.05
22.9062	549.21
22.9206	521.85
22.9351	572.20
22.9495	590.81
22.9639	601.25
22.9784	532.11
22.9928	513.12
23.0073	562.87
23.0217	616.34
23.0361	549.38
23.0506	657.41
23.0650	608.92
23.0795	554.84
23.0939	563.59
23.1083	544.93
23.1228	588.85
23.1372	641.79
23.1517	574.45
23.1661	570.83
23.1806	563.19
23.1950	536.54
23.2094	634.06
23.2239	566.42
23.2383	577.33
23.2528	552.96
23.2672	555.42
23.2816	603.66
23.2961	558.18
23.3105	552.96
23.3250	550.56
23.3394	554.20
23.3538	542.03
23.3683	500.74
23.3827	574.81
23.3972	462.26
23.4116	567.38
23.4260	586.98
23.4405	562.70
23.4549	500.73
23.4694	548.68
23.4838	553.98
23.4982	541.44
23.5127	576.94
23.5271	603.26
23.5416	559.05
23.5560	551.81
23.5704	550.50
23.5849	546.05
23.5993	579.16
23.6138	563.00
23.6282	549.74
23.6426	529.32
23.6571	559.37
23.6715	537.74
23.6860	460.62
23.7004	500.47
23.7148	500.14
23.7293	513.09
23.7437	597.36
23.7582	567.15
23.7726	595.85
23.7870	622.75
23.8015	563.58
23.8159	564.89
23.8304	504.08
23.8448	539.28
23.8592	637.51
23.8737	596.83
23.8881	487.05
23.9026	568.57
23.9170	501.10
23.9314	509.96
23.9459	527.80
23.9603	534.34
23.9748	559.62
23.9892	525.87
24.0036	474.87
24.0181	547.25
24.0325	488.80
24.0470	562.57
24.0614	578.14
24.0758	578.58
24.0903	513.19
24.1047	561.45
24.1192	562.36
24.1336	566.60
24.1480	547.30
24.1625	589.12
24.1769	580.27
24.1914	552.88
24.2058	534.45
24.2202	557.70
24.2347	619.81
24.2491	616.30
24.2636	567.72
24.2780	592.21
24.2924	573.84
24.3069	554.87
24.3213	570.54
24.3358	556.08
24.3502	535.93
24.3646	556.01
24.3791	563.21
24.3935	510.21
24.4080	565.49
24.4224	596.56
24.4368	560.77
24.4513	543.12
24.4657	574.17
24.4802	612.29
24.4946	562.13
24.5090	539.65
24.5235	570.28
24.5379	517.69
24.5524	562.79
24.5668	555.42
24.5812	519.55
24.5957	571.67
24.6101	555.18
24.6246	542.81
24.6390	549.60
24.6534	615.56
24.6679	545.76
24.6823	524.90
24.6968	528.62
24.7112	524.73
24.7256	507.42
24.7401	517.03
24.7545	545.37
24.7690	515.96
24.7834	495.53
24.7978	560.33
24.8123	503.52
24.8267	547.10
24.8412	546.69
24.8556	552.25
24.8700	535.56
24.8845	552.70
24.8989	558.97
24.9134	560.91
24.9278	579.72
24.9422	598.80
24.9567	555.26
24.9711	567.19
24.9856	556.88
25.0000	557.96
25.0144	558.67
25.0289	547.12
25.0433	574.67
25.0578	533.33
25.0722	523.20
25.0866	571.78
25.1011	565.86
25.1155	548.83
25.1300	545.72
25.1444	498.70
25.1588	549.84
25.1733	586.53
25.1877	533.42
25.2022	522.10
25.2166	505.94
25.2310	539.09
25.2455	517.68
25.2599	519.03
25.2744	525.65
25.2888	590.72
25.3032	552.37
25.3177	538.55
25.3321	494.67
25.3466	524.78
25.3610	524.92
25.3754	516.49
25.3899	543.03
25.4043	563.51
25.4188	550.83
25.4332	532.64
25.4476	576.38
25.4621	533.60
25.4765	549.57
25.4910	501.20
25.5054	529.97
25.5198	535.17
25.5343	547.44
25.5487	536.68
25.5632	537.51
25.5776	530.79
25.5920	558.97
25.6065	533.59
25.6209	578.56
25.6354	532.54
25.6498	536.26
25.6642	527.95
25.6787	525.64
25.6931	536.71
25.7076	520.44
25.7220	490.88
25.7364	550.25
25.7509	573.72
25.7653	579.16
25.7798	581.42
25.7942	585.01
25.8086	557.55
25.8231	559.30
25.8375	545.48
25.8520	529.55
25.8664	549.06
25.8808	552.90
25.8953	563.65
25.9097	562.18
25.9242	550.01
25.9386	542.11
25.9530	527.18
25.9675	502.86
25.9819	513.50
25.9964	502.73
26.0108	492.66
26.0252	541.49
26.0397	549.95
26.0541	512.14
26.0686	540.16
26.0830	542.52
26.0974	551.02
26.1119	539.11
26.1263	564.28
26.1408	546.60
26.1552	546.06
26.1696	544.18
26.1841	554.06
26.1985	522.46
26.2130	545.98
26.2274	529.88
26.2418	524.94
26.2563	513.50
26.2707	509.47
26.2852	530.75
26.2996	496.80
26.3140	513.41
26.3285	516.49
26.3429	513.93
26.3574	516.23
26.3718	497.56
26.3862	508.99
26.4007	525.78
26.4151	558.63
26.4296	579.14
26.4440	527.64
26.4584	493.12
26.4729	504.94
26.4873	520.20
26.5018	461.10
26.5162	504.00
26.5306	551.02
26.5451	558.57
26.5595	565.58
26.5740	550.25
26.5884	528.05
26.6028	538.20
26.6173	551.45
26.6317	557.18
26.6462	540.82
26.6606	557.71
26.6750	524.87
26.6895	531.14
26.7039	528.22
26.7184	545.17
26.7328	517.19
26.7472	511.45
26.7617	557.37
26.7761	559.32
26.7906	549.99
26.8050	515.42
26.8194	504.55
26.8339	499.86
26.8483	563.53
26.8628	532.75
26.8772	537.10
26.8917	515.12
26.9061	536.49
26.9205	552.28
26.9350	529.01
26.9494	545.54
26.9639	526.73
26.9783	522.82
26.9927	526.70
27.0072	545.40
27.0216	504.87
27.0361	514.49
27.0505	494.62
27.0649	482.61
27.0794	514.05
27.0938	561.20
27.1083	526.57
27.1227	546.36
27.1371	510.36
27.1516	490.34
27.1660	526.51
27.1805	543.73
27.1949	503.16
27.2093	535.69
27.2238	524.00
27.2382	563.06
27.2527	563.39
27.2671	544.00
27.2815	533.19
27.2960	525.07
27.3104	518.21
27.3249	493.55
27.3393	500.59
27.3537	491.15
27.3682	507.88
27.3826	531.08
27.3971	548.84
27.4115	531.78
27.4259	550.94
27.4404	505.65
27.4548	485.95
27.4693	520.68
27.4837	503.39
27.4981	497.97
27.5126	550.44
27.5270	529.94
27.5415	521.67
27.5559	553.92
27.5703	545.85
27.5848	500.61
27.5992	487.85
27.6137	510.27
27.6281	470.33
27.6425	506.69
27.6570	543.14
27.6714	564.44
27.6859	532.23
27.7003	531.82
27.7147	525.45
27.7292	550.71
27.7436	528.44
27.7581	531.63
27.7725	510.02
27.7869	513.36
27.8014	508.79
27.8158	507.73
27.8303	526.87
27.8447	547.92
27.8591	514.83
27.8736	499.49
27.8880	525.46
27.9025	513.18
27.9169	531.81
27.9313	528.27
27.9458	518.24
27.9602	485.76
27.9747	509.62
27.9891	490.29
28.0035	544.10
28.0180	571.59
28.0324	487.27
28.0469	507.54
28.0613	540.69
28.0757	515.49
28.0902	543.05
28.1046	525.07
28.1191	521.14
28.1335	521.15
28.1479	475.40
28.1624	502.51
28.1768	521.55
28.1913	552.63
28.2057	513.00
28.2201	497.92
28.2346	496.70
28.2490	513.18
28.2635	526.02
28.2779	524.08
28.2923	490.63
28.3068	513.89
28.3212	516.18
28.3357	515.92
28.3501	498.53
28.3645	524.77
28.3790	525.97
28.3934	513.94
28.4079	537.20
28.4223	553.97
28.4367	524.90
28.4512	527.17
28.4656	518.91
28.4801	522.93
28.4945	529.08
28.5089	550.37
28.5234	484.55
28.5378	503.55
28.5523	518.22
28.5667	522.54
28.5811	532.78
28.5956	497.03
28.6100	545.29
28.6245	544.74
28.6389	550.82
28.6533	510.61
28.6678	485.45
28.6822	479.23
28.6967	488.88
28.7111	542.69
28.7255	495.76
28.7400	498.67
28.7544	531.21
28.7689	491.11
28.7833	509.90
28.7977	500.48
28.8122	497.44
28.8266	493.33
28.8411	501.97
28.8555	522.69
28.8699	541.09
28.8844	523.17
28.8988	523.60
28.9133	516.17
28.9277	498.88
28.9421	524.69
28.9566	490.51
28.9710	496.34
28.9855	478.95
28.9999	464.11
29.0143	496.45
29.0288	492.93
29.0432	521.39
29.0577	527.38
29.0721	558.55
29.0865	525.25
29.1010	512.62
29.1154	517.03
29.1299	527.62
29.1443	501.49
29.1587	470.30
29.1732	501.72
29.1876	516.42
29.2021	500.92
29.2165	513.66
29.2309	498.49
29.2454	516.58
29.2598	505.25
29.2743	505.18
29.2887	486.41
29.3031	469.55
29.3176	481.45
29.3320	537.01
29.3465	525.63
29.3609	465.40
29.3753	496.06
29.3898	496.21
29.4042	482.47
29.4187	492.68
29.4331	516.81
29.4475	489.68
29.4620	515.14
29.4764	534.00
29.4909	528.75
29.5053	477.21
29.5197	475.91
29.5342	495.92
29.5486	489.75
29.5631	496.66
29.5775	478.91
29.5919	519.42
29.6064	489.39
29.6208	496.92
29.6353	500.08
29.6497	501.42
29.6641	527.69
29.6786	492.74
29.6930	500.44
29.7075	520.75
29.7219	522.77
29.7363	459.07
29.7508	501.14
29.7652	521.51
29.7797	506.20
29.7941	502.01
29.8085	520.04
29.8230	510.16
29.8374	540.73
29.8519	492.15
29.8663	489.43
29.8807	466.29
29.8952	490.72
29.9096	522.09
29.9241	488.40
29.9385	481.69
29.9529	472.45
29.9674	480.10
29.9818	477.43
29.9963	506.15
30.0107	502.80
30.0251	521.29
30.0396	530.70
30.0540	506.00
30.0685	504.35
30.0829	476.00
30.0973	483.04
30.1118	500.13
30.1262	475.87
30.1407	491.95
30.1551	485.91
30.1695	527.20
30.1840	528.28
30.1984	496.85
30.2129	494.04
30.2273	484.67
30.2417	518.46
30.2562	503.06
30.2706	502.95
30.2851	517.09
30.2995	504.90
30.3139	491.93
30.3284	502.80
30.3428	509.54
30.3573	517.11
30.3717	503.67
30.3861	508.11
30.4006	508.40
30.4150	517.00
30.4295	516.56
30.4439	510.63
30.4583	538.05
30.4728	554.33
30.4872	565.76
30.5017	581.10
30.5161	609.22
30.5305	591.62
30.5450	620.10
30.5594	686.45
30.5739	700.84
30.5883	692.43
30.6028	723.45
30.6172	731.46
30.6316	766.66
30.6461	732.52
30.6605	701.57
30.6750	653.99
30.6894	656.19
30.7038	649.21
30.7183	632.13
30.7327	597.74
30.7472	559.22
30.7616	533.24
30.7760	579.90
30.7905	533.94
30.8049	529.70
30.8194	516.40
30.8338	521.49
30.8482	474.44
30.8627	500.15
30.8771	525.65
30.8916	513.48
30.9060	545.47
30.9204	512.91
30.9349	494.06
30.9493	477.91
30.9638	489.81
30.9782	510.15
30.9926	506.70
31.0071	516.25
31.0215	523.73
31.0360	500.37
31.0504	478.17
31.0648	519.24
31.0793	504.40
31.0937	492.08
31.1082	485.68
31.1226	513.97
31.1370	488.85
31.1515	489.45
31.1659	513.47
31.1804	500.72
31.1948	479.79
31.2092	483.56
31.2237	501.44
31.2381	521.50
31.2526	554.51
31.2670	506.26
31.2814	494.13
31.2959	504.92
31.3103	531.50
31.3248	537.06
31.3392	524.68
31.3536	540.01
31.3681	526.73
31.3825	519.63
31.3970	541.83
31.4114	494.62
31.4258	546.65
31.4403	527.11
31.4547	490.12
31.4692	533.89
31.4836	504.47
31.4980	546.51
31.5125	492.35
31.5269	530.02
31.5414	512.77
31.5558	523.23
31.5702	511.61
31.5847	498.83
31.5991	537.26
31.6136	540.06
31.6280	503.76
31.6424	469.31
31.6569	472.65
31.6713	499.71
31.6858	533.27
31.7002	526.87
31.7146	513.22
31.7291	501.27
31.7435	506.65
31.7580	489.29
31.7724	497.79
31.7868	482.85
31.8013	485.46
31.8157	509.84
31.8302	487.56
31.8446	514.72
31.8590	493.53
31.8735	498.41
31.8879	514.33
31.9024	505.68
31.9168	479.27
31.9312	517.49
31.9457	505.74
31.9601	531.13
31.9746	514.37
31.9890	504.15
32.0034	495.04
32.0179	525.67
32.0323	537.81
32.0468	490.18
32.0612	518.39
32.0756	492.74
32.0901	504.39
32.1045	511.83
32.1190	508.07
32.1334	485.65
32.1478	487.85
32.1623	516.21
32.1767	495.61
32.1912	472.90
32.2056	500.58
32.2200	503.46
32.2345	501.27
32.2489	479.20
32.2634	481.94
32.2778	492.18
32.2922	488.66
32.3067	501.97
32.3211	494.84
32.3356	499.75
32.3500	503.21
32.3644	532.28
32.3789	525.34
32.3933	512.10
32.4078	528.08
32.4222	479.26
32.4366	525.42
32.4511	518.23
32.4655	487.77
32.4800	474.21
32.4944	507.36
32.5088	481.16
32.5233	478.10
32.5377	488.66
32.5522	513.46
32.5666	520.99
32.5810	476.62
32.5955	478.76
32.6099	494.36
32.6244	483.96
32.6388	502.84
32.6532	515.83
32.6677	509.91
32.6821	487.28
32.6966	475.34
32.7110	528.90
32.7254	474.32
32.7399	517.91
32.7543	475.36
32.7688	496.91
32.7832	507.66
32.7976	495.27
32.8121	540.58
32.8265	500.25
32.8410	466.67
32.8554	531.00
32.8698	517.94
32.8843	499.38
32.8987	507.71
32.9132	524.16
32.9276	530.99
32.9420	517.41
32.9565	488.32
32.9709	505.24
32.9854	512.82
32.9998	504.38
33.0142	533.74
33.0287	514.22
33.0431	537.74
33.0576	502.97
33.0720	502.85
33.0864	501.99
33.1009	519.80
33.1153	492.40
33.1298	445.92
33.1442	499.11
33.1586	482.00
33.1731	491.09
33.1875	513.20
33.2020	478.74
33.2164	484.99
33.2308	526.86
33.2453	515.96
33.2597	534.72
33.2742	494.47
33.2886	483.27
33.3030	501.57
33.3175	509.76
33.3319	481.47
33.3464	474.33
33.3608	505.78
33.3752	509.60
33.3897	499.34
33.4041	504.95
33.4186	505.95
33.4330	524.59
33.4474	538.70
33.4619	551.53
33.4763	496.04
33.4908	473.57
33.5052	459.67
33.5196	500.17
33.5341	525.96
33.5485	532.80
33.5630	490.86
33.5774	481.56
33.5918	507.47
33.6063	540.17
33.6207	503.86
33.6352	526.25
33.6496	473.43
33.6640	462.78
33.6785	454.78
33.6929	479.83
33.7074	539.84
33.7218	534.73
33.7362	507.38
33.7507	489.79
33.7651	484.37
33.7796	490.07
33.7940	495.03
33.8084	501.29
33.8229	512.02
33.8373	517.87
33.8518	506.25
33.8662	531.73
33.8806	463.49
33.8951	534.75
33.9095	526.42
33.9240	508.76
33.9384	487.09
33.9528	519.93
33.9673	492.40
33.9817	526.52
33.9962	511.79
34.0106	515.30
34.0250	469.87
34.0395	489.98
34.0539	519.78
34.0684	525.83
34.0828	516.66
34.0972	510.35
34.1117	531.41
34.1261	515.76
34.1406	476.16
34.1550	467.32
34.1694	507.73
34.1839	511.47
34.1983	502.80
34.2128	494.47
34.2272	497.77
34.2417	496.04
34.2561	483.45
34.2705	502.99
34.2850	484.97
34.2994	453.90
34.3139	496.89
34.3283	475.35
34.3427	510.08
34.3572	539.48
34.3716	518.68
34.3861	513.00
34.4005	477.49
34.4149	499.22
34.4294	542.55
34.4438	512.04
34.4583	514.85
34.4727	519.73
34.4871	507.81
34.5016	530.50
34.5160	542.48
34.5305	515.93
34.5449	502.74
34.5593	486.42
34.5738	519.59
34.5882	517.06
34.6027	530.68
34.6171	499.85
34.6315	507.37
34.6460	503.21
34.6604	488.02
34.6749	498.97
34.6893	500.00
34.7037	525.78
34.7182	502.08
34.7326	493.18
34.7471	500.73
34.7615	486.18
34.7759	502.06
34.7904	503.96
34.8048	508.71
34.8193	504.61
34.8337	510.09
34.8481	524.67
34.8626	532.62
34.8770	513.30
34.8915	477.16
34.9059	526.06
34.9203	509.01
34.9348	472.43
34.9492	511.93
34.9637	531.41
34.9781	551.31
34.9925	544.33
35.0070	517.40
35.0214	482.14
35.0359	522.63
35.0503	557.07
35.0647	504.07
35.0792	496.15
35.0936	488.80
35.1081	489.05
35.1225	495.82
35.1369	485.75
35.1514	492.92
35.1658	530.72
35.1803	544.01
35.1947	515.45
35.2091	534.42
35.2236	522.61
35.2380	514.17
35.2525	544.11
35.2669	522.08
35.2813	529.52
35.2958	505.04
35.3102	474.38
35.3247	497.30
35.3391	524.21
35.3535	505.51
35.3680	500.02
35.3824	482.07
35.3969	499.10
35.4113	504.27
35.4257	519.34
35.4402	560.55
35.4546	517.74
35.4691	533.12
35.4835	508.55
35.4979	509.87
35.5124	512.36
35.5268	513.94
35.5413	554.70
35.5557	563.06
35.5701	521.93
35.5846	537.27
35.5990	526.09
35.6135	549.93
35.6279	530.79
35.6423	576.97
35.6568	554.32
35.6712	553.54
35.6857	579.05
35.7001	669.98
35.7145	724.04
35.7290	694.85
35.7434	626.93
35.7579	613.70
35.7723	611.20
35.7867	651.22
35.8012	701.43
35.8156	728.19
35.8301	696.19
35.8445	673.51
35.8589	742.54
35.8734	820.27
35.8878	906.88
35.9023	1012.34
35.9167	1079.05
35.9311	1232.31
35.9456	1592.21
35.9600	2148.55
35.9745	2047.66
35.9889	2165.46
36.0033	2665.00
36.0178	3008.74
36.0322	3279.52
36.0467	2690.62
36.0611	2238.29
36.0755	2083.84
36.0900	2179.72
36.1044	1756.08
36.1189	1566.61
36.1333	1486.45
36.1477	1280.20
36.1622	1228.38
36.1766	1014.11
36.1911	916.63
36.2055	829.20
36.2199	818.33
36.2344	741.74
36.2488	672.34
36.2633	619.52
36.2777	603.82
36.2921	580.95
36.3066	570.92
36.3210	562.57
36.3355	565.08
36.3499	551.76
36.3643	533.23
36.3788	567.12
36.3932	534.37
36.4077	558.26
36.4221	534.25
36.4365	513.23
36.4510	516.92
36.4654	563.35
36.4799	555.62
36.4943	549.35
36.5087	530.29
36.5232	541.84
36.5376	522.16
36.5521	556.15
36.5665	542.72
36.5809	523.15
36.5954	519.26
36.6098	529.00
36.6243	539.42
36.6387	504.67
36.6531	540.10
36.6676	556.16
36.6820	528.06
36.6965	504.35
36.7109	501.83
36.7253	532.13
36.7398	527.26
36.7542	531.87
36.7687	508.53
36.7831	522.38
36.7975	535.44
36.8120	571.99
36.8264	553.97
36.8409	564.54
36.8553	583.60
36.8697	573.74
36.8842	567.90
36.8986	626.82
36.9131	610.45
36.9275	560.96
36.9419	592.77
36.9564	556.73
36.9708	569.72
36.9853	556.81
36.9997	536.51
37.0141	549.99
37.0286	545.93
37.0430	536.14
37.0575	507.49
37.0719	533.66
37.0863	521.03
37.1008	507.62
37.1152	537.73
37.1297	503.70
37.1441	484.28
37.1585	511.80
37.1730	511.76
37.1874	520.47
37.2019	542.74
37.2163	487.45
37.2307	501.22
37.2452	520.83
37.2596	498.82
37.2741	473.34
37.2885	504.03
37.3029	495.64
37.3174	489.33
37.3318	499.80
37.3463	524.06
37.3607	486.91
37.3751	474.11
37.3896	509.62
37.4040	499.21
37.4185	482.71
37.4329	491.42
37.4473	468.08
37.4618	496.05
37.4762	513.32
37.4907	508.08
37.5051	451.90
37.5195	500.24
37.5340	518.38
37.5484	478.72
37.5629	508.50
37.5773	515.58
37.5917	494.34
37.6062	477.48
37.6206	489.82
37.6351	523.68
37.6495	538.72
37.6639	491.12
37.6784	478.98
37.6928	487.35
37.7073	501.73
37.7217	532.65
37.7361	503.32
37.7506	470.84
37.7650	498.13
37.7795	518.77
37.7939	497.80
37.8083	507.36
37.8228	521.00
37.8372	543.93
37.8517	526.15
37.8661	518.44
37.8805	471.78
37.8950	479.30
37.9094	507.58
37.9239	499.49
37.9383	528.04
37.9528	515.94
37.9672	462.18
37.9816	484.91
37.9961	489.58
38.0105	507.33
38.0250	527.39
38.0394	491.65
38.0538	482.71
38.0683	496.95
38.0827	468.87
38.0972	489.01
38.1116	503.20
38.1260	542.43
38.1405	510.68
38.1549	479.33
38.1694	515.48
38.1838	509.19
38.1982	495.58
38.2127	501.51
38.2271	506.35
38.2416	494.71
38.2560	473.65
38.2704	510.34
38.2849	484.98
38.2993	481.45
38.3138	522.65
38.3282	502.81
38.3426	526.55
38.3571	526.20
38.3715	532.33
38.3860	557.59
38.4004	542.12
38.4148	540.96
38.4293	607.80
38.4437	580.15
38.4582	642.84
38.4726	664.68
38.4870	668.84
38.5015	712.20
38.5159	745.59
38.5304	800.16
38.5448	794.26
38.5592	814.01
38.5737	773.72
38.5881	725.37
38.6026	691.66
38.6170	696.23
38.6314	704.94
38.6459	660.19
38.6603	634.47
38.6748	618.87
38.6892	581.27
38.7036	621.23
38.7181	545.02
38.7325	519.13
38.7470	543.91
38.7614	480.77
38.7758	493.18
38.7903	519.19
38.8047	535.40
38.8192	492.62
38.8336	504.29
38.8480	503.84
38.8625	511.30
38.8769	523.96
38.8914	502.70
38.9058	509.80
38.9202	509.84
38.9347	491.85
38.9491	477.67
38.9636	448.61
38.9780	474.72
38.9924	510.48
39.0069	531.27
39.0213	531.70
39.0358	490.04
39.0502	485.98
39.0646	488.10
39.0791	499.01
39.0935	508.47
39.1080	481.26
39.1224	492.54
39.1368	509.04
39.1513	482.68
39.1657	486.61
39.1802	518.74
39.1946	491.99
39.2090	501.67
39.2235	460.13
39.2379	507.94
39.2524	503.23
39.2668	508.17
39.2812	515.04
39.2957	480.09
39.3101	501.30
39.3246	531.21
39.3390	533.49
39.3534	530.53
39.3679	512.15
39.3823	496.92
39.3968	501.76
39.4112	502.59
39.4256	507.05
39.4401	509.81
39.4545	498.99
39.4690	506.10
39.4834	514.59
39.4978	504.77
39.5123	488.97
39.5267	482.02
39.5412	533.87
39.5556	498.62
39.5700	499.07
39.5845	510.91
39.5989	505.67
39.6134	515.80
39.6278	510.18
39.6422	526.17
39.6567	517.60
39.6711	496.40
39.6856	490.77
39.7000	498.01
39.7144	474.50
39.7289	472.31
39.7433	509.76
39.7578	507.15
39.7722	503.80
39.7866	503.50
39.8011	513.50
39.8155	488.89
39.8300	499.32
39.8444	471.37
39.8588	475.83
39.8733	486.84
39.8877	470.39
39.9022	492.31
39.9166	511.79
39.9310	506.17
39.9455	515.99
39.9599	479.04
39.9744	515.94
39.9888	532.45
40.0032	487.72
40.0177	515.40
40.0321	499.05
40.0466	477.69
40.0610	523.80
40.0754	473.75
40.0899	522.24
40.1043	485.61
40.1188	539.88
40.1332	496.61
40.1476	479.76
40.1621	455.12
40.1765	477.50
40.1910	497.50
40.2054	498.43
40.2198	528.61
40.2343	495.23
40.2487	501.62
40.2632	489.57
40.2776	485.09
40.2920	482.68
40.3065	493.96
40.3209	518.83
40.3354	474.37
40.3498	499.98
40.3642	492.11
40.3787	487.17
40.3931	483.20
40.4076	512.64
40.4220	489.33
40.4364	513.79
40.4509	535.21
40.4653	520.44
40.4798	497.87
40.4942	513.43
40.5086	519.04
40.5231	514.71
40.5375	483.57
40.5520	496.09
40.5664	503.90
40.5808	495.24
40.5953	534.63
40.6097	522.25
40.6242	487.15
40.6386	520.63
40.6530	516.58
40.6675	509.99
40.6819	495.22
40.6964	473.38
40.7108	522.54
40.7252	492.68
40.7397	505.26
40.7541	501.91
40.7686	486.92
40.7830	495.71
40.7974	493.98
40.8119	495.03
40.8263	531.72
40.8408	511.44
40.8552	497.56
40.8696	509.74
40.8841	504.57
40.8985	514.96
40.9130	514.91
40.9274	503.79
40.9418	484.31
40.9563	507.02
40.9707	499.32
40.9852	492.85
40.9996	499.10
41.0140	511.00
41.0285	477.41
41.0429	499.66
41.0574	521.94
41.0718	494.16
41.0862	521.88
41.1007	500.92
41.1151	506.52
41.1296	512.54
41.1440	467.73
41.1584	488.17
41.1729	524.82
41.1873	481.02
41.2018	477.09
41.2162	476.62
41.2306	503.59
41.2451	514.31
41.2595	474.03
41.2740	504.28
41.2884	511.06
41.3028	505.00
41.3173	501.01
41.3317	499.53
41.3462	515.73
41.3606	517.92
41.3750	495.77
41.3895	504.12
41.4039	492.41
41.4184	483.32
41.4328	496.33
41.4472	459.05
41.4617	485.27
41.4761	524.68
41.4906	492.82
41.5050	459.98
41.5194	497.32
41.5339	503.60
41.5483	522.73
41.5628	498.41
41.5772	475.87
41.5916	507.86
41.6061	529.80
41.6205	496.18
41.6350	464.79
41.6494	516.95
41.6639	489.08
41.6783	508.42
41.6927	517.80
41.7072	501.53
41.7216	482.88
41.7361	480.51
41.7505	491.20
41.7649	461.74
41.7794	478.85
41.7938	515.36
41.8083	496.63
41.8227	525.32
41.8371	535.75
41.8516	530.86
41.8660	539.44
41.8805	540.18
41.8949	531.85
41.9093	532.95
41.9238	531.12
41.9382	569.86
41.9527	572.93
41.9671	537.83
41.9815	561.50
41.9960	590.98
42.0104	578.64
42.0249	555.26
42.0393	537.69
42.0537	573.07
42.0682	554.77
42.0826	562.54
42.0971	565.87
42.1115	591.49
42.1259	643.74
42.1404	622.51
42.1548	619.06
42.1693	662.10
42.1837	688.59
42.1981	748.50
42.2126	842.62
42.2270	965.14
42.2415	1054.30
42.2559	1216.45
42.2703	1360.00
42.2848	1502.60
42.2992	1632.25
42.3137	1717.03
42.3281	1692.00
42.3425	1620.06
42.3570	1513.03
42.3714	1450.59
42.3859	1414.56
42.4003	1337.54
42.4147	1333.27
42.4292	1317.27
42.4436	1135.55
42.4581	1012.38
42.4725	994.47
42.4869	857.54
42.5014	769.18
42.5158	718.28
42.5303	666.74
42.5447	638.83
42.5591	623.74
42.5736	623.68
42.5880	565.49
42.6025	571.98
42.6169	561.01
42.6313	562.85
42.6458	516.33
42.6602	509.16
42.6747	532.86
42.6891	530.85
42.7035	557.19
42.7180	529.83
42.7324	523.94
42.7469	532.07
42.7613	496.04
42.7757	505.84
42.7902	531.46
42.8046	532.95
42.8191	535.92
42.8335	520.90
42.8479	515.41
42.8624	519.94
42.8768	503.84
42.8913	495.67
42.9057	503.83
42.9201	506.76
42.9346	515.64
42.9490	545.82
42.9635	479.24
42.9779	447.34
42.9923	500.19
43.0068	517.39
43.0212	517.70
43.0357	530.66
43.0501	497.56
43.0645	484.24
43.0790	511.28
43.0934	545.24
43.1079	491.46
43.1223	499.94
43.1367	535.17
43.1512	481.41
43.1656	503.21
43.1801	528.22
43.1945	504.44
43.2089	512.92
43.2234	525.97
43.2378	528.31
43.2523	509.50
43.2667	474.71
43.2811	552.50
43.2956	519.43
43.3100	531.43
43.3245	487.76
43.3389	515.85
43.3533	520.24
43.3678	498.14
43.3822	511.86
43.3967	517.99
43.4111	540.37
43.4255	548.84
43.4400	518.40
43.4544	515.75
43.4689	515.98
43.4833	563.19
43.4977	528.01
43.5122	538.68
43.5266	525.53
43.5411	529.17
43.5555	510.91
43.5699	483.40
43.5844	483.66
43.5988	522.86
43.6133	551.91
43.6277	547.29
43.6421	529.91
43.6566	516.14
43.6710	509.90
43.6855	538.98
43.6999	581.88
43.7143	582.26
43.7288	584.38
43.7432	581.01
43.7577	620.50
43.7721	610.52
43.7865	665.43
43.8010	657.22
43.8154	647.15
43.8299	618.31
43.8443	584.37
43.8587	627.21
43.8732	604.99
43.8876	607.40
43.9021	621.70
43.9165	590.01
43.9309	570.65
43.9454	553.50
43.9598	559.25
43.9743	564.86
43.9887	533.62
44.0031	534.81
44.0176	530.29
44.0320	516.91
44.0465	454.36
44.0609	521.83
44.0753	526.20
44.0898	552.56
44.1042	520.26
44.1187	521.00
44.1331	510.63
44.1475	477.06
44.1620	471.23
44.1764	512.68
44.1909	516.06
44.2053	509.03
44.2197	524.12
44.2342	501.96
44.2486	553.08
44.2631	531.27
44.2775	517.30
44.2919	480.69
44.3064	520.52
44.3208	521.07
44.3353	512.06
44.3497	533.57
44.3641	559.38
44.3786	560.77
44.3930	491.83
44.4075	520.23
44.4219	580.94
44.4363	594.34
44.4508	557.72
44.4652	562.02
44.4797	627.12
44.4941	591.94
44.5085	542.26
44.5230	566.92
44.5374	559.06
44.5519	578.76
44.5663	573.01
44.5807	603.45
44.5952	528.17
44.6096	523.85
44.6241	570.52
44.6385	569.71
44.6529	598.25
44.6674	567.55
44.6818	572.78
44.6963	583.91
44.7107	619.92
44.7251	668.27
44.7396	700.52
44.7540	769.83
44.7685	807.43
44.7829	885.88
44.7973	850.76
44.8118	889.28
44.8262	808.44
44.8407	746.88
44.8551	739.91
44.8695	741.27
44.8840	722.95
44.8984	728.22
44.9129	731.94
44.9273	653.89
44.9417	614.04
44.9562	619.73
44.9706	557.58
44.9851	542.35
44.9995	556.50
45.0139	583.16
45.0284	520.30
45.0428	484.72
45.0573	492.80
45.0717	505.94
45.0861	532.63
45.1006	491.40
45.1150	472.59
45.1295	525.57
45.1439	515.67
45.1583	472.68
45.1728	505.61
45.1872	455.65
45.2017	465.68
45.2161	514.64
45.2305	488.10
45.2450	508.90
45.2594	515.83
45.2739	523.25
45.2883	536.29
45.3028	503.76
45.3172	489.55
45.3316	515.55
45.3461	529.98
45.3605	509.60
45.3750	504.80
45.3894	496.53
45.4038	529.93
45.4183	482.43
45.4327	486.81
45.4472	484.67
45.4616	491.72
45.4760	505.95
45.4905	488.31
45.5049	465.48
45.5194	487.57
45.5338	535.27
45.5482	513.56
45.5627	486.15
45.5771	507.60
45.5916	492.72
45.6060	518.31
45.6204	496.16
45.6349	490.48
45.6493	511.63
45.6638	503.93
45.6782	496.09
45.6926	469.81
45.7071	522.62
45.7215	493.80
45.7360	456.27
45.7504	461.31
45.7648	488.08
45.7793	510.91
45.7937	501.65
45.8082	554.94
45.8226	528.80
45.8370	546.16
45.8515	481.74
45.8659	507.93
45.8804	509.76
45.8948	509.61
45.9092	492.26
45.9237	485.59
45.9381	512.74
45.9526	523.60
45.9670	487.34
45.9814	490.54
45.9959	464.16
46.0103	505.62
46.0248	505.61
46.0392	511.45
46.0536	516.03
46.0681	518.73
46.0825	486.77
46.0970	483.13
46.1114	507.01
46.1258	477.61
46.1403	507.87
46.1547	492.58
46.1692	526.48
46.1836	501.57
46.1980	495.16
46.2125	515.04
46.2269	509.79
46.2414	498.36
46.2558	503.38
46.2702	481.69
46.2847	474.35
46.2991	488.75
46.3136	492.05
46.3280	506.62
46.3424	535.01
46.3569	507.66
46.3713	470.44
46.3858	482.90
46.4002	489.21
46.4146	491.38
46.4291	498.30
46.4435	471.72
46.4580	467.46
46.4724	500.98
46.4868	490.12
46.5013	489.98
46.5157	526.56
46.5302	538.96
46.5446	512.59
46.5590	496.13
46.5735	509.11
46.5879	492.05
46.6024	482.36
46.6168	477.33
46.6312	495.01
46.6457	502.50
46.6601	480.70
46.6746	489.05
46.6890	507.11
46.7034	498.13
46.7179	474.88
46.7323	492.81
46.7468	507.90
46.7612	522.80
46.7756	505.03
46.7901	494.91
46.8045	523.60
46.8190	473.88
46.8334	500.69
46.8478	528.09
46.8623	558.57
46.8767	525.61
46.8912	523.51
46.9056	506.69
46.9200	477.00
46.9345	502.99
46.9489	504.41
46.9634	500.34
46.9778	540.10
46.9922	528.96
47.0067	468.98
47.0211	502.81
47.0356	522.26
47.0500	538.89
47.0644	512.19
47.0789	521.67
47.0933	522.73
47.1078	488.22
47.1222	503.57
47.1366	493.53
47.1511	508.59
47.1655	512.60
47.1800	504.98
47.1944	507.42
47.2088	473.42
47.2233	502.12
47.2377	487.79
47.2522	510.77
47.2666	504.18
47.2810	491.99
47.2955	513.50
47.3099	506.75
47.3244	477.42
47.3388	485.67
47.3532	515.53
47.3677	492.55
47.3821	490.39
47.3966	506.01
47.4110	497.53
47.4254	475.63
47.4399	475.35
47.4543	469.66
47.4688	511.17
47.4832	550.23
47.4976	527.59
47.5121	516.46
47.5265	497.27
47.5410	488.80
47.5554	468.44
47.5698	494.08
47.5843	499.11
47.5987	470.28
47.6132	499.80
47.6276	496.17
47.6420	492.94
47.6565	487.20
47.6709	475.31
47.6854	472.87
47.6998	486.20
47.7142	501.45
47.7287	494.86
47.7431	508.70
47.7576	490.42
47.7720	508.92
47.7864	546.29
47.8009	520.33
47.8153	499.67
47.8298	529.91
47.8442	508.16
47.8586	512.33
47.8731	527.29
47.8875	508.87
47.9020	524.29
47.9164	517.45
47.9308	461.18
47.9453	488.16
47.9597	483.14
47.9742	507.97
47.9886	508.84
48.0030	493.46
48.0175	507.49
48.0319	502.09
48.0464	524.55
48.0608	522.85
48.0752	507.01
48.0897	509.78
48.1041	496.85
48.1186	505.88
48.1330	527.86
48.1474	485.76
48.1619	489.06
48.1763	521.93
48.1908	516.27
48.2052	525.80
48.2196	507.07
48.2341	528.05
48.2485	529.42
48.2630	492.16
48.2774	483.07
48.2918	533.67
48.3063	461.49
48.3207	490.02
48.3352	526.20
48.3496	531.48
48.3640	508.94
48.3785	507.68
48.3929	511.71
48.4074	487.09
48.4218	481.08
48.4362	523.07
48.4507	506.36
48.4651	515.63
48.4796	493.37
48.4940	514.70
48.5084	537.15
48.5229	506.35
48.5373	522.14
48.5518	505.30
48.5662	526.59
48.5806	496.27
48.5951	509.83
48.6095	533.59
48.6240	481.76
48.6384	516.77
48.6528	526.23
48.6673	512.80
48.6817	511.38
48.6962	502.91
48.7106	513.56
48.7250	521.07
48.7395	494.54
48.7539	531.67
48.7684	509.18
48.7828	497.92
48.7972	518.59
48.8117	554.85
48.8261	531.67
48.8406	535.52
48.8550	543.55
48.8694	536.77
48.8839	515.02
48.8983	543.17
48.9128	556.32
48.9272	527.92
48.9416	539.78
48.9561	564.84
48.9705	560.01
48.9850	600.92
48.9994	568.79
49.0139	579.21
49.0283	603.78
49.0427	634.78
49.0572	614.45
49.0716	647.64
49.0861	630.45
49.1005	662.87
49.1149	706.91
49.1294	773.37
49.1438	776.23
49.1583	837.48
49.1727	850.43
49.1871	884.14
49.2016	966.21
49.2160	1036.84
49.2305	1144.36
49.2449	1264.13
49.2593	1334.77
49.2738	1457.11
49.2882	1515.05
49.3027	1581.89
49.3171	1670.51
49.3315	1696.50
49.3460	1779.43
49.3604	1823.51
49.3749	1872.97
49.3893	1822.44
49.4037	1775.23
49.4182	1809.93
49.4326	1813.54
49.4471	1689.07
49.4615	1646.65
49.4759	1553.96
49.4904	1518.00
49.5048	1390.89
49.5193	1364.22
49.5337	1281.09
49.5481	1225.90
49.5626	1119.97
49.5770	1035.67
49.5915	982.57
49.6059	963.54
49.6203	870.37
49.6348	824.46
49.6492	774.66
49.6637	769.76
49.6781	764.43
49.6925	621.19
49.7070	643.35
49.7214	656.26
49.7359	659.34
49.7503	653.79
49.7647	584.79
49.7792	616.97
49.7936	609.95
49.8081	549.16
49.8225	519.12
49.8369	546.37
49.8514	565.85
49.8658	544.37
49.8803	535.53
49.8947	505.26
49.9091	526.08
49.9236	555.30
49.9380	568.62
49.9525	540.75
49.9669	503.08
49.9813	504.97
49.9958	521.15
50.0102	575.77
50.0247	557.98
50.0391	522.59
50.0535	480.72
50.0680	531.94
50.0824	555.06
50.0969	546.69
50.1113	533.88
50.1257	511.52
50.1402	545.46
50.1546	527.36
50.1691	548.57
50.1835	531.99
50.1979	494.84
50.2124	493.36
50.2268	497.64
50.2413	534.03
50.2557	518.05
50.2701	508.55
50.2846	514.26
50.2990	526.77
50.3135	543.42
50.3279	509.80
50.3423	509.00
50.3568	516.90
50.3712	530.27
50.3857	513.19
50.4001	508.56
50.4145	499.37
50.4290	527.94
50.4434	515.26
50.4579	521.27
50.4723	484.75
50.4867	507.28
50.5012	504.50
50.5156	500.41
50.5301	511.93
50.5445	496.48
50.5589	478.81
50.5734	519.24
50.5878	505.42
50.6023	494.54
50.6167	534.71
50.6311	541.24
50.6456	517.03
50.6600	504.50
50.6745	492.51
50.6889	509.91
50.7033	501.32
50.7178	481.66
50.7322	502.77
50.7467	484.76
50.7611	530.34
50.7755	541.71
50.7900	526.49
50.8044	494.37
50.8189	509.36
50.8333	518.16
50.8477	470.43
50.8622	516.97
50.8766	511.35
50.8911	479.21
50.9055	477.45
50.9199	507.97
50.9344	514.28
50.9488	492.40
50.9633	489.01
50.9777	494.18
50.9921	528.16
51.0066	507.65
51.0210	495.18
51.0355	498.96
51.0499	511.79
51.0643	515.88
51.0788	516.01
51.0932	522.23
51.1077	488.58
51.1221	498.55
51.1365	476.77
51.1510	501.85
51.1654	511.41
51.1799	481.90
51.1943	472.99
51.2087	491.59
51.2232	513.61
51.2376	477.53
51.2521	479.73
51.2665	498.59
51.2809	496.21
51.2954	521.84
51.3098	519.41
51.3243	502.43
51.3387	505.88
51.3531	499.71
51.3676	496.72
51.3820	487.05
51.3965	502.89
51.4109	505.40
51.4253	537.50
51.4398	506.03
51.4542	508.58
51.4687	537.53
51.4831	528.45
51.4975	506.13
51.5120	473.95
51.5264	502.02
51.5409	493.24
51.5553	519.69
51.5697	498.60
51.5842	513.31
51.5986	495.67
51.6131	500.75
51.6275	501.50
51.6419	503.13
51.6564	510.29
51.6708	495.88
51.6853	516.83
51.6997	511.99
51.7141	520.48
51.7286	505.79
51.7430	471.03
51.7575	521.80
51.7719	511.50
51.7863	520.09
51.8008	517.92
51.8152	495.54
51.8297	496.96
51.8441	508.25
51.8585	526.49
51.8730	519.61
51.8874	487.22
51.9019	506.19
51.9163	489.56
51.9307	507.06
51.9452	528.98
51.9596	506.63
51.9741	513.77
51.9885	525.50
52.0029	521.13
52.0174	504.63
52.0318	481.08
52.0463	529.00
52.0607	532.18
52.0751	524.06
52.0896	524.02
52.1040	456.65
52.1185	538.43
52.1329	509.45
52.1473	506.77
52.1618	496.19
52.1762	482.29
52.1907	493.36
52.2051	491.05
52.2195	514.97
52.2340	528.72
52.2484	509.97
52.2629	499.43
52.2773	535.42
52.2917	491.23
52.3062	505.05
52.3206	514.09
52.3351	523.70
52.3495	545.26
52.3639	519.29
52.3784	500.55
52.3928	533.35
52.4073	493.50
52.4217	511.98
52.4361	506.15
52.4506	489.86
52.4650	520.76
52.4795	558.27
52.4939	556.19
52.5083	485.07
52.5228	494.68
52.5372	481.17
52.5517	477.67
52.5661	470.50
52.5805	490.90
52.5950	509.62
52.6094	496.24
52.6239	537.59
52.6383	521.86
52.6527	496.65
52.6672	495.15
52.6816	512.23
52.6961	495.43
52.7105	546.38
52.7250	524.95
52.7394	504.46
52.7538	531.77
52.7683	508.98
52.7827	502.18
52.7972	499.34
52.8116	503.21
52.8260	551.08
52.8405	526.72
52.8549	507.81
52.8694	540.20
52.8838	481.49
52.8982	508.49
52.9127	548.56
52.9271	504.79
52.9416	518.97
52.9560	506.43
52.9704	510.74
52.9849	512.91
52.9993	495.39
53.0138	511.04
53.0282	529.49
53.0426	495.98
53.0571	501.99
53.0715	499.01
53.0860	520.29
53.1004	494.12
53.1148	525.55
53.1293	521.35
53.1437	523.72
53.1582	508.92
53.1726	492.44
53.1870	502.54
53.2015	517.16
53.2159	542.28
53.2304	522.19
53.2448	517.42
53.2592	528.93
53.2737	496.66
53.2881	503.72
53.3026	515.02
53.3170	509.96
53.3314	512.15
53.3459	538.87
53.3603	537.64
53.3748	547.91
53.3892	517.55
53.4036	488.24
53.4181	541.12
53.4325	511.94
53.4470	519.16
53.4614	512.74
53.4758	509.83
53.4903	510.73
53.5047	512.50
53.5192	519.88
53.5336	514.72
53.5480	479.11
53.5625	501.16
53.5769	497.45
53.5914	517.76
53.6058	525.63
53.6202	505.98
53.6347	542.61
53.6491	496.89
53.6636	517.25
53.6780	486.80
53.6924	487.34
53.7069	466.21
53.7213	515.46
53.7358	474.26
53.7502	502.61
53.7646	506.55
53.7791	532.66
53.7935	495.03
53.8080	519.32
53.8224	547.69
53.8368	518.63
53.8513	522.46
53.8657	535.72
53.8802	507.72
53.8946	501.82
53.9090	511.93
53.9235	482.09
53.9379	548.35
53.9524	495.88
53.9668	466.95
53.9812	519.85
53.9957	528.39
54.0101	503.55
54.0246	515.18
54.0390	511.21
54.0534	508.96
54.0679	508.67
54.0823	557.33
54.0968	536.74
54.1112	523.63
54.1256	519.42
54.1401	529.76
54.1545	556.92
54.1690	548.44
54.1834	535.36
54.1978	570.77
54.2123	575.19
54.2267	540.76
54.2412	575.49
54.2556	577.28
54.2700	585.31
54.2845	583.55
54.2989	571.27
54.3134	583.12
54.3278	614.44
54.3422	596.18
54.3567	597.43
54.3711	622.09
54.3856	602.16
54.4000	600.37
54.4144	578.44
54.4289	618.11
54.4433	593.32
54.4578	565.63
54.4722	572.41
54.4866	587.95
54.5011	557.93
54.5155	521.05
54.5300	537.07
54.5444	525.55
54.5588	508.99
54.5733	543.67
54.5877	528.21
54.6022	531.05
54.6166	520.88
54.6310	541.06
54.6455	553.51
54.6599	528.13
54.6744	499.07
54.6888	475.06
54.7032	515.29
54.7177	515.14
54.7321	533.07
54.7466	535.22
54.7610	497.02
54.7754	533.84
54.7899	523.72
54.8043	502.35
54.8188	518.96
54.8332	502.89
54.8476	479.52
54.8621	528.24
54.8765	521.73
54.8910	541.37
54.9054	516.51
54.9198	491.33
54.9343	512.46
54.9487	555.57
54.9632	508.71
54.9776	513.20
54.9920	477.88
55.0065	493.44
55.0209	518.46
55.0354	501.40
55.0498	491.35
55.0642	507.96
55.0787	489.15
55.0931	540.20
55.1076	513.89
55.1220	520.61
55.1364	489.64
55.1509	475.72
55.1653	491.71
55.1798	509.82
55.1942	510.49
55.2086	507.63
55.2231	519.81
55.2375	546.21
55.2520	487.63
55.2664	491.59
55.2808	496.20
55.2953	498.56
55.3097	496.40
55.3242	524.35
55.3386	538.04
55.3530	513.18
55.3675	514.29
55.3819	528.90
55.3964	514.58
55.4108	487.68
55.4252	532.79
55.4397	519.49
55.4541	502.72
55.4686	528.44
55.4830	524.42
55.4974	502.05
55.5119	494.93
55.5263	511.01
55.5408	553.15
55.5552	484.63
55.5696	493.04
55.5841	541.83
55.5985	518.58
55.6130	536.71
55.6274	534.48
55.6418	534.66
55.6563	505.10
55.6707	502.92
55.6852	500.60
55.6996	511.85
55.7140	515.76
55.7285	518.07
55.7429	522.78
55.7574	515.32
55.7718	547.78
55.7862	579.98
55.8007	530.44
55.8151	535.93
55.8296	544.42
55.8440	547.18
55.8584	542.11
55.8729	542.44
55.8873	530.41
55.9018	528.64
55.9162	567.96
55.9306	535.73
55.9451	529.71
55.9595	517.39
55.9740	533.02
55.9884	550.86
56.0028	528.88
56.0173	489.88
56.0317	540.74
56.0462	491.88
56.0606	538.86
56.0750	531.35
56.0895	521.61
56.1039	516.14
56.1184	534.96
56.1328	503.36
56.1472	496.13
56.1617	511.67
56.1761	485.90
56.1906	522.36
56.2050	517.08
56.2194	548.74
56.2339	540.47
56.2483	540.49
56.2628	537.25
56.2772	548.44
56.2916	509.11
56.3061	520.02
56.3205	514.33
56.3350	530.33
56.3494	529.89
56.3639	527.38
56.3783	524.38
56.3927	521.41
56.4072	501.20
56.4216	540.79
56.4361	542.02
56.4505	520.12
56.4649	523.15
56.4794	502.79
56.4938	509.99
56.5083	501.47
56.5227	523.50
56.5371	529.03
56.5516	543.88
56.5660	534.36
56.5805	523.58
56.5949	520.71
56.6093	547.60
56.6238	524.97
56.6382	523.56
56.6527	505.43
56.6671	536.36
56.6815	487.96
56.6960	520.76
56.7104	530.98
56.7249	534.38
56.7393	474.69
56.7537	512.42
56.7682	509.30
56.7826	546.60
56.7971	520.62
56.8115	498.98
56.8259	515.46
56.8404	494.52
56.8548	507.19
56.8693	574.45
56.8837	485.20
56.8981	529.75
56.9126	525.84
56.9270	554.48
56.9415	548.91
56.9559	542.81
56.9703	521.81
56.9848	517.09
56.9992	527.41
57.0137	479.28
57.0281	500.16
57.0425	542.72
57.0570	523.34
57.0714	525.71
57.0859	547.68
57.1003	505.03
57.1147	541.53
57.1292	530.86
57.1436	502.98
57.1581	492.55
57.1725	523.17
57.1869	501.37
57.2014	481.13
57.2158	546.36
57.2303	552.19
57.2447	517.54
57.2591	520.61
57.2736	512.56
57.2880	503.55
57.3025	490.31
57.3169	497.25
57.3313	535.67
57.3458	543.30
57.3602	522.15
57.3747	533.42
57.3891	531.62
57.4035	524.10
57.4180	505.79
57.4324	522.39
57.4469	516.12
57.4613	504.13
57.4757	555.04
57.4902	518.31
57.5046	541.70
57.5191	509.41
57.5335	549.24
57.5479	539.37
57.5624	504.95
57.5768	501.30
57.5913	510.48
57.6057	539.94
57.6201	541.43
57.6346	522.61
57.6490	527.99
57.6635	531.82
57.6779	518.12
57.6923	502.92
57.7068	563.49
57.7212	572.49
57.7357	517.66
57.7501	522.21
57.7645	552.21
57.7790	567.49
57.7934	561.91
57.8079	581.41
57.8223	591.81
57.8367	587.54
57.8512	567.58
57.8656	621.61
57.8801	635.77
57.8945	705.21
57.9089	707.69
57.9234	723.66
57.9378	704.60
57.9523	681.32
57.9667	682.88
57.9811	689.76
57.9956	643.64
58.0100	659.03
58.0245	674.59
58.0389	665.20
58.0533	634.57
58.0678	640.98
58.0822	630.86
58.0967	595.96
58.1111	621.34
58.1255	651.84
58.1400	616.22
58.1544	576.97
58.1689	596.06
58.1833	556.00
58.1977	541.46
58.2122	567.58
58.2266	576.46
58.2411	605.66
58.2555	580.78
58.2699	568.30
58.2844	556.61
58.2988	545.60
58.3133	544.35
58.3277	549.68
58.3421	593.39
58.3566	524.43
58.3710	536.04
58.3855	543.08
58.3999	497.34
58.4143	514.48
58.4288	520.41
58.4432	533.57
58.4577	545.94
58.4721	565.42
58.4865	574.06
58.5010	554.05
58.5154	534.20
58.5299	513.16
58.5443	543.51
58.5587	522.26
58.5732	500.58
58.5876	526.06
58.6021	524.87
58.6165	528.11
58.6309	525.29
58.6454	507.74
58.6598	515.42
58.6743	486.57
58.6887	490.65
58.7031	498.96
58.7176	520.00
58.7320	539.82
58.7465	523.63
58.7609	540.90
58.7753	564.19
58.7898	591.73
58.8042	578.57
58.8187	542.95
58.8331	530.58
58.8475	494.95
58.8620	537.55
58.8764	541.81
58.8909	530.43
58.9053	563.24
58.9197	486.44
58.9342	513.94
58.9486	525.96
58.9631	517.79
58.9775	538.71
58.9919	561.91
59.0064	551.16
59.0208	536.06
59.0353	535.47
59.0497	496.73
59.0641	541.37
59.0786	538.11
59.0930	540.59
59.1075	533.86
59.1219	556.42
59.1363	548.51
59.1508	508.66
59.1652	524.67
59.1797	554.12
59.1941	532.55
59.2085	519.68
59.2230	551.37
59.2374	573.42
59.2519	562.35
59.2663	548.78
59.2807	546.62
59.2952	558.73
59.3096	567.34
59.3241	549.66
59.3385	542.99
59.3529	575.56
59.3674	576.95
59.3818	567.46
59.3963	561.18
59.4107	562.90
59.4251	576.80
59.4396	563.68
59.4540	556.09
59.4685	549.45
59.4829	561.15
59.4973	548.88
59.5118	525.30
59.5262	527.47
59.5407	509.73
59.5551	539.38
59.5695	557.67
59.5840	568.97
59.5984	532.96
59.6129	534.48
59.6273	526.59
59.6417	530.31
59.6562	543.31
59.6706	532.02
59.6851	517.88
59.6995	540.10
59.7139	548.78
59.7284	531.33
59.7428	523.57
59.7573	565.77
59.7717	551.51
59.7861	541.43
59.8006	553.12
59.8150	560.37
59.8295	581.30
59.8439	557.69
59.8583	568.91
59.8728	561.10
59.8872	565.83
59.9017	516.85
59.9161	539.87
59.9305	507.72
59.9450	521.02
59.9594	532.72
59.9739	503.31
59.9883	530.58
60.0027	515.01
60.0172	542.07
60.0316	511.64
60.0461	526.46
60.0605	535.33
60.0750	545.63
60.0894	579.20
60.1038	518.34
60.1183	553.35
60.1327	549.41
60.1472	488.45
60.1616	555.67
60.1760	532.73
60.1905	536.00
60.2049	542.12
60.2194	547.22
60.2338	559.95
60.2482	565.67
60.2627	508.77
60.2771	510.27
60.2916	571.41
60.3060	519.62
60.3204	562.14
60.3349	534.16
60.3493	538.96
60.3638	568.89
60.3782	515.99
60.3926	512.29
60.4071	539.19
60.4215	556.25
60.4360	553.18
60.4504	526.44
60.4648	559.17
60.4793	538.35
60.4937	532.59
60.5082	508.43
60.5226	546.88
60.5370	540.42
60.5515	531.74
60.5659	561.78
60.5804	514.15
60.5948	528.52
60.6092	514.94
60.6237	496.55
60.6381	535.17
60.6526	588.43
60.6670	522.40
60.6814	564.59
60.6959	535.80
60.7103	539.91
60.7248	545.28
60.7392	535.81
60.7536	557.79
60.7681	575.32
60.7825	573.09
60.7970	510.42
60.8114	505.86
60.8258	515.95
60.8403	534.61
60.8547	527.80
60.8692	520.99
60.8836	512.40
60.8980	549.43
60.9125	526.37
60.9269	525.90
60.9414	533.03
60.9558	546.65
60.9702	533.37
60.9847	551.15
60.9991	517.77
61.0136	527.81
61.0280	507.21
61.0424	534.34
61.0569	509.25
61.0713	508.07
61.0858	545.19
61.1002	530.14
61.1146	523.37
61.1291	550.64
61.1435	509.75
61.1580	520.84
61.1724	506.20
61.1868	518.01
61.2013	565.33
61.2157	528.00
61.2302	538.82
61.2446	522.59
61.2590	542.80
61.2735	586.02
61.2879	556.32
61.3024	544.55
61.3168	529.66
61.3312	528.51
61.3457	566.79
61.3601	535.41
61.3746	516.02
61.3890	523.28
61.4034	542.83
61.4179	549.49
61.4323	579.43
61.4468	540.25
61.4612	546.58
61.4756	553.61
61.4901	540.82
61.5045	534.44
61.5190	528.56
61.5334	552.11
61.5478	517.35
61.5623	538.67
61.5767	548.79
61.5912	536.54
61.6056	491.45
61.6200	503.48
61.6345	542.75
61.6489	515.65
61.6634	540.85
61.6778	537.08
61.6922	530.22
61.7067	581.45
61.7211	534.78
61.7356	520.24
61.7500	549.40
61.7644	488.21
61.7789	538.87
61.7933	542.00
61.8078	586.01
61.8222	576.37
61.8366	556.50
61.8511	518.04
61.8655	544.72
61.8800	553.03
61.8944	541.59
61.9088	545.89
61.9233	523.62
61.9377	565.18
61.9522	583.34
61.9666	553.90
61.9810	542.81
61.9955	565.55
62.0099	534.14
62.0244	574.80
62.0388	574.88
62.0532	545.02
62.0677	557.91
62.0821	561.84
62.0966	561.51
62.1110	521.12
62.1254	556.33
62.1399	538.72
62.1543	551.19
62.1688	565.78
62.1832	567.45
62.1976	538.09
62.2121	534.07
62.2265	554.25
62.2410	556.38
62.2554	568.89
62.2698	571.62
62.2843	580.16
62.2987	508.64
62.3132	537.37
62.3276	537.16
62.3420	556.47
62.3565	557.92
62.3709	564.39
62.3854	552.86
62.3998	516.34
62.4142	532.55
62.4287	556.11
62.4431	513.19
62.4576	526.53
62.4720	521.33
62.4864	566.26
62.5009	562.19
62.5153	558.17
62.5298	549.66
62.5442	566.20
62.5586	559.51
62.5731	544.91
62.5875	546.55
62.6020	557.35
62.6164	553.15
62.6308	539.04
62.6453	554.65
62.6597	598.16
62.6742	586.02
62.6886	555.39
62.7030	550.95
62.7175	543.97
62.7319	547.05
62.7464	559.57
62.7608	545.44
62.7752	545.76
62.7897	537.00
62.8041	573.38
62.8186	549.50
62.8330	577.43
62.8474	542.33
62.8619	567.40
62.8763	579.61
62.8908	573.28
62.9052	590.80
62.9196	596.63
62.9341	581.31
62.9485	549.28
62.9630	542.88
62.9774	584.15
62.9918	614.79
63.0063	598.03
63.0207	554.83
63.0352	538.20
63.0496	560.49
63.0640	601.51
63.0785	615.05
63.0929	576.87
63.1074	582.57
63.1218	581.77
63.1362	599.75
63.1507	551.41
63.1651	562.38
63.1796	544.42
63.1940	570.73
63.2084	551.26
63.2229	586.07
63.2373	542.08
63.2518	551.58
63.2662	565.17
63.2806	562.48
63.2951	600.32
63.3095	608.63
63.3240	608.57
63.3384	593.48
63.3528	575.41
63.3673	575.44
63.3817	567.42
63.3962	585.83
63.4106	581.99
63.4250	620.48
63.4395	621.13
63.4539	634.00
63.4684	659.82
63.4828	649.83
63.4972	653.73
63.5117	648.22
63.5261	698.26
63.5406	719.35
63.5550	765.70
63.5694	795.65
63.5839	821.86
63.5983	843.46
63.6128	883.11
63.6272	868.71
63.6416	877.56
63.6561	901.74
63.6705	920.19
63.6850	842.43
63.6994	756.71
63.7138	797.45
63.7283	806.71
63.7427	816.67
63.7572	803.06
63.7716	804.67
63.7861	826.91
63.8005	803.34
63.8149	826.55
63.8294	767.45
63.8438	736.29
63.8583	706.19
63.8727	704.46
63.8871	646.67
63.9016	685.12
63.9160	653.43
63.9305	657.78
63.9449	663.06
63.9593	596.03
63.9738	614.72
63.9882	587.34
64.0027	600.62
64.0171	601.68
64.0315	627.61
64.0460	591.08
64.0604	628.62
64.0749	598.07
64.0893	580.48
64.1037	633.24
64.1182	606.19
64.1326	602.11
64.1471	556.61
64.1615	600.44
64.1759	640.15
64.1904	639.23
64.2048	620.18
64.2193	595.96
64.2337	606.69
64.2481	638.17
64.2626	612.59
64.2770	642.86
64.2915	618.67
64.3059	588.72
64.3203	598.24
64.3348	601.42
64.3492	617.19
64.3637	611.82
64.3781	587.65
64.3925	624.94
64.4070	603.95
64.4214	640.16
64.4359	663.01
64.4503	635.35
64.4647	628.01
64.4792	594.87
64.4936	605.46
64.5081	609.16
64.5225	627.79
64.5369	604.93
64.5514	625.06
64.5658	609.63
64.5803	587.91
64.5947	666.10
64.6091	650.98
64.6236	632.43
64.6380	661.78
64.6525	675.58
64.6669	692.30
64.6813	686.37
64.6958	700.66
64.7102	718.48
64.7247	696.78
64.7391	686.24
64.7535	706.06
64.7680	695.94
64.7824	724.77
64.7969	703.92
64.8113	728.88
64.8257	757.74
64.8402	780.42
64.8546	797.16
64.8691	836.22
64.8835	806.62
64.8979	855.35
64.9124	860.29
64.9268	925.47
64.9413	877.47
64.9557	904.81
64.9701	939.28
64.9846	1074.82
64.9990	1093.73
65.0135	1221.63
65.0279	1382.97
65.0423	1624.30
65.0568	1992.56
65.0712	2514.55
65.0857	3203.55
65.1001	4139.99
65.1145	5699.87
65.1290	7465.31
65.1434	9171.50
65.1579	10775.96
65.1723	11513.05
65.1867	11193.31
65.2012	9978.35
65.2156	8415.60
65.2301	6655.83
65.2445	5357.11
65.2589	4462.19
65.2734	4115.68
65.2878	4249.66
65.3023	4716.31
65.3167	5525.34
65.3311	6249.36
65.3456	6845.07
65.3600	6872.15
65.3745	6353.66
65.3889	5463.18
65.4033	4367.96
65.4178	3583.31
65.4322	2805.16
65.4467	2128.69
65.4611	1728.76
65.4755	1451.69
65.4900	1275.21
65.5044	1145.54
65.5189	1067.86
65.5333	981.64
65.5477	931.36
65.5622	825.98
65.5766	823.61
65.5911	817.51
65.6055	802.28
65.6199	796.45
65.6344	788.04
65.6488	746.75
65.6633	755.20
65.6777	715.64
65.6921	700.28
65.7066	688.74
65.7210	678.92
65.7355	658.02
65.7499	683.23
65.7643	669.74
65.7788	693.92
65.7932	691.41
65.8077	674.70
65.8221	667.61
65.8365	640.29
65.8510	647.10
65.8654	680.30
65.8799	664.30
65.8943	678.04
65.9087	690.01
65.9232	677.62
65.9376	680.55
65.9521	656.33
65.9665	652.99
65.9809	642.12
65.9954	636.48
66.0098	645.66
66.0243	667.72
66.0387	655.90
66.0531	613.11
66.0676	642.00
66.0820	628.17
66.0965	610.29
66.1109	611.50
66.1253	613.32
66.1398	605.23
66.1542	575.37
66.1687	647.11
66.1831	624.36
66.1975	621.64
66.2120	616.98
66.2264	605.65
66.2409	585.23
66.2553	626.83
66.2697	626.31
66.2842	631.59
66.2986	589.77
66.3131	593.97
66.3275	618.75
66.3419	605.34
66.3564	571.07
66.3708	610.39
66.3853	613.53
66.3997	592.99
66.4141	592.16
66.4286	636.15
66.4430	578.46
66.4575	603.06
66.4719	603.12
66.4863	584.95
66.5008	562.52
66.5152	571.30
66.5297	584.70
66.5441	604.48
66.5585	574.63
66.5730	554.61
66.5874	563.22
66.6019	570.51
66.6163	561.12
66.6307	547.96
66.6452	570.97
66.6596	569.68
66.6741	545.17
66.6885	540.46
66.7029	595.56
66.7174	585.40
66.7318	568.51
66.7463	572.72
66.7607	558.83
66.7751	542.08
66.7896	575.69
66.8040	572.19
66.8185	580.49
66.8329	580.37
66.8473	591.03
66.8618	636.05
66.8762	592.74
66.8907	571.99
66.9051	612.28
66.9195	618.57
66.9340	651.26
66.9484	635.54
66.9629	596.75
66.9773	589.60
66.9917	572.26
67.0062	596.22
67.0206	621.39
67.0351	611.66
67.0495	560.06
67.0639	555.88
67.0784	609.38
67.0928	619.83
67.1073	582.37
67.1217	594.40
67.1361	588.33
67.1506	556.42
67.1650	590.04
67.1795	585.89
67.1939	573.45
67.2083	587.13
67.2228	562.48
67.2372	598.51
67.2517	594.06
67.2661	548.63
67.2805	544.65
67.2950	547.99
67.3094	583.24
67.3239	563.70
67.3383	587.00
67.3527	573.93
67.3672	550.42
67.3816	562.76
67.3961	531.82
67.4105	576.03
67.4250	598.43
67.4394	602.98
67.4538	565.19
67.4683	585.31
67.4827	599.10
67.4972	586.34
67.5116	578.32
67.5260	596.02
67.5405	586.48
67.5549	583.43
67.5694	560.29
67.5838	568.01
67.5982	592.50
67.6127	568.75
67.6271	560.29
67.6416	563.69
67.6560	558.46
67.6704	572.18
67.6849	554.19
67.6993	543.17
67.7138	559.85
67.7282	590.37
67.7426	578.37
67.7571	574.10
67.7715	553.09
67.7860	567.33
67.8004	561.62
67.8148	563.91
67.8293	572.71
67.8437	588.52
67.8582	562.19
67.8726	596.72
67.8870	559.89
67.9015	585.51
67.9159	541.38
67.9304	591.59
67.9448	577.58
67.9592	575.03
67.9737	573.53
67.9881	600.34
68.0026	539.48
68.0170	585.48
68.0314	615.97
68.0459	536.65
68.0603	549.08
68.0748	582.01
68.0892	579.28
68.1036	551.17
68.1181	573.28
68.1325	561.68
68.1470	560.76
68.1614	588.31
68.1758	554.65
68.1903	518.77
68.2047	580.76
68.2192	560.87
68.2336	586.21
68.2480	597.04
68.2625	560.81
68.2769	584.05
68.2914	574.60
68.3058	615.52
68.3202	606.16
68.3347	585.95
68.3491	607.22
68.3636	555.88
68.3780	592.45
68.3924	524.74
68.4069	558.12
68.4213	552.05
68.4358	545.97
68.4502	589.27
68.4646	595.11
68.4791	578.34
68.4935	567.29
68.5080	584.01
68.5224	539.19
68.5368	548.87
68.5513	555.74
68.5657	551.05
68.5802	561.79
68.5946	581.87
68.6090	539.55
68.6235	581.77
68.6379	608.31
68.6524	572.16
68.6668	550.61
68.6812	574.01
68.6957	533.78
68.7101	564.15
68.7246	560.32
68.7390	543.33
68.7534	534.52
68.7679	572.82
68.7823	571.43
68.7968	580.22
68.8112	578.72
68.8256	599.74
68.8401	601.07
68.8545	567.42
68.8690	564.98
68.8834	573.20
68.8978	593.77
68.9123	568.18
68.9267	634.19
68.9412	595.75
68.9556	555.27
68.9700	550.17
68.9845	584.67
68.9989	597.88
69.0134	617.67
69.0278	572.59
69.0422	555.87
69.0567	594.04
69.0711	546.47
69.0856	567.70
69.1000	588.46
69.1144	598.06
69.1289	522.26
69.1433	525.50
69.1578	596.44
69.1722	594.89
69.1866	551.64
69.2011	594.38
69.2155	644.18
69.2300	571.10
69.2444	560.20
69.2588	606.49
69.2733	586.62
69.2877	560.03
69.3022	539.70
69.3166	575.22
69.3310	570.41
69.3455	525.97
69.3599	545.67
69.3744	576.67
69.3888	572.90
69.4032	565.95
69.4177	591.46
69.4321	594.79
69.4466	545.82
69.4610	574.73
69.4754	591.27
69.4899	599.00
69.5043	625.62
69.5188	581.04
69.5332	573.56
69.5476	577.27
69.5621	589.77
69.5765	611.70
69.5910	604.46
69.6054	565.29
69.6198	560.53
69.6343	591.52
69.6487	580.65
69.6632	578.08
69.6776	591.88
69.6920	587.45
69.7065	579.49
69.7209	608.46
69.7354	603.80
69.7498	583.37
69.7642	574.42
69.7787	562.61
69.7931	574.52
69.8076	618.45
69.8220	595.99
69.8364	590.16
69.8509	572.09
69.8653	577.44
69.8798	574.62
69.8942	553.90
69.9086	555.16
69.9231	561.51
69.9375	589.54
69.9520	560.64
69.9664	585.90
69.9808	645.86
69.9953	635.55
70.0097	574.07
70.0242	594.22
70.0386	606.87
70.0530	548.64
70.0675	557.27
70.0819	573.94
70.0964	569.85
70.1108	548.65
70.1252	611.70
70.1397	581.97
70.1541	581.67
70.1686	598.09
70.1830	555.05
70.1974	556.02
70.2119	572.61
70.2263	542.37
70.2408	556.49
70.2552	566.41
70.2696	607.56
70.2841	624.42
70.2985	629.34
70.3130	560.79
70.3274	590.17
70.3418	586.93
70.3563	591.40
70.3707	589.92
70.3852	552.27
70.3996	573.61
70.4140	565.77
70.4285	607.99
70.4429	587.75
70.4574	537.15
70.4718	547.63
70.4862	515.44
70.5007	561.50
70.5151	579.29
70.5296	585.94
70.5440	569.27
70.5584	588.87
70.5729	561.33
70.5873	567.83
70.6018	580.34
70.6162	545.86
70.6306	534.58
70.6451	593.43
70.6595	620.95
70.6740	581.50
70.6884	559.90
70.7028	583.16
70.7173	557.19
70.7317	564.42
70.7462	570.69
70.7606	570.47
70.7750	577.02
70.7895	579.83
70.8039	553.95
70.8184	545.20
70.8328	545.45
70.8472	563.81
70.8617	576.06
70.8761	550.14
70.8906	558.50
70.9050	610.06
70.9194	599.81
70.9339	581.49
70.9483	542.61
70.9628	592.50
70.9772	613.34
70.9916	643.57
71.0061	620.63
71.0205	582.37
71.0350	592.60
71.0494	596.52
71.0638	572.46
71.0783	605.31
71.0927	593.92
71.1072	583.82
71.1216	554.28
71.1361	593.01
71.1505	608.79
71.1649	610.92
71.1794	587.33
71.1938	560.06
71.2083	563.24
71.2227	546.71
71.2371	619.33
71.2516	596.18
71.2660	573.64
71.2805	587.15
71.2949	566.36
71.3093	560.02
71.3238	561.45
71.3382	569.26
71.3527	544.98
71.3671	551.07
71.3815	553.49
71.3960	531.55
71.4104	531.35
71.4249	583.42
71.4393	540.46
71.4537	528.90
71.4682	576.58
71.4826	557.10
71.4971	545.03
71.5115	534.71
71.5259	495.66
71.5404	543.62
71.5548	582.39
71.5693	588.55
71.5837	574.34
71.5981	604.64
71.6126	569.79
71.6270	545.43
71.6415	544.66
71.6559	549.20
71.6703	564.15
71.6848	521.64
71.6992	571.48
71.7137	616.86
71.7281	606.24
71.7425	581.05
71.7570	596.29
71.7714	623.10
71.7859	549.74
71.8003	561.61
71.8147	579.15
71.8292	568.73
71.8436	585.86
71.8581	591.54
71.8725	590.80
71.8869	592.13
71.9014	620.50
71.9158	535.07
71.9303	508.03
71.9447	567.97
71.9591	593.91
71.9736	548.63
71.9880	545.64
72.0025	578.36
72.0169	596.40
72.0313	581.91
72.0458	497.79
72.0602	546.94
72.0747	579.27
72.0891	593.70
72.1035	607.40
72.1180	566.28
72.1324	556.03
72.1469	547.58
72.1613	553.78
72.1757	611.07
72.1902	587.43
72.2046	598.21
72.2191	630.67
72.2335	587.52
72.2479	604.37
72.2624	535.51
72.2768	523.99
72.2913	598.10
72.3057	588.59
72.3201	577.47
72.3346	611.65
72.3490	627.20
72.3635	586.59
72.3779	558.26
72.3923	503.43
72.4068	506.64
72.4212	582.97
72.4357	615.88
72.4501	589.19
72.4645	644.82
72.4790	627.81
72.4934	531.43
72.5079	548.90
72.5223	529.53
72.5367	525.41
72.5512	610.87
72.5656	562.64
72.5801	514.73
72.5945	545.97
72.6089	511.83
72.6234	502.49
72.6378	542.54
72.6523	586.07
72.6667	576.87
72.6811	584.65
72.6956	585.48
72.7100	666.58
72.7245	631.70
72.7389	664.95
72.7533	627.19
72.7678	605.87
72.7822	611.84
72.7967	541.19
72.8111	597.03
72.8255	582.76
72.8400	528.64
72.8544	525.08
72.8689	604.57
72.8833	578.05

Result vector
22.1120	600.98
22.1264	519.94
22.1409	494.58
22.1553	506.80
22.1697	532.94
22.1842	531.73
22.1986	562.08
22.2131	525.24
22.2275	606.53
22.2419	573.53
22.2564	498.40
22.2708	520.35
22.2853	629.13
22.2997	590.01
22.3141	550.55
22.3286	560.18
22.3430	579.64
22.3575	567.52
22.3719	642.12
22.3863	563.99
22.4008	590.06
22.4152	639.92
22.4297	699.69
22.4441	637.20
22.4585	557.05
22.4730	655.98
22.4874	645.32
22.5019	601.44
22.5163	673.32
22.5307	603.98
22.5452	542.11
22.5596	532.65
22.5741	553.82
22.5885	661.23
22.6029	538.19
22.6174	619.91
22.6318	532.47
22.6463	522.53
22.6607	612.26
22.6751	533.10
22.6896	623.08
22.7040	646.41
22.7185	581.48
22.7329	557.76
22.7473	666.92
22.7618	626.16
22.7762	554.89
22.7907	587.58
22.8051	683.86
22.8195	565.54
22.8340	432.96
22.8484	509.44
22.8629	606.58
22.8773	537.54
22.8917	486.05
22.9062	549.21
22.9206	521.85
22.9351	572.20
22.9495	590.81
22.9639	601.25
22.9784	532.11
22.9928	513.12
23.0073	562.87
23.0217	616.34
23.0361	549.38
23.0506	657.41
23.0650	608.92
23.0795	554.84
23.0939	563.59
23.1083	544.93
23.1228	588.85
23.1372	641.79
23.1517	574.45
23.1661	570.83
23.1806	563.19
23.1950	536.54
23.2094	634.06
23.2239	566.42
23.2383	577.33
23.2528	552.96
23.2672	555.42
23.2816	603.66
23.2961	558.18
23.3105	552.96
23.3250	550.56
23.3394	554.20
23.3538	542.03
23.3683	500.74
23.3827	574.81
23.3972	462.26
23.4116	567.38
23.4260	586.98
23.4405	562.70
23.4549	500.73
23.4694	548.68
23.4838	553.98
23.4982	541.44
23.5127	576.94
23.5271	603.26
23.5416	559.05
23.5560	551.81
23.5704	550.50
23.5849	546.05
23.5993	579.16
23.6138	563.00
23.6282	549.74
23.6426	529.32
23.6571	559.37
23.6715	537.74
23.6860	460.62
23.7004	500.47
23.7148	500.14
23.7293	513.09
23.7437	597.36
23.7582	567.15
23.7726	595.85
23.7870	622.75
23.8015	563.58
23.8159	564.89
23.8304	504.08
23.8448	539.28
23.8592	637.51
23.8737	596.83
23.8881	487.05
23.9026	568.57
23.9170	501.10
23.9314	509.96
23.9459	527.80
23.9603	534.34
23.9748	559.62
23.9892	525.87
24.0036	474.87
24.0181	547.25
24.0325	488.80
24.0470	562.57
24.0614	578.14
24.0758	578.58
24.0903	513.19
24.1047	561.45
24.1192	562.36
24.1336	566.60
24.1480	547.30
24.1625	589.12
24.1769	580.27
24.1914	552.88
24.2058	534.45
24.2202	557.70
24.2347	619.81
24.2491	616.30
24.2636	567.72
24.2780	592.21
24.2924	573.84
24.3069	554.87
24.3213	570.54
24.3358	556.08
24.3502	535.93
24.3646	556.01
24.3791	563.21
24.3935	510.21
24.4080	565.49
24.4224	596.56
24.4368	560.77
24.4513	543.12
24.4657	574.17
24.4802	612.29
24.4946	562.13
24.5090	539.65
24.5235	570.28
24.5379	517.69
24.5524	562.79
24.5668	555.42
24.5812	519.55
24.5957	571.67
24.6101	555.18
24.6246	542.81
24.6390	549.60
24.6534	615.56
24.6679	545.76
24.6823	524.90
24.6968	528.62
24.7112	524.73
24.7256	507.42
24.7401	517.03
24.7545	545.37
24.7690	515.96
24.7834	495.53
24.7978	560.33
24.8123	503.52
24.8267	547.10
24.8412	546.69
24.8556	552.25
24.8700	535.56
24.8845	552.70
24.8989	558.97
24.9134	560.91
24.9278	579.72
24.9422	598.80
24.9567	555.26
24.9711	567.19
24.9856	556.88
25.0000	557.96
25.0144	558.67
25.0289	547.12
25.0433	574.67
25.0578	533.33
25.0722	523.20
25.0866	571.78
25.1011	565.86
25.1155	548.83
25.1300	545.72
25.1444	498.70
25.1588	549.84
25.1733	586.53
25.1877	533.42
25.2022	522.10
25.2166	505.94
25.2310	539.09
25.2455	517.68
25.2599	519.03
25.2744	525.65
25.2888	590.72
25.3032	552.37
25.3177	538.55
25.3321	494.67
25.3466	524.78
25.3610	524.92
25.3754	516.49
25.3899	543.03
25.4043	563.51
25.4188	550.83
25.4332	532.64
25.4476	576.38
25.4621	533.60
25.4765	549.57
25.4910	501.20
25.5054	529.97
25.5198	535.17
25.5343	547.44
25.5487	536.68
25.5632	537.51
25.5776	530.79
25.5920	558.97
25.6065	533.59
25.6209	578.56
25.6354	532.54
25.6498	536.26
25.6642	527.95
25.6787	525.64
25.6931	536.71
25.7076	520.44
25.7220	490.88
25.7364	550.25
25.7509	573.72
25.7653	579.16
25.7798	581.42
25.7942	585.01
25.8086	557.55
25.8231	559.30
25.8375	545.48
25.8520	529.55
25.8664	549.06
25.8808	552.90
25.8953	563.65
25.9097	562.18
25.9242	550.01
25.9386	542.11
25.9530	527.18
25.9675	502.86
25.9819	513.50
25.9964	502.73
26.0108	492.66
26.0252	541.49
26.0397	549.95
26.0541	512.14
26.0686	540.16
26.0830	542.52
26.0974	551.02
26.1119	539.11
26.1263	564.28
26.1408	546.60
26.1552	546.06
26.1696	544.18
26.1841	554.06
26.1985	522.46
26.2130	545.98
26.2274	529.88
26.2418	524.94
26.2563	513.50
26.2707	509.47
26.2852	530.75
26.2996	496.80
26.3140	513.41
26.3285	516.49
26.3429	513.93
26.3574	516.23
26.3718	497.56
26.3862	508.99
26.4007	525.78
26.4151	558.63
26.4296	579.14
26.4440	527.64
26.4584	493.12
26.4729	504.94
26.4873	520.20
26.5018	461.10
26.5162	504.00
26.5306	551.02
26.5451	558.57
26.5595	565.58
26.5740	550.25
26.5884	528.05
26.6028	538.20
26.6173	551.45
26.6317	557.18
26.6462	540.82
26.6606	557.71
26.6750	524.87
26.6895	531.14
26.7039	528.22
26.7184	545.17
26.7328	517.19
26.7472	511.45
26.7617	557.37
26.7761	559.32
26.7906	549.99
26.8050	515.42
26.8194	504.55
26.8339	499.86
26.8483	563.53
26.8628	532.75
26.8772	537.10
26.8917	515.12
26.9061	536.49
26.9205	552.28
26.9350	529.01
26.9494	545.54
26.9639	526.73
26.9783	522.82
26.9927	526.70
27.0072	545.40
27.0216	504.87
27.0361	514.49
27.0505	494.62
27.0649	482.61
27.0794	514.05
27.0938	561.20
27.1083	526.57
27.1227	546.36
27.1371	510.36
27.1516	490.34
27.1660	526.51
27.1805	543.73
27.1949	503.16
27.2093	535.69
27.2238	524.00
27.2382	563.06
27.2527	563.39
27.2671	544.00
27.2815	533.19
27.2960	525.07
27.3104	518.21
27.3249	493.55
27.3393	500.59
27.3537	491.15
27.3682	507.88
27.3826	531.08
27.3971	548.84
27.4115	531.78
27.4259	550.94
27.4404	505.65
27.4548	485.95
27.4693	520.68
27.4837	503.39
27.4981	497.97
27.5126	550.44
27.5270	529.94
27.5415	521.67
27.5559	553.92
27.5703	545.85
27.5848	500.61
27.5992	487.85
27.6137	510.27
27.6281	470.33
27.6425	506.69
27.6570	543.14
27.6714	564.44
27.6859	532.23
27.7003	531.82
27.7147	525.45
27.7292	550.71
27.7436	528.44
27.7581	531.63
27.7725	510.02
27.7869	513.36
27.8014	508.79
27.8158	507.73
27.8303	526.87
27.8447	547.92
27.8591	514.83
27.8736	499.49
27.8880	525.46
27.9025	513.18
27.9169	531.81
27.9313	528.27
27.9458	518.24
27.9602	485.76
27.9747	509.62
27.9891	490.29
28.0035	544.10
28.0180	571.59
28.0324	487.27
28.0469	507.54
28.0613	540.69
28.0757	515.49
28.0902	543.05
28.1046	525.07
28.1191	521.14
28.1335	521.15
28.1479	475.40
28.1624	502.51
28.1768	521.55
28.1913	552.63
28.2057	513.00
28.2201	497.92
28.2346	496.70
28.2490	513.18
28.2635	526.02
28.2779	524.08
28.2923	490.63
28.3068	513.89
28.3212	516.18
28.3357	515.92
28.3501	498.53
28.3645	524.77
28.3790	525.97
28.3934	513.94
28.4079	537.20
28.4223	553.97
28.4367	524.90
28.4512	527.17
28.4656	518.91
28.4801	522.93
28.4945	529.08
28.5089	550.37
28.5234	484.55
28.5378	503.55
28.5523	518.22
28.5667	522.54
28.5811	532.78
28.5956	497.03
28.6100	545.29
28.6245	544.74
28.6389	550.82
28.6533	510.61
28.6678	485.45
28.6822	479.23
28.6967	488.88
28.7111	542.69
28.7255	495.76
28.7400	498.67
28.7544	531.21
28.7689	491.11
28.7833	509.90
28.7977	500.48
28.8122	497.44
28.8266	493.33
28.8411	501.97
28.8555	522.69
28.8699	541.09
28.8844	523.17
28.8988	523.60
28.9133	516.17
28.9277	498.88
28.9421	524.69
28.9566	490.51
28.9710	496.34
28.9855	478.95
28.9999	464.11
29.0143	496.45
29.0288	492.93
29.0432	521.39
29.0577	527.38
29.0721	558.55
29.0865	525.25
29.1010	512.62
29.1154	517.03
29.1299	527.62
29.1443	501.49
29.1587	470.30
29.1732	501.72
29.1876	516.42
29.2021	500.92
29.2165	513.66
29.2309	498.49
29.2454	516.58
29.2598	505.25
29.2743	505.18
29.2887	486.41
29.3031	469.55
29.3176	481.45
29.3320	537.01
29.3465	525.63
29.3609	465.40
29.3753	496.06
29.3898	496.21
29.4042	482.47
29.4187	492.68
29.4331	516.81
29.4475	489.68
29.4620	515.14
29.4764	534.00
29.4909	528.75
29.5053	477.21
29.5197	475.91
29.5342	495.92
29.5486	489.75
29.5631	496.66
29.5775	478.91
29.5919	519.42
29.6064	489.39
29.6208	496.92
29.6353	500.08
29.6497	501.42
29.6641	527.69
29.6786	492.74
29.6930	500.44
29.7075	520.75
29.7219	522.77
29.7363	459.07
29.7508	501.14
29.7652	521.51
29.7797	506.20
29.7941	502.01
29.8085	520.04
29.8230	510.16
29.8374	540.73
29.8519	492.15
29.8663	489.43
29.8807	466.29
29.8952	490.72
29.9096	522.09
29.9241	488.40
29.9385	481.69
29.9529	472.45
29.9674	480.10
29.9818	477.43
29.9963	506.15
30.0107	502.80
30.0251	521.29
30.0396	530.70
30.0540	506.00
30.0685	504.35
30.0829	476.00
30.0973	483.04
30.1118	500.13
30.1262	475.87
30.1407	491.95
30.1551	485.91
30.1695	527.20
30.1840	528.28
30.1984	496.85
30.2129	494.04
30.2273	484.67
30.2417	518.46
30.2562	503.06
30.2706	502.95
30.2851	517.09
30.2995	504.90
30.3139	491.93
30.3284	502.80
30.3428	509.54
30.3573	517.11
30.3717	503.67
30.3861	508.11
30.4006	508.40
30.4150	517.00
30.4295	516.56
30.4439	510.63
30.4583	538.05
30.4728	554.33
30.4872	565.76
30.5017	581.10
30.5161	609.22
30.5305	591.62
30.5450	620.10
30.5594	686.45
30.5739	700.84
30.5883	692.43
30.6028	723.45
30.6172	731.46
30.6316	766.66
30.6461	732.52
30.6605	701.57
30.6750	653.99
30.6894	656.19
30.7038	649.21
30.7183	632.13
30.7327	597.74
30.7472	559.22
30.7616	533.24
30.7760	579.90
30.7905	533.94
30.8049	529.70
30.8194	516.40
30.8338	521.49
30.8482	474.44
30.8627	500.15
30.8771	525.65
30.8916	513.48
30.9060	545.47
30.9204	512.91
30.9349	494.06
30.9493	477.91
30.9638	489.81
30.9782	510.15
30.9926	506.70
31.0071	516.25
31.0215	523.73
31.0360	500.37
31.0504	478.17
31.0648	519.24
31.0793	504.40
31.0937	492.08
31.1082	485.68
31.1226	513.97
31.1370	488.85
31.1515	489.45
31.1659	513.47
31.1804	500.72
31.1948	479.79
31.2092	483.56
31.2237	501.44
31.2381	521.50
31.2526	554.51
31.2670	506.26
31.2814	494.13
31.2959	504.92
31.3103	531.50
31.3248	537.06
31.3392	524.68
31.3536	540.01
31.3681	526.73
31.3825	519.63
31.3970	541.83
31.4114	494.62
31.4258	546.65
31.4403	527.11
31.4547	490.12
31.4692	533.89
31.4836	504.47
31.4980	546.51
31.5125	492.35
31.5269	530.02
31.5414	512.77
31.5558	523.23
31.5702	511.61
31.5847	498.83
31.5991	537.26
31.6136	540.06
31.6280	503.76
31.6424	469.31
31.6569	472.65
31.6713	499.71
31.6858	533.27
31.7002	526.87
31.7146	513.22
31.7291	501.27
31.7435	506.65
31.7580	489.29
31.7724	497.79
31.7868	482.85
31.8013	485.46
31.8157	509.84
31.8302	487.56
31.8446	514.72
31.8590	493.53
31.8735	498.41
31.8879	514.33
31.9024	505.68
31.9168	479.27
31.9312	517.49
31.9457	505.74
31.9601	531.13
31.9746	514.37
31.9890	504.15
32.0034	495.04
32.0179	525.67
32.0323	537.81
32.0468	490.18
32.0612	518.39
32.0756	492.74
32.0901	504.39
32.1045	511.83
32.1190	508.07
32.1334	485.65
32.1478	487.85
32.1623	516.21
32.1767	495.61
32.1912	472.90
32.2056	500.58
32.2200	503.46
32.2345	501.27
32.2489	479.20
32.2634	481.94
32.2778	492.18
32.2922	488.66
32.3067	501.97
32.3211	494.84
32.3356	499.75
32.3500	503.21
32.3644	532.28
32.3789	525.34
32.3933	512.10
32.4078	528.08
32.4222	479.26
32.4366	525.42
32.4511	518.23
32.4655	487.77
32.4800	474.21
32.4944	507.36
32.5088	481.16
32.5233	478.10
32.5377	488.66
32.5522	513.46
32.5666	520.99
32.5810	476.62
32.5955	478.76
32.6099	494.36
32.6244	483.96
32.6388	502.84
32.6532	515.83
32.6677	509.91
32.6821	487.28
32.6966	475.34
32.7110	528.90
32.7254	474.32
32.7399	517.91
32.7543	475.36
32.7688	496.91
32.7832	507.66
32.7976	495.27
32.8121	540.58
32.8265	500.25
32.8410	466.67
32.8554	531.00
32.8698	517.94
32.8843	499.38
32.8987	507.71
32.9132	524.16
32.9276	530.99
32.9420	517.41
32.9565	488.32
32.9709	505.24
32.9854	512.82
32.9998	504.38
33.0142	533.74
33.0287	514.22
33.0431	537.74
33.0576	502.97
33.0720	502.85
33.0864	501.99
33.1009	519.80
33.1153	492.40
33.1298	445.92
33.1442	499.11
33.1586	482.00
33.1731	491.09
33.1875	513.20
33.2020	478.74
33.2164	484.99
33.2308	526.86
33.2453	515.96
33.2597	534.72
33.2742	494.47
33.2886	483.27
33.3030	501.57
33.3175	509.76
33.3319	481.47
33.3464	474.33
33.3608	505.78
33.3752	509.60
33.3897	499.34
33.4041	504.95
33.4186	505.95
33.4330	524.59
33.4474	538.70
33.4619	551.53
33.4763	496.04
33.4908	473.57
33.5052	459.67
33.5196	500.17
33.5341	525.96
33.5485	532.80
33.5630	490.86
33.5774	481.56
33.5918	507.47
33.6063	540.17
33.6207	503.86
33.6352	526.25
33.6496	473.43
33.6640	462.78
33.6785	454.78
33.6929	479.83
33.7074	539.84
33.7218	534.73
33.7362	507.38
33.7507	489.79
33.7651	484.37
33.7796	490.07
33.7940	495.03
33.8084	501.29
33.8229	512.02
33.8373	517.87
33.8518	506.25
33.8662	531.73
33.8806	463.49
33.8951	534.75
33.9095	526.42
33.9240	508.76
33.9384	487.09
33.9528	519.93
33.9673	492.40
33.9817	526.52
33.9962	511.79
34.0106	515.30
34.0250	469.87
34.0395	489.98
34.0539	519.78
34.0684	525.83
34.0828	516.66
34.0972	510.35
34.1117	531.41
34.1261	515.76
34.1406	476.16
34.1550	467.32
34.1694	507.73
34.1839	511.47
34.1983	502.80
34.2128	494.47
34.2272	497.77
34.2417	496.04
34.2561	483.45
34.2705	502.99
34.2850	484.97
34.2994	453.90
34.3139	496.89
34.3283	475.35
34.3427	510.08
34.3572	539.48
34.3716	518.68
34.3861	513.00
34.4005	477.49
34.4149	499.22
34.4294	542.55
34.4438	512.04
34.4583	514.85
34.4727	519.73
34.4871	507.81
34.5016	530.50
34.5160	542.48
34.5305	515.93
34.5449	502.74
34.5593	486.42
34.5738	519.59
34.5882	517.06
34.6027	530.68
34.6171	499.85
34.6315	507.37
34.6460	503.21
34.6604	488.02
34.6749	498.97
34.6893	500.00
34.7037	525.78
34.7182	502.08
34.7326	493.18
34.7471	500.73
34.7615	486.18
34.7759	502.06
34.7904	503.96
34.8048	508.71
34.8193	504.61
34.8337	510.09
34.8481	524.67
34.8626	532.62
34.8770	513.30
34.8915	477.16
34.9059	526.06
34.9203	509.01
34.9348	472.43
34.9492	511.93
34.9637	531.41
34.9781	551.31
34.9925	544.33
35.0070	517.40
35.0214	482.14
35.0359	522.63
35.0503	557.07
35.0647	504.07
35.0792	496.15
35.0936	488.80
35.1081	489.05
35.1225	495.82
35.1369	485.75
35.1514	492.92
35.1658	530.72
35.1803	544.01
35.1947	515.45
35.2091	534.42
35.2236	522.61
35.2380	514.17
35.2525	544.11
35.2669	522.08
35.2813	529.52
35.2958	505.04
35.3102	474.38
35.3247	497.30
35.3391	524.21
35.3535	505.51
35.3680	500.02
35.3824	482.07
35.3969	499.10
35.4113	504.27
35.4257	519.34
35.4402	560.55
35.4546	517.74
35.4691	533.12
35.4835	508.55
35.4979	509.87
35.5124	512.36
35.5268	513.94
35.5413	554.70
35.5557	563.06
35.5701	521.93
35.5846	537.27
35.5990	526.09
35.6135	549.93
35.6279	530.79
35.6423	576.97
35.6568	554.32
35.6712	553.54
35.6857	579.05
35.7001	669.98
35.7145	724.04
35.7290	694.85
35.7434	626.93
35.7579	613.70
35.7723	611.20
35.7867	651.22
35.8012	701.43
35.8156	728.19
35.8301	696.19
35.8445	673.51
35.8589	742.54
35.8734	820.27
35.8878	906.88
35.9023	1012.34
35.9167	1079.05
35.9311	1232.31
35.9456	1592.21
35.9600	2148.55
35.9745	2047.66
35.9889	2165.46
36.0033	2665.00
36.0178	3008.74
36.0322	3279.52
36.0467	2690.62
36.0611	2238.29
36.0755	2083.84
36.0900	2179.72
36.1044	1756.08
36.1189	1566.61
36.1333	1486.45
36.1477	1280.20
36.1622	1228.38
36.1766	1014.11
36.1911	916.63
36.2055	829.20
36.2199	818.33
36.2344	741.74
36.2488	672.34
36.2633	619.52
36.2777	603.82
36.2921	580.95
36.3066	570.92
36.3210	562.57
36.3355	565.08
36.3499	551.76
36.3643	533.23
36.3788	567.12
36.3932	534.37
36.4077	558.26
36.4221	534.25
36.4365	513.23
36.4510	516.92
36.4654	563.35
36.4799	555.62
36.4943	549.35
36.5087	530.29
36.5232	541.84
36.5376	522.16
36.5521	556.15
36.5665	542.72
36.5809	523.15
36.5954	519.26
36.6098	529.00
36.6243	539.42
36.6387	504.67
36.6531	540.10
36.6676	556.16
36.6820	528.06
36.6965	504.35
36.7109	501.83
36.7253	532.13
36.7398	527.26
36.7542	531.87
36.7687	508.53
36.7831	522.38
36.7975	535.44
36.8120	571.99
36.8264	553.97
36.8409	564.54
36.8553	583.60
36.8697	573.74
36.8842	567.90
36.8986	626.82
36.9131	610.45
36.9275	560.96
36.9419	592.77
36.9564	556.73
36.9708	569.72
36.9853	556.81
36.9997	536.51
37.0141	549.99
37.0286	545.93
37.0430	536.14
37.0575	507.49
37.0719	533.66
37.0863	521.03
37.1008	507.62
37.1152	537.73
37.1297	503.70
37.1441	484.28
37.1585	511.80
37.1730	511.76
37.1874	520.47
37.2019	542.74
37.2163	487.45
37.2307	501.22
37.2452	520.83
37.2596	498.82
37.2741	473.34
37.2885	504.03
37.3029	495.64
37.3174	489.33
37.3318	499.80
37.3463	524.06
37.3607	486.91
37.3751	474.11
37.3896	509.62
37.4040	499.21
37.4185	482.71
37.4329	491.42
37.4473	468.08
37.4618	496.05
37.4762	513.32
37.4907	508.08
37.5051	451.90
37.5195	500.24
37.5340	518.38
37.5484	478.72
37.5629	508.50
37.5773	515.58
37.5917	494.34
37.6062	477.48
37.6206	489.82
37.6351	523.68
37.6495	538.72
37.6639	491.12
37.6784	478.98
37.6928	487.35
37.7073	501.73
37.7217	532.65
37.7361	503.32
37.7506	470.84
37.7650	498.13
37.7795	518.77
37.7939	497.80
37.8083	507.36
37.8228	521.00
37.8372	543.93
37.8517	526.15
37.8661	518.44
37.8805	471.78
37.8950	479.30
37.9094	507.58
37.9239	499.49
37.9383	528.04
37.9528	515.94
37.9672	462.18
37.9816	484.91
37.9961	489.58
38.0105	507.33
38.0250	527.39
38.0394	491.65
38.0538	482.71
38.0683	496.95
38.0827	468.87
38.0972	489.01
38.1116	503.20
38.1260	542.43
38.1405	510.68
38.1549	479.33
38.1694	515.48
38.1838	509.19
38.1982	495.58
38.2127	501.51
38.2271	506.35
38.2416	494.71
38.2560	473.65
38.2704	510.34
38.2849	484.98
38.2993	481.45
38.3138	522.65
38.3282	502.81
38.3426	526.55
38.3571	526.20
38.3715	532.33
38.3860	557.59
38.4004	542.12
38.4148	540.96
38.4293	607.80
38.4437	580.15
38.4582	642.84
38.4726	664.68
38.4870	668.84
38.5015	712.20
38.5159	745.59
38.5304	800.16
38.5448	794.26
38.5592	814.01
38.5737	773.72
38.5881	725.37
38.6026	691.66
38.6170	696.23
38.6314	704.94
38.6459	660.19
38.6603	634.47
38.6748	618.87
38.6892	581.27
38.7036	621.23
38.7181	545.02
38.7325	519.13
38.7470	543.91
38.7614	480.77
38.7758	493.18
38.7903	519.19
38.8047	535.40
38.8192	492.62
38.8336	504.29
38.8480	503.84
38.8625	511.30
38.8769	523.96
38.8914	502.70
38.9058	509.80
38.9202	509.84
38.9347	491.85
38.9491	477.67
38.9636	448.61
38.9780	474.72
38.9924	510.48
39.0069	531.27
39.0213	531.70
39.0358	490.04
39.0502	485.98
39.0646	488.10
39.0791	499.01
39.0935	508.47
39.1080	481.26
39.1224	492.54
39.1368	509.04
39.1513	482.68
39.1657	486.61
39.1802	518.74
39.1946	491.99
39.2090	501.67
39.2235	460.13
39.2379	507.94
39.2524	503.23
39.2668	508.17
39.2812	515.04
39.2957	480.09
39.3101	501.30
39.3246	531.21
39.3390	533.49
39.3534	530.53
39.3679	512.15
39.3823	496.92
39.3968	501.76
39.4112	502.59
39.4256	507.05
39.4401	509.81
39.4545	498.99
39.4690	506.10
39.4834	514.59
39.4978	504.77
39.5123	488.97
39.5267	482.02
39.5412	533.87
39.5556	498.62
39.5700	499.07
39.5845	510.91
39.5989	505.67
39.6134	515.80
39.6278	510.18
39.6422	526.17
39.6567	517.60
39.6711	496.40
39.6856	490.77
39.7000	498.01
39.7144	474.50
39.7289	472.31
39.7433	509.76
39.7578	507.15
39.7722	503.80
39.7866	503.50
39.8011	513.50
39.8155	488.89
39.8300	499.32
39.8444	471.37
39.8588	475.83
39.8733	486.84
39.8877	470.39
39.9022	492.31
39.9166	511.79
39.9310	506.17
39.9455	515.99
39.9599	479.04
39.9744	515.94
39.9888	532.45
40.0032	487.72
40.0177	515.40
40.0321	499.05
40.0466	477.69
40.0610	523.80
40.0754	473.75
40.0899	522.24
40.1043	485.61
40.1188	539.88
40.1332	496.61
40.1476	479.76
40.1621	455.12
40.1765	477.50
40.1910	497.50
40.2054	498.43
40.2198	528.61
40.2343	495.23
40.2487	501.62
40.2632	489.57
40.2776	485.09
40.2920	482.68
40.3065	493.96
40.3209	518.83
40.3354	474.37
40.3498	499.98
40.3642	492.11
40.3787	487.17
40.3931	483.20
40.4076	512.64
40.4220	489.33
40.4364	513.79
40.4509	535.21
40.4653	520.44
40.4798	497.87
40.4942	513.43
40.5086	519.04
40.5231	514.71
40.5375	483.57
40.5520	496.09
40.5664	503.90
40.5808	495.24
40.5953	534.63
40.6097	522.25
40.6242	487.15
40.6386	520.63
40.6530	516.58
40.6675	509.99
40.6819	495.22
40.6964	473.38
40.7108	522.54
40.7252	492.68
40.7397	505.26
40.7541	501.91
40.7686	486.92
40.7830	495.71
40.7974	493.98
40.8119	495.03
40.8263	531.72
40.8408	511.44
40.8552	497.56
40.8696	509.74
40.8841	504.57
40.8985	514.96
40.9130	514.91
40.9274	503.79
40.9418	484.31
40.9563	507.02
40.9707	499.32
40.9852	492.85
40.9996	499.10
41.0140	511.00
41.0285	477.41
41.0429	499.66
41.0574	521.94
41.0718	494.16
41.0862	521.88
41.1007	500.92
41.1151	506.52
41.1296	512.54
41.1440	467.73
41.1584	488.17
41.1729	524.82
41.1873	481.02
41.2018	477.09
41.2162	476.62
41.2306	503.59
41.2451	514.31
41.2595	474.03
41.2740	504.28
41.2884	511.06
41.3028	505.00
41.3173	501.01
41.3317	499.53
41.3462	515.73
41.3606	517.92
41.3750	495.77
41.3895	504.12
41.4039	492.41
41.4184	483.32
41.4328	496.33
41.4472	459.05
41.4617	485.27
41.4761	524.68
41.4906	492.82
41.5050	459.98
41.5194	497.32
41.5339	503.60
41.5483	522.73
41.5628	498.41
41.5772	475.87
41.5916	507.86
41.6061	529.80
41.6205	496.18
41.6350	464.79
41.6494	516.95
41.6639	489.08
41.6783	508.42
41.6927	517.80
41.7072	501.53
41.7216	482.88
41.7361	480.51
41.7505	491.20
41.7649	461.74
41.7794	478.85
41.7938	515.36
41.8083	496.63
41.8227	525.32
41.8371	535.75
41.8516	530.86
41.8660	539.44
41.8805	540.18
41.8949	531.85
41.9093	532.95
41.9238	531.12
41.9382	569.86
41.9527	572.93
41.9671	537.83
41.9815	561.50
41.9960	590.98
42.0104	578.64
42.0249	555.26
42.0393	537.69
42.0537	573.07
42.0682	554.77
42.0826	562.54
42.0971	565.87
42.1115	591.49
42.1259	643.74
42.1404	622.51
42.1548	619.06
42.1693	662.10
42.1837	688.59
42.1981	748.50
42.2126	842.62
42.2270	965.14
42.2415	1054.30
42.2559	1216.45
42.2703	1360.00
42.2848	1502.60
42.2992	1632.25
42.3137	1717.03
42.3281	1692.00
42.3425	1620.06
42.3570	1513.03
42.3714	1450.59
42.3859	1414.56
42.4003	1337.54
42.4147	1333.27
42.4292	1317.27
42.4436	1135.55
42.4581	1012.38
42.4725	994.47
42.4869	857.54
42.5014	769.18
42.5158	718.28
42.5303	666.74
42.5447	638.83
42.5591	623.74
42.5736	623.68
42.5880	565.49
42.6025	571.98
42.6169	561.01
42.6313	562.85
42.6458	516.33
42.6602	509.16
42.6747	532.86
42.6891	530.85
42.7035	557.19
42.7180	529.83
42.7324	523.94
42.7469	532.07
42.7613	496.04
42.7757	505.84
42.7902	531.46
42.8046	532.95
42.8191	535.92
42.8335	520.90
42.8479	515.41
42.8624	519.94
42.8768	503.84
42.8913	495.67
42.9057	503.83
42.9201	506.76
42.9346	515.64
42.9490	545.82
42.9635	479.24
42.9779	447.34
42.9923	500.19
43.0068	517.39
43.0212	517.70
43.0357	530.66
43.0501	497.56
43.0645	484.24
43.0790	511.28
43.0934	545.24
43.1079	491.46
43.1223	499.94
43.1367	535.17
43.1512	481.41
43.1656	503.21
43.1801	528.22
43.1945	504.44
43.2089	512.92
43.2234	525.97
43.2378	528.31
43.2523	509.50
43.2667	474.71
43.2811	552.50
43.2956	519.43
43.3100	531.43
43.3245	487.76
43.3389	515.85
43.3533	520.24
43.3678	498.14
43.3822	511.86
43.3967	517.99
43.4111	540.37
43.4255	548.84
43.4400	518.40
43.4544	515.75
43.4689	515.98
43.4833	563.19
43.4977	528.01
43.5122	538.68
43.5266	525.53
43.5411	529.17
43.5555	510.91
43.5699	483.40
43.5844	483.66
43.5988	522.86
43.6133	551.91
43.6277	547.29
43.6421	529.91
43.6566	516.14
43.6710	509.90
43.6855	538.98
43.6999	581.88
43.7143	582.26
43.7288	584.38
43.7432	581.01
43.7577	620.50
43.7721	610.52
43.7865	665.43
43.8010	657.22
43.8154	647.15
43.8299	618.31
43.8443	584.37
43.8587	627.21
43.8732	604.99
43.8876	607.40
43.9021	621.70
43.9165	590.01
43.9309	570.65
43.9454	553.50
43.9598	559.25
43.9743	564.86
43.9887	533.62
44.0031	534.81
44.0176	530.29
44.0320	516.91
44.0465	454.36
44.0609	521.83
44.0753	526.20
44.0898	552.56
44.1042	520.26
44.1187	521.00
44.1331	510.63
44.1475	477.06
44.1620	471.23
44.1764	512.68
44.1909	516.06
44.2053	509.03
44.2197	524.12
44.2342	501.96
44.2486	553.08
44.2631	531.27
44.2775	517.30
44.2919	480.69
44.3064	520.52
44.3208	521.07
44.3353	512.06
44.3497	533.57
44.3641	559.38
44.3786	560.77
44.3930	491.83
44.4075	520.23
44.4219	580.94
44.4363	594.34
44.4508	557.72
44.4652	562.02
44.4797	627.12
44.4941	591.94
44.5085	542.26
44.5230	566.92
44.5374	559.06
44.5519	578.76
44.5663	573.01
44.5807	603.45
44.5952	528.17
44.6096	523.85
44.6241	570.52
44.6385	569.71
44.6529	598.25
44.6674	567.55
44.6818	572.78
44.6963	583.91
44.7107	619.92
44.7251	668.27
44.7396	700.52
44.7540	769.83
44.7685	807.43
44.7829	885.88
44.7973	850.76
44.8118	889.28
44.8262	808.44
44.8407	746.88
44.8551	739.91
44.8695	741.27
44.8840	722.95
44.8984	728.22
44.9129	731.94
44.9273	653.89
44.9417	614.04
44.9562	619.73
44.9706	557.58
44.9851	542.35
44.9995	556.50
45.0139	583.16
45.0284	520.30
45.0428	484.72
45.0573	492.80
45.0717	505.94
45.0861	532.63
45.1006	491.40
45.1150	472.59
45.1295	525.57
45.1439	515.67
45.1583	472.68
45.1728	505.61
45.1872	455.65
45.2017	465.68
45.2161	514.64
45.2305	488.10
45.2450	508.90
45.2594	515.83
45.2739	523.25
45.2883	536.29
45.3028	503.76
45.3172	489.55
45.3316	515.55
45.3461	529.98
45.3605	509.60
45.3750	504.80
45.3894	496.53
45.4038	529.93
45.4183	482.43
45.4327	486.81
45.4472	484.67
45.4616	491.72
45.4760	505.95
45.4905	488.31
45.5049	465.48
45.5194	487.57
45.5338	535.27
45.5482	513.56
45.5627	486.15
45.5771	507.60
45.5916	492.72
45.6060	518.31
45.6204	496.16
45.6349	490.48
45.6493	511.63
45.6638	503.93
45.6782	496.09
45.6926	469.81
45.7071	522.62
45.7215	493.80
45.7360	456.27
45.7504	461.31
45.7648	488.08
45.7793	510.91
45.7937	501.65
45.8082	554.94
45.8226	528.80
45.8370	546.16
45.8515	481.74
45.8659	507.93
45.8804	509.76
45.8948	509.61
45.9092	492.26
45.9237	485.59
45.9381	512.74
45.9526	523.60
45.9670	487.34
45.9814	490.54
45.9959	464.16
46.0103	505.62
46.0248	505.61
46.0392	511.45
46.0536	516.03
46.0681	518.73
46.0825	486.77
46.0970	483.13
46.1114	507.01
46.1258	477.61
46.1403	507.87
46.1547	492.58
46.1692	526.48
46.1836	501.57
46.1980	495.16
46.2125	515.04
46.2269	509.79
46.2414	498.36
46.2558	503.38
46.2702	481.69
46.2847	474.35
46.2991	488.75
46.3136	492.05
46.3280	506.62
46.3424	535.01
46.3569	507.66
46.3713	470.44
46.3858	482.90
46.4002	489.21
46.4146	491.38
46.4291	498.30
46.4435	471.72
46.4580	467.46
46.4724	500.98
46.4868	490.12
46.5013	489.98
46.5157	526.56
46.5302	538.96
46.5446	512.59
46.5590	496.13
46.5735	509.11
46.5879	492.05
46.6024	482.36
46.6168	477.33
46.6312	495.01
46.6457	502.50
46.6601	480.70
46.6746	489.05
46.6890	507.11
46.7034	498.13
46.7179	474.88
46.7323	492.81
46.7468	507.90
46.7612	522.80
46.7756	505.03
46.7901	494.91
46.8045	523.60
46.8190	473.88
46.8334	500.69
46.8478	528.09
46.8623	558.57
46.8767	525.61
46.8912	523.51
46.9056	506.69
46.9200	477.00
46.9345	502.99
46.9489	504.41
46.9634	500.34
46.9778	540.10
46.9922	528.96
47.0067	468.98
47.0211	502.81
47.0356	522.26
47.0500	538.89
47.0644	512.19
47.0789	521.67
47.0933	522.73
47.1078	488.22
47.1222	503.57
47.1366	493.53
47.1511	508.59
47.1655	512.60
47.1800	504.98
47.1944	507.42
47.2088	473.42
47.2233	502.12
47.2377	487.79
47.2522	510.77
47.2666	504.18
47.2810	491.99
47.2955	513.50
47.3099	506.75
47.3244	477.42
47.3388	485.67
47.3532	515.53
47.3677	492.55
47.3821	490.39
47.3966	506.01
47.4110	497.53
47.4254	475.63
47.4399	475.35
47.4543	469.66
47.4688	511.17
47.4832	550.23
47.4976	527.59
47.5121	516.46
47.5265	497.27
47.5410	488.80
47.5554	468.44
47.5698	494.08
47.5843	499.11
47.5987	470.28
47.6132	499.80
47.6276	496.17
47.6420	492.94
47.6565	487.20
47.6709	475.31
47.6854	472.87
47.6998	486.20
47.7142	501.45
47.7287	494.86
47.7431	508.70
47.7576	490.42
47.7720	508.92
47.7864	546.29
47.8009	520.33
47.8153	499.67
47.8298	529.91
47.8442	508.16
47.8586	512.33
47.8731	527.29
47.8875	508.87
47.9020	524.29
47.9164	517.45
47.9308	461.18
47.9453	488.16
47.9597	483.14
47.9742	507.97
47.9886	508.84
48.0030	493.46
48.0175	507.49
48.0319	502.09
48.0464	524.55
48.0608	522.85
48.0752	507.01
48.0897	509.78
48.1041	496.85
48.1186	505.88
48.1330	527.86
48.1474	485.76
48.1619	489.06
48.1763	521.93
48.1908	516.27
48.2052	525.80
48.2196	507.07
48.2341	528.05
48.2485	529.42
48.2630	492.16
48.2774	483.07
48.2918	533.67
48.3063	461.49
48.3207	490.02
48.3352	526.20
48.3496	531.48
48.3640	508.94
48.3785	507.68
48.3929	511.71
48.4074	487.09
48.4218	481.08
48.4362	523.07
48.4507	506.36
48.4651	515.63
48.4796	493.37
48.4940	514.70
48.5084	537.15
48.5229	506.35
48.5373	522.14
48.5518	505.30
48.5662	526.59
48.5806	496.27
48.5951	509.83
48.6095	533.59
48.6240	481.76
48.6384	516.77
48.6528	526.23
48.6673	512.80
48.6817	511.38
48.6962	502.91
48.7106	513.56
48.7250	521.07
48.7395	494.54
48.7539	531.67
48.7684	509.18
48.7828	497.92
48.7972	518.59
48.8117	554.85
48.8261	531.67
48.8406	535.52
48.8550	543.55
48.8694	536.77
48.8839	515.02
48.8983	543.17
48.9128	556.32
48.9272	527.92
48.9416	539.78
48.9561	564.84
48.9705	560.01
48.9850	600.92
48.9994	568.79
49.0139	579.21
49.0283	603.78
49.0427	634.78
49.0572	614.45
49.0716	647.64
49.0861	630.45
49.1005	662.87
49.1149	706.91
49.1294	773.37
49.1438	776.23
49.1583	837.48
49.1727	850.43
49.1871	884.14
49.2016	966.21
49.2160	1036.84
49.2305	1144.36
49.2449	1264.13
49.2593	1334.77
49.2738	1457.11
49.2882	1515.05
49.3027	1581.89
49.3171	1670.51
49.3315	1696.50
49.3460	1779.43
49.3604	1823.51
49.3749	1872.97
49.3893	1822.44
49.4037	1775.23
49.4182	1809.93
49.4326	1813.54
49.4471	1689.07
49.4615	1646.65
49.4759	1553.96
49.4904	1518.00
49.5048	1390.89
49.5193	1364.22
49.5337	1281.09
49.5481	1225.90
49.5626	1119.97
49.5770	1035.67
49.5915	982.57
49.6059	963.54
49.6203	870.37
49.6348	824.46
49.6492	774.66
49.6637	769.76
49.6781	764.43
49.6925	621.19
49.7070	643.35
49.7214	656.26
49.7359	659.34
49.7503	653.79
49.7647	584.79
49.7792	616.97
49.7936	609.95
49.8081	549.16
49.8225	519.12
49.8369	546.37
49.8514	565.85
49.8658	544.37
49.8803	535.53
49.8947	505.26
49.9091	526.08
49.9236	555.30
49.9380	568.62
49.9525	540.75
49.9669	503.08
49.9813	504.97
49.9958	521.15
50.0102	575.77
50.0247	557.98
50.0391	522.59
50.0535	480.72
50.0680	531.94
50.0824	555.06
50.0969	546.69
50.1113	533.88
50.1257	511.52
50.1402	545.46
50.1546	527.36
50.1691	548.57
50.1835	531.99
50.1979	494.84
50.2124	493.36
50.2268	497.64
50.2413	534.03
50.2557	518.05
50.2701	508.55
50.2846	514.26
50.2990	526.77
50.3135	543.42
50.3279	509.80
50.3423	509.00
50.3568	516.90
50.3712	530.27
50.3857	513.19
50.4001	508.56
50.4145	499.37
50.4290	527.94
50.4434	515.26
50.4579	521.27
50.4723	484.75
50.4867	507.28
50.5012	504.50
50.5156	500.41
50.5301	511.93
50.5445	496.48
50.5589	478.81
50.5734	519.24
50.5878	505.42
50.6023	494.54
50.6167	534.71
50.6311	541.24
50.6456	517.03
50.6600	504.50
50.6745	492.51
50.6889	509.91
50.7033	501.32
50.7178	481.66
50.7322	502.77
50.7467	484.76
50.7611	530.34
50.7755	541.71
50.7900	526.49
50.8044	494.37
50.8189	509.36
50.8333	518.16
50.8477	470.43
50.8622	516.97
50.8766	511.35
50.8911	479.21
50.9055	477.45
50.9199	507.97
50.9344	514.28
50.9488	492.40
50.9633	489.01
50.9777	494.18
50.9921	528.16
51.0066	507.65
51.0210	495.18
51.0355	498.96
51.0499	511.79
51.0643	515.88
51.0788	516.01
51.0932	522.23
51.1077	488.58
51.1221	498.55
51.1365	476.77
51.1510	501.85
51.1654	511.41
51.1799	481.90
51.1943	472.99
51.2087	491.59
51.2232	513.61
51.2376	477.53
51.2521	479.73
51.2665	498.59
51.2809	496.21
51.2954	521.84
51.3098	519.41
51.3243	502.43
51.3387	505.88
51.3531	499.71
51.3676	496.72
51.3820	487.05
51.3965	502.89
51.4109	505.40
51.4253	537.50
51.4398	506.03
51.4542	508.58
51.4687	537.53
51.4831	528.45
51.4975	506.13
51.5120	473.95
51.5264	502.02
51.5409	493.24
51.5553	519.69
51.5697	498.60
51.5842	513.31
51.5986	495.67
51.6131	500.75
51.6275	501.50
51.6419	503.13
51.6564	510.29
51.6708	495.88
51.6853	516.83
51.6997	511.99
51.7141	520.48
51.7286	505.79
51.7430	471.03
51.7575	521.80
51.7719	511.50
51.7863	520.09
51.8008	517.92
51.8152	495.54
51.8297	496.96
51.8441	508.25
51.8585	526.49
51.8730	519.61
51.8874	487.22
51.9019	506.19
51.9163	489.56
51.9307	507.06
51.9452	528.98
51.9596	506.63
51.9741	513.77
51.9885	525.50
52.0029	521.13
52.0174	504.63
52.0318	481.08
52.0463	529.00
52.0607	532.18
52.0751	524.06
52.0896	524.02
52.1040	456.65
52.1185	538.43
52.1329	509.45
52.1473	506.77
52.1618	496.19
52.1762	482.29
52.1907	493.36
52.2051	491.05
52.2195	514.97
52.2340	528.72
52.2484	509.97
52.2629	499.43
52.2773	535.42
52.2917	491.23
52.3062	505.05
52.3206	514.09
52.3351	523.70
52.3495	545.26
52.3639	519.29
52.3784	500.55
52.3928	533.35
52.4073	493.50
52.4217	511.98
52.4361	506.15
52.4506	489.86
52.4650	520.76
52.4795	558.27
52.4939	556.19
52.5083	485.07
52.5228	494.68
52.5372	481.17
52.5517	477.67
52.5661	470.50
52.5805	490.90
52.5950	509.62
52.6094	496.24
52.6239	537.59
52.6383	521.86
52.6527	496.65
52.6672	495.15
52.6816	512.23
52.6961	495.43
52.7105	546.38
52.7250	524.95
52.7394	504.46
52.7538	531.77
52.7683	508.98
52.7827	502.18
52.7972	499.34
52.8116	503.21
52.8260	551.08
52.8405	526.72
52.8549	507.81
52.8694	540.20
52.8838	481.49
52.8982	508.49
52.9127	548.56
52.9271	504.79
52.9416	518.97
52.9560	506.43
52.9704	510.74
52.9849	512.91
52.9993	495.39
53.0138	511.04
53.0282	529.49
53.0426	495.98
53.0571	501.99
53.0715	499.01
53.0860	520.29
53.1004	494.12
53.1148	525.55
53.1293	521.35
53.1437	523.72
53.1582	508.92
53.1726	492.44
53.1870	502.54
53.2015	517.16
53.2159	542.28
53.2304	522.19
53.2448	517.42
53.2592	528.93
53.2737	496.66
53.2881	503.72
53.3026	515.02
53.3170	509.96
53.3314	512.15
53.3459	538.87
53.3603	537.64
53.3748	547.91
53.3892	517.55
53.4036	488.24
53.4181	541.12
53.4325	511.94
53.4470	519.16
53.4614	512.74
53.4758	509.83
53.4903	510.73
53.5047	512.50
53.5192	519.88
53.5336	514.72
53.5480	479.11
53.5625	501.16
53.5769	497.45
53.5914	517.76
53.6058	525.63
53.6202	505.98
53.6347	542.61
53.6491	496.89
53.6636	517.25
53.6780	486.80
53.6924	487.34
53.7069	466.21
53.7213	515.46
53.7358	474.26
53.7502	502.61
53.7646	506.55
53.7791	532.66
53.7935	495.03
53.8080	519.32
53.8224	547.69
53.8368	518.63
53.8513	522.46
53.8657	535.72
53.8802	507.72
53.8946	501.82
53.9090	511.93
53.9235	482.09
53.9379	548.35
53.9524	495.88
53.9668	466.95
53.9812	519.85
53.9957	528.39
54.0101	503.55
54.0246	515.18
54.0390	511.21
54.0534	508.96
54.0679	508.67
54.0823	557.33
54.0968	536.74
54.1112	523.63
54.1256	519.42
54.1401	529.76
54.1545	556.92
54.1690	548.44
54.1834	535.36
54.1978	570.77
54.2123	575.19
54.2267	540.76
54.2412	575.49
54.2556	577.28
54.2700	585.31
54.2845	583.55
54.2989	571.27
54.3134	583.12
54.3278	614.44
54.3422	596.18
54.3567	597.43
54.3711	622.09
54.3856	602.16
54.4000	600.37
54.4144	578.44
54.4289	618.11
54.4433	593.32
54.4578	565.63
54.4722	572.41
54.4866	587.95
54.5011	557.93
54.5155	521.05
54.5300	537.07
54.5444	525.55
54.5588	508.99
54.5733	543.67
54.5877	528.21
54.6022	531.05
54.6166	520.88
54.6310	541.06
54.6455	553.51
54.6599	528.13
54.6744	499.07
54.6888	475.06
54.7032	515.29
54.7177	515.14
54.7321	533.07
54.7466	535.22
54.7610	497.02
54.7754	533.84
54.7899	523.72
54.8043	502.35
54.8188	518.96
54.8332	502.89
54.8476	479.52
54.8621	528.24
54.8765	521.73
54.8910	541.37
54.9054	516.51
54.9198	491.33
54.9343	512.46
54.9487	555.57
54.9632	508.71
54.9776	513.20
54.9920	477.88
55.0065	493.44
55.0209	518.46
55.0354	501.40
55.0498	491.35
55.0642	507.96
55.0787	489.15
55.0931	540.20
55.1076	513.89
55.1220	520.61
55.1364	489.64
55.1509	475.72
55.1653	491.71
55.1798	509.82
55.1942	510.49
55.2086	507.63
55.2231	519.81
55.2375	546.21
55.2520	487.63
55.2664	491.59
55.2808	496.20
55.2953	498.56
55.3097	496.40
55.3242	524.35
55.3386	538.04
55.3530	513.18
55.3675	514.29
55.3819	528.90
55.3964	514.58
55.4108	487.68
55.4252	532.79
55.4397	519.49
55.4541	502.72
55.4686	528.44
55.4830	524.42
55.4974	502.05
55.5119	494.93
55.5263	511.01
55.5408	553.15
55.5552	484.63
55.5696	493.04
55.5841	541.83
55.5985	518.58
55.6130	536.71
55.6274	534.48
55.6418	534.66
55.6563	505.10
55.6707	502.92
55.6852	500.60
55.6996	511.85
55.7140	515.76
55.7285	518.07
55.7429	522.78
55.7574	515.32
55.7718	547.78
55.7862	579.98
55.8007	530.44
55.8151	535.93
55.8296	544.42
55.8440	547.18
55.8584	542.11
55.8729	542.44
55.8873	530.41
55.9018	528.64
55.9162	567.96
55.9306	535.73
55.9451	529.71
55.9595	517.39
55.9740	533.02
55.9884	550.86
56.0028	528.88
56.0173	489.88
56.0317	540.74
56.0462	491.88
56.0606	538.86
56.0750	531.35
56.0895	521.61
56.1039	516.14
56.1184	534.96
56.1328	503.36
56.1472	496.13
56.1617	511.67
56.1761	485.90
56.1906	522.36
56.2050	517.08
56.2194	548.74
56.2339	540.47
56.2483	540.49
56.2628	537.25
56.2772	548.44
56.2916	509.11
56.3061	520.02
56.3205	514.33
56.3350	530.33
56.3494	529.89
56.3639	527.38
56.3783	524.38
56.3927	521.41
56.4072	501.20
56.4216	540.79
56.4361	542.02
56.4505	520.12
56.4649	523.15
56.4794	502.79
56.4938	509.99
56.5083	501.47
56.5227	523.50
56.5371	529.03
56.5516	543.88
56.5660	534.36
56.5805	523.58
56.5949	520.71
56.6093	547.60
56.6238	524.97
56.6382	523.56
56.6527	505.43
56.6671	536.36
56.6815	487.96
56.6960	520.76
56.7104	530.98
56.7249	534.38
56.7393	474.69
56.7537	512.42
56.7682	509.30
56.7826	546.60
56.7971	520.62
56.8115	498.98
56.8259	515.46
56.8404	494.52
56.8548	507.19
56.8693	574.45
56.8837	485.20
56.8981	529.75
56.9126	525.84
56.9270	554.48
56.9415	548.91
56.9559	542.81
56.9703	521.81
56.9848	517.09
56.9992	527.41
57.0137	479.28
57.0281	500.16
57.0425	542.72
57.0570	523.34
57.0714	525.71
57.0859	547.68
57.1003	505.03
57.1147	541.53
57.1292	530.86
57.1436	502.98
57.1581	492.55
57.1725	523.17
57.1869	501.37
57.2014	481.13
57.2158	546.36
57.2303	552.19
57.2447	517.54
57.2591	520.61
57.2736	512.56
57.2880	503.55
57.3025	490.31
57.3169	497.25
57.3313	535.67
57.3458	543.30
57.3602	522.15
57.3747	533.42
57.3891	531.62
57.4035	524.10
57.4180	505.79
57.4324	522.39
57.4469	516.12
57.4613	504.13
57.4757	555.04
57.4902	518.31
57.5046	541.70
57.5191	509.41
57.5335	549.24
57.5479	539.37
57.5624	504.95
57.5768	501.30
57.5913	510.48
57.6057	539.94
57.6201	541.43
57.6346	522.61
57.6490	527.99
57.6635	531.82
57.6779	518.12
57.6923	502.92
57.7068	563.49
57.7212	572.49
57.7357	517.66
57.7501	522.21
57.7645	552.21
57.7790	567.49
57.7934	561.91
57.8079	581.41
57.8223	591.81
57.8367	587.54
57.8512	567.58
57.8656	621.61
57.8801	635.77
57.8945	705.21
57.9089	707.69
57.9234	723.66
57.9378	704.60
57.9523	681.32
57.9667	682.88
57.9811	689.76
57.9956	643.64
58.0100	659.03
58.0245	674.59
58.0389	665.20
58.0533	634.57
58.0678	640.98
58.0822	630.86
58.0967	595.96
58.1111	621.34
58.1255	651.84
58.1400	616.22
58.1544	576.97
58.1689	596.06
58.1833	556.00
58.1977	541.46
58.2122	567.58
58.2266	576.46
58.2411	605.66
58.2555	580.78
58.2699	568.30
58.2844	556.61
58.2988	545.60
58.3133	544.35
58.3277	549.68
58.3421	593.39
58.3566	524.43
58.3710	536.04
58.3855	543.08
58.3999	497.34
58.4143	514.48
58.4288	520.41
58.4432	533.57
58.4577	545.94
58.4721	565.42
58.4865	574.06
58.5010	554.05
58.5154	534.20
58.5299	513.16
58.5443	543.51
58.5587	522.26
58.5732	500.58
58.5876	526.06
58.6021	524.87
58.6165	528.11
58.6309	525.29
58.6454	507.74
58.6598	515.42
58.6743	486.57
58.6887	490.65
58.7031	498.96
58.7176	520.00
58.7320	539.82
58.7465	523.63
58.7609	540.90
58.7753	564.19
58.7898	591.73
58.8042	578.57
58.8187	542.95
58.8331	530.58
58.8475	494.95
58.8620	537.55
58.8764	541.81
58.8909	530.43
58.9053	563.24
58.9197	486.44
58.9342	513.94
58.9486	525.96
58.9631	517.79
58.9775	538.71
58.9919	561.91
59.0064	551.16
59.0208	536.06
59.0353	535.47
59.0497	496.73
59.0641	541.37
59.0786	538.11
59.0930	540.59
59.1075	533.86
59.1219	556.42
59.1363	548.51
59.1508	508.66
59.1652	524.67
59.1797	554.12
59.1941	532.55
59.2085	519.68
59.2230	551.37
59.2374	573.42
59.2519	562.35
59.2663	548.78
59.2807	546.62
59.2952	558.73
59.3096	567.34
59.3241	549.66
59.3385	542.99
59.3529	575.56
59.3674	576.95
59.3818	567.46
59.3963	561.18
59.4107	562.90
59.4251	576.80
59.4396	563.68
59.4540	556.09
59.4685	549.45
59.4829	561.15
59.4973	548.88
59.5118	525.30
59.5262	527.47
59.5407	509.73
59.5551	539.38
59.5695	557.67
59.5840	568.97
59.5984	532.96
59.6129	534.48
59.6273	526.59
59.6417	530.31
59.6562	543.31
59.6706	532.02
59.6851	517.88
59.6995	540.10
59.7139	548.78
59.7284	531.33
59.7428	523.57
59.7573	565.77
59.7717	551.51
59.7861	541.43
59.8006	553.12
59.8150	560.37
59.8295	581.30
59.8439	557.69
59.8583	568.91
59.8728	561.10
59.8872	565.83
59.9017	516.85
59.9161	539.87
59.9305	507.72
59.9450	521.02
59.9594	532.72
59.9739	503.31
59.9883	530.58
60.0027	515.01
60.0172	542.07
60.0316	511.64
60.0461	526.46
60.0605	535.33
60.0750	545.63
60.0894	579.20
60.1038	518.34
60.1183	553.35
60.1327	549.41
60.1472	488.45
60.1616	555.67
60.1760	532.73
60.1905	536.00
60.2049	542.12
60.2194	547.22
60.2338	559.95
60.2482	565.67
60.2627	508.77
60.2771	510.27
60.2916	571.41
60.3060	519.62
60.3204	562.14
60.3349	534.16
60.3493	538.96
60.3638	568.89
60.3782	515.99
60.3926	512.29
60.4071	539.19
60.4215	556.25
60.4360	553.18
60.4504	526.44
60.4648	559.17
60.4793	538.35
60.4937	532.59
60.5082	508.43
60.5226	546.88
60.5370	540.42
60.5515	531.74
60.5659	561.78
60.5804	514.15
60.5948	528.52
60.6092	514.94
60.6237	496.55
60.6381	535.17
60.6526	588.43
60.6670	522.40
60.6814	564.59
60.6959	535.80
60.7103	539.91
60.7248	545.28
60.7392	535.81
60.7536	557.79
60.7681	575.32
60.7825	573.09
60.7970	510.42
60.8114	505.86
60.8258	515.95
60.8403	534.61
60.8547	527.80
60.8692	520.99
60.8836	512.40
60.8980	549.43
60.9125	526.37
60.9269	525.90
60.9414	533.03
60.9558	546.65
60.9702	533.37
60.9847	551.15
60.9991	517.77
61.0136	527.81
61.0280	507.21
61.0424	534.34
61.0569	509.25
61.0713	508.07
61.0858	545.19
61.1002	530.14
61.1146	523.37
61.1291	550.64
61.1435	509.75
61.1580	520.84
61.1724	506.20
61.1868	518.01
61.2013	565.33
61.2157	528.00
61.2302	538.82
61.2446	522.59
61.2590	542.80
61.2735	586.02
61.2879	556.32
61.3024	544.55
61.3168	529.66
61.3312	528.51
61.3457	566.79
61.3601	535.41
61.3746	516.02
61.3890	523.28
61.4034	542.83
61.4179	549.49
61.4323	579.43
61.4468	540.25
61.4612	546.58
61.4756	553.61
61.4901	540.82
61.5045	534.44
61.5190	528.56
61.5334	552.11
61.5478	517.35
61.5623	538.67
61.5767	548.79
61.5912	536.54
61.6056	491.45
61.6200	503.48
61.6345	542.75
61.6489	515.65
61.6634	540.85
61.6778	537.08
61.6922	530.22
61.7067	581.45
61.7211	534.78
61.7356	520.24
61.7500	549.40
61.7644	488.21
61.7789	538.87
61.7933	542.00
61.8078	586.01
61.8222	576.37
61.8366	556.50
61.8511	518.04
61.8655	544.72
61.8800	553.03
61.8944	541.59
61.9088	545.89
61.9233	523.62
61.9377	565.18
61.9522	583.34
61.9666	553.90
61.9810	542.81
61.9955	565.55
62.0099	534.14
62.0244	574.80
62.0388	574.88
62.0532	545.02
62.0677	557.91
62.0821	561.84
62.0966	561.51
62.1110	521.12
62.1254	556.33
62.1399	538.72
62.1543	551.19
62.1688	565.78
62.1832	567.45
62.1976	538.09
62.2121	534.07
62.2265	554.25
62.2410	556.38
62.2554	568.89
62.2698	571.62
62.2843	580.16
62.2987	508.64
62.3132	537.37
62.3276	537.16
62.3420	556.47
62.3565	557.92
62.3709	564.39
62.3854	552.86
62.3998	516.34
62.4142	532.55
62.4287	556.11
62.4431	513.19
62.4576	526.53
62.4720	521.33
62.4864	566.26
62.5009	562.19
62.5153	558.17
62.5298	549.66
62.5442	566.20
62.5586	559.51
62.5731	544.91
62.5875	546.55
62.6020	557.35
62.6164	553.15
62.6308	539.04
62.6453	554.65
62.6597	598.16
62.6742	586.02
62.6886	555.39
62.7030	550.95
62.7175	543.97
62.7319	547.05
62.7464	559.57
62.7608	545.44
62.7752	545.76
62.7897	537.00
62.8041	573.38
62.8186	549.50
62.8330	577.43
62.8474	542.33
62.8619	567.40
62.8763	579.61
62.8908	573.28
62.9052	590.80
62.9196	596.63
62.9341	581.31
62.9485	549.28
62.9630	542.88
62.9774	584.15
62.9918	614.79
63.0063	598.03
63.0207	554.83
63.0352	538.20
63.0496	560.49
63.0640	601.51
63.0785	615.05
63.0929	576.87
63.1074	582.57
63.1218	581.77
63.1362	599.75
63.1507	551.41
63.1651	562.38
63.1796	544.42
63.1940	570.73
63.2084	551.26
63.2229	586.07
63.2373	542.08
63.2518	551.58
63.2662	565.17
63.2806	562.48
63.2951	600.32
63.3095	608.63
63.3240	608.57
63.3384	593.48
63.3528	575.41
63.3673	575.44
63.3817	567.42
63.3962	585.83
63.4106	581.99
63.4250	620.48
63.4395	621.13
63.4539	634.00
63.4684	659.82
63.4828	649.83
63.4972	653.73
63.5117	648.22
63.5261	698.26
63.5406	719.35
63.5550	765.70
63.5694	795.65
63.5839	821.86
63.5983	843.46
63.6128	883.11
63.6272	868.71
63.6416	877.56
63.6561	901.74
63.6705	920.19
63.6850	842.43
63.6994	756.71
63.7138	797.45
63.7283	806.71
63.7427	816.67
63.7572	803.06
63.7716	804.67
63.7861	826.91
63.8005	803.34
63.8149	826.55
63.8294	767.45
63.8438	736.29
63.8583	706.19
63.8727	704.46
63.8871	646.67
63.9016	685.12
63.9160	653.43
63.9305	657.78
63.9449	663.06
63.9593	596.03
63.9738	614.72
63.9882	587.34
64.0027	600.62
64.0171	601.68
64.0315	627.61
64.0460	591.08
64.0604	628.62
64.0749	598.07
64.0893	580.48
64.1037	633.24
64.1182	606.19
64.1326	602.11
64.1471	556.61
64.1615	600.44
64.1759	640.15
64.1904	639.23
64.2048	620.18
64.2193	595.96
64.2337	606.69
64.2481	638.17
64.2626	612.59
64.2770	642.86
64.2915	618.67
64.3059	588.72
64.3203	598.24
64.3348	601.42
64.3492	617.19
64.3637	611.82
64.3781	587.65
64.3925	624.94
64.4070	603.95
64.4214	640.16
64.4359	663.01
64.4503	635.35
64.4647	628.01
64.4792	594.87
64.4936	605.46
64.5081	609.16
64.5225	627.79
64.5369	604.93
64.5514	625.06
64.5658	609.63
64.5803	587.91
64.5947	666.10
64.6091	650.98
64.6236	632.43
64.6380	661.78
64.6525	675.58
64.6669	692.30
64.6813	686.37
64.6958	700.66
64.7102	718.48
64.7247	696.78
64.7391	686.24
64.7535	706.06
64.7680	695.94
64.7824	724.77
64.7969	703.92
64.8113	728.88
64.8257	757.74
64.8402	780.42
64.8546	797.16
64.8691	836.22
64.8835	806.62
64.8979	855.35
64.9124	860.29
64.9268	925.47
64.9413	877.47
64.9557	904.81
64.9701	939.28
64.9846	1074.82
64.9990	1093.73
65.0135	1221.63
65.0279	1382.97
65.0423	1624.30
65.0568	1992.56
65.0712	2514.55
65.0857	3203.55
65.1001	4139.99
65.1145	5699.87
65.1290	7465.31
65.1434	9171.50
65.1579	10775.96
65.1723	11513.05
65.1867	11193.31
65.2012	9978.35
65.2156	8415.60
65.2301	6655.83
65.2445	5357.11
65.2589	4462.19
65.2734	4115.68
65.2878	4249.66
65.3023	4716.31
65.3167	5525.34
65.3311	6249.36
65.3456	6845.07
65.3600	6872.15
65.3745	6353.66
65.3889	5463.18
65.4033	4367.96
65.4178	3583.31
65.4322	2805.16
65.4467	2128.69
65.4611	1728.76
65.4755	1451.69
65.4900	1275.21
65.5044	1145.54
65.5189	1067.86
65.5333	981.64
65.5477	931.36
65.5622	825.98
65.5766	823.61
65.5911	817.51
65.6055	802.28
65.6199	796.45
65.6344	788.04
65.6488	746.75
65.6633	755.20
65.6777	715.64
65.6921	700.28
65.7066	688.74
65.7210	678.92
65.7355	658.02
65.7499	683.23
65.7643	669.74
65.7788	693.92
65.7932	691.41
65.8077	674.70
65.8221	667.61
65.8365	640.29
65.8510	647.10
65.8654	680.30
65.8799	664.30
65.8943	678.04
65.9087	690.01
65.9232	677.62
65.9376	680.55
65.9521	656.33
65.9665	652.99
65.9809	642.12
65.9954	636.48
66.0098	645.66
66.0243	667.72
66.0387	655.90
66.0531	613.11
66.0676	642.00
66.0820	628.17
66.0965	610.29
66.1109	611.50
66.1253	613.32
66.1398	605.23
66.1542	575.37
66.1687	647.11
66.1831	624.36
66.1975	621.64
66.2120	616.98
66.2264	605.65
66.2409	585.23
66.2553	626.83
66.2697	626.31
66.2842	631.59
66.2986	589.77
66.3131	593.97
66.3275	618.75
66.3419	605.34
66.3564	571.07
66.3708	610.39
66.3853	613.53
66.3997	592.99
66.4141	592.16
66.4286	636.15
66.4430	578.46
66.4575	603.06
66.4719	603.12
66.4863	584.95
66.5008	562.52
66.5152	571.30
66.5297	584.70
66.5441	604.48
66.5585	574.63
66.5730	554.61
66.5874	563.22
66.6019	570.51
66.6163	561.12
66.6307	547.96
66.6452	570.97
66.6596	569.68
66.6741	545.17
66.6885	540.46
66.7029	595.56
66.7174	585.40
66.7318	568.51
66.7463	572.72
66.7607	558.83
66.7751	542.08
66.7896	575.69
66.8040	572.19
66.8185	580.49
66.8329	580.37
66.8473	591.03
66.8618	636.05
66.8762	592.74
66.8907	571.99
66.9051	612.28
66.9195	618.57
66.9340	651.26
66.9484	635.54
66.9629	596.75
66.9773	589.60
66.9917	572.26
67.0062	596.22
67.0206	621.39
67.0351	611.66
67.0495	560.06
67.0639	555.88
67.0784	609.38
67.0928	619.83
67.1073	582.37
67.1217	594.40
67.1361	588.33
67.1506	556.42
67.1650	590.04
67.1795	585.89
67.1939	573.45
67.2083	587.13
67.2228	562.48
67.2372	598.51
67.2517	594.06
67.2661	548.63
67.2805	544.65
67.2950	547.99
67.3094	583.24
67.3239	563.70
67.3383	587.00
67.3527	573.93
67.3672	550.42
67.3816	562.76
67.3961	531.82
67.4105	576.03
67.4250	598.43
67.4394	602.98
67.4538	565.19
67.4683	585.31
67.4827	599.10
67.4972	586.34
67.5116	578.32
67.5260	596.02
67.5405	586.48
67.5549	583.43
67.5694	560.29
67.5838	568.01
67.5982	592.50
67.6127	568.75
67.6271	560.29
67.6416	563.69
67.6560	558.46
67.6704	572.18
67.6849	554.19
67.6993	543.17
67.7138	559.85
67.7282	590.37
67.7426	578.37
67.7571	574.10
67.7715	553.09
67.7860	567.33
67.8004	561.62
67.8148	563.91
67.8293	572.71
67.8437	588.52
67.8582	562.19
67.8726	596.72
67.8870	559.89
67.9015	585.51
67.9159	541.38
67.9304	591.59
67.9448	577.58
67.9592	575.03
67.9737	573.53
67.9881	600.34
68.0026	539.48
68.0170	585.48
68.0314	615.97
68.0459	536.65
68.0603	549.08
68.0748	582.01
68.0892	579.28
68.1036	551.17
68.1181	573.28
68.1325	561.68
68.1470	560.76
68.1614	588.31
68.1758	554.65
68.1903	518.77
68.2047	580.76
68.2192	560.87
68.2336	586.21
68.2480	597.04
68.2625	560.81
68.2769	584.05
68.2914	574.60
68.3058	615.52
68.3202	606.16
68.3347	585.95
68.3491	607.22
68.3636	555.88
68.3780	592.45
68.3924	524.74
68.4069	558.12
68.4213	552.05
68.4358	545.97
68.4502	589.27
68.4646	595.11
68.4791	578.34
68.4935	567.29
68.5080	584.01
68.5224	539.19
68.5368	548.87
68.5513	555.74
68.5657	551.05
68.5802	561.79
68.5946	581.87
68.6090	539.55
68.6235	581.77
68.6379	608.31
68.6524	572.16
68.6668	550.61
68.6812	574.01
68.6957	533.78
68.7101	564.15
68.7246	560.32
68.7390	543.33
68.7534	534.52
68.7679	572.82
68.7823	571.43
68.7968	580.22
68.8112	578.72
68.8256	599.74
68.8401	601.07
68.8545	567.42
68.8690	564.98
68.8834	573.20
68.8978	593.77
68.9123	568.18
68.9267	634.19
68.9412	595.75
68.9556	555.27
68.9700	550.17
68.9845	584.67
68.9989	597.88
69.0134	617.67
69.0278	572.59
69.0422	555.87
69.0567	594.04
69.0711	546.47
69.0856	567.70
69.1000	588.46
69.1144	598.06
69.1289	522.26
69.1433	525.50
69.1578	596.44
69.1722	594.89
69.1866	551.64
69.2011	594.38
69.2155	644.18
69.2300	571.10
69.2444	560.20
69.2588	606.49
69.2733	586.62
69.2877	560.03
69.3022	539.70
69.3166	575.22
69.3310	570.41
69.3455	525.97
69.3599	545.67
69.3744	576.67
69.3888	572.90
69.4032	565.95
69.4177	591.46
69.4321	594.79
69.4466	545.82
69.4610	574.73
69.4754	591.27
69.4899	599.00
69.5043	625.62
69.5188	581.04
69.5332	573.56
69.5476	577.27
69.5621	589.77
69.5765	611.70
69.5910	604.46
69.6054	565.29
69.6198	560.53
69.6343	591.52
69.6487	580.65
69.6632	578.08
69.6776	591.88
69.6920	587.45
69.7065	579.49
69.7209	608.46
69.7354	603.80
69.7498	583.37
69.7642	574.42
69.7787	562.61
69.7931	574.52
69.8076	618.45
69.8220	595.99
69.8364	590.16
69.8509	572.09
69.8653	577.44
69.8798	574.62
69.8942	553.90
69.9086	555.16
69.9231	561.51
69.9375	589.54
69.9520	560.64
69.9664	585.90
69.9808	645.86
69.9953	635.55
70.0097	574.07
70.0242	594.22
70.0386	606.87
70.0530	548.64
70.0675	557.27
70.0819	573.94
70.0964	569.85
70.1108	548.65
70.1252	611.70
70.1397	581.97
70.1541	581.67
70.1686	598.09
70.1830	555.05
70.1974	556.02
70.2119	572.61
70.2263	542.37
70.2408	556.49
70.2552	566.41
70.2696	607.56
70.2841	624.42
70.2985	629.34
70.3130	560.79
70.3274	590.17
70.3418	586.93
70.3563	591.40
70.3707	589.92
70.3852	552.27
70.3996	573.61
70.4140	565.77
70.4285	607.99
70.4429	587.75
70.4574	537.15
70.4718	547.63
70.4862	515.44
70.5007	561.50
70.5151	579.29
70.5296	585.94
70.5440	569.27
70.5584	588.87
70.5729	561.33
70.5873	567.83
70.6018	580.34
70.6162	545.86
70.6306	534.58
70.6451	593.43
70.6595	620.95
70.6740	581.50
70.6884	559.90
70.7028	583.16
70.7173	557.19
70.7317	564.42
70.7462	570.69
70.7606	570.47
70.7750	577.02
70.7895	579.83
70.8039	553.95
70.8184	545.20
70.8328	545.45
70.8472	563.81
70.8617	576.06
70.8761	550.14
70.8906	558.50
70.9050	610.06
70.9194	599.81
70.9339	581.49
70.9483	542.61
70.9628	592.50
70.9772	613.34
70.9916	643.57
71.0061	620.63
71.0205	582.37
71.0350	592.60
71.0494	596.52
71.0638	572.46
71.0783	605.31
71.0927	593.92
71.1072	583.82
71.1216	554.28
71.1361	593.01
71.1505	608.79
71.1649	610.92
71.1794	587.33
71.1938	560.06
71.2083	563.24
71.2227	546.71
71.2371	619.33
71.2516	596.18
71.2660	573.64
71.2805	587.15
71.2949	566.36
71.3093	560.02
71.3238	561.45
71.3382	569.26
71.3527	544.98
71.3671	551.07
71.3815	553.49
71.3960	531.55
71.4104	531.35
71.4249	583.42
71.4393	540.46
71.4537	528.90
71.4682	576.58
71.4826	557.10
71.4971	545.03
71.5115	534.71
71.5259	495.66
71.5404	543.62
71.5548	582.39
71.5693	588.55
71.5837	574.34
71.5981	604.64
71.6126	569.79
71.6270	545.43
71.6415	544.66
71.6559	549.20
71.6703	564.15
71.6848	521.64
71.6992	571.48
71.7137	616.86
71.7281	606.24
71.7425	581.05
71.7570	596.29
71.7714	623.10
71.7859	549.74
71.8003	561.61
71.8147	579.15
71.8292	568.73
71.8436	585.86
71.8581	591.54
71.8725	590.80
71.8869	592.13
71.9014	620.50
71.9158	535.07
71.9303	508.03
71.9447	567.97
71.9591	593.91
71.9736	548.63
71.9880	545.64
72.0025	578.36
72.0169	596.40
72.0313	581.91
72.0458	497.79
72.0602	546.94
72.0747	579.27
72.0891	593.70
72.1035	607.40
72.1180	566.28
72.1324	556.03
72.1469	547.58
72.1613	553.78
72.1757	611.07
72.1902	587.43
72.2046	598.21
72.2191	630.67
72.2335	587.52
72.2479	604.37
72.2624	535.51
72.2768	523.99
72.2913	598.10
72.3057	588.59
72.3201	577.47
72.3346	611.65
72.3490	627.20
72.3635	586.59
72.3779	558.26
72.3923	503.43
72.4068	506.64
72.4212	582.97
72.4357	615.88
72.4501	589.19
72.4645	644.82
72.4790	627.81
72.4934	531.43
72.5079	548.90
72.5223	529.53
72.5367	525.41
72.5512	610.87
72.5656	562.64
72.5801	514.73
72.5945	545.97
72.6089	511.83
72.6234	502.49
72.6378	542.54
72.6523	586.07
72.6667	576.87
72.6811	584.65
72.6956	585.48
72.7100	666.58
72.7245	631.70
72.7389	664.95
72.7533	627.19
72.7678	605.87
72.7822	611.84
72.7967	541.19
72.8111	597.03
72.8255	582.76
72.8400	528.64
72.8544	525.08
72.8689	604.57
72.8833	578.05