2022.09.19 19:37:16
Îáðàçåö: ß÷åéêà LCoV 16-09-2022
Lambda1 = 1.54060
Lambda2 = 1.54439
Lambdam = 1.54186
R = 0.497
2Theta	I

line¹ 0 ;repeat¹ 0
22.1120	565.79
22.1264	588.61
22.1409	553.97
22.1553	558.29
22.1697	527.12
22.1842	603.02
22.1986	651.44
22.2131	553.62
22.2275	596.55
22.2419	564.39
22.2564	635.25
22.2708	558.98
22.2853	561.71
22.2997	639.21
22.3141	711.52
22.3286	644.10
22.3430	614.89
22.3575	567.12
22.3719	623.33
22.3863	542.52
22.4008	565.13
22.4152	584.70
22.4297	648.33
22.4441	670.56
22.4585	601.52
22.4730	665.61
22.4874	624.10
22.5019	659.18
22.5163	579.21
22.5307	617.00
22.5452	565.46
22.5596	613.98
22.5741	658.21
22.5885	564.79
22.6029	550.57
22.6174	556.92
22.6318	582.07
22.6463	607.01
22.6607	637.92
22.6751	452.58
22.6896	541.07
22.7040	591.53
22.7185	623.44
22.7329	564.48
22.7473	504.22
22.7618	473.23
22.7762	516.73
22.7907	582.32
22.8051	564.56
22.8195	517.91
22.8340	570.80
22.8484	573.64
22.8629	585.31
22.8773	621.02
22.8917	575.05
22.9062	508.95
22.9206	447.03
22.9351	576.33
22.9495	638.64
22.9639	540.74
22.9784	523.03
22.9928	559.61
23.0073	523.05
23.0217	560.63
23.0361	544.31
23.0506	458.90
23.0650	485.34
23.0795	609.52
23.0939	536.72
23.1083	582.97
23.1228	555.64
23.1372	557.72
23.1517	546.17
23.1661	507.41
23.1806	595.11
23.1950	526.82
23.2094	532.20
23.2239	584.24
23.2383	543.43
23.2528	606.95
23.2672	557.16
23.2816	561.99
23.2961	629.43
23.3105	614.79
23.3250	536.72
23.3394	579.24
23.3538	581.60
23.3683	584.14
23.3827	542.45
23.3972	520.87
23.4116	619.85
23.4260	612.08
23.4405	592.95
23.4549	631.44
23.4694	535.02
23.4838	501.99
23.4982	542.38
23.5127	529.30
23.5271	502.60
23.5416	596.36
23.5560	565.91
23.5704	572.31
23.5849	538.61
23.5993	535.48
23.6138	557.70
23.6282	492.65
23.6426	531.31
23.6571	622.40
23.6715	561.78
23.6860	550.46
23.7004	558.99
23.7148	546.91
23.7293	545.22
23.7437	526.32
23.7582	548.41
23.7726	554.43
23.7870	462.26
23.8015	531.04
23.8159	551.83
23.8304	595.72
23.8448	555.27
23.8592	577.66
23.8737	597.12
23.8881	574.28
23.9026	639.82
23.9170	573.82
23.9314	534.10
23.9459	638.50
23.9603	572.87
23.9748	606.97
23.9892	528.79
24.0036	574.14
24.0181	541.21
24.0325	590.91
24.0470	597.08
24.0614	513.96
24.0758	514.64
24.0903	548.17
24.1047	528.62
24.1192	614.15
24.1336	556.64
24.1480	572.92
24.1625	576.28
24.1769	591.80
24.1914	622.85
24.2058	589.54
24.2202	559.07
24.2347	562.28
24.2491	580.83
24.2636	606.95
24.2780	648.66
24.2924	574.68
24.3069	593.14
24.3213	574.46
24.3358	544.85
24.3502	542.45
24.3646	579.98
24.3791	561.22
24.3935	563.82
24.4080	529.51
24.4224	549.55
24.4368	569.43
24.4513	514.74
24.4657	541.53
24.4802	551.20
24.4946	537.40
24.5090	567.82
24.5235	589.05
24.5379	605.24
24.5524	594.04
24.5668	537.26
24.5812	568.43
24.5957	545.20
24.6101	575.21
24.6246	531.40
24.6390	547.68
24.6534	533.53
24.6679	543.27
24.6823	532.18
24.6968	559.62
24.7112	524.98
24.7256	554.92
24.7401	513.09
24.7545	531.04
24.7690	575.73
24.7834	516.92
24.7978	501.68
24.8123	554.81
24.8267	593.80
24.8412	514.11
24.8556	585.53
24.8700	564.23
24.8845	571.89
24.8989	558.31
24.9134	516.23
24.9278	562.13
24.9422	557.44
24.9567	545.49
24.9711	576.66
24.9856	581.36
25.0000	517.28
25.0144	556.30
25.0289	582.47
25.0433	532.57
25.0578	615.68
25.0722	580.81
25.0866	561.69
25.1011	538.48
25.1155	561.77
25.1300	536.85
25.1444	505.72
25.1588	544.25
25.1733	558.86
25.1877	532.21
25.2022	536.71
25.2166	568.04
25.2310	515.16
25.2455	564.50
25.2599	568.26
25.2744	578.20
25.2888	587.87
25.3032	559.40
25.3177	565.10
25.3321	530.52
25.3466	505.34
25.3610	524.12
25.3754	542.35
25.3899	558.66
25.4043	558.07
25.4188	514.30
25.4332	516.38
25.4476	530.93
25.4621	562.35
25.4765	528.56
25.4910	565.69
25.5054	557.17
25.5198	529.33
25.5343	522.69
25.5487	558.05
25.5632	583.92
25.5776	574.87
25.5920	572.95
25.6065	557.55
25.6209	543.30
25.6354	561.48
25.6498	537.78
25.6642	550.68
25.6787	523.54
25.6931	518.73
25.7076	515.14
25.7220	520.13
25.7364	527.34
25.7509	601.47
25.7653	553.39
25.7798	548.88
25.7942	549.52
25.8086	573.82
25.8231	556.80
25.8375	519.61
25.8520	528.70
25.8664	565.93
25.8808	561.04
25.8953	564.58
25.9097	549.53
25.9242	559.22
25.9386	580.02
25.9530	538.20
25.9675	523.67
25.9819	567.10
25.9964	575.56
26.0108	516.10
26.0252	571.23
26.0397	541.38
26.0541	486.19
26.0686	504.89
26.0830	516.11
26.0974	530.82
26.1119	556.25
26.1263	570.20
26.1408	529.38
26.1552	521.25
26.1696	546.20
26.1841	560.61
26.1985	556.96
26.2130	545.46
26.2274	533.29
26.2418	513.36
26.2563	502.42
26.2707	518.10
26.2852	552.19
26.2996	549.22
26.3140	539.48
26.3285	510.69
26.3429	501.48
26.3574	515.52
26.3718	553.96
26.3862	524.09
26.4007	498.26
26.4151	492.87
26.4296	509.83
26.4440	489.62
26.4584	503.89
26.4729	505.89
26.4873	503.74
26.5018	508.90
26.5162	524.09
26.5306	534.12
26.5451	545.14
26.5595	515.58
26.5740	566.99
26.5884	542.72
26.6028	539.67
26.6173	542.82
26.6317	565.48
26.6462	538.81
26.6606	529.87
26.6750	548.52
26.6895	532.30
26.7039	537.84
26.7184	514.55
26.7328	520.90
26.7472	554.69
26.7617	553.77
26.7761	551.04
26.7906	556.06
26.8050	543.73
26.8194	530.00
26.8339	511.22
26.8483	498.42
26.8628	543.65
26.8772	542.33
26.8917	536.49
26.9061	526.41
26.9205	492.26
26.9350	509.04
26.9494	530.79
26.9639	528.30
26.9783	525.82
26.9927	519.85
27.0072	545.47
27.0216	523.32
27.0361	510.63
27.0505	493.95
27.0649	510.80
27.0794	537.97
27.0938	521.92
27.1083	519.73
27.1227	559.79
27.1371	555.04
27.1516	522.62
27.1660	510.46
27.1805	508.67
27.1949	533.17
27.2093	545.21
27.2238	530.63
27.2382	538.06
27.2527	520.91
27.2671	501.87
27.2815	532.30
27.2960	501.22
27.3104	516.22
27.3249	523.76
27.3393	519.98
27.3537	506.30
27.3682	501.93
27.3826	491.97
27.3971	499.03
27.4115	502.90
27.4259	545.86
27.4404	517.63
27.4548	504.10
27.4693	533.73
27.4837	532.81
27.4981	550.75
27.5126	521.76
27.5270	499.85
27.5415	526.02
27.5559	510.92
27.5703	506.32
27.5848	524.85
27.5992	530.96
27.6137	524.68
27.6281	526.24
27.6425	521.29
27.6570	498.73
27.6714	497.13
27.6859	500.99
27.7003	500.30
27.7147	503.45
27.7292	522.43
27.7436	500.03
27.7581	522.86
27.7725	510.59
27.7869	546.37
27.8014	531.91
27.8158	524.43
27.8303	538.01
27.8447	516.90
27.8591	502.44
27.8736	536.38
27.8880	542.95
27.9025	564.35
27.9169	543.66
27.9313	509.16
27.9458	526.47
27.9602	503.01
27.9747	493.64
27.9891	492.13
28.0035	509.91
28.0180	512.40
28.0324	496.86
28.0469	518.61
28.0613	515.08
28.0757	529.00
28.0902	524.35
28.1046	523.52
28.1191	528.02
28.1335	515.33
28.1479	488.39
28.1624	490.79
28.1768	526.71
28.1913	509.41
28.2057	539.84
28.2201	505.70
28.2346	499.03
28.2490	527.47
28.2635	514.86
28.2779	521.96
28.2923	513.61
28.3068	517.81
28.3212	503.58
28.3357	520.48
28.3501	509.14
28.3645	483.41
28.3790	501.14
28.3934	504.18
28.4079	511.19
28.4223	527.65
28.4367	549.41
28.4512	514.09
28.4656	508.42
28.4801	510.93
28.4945	527.73
28.5089	511.35
28.5234	517.21
28.5378	548.58
28.5523	528.18
28.5667	519.60
28.5811	502.40
28.5956	546.01
28.6100	545.59
28.6245	509.17
28.6389	530.32
28.6533	488.90
28.6678	484.54
28.6822	515.87
28.6967	519.67
28.7111	519.60
28.7255	504.53
28.7400	490.16
28.7544	520.63
28.7689	532.64
28.7833	551.75
28.7977	524.02
28.8122	484.16
28.8266	498.86
28.8411	522.97
28.8555	498.43
28.8699	516.60
28.8844	491.86
28.8988	515.48
28.9133	483.05
28.9277	509.93
28.9421	532.52
28.9566	533.06
28.9710	489.64
28.9855	522.26
28.9999	546.86
29.0143	532.04
29.0288	510.10
29.0432	514.64
29.0577	541.91
29.0721	532.76
29.0865	546.50
29.1010	507.92
29.1154	560.79
29.1299	541.06
29.1443	509.43
29.1587	491.75
29.1732	512.29
29.1876	522.80
29.2021	526.05
29.2165	524.78
29.2309	550.78
29.2454	492.47
29.2598	500.33
29.2743	526.56
29.2887	509.06
29.3031	525.65
29.3176	512.31
29.3320	522.06
29.3465	502.16
29.3609	532.36
29.3753	510.89
29.3898	505.07
29.4042	513.30
29.4187	494.35
29.4331	519.50
29.4475	520.70
29.4620	486.88
29.4764	523.67
29.4909	500.62
29.5053	500.94
29.5197	522.64
29.5342	503.08
29.5486	496.27
29.5631	513.20
29.5775	513.59
29.5919	489.34
29.6064	533.23
29.6208	501.82
29.6353	488.29
29.6497	499.19
29.6641	500.55
29.6786	515.29
29.6930	506.48
29.7075	522.19
29.7219	504.39
29.7363	534.03
29.7508	514.39
29.7652	503.53
29.7797	482.00
29.7941	449.71
29.8085	488.34
29.8230	510.91
29.8374	514.01
29.8519	501.81
29.8663	507.71
29.8807	496.47
29.8952	491.64
29.9096	515.70
29.9241	498.47
29.9385	504.54
29.9529	495.95
29.9674	516.51
29.9818	493.54
29.9963	503.74
30.0107	520.22
30.0251	502.02
30.0396	525.51
30.0540	510.62
30.0685	526.16
30.0829	525.59
30.0973	499.27
30.1118	512.78
30.1262	494.20
30.1407	490.33
30.1551	484.44
30.1695	495.52
30.1840	499.52
30.1984	499.47
30.2129	513.82
30.2273	526.48
30.2417	502.52
30.2562	516.99
30.2706	500.65
30.2851	487.70
30.2995	541.24
30.3139	468.37
30.3284	509.71
30.3428	536.04
30.3573	505.97
30.3717	524.43
30.3861	529.76
30.4006	512.16
30.4150	501.33
30.4295	542.72
30.4439	509.56
30.4583	511.61
30.4728	543.59
30.4872	542.77
30.5017	543.84
30.5161	566.28
30.5305	593.40
30.5450	590.66
30.5594	620.05
30.5739	630.12
30.5883	679.67
30.6028	703.98
30.6172	711.74
30.6316	743.11
30.6461	735.72
30.6605	758.55
30.6750	690.87
30.6894	697.87
30.7038	700.80
30.7183	650.12
30.7327	642.10
30.7472	667.05
30.7616	599.51
30.7760	574.65
30.7905	550.94
30.8049	555.49
30.8194	534.71
30.8338	534.64
30.8482	547.41
30.8627	547.82
30.8771	524.66
30.8916	536.16
30.9060	520.34
30.9204	510.52
30.9349	506.30
30.9493	504.25
30.9638	510.93
30.9782	501.24
30.9926	531.30
31.0071	528.50
31.0215	520.64
31.0360	520.64
31.0504	516.59
31.0648	498.66
31.0793	498.49
31.0937	524.38
31.1082	528.14
31.1226	545.91
31.1370	512.35
31.1515	482.53
31.1659	530.48
31.1804	533.48
31.1948	512.54
31.2092	506.90
31.2237	530.35
31.2381	529.72
31.2526	510.88
31.2670	527.66
31.2814	548.42
31.2959	513.02
31.3103	523.38
31.3248	522.71
31.3392	544.02
31.3536	519.50
31.3681	536.81
31.3825	535.89
31.3970	535.14
31.4114	528.29
31.4258	551.24
31.4403	516.09
31.4547	481.48
31.4692	524.64
31.4836	522.30
31.4980	513.26
31.5125	502.03
31.5269	502.79
31.5414	464.87
31.5558	482.80
31.5702	506.65
31.5847	497.33
31.5991	504.81
31.6136	508.82
31.6280	472.94
31.6424	474.90
31.6569	508.70
31.6713	492.69
31.6858	473.01
31.7002	516.25
31.7146	516.71
31.7291	479.72
31.7435	496.23
31.7580	518.42
31.7724	500.90
31.7868	468.63
31.8013	490.39
31.8157	553.70
31.8302	514.79
31.8446	482.92
31.8590	524.32
31.8735	538.94
31.8879	529.05
31.9024	516.53
31.9168	499.29
31.9312	536.31
31.9457	550.98
31.9601	540.76
31.9746	538.89
31.9890	502.35
32.0034	496.84
32.0179	533.68
32.0323	516.53
32.0468	502.77
32.0612	502.31
32.0756	529.84
32.0901	539.50
32.1045	523.24
32.1190	477.90
32.1334	510.52
32.1478	523.02
32.1623	507.59
32.1767	505.55
32.1912	516.02
32.2056	501.23
32.2200	509.56
32.2345	527.54
32.2489	523.15
32.2634	525.03
32.2778	519.45
32.2922	512.49
32.3067	497.79
32.3211	512.20
32.3356	518.58
32.3500	493.24
32.3644	484.05
32.3789	513.25
32.3933	536.27
32.4078	490.37
32.4222	503.58
32.4366	538.35
32.4511	510.10
32.4655	522.03
32.4800	499.68
32.4944	489.06
32.5088	515.96
32.5233	506.84
32.5377	535.56
32.5522	532.26
32.5666	544.02
32.5810	526.23
32.5955	493.69
32.6099	493.05
32.6244	484.60
32.6388	521.39
32.6532	521.36
32.6677	465.29
32.6821	509.80
32.6966	472.89
32.7110	500.61
32.7254	509.38
32.7399	484.77
32.7543	488.08
32.7688	493.13
32.7832	497.85
32.7976	482.09
32.8121	501.92
32.8265	525.85
32.8410	479.49
32.8554	513.70
32.8698	498.18
32.8843	525.02
32.8987	541.58
32.9132	474.47
32.9276	503.51
32.9420	558.85
32.9565	516.03
32.9709	499.92
32.9854	527.05
32.9998	490.85
33.0142	490.64
33.0287	516.74
33.0431	490.70
33.0576	514.31
33.0720	517.71
33.0864	508.69
33.1009	518.75
33.1153	529.12
33.1298	493.46
33.1442	486.07
33.1586	529.86
33.1731	480.26
33.1875	498.06
33.2020	509.93
33.2164	515.14
33.2308	499.51
33.2453	518.96
33.2597	507.93
33.2742	481.98
33.2886	489.82
33.3030	514.31
33.3175	510.80
33.3319	493.23
33.3464	533.68
33.3608	487.48
33.3752	494.48
33.3897	515.07
33.4041	507.11
33.4186	497.58
33.4330	509.12
33.4474	509.30
33.4619	514.85
33.4763	521.24
33.4908	511.26
33.5052	514.01
33.5196	504.00
33.5341	507.61
33.5485	508.32
33.5630	521.14
33.5774	487.13
33.5918	497.69
33.6063	501.52
33.6207	522.00
33.6352	539.04
33.6496	509.61
33.6640	525.15
33.6785	504.21
33.6929	484.39
33.7074	528.26
33.7218	513.49
33.7362	510.49
33.7507	512.21
33.7651	516.79
33.7796	527.06
33.7940	527.48
33.8084	503.31
33.8229	515.97
33.8373	510.88
33.8518	505.39
33.8662	522.01
33.8806	510.86
33.8951	471.59
33.9095	483.77
33.9240	503.23
33.9384	496.31
33.9528	465.51
33.9673	491.76
33.9817	447.94
33.9962	497.10
34.0106	497.47
34.0250	489.56
34.0395	504.21
34.0539	473.27
34.0684	526.34
34.0828	545.16
34.0972	517.61
34.1117	491.87
34.1261	508.20
34.1406	454.77
34.1550	460.08
34.1694	526.76
34.1839	491.56
34.1983	476.15
34.2128	491.54
34.2272	508.22
34.2417	529.57
34.2561	526.34
34.2705	516.01
34.2850	515.99
34.2994	512.97
34.3139	506.73
34.3283	508.78
34.3427	497.31
34.3572	487.62
34.3716	528.70
34.3861	522.09
34.4005	513.62
34.4149	502.20
34.4294	525.87
34.4438	528.41
34.4583	497.69
34.4727	483.14
34.4871	529.85
34.5016	520.84
34.5160	496.88
34.5305	519.38
34.5449	494.31
34.5593	485.72
34.5738	524.61
34.5882	494.83
34.6027	508.42
34.6171	514.07
34.6315	500.25
34.6460	526.34
34.6604	505.00
34.6749	511.92
34.6893	503.72
34.7037	515.74
34.7182	528.32
34.7326	531.73
34.7471	504.34
34.7615	513.57
34.7759	517.81
34.7904	498.05
34.8048	503.40
34.8193	525.16
34.8337	514.86
34.8481	514.97
34.8626	545.33
34.8770	525.94
34.8915	493.00
34.9059	496.56
34.9203	491.11
34.9348	520.63
34.9492	525.98
34.9637	526.03
34.9781	520.44
34.9925	503.04
35.0070	505.11
35.0214	521.54
35.0359	534.94
35.0503	527.82
35.0647	502.43
35.0792	519.89
35.0936	529.45
35.1081	549.89
35.1225	524.89
35.1369	511.59
35.1514	486.52
35.1658	516.43
35.1803	529.02
35.1947	535.79
35.2091	506.32
35.2236	508.47
35.2380	525.89
35.2525	519.50
35.2669	482.56
35.2813	477.57
35.2958	517.49
35.3102	501.59
35.3247	494.47
35.3391	493.32
35.3535	473.82
35.3680	492.05
35.3824	512.26
35.3969	485.38
35.4113	511.27
35.4257	523.21
35.4402	543.29
35.4546	545.77
35.4691	509.09
35.4835	548.75
35.4979	549.34
35.5124	528.09
35.5268	517.21
35.5413	507.55
35.5557	566.51
35.5701	536.97
35.5846	515.94
35.5990	550.59
35.6135	513.38
35.6279	496.18
35.6423	509.46
35.6568	523.67
35.6712	569.93
35.6857	600.09
35.7001	669.91
35.7145	712.81
35.7290	710.19
35.7434	644.55
35.7579	601.60
35.7723	593.78
35.7867	605.96
35.8012	634.52
35.8156	635.85
35.8301	615.48
35.8445	642.40
35.8589	673.97
35.8734	743.00
35.8878	855.38
35.9023	1058.75
35.9167	1156.62
35.9311	1357.67
35.9456	2033.85
35.9600	2368.15
35.9745	2100.34
35.9889	2109.04
36.0033	2469.02
36.0178	2565.63
36.0322	2373.03
36.0467	2354.47
36.0611	2208.46
36.0755	2123.40
36.0900	2050.49
36.1044	1882.05
36.1189	1775.93
36.1333	1615.96
36.1477	1399.64
36.1622	1319.77
36.1766	1281.02
36.1911	1066.47
36.2055	1006.26
36.2199	819.31
36.2344	744.53
36.2488	680.91
36.2633	606.86
36.2777	570.26
36.2921	553.54
36.3066	576.98
36.3210	601.58
36.3355	579.57
36.3499	565.14
36.3643	552.04
36.3788	573.54
36.3932	508.02
36.4077	541.55
36.4221	531.77
36.4365	556.30
36.4510	540.00
36.4654	548.47
36.4799	568.84
36.4943	539.27
36.5087	523.72
36.5232	552.09
36.5376	513.14
36.5521	523.88
36.5665	544.12
36.5809	501.20
36.5954	529.37
36.6098	554.29
36.6243	502.27
36.6387	536.61
36.6531	536.50
36.6676	523.76
36.6820	521.05
36.6965	540.47
36.7109	496.94
36.7253	510.26
36.7398	570.53
36.7542	538.39
36.7687	543.13
36.7831	588.88
36.7975	545.32
36.8120	561.01
36.8264	608.38
36.8409	591.87
36.8553	593.26
36.8697	588.15
36.8842	557.11
36.8986	646.47
36.9131	647.61
36.9275	592.27
36.9419	584.02
36.9564	559.06
36.9708	591.37
36.9853	522.46
36.9997	533.18
37.0141	566.62
37.0286	539.95
37.0430	562.08
37.0575	579.26
37.0719	578.21
37.0863	517.72
37.1008	529.98
37.1152	520.20
37.1297	535.57
37.1441	509.18
37.1585	505.18
37.1730	523.70
37.1874	507.07
37.2019	510.22
37.2163	539.53
37.2307	513.88
37.2452	482.49
37.2596	495.13
37.2741	508.84
37.2885	491.80
37.3029	544.23
37.3174	514.29
37.3318	518.04
37.3463	530.56
37.3607	491.12
37.3751	509.94
37.3896	520.75
37.4040	526.44
37.4185	519.14
37.4329	532.98
37.4473	508.10
37.4618	551.03
37.4762	545.35
37.4907	522.10
37.5051	531.82
37.5195	545.85
37.5340	535.84
37.5484	513.94
37.5629	483.82
37.5773	503.03
37.5917	490.54
37.6062	550.14
37.6206	505.30
37.6351	520.13
37.6495	492.23
37.6639	496.30
37.6784	489.96
37.6928	490.30
37.7073	537.68
37.7217	508.45
37.7361	495.11
37.7506	533.94
37.7650	490.10
37.7795	492.72
37.7939	510.34
37.8083	500.86
37.8228	493.88
37.8372	468.80
37.8517	479.56
37.8661	497.34
37.8805	527.21
37.8950	524.59
37.9094	521.49
37.9239	506.16
37.9383	496.33
37.9528	508.68
37.9672	524.82
37.9816	505.93
37.9961	497.63
38.0105	525.81
38.0250	531.24
38.0394	500.82
38.0538	493.38
38.0683	506.46
38.0827	521.19
38.0972	512.39
38.1116	536.67
38.1260	534.49
38.1405	504.30
38.1549	515.91
38.1694	496.04
38.1838	497.33
38.1982	514.71
38.2127	501.50
38.2271	515.98
38.2416	522.52
38.2560	515.53
38.2704	504.67
38.2849	497.62
38.2993	523.60
38.3138	530.43
38.3282	522.00
38.3426	506.28
38.3571	520.49
38.3715	546.66
38.3860	513.89
38.4004	505.05
38.4148	552.44
38.4293	603.66
38.4437	604.78
38.4582	623.21
38.4726	647.64
38.4870	706.13
38.5015	788.69
38.5159	808.99
38.5304	760.45
38.5448	808.68
38.5592	774.98
38.5737	771.56
38.5881	729.67
38.6026	775.76
38.6170	712.99
38.6314	711.75
38.6459	668.45
38.6603	626.29
38.6748	610.88
38.6892	600.98
38.7036	562.86
38.7181	536.43
38.7325	518.43
38.7470	527.59
38.7614	529.45
38.7758	518.80
38.7903	515.79
38.8047	520.33
38.8192	514.15
38.8336	548.19
38.8480	506.82
38.8625	514.29
38.8769	505.47
38.8914	496.72
38.9058	504.26
38.9202	491.17
38.9347	511.77
38.9491	536.49
38.9636	489.99
38.9780	456.75
38.9924	521.13
39.0069	509.87
39.0213	499.66
39.0358	536.08
39.0502	493.14
39.0646	496.57
39.0791	479.49
39.0935	505.02
39.1080	497.60
39.1224	522.77
39.1368	492.84
39.1513	490.26
39.1657	463.34
39.1802	477.35
39.1946	496.68
39.2090	526.56
39.2235	508.64
39.2379	517.49
39.2524	495.86
39.2668	504.10
39.2812	504.70
39.2957	521.96
39.3101	494.76
39.3246	511.82
39.3390	523.21
39.3534	515.58
39.3679	512.75
39.3823	511.80
39.3968	533.48
39.4112	525.08
39.4256	540.22
39.4401	500.97
39.4545	504.05
39.4690	522.25
39.4834	512.60
39.4978	500.22
39.5123	500.32
39.5267	500.24
39.5412	499.70
39.5556	496.94
39.5700	515.79
39.5845	523.15
39.5989	498.45
39.6134	492.14
39.6278	484.73
39.6422	491.10
39.6567	517.26
39.6711	517.15
39.6856	481.47
39.7000	506.90
39.7144	502.66
39.7289	476.24
39.7433	491.28
39.7578	489.86
39.7722	503.66
39.7866	506.89
39.8011	501.55
39.8155	489.67
39.8300	526.08
39.8444	515.21
39.8588	544.20
39.8733	494.67
39.8877	511.25
39.9022	523.53
39.9166	474.57
39.9310	469.90
39.9455	493.46
39.9599	495.16
39.9744	466.16
39.9888	497.18
40.0032	490.05
40.0177	499.13
40.0321	514.22
40.0466	490.55
40.0610	506.81
40.0754	486.13
40.0899	512.80
40.1043	496.93
40.1188	512.51
40.1332	504.04
40.1476	482.31
40.1621	498.01
40.1765	484.89
40.1910	478.73
40.2054	495.89
40.2198	499.90
40.2343	508.31
40.2487	521.53
40.2632	500.15
40.2776	470.50
40.2920	487.61
40.3065	520.25
40.3209	500.16
40.3354	512.46
40.3498	504.50
40.3642	513.41
40.3787	515.32
40.3931	496.33
40.4076	516.13
40.4220	481.26
40.4364	507.08
40.4509	487.89
40.4653	512.02
40.4798	479.82
40.4942	476.90
40.5086	451.13
40.5231	484.53
40.5375	494.06
40.5520	501.28
40.5664	527.66
40.5808	515.42
40.5953	491.65
40.6097	493.57
40.6242	504.89
40.6386	507.92
40.6530	486.41
40.6675	478.99
40.6819	469.01
40.6964	497.80
40.7108	520.97
40.7252	496.32
40.7397	477.83
40.7541	509.48
40.7686	503.93
40.7830	521.93
40.7974	491.67
40.8119	514.56
40.8263	528.99
40.8408	491.77
40.8552	472.01
40.8696	478.31
40.8841	488.07
40.8985	540.05
40.9130	505.83
40.9274	475.13
40.9418	492.39
40.9563	491.60
40.9707	486.37
40.9852	552.40
40.9996	508.50
41.0140	538.08
41.0285	523.02
41.0429	492.56
41.0574	486.10
41.0718	488.37
41.0862	544.61
41.1007	492.68
41.1151	504.94
41.1296	543.71
41.1440	503.66
41.1584	501.43
41.1729	519.01
41.1873	509.42
41.2018	488.27
41.2162	537.72
41.2306	482.24
41.2451	505.31
41.2595	506.67
41.2740	489.53
41.2884	476.62
41.3028	507.32
41.3173	500.27
41.3317	486.02
41.3462	522.23
41.3606	503.30
41.3750	505.99
41.3895	485.62
41.4039	525.83
41.4184	495.56
41.4328	538.42
41.4472	524.55
41.4617	488.71
41.4761	498.88
41.4906	479.70
41.5050	491.67
41.5194	489.20
41.5339	486.94
41.5483	517.77
41.5628	512.45
41.5772	458.69
41.5916	490.17
41.6061	553.47
41.6205	492.03
41.6350	535.49
41.6494	510.15
41.6639	526.82
41.6783	509.12
41.6927	495.56
41.7072	507.54
41.7216	530.56
41.7361	479.23
41.7505	483.84
41.7649	490.07
41.7794	521.87
41.7938	513.65
41.8083	502.44
41.8227	497.92
41.8371	489.64
41.8516	489.44
41.8660	517.63
41.8805	532.76
41.8949	555.46
41.9093	537.93
41.9238	570.92
41.9382	562.74
41.9527	546.20
41.9671	558.93
41.9815	558.95
41.9960	548.66
42.0104	547.18
42.0249	588.17
42.0393	580.16
42.0537	568.53
42.0682	597.66
42.0826	587.70
42.0971	616.65
42.1115	597.81
42.1259	608.65
42.1404	601.57
42.1548	622.50
42.1693	666.74
42.1837	689.84
42.1981	715.31
42.2126	779.99
42.2270	882.46
42.2415	1021.51
42.2559	1183.04
42.2703	1293.11
42.2848	1421.23
42.2992	1553.24
42.3137	1685.15
42.3281	1660.13
42.3425	1593.02
42.3570	1487.17
42.3714	1423.31
42.3859	1393.43
42.4003	1337.93
42.4147	1310.74
42.4292	1263.07
42.4436	1156.96
42.4581	1085.44
42.4725	956.66
42.4869	832.36
42.5014	771.89
42.5158	712.52
42.5303	690.14
42.5447	669.56
42.5591	593.34
42.5736	580.20
42.5880	569.94
42.6025	549.36
42.6169	566.35
42.6313	575.86
42.6458	555.08
42.6602	519.27
42.6747	538.91
42.6891	518.50
42.7035	541.06
42.7180	540.76
42.7324	517.39
42.7469	507.35
42.7613	542.45
42.7757	536.54
42.7902	509.09
42.8046	505.84
42.8191	539.38
42.8335	524.21
42.8479	561.05
42.8624	559.20
42.8768	534.88
42.8913	508.18
42.9057	529.88
42.9201	513.03
42.9346	516.34
42.9490	516.56
42.9635	526.53
42.9779	533.10
42.9923	496.08
43.0068	529.70
43.0212	547.03
43.0357	544.66
43.0501	529.35
43.0645	526.92
43.0790	506.84
43.0934	525.08
43.1079	507.72
43.1223	494.53
43.1367	507.45
43.1512	524.45
43.1656	542.54
43.1801	532.35
43.1945	487.84
43.2089	537.91
43.2234	529.86
43.2378	544.57
43.2523	541.04
43.2667	531.29
43.2811	543.59
43.2956	529.45
43.3100	516.17
43.3245	475.22
43.3389	546.85
43.3533	570.75
43.3678	540.56
43.3822	532.54
43.3967	536.25
43.4111	529.09
43.4255	498.09
43.4400	510.47
43.4544	525.95
43.4689	507.83
43.4833	546.56
43.4977	522.65
43.5122	499.52
43.5266	486.00
43.5411	483.78
43.5555	510.25
43.5699	513.89
43.5844	516.75
43.5988	535.55
43.6133	510.90
43.6277	517.22
43.6421	542.21
43.6566	542.44
43.6710	528.46
43.6855	514.44
43.6999	534.41
43.7143	541.69
43.7288	509.49
43.7432	543.49
43.7577	550.34
43.7721	572.44
43.7865	591.24
43.8010	603.66
43.8154	649.04
43.8299	661.87
43.8443	663.37
43.8587	681.29
43.8732	668.40
43.8876	637.95
43.9021	654.38
43.9165	634.68
43.9309	605.01
43.9454	635.35
43.9598	599.91
43.9743	555.82
43.9887	590.21
44.0031	543.79
44.0176	551.68
44.0320	578.34
44.0465	541.45
44.0609	571.41
44.0753	488.30
44.0898	535.64
44.1042	531.75
44.1187	507.28
44.1331	497.50
44.1475	498.49
44.1620	519.04
44.1764	558.70
44.1909	514.32
44.2053	523.56
44.2197	535.52
44.2342	531.10
44.2486	522.33
44.2631	549.86
44.2775	552.36
44.2919	514.69
44.3064	509.68
44.3208	539.23
44.3353	519.21
44.3497	549.20
44.3641	560.57
44.3786	534.72
44.3930	575.07
44.4075	557.27
44.4219	577.83
44.4363	552.43
44.4508	574.07
44.4652	581.01
44.4797	588.36
44.4941	567.85
44.5085	575.06
44.5230	589.83
44.5374	590.04
44.5519	580.03
44.5663	580.03
44.5807	567.59
44.5952	547.41
44.6096	550.93
44.6241	590.81
44.6385	603.20
44.6529	556.03
44.6674	599.07
44.6818	589.70
44.6963	601.29
44.7107	664.26
44.7251	683.36
44.7396	768.71
44.7540	804.08
44.7685	806.40
44.7829	846.48
44.7973	865.08
44.8118	870.24
44.8262	778.63
44.8407	765.53
44.8551	706.46
44.8695	736.29
44.8840	700.90
44.8984	800.89
44.9129	707.12
44.9273	690.87
44.9417	673.49
44.9562	610.54
44.9706	626.82
44.9851	554.01
44.9995	521.36
45.0139	529.83
45.0284	532.40
45.0428	540.03
45.0573	552.48
45.0717	515.63
45.0861	512.50
45.1006	553.58
45.1150	547.78
45.1295	524.06
45.1439	485.93
45.1583	488.72
45.1728	484.44
45.1872	511.43
45.2017	502.89
45.2161	508.74
45.2305	499.36
45.2450	504.04
45.2594	494.34
45.2739	507.25
45.2883	496.44
45.3028	500.51
45.3172	493.13
45.3316	501.62
45.3461	490.23
45.3605	504.13
45.3750	455.58
45.3894	498.53
45.4038	503.74
45.4183	496.67
45.4327	513.17
45.4472	499.04
45.4616	510.21
45.4760	512.51
45.4905	509.17
45.5049	516.15
45.5194	524.78
45.5338	549.78
45.5482	566.30
45.5627	541.46
45.5771	509.01
45.5916	494.47
45.6060	507.18
45.6204	503.26
45.6349	488.47
45.6493	487.98
45.6638	509.32
45.6782	537.87
45.6926	531.20
45.7071	504.64
45.7215	484.03
45.7360	508.88
45.7504	512.51
45.7648	534.76
45.7793	522.41
45.7937	493.30
45.8082	548.23
45.8226	500.84
45.8370	531.23
45.8515	514.45
45.8659	496.78
45.8804	495.06
45.8948	499.25
45.9092	497.15
45.9237	526.97
45.9381	507.61
45.9526	471.86
45.9670	501.48
45.9814	490.08
45.9959	491.83
46.0103	491.96
46.0248	500.07
46.0392	487.88
46.0536	469.77
46.0681	496.75
46.0825	517.26
46.0970	501.97
46.1114	508.34
46.1258	530.55
46.1403	496.16
46.1547	473.76
46.1692	492.13
46.1836	516.95
46.1980	481.52
46.2125	512.01
46.2269	493.30
46.2414	482.10
46.2558	513.59
46.2702	519.43
46.2847	489.29
46.2991	507.88
46.3136	499.83
46.3280	512.02
46.3424	524.29
46.3569	514.79
46.3713	493.22
46.3858	512.30
46.4002	499.08
46.4146	515.14
46.4291	513.20
46.4435	507.91
46.4580	504.45
46.4724	471.41
46.4868	484.83
46.5013	504.86
46.5157	511.25
46.5302	535.84
46.5446	513.14
46.5590	507.01
46.5735	508.76
46.5879	497.00
46.6024	537.12
46.6168	486.12
46.6312	493.14
46.6457	531.90
46.6601	543.53
46.6746	488.45
46.6890	490.18
46.7034	509.48
46.7179	498.94
46.7323	517.69
46.7468	519.35
46.7612	510.66
46.7756	478.84
46.7901	480.29
46.8045	521.42
46.8190	557.84
46.8334	530.14
46.8478	524.00
46.8623	527.00
46.8767	486.74
46.8912	537.48
46.9056	524.61
46.9200	508.86
46.9345	509.77
46.9489	497.25
46.9634	519.51
46.9778	538.96
46.9922	484.37
47.0067	513.48
47.0211	535.85
47.0356	520.84
47.0500	508.90
47.0644	512.80
47.0789	496.16
47.0933	538.84
47.1078	530.19
47.1222	537.00
47.1366	504.18
47.1511	493.20
47.1655	491.05
47.1800	487.94
47.1944	523.53
47.2088	524.01
47.2233	518.07
47.2377	523.46
47.2522	497.66
47.2666	495.70
47.2810	495.52
47.2955	470.82
47.3099	511.32
47.3244	524.24
47.3388	518.98
47.3532	499.50
47.3677	502.81
47.3821	487.83
47.3966	482.48
47.4110	532.49
47.4254	521.98
47.4399	486.41
47.4543	489.39
47.4688	523.18
47.4832	522.45
47.4976	513.74
47.5121	497.86
47.5265	494.32
47.5410	505.34
47.5554	529.69
47.5698	518.45
47.5843	500.22
47.5987	508.64
47.6132	512.02
47.6276	494.12
47.6420	498.15
47.6565	511.91
47.6709	525.93
47.6854	500.88
47.6998	491.63
47.7142	545.25
47.7287	508.16
47.7431	537.32
47.7576	507.85
47.7720	503.32
47.7864	514.57
47.8009	492.56
47.8153	528.96
47.8298	500.10
47.8442	518.63
47.8586	502.43
47.8731	500.32
47.8875	513.77
47.9020	519.14
47.9164	522.79
47.9308	496.41
47.9453	481.80
47.9597	480.58
47.9742	513.04
47.9886	516.30
48.0030	519.91
48.0175	521.72
48.0319	521.93
48.0464	550.93
48.0608	541.18
48.0752	538.95
48.0897	516.64
48.1041	535.58
48.1186	489.04
48.1330	501.46
48.1474	509.93
48.1619	526.81
48.1763	502.55
48.1908	503.88
48.2052	506.08
48.2196	487.57
48.2341	525.00
48.2485	482.16
48.2630	487.38
48.2774	488.86
48.2918	506.10
48.3063	508.83
48.3207	536.13
48.3352	536.55
48.3496	521.87
48.3640	486.87
48.3785	483.94
48.3929	493.02
48.4074	495.86
48.4218	535.72
48.4362	555.02
48.4507	532.97
48.4651	537.62
48.4796	539.39
48.4940	551.45
48.5084	516.30
48.5229	502.51
48.5373	529.26
48.5518	519.34
48.5662	509.66
48.5806	501.00
48.5951	506.39
48.6095	502.98
48.6240	506.12
48.6384	507.51
48.6528	505.48
48.6673	501.68
48.6817	519.79
48.6962	521.86
48.7106	502.78
48.7250	549.14
48.7395	540.46
48.7539	545.23
48.7684	524.44
48.7828	517.61
48.7972	542.60
48.8117	525.69
48.8261	513.71
48.8406	522.59
48.8550	554.74
48.8694	557.89
48.8839	540.63
48.8983	522.48
48.9128	545.17
48.9272	543.86
48.9416	569.48
48.9561	605.66
48.9705	551.13
48.9850	582.63
48.9994	553.47
49.0139	569.21
49.0283	576.54
49.0427	595.84
49.0572	590.04
49.0716	618.50
49.0861	650.99
49.1005	692.75
49.1149	695.52
49.1294	710.23
49.1438	773.79
49.1583	805.59
49.1727	783.18
49.1871	828.45
49.2016	884.70
49.2160	1021.53
49.2305	1077.05
49.2449	1127.79
49.2593	1183.84
49.2738	1279.29
49.2882	1387.26
49.3027	1464.83
49.3171	1588.56
49.3315	1702.56
49.3460	1702.82
49.3604	1672.59
49.3749	1743.64
49.3893	1664.09
49.4037	1662.90
49.4182	1727.78
49.4326	1738.21
49.4471	1623.79
49.4615	1565.92
49.4759	1524.41
49.4904	1511.68
49.5048	1422.77
49.5193	1323.01
49.5337	1266.15
49.5481	1232.23
49.5626	1106.05
49.5770	1066.69
49.5915	987.01
49.6059	951.68
49.6203	874.16
49.6348	840.85
49.6492	766.35
49.6637	703.08
49.6781	733.24
49.6925	725.05
49.7070	706.72
49.7214	684.34
49.7359	625.18
49.7503	631.72
49.7647	591.39
49.7792	586.08
49.7936	582.53
49.8081	563.18
49.8225	543.89
49.8369	592.07
49.8514	578.90
49.8658	548.32
49.8803	522.33
49.8947	523.66
49.9091	553.07
49.9236	551.36
49.9380	513.15
49.9525	519.82
49.9669	519.52
49.9813	529.25
49.9958	514.21
50.0102	512.15
50.0247	531.67
50.0391	559.40
50.0535	539.10
50.0680	505.74
50.0824	518.67
50.0969	500.28
50.1113	502.65
50.1257	514.96
50.1402	528.00
50.1546	511.84
50.1691	537.09
50.1835	525.13
50.1979	527.33
50.2124	506.08
50.2268	483.50
50.2413	524.91
50.2557	503.91
50.2701	530.71
50.2846	528.07
50.2990	511.77
50.3135	518.16
50.3279	526.29
50.3423	513.45
50.3568	499.18
50.3712	531.90
50.3857	534.45
50.4001	506.69
50.4145	498.96
50.4290	545.24
50.4434	497.06
50.4579	507.31
50.4723	518.35
50.4867	506.65
50.5012	504.03
50.5156	517.44
50.5301	517.66
50.5445	515.47
50.5589	534.58
50.5734	508.72
50.5878	511.50
50.6023	518.67
50.6167	514.44
50.6311	516.48
50.6456	513.65
50.6600	527.77
50.6745	516.41
50.6889	491.56
50.7033	504.51
50.7178	490.53
50.7322	488.15
50.7467	510.94
50.7611	485.76
50.7755	514.71
50.7900	522.56
50.8044	518.72
50.8189	523.81
50.8333	529.78
50.8477	521.61
50.8622	531.38
50.8766	509.74
50.8911	483.92
50.9055	488.36
50.9199	530.96
50.9344	524.55
50.9488	496.23
50.9633	488.40
50.9777	522.92
50.9921	497.76
51.0066	501.24
51.0210	515.48
51.0355	503.82
51.0499	522.87
51.0643	514.57
51.0788	525.86
51.0932	539.79
51.1077	520.36
51.1221	488.28
51.1365	477.84
51.1510	461.82
51.1654	483.68
51.1799	497.87
51.1943	491.28
51.2087	495.73
51.2232	477.42
51.2376	498.06
51.2521	500.57
51.2665	462.21
51.2809	505.23
51.2954	477.49
51.3098	484.83
51.3243	524.04
51.3387	546.66
51.3531	540.81
51.3676	476.57
51.3820	490.69
51.3965	530.79
51.4109	529.61
51.4253	515.68
51.4398	499.19
51.4542	507.54
51.4687	534.91
51.4831	546.37
51.4975	556.48
51.5120	508.42
51.5264	514.88
51.5409	495.74
51.5553	496.84
51.5697	484.64
51.5842	493.52
51.5986	509.66
51.6131	518.63
51.6275	524.54
51.6419	544.19
51.6564	519.25
51.6708	474.30
51.6853	459.31
51.6997	463.97
51.7141	546.35
51.7286	520.69
51.7430	496.23
51.7575	510.05
51.7719	495.16
51.7863	493.34
51.8008	500.56
51.8152	519.70
51.8297	536.56
51.8441	498.20
51.8585	515.80
51.8730	528.43
51.8874	494.42
51.9019	527.12
51.9163	511.87
51.9307	512.69
51.9452	475.42
51.9596	505.43
51.9741	503.11
51.9885	515.55
52.0029	505.36
52.0174	500.11
52.0318	525.49
52.0463	522.22
52.0607	547.88
52.0751	548.65
52.0896	524.59
52.1040	515.25
52.1185	484.42
52.1329	521.88
52.1473	505.37
52.1618	509.69
52.1762	479.92
52.1907	506.44
52.2051	538.38
52.2195	509.77
52.2340	511.71
52.2484	496.17
52.2629	515.59
52.2773	537.98
52.2917	495.86
52.3062	507.98
52.3206	494.10
52.3351	512.50
52.3495	516.86
52.3639	520.71
52.3784	527.83
52.3928	500.50
52.4073	510.78
52.4217	519.33
52.4361	521.10
52.4506	551.14
52.4650	525.14
52.4795	504.84
52.4939	513.17
52.5083	514.04
52.5228	545.10
52.5372	493.72
52.5517	516.30
52.5661	534.95
52.5805	526.38
52.5950	498.59
52.6094	496.31
52.6239	494.17
52.6383	493.37
52.6527	492.14
52.6672	527.20
52.6816	507.25
52.6961	533.80
52.7105	512.09
52.7250	516.69
52.7394	497.24
52.7538	511.86
52.7683	510.18
52.7827	537.64
52.7972	501.45
52.8116	536.15
52.8260	511.11
52.8405	546.03
52.8549	533.49
52.8694	511.92
52.8838	534.08
52.8982	551.85
52.9127	504.94
52.9271	547.00
52.9416	551.71
52.9560	483.55
52.9704	515.57
52.9849	487.49
52.9993	472.19
53.0138	516.14
53.0282	545.55
53.0426	539.35
53.0571	509.71
53.0715	497.47
53.0860	490.37
53.1004	479.17
53.1148	492.92
53.1293	539.32
53.1437	495.07
53.1582	456.39
53.1726	518.17
53.1870	532.77
53.2015	531.18
53.2159	497.72
53.2304	502.01
53.2448	513.90
53.2592	519.27
53.2737	514.75
53.2881	486.93
53.3026	504.62
53.3170	523.34
53.3314	499.76
53.3459	513.69
53.3603	536.29
53.3748	509.08
53.3892	474.76
53.4036	508.38
53.4181	530.71
53.4325	556.36
53.4470	522.47
53.4614	510.75
53.4758	557.15
53.4903	537.25
53.5047	534.46
53.5192	523.61
53.5336	498.29
53.5480	493.86
53.5625	484.61
53.5769	503.62
53.5914	511.38
53.6058	523.94
53.6202	504.89
53.6347	502.24
53.6491	505.40
53.6636	526.50
53.6780	530.17
53.6924	518.44
53.7069	529.26
53.7213	496.36
53.7358	504.75
53.7502	519.78
53.7646	513.33
53.7791	525.80
53.7935	502.62
53.8080	510.39
53.8224	533.62
53.8368	533.24
53.8513	541.41
53.8657	504.58
53.8802	529.23
53.8946	551.55
53.9090	529.89
53.9235	538.47
53.9379	502.02
53.9524	517.32
53.9668	502.77
53.9812	506.64
53.9957	497.77
54.0101	554.01
54.0246	535.80
54.0390	536.22
54.0534	509.96
54.0679	549.73
54.0823	551.17
54.0968	548.40
54.1112	545.29
54.1256	548.93
54.1401	530.43
54.1545	523.19
54.1690	576.97
54.1834	526.00
54.1978	545.06
54.2123	525.76
54.2267	536.44
54.2412	538.08
54.2556	536.63
54.2700	529.36
54.2845	568.01
54.2989	557.97
54.3134	560.87
54.3278	584.79
54.3422	608.78
54.3567	626.61
54.3711	589.18
54.3856	645.35
54.4000	604.16
54.4144	628.75
54.4289	642.28
54.4433	601.95
54.4578	620.80
54.4722	586.93
54.4866	578.30
54.5011	602.63
54.5155	565.85
54.5300	567.65
54.5444	593.65
54.5588	610.40
54.5733	574.24
54.5877	569.40
54.6022	593.50
54.6166	571.00
54.6310	558.72
54.6455	511.04
54.6599	535.18
54.6744	551.95
54.6888	493.78
54.7032	526.08
54.7177	541.96
54.7321	556.42
54.7466	524.61
54.7610	511.05
54.7754	521.95
54.7899	531.63
54.8043	523.86
54.8188	533.86
54.8332	511.19
54.8476	541.73
54.8621	543.05
54.8765	519.56
54.8910	525.37
54.9054	542.32
54.9198	528.20
54.9343	522.45
54.9487	513.42
54.9632	522.77
54.9776	536.35
54.9920	541.56
55.0065	506.12
55.0209	487.64
55.0354	515.76
55.0498	538.73
55.0642	536.39
55.0787	520.80
55.0931	490.75
55.1076	475.74
55.1220	504.99
55.1364	530.90
55.1509	473.92
55.1653	502.01
55.1798	524.31
55.1942	504.09
55.2086	509.75
55.2231	502.68
55.2375	496.43
55.2520	518.02
55.2664	512.02
55.2808	538.23
55.2953	513.13
55.3097	490.47
55.3242	506.58
55.3386	493.45
55.3530	526.36
55.3675	549.25
55.3819	497.08
55.3964	505.74
55.4108	503.56
55.4252	540.31
55.4397	519.69
55.4541	535.27
55.4686	540.31
55.4830	536.13
55.4974	519.09
55.5119	513.52
55.5263	514.27
55.5408	536.48
55.5552	539.58
55.5696	491.55
55.5841	503.64
55.5985	550.35
55.6130	529.84
55.6274	522.55
55.6418	526.57
55.6563	506.24
55.6707	501.16
55.6852	513.77
55.6996	513.83
55.7140	532.87
55.7285	504.02
55.7429	524.21
55.7574	530.59
55.7718	518.38
55.7862	545.17
55.8007	477.75
55.8151	540.14
55.8296	546.48
55.8440	500.30
55.8584	517.58
55.8729	511.99
55.8873	512.73
55.9018	559.15
55.9162	527.55
55.9306	494.25
55.9451	531.16
55.9595	529.19
55.9740	532.74
55.9884	529.79
56.0028	504.95
56.0173	558.73
56.0317	547.09
56.0462	548.10
56.0606	543.16
56.0750	552.22
56.0895	546.00
56.1039	535.47
56.1184	532.39
56.1328	541.01
56.1472	509.16
56.1617	515.61
56.1761	527.89
56.1906	515.75
56.2050	519.45
56.2194	559.01
56.2339	546.52
56.2483	529.23
56.2628	489.23
56.2772	500.51
56.2916	510.74
56.3061	522.06
56.3205	525.49
56.3350	566.32
56.3494	540.26
56.3639	533.88
56.3783	517.23
56.3927	491.67
56.4072	531.35
56.4216	557.91
56.4361	503.26
56.4505	495.42
56.4649	507.23
56.4794	516.71
56.4938	556.76
56.5083	534.42
56.5227	506.03
56.5371	525.09
56.5516	528.49
56.5660	537.17
56.5805	518.74
56.5949	504.44
56.6093	522.96
56.6238	506.47
56.6382	497.36
56.6527	501.21
56.6671	503.11
56.6815	497.29
56.6960	544.52
56.7104	531.14
56.7249	520.80
56.7393	494.46
56.7537	467.27
56.7682	532.52
56.7826	530.57
56.7971	497.56
56.8115	494.94
56.8259	517.08
56.8404	542.03
56.8548	544.59
56.8693	538.49
56.8837	513.22
56.8981	529.77
56.9126	555.63
56.9270	487.82
56.9415	531.86
56.9559	528.54
56.9703	532.63
56.9848	503.31
56.9992	518.19
57.0137	547.90
57.0281	502.23
57.0425	494.19
57.0570	546.02
57.0714	545.46
57.0859	521.63
57.1003	527.56
57.1147	508.81
57.1292	541.30
57.1436	477.55
57.1581	489.61
57.1725	522.03
57.1869	531.34
57.2014	491.51
57.2158	492.52
57.2303	544.75
57.2447	524.21
57.2591	517.17
57.2736	529.21
57.2880	533.51
57.3025	511.62
57.3169	532.12
57.3313	560.34
57.3458	558.19
57.3602	546.83
57.3747	510.10
57.3891	513.47
57.4035	479.27
57.4180	547.81
57.4324	536.88
57.4469	503.90
57.4613	561.44
57.4757	524.81
57.4902	531.87
57.5046	565.64
57.5191	542.05
57.5335	544.37
57.5479	506.86
57.5624	525.59
57.5768	534.73
57.5913	534.84
57.6057	534.46
57.6201	542.32
57.6346	508.06
57.6490	518.02
57.6635	526.89
57.6779	523.46
57.6923	540.73
57.7068	556.35
57.7212	505.10
57.7357	538.10
57.7501	537.53
57.7645	532.88
57.7790	552.57
57.7934	552.44
57.8079	544.15
57.8223	573.00
57.8367	555.73
57.8512	531.63
57.8656	553.37
57.8801	556.59
57.8945	617.75
57.9089	635.89
57.9234	640.32
57.9378	666.11
57.9523	628.29
57.9667	620.92
57.9811	689.59
57.9956	696.69
58.0100	699.26
58.0245	635.44
58.0389	661.17
58.0533	677.61
58.0678	652.18
58.0822	615.49
58.0967	671.95
58.1111	663.85
58.1255	658.88
58.1400	698.23
58.1544	648.74
58.1689	670.09
58.1833	686.30
58.1977	649.85
58.2122	645.55
58.2266	621.62
58.2411	657.04
58.2555	578.59
58.2699	575.59
58.2844	590.57
58.2988	573.60
58.3133	570.39
58.3277	555.27
58.3421	565.45
58.3566	574.57
58.3710	547.25
58.3855	553.60
58.3999	568.28
58.4143	575.23
58.4288	575.27
58.4432	573.22
58.4577	542.47
58.4721	546.94
58.4865	528.51
58.5010	517.02
58.5154	544.06
58.5299	508.65
58.5443	517.87
58.5587	528.36
58.5732	503.60
58.5876	529.25
58.6021	545.53
58.6165	548.63
58.6309	531.02
58.6454	508.19
58.6598	512.84
58.6743	527.42
58.6887	544.09
58.7031	552.81
58.7176	540.63
58.7320	530.25
58.7465	550.07
58.7609	547.93
58.7753	567.69
58.7898	549.55
58.8042	557.13
58.8187	562.22
58.8331	544.15
58.8475	558.81
58.8620	543.45
58.8764	524.63
58.8909	554.44
58.9053	567.47
58.9197	540.24
58.9342	547.77
58.9486	549.44
58.9631	538.17
58.9775	542.05
58.9919	571.50
59.0064	545.19
59.0208	545.92
59.0353	543.75
59.0497	546.50
59.0641	548.51
59.0786	518.85
59.0930	536.66
59.1075	554.64
59.1219	546.33
59.1363	568.29
59.1508	531.79
59.1652	536.78
59.1797	563.88
59.1941	529.13
59.2085	543.39
59.2230	539.00
59.2374	530.42
59.2519	539.85
59.2663	552.30
59.2807	560.40
59.2952	543.87
59.3096	554.46
59.3241	564.20
59.3385	595.34
59.3529	582.45
59.3674	536.75
59.3818	548.29
59.3963	564.42
59.4107	557.16
59.4251	589.51
59.4396	568.02
59.4540	546.71
59.4685	559.47
59.4829	539.77
59.4973	555.11
59.5118	544.57
59.5262	554.55
59.5407	593.45
59.5551	546.83
59.5695	535.05
59.5840	540.62
59.5984	533.71
59.6129	558.22
59.6273	535.46
59.6417	559.98
59.6562	568.10
59.6706	525.20
59.6851	518.10
59.6995	507.11
59.7139	514.22
59.7284	523.85
59.7428	528.42
59.7573	526.39
59.7717	545.82
59.7861	530.20
59.8006	542.23
59.8150	530.71
59.8295	557.46
59.8439	521.89
59.8583	552.38
59.8728	533.77
59.8872	532.60
59.9017	577.68
59.9161	563.86
59.9305	537.98
59.9450	541.67
59.9594	547.60
59.9739	556.72
59.9883	569.17
60.0027	559.24
60.0172	555.50
60.0316	558.41
60.0461	517.58
60.0605	533.76
60.0750	535.76
60.0894	539.16
60.1038	534.04
60.1183	553.62
60.1327	533.68
60.1472	529.00
60.1616	539.22
60.1760	545.56
60.1905	508.06
60.2049	532.06
60.2194	551.24
60.2338	513.78
60.2482	561.22
60.2627	525.32
60.2771	540.60
60.2916	533.56
60.3060	554.71
60.3204	547.91
60.3349	555.90
60.3493	510.67
60.3638	544.58
60.3782	532.90
60.3926	534.89
60.4071	551.26
60.4215	528.61
60.4360	526.10
60.4504	504.69
60.4648	505.07
60.4793	536.77
60.4937	555.25
60.5082	534.56
60.5226	508.43
60.5370	548.86
60.5515	552.14
60.5659	532.29
60.5804	530.13
60.5948	535.88
60.6092	567.24
60.6237	530.54
60.6381	543.13
60.6526	570.74
60.6670	570.86
60.6814	564.51
60.6959	517.31
60.7103	529.37
60.7248	543.78
60.7392	528.67
60.7536	549.78
60.7681	564.16
60.7825	548.28
60.7970	564.99
60.8114	548.66
60.8258	579.31
60.8403	594.12
60.8547	532.03
60.8692	543.65
60.8836	558.22
60.8980	536.39
60.9125	587.68
60.9269	542.02
60.9414	557.95
60.9558	537.80
60.9702	505.53
60.9847	531.67
60.9991	481.99
61.0136	465.69
61.0280	521.41
61.0424	532.87
61.0569	570.81
61.0713	529.45
61.0858	572.41
61.1002	551.84
61.1146	525.24
61.1291	541.07
61.1435	560.81
61.1580	520.48
61.1724	542.15
61.1868	525.13
61.2013	561.09
61.2157	570.41
61.2302	522.11
61.2446	530.27
61.2590	514.47
61.2735	516.07
61.2879	540.27
61.3024	571.45
61.3168	578.98
61.3312	566.36
61.3457	572.11
61.3601	537.74
61.3746	579.93
61.3890	521.04
61.4034	541.72
61.4179	550.33
61.4323	527.28
61.4468	505.73
61.4612	526.74
61.4756	542.03
61.4901	541.44
61.5045	494.92
61.5190	494.40
61.5334	553.96
61.5478	532.60
61.5623	545.11
61.5767	523.57
61.5912	515.18
61.6056	550.48
61.6200	544.14
61.6345	573.84
61.6489	567.44
61.6634	567.29
61.6778	540.44
61.6922	563.78
61.7067	561.03
61.7211	573.46
61.7356	567.22
61.7500	565.34
61.7644	513.95
61.7789	530.53
61.7933	568.36
61.8078	552.22
61.8222	520.21
61.8366	550.81
61.8511	533.64
61.8655	526.16
61.8800	559.50
61.8944	583.20
61.9088	579.12
61.9233	555.52
61.9377	581.61
61.9522	569.07
61.9666	541.03
61.9810	579.93
61.9955	577.26
62.0099	511.03
62.0244	531.19
62.0388	538.38
62.0532	528.87
62.0677	560.80
62.0821	554.36
62.0966	566.42
62.1110	551.37
62.1254	543.05
62.1399	545.01
62.1543	547.75
62.1688	555.46
62.1832	558.43
62.1976	537.70
62.2121	550.62
62.2265	542.59
62.2410	561.90
62.2554	560.32
62.2698	531.44
62.2843	544.46
62.2987	567.70
62.3132	558.49
62.3276	543.49
62.3420	575.99
62.3565	536.49
62.3709	541.94
62.3854	553.52
62.3998	534.67
62.4142	503.30
62.4287	543.70
62.4431	564.07
62.4576	574.88
62.4720	580.36
62.4864	551.22
62.5009	545.63
62.5153	570.68
62.5298	548.73
62.5442	550.29
62.5586	535.63
62.5731	562.73
62.5875	573.50
62.6020	554.64
62.6164	520.02
62.6308	564.00
62.6453	573.44
62.6597	549.55
62.6742	546.78
62.6886	554.28
62.7030	555.25
62.7175	574.02
62.7319	574.88
62.7464	566.49
62.7608	544.50
62.7752	572.74
62.7897	593.22
62.8041	575.84
62.8186	579.83
62.8330	581.58
62.8474	554.32
62.8619	586.24
62.8763	574.87
62.8908	551.17
62.9052	571.18
62.9196	541.71
62.9341	563.76
62.9485	564.97
62.9630	570.26
62.9774	571.91
62.9918	565.82
63.0063	559.35
63.0207	557.50
63.0352	554.93
63.0496	548.61
63.0640	546.88
63.0785	556.76
63.0929	577.13
63.1074	568.93
63.1218	586.78
63.1362	603.89
63.1507	548.91
63.1651	546.74
63.1796	571.74
63.1940	567.03
63.2084	594.72
63.2229	595.45
63.2373	577.88
63.2518	573.18
63.2662	580.23
63.2806	576.15
63.2951	566.16
63.3095	577.24
63.3240	572.02
63.3384	605.53
63.3528	590.71
63.3673	564.64
63.3817	566.30
63.3962	578.64
63.4106	573.62
63.4250	608.72
63.4395	586.68
63.4539	598.54
63.4684	642.50
63.4828	612.99
63.4972	651.50
63.5117	630.73
63.5261	649.79
63.5406	641.92
63.5550	648.62
63.5694	644.59
63.5839	669.17
63.5983	735.87
63.6128	716.89
63.6272	743.65
63.6416	789.17
63.6561	828.05
63.6705	854.14
63.6850	930.77
63.6994	971.43
63.7138	921.72
63.7283	866.31
63.7427	852.33
63.7572	878.69
63.7716	846.23
63.7861	833.99
63.8005	808.36
63.8149	779.27
63.8294	837.74
63.8438	803.82
63.8583	819.54
63.8727	803.56
63.8871	799.08
63.9016	812.12
63.9160	809.06
63.9305	774.94
63.9449	733.42
63.9593	703.33
63.9738	764.95
63.9882	702.07
64.0027	625.71
64.0171	667.52
64.0315	678.77
64.0460	612.55
64.0604	632.56
64.0749	607.28
64.0893	620.44
64.1037	631.16
64.1182	637.25
64.1326	621.47
64.1471	610.14
64.1615	599.62
64.1759	597.29
64.1904	630.46
64.2048	588.17
64.2193	627.60
64.2337	633.53
64.2481	639.50
64.2626	606.65
64.2770	609.22
64.2915	605.10
64.3059	625.26
64.3203	610.45
64.3348	634.50
64.3492	615.71
64.3637	605.38
64.3781	584.31
64.3925	613.59
64.4070	598.39
64.4214	613.60
64.4359	649.92
64.4503	629.45
64.4647	607.97
64.4792	625.98
64.4936	633.25
64.5081	663.86
64.5225	630.89
64.5369	660.89
64.5514	639.25
64.5658	629.92
64.5803	614.46
64.5947	651.74
64.6091	621.32
64.6236	665.34
64.6380	672.00
64.6525	665.41
64.6669	685.13
64.6813	669.81
64.6958	649.77
64.7102	669.35
64.7247	678.34
64.7391	660.08
64.7535	686.29
64.7680	709.69
64.7824	699.70
64.7969	723.77
64.8113	741.58
64.8257	725.23
64.8402	791.59
64.8546	805.84
64.8691	790.75
64.8835	840.86
64.8979	816.33
64.9124	883.46
64.9268	906.79
64.9413	941.57
64.9557	989.89
64.9701	954.06
64.9846	1059.38
64.9990	1162.40
65.0135	1260.09
65.0279	1434.73
65.0423	1714.12
65.0568	2033.85
65.0712	2535.34
65.0857	3400.43
65.1001	4588.90
65.1145	6080.14
65.1290	7825.64
65.1434	9501.00
65.1579	11027.16
65.1723	11919.70
65.1867	11356.53
65.2012	10180.36
65.2156	8503.97
65.2301	6708.19
65.2445	5349.35
65.2589	4508.03
65.2734	4304.31
65.2878	4439.85
65.3023	4944.83
65.3167	5639.12
65.3311	6587.95
65.3456	7075.88
65.3600	7094.03
65.3745	6533.64
65.3889	5614.36
65.4033	4520.39
65.4178	3522.20
65.4322	2761.35
65.4467	2180.61
65.4611	1691.10
65.4755	1490.04
65.4900	1251.97
65.5044	1153.17
65.5189	1070.02
65.5333	1026.97
65.5477	966.05
65.5622	918.12
65.5766	812.05
65.5911	788.99
65.6055	814.52
65.6199	755.88
65.6344	767.19
65.6488	733.84
65.6633	721.45
65.6777	705.30
65.6921	671.03
65.7066	728.58
65.7210	685.44
65.7355	680.34
65.7499	675.64
65.7643	667.54
65.7788	717.35
65.7932	717.24
65.8077	661.10
65.8221	705.60
65.8365	678.89
65.8510	645.85
65.8654	646.07
65.8799	670.10
65.8943	630.27
65.9087	649.53
65.9232	649.27
65.9376	654.15
65.9521	649.71
65.9665	656.94
65.9809	645.93
65.9954	647.29
66.0098	610.45
66.0243	618.66
66.0387	615.96
66.0531	620.36
66.0676	653.23
66.0820	650.58
66.0965	656.10
66.1109	632.49
66.1253	642.54
66.1398	636.49
66.1542	632.44
66.1687	640.34
66.1831	616.03
66.1975	599.30
66.2120	610.47
66.2264	583.33
66.2409	598.09
66.2553	626.33
66.2697	601.73
66.2842	572.74
66.2986	572.05
66.3131	624.31
66.3275	605.75
66.3419	587.02
66.3564	567.89
66.3708	581.71
66.3853	600.53
66.3997	581.10
66.4141	574.91
66.4286	628.68
66.4430	597.93
66.4575	589.91
66.4719	605.99
66.4863	589.62
66.5008	605.95
66.5152	582.70
66.5297	603.62
66.5441	623.66
66.5585	598.44
66.5730	585.85
66.5874	576.95
66.6019	612.54
66.6163	622.43
66.6307	608.47
66.6452	610.52
66.6596	589.41
66.6741	588.86
66.6885	588.36
66.7029	609.66
66.7174	624.46
66.7318	580.46
66.7463	586.53
66.7607	581.88
66.7751	566.83
66.7896	587.34
66.8040	575.31
66.8185	596.05
66.8329	588.87
66.8473	620.14
66.8618	610.67
66.8762	587.47
66.8907	578.78
66.9051	619.44
66.9195	639.29
66.9340	584.64
66.9484	596.14
66.9629	593.81
66.9773	597.85
66.9917	577.22
67.0062	572.74
67.0206	592.90
67.0351	596.62
67.0495	571.73
67.0639	569.73
67.0784	594.79
67.0928	667.77
67.1073	610.01
67.1217	588.43
67.1361	577.68
67.1506	544.01
67.1650	564.85
67.1795	571.27
67.1939	548.79
67.2083	607.57
67.2228	617.55
67.2372	608.51
67.2517	586.09
67.2661	567.26
67.2805	591.47
67.2950	574.78
67.3094	600.12
67.3239	607.73
67.3383	565.94
67.3527	552.86
67.3672	582.07
67.3816	572.09
67.3961	578.23
67.4105	590.67
67.4250	570.41
67.4394	595.00
67.4538	548.45
67.4683	603.16
67.4827	587.59
67.4972	574.19
67.5116	537.04
67.5260	563.05
67.5405	585.34
67.5549	580.15
67.5694	592.93
67.5838	578.99
67.5982	607.20
67.6127	606.69
67.6271	596.12
67.6416	560.21
67.6560	559.94
67.6704	573.33
67.6849	544.31
67.6993	558.58
67.7138	577.38
67.7282	541.68
67.7426	554.18
67.7571	546.32
67.7715	557.48
67.7860	545.90
67.8004	574.44
67.8148	590.02
67.8293	582.08
67.8437	553.65
67.8582	576.11
67.8726	603.98
67.8870	600.29
67.9015	588.10
67.9159	587.02
67.9304	617.37
67.9448	612.78
67.9592	518.43
67.9737	541.12
67.9881	544.15
68.0026	578.38
68.0170	575.32
68.0314	506.55
68.0459	567.40
68.0603	622.10
68.0748	577.70
68.0892	573.21
68.1036	585.50
68.1181	600.42
68.1325	581.70
68.1470	566.16
68.1614	581.38
68.1758	568.22
68.1903	557.23
68.2047	596.17
68.2192	577.05
68.2336	596.51
68.2480	577.26
68.2625	566.91
68.2769	587.85
68.2914	602.28
68.3058	566.53
68.3202	593.23
68.3347	597.13
68.3491	580.37
68.3636	589.22
68.3780	602.88
68.3924	572.44
68.4069	620.67
68.4213	611.18
68.4358	596.59
68.4502	551.26
68.4646	583.81
68.4791	570.89
68.4935	586.83
68.5080	573.96
68.5224	534.29
68.5368	574.19
68.5513	590.64
68.5657	601.00
68.5802	595.09
68.5946	582.73
68.6090	568.11
68.6235	569.97
68.6379	574.59
68.6524	578.68
68.6668	560.22
68.6812	561.76
68.6957	564.51
68.7101	601.80
68.7246	574.61
68.7390	561.54
68.7534	577.12
68.7679	602.48
68.7823	573.63
68.7968	553.44
68.8112	581.89
68.8256	611.23
68.8401	550.76
68.8545	593.12
68.8690	585.78
68.8834	603.31
68.8978	542.50
68.9123	537.39
68.9267	575.73
68.9412	535.88
68.9556	529.25
68.9700	589.58
68.9845	534.42
68.9989	614.03
69.0134	544.88
69.0278	574.44
69.0422	591.36
69.0567	573.87
69.0711	578.79
69.0856	580.24
69.1000	580.99
69.1144	535.69
69.1289	593.82
69.1433	539.95
69.1578	558.29
69.1722	652.10
69.1866	582.32
69.2011	591.86
69.2155	585.34
69.2300	582.51
69.2444	563.64
69.2588	574.44
69.2733	578.61
69.2877	604.65
69.3022	554.27
69.3166	581.58
69.3310	585.51
69.3455	588.44
69.3599	560.74
69.3744	566.88
69.3888	602.99
69.4032	605.76
69.4177	584.13
69.4321	641.69
69.4466	567.45
69.4610	557.84
69.4754	585.99
69.4899	561.24
69.5043	600.47
69.5188	595.22
69.5332	579.99
69.5476	601.34
69.5621	625.98
69.5765	587.58
69.5910	568.18
69.6054	578.68
69.6198	553.91
69.6343	567.85
69.6487	559.74
69.6632	545.13
69.6776	662.63
69.6920	582.25
69.7065	593.27
69.7209	593.82
69.7354	576.58
69.7498	570.23
69.7642	587.53
69.7787	590.21
69.7931	593.09
69.8076	571.76
69.8220	551.85
69.8364	675.92
69.8509	599.53
69.8653	543.15
69.8798	594.85
69.8942	644.40
69.9086	574.51
69.9231	587.15
69.9375	558.22
69.9520	572.63
69.9664	574.04
69.9808	590.11
69.9953	597.27
70.0097	608.15
70.0242	624.88
70.0386	604.70
70.0530	592.32
70.0675	605.89
70.0819	618.32
70.0964	595.35
70.1108	580.69
70.1252	579.61
70.1397	571.15
70.1541	511.61
70.1686	594.78
70.1830	609.51
70.1974	569.54
70.2119	573.29
70.2263	562.74
70.2408	555.56
70.2552	546.74
70.2696	522.07
70.2841	566.73
70.2985	551.85
70.3130	576.37
70.3274	556.92
70.3418	566.49
70.3563	555.98
70.3707	574.67
70.3852	561.97
70.3996	586.82
70.4140	565.45
70.4285	634.29
70.4429	621.95
70.4574	569.11
70.4718	619.41
70.4862	566.06
70.5007	565.72
70.5151	557.52
70.5296	565.06
70.5440	584.78
70.5584	624.49
70.5729	572.80
70.5873	591.98
70.6018	555.20
70.6162	528.33
70.6306	581.29
70.6451	589.96
70.6595	583.72
70.6740	554.92
70.6884	581.94
70.7028	639.58
70.7173	593.73
70.7317	568.46
70.7462	583.33
70.7606	511.68
70.7750	613.18
70.7895	634.39
70.8039	617.05
70.8184	593.92
70.8328	585.68
70.8472	557.41
70.8617	569.81
70.8761	581.94
70.8906	577.23
70.9050	587.65
70.9194	651.50
70.9339	657.92
70.9483	603.17
70.9628	544.02
70.9772	531.79
70.9916	596.42
71.0061	556.53
71.0205	572.25
71.0350	595.57
71.0494	577.78
71.0638	594.10
71.0783	573.85
71.0927	530.03
71.1072	572.53
71.1216	599.09
71.1361	612.91
71.1505	557.25
71.1649	566.96
71.1794	586.61
71.1938	567.52
71.2083	592.84
71.2227	563.03
71.2371	590.98
71.2516	625.49
71.2660	592.81
71.2805	576.76
71.2949	551.30
71.3093	568.87
71.3238	558.88
71.3382	573.28
71.3527	576.51
71.3671	591.25
71.3815	560.49
71.3960	568.99
71.4104	587.89
71.4249	587.38
71.4393	603.03
71.4537	603.75
71.4682	583.98
71.4826	569.74
71.4971	546.63
71.5115	548.68
71.5259	548.69
71.5404	579.88
71.5548	617.25
71.5693	628.38
71.5837	599.58
71.5981	550.48
71.6126	567.11
71.6270	604.36
71.6415	655.04
71.6559	644.16
71.6703	600.90
71.6848	557.62
71.6992	592.16
71.7137	562.67
71.7281	498.93
71.7425	557.88
71.7570	596.50
71.7714	633.07
71.7859	609.62
71.8003	597.15
71.8147	607.87
71.8292	600.02
71.8436	570.84
71.8581	549.57
71.8725	535.82
71.8869	539.22
71.9014	627.15
71.9158	627.34
71.9303	605.58
71.9447	580.49
71.9591	582.03
71.9736	639.15
71.9880	635.07
72.0025	576.68
72.0169	509.35
72.0313	524.17
72.0458	512.68
72.0602	523.20
72.0747	548.78
72.0891	622.74
72.1035	672.67
72.1180	607.17
72.1324	601.43
72.1469	607.77
72.1613	609.03
72.1757	592.35
72.1902	623.61
72.2046	652.70
72.2191	603.84
72.2335	606.67
72.2479	636.04
72.2624	599.50
72.2768	595.30
72.2913	563.20
72.3057	532.08
72.3201	533.19
72.3346	584.92
72.3490	601.15
72.3635	616.31
72.3779	662.38
72.3923	594.27
72.4068	520.22
72.4212	587.67
72.4357	639.14
72.4501	596.55
72.4645	604.57
72.4790	643.87
72.4934	598.71
72.5079	553.15
72.5223	532.29
72.5367	577.37
72.5512	670.52
72.5656	606.31
72.5801	547.97
72.5945	580.66
72.6089	575.27
72.6234	608.70
72.6378	637.27
72.6523	604.41
72.6667	555.68
72.6811	595.03
72.6956	592.90
72.7100	551.19
72.7245	537.72
72.7389	555.51
72.7533	595.91
72.7678	575.15
72.7822	653.95
72.7967	642.36
72.8111	647.96
72.8255	595.97
72.8400	611.94
72.8544	605.96
72.8689	606.44
72.8833	645.65

Result vector
22.1120	565.79
22.1264	588.61
22.1409	553.97
22.1553	558.29
22.1697	527.12
22.1842	603.02
22.1986	651.44
22.2131	553.62
22.2275	596.55
22.2419	564.39
22.2564	635.25
22.2708	558.98
22.2853	561.71
22.2997	639.21
22.3141	711.52
22.3286	644.10
22.3430	614.89
22.3575	567.12
22.3719	623.33
22.3863	542.52
22.4008	565.13
22.4152	584.70
22.4297	648.33
22.4441	670.56
22.4585	601.52
22.4730	665.61
22.4874	624.10
22.5019	659.18
22.5163	579.21
22.5307	617.00
22.5452	565.46
22.5596	613.98
22.5741	658.21
22.5885	564.79
22.6029	550.57
22.6174	556.92
22.6318	582.07
22.6463	607.01
22.6607	637.92
22.6751	452.58
22.6896	541.07
22.7040	591.53
22.7185	623.44
22.7329	564.48
22.7473	504.22
22.7618	473.23
22.7762	516.73
22.7907	582.32
22.8051	564.56
22.8195	517.91
22.8340	570.80
22.8484	573.64
22.8629	585.31
22.8773	621.02
22.8917	575.05
22.9062	508.95
22.9206	447.03
22.9351	576.33
22.9495	638.64
22.9639	540.74
22.9784	523.03
22.9928	559.61
23.0073	523.05
23.0217	560.63
23.0361	544.31
23.0506	458.90
23.0650	485.34
23.0795	609.52
23.0939	536.72
23.1083	582.97
23.1228	555.64
23.1372	557.72
23.1517	546.17
23.1661	507.41
23.1806	595.11
23.1950	526.82
23.2094	532.20
23.2239	584.24
23.2383	543.43
23.2528	606.95
23.2672	557.16
23.2816	561.99
23.2961	629.43
23.3105	614.79
23.3250	536.72
23.3394	579.24
23.3538	581.60
23.3683	584.14
23.3827	542.45
23.3972	520.87
23.4116	619.85
23.4260	612.08
23.4405	592.95
23.4549	631.44
23.4694	535.02
23.4838	501.99
23.4982	542.38
23.5127	529.30
23.5271	502.60
23.5416	596.36
23.5560	565.91
23.5704	572.31
23.5849	538.61
23.5993	535.48
23.6138	557.70
23.6282	492.65
23.6426	531.31
23.6571	622.40
23.6715	561.78
23.6860	550.46
23.7004	558.99
23.7148	546.91
23.7293	545.22
23.7437	526.32
23.7582	548.41
23.7726	554.43
23.7870	462.26
23.8015	531.04
23.8159	551.83
23.8304	595.72
23.8448	555.27
23.8592	577.66
23.8737	597.12
23.8881	574.28
23.9026	639.82
23.9170	573.82
23.9314	534.10
23.9459	638.50
23.9603	572.87
23.9748	606.97
23.9892	528.79
24.0036	574.14
24.0181	541.21
24.0325	590.91
24.0470	597.08
24.0614	513.96
24.0758	514.64
24.0903	548.17
24.1047	528.62
24.1192	614.15
24.1336	556.64
24.1480	572.92
24.1625	576.28
24.1769	591.80
24.1914	622.85
24.2058	589.54
24.2202	559.07
24.2347	562.28
24.2491	580.83
24.2636	606.95
24.2780	648.66
24.2924	574.68
24.3069	593.14
24.3213	574.46
24.3358	544.85
24.3502	542.45
24.3646	579.98
24.3791	561.22
24.3935	563.82
24.4080	529.51
24.4224	549.55
24.4368	569.43
24.4513	514.74
24.4657	541.53
24.4802	551.20
24.4946	537.40
24.5090	567.82
24.5235	589.05
24.5379	605.24
24.5524	594.04
24.5668	537.26
24.5812	568.43
24.5957	545.20
24.6101	575.21
24.6246	531.40
24.6390	547.68
24.6534	533.53
24.6679	543.27
24.6823	532.18
24.6968	559.62
24.7112	524.98
24.7256	554.92
24.7401	513.09
24.7545	531.04
24.7690	575.73
24.7834	516.92
24.7978	501.68
24.8123	554.81
24.8267	593.80
24.8412	514.11
24.8556	585.53
24.8700	564.23
24.8845	571.89
24.8989	558.31
24.9134	516.23
24.9278	562.13
24.9422	557.44
24.9567	545.49
24.9711	576.66
24.9856	581.36
25.0000	517.28
25.0144	556.30
25.0289	582.47
25.0433	532.57
25.0578	615.68
25.0722	580.81
25.0866	561.69
25.1011	538.48
25.1155	561.77
25.1300	536.85
25.1444	505.72
25.1588	544.25
25.1733	558.86
25.1877	532.21
25.2022	536.71
25.2166	568.04
25.2310	515.16
25.2455	564.50
25.2599	568.26
25.2744	578.20
25.2888	587.87
25.3032	559.40
25.3177	565.10
25.3321	530.52
25.3466	505.34
25.3610	524.12
25.3754	542.35
25.3899	558.66
25.4043	558.07
25.4188	514.30
25.4332	516.38
25.4476	530.93
25.4621	562.35
25.4765	528.56
25.4910	565.69
25.5054	557.17
25.5198	529.33
25.5343	522.69
25.5487	558.05
25.5632	583.92
25.5776	574.87
25.5920	572.95
25.6065	557.55
25.6209	543.30
25.6354	561.48
25.6498	537.78
25.6642	550.68
25.6787	523.54
25.6931	518.73
25.7076	515.14
25.7220	520.13
25.7364	527.34
25.7509	601.47
25.7653	553.39
25.7798	548.88
25.7942	549.52
25.8086	573.82
25.8231	556.80
25.8375	519.61
25.8520	528.70
25.8664	565.93
25.8808	561.04
25.8953	564.58
25.9097	549.53
25.9242	559.22
25.9386	580.02
25.9530	538.20
25.9675	523.67
25.9819	567.10
25.9964	575.56
26.0108	516.10
26.0252	571.23
26.0397	541.38
26.0541	486.19
26.0686	504.89
26.0830	516.11
26.0974	530.82
26.1119	556.25
26.1263	570.20
26.1408	529.38
26.1552	521.25
26.1696	546.20
26.1841	560.61
26.1985	556.96
26.2130	545.46
26.2274	533.29
26.2418	513.36
26.2563	502.42
26.2707	518.10
26.2852	552.19
26.2996	549.22
26.3140	539.48
26.3285	510.69
26.3429	501.48
26.3574	515.52
26.3718	553.96
26.3862	524.09
26.4007	498.26
26.4151	492.87
26.4296	509.83
26.4440	489.62
26.4584	503.89
26.4729	505.89
26.4873	503.74
26.5018	508.90
26.5162	524.09
26.5306	534.12
26.5451	545.14
26.5595	515.58
26.5740	566.99
26.5884	542.72
26.6028	539.67
26.6173	542.82
26.6317	565.48
26.6462	538.81
26.6606	529.87
26.6750	548.52
26.6895	532.30
26.7039	537.84
26.7184	514.55
26.7328	520.90
26.7472	554.69
26.7617	553.77
26.7761	551.04
26.7906	556.06
26.8050	543.73
26.8194	530.00
26.8339	511.22
26.8483	498.42
26.8628	543.65
26.8772	542.33
26.8917	536.49
26.9061	526.41
26.9205	492.26
26.9350	509.04
26.9494	530.79
26.9639	528.30
26.9783	525.82
26.9927	519.85
27.0072	545.47
27.0216	523.32
27.0361	510.63
27.0505	493.95
27.0649	510.80
27.0794	537.97
27.0938	521.92
27.1083	519.73
27.1227	559.79
27.1371	555.04
27.1516	522.62
27.1660	510.46
27.1805	508.67
27.1949	533.17
27.2093	545.21
27.2238	530.63
27.2382	538.06
27.2527	520.91
27.2671	501.87
27.2815	532.30
27.2960	501.22
27.3104	516.22
27.3249	523.76
27.3393	519.98
27.3537	506.30
27.3682	501.93
27.3826	491.97
27.3971	499.03
27.4115	502.90
27.4259	545.86
27.4404	517.63
27.4548	504.10
27.4693	533.73
27.4837	532.81
27.4981	550.75
27.5126	521.76
27.5270	499.85
27.5415	526.02
27.5559	510.92
27.5703	506.32
27.5848	524.85
27.5992	530.96
27.6137	524.68
27.6281	526.24
27.6425	521.29
27.6570	498.73
27.6714	497.13
27.6859	500.99
27.7003	500.30
27.7147	503.45
27.7292	522.43
27.7436	500.03
27.7581	522.86
27.7725	510.59
27.7869	546.37
27.8014	531.91
27.8158	524.43
27.8303	538.01
27.8447	516.90
27.8591	502.44
27.8736	536.38
27.8880	542.95
27.9025	564.35
27.9169	543.66
27.9313	509.16
27.9458	526.47
27.9602	503.01
27.9747	493.64
27.9891	492.13
28.0035	509.91
28.0180	512.40
28.0324	496.86
28.0469	518.61
28.0613	515.08
28.0757	529.00
28.0902	524.35
28.1046	523.52
28.1191	528.02
28.1335	515.33
28.1479	488.39
28.1624	490.79
28.1768	526.71
28.1913	509.41
28.2057	539.84
28.2201	505.70
28.2346	499.03
28.2490	527.47
28.2635	514.86
28.2779	521.96
28.2923	513.61
28.3068	517.81
28.3212	503.58
28.3357	520.48
28.3501	509.14
28.3645	483.41
28.3790	501.14
28.3934	504.18
28.4079	511.19
28.4223	527.65
28.4367	549.41
28.4512	514.09
28.4656	508.42
28.4801	510.93
28.4945	527.73
28.5089	511.35
28.5234	517.21
28.5378	548.58
28.5523	528.18
28.5667	519.60
28.5811	502.40
28.5956	546.01
28.6100	545.59
28.6245	509.17
28.6389	530.32
28.6533	488.90
28.6678	484.54
28.6822	515.87
28.6967	519.67
28.7111	519.60
28.7255	504.53
28.7400	490.16
28.7544	520.63
28.7689	532.64
28.7833	551.75
28.7977	524.02
28.8122	484.16
28.8266	498.86
28.8411	522.97
28.8555	498.43
28.8699	516.60
28.8844	491.86
28.8988	515.48
28.9133	483.05
28.9277	509.93
28.9421	532.52
28.9566	533.06
28.9710	489.64
28.9855	522.26
28.9999	546.86
29.0143	532.04
29.0288	510.10
29.0432	514.64
29.0577	541.91
29.0721	532.76
29.0865	546.50
29.1010	507.92
29.1154	560.79
29.1299	541.06
29.1443	509.43
29.1587	491.75
29.1732	512.29
29.1876	522.80
29.2021	526.05
29.2165	524.78
29.2309	550.78
29.2454	492.47
29.2598	500.33
29.2743	526.56
29.2887	509.06
29.3031	525.65
29.3176	512.31
29.3320	522.06
29.3465	502.16
29.3609	532.36
29.3753	510.89
29.3898	505.07
29.4042	513.30
29.4187	494.35
29.4331	519.50
29.4475	520.70
29.4620	486.88
29.4764	523.67
29.4909	500.62
29.5053	500.94
29.5197	522.64
29.5342	503.08
29.5486	496.27
29.5631	513.20
29.5775	513.59
29.5919	489.34
29.6064	533.23
29.6208	501.82
29.6353	488.29
29.6497	499.19
29.6641	500.55
29.6786	515.29
29.6930	506.48
29.7075	522.19
29.7219	504.39
29.7363	534.03
29.7508	514.39
29.7652	503.53
29.7797	482.00
29.7941	449.71
29.8085	488.34
29.8230	510.91
29.8374	514.01
29.8519	501.81
29.8663	507.71
29.8807	496.47
29.8952	491.64
29.9096	515.70
29.9241	498.47
29.9385	504.54
29.9529	495.95
29.9674	516.51
29.9818	493.54
29.9963	503.74
30.0107	520.22
30.0251	502.02
30.0396	525.51
30.0540	510.62
30.0685	526.16
30.0829	525.59
30.0973	499.27
30.1118	512.78
30.1262	494.20
30.1407	490.33
30.1551	484.44
30.1695	495.52
30.1840	499.52
30.1984	499.47
30.2129	513.82
30.2273	526.48
30.2417	502.52
30.2562	516.99
30.2706	500.65
30.2851	487.70
30.2995	541.24
30.3139	468.37
30.3284	509.71
30.3428	536.04
30.3573	505.97
30.3717	524.43
30.3861	529.76
30.4006	512.16
30.4150	501.33
30.4295	542.72
30.4439	509.56
30.4583	511.61
30.4728	543.59
30.4872	542.77
30.5017	543.84
30.5161	566.28
30.5305	593.40
30.5450	590.66
30.5594	620.05
30.5739	630.12
30.5883	679.67
30.6028	703.98
30.6172	711.74
30.6316	743.11
30.6461	735.72
30.6605	758.55
30.6750	690.87
30.6894	697.87
30.7038	700.80
30.7183	650.12
30.7327	642.10
30.7472	667.05
30.7616	599.51
30.7760	574.65
30.7905	550.94
30.8049	555.49
30.8194	534.71
30.8338	534.64
30.8482	547.41
30.8627	547.82
30.8771	524.66
30.8916	536.16
30.9060	520.34
30.9204	510.52
30.9349	506.30
30.9493	504.25
30.9638	510.93
30.9782	501.24
30.9926	531.30
31.0071	528.50
31.0215	520.64
31.0360	520.64
31.0504	516.59
31.0648	498.66
31.0793	498.49
31.0937	524.38
31.1082	528.14
31.1226	545.91
31.1370	512.35
31.1515	482.53
31.1659	530.48
31.1804	533.48
31.1948	512.54
31.2092	506.90
31.2237	530.35
31.2381	529.72
31.2526	510.88
31.2670	527.66
31.2814	548.42
31.2959	513.02
31.3103	523.38
31.3248	522.71
31.3392	544.02
31.3536	519.50
31.3681	536.81
31.3825	535.89
31.3970	535.14
31.4114	528.29
31.4258	551.24
31.4403	516.09
31.4547	481.48
31.4692	524.64
31.4836	522.30
31.4980	513.26
31.5125	502.03
31.5269	502.79
31.5414	464.87
31.5558	482.80
31.5702	506.65
31.5847	497.33
31.5991	504.81
31.6136	508.82
31.6280	472.94
31.6424	474.90
31.6569	508.70
31.6713	492.69
31.6858	473.01
31.7002	516.25
31.7146	516.71
31.7291	479.72
31.7435	496.23
31.7580	518.42
31.7724	500.90
31.7868	468.63
31.8013	490.39
31.8157	553.70
31.8302	514.79
31.8446	482.92
31.8590	524.32
31.8735	538.94
31.8879	529.05
31.9024	516.53
31.9168	499.29
31.9312	536.31
31.9457	550.98
31.9601	540.76
31.9746	538.89
31.9890	502.35
32.0034	496.84
32.0179	533.68
32.0323	516.53
32.0468	502.77
32.0612	502.31
32.0756	529.84
32.0901	539.50
32.1045	523.24
32.1190	477.90
32.1334	510.52
32.1478	523.02
32.1623	507.59
32.1767	505.55
32.1912	516.02
32.2056	501.23
32.2200	509.56
32.2345	527.54
32.2489	523.15
32.2634	525.03
32.2778	519.45
32.2922	512.49
32.3067	497.79
32.3211	512.20
32.3356	518.58
32.3500	493.24
32.3644	484.05
32.3789	513.25
32.3933	536.27
32.4078	490.37
32.4222	503.58
32.4366	538.35
32.4511	510.10
32.4655	522.03
32.4800	499.68
32.4944	489.06
32.5088	515.96
32.5233	506.84
32.5377	535.56
32.5522	532.26
32.5666	544.02
32.5810	526.23
32.5955	493.69
32.6099	493.05
32.6244	484.60
32.6388	521.39
32.6532	521.36
32.6677	465.29
32.6821	509.80
32.6966	472.89
32.7110	500.61
32.7254	509.38
32.7399	484.77
32.7543	488.08
32.7688	493.13
32.7832	497.85
32.7976	482.09
32.8121	501.92
32.8265	525.85
32.8410	479.49
32.8554	513.70
32.8698	498.18
32.8843	525.02
32.8987	541.58
32.9132	474.47
32.9276	503.51
32.9420	558.85
32.9565	516.03
32.9709	499.92
32.9854	527.05
32.9998	490.85
33.0142	490.64
33.0287	516.74
33.0431	490.70
33.0576	514.31
33.0720	517.71
33.0864	508.69
33.1009	518.75
33.1153	529.12
33.1298	493.46
33.1442	486.07
33.1586	529.86
33.1731	480.26
33.1875	498.06
33.2020	509.93
33.2164	515.14
33.2308	499.51
33.2453	518.96
33.2597	507.93
33.2742	481.98
33.2886	489.82
33.3030	514.31
33.3175	510.80
33.3319	493.23
33.3464	533.68
33.3608	487.48
33.3752	494.48
33.3897	515.07
33.4041	507.11
33.4186	497.58
33.4330	509.12
33.4474	509.30
33.4619	514.85
33.4763	521.24
33.4908	511.26
33.5052	514.01
33.5196	504.00
33.5341	507.61
33.5485	508.32
33.5630	521.14
33.5774	487.13
33.5918	497.69
33.6063	501.52
33.6207	522.00
33.6352	539.04
33.6496	509.61
33.6640	525.15
33.6785	504.21
33.6929	484.39
33.7074	528.26
33.7218	513.49
33.7362	510.49
33.7507	512.21
33.7651	516.79
33.7796	527.06
33.7940	527.48
33.8084	503.31
33.8229	515.97
33.8373	510.88
33.8518	505.39
33.8662	522.01
33.8806	510.86
33.8951	471.59
33.9095	483.77
33.9240	503.23
33.9384	496.31
33.9528	465.51
33.9673	491.76
33.9817	447.94
33.9962	497.10
34.0106	497.47
34.0250	489.56
34.0395	504.21
34.0539	473.27
34.0684	526.34
34.0828	545.16
34.0972	517.61
34.1117	491.87
34.1261	508.20
34.1406	454.77
34.1550	460.08
34.1694	526.76
34.1839	491.56
34.1983	476.15
34.2128	491.54
34.2272	508.22
34.2417	529.57
34.2561	526.34
34.2705	516.01
34.2850	515.99
34.2994	512.97
34.3139	506.73
34.3283	508.78
34.3427	497.31
34.3572	487.62
34.3716	528.70
34.3861	522.09
34.4005	513.62
34.4149	502.20
34.4294	525.87
34.4438	528.41
34.4583	497.69
34.4727	483.14
34.4871	529.85
34.5016	520.84
34.5160	496.88
34.5305	519.38
34.5449	494.31
34.5593	485.72
34.5738	524.61
34.5882	494.83
34.6027	508.42
34.6171	514.07
34.6315	500.25
34.6460	526.34
34.6604	505.00
34.6749	511.92
34.6893	503.72
34.7037	515.74
34.7182	528.32
34.7326	531.73
34.7471	504.34
34.7615	513.57
34.7759	517.81
34.7904	498.05
34.8048	503.40
34.8193	525.16
34.8337	514.86
34.8481	514.97
34.8626	545.33
34.8770	525.94
34.8915	493.00
34.9059	496.56
34.9203	491.11
34.9348	520.63
34.9492	525.98
34.9637	526.03
34.9781	520.44
34.9925	503.04
35.0070	505.11
35.0214	521.54
35.0359	534.94
35.0503	527.82
35.0647	502.43
35.0792	519.89
35.0936	529.45
35.1081	549.89
35.1225	524.89
35.1369	511.59
35.1514	486.52
35.1658	516.43
35.1803	529.02
35.1947	535.79
35.2091	506.32
35.2236	508.47
35.2380	525.89
35.2525	519.50
35.2669	482.56
35.2813	477.57
35.2958	517.49
35.3102	501.59
35.3247	494.47
35.3391	493.32
35.3535	473.82
35.3680	492.05
35.3824	512.26
35.3969	485.38
35.4113	511.27
35.4257	523.21
35.4402	543.29
35.4546	545.77
35.4691	509.09
35.4835	548.75
35.4979	549.34
35.5124	528.09
35.5268	517.21
35.5413	507.55
35.5557	566.51
35.5701	536.97
35.5846	515.94
35.5990	550.59
35.6135	513.38
35.6279	496.18
35.6423	509.46
35.6568	523.67
35.6712	569.93
35.6857	600.09
35.7001	669.91
35.7145	712.81
35.7290	710.19
35.7434	644.55
35.7579	601.60
35.7723	593.78
35.7867	605.96
35.8012	634.52
35.8156	635.85
35.8301	615.48
35.8445	642.40
35.8589	673.97
35.8734	743.00
35.8878	855.38
35.9023	1058.75
35.9167	1156.62
35.9311	1357.67
35.9456	2033.85
35.9600	2368.15
35.9745	2100.34
35.9889	2109.04
36.0033	2469.02
36.0178	2565.63
36.0322	2373.03
36.0467	2354.47
36.0611	2208.46
36.0755	2123.40
36.0900	2050.49
36.1044	1882.05
36.1189	1775.93
36.1333	1615.96
36.1477	1399.64
36.1622	1319.77
36.1766	1281.02
36.1911	1066.47
36.2055	1006.26
36.2199	819.31
36.2344	744.53
36.2488	680.91
36.2633	606.86
36.2777	570.26
36.2921	553.54
36.3066	576.98
36.3210	601.58
36.3355	579.57
36.3499	565.14
36.3643	552.04
36.3788	573.54
36.3932	508.02
36.4077	541.55
36.4221	531.77
36.4365	556.30
36.4510	540.00
36.4654	548.47
36.4799	568.84
36.4943	539.27
36.5087	523.72
36.5232	552.09
36.5376	513.14
36.5521	523.88
36.5665	544.12
36.5809	501.20
36.5954	529.37
36.6098	554.29
36.6243	502.27
36.6387	536.61
36.6531	536.50
36.6676	523.76
36.6820	521.05
36.6965	540.47
36.7109	496.94
36.7253	510.26
36.7398	570.53
36.7542	538.39
36.7687	543.13
36.7831	588.88
36.7975	545.32
36.8120	561.01
36.8264	608.38
36.8409	591.87
36.8553	593.26
36.8697	588.15
36.8842	557.11
36.8986	646.47
36.9131	647.61
36.9275	592.27
36.9419	584.02
36.9564	559.06
36.9708	591.37
36.9853	522.46
36.9997	533.18
37.0141	566.62
37.0286	539.95
37.0430	562.08
37.0575	579.26
37.0719	578.21
37.0863	517.72
37.1008	529.98
37.1152	520.20
37.1297	535.57
37.1441	509.18
37.1585	505.18
37.1730	523.70
37.1874	507.07
37.2019	510.22
37.2163	539.53
37.2307	513.88
37.2452	482.49
37.2596	495.13
37.2741	508.84
37.2885	491.80
37.3029	544.23
37.3174	514.29
37.3318	518.04
37.3463	530.56
37.3607	491.12
37.3751	509.94
37.3896	520.75
37.4040	526.44
37.4185	519.14
37.4329	532.98
37.4473	508.10
37.4618	551.03
37.4762	545.35
37.4907	522.10
37.5051	531.82
37.5195	545.85
37.5340	535.84
37.5484	513.94
37.5629	483.82
37.5773	503.03
37.5917	490.54
37.6062	550.14
37.6206	505.30
37.6351	520.13
37.6495	492.23
37.6639	496.30
37.6784	489.96
37.6928	490.30
37.7073	537.68
37.7217	508.45
37.7361	495.11
37.7506	533.94
37.7650	490.10
37.7795	492.72
37.7939	510.34
37.8083	500.86
37.8228	493.88
37.8372	468.80
37.8517	479.56
37.8661	497.34
37.8805	527.21
37.8950	524.59
37.9094	521.49
37.9239	506.16
37.9383	496.33
37.9528	508.68
37.9672	524.82
37.9816	505.93
37.9961	497.63
38.0105	525.81
38.0250	531.24
38.0394	500.82
38.0538	493.38
38.0683	506.46
38.0827	521.19
38.0972	512.39
38.1116	536.67
38.1260	534.49
38.1405	504.30
38.1549	515.91
38.1694	496.04
38.1838	497.33
38.1982	514.71
38.2127	501.50
38.2271	515.98
38.2416	522.52
38.2560	515.53
38.2704	504.67
38.2849	497.62
38.2993	523.60
38.3138	530.43
38.3282	522.00
38.3426	506.28
38.3571	520.49
38.3715	546.66
38.3860	513.89
38.4004	505.05
38.4148	552.44
38.4293	603.66
38.4437	604.78
38.4582	623.21
38.4726	647.64
38.4870	706.13
38.5015	788.69
38.5159	808.99
38.5304	760.45
38.5448	808.68
38.5592	774.98
38.5737	771.56
38.5881	729.67
38.6026	775.76
38.6170	712.99
38.6314	711.75
38.6459	668.45
38.6603	626.29
38.6748	610.88
38.6892	600.98
38.7036	562.86
38.7181	536.43
38.7325	518.43
38.7470	527.59
38.7614	529.45
38.7758	518.80
38.7903	515.79
38.8047	520.33
38.8192	514.15
38.8336	548.19
38.8480	506.82
38.8625	514.29
38.8769	505.47
38.8914	496.72
38.9058	504.26
38.9202	491.17
38.9347	511.77
38.9491	536.49
38.9636	489.99
38.9780	456.75
38.9924	521.13
39.0069	509.87
39.0213	499.66
39.0358	536.08
39.0502	493.14
39.0646	496.57
39.0791	479.49
39.0935	505.02
39.1080	497.60
39.1224	522.77
39.1368	492.84
39.1513	490.26
39.1657	463.34
39.1802	477.35
39.1946	496.68
39.2090	526.56
39.2235	508.64
39.2379	517.49
39.2524	495.86
39.2668	504.10
39.2812	504.70
39.2957	521.96
39.3101	494.76
39.3246	511.82
39.3390	523.21
39.3534	515.58
39.3679	512.75
39.3823	511.80
39.3968	533.48
39.4112	525.08
39.4256	540.22
39.4401	500.97
39.4545	504.05
39.4690	522.25
39.4834	512.60
39.4978	500.22
39.5123	500.32
39.5267	500.24
39.5412	499.70
39.5556	496.94
39.5700	515.79
39.5845	523.15
39.5989	498.45
39.6134	492.14
39.6278	484.73
39.6422	491.10
39.6567	517.26
39.6711	517.15
39.6856	481.47
39.7000	506.90
39.7144	502.66
39.7289	476.24
39.7433	491.28
39.7578	489.86
39.7722	503.66
39.7866	506.89
39.8011	501.55
39.8155	489.67
39.8300	526.08
39.8444	515.21
39.8588	544.20
39.8733	494.67
39.8877	511.25
39.9022	523.53
39.9166	474.57
39.9310	469.90
39.9455	493.46
39.9599	495.16
39.9744	466.16
39.9888	497.18
40.0032	490.05
40.0177	499.13
40.0321	514.22
40.0466	490.55
40.0610	506.81
40.0754	486.13
40.0899	512.80
40.1043	496.93
40.1188	512.51
40.1332	504.04
40.1476	482.31
40.1621	498.01
40.1765	484.89
40.1910	478.73
40.2054	495.89
40.2198	499.90
40.2343	508.31
40.2487	521.53
40.2632	500.15
40.2776	470.50
40.2920	487.61
40.3065	520.25
40.3209	500.16
40.3354	512.46
40.3498	504.50
40.3642	513.41
40.3787	515.32
40.3931	496.33
40.4076	516.13
40.4220	481.26
40.4364	507.08
40.4509	487.89
40.4653	512.02
40.4798	479.82
40.4942	476.90
40.5086	451.13
40.5231	484.53
40.5375	494.06
40.5520	501.28
40.5664	527.66
40.5808	515.42
40.5953	491.65
40.6097	493.57
40.6242	504.89
40.6386	507.92
40.6530	486.41
40.6675	478.99
40.6819	469.01
40.6964	497.80
40.7108	520.97
40.7252	496.32
40.7397	477.83
40.7541	509.48
40.7686	503.93
40.7830	521.93
40.7974	491.67
40.8119	514.56
40.8263	528.99
40.8408	491.77
40.8552	472.01
40.8696	478.31
40.8841	488.07
40.8985	540.05
40.9130	505.83
40.9274	475.13
40.9418	492.39
40.9563	491.60
40.9707	486.37
40.9852	552.40
40.9996	508.50
41.0140	538.08
41.0285	523.02
41.0429	492.56
41.0574	486.10
41.0718	488.37
41.0862	544.61
41.1007	492.68
41.1151	504.94
41.1296	543.71
41.1440	503.66
41.1584	501.43
41.1729	519.01
41.1873	509.42
41.2018	488.27
41.2162	537.72
41.2306	482.24
41.2451	505.31
41.2595	506.67
41.2740	489.53
41.2884	476.62
41.3028	507.32
41.3173	500.27
41.3317	486.02
41.3462	522.23
41.3606	503.30
41.3750	505.99
41.3895	485.62
41.4039	525.83
41.4184	495.56
41.4328	538.42
41.4472	524.55
41.4617	488.71
41.4761	498.88
41.4906	479.70
41.5050	491.67
41.5194	489.20
41.5339	486.94
41.5483	517.77
41.5628	512.45
41.5772	458.69
41.5916	490.17
41.6061	553.47
41.6205	492.03
41.6350	535.49
41.6494	510.15
41.6639	526.82
41.6783	509.12
41.6927	495.56
41.7072	507.54
41.7216	530.56
41.7361	479.23
41.7505	483.84
41.7649	490.07
41.7794	521.87
41.7938	513.65
41.8083	502.44
41.8227	497.92
41.8371	489.64
41.8516	489.44
41.8660	517.63
41.8805	532.76
41.8949	555.46
41.9093	537.93
41.9238	570.92
41.9382	562.74
41.9527	546.20
41.9671	558.93
41.9815	558.95
41.9960	548.66
42.0104	547.18
42.0249	588.17
42.0393	580.16
42.0537	568.53
42.0682	597.66
42.0826	587.70
42.0971	616.65
42.1115	597.81
42.1259	608.65
42.1404	601.57
42.1548	622.50
42.1693	666.74
42.1837	689.84
42.1981	715.31
42.2126	779.99
42.2270	882.46
42.2415	1021.51
42.2559	1183.04
42.2703	1293.11
42.2848	1421.23
42.2992	1553.24
42.3137	1685.15
42.3281	1660.13
42.3425	1593.02
42.3570	1487.17
42.3714	1423.31
42.3859	1393.43
42.4003	1337.93
42.4147	1310.74
42.4292	1263.07
42.4436	1156.96
42.4581	1085.44
42.4725	956.66
42.4869	832.36
42.5014	771.89
42.5158	712.52
42.5303	690.14
42.5447	669.56
42.5591	593.34
42.5736	580.20
42.5880	569.94
42.6025	549.36
42.6169	566.35
42.6313	575.86
42.6458	555.08
42.6602	519.27
42.6747	538.91
42.6891	518.50
42.7035	541.06
42.7180	540.76
42.7324	517.39
42.7469	507.35
42.7613	542.45
42.7757	536.54
42.7902	509.09
42.8046	505.84
42.8191	539.38
42.8335	524.21
42.8479	561.05
42.8624	559.20
42.8768	534.88
42.8913	508.18
42.9057	529.88
42.9201	513.03
42.9346	516.34
42.9490	516.56
42.9635	526.53
42.9779	533.10
42.9923	496.08
43.0068	529.70
43.0212	547.03
43.0357	544.66
43.0501	529.35
43.0645	526.92
43.0790	506.84
43.0934	525.08
43.1079	507.72
43.1223	494.53
43.1367	507.45
43.1512	524.45
43.1656	542.54
43.1801	532.35
43.1945	487.84
43.2089	537.91
43.2234	529.86
43.2378	544.57
43.2523	541.04
43.2667	531.29
43.2811	543.59
43.2956	529.45
43.3100	516.17
43.3245	475.22
43.3389	546.85
43.3533	570.75
43.3678	540.56
43.3822	532.54
43.3967	536.25
43.4111	529.09
43.4255	498.09
43.4400	510.47
43.4544	525.95
43.4689	507.83
43.4833	546.56
43.4977	522.65
43.5122	499.52
43.5266	486.00
43.5411	483.78
43.5555	510.25
43.5699	513.89
43.5844	516.75
43.5988	535.55
43.6133	510.90
43.6277	517.22
43.6421	542.21
43.6566	542.44
43.6710	528.46
43.6855	514.44
43.6999	534.41
43.7143	541.69
43.7288	509.49
43.7432	543.49
43.7577	550.34
43.7721	572.44
43.7865	591.24
43.8010	603.66
43.8154	649.04
43.8299	661.87
43.8443	663.37
43.8587	681.29
43.8732	668.40
43.8876	637.95
43.9021	654.38
43.9165	634.68
43.9309	605.01
43.9454	635.35
43.9598	599.91
43.9743	555.82
43.9887	590.21
44.0031	543.79
44.0176	551.68
44.0320	578.34
44.0465	541.45
44.0609	571.41
44.0753	488.30
44.0898	535.64
44.1042	531.75
44.1187	507.28
44.1331	497.50
44.1475	498.49
44.1620	519.04
44.1764	558.70
44.1909	514.32
44.2053	523.56
44.2197	535.52
44.2342	531.10
44.2486	522.33
44.2631	549.86
44.2775	552.36
44.2919	514.69
44.3064	509.68
44.3208	539.23
44.3353	519.21
44.3497	549.20
44.3641	560.57
44.3786	534.72
44.3930	575.07
44.4075	557.27
44.4219	577.83
44.4363	552.43
44.4508	574.07
44.4652	581.01
44.4797	588.36
44.4941	567.85
44.5085	575.06
44.5230	589.83
44.5374	590.04
44.5519	580.03
44.5663	580.03
44.5807	567.59
44.5952	547.41
44.6096	550.93
44.6241	590.81
44.6385	603.20
44.6529	556.03
44.6674	599.07
44.6818	589.70
44.6963	601.29
44.7107	664.26
44.7251	683.36
44.7396	768.71
44.7540	804.08
44.7685	806.40
44.7829	846.48
44.7973	865.08
44.8118	870.24
44.8262	778.63
44.8407	765.53
44.8551	706.46
44.8695	736.29
44.8840	700.90
44.8984	800.89
44.9129	707.12
44.9273	690.87
44.9417	673.49
44.9562	610.54
44.9706	626.82
44.9851	554.01
44.9995	521.36
45.0139	529.83
45.0284	532.40
45.0428	540.03
45.0573	552.48
45.0717	515.63
45.0861	512.50
45.1006	553.58
45.1150	547.78
45.1295	524.06
45.1439	485.93
45.1583	488.72
45.1728	484.44
45.1872	511.43
45.2017	502.89
45.2161	508.74
45.2305	499.36
45.2450	504.04
45.2594	494.34
45.2739	507.25
45.2883	496.44
45.3028	500.51
45.3172	493.13
45.3316	501.62
45.3461	490.23
45.3605	504.13
45.3750	455.58
45.3894	498.53
45.4038	503.74
45.4183	496.67
45.4327	513.17
45.4472	499.04
45.4616	510.21
45.4760	512.51
45.4905	509.17
45.5049	516.15
45.5194	524.78
45.5338	549.78
45.5482	566.30
45.5627	541.46
45.5771	509.01
45.5916	494.47
45.6060	507.18
45.6204	503.26
45.6349	488.47
45.6493	487.98
45.6638	509.32
45.6782	537.87
45.6926	531.20
45.7071	504.64
45.7215	484.03
45.7360	508.88
45.7504	512.51
45.7648	534.76
45.7793	522.41
45.7937	493.30
45.8082	548.23
45.8226	500.84
45.8370	531.23
45.8515	514.45
45.8659	496.78
45.8804	495.06
45.8948	499.25
45.9092	497.15
45.9237	526.97
45.9381	507.61
45.9526	471.86
45.9670	501.48
45.9814	490.08
45.9959	491.83
46.0103	491.96
46.0248	500.07
46.0392	487.88
46.0536	469.77
46.0681	496.75
46.0825	517.26
46.0970	501.97
46.1114	508.34
46.1258	530.55
46.1403	496.16
46.1547	473.76
46.1692	492.13
46.1836	516.95
46.1980	481.52
46.2125	512.01
46.2269	493.30
46.2414	482.10
46.2558	513.59
46.2702	519.43
46.2847	489.29
46.2991	507.88
46.3136	499.83
46.3280	512.02
46.3424	524.29
46.3569	514.79
46.3713	493.22
46.3858	512.30
46.4002	499.08
46.4146	515.14
46.4291	513.20
46.4435	507.91
46.4580	504.45
46.4724	471.41
46.4868	484.83
46.5013	504.86
46.5157	511.25
46.5302	535.84
46.5446	513.14
46.5590	507.01
46.5735	508.76
46.5879	497.00
46.6024	537.12
46.6168	486.12
46.6312	493.14
46.6457	531.90
46.6601	543.53
46.6746	488.45
46.6890	490.18
46.7034	509.48
46.7179	498.94
46.7323	517.69
46.7468	519.35
46.7612	510.66
46.7756	478.84
46.7901	480.29
46.8045	521.42
46.8190	557.84
46.8334	530.14
46.8478	524.00
46.8623	527.00
46.8767	486.74
46.8912	537.48
46.9056	524.61
46.9200	508.86
46.9345	509.77
46.9489	497.25
46.9634	519.51
46.9778	538.96
46.9922	484.37
47.0067	513.48
47.0211	535.85
47.0356	520.84
47.0500	508.90
47.0644	512.80
47.0789	496.16
47.0933	538.84
47.1078	530.19
47.1222	537.00
47.1366	504.18
47.1511	493.20
47.1655	491.05
47.1800	487.94
47.1944	523.53
47.2088	524.01
47.2233	518.07
47.2377	523.46
47.2522	497.66
47.2666	495.70
47.2810	495.52
47.2955	470.82
47.3099	511.32
47.3244	524.24
47.3388	518.98
47.3532	499.50
47.3677	502.81
47.3821	487.83
47.3966	482.48
47.4110	532.49
47.4254	521.98
47.4399	486.41
47.4543	489.39
47.4688	523.18
47.4832	522.45
47.4976	513.74
47.5121	497.86
47.5265	494.32
47.5410	505.34
47.5554	529.69
47.5698	518.45
47.5843	500.22
47.5987	508.64
47.6132	512.02
47.6276	494.12
47.6420	498.15
47.6565	511.91
47.6709	525.93
47.6854	500.88
47.6998	491.63
47.7142	545.25
47.7287	508.16
47.7431	537.32
47.7576	507.85
47.7720	503.32
47.7864	514.57
47.8009	492.56
47.8153	528.96
47.8298	500.10
47.8442	518.63
47.8586	502.43
47.8731	500.32
47.8875	513.77
47.9020	519.14
47.9164	522.79
47.9308	496.41
47.9453	481.80
47.9597	480.58
47.9742	513.04
47.9886	516.30
48.0030	519.91
48.0175	521.72
48.0319	521.93
48.0464	550.93
48.0608	541.18
48.0752	538.95
48.0897	516.64
48.1041	535.58
48.1186	489.04
48.1330	501.46
48.1474	509.93
48.1619	526.81
48.1763	502.55
48.1908	503.88
48.2052	506.08
48.2196	487.57
48.2341	525.00
48.2485	482.16
48.2630	487.38
48.2774	488.86
48.2918	506.10
48.3063	508.83
48.3207	536.13
48.3352	536.55
48.3496	521.87
48.3640	486.87
48.3785	483.94
48.3929	493.02
48.4074	495.86
48.4218	535.72
48.4362	555.02
48.4507	532.97
48.4651	537.62
48.4796	539.39
48.4940	551.45
48.5084	516.30
48.5229	502.51
48.5373	529.26
48.5518	519.34
48.5662	509.66
48.5806	501.00
48.5951	506.39
48.6095	502.98
48.6240	506.12
48.6384	507.51
48.6528	505.48
48.6673	501.68
48.6817	519.79
48.6962	521.86
48.7106	502.78
48.7250	549.14
48.7395	540.46
48.7539	545.23
48.7684	524.44
48.7828	517.61
48.7972	542.60
48.8117	525.69
48.8261	513.71
48.8406	522.59
48.8550	554.74
48.8694	557.89
48.8839	540.63
48.8983	522.48
48.9128	545.17
48.9272	543.86
48.9416	569.48
48.9561	605.66
48.9705	551.13
48.9850	582.63
48.9994	553.47
49.0139	569.21
49.0283	576.54
49.0427	595.84
49.0572	590.04
49.0716	618.50
49.0861	650.99
49.1005	692.75
49.1149	695.52
49.1294	710.23
49.1438	773.79
49.1583	805.59
49.1727	783.18
49.1871	828.45
49.2016	884.70
49.2160	1021.53
49.2305	1077.05
49.2449	1127.79
49.2593	1183.84
49.2738	1279.29
49.2882	1387.26
49.3027	1464.83
49.3171	1588.56
49.3315	1702.56
49.3460	1702.82
49.3604	1672.59
49.3749	1743.64
49.3893	1664.09
49.4037	1662.90
49.4182	1727.78
49.4326	1738.21
49.4471	1623.79
49.4615	1565.92
49.4759	1524.41
49.4904	1511.68
49.5048	1422.77
49.5193	1323.01
49.5337	1266.15
49.5481	1232.23
49.5626	1106.05
49.5770	1066.69
49.5915	987.01
49.6059	951.68
49.6203	874.16
49.6348	840.85
49.6492	766.35
49.6637	703.08
49.6781	733.24
49.6925	725.05
49.7070	706.72
49.7214	684.34
49.7359	625.18
49.7503	631.72
49.7647	591.39
49.7792	586.08
49.7936	582.53
49.8081	563.18
49.8225	543.89
49.8369	592.07
49.8514	578.90
49.8658	548.32
49.8803	522.33
49.8947	523.66
49.9091	553.07
49.9236	551.36
49.9380	513.15
49.9525	519.82
49.9669	519.52
49.9813	529.25
49.9958	514.21
50.0102	512.15
50.0247	531.67
50.0391	559.40
50.0535	539.10
50.0680	505.74
50.0824	518.67
50.0969	500.28
50.1113	502.65
50.1257	514.96
50.1402	528.00
50.1546	511.84
50.1691	537.09
50.1835	525.13
50.1979	527.33
50.2124	506.08
50.2268	483.50
50.2413	524.91
50.2557	503.91
50.2701	530.71
50.2846	528.07
50.2990	511.77
50.3135	518.16
50.3279	526.29
50.3423	513.45
50.3568	499.18
50.3712	531.90
50.3857	534.45
50.4001	506.69
50.4145	498.96
50.4290	545.24
50.4434	497.06
50.4579	507.31
50.4723	518.35
50.4867	506.65
50.5012	504.03
50.5156	517.44
50.5301	517.66
50.5445	515.47
50.5589	534.58
50.5734	508.72
50.5878	511.50
50.6023	518.67
50.6167	514.44
50.6311	516.48
50.6456	513.65
50.6600	527.77
50.6745	516.41
50.6889	491.56
50.7033	504.51
50.7178	490.53
50.7322	488.15
50.7467	510.94
50.7611	485.76
50.7755	514.71
50.7900	522.56
50.8044	518.72
50.8189	523.81
50.8333	529.78
50.8477	521.61
50.8622	531.38
50.8766	509.74
50.8911	483.92
50.9055	488.36
50.9199	530.96
50.9344	524.55
50.9488	496.23
50.9633	488.40
50.9777	522.92
50.9921	497.76
51.0066	501.24
51.0210	515.48
51.0355	503.82
51.0499	522.87
51.0643	514.57
51.0788	525.86
51.0932	539.79
51.1077	520.36
51.1221	488.28
51.1365	477.84
51.1510	461.82
51.1654	483.68
51.1799	497.87
51.1943	491.28
51.2087	495.73
51.2232	477.42
51.2376	498.06
51.2521	500.57
51.2665	462.21
51.2809	505.23
51.2954	477.49
51.3098	484.83
51.3243	524.04
51.3387	546.66
51.3531	540.81
51.3676	476.57
51.3820	490.69
51.3965	530.79
51.4109	529.61
51.4253	515.68
51.4398	499.19
51.4542	507.54
51.4687	534.91
51.4831	546.37
51.4975	556.48
51.5120	508.42
51.5264	514.88
51.5409	495.74
51.5553	496.84
51.5697	484.64
51.5842	493.52
51.5986	509.66
51.6131	518.63
51.6275	524.54
51.6419	544.19
51.6564	519.25
51.6708	474.30
51.6853	459.31
51.6997	463.97
51.7141	546.35
51.7286	520.69
51.7430	496.23
51.7575	510.05
51.7719	495.16
51.7863	493.34
51.8008	500.56
51.8152	519.70
51.8297	536.56
51.8441	498.20
51.8585	515.80
51.8730	528.43
51.8874	494.42
51.9019	527.12
51.9163	511.87
51.9307	512.69
51.9452	475.42
51.9596	505.43
51.9741	503.11
51.9885	515.55
52.0029	505.36
52.0174	500.11
52.0318	525.49
52.0463	522.22
52.0607	547.88
52.0751	548.65
52.0896	524.59
52.1040	515.25
52.1185	484.42
52.1329	521.88
52.1473	505.37
52.1618	509.69
52.1762	479.92
52.1907	506.44
52.2051	538.38
52.2195	509.77
52.2340	511.71
52.2484	496.17
52.2629	515.59
52.2773	537.98
52.2917	495.86
52.3062	507.98
52.3206	494.10
52.3351	512.50
52.3495	516.86
52.3639	520.71
52.3784	527.83
52.3928	500.50
52.4073	510.78
52.4217	519.33
52.4361	521.10
52.4506	551.14
52.4650	525.14
52.4795	504.84
52.4939	513.17
52.5083	514.04
52.5228	545.10
52.5372	493.72
52.5517	516.30
52.5661	534.95
52.5805	526.38
52.5950	498.59
52.6094	496.31
52.6239	494.17
52.6383	493.37
52.6527	492.14
52.6672	527.20
52.6816	507.25
52.6961	533.80
52.7105	512.09
52.7250	516.69
52.7394	497.24
52.7538	511.86
52.7683	510.18
52.7827	537.64
52.7972	501.45
52.8116	536.15
52.8260	511.11
52.8405	546.03
52.8549	533.49
52.8694	511.92
52.8838	534.08
52.8982	551.85
52.9127	504.94
52.9271	547.00
52.9416	551.71
52.9560	483.55
52.9704	515.57
52.9849	487.49
52.9993	472.19
53.0138	516.14
53.0282	545.55
53.0426	539.35
53.0571	509.71
53.0715	497.47
53.0860	490.37
53.1004	479.17
53.1148	492.92
53.1293	539.32
53.1437	495.07
53.1582	456.39
53.1726	518.17
53.1870	532.77
53.2015	531.18
53.2159	497.72
53.2304	502.01
53.2448	513.90
53.2592	519.27
53.2737	514.75
53.2881	486.93
53.3026	504.62
53.3170	523.34
53.3314	499.76
53.3459	513.69
53.3603	536.29
53.3748	509.08
53.3892	474.76
53.4036	508.38
53.4181	530.71
53.4325	556.36
53.4470	522.47
53.4614	510.75
53.4758	557.15
53.4903	537.25
53.5047	534.46
53.5192	523.61
53.5336	498.29
53.5480	493.86
53.5625	484.61
53.5769	503.62
53.5914	511.38
53.6058	523.94
53.6202	504.89
53.6347	502.24
53.6491	505.40
53.6636	526.50
53.6780	530.17
53.6924	518.44
53.7069	529.26
53.7213	496.36
53.7358	504.75
53.7502	519.78
53.7646	513.33
53.7791	525.80
53.7935	502.62
53.8080	510.39
53.8224	533.62
53.8368	533.24
53.8513	541.41
53.8657	504.58
53.8802	529.23
53.8946	551.55
53.9090	529.89
53.9235	538.47
53.9379	502.02
53.9524	517.32
53.9668	502.77
53.9812	506.64
53.9957	497.77
54.0101	554.01
54.0246	535.80
54.0390	536.22
54.0534	509.96
54.0679	549.73
54.0823	551.17
54.0968	548.40
54.1112	545.29
54.1256	548.93
54.1401	530.43
54.1545	523.19
54.1690	576.97
54.1834	526.00
54.1978	545.06
54.2123	525.76
54.2267	536.44
54.2412	538.08
54.2556	536.63
54.2700	529.36
54.2845	568.01
54.2989	557.97
54.3134	560.87
54.3278	584.79
54.3422	608.78
54.3567	626.61
54.3711	589.18
54.3856	645.35
54.4000	604.16
54.4144	628.75
54.4289	642.28
54.4433	601.95
54.4578	620.80
54.4722	586.93
54.4866	578.30
54.5011	602.63
54.5155	565.85
54.5300	567.65
54.5444	593.65
54.5588	610.40
54.5733	574.24
54.5877	569.40
54.6022	593.50
54.6166	571.00
54.6310	558.72
54.6455	511.04
54.6599	535.18
54.6744	551.95
54.6888	493.78
54.7032	526.08
54.7177	541.96
54.7321	556.42
54.7466	524.61
54.7610	511.05
54.7754	521.95
54.7899	531.63
54.8043	523.86
54.8188	533.86
54.8332	511.19
54.8476	541.73
54.8621	543.05
54.8765	519.56
54.8910	525.37
54.9054	542.32
54.9198	528.20
54.9343	522.45
54.9487	513.42
54.9632	522.77
54.9776	536.35
54.9920	541.56
55.0065	506.12
55.0209	487.64
55.0354	515.76
55.0498	538.73
55.0642	536.39
55.0787	520.80
55.0931	490.75
55.1076	475.74
55.1220	504.99
55.1364	530.90
55.1509	473.92
55.1653	502.01
55.1798	524.31
55.1942	504.09
55.2086	509.75
55.2231	502.68
55.2375	496.43
55.2520	518.02
55.2664	512.02
55.2808	538.23
55.2953	513.13
55.3097	490.47
55.3242	506.58
55.3386	493.45
55.3530	526.36
55.3675	549.25
55.3819	497.08
55.3964	505.74
55.4108	503.56
55.4252	540.31
55.4397	519.69
55.4541	535.27
55.4686	540.31
55.4830	536.13
55.4974	519.09
55.5119	513.52
55.5263	514.27
55.5408	536.48
55.5552	539.58
55.5696	491.55
55.5841	503.64
55.5985	550.35
55.6130	529.84
55.6274	522.55
55.6418	526.57
55.6563	506.24
55.6707	501.16
55.6852	513.77
55.6996	513.83
55.7140	532.87
55.7285	504.02
55.7429	524.21
55.7574	530.59
55.7718	518.38
55.7862	545.17
55.8007	477.75
55.8151	540.14
55.8296	546.48
55.8440	500.30
55.8584	517.58
55.8729	511.99
55.8873	512.73
55.9018	559.15
55.9162	527.55
55.9306	494.25
55.9451	531.16
55.9595	529.19
55.9740	532.74
55.9884	529.79
56.0028	504.95
56.0173	558.73
56.0317	547.09
56.0462	548.10
56.0606	543.16
56.0750	552.22
56.0895	546.00
56.1039	535.47
56.1184	532.39
56.1328	541.01
56.1472	509.16
56.1617	515.61
56.1761	527.89
56.1906	515.75
56.2050	519.45
56.2194	559.01
56.2339	546.52
56.2483	529.23
56.2628	489.23
56.2772	500.51
56.2916	510.74
56.3061	522.06
56.3205	525.49
56.3350	566.32
56.3494	540.26
56.3639	533.88
56.3783	517.23
56.3927	491.67
56.4072	531.35
56.4216	557.91
56.4361	503.26
56.4505	495.42
56.4649	507.23
56.4794	516.71
56.4938	556.76
56.5083	534.42
56.5227	506.03
56.5371	525.09
56.5516	528.49
56.5660	537.17
56.5805	518.74
56.5949	504.44
56.6093	522.96
56.6238	506.47
56.6382	497.36
56.6527	501.21
56.6671	503.11
56.6815	497.29
56.6960	544.52
56.7104	531.14
56.7249	520.80
56.7393	494.46
56.7537	467.27
56.7682	532.52
56.7826	530.57
56.7971	497.56
56.8115	494.94
56.8259	517.08
56.8404	542.03
56.8548	544.59
56.8693	538.49
56.8837	513.22
56.8981	529.77
56.9126	555.63
56.9270	487.82
56.9415	531.86
56.9559	528.54
56.9703	532.63
56.9848	503.31
56.9992	518.19
57.0137	547.90
57.0281	502.23
57.0425	494.19
57.0570	546.02
57.0714	545.46
57.0859	521.63
57.1003	527.56
57.1147	508.81
57.1292	541.30
57.1436	477.55
57.1581	489.61
57.1725	522.03
57.1869	531.34
57.2014	491.51
57.2158	492.52
57.2303	544.75
57.2447	524.21
57.2591	517.17
57.2736	529.21
57.2880	533.51
57.3025	511.62
57.3169	532.12
57.3313	560.34
57.3458	558.19
57.3602	546.83
57.3747	510.10
57.3891	513.47
57.4035	479.27
57.4180	547.81
57.4324	536.88
57.4469	503.90
57.4613	561.44
57.4757	524.81
57.4902	531.87
57.5046	565.64
57.5191	542.05
57.5335	544.37
57.5479	506.86
57.5624	525.59
57.5768	534.73
57.5913	534.84
57.6057	534.46
57.6201	542.32
57.6346	508.06
57.6490	518.02
57.6635	526.89
57.6779	523.46
57.6923	540.73
57.7068	556.35
57.7212	505.10
57.7357	538.10
57.7501	537.53
57.7645	532.88
57.7790	552.57
57.7934	552.44
57.8079	544.15
57.8223	573.00
57.8367	555.73
57.8512	531.63
57.8656	553.37
57.8801	556.59
57.8945	617.75
57.9089	635.89
57.9234	640.32
57.9378	666.11
57.9523	628.29
57.9667	620.92
57.9811	689.59
57.9956	696.69
58.0100	699.26
58.0245	635.44
58.0389	661.17
58.0533	677.61
58.0678	652.18
58.0822	615.49
58.0967	671.95
58.1111	663.85
58.1255	658.88
58.1400	698.23
58.1544	648.74
58.1689	670.09
58.1833	686.30
58.1977	649.85
58.2122	645.55
58.2266	621.62
58.2411	657.04
58.2555	578.59
58.2699	575.59
58.2844	590.57
58.2988	573.60
58.3133	570.39
58.3277	555.27
58.3421	565.45
58.3566	574.57
58.3710	547.25
58.3855	553.60
58.3999	568.28
58.4143	575.23
58.4288	575.27
58.4432	573.22
58.4577	542.47
58.4721	546.94
58.4865	528.51
58.5010	517.02
58.5154	544.06
58.5299	508.65
58.5443	517.87
58.5587	528.36
58.5732	503.60
58.5876	529.25
58.6021	545.53
58.6165	548.63
58.6309	531.02
58.6454	508.19
58.6598	512.84
58.6743	527.42
58.6887	544.09
58.7031	552.81
58.7176	540.63
58.7320	530.25
58.7465	550.07
58.7609	547.93
58.7753	567.69
58.7898	549.55
58.8042	557.13
58.8187	562.22
58.8331	544.15
58.8475	558.81
58.8620	543.45
58.8764	524.63
58.8909	554.44
58.9053	567.47
58.9197	540.24
58.9342	547.77
58.9486	549.44
58.9631	538.17
58.9775	542.05
58.9919	571.50
59.0064	545.19
59.0208	545.92
59.0353	543.75
59.0497	546.50
59.0641	548.51
59.0786	518.85
59.0930	536.66
59.1075	554.64
59.1219	546.33
59.1363	568.29
59.1508	531.79
59.1652	536.78
59.1797	563.88
59.1941	529.13
59.2085	543.39
59.2230	539.00
59.2374	530.42
59.2519	539.85
59.2663	552.30
59.2807	560.40
59.2952	543.87
59.3096	554.46
59.3241	564.20
59.3385	595.34
59.3529	582.45
59.3674	536.75
59.3818	548.29
59.3963	564.42
59.4107	557.16
59.4251	589.51
59.4396	568.02
59.4540	546.71
59.4685	559.47
59.4829	539.77
59.4973	555.11
59.5118	544.57
59.5262	554.55
59.5407	593.45
59.5551	546.83
59.5695	535.05
59.5840	540.62
59.5984	533.71
59.6129	558.22
59.6273	535.46
59.6417	559.98
59.6562	568.10
59.6706	525.20
59.6851	518.10
59.6995	507.11
59.7139	514.22
59.7284	523.85
59.7428	528.42
59.7573	526.39
59.7717	545.82
59.7861	530.20
59.8006	542.23
59.8150	530.71
59.8295	557.46
59.8439	521.89
59.8583	552.38
59.8728	533.77
59.8872	532.60
59.9017	577.68
59.9161	563.86
59.9305	537.98
59.9450	541.67
59.9594	547.60
59.9739	556.72
59.9883	569.17
60.0027	559.24
60.0172	555.50
60.0316	558.41
60.0461	517.58
60.0605	533.76
60.0750	535.76
60.0894	539.16
60.1038	534.04
60.1183	553.62
60.1327	533.68
60.1472	529.00
60.1616	539.22
60.1760	545.56
60.1905	508.06
60.2049	532.06
60.2194	551.24
60.2338	513.78
60.2482	561.22
60.2627	525.32
60.2771	540.60
60.2916	533.56
60.3060	554.71
60.3204	547.91
60.3349	555.90
60.3493	510.67
60.3638	544.58
60.3782	532.90
60.3926	534.89
60.4071	551.26
60.4215	528.61
60.4360	526.10
60.4504	504.69
60.4648	505.07
60.4793	536.77
60.4937	555.25
60.5082	534.56
60.5226	508.43
60.5370	548.86
60.5515	552.14
60.5659	532.29
60.5804	530.13
60.5948	535.88
60.6092	567.24
60.6237	530.54
60.6381	543.13
60.6526	570.74
60.6670	570.86
60.6814	564.51
60.6959	517.31
60.7103	529.37
60.7248	543.78
60.7392	528.67
60.7536	549.78
60.7681	564.16
60.7825	548.28
60.7970	564.99
60.8114	548.66
60.8258	579.31
60.8403	594.12
60.8547	532.03
60.8692	543.65
60.8836	558.22
60.8980	536.39
60.9125	587.68
60.9269	542.02
60.9414	557.95
60.9558	537.80
60.9702	505.53
60.9847	531.67
60.9991	481.99
61.0136	465.69
61.0280	521.41
61.0424	532.87
61.0569	570.81
61.0713	529.45
61.0858	572.41
61.1002	551.84
61.1146	525.24
61.1291	541.07
61.1435	560.81
61.1580	520.48
61.1724	542.15
61.1868	525.13
61.2013	561.09
61.2157	570.41
61.2302	522.11
61.2446	530.27
61.2590	514.47
61.2735	516.07
61.2879	540.27
61.3024	571.45
61.3168	578.98
61.3312	566.36
61.3457	572.11
61.3601	537.74
61.3746	579.93
61.3890	521.04
61.4034	541.72
61.4179	550.33
61.4323	527.28
61.4468	505.73
61.4612	526.74
61.4756	542.03
61.4901	541.44
61.5045	494.92
61.5190	494.40
61.5334	553.96
61.5478	532.60
61.5623	545.11
61.5767	523.57
61.5912	515.18
61.6056	550.48
61.6200	544.14
61.6345	573.84
61.6489	567.44
61.6634	567.29
61.6778	540.44
61.6922	563.78
61.7067	561.03
61.7211	573.46
61.7356	567.22
61.7500	565.34
61.7644	513.95
61.7789	530.53
61.7933	568.36
61.8078	552.22
61.8222	520.21
61.8366	550.81
61.8511	533.64
61.8655	526.16
61.8800	559.50
61.8944	583.20
61.9088	579.12
61.9233	555.52
61.9377	581.61
61.9522	569.07
61.9666	541.03
61.9810	579.93
61.9955	577.26
62.0099	511.03
62.0244	531.19
62.0388	538.38
62.0532	528.87
62.0677	560.80
62.0821	554.36
62.0966	566.42
62.1110	551.37
62.1254	543.05
62.1399	545.01
62.1543	547.75
62.1688	555.46
62.1832	558.43
62.1976	537.70
62.2121	550.62
62.2265	542.59
62.2410	561.90
62.2554	560.32
62.2698	531.44
62.2843	544.46
62.2987	567.70
62.3132	558.49
62.3276	543.49
62.3420	575.99
62.3565	536.49
62.3709	541.94
62.3854	553.52
62.3998	534.67
62.4142	503.30
62.4287	543.70
62.4431	564.07
62.4576	574.88
62.4720	580.36
62.4864	551.22
62.5009	545.63
62.5153	570.68
62.5298	548.73
62.5442	550.29
62.5586	535.63
62.5731	562.73
62.5875	573.50
62.6020	554.64
62.6164	520.02
62.6308	564.00
62.6453	573.44
62.6597	549.55
62.6742	546.78
62.6886	554.28
62.7030	555.25
62.7175	574.02
62.7319	574.88
62.7464	566.49
62.7608	544.50
62.7752	572.74
62.7897	593.22
62.8041	575.84
62.8186	579.83
62.8330	581.58
62.8474	554.32
62.8619	586.24
62.8763	574.87
62.8908	551.17
62.9052	571.18
62.9196	541.71
62.9341	563.76
62.9485	564.97
62.9630	570.26
62.9774	571.91
62.9918	565.82
63.0063	559.35
63.0207	557.50
63.0352	554.93
63.0496	548.61
63.0640	546.88
63.0785	556.76
63.0929	577.13
63.1074	568.93
63.1218	586.78
63.1362	603.89
63.1507	548.91
63.1651	546.74
63.1796	571.74
63.1940	567.03
63.2084	594.72
63.2229	595.45
63.2373	577.88
63.2518	573.18
63.2662	580.23
63.2806	576.15
63.2951	566.16
63.3095	577.24
63.3240	572.02
63.3384	605.53
63.3528	590.71
63.3673	564.64
63.3817	566.30
63.3962	578.64
63.4106	573.62
63.4250	608.72
63.4395	586.68
63.4539	598.54
63.4684	642.50
63.4828	612.99
63.4972	651.50
63.5117	630.73
63.5261	649.79
63.5406	641.92
63.5550	648.62
63.5694	644.59
63.5839	669.17
63.5983	735.87
63.6128	716.89
63.6272	743.65
63.6416	789.17
63.6561	828.05
63.6705	854.14
63.6850	930.77
63.6994	971.43
63.7138	921.72
63.7283	866.31
63.7427	852.33
63.7572	878.69
63.7716	846.23
63.7861	833.99
63.8005	808.36
63.8149	779.27
63.8294	837.74
63.8438	803.82
63.8583	819.54
63.8727	803.56
63.8871	799.08
63.9016	812.12
63.9160	809.06
63.9305	774.94
63.9449	733.42
63.9593	703.33
63.9738	764.95
63.9882	702.07
64.0027	625.71
64.0171	667.52
64.0315	678.77
64.0460	612.55
64.0604	632.56
64.0749	607.28
64.0893	620.44
64.1037	631.16
64.1182	637.25
64.1326	621.47
64.1471	610.14
64.1615	599.62
64.1759	597.29
64.1904	630.46
64.2048	588.17
64.2193	627.60
64.2337	633.53
64.2481	639.50
64.2626	606.65
64.2770	609.22
64.2915	605.10
64.3059	625.26
64.3203	610.45
64.3348	634.50
64.3492	615.71
64.3637	605.38
64.3781	584.31
64.3925	613.59
64.4070	598.39
64.4214	613.60
64.4359	649.92
64.4503	629.45
64.4647	607.97
64.4792	625.98
64.4936	633.25
64.5081	663.86
64.5225	630.89
64.5369	660.89
64.5514	639.25
64.5658	629.92
64.5803	614.46
64.5947	651.74
64.6091	621.32
64.6236	665.34
64.6380	672.00
64.6525	665.41
64.6669	685.13
64.6813	669.81
64.6958	649.77
64.7102	669.35
64.7247	678.34
64.7391	660.08
64.7535	686.29
64.7680	709.69
64.7824	699.70
64.7969	723.77
64.8113	741.58
64.8257	725.23
64.8402	791.59
64.8546	805.84
64.8691	790.75
64.8835	840.86
64.8979	816.33
64.9124	883.46
64.9268	906.79
64.9413	941.57
64.9557	989.89
64.9701	954.06
64.9846	1059.38
64.9990	1162.40
65.0135	1260.09
65.0279	1434.73
65.0423	1714.12
65.0568	2033.85
65.0712	2535.34
65.0857	3400.43
65.1001	4588.90
65.1145	6080.14
65.1290	7825.64
65.1434	9501.00
65.1579	11027.16
65.1723	11919.70
65.1867	11356.53
65.2012	10180.36
65.2156	8503.97
65.2301	6708.19
65.2445	5349.35
65.2589	4508.03
65.2734	4304.31
65.2878	4439.85
65.3023	4944.83
65.3167	5639.12
65.3311	6587.95
65.3456	7075.88
65.3600	7094.03
65.3745	6533.64
65.3889	5614.36
65.4033	4520.39
65.4178	3522.20
65.4322	2761.35
65.4467	2180.61
65.4611	1691.10
65.4755	1490.04
65.4900	1251.97
65.5044	1153.17
65.5189	1070.02
65.5333	1026.97
65.5477	966.05
65.5622	918.12
65.5766	812.05
65.5911	788.99
65.6055	814.52
65.6199	755.88
65.6344	767.19
65.6488	733.84
65.6633	721.45
65.6777	705.30
65.6921	671.03
65.7066	728.58
65.7210	685.44
65.7355	680.34
65.7499	675.64
65.7643	667.54
65.7788	717.35
65.7932	717.24
65.8077	661.10
65.8221	705.60
65.8365	678.89
65.8510	645.85
65.8654	646.07
65.8799	670.10
65.8943	630.27
65.9087	649.53
65.9232	649.27
65.9376	654.15
65.9521	649.71
65.9665	656.94
65.9809	645.93
65.9954	647.29
66.0098	610.45
66.0243	618.66
66.0387	615.96
66.0531	620.36
66.0676	653.23
66.0820	650.58
66.0965	656.10
66.1109	632.49
66.1253	642.54
66.1398	636.49
66.1542	632.44
66.1687	640.34
66.1831	616.03
66.1975	599.30
66.2120	610.47
66.2264	583.33
66.2409	598.09
66.2553	626.33
66.2697	601.73
66.2842	572.74
66.2986	572.05
66.3131	624.31
66.3275	605.75
66.3419	587.02
66.3564	567.89
66.3708	581.71
66.3853	600.53
66.3997	581.10
66.4141	574.91
66.4286	628.68
66.4430	597.93
66.4575	589.91
66.4719	605.99
66.4863	589.62
66.5008	605.95
66.5152	582.70
66.5297	603.62
66.5441	623.66
66.5585	598.44
66.5730	585.85
66.5874	576.95
66.6019	612.54
66.6163	622.43
66.6307	608.47
66.6452	610.52
66.6596	589.41
66.6741	588.86
66.6885	588.36
66.7029	609.66
66.7174	624.46
66.7318	580.46
66.7463	586.53
66.7607	581.88
66.7751	566.83
66.7896	587.34
66.8040	575.31
66.8185	596.05
66.8329	588.87
66.8473	620.14
66.8618	610.67
66.8762	587.47
66.8907	578.78
66.9051	619.44
66.9195	639.29
66.9340	584.64
66.9484	596.14
66.9629	593.81
66.9773	597.85
66.9917	577.22
67.0062	572.74
67.0206	592.90
67.0351	596.62
67.0495	571.73
67.0639	569.73
67.0784	594.79
67.0928	667.77
67.1073	610.01
67.1217	588.43
67.1361	577.68
67.1506	544.01
67.1650	564.85
67.1795	571.27
67.1939	548.79
67.2083	607.57
67.2228	617.55
67.2372	608.51
67.2517	586.09
67.2661	567.26
67.2805	591.47
67.2950	574.78
67.3094	600.12
67.3239	607.73
67.3383	565.94
67.3527	552.86
67.3672	582.07
67.3816	572.09
67.3961	578.23
67.4105	590.67
67.4250	570.41
67.4394	595.00
67.4538	548.45
67.4683	603.16
67.4827	587.59
67.4972	574.19
67.5116	537.04
67.5260	563.05
67.5405	585.34
67.5549	580.15
67.5694	592.93
67.5838	578.99
67.5982	607.20
67.6127	606.69
67.6271	596.12
67.6416	560.21
67.6560	559.94
67.6704	573.33
67.6849	544.31
67.6993	558.58
67.7138	577.38
67.7282	541.68
67.7426	554.18
67.7571	546.32
67.7715	557.48
67.7860	545.90
67.8004	574.44
67.8148	590.02
67.8293	582.08
67.8437	553.65
67.8582	576.11
67.8726	603.98
67.8870	600.29
67.9015	588.10
67.9159	587.02
67.9304	617.37
67.9448	612.78
67.9592	518.43
67.9737	541.12
67.9881	544.15
68.0026	578.38
68.0170	575.32
68.0314	506.55
68.0459	567.40
68.0603	622.10
68.0748	577.70
68.0892	573.21
68.1036	585.50
68.1181	600.42
68.1325	581.70
68.1470	566.16
68.1614	581.38
68.1758	568.22
68.1903	557.23
68.2047	596.17
68.2192	577.05
68.2336	596.51
68.2480	577.26
68.2625	566.91
68.2769	587.85
68.2914	602.28
68.3058	566.53
68.3202	593.23
68.3347	597.13
68.3491	580.37
68.3636	589.22
68.3780	602.88
68.3924	572.44
68.4069	620.67
68.4213	611.18
68.4358	596.59
68.4502	551.26
68.4646	583.81
68.4791	570.89
68.4935	586.83
68.5080	573.96
68.5224	534.29
68.5368	574.19
68.5513	590.64
68.5657	601.00
68.5802	595.09
68.5946	582.73
68.6090	568.11
68.6235	569.97
68.6379	574.59
68.6524	578.68
68.6668	560.22
68.6812	561.76
68.6957	564.51
68.7101	601.80
68.7246	574.61
68.7390	561.54
68.7534	577.12
68.7679	602.48
68.7823	573.63
68.7968	553.44
68.8112	581.89
68.8256	611.23
68.8401	550.76
68.8545	593.12
68.8690	585.78
68.8834	603.31
68.8978	542.50
68.9123	537.39
68.9267	575.73
68.9412	535.88
68.9556	529.25
68.9700	589.58
68.9845	534.42
68.9989	614.03
69.0134	544.88
69.0278	574.44
69.0422	591.36
69.0567	573.87
69.0711	578.79
69.0856	580.24
69.1000	580.99
69.1144	535.69
69.1289	593.82
69.1433	539.95
69.1578	558.29
69.1722	652.10
69.1866	582.32
69.2011	591.86
69.2155	585.34
69.2300	582.51
69.2444	563.64
69.2588	574.44
69.2733	578.61
69.2877	604.65
69.3022	554.27
69.3166	581.58
69.3310	585.51
69.3455	588.44
69.3599	560.74
69.3744	566.88
69.3888	602.99
69.4032	605.76
69.4177	584.13
69.4321	641.69
69.4466	567.45
69.4610	557.84
69.4754	585.99
69.4899	561.24
69.5043	600.47
69.5188	595.22
69.5332	579.99
69.5476	601.34
69.5621	625.98
69.5765	587.58
69.5910	568.18
69.6054	578.68
69.6198	553.91
69.6343	567.85
69.6487	559.74
69.6632	545.13
69.6776	662.63
69.6920	582.25
69.7065	593.27
69.7209	593.82
69.7354	576.58
69.7498	570.23
69.7642	587.53
69.7787	590.21
69.7931	593.09
69.8076	571.76
69.8220	551.85
69.8364	675.92
69.8509	599.53
69.8653	543.15
69.8798	594.85
69.8942	644.40
69.9086	574.51
69.9231	587.15
69.9375	558.22
69.9520	572.63
69.9664	574.04
69.9808	590.11
69.9953	597.27
70.0097	608.15
70.0242	624.88
70.0386	604.70
70.0530	592.32
70.0675	605.89
70.0819	618.32
70.0964	595.35
70.1108	580.69
70.1252	579.61
70.1397	571.15
70.1541	511.61
70.1686	594.78
70.1830	609.51
70.1974	569.54
70.2119	573.29
70.2263	562.74
70.2408	555.56
70.2552	546.74
70.2696	522.07
70.2841	566.73
70.2985	551.85
70.3130	576.37
70.3274	556.92
70.3418	566.49
70.3563	555.98
70.3707	574.67
70.3852	561.97
70.3996	586.82
70.4140	565.45
70.4285	634.29
70.4429	621.95
70.4574	569.11
70.4718	619.41
70.4862	566.06
70.5007	565.72
70.5151	557.52
70.5296	565.06
70.5440	584.78
70.5584	624.49
70.5729	572.80
70.5873	591.98
70.6018	555.20
70.6162	528.33
70.6306	581.29
70.6451	589.96
70.6595	583.72
70.6740	554.92
70.6884	581.94
70.7028	639.58
70.7173	593.73
70.7317	568.46
70.7462	583.33
70.7606	511.68
70.7750	613.18
70.7895	634.39
70.8039	617.05
70.8184	593.92
70.8328	585.68
70.8472	557.41
70.8617	569.81
70.8761	581.94
70.8906	577.23
70.9050	587.65
70.9194	651.50
70.9339	657.92
70.9483	603.17
70.9628	544.02
70.9772	531.79
70.9916	596.42
71.0061	556.53
71.0205	572.25
71.0350	595.57
71.0494	577.78
71.0638	594.10
71.0783	573.85
71.0927	530.03
71.1072	572.53
71.1216	599.09
71.1361	612.91
71.1505	557.25
71.1649	566.96
71.1794	586.61
71.1938	567.52
71.2083	592.84
71.2227	563.03
71.2371	590.98
71.2516	625.49
71.2660	592.81
71.2805	576.76
71.2949	551.30
71.3093	568.87
71.3238	558.88
71.3382	573.28
71.3527	576.51
71.3671	591.25
71.3815	560.49
71.3960	568.99
71.4104	587.89
71.4249	587.38
71.4393	603.03
71.4537	603.75
71.4682	583.98
71.4826	569.74
71.4971	546.63
71.5115	548.68
71.5259	548.69
71.5404	579.88
71.5548	617.25
71.5693	628.38
71.5837	599.58
71.5981	550.48
71.6126	567.11
71.6270	604.36
71.6415	655.04
71.6559	644.16
71.6703	600.90
71.6848	557.62
71.6992	592.16
71.7137	562.67
71.7281	498.93
71.7425	557.88
71.7570	596.50
71.7714	633.07
71.7859	609.62
71.8003	597.15
71.8147	607.87
71.8292	600.02
71.8436	570.84
71.8581	549.57
71.8725	535.82
71.8869	539.22
71.9014	627.15
71.9158	627.34
71.9303	605.58
71.9447	580.49
71.9591	582.03
71.9736	639.15
71.9880	635.07
72.0025	576.68
72.0169	509.35
72.0313	524.17
72.0458	512.68
72.0602	523.20
72.0747	548.78
72.0891	622.74
72.1035	672.67
72.1180	607.17
72.1324	601.43
72.1469	607.77
72.1613	609.03
72.1757	592.35
72.1902	623.61
72.2046	652.70
72.2191	603.84
72.2335	606.67
72.2479	636.04
72.2624	599.50
72.2768	595.30
72.2913	563.20
72.3057	532.08
72.3201	533.19
72.3346	584.92
72.3490	601.15
72.3635	616.31
72.3779	662.38
72.3923	594.27
72.4068	520.22
72.4212	587.67
72.4357	639.14
72.4501	596.55
72.4645	604.57
72.4790	643.87
72.4934	598.71
72.5079	553.15
72.5223	532.29
72.5367	577.37
72.5512	670.52
72.5656	606.31
72.5801	547.97
72.5945	580.66
72.6089	575.27
72.6234	608.70
72.6378	637.27
72.6523	604.41
72.6667	555.68
72.6811	595.03
72.6956	592.90
72.7100	551.19
72.7245	537.72
72.7389	555.51
72.7533	595.91
72.7678	575.15
72.7822	653.95
72.7967	642.36
72.8111	647.96
72.8255	595.97
72.8400	611.94
72.8544	605.96
72.8689	606.44
72.8833	645.65