2022.09.19 19:37:17
Îáðàçåö: ß÷åéêà LCoV 16-09-2022
Lambda1 = 1.54060
Lambda2 = 1.54439
Lambdam = 1.54186
R = 0.497
2Theta	I

line¹ 0 ;repeat¹ 0
22.1120	535.00
22.1264	601.63
22.1409	537.65
22.1553	519.29
22.1697	683.93
22.1842	676.80
22.1986	535.21
22.2131	533.69
22.2275	501.49
22.2419	565.91
22.2564	590.02
22.2708	549.02
22.2853	534.44
22.2997	512.97
22.3141	500.33
22.3286	524.93
22.3430	580.04
22.3575	554.03
22.3719	561.26
22.3863	529.48
22.4008	580.13
22.4152	677.46
22.4297	657.89
22.4441	590.81
22.4585	636.06
22.4730	588.91
22.4874	571.24
22.5019	610.69
22.5163	643.04
22.5307	564.89
22.5452	494.92
22.5596	542.26
22.5741	642.04
22.5885	655.54
22.6029	570.55
22.6174	535.16
22.6318	498.75
22.6463	572.08
22.6607	568.10
22.6751	583.85
22.6896	553.40
22.7040	454.78
22.7185	500.76
22.7329	551.20
22.7473	569.89
22.7618	505.12
22.7762	547.66
22.7907	553.99
22.8051	600.78
22.8195	573.63
22.8340	554.73
22.8484	523.48
22.8629	554.94
22.8773	530.42
22.8917	506.16
22.9062	566.46
22.9206	536.29
22.9351	527.62
22.9495	536.32
22.9639	541.77
22.9784	610.81
22.9928	641.41
23.0073	626.56
23.0217	647.39
23.0361	549.61
23.0506	421.11
23.0650	546.57
23.0795	552.43
23.0939	626.85
23.1083	583.07
23.1228	592.45
23.1372	550.61
23.1517	590.11
23.1661	571.10
23.1806	540.64
23.1950	532.63
23.2094	518.84
23.2239	566.82
23.2383	582.24
23.2528	524.28
23.2672	564.32
23.2816	523.48
23.2961	564.63
23.3105	547.23
23.3250	599.93
23.3394	603.22
23.3538	520.20
23.3683	538.38
23.3827	518.02
23.3972	545.29
23.4116	553.95
23.4260	555.66
23.4405	556.62
23.4549	521.02
23.4694	559.01
23.4838	549.79
23.4982	583.25
23.5127	571.70
23.5271	550.56
23.5416	543.69
23.5560	601.62
23.5704	570.04
23.5849	581.26
23.5993	550.27
23.6138	534.79
23.6282	529.17
23.6426	529.32
23.6571	552.78
23.6715	516.49
23.6860	526.47
23.7004	546.86
23.7148	582.40
23.7293	540.64
23.7437	620.22
23.7582	622.78
23.7726	572.20
23.7870	569.41
23.8015	479.20
23.8159	597.78
23.8304	520.13
23.8448	603.87
23.8592	564.98
23.8737	572.80
23.8881	542.86
23.9026	551.13
23.9170	493.31
23.9314	583.90
23.9459	653.10
23.9603	501.07
23.9748	553.17
23.9892	596.53
24.0036	530.73
24.0181	581.78
24.0325	527.88
24.0470	565.65
24.0614	566.63
24.0758	566.85
24.0903	593.73
24.1047	569.82
24.1192	535.83
24.1336	582.09
24.1480	526.53
24.1625	537.59
24.1769	535.15
24.1914	549.76
24.2058	543.93
24.2202	604.35
24.2347	601.98
24.2491	622.28
24.2636	572.11
24.2780	598.47
24.2924	598.62
24.3069	558.95
24.3213	574.63
24.3358	563.97
24.3502	519.43
24.3646	553.75
24.3791	516.23
24.3935	503.36
24.4080	537.14
24.4224	566.34
24.4368	479.40
24.4513	546.80
24.4657	565.63
24.4802	559.82
24.4946	551.66
24.5090	590.74
24.5235	534.97
24.5379	560.97
24.5524	514.65
24.5668	583.65
24.5812	554.60
24.5957	535.64
24.6101	523.48
24.6246	523.72
24.6390	574.76
24.6534	545.70
24.6679	573.90
24.6823	520.25
24.6968	594.96
24.7112	517.58
24.7256	518.87
24.7401	509.32
24.7545	556.65
24.7690	548.78
24.7834	500.61
24.7978	523.05
24.8123	539.60
24.8267	546.41
24.8412	580.85
24.8556	532.66
24.8700	501.58
24.8845	539.31
24.8989	510.15
24.9134	519.15
24.9278	503.02
24.9422	546.10
24.9567	523.29
24.9711	531.43
24.9856	545.68
25.0000	550.46
25.0144	585.05
25.0289	561.02
25.0433	532.68
25.0578	562.73
25.0722	513.12
25.0866	519.32
25.1011	508.04
25.1155	536.74
25.1300	562.89
25.1444	520.01
25.1588	539.79
25.1733	553.09
25.1877	507.67
25.2022	548.80
25.2166	544.85
25.2310	522.77
25.2455	494.32
25.2599	512.66
25.2744	559.16
25.2888	536.95
25.3032	517.55
25.3177	562.07
25.3321	555.39
25.3466	555.71
25.3610	533.97
25.3754	487.60
25.3899	514.18
25.4043	500.23
25.4188	533.34
25.4332	551.04
25.4476	551.78
25.4621	509.29
25.4765	523.02
25.4910	534.09
25.5054	491.74
25.5198	481.78
25.5343	519.93
25.5487	527.23
25.5632	540.79
25.5776	559.20
25.5920	525.49
25.6065	535.80
25.6209	534.16
25.6354	535.42
25.6498	527.40
25.6642	518.61
25.6787	509.38
25.6931	530.80
25.7076	567.94
25.7220	571.66
25.7364	553.24
25.7509	503.69
25.7653	488.23
25.7798	503.87
25.7942	531.37
25.8086	505.42
25.8231	572.40
25.8375	585.89
25.8520	552.08
25.8664	505.77
25.8808	511.44
25.8953	504.01
25.9097	527.72
25.9242	548.92
25.9386	560.95
25.9530	554.00
25.9675	538.96
25.9819	516.73
25.9964	524.57
26.0108	510.47
26.0252	564.79
26.0397	540.60
26.0541	527.04
26.0686	588.67
26.0830	563.49
26.0974	524.42
26.1119	536.95
26.1263	503.35
26.1408	484.29
26.1552	519.43
26.1696	534.54
26.1841	547.57
26.1985	551.12
26.2130	530.07
26.2274	520.32
26.2418	510.85
26.2563	524.80
26.2707	514.77
26.2852	501.12
26.2996	528.94
26.3140	525.61
26.3285	488.18
26.3429	518.17
26.3574	524.50
26.3718	517.84
26.3862	509.22
26.4007	496.91
26.4151	512.49
26.4296	567.04
26.4440	533.77
26.4584	525.38
26.4729	542.84
26.4873	525.55
26.5018	551.48
26.5162	562.82
26.5306	543.65
26.5451	537.08
26.5595	550.95
26.5740	536.46
26.5884	531.40
26.6028	543.28
26.6173	533.32
26.6317	551.08
26.6462	533.14
26.6606	521.23
26.6750	503.41
26.6895	490.80
26.7039	537.02
26.7184	550.82
26.7328	512.62
26.7472	524.35
26.7617	525.51
26.7761	510.49
26.7906	492.93
26.8050	526.44
26.8194	521.51
26.8339	528.17
26.8483	525.07
26.8628	528.68
26.8772	544.37
26.8917	525.25
26.9061	511.92
26.9205	507.83
26.9350	510.53
26.9494	497.46
26.9639	466.39
26.9783	518.49
26.9927	515.80
27.0072	534.53
27.0216	542.73
27.0361	537.12
27.0505	547.50
27.0649	535.14
27.0794	517.99
27.0938	496.59
27.1083	524.96
27.1227	530.95
27.1371	529.05
27.1516	517.79
27.1660	546.89
27.1805	515.31
27.1949	513.36
27.2093	521.03
27.2238	524.04
27.2382	542.59
27.2527	531.03
27.2671	523.45
27.2815	522.00
27.2960	546.02
27.3104	519.03
27.3249	510.76
27.3393	543.80
27.3537	528.32
27.3682	528.52
27.3826	511.09
27.3971	495.23
27.4115	483.98
27.4259	518.99
27.4404	513.47
27.4548	516.39
27.4693	549.38
27.4837	537.17
27.4981	555.27
27.5126	508.36
27.5270	520.85
27.5415	511.61
27.5559	520.93
27.5703	526.46
27.5848	520.93
27.5992	525.91
27.6137	512.76
27.6281	517.71
27.6425	539.86
27.6570	520.65
27.6714	502.33
27.6859	477.32
27.7003	497.53
27.7147	511.22
27.7292	502.52
27.7436	487.02
27.7581	502.58
27.7725	499.43
27.7869	545.78
27.8014	519.69
27.8158	496.80
27.8303	504.97
27.8447	497.29
27.8591	507.79
27.8736	513.95
27.8880	495.17
27.9025	502.17
27.9169	502.56
27.9313	517.61
27.9458	561.03
27.9602	519.18
27.9747	457.51
27.9891	496.25
28.0035	508.11
28.0180	481.16
28.0324	494.08
28.0469	522.97
28.0613	526.16
28.0757	531.40
28.0902	532.71
28.1046	542.14
28.1191	547.34
28.1335	533.66
28.1479	484.26
28.1624	529.02
28.1768	545.24
28.1913	490.89
28.2057	512.63
28.2201	519.77
28.2346	500.55
28.2490	504.78
28.2635	522.90
28.2779	519.30
28.2923	541.26
28.3068	503.91
28.3212	491.64
28.3357	516.84
28.3501	545.51
28.3645	506.31
28.3790	531.80
28.3934	545.24
28.4079	528.34
28.4223	513.30
28.4367	514.19
28.4512	455.81
28.4656	491.57
28.4801	517.73
28.4945	516.70
28.5089	526.34
28.5234	494.41
28.5378	509.08
28.5523	500.01
28.5667	502.72
28.5811	548.98
28.5956	507.35
28.6100	496.85
28.6245	513.61
28.6389	514.39
28.6533	507.64
28.6678	526.51
28.6822	518.87
28.6967	519.50
28.7111	519.34
28.7255	507.13
28.7400	528.11
28.7544	522.22
28.7689	491.38
28.7833	528.76
28.7977	538.59
28.8122	499.89
28.8266	524.85
28.8411	489.47
28.8555	502.55
28.8699	508.01
28.8844	517.78
28.8988	548.09
28.9133	482.70
28.9277	497.40
28.9421	509.37
28.9566	501.36
28.9710	491.33
28.9855	513.96
28.9999	494.11
29.0143	525.37
29.0288	497.19
29.0432	496.44
29.0577	520.80
29.0721	515.26
29.0865	525.94
29.1010	504.12
29.1154	508.07
29.1299	509.50
29.1443	486.69
29.1587	521.15
29.1732	495.39
29.1876	499.88
29.2021	538.28
29.2165	553.61
29.2309	522.39
29.2454	511.57
29.2598	513.10
29.2743	509.20
29.2887	553.44
29.3031	502.24
29.3176	471.09
29.3320	527.45
29.3465	498.87
29.3609	508.27
29.3753	493.48
29.3898	460.33
29.4042	481.91
29.4187	514.88
29.4331	522.50
29.4475	504.23
29.4620	493.42
29.4764	513.52
29.4909	513.38
29.5053	476.09
29.5197	500.99
29.5342	497.71
29.5486	526.34
29.5631	482.13
29.5775	451.35
29.5919	463.20
29.6064	513.48
29.6208	506.19
29.6353	489.70
29.6497	506.25
29.6641	517.66
29.6786	527.18
29.6930	482.04
29.7075	506.04
29.7219	504.67
29.7363	504.96
29.7508	510.82
29.7652	494.78
29.7797	512.50
29.7941	504.68
29.8085	509.60
29.8230	463.59
29.8374	468.25
29.8519	488.93
29.8663	523.43
29.8807	532.29
29.8952	543.00
29.9096	544.47
29.9241	538.98
29.9385	487.78
29.9529	515.03
29.9674	476.78
29.9818	523.51
29.9963	547.82
30.0107	529.32
30.0251	529.36
30.0396	535.61
30.0540	473.45
30.0685	519.73
30.0829	496.33
30.0973	510.36
30.1118	518.39
30.1262	493.28
30.1407	486.65
30.1551	512.29
30.1695	530.08
30.1840	497.54
30.1984	516.91
30.2129	517.38
30.2273	486.84
30.2417	477.27
30.2562	513.49
30.2706	486.38
30.2851	508.01
30.2995	487.37
30.3139	489.97
30.3284	518.18
30.3428	471.87
30.3573	481.46
30.3717	486.58
30.3861	494.52
30.4006	512.38
30.4150	529.32
30.4295	545.27
30.4439	497.66
30.4583	551.28
30.4728	558.77
30.4872	591.52
30.5017	564.46
30.5161	589.81
30.5305	599.18
30.5450	626.65
30.5594	647.12
30.5739	690.29
30.5883	715.52
30.6028	753.11
30.6172	731.02
30.6316	706.28
30.6461	686.31
30.6605	670.34
30.6750	663.67
30.6894	651.61
30.7038	648.08
30.7183	635.65
30.7327	572.65
30.7472	559.43
30.7616	564.14
30.7760	532.22
30.7905	536.44
30.8049	557.02
30.8194	540.41
30.8338	510.67
30.8482	538.56
30.8627	520.81
30.8771	520.93
30.8916	544.89
30.9060	553.69
30.9204	510.02
30.9349	529.45
30.9493	536.48
30.9638	491.81
30.9782	497.18
30.9926	522.35
31.0071	514.88
31.0215	524.29
31.0360	503.28
31.0504	506.24
31.0648	513.10
31.0793	520.77
31.0937	507.93
31.1082	493.24
31.1226	505.36
31.1370	502.40
31.1515	505.87
31.1659	497.84
31.1804	494.91
31.1948	514.34
31.2092	504.07
31.2237	518.84
31.2381	518.99
31.2526	520.20
31.2670	536.46
31.2814	522.35
31.2959	526.86
31.3103	518.63
31.3248	522.10
31.3392	575.86
31.3536	537.25
31.3681	518.70
31.3825	504.19
31.3970	503.68
31.4114	496.73
31.4258	536.42
31.4403	505.05
31.4547	515.15
31.4692	534.77
31.4836	498.61
31.4980	513.68
31.5125	493.10
31.5269	515.21
31.5414	500.20
31.5558	501.99
31.5702	500.22
31.5847	495.95
31.5991	478.18
31.6136	535.43
31.6280	509.84
31.6424	488.19
31.6569	510.29
31.6713	520.36
31.6858	524.23
31.7002	503.12
31.7146	496.46
31.7291	481.10
31.7435	475.04
31.7580	494.56
31.7724	500.98
31.7868	518.00
31.8013	539.33
31.8157	525.47
31.8302	515.98
31.8446	478.20
31.8590	509.25
31.8735	509.87
31.8879	515.01
31.9024	554.19
31.9168	518.63
31.9312	482.37
31.9457	462.77
31.9601	467.59
31.9746	481.57
31.9890	473.90
32.0034	498.95
32.0179	495.78
32.0323	506.05
32.0468	517.36
32.0612	544.61
32.0756	529.54
32.0901	530.86
32.1045	499.88
32.1190	505.63
32.1334	507.67
32.1478	473.99
32.1623	495.49
32.1767	506.97
32.1912	490.18
32.2056	484.36
32.2200	522.19
32.2345	487.94
32.2489	522.43
32.2634	490.36
32.2778	493.71
32.2922	475.97
32.3067	511.09
32.3211	489.27
32.3356	514.25
32.3500	503.94
32.3644	504.13
32.3789	509.15
32.3933	519.77
32.4078	499.93
32.4222	501.38
32.4366	508.94
32.4511	490.62
32.4655	481.85
32.4800	498.51
32.4944	526.34
32.5088	489.23
32.5233	505.94
32.5377	496.94
32.5522	507.14
32.5666	489.48
32.5810	496.13
32.5955	505.47
32.6099	477.80
32.6244	504.09
32.6388	530.65
32.6532	511.97
32.6677	484.73
32.6821	517.36
32.6966	504.53
32.7110	540.08
32.7254	503.89
32.7399	487.68
32.7543	479.46
32.7688	482.05
32.7832	550.68
32.7976	504.82
32.8121	511.53
32.8265	502.49
32.8410	498.55
32.8554	507.74
32.8698	496.77
32.8843	481.28
32.8987	500.46
32.9132	498.91
32.9276	515.92
32.9420	516.68
32.9565	511.67
32.9709	485.50
32.9854	503.05
32.9998	514.38
33.0142	478.17
33.0287	495.22
33.0431	522.98
33.0576	532.44
33.0720	508.25
33.0864	509.09
33.1009	514.70
33.1153	503.84
33.1298	466.18
33.1442	474.16
33.1586	491.83
33.1731	497.50
33.1875	488.67
33.2020	478.21
33.2164	467.77
33.2308	493.81
33.2453	484.54
33.2597	485.28
33.2742	494.21
33.2886	536.19
33.3030	463.60
33.3175	469.96
33.3319	530.43
33.3464	535.98
33.3608	520.15
33.3752	471.48
33.3897	474.03
33.4041	479.84
33.4186	474.75
33.4330	511.45
33.4474	482.35
33.4619	511.66
33.4763	509.90
33.4908	489.26
33.5052	521.85
33.5196	502.28
33.5341	463.54
33.5485	491.78
33.5630	495.37
33.5774	525.94
33.5918	529.07
33.6063	470.36
33.6207	500.19
33.6352	499.60
33.6496	496.36
33.6640	501.05
33.6785	441.65
33.6929	478.35
33.7074	488.91
33.7218	502.59
33.7362	483.78
33.7507	511.86
33.7651	541.16
33.7796	530.84
33.7940	480.87
33.8084	505.89
33.8229	491.86
33.8373	490.91
33.8518	498.64
33.8662	466.34
33.8806	463.28
33.8951	471.00
33.9095	501.21
33.9240	489.66
33.9384	493.67
33.9528	493.65
33.9673	465.42
33.9817	499.42
33.9962	530.65
34.0106	495.17
34.0250	495.48
34.0395	489.16
34.0539	520.38
34.0684	516.14
34.0828	479.85
34.0972	486.94
34.1117	497.92
34.1261	487.16
34.1406	481.68
34.1550	477.93
34.1694	505.40
34.1839	528.17
34.1983	504.04
34.2128	526.37
34.2272	500.95
34.2417	480.84
34.2561	481.79
34.2705	488.97
34.2850	501.47
34.2994	497.32
34.3139	496.74
34.3283	495.84
34.3427	491.40
34.3572	519.62
34.3716	512.90
34.3861	476.57
34.4005	495.34
34.4149	495.90
34.4294	519.53
34.4438	498.47
34.4583	484.43
34.4727	533.99
34.4871	530.05
34.5016	493.93
34.5160	518.32
34.5305	501.08
34.5449	490.34
34.5593	508.73
34.5738	455.69
34.5882	462.82
34.6027	513.57
34.6171	487.58
34.6315	497.32
34.6460	523.35
34.6604	523.50
34.6749	507.14
34.6893	526.17
34.7037	522.74
34.7182	507.65
34.7326	510.74
34.7471	518.43
34.7615	504.72
34.7759	525.37
34.7904	520.81
34.8048	500.60
34.8193	499.88
34.8337	514.93
34.8481	539.05
34.8626	549.18
34.8770	515.00
34.8915	504.20
34.9059	478.65
34.9203	484.00
34.9348	510.88
34.9492	500.21
34.9637	469.90
34.9781	478.25
34.9925	504.42
35.0070	506.78
35.0214	485.47
35.0359	521.81
35.0503	523.04
35.0647	556.83
35.0792	540.50
35.0936	530.93
35.1081	521.61
35.1225	516.86
35.1369	488.35
35.1514	502.84
35.1658	511.38
35.1803	503.22
35.1947	513.67
35.2091	504.28
35.2236	489.26
35.2380	503.00
35.2525	496.80
35.2669	490.60
35.2813	507.35
35.2958	503.21
35.3102	521.40
35.3247	479.67
35.3391	519.56
35.3535	512.86
35.3680	497.68
35.3824	511.06
35.3969	487.60
35.4113	512.38
35.4257	523.62
35.4402	505.61
35.4546	519.95
35.4691	537.74
35.4835	526.28
35.4979	507.38
35.5124	512.02
35.5268	487.68
35.5413	513.93
35.5557	543.02
35.5701	537.00
35.5846	551.72
35.5990	556.69
35.6135	514.24
35.6279	499.47
35.6423	515.36
35.6568	497.24
35.6712	518.64
35.6857	585.37
35.7001	675.00
35.7145	757.14
35.7290	740.15
35.7434	642.88
35.7579	555.35
35.7723	620.98
35.7867	710.22
35.8012	749.82
35.8156	781.81
35.8301	720.67
35.8445	680.43
35.8589	783.63
35.8734	843.97
35.8878	907.39
35.9023	1058.31
35.9167	1162.97
35.9311	1297.05
35.9456	1664.00
35.9600	2005.40
35.9745	2044.16
35.9889	2253.68
36.0033	2707.46
36.0178	3167.19
36.0322	3316.87
36.0467	2594.10
36.0611	2140.80
36.0755	1954.86
36.0900	2176.76
36.1044	1750.31
36.1189	1577.59
36.1333	1470.84
36.1477	1289.52
36.1622	1149.87
36.1766	973.99
36.1911	907.31
36.2055	847.33
36.2199	751.83
36.2344	702.34
36.2488	650.72
36.2633	586.94
36.2777	587.91
36.2921	573.57
36.3066	585.58
36.3210	577.26
36.3355	578.99
36.3499	537.64
36.3643	529.93
36.3788	534.49
36.3932	517.52
36.4077	533.43
36.4221	522.10
36.4365	549.43
36.4510	502.66
36.4654	525.44
36.4799	517.08
36.4943	518.19
36.5087	527.90
36.5232	508.14
36.5376	550.64
36.5521	521.01
36.5665	541.00
36.5809	520.43
36.5954	539.17
36.6098	512.89
36.6243	513.09
36.6387	537.11
36.6531	511.64
36.6676	521.22
36.6820	509.04
36.6965	504.16
36.7109	522.82
36.7253	534.23
36.7398	521.11
36.7542	544.21
36.7687	549.90
36.7831	551.94
36.7975	546.39
36.8120	585.80
36.8264	562.00
36.8409	573.61
36.8553	562.83
36.8697	586.55
36.8842	572.83
36.8986	616.41
36.9131	570.27
36.9275	532.46
36.9419	570.70
36.9564	566.40
36.9708	573.67
36.9853	594.44
36.9997	531.36
37.0141	535.59
37.0286	525.75
37.0430	505.10
37.0575	513.29
37.0719	534.75
37.0863	504.06
37.1008	523.87
37.1152	529.48
37.1297	516.96
37.1441	508.52
37.1585	506.19
37.1730	515.42
37.1874	530.20
37.2019	530.69
37.2163	520.19
37.2307	475.82
37.2452	511.04
37.2596	512.51
37.2741	515.15
37.2885	482.28
37.3029	490.83
37.3174	478.17
37.3318	522.40
37.3463	490.39
37.3607	485.41
37.3751	452.26
37.3896	504.47
37.4040	517.93
37.4185	524.35
37.4329	526.09
37.4473	502.56
37.4618	503.42
37.4762	507.18
37.4907	504.95
37.5051	474.49
37.5195	495.53
37.5340	505.14
37.5484	485.59
37.5629	497.10
37.5773	485.10
37.5917	488.42
37.6062	529.04
37.6206	522.54
37.6351	515.01
37.6495	481.95
37.6639	496.01
37.6784	514.98
37.6928	486.01
37.7073	532.29
37.7217	549.85
37.7361	477.01
37.7506	495.72
37.7650	481.73
37.7795	518.51
37.7939	497.17
37.8083	530.23
37.8228	498.84
37.8372	511.93
37.8517	515.31
37.8661	499.60
37.8805	486.72
37.8950	486.36
37.9094	499.91
37.9239	474.46
37.9383	475.67
37.9528	482.11
37.9672	490.09
37.9816	519.76
37.9961	532.25
38.0105	510.62
38.0250	510.38
38.0394	530.80
38.0538	533.19
38.0683	539.15
38.0827	556.48
38.0972	512.19
38.1116	519.04
38.1260	525.58
38.1405	493.34
38.1549	507.26
38.1694	520.08
38.1838	492.74
38.1982	475.14
38.2127	483.56
38.2271	484.35
38.2416	514.97
38.2560	490.19
38.2704	491.22
38.2849	485.69
38.2993	515.61
38.3138	503.77
38.3282	510.85
38.3426	506.34
38.3571	496.23
38.3715	512.19
38.3860	527.94
38.4004	517.05
38.4148	530.26
38.4293	571.92
38.4437	593.67
38.4582	584.45
38.4726	642.20
38.4870	669.52
38.5015	732.40
38.5159	774.07
38.5304	753.32
38.5448	761.67
38.5592	803.85
38.5737	755.57
38.5881	736.12
38.6026	733.02
38.6170	691.08
38.6314	647.63
38.6459	671.54
38.6603	645.24
38.6748	620.40
38.6892	585.51
38.7036	551.70
38.7181	537.17
38.7325	529.65
38.7470	559.72
38.7614	542.22
38.7758	526.70
38.7903	521.87
38.8047	506.23
38.8192	470.85
38.8336	477.76
38.8480	477.11
38.8625	494.44
38.8769	477.95
38.8914	472.74
38.9058	505.90
38.9202	496.01
38.9347	490.26
38.9491	478.86
38.9636	491.38
38.9780	529.55
38.9924	506.91
39.0069	496.36
39.0213	499.44
39.0358	502.83
39.0502	496.96
39.0646	511.90
39.0791	523.44
39.0935	515.82
39.1080	508.14
39.1224	476.32
39.1368	514.75
39.1513	472.72
39.1657	496.28
39.1802	492.44
39.1946	468.03
39.2090	498.80
39.2235	529.18
39.2379	517.12
39.2524	497.29
39.2668	482.37
39.2812	514.01
39.2957	501.25
39.3101	492.52
39.3246	531.90
39.3390	538.89
39.3534	513.02
39.3679	482.59
39.3823	466.84
39.3968	468.94
39.4112	478.50
39.4256	504.64
39.4401	497.91
39.4545	486.33
39.4690	508.26
39.4834	513.93
39.4978	513.24
39.5123	498.31
39.5267	484.05
39.5412	486.40
39.5556	488.79
39.5700	481.80
39.5845	511.01
39.5989	517.74
39.6134	483.50
39.6278	494.80
39.6422	488.57
39.6567	459.86
39.6711	463.92
39.6856	497.48
39.7000	472.43
39.7144	532.99
39.7289	464.18
39.7433	459.58
39.7578	492.36
39.7722	495.62
39.7866	508.61
39.8011	528.99
39.8155	492.93
39.8300	477.45
39.8444	498.96
39.8588	509.23
39.8733	516.14
39.8877	500.38
39.9022	535.21
39.9166	513.91
39.9310	513.60
39.9455	472.85
39.9599	531.21
39.9744	488.26
39.9888	497.77
40.0032	478.60
40.0177	495.67
40.0321	490.46
40.0466	489.64
40.0610	509.35
40.0754	474.33
40.0899	476.55
40.1043	498.16
40.1188	508.20
40.1332	527.88
40.1476	512.67
40.1621	486.89
40.1765	482.83
40.1910	490.36
40.2054	496.20
40.2198	484.33
40.2343	494.63
40.2487	489.25
40.2632	478.75
40.2776	476.01
40.2920	494.73
40.3065	510.73
40.3209	484.58
40.3354	496.74
40.3498	481.13
40.3642	482.28
40.3787	493.11
40.3931	521.32
40.4076	497.21
40.4220	501.47
40.4364	476.19
40.4509	492.63
40.4653	510.45
40.4798	505.04
40.4942	511.43
40.5086	492.50
40.5231	477.42
40.5375	490.49
40.5520	492.73
40.5664	490.60
40.5808	512.13
40.5953	532.29
40.6097	483.42
40.6242	525.83
40.6386	542.07
40.6530	489.99
40.6675	483.38
40.6819	484.13
40.6964	484.90
40.7108	524.35
40.7252	485.58
40.7397	477.80
40.7541	501.85
40.7686	480.45
40.7830	505.95
40.7974	494.18
40.8119	506.35
40.8263	499.82
40.8408	515.64
40.8552	528.94
40.8696	523.52
40.8841	460.18
40.8985	523.57
40.9130	505.93
40.9274	527.30
40.9418	506.99
40.9563	509.43
40.9707	493.97
40.9852	495.94
40.9996	475.40
41.0140	501.47
41.0285	497.27
41.0429	504.13
41.0574	502.39
41.0718	524.12
41.0862	464.69
41.1007	472.11
41.1151	477.82
41.1296	475.22
41.1440	444.17
41.1584	482.77
41.1729	502.14
41.1873	481.75
41.2018	481.29
41.2162	483.67
41.2306	482.61
41.2451	492.34
41.2595	486.46
41.2740	514.10
41.2884	506.07
41.3028	517.67
41.3173	514.06
41.3317	502.15
41.3462	527.46
41.3606	514.86
41.3750	479.53
41.3895	486.16
41.4039	472.91
41.4184	516.56
41.4328	524.87
41.4472	498.99
41.4617	487.33
41.4761	497.45
41.4906	497.69
41.5050	523.84
41.5194	454.55
41.5339	502.81
41.5483	526.99
41.5628	525.81
41.5772	480.79
41.5916	479.71
41.6061	521.92
41.6205	515.21
41.6350	520.96
41.6494	516.95
41.6639	509.09
41.6783	513.79
41.6927	480.53
41.7072	464.44
41.7216	501.14
41.7361	491.81
41.7505	495.82
41.7649	520.59
41.7794	549.27
41.7938	518.10
41.8083	513.80
41.8227	485.79
41.8371	515.84
41.8516	529.43
41.8660	541.55
41.8805	557.26
41.8949	541.71
41.9093	525.75
41.9238	551.25
41.9382	569.11
41.9527	556.59
41.9671	553.37
41.9815	594.46
41.9960	573.81
42.0104	522.68
42.0249	570.20
42.0393	568.49
42.0537	545.31
42.0682	569.94
42.0826	589.02
42.0971	603.56
42.1115	588.32
42.1259	590.71
42.1404	604.48
42.1548	614.03
42.1693	666.58
42.1837	684.63
42.1981	746.89
42.2126	820.82
42.2270	903.89
42.2415	1025.41
42.2559	1177.99
42.2703	1313.62
42.2848	1507.93
42.2992	1632.84
42.3137	1683.75
42.3281	1697.38
42.3425	1641.77
42.3570	1516.17
42.3714	1464.33
42.3859	1423.57
42.4003	1357.81
42.4147	1341.06
42.4292	1319.37
42.4436	1162.72
42.4581	1032.93
42.4725	926.01
42.4869	834.33
42.5014	745.08
42.5158	678.82
42.5303	663.79
42.5447	607.04
42.5591	611.50
42.5736	577.55
42.5880	548.98
42.6025	550.61
42.6169	556.69
42.6313	550.59
42.6458	554.76
42.6602	533.83
42.6747	541.40
42.6891	520.89
42.7035	528.30
42.7180	519.56
42.7324	504.56
42.7469	533.50
42.7613	509.60
42.7757	529.76
42.7902	541.29
42.8046	509.89
42.8191	525.94
42.8335	543.75
42.8479	537.91
42.8624	508.97
42.8768	477.64
42.8913	507.49
42.9057	541.29
42.9201	501.19
42.9346	514.93
42.9490	534.81
42.9635	525.49
42.9779	519.50
42.9923	516.01
43.0068	499.31
43.0212	505.35
43.0357	504.33
43.0501	504.81
43.0645	526.33
43.0790	525.23
43.0934	519.27
43.1079	514.94
43.1223	538.83
43.1367	533.51
43.1512	496.75
43.1656	512.83
43.1801	554.84
43.1945	514.17
43.2089	513.33
43.2234	494.82
43.2378	506.49
43.2523	554.02
43.2667	545.81
43.2811	554.45
43.2956	550.93
43.3100	541.94
43.3245	501.50
43.3389	531.96
43.3533	512.17
43.3678	537.91
43.3822	536.41
43.3967	519.11
43.4111	520.64
43.4255	553.44
43.4400	534.81
43.4544	505.07
43.4689	552.66
43.4833	508.74
43.4977	476.78
43.5122	500.93
43.5266	523.61
43.5411	520.98
43.5555	517.55
43.5699	485.62
43.5844	531.19
43.5988	511.55
43.6133	510.78
43.6277	547.82
43.6421	552.04
43.6566	564.50
43.6710	521.39
43.6855	534.84
43.6999	577.67
43.7143	587.22
43.7288	568.98
43.7432	607.07
43.7577	642.60
43.7721	638.44
43.7865	679.22
43.8010	656.09
43.8154	618.09
43.8299	637.29
43.8443	591.16
43.8587	606.41
43.8732	616.54
43.8876	597.07
43.9021	577.86
43.9165	559.51
43.9309	557.35
43.9454	587.97
43.9598	511.02
43.9743	525.13
43.9887	556.14
44.0031	516.85
44.0176	504.79
44.0320	519.95
44.0465	518.52
44.0609	510.96
44.0753	471.80
44.0898	520.22
44.1042	486.03
44.1187	513.29
44.1331	504.59
44.1475	492.47
44.1620	507.19
44.1764	507.15
44.1909	521.39
44.2053	532.75
44.2197	535.34
44.2342	530.33
44.2486	534.71
44.2631	533.37
44.2775	495.74
44.2919	502.89
44.3064	528.07
44.3208	513.99
44.3353	532.43
44.3497	535.93
44.3641	571.53
44.3786	536.56
44.3930	511.95
44.4075	555.11
44.4219	573.86
44.4363	577.09
44.4508	569.38
44.4652	565.85
44.4797	595.32
44.4941	591.67
44.5085	568.10
44.5230	561.49
44.5374	564.79
44.5519	588.38
44.5663	600.68
44.5807	553.37
44.5952	571.41
44.6096	586.97
44.6241	569.27
44.6385	596.76
44.6529	542.30
44.6674	558.60
44.6818	568.73
44.6963	600.36
44.7107	664.73
44.7251	717.70
44.7396	722.94
44.7540	794.44
44.7685	815.17
44.7829	862.30
44.7973	887.22
44.8118	858.71
44.8262	786.44
44.8407	800.56
44.8551	774.47
44.8695	764.97
44.8840	700.98
44.8984	745.39
44.9129	766.81
44.9273	724.01
44.9417	692.05
44.9562	620.06
44.9706	598.65
44.9851	548.70
44.9995	532.22
45.0139	507.11
45.0284	527.30
45.0428	550.65
45.0573	508.06
45.0717	505.60
45.0861	506.54
45.1006	531.04
45.1150	513.58
45.1295	537.99
45.1439	495.32
45.1583	536.46
45.1728	506.94
45.1872	501.36
45.2017	476.86
45.2161	538.59
45.2305	482.18
45.2450	491.50
45.2594	496.07
45.2739	526.16
45.2883	518.20
45.3028	529.82
45.3172	531.02
45.3316	540.89
45.3461	534.78
45.3605	492.17
45.3750	490.33
45.3894	494.95
45.4038	484.27
45.4183	488.74
45.4327	523.02
45.4472	504.07
45.4616	505.77
45.4760	486.28
45.4905	522.40
45.5049	485.16
45.5194	482.88
45.5338	511.78
45.5482	481.31
45.5627	507.41
45.5771	511.73
45.5916	487.29
45.6060	476.08
45.6204	494.09
45.6349	517.31
45.6493	554.82
45.6638	503.79
45.6782	475.85
45.6926	469.66
45.7071	521.30
45.7215	525.49
45.7360	496.01
45.7504	492.69
45.7648	474.38
45.7793	502.74
45.7937	503.14
45.8082	473.89
45.8226	486.77
45.8370	493.87
45.8515	464.93
45.8659	483.24
45.8804	502.41
45.8948	518.30
45.9092	563.02
45.9237	478.00
45.9381	479.60
45.9526	484.35
45.9670	512.71
45.9814	507.43
45.9959	524.91
46.0103	542.33
46.0248	518.73
46.0392	483.24
46.0536	494.65
46.0681	492.00
46.0825	511.45
46.0970	505.43
46.1114	503.49
46.1258	502.40
46.1403	478.87
46.1547	456.31
46.1692	492.42
46.1836	490.55
46.1980	467.65
46.2125	496.79
46.2269	538.13
46.2414	513.62
46.2558	486.32
46.2702	486.92
46.2847	533.20
46.2991	529.71
46.3136	490.75
46.3280	469.08
46.3424	524.21
46.3569	490.26
46.3713	517.72
46.3858	498.92
46.4002	508.48
46.4146	504.04
46.4291	525.42
46.4435	488.52
46.4580	490.36
46.4724	511.61
46.4868	487.81
46.5013	501.72
46.5157	505.88
46.5302	478.91
46.5446	474.61
46.5590	478.52
46.5735	489.98
46.5879	506.57
46.6024	484.33
46.6168	472.51
46.6312	492.34
46.6457	489.70
46.6601	498.40
46.6746	499.98
46.6890	477.83
46.7034	498.69
46.7179	474.39
46.7323	487.67
46.7468	490.69
46.7612	476.85
46.7756	496.83
46.7901	491.28
46.8045	507.76
46.8190	506.40
46.8334	519.57
46.8478	538.88
46.8623	544.91
46.8767	477.86
46.8912	500.50
46.9056	513.84
46.9200	494.61
46.9345	514.08
46.9489	527.32
46.9634	521.72
46.9778	509.63
46.9922	520.34
47.0067	531.33
47.0211	543.48
47.0356	528.61
47.0500	500.41
47.0644	515.33
47.0789	516.13
47.0933	546.54
47.1078	564.42
47.1222	542.31
47.1366	535.25
47.1511	507.16
47.1655	488.84
47.1800	522.82
47.1944	527.16
47.2088	529.41
47.2233	522.73
47.2377	515.63
47.2522	503.32
47.2666	508.09
47.2810	510.87
47.2955	494.20
47.3099	498.88
47.3244	507.59
47.3388	504.22
47.3532	528.43
47.3677	539.02
47.3821	504.90
47.3966	505.64
47.4110	471.58
47.4254	511.19
47.4399	471.49
47.4543	484.34
47.4688	507.19
47.4832	531.97
47.4976	475.51
47.5121	492.76
47.5265	495.28
47.5410	496.18
47.5554	509.66
47.5698	496.76
47.5843	516.11
47.5987	513.99
47.6132	485.95
47.6276	496.06
47.6420	509.68
47.6565	538.10
47.6709	509.83
47.6854	469.41
47.6998	484.40
47.7142	495.32
47.7287	485.88
47.7431	475.81
47.7576	497.41
47.7720	510.42
47.7864	485.76
47.8009	504.10
47.8153	531.37
47.8298	535.47
47.8442	511.58
47.8586	522.68
47.8731	544.05
47.8875	494.84
47.9020	525.48
47.9164	490.43
47.9308	495.02
47.9453	535.66
47.9597	507.34
47.9742	482.49
47.9886	508.23
48.0030	499.79
48.0175	493.94
48.0319	486.77
48.0464	507.75
48.0608	498.99
48.0752	505.65
48.0897	522.48
48.1041	473.13
48.1186	476.70
48.1330	524.14
48.1474	483.57
48.1619	473.38
48.1763	475.22
48.1908	508.63
48.2052	493.94
48.2196	522.72
48.2341	502.91
48.2485	540.33
48.2630	492.25
48.2774	502.71
48.2918	507.77
48.3063	472.23
48.3207	481.72
48.3352	509.13
48.3496	488.47
48.3640	508.63
48.3785	478.36
48.3929	480.87
48.4074	515.92
48.4218	511.54
48.4362	515.69
48.4507	508.12
48.4651	522.85
48.4796	505.44
48.4940	507.61
48.5084	479.70
48.5229	520.26
48.5373	526.16
48.5518	488.47
48.5662	488.63
48.5806	496.83
48.5951	513.24
48.6095	502.40
48.6240	518.42
48.6384	535.05
48.6528	496.76
48.6673	504.81
48.6817	486.64
48.6962	506.47
48.7106	558.87
48.7250	535.37
48.7395	532.49
48.7539	549.73
48.7684	484.45
48.7828	492.56
48.7972	547.99
48.8117	572.31
48.8261	565.25
48.8406	499.33
48.8550	527.73
48.8694	525.85
48.8839	546.48
48.8983	551.39
48.9128	528.21
48.9272	551.65
48.9416	556.27
48.9561	545.45
48.9705	499.82
48.9850	563.73
48.9994	567.99
49.0139	633.39
49.0283	633.89
49.0427	603.91
49.0572	626.20
49.0716	630.47
49.0861	651.60
49.1005	689.62
49.1149	702.21
49.1294	736.54
49.1438	720.59
49.1583	787.56
49.1727	862.66
49.1871	900.35
49.2016	942.61
49.2160	1034.30
49.2305	1107.15
49.2449	1244.58
49.2593	1310.06
49.2738	1415.70
49.2882	1573.98
49.3027	1585.91
49.3171	1653.85
49.3315	1799.81
49.3460	1839.68
49.3604	1804.35
49.3749	1800.05
49.3893	1843.95
49.4037	1788.40
49.4182	1781.53
49.4326	1897.60
49.4471	1677.49
49.4615	1654.89
49.4759	1581.67
49.4904	1516.97
49.5048	1426.85
49.5193	1392.51
49.5337	1278.34
49.5481	1230.55
49.5626	1098.15
49.5770	1061.01
49.5915	997.12
49.6059	931.60
49.6203	885.06
49.6348	835.75
49.6492	759.86
49.6637	706.72
49.6781	683.93
49.6925	679.98
49.7070	669.89
49.7214	631.91
49.7359	631.69
49.7503	611.22
49.7647	539.34
49.7792	618.66
49.7936	605.78
49.8081	580.57
49.8225	571.44
49.8369	520.05
49.8514	559.71
49.8658	543.68
49.8803	556.13
49.8947	564.55
49.9091	552.42
49.9236	535.83
49.9380	520.46
49.9525	526.36
49.9669	530.89
49.9813	541.45
49.9958	551.32
50.0102	514.67
50.0247	535.57
50.0391	549.23
50.0535	530.16
50.0680	519.98
50.0824	540.68
50.0969	544.71
50.1113	544.17
50.1257	515.38
50.1402	509.07
50.1546	533.66
50.1691	528.98
50.1835	528.16
50.1979	525.49
50.2124	498.96
50.2268	515.89
50.2413	526.73
50.2557	527.12
50.2701	517.44
50.2846	561.24
50.2990	492.54
50.3135	491.73
50.3279	522.32
50.3423	524.02
50.3568	520.64
50.3712	510.62
50.3857	510.72
50.4001	511.40
50.4145	529.25
50.4290	552.96
50.4434	497.15
50.4579	515.60
50.4723	523.16
50.4867	533.79
50.5012	511.97
50.5156	496.87
50.5301	470.98
50.5445	503.27
50.5589	506.67
50.5734	511.32
50.5878	482.79
50.6023	490.40
50.6167	507.65
50.6311	505.79
50.6456	501.63
50.6600	493.51
50.6745	515.01
50.6889	508.61
50.7033	504.55
50.7178	484.99
50.7322	504.88
50.7467	489.29
50.7611	477.50
50.7755	546.99
50.7900	551.25
50.8044	523.75
50.8189	529.28
50.8333	516.28
50.8477	497.66
50.8622	533.27
50.8766	556.73
50.8911	503.25
50.9055	519.06
50.9199	518.10
50.9344	517.47
50.9488	540.78
50.9633	511.71
50.9777	489.89
50.9921	496.99
51.0066	514.01
51.0210	521.15
51.0355	513.28
51.0499	510.90
51.0643	521.52
51.0788	514.79
51.0932	533.27
51.1077	513.67
51.1221	521.83
51.1365	508.32
51.1510	502.99
51.1654	553.61
51.1799	541.41
51.1943	510.53
51.2087	512.78
51.2232	518.02
51.2376	529.76
51.2521	517.16
51.2665	486.56
51.2809	500.65
51.2954	501.44
51.3098	546.61
51.3243	535.68
51.3387	531.23
51.3531	501.22
51.3676	543.70
51.3820	533.64
51.3965	526.80
51.4109	523.71
51.4253	524.42
51.4398	511.66
51.4542	483.85
51.4687	509.08
51.4831	528.72
51.4975	509.21
51.5120	494.22
51.5264	505.99
51.5409	490.98
51.5553	523.01
51.5697	482.67
51.5842	500.39
51.5986	508.30
51.6131	521.65
51.6275	511.16
51.6419	516.75
51.6564	528.10
51.6708	521.67
51.6853	479.87
51.6997	465.32
51.7141	523.16
51.7286	517.77
51.7430	485.91
51.7575	493.26
51.7719	494.86
51.7863	499.61
51.8008	494.72
51.8152	506.33
51.8297	538.04
51.8441	524.08
51.8585	502.35
51.8730	508.54
51.8874	504.74
51.9019	507.51
51.9163	530.62
51.9307	543.23
51.9452	536.51
51.9596	493.49
51.9741	522.68
51.9885	513.42
52.0029	492.65
52.0174	495.82
52.0318	495.77
52.0463	458.58
52.0607	514.27
52.0751	494.64
52.0896	548.38
52.1040	505.56
52.1185	541.41
52.1329	532.54
52.1473	488.01
52.1618	500.00
52.1762	491.58
52.1907	504.54
52.2051	497.82
52.2195	498.77
52.2340	479.11
52.2484	492.56
52.2629	491.08
52.2773	527.21
52.2917	530.63
52.3062	528.42
52.3206	518.90
52.3351	522.87
52.3495	490.67
52.3639	516.19
52.3784	515.55
52.3928	489.40
52.4073	482.86
52.4217	533.46
52.4361	523.28
52.4506	501.08
52.4650	539.11
52.4795	526.95
52.4939	482.58
52.5083	523.73
52.5228	543.04
52.5372	485.08
52.5517	507.19
52.5661	503.27
52.5805	505.39
52.5950	502.69
52.6094	482.75
52.6239	470.21
52.6383	522.00
52.6527	513.92
52.6672	489.04
52.6816	493.10
52.6961	512.61
52.7105	516.58
52.7250	516.64
52.7394	476.14
52.7538	496.46
52.7683	493.73
52.7827	529.51
52.7972	501.68
52.8116	540.55
52.8260	516.68
52.8405	461.45
52.8549	478.06
52.8694	492.49
52.8838	526.06
52.8982	549.76
52.9127	504.32
52.9271	520.15
52.9416	524.99
52.9560	490.86
52.9704	508.06
52.9849	522.05
52.9993	515.62
53.0138	507.65
53.0282	515.78
53.0426	506.59
53.0571	501.78
53.0715	500.78
53.0860	514.20
53.1004	508.23
53.1148	521.11
53.1293	530.55
53.1437	477.58
53.1582	498.82
53.1726	496.11
53.1870	513.74
53.2015	499.26
53.2159	551.32
53.2304	487.73
53.2448	517.05
53.2592	537.90
53.2737	502.29
53.2881	528.03
53.3026	514.49
53.3170	496.89
53.3314	516.49
53.3459	512.45
53.3603	482.40
53.3748	477.69
53.3892	510.30
53.4036	504.75
53.4181	494.90
53.4325	522.64
53.4470	495.05
53.4614	508.52
53.4758	551.28
53.4903	568.35
53.5047	509.78
53.5192	518.74
53.5336	526.47
53.5480	540.28
53.5625	536.06
53.5769	502.74
53.5914	512.77
53.6058	518.65
53.6202	490.24
53.6347	485.84
53.6491	502.42
53.6636	506.56
53.6780	489.25
53.6924	485.16
53.7069	577.57
53.7213	528.87
53.7358	507.86
53.7502	481.91
53.7646	505.30
53.7791	530.55
53.7935	492.52
53.8080	512.36
53.8224	484.50
53.8368	534.71
53.8513	520.08
53.8657	523.67
53.8802	491.81
53.8946	509.21
53.9090	486.30
53.9235	518.68
53.9379	537.45
53.9524	531.00
53.9668	532.56
53.9812	532.09
53.9957	523.78
54.0101	515.24
54.0246	554.47
54.0390	520.72
54.0534	541.54
54.0679	528.27
54.0823	559.59
54.0968	548.03
54.1112	529.44
54.1256	540.43
54.1401	571.86
54.1545	526.40
54.1690	516.67
54.1834	558.12
54.1978	567.28
54.2123	528.76
54.2267	553.26
54.2412	585.71
54.2556	604.84
54.2700	610.01
54.2845	624.57
54.2989	605.24
54.3134	601.23
54.3278	632.22
54.3422	642.20
54.3567	641.02
54.3711	600.92
54.3856	582.26
54.4000	585.72
54.4144	594.69
54.4289	616.76
54.4433	572.52
54.4578	561.46
54.4722	591.44
54.4866	567.19
54.5011	563.50
54.5155	561.65
54.5300	576.67
54.5444	556.01
54.5588	544.21
54.5733	548.11
54.5877	513.63
54.6022	501.17
54.6166	535.98
54.6310	524.94
54.6455	519.99
54.6599	530.59
54.6744	506.43
54.6888	536.55
54.7032	541.36
54.7177	492.99
54.7321	489.41
54.7466	524.25
54.7610	484.24
54.7754	521.38
54.7899	525.42
54.8043	540.69
54.8188	509.29
54.8332	526.46
54.8476	549.70
54.8621	516.20
54.8765	507.19
54.8910	527.50
54.9054	534.26
54.9198	514.79
54.9343	533.88
54.9487	534.92
54.9632	520.13
54.9776	519.26
54.9920	516.91
55.0065	512.92
55.0209	520.77
55.0354	530.74
55.0498	520.17
55.0642	536.85
55.0787	554.76
55.0931	524.44
55.1076	512.55
55.1220	527.63
55.1364	526.89
55.1509	506.78
55.1653	521.93
55.1798	520.24
55.1942	505.36
55.2086	519.60
55.2231	530.43
55.2375	512.95
55.2520	542.69
55.2664	513.27
55.2808	541.05
55.2953	524.28
55.3097	492.07
55.3242	505.38
55.3386	495.98
55.3530	486.50
55.3675	494.38
55.3819	499.15
55.3964	505.11
55.4108	511.09
55.4252	515.56
55.4397	523.56
55.4541	497.03
55.4686	531.91
55.4830	535.10
55.4974	496.53
55.5119	479.84
55.5263	487.75
55.5408	527.18
55.5552	536.03
55.5696	559.24
55.5841	506.57
55.5985	522.88
55.6130	568.28
55.6274	561.25
55.6418	533.84
55.6563	555.63
55.6707	527.52
55.6852	517.95
55.6996	543.99
55.7140	512.52
55.7285	517.49
55.7429	503.72
55.7574	515.97
55.7718	521.51
55.7862	547.69
55.8007	532.73
55.8151	562.96
55.8296	535.58
55.8440	569.53
55.8584	508.96
55.8729	506.65
55.8873	513.06
55.9018	495.95
55.9162	502.32
55.9306	527.71
55.9451	564.76
55.9595	531.96
55.9740	538.73
55.9884	530.92
56.0028	503.21
56.0173	482.47
56.0317	494.08
56.0462	515.43
56.0606	493.07
56.0750	521.25
56.0895	547.99
56.1039	533.52
56.1184	540.13
56.1328	531.69
56.1472	507.53
56.1617	536.80
56.1761	528.10
56.1906	512.60
56.2050	548.95
56.2194	514.34
56.2339	514.39
56.2483	518.13
56.2628	513.17
56.2772	529.67
56.2916	506.62
56.3061	513.79
56.3205	514.65
56.3350	526.27
56.3494	534.45
56.3639	548.45
56.3783	527.65
56.3927	557.14
56.4072	524.54
56.4216	509.21
56.4361	533.67
56.4505	548.92
56.4649	562.74
56.4794	555.64
56.4938	557.15
56.5083	527.89
56.5227	540.08
56.5371	520.02
56.5516	510.19
56.5660	518.31
56.5805	488.17
56.5949	514.02
56.6093	529.71
56.6238	504.12
56.6382	534.92
56.6527	512.17
56.6671	496.29
56.6815	493.31
56.6960	489.55
56.7104	541.92
56.7249	526.75
56.7393	505.43
56.7537	507.90
56.7682	515.25
56.7826	522.40
56.7971	522.42
56.8115	512.46
56.8259	539.67
56.8404	504.59
56.8548	534.20
56.8693	525.43
56.8837	488.15
56.8981	524.26
56.9126	517.06
56.9270	521.49
56.9415	542.32
56.9559	519.74
56.9703	535.63
56.9848	513.91
56.9992	509.15
57.0137	518.26
57.0281	525.33
57.0425	509.99
57.0570	479.25
57.0714	481.33
57.0859	500.48
57.1003	541.19
57.1147	563.62
57.1292	505.17
57.1436	506.04
57.1581	524.37
57.1725	531.95
57.1869	513.47
57.2014	502.20
57.2158	503.49
57.2303	538.94
57.2447	537.66
57.2591	512.58
57.2736	506.61
57.2880	535.42
57.3025	523.14
57.3169	543.69
57.3313	543.32
57.3458	525.59
57.3602	537.79
57.3747	559.55
57.3891	534.48
57.4035	529.88
57.4180	515.31
57.4324	517.35
57.4469	488.05
57.4613	523.40
57.4757	520.61
57.4902	535.66
57.5046	539.52
57.5191	550.80
57.5335	552.22
57.5479	534.58
57.5624	552.33
57.5768	523.08
57.5913	516.25
57.6057	505.32
57.6201	518.56
57.6346	533.62
57.6490	516.81
57.6635	515.07
57.6779	515.79
57.6923	534.50
57.7068	531.56
57.7212	579.51
57.7357	538.35
57.7501	516.94
57.7645	506.21
57.7790	547.91
57.7934	581.79
57.8079	586.58
57.8223	585.27
57.8367	596.70
57.8512	650.65
57.8656	648.42
57.8801	681.94
57.8945	698.51
57.9089	746.81
57.9234	733.91
57.9378	740.50
57.9523	738.35
57.9667	675.39
57.9811	652.21
57.9956	642.75
58.0100	648.65
58.0245	668.73
58.0389	673.76
58.0533	696.10
58.0678	644.70
58.0822	649.49
58.0967	644.41
58.1111	631.77
58.1255	612.86
58.1400	575.53
58.1544	593.61
58.1689	567.66
58.1833	584.07
58.1977	561.32
58.2122	542.57
58.2266	559.51
58.2411	556.62
58.2555	565.33
58.2699	557.02
58.2844	590.58
58.2988	545.32
58.3133	550.58
58.3277	552.73
58.3421	550.53
58.3566	561.72
58.3710	558.53
58.3855	522.72
58.3999	526.41
58.4143	515.35
58.4288	541.33
58.4432	511.65
58.4577	520.40
58.4721	544.08
58.4865	504.95
58.5010	503.73
58.5154	506.37
58.5299	539.89
58.5443	538.33
58.5587	542.43
58.5732	505.40
58.5876	530.13
58.6021	529.26
58.6165	533.32
58.6309	536.10
58.6454	531.78
58.6598	517.42
58.6743	519.58
58.6887	540.56
58.7031	556.51
58.7176	551.35
58.7320	523.46
58.7465	526.18
58.7609	550.50
58.7753	548.89
58.7898	491.08
58.8042	498.71
58.8187	530.59
58.8331	510.01
58.8475	533.05
58.8620	524.27
58.8764	516.97
58.8909	491.94
58.9053	542.88
58.9197	542.60
58.9342	549.74
58.9486	539.79
58.9631	509.95
58.9775	489.05
58.9919	488.23
59.0064	478.66
59.0208	538.02
59.0353	554.44
59.0497	540.41
59.0641	528.50
59.0786	528.24
59.0930	523.54
59.1075	535.16
59.1219	557.50
59.1363	509.47
59.1508	510.76
59.1652	541.40
59.1797	538.16
59.1941	509.21
59.2085	554.34
59.2230	545.24
59.2374	553.01
59.2519	552.12
59.2663	517.09
59.2807	544.72
59.2952	538.60
59.3096	551.98
59.3241	572.22
59.3385	577.64
59.3529	543.90
59.3674	534.36
59.3818	546.75
59.3963	553.06
59.4107	542.78
59.4251	561.88
59.4396	578.56
59.4540	534.97
59.4685	556.24
59.4829	547.70
59.4973	552.81
59.5118	569.46
59.5262	557.94
59.5407	537.67
59.5551	528.24
59.5695	534.23
59.5840	531.66
59.5984	532.62
59.6129	523.56
59.6273	540.91
59.6417	553.68
59.6562	531.73
59.6706	534.24
59.6851	531.78
59.6995	538.29
59.7139	534.45
59.7284	515.50
59.7428	541.27
59.7573	557.55
59.7717	537.38
59.7861	506.98
59.8006	515.65
59.8150	539.42
59.8295	539.32
59.8439	544.09
59.8583	535.10
59.8728	546.71
59.8872	507.65
59.9017	543.69
59.9161	529.29
59.9305	543.37
59.9450	534.64
59.9594	531.01
59.9739	529.64
59.9883	545.30
60.0027	510.74
60.0172	530.24
60.0316	516.87
60.0461	517.69
60.0605	544.55
60.0750	542.72
60.0894	536.96
60.1038	505.74
60.1183	533.10
60.1327	545.21
60.1472	516.13
60.1616	545.83
60.1760	543.51
60.1905	549.55
60.2049	556.51
60.2194	558.81
60.2338	520.60
60.2482	523.12
60.2627	546.21
60.2771	549.93
60.2916	534.92
60.3060	569.31
60.3204	525.14
60.3349	543.64
60.3493	555.28
60.3638	538.66
60.3782	496.61
60.3926	532.86
60.4071	518.65
60.4215	542.78
60.4360	548.52
60.4504	546.19
60.4648	532.79
60.4793	535.50
60.4937	549.23
60.5082	522.33
60.5226	529.88
60.5370	542.60
60.5515	554.86
60.5659	521.51
60.5804	536.54
60.5948	528.25
60.6092	551.70
60.6237	549.10
60.6381	561.91
60.6526	530.94
60.6670	539.84
60.6814	578.78
60.6959	531.70
60.7103	501.51
60.7248	510.99
60.7392	527.75
60.7536	551.90
60.7681	525.49
60.7825	563.29
60.7970	526.74
60.8114	556.11
60.8258	538.23
60.8403	530.46
60.8547	538.93
60.8692	543.64
60.8836	556.57
60.8980	549.26
60.9125	521.98
60.9269	517.87
60.9414	545.01
60.9558	552.48
60.9702	511.52
60.9847	505.50
60.9991	525.24
61.0136	553.58
61.0280	540.93
61.0424	512.36
61.0569	540.40
61.0713	534.40
61.0858	540.71
61.1002	588.50
61.1146	554.71
61.1291	580.35
61.1435	545.45
61.1580	509.69
61.1724	513.29
61.1868	568.11
61.2013	542.90
61.2157	533.39
61.2302	563.83
61.2446	555.38
61.2590	546.31
61.2735	521.81
61.2879	553.51
61.3024	523.61
61.3168	544.00
61.3312	578.18
61.3457	589.63
61.3601	510.34
61.3746	563.59
61.3890	544.08
61.4034	563.38
61.4179	547.30
61.4323	537.97
61.4468	536.05
61.4612	527.86
61.4756	529.90
61.4901	569.97
61.5045	531.14
61.5190	534.14
61.5334	538.46
61.5478	553.88
61.5623	535.74
61.5767	521.17
61.5912	544.08
61.6056	533.53
61.6200	546.70
61.6345	558.84
61.6489	525.40
61.6634	521.44
61.6778	514.95
61.6922	509.40
61.7067	548.30
61.7211	553.68
61.7356	539.89
61.7500	537.99
61.7644	556.06
61.7789	573.93
61.7933	533.44
61.8078	528.28
61.8222	535.37
61.8366	547.69
61.8511	564.31
61.8655	585.71
61.8800	546.78
61.8944	558.20
61.9088	541.77
61.9233	547.66
61.9377	598.04
61.9522	534.64
61.9666	541.16
61.9810	551.45
61.9955	535.13
62.0099	554.81
62.0244	592.22
62.0388	534.80
62.0532	545.90
62.0677	552.02
62.0821	549.41
62.0966	565.02
62.1110	547.61
62.1254	564.24
62.1399	525.82
62.1543	486.83
62.1688	547.88
62.1832	543.62
62.1976	481.57
62.2121	571.97
62.2265	568.62
62.2410	556.85
62.2554	529.88
62.2698	556.99
62.2843	539.78
62.2987	558.63
62.3132	567.14
62.3276	571.12
62.3420	562.79
62.3565	546.34
62.3709	543.46
62.3854	522.98
62.3998	547.80
62.4142	529.97
62.4287	568.25
62.4431	549.35
62.4576	555.28
62.4720	551.29
62.4864	550.36
62.5009	532.76
62.5153	554.46
62.5298	571.90
62.5442	521.50
62.5586	545.33
62.5731	548.78
62.5875	561.57
62.6020	568.89
62.6164	573.73
62.6308	555.12
62.6453	554.32
62.6597	554.24
62.6742	564.40
62.6886	543.98
62.7030	570.39
62.7175	544.63
62.7319	549.16
62.7464	568.45
62.7608	545.51
62.7752	562.68
62.7897	538.63
62.8041	599.30
62.8186	582.41
62.8330	560.74
62.8474	583.17
62.8619	596.65
62.8763	571.70
62.8908	542.68
62.9052	550.08
62.9196	553.15
62.9341	585.66
62.9485	566.56
62.9630	579.13
62.9774	558.80
62.9918	566.00
63.0063	548.29
63.0207	568.78
63.0352	593.56
63.0496	566.80
63.0640	567.42
63.0785	556.15
63.0929	547.56
63.1074	562.70
63.1218	605.79
63.1362	608.10
63.1507	564.69
63.1651	581.85
63.1796	587.86
63.1940	572.72
63.2084	586.08
63.2229	597.13
63.2373	581.21
63.2518	589.35
63.2662	559.02
63.2806	579.67
63.2951	575.29
63.3095	580.56
63.3240	587.86
63.3384	605.13
63.3528	620.31
63.3673	603.81
63.3817	590.21
63.3962	612.70
63.4106	586.59
63.4250	630.49
63.4395	618.57
63.4539	590.84
63.4684	654.50
63.4828	684.04
63.4972	712.85
63.5117	701.41
63.5261	751.34
63.5406	792.29
63.5550	824.88
63.5694	867.71
63.5839	915.70
63.5983	919.36
63.6128	939.80
63.6272	908.65
63.6416	845.17
63.6561	837.35
63.6705	799.91
63.6850	799.85
63.6994	796.93
63.7138	839.17
63.7283	822.96
63.7427	808.06
63.7572	833.22
63.7716	809.22
63.7861	819.46
63.8005	796.47
63.8149	766.62
63.8294	747.98
63.8438	692.75
63.8583	709.08
63.8727	669.91
63.8871	650.98
63.9016	683.84
63.9160	637.65
63.9305	630.20
63.9449	634.87
63.9593	591.54
63.9738	594.52
63.9882	641.13
64.0027	623.75
64.0171	636.71
64.0315	627.56
64.0460	590.70
64.0604	612.77
64.0749	630.74
64.0893	640.25
64.1037	598.12
64.1182	598.81
64.1326	606.34
64.1471	541.27
64.1615	616.64
64.1759	620.24
64.1904	594.05
64.2048	572.80
64.2193	574.99
64.2337	624.03
64.2481	657.85
64.2626	601.31
64.2770	585.75
64.2915	582.00
64.3059	584.04
64.3203	649.11
64.3348	607.95
64.3492	612.03
64.3637	617.11
64.3781	599.23
64.3925	576.74
64.4070	580.46
64.4214	611.34
64.4359	613.10
64.4503	615.64
64.4647	638.67
64.4792	640.90
64.4936	628.47
64.5081	604.15
64.5225	608.58
64.5369	624.20
64.5514	613.24
64.5658	620.27
64.5803	613.93
64.5947	636.33
64.6091	638.98
64.6236	621.61
64.6380	641.66
64.6525	655.52
64.6669	686.96
64.6813	653.84
64.6958	631.21
64.7102	680.10
64.7247	702.59
64.7391	689.95
64.7535	677.02
64.7680	705.68
64.7824	733.27
64.7969	691.77
64.8113	742.06
64.8257	783.49
64.8402	810.67
64.8546	831.48
64.8691	847.11
64.8835	853.51
64.8979	829.88
64.9124	848.55
64.9268	892.36
64.9413	888.59
64.9557	879.17
64.9701	938.95
64.9846	1080.26
64.9990	1077.12
65.0135	1257.55
65.0279	1356.33
65.0423	1611.03
65.0568	1984.97
65.0712	2447.48
65.0857	3247.37
65.1001	4159.81
65.1145	5737.72
65.1290	7548.72
65.1434	9132.74
65.1579	10512.87
65.1723	11591.79
65.1867	11182.38
65.2012	10094.84
65.2156	8318.97
65.2301	6663.98
65.2445	5407.43
65.2589	4330.11
65.2734	4077.70
65.2878	4253.76
65.3023	4790.00
65.3167	5550.31
65.3311	6327.43
65.3456	6836.39
65.3600	6971.88
65.3745	6402.48
65.3889	5580.47
65.4033	4504.27
65.4178	3483.24
65.4322	2750.42
65.4467	2103.47
65.4611	1731.38
65.4755	1455.64
65.4900	1291.84
65.5044	1172.61
65.5189	1086.22
65.5333	977.11
65.5477	939.55
65.5622	875.09
65.5766	815.72
65.5911	797.39
65.6055	806.70
65.6199	744.80
65.6344	722.27
65.6488	751.65
65.6633	704.24
65.6777	717.86
65.6921	714.50
65.7066	734.45
65.7210	692.50
65.7355	691.64
65.7499	689.67
65.7643	653.53
65.7788	668.00
65.7932	683.84
65.8077	683.22
65.8221	657.18
65.8365	658.28
65.8510	623.80
65.8654	628.25
65.8799	639.83
65.8943	625.61
65.9087	646.39
65.9232	624.55
65.9376	665.63
65.9521	641.93
65.9665	623.35
65.9809	633.90
65.9954	595.00
66.0098	609.66
66.0243	644.94
66.0387	610.81
66.0531	608.04
66.0676	590.37
66.0820	601.24
66.0965	629.49
66.1109	597.09
66.1253	631.05
66.1398	628.85
66.1542	619.58
66.1687	607.63
66.1831	589.30
66.1975	573.90
66.2120	593.70
66.2264	582.02
66.2409	626.61
66.2553	635.06
66.2697	615.45
66.2842	616.85
66.2986	597.61
66.3131	617.30
66.3275	623.03
66.3419	633.64
66.3564	625.49
66.3708	566.11
66.3853	600.20
66.3997	587.37
66.4141	602.66
66.4286	624.21
66.4430	585.89
66.4575	587.08
66.4719	627.22
66.4863	576.18
66.5008	570.42
66.5152	583.08
66.5297	605.58
66.5441	611.55
66.5585	618.87
66.5730	573.10
66.5874	568.44
66.6019	599.66
66.6163	599.45
66.6307	600.07
66.6452	592.17
66.6596	565.65
66.6741	564.89
66.6885	566.98
66.7029	607.96
66.7174	606.81
66.7318	600.69
66.7463	572.81
66.7607	563.76
66.7751	599.32
66.7896	636.80
66.8040	609.65
66.8185	577.70
66.8329	593.48
66.8473	562.00
66.8618	585.92
66.8762	602.66
66.8907	600.98
66.9051	601.91
66.9195	608.59
66.9340	595.04
66.9484	612.04
66.9629	561.74
66.9773	528.12
66.9917	560.99
67.0062	582.05
67.0206	600.48
67.0351	579.98
67.0495	564.97
67.0639	572.36
67.0784	614.52
67.0928	590.18
67.1073	594.07
67.1217	578.23
67.1361	604.95
67.1506	576.92
67.1650	598.22
67.1795	590.75
67.1939	615.17
67.2083	593.38
67.2228	593.99
67.2372	622.66
67.2517	581.36
67.2661	573.01
67.2805	549.03
67.2950	599.54
67.3094	619.16
67.3239	591.71
67.3383	602.48
67.3527	584.43
67.3672	571.11
67.3816	555.53
67.3961	577.03
67.4105	557.78
67.4250	611.61
67.4394	587.18
67.4538	599.49
67.4683	602.72
67.4827	596.24
67.4972	572.86
67.5116	533.30
67.5260	574.57
67.5405	554.44
67.5549	568.22
67.5694	600.24
67.5838	556.34
67.5982	579.40
67.6127	592.58
67.6271	552.34
67.6416	581.93
67.6560	593.10
67.6704	584.11
67.6849	563.72
67.6993	603.31
67.7138	607.07
67.7282	571.30
67.7426	547.36
67.7571	555.72
67.7715	575.08
67.7860	586.38
67.8004	596.12
67.8148	562.38
67.8293	570.47
67.8437	557.77
67.8582	559.75
67.8726	555.08
67.8870	562.26
67.9015	588.27
67.9159	587.81
67.9304	584.26
67.9448	578.09
67.9592	543.25
67.9737	543.53
67.9881	581.39
68.0026	558.83
68.0170	533.78
68.0314	578.27
68.0459	552.76
68.0603	534.65
68.0748	546.65
68.0892	607.05
68.1036	540.99
68.1181	597.42
68.1325	543.35
68.1470	545.26
68.1614	562.67
68.1758	578.82
68.1903	571.47
68.2047	520.33
68.2192	570.05
68.2336	572.86
68.2480	569.50
68.2625	574.79
68.2769	535.83
68.2914	549.59
68.3058	542.21
68.3202	559.11
68.3347	591.90
68.3491	587.31
68.3636	591.54
68.3780	575.95
68.3924	567.99
68.4069	584.83
68.4213	565.95
68.4358	576.00
68.4502	538.44
68.4646	555.94
68.4791	548.45
68.4935	563.75
68.5080	561.67
68.5224	551.78
68.5368	549.73
68.5513	556.93
68.5657	545.33
68.5802	551.49
68.5946	523.81
68.6090	517.62
68.6235	574.33
68.6379	591.25
68.6524	543.42
68.6668	572.42
68.6812	534.75
68.6957	542.70
68.7101	645.42
68.7246	585.83
68.7390	554.83
68.7534	575.85
68.7679	572.37
68.7823	585.45
68.7968	575.49
68.8112	569.79
68.8256	540.48
68.8401	580.56
68.8545	597.37
68.8690	541.57
68.8834	543.41
68.8978	549.98
68.9123	595.41
68.9267	549.36
68.9412	646.54
68.9556	579.43
68.9700	523.40
68.9845	577.78
68.9989	570.51
69.0134	586.66
69.0278	556.60
69.0422	584.95
69.0567	542.35
69.0711	577.56
69.0856	593.41
69.1000	591.60
69.1144	621.28
69.1289	640.81
69.1433	571.48
69.1578	571.41
69.1722	580.10
69.1866	551.43
69.2011	565.14
69.2155	565.67
69.2300	535.15
69.2444	601.24
69.2588	559.64
69.2733	542.74
69.2877	546.84
69.3022	608.74
69.3166	595.29
69.3310	619.52
69.3455	588.18
69.3599	542.23
69.3744	602.38
69.3888	563.57
69.4032	553.62
69.4177	569.90
69.4321	638.02
69.4466	599.36
69.4610	571.75
69.4754	558.50
69.4899	571.60
69.5043	542.72
69.5188	539.15
69.5332	582.81
69.5476	563.05
69.5621	595.81
69.5765	549.33
69.5910	520.36
69.6054	600.75
69.6198	546.43
69.6343	591.30
69.6487	591.44
69.6632	607.76
69.6776	570.72
69.6920	569.95
69.7065	578.84
69.7209	605.15
69.7354	561.41
69.7498	634.33
69.7642	560.37
69.7787	552.00
69.7931	602.32
69.8076	601.15
69.8220	629.14
69.8364	559.07
69.8509	578.21
69.8653	601.18
69.8798	505.38
69.8942	611.42
69.9086	567.30
69.9231	616.92
69.9375	565.18
69.9520	622.70
69.9664	603.71
69.9808	611.25
69.9953	619.82
70.0097	600.15
70.0242	587.96
70.0386	547.85
70.0530	567.89
70.0675	569.53
70.0819	603.75
70.0964	617.21
70.1108	614.69
70.1252	636.48
70.1397	612.86
70.1541	579.04
70.1686	618.68
70.1830	587.00
70.1974	530.81
70.2119	555.71
70.2263	543.65
70.2408	582.21
70.2552	535.18
70.2696	550.42
70.2841	560.28
70.2985	555.11
70.3130	565.42
70.3274	608.87
70.3418	619.34
70.3563	657.25
70.3707	677.51
70.3852	569.27
70.3996	499.61
70.4140	543.34
70.4285	602.17
70.4429	532.65
70.4574	555.86
70.4718	554.33
70.4862	607.76
70.5007	595.79
70.5151	569.85
70.5296	585.13
70.5440	587.67
70.5584	568.72
70.5729	562.22
70.5873	566.07
70.6018	580.56
70.6162	529.14
70.6306	572.26
70.6451	607.32
70.6595	622.76
70.6740	638.04
70.6884	593.33
70.7028	600.43
70.7173	604.12
70.7317	553.33
70.7462	598.22
70.7606	568.26
70.7750	528.31
70.7895	575.95
70.8039	632.68
70.8184	604.12
70.8328	565.34
70.8472	553.10
70.8617	562.00
70.8761	569.16
70.8906	579.71
70.9050	585.35
70.9194	556.95
70.9339	562.84
70.9483	559.56
70.9628	521.31
70.9772	516.43
70.9916	583.46
71.0061	549.67
71.0205	577.32
71.0350	579.45
71.0494	554.48
71.0638	559.69
71.0783	605.15
71.0927	710.19
71.1072	671.50
71.1216	569.75
71.1361	561.33
71.1505	589.59
71.1649	616.21
71.1794	614.34
71.1938	529.28
71.2083	550.88
71.2227	541.93
71.2371	546.86
71.2516	596.21
71.2660	587.49
71.2805	566.68
71.2949	503.51
71.3093	550.73
71.3238	634.91
71.3382	641.79
71.3527	621.53
71.3671	556.84
71.3815	547.86
71.3960	559.56
71.4104	557.26
71.4249	593.90
71.4393	601.70
71.4537	593.17
71.4682	600.02
71.4826	586.82
71.4971	566.42
71.5115	588.12
71.5259	574.86
71.5404	549.58
71.5548	593.41
71.5693	546.61
71.5837	490.74
71.5981	509.33
71.6126	550.35
71.6270	569.48
71.6415	545.70
71.6559	505.28
71.6703	535.59
71.6848	569.09
71.6992	600.80
71.7137	626.16
71.7281	570.59
71.7425	560.96
71.7570	551.02
71.7714	567.81
71.7859	586.74
71.8003	597.77
71.8147	561.50
71.8292	589.90
71.8436	623.20
71.8581	632.79
71.8725	584.76
71.8869	556.17
71.9014	645.31
71.9158	663.57
71.9303	581.82
71.9447	560.75
71.9591	534.19
71.9736	563.59
71.9880	625.41
72.0025	650.62
72.0169	616.94
72.0313	616.36
72.0458	518.53
72.0602	493.72
72.0747	522.30
72.0891	620.30
72.1035	659.62
72.1180	598.73
72.1324	617.77
72.1469	555.82
72.1613	555.12
72.1757	654.52
72.1902	637.94
72.2046	646.95
72.2191	612.47
72.2335	570.81
72.2479	588.38
72.2624	638.90
72.2768	610.58
72.2913	577.68
72.3057	559.59
72.3201	562.87
72.3346	538.56
72.3490	589.96
72.3635	634.65
72.3779	623.46
72.3923	598.54
72.4068	538.99
72.4212	558.92
72.4357	633.91
72.4501	622.95
72.4645	592.35
72.4790	575.92
72.4934	573.19
72.5079	575.73
72.5223	548.89
72.5367	634.88
72.5512	629.77
72.5656	504.12
72.5801	544.19
72.5945	541.48
72.6089	512.91
72.6234	494.40
72.6378	528.70
72.6523	582.83
72.6667	570.77
72.6811	588.76
72.6956	575.09
72.7100	610.13
72.7245	619.31
72.7389	562.51
72.7533	550.64
72.7678	537.36
72.7822	564.86
72.7967	549.35
72.8111	511.83
72.8255	579.78
72.8400	645.78
72.8544	607.48
72.8689	602.31
72.8833	551.59

Result vector
22.1120	535.00
22.1264	601.63
22.1409	537.65
22.1553	519.29
22.1697	683.93
22.1842	676.80
22.1986	535.21
22.2131	533.69
22.2275	501.49
22.2419	565.91
22.2564	590.02
22.2708	549.02
22.2853	534.44
22.2997	512.97
22.3141	500.33
22.3286	524.93
22.3430	580.04
22.3575	554.03
22.3719	561.26
22.3863	529.48
22.4008	580.13
22.4152	677.46
22.4297	657.89
22.4441	590.81
22.4585	636.06
22.4730	588.91
22.4874	571.24
22.5019	610.69
22.5163	643.04
22.5307	564.89
22.5452	494.92
22.5596	542.26
22.5741	642.04
22.5885	655.54
22.6029	570.55
22.6174	535.16
22.6318	498.75
22.6463	572.08
22.6607	568.10
22.6751	583.85
22.6896	553.40
22.7040	454.78
22.7185	500.76
22.7329	551.20
22.7473	569.89
22.7618	505.12
22.7762	547.66
22.7907	553.99
22.8051	600.78
22.8195	573.63
22.8340	554.73
22.8484	523.48
22.8629	554.94
22.8773	530.42
22.8917	506.16
22.9062	566.46
22.9206	536.29
22.9351	527.62
22.9495	536.32
22.9639	541.77
22.9784	610.81
22.9928	641.41
23.0073	626.56
23.0217	647.39
23.0361	549.61
23.0506	421.11
23.0650	546.57
23.0795	552.43
23.0939	626.85
23.1083	583.07
23.1228	592.45
23.1372	550.61
23.1517	590.11
23.1661	571.10
23.1806	540.64
23.1950	532.63
23.2094	518.84
23.2239	566.82
23.2383	582.24
23.2528	524.28
23.2672	564.32
23.2816	523.48
23.2961	564.63
23.3105	547.23
23.3250	599.93
23.3394	603.22
23.3538	520.20
23.3683	538.38
23.3827	518.02
23.3972	545.29
23.4116	553.95
23.4260	555.66
23.4405	556.62
23.4549	521.02
23.4694	559.01
23.4838	549.79
23.4982	583.25
23.5127	571.70
23.5271	550.56
23.5416	543.69
23.5560	601.62
23.5704	570.04
23.5849	581.26
23.5993	550.27
23.6138	534.79
23.6282	529.17
23.6426	529.32
23.6571	552.78
23.6715	516.49
23.6860	526.47
23.7004	546.86
23.7148	582.40
23.7293	540.64
23.7437	620.22
23.7582	622.78
23.7726	572.20
23.7870	569.41
23.8015	479.20
23.8159	597.78
23.8304	520.13
23.8448	603.87
23.8592	564.98
23.8737	572.80
23.8881	542.86
23.9026	551.13
23.9170	493.31
23.9314	583.90
23.9459	653.10
23.9603	501.07
23.9748	553.17
23.9892	596.53
24.0036	530.73
24.0181	581.78
24.0325	527.88
24.0470	565.65
24.0614	566.63
24.0758	566.85
24.0903	593.73
24.1047	569.82
24.1192	535.83
24.1336	582.09
24.1480	526.53
24.1625	537.59
24.1769	535.15
24.1914	549.76
24.2058	543.93
24.2202	604.35
24.2347	601.98
24.2491	622.28
24.2636	572.11
24.2780	598.47
24.2924	598.62
24.3069	558.95
24.3213	574.63
24.3358	563.97
24.3502	519.43
24.3646	553.75
24.3791	516.23
24.3935	503.36
24.4080	537.14
24.4224	566.34
24.4368	479.40
24.4513	546.80
24.4657	565.63
24.4802	559.82
24.4946	551.66
24.5090	590.74
24.5235	534.97
24.5379	560.97
24.5524	514.65
24.5668	583.65
24.5812	554.60
24.5957	535.64
24.6101	523.48
24.6246	523.72
24.6390	574.76
24.6534	545.70
24.6679	573.90
24.6823	520.25
24.6968	594.96
24.7112	517.58
24.7256	518.87
24.7401	509.32
24.7545	556.65
24.7690	548.78
24.7834	500.61
24.7978	523.05
24.8123	539.60
24.8267	546.41
24.8412	580.85
24.8556	532.66
24.8700	501.58
24.8845	539.31
24.8989	510.15
24.9134	519.15
24.9278	503.02
24.9422	546.10
24.9567	523.29
24.9711	531.43
24.9856	545.68
25.0000	550.46
25.0144	585.05
25.0289	561.02
25.0433	532.68
25.0578	562.73
25.0722	513.12
25.0866	519.32
25.1011	508.04
25.1155	536.74
25.1300	562.89
25.1444	520.01
25.1588	539.79
25.1733	553.09
25.1877	507.67
25.2022	548.80
25.2166	544.85
25.2310	522.77
25.2455	494.32
25.2599	512.66
25.2744	559.16
25.2888	536.95
25.3032	517.55
25.3177	562.07
25.3321	555.39
25.3466	555.71
25.3610	533.97
25.3754	487.60
25.3899	514.18
25.4043	500.23
25.4188	533.34
25.4332	551.04
25.4476	551.78
25.4621	509.29
25.4765	523.02
25.4910	534.09
25.5054	491.74
25.5198	481.78
25.5343	519.93
25.5487	527.23
25.5632	540.79
25.5776	559.20
25.5920	525.49
25.6065	535.80
25.6209	534.16
25.6354	535.42
25.6498	527.40
25.6642	518.61
25.6787	509.38
25.6931	530.80
25.7076	567.94
25.7220	571.66
25.7364	553.24
25.7509	503.69
25.7653	488.23
25.7798	503.87
25.7942	531.37
25.8086	505.42
25.8231	572.40
25.8375	585.89
25.8520	552.08
25.8664	505.77
25.8808	511.44
25.8953	504.01
25.9097	527.72
25.9242	548.92
25.9386	560.95
25.9530	554.00
25.9675	538.96
25.9819	516.73
25.9964	524.57
26.0108	510.47
26.0252	564.79
26.0397	540.60
26.0541	527.04
26.0686	588.67
26.0830	563.49
26.0974	524.42
26.1119	536.95
26.1263	503.35
26.1408	484.29
26.1552	519.43
26.1696	534.54
26.1841	547.57
26.1985	551.12
26.2130	530.07
26.2274	520.32
26.2418	510.85
26.2563	524.80
26.2707	514.77
26.2852	501.12
26.2996	528.94
26.3140	525.61
26.3285	488.18
26.3429	518.17
26.3574	524.50
26.3718	517.84
26.3862	509.22
26.4007	496.91
26.4151	512.49
26.4296	567.04
26.4440	533.77
26.4584	525.38
26.4729	542.84
26.4873	525.55
26.5018	551.48
26.5162	562.82
26.5306	543.65
26.5451	537.08
26.5595	550.95
26.5740	536.46
26.5884	531.40
26.6028	543.28
26.6173	533.32
26.6317	551.08
26.6462	533.14
26.6606	521.23
26.6750	503.41
26.6895	490.80
26.7039	537.02
26.7184	550.82
26.7328	512.62
26.7472	524.35
26.7617	525.51
26.7761	510.49
26.7906	492.93
26.8050	526.44
26.8194	521.51
26.8339	528.17
26.8483	525.07
26.8628	528.68
26.8772	544.37
26.8917	525.25
26.9061	511.92
26.9205	507.83
26.9350	510.53
26.9494	497.46
26.9639	466.39
26.9783	518.49
26.9927	515.80
27.0072	534.53
27.0216	542.73
27.0361	537.12
27.0505	547.50
27.0649	535.14
27.0794	517.99
27.0938	496.59
27.1083	524.96
27.1227	530.95
27.1371	529.05
27.1516	517.79
27.1660	546.89
27.1805	515.31
27.1949	513.36
27.2093	521.03
27.2238	524.04
27.2382	542.59
27.2527	531.03
27.2671	523.45
27.2815	522.00
27.2960	546.02
27.3104	519.03
27.3249	510.76
27.3393	543.80
27.3537	528.32
27.3682	528.52
27.3826	511.09
27.3971	495.23
27.4115	483.98
27.4259	518.99
27.4404	513.47
27.4548	516.39
27.4693	549.38
27.4837	537.17
27.4981	555.27
27.5126	508.36
27.5270	520.85
27.5415	511.61
27.5559	520.93
27.5703	526.46
27.5848	520.93
27.5992	525.91
27.6137	512.76
27.6281	517.71
27.6425	539.86
27.6570	520.65
27.6714	502.33
27.6859	477.32
27.7003	497.53
27.7147	511.22
27.7292	502.52
27.7436	487.02
27.7581	502.58
27.7725	499.43
27.7869	545.78
27.8014	519.69
27.8158	496.80
27.8303	504.97
27.8447	497.29
27.8591	507.79
27.8736	513.95
27.8880	495.17
27.9025	502.17
27.9169	502.56
27.9313	517.61
27.9458	561.03
27.9602	519.18
27.9747	457.51
27.9891	496.25
28.0035	508.11
28.0180	481.16
28.0324	494.08
28.0469	522.97
28.0613	526.16
28.0757	531.40
28.0902	532.71
28.1046	542.14
28.1191	547.34
28.1335	533.66
28.1479	484.26
28.1624	529.02
28.1768	545.24
28.1913	490.89
28.2057	512.63
28.2201	519.77
28.2346	500.55
28.2490	504.78
28.2635	522.90
28.2779	519.30
28.2923	541.26
28.3068	503.91
28.3212	491.64
28.3357	516.84
28.3501	545.51
28.3645	506.31
28.3790	531.80
28.3934	545.24
28.4079	528.34
28.4223	513.30
28.4367	514.19
28.4512	455.81
28.4656	491.57
28.4801	517.73
28.4945	516.70
28.5089	526.34
28.5234	494.41
28.5378	509.08
28.5523	500.01
28.5667	502.72
28.5811	548.98
28.5956	507.35
28.6100	496.85
28.6245	513.61
28.6389	514.39
28.6533	507.64
28.6678	526.51
28.6822	518.87
28.6967	519.50
28.7111	519.34
28.7255	507.13
28.7400	528.11
28.7544	522.22
28.7689	491.38
28.7833	528.76
28.7977	538.59
28.8122	499.89
28.8266	524.85
28.8411	489.47
28.8555	502.55
28.8699	508.01
28.8844	517.78
28.8988	548.09
28.9133	482.70
28.9277	497.40
28.9421	509.37
28.9566	501.36
28.9710	491.33
28.9855	513.96
28.9999	494.11
29.0143	525.37
29.0288	497.19
29.0432	496.44
29.0577	520.80
29.0721	515.26
29.0865	525.94
29.1010	504.12
29.1154	508.07
29.1299	509.50
29.1443	486.69
29.1587	521.15
29.1732	495.39
29.1876	499.88
29.2021	538.28
29.2165	553.61
29.2309	522.39
29.2454	511.57
29.2598	513.10
29.2743	509.20
29.2887	553.44
29.3031	502.24
29.3176	471.09
29.3320	527.45
29.3465	498.87
29.3609	508.27
29.3753	493.48
29.3898	460.33
29.4042	481.91
29.4187	514.88
29.4331	522.50
29.4475	504.23
29.4620	493.42
29.4764	513.52
29.4909	513.38
29.5053	476.09
29.5197	500.99
29.5342	497.71
29.5486	526.34
29.5631	482.13
29.5775	451.35
29.5919	463.20
29.6064	513.48
29.6208	506.19
29.6353	489.70
29.6497	506.25
29.6641	517.66
29.6786	527.18
29.6930	482.04
29.7075	506.04
29.7219	504.67
29.7363	504.96
29.7508	510.82
29.7652	494.78
29.7797	512.50
29.7941	504.68
29.8085	509.60
29.8230	463.59
29.8374	468.25
29.8519	488.93
29.8663	523.43
29.8807	532.29
29.8952	543.00
29.9096	544.47
29.9241	538.98
29.9385	487.78
29.9529	515.03
29.9674	476.78
29.9818	523.51
29.9963	547.82
30.0107	529.32
30.0251	529.36
30.0396	535.61
30.0540	473.45
30.0685	519.73
30.0829	496.33
30.0973	510.36
30.1118	518.39
30.1262	493.28
30.1407	486.65
30.1551	512.29
30.1695	530.08
30.1840	497.54
30.1984	516.91
30.2129	517.38
30.2273	486.84
30.2417	477.27
30.2562	513.49
30.2706	486.38
30.2851	508.01
30.2995	487.37
30.3139	489.97
30.3284	518.18
30.3428	471.87
30.3573	481.46
30.3717	486.58
30.3861	494.52
30.4006	512.38
30.4150	529.32
30.4295	545.27
30.4439	497.66
30.4583	551.28
30.4728	558.77
30.4872	591.52
30.5017	564.46
30.5161	589.81
30.5305	599.18
30.5450	626.65
30.5594	647.12
30.5739	690.29
30.5883	715.52
30.6028	753.11
30.6172	731.02
30.6316	706.28
30.6461	686.31
30.6605	670.34
30.6750	663.67
30.6894	651.61
30.7038	648.08
30.7183	635.65
30.7327	572.65
30.7472	559.43
30.7616	564.14
30.7760	532.22
30.7905	536.44
30.8049	557.02
30.8194	540.41
30.8338	510.67
30.8482	538.56
30.8627	520.81
30.8771	520.93
30.8916	544.89
30.9060	553.69
30.9204	510.02
30.9349	529.45
30.9493	536.48
30.9638	491.81
30.9782	497.18
30.9926	522.35
31.0071	514.88
31.0215	524.29
31.0360	503.28
31.0504	506.24
31.0648	513.10
31.0793	520.77
31.0937	507.93
31.1082	493.24
31.1226	505.36
31.1370	502.40
31.1515	505.87
31.1659	497.84
31.1804	494.91
31.1948	514.34
31.2092	504.07
31.2237	518.84
31.2381	518.99
31.2526	520.20
31.2670	536.46
31.2814	522.35
31.2959	526.86
31.3103	518.63
31.3248	522.10
31.3392	575.86
31.3536	537.25
31.3681	518.70
31.3825	504.19
31.3970	503.68
31.4114	496.73
31.4258	536.42
31.4403	505.05
31.4547	515.15
31.4692	534.77
31.4836	498.61
31.4980	513.68
31.5125	493.10
31.5269	515.21
31.5414	500.20
31.5558	501.99
31.5702	500.22
31.5847	495.95
31.5991	478.18
31.6136	535.43
31.6280	509.84
31.6424	488.19
31.6569	510.29
31.6713	520.36
31.6858	524.23
31.7002	503.12
31.7146	496.46
31.7291	481.10
31.7435	475.04
31.7580	494.56
31.7724	500.98
31.7868	518.00
31.8013	539.33
31.8157	525.47
31.8302	515.98
31.8446	478.20
31.8590	509.25
31.8735	509.87
31.8879	515.01
31.9024	554.19
31.9168	518.63
31.9312	482.37
31.9457	462.77
31.9601	467.59
31.9746	481.57
31.9890	473.90
32.0034	498.95
32.0179	495.78
32.0323	506.05
32.0468	517.36
32.0612	544.61
32.0756	529.54
32.0901	530.86
32.1045	499.88
32.1190	505.63
32.1334	507.67
32.1478	473.99
32.1623	495.49
32.1767	506.97
32.1912	490.18
32.2056	484.36
32.2200	522.19
32.2345	487.94
32.2489	522.43
32.2634	490.36
32.2778	493.71
32.2922	475.97
32.3067	511.09
32.3211	489.27
32.3356	514.25
32.3500	503.94
32.3644	504.13
32.3789	509.15
32.3933	519.77
32.4078	499.93
32.4222	501.38
32.4366	508.94
32.4511	490.62
32.4655	481.85
32.4800	498.51
32.4944	526.34
32.5088	489.23
32.5233	505.94
32.5377	496.94
32.5522	507.14
32.5666	489.48
32.5810	496.13
32.5955	505.47
32.6099	477.80
32.6244	504.09
32.6388	530.65
32.6532	511.97
32.6677	484.73
32.6821	517.36
32.6966	504.53
32.7110	540.08
32.7254	503.89
32.7399	487.68
32.7543	479.46
32.7688	482.05
32.7832	550.68
32.7976	504.82
32.8121	511.53
32.8265	502.49
32.8410	498.55
32.8554	507.74
32.8698	496.77
32.8843	481.28
32.8987	500.46
32.9132	498.91
32.9276	515.92
32.9420	516.68
32.9565	511.67
32.9709	485.50
32.9854	503.05
32.9998	514.38
33.0142	478.17
33.0287	495.22
33.0431	522.98
33.0576	532.44
33.0720	508.25
33.0864	509.09
33.1009	514.70
33.1153	503.84
33.1298	466.18
33.1442	474.16
33.1586	491.83
33.1731	497.50
33.1875	488.67
33.2020	478.21
33.2164	467.77
33.2308	493.81
33.2453	484.54
33.2597	485.28
33.2742	494.21
33.2886	536.19
33.3030	463.60
33.3175	469.96
33.3319	530.43
33.3464	535.98
33.3608	520.15
33.3752	471.48
33.3897	474.03
33.4041	479.84
33.4186	474.75
33.4330	511.45
33.4474	482.35
33.4619	511.66
33.4763	509.90
33.4908	489.26
33.5052	521.85
33.5196	502.28
33.5341	463.54
33.5485	491.78
33.5630	495.37
33.5774	525.94
33.5918	529.07
33.6063	470.36
33.6207	500.19
33.6352	499.60
33.6496	496.36
33.6640	501.05
33.6785	441.65
33.6929	478.35
33.7074	488.91
33.7218	502.59
33.7362	483.78
33.7507	511.86
33.7651	541.16
33.7796	530.84
33.7940	480.87
33.8084	505.89
33.8229	491.86
33.8373	490.91
33.8518	498.64
33.8662	466.34
33.8806	463.28
33.8951	471.00
33.9095	501.21
33.9240	489.66
33.9384	493.67
33.9528	493.65
33.9673	465.42
33.9817	499.42
33.9962	530.65
34.0106	495.17
34.0250	495.48
34.0395	489.16
34.0539	520.38
34.0684	516.14
34.0828	479.85
34.0972	486.94
34.1117	497.92
34.1261	487.16
34.1406	481.68
34.1550	477.93
34.1694	505.40
34.1839	528.17
34.1983	504.04
34.2128	526.37
34.2272	500.95
34.2417	480.84
34.2561	481.79
34.2705	488.97
34.2850	501.47
34.2994	497.32
34.3139	496.74
34.3283	495.84
34.3427	491.40
34.3572	519.62
34.3716	512.90
34.3861	476.57
34.4005	495.34
34.4149	495.90
34.4294	519.53
34.4438	498.47
34.4583	484.43
34.4727	533.99
34.4871	530.05
34.5016	493.93
34.5160	518.32
34.5305	501.08
34.5449	490.34
34.5593	508.73
34.5738	455.69
34.5882	462.82
34.6027	513.57
34.6171	487.58
34.6315	497.32
34.6460	523.35
34.6604	523.50
34.6749	507.14
34.6893	526.17
34.7037	522.74
34.7182	507.65
34.7326	510.74
34.7471	518.43
34.7615	504.72
34.7759	525.37
34.7904	520.81
34.8048	500.60
34.8193	499.88
34.8337	514.93
34.8481	539.05
34.8626	549.18
34.8770	515.00
34.8915	504.20
34.9059	478.65
34.9203	484.00
34.9348	510.88
34.9492	500.21
34.9637	469.90
34.9781	478.25
34.9925	504.42
35.0070	506.78
35.0214	485.47
35.0359	521.81
35.0503	523.04
35.0647	556.83
35.0792	540.50
35.0936	530.93
35.1081	521.61
35.1225	516.86
35.1369	488.35
35.1514	502.84
35.1658	511.38
35.1803	503.22
35.1947	513.67
35.2091	504.28
35.2236	489.26
35.2380	503.00
35.2525	496.80
35.2669	490.60
35.2813	507.35
35.2958	503.21
35.3102	521.40
35.3247	479.67
35.3391	519.56
35.3535	512.86
35.3680	497.68
35.3824	511.06
35.3969	487.60
35.4113	512.38
35.4257	523.62
35.4402	505.61
35.4546	519.95
35.4691	537.74
35.4835	526.28
35.4979	507.38
35.5124	512.02
35.5268	487.68
35.5413	513.93
35.5557	543.02
35.5701	537.00
35.5846	551.72
35.5990	556.69
35.6135	514.24
35.6279	499.47
35.6423	515.36
35.6568	497.24
35.6712	518.64
35.6857	585.37
35.7001	675.00
35.7145	757.14
35.7290	740.15
35.7434	642.88
35.7579	555.35
35.7723	620.98
35.7867	710.22
35.8012	749.82
35.8156	781.81
35.8301	720.67
35.8445	680.43
35.8589	783.63
35.8734	843.97
35.8878	907.39
35.9023	1058.31
35.9167	1162.97
35.9311	1297.05
35.9456	1664.00
35.9600	2005.40
35.9745	2044.16
35.9889	2253.68
36.0033	2707.46
36.0178	3167.19
36.0322	3316.87
36.0467	2594.10
36.0611	2140.80
36.0755	1954.86
36.0900	2176.76
36.1044	1750.31
36.1189	1577.59
36.1333	1470.84
36.1477	1289.52
36.1622	1149.87
36.1766	973.99
36.1911	907.31
36.2055	847.33
36.2199	751.83
36.2344	702.34
36.2488	650.72
36.2633	586.94
36.2777	587.91
36.2921	573.57
36.3066	585.58
36.3210	577.26
36.3355	578.99
36.3499	537.64
36.3643	529.93
36.3788	534.49
36.3932	517.52
36.4077	533.43
36.4221	522.10
36.4365	549.43
36.4510	502.66
36.4654	525.44
36.4799	517.08
36.4943	518.19
36.5087	527.90
36.5232	508.14
36.5376	550.64
36.5521	521.01
36.5665	541.00
36.5809	520.43
36.5954	539.17
36.6098	512.89
36.6243	513.09
36.6387	537.11
36.6531	511.64
36.6676	521.22
36.6820	509.04
36.6965	504.16
36.7109	522.82
36.7253	534.23
36.7398	521.11
36.7542	544.21
36.7687	549.90
36.7831	551.94
36.7975	546.39
36.8120	585.80
36.8264	562.00
36.8409	573.61
36.8553	562.83
36.8697	586.55
36.8842	572.83
36.8986	616.41
36.9131	570.27
36.9275	532.46
36.9419	570.70
36.9564	566.40
36.9708	573.67
36.9853	594.44
36.9997	531.36
37.0141	535.59
37.0286	525.75
37.0430	505.10
37.0575	513.29
37.0719	534.75
37.0863	504.06
37.1008	523.87
37.1152	529.48
37.1297	516.96
37.1441	508.52
37.1585	506.19
37.1730	515.42
37.1874	530.20
37.2019	530.69
37.2163	520.19
37.2307	475.82
37.2452	511.04
37.2596	512.51
37.2741	515.15
37.2885	482.28
37.3029	490.83
37.3174	478.17
37.3318	522.40
37.3463	490.39
37.3607	485.41
37.3751	452.26
37.3896	504.47
37.4040	517.93
37.4185	524.35
37.4329	526.09
37.4473	502.56
37.4618	503.42
37.4762	507.18
37.4907	504.95
37.5051	474.49
37.5195	495.53
37.5340	505.14
37.5484	485.59
37.5629	497.10
37.5773	485.10
37.5917	488.42
37.6062	529.04
37.6206	522.54
37.6351	515.01
37.6495	481.95
37.6639	496.01
37.6784	514.98
37.6928	486.01
37.7073	532.29
37.7217	549.85
37.7361	477.01
37.7506	495.72
37.7650	481.73
37.7795	518.51
37.7939	497.17
37.8083	530.23
37.8228	498.84
37.8372	511.93
37.8517	515.31
37.8661	499.60
37.8805	486.72
37.8950	486.36
37.9094	499.91
37.9239	474.46
37.9383	475.67
37.9528	482.11
37.9672	490.09
37.9816	519.76
37.9961	532.25
38.0105	510.62
38.0250	510.38
38.0394	530.80
38.0538	533.19
38.0683	539.15
38.0827	556.48
38.0972	512.19
38.1116	519.04
38.1260	525.58
38.1405	493.34
38.1549	507.26
38.1694	520.08
38.1838	492.74
38.1982	475.14
38.2127	483.56
38.2271	484.35
38.2416	514.97
38.2560	490.19
38.2704	491.22
38.2849	485.69
38.2993	515.61
38.3138	503.77
38.3282	510.85
38.3426	506.34
38.3571	496.23
38.3715	512.19
38.3860	527.94
38.4004	517.05
38.4148	530.26
38.4293	571.92
38.4437	593.67
38.4582	584.45
38.4726	642.20
38.4870	669.52
38.5015	732.40
38.5159	774.07
38.5304	753.32
38.5448	761.67
38.5592	803.85
38.5737	755.57
38.5881	736.12
38.6026	733.02
38.6170	691.08
38.6314	647.63
38.6459	671.54
38.6603	645.24
38.6748	620.40
38.6892	585.51
38.7036	551.70
38.7181	537.17
38.7325	529.65
38.7470	559.72
38.7614	542.22
38.7758	526.70
38.7903	521.87
38.8047	506.23
38.8192	470.85
38.8336	477.76
38.8480	477.11
38.8625	494.44
38.8769	477.95
38.8914	472.74
38.9058	505.90
38.9202	496.01
38.9347	490.26
38.9491	478.86
38.9636	491.38
38.9780	529.55
38.9924	506.91
39.0069	496.36
39.0213	499.44
39.0358	502.83
39.0502	496.96
39.0646	511.90
39.0791	523.44
39.0935	515.82
39.1080	508.14
39.1224	476.32
39.1368	514.75
39.1513	472.72
39.1657	496.28
39.1802	492.44
39.1946	468.03
39.2090	498.80
39.2235	529.18
39.2379	517.12
39.2524	497.29
39.2668	482.37
39.2812	514.01
39.2957	501.25
39.3101	492.52
39.3246	531.90
39.3390	538.89
39.3534	513.02
39.3679	482.59
39.3823	466.84
39.3968	468.94
39.4112	478.50
39.4256	504.64
39.4401	497.91
39.4545	486.33
39.4690	508.26
39.4834	513.93
39.4978	513.24
39.5123	498.31
39.5267	484.05
39.5412	486.40
39.5556	488.79
39.5700	481.80
39.5845	511.01
39.5989	517.74
39.6134	483.50
39.6278	494.80
39.6422	488.57
39.6567	459.86
39.6711	463.92
39.6856	497.48
39.7000	472.43
39.7144	532.99
39.7289	464.18
39.7433	459.58
39.7578	492.36
39.7722	495.62
39.7866	508.61
39.8011	528.99
39.8155	492.93
39.8300	477.45
39.8444	498.96
39.8588	509.23
39.8733	516.14
39.8877	500.38
39.9022	535.21
39.9166	513.91
39.9310	513.60
39.9455	472.85
39.9599	531.21
39.9744	488.26
39.9888	497.77
40.0032	478.60
40.0177	495.67
40.0321	490.46
40.0466	489.64
40.0610	509.35
40.0754	474.33
40.0899	476.55
40.1043	498.16
40.1188	508.20
40.1332	527.88
40.1476	512.67
40.1621	486.89
40.1765	482.83
40.1910	490.36
40.2054	496.20
40.2198	484.33
40.2343	494.63
40.2487	489.25
40.2632	478.75
40.2776	476.01
40.2920	494.73
40.3065	510.73
40.3209	484.58
40.3354	496.74
40.3498	481.13
40.3642	482.28
40.3787	493.11
40.3931	521.32
40.4076	497.21
40.4220	501.47
40.4364	476.19
40.4509	492.63
40.4653	510.45
40.4798	505.04
40.4942	511.43
40.5086	492.50
40.5231	477.42
40.5375	490.49
40.5520	492.73
40.5664	490.60
40.5808	512.13
40.5953	532.29
40.6097	483.42
40.6242	525.83
40.6386	542.07
40.6530	489.99
40.6675	483.38
40.6819	484.13
40.6964	484.90
40.7108	524.35
40.7252	485.58
40.7397	477.80
40.7541	501.85
40.7686	480.45
40.7830	505.95
40.7974	494.18
40.8119	506.35
40.8263	499.82
40.8408	515.64
40.8552	528.94
40.8696	523.52
40.8841	460.18
40.8985	523.57
40.9130	505.93
40.9274	527.30
40.9418	506.99
40.9563	509.43
40.9707	493.97
40.9852	495.94
40.9996	475.40
41.0140	501.47
41.0285	497.27
41.0429	504.13
41.0574	502.39
41.0718	524.12
41.0862	464.69
41.1007	472.11
41.1151	477.82
41.1296	475.22
41.1440	444.17
41.1584	482.77
41.1729	502.14
41.1873	481.75
41.2018	481.29
41.2162	483.67
41.2306	482.61
41.2451	492.34
41.2595	486.46
41.2740	514.10
41.2884	506.07
41.3028	517.67
41.3173	514.06
41.3317	502.15
41.3462	527.46
41.3606	514.86
41.3750	479.53
41.3895	486.16
41.4039	472.91
41.4184	516.56
41.4328	524.87
41.4472	498.99
41.4617	487.33
41.4761	497.45
41.4906	497.69
41.5050	523.84
41.5194	454.55
41.5339	502.81
41.5483	526.99
41.5628	525.81
41.5772	480.79
41.5916	479.71
41.6061	521.92
41.6205	515.21
41.6350	520.96
41.6494	516.95
41.6639	509.09
41.6783	513.79
41.6927	480.53
41.7072	464.44
41.7216	501.14
41.7361	491.81
41.7505	495.82
41.7649	520.59
41.7794	549.27
41.7938	518.10
41.8083	513.80
41.8227	485.79
41.8371	515.84
41.8516	529.43
41.8660	541.55
41.8805	557.26
41.8949	541.71
41.9093	525.75
41.9238	551.25
41.9382	569.11
41.9527	556.59
41.9671	553.37
41.9815	594.46
41.9960	573.81
42.0104	522.68
42.0249	570.20
42.0393	568.49
42.0537	545.31
42.0682	569.94
42.0826	589.02
42.0971	603.56
42.1115	588.32
42.1259	590.71
42.1404	604.48
42.1548	614.03
42.1693	666.58
42.1837	684.63
42.1981	746.89
42.2126	820.82
42.2270	903.89
42.2415	1025.41
42.2559	1177.99
42.2703	1313.62
42.2848	1507.93
42.2992	1632.84
42.3137	1683.75
42.3281	1697.38
42.3425	1641.77
42.3570	1516.17
42.3714	1464.33
42.3859	1423.57
42.4003	1357.81
42.4147	1341.06
42.4292	1319.37
42.4436	1162.72
42.4581	1032.93
42.4725	926.01
42.4869	834.33
42.5014	745.08
42.5158	678.82
42.5303	663.79
42.5447	607.04
42.5591	611.50
42.5736	577.55
42.5880	548.98
42.6025	550.61
42.6169	556.69
42.6313	550.59
42.6458	554.76
42.6602	533.83
42.6747	541.40
42.6891	520.89
42.7035	528.30
42.7180	519.56
42.7324	504.56
42.7469	533.50
42.7613	509.60
42.7757	529.76
42.7902	541.29
42.8046	509.89
42.8191	525.94
42.8335	543.75
42.8479	537.91
42.8624	508.97
42.8768	477.64
42.8913	507.49
42.9057	541.29
42.9201	501.19
42.9346	514.93
42.9490	534.81
42.9635	525.49
42.9779	519.50
42.9923	516.01
43.0068	499.31
43.0212	505.35
43.0357	504.33
43.0501	504.81
43.0645	526.33
43.0790	525.23
43.0934	519.27
43.1079	514.94
43.1223	538.83
43.1367	533.51
43.1512	496.75
43.1656	512.83
43.1801	554.84
43.1945	514.17
43.2089	513.33
43.2234	494.82
43.2378	506.49
43.2523	554.02
43.2667	545.81
43.2811	554.45
43.2956	550.93
43.3100	541.94
43.3245	501.50
43.3389	531.96
43.3533	512.17
43.3678	537.91
43.3822	536.41
43.3967	519.11
43.4111	520.64
43.4255	553.44
43.4400	534.81
43.4544	505.07
43.4689	552.66
43.4833	508.74
43.4977	476.78
43.5122	500.93
43.5266	523.61
43.5411	520.98
43.5555	517.55
43.5699	485.62
43.5844	531.19
43.5988	511.55
43.6133	510.78
43.6277	547.82
43.6421	552.04
43.6566	564.50
43.6710	521.39
43.6855	534.84
43.6999	577.67
43.7143	587.22
43.7288	568.98
43.7432	607.07
43.7577	642.60
43.7721	638.44
43.7865	679.22
43.8010	656.09
43.8154	618.09
43.8299	637.29
43.8443	591.16
43.8587	606.41
43.8732	616.54
43.8876	597.07
43.9021	577.86
43.9165	559.51
43.9309	557.35
43.9454	587.97
43.9598	511.02
43.9743	525.13
43.9887	556.14
44.0031	516.85
44.0176	504.79
44.0320	519.95
44.0465	518.52
44.0609	510.96
44.0753	471.80
44.0898	520.22
44.1042	486.03
44.1187	513.29
44.1331	504.59
44.1475	492.47
44.1620	507.19
44.1764	507.15
44.1909	521.39
44.2053	532.75
44.2197	535.34
44.2342	530.33
44.2486	534.71
44.2631	533.37
44.2775	495.74
44.2919	502.89
44.3064	528.07
44.3208	513.99
44.3353	532.43
44.3497	535.93
44.3641	571.53
44.3786	536.56
44.3930	511.95
44.4075	555.11
44.4219	573.86
44.4363	577.09
44.4508	569.38
44.4652	565.85
44.4797	595.32
44.4941	591.67
44.5085	568.10
44.5230	561.49
44.5374	564.79
44.5519	588.38
44.5663	600.68
44.5807	553.37
44.5952	571.41
44.6096	586.97
44.6241	569.27
44.6385	596.76
44.6529	542.30
44.6674	558.60
44.6818	568.73
44.6963	600.36
44.7107	664.73
44.7251	717.70
44.7396	722.94
44.7540	794.44
44.7685	815.17
44.7829	862.30
44.7973	887.22
44.8118	858.71
44.8262	786.44
44.8407	800.56
44.8551	774.47
44.8695	764.97
44.8840	700.98
44.8984	745.39
44.9129	766.81
44.9273	724.01
44.9417	692.05
44.9562	620.06
44.9706	598.65
44.9851	548.70
44.9995	532.22
45.0139	507.11
45.0284	527.30
45.0428	550.65
45.0573	508.06
45.0717	505.60
45.0861	506.54
45.1006	531.04
45.1150	513.58
45.1295	537.99
45.1439	495.32
45.1583	536.46
45.1728	506.94
45.1872	501.36
45.2017	476.86
45.2161	538.59
45.2305	482.18
45.2450	491.50
45.2594	496.07
45.2739	526.16
45.2883	518.20
45.3028	529.82
45.3172	531.02
45.3316	540.89
45.3461	534.78
45.3605	492.17
45.3750	490.33
45.3894	494.95
45.4038	484.27
45.4183	488.74
45.4327	523.02
45.4472	504.07
45.4616	505.77
45.4760	486.28
45.4905	522.40
45.5049	485.16
45.5194	482.88
45.5338	511.78
45.5482	481.31
45.5627	507.41
45.5771	511.73
45.5916	487.29
45.6060	476.08
45.6204	494.09
45.6349	517.31
45.6493	554.82
45.6638	503.79
45.6782	475.85
45.6926	469.66
45.7071	521.30
45.7215	525.49
45.7360	496.01
45.7504	492.69
45.7648	474.38
45.7793	502.74
45.7937	503.14
45.8082	473.89
45.8226	486.77
45.8370	493.87
45.8515	464.93
45.8659	483.24
45.8804	502.41
45.8948	518.30
45.9092	563.02
45.9237	478.00
45.9381	479.60
45.9526	484.35
45.9670	512.71
45.9814	507.43
45.9959	524.91
46.0103	542.33
46.0248	518.73
46.0392	483.24
46.0536	494.65
46.0681	492.00
46.0825	511.45
46.0970	505.43
46.1114	503.49
46.1258	502.40
46.1403	478.87
46.1547	456.31
46.1692	492.42
46.1836	490.55
46.1980	467.65
46.2125	496.79
46.2269	538.13
46.2414	513.62
46.2558	486.32
46.2702	486.92
46.2847	533.20
46.2991	529.71
46.3136	490.75
46.3280	469.08
46.3424	524.21
46.3569	490.26
46.3713	517.72
46.3858	498.92
46.4002	508.48
46.4146	504.04
46.4291	525.42
46.4435	488.52
46.4580	490.36
46.4724	511.61
46.4868	487.81
46.5013	501.72
46.5157	505.88
46.5302	478.91
46.5446	474.61
46.5590	478.52
46.5735	489.98
46.5879	506.57
46.6024	484.33
46.6168	472.51
46.6312	492.34
46.6457	489.70
46.6601	498.40
46.6746	499.98
46.6890	477.83
46.7034	498.69
46.7179	474.39
46.7323	487.67
46.7468	490.69
46.7612	476.85
46.7756	496.83
46.7901	491.28
46.8045	507.76
46.8190	506.40
46.8334	519.57
46.8478	538.88
46.8623	544.91
46.8767	477.86
46.8912	500.50
46.9056	513.84
46.9200	494.61
46.9345	514.08
46.9489	527.32
46.9634	521.72
46.9778	509.63
46.9922	520.34
47.0067	531.33
47.0211	543.48
47.0356	528.61
47.0500	500.41
47.0644	515.33
47.0789	516.13
47.0933	546.54
47.1078	564.42
47.1222	542.31
47.1366	535.25
47.1511	507.16
47.1655	488.84
47.1800	522.82
47.1944	527.16
47.2088	529.41
47.2233	522.73
47.2377	515.63
47.2522	503.32
47.2666	508.09
47.2810	510.87
47.2955	494.20
47.3099	498.88
47.3244	507.59
47.3388	504.22
47.3532	528.43
47.3677	539.02
47.3821	504.90
47.3966	505.64
47.4110	471.58
47.4254	511.19
47.4399	471.49
47.4543	484.34
47.4688	507.19
47.4832	531.97
47.4976	475.51
47.5121	492.76
47.5265	495.28
47.5410	496.18
47.5554	509.66
47.5698	496.76
47.5843	516.11
47.5987	513.99
47.6132	485.95
47.6276	496.06
47.6420	509.68
47.6565	538.10
47.6709	509.83
47.6854	469.41
47.6998	484.40
47.7142	495.32
47.7287	485.88
47.7431	475.81
47.7576	497.41
47.7720	510.42
47.7864	485.76
47.8009	504.10
47.8153	531.37
47.8298	535.47
47.8442	511.58
47.8586	522.68
47.8731	544.05
47.8875	494.84
47.9020	525.48
47.9164	490.43
47.9308	495.02
47.9453	535.66
47.9597	507.34
47.9742	482.49
47.9886	508.23
48.0030	499.79
48.0175	493.94
48.0319	486.77
48.0464	507.75
48.0608	498.99
48.0752	505.65
48.0897	522.48
48.1041	473.13
48.1186	476.70
48.1330	524.14
48.1474	483.57
48.1619	473.38
48.1763	475.22
48.1908	508.63
48.2052	493.94
48.2196	522.72
48.2341	502.91
48.2485	540.33
48.2630	492.25
48.2774	502.71
48.2918	507.77
48.3063	472.23
48.3207	481.72
48.3352	509.13
48.3496	488.47
48.3640	508.63
48.3785	478.36
48.3929	480.87
48.4074	515.92
48.4218	511.54
48.4362	515.69
48.4507	508.12
48.4651	522.85
48.4796	505.44
48.4940	507.61
48.5084	479.70
48.5229	520.26
48.5373	526.16
48.5518	488.47
48.5662	488.63
48.5806	496.83
48.5951	513.24
48.6095	502.40
48.6240	518.42
48.6384	535.05
48.6528	496.76
48.6673	504.81
48.6817	486.64
48.6962	506.47
48.7106	558.87
48.7250	535.37
48.7395	532.49
48.7539	549.73
48.7684	484.45
48.7828	492.56
48.7972	547.99
48.8117	572.31
48.8261	565.25
48.8406	499.33
48.8550	527.73
48.8694	525.85
48.8839	546.48
48.8983	551.39
48.9128	528.21
48.9272	551.65
48.9416	556.27
48.9561	545.45
48.9705	499.82
48.9850	563.73
48.9994	567.99
49.0139	633.39
49.0283	633.89
49.0427	603.91
49.0572	626.20
49.0716	630.47
49.0861	651.60
49.1005	689.62
49.1149	702.21
49.1294	736.54
49.1438	720.59
49.1583	787.56
49.1727	862.66
49.1871	900.35
49.2016	942.61
49.2160	1034.30
49.2305	1107.15
49.2449	1244.58
49.2593	1310.06
49.2738	1415.70
49.2882	1573.98
49.3027	1585.91
49.3171	1653.85
49.3315	1799.81
49.3460	1839.68
49.3604	1804.35
49.3749	1800.05
49.3893	1843.95
49.4037	1788.40
49.4182	1781.53
49.4326	1897.60
49.4471	1677.49
49.4615	1654.89
49.4759	1581.67
49.4904	1516.97
49.5048	1426.85
49.5193	1392.51
49.5337	1278.34
49.5481	1230.55
49.5626	1098.15
49.5770	1061.01
49.5915	997.12
49.6059	931.60
49.6203	885.06
49.6348	835.75
49.6492	759.86
49.6637	706.72
49.6781	683.93
49.6925	679.98
49.7070	669.89
49.7214	631.91
49.7359	631.69
49.7503	611.22
49.7647	539.34
49.7792	618.66
49.7936	605.78
49.8081	580.57
49.8225	571.44
49.8369	520.05
49.8514	559.71
49.8658	543.68
49.8803	556.13
49.8947	564.55
49.9091	552.42
49.9236	535.83
49.9380	520.46
49.9525	526.36
49.9669	530.89
49.9813	541.45
49.9958	551.32
50.0102	514.67
50.0247	535.57
50.0391	549.23
50.0535	530.16
50.0680	519.98
50.0824	540.68
50.0969	544.71
50.1113	544.17
50.1257	515.38
50.1402	509.07
50.1546	533.66
50.1691	528.98
50.1835	528.16
50.1979	525.49
50.2124	498.96
50.2268	515.89
50.2413	526.73
50.2557	527.12
50.2701	517.44
50.2846	561.24
50.2990	492.54
50.3135	491.73
50.3279	522.32
50.3423	524.02
50.3568	520.64
50.3712	510.62
50.3857	510.72
50.4001	511.40
50.4145	529.25
50.4290	552.96
50.4434	497.15
50.4579	515.60
50.4723	523.16
50.4867	533.79
50.5012	511.97
50.5156	496.87
50.5301	470.98
50.5445	503.27
50.5589	506.67
50.5734	511.32
50.5878	482.79
50.6023	490.40
50.6167	507.65
50.6311	505.79
50.6456	501.63
50.6600	493.51
50.6745	515.01
50.6889	508.61
50.7033	504.55
50.7178	484.99
50.7322	504.88
50.7467	489.29
50.7611	477.50
50.7755	546.99
50.7900	551.25
50.8044	523.75
50.8189	529.28
50.8333	516.28
50.8477	497.66
50.8622	533.27
50.8766	556.73
50.8911	503.25
50.9055	519.06
50.9199	518.10
50.9344	517.47
50.9488	540.78
50.9633	511.71
50.9777	489.89
50.9921	496.99
51.0066	514.01
51.0210	521.15
51.0355	513.28
51.0499	510.90
51.0643	521.52
51.0788	514.79
51.0932	533.27
51.1077	513.67
51.1221	521.83
51.1365	508.32
51.1510	502.99
51.1654	553.61
51.1799	541.41
51.1943	510.53
51.2087	512.78
51.2232	518.02
51.2376	529.76
51.2521	517.16
51.2665	486.56
51.2809	500.65
51.2954	501.44
51.3098	546.61
51.3243	535.68
51.3387	531.23
51.3531	501.22
51.3676	543.70
51.3820	533.64
51.3965	526.80
51.4109	523.71
51.4253	524.42
51.4398	511.66
51.4542	483.85
51.4687	509.08
51.4831	528.72
51.4975	509.21
51.5120	494.22
51.5264	505.99
51.5409	490.98
51.5553	523.01
51.5697	482.67
51.5842	500.39
51.5986	508.30
51.6131	521.65
51.6275	511.16
51.6419	516.75
51.6564	528.10
51.6708	521.67
51.6853	479.87
51.6997	465.32
51.7141	523.16
51.7286	517.77
51.7430	485.91
51.7575	493.26
51.7719	494.86
51.7863	499.61
51.8008	494.72
51.8152	506.33
51.8297	538.04
51.8441	524.08
51.8585	502.35
51.8730	508.54
51.8874	504.74
51.9019	507.51
51.9163	530.62
51.9307	543.23
51.9452	536.51
51.9596	493.49
51.9741	522.68
51.9885	513.42
52.0029	492.65
52.0174	495.82
52.0318	495.77
52.0463	458.58
52.0607	514.27
52.0751	494.64
52.0896	548.38
52.1040	505.56
52.1185	541.41
52.1329	532.54
52.1473	488.01
52.1618	500.00
52.1762	491.58
52.1907	504.54
52.2051	497.82
52.2195	498.77
52.2340	479.11
52.2484	492.56
52.2629	491.08
52.2773	527.21
52.2917	530.63
52.3062	528.42
52.3206	518.90
52.3351	522.87
52.3495	490.67
52.3639	516.19
52.3784	515.55
52.3928	489.40
52.4073	482.86
52.4217	533.46
52.4361	523.28
52.4506	501.08
52.4650	539.11
52.4795	526.95
52.4939	482.58
52.5083	523.73
52.5228	543.04
52.5372	485.08
52.5517	507.19
52.5661	503.27
52.5805	505.39
52.5950	502.69
52.6094	482.75
52.6239	470.21
52.6383	522.00
52.6527	513.92
52.6672	489.04
52.6816	493.10
52.6961	512.61
52.7105	516.58
52.7250	516.64
52.7394	476.14
52.7538	496.46
52.7683	493.73
52.7827	529.51
52.7972	501.68
52.8116	540.55
52.8260	516.68
52.8405	461.45
52.8549	478.06
52.8694	492.49
52.8838	526.06
52.8982	549.76
52.9127	504.32
52.9271	520.15
52.9416	524.99
52.9560	490.86
52.9704	508.06
52.9849	522.05
52.9993	515.62
53.0138	507.65
53.0282	515.78
53.0426	506.59
53.0571	501.78
53.0715	500.78
53.0860	514.20
53.1004	508.23
53.1148	521.11
53.1293	530.55
53.1437	477.58
53.1582	498.82
53.1726	496.11
53.1870	513.74
53.2015	499.26
53.2159	551.32
53.2304	487.73
53.2448	517.05
53.2592	537.90
53.2737	502.29
53.2881	528.03
53.3026	514.49
53.3170	496.89
53.3314	516.49
53.3459	512.45
53.3603	482.40
53.3748	477.69
53.3892	510.30
53.4036	504.75
53.4181	494.90
53.4325	522.64
53.4470	495.05
53.4614	508.52
53.4758	551.28
53.4903	568.35
53.5047	509.78
53.5192	518.74
53.5336	526.47
53.5480	540.28
53.5625	536.06
53.5769	502.74
53.5914	512.77
53.6058	518.65
53.6202	490.24
53.6347	485.84
53.6491	502.42
53.6636	506.56
53.6780	489.25
53.6924	485.16
53.7069	577.57
53.7213	528.87
53.7358	507.86
53.7502	481.91
53.7646	505.30
53.7791	530.55
53.7935	492.52
53.8080	512.36
53.8224	484.50
53.8368	534.71
53.8513	520.08
53.8657	523.67
53.8802	491.81
53.8946	509.21
53.9090	486.30
53.9235	518.68
53.9379	537.45
53.9524	531.00
53.9668	532.56
53.9812	532.09
53.9957	523.78
54.0101	515.24
54.0246	554.47
54.0390	520.72
54.0534	541.54
54.0679	528.27
54.0823	559.59
54.0968	548.03
54.1112	529.44
54.1256	540.43
54.1401	571.86
54.1545	526.40
54.1690	516.67
54.1834	558.12
54.1978	567.28
54.2123	528.76
54.2267	553.26
54.2412	585.71
54.2556	604.84
54.2700	610.01
54.2845	624.57
54.2989	605.24
54.3134	601.23
54.3278	632.22
54.3422	642.20
54.3567	641.02
54.3711	600.92
54.3856	582.26
54.4000	585.72
54.4144	594.69
54.4289	616.76
54.4433	572.52
54.4578	561.46
54.4722	591.44
54.4866	567.19
54.5011	563.50
54.5155	561.65
54.5300	576.67
54.5444	556.01
54.5588	544.21
54.5733	548.11
54.5877	513.63
54.6022	501.17
54.6166	535.98
54.6310	524.94
54.6455	519.99
54.6599	530.59
54.6744	506.43
54.6888	536.55
54.7032	541.36
54.7177	492.99
54.7321	489.41
54.7466	524.25
54.7610	484.24
54.7754	521.38
54.7899	525.42
54.8043	540.69
54.8188	509.29
54.8332	526.46
54.8476	549.70
54.8621	516.20
54.8765	507.19
54.8910	527.50
54.9054	534.26
54.9198	514.79
54.9343	533.88
54.9487	534.92
54.9632	520.13
54.9776	519.26
54.9920	516.91
55.0065	512.92
55.0209	520.77
55.0354	530.74
55.0498	520.17
55.0642	536.85
55.0787	554.76
55.0931	524.44
55.1076	512.55
55.1220	527.63
55.1364	526.89
55.1509	506.78
55.1653	521.93
55.1798	520.24
55.1942	505.36
55.2086	519.60
55.2231	530.43
55.2375	512.95
55.2520	542.69
55.2664	513.27
55.2808	541.05
55.2953	524.28
55.3097	492.07
55.3242	505.38
55.3386	495.98
55.3530	486.50
55.3675	494.38
55.3819	499.15
55.3964	505.11
55.4108	511.09
55.4252	515.56
55.4397	523.56
55.4541	497.03
55.4686	531.91
55.4830	535.10
55.4974	496.53
55.5119	479.84
55.5263	487.75
55.5408	527.18
55.5552	536.03
55.5696	559.24
55.5841	506.57
55.5985	522.88
55.6130	568.28
55.6274	561.25
55.6418	533.84
55.6563	555.63
55.6707	527.52
55.6852	517.95
55.6996	543.99
55.7140	512.52
55.7285	517.49
55.7429	503.72
55.7574	515.97
55.7718	521.51
55.7862	547.69
55.8007	532.73
55.8151	562.96
55.8296	535.58
55.8440	569.53
55.8584	508.96
55.8729	506.65
55.8873	513.06
55.9018	495.95
55.9162	502.32
55.9306	527.71
55.9451	564.76
55.9595	531.96
55.9740	538.73
55.9884	530.92
56.0028	503.21
56.0173	482.47
56.0317	494.08
56.0462	515.43
56.0606	493.07
56.0750	521.25
56.0895	547.99
56.1039	533.52
56.1184	540.13
56.1328	531.69
56.1472	507.53
56.1617	536.80
56.1761	528.10
56.1906	512.60
56.2050	548.95
56.2194	514.34
56.2339	514.39
56.2483	518.13
56.2628	513.17
56.2772	529.67
56.2916	506.62
56.3061	513.79
56.3205	514.65
56.3350	526.27
56.3494	534.45
56.3639	548.45
56.3783	527.65
56.3927	557.14
56.4072	524.54
56.4216	509.21
56.4361	533.67
56.4505	548.92
56.4649	562.74
56.4794	555.64
56.4938	557.15
56.5083	527.89
56.5227	540.08
56.5371	520.02
56.5516	510.19
56.5660	518.31
56.5805	488.17
56.5949	514.02
56.6093	529.71
56.6238	504.12
56.6382	534.92
56.6527	512.17
56.6671	496.29
56.6815	493.31
56.6960	489.55
56.7104	541.92
56.7249	526.75
56.7393	505.43
56.7537	507.90
56.7682	515.25
56.7826	522.40
56.7971	522.42
56.8115	512.46
56.8259	539.67
56.8404	504.59
56.8548	534.20
56.8693	525.43
56.8837	488.15
56.8981	524.26
56.9126	517.06
56.9270	521.49
56.9415	542.32
56.9559	519.74
56.9703	535.63
56.9848	513.91
56.9992	509.15
57.0137	518.26
57.0281	525.33
57.0425	509.99
57.0570	479.25
57.0714	481.33
57.0859	500.48
57.1003	541.19
57.1147	563.62
57.1292	505.17
57.1436	506.04
57.1581	524.37
57.1725	531.95
57.1869	513.47
57.2014	502.20
57.2158	503.49
57.2303	538.94
57.2447	537.66
57.2591	512.58
57.2736	506.61
57.2880	535.42
57.3025	523.14
57.3169	543.69
57.3313	543.32
57.3458	525.59
57.3602	537.79
57.3747	559.55
57.3891	534.48
57.4035	529.88
57.4180	515.31
57.4324	517.35
57.4469	488.05
57.4613	523.40
57.4757	520.61
57.4902	535.66
57.5046	539.52
57.5191	550.80
57.5335	552.22
57.5479	534.58
57.5624	552.33
57.5768	523.08
57.5913	516.25
57.6057	505.32
57.6201	518.56
57.6346	533.62
57.6490	516.81
57.6635	515.07
57.6779	515.79
57.6923	534.50
57.7068	531.56
57.7212	579.51
57.7357	538.35
57.7501	516.94
57.7645	506.21
57.7790	547.91
57.7934	581.79
57.8079	586.58
57.8223	585.27
57.8367	596.70
57.8512	650.65
57.8656	648.42
57.8801	681.94
57.8945	698.51
57.9089	746.81
57.9234	733.91
57.9378	740.50
57.9523	738.35
57.9667	675.39
57.9811	652.21
57.9956	642.75
58.0100	648.65
58.0245	668.73
58.0389	673.76
58.0533	696.10
58.0678	644.70
58.0822	649.49
58.0967	644.41
58.1111	631.77
58.1255	612.86
58.1400	575.53
58.1544	593.61
58.1689	567.66
58.1833	584.07
58.1977	561.32
58.2122	542.57
58.2266	559.51
58.2411	556.62
58.2555	565.33
58.2699	557.02
58.2844	590.58
58.2988	545.32
58.3133	550.58
58.3277	552.73
58.3421	550.53
58.3566	561.72
58.3710	558.53
58.3855	522.72
58.3999	526.41
58.4143	515.35
58.4288	541.33
58.4432	511.65
58.4577	520.40
58.4721	544.08
58.4865	504.95
58.5010	503.73
58.5154	506.37
58.5299	539.89
58.5443	538.33
58.5587	542.43
58.5732	505.40
58.5876	530.13
58.6021	529.26
58.6165	533.32
58.6309	536.10
58.6454	531.78
58.6598	517.42
58.6743	519.58
58.6887	540.56
58.7031	556.51
58.7176	551.35
58.7320	523.46
58.7465	526.18
58.7609	550.50
58.7753	548.89
58.7898	491.08
58.8042	498.71
58.8187	530.59
58.8331	510.01
58.8475	533.05
58.8620	524.27
58.8764	516.97
58.8909	491.94
58.9053	542.88
58.9197	542.60
58.9342	549.74
58.9486	539.79
58.9631	509.95
58.9775	489.05
58.9919	488.23
59.0064	478.66
59.0208	538.02
59.0353	554.44
59.0497	540.41
59.0641	528.50
59.0786	528.24
59.0930	523.54
59.1075	535.16
59.1219	557.50
59.1363	509.47
59.1508	510.76
59.1652	541.40
59.1797	538.16
59.1941	509.21
59.2085	554.34
59.2230	545.24
59.2374	553.01
59.2519	552.12
59.2663	517.09
59.2807	544.72
59.2952	538.60
59.3096	551.98
59.3241	572.22
59.3385	577.64
59.3529	543.90
59.3674	534.36
59.3818	546.75
59.3963	553.06
59.4107	542.78
59.4251	561.88
59.4396	578.56
59.4540	534.97
59.4685	556.24
59.4829	547.70
59.4973	552.81
59.5118	569.46
59.5262	557.94
59.5407	537.67
59.5551	528.24
59.5695	534.23
59.5840	531.66
59.5984	532.62
59.6129	523.56
59.6273	540.91
59.6417	553.68
59.6562	531.73
59.6706	534.24
59.6851	531.78
59.6995	538.29
59.7139	534.45
59.7284	515.50
59.7428	541.27
59.7573	557.55
59.7717	537.38
59.7861	506.98
59.8006	515.65
59.8150	539.42
59.8295	539.32
59.8439	544.09
59.8583	535.10
59.8728	546.71
59.8872	507.65
59.9017	543.69
59.9161	529.29
59.9305	543.37
59.9450	534.64
59.9594	531.01
59.9739	529.64
59.9883	545.30
60.0027	510.74
60.0172	530.24
60.0316	516.87
60.0461	517.69
60.0605	544.55
60.0750	542.72
60.0894	536.96
60.1038	505.74
60.1183	533.10
60.1327	545.21
60.1472	516.13
60.1616	545.83
60.1760	543.51
60.1905	549.55
60.2049	556.51
60.2194	558.81
60.2338	520.60
60.2482	523.12
60.2627	546.21
60.2771	549.93
60.2916	534.92
60.3060	569.31
60.3204	525.14
60.3349	543.64
60.3493	555.28
60.3638	538.66
60.3782	496.61
60.3926	532.86
60.4071	518.65
60.4215	542.78
60.4360	548.52
60.4504	546.19
60.4648	532.79
60.4793	535.50
60.4937	549.23
60.5082	522.33
60.5226	529.88
60.5370	542.60
60.5515	554.86
60.5659	521.51
60.5804	536.54
60.5948	528.25
60.6092	551.70
60.6237	549.10
60.6381	561.91
60.6526	530.94
60.6670	539.84
60.6814	578.78
60.6959	531.70
60.7103	501.51
60.7248	510.99
60.7392	527.75
60.7536	551.90
60.7681	525.49
60.7825	563.29
60.7970	526.74
60.8114	556.11
60.8258	538.23
60.8403	530.46
60.8547	538.93
60.8692	543.64
60.8836	556.57
60.8980	549.26
60.9125	521.98
60.9269	517.87
60.9414	545.01
60.9558	552.48
60.9702	511.52
60.9847	505.50
60.9991	525.24
61.0136	553.58
61.0280	540.93
61.0424	512.36
61.0569	540.40
61.0713	534.40
61.0858	540.71
61.1002	588.50
61.1146	554.71
61.1291	580.35
61.1435	545.45
61.1580	509.69
61.1724	513.29
61.1868	568.11
61.2013	542.90
61.2157	533.39
61.2302	563.83
61.2446	555.38
61.2590	546.31
61.2735	521.81
61.2879	553.51
61.3024	523.61
61.3168	544.00
61.3312	578.18
61.3457	589.63
61.3601	510.34
61.3746	563.59
61.3890	544.08
61.4034	563.38
61.4179	547.30
61.4323	537.97
61.4468	536.05
61.4612	527.86
61.4756	529.90
61.4901	569.97
61.5045	531.14
61.5190	534.14
61.5334	538.46
61.5478	553.88
61.5623	535.74
61.5767	521.17
61.5912	544.08
61.6056	533.53
61.6200	546.70
61.6345	558.84
61.6489	525.40
61.6634	521.44
61.6778	514.95
61.6922	509.40
61.7067	548.30
61.7211	553.68
61.7356	539.89
61.7500	537.99
61.7644	556.06
61.7789	573.93
61.7933	533.44
61.8078	528.28
61.8222	535.37
61.8366	547.69
61.8511	564.31
61.8655	585.71
61.8800	546.78
61.8944	558.20
61.9088	541.77
61.9233	547.66
61.9377	598.04
61.9522	534.64
61.9666	541.16
61.9810	551.45
61.9955	535.13
62.0099	554.81
62.0244	592.22
62.0388	534.80
62.0532	545.90
62.0677	552.02
62.0821	549.41
62.0966	565.02
62.1110	547.61
62.1254	564.24
62.1399	525.82
62.1543	486.83
62.1688	547.88
62.1832	543.62
62.1976	481.57
62.2121	571.97
62.2265	568.62
62.2410	556.85
62.2554	529.88
62.2698	556.99
62.2843	539.78
62.2987	558.63
62.3132	567.14
62.3276	571.12
62.3420	562.79
62.3565	546.34
62.3709	543.46
62.3854	522.98
62.3998	547.80
62.4142	529.97
62.4287	568.25
62.4431	549.35
62.4576	555.28
62.4720	551.29
62.4864	550.36
62.5009	532.76
62.5153	554.46
62.5298	571.90
62.5442	521.50
62.5586	545.33
62.5731	548.78
62.5875	561.57
62.6020	568.89
62.6164	573.73
62.6308	555.12
62.6453	554.32
62.6597	554.24
62.6742	564.40
62.6886	543.98
62.7030	570.39
62.7175	544.63
62.7319	549.16
62.7464	568.45
62.7608	545.51
62.7752	562.68
62.7897	538.63
62.8041	599.30
62.8186	582.41
62.8330	560.74
62.8474	583.17
62.8619	596.65
62.8763	571.70
62.8908	542.68
62.9052	550.08
62.9196	553.15
62.9341	585.66
62.9485	566.56
62.9630	579.13
62.9774	558.80
62.9918	566.00
63.0063	548.29
63.0207	568.78
63.0352	593.56
63.0496	566.80
63.0640	567.42
63.0785	556.15
63.0929	547.56
63.1074	562.70
63.1218	605.79
63.1362	608.10
63.1507	564.69
63.1651	581.85
63.1796	587.86
63.1940	572.72
63.2084	586.08
63.2229	597.13
63.2373	581.21
63.2518	589.35
63.2662	559.02
63.2806	579.67
63.2951	575.29
63.3095	580.56
63.3240	587.86
63.3384	605.13
63.3528	620.31
63.3673	603.81
63.3817	590.21
63.3962	612.70
63.4106	586.59
63.4250	630.49
63.4395	618.57
63.4539	590.84
63.4684	654.50
63.4828	684.04
63.4972	712.85
63.5117	701.41
63.5261	751.34
63.5406	792.29
63.5550	824.88
63.5694	867.71
63.5839	915.70
63.5983	919.36
63.6128	939.80
63.6272	908.65
63.6416	845.17
63.6561	837.35
63.6705	799.91
63.6850	799.85
63.6994	796.93
63.7138	839.17
63.7283	822.96
63.7427	808.06
63.7572	833.22
63.7716	809.22
63.7861	819.46
63.8005	796.47
63.8149	766.62
63.8294	747.98
63.8438	692.75
63.8583	709.08
63.8727	669.91
63.8871	650.98
63.9016	683.84
63.9160	637.65
63.9305	630.20
63.9449	634.87
63.9593	591.54
63.9738	594.52
63.9882	641.13
64.0027	623.75
64.0171	636.71
64.0315	627.56
64.0460	590.70
64.0604	612.77
64.0749	630.74
64.0893	640.25
64.1037	598.12
64.1182	598.81
64.1326	606.34
64.1471	541.27
64.1615	616.64
64.1759	620.24
64.1904	594.05
64.2048	572.80
64.2193	574.99
64.2337	624.03
64.2481	657.85
64.2626	601.31
64.2770	585.75
64.2915	582.00
64.3059	584.04
64.3203	649.11
64.3348	607.95
64.3492	612.03
64.3637	617.11
64.3781	599.23
64.3925	576.74
64.4070	580.46
64.4214	611.34
64.4359	613.10
64.4503	615.64
64.4647	638.67
64.4792	640.90
64.4936	628.47
64.5081	604.15
64.5225	608.58
64.5369	624.20
64.5514	613.24
64.5658	620.27
64.5803	613.93
64.5947	636.33
64.6091	638.98
64.6236	621.61
64.6380	641.66
64.6525	655.52
64.6669	686.96
64.6813	653.84
64.6958	631.21
64.7102	680.10
64.7247	702.59
64.7391	689.95
64.7535	677.02
64.7680	705.68
64.7824	733.27
64.7969	691.77
64.8113	742.06
64.8257	783.49
64.8402	810.67
64.8546	831.48
64.8691	847.11
64.8835	853.51
64.8979	829.88
64.9124	848.55
64.9268	892.36
64.9413	888.59
64.9557	879.17
64.9701	938.95
64.9846	1080.26
64.9990	1077.12
65.0135	1257.55
65.0279	1356.33
65.0423	1611.03
65.0568	1984.97
65.0712	2447.48
65.0857	3247.37
65.1001	4159.81
65.1145	5737.72
65.1290	7548.72
65.1434	9132.74
65.1579	10512.87
65.1723	11591.79
65.1867	11182.38
65.2012	10094.84
65.2156	8318.97
65.2301	6663.98
65.2445	5407.43
65.2589	4330.11
65.2734	4077.70
65.2878	4253.76
65.3023	4790.00
65.3167	5550.31
65.3311	6327.43
65.3456	6836.39
65.3600	6971.88
65.3745	6402.48
65.3889	5580.47
65.4033	4504.27
65.4178	3483.24
65.4322	2750.42
65.4467	2103.47
65.4611	1731.38
65.4755	1455.64
65.4900	1291.84
65.5044	1172.61
65.5189	1086.22
65.5333	977.11
65.5477	939.55
65.5622	875.09
65.5766	815.72
65.5911	797.39
65.6055	806.70
65.6199	744.80
65.6344	722.27
65.6488	751.65
65.6633	704.24
65.6777	717.86
65.6921	714.50
65.7066	734.45
65.7210	692.50
65.7355	691.64
65.7499	689.67
65.7643	653.53
65.7788	668.00
65.7932	683.84
65.8077	683.22
65.8221	657.18
65.8365	658.28
65.8510	623.80
65.8654	628.25
65.8799	639.83
65.8943	625.61
65.9087	646.39
65.9232	624.55
65.9376	665.63
65.9521	641.93
65.9665	623.35
65.9809	633.90
65.9954	595.00
66.0098	609.66
66.0243	644.94
66.0387	610.81
66.0531	608.04
66.0676	590.37
66.0820	601.24
66.0965	629.49
66.1109	597.09
66.1253	631.05
66.1398	628.85
66.1542	619.58
66.1687	607.63
66.1831	589.30
66.1975	573.90
66.2120	593.70
66.2264	582.02
66.2409	626.61
66.2553	635.06
66.2697	615.45
66.2842	616.85
66.2986	597.61
66.3131	617.30
66.3275	623.03
66.3419	633.64
66.3564	625.49
66.3708	566.11
66.3853	600.20
66.3997	587.37
66.4141	602.66
66.4286	624.21
66.4430	585.89
66.4575	587.08
66.4719	627.22
66.4863	576.18
66.5008	570.42
66.5152	583.08
66.5297	605.58
66.5441	611.55
66.5585	618.87
66.5730	573.10
66.5874	568.44
66.6019	599.66
66.6163	599.45
66.6307	600.07
66.6452	592.17
66.6596	565.65
66.6741	564.89
66.6885	566.98
66.7029	607.96
66.7174	606.81
66.7318	600.69
66.7463	572.81
66.7607	563.76
66.7751	599.32
66.7896	636.80
66.8040	609.65
66.8185	577.70
66.8329	593.48
66.8473	562.00
66.8618	585.92
66.8762	602.66
66.8907	600.98
66.9051	601.91
66.9195	608.59
66.9340	595.04
66.9484	612.04
66.9629	561.74
66.9773	528.12
66.9917	560.99
67.0062	582.05
67.0206	600.48
67.0351	579.98
67.0495	564.97
67.0639	572.36
67.0784	614.52
67.0928	590.18
67.1073	594.07
67.1217	578.23
67.1361	604.95
67.1506	576.92
67.1650	598.22
67.1795	590.75
67.1939	615.17
67.2083	593.38
67.2228	593.99
67.2372	622.66
67.2517	581.36
67.2661	573.01
67.2805	549.03
67.2950	599.54
67.3094	619.16
67.3239	591.71
67.3383	602.48
67.3527	584.43
67.3672	571.11
67.3816	555.53
67.3961	577.03
67.4105	557.78
67.4250	611.61
67.4394	587.18
67.4538	599.49
67.4683	602.72
67.4827	596.24
67.4972	572.86
67.5116	533.30
67.5260	574.57
67.5405	554.44
67.5549	568.22
67.5694	600.24
67.5838	556.34
67.5982	579.40
67.6127	592.58
67.6271	552.34
67.6416	581.93
67.6560	593.10
67.6704	584.11
67.6849	563.72
67.6993	603.31
67.7138	607.07
67.7282	571.30
67.7426	547.36
67.7571	555.72
67.7715	575.08
67.7860	586.38
67.8004	596.12
67.8148	562.38
67.8293	570.47
67.8437	557.77
67.8582	559.75
67.8726	555.08
67.8870	562.26
67.9015	588.27
67.9159	587.81
67.9304	584.26
67.9448	578.09
67.9592	543.25
67.9737	543.53
67.9881	581.39
68.0026	558.83
68.0170	533.78
68.0314	578.27
68.0459	552.76
68.0603	534.65
68.0748	546.65
68.0892	607.05
68.1036	540.99
68.1181	597.42
68.1325	543.35
68.1470	545.26
68.1614	562.67
68.1758	578.82
68.1903	571.47
68.2047	520.33
68.2192	570.05
68.2336	572.86
68.2480	569.50
68.2625	574.79
68.2769	535.83
68.2914	549.59
68.3058	542.21
68.3202	559.11
68.3347	591.90
68.3491	587.31
68.3636	591.54
68.3780	575.95
68.3924	567.99
68.4069	584.83
68.4213	565.95
68.4358	576.00
68.4502	538.44
68.4646	555.94
68.4791	548.45
68.4935	563.75
68.5080	561.67
68.5224	551.78
68.5368	549.73
68.5513	556.93
68.5657	545.33
68.5802	551.49
68.5946	523.81
68.6090	517.62
68.6235	574.33
68.6379	591.25
68.6524	543.42
68.6668	572.42
68.6812	534.75
68.6957	542.70
68.7101	645.42
68.7246	585.83
68.7390	554.83
68.7534	575.85
68.7679	572.37
68.7823	585.45
68.7968	575.49
68.8112	569.79
68.8256	540.48
68.8401	580.56
68.8545	597.37
68.8690	541.57
68.8834	543.41
68.8978	549.98
68.9123	595.41
68.9267	549.36
68.9412	646.54
68.9556	579.43
68.9700	523.40
68.9845	577.78
68.9989	570.51
69.0134	586.66
69.0278	556.60
69.0422	584.95
69.0567	542.35
69.0711	577.56
69.0856	593.41
69.1000	591.60
69.1144	621.28
69.1289	640.81
69.1433	571.48
69.1578	571.41
69.1722	580.10
69.1866	551.43
69.2011	565.14
69.2155	565.67
69.2300	535.15
69.2444	601.24
69.2588	559.64
69.2733	542.74
69.2877	546.84
69.3022	608.74
69.3166	595.29
69.3310	619.52
69.3455	588.18
69.3599	542.23
69.3744	602.38
69.3888	563.57
69.4032	553.62
69.4177	569.90
69.4321	638.02
69.4466	599.36
69.4610	571.75
69.4754	558.50
69.4899	571.60
69.5043	542.72
69.5188	539.15
69.5332	582.81
69.5476	563.05
69.5621	595.81
69.5765	549.33
69.5910	520.36
69.6054	600.75
69.6198	546.43
69.6343	591.30
69.6487	591.44
69.6632	607.76
69.6776	570.72
69.6920	569.95
69.7065	578.84
69.7209	605.15
69.7354	561.41
69.7498	634.33
69.7642	560.37
69.7787	552.00
69.7931	602.32
69.8076	601.15
69.8220	629.14
69.8364	559.07
69.8509	578.21
69.8653	601.18
69.8798	505.38
69.8942	611.42
69.9086	567.30
69.9231	616.92
69.9375	565.18
69.9520	622.70
69.9664	603.71
69.9808	611.25
69.9953	619.82
70.0097	600.15
70.0242	587.96
70.0386	547.85
70.0530	567.89
70.0675	569.53
70.0819	603.75
70.0964	617.21
70.1108	614.69
70.1252	636.48
70.1397	612.86
70.1541	579.04
70.1686	618.68
70.1830	587.00
70.1974	530.81
70.2119	555.71
70.2263	543.65
70.2408	582.21
70.2552	535.18
70.2696	550.42
70.2841	560.28
70.2985	555.11
70.3130	565.42
70.3274	608.87
70.3418	619.34
70.3563	657.25
70.3707	677.51
70.3852	569.27
70.3996	499.61
70.4140	543.34
70.4285	602.17
70.4429	532.65
70.4574	555.86
70.4718	554.33
70.4862	607.76
70.5007	595.79
70.5151	569.85
70.5296	585.13
70.5440	587.67
70.5584	568.72
70.5729	562.22
70.5873	566.07
70.6018	580.56
70.6162	529.14
70.6306	572.26
70.6451	607.32
70.6595	622.76
70.6740	638.04
70.6884	593.33
70.7028	600.43
70.7173	604.12
70.7317	553.33
70.7462	598.22
70.7606	568.26
70.7750	528.31
70.7895	575.95
70.8039	632.68
70.8184	604.12
70.8328	565.34
70.8472	553.10
70.8617	562.00
70.8761	569.16
70.8906	579.71
70.9050	585.35
70.9194	556.95
70.9339	562.84
70.9483	559.56
70.9628	521.31
70.9772	516.43
70.9916	583.46
71.0061	549.67
71.0205	577.32
71.0350	579.45
71.0494	554.48
71.0638	559.69
71.0783	605.15
71.0927	710.19
71.1072	671.50
71.1216	569.75
71.1361	561.33
71.1505	589.59
71.1649	616.21
71.1794	614.34
71.1938	529.28
71.2083	550.88
71.2227	541.93
71.2371	546.86
71.2516	596.21
71.2660	587.49
71.2805	566.68
71.2949	503.51
71.3093	550.73
71.3238	634.91
71.3382	641.79
71.3527	621.53
71.3671	556.84
71.3815	547.86
71.3960	559.56
71.4104	557.26
71.4249	593.90
71.4393	601.70
71.4537	593.17
71.4682	600.02
71.4826	586.82
71.4971	566.42
71.5115	588.12
71.5259	574.86
71.5404	549.58
71.5548	593.41
71.5693	546.61
71.5837	490.74
71.5981	509.33
71.6126	550.35
71.6270	569.48
71.6415	545.70
71.6559	505.28
71.6703	535.59
71.6848	569.09
71.6992	600.80
71.7137	626.16
71.7281	570.59
71.7425	560.96
71.7570	551.02
71.7714	567.81
71.7859	586.74
71.8003	597.77
71.8147	561.50
71.8292	589.90
71.8436	623.20
71.8581	632.79
71.8725	584.76
71.8869	556.17
71.9014	645.31
71.9158	663.57
71.9303	581.82
71.9447	560.75
71.9591	534.19
71.9736	563.59
71.9880	625.41
72.0025	650.62
72.0169	616.94
72.0313	616.36
72.0458	518.53
72.0602	493.72
72.0747	522.30
72.0891	620.30
72.1035	659.62
72.1180	598.73
72.1324	617.77
72.1469	555.82
72.1613	555.12
72.1757	654.52
72.1902	637.94
72.2046	646.95
72.2191	612.47
72.2335	570.81
72.2479	588.38
72.2624	638.90
72.2768	610.58
72.2913	577.68
72.3057	559.59
72.3201	562.87
72.3346	538.56
72.3490	589.96
72.3635	634.65
72.3779	623.46
72.3923	598.54
72.4068	538.99
72.4212	558.92
72.4357	633.91
72.4501	622.95
72.4645	592.35
72.4790	575.92
72.4934	573.19
72.5079	575.73
72.5223	548.89
72.5367	634.88
72.5512	629.77
72.5656	504.12
72.5801	544.19
72.5945	541.48
72.6089	512.91
72.6234	494.40
72.6378	528.70
72.6523	582.83
72.6667	570.77
72.6811	588.76
72.6956	575.09
72.7100	610.13
72.7245	619.31
72.7389	562.51
72.7533	550.64
72.7678	537.36
72.7822	564.86
72.7967	549.35
72.8111	511.83
72.8255	579.78
72.8400	645.78
72.8544	607.48
72.8689	602.31
72.8833	551.59