2022.09.19 19:37:17
Îáðàçåö: ß÷åéêà LCoV 16-09-2022
Lambda1 = 1.54060
Lambda2 = 1.54439
Lambdam = 1.54186
R = 0.497
2Theta	I

line¹ 0 ;repeat¹ 0
22.1120	530.78
22.1264	470.05
22.1409	470.40
22.1553	487.66
22.1697	507.98
22.1842	544.39
22.1986	572.81
22.2131	560.90
22.2275	632.60
22.2419	649.49
22.2564	657.46
22.2708	576.67
22.2853	617.97
22.2997	564.79
22.3141	603.05
22.3286	578.57
22.3430	590.01
22.3575	573.61
22.3719	591.10
22.3863	508.06
22.4008	589.27
22.4152	623.83
22.4297	715.78
22.4441	630.30
22.4585	590.81
22.4730	632.53
22.4874	720.88
22.5019	609.24
22.5163	592.35
22.5307	590.82
22.5452	592.69
22.5596	585.26
22.5741	508.47
22.5885	507.35
22.6029	576.61
22.6174	594.45
22.6318	620.53
22.6463	585.09
22.6607	576.33
22.6751	574.10
22.6896	605.35
22.7040	600.63
22.7185	575.09
22.7329	566.17
22.7473	568.79
22.7618	646.89
22.7762	610.29
22.7907	539.40
22.8051	562.00
22.8195	581.61
22.8340	660.71
22.8484	542.04
22.8629	544.89
22.8773	563.75
22.8917	596.53
22.9062	516.15
22.9206	608.13
22.9351	628.36
22.9495	613.75
22.9639	630.16
22.9784	543.31
22.9928	539.79
23.0073	494.84
23.0217	628.58
23.0361	596.71
23.0506	608.96
23.0650	635.16
23.0795	552.09
23.0939	546.62
23.1083	562.64
23.1228	567.58
23.1372	525.75
23.1517	561.15
23.1661	601.55
23.1806	575.60
23.1950	542.49
23.2094	594.28
23.2239	584.77
23.2383	549.03
23.2528	508.13
23.2672	607.44
23.2816	676.59
23.2961	548.53
23.3105	506.34
23.3250	592.44
23.3394	540.94
23.3538	513.08
23.3683	480.48
23.3827	553.02
23.3972	535.24
23.4116	528.62
23.4260	579.99
23.4405	595.95
23.4549	520.25
23.4694	542.50
23.4838	561.11
23.4982	609.04
23.5127	555.51
23.5271	577.13
23.5416	584.67
23.5560	639.00
23.5704	639.97
23.5849	576.62
23.5993	571.98
23.6138	546.01
23.6282	557.88
23.6426	509.14
23.6571	481.60
23.6715	570.68
23.6860	552.65
23.7004	549.15
23.7148	520.28
23.7293	496.84
23.7437	488.01
23.7582	574.01
23.7726	602.99
23.7870	539.31
23.8015	569.98
23.8159	604.90
23.8304	544.61
23.8448	627.30
23.8592	567.31
23.8737	598.35
23.8881	559.20
23.9026	575.27
23.9170	508.42
23.9314	550.19
23.9459	584.22
23.9603	551.92
23.9748	578.25
23.9892	569.30
24.0036	542.68
24.0181	521.63
24.0325	607.79
24.0470	569.28
24.0614	602.25
24.0758	566.14
24.0903	641.58
24.1047	597.22
24.1192	617.37
24.1336	640.35
24.1480	571.16
24.1625	563.27
24.1769	534.74
24.1914	535.22
24.2058	567.37
24.2202	664.21
24.2347	588.39
24.2491	622.37
24.2636	609.49
24.2780	562.00
24.2924	579.71
24.3069	570.60
24.3213	483.38
24.3358	538.39
24.3502	553.47
24.3646	552.98
24.3791	551.14
24.3935	507.27
24.4080	565.35
24.4224	572.33
24.4368	502.98
24.4513	541.71
24.4657	578.89
24.4802	551.05
24.4946	550.53
24.5090	500.23
24.5235	488.13
24.5379	544.24
24.5524	555.40
24.5668	529.75
24.5812	561.11
24.5957	574.13
24.6101	505.33
24.6246	481.43
24.6390	519.16
24.6534	585.92
24.6679	562.09
24.6823	499.16
24.6968	520.74
24.7112	534.46
24.7256	530.20
24.7401	538.89
24.7545	535.56
24.7690	537.14
24.7834	492.99
24.7978	561.44
24.8123	516.92
24.8267	549.70
24.8412	562.17
24.8556	540.28
24.8700	585.60
24.8845	548.21
24.8989	547.44
24.9134	571.37
24.9278	522.38
24.9422	548.16
24.9567	556.95
24.9711	539.14
24.9856	498.82
25.0000	512.61
25.0144	517.34
25.0289	542.51
25.0433	575.52
25.0578	540.77
25.0722	542.44
25.0866	537.95
25.1011	596.02
25.1155	600.90
25.1300	539.19
25.1444	486.23
25.1588	524.02
25.1733	547.31
25.1877	507.11
25.2022	506.00
25.2166	529.70
25.2310	525.94
25.2455	535.42
25.2599	553.63
25.2744	544.64
25.2888	551.18
25.3032	572.36
25.3177	563.97
25.3321	541.76
25.3466	501.10
25.3610	526.66
25.3754	537.89
25.3899	538.27
25.4043	501.21
25.4188	533.91
25.4332	558.48
25.4476	544.73
25.4621	521.90
25.4765	580.11
25.4910	572.93
25.5054	547.71
25.5198	522.56
25.5343	539.14
25.5487	532.09
25.5632	520.43
25.5776	511.29
25.5920	532.26
25.6065	524.30
25.6209	534.27
25.6354	522.72
25.6498	533.21
25.6642	525.70
25.6787	540.79
25.6931	524.91
25.7076	548.37
25.7220	506.03
25.7364	535.17
25.7509	510.60
25.7653	508.29
25.7798	520.53
25.7942	554.64
25.8086	557.91
25.8231	564.28
25.8375	548.32
25.8520	491.70
25.8664	539.53
25.8808	539.04
25.8953	512.00
25.9097	523.17
25.9242	523.96
25.9386	546.15
25.9530	533.79
25.9675	544.54
25.9819	562.75
25.9964	497.60
26.0108	516.37
26.0252	526.78
26.0397	528.79
26.0541	527.99
26.0686	532.04
26.0830	535.97
26.0974	539.25
26.1119	538.64
26.1263	524.33
26.1408	542.46
26.1552	533.55
26.1696	515.04
26.1841	507.40
26.1985	527.47
26.2130	537.04
26.2274	542.67
26.2418	538.74
26.2563	546.22
26.2707	516.65
26.2852	504.75
26.2996	526.10
26.3140	513.68
26.3285	518.02
26.3429	533.87
26.3574	504.51
26.3718	550.71
26.3862	549.17
26.4007	504.99
26.4151	528.79
26.4296	550.83
26.4440	517.03
26.4584	483.19
26.4729	517.19
26.4873	537.52
26.5018	536.18
26.5162	534.92
26.5306	536.49
26.5451	533.56
26.5595	537.23
26.5740	499.15
26.5884	543.02
26.6028	536.12
26.6173	505.31
26.6317	537.59
26.6462	550.44
26.6606	552.83
26.6750	526.38
26.6895	527.89
26.7039	582.89
26.7184	583.21
26.7328	512.14
26.7472	533.75
26.7617	529.64
26.7761	522.63
26.7906	494.60
26.8050	539.87
26.8194	530.88
26.8339	501.29
26.8483	494.92
26.8628	532.13
26.8772	522.28
26.8917	519.19
26.9061	528.07
26.9205	498.67
26.9350	519.78
26.9494	530.45
26.9639	509.98
26.9783	513.27
26.9927	532.71
27.0072	529.61
27.0216	533.27
27.0361	523.85
27.0505	510.38
27.0649	511.06
27.0794	502.04
27.0938	545.93
27.1083	502.94
27.1227	556.50
27.1371	529.64
27.1516	503.48
27.1660	502.88
27.1805	504.96
27.1949	536.97
27.2093	516.61
27.2238	549.27
27.2382	536.00
27.2527	507.48
27.2671	509.24
27.2815	508.50
27.2960	488.34
27.3104	541.15
27.3249	510.37
27.3393	517.98
27.3537	535.12
27.3682	522.88
27.3826	488.39
27.3971	466.07
27.4115	516.39
27.4259	506.91
27.4404	492.65
27.4548	494.67
27.4693	489.70
27.4837	510.66
27.4981	506.63
27.5126	494.89
27.5270	499.30
27.5415	522.68
27.5559	536.14
27.5703	518.36
27.5848	539.68
27.5992	515.52
27.6137	505.46
27.6281	511.17
27.6425	524.86
27.6570	507.88
27.6714	514.29
27.6859	493.53
27.7003	537.68
27.7147	540.91
27.7292	504.29
27.7436	517.47
27.7581	509.05
27.7725	546.57
27.7869	564.41
27.8014	521.27
27.8158	555.47
27.8303	507.16
27.8447	486.69
27.8591	516.55
27.8736	498.96
27.8880	507.05
27.9025	521.19
27.9169	483.68
27.9313	506.89
27.9458	504.64
27.9602	493.22
27.9747	494.07
27.9891	498.17
28.0035	510.02
28.0180	530.50
28.0324	547.44
28.0469	501.65
28.0613	487.14
28.0757	538.05
28.0902	579.89
28.1046	563.81
28.1191	505.20
28.1335	502.41
28.1479	517.74
28.1624	520.86
28.1768	534.48
28.1913	522.83
28.2057	503.13
28.2201	516.44
28.2346	510.23
28.2490	507.63
28.2635	525.62
28.2779	518.82
28.2923	515.25
28.3068	500.19
28.3212	502.02
28.3357	539.48
28.3501	506.84
28.3645	488.21
28.3790	535.65
28.3934	530.15
28.4079	500.30
28.4223	515.01
28.4367	488.36
28.4512	467.81
28.4656	500.25
28.4801	491.36
28.4945	517.25
28.5089	527.65
28.5234	516.95
28.5378	530.27
28.5523	549.92
28.5667	495.97
28.5811	493.20
28.5956	512.47
28.6100	502.15
28.6245	521.19
28.6389	525.86
28.6533	494.44
28.6678	522.77
28.6822	518.00
28.6967	507.72
28.7111	505.82
28.7255	499.12
28.7400	515.29
28.7544	526.93
28.7689	531.34
28.7833	532.31
28.7977	516.23
28.8122	538.13
28.8266	521.26
28.8411	504.50
28.8555	526.71
28.8699	485.84
28.8844	521.89
28.8988	493.47
28.9133	492.90
28.9277	505.86
28.9421	530.00
28.9566	480.54
28.9710	514.49
28.9855	516.16
28.9999	518.60
29.0143	479.95
29.0288	500.89
29.0432	506.31
29.0577	491.92
29.0721	503.51
29.0865	505.37
29.1010	510.18
29.1154	499.34
29.1299	529.75
29.1443	475.14
29.1587	494.50
29.1732	498.07
29.1876	495.53
29.2021	515.28
29.2165	523.02
29.2309	513.18
29.2454	506.02
29.2598	504.03
29.2743	524.73
29.2887	508.61
29.3031	540.91
29.3176	499.16
29.3320	530.46
29.3465	549.78
29.3609	496.85
29.3753	500.31
29.3898	505.20
29.4042	502.45
29.4187	486.04
29.4331	504.13
29.4475	490.74
29.4620	496.18
29.4764	522.59
29.4909	500.81
29.5053	498.40
29.5197	530.31
29.5342	487.01
29.5486	530.80
29.5631	538.45
29.5775	495.14
29.5919	488.29
29.6064	495.39
29.6208	482.71
29.6353	471.82
29.6497	510.26
29.6641	495.02
29.6786	498.78
29.6930	485.49
29.7075	517.37
29.7219	513.61
29.7363	532.27
29.7508	489.27
29.7652	514.16
29.7797	508.65
29.7941	493.36
29.8085	520.23
29.8230	524.83
29.8374	502.76
29.8519	503.28
29.8663	509.79
29.8807	476.93
29.8952	494.39
29.9096	499.70
29.9241	492.10
29.9385	534.96
29.9529	490.57
29.9674	464.55
29.9818	507.47
29.9963	548.04
30.0107	470.89
30.0251	513.13
30.0396	517.17
30.0540	494.76
30.0685	515.04
30.0829	519.00
30.0973	511.27
30.1118	499.51
30.1262	504.42
30.1407	504.07
30.1551	489.19
30.1695	513.74
30.1840	529.07
30.1984	523.78
30.2129	508.37
30.2273	506.24
30.2417	523.61
30.2562	469.86
30.2706	470.87
30.2851	507.56
30.2995	493.05
30.3139	501.68
30.3284	520.77
30.3428	528.61
30.3573	494.68
30.3717	495.86
30.3861	510.52
30.4006	530.56
30.4150	524.63
30.4295	550.74
30.4439	531.14
30.4583	542.84
30.4728	579.98
30.4872	592.85
30.5017	616.37
30.5161	633.85
30.5305	653.42
30.5450	659.10
30.5594	724.45
30.5739	726.35
30.5883	743.87
30.6028	744.68
30.6172	739.30
30.6316	758.50
30.6461	727.08
30.6605	682.51
30.6750	640.45
30.6894	617.60
30.7038	640.42
30.7183	580.43
30.7327	569.83
30.7472	559.72
30.7616	519.99
30.7760	544.30
30.7905	543.24
30.8049	513.17
30.8194	526.62
30.8338	535.32
30.8482	527.31
30.8627	502.53
30.8771	515.95
30.8916	502.42
30.9060	533.70
30.9204	531.36
30.9349	509.64
30.9493	509.15
30.9638	477.93
30.9782	494.25
30.9926	525.78
31.0071	522.01
31.0215	501.52
31.0360	500.95
31.0504	520.15
31.0648	506.07
31.0793	495.62
31.0937	503.10
31.1082	480.89
31.1226	479.97
31.1370	504.63
31.1515	483.46
31.1659	517.87
31.1804	524.82
31.1948	529.99
31.2092	518.69
31.2237	522.32
31.2381	532.70
31.2526	532.96
31.2670	508.90
31.2814	518.15
31.2959	499.55
31.3103	513.58
31.3248	496.16
31.3392	529.92
31.3536	524.49
31.3681	509.81
31.3825	507.01
31.3970	482.80
31.4114	499.45
31.4258	514.74
31.4403	515.14
31.4547	504.68
31.4692	490.06
31.4836	488.98
31.4980	496.63
31.5125	515.26
31.5269	507.14
31.5414	503.16
31.5558	498.43
31.5702	496.54
31.5847	491.22
31.5991	487.73
31.6136	493.82
31.6280	497.56
31.6424	506.08
31.6569	506.01
31.6713	498.35
31.6858	506.38
31.7002	479.15
31.7146	536.86
31.7291	477.35
31.7435	496.40
31.7580	533.50
31.7724	492.50
31.7868	498.62
31.8013	471.52
31.8157	481.65
31.8302	515.39
31.8446	530.64
31.8590	533.12
31.8735	509.06
31.8879	519.66
31.9024	548.81
31.9168	508.52
31.9312	490.15
31.9457	489.82
31.9601	487.33
31.9746	494.50
31.9890	497.68
32.0034	516.68
32.0179	489.07
32.0323	497.46
32.0468	514.08
32.0612	532.67
32.0756	478.38
32.0901	459.68
32.1045	502.87
32.1190	510.80
32.1334	497.85
32.1478	459.47
32.1623	538.29
32.1767	504.56
32.1912	489.86
32.2056	501.36
32.2200	486.84
32.2345	507.11
32.2489	508.88
32.2634	501.97
32.2778	532.57
32.2922	521.44
32.3067	500.15
32.3211	512.02
32.3356	525.89
32.3500	502.31
32.3644	492.50
32.3789	487.37
32.3933	513.08
32.4078	476.03
32.4222	496.98
32.4366	503.09
32.4511	498.10
32.4655	501.67
32.4800	488.61
32.4944	487.79
32.5088	491.47
32.5233	504.51
32.5377	530.97
32.5522	528.34
32.5666	502.68
32.5810	505.78
32.5955	490.23
32.6099	490.01
32.6244	503.65
32.6388	518.44
32.6532	502.98
32.6677	512.70
32.6821	500.44
32.6966	513.34
32.7110	520.01
32.7254	472.14
32.7399	494.38
32.7543	457.36
32.7688	459.58
32.7832	488.82
32.7976	497.26
32.8121	510.28
32.8265	486.83
32.8410	490.92
32.8554	520.88
32.8698	494.20
32.8843	500.17
32.8987	519.89
32.9132	463.84
32.9276	481.06
32.9420	472.84
32.9565	482.39
32.9709	487.50
32.9854	463.90
32.9998	515.27
33.0142	467.45
33.0287	489.35
33.0431	496.80
33.0576	484.40
33.0720	486.42
33.0864	518.25
33.1009	478.44
33.1153	486.78
33.1298	516.92
33.1442	501.48
33.1586	497.02
33.1731	528.08
33.1875	496.58
33.2020	474.58
33.2164	500.54
33.2308	503.09
33.2453	503.12
33.2597	488.09
33.2742	489.83
33.2886	508.61
33.3030	513.17
33.3175	515.46
33.3319	485.52
33.3464	468.26
33.3608	507.92
33.3752	529.40
33.3897	484.80
33.4041	473.97
33.4186	503.72
33.4330	552.52
33.4474	498.88
33.4619	494.62
33.4763	490.04
33.4908	510.32
33.5052	506.33
33.5196	532.79
33.5341	511.80
33.5485	467.81
33.5630	484.64
33.5774	493.40
33.5918	503.62
33.6063	528.31
33.6207	516.79
33.6352	492.17
33.6496	500.00
33.6640	506.80
33.6785	474.16
33.6929	465.70
33.7074	513.85
33.7218	498.71
33.7362	479.36
33.7507	516.38
33.7651	487.19
33.7796	525.39
33.7940	478.70
33.8084	489.96
33.8229	486.42
33.8373	515.52
33.8518	514.91
33.8662	508.11
33.8806	501.58
33.8951	530.41
33.9095	508.40
33.9240	523.97
33.9384	499.28
33.9528	499.61
33.9673	497.58
33.9817	503.72
33.9962	514.53
34.0106	514.61
34.0250	486.06
34.0395	478.38
34.0539	480.99
34.0684	477.85
34.0828	506.87
34.0972	522.38
34.1117	526.00
34.1261	525.76
34.1406	476.03
34.1550	489.36
34.1694	491.30
34.1839	487.67
34.1983	501.01
34.2128	481.40
34.2272	496.74
34.2417	503.05
34.2561	509.10
34.2705	511.10
34.2850	514.83
34.2994	492.72
34.3139	506.18
34.3283	502.24
34.3427	515.92
34.3572	479.70
34.3716	482.16
34.3861	477.08
34.4005	495.01
34.4149	515.96
34.4294	562.13
34.4438	551.15
34.4583	528.55
34.4727	554.01
34.4871	494.79
34.5016	491.57
34.5160	499.99
34.5305	501.37
34.5449	484.47
34.5593	479.47
34.5738	495.14
34.5882	496.03
34.6027	501.14
34.6171	489.49
34.6315	458.20
34.6460	472.30
34.6604	484.37
34.6749	484.73
34.6893	522.81
34.7037	514.95
34.7182	477.35
34.7326	473.29
34.7471	493.14
34.7615	505.76
34.7759	510.77
34.7904	461.45
34.8048	486.38
34.8193	491.10
34.8337	495.48
34.8481	509.74
34.8626	529.54
34.8770	532.23
34.8915	509.63
34.9059	527.39
34.9203	528.97
34.9348	542.67
34.9492	531.45
34.9637	512.90
34.9781	491.42
34.9925	496.33
35.0070	500.09
35.0214	482.05
35.0359	503.65
35.0503	514.67
35.0647	537.67
35.0792	500.43
35.0936	491.91
35.1081	496.12
35.1225	504.87
35.1369	524.62
35.1514	476.99
35.1658	508.42
35.1803	517.74
35.1947	470.16
35.2091	502.38
35.2236	480.83
35.2380	512.78
35.2525	515.61
35.2669	509.11
35.2813	505.90
35.2958	511.76
35.3102	517.85
35.3247	515.30
35.3391	512.40
35.3535	506.79
35.3680	476.12
35.3824	511.07
35.3969	511.67
35.4113	525.23
35.4257	543.59
35.4402	518.81
35.4546	535.96
35.4691	572.22
35.4835	548.17
35.4979	512.79
35.5124	544.00
35.5268	554.55
35.5413	548.21
35.5557	532.67
35.5701	523.09
35.5846	531.63
35.5990	519.25
35.6135	509.45
35.6279	561.06
35.6423	522.97
35.6568	532.23
35.6712	535.02
35.6857	586.78
35.7001	683.07
35.7145	723.22
35.7290	686.25
35.7434	636.99
35.7579	578.39
35.7723	638.56
35.7867	676.62
35.8012	742.64
35.8156	769.26
35.8301	707.74
35.8445	719.94
35.8589	786.55
35.8734	874.52
35.8878	909.29
35.9023	1029.09
35.9167	1126.27
35.9311	1266.79
35.9456	1703.19
35.9600	2089.00
35.9745	2271.99
35.9889	2378.11
36.0033	2816.68
36.0178	3148.61
36.0322	3207.18
36.0467	2696.81
36.0611	2213.89
36.0755	2039.44
36.0900	2191.42
36.1044	1704.15
36.1189	1564.87
36.1333	1447.04
36.1477	1195.60
36.1622	1125.06
36.1766	947.38
36.1911	858.83
36.2055	841.56
36.2199	786.44
36.2344	731.97
36.2488	622.39
36.2633	552.37
36.2777	548.85
36.2921	576.32
36.3066	561.66
36.3210	559.61
36.3355	532.18
36.3499	530.36
36.3643	561.04
36.3788	549.86
36.3932	516.80
36.4077	525.90
36.4221	529.59
36.4365	574.98
36.4510	551.83
36.4654	566.55
36.4799	537.03
36.4943	508.37
36.5087	521.82
36.5232	497.04
36.5376	527.08
36.5521	520.02
36.5665	514.04
36.5809	512.46
36.5954	527.53
36.6098	533.02
36.6243	543.94
36.6387	519.37
36.6531	488.88
36.6676	506.43
36.6820	489.84
36.6965	518.64
36.7109	575.93
36.7253	524.43
36.7398	527.37
36.7542	542.79
36.7687	512.16
36.7831	548.91
36.7975	554.73
36.8120	595.33
36.8264	572.07
36.8409	614.91
36.8553	578.80
36.8697	579.88
36.8842	589.77
36.8986	548.23
36.9131	541.79
36.9275	615.59
36.9419	560.25
36.9564	566.79
36.9708	558.89
36.9853	569.59
36.9997	541.06
37.0141	534.26
37.0286	561.49
37.0430	601.99
37.0575	570.49
37.0719	534.95
37.0863	515.78
37.1008	499.35
37.1152	520.67
37.1297	514.53
37.1441	497.42
37.1585	473.40
37.1730	500.12
37.1874	520.09
37.2019	505.90
37.2163	485.67
37.2307	508.33
37.2452	522.70
37.2596	503.09
37.2741	494.06
37.2885	509.55
37.3029	523.79
37.3174	515.85
37.3318	526.84
37.3463	495.77
37.3607	501.03
37.3751	496.52
37.3896	476.28
37.4040	450.92
37.4185	520.77
37.4329	534.41
37.4473	514.92
37.4618	499.33
37.4762	496.26
37.4907	496.25
37.5051	487.58
37.5195	504.71
37.5340	494.18
37.5484	477.43
37.5629	508.96
37.5773	507.17
37.5917	501.11
37.6062	472.98
37.6206	489.10
37.6351	473.56
37.6495	503.21
37.6639	500.85
37.6784	505.68
37.6928	505.29
37.7073	503.73
37.7217	529.55
37.7361	510.92
37.7506	528.77
37.7650	489.27
37.7795	507.54
37.7939	500.85
37.8083	511.63
37.8228	514.04
37.8372	521.02
37.8517	515.72
37.8661	489.05
37.8805	533.27
37.8950	538.94
37.9094	518.24
37.9239	478.32
37.9383	504.08
37.9528	482.07
37.9672	490.50
37.9816	474.58
37.9961	500.56
38.0105	515.05
38.0250	478.78
38.0394	477.80
38.0538	512.52
38.0683	500.84
38.0827	536.31
38.0972	508.10
38.1116	527.12
38.1260	549.76
38.1405	486.02
38.1549	504.76
38.1694	499.17
38.1838	475.83
38.1982	517.04
38.2127	532.89
38.2271	480.61
38.2416	483.26
38.2560	490.60
38.2704	480.47
38.2849	508.70
38.2993	494.01
38.3138	516.52
38.3282	539.19
38.3426	530.46
38.3571	536.41
38.3715	526.69
38.3860	530.54
38.4004	538.28
38.4148	568.40
38.4293	574.41
38.4437	580.30
38.4582	601.70
38.4726	680.48
38.4870	689.11
38.5015	702.35
38.5159	795.95
38.5304	756.97
38.5448	754.89
38.5592	757.82
38.5737	738.94
38.5881	726.58
38.6026	690.68
38.6170	701.34
38.6314	678.69
38.6459	647.94
38.6603	645.32
38.6748	626.20
38.6892	580.02
38.7036	578.12
38.7181	558.18
38.7325	517.07
38.7470	520.26
38.7614	492.42
38.7758	493.90
38.7903	483.76
38.8047	498.45
38.8192	506.80
38.8336	508.57
38.8480	513.16
38.8625	502.96
38.8769	497.25
38.8914	494.15
38.9058	505.74
38.9202	545.84
38.9347	518.71
38.9491	491.20
38.9636	498.00
38.9780	492.88
38.9924	489.92
39.0069	510.85
39.0213	513.72
39.0358	467.15
39.0502	501.40
39.0646	507.65
39.0791	497.76
39.0935	521.98
39.1080	521.36
39.1224	542.51
39.1368	515.05
39.1513	490.42
39.1657	489.98
39.1802	502.55
39.1946	493.53
39.2090	474.39
39.2235	485.56
39.2379	505.19
39.2524	501.44
39.2668	496.14
39.2812	520.05
39.2957	507.02
39.3101	518.22
39.3246	513.15
39.3390	507.43
39.3534	492.20
39.3679	471.61
39.3823	474.06
39.3968	485.64
39.4112	469.13
39.4256	515.33
39.4401	504.52
39.4545	492.37
39.4690	506.77
39.4834	527.09
39.4978	510.98
39.5123	507.73
39.5267	481.21
39.5412	525.81
39.5556	507.43
39.5700	500.30
39.5845	483.06
39.5989	476.69
39.6134	490.31
39.6278	513.51
39.6422	490.03
39.6567	498.04
39.6711	491.06
39.6856	489.36
39.7000	514.35
39.7144	486.83
39.7289	455.59
39.7433	479.38
39.7578	503.89
39.7722	534.13
39.7866	522.76
39.8011	500.48
39.8155	505.01
39.8300	497.28
39.8444	490.57
39.8588	519.58
39.8733	527.88
39.8877	532.20
39.9022	523.83
39.9166	459.36
39.9310	488.16
39.9455	505.07
39.9599	490.06
39.9744	500.71
39.9888	499.03
40.0032	480.08
40.0177	514.63
40.0321	510.09
40.0466	490.39
40.0610	498.22
40.0754	504.47
40.0899	504.02
40.1043	524.23
40.1188	501.22
40.1332	487.30
40.1476	492.06
40.1621	499.89
40.1765	489.05
40.1910	504.36
40.2054	481.30
40.2198	474.15
40.2343	498.56
40.2487	512.48
40.2632	439.80
40.2776	478.71
40.2920	501.84
40.3065	493.66
40.3209	489.36
40.3354	536.13
40.3498	470.81
40.3642	467.27
40.3787	485.99
40.3931	495.01
40.4076	517.38
40.4220	513.39
40.4364	521.16
40.4509	504.08
40.4653	519.18
40.4798	529.78
40.4942	480.17
40.5086	485.33
40.5231	477.35
40.5375	522.49
40.5520	490.98
40.5664	490.52
40.5808	507.38
40.5953	509.72
40.6097	495.25
40.6242	488.98
40.6386	509.78
40.6530	518.35
40.6675	495.78
40.6819	492.08
40.6964	514.58
40.7108	541.26
40.7252	510.50
40.7397	512.38
40.7541	492.36
40.7686	479.62
40.7830	527.17
40.7974	473.04
40.8119	491.99
40.8263	497.72
40.8408	469.76
40.8552	483.07
40.8696	545.41
40.8841	496.27
40.8985	502.28
40.9130	516.77
40.9274	511.22
40.9418	514.06
40.9563	493.87
40.9707	490.01
40.9852	481.64
40.9996	520.90
41.0140	485.33
41.0285	509.82
41.0429	486.17
41.0574	475.11
41.0718	491.82
41.0862	501.88
41.1007	537.57
41.1151	503.14
41.1296	522.65
41.1440	509.75
41.1584	494.49
41.1729	504.25
41.1873	491.90
41.2018	468.68
41.2162	513.86
41.2306	503.95
41.2451	503.91
41.2595	495.56
41.2740	518.05
41.2884	502.34
41.3028	504.68
41.3173	510.69
41.3317	533.77
41.3462	511.63
41.3606	509.09
41.3750	513.28
41.3895	510.05
41.4039	516.04
41.4184	507.70
41.4328	513.54
41.4472	524.92
41.4617	519.22
41.4761	494.45
41.4906	514.96
41.5050	492.02
41.5194	485.21
41.5339	478.75
41.5483	485.97
41.5628	473.91
41.5772	526.48
41.5916	516.57
41.6061	494.03
41.6205	469.20
41.6350	468.18
41.6494	485.53
41.6639	472.71
41.6783	458.49
41.6927	487.50
41.7072	503.39
41.7216	489.19
41.7361	502.56
41.7505	491.93
41.7649	479.65
41.7794	507.15
41.7938	467.81
41.8083	494.42
41.8227	469.59
41.8371	522.15
41.8516	515.39
41.8660	539.36
41.8805	508.84
41.8949	496.79
41.9093	560.82
41.9238	577.68
41.9382	587.88
41.9527	557.44
41.9671	544.43
41.9815	573.74
41.9960	545.32
42.0104	529.11
42.0249	565.31
42.0393	570.25
42.0537	550.30
42.0682	584.84
42.0826	593.62
42.0971	578.31
42.1115	558.47
42.1259	588.80
42.1404	606.16
42.1548	615.29
42.1693	647.96
42.1837	693.25
42.1981	769.67
42.2126	858.02
42.2270	946.81
42.2415	1070.61
42.2559	1164.04
42.2703	1311.36
42.2848	1460.93
42.2992	1561.91
42.3137	1710.51
42.3281	1652.49
42.3425	1597.20
42.3570	1495.97
42.3714	1383.01
42.3859	1366.71
42.4003	1359.87
42.4147	1344.26
42.4292	1295.67
42.4436	1121.86
42.4581	1017.42
42.4725	942.18
42.4869	828.90
42.5014	767.71
42.5158	705.53
42.5303	649.54
42.5447	652.42
42.5591	637.24
42.5736	601.43
42.5880	591.97
42.6025	565.82
42.6169	535.77
42.6313	535.94
42.6458	522.45
42.6602	550.19
42.6747	565.32
42.6891	517.92
42.7035	499.10
42.7180	498.38
42.7324	496.86
42.7469	533.09
42.7613	524.40
42.7757	539.83
42.7902	535.18
42.8046	523.29
42.8191	498.63
42.8335	505.53
42.8479	491.54
42.8624	509.85
42.8768	539.15
42.8913	510.50
42.9057	524.39
42.9201	498.26
42.9346	512.58
42.9490	520.53
42.9635	500.63
42.9779	488.74
42.9923	524.58
43.0068	499.72
43.0212	476.15
43.0357	538.87
43.0501	527.95
43.0645	479.66
43.0790	491.41
43.0934	507.84
43.1079	507.46
43.1223	523.99
43.1367	528.66
43.1512	496.07
43.1656	512.56
43.1801	500.00
43.1945	515.64
43.2089	524.34
43.2234	525.60
43.2378	554.83
43.2523	528.28
43.2667	495.46
43.2811	533.62
43.2956	499.53
43.3100	507.64
43.3245	534.80
43.3389	537.15
43.3533	521.34
43.3678	509.50
43.3822	501.43
43.3967	519.59
43.4111	541.84
43.4255	540.42
43.4400	502.47
43.4544	505.89
43.4689	497.30
43.4833	498.02
43.4977	528.41
43.5122	516.62
43.5266	503.58
43.5411	522.05
43.5555	528.72
43.5699	533.24
43.5844	558.03
43.5988	548.81
43.6133	545.55
43.6277	506.02
43.6421	552.70
43.6566	552.07
43.6710	531.78
43.6855	550.80
43.6999	565.53
43.7143	581.35
43.7288	616.58
43.7432	649.05
43.7577	640.91
43.7721	653.21
43.7865	622.46
43.8010	645.72
43.8154	613.74
43.8299	609.55
43.8443	596.24
43.8587	597.80
43.8732	606.66
43.8876	614.34
43.9021	616.87
43.9165	597.42
43.9309	555.04
43.9454	591.33
43.9598	537.30
43.9743	563.56
43.9887	560.10
44.0031	521.67
44.0176	502.73
44.0320	503.47
44.0465	519.43
44.0609	529.18
44.0753	515.09
44.0898	507.27
44.1042	497.15
44.1187	527.57
44.1331	537.46
44.1475	485.28
44.1620	503.97
44.1764	536.15
44.1909	528.88
44.2053	504.01
44.2197	534.77
44.2342	504.48
44.2486	509.40
44.2631	549.22
44.2775	512.26
44.2919	493.85
44.3064	535.31
44.3208	554.70
44.3353	535.57
44.3497	551.54
44.3641	545.01
44.3786	539.74
44.3930	551.25
44.4075	553.04
44.4219	550.95
44.4363	576.16
44.4508	564.28
44.4652	600.56
44.4797	593.94
44.4941	578.24
44.5085	579.89
44.5230	570.49
44.5374	600.97
44.5519	602.44
44.5663	577.84
44.5807	581.75
44.5952	598.70
44.6096	609.12
44.6241	541.38
44.6385	564.17
44.6529	543.84
44.6674	584.89
44.6818	562.38
44.6963	616.83
44.7107	622.64
44.7251	671.25
44.7396	745.09
44.7540	800.87
44.7685	819.16
44.7829	885.25
44.7973	916.82
44.8118	869.73
44.8262	805.82
44.8407	757.78
44.8551	770.82
44.8695	742.27
44.8840	689.89
44.8984	732.19
44.9129	723.15
44.9273	700.90
44.9417	672.38
44.9562	636.91
44.9706	561.80
44.9851	578.25
44.9995	555.22
45.0139	537.07
45.0284	487.25
45.0428	540.87
45.0573	505.20
45.0717	512.49
45.0861	565.23
45.1006	524.25
45.1150	555.73
45.1295	527.52
45.1439	536.99
45.1583	520.25
45.1728	519.64
45.1872	465.14
45.2017	512.93
45.2161	544.03
45.2305	509.28
45.2450	514.21
45.2594	500.61
45.2739	512.92
45.2883	526.53
45.3028	501.93
45.3172	489.64
45.3316	505.27
45.3461	481.20
45.3605	490.66
45.3750	532.22
45.3894	485.89
45.4038	527.56
45.4183	488.30
45.4327	510.73
45.4472	493.86
45.4616	530.35
45.4760	519.35
45.4905	514.90
45.5049	522.47
45.5194	479.93
45.5338	497.33
45.5482	499.70
45.5627	533.04
45.5771	511.24
45.5916	508.89
45.6060	510.81
45.6204	528.97
45.6349	494.56
45.6493	479.88
45.6638	489.98
45.6782	471.18
45.6926	484.45
45.7071	549.43
45.7215	510.11
45.7360	499.46
45.7504	530.76
45.7648	495.48
45.7793	560.46
45.7937	520.67
45.8082	527.55
45.8226	525.58
45.8370	490.37
45.8515	508.40
45.8659	497.22
45.8804	520.50
45.8948	483.23
45.9092	497.18
45.9237	517.67
45.9381	510.99
45.9526	490.81
45.9670	459.67
45.9814	494.89
45.9959	491.29
46.0103	466.72
46.0248	495.04
46.0392	474.96
46.0536	514.76
46.0681	504.61
46.0825	510.06
46.0970	518.10
46.1114	514.32
46.1258	527.55
46.1403	515.42
46.1547	484.65
46.1692	488.84
46.1836	522.46
46.1980	493.40
46.2125	507.88
46.2269	520.76
46.2414	515.26
46.2558	511.51
46.2702	498.71
46.2847	508.32
46.2991	468.42
46.3136	505.57
46.3280	496.06
46.3424	477.09
46.3569	514.10
46.3713	505.53
46.3858	520.78
46.4002	530.38
46.4146	487.01
46.4291	504.05
46.4435	501.81
46.4580	537.43
46.4724	499.59
46.4868	504.58
46.5013	471.38
46.5157	494.48
46.5302	520.01
46.5446	529.80
46.5590	509.35
46.5735	499.31
46.5879	507.13
46.6024	479.91
46.6168	464.56
46.6312	460.05
46.6457	493.50
46.6601	522.03
46.6746	515.60
46.6890	519.47
46.7034	505.78
46.7179	515.54
46.7323	486.02
46.7468	477.02
46.7612	470.26
46.7756	517.68
46.7901	537.51
46.8045	498.50
46.8190	501.30
46.8334	541.66
46.8478	483.74
46.8623	499.43
46.8767	490.42
46.8912	477.34
46.9056	504.97
46.9200	513.57
46.9345	539.29
46.9489	519.21
46.9634	476.39
46.9778	476.83
46.9922	506.31
47.0067	516.32
47.0211	532.82
47.0356	519.98
47.0500	518.46
47.0644	507.46
47.0789	499.22
47.0933	511.63
47.1078	511.48
47.1222	527.55
47.1366	501.68
47.1511	476.50
47.1655	510.89
47.1800	534.73
47.1944	501.81
47.2088	498.54
47.2233	504.57
47.2377	528.33
47.2522	501.58
47.2666	514.61
47.2810	505.27
47.2955	491.13
47.3099	502.44
47.3244	511.21
47.3388	524.64
47.3532	523.89
47.3677	497.51
47.3821	500.66
47.3966	503.63
47.4110	476.51
47.4254	524.76
47.4399	516.49
47.4543	504.11
47.4688	517.13
47.4832	512.68
47.4976	488.68
47.5121	487.38
47.5265	498.75
47.5410	465.14
47.5554	487.47
47.5698	472.83
47.5843	503.66
47.5987	526.95
47.6132	512.07
47.6276	489.64
47.6420	489.93
47.6565	473.38
47.6709	479.78
47.6854	500.55
47.6998	507.13
47.7142	503.92
47.7287	522.81
47.7431	489.44
47.7576	503.54
47.7720	503.97
47.7864	521.34
47.8009	513.55
47.8153	525.43
47.8298	514.04
47.8442	516.38
47.8586	497.08
47.8731	477.89
47.8875	481.43
47.9020	517.46
47.9164	511.34
47.9308	481.48
47.9453	509.15
47.9597	494.19
47.9742	502.07
47.9886	471.37
48.0030	497.83
48.0175	506.99
48.0319	520.63
48.0464	534.97
48.0608	550.25
48.0752	539.47
48.0897	520.08
48.1041	496.67
48.1186	558.83
48.1330	548.89
48.1474	495.50
48.1619	505.77
48.1763	510.74
48.1908	498.34
48.2052	487.79
48.2196	479.32
48.2341	497.00
48.2485	524.42
48.2630	512.81
48.2774	519.55
48.2918	469.00
48.3063	500.87
48.3207	507.36
48.3352	542.57
48.3496	487.25
48.3640	497.47
48.3785	506.56
48.3929	509.39
48.4074	513.03
48.4218	530.46
48.4362	547.77
48.4507	478.93
48.4651	522.61
48.4796	528.07
48.4940	511.17
48.5084	531.49
48.5229	517.67
48.5373	514.95
48.5518	518.19
48.5662	508.42
48.5806	511.71
48.5951	527.51
48.6095	475.59
48.6240	519.11
48.6384	510.76
48.6528	522.60
48.6673	530.75
48.6817	506.27
48.6962	558.32
48.7106	551.57
48.7250	522.18
48.7395	486.61
48.7539	524.20
48.7684	505.59
48.7828	541.15
48.7972	500.43
48.8117	520.59
48.8261	525.61
48.8406	546.73
48.8550	550.81
48.8694	574.36
48.8839	554.65
48.8983	563.88
48.9128	586.18
48.9272	546.08
48.9416	583.80
48.9561	569.21
48.9705	571.93
48.9850	600.48
48.9994	585.32
49.0139	601.90
49.0283	607.08
49.0427	634.08
49.0572	637.16
49.0716	630.27
49.0861	678.95
49.1005	721.23
49.1149	729.11
49.1294	741.29
49.1438	693.82
49.1583	772.38
49.1727	881.44
49.1871	911.98
49.2016	959.40
49.2160	1067.36
49.2305	1184.55
49.2449	1237.55
49.2593	1324.03
49.2738	1437.80
49.2882	1538.47
49.3027	1611.66
49.3171	1638.01
49.3315	1701.53
49.3460	1852.66
49.3604	1817.98
49.3749	1843.04
49.3893	1822.47
49.4037	1824.98
49.4182	1765.05
49.4326	1796.23
49.4471	1729.31
49.4615	1682.62
49.4759	1498.45
49.4904	1464.99
49.5048	1424.17
49.5193	1393.68
49.5337	1257.42
49.5481	1232.08
49.5626	1169.02
49.5770	1030.04
49.5915	969.40
49.6059	916.83
49.6203	819.87
49.6348	900.80
49.6492	790.26
49.6637	746.15
49.6781	734.98
49.6925	713.11
49.7070	661.76
49.7214	698.45
49.7359	656.92
49.7503	620.09
49.7647	628.06
49.7792	606.60
49.7936	581.86
49.8081	588.05
49.8225	595.26
49.8369	563.44
49.8514	561.38
49.8658	545.04
49.8803	527.05
49.8947	552.04
49.9091	571.46
49.9236	566.66
49.9380	551.17
49.9525	561.36
49.9669	547.77
49.9813	533.23
49.9958	530.37
50.0102	522.22
50.0247	525.21
50.0391	523.60
50.0535	530.20
50.0680	514.37
50.0824	541.18
50.0969	498.33
50.1113	522.06
50.1257	527.64
50.1402	526.75
50.1546	491.91
50.1691	537.76
50.1835	543.03
50.1979	520.01
50.2124	529.41
50.2268	527.84
50.2413	547.52
50.2557	522.92
50.2701	470.12
50.2846	503.00
50.2990	546.99
50.3135	543.08
50.3279	524.18
50.3423	512.82
50.3568	490.72
50.3712	478.54
50.3857	499.96
50.4001	509.74
50.4145	499.25
50.4290	540.25
50.4434	505.97
50.4579	502.95
50.4723	484.54
50.4867	510.61
50.5012	513.38
50.5156	506.14
50.5301	501.72
50.5445	493.27
50.5589	481.17
50.5734	493.98
50.5878	508.25
50.6023	538.28
50.6167	508.62
50.6311	506.29
50.6456	509.55
50.6600	512.35
50.6745	531.47
50.6889	486.13
50.7033	525.66
50.7178	512.84
50.7322	491.32
50.7467	495.80
50.7611	490.78
50.7755	501.52
50.7900	503.73
50.8044	527.30
50.8189	514.29
50.8333	519.14
50.8477	507.18
50.8622	530.88
50.8766	486.10
50.8911	488.93
50.9055	516.15
50.9199	503.56
50.9344	517.13
50.9488	537.79
50.9633	505.58
50.9777	497.47
50.9921	479.87
51.0066	516.72
51.0210	488.76
51.0355	501.65
51.0499	512.09
51.0643	508.77
51.0788	504.77
51.0932	525.39
51.1077	532.72
51.1221	520.05
51.1365	526.18
51.1510	502.85
51.1654	491.21
51.1799	460.00
51.1943	499.84
51.2087	555.51
51.2232	535.42
51.2376	514.77
51.2521	503.30
51.2665	494.78
51.2809	515.32
51.2954	518.54
51.3098	490.31
51.3243	487.59
51.3387	498.80
51.3531	509.45
51.3676	500.24
51.3820	482.18
51.3965	467.87
51.4109	501.16
51.4253	518.06
51.4398	488.53
51.4542	497.85
51.4687	522.80
51.4831	514.49
51.4975	499.57
51.5120	492.59
51.5264	483.81
51.5409	514.43
51.5553	534.41
51.5697	542.90
51.5842	539.73
51.5986	504.63
51.6131	495.71
51.6275	507.83
51.6419	497.11
51.6564	531.21
51.6708	469.97
51.6853	464.05
51.6997	509.71
51.7141	533.81
51.7286	500.66
51.7430	509.61
51.7575	519.07
51.7719	488.56
51.7863	500.80
51.8008	514.33
51.8152	536.34
51.8297	538.85
51.8441	514.40
51.8585	518.24
51.8730	495.45
51.8874	467.02
51.9019	530.97
51.9163	470.25
51.9307	508.31
51.9452	516.46
51.9596	508.13
51.9741	500.01
51.9885	468.83
52.0029	489.86
52.0174	494.00
52.0318	504.68
52.0463	464.41
52.0607	523.59
52.0751	520.21
52.0896	523.76
52.1040	534.85
52.1185	509.78
52.1329	523.57
52.1473	483.43
52.1618	527.22
52.1762	497.45
52.1907	521.29
52.2051	520.52
52.2195	534.92
52.2340	491.25
52.2484	527.55
52.2629	530.03
52.2773	538.32
52.2917	509.28
52.3062	528.66
52.3206	521.87
52.3351	549.21
52.3495	542.96
52.3639	502.50
52.3784	500.68
52.3928	493.89
52.4073	508.23
52.4217	566.13
52.4361	519.95
52.4506	519.05
52.4650	496.48
52.4795	516.09
52.4939	488.07
52.5083	503.32
52.5228	522.54
52.5372	488.91
52.5517	495.60
52.5661	535.88
52.5805	549.49
52.5950	485.51
52.6094	486.76
52.6239	481.71
52.6383	537.33
52.6527	501.40
52.6672	487.72
52.6816	492.33
52.6961	508.71
52.7105	493.72
52.7250	491.28
52.7394	516.37
52.7538	533.36
52.7683	505.67
52.7827	533.07
52.7972	541.31
52.8116	508.36
52.8260	505.09
52.8405	504.98
52.8549	503.80
52.8694	493.74
52.8838	513.10
52.8982	520.23
52.9127	499.75
52.9271	480.26
52.9416	493.13
52.9560	477.27
52.9704	500.49
52.9849	531.56
52.9993	524.27
53.0138	511.77
53.0282	482.50
53.0426	497.60
53.0571	524.23
53.0715	539.83
53.0860	505.11
53.1004	497.99
53.1148	509.49
53.1293	528.69
53.1437	507.64
53.1582	507.43
53.1726	512.10
53.1870	491.25
53.2015	480.25
53.2159	504.29
53.2304	470.93
53.2448	499.95
53.2592	486.22
53.2737	461.62
53.2881	484.04
53.3026	491.99
53.3170	510.69
53.3314	515.78
53.3459	520.91
53.3603	498.64
53.3748	481.02
53.3892	492.31
53.4036	510.73
53.4181	489.78
53.4325	516.16
53.4470	480.30
53.4614	510.83
53.4758	484.89
53.4903	507.36
53.5047	476.05
53.5192	496.33
53.5336	523.89
53.5480	500.58
53.5625	506.59
53.5769	508.56
53.5914	500.17
53.6058	497.18
53.6202	497.72
53.6347	464.65
53.6491	483.08
53.6636	483.67
53.6780	497.06
53.6924	494.39
53.7069	504.24
53.7213	544.52
53.7358	518.23
53.7502	495.09
53.7646	498.14
53.7791	513.54
53.7935	539.09
53.8080	503.92
53.8224	526.73
53.8368	560.30
53.8513	517.87
53.8657	533.11
53.8802	503.50
53.8946	510.02
53.9090	506.53
53.9235	493.12
53.9379	533.80
53.9524	535.24
53.9668	498.12
53.9812	470.09
53.9957	517.49
54.0101	511.08
54.0246	513.48
54.0390	535.91
54.0534	527.57
54.0679	535.66
54.0823	507.76
54.0968	540.51
54.1112	527.72
54.1256	564.90
54.1401	564.43
54.1545	530.78
54.1690	528.46
54.1834	565.97
54.1978	540.37
54.2123	543.33
54.2267	554.23
54.2412	589.45
54.2556	597.45
54.2700	627.78
54.2845	669.22
54.2989	632.09
54.3134	610.23
54.3278	610.26
54.3422	636.61
54.3567	630.11
54.3711	599.58
54.3856	573.73
54.4000	559.14
54.4144	591.77
54.4289	621.71
54.4433	554.84
54.4578	549.42
54.4722	590.16
54.4866	584.48
54.5011	571.24
54.5155	558.19
54.5300	552.37
54.5444	553.74
54.5588	546.46
54.5733	535.36
54.5877	510.93
54.6022	514.88
54.6166	502.25
54.6310	514.04
54.6455	529.78
54.6599	524.99
54.6744	508.38
54.6888	497.15
54.7032	521.40
54.7177	500.49
54.7321	491.07
54.7466	502.48
54.7610	474.16
54.7754	508.04
54.7899	515.13
54.8043	503.43
54.8188	517.86
54.8332	526.17
54.8476	496.41
54.8621	483.84
54.8765	536.90
54.8910	493.68
54.9054	507.22
54.9198	513.22
54.9343	515.18
54.9487	538.89
54.9632	511.35
54.9776	513.51
54.9920	514.84
55.0065	509.76
55.0209	541.87
55.0354	536.22
55.0498	513.68
55.0642	523.43
55.0787	506.58
55.0931	510.33
55.1076	501.49
55.1220	542.56
55.1364	537.49
55.1509	481.88
55.1653	502.79
55.1798	495.51
55.1942	512.63
55.2086	524.91
55.2231	516.36
55.2375	500.35
55.2520	493.56
55.2664	502.90
55.2808	510.60
55.2953	524.44
55.3097	516.34
55.3242	468.59
55.3386	527.15
55.3530	525.06
55.3675	509.56
55.3819	507.99
55.3964	503.16
55.4108	501.37
55.4252	536.11
55.4397	517.74
55.4541	494.35
55.4686	488.95
55.4830	505.76
55.4974	519.05
55.5119	522.36
55.5263	526.80
55.5408	557.61
55.5552	534.76
55.5696	536.73
55.5841	508.94
55.5985	507.84
55.6130	493.35
55.6274	487.08
55.6418	540.78
55.6563	507.32
55.6707	524.36
55.6852	504.22
55.6996	532.57
55.7140	537.65
55.7285	498.47
55.7429	492.47
55.7574	530.50
55.7718	528.54
55.7862	491.98
55.8007	528.50
55.8151	552.25
55.8296	531.13
55.8440	519.69
55.8584	527.57
55.8729	508.62
55.8873	524.29
55.9018	564.53
55.9162	542.50
55.9306	476.69
55.9451	520.82
55.9595	428.93
55.9740	472.28
55.9884	513.69
56.0028	528.07
56.0173	540.48
56.0317	529.91
56.0462	538.36
56.0606	517.67
56.0750	521.96
56.0895	551.32
56.1039	513.23
56.1184	534.91
56.1328	554.63
56.1472	513.44
56.1617	534.92
56.1761	536.16
56.1906	555.22
56.2050	512.79
56.2194	492.21
56.2339	513.98
56.2483	571.36
56.2628	516.19
56.2772	515.41
56.2916	492.89
56.3061	542.09
56.3205	529.39
56.3350	519.15
56.3494	520.96
56.3639	466.25
56.3783	515.62
56.3927	509.30
56.4072	485.19
56.4216	518.54
56.4361	520.85
56.4505	532.01
56.4649	523.00
56.4794	540.62
56.4938	514.58
56.5083	525.25
56.5227	537.23
56.5371	523.44
56.5516	504.41
56.5660	515.41
56.5805	512.01
56.5949	505.45
56.6093	510.03
56.6238	529.99
56.6382	467.06
56.6527	498.03
56.6671	520.02
56.6815	481.88
56.6960	504.70
56.7104	520.84
56.7249	529.52
56.7393	502.93
56.7537	479.80
56.7682	500.08
56.7826	531.48
56.7971	515.26
56.8115	520.25
56.8259	489.40
56.8404	482.76
56.8548	511.68
56.8693	526.19
56.8837	492.79
56.8981	538.66
56.9126	507.59
56.9270	547.88
56.9415	490.64
56.9559	509.32
56.9703	512.85
56.9848	491.45
56.9992	533.46
57.0137	535.03
57.0281	519.62
57.0425	531.35
57.0570	529.69
57.0714	521.40
57.0859	552.65
57.1003	484.54
57.1147	526.06
57.1292	530.90
57.1436	522.70
57.1581	523.37
57.1725	510.33
57.1869	510.36
57.2014	506.34
57.2158	495.23
57.2303	521.77
57.2447	517.54
57.2591	522.37
57.2736	537.08
57.2880	508.01
57.3025	520.47
57.3169	525.38
57.3313	512.11
57.3458	523.12
57.3602	516.03
57.3747	521.04
57.3891	499.53
57.4035	502.11
57.4180	543.75
57.4324	551.20
57.4469	541.50
57.4613	560.33
57.4757	513.83
57.4902	555.92
57.5046	545.28
57.5191	547.42
57.5335	568.50
57.5479	560.64
57.5624	517.07
57.5768	533.94
57.5913	539.20
57.6057	538.90
57.6201	508.68
57.6346	545.83
57.6490	517.57
57.6635	536.98
57.6779	517.21
57.6923	516.13
57.7068	580.50
57.7212	584.42
57.7357	549.22
57.7501	577.81
57.7645	606.36
57.7790	609.58
57.7934	564.51
57.8079	603.48
57.8223	606.74
57.8367	599.88
57.8512	618.38
57.8656	719.01
57.8801	754.34
57.8945	745.39
57.9089	703.57
57.9234	710.52
57.9378	710.10
57.9523	676.70
57.9667	650.49
57.9811	657.40
57.9956	653.39
58.0100	658.20
58.0245	693.83
58.0389	687.22
58.0533	678.71
58.0678	667.83
58.0822	702.12
58.0967	688.87
58.1111	637.89
58.1255	610.18
58.1400	579.30
58.1544	548.89
58.1689	542.29
58.1833	557.55
58.1977	578.11
58.2122	571.81
58.2266	529.11
58.2411	559.83
58.2555	570.07
58.2699	588.08
58.2844	560.30
58.2988	552.93
58.3133	576.18
58.3277	548.51
58.3421	538.72
58.3566	513.86
58.3710	526.00
58.3855	524.04
58.3999	545.86
58.4143	550.34
58.4288	537.23
58.4432	522.74
58.4577	528.66
58.4721	540.78
58.4865	545.15
58.5010	541.59
58.5154	558.78
58.5299	524.82
58.5443	515.75
58.5587	551.52
58.5732	529.36
58.5876	511.44
58.6021	520.72
58.6165	495.82
58.6309	511.06
58.6454	552.84
58.6598	559.91
58.6743	557.81
58.6887	529.41
58.7031	560.98
58.7176	564.45
58.7320	519.96
58.7465	532.23
58.7609	513.97
58.7753	533.64
58.7898	532.59
58.8042	528.64
58.8187	537.27
58.8331	526.30
58.8475	506.67
58.8620	530.19
58.8764	505.35
58.8909	510.52
58.9053	521.76
58.9197	521.54
58.9342	538.88
58.9486	534.53
58.9631	516.01
58.9775	529.40
58.9919	520.73
59.0064	520.43
59.0208	528.34
59.0353	547.05
59.0497	537.32
59.0641	535.72
59.0786	531.19
59.0930	569.02
59.1075	528.41
59.1219	530.83
59.1363	509.70
59.1508	503.33
59.1652	543.06
59.1797	549.92
59.1941	512.18
59.2085	512.20
59.2230	552.45
59.2374	565.20
59.2519	528.19
59.2663	522.42
59.2807	560.77
59.2952	575.49
59.3096	583.29
59.3241	579.29
59.3385	597.47
59.3529	552.56
59.3674	555.74
59.3818	536.44
59.3963	551.54
59.4107	591.67
59.4251	576.08
59.4396	546.61
59.4540	527.18
59.4685	554.96
59.4829	547.50
59.4973	527.45
59.5118	527.55
59.5262	532.43
59.5407	536.09
59.5551	537.50
59.5695	558.54
59.5840	548.31
59.5984	534.55
59.6129	543.52
59.6273	542.38
59.6417	515.45
59.6562	519.26
59.6706	535.63
59.6851	558.19
59.6995	534.67
59.7139	558.61
59.7284	518.21
59.7428	536.36
59.7573	545.51
59.7717	551.27
59.7861	576.71
59.8006	555.19
59.8150	553.82
59.8295	524.33
59.8439	521.53
59.8583	544.42
59.8728	532.21
59.8872	521.12
59.9017	598.19
59.9161	574.59
59.9305	518.36
59.9450	517.64
59.9594	542.40
59.9739	503.82
59.9883	513.99
60.0027	508.96
60.0172	564.76
60.0316	512.96
60.0461	498.40
60.0605	571.33
60.0750	506.71
60.0894	555.98
60.1038	526.65
60.1183	555.88
60.1327	527.19
60.1472	500.07
60.1616	555.22
60.1760	565.04
60.1905	518.14
60.2049	511.79
60.2194	517.95
60.2338	533.07
60.2482	556.87
60.2627	566.59
60.2771	576.29
60.2916	536.79
60.3060	530.67
60.3204	546.12
60.3349	579.21
60.3493	540.19
60.3638	540.36
60.3782	528.39
60.3926	503.77
60.4071	531.16
60.4215	552.06
60.4360	551.21
60.4504	515.36
60.4648	527.70
60.4793	549.34
60.4937	529.65
60.5082	540.72
60.5226	533.54
60.5370	517.92
60.5515	523.15
60.5659	520.75
60.5804	532.09
60.5948	524.82
60.6092	503.18
60.6237	508.27
60.6381	531.33
60.6526	566.26
60.6670	549.33
60.6814	497.25
60.6959	509.52
60.7103	542.87
60.7248	541.21
60.7392	493.18
60.7536	530.16
60.7681	494.28
60.7825	527.82
60.7970	524.83
60.8114	519.23
60.8258	538.02
60.8403	563.46
60.8547	535.59
60.8692	562.90
60.8836	536.95
60.8980	531.96
60.9125	556.55
60.9269	529.24
60.9414	539.63
60.9558	545.46
60.9702	521.48
60.9847	532.06
60.9991	548.14
61.0136	539.33
61.0280	536.09
61.0424	529.58
61.0569	553.10
61.0713	593.65
61.0858	559.01
61.1002	526.38
61.1146	515.93
61.1291	528.76
61.1435	537.71
61.1580	542.07
61.1724	527.10
61.1868	554.81
61.2013	569.93
61.2157	541.57
61.2302	559.05
61.2446	572.13
61.2590	534.04
61.2735	556.16
61.2879	548.33
61.3024	549.43
61.3168	548.87
61.3312	586.05
61.3457	560.38
61.3601	536.18
61.3746	542.48
61.3890	540.79
61.4034	515.05
61.4179	568.75
61.4323	559.48
61.4468	541.81
61.4612	551.88
61.4756	565.98
61.4901	519.42
61.5045	519.32
61.5190	562.87
61.5334	556.12
61.5478	539.66
61.5623	549.82
61.5767	569.28
61.5912	533.08
61.6056	535.69
61.6200	531.97
61.6345	565.12
61.6489	549.55
61.6634	527.46
61.6778	540.50
61.6922	527.59
61.7067	515.45
61.7211	541.09
61.7356	528.00
61.7500	514.99
61.7644	512.41
61.7789	556.66
61.7933	565.26
61.8078	530.80
61.8222	507.83
61.8366	574.93
61.8511	571.12
61.8655	554.42
61.8800	519.67
61.8944	526.56
61.9088	566.35
61.9233	580.97
61.9377	532.43
61.9522	534.61
61.9666	547.06
61.9810	524.04
61.9955	527.36
62.0099	524.01
62.0244	533.10
62.0388	515.99
62.0532	526.59
62.0677	569.38
62.0821	555.28
62.0966	576.77
62.1110	553.81
62.1254	590.76
62.1399	584.24
62.1543	565.08
62.1688	584.10
62.1832	558.19
62.1976	521.03
62.2121	546.32
62.2265	537.72
62.2410	518.34
62.2554	500.27
62.2698	529.32
62.2843	535.37
62.2987	544.24
62.3132	561.50
62.3276	557.28
62.3420	554.65
62.3565	534.81
62.3709	544.47
62.3854	555.15
62.3998	555.42
62.4142	528.63
62.4287	583.66
62.4431	580.45
62.4576	563.26
62.4720	574.51
62.4864	588.43
62.5009	568.67
62.5153	547.34
62.5298	550.40
62.5442	555.98
62.5586	580.22
62.5731	532.78
62.5875	546.96
62.6020	546.49
62.6164	570.21
62.6308	569.48
62.6453	530.48
62.6597	533.94
62.6742	527.54
62.6886	548.51
62.7030	570.94
62.7175	545.25
62.7319	543.33
62.7464	551.07
62.7608	531.80
62.7752	558.94
62.7897	564.87
62.8041	568.05
62.8186	545.14
62.8330	550.15
62.8474	581.15
62.8619	585.84
62.8763	550.77
62.8908	573.70
62.9052	608.42
62.9196	589.45
62.9341	585.36
62.9485	607.09
62.9630	562.00
62.9774	539.39
62.9918	548.30
63.0063	551.02
63.0207	562.59
63.0352	552.63
63.0496	526.95
63.0640	566.42
63.0785	578.67
63.0929	600.50
63.1074	588.05
63.1218	619.73
63.1362	629.71
63.1507	563.49
63.1651	573.33
63.1796	594.26
63.1940	583.36
63.2084	604.08
63.2229	605.37
63.2373	585.38
63.2518	582.32
63.2662	590.17
63.2806	590.60
63.2951	576.25
63.3095	582.09
63.3240	583.64
63.3384	626.28
63.3528	594.40
63.3673	593.93
63.3817	637.53
63.3962	619.11
63.4106	594.22
63.4250	650.16
63.4395	650.78
63.4539	687.47
63.4684	695.98
63.4828	694.81
63.4972	719.76
63.5117	741.75
63.5261	793.80
63.5406	857.50
63.5550	881.74
63.5694	895.12
63.5839	978.59
63.5983	995.75
63.6128	915.91
63.6272	802.30
63.6416	838.81
63.6561	869.61
63.6705	809.96
63.6850	784.59
63.6994	843.49
63.7138	839.00
63.7283	776.82
63.7427	811.78
63.7572	799.35
63.7716	801.68
63.7861	797.42
63.8005	792.44
63.8149	753.48
63.8294	718.94
63.8438	714.51
63.8583	649.44
63.8727	670.40
63.8871	640.79
63.9016	644.61
63.9160	612.74
63.9305	636.23
63.9449	656.06
63.9593	624.15
63.9738	634.58
63.9882	627.59
64.0027	600.11
64.0171	596.27
64.0315	604.35
64.0460	604.10
64.0604	568.99
64.0749	631.22
64.0893	637.59
64.1037	584.43
64.1182	639.67
64.1326	634.96
64.1471	589.08
64.1615	591.98
64.1759	622.53
64.1904	595.03
64.2048	584.98
64.2193	588.85
64.2337	607.54
64.2481	598.45
64.2626	603.03
64.2770	605.44
64.2915	627.01
64.3059	567.99
64.3203	582.08
64.3348	590.26
64.3492	601.31
64.3637	562.45
64.3781	608.14
64.3925	605.82
64.4070	595.82
64.4214	637.26
64.4359	629.74
64.4503	602.70
64.4647	632.29
64.4792	576.77
64.4936	570.02
64.5081	574.13
64.5225	603.43
64.5369	586.78
64.5514	612.95
64.5658	640.82
64.5803	653.36
64.5947	610.38
64.6091	632.39
64.6236	620.80
64.6380	674.35
64.6525	668.93
64.6669	662.43
64.6813	635.31
64.6958	669.23
64.7102	648.66
64.7247	619.90
64.7391	631.85
64.7535	700.63
64.7680	717.44
64.7824	737.91
64.7969	733.10
64.8113	754.68
64.8257	760.29
64.8402	788.24
64.8546	818.88
64.8691	833.64
64.8835	863.09
64.8979	846.87
64.9124	854.81
64.9268	878.67
64.9413	916.85
64.9557	925.70
64.9701	950.06
64.9846	969.35
64.9990	1081.09
65.0135	1191.12
65.0279	1400.74
65.0423	1674.71
65.0568	2002.78
65.0712	2520.68
65.0857	3162.28
65.1001	4243.61
65.1145	5750.31
65.1290	7602.46
65.1434	9038.90
65.1579	10713.80
65.1723	11509.14
65.1867	11072.20
65.2012	10058.36
65.2156	8388.26
65.2301	6635.77
65.2445	5270.74
65.2589	4432.53
65.2734	4108.91
65.2878	4274.02
65.3023	4772.38
65.3167	5592.62
65.3311	6362.24
65.3456	6814.60
65.3600	6861.92
65.3745	6419.08
65.3889	5504.22
65.4033	4428.52
65.4178	3603.61
65.4322	2763.28
65.4467	2064.34
65.4611	1661.93
65.4755	1498.19
65.4900	1279.74
65.5044	1147.54
65.5189	1081.59
65.5333	969.92
65.5477	920.03
65.5622	893.96
65.5766	804.38
65.5911	789.19
65.6055	832.67
65.6199	783.31
65.6344	753.88
65.6488	750.20
65.6633	712.70
65.6777	687.69
65.6921	685.66
65.7066	726.45
65.7210	703.29
65.7355	647.85
65.7499	673.52
65.7643	689.01
65.7788	679.65
65.7932	683.81
65.8077	689.16
65.8221	648.01
65.8365	687.20
65.8510	670.27
65.8654	670.99
65.8799	647.97
65.8943	623.47
65.9087	632.51
65.9232	615.52
65.9376	637.30
65.9521	595.89
65.9665	603.77
65.9809	608.80
65.9954	624.96
66.0098	618.29
66.0243	647.80
66.0387	608.31
66.0531	636.06
66.0676	644.87
66.0820	624.45
66.0965	606.99
66.1109	609.34
66.1253	635.50
66.1398	623.48
66.1542	598.00
66.1687	585.18
66.1831	605.79
66.1975	598.38
66.2120	600.05
66.2264	597.82
66.2409	624.79
66.2553	612.57
66.2697	625.55
66.2842	600.91
66.2986	576.26
66.3131	587.86
66.3275	605.59
66.3419	604.50
66.3564	621.76
66.3708	617.98
66.3853	616.65
66.3997	609.54
66.4141	591.24
66.4286	598.09
66.4430	605.45
66.4575	601.28
66.4719	613.71
66.4863	619.69
66.5008	611.07
66.5152	606.21
66.5297	563.01
66.5441	544.09
66.5585	553.45
66.5730	573.68
66.5874	570.44
66.6019	559.10
66.6163	571.04
66.6307	571.18
66.6452	593.93
66.6596	621.58
66.6741	567.70
66.6885	557.74
66.7029	570.73
66.7174	560.97
66.7318	566.55
66.7463	573.53
66.7607	563.12
66.7751	620.04
66.7896	612.70
66.8040	611.35
66.8185	594.38
66.8329	589.67
66.8473	576.44
66.8618	602.00
66.8762	601.61
66.8907	560.52
66.9051	588.05
66.9195	598.78
66.9340	566.34
66.9484	576.90
66.9629	561.54
66.9773	564.36
66.9917	579.82
67.0062	572.69
67.0206	588.55
67.0351	615.68
67.0495	620.48
67.0639	583.35
67.0784	563.65
67.0928	560.07
67.1073	604.68
67.1217	593.19
67.1361	562.45
67.1506	573.82
67.1650	605.32
67.1795	597.85
67.1939	586.98
67.2083	580.14
67.2228	561.09
67.2372	562.32
67.2517	582.00
67.2661	604.50
67.2805	593.02
67.2950	553.19
67.3094	569.85
67.3239	585.54
67.3383	576.87
67.3527	622.29
67.3672	566.62
67.3816	575.52
67.3961	552.51
67.4105	562.76
67.4250	626.39
67.4394	585.32
67.4538	579.71
67.4683	588.80
67.4827	606.72
67.4972	580.88
67.5116	589.22
67.5260	577.71
67.5405	570.32
67.5549	569.95
67.5694	601.77
67.5838	560.64
67.5982	559.93
67.6127	573.19
67.6271	586.78
67.6416	556.17
67.6560	546.73
67.6704	569.93
67.6849	555.01
67.6993	571.78
67.7138	611.51
67.7282	566.21
67.7426	559.11
67.7571	560.68
67.7715	563.36
67.7860	555.84
67.8004	565.00
67.8148	591.66
67.8293	587.08
67.8437	574.97
67.8582	577.91
67.8726	565.60
67.8870	581.61
67.9015	638.13
67.9159	591.95
67.9304	579.09
67.9448	612.72
67.9592	601.91
67.9737	584.99
67.9881	607.11
68.0026	616.71
68.0170	587.51
68.0314	577.90
68.0459	574.48
68.0603	569.92
68.0748	579.05
68.0892	611.36
68.1036	592.34
68.1181	615.97
68.1325	573.55
68.1470	551.68
68.1614	588.20
68.1758	554.94
68.1903	625.83
68.2047	562.22
68.2192	600.91
68.2336	560.59
68.2480	570.89
68.2625	565.65
68.2769	549.86
68.2914	539.97
68.3058	595.44
68.3202	620.08
68.3347	569.28
68.3491	569.11
68.3636	567.00
68.3780	582.84
68.3924	564.21
68.4069	541.02
68.4213	584.21
68.4358	559.54
68.4502	559.22
68.4646	581.41
68.4791	561.36
68.4935	557.75
68.5080	560.29
68.5224	564.04
68.5368	571.60
68.5513	573.09
68.5657	543.43
68.5802	533.03
68.5946	546.48
68.6090	572.33
68.6235	586.69
68.6379	603.99
68.6524	561.48
68.6668	579.93
68.6812	582.24
68.6957	574.70
68.7101	581.28
68.7246	606.36
68.7390	603.61
68.7534	575.53
68.7679	517.87
68.7823	568.67
68.7968	546.33
68.8112	578.24
68.8256	582.22
68.8401	587.66
68.8545	578.05
68.8690	561.03
68.8834	551.86
68.8978	582.28
68.9123	625.96
68.9267	565.76
68.9412	602.56
68.9556	599.68
68.9700	555.00
68.9845	527.97
68.9989	572.65
69.0134	533.68
69.0278	587.12
69.0422	592.77
69.0567	521.48
69.0711	572.18
69.0856	582.56
69.1000	597.03
69.1144	620.65
69.1289	622.81
69.1433	621.09
69.1578	498.36
69.1722	591.13
69.1866	549.08
69.2011	598.07
69.2155	549.93
69.2300	538.49
69.2444	536.26
69.2588	530.08
69.2733	547.20
69.2877	610.78
69.3022	560.04
69.3166	557.27
69.3310	614.20
69.3455	620.90
69.3599	597.09
69.3744	578.54
69.3888	562.97
69.4032	575.52
69.4177	584.81
69.4321	591.12
69.4466	561.41
69.4610	509.87
69.4754	557.20
69.4899	583.93
69.5043	582.19
69.5188	584.58
69.5332	586.58
69.5476	542.95
69.5621	571.82
69.5765	566.26
69.5910	551.83
69.6054	554.24
69.6198	518.22
69.6343	585.87
69.6487	613.63
69.6632	618.07
69.6776	575.45
69.6920	521.34
69.7065	633.97
69.7209	608.22
69.7354	554.34
69.7498	558.41
69.7642	524.29
69.7787	590.94
69.7931	598.13
69.8076	608.62
69.8220	609.73
69.8364	607.98
69.8509	559.92
69.8653	596.93
69.8798	554.30
69.8942	596.81
69.9086	641.15
69.9231	605.14
69.9375	633.03
69.9520	599.57
69.9664	577.96
69.9808	586.98
69.9953	683.73
70.0097	587.40
70.0242	586.59
70.0386	554.13
70.0530	580.27
70.0675	618.35
70.0819	604.13
70.0964	629.35
70.1108	605.94
70.1252	590.58
70.1397	580.81
70.1541	530.46
70.1686	560.02
70.1830	558.10
70.1974	568.81
70.2119	607.71
70.2263	535.79
70.2408	577.33
70.2552	581.26
70.2696	570.34
70.2841	522.83
70.2985	520.46
70.3130	567.88
70.3274	589.10
70.3418	575.36
70.3563	548.73
70.3707	590.98
70.3852	613.03
70.3996	563.21
70.4140	551.12
70.4285	567.80
70.4429	550.02
70.4574	564.66
70.4718	605.29
70.4862	570.09
70.5007	597.88
70.5151	606.58
70.5296	551.93
70.5440	560.66
70.5584	572.21
70.5729	516.38
70.5873	530.39
70.6018	579.29
70.6162	559.46
70.6306	554.22
70.6451	541.41
70.6595	600.43
70.6740	595.22
70.6884	540.74
70.7028	541.67
70.7173	530.19
70.7317	536.92
70.7462	564.32
70.7606	572.04
70.7750	597.73
70.7895	612.16
70.8039	583.09
70.8184	567.21
70.8328	574.81
70.8472	525.44
70.8617	518.36
70.8761	523.27
70.8906	540.01
70.9050	559.02
70.9194	563.32
70.9339	629.05
70.9483	638.68
70.9628	574.71
70.9772	529.76
70.9916	604.31
71.0061	605.72
71.0205	598.71
71.0350	624.82
71.0494	630.95
71.0638	572.85
71.0783	590.79
71.0927	570.48
71.1072	551.60
71.1216	565.35
71.1361	551.94
71.1505	525.25
71.1649	570.57
71.1794	593.92
71.1938	599.60
71.2083	576.77
71.2227	530.49
71.2371	579.02
71.2516	568.41
71.2660	594.66
71.2805	607.67
71.2949	562.24
71.3093	570.51
71.3238	601.89
71.3382	609.33
71.3527	606.54
71.3671	559.63
71.3815	570.29
71.3960	587.74
71.4104	586.88
71.4249	598.49
71.4393	554.67
71.4537	592.85
71.4682	629.06
71.4826	594.17
71.4971	581.33
71.5115	537.84
71.5259	527.92
71.5404	607.45
71.5548	620.49
71.5693	596.41
71.5837	613.46
71.5981	581.54
71.6126	550.65
71.6270	568.71
71.6415	538.55
71.6559	581.23
71.6703	635.10
71.6848	587.89
71.6992	595.64
71.7137	617.41
71.7281	600.39
71.7425	547.94
71.7570	516.81
71.7714	564.53
71.7859	548.36
71.8003	592.76
71.8147	591.86
71.8292	519.64
71.8436	484.57
71.8581	534.74
71.8725	558.44
71.8869	559.52
71.9014	633.51
71.9158	649.08
71.9303	570.86
71.9447	550.37
71.9591	528.17
71.9736	524.22
71.9880	592.51
72.0025	547.87
72.0169	448.51
72.0313	556.89
72.0458	553.22
72.0602	538.48
72.0747	633.31
72.0891	618.18
72.1035	575.09
72.1180	587.23
72.1324	606.27
72.1469	614.43
72.1613	635.58
72.1757	624.29
72.1902	564.01
72.2046	533.38
72.2191	532.92
72.2335	555.91
72.2479	543.06
72.2624	515.63
72.2768	555.29
72.2913	597.10
72.3057	632.36
72.3201	625.40
72.3346	614.72
72.3490	627.22
72.3635	540.91
72.3779	553.12
72.3923	591.16
72.4068	577.84
72.4212	560.00
72.4357	625.30
72.4501	572.69
72.4645	648.80
72.4790	573.48
72.4934	480.12
72.5079	571.48
72.5223	610.04
72.5367	559.11
72.5512	571.68
72.5656	572.75
72.5801	550.64
72.5945	542.03
72.6089	541.31
72.6234	554.05
72.6378	604.58
72.6523	589.28
72.6667	605.84
72.6811	514.38
72.6956	502.63
72.7100	603.67
72.7245	616.96
72.7389	673.04
72.7533	673.75
72.7678	661.55
72.7822	622.47
72.7967	554.63
72.8111	554.02
72.8255	544.42
72.8400	568.06
72.8544	515.61
72.8689	515.38
72.8833	596.80

Result vector
22.1120	530.78
22.1264	470.05
22.1409	470.40
22.1553	487.66
22.1697	507.98
22.1842	544.39
22.1986	572.81
22.2131	560.90
22.2275	632.60
22.2419	649.49
22.2564	657.46
22.2708	576.67
22.2853	617.97
22.2997	564.79
22.3141	603.05
22.3286	578.57
22.3430	590.01
22.3575	573.61
22.3719	591.10
22.3863	508.06
22.4008	589.27
22.4152	623.83
22.4297	715.78
22.4441	630.30
22.4585	590.81
22.4730	632.53
22.4874	720.88
22.5019	609.24
22.5163	592.35
22.5307	590.82
22.5452	592.69
22.5596	585.26
22.5741	508.47
22.5885	507.35
22.6029	576.61
22.6174	594.45
22.6318	620.53
22.6463	585.09
22.6607	576.33
22.6751	574.10
22.6896	605.35
22.7040	600.63
22.7185	575.09
22.7329	566.17
22.7473	568.79
22.7618	646.89
22.7762	610.29
22.7907	539.40
22.8051	562.00
22.8195	581.61
22.8340	660.71
22.8484	542.04
22.8629	544.89
22.8773	563.75
22.8917	596.53
22.9062	516.15
22.9206	608.13
22.9351	628.36
22.9495	613.75
22.9639	630.16
22.9784	543.31
22.9928	539.79
23.0073	494.84
23.0217	628.58
23.0361	596.71
23.0506	608.96
23.0650	635.16
23.0795	552.09
23.0939	546.62
23.1083	562.64
23.1228	567.58
23.1372	525.75
23.1517	561.15
23.1661	601.55
23.1806	575.60
23.1950	542.49
23.2094	594.28
23.2239	584.77
23.2383	549.03
23.2528	508.13
23.2672	607.44
23.2816	676.59
23.2961	548.53
23.3105	506.34
23.3250	592.44
23.3394	540.94
23.3538	513.08
23.3683	480.48
23.3827	553.02
23.3972	535.24
23.4116	528.62
23.4260	579.99
23.4405	595.95
23.4549	520.25
23.4694	542.50
23.4838	561.11
23.4982	609.04
23.5127	555.51
23.5271	577.13
23.5416	584.67
23.5560	639.00
23.5704	639.97
23.5849	576.62
23.5993	571.98
23.6138	546.01
23.6282	557.88
23.6426	509.14
23.6571	481.60
23.6715	570.68
23.6860	552.65
23.7004	549.15
23.7148	520.28
23.7293	496.84
23.7437	488.01
23.7582	574.01
23.7726	602.99
23.7870	539.31
23.8015	569.98
23.8159	604.90
23.8304	544.61
23.8448	627.30
23.8592	567.31
23.8737	598.35
23.8881	559.20
23.9026	575.27
23.9170	508.42
23.9314	550.19
23.9459	584.22
23.9603	551.92
23.9748	578.25
23.9892	569.30
24.0036	542.68
24.0181	521.63
24.0325	607.79
24.0470	569.28
24.0614	602.25
24.0758	566.14
24.0903	641.58
24.1047	597.22
24.1192	617.37
24.1336	640.35
24.1480	571.16
24.1625	563.27
24.1769	534.74
24.1914	535.22
24.2058	567.37
24.2202	664.21
24.2347	588.39
24.2491	622.37
24.2636	609.49
24.2780	562.00
24.2924	579.71
24.3069	570.60
24.3213	483.38
24.3358	538.39
24.3502	553.47
24.3646	552.98
24.3791	551.14
24.3935	507.27
24.4080	565.35
24.4224	572.33
24.4368	502.98
24.4513	541.71
24.4657	578.89
24.4802	551.05
24.4946	550.53
24.5090	500.23
24.5235	488.13
24.5379	544.24
24.5524	555.40
24.5668	529.75
24.5812	561.11
24.5957	574.13
24.6101	505.33
24.6246	481.43
24.6390	519.16
24.6534	585.92
24.6679	562.09
24.6823	499.16
24.6968	520.74
24.7112	534.46
24.7256	530.20
24.7401	538.89
24.7545	535.56
24.7690	537.14
24.7834	492.99
24.7978	561.44
24.8123	516.92
24.8267	549.70
24.8412	562.17
24.8556	540.28
24.8700	585.60
24.8845	548.21
24.8989	547.44
24.9134	571.37
24.9278	522.38
24.9422	548.16
24.9567	556.95
24.9711	539.14
24.9856	498.82
25.0000	512.61
25.0144	517.34
25.0289	542.51
25.0433	575.52
25.0578	540.77
25.0722	542.44
25.0866	537.95
25.1011	596.02
25.1155	600.90
25.1300	539.19
25.1444	486.23
25.1588	524.02
25.1733	547.31
25.1877	507.11
25.2022	506.00
25.2166	529.70
25.2310	525.94
25.2455	535.42
25.2599	553.63
25.2744	544.64
25.2888	551.18
25.3032	572.36
25.3177	563.97
25.3321	541.76
25.3466	501.10
25.3610	526.66
25.3754	537.89
25.3899	538.27
25.4043	501.21
25.4188	533.91
25.4332	558.48
25.4476	544.73
25.4621	521.90
25.4765	580.11
25.4910	572.93
25.5054	547.71
25.5198	522.56
25.5343	539.14
25.5487	532.09
25.5632	520.43
25.5776	511.29
25.5920	532.26
25.6065	524.30
25.6209	534.27
25.6354	522.72
25.6498	533.21
25.6642	525.70
25.6787	540.79
25.6931	524.91
25.7076	548.37
25.7220	506.03
25.7364	535.17
25.7509	510.60
25.7653	508.29
25.7798	520.53
25.7942	554.64
25.8086	557.91
25.8231	564.28
25.8375	548.32
25.8520	491.70
25.8664	539.53
25.8808	539.04
25.8953	512.00
25.9097	523.17
25.9242	523.96
25.9386	546.15
25.9530	533.79
25.9675	544.54
25.9819	562.75
25.9964	497.60
26.0108	516.37
26.0252	526.78
26.0397	528.79
26.0541	527.99
26.0686	532.04
26.0830	535.97
26.0974	539.25
26.1119	538.64
26.1263	524.33
26.1408	542.46
26.1552	533.55
26.1696	515.04
26.1841	507.40
26.1985	527.47
26.2130	537.04
26.2274	542.67
26.2418	538.74
26.2563	546.22
26.2707	516.65
26.2852	504.75
26.2996	526.10
26.3140	513.68
26.3285	518.02
26.3429	533.87
26.3574	504.51
26.3718	550.71
26.3862	549.17
26.4007	504.99
26.4151	528.79
26.4296	550.83
26.4440	517.03
26.4584	483.19
26.4729	517.19
26.4873	537.52
26.5018	536.18
26.5162	534.92
26.5306	536.49
26.5451	533.56
26.5595	537.23
26.5740	499.15
26.5884	543.02
26.6028	536.12
26.6173	505.31
26.6317	537.59
26.6462	550.44
26.6606	552.83
26.6750	526.38
26.6895	527.89
26.7039	582.89
26.7184	583.21
26.7328	512.14
26.7472	533.75
26.7617	529.64
26.7761	522.63
26.7906	494.60
26.8050	539.87
26.8194	530.88
26.8339	501.29
26.8483	494.92
26.8628	532.13
26.8772	522.28
26.8917	519.19
26.9061	528.07
26.9205	498.67
26.9350	519.78
26.9494	530.45
26.9639	509.98
26.9783	513.27
26.9927	532.71
27.0072	529.61
27.0216	533.27
27.0361	523.85
27.0505	510.38
27.0649	511.06
27.0794	502.04
27.0938	545.93
27.1083	502.94
27.1227	556.50
27.1371	529.64
27.1516	503.48
27.1660	502.88
27.1805	504.96
27.1949	536.97
27.2093	516.61
27.2238	549.27
27.2382	536.00
27.2527	507.48
27.2671	509.24
27.2815	508.50
27.2960	488.34
27.3104	541.15
27.3249	510.37
27.3393	517.98
27.3537	535.12
27.3682	522.88
27.3826	488.39
27.3971	466.07
27.4115	516.39
27.4259	506.91
27.4404	492.65
27.4548	494.67
27.4693	489.70
27.4837	510.66
27.4981	506.63
27.5126	494.89
27.5270	499.30
27.5415	522.68
27.5559	536.14
27.5703	518.36
27.5848	539.68
27.5992	515.52
27.6137	505.46
27.6281	511.17
27.6425	524.86
27.6570	507.88
27.6714	514.29
27.6859	493.53
27.7003	537.68
27.7147	540.91
27.7292	504.29
27.7436	517.47
27.7581	509.05
27.7725	546.57
27.7869	564.41
27.8014	521.27
27.8158	555.47
27.8303	507.16
27.8447	486.69
27.8591	516.55
27.8736	498.96
27.8880	507.05
27.9025	521.19
27.9169	483.68
27.9313	506.89
27.9458	504.64
27.9602	493.22
27.9747	494.07
27.9891	498.17
28.0035	510.02
28.0180	530.50
28.0324	547.44
28.0469	501.65
28.0613	487.14
28.0757	538.05
28.0902	579.89
28.1046	563.81
28.1191	505.20
28.1335	502.41
28.1479	517.74
28.1624	520.86
28.1768	534.48
28.1913	522.83
28.2057	503.13
28.2201	516.44
28.2346	510.23
28.2490	507.63
28.2635	525.62
28.2779	518.82
28.2923	515.25
28.3068	500.19
28.3212	502.02
28.3357	539.48
28.3501	506.84
28.3645	488.21
28.3790	535.65
28.3934	530.15
28.4079	500.30
28.4223	515.01
28.4367	488.36
28.4512	467.81
28.4656	500.25
28.4801	491.36
28.4945	517.25
28.5089	527.65
28.5234	516.95
28.5378	530.27
28.5523	549.92
28.5667	495.97
28.5811	493.20
28.5956	512.47
28.6100	502.15
28.6245	521.19
28.6389	525.86
28.6533	494.44
28.6678	522.77
28.6822	518.00
28.6967	507.72
28.7111	505.82
28.7255	499.12
28.7400	515.29
28.7544	526.93
28.7689	531.34
28.7833	532.31
28.7977	516.23
28.8122	538.13
28.8266	521.26
28.8411	504.50
28.8555	526.71
28.8699	485.84
28.8844	521.89
28.8988	493.47
28.9133	492.90
28.9277	505.86
28.9421	530.00
28.9566	480.54
28.9710	514.49
28.9855	516.16
28.9999	518.60
29.0143	479.95
29.0288	500.89
29.0432	506.31
29.0577	491.92
29.0721	503.51
29.0865	505.37
29.1010	510.18
29.1154	499.34
29.1299	529.75
29.1443	475.14
29.1587	494.50
29.1732	498.07
29.1876	495.53
29.2021	515.28
29.2165	523.02
29.2309	513.18
29.2454	506.02
29.2598	504.03
29.2743	524.73
29.2887	508.61
29.3031	540.91
29.3176	499.16
29.3320	530.46
29.3465	549.78
29.3609	496.85
29.3753	500.31
29.3898	505.20
29.4042	502.45
29.4187	486.04
29.4331	504.13
29.4475	490.74
29.4620	496.18
29.4764	522.59
29.4909	500.81
29.5053	498.40
29.5197	530.31
29.5342	487.01
29.5486	530.80
29.5631	538.45
29.5775	495.14
29.5919	488.29
29.6064	495.39
29.6208	482.71
29.6353	471.82
29.6497	510.26
29.6641	495.02
29.6786	498.78
29.6930	485.49
29.7075	517.37
29.7219	513.61
29.7363	532.27
29.7508	489.27
29.7652	514.16
29.7797	508.65
29.7941	493.36
29.8085	520.23
29.8230	524.83
29.8374	502.76
29.8519	503.28
29.8663	509.79
29.8807	476.93
29.8952	494.39
29.9096	499.70
29.9241	492.10
29.9385	534.96
29.9529	490.57
29.9674	464.55
29.9818	507.47
29.9963	548.04
30.0107	470.89
30.0251	513.13
30.0396	517.17
30.0540	494.76
30.0685	515.04
30.0829	519.00
30.0973	511.27
30.1118	499.51
30.1262	504.42
30.1407	504.07
30.1551	489.19
30.1695	513.74
30.1840	529.07
30.1984	523.78
30.2129	508.37
30.2273	506.24
30.2417	523.61
30.2562	469.86
30.2706	470.87
30.2851	507.56
30.2995	493.05
30.3139	501.68
30.3284	520.77
30.3428	528.61
30.3573	494.68
30.3717	495.86
30.3861	510.52
30.4006	530.56
30.4150	524.63
30.4295	550.74
30.4439	531.14
30.4583	542.84
30.4728	579.98
30.4872	592.85
30.5017	616.37
30.5161	633.85
30.5305	653.42
30.5450	659.10
30.5594	724.45
30.5739	726.35
30.5883	743.87
30.6028	744.68
30.6172	739.30
30.6316	758.50
30.6461	727.08
30.6605	682.51
30.6750	640.45
30.6894	617.60
30.7038	640.42
30.7183	580.43
30.7327	569.83
30.7472	559.72
30.7616	519.99
30.7760	544.30
30.7905	543.24
30.8049	513.17
30.8194	526.62
30.8338	535.32
30.8482	527.31
30.8627	502.53
30.8771	515.95
30.8916	502.42
30.9060	533.70
30.9204	531.36
30.9349	509.64
30.9493	509.15
30.9638	477.93
30.9782	494.25
30.9926	525.78
31.0071	522.01
31.0215	501.52
31.0360	500.95
31.0504	520.15
31.0648	506.07
31.0793	495.62
31.0937	503.10
31.1082	480.89
31.1226	479.97
31.1370	504.63
31.1515	483.46
31.1659	517.87
31.1804	524.82
31.1948	529.99
31.2092	518.69
31.2237	522.32
31.2381	532.70
31.2526	532.96
31.2670	508.90
31.2814	518.15
31.2959	499.55
31.3103	513.58
31.3248	496.16
31.3392	529.92
31.3536	524.49
31.3681	509.81
31.3825	507.01
31.3970	482.80
31.4114	499.45
31.4258	514.74
31.4403	515.14
31.4547	504.68
31.4692	490.06
31.4836	488.98
31.4980	496.63
31.5125	515.26
31.5269	507.14
31.5414	503.16
31.5558	498.43
31.5702	496.54
31.5847	491.22
31.5991	487.73
31.6136	493.82
31.6280	497.56
31.6424	506.08
31.6569	506.01
31.6713	498.35
31.6858	506.38
31.7002	479.15
31.7146	536.86
31.7291	477.35
31.7435	496.40
31.7580	533.50
31.7724	492.50
31.7868	498.62
31.8013	471.52
31.8157	481.65
31.8302	515.39
31.8446	530.64
31.8590	533.12
31.8735	509.06
31.8879	519.66
31.9024	548.81
31.9168	508.52
31.9312	490.15
31.9457	489.82
31.9601	487.33
31.9746	494.50
31.9890	497.68
32.0034	516.68
32.0179	489.07
32.0323	497.46
32.0468	514.08
32.0612	532.67
32.0756	478.38
32.0901	459.68
32.1045	502.87
32.1190	510.80
32.1334	497.85
32.1478	459.47
32.1623	538.29
32.1767	504.56
32.1912	489.86
32.2056	501.36
32.2200	486.84
32.2345	507.11
32.2489	508.88
32.2634	501.97
32.2778	532.57
32.2922	521.44
32.3067	500.15
32.3211	512.02
32.3356	525.89
32.3500	502.31
32.3644	492.50
32.3789	487.37
32.3933	513.08
32.4078	476.03
32.4222	496.98
32.4366	503.09
32.4511	498.10
32.4655	501.67
32.4800	488.61
32.4944	487.79
32.5088	491.47
32.5233	504.51
32.5377	530.97
32.5522	528.34
32.5666	502.68
32.5810	505.78
32.5955	490.23
32.6099	490.01
32.6244	503.65
32.6388	518.44
32.6532	502.98
32.6677	512.70
32.6821	500.44
32.6966	513.34
32.7110	520.01
32.7254	472.14
32.7399	494.38
32.7543	457.36
32.7688	459.58
32.7832	488.82
32.7976	497.26
32.8121	510.28
32.8265	486.83
32.8410	490.92
32.8554	520.88
32.8698	494.20
32.8843	500.17
32.8987	519.89
32.9132	463.84
32.9276	481.06
32.9420	472.84
32.9565	482.39
32.9709	487.50
32.9854	463.90
32.9998	515.27
33.0142	467.45
33.0287	489.35
33.0431	496.80
33.0576	484.40
33.0720	486.42
33.0864	518.25
33.1009	478.44
33.1153	486.78
33.1298	516.92
33.1442	501.48
33.1586	497.02
33.1731	528.08
33.1875	496.58
33.2020	474.58
33.2164	500.54
33.2308	503.09
33.2453	503.12
33.2597	488.09
33.2742	489.83
33.2886	508.61
33.3030	513.17
33.3175	515.46
33.3319	485.52
33.3464	468.26
33.3608	507.92
33.3752	529.40
33.3897	484.80
33.4041	473.97
33.4186	503.72
33.4330	552.52
33.4474	498.88
33.4619	494.62
33.4763	490.04
33.4908	510.32
33.5052	506.33
33.5196	532.79
33.5341	511.80
33.5485	467.81
33.5630	484.64
33.5774	493.40
33.5918	503.62
33.6063	528.31
33.6207	516.79
33.6352	492.17
33.6496	500.00
33.6640	506.80
33.6785	474.16
33.6929	465.70
33.7074	513.85
33.7218	498.71
33.7362	479.36
33.7507	516.38
33.7651	487.19
33.7796	525.39
33.7940	478.70
33.8084	489.96
33.8229	486.42
33.8373	515.52
33.8518	514.91
33.8662	508.11
33.8806	501.58
33.8951	530.41
33.9095	508.40
33.9240	523.97
33.9384	499.28
33.9528	499.61
33.9673	497.58
33.9817	503.72
33.9962	514.53
34.0106	514.61
34.0250	486.06
34.0395	478.38
34.0539	480.99
34.0684	477.85
34.0828	506.87
34.0972	522.38
34.1117	526.00
34.1261	525.76
34.1406	476.03
34.1550	489.36
34.1694	491.30
34.1839	487.67
34.1983	501.01
34.2128	481.40
34.2272	496.74
34.2417	503.05
34.2561	509.10
34.2705	511.10
34.2850	514.83
34.2994	492.72
34.3139	506.18
34.3283	502.24
34.3427	515.92
34.3572	479.70
34.3716	482.16
34.3861	477.08
34.4005	495.01
34.4149	515.96
34.4294	562.13
34.4438	551.15
34.4583	528.55
34.4727	554.01
34.4871	494.79
34.5016	491.57
34.5160	499.99
34.5305	501.37
34.5449	484.47
34.5593	479.47
34.5738	495.14
34.5882	496.03
34.6027	501.14
34.6171	489.49
34.6315	458.20
34.6460	472.30
34.6604	484.37
34.6749	484.73
34.6893	522.81
34.7037	514.95
34.7182	477.35
34.7326	473.29
34.7471	493.14
34.7615	505.76
34.7759	510.77
34.7904	461.45
34.8048	486.38
34.8193	491.10
34.8337	495.48
34.8481	509.74
34.8626	529.54
34.8770	532.23
34.8915	509.63
34.9059	527.39
34.9203	528.97
34.9348	542.67
34.9492	531.45
34.9637	512.90
34.9781	491.42
34.9925	496.33
35.0070	500.09
35.0214	482.05
35.0359	503.65
35.0503	514.67
35.0647	537.67
35.0792	500.43
35.0936	491.91
35.1081	496.12
35.1225	504.87
35.1369	524.62
35.1514	476.99
35.1658	508.42
35.1803	517.74
35.1947	470.16
35.2091	502.38
35.2236	480.83
35.2380	512.78
35.2525	515.61
35.2669	509.11
35.2813	505.90
35.2958	511.76
35.3102	517.85
35.3247	515.30
35.3391	512.40
35.3535	506.79
35.3680	476.12
35.3824	511.07
35.3969	511.67
35.4113	525.23
35.4257	543.59
35.4402	518.81
35.4546	535.96
35.4691	572.22
35.4835	548.17
35.4979	512.79
35.5124	544.00
35.5268	554.55
35.5413	548.21
35.5557	532.67
35.5701	523.09
35.5846	531.63
35.5990	519.25
35.6135	509.45
35.6279	561.06
35.6423	522.97
35.6568	532.23
35.6712	535.02
35.6857	586.78
35.7001	683.07
35.7145	723.22
35.7290	686.25
35.7434	636.99
35.7579	578.39
35.7723	638.56
35.7867	676.62
35.8012	742.64
35.8156	769.26
35.8301	707.74
35.8445	719.94
35.8589	786.55
35.8734	874.52
35.8878	909.29
35.9023	1029.09
35.9167	1126.27
35.9311	1266.79
35.9456	1703.19
35.9600	2089.00
35.9745	2271.99
35.9889	2378.11
36.0033	2816.68
36.0178	3148.61
36.0322	3207.18
36.0467	2696.81
36.0611	2213.89
36.0755	2039.44
36.0900	2191.42
36.1044	1704.15
36.1189	1564.87
36.1333	1447.04
36.1477	1195.60
36.1622	1125.06
36.1766	947.38
36.1911	858.83
36.2055	841.56
36.2199	786.44
36.2344	731.97
36.2488	622.39
36.2633	552.37
36.2777	548.85
36.2921	576.32
36.3066	561.66
36.3210	559.61
36.3355	532.18
36.3499	530.36
36.3643	561.04
36.3788	549.86
36.3932	516.80
36.4077	525.90
36.4221	529.59
36.4365	574.98
36.4510	551.83
36.4654	566.55
36.4799	537.03
36.4943	508.37
36.5087	521.82
36.5232	497.04
36.5376	527.08
36.5521	520.02
36.5665	514.04
36.5809	512.46
36.5954	527.53
36.6098	533.02
36.6243	543.94
36.6387	519.37
36.6531	488.88
36.6676	506.43
36.6820	489.84
36.6965	518.64
36.7109	575.93
36.7253	524.43
36.7398	527.37
36.7542	542.79
36.7687	512.16
36.7831	548.91
36.7975	554.73
36.8120	595.33
36.8264	572.07
36.8409	614.91
36.8553	578.80
36.8697	579.88
36.8842	589.77
36.8986	548.23
36.9131	541.79
36.9275	615.59
36.9419	560.25
36.9564	566.79
36.9708	558.89
36.9853	569.59
36.9997	541.06
37.0141	534.26
37.0286	561.49
37.0430	601.99
37.0575	570.49
37.0719	534.95
37.0863	515.78
37.1008	499.35
37.1152	520.67
37.1297	514.53
37.1441	497.42
37.1585	473.40
37.1730	500.12
37.1874	520.09
37.2019	505.90
37.2163	485.67
37.2307	508.33
37.2452	522.70
37.2596	503.09
37.2741	494.06
37.2885	509.55
37.3029	523.79
37.3174	515.85
37.3318	526.84
37.3463	495.77
37.3607	501.03
37.3751	496.52
37.3896	476.28
37.4040	450.92
37.4185	520.77
37.4329	534.41
37.4473	514.92
37.4618	499.33
37.4762	496.26
37.4907	496.25
37.5051	487.58
37.5195	504.71
37.5340	494.18
37.5484	477.43
37.5629	508.96
37.5773	507.17
37.5917	501.11
37.6062	472.98
37.6206	489.10
37.6351	473.56
37.6495	503.21
37.6639	500.85
37.6784	505.68
37.6928	505.29
37.7073	503.73
37.7217	529.55
37.7361	510.92
37.7506	528.77
37.7650	489.27
37.7795	507.54
37.7939	500.85
37.8083	511.63
37.8228	514.04
37.8372	521.02
37.8517	515.72
37.8661	489.05
37.8805	533.27
37.8950	538.94
37.9094	518.24
37.9239	478.32
37.9383	504.08
37.9528	482.07
37.9672	490.50
37.9816	474.58
37.9961	500.56
38.0105	515.05
38.0250	478.78
38.0394	477.80
38.0538	512.52
38.0683	500.84
38.0827	536.31
38.0972	508.10
38.1116	527.12
38.1260	549.76
38.1405	486.02
38.1549	504.76
38.1694	499.17
38.1838	475.83
38.1982	517.04
38.2127	532.89
38.2271	480.61
38.2416	483.26
38.2560	490.60
38.2704	480.47
38.2849	508.70
38.2993	494.01
38.3138	516.52
38.3282	539.19
38.3426	530.46
38.3571	536.41
38.3715	526.69
38.3860	530.54
38.4004	538.28
38.4148	568.40
38.4293	574.41
38.4437	580.30
38.4582	601.70
38.4726	680.48
38.4870	689.11
38.5015	702.35
38.5159	795.95
38.5304	756.97
38.5448	754.89
38.5592	757.82
38.5737	738.94
38.5881	726.58
38.6026	690.68
38.6170	701.34
38.6314	678.69
38.6459	647.94
38.6603	645.32
38.6748	626.20
38.6892	580.02
38.7036	578.12
38.7181	558.18
38.7325	517.07
38.7470	520.26
38.7614	492.42
38.7758	493.90
38.7903	483.76
38.8047	498.45
38.8192	506.80
38.8336	508.57
38.8480	513.16
38.8625	502.96
38.8769	497.25
38.8914	494.15
38.9058	505.74
38.9202	545.84
38.9347	518.71
38.9491	491.20
38.9636	498.00
38.9780	492.88
38.9924	489.92
39.0069	510.85
39.0213	513.72
39.0358	467.15
39.0502	501.40
39.0646	507.65
39.0791	497.76
39.0935	521.98
39.1080	521.36
39.1224	542.51
39.1368	515.05
39.1513	490.42
39.1657	489.98
39.1802	502.55
39.1946	493.53
39.2090	474.39
39.2235	485.56
39.2379	505.19
39.2524	501.44
39.2668	496.14
39.2812	520.05
39.2957	507.02
39.3101	518.22
39.3246	513.15
39.3390	507.43
39.3534	492.20
39.3679	471.61
39.3823	474.06
39.3968	485.64
39.4112	469.13
39.4256	515.33
39.4401	504.52
39.4545	492.37
39.4690	506.77
39.4834	527.09
39.4978	510.98
39.5123	507.73
39.5267	481.21
39.5412	525.81
39.5556	507.43
39.5700	500.30
39.5845	483.06
39.5989	476.69
39.6134	490.31
39.6278	513.51
39.6422	490.03
39.6567	498.04
39.6711	491.06
39.6856	489.36
39.7000	514.35
39.7144	486.83
39.7289	455.59
39.7433	479.38
39.7578	503.89
39.7722	534.13
39.7866	522.76
39.8011	500.48
39.8155	505.01
39.8300	497.28
39.8444	490.57
39.8588	519.58
39.8733	527.88
39.8877	532.20
39.9022	523.83
39.9166	459.36
39.9310	488.16
39.9455	505.07
39.9599	490.06
39.9744	500.71
39.9888	499.03
40.0032	480.08
40.0177	514.63
40.0321	510.09
40.0466	490.39
40.0610	498.22
40.0754	504.47
40.0899	504.02
40.1043	524.23
40.1188	501.22
40.1332	487.30
40.1476	492.06
40.1621	499.89
40.1765	489.05
40.1910	504.36
40.2054	481.30
40.2198	474.15
40.2343	498.56
40.2487	512.48
40.2632	439.80
40.2776	478.71
40.2920	501.84
40.3065	493.66
40.3209	489.36
40.3354	536.13
40.3498	470.81
40.3642	467.27
40.3787	485.99
40.3931	495.01
40.4076	517.38
40.4220	513.39
40.4364	521.16
40.4509	504.08
40.4653	519.18
40.4798	529.78
40.4942	480.17
40.5086	485.33
40.5231	477.35
40.5375	522.49
40.5520	490.98
40.5664	490.52
40.5808	507.38
40.5953	509.72
40.6097	495.25
40.6242	488.98
40.6386	509.78
40.6530	518.35
40.6675	495.78
40.6819	492.08
40.6964	514.58
40.7108	541.26
40.7252	510.50
40.7397	512.38
40.7541	492.36
40.7686	479.62
40.7830	527.17
40.7974	473.04
40.8119	491.99
40.8263	497.72
40.8408	469.76
40.8552	483.07
40.8696	545.41
40.8841	496.27
40.8985	502.28
40.9130	516.77
40.9274	511.22
40.9418	514.06
40.9563	493.87
40.9707	490.01
40.9852	481.64
40.9996	520.90
41.0140	485.33
41.0285	509.82
41.0429	486.17
41.0574	475.11
41.0718	491.82
41.0862	501.88
41.1007	537.57
41.1151	503.14
41.1296	522.65
41.1440	509.75
41.1584	494.49
41.1729	504.25
41.1873	491.90
41.2018	468.68
41.2162	513.86
41.2306	503.95
41.2451	503.91
41.2595	495.56
41.2740	518.05
41.2884	502.34
41.3028	504.68
41.3173	510.69
41.3317	533.77
41.3462	511.63
41.3606	509.09
41.3750	513.28
41.3895	510.05
41.4039	516.04
41.4184	507.70
41.4328	513.54
41.4472	524.92
41.4617	519.22
41.4761	494.45
41.4906	514.96
41.5050	492.02
41.5194	485.21
41.5339	478.75
41.5483	485.97
41.5628	473.91
41.5772	526.48
41.5916	516.57
41.6061	494.03
41.6205	469.20
41.6350	468.18
41.6494	485.53
41.6639	472.71
41.6783	458.49
41.6927	487.50
41.7072	503.39
41.7216	489.19
41.7361	502.56
41.7505	491.93
41.7649	479.65
41.7794	507.15
41.7938	467.81
41.8083	494.42
41.8227	469.59
41.8371	522.15
41.8516	515.39
41.8660	539.36
41.8805	508.84
41.8949	496.79
41.9093	560.82
41.9238	577.68
41.9382	587.88
41.9527	557.44
41.9671	544.43
41.9815	573.74
41.9960	545.32
42.0104	529.11
42.0249	565.31
42.0393	570.25
42.0537	550.30
42.0682	584.84
42.0826	593.62
42.0971	578.31
42.1115	558.47
42.1259	588.80
42.1404	606.16
42.1548	615.29
42.1693	647.96
42.1837	693.25
42.1981	769.67
42.2126	858.02
42.2270	946.81
42.2415	1070.61
42.2559	1164.04
42.2703	1311.36
42.2848	1460.93
42.2992	1561.91
42.3137	1710.51
42.3281	1652.49
42.3425	1597.20
42.3570	1495.97
42.3714	1383.01
42.3859	1366.71
42.4003	1359.87
42.4147	1344.26
42.4292	1295.67
42.4436	1121.86
42.4581	1017.42
42.4725	942.18
42.4869	828.90
42.5014	767.71
42.5158	705.53
42.5303	649.54
42.5447	652.42
42.5591	637.24
42.5736	601.43
42.5880	591.97
42.6025	565.82
42.6169	535.77
42.6313	535.94
42.6458	522.45
42.6602	550.19
42.6747	565.32
42.6891	517.92
42.7035	499.10
42.7180	498.38
42.7324	496.86
42.7469	533.09
42.7613	524.40
42.7757	539.83
42.7902	535.18
42.8046	523.29
42.8191	498.63
42.8335	505.53
42.8479	491.54
42.8624	509.85
42.8768	539.15
42.8913	510.50
42.9057	524.39
42.9201	498.26
42.9346	512.58
42.9490	520.53
42.9635	500.63
42.9779	488.74
42.9923	524.58
43.0068	499.72
43.0212	476.15
43.0357	538.87
43.0501	527.95
43.0645	479.66
43.0790	491.41
43.0934	507.84
43.1079	507.46
43.1223	523.99
43.1367	528.66
43.1512	496.07
43.1656	512.56
43.1801	500.00
43.1945	515.64
43.2089	524.34
43.2234	525.60
43.2378	554.83
43.2523	528.28
43.2667	495.46
43.2811	533.62
43.2956	499.53
43.3100	507.64
43.3245	534.80
43.3389	537.15
43.3533	521.34
43.3678	509.50
43.3822	501.43
43.3967	519.59
43.4111	541.84
43.4255	540.42
43.4400	502.47
43.4544	505.89
43.4689	497.30
43.4833	498.02
43.4977	528.41
43.5122	516.62
43.5266	503.58
43.5411	522.05
43.5555	528.72
43.5699	533.24
43.5844	558.03
43.5988	548.81
43.6133	545.55
43.6277	506.02
43.6421	552.70
43.6566	552.07
43.6710	531.78
43.6855	550.80
43.6999	565.53
43.7143	581.35
43.7288	616.58
43.7432	649.05
43.7577	640.91
43.7721	653.21
43.7865	622.46
43.8010	645.72
43.8154	613.74
43.8299	609.55
43.8443	596.24
43.8587	597.80
43.8732	606.66
43.8876	614.34
43.9021	616.87
43.9165	597.42
43.9309	555.04
43.9454	591.33
43.9598	537.30
43.9743	563.56
43.9887	560.10
44.0031	521.67
44.0176	502.73
44.0320	503.47
44.0465	519.43
44.0609	529.18
44.0753	515.09
44.0898	507.27
44.1042	497.15
44.1187	527.57
44.1331	537.46
44.1475	485.28
44.1620	503.97
44.1764	536.15
44.1909	528.88
44.2053	504.01
44.2197	534.77
44.2342	504.48
44.2486	509.40
44.2631	549.22
44.2775	512.26
44.2919	493.85
44.3064	535.31
44.3208	554.70
44.3353	535.57
44.3497	551.54
44.3641	545.01
44.3786	539.74
44.3930	551.25
44.4075	553.04
44.4219	550.95
44.4363	576.16
44.4508	564.28
44.4652	600.56
44.4797	593.94
44.4941	578.24
44.5085	579.89
44.5230	570.49
44.5374	600.97
44.5519	602.44
44.5663	577.84
44.5807	581.75
44.5952	598.70
44.6096	609.12
44.6241	541.38
44.6385	564.17
44.6529	543.84
44.6674	584.89
44.6818	562.38
44.6963	616.83
44.7107	622.64
44.7251	671.25
44.7396	745.09
44.7540	800.87
44.7685	819.16
44.7829	885.25
44.7973	916.82
44.8118	869.73
44.8262	805.82
44.8407	757.78
44.8551	770.82
44.8695	742.27
44.8840	689.89
44.8984	732.19
44.9129	723.15
44.9273	700.90
44.9417	672.38
44.9562	636.91
44.9706	561.80
44.9851	578.25
44.9995	555.22
45.0139	537.07
45.0284	487.25
45.0428	540.87
45.0573	505.20
45.0717	512.49
45.0861	565.23
45.1006	524.25
45.1150	555.73
45.1295	527.52
45.1439	536.99
45.1583	520.25
45.1728	519.64
45.1872	465.14
45.2017	512.93
45.2161	544.03
45.2305	509.28
45.2450	514.21
45.2594	500.61
45.2739	512.92
45.2883	526.53
45.3028	501.93
45.3172	489.64
45.3316	505.27
45.3461	481.20
45.3605	490.66
45.3750	532.22
45.3894	485.89
45.4038	527.56
45.4183	488.30
45.4327	510.73
45.4472	493.86
45.4616	530.35
45.4760	519.35
45.4905	514.90
45.5049	522.47
45.5194	479.93
45.5338	497.33
45.5482	499.70
45.5627	533.04
45.5771	511.24
45.5916	508.89
45.6060	510.81
45.6204	528.97
45.6349	494.56
45.6493	479.88
45.6638	489.98
45.6782	471.18
45.6926	484.45
45.7071	549.43
45.7215	510.11
45.7360	499.46
45.7504	530.76
45.7648	495.48
45.7793	560.46
45.7937	520.67
45.8082	527.55
45.8226	525.58
45.8370	490.37
45.8515	508.40
45.8659	497.22
45.8804	520.50
45.8948	483.23
45.9092	497.18
45.9237	517.67
45.9381	510.99
45.9526	490.81
45.9670	459.67
45.9814	494.89
45.9959	491.29
46.0103	466.72
46.0248	495.04
46.0392	474.96
46.0536	514.76
46.0681	504.61
46.0825	510.06
46.0970	518.10
46.1114	514.32
46.1258	527.55
46.1403	515.42
46.1547	484.65
46.1692	488.84
46.1836	522.46
46.1980	493.40
46.2125	507.88
46.2269	520.76
46.2414	515.26
46.2558	511.51
46.2702	498.71
46.2847	508.32
46.2991	468.42
46.3136	505.57
46.3280	496.06
46.3424	477.09
46.3569	514.10
46.3713	505.53
46.3858	520.78
46.4002	530.38
46.4146	487.01
46.4291	504.05
46.4435	501.81
46.4580	537.43
46.4724	499.59
46.4868	504.58
46.5013	471.38
46.5157	494.48
46.5302	520.01
46.5446	529.80
46.5590	509.35
46.5735	499.31
46.5879	507.13
46.6024	479.91
46.6168	464.56
46.6312	460.05
46.6457	493.50
46.6601	522.03
46.6746	515.60
46.6890	519.47
46.7034	505.78
46.7179	515.54
46.7323	486.02
46.7468	477.02
46.7612	470.26
46.7756	517.68
46.7901	537.51
46.8045	498.50
46.8190	501.30
46.8334	541.66
46.8478	483.74
46.8623	499.43
46.8767	490.42
46.8912	477.34
46.9056	504.97
46.9200	513.57
46.9345	539.29
46.9489	519.21
46.9634	476.39
46.9778	476.83
46.9922	506.31
47.0067	516.32
47.0211	532.82
47.0356	519.98
47.0500	518.46
47.0644	507.46
47.0789	499.22
47.0933	511.63
47.1078	511.48
47.1222	527.55
47.1366	501.68
47.1511	476.50
47.1655	510.89
47.1800	534.73
47.1944	501.81
47.2088	498.54
47.2233	504.57
47.2377	528.33
47.2522	501.58
47.2666	514.61
47.2810	505.27
47.2955	491.13
47.3099	502.44
47.3244	511.21
47.3388	524.64
47.3532	523.89
47.3677	497.51
47.3821	500.66
47.3966	503.63
47.4110	476.51
47.4254	524.76
47.4399	516.49
47.4543	504.11
47.4688	517.13
47.4832	512.68
47.4976	488.68
47.5121	487.38
47.5265	498.75
47.5410	465.14
47.5554	487.47
47.5698	472.83
47.5843	503.66
47.5987	526.95
47.6132	512.07
47.6276	489.64
47.6420	489.93
47.6565	473.38
47.6709	479.78
47.6854	500.55
47.6998	507.13
47.7142	503.92
47.7287	522.81
47.7431	489.44
47.7576	503.54
47.7720	503.97
47.7864	521.34
47.8009	513.55
47.8153	525.43
47.8298	514.04
47.8442	516.38
47.8586	497.08
47.8731	477.89
47.8875	481.43
47.9020	517.46
47.9164	511.34
47.9308	481.48
47.9453	509.15
47.9597	494.19
47.9742	502.07
47.9886	471.37
48.0030	497.83
48.0175	506.99
48.0319	520.63
48.0464	534.97
48.0608	550.25
48.0752	539.47
48.0897	520.08
48.1041	496.67
48.1186	558.83
48.1330	548.89
48.1474	495.50
48.1619	505.77
48.1763	510.74
48.1908	498.34
48.2052	487.79
48.2196	479.32
48.2341	497.00
48.2485	524.42
48.2630	512.81
48.2774	519.55
48.2918	469.00
48.3063	500.87
48.3207	507.36
48.3352	542.57
48.3496	487.25
48.3640	497.47
48.3785	506.56
48.3929	509.39
48.4074	513.03
48.4218	530.46
48.4362	547.77
48.4507	478.93
48.4651	522.61
48.4796	528.07
48.4940	511.17
48.5084	531.49
48.5229	517.67
48.5373	514.95
48.5518	518.19
48.5662	508.42
48.5806	511.71
48.5951	527.51
48.6095	475.59
48.6240	519.11
48.6384	510.76
48.6528	522.60
48.6673	530.75
48.6817	506.27
48.6962	558.32
48.7106	551.57
48.7250	522.18
48.7395	486.61
48.7539	524.20
48.7684	505.59
48.7828	541.15
48.7972	500.43
48.8117	520.59
48.8261	525.61
48.8406	546.73
48.8550	550.81
48.8694	574.36
48.8839	554.65
48.8983	563.88
48.9128	586.18
48.9272	546.08
48.9416	583.80
48.9561	569.21
48.9705	571.93
48.9850	600.48
48.9994	585.32
49.0139	601.90
49.0283	607.08
49.0427	634.08
49.0572	637.16
49.0716	630.27
49.0861	678.95
49.1005	721.23
49.1149	729.11
49.1294	741.29
49.1438	693.82
49.1583	772.38
49.1727	881.44
49.1871	911.98
49.2016	959.40
49.2160	1067.36
49.2305	1184.55
49.2449	1237.55
49.2593	1324.03
49.2738	1437.80
49.2882	1538.47
49.3027	1611.66
49.3171	1638.01
49.3315	1701.53
49.3460	1852.66
49.3604	1817.98
49.3749	1843.04
49.3893	1822.47
49.4037	1824.98
49.4182	1765.05
49.4326	1796.23
49.4471	1729.31
49.4615	1682.62
49.4759	1498.45
49.4904	1464.99
49.5048	1424.17
49.5193	1393.68
49.5337	1257.42
49.5481	1232.08
49.5626	1169.02
49.5770	1030.04
49.5915	969.40
49.6059	916.83
49.6203	819.87
49.6348	900.80
49.6492	790.26
49.6637	746.15
49.6781	734.98
49.6925	713.11
49.7070	661.76
49.7214	698.45
49.7359	656.92
49.7503	620.09
49.7647	628.06
49.7792	606.60
49.7936	581.86
49.8081	588.05
49.8225	595.26
49.8369	563.44
49.8514	561.38
49.8658	545.04
49.8803	527.05
49.8947	552.04
49.9091	571.46
49.9236	566.66
49.9380	551.17
49.9525	561.36
49.9669	547.77
49.9813	533.23
49.9958	530.37
50.0102	522.22
50.0247	525.21
50.0391	523.60
50.0535	530.20
50.0680	514.37
50.0824	541.18
50.0969	498.33
50.1113	522.06
50.1257	527.64
50.1402	526.75
50.1546	491.91
50.1691	537.76
50.1835	543.03
50.1979	520.01
50.2124	529.41
50.2268	527.84
50.2413	547.52
50.2557	522.92
50.2701	470.12
50.2846	503.00
50.2990	546.99
50.3135	543.08
50.3279	524.18
50.3423	512.82
50.3568	490.72
50.3712	478.54
50.3857	499.96
50.4001	509.74
50.4145	499.25
50.4290	540.25
50.4434	505.97
50.4579	502.95
50.4723	484.54
50.4867	510.61
50.5012	513.38
50.5156	506.14
50.5301	501.72
50.5445	493.27
50.5589	481.17
50.5734	493.98
50.5878	508.25
50.6023	538.28
50.6167	508.62
50.6311	506.29
50.6456	509.55
50.6600	512.35
50.6745	531.47
50.6889	486.13
50.7033	525.66
50.7178	512.84
50.7322	491.32
50.7467	495.80
50.7611	490.78
50.7755	501.52
50.7900	503.73
50.8044	527.30
50.8189	514.29
50.8333	519.14
50.8477	507.18
50.8622	530.88
50.8766	486.10
50.8911	488.93
50.9055	516.15
50.9199	503.56
50.9344	517.13
50.9488	537.79
50.9633	505.58
50.9777	497.47
50.9921	479.87
51.0066	516.72
51.0210	488.76
51.0355	501.65
51.0499	512.09
51.0643	508.77
51.0788	504.77
51.0932	525.39
51.1077	532.72
51.1221	520.05
51.1365	526.18
51.1510	502.85
51.1654	491.21
51.1799	460.00
51.1943	499.84
51.2087	555.51
51.2232	535.42
51.2376	514.77
51.2521	503.30
51.2665	494.78
51.2809	515.32
51.2954	518.54
51.3098	490.31
51.3243	487.59
51.3387	498.80
51.3531	509.45
51.3676	500.24
51.3820	482.18
51.3965	467.87
51.4109	501.16
51.4253	518.06
51.4398	488.53
51.4542	497.85
51.4687	522.80
51.4831	514.49
51.4975	499.57
51.5120	492.59
51.5264	483.81
51.5409	514.43
51.5553	534.41
51.5697	542.90
51.5842	539.73
51.5986	504.63
51.6131	495.71
51.6275	507.83
51.6419	497.11
51.6564	531.21
51.6708	469.97
51.6853	464.05
51.6997	509.71
51.7141	533.81
51.7286	500.66
51.7430	509.61
51.7575	519.07
51.7719	488.56
51.7863	500.80
51.8008	514.33
51.8152	536.34
51.8297	538.85
51.8441	514.40
51.8585	518.24
51.8730	495.45
51.8874	467.02
51.9019	530.97
51.9163	470.25
51.9307	508.31
51.9452	516.46
51.9596	508.13
51.9741	500.01
51.9885	468.83
52.0029	489.86
52.0174	494.00
52.0318	504.68
52.0463	464.41
52.0607	523.59
52.0751	520.21
52.0896	523.76
52.1040	534.85
52.1185	509.78
52.1329	523.57
52.1473	483.43
52.1618	527.22
52.1762	497.45
52.1907	521.29
52.2051	520.52
52.2195	534.92
52.2340	491.25
52.2484	527.55
52.2629	530.03
52.2773	538.32
52.2917	509.28
52.3062	528.66
52.3206	521.87
52.3351	549.21
52.3495	542.96
52.3639	502.50
52.3784	500.68
52.3928	493.89
52.4073	508.23
52.4217	566.13
52.4361	519.95
52.4506	519.05
52.4650	496.48
52.4795	516.09
52.4939	488.07
52.5083	503.32
52.5228	522.54
52.5372	488.91
52.5517	495.60
52.5661	535.88
52.5805	549.49
52.5950	485.51
52.6094	486.76
52.6239	481.71
52.6383	537.33
52.6527	501.40
52.6672	487.72
52.6816	492.33
52.6961	508.71
52.7105	493.72
52.7250	491.28
52.7394	516.37
52.7538	533.36
52.7683	505.67
52.7827	533.07
52.7972	541.31
52.8116	508.36
52.8260	505.09
52.8405	504.98
52.8549	503.80
52.8694	493.74
52.8838	513.10
52.8982	520.23
52.9127	499.75
52.9271	480.26
52.9416	493.13
52.9560	477.27
52.9704	500.49
52.9849	531.56
52.9993	524.27
53.0138	511.77
53.0282	482.50
53.0426	497.60
53.0571	524.23
53.0715	539.83
53.0860	505.11
53.1004	497.99
53.1148	509.49
53.1293	528.69
53.1437	507.64
53.1582	507.43
53.1726	512.10
53.1870	491.25
53.2015	480.25
53.2159	504.29
53.2304	470.93
53.2448	499.95
53.2592	486.22
53.2737	461.62
53.2881	484.04
53.3026	491.99
53.3170	510.69
53.3314	515.78
53.3459	520.91
53.3603	498.64
53.3748	481.02
53.3892	492.31
53.4036	510.73
53.4181	489.78
53.4325	516.16
53.4470	480.30
53.4614	510.83
53.4758	484.89
53.4903	507.36
53.5047	476.05
53.5192	496.33
53.5336	523.89
53.5480	500.58
53.5625	506.59
53.5769	508.56
53.5914	500.17
53.6058	497.18
53.6202	497.72
53.6347	464.65
53.6491	483.08
53.6636	483.67
53.6780	497.06
53.6924	494.39
53.7069	504.24
53.7213	544.52
53.7358	518.23
53.7502	495.09
53.7646	498.14
53.7791	513.54
53.7935	539.09
53.8080	503.92
53.8224	526.73
53.8368	560.30
53.8513	517.87
53.8657	533.11
53.8802	503.50
53.8946	510.02
53.9090	506.53
53.9235	493.12
53.9379	533.80
53.9524	535.24
53.9668	498.12
53.9812	470.09
53.9957	517.49
54.0101	511.08
54.0246	513.48
54.0390	535.91
54.0534	527.57
54.0679	535.66
54.0823	507.76
54.0968	540.51
54.1112	527.72
54.1256	564.90
54.1401	564.43
54.1545	530.78
54.1690	528.46
54.1834	565.97
54.1978	540.37
54.2123	543.33
54.2267	554.23
54.2412	589.45
54.2556	597.45
54.2700	627.78
54.2845	669.22
54.2989	632.09
54.3134	610.23
54.3278	610.26
54.3422	636.61
54.3567	630.11
54.3711	599.58
54.3856	573.73
54.4000	559.14
54.4144	591.77
54.4289	621.71
54.4433	554.84
54.4578	549.42
54.4722	590.16
54.4866	584.48
54.5011	571.24
54.5155	558.19
54.5300	552.37
54.5444	553.74
54.5588	546.46
54.5733	535.36
54.5877	510.93
54.6022	514.88
54.6166	502.25
54.6310	514.04
54.6455	529.78
54.6599	524.99
54.6744	508.38
54.6888	497.15
54.7032	521.40
54.7177	500.49
54.7321	491.07
54.7466	502.48
54.7610	474.16
54.7754	508.04
54.7899	515.13
54.8043	503.43
54.8188	517.86
54.8332	526.17
54.8476	496.41
54.8621	483.84
54.8765	536.90
54.8910	493.68
54.9054	507.22
54.9198	513.22
54.9343	515.18
54.9487	538.89
54.9632	511.35
54.9776	513.51
54.9920	514.84
55.0065	509.76
55.0209	541.87
55.0354	536.22
55.0498	513.68
55.0642	523.43
55.0787	506.58
55.0931	510.33
55.1076	501.49
55.1220	542.56
55.1364	537.49
55.1509	481.88
55.1653	502.79
55.1798	495.51
55.1942	512.63
55.2086	524.91
55.2231	516.36
55.2375	500.35
55.2520	493.56
55.2664	502.90
55.2808	510.60
55.2953	524.44
55.3097	516.34
55.3242	468.59
55.3386	527.15
55.3530	525.06
55.3675	509.56
55.3819	507.99
55.3964	503.16
55.4108	501.37
55.4252	536.11
55.4397	517.74
55.4541	494.35
55.4686	488.95
55.4830	505.76
55.4974	519.05
55.5119	522.36
55.5263	526.80
55.5408	557.61
55.5552	534.76
55.5696	536.73
55.5841	508.94
55.5985	507.84
55.6130	493.35
55.6274	487.08
55.6418	540.78
55.6563	507.32
55.6707	524.36
55.6852	504.22
55.6996	532.57
55.7140	537.65
55.7285	498.47
55.7429	492.47
55.7574	530.50
55.7718	528.54
55.7862	491.98
55.8007	528.50
55.8151	552.25
55.8296	531.13
55.8440	519.69
55.8584	527.57
55.8729	508.62
55.8873	524.29
55.9018	564.53
55.9162	542.50
55.9306	476.69
55.9451	520.82
55.9595	428.93
55.9740	472.28
55.9884	513.69
56.0028	528.07
56.0173	540.48
56.0317	529.91
56.0462	538.36
56.0606	517.67
56.0750	521.96
56.0895	551.32
56.1039	513.23
56.1184	534.91
56.1328	554.63
56.1472	513.44
56.1617	534.92
56.1761	536.16
56.1906	555.22
56.2050	512.79
56.2194	492.21
56.2339	513.98
56.2483	571.36
56.2628	516.19
56.2772	515.41
56.2916	492.89
56.3061	542.09
56.3205	529.39
56.3350	519.15
56.3494	520.96
56.3639	466.25
56.3783	515.62
56.3927	509.30
56.4072	485.19
56.4216	518.54
56.4361	520.85
56.4505	532.01
56.4649	523.00
56.4794	540.62
56.4938	514.58
56.5083	525.25
56.5227	537.23
56.5371	523.44
56.5516	504.41
56.5660	515.41
56.5805	512.01
56.5949	505.45
56.6093	510.03
56.6238	529.99
56.6382	467.06
56.6527	498.03
56.6671	520.02
56.6815	481.88
56.6960	504.70
56.7104	520.84
56.7249	529.52
56.7393	502.93
56.7537	479.80
56.7682	500.08
56.7826	531.48
56.7971	515.26
56.8115	520.25
56.8259	489.40
56.8404	482.76
56.8548	511.68
56.8693	526.19
56.8837	492.79
56.8981	538.66
56.9126	507.59
56.9270	547.88
56.9415	490.64
56.9559	509.32
56.9703	512.85
56.9848	491.45
56.9992	533.46
57.0137	535.03
57.0281	519.62
57.0425	531.35
57.0570	529.69
57.0714	521.40
57.0859	552.65
57.1003	484.54
57.1147	526.06
57.1292	530.90
57.1436	522.70
57.1581	523.37
57.1725	510.33
57.1869	510.36
57.2014	506.34
57.2158	495.23
57.2303	521.77
57.2447	517.54
57.2591	522.37
57.2736	537.08
57.2880	508.01
57.3025	520.47
57.3169	525.38
57.3313	512.11
57.3458	523.12
57.3602	516.03
57.3747	521.04
57.3891	499.53
57.4035	502.11
57.4180	543.75
57.4324	551.20
57.4469	541.50
57.4613	560.33
57.4757	513.83
57.4902	555.92
57.5046	545.28
57.5191	547.42
57.5335	568.50
57.5479	560.64
57.5624	517.07
57.5768	533.94
57.5913	539.20
57.6057	538.90
57.6201	508.68
57.6346	545.83
57.6490	517.57
57.6635	536.98
57.6779	517.21
57.6923	516.13
57.7068	580.50
57.7212	584.42
57.7357	549.22
57.7501	577.81
57.7645	606.36
57.7790	609.58
57.7934	564.51
57.8079	603.48
57.8223	606.74
57.8367	599.88
57.8512	618.38
57.8656	719.01
57.8801	754.34
57.8945	745.39
57.9089	703.57
57.9234	710.52
57.9378	710.10
57.9523	676.70
57.9667	650.49
57.9811	657.40
57.9956	653.39
58.0100	658.20
58.0245	693.83
58.0389	687.22
58.0533	678.71
58.0678	667.83
58.0822	702.12
58.0967	688.87
58.1111	637.89
58.1255	610.18
58.1400	579.30
58.1544	548.89
58.1689	542.29
58.1833	557.55
58.1977	578.11
58.2122	571.81
58.2266	529.11
58.2411	559.83
58.2555	570.07
58.2699	588.08
58.2844	560.30
58.2988	552.93
58.3133	576.18
58.3277	548.51
58.3421	538.72
58.3566	513.86
58.3710	526.00
58.3855	524.04
58.3999	545.86
58.4143	550.34
58.4288	537.23
58.4432	522.74
58.4577	528.66
58.4721	540.78
58.4865	545.15
58.5010	541.59
58.5154	558.78
58.5299	524.82
58.5443	515.75
58.5587	551.52
58.5732	529.36
58.5876	511.44
58.6021	520.72
58.6165	495.82
58.6309	511.06
58.6454	552.84
58.6598	559.91
58.6743	557.81
58.6887	529.41
58.7031	560.98
58.7176	564.45
58.7320	519.96
58.7465	532.23
58.7609	513.97
58.7753	533.64
58.7898	532.59
58.8042	528.64
58.8187	537.27
58.8331	526.30
58.8475	506.67
58.8620	530.19
58.8764	505.35
58.8909	510.52
58.9053	521.76
58.9197	521.54
58.9342	538.88
58.9486	534.53
58.9631	516.01
58.9775	529.40
58.9919	520.73
59.0064	520.43
59.0208	528.34
59.0353	547.05
59.0497	537.32
59.0641	535.72
59.0786	531.19
59.0930	569.02
59.1075	528.41
59.1219	530.83
59.1363	509.70
59.1508	503.33
59.1652	543.06
59.1797	549.92
59.1941	512.18
59.2085	512.20
59.2230	552.45
59.2374	565.20
59.2519	528.19
59.2663	522.42
59.2807	560.77
59.2952	575.49
59.3096	583.29
59.3241	579.29
59.3385	597.47
59.3529	552.56
59.3674	555.74
59.3818	536.44
59.3963	551.54
59.4107	591.67
59.4251	576.08
59.4396	546.61
59.4540	527.18
59.4685	554.96
59.4829	547.50
59.4973	527.45
59.5118	527.55
59.5262	532.43
59.5407	536.09
59.5551	537.50
59.5695	558.54
59.5840	548.31
59.5984	534.55
59.6129	543.52
59.6273	542.38
59.6417	515.45
59.6562	519.26
59.6706	535.63
59.6851	558.19
59.6995	534.67
59.7139	558.61
59.7284	518.21
59.7428	536.36
59.7573	545.51
59.7717	551.27
59.7861	576.71
59.8006	555.19
59.8150	553.82
59.8295	524.33
59.8439	521.53
59.8583	544.42
59.8728	532.21
59.8872	521.12
59.9017	598.19
59.9161	574.59
59.9305	518.36
59.9450	517.64
59.9594	542.40
59.9739	503.82
59.9883	513.99
60.0027	508.96
60.0172	564.76
60.0316	512.96
60.0461	498.40
60.0605	571.33
60.0750	506.71
60.0894	555.98
60.1038	526.65
60.1183	555.88
60.1327	527.19
60.1472	500.07
60.1616	555.22
60.1760	565.04
60.1905	518.14
60.2049	511.79
60.2194	517.95
60.2338	533.07
60.2482	556.87
60.2627	566.59
60.2771	576.29
60.2916	536.79
60.3060	530.67
60.3204	546.12
60.3349	579.21
60.3493	540.19
60.3638	540.36
60.3782	528.39
60.3926	503.77
60.4071	531.16
60.4215	552.06
60.4360	551.21
60.4504	515.36
60.4648	527.70
60.4793	549.34
60.4937	529.65
60.5082	540.72
60.5226	533.54
60.5370	517.92
60.5515	523.15
60.5659	520.75
60.5804	532.09
60.5948	524.82
60.6092	503.18
60.6237	508.27
60.6381	531.33
60.6526	566.26
60.6670	549.33
60.6814	497.25
60.6959	509.52
60.7103	542.87
60.7248	541.21
60.7392	493.18
60.7536	530.16
60.7681	494.28
60.7825	527.82
60.7970	524.83
60.8114	519.23
60.8258	538.02
60.8403	563.46
60.8547	535.59
60.8692	562.90
60.8836	536.95
60.8980	531.96
60.9125	556.55
60.9269	529.24
60.9414	539.63
60.9558	545.46
60.9702	521.48
60.9847	532.06
60.9991	548.14
61.0136	539.33
61.0280	536.09
61.0424	529.58
61.0569	553.10
61.0713	593.65
61.0858	559.01
61.1002	526.38
61.1146	515.93
61.1291	528.76
61.1435	537.71
61.1580	542.07
61.1724	527.10
61.1868	554.81
61.2013	569.93
61.2157	541.57
61.2302	559.05
61.2446	572.13
61.2590	534.04
61.2735	556.16
61.2879	548.33
61.3024	549.43
61.3168	548.87
61.3312	586.05
61.3457	560.38
61.3601	536.18
61.3746	542.48
61.3890	540.79
61.4034	515.05
61.4179	568.75
61.4323	559.48
61.4468	541.81
61.4612	551.88
61.4756	565.98
61.4901	519.42
61.5045	519.32
61.5190	562.87
61.5334	556.12
61.5478	539.66
61.5623	549.82
61.5767	569.28
61.5912	533.08
61.6056	535.69
61.6200	531.97
61.6345	565.12
61.6489	549.55
61.6634	527.46
61.6778	540.50
61.6922	527.59
61.7067	515.45
61.7211	541.09
61.7356	528.00
61.7500	514.99
61.7644	512.41
61.7789	556.66
61.7933	565.26
61.8078	530.80
61.8222	507.83
61.8366	574.93
61.8511	571.12
61.8655	554.42
61.8800	519.67
61.8944	526.56
61.9088	566.35
61.9233	580.97
61.9377	532.43
61.9522	534.61
61.9666	547.06
61.9810	524.04
61.9955	527.36
62.0099	524.01
62.0244	533.10
62.0388	515.99
62.0532	526.59
62.0677	569.38
62.0821	555.28
62.0966	576.77
62.1110	553.81
62.1254	590.76
62.1399	584.24
62.1543	565.08
62.1688	584.10
62.1832	558.19
62.1976	521.03
62.2121	546.32
62.2265	537.72
62.2410	518.34
62.2554	500.27
62.2698	529.32
62.2843	535.37
62.2987	544.24
62.3132	561.50
62.3276	557.28
62.3420	554.65
62.3565	534.81
62.3709	544.47
62.3854	555.15
62.3998	555.42
62.4142	528.63
62.4287	583.66
62.4431	580.45
62.4576	563.26
62.4720	574.51
62.4864	588.43
62.5009	568.67
62.5153	547.34
62.5298	550.40
62.5442	555.98
62.5586	580.22
62.5731	532.78
62.5875	546.96
62.6020	546.49
62.6164	570.21
62.6308	569.48
62.6453	530.48
62.6597	533.94
62.6742	527.54
62.6886	548.51
62.7030	570.94
62.7175	545.25
62.7319	543.33
62.7464	551.07
62.7608	531.80
62.7752	558.94
62.7897	564.87
62.8041	568.05
62.8186	545.14
62.8330	550.15
62.8474	581.15
62.8619	585.84
62.8763	550.77
62.8908	573.70
62.9052	608.42
62.9196	589.45
62.9341	585.36
62.9485	607.09
62.9630	562.00
62.9774	539.39
62.9918	548.30
63.0063	551.02
63.0207	562.59
63.0352	552.63
63.0496	526.95
63.0640	566.42
63.0785	578.67
63.0929	600.50
63.1074	588.05
63.1218	619.73
63.1362	629.71
63.1507	563.49
63.1651	573.33
63.1796	594.26
63.1940	583.36
63.2084	604.08
63.2229	605.37
63.2373	585.38
63.2518	582.32
63.2662	590.17
63.2806	590.60
63.2951	576.25
63.3095	582.09
63.3240	583.64
63.3384	626.28
63.3528	594.40
63.3673	593.93
63.3817	637.53
63.3962	619.11
63.4106	594.22
63.4250	650.16
63.4395	650.78
63.4539	687.47
63.4684	695.98
63.4828	694.81
63.4972	719.76
63.5117	741.75
63.5261	793.80
63.5406	857.50
63.5550	881.74
63.5694	895.12
63.5839	978.59
63.5983	995.75
63.6128	915.91
63.6272	802.30
63.6416	838.81
63.6561	869.61
63.6705	809.96
63.6850	784.59
63.6994	843.49
63.7138	839.00
63.7283	776.82
63.7427	811.78
63.7572	799.35
63.7716	801.68
63.7861	797.42
63.8005	792.44
63.8149	753.48
63.8294	718.94
63.8438	714.51
63.8583	649.44
63.8727	670.40
63.8871	640.79
63.9016	644.61
63.9160	612.74
63.9305	636.23
63.9449	656.06
63.9593	624.15
63.9738	634.58
63.9882	627.59
64.0027	600.11
64.0171	596.27
64.0315	604.35
64.0460	604.10
64.0604	568.99
64.0749	631.22
64.0893	637.59
64.1037	584.43
64.1182	639.67
64.1326	634.96
64.1471	589.08
64.1615	591.98
64.1759	622.53
64.1904	595.03
64.2048	584.98
64.2193	588.85
64.2337	607.54
64.2481	598.45
64.2626	603.03
64.2770	605.44
64.2915	627.01
64.3059	567.99
64.3203	582.08
64.3348	590.26
64.3492	601.31
64.3637	562.45
64.3781	608.14
64.3925	605.82
64.4070	595.82
64.4214	637.26
64.4359	629.74
64.4503	602.70
64.4647	632.29
64.4792	576.77
64.4936	570.02
64.5081	574.13
64.5225	603.43
64.5369	586.78
64.5514	612.95
64.5658	640.82
64.5803	653.36
64.5947	610.38
64.6091	632.39
64.6236	620.80
64.6380	674.35
64.6525	668.93
64.6669	662.43
64.6813	635.31
64.6958	669.23
64.7102	648.66
64.7247	619.90
64.7391	631.85
64.7535	700.63
64.7680	717.44
64.7824	737.91
64.7969	733.10
64.8113	754.68
64.8257	760.29
64.8402	788.24
64.8546	818.88
64.8691	833.64
64.8835	863.09
64.8979	846.87
64.9124	854.81
64.9268	878.67
64.9413	916.85
64.9557	925.70
64.9701	950.06
64.9846	969.35
64.9990	1081.09
65.0135	1191.12
65.0279	1400.74
65.0423	1674.71
65.0568	2002.78
65.0712	2520.68
65.0857	3162.28
65.1001	4243.61
65.1145	5750.31
65.1290	7602.46
65.1434	9038.90
65.1579	10713.80
65.1723	11509.14
65.1867	11072.20
65.2012	10058.36
65.2156	8388.26
65.2301	6635.77
65.2445	5270.74
65.2589	4432.53
65.2734	4108.91
65.2878	4274.02
65.3023	4772.38
65.3167	5592.62
65.3311	6362.24
65.3456	6814.60
65.3600	6861.92
65.3745	6419.08
65.3889	5504.22
65.4033	4428.52
65.4178	3603.61
65.4322	2763.28
65.4467	2064.34
65.4611	1661.93
65.4755	1498.19
65.4900	1279.74
65.5044	1147.54
65.5189	1081.59
65.5333	969.92
65.5477	920.03
65.5622	893.96
65.5766	804.38
65.5911	789.19
65.6055	832.67
65.6199	783.31
65.6344	753.88
65.6488	750.20
65.6633	712.70
65.6777	687.69
65.6921	685.66
65.7066	726.45
65.7210	703.29
65.7355	647.85
65.7499	673.52
65.7643	689.01
65.7788	679.65
65.7932	683.81
65.8077	689.16
65.8221	648.01
65.8365	687.20
65.8510	670.27
65.8654	670.99
65.8799	647.97
65.8943	623.47
65.9087	632.51
65.9232	615.52
65.9376	637.30
65.9521	595.89
65.9665	603.77
65.9809	608.80
65.9954	624.96
66.0098	618.29
66.0243	647.80
66.0387	608.31
66.0531	636.06
66.0676	644.87
66.0820	624.45
66.0965	606.99
66.1109	609.34
66.1253	635.50
66.1398	623.48
66.1542	598.00
66.1687	585.18
66.1831	605.79
66.1975	598.38
66.2120	600.05
66.2264	597.82
66.2409	624.79
66.2553	612.57
66.2697	625.55
66.2842	600.91
66.2986	576.26
66.3131	587.86
66.3275	605.59
66.3419	604.50
66.3564	621.76
66.3708	617.98
66.3853	616.65
66.3997	609.54
66.4141	591.24
66.4286	598.09
66.4430	605.45
66.4575	601.28
66.4719	613.71
66.4863	619.69
66.5008	611.07
66.5152	606.21
66.5297	563.01
66.5441	544.09
66.5585	553.45
66.5730	573.68
66.5874	570.44
66.6019	559.10
66.6163	571.04
66.6307	571.18
66.6452	593.93
66.6596	621.58
66.6741	567.70
66.6885	557.74
66.7029	570.73
66.7174	560.97
66.7318	566.55
66.7463	573.53
66.7607	563.12
66.7751	620.04
66.7896	612.70
66.8040	611.35
66.8185	594.38
66.8329	589.67
66.8473	576.44
66.8618	602.00
66.8762	601.61
66.8907	560.52
66.9051	588.05
66.9195	598.78
66.9340	566.34
66.9484	576.90
66.9629	561.54
66.9773	564.36
66.9917	579.82
67.0062	572.69
67.0206	588.55
67.0351	615.68
67.0495	620.48
67.0639	583.35
67.0784	563.65
67.0928	560.07
67.1073	604.68
67.1217	593.19
67.1361	562.45
67.1506	573.82
67.1650	605.32
67.1795	597.85
67.1939	586.98
67.2083	580.14
67.2228	561.09
67.2372	562.32
67.2517	582.00
67.2661	604.50
67.2805	593.02
67.2950	553.19
67.3094	569.85
67.3239	585.54
67.3383	576.87
67.3527	622.29
67.3672	566.62
67.3816	575.52
67.3961	552.51
67.4105	562.76
67.4250	626.39
67.4394	585.32
67.4538	579.71
67.4683	588.80
67.4827	606.72
67.4972	580.88
67.5116	589.22
67.5260	577.71
67.5405	570.32
67.5549	569.95
67.5694	601.77
67.5838	560.64
67.5982	559.93
67.6127	573.19
67.6271	586.78
67.6416	556.17
67.6560	546.73
67.6704	569.93
67.6849	555.01
67.6993	571.78
67.7138	611.51
67.7282	566.21
67.7426	559.11
67.7571	560.68
67.7715	563.36
67.7860	555.84
67.8004	565.00
67.8148	591.66
67.8293	587.08
67.8437	574.97
67.8582	577.91
67.8726	565.60
67.8870	581.61
67.9015	638.13
67.9159	591.95
67.9304	579.09
67.9448	612.72
67.9592	601.91
67.9737	584.99
67.9881	607.11
68.0026	616.71
68.0170	587.51
68.0314	577.90
68.0459	574.48
68.0603	569.92
68.0748	579.05
68.0892	611.36
68.1036	592.34
68.1181	615.97
68.1325	573.55
68.1470	551.68
68.1614	588.20
68.1758	554.94
68.1903	625.83
68.2047	562.22
68.2192	600.91
68.2336	560.59
68.2480	570.89
68.2625	565.65
68.2769	549.86
68.2914	539.97
68.3058	595.44
68.3202	620.08
68.3347	569.28
68.3491	569.11
68.3636	567.00
68.3780	582.84
68.3924	564.21
68.4069	541.02
68.4213	584.21
68.4358	559.54
68.4502	559.22
68.4646	581.41
68.4791	561.36
68.4935	557.75
68.5080	560.29
68.5224	564.04
68.5368	571.60
68.5513	573.09
68.5657	543.43
68.5802	533.03
68.5946	546.48
68.6090	572.33
68.6235	586.69
68.6379	603.99
68.6524	561.48
68.6668	579.93
68.6812	582.24
68.6957	574.70
68.7101	581.28
68.7246	606.36
68.7390	603.61
68.7534	575.53
68.7679	517.87
68.7823	568.67
68.7968	546.33
68.8112	578.24
68.8256	582.22
68.8401	587.66
68.8545	578.05
68.8690	561.03
68.8834	551.86
68.8978	582.28
68.9123	625.96
68.9267	565.76
68.9412	602.56
68.9556	599.68
68.9700	555.00
68.9845	527.97
68.9989	572.65
69.0134	533.68
69.0278	587.12
69.0422	592.77
69.0567	521.48
69.0711	572.18
69.0856	582.56
69.1000	597.03
69.1144	620.65
69.1289	622.81
69.1433	621.09
69.1578	498.36
69.1722	591.13
69.1866	549.08
69.2011	598.07
69.2155	549.93
69.2300	538.49
69.2444	536.26
69.2588	530.08
69.2733	547.20
69.2877	610.78
69.3022	560.04
69.3166	557.27
69.3310	614.20
69.3455	620.90
69.3599	597.09
69.3744	578.54
69.3888	562.97
69.4032	575.52
69.4177	584.81
69.4321	591.12
69.4466	561.41
69.4610	509.87
69.4754	557.20
69.4899	583.93
69.5043	582.19
69.5188	584.58
69.5332	586.58
69.5476	542.95
69.5621	571.82
69.5765	566.26
69.5910	551.83
69.6054	554.24
69.6198	518.22
69.6343	585.87
69.6487	613.63
69.6632	618.07
69.6776	575.45
69.6920	521.34
69.7065	633.97
69.7209	608.22
69.7354	554.34
69.7498	558.41
69.7642	524.29
69.7787	590.94
69.7931	598.13
69.8076	608.62
69.8220	609.73
69.8364	607.98
69.8509	559.92
69.8653	596.93
69.8798	554.30
69.8942	596.81
69.9086	641.15
69.9231	605.14
69.9375	633.03
69.9520	599.57
69.9664	577.96
69.9808	586.98
69.9953	683.73
70.0097	587.40
70.0242	586.59
70.0386	554.13
70.0530	580.27
70.0675	618.35
70.0819	604.13
70.0964	629.35
70.1108	605.94
70.1252	590.58
70.1397	580.81
70.1541	530.46
70.1686	560.02
70.1830	558.10
70.1974	568.81
70.2119	607.71
70.2263	535.79
70.2408	577.33
70.2552	581.26
70.2696	570.34
70.2841	522.83
70.2985	520.46
70.3130	567.88
70.3274	589.10
70.3418	575.36
70.3563	548.73
70.3707	590.98
70.3852	613.03
70.3996	563.21
70.4140	551.12
70.4285	567.80
70.4429	550.02
70.4574	564.66
70.4718	605.29
70.4862	570.09
70.5007	597.88
70.5151	606.58
70.5296	551.93
70.5440	560.66
70.5584	572.21
70.5729	516.38
70.5873	530.39
70.6018	579.29
70.6162	559.46
70.6306	554.22
70.6451	541.41
70.6595	600.43
70.6740	595.22
70.6884	540.74
70.7028	541.67
70.7173	530.19
70.7317	536.92
70.7462	564.32
70.7606	572.04
70.7750	597.73
70.7895	612.16
70.8039	583.09
70.8184	567.21
70.8328	574.81
70.8472	525.44
70.8617	518.36
70.8761	523.27
70.8906	540.01
70.9050	559.02
70.9194	563.32
70.9339	629.05
70.9483	638.68
70.9628	574.71
70.9772	529.76
70.9916	604.31
71.0061	605.72
71.0205	598.71
71.0350	624.82
71.0494	630.95
71.0638	572.85
71.0783	590.79
71.0927	570.48
71.1072	551.60
71.1216	565.35
71.1361	551.94
71.1505	525.25
71.1649	570.57
71.1794	593.92
71.1938	599.60
71.2083	576.77
71.2227	530.49
71.2371	579.02
71.2516	568.41
71.2660	594.66
71.2805	607.67
71.2949	562.24
71.3093	570.51
71.3238	601.89
71.3382	609.33
71.3527	606.54
71.3671	559.63
71.3815	570.29
71.3960	587.74
71.4104	586.88
71.4249	598.49
71.4393	554.67
71.4537	592.85
71.4682	629.06
71.4826	594.17
71.4971	581.33
71.5115	537.84
71.5259	527.92
71.5404	607.45
71.5548	620.49
71.5693	596.41
71.5837	613.46
71.5981	581.54
71.6126	550.65
71.6270	568.71
71.6415	538.55
71.6559	581.23
71.6703	635.10
71.6848	587.89
71.6992	595.64
71.7137	617.41
71.7281	600.39
71.7425	547.94
71.7570	516.81
71.7714	564.53
71.7859	548.36
71.8003	592.76
71.8147	591.86
71.8292	519.64
71.8436	484.57
71.8581	534.74
71.8725	558.44
71.8869	559.52
71.9014	633.51
71.9158	649.08
71.9303	570.86
71.9447	550.37
71.9591	528.17
71.9736	524.22
71.9880	592.51
72.0025	547.87
72.0169	448.51
72.0313	556.89
72.0458	553.22
72.0602	538.48
72.0747	633.31
72.0891	618.18
72.1035	575.09
72.1180	587.23
72.1324	606.27
72.1469	614.43
72.1613	635.58
72.1757	624.29
72.1902	564.01
72.2046	533.38
72.2191	532.92
72.2335	555.91
72.2479	543.06
72.2624	515.63
72.2768	555.29
72.2913	597.10
72.3057	632.36
72.3201	625.40
72.3346	614.72
72.3490	627.22
72.3635	540.91
72.3779	553.12
72.3923	591.16
72.4068	577.84
72.4212	560.00
72.4357	625.30
72.4501	572.69
72.4645	648.80
72.4790	573.48
72.4934	480.12
72.5079	571.48
72.5223	610.04
72.5367	559.11
72.5512	571.68
72.5656	572.75
72.5801	550.64
72.5945	542.03
72.6089	541.31
72.6234	554.05
72.6378	604.58
72.6523	589.28
72.6667	605.84
72.6811	514.38
72.6956	502.63
72.7100	603.67
72.7245	616.96
72.7389	673.04
72.7533	673.75
72.7678	661.55
72.7822	622.47
72.7967	554.63
72.8111	554.02
72.8255	544.42
72.8400	568.06
72.8544	515.61
72.8689	515.38
72.8833	596.80