2022.09.19 19:37:17
Îáðàçåö: ß÷åéêà LCoV 16-09-2022
Lambda1 = 1.54060
Lambda2 = 1.54439
Lambdam = 1.54186
R = 0.497
2Theta	I

line¹ 0 ;repeat¹ 0
22.1120	566.81
22.1264	527.07
22.1409	558.66
22.1553	545.89
22.1697	596.93
22.1842	605.01
22.1986	584.69
22.2131	557.46
22.2275	539.05
22.2419	544.05
22.2564	573.95
22.2708	589.67
22.2853	576.58
22.2997	526.81
22.3141	558.24
22.3286	584.32
22.3430	606.52
22.3575	611.93
22.3719	596.05
22.3863	471.62
22.4008	540.98
22.4152	577.80
22.4297	632.60
22.4441	606.53
22.4585	574.68
22.4730	667.52
22.4874	630.28
22.5019	638.79
22.5163	590.82
22.5307	609.47
22.5452	628.69
22.5596	541.07
22.5741	626.20
22.5885	575.66
22.6029	520.00
22.6174	533.89
22.6318	636.56
22.6463	618.36
22.6607	602.79
22.6751	539.34
22.6896	558.08
22.7040	552.67
22.7185	491.81
22.7329	525.63
22.7473	621.85
22.7618	654.57
22.7762	565.38
22.7907	596.48
22.8051	582.44
22.8195	587.73
22.8340	534.74
22.8484	549.63
22.8629	660.08
22.8773	679.86
22.8917	570.68
22.9062	508.96
22.9206	565.04
22.9351	544.95
22.9495	553.22
22.9639	675.30
22.9784	711.29
22.9928	550.20
23.0073	618.15
23.0217	604.51
23.0361	543.18
23.0506	579.04
23.0650	617.87
23.0795	639.98
23.0939	624.12
23.1083	564.74
23.1228	530.06
23.1372	604.79
23.1517	533.21
23.1661	587.05
23.1806	522.89
23.1950	558.80
23.2094	563.55
23.2239	563.25
23.2383	560.57
23.2528	588.20
23.2672	536.54
23.2816	563.30
23.2961	526.88
23.3105	611.94
23.3250	537.71
23.3394	509.88
23.3538	525.53
23.3683	627.29
23.3827	575.91
23.3972	531.51
23.4116	582.99
23.4260	603.66
23.4405	512.63
23.4549	569.47
23.4694	534.07
23.4838	504.20
23.4982	525.60
23.5127	487.83
23.5271	549.52
23.5416	552.24
23.5560	586.38
23.5704	542.74
23.5849	567.95
23.5993	581.82
23.6138	520.59
23.6282	530.30
23.6426	565.98
23.6571	633.98
23.6715	566.79
23.6860	556.72
23.7004	576.96
23.7148	560.97
23.7293	596.40
23.7437	540.92
23.7582	461.71
23.7726	556.25
23.7870	526.62
23.8015	517.55
23.8159	532.02
23.8304	537.70
23.8448	554.20
23.8592	537.81
23.8737	524.12
23.8881	569.17
23.9026	578.50
23.9170	604.07
23.9314	606.13
23.9459	563.75
23.9603	569.19
23.9748	567.40
23.9892	550.74
24.0036	485.05
24.0181	561.94
24.0325	548.60
24.0470	562.68
24.0614	581.48
24.0758	514.49
24.0903	600.11
24.1047	639.40
24.1192	573.23
24.1336	574.87
24.1480	559.44
24.1625	553.03
24.1769	617.09
24.1914	561.89
24.2058	540.17
24.2202	558.75
24.2347	610.21
24.2491	546.49
24.2636	546.96
24.2780	622.18
24.2924	594.85
24.3069	546.17
24.3213	557.38
24.3358	560.57
24.3502	624.73
24.3646	542.51
24.3791	560.77
24.3935	525.80
24.4080	578.81
24.4224	537.48
24.4368	584.65
24.4513	541.97
24.4657	588.05
24.4802	563.44
24.4946	529.92
24.5090	518.63
24.5235	583.11
24.5379	549.59
24.5524	570.76
24.5668	574.17
24.5812	543.27
24.5957	597.86
24.6101	585.33
24.6246	564.06
24.6390	560.72
24.6534	570.42
24.6679	554.20
24.6823	530.60
24.6968	540.91
24.7112	578.08
24.7256	493.54
24.7401	529.38
24.7545	537.94
24.7690	507.13
24.7834	580.78
24.7978	535.64
24.8123	567.78
24.8267	562.88
24.8412	567.49
24.8556	521.13
24.8700	525.26
24.8845	503.22
24.8989	524.42
24.9134	551.03
24.9278	492.83
24.9422	519.76
24.9567	532.45
24.9711	533.67
24.9856	541.48
25.0000	536.89
25.0144	546.63
25.0289	530.06
25.0433	541.05
25.0578	538.67
25.0722	497.81
25.0866	503.47
25.1011	571.26
25.1155	522.22
25.1300	559.52
25.1444	510.12
25.1588	524.32
25.1733	530.23
25.1877	544.25
25.2022	526.61
25.2166	543.57
25.2310	527.67
25.2455	519.82
25.2599	593.95
25.2744	524.79
25.2888	550.71
25.3032	576.15
25.3177	569.35
25.3321	512.74
25.3466	525.28
25.3610	567.15
25.3754	505.49
25.3899	541.19
25.4043	553.00
25.4188	551.75
25.4332	534.10
25.4476	542.10
25.4621	549.79
25.4765	548.51
25.4910	555.03
25.5054	536.54
25.5198	554.37
25.5343	570.18
25.5487	573.94
25.5632	576.07
25.5776	508.42
25.5920	520.28
25.6065	546.74
25.6209	573.08
25.6354	569.12
25.6498	574.83
25.6642	477.23
25.6787	489.25
25.6931	542.79
25.7076	537.68
25.7220	566.98
25.7364	550.95
25.7509	583.46
25.7653	560.34
25.7798	552.47
25.7942	554.65
25.8086	545.84
25.8231	553.98
25.8375	555.22
25.8520	534.13
25.8664	544.83
25.8808	565.77
25.8953	572.68
25.9097	555.91
25.9242	534.22
25.9386	508.30
25.9530	521.89
25.9675	515.75
25.9819	524.94
25.9964	505.80
26.0108	514.51
26.0252	546.81
26.0397	532.05
26.0541	524.85
26.0686	543.84
26.0830	541.30
26.0974	532.00
26.1119	558.77
26.1263	564.89
26.1408	523.53
26.1552	504.26
26.1696	538.11
26.1841	550.44
26.1985	544.46
26.2130	531.51
26.2274	518.79
26.2418	509.25
26.2563	523.28
26.2707	534.54
26.2852	523.50
26.2996	527.13
26.3140	524.61
26.3285	547.25
26.3429	547.56
26.3574	538.27
26.3718	525.54
26.3862	501.90
26.4007	490.11
26.4151	510.42
26.4296	530.41
26.4440	517.99
26.4584	540.49
26.4729	520.45
26.4873	541.72
26.5018	529.21
26.5162	537.89
26.5306	538.80
26.5451	487.18
26.5595	517.63
26.5740	541.58
26.5884	507.92
26.6028	518.25
26.6173	539.75
26.6317	538.34
26.6462	561.52
26.6606	541.96
26.6750	511.59
26.6895	509.36
26.7039	545.12
26.7184	533.78
26.7328	498.78
26.7472	505.09
26.7617	514.73
26.7761	507.50
26.7906	531.01
26.8050	525.54
26.8194	513.69
26.8339	515.45
26.8483	525.90
26.8628	518.21
26.8772	518.77
26.8917	518.14
26.9061	535.26
26.9205	525.88
26.9350	489.44
26.9494	508.19
26.9639	503.11
26.9783	501.21
26.9927	492.30
27.0072	515.06
27.0216	548.84
27.0361	533.53
27.0505	505.05
27.0649	495.55
27.0794	499.68
27.0938	538.73
27.1083	528.31
27.1227	529.07
27.1371	501.42
27.1516	496.45
27.1660	533.03
27.1805	544.85
27.1949	533.08
27.2093	567.33
27.2238	508.10
27.2382	553.48
27.2527	560.05
27.2671	535.75
27.2815	537.91
27.2960	506.45
27.3104	511.77
27.3249	545.07
27.3393	535.13
27.3537	527.64
27.3682	522.53
27.3826	514.19
27.3971	501.74
27.4115	533.84
27.4259	529.79
27.4404	504.77
27.4548	495.42
27.4693	496.89
27.4837	492.63
27.4981	533.79
27.5126	531.83
27.5270	543.19
27.5415	508.58
27.5559	510.99
27.5703	509.88
27.5848	486.92
27.5992	471.00
27.6137	508.16
27.6281	529.57
27.6425	514.74
27.6570	521.72
27.6714	505.04
27.6859	479.62
27.7003	509.15
27.7147	531.39
27.7292	512.13
27.7436	510.20
27.7581	522.56
27.7725	486.24
27.7869	496.03
27.8014	521.21
27.8158	518.02
27.8303	513.44
27.8447	484.89
27.8591	490.56
27.8736	520.59
27.8880	522.27
27.9025	529.74
27.9169	488.14
27.9313	513.91
27.9458	505.19
27.9602	511.70
27.9747	505.65
27.9891	527.28
28.0035	502.75
28.0180	482.56
28.0324	481.69
28.0469	459.77
28.0613	518.84
28.0757	507.47
28.0902	506.94
28.1046	514.32
28.1191	515.64
28.1335	519.66
28.1479	511.56
28.1624	523.79
28.1768	499.35
28.1913	503.04
28.2057	482.92
28.2201	524.09
28.2346	521.24
28.2490	536.78
28.2635	520.50
28.2779	497.99
28.2923	494.36
28.3068	507.63
28.3212	523.81
28.3357	524.67
28.3501	539.25
28.3645	525.80
28.3790	507.70
28.3934	493.46
28.4079	498.08
28.4223	508.08
28.4367	501.58
28.4512	504.56
28.4656	514.69
28.4801	504.19
28.4945	491.28
28.5089	494.84
28.5234	512.23
28.5378	528.27
28.5523	502.70
28.5667	514.00
28.5811	521.36
28.5956	478.57
28.6100	533.29
28.6245	523.93
28.6389	506.77
28.6533	504.70
28.6678	516.25
28.6822	470.51
28.6967	481.67
28.7111	505.45
28.7255	510.78
28.7400	497.12
28.7544	483.24
28.7689	487.08
28.7833	479.57
28.7977	463.78
28.8122	515.75
28.8266	544.53
28.8411	533.26
28.8555	513.51
28.8699	505.67
28.8844	521.62
28.8988	474.56
28.9133	558.45
28.9277	508.67
28.9421	553.46
28.9566	493.14
28.9710	490.16
28.9855	492.68
28.9999	478.19
29.0143	463.46
29.0288	481.85
29.0432	507.79
29.0577	467.62
29.0721	530.73
29.0865	502.98
29.1010	520.29
29.1154	523.44
29.1299	535.52
29.1443	508.96
29.1587	493.01
29.1732	508.48
29.1876	514.42
29.2021	488.13
29.2165	469.12
29.2309	470.46
29.2454	533.05
29.2598	473.72
29.2743	501.92
29.2887	518.01
29.3031	491.06
29.3176	509.03
29.3320	492.98
29.3465	495.08
29.3609	496.71
29.3753	485.82
29.3898	492.76
29.4042	509.96
29.4187	532.38
29.4331	525.04
29.4475	506.50
29.4620	521.17
29.4764	561.41
29.4909	505.62
29.5053	504.00
29.5197	527.59
29.5342	500.34
29.5486	518.46
29.5631	504.25
29.5775	513.69
29.5919	522.12
29.6064	510.87
29.6208	503.37
29.6353	489.85
29.6497	490.94
29.6641	493.40
29.6786	492.06
29.6930	489.75
29.7075	505.04
29.7219	492.74
29.7363	490.84
29.7508	502.14
29.7652	518.79
29.7797	520.81
29.7941	504.12
29.8085	485.48
29.8230	498.26
29.8374	503.53
29.8519	503.19
29.8663	534.96
29.8807	508.57
29.8952	520.48
29.9096	530.37
29.9241	521.72
29.9385	501.20
29.9529	498.45
29.9674	519.29
29.9818	534.08
29.9963	512.21
30.0107	515.31
30.0251	513.66
30.0396	496.47
30.0540	508.75
30.0685	519.02
30.0829	510.12
30.0973	504.80
30.1118	519.31
30.1262	537.08
30.1407	509.94
30.1551	534.99
30.1695	526.73
30.1840	508.53
30.1984	494.66
30.2129	496.09
30.2273	484.10
30.2417	533.78
30.2562	525.95
30.2706	524.42
30.2851	555.74
30.2995	513.51
30.3139	495.03
30.3284	515.43
30.3428	497.11
30.3573	526.74
30.3717	530.95
30.3861	503.20
30.4006	514.45
30.4150	539.62
30.4295	529.98
30.4439	530.58
30.4583	559.69
30.4728	558.31
30.4872	557.05
30.5017	621.77
30.5161	656.14
30.5305	665.54
30.5450	707.55
30.5594	733.78
30.5739	749.28
30.5883	786.26
30.6028	754.55
30.6172	719.43
30.6316	719.90
30.6461	732.46
30.6605	676.96
30.6750	660.40
30.6894	601.93
30.7038	575.06
30.7183	580.34
30.7327	585.65
30.7472	557.61
30.7616	537.11
30.7760	550.20
30.7905	558.00
30.8049	542.25
30.8194	545.17
30.8338	546.47
30.8482	508.35
30.8627	533.10
30.8771	498.67
30.8916	484.48
30.9060	492.24
30.9204	499.99
30.9349	533.69
30.9493	513.48
30.9638	504.39
30.9782	503.31
30.9926	508.67
31.0071	521.67
31.0215	496.83
31.0360	491.76
31.0504	512.31
31.0648	553.65
31.0793	503.17
31.0937	498.75
31.1082	518.50
31.1226	526.42
31.1370	538.68
31.1515	532.77
31.1659	551.20
31.1804	527.48
31.1948	512.40
31.2092	530.40
31.2237	493.93
31.2381	495.51
31.2526	519.51
31.2670	477.76
31.2814	528.42
31.2959	523.17
31.3103	553.49
31.3248	541.07
31.3392	528.11
31.3536	540.06
31.3681	525.80
31.3825	505.01
31.3970	520.78
31.4114	509.62
31.4258	517.09
31.4403	500.62
31.4547	486.36
31.4692	525.23
31.4836	529.30
31.4980	507.81
31.5125	474.69
31.5269	496.28
31.5414	506.02
31.5558	509.82
31.5702	481.33
31.5847	493.73
31.5991	492.67
31.6136	509.46
31.6280	488.65
31.6424	471.67
31.6569	480.06
31.6713	504.38
31.6858	499.57
31.7002	514.74
31.7146	520.87
31.7291	500.93
31.7435	506.28
31.7580	508.68
31.7724	468.04
31.7868	502.49
31.8013	463.57
31.8157	512.56
31.8302	512.47
31.8446	480.29
31.8590	493.19
31.8735	518.20
31.8879	485.11
31.9024	506.33
31.9168	515.91
31.9312	479.85
31.9457	539.87
31.9601	492.10
31.9746	511.76
31.9890	523.43
32.0034	494.42
32.0179	474.45
32.0323	491.52
32.0468	506.00
32.0612	500.67
32.0756	512.08
32.0901	521.95
32.1045	500.54
32.1190	464.17
32.1334	489.00
32.1478	481.39
32.1623	507.13
32.1767	505.64
32.1912	508.44
32.2056	487.16
32.2200	497.74
32.2345	516.04
32.2489	489.90
32.2634	454.39
32.2778	502.06
32.2922	511.94
32.3067	501.46
32.3211	499.34
32.3356	499.31
32.3500	485.89
32.3644	486.74
32.3789	509.59
32.3933	513.49
32.4078	487.96
32.4222	516.39
32.4366	485.22
32.4511	491.41
32.4655	520.76
32.4800	518.77
32.4944	518.85
32.5088	498.94
32.5233	516.34
32.5377	508.78
32.5522	507.81
32.5666	509.27
32.5810	502.02
32.5955	529.65
32.6099	536.38
32.6244	497.06
32.6388	503.86
32.6532	501.83
32.6677	481.31
32.6821	498.07
32.6966	487.12
32.7110	510.59
32.7254	486.74
32.7399	497.35
32.7543	499.37
32.7688	488.23
32.7832	528.62
32.7976	482.25
32.8121	516.41
32.8265	509.35
32.8410	516.05
32.8554	509.08
32.8698	516.74
32.8843	519.25
32.8987	492.73
32.9132	513.03
32.9276	518.55
32.9420	509.79
32.9565	506.41
32.9709	491.19
32.9854	455.34
32.9998	512.79
33.0142	529.97
33.0287	504.36
33.0431	506.92
33.0576	526.46
33.0720	535.91
33.0864	481.17
33.1009	491.24
33.1153	507.40
33.1298	475.89
33.1442	484.26
33.1586	495.64
33.1731	499.64
33.1875	490.00
33.2020	503.25
33.2164	537.58
33.2308	487.33
33.2453	533.20
33.2597	499.49
33.2742	507.65
33.2886	494.75
33.3030	525.75
33.3175	479.20
33.3319	524.13
33.3464	474.74
33.3608	471.48
33.3752	474.79
33.3897	512.51
33.4041	497.70
33.4186	480.41
33.4330	518.72
33.4474	494.97
33.4619	503.92
33.4763	525.46
33.4908	504.51
33.5052	490.67
33.5196	490.59
33.5341	526.43
33.5485	515.50
33.5630	521.99
33.5774	484.74
33.5918	506.05
33.6063	488.02
33.6207	490.85
33.6352	476.69
33.6496	468.48
33.6640	530.81
33.6785	496.91
33.6929	507.76
33.7074	496.55
33.7218	499.15
33.7362	485.29
33.7507	521.06
33.7651	493.59
33.7796	511.69
33.7940	540.91
33.8084	505.97
33.8229	509.54
33.8373	496.52
33.8518	473.15
33.8662	493.59
33.8806	509.03
33.8951	471.59
33.9095	532.54
33.9240	527.33
33.9384	518.92
33.9528	512.40
33.9673	506.81
33.9817	492.91
33.9962	469.62
34.0106	479.62
34.0250	514.76
34.0395	501.96
34.0539	500.88
34.0684	502.39
34.0828	498.32
34.0972	510.15
34.1117	535.74
34.1261	493.03
34.1406	522.25
34.1550	465.78
34.1694	453.38
34.1839	486.13
34.1983	495.37
34.2128	513.19
34.2272	511.65
34.2417	488.61
34.2561	499.84
34.2705	479.86
34.2850	511.14
34.2994	518.25
34.3139	520.53
34.3283	537.82
34.3427	550.51
34.3572	529.44
34.3716	517.11
34.3861	517.71
34.4005	484.93
34.4149	485.35
34.4294	490.81
34.4438	508.58
34.4583	492.23
34.4727	497.77
34.4871	489.20
34.5016	509.54
34.5160	492.99
34.5305	479.82
34.5449	493.64
34.5593	494.89
34.5738	476.82
34.5882	514.66
34.6027	502.62
34.6171	466.83
34.6315	506.05
34.6460	517.78
34.6604	490.03
34.6749	492.71
34.6893	478.99
34.7037	490.51
34.7182	517.00
34.7326	520.19
34.7471	515.69
34.7615	503.56
34.7759	520.49
34.7904	498.14
34.8048	498.12
34.8193	520.49
34.8337	564.98
34.8481	497.91
34.8626	490.77
34.8770	494.66
34.8915	518.51
34.9059	510.52
34.9203	503.76
34.9348	514.76
34.9492	515.79
34.9637	471.87
34.9781	489.10
34.9925	521.43
35.0070	513.31
35.0214	495.69
35.0359	508.74
35.0503	527.35
35.0647	527.03
35.0792	512.22
35.0936	508.42
35.1081	526.24
35.1225	548.34
35.1369	504.70
35.1514	478.20
35.1658	509.53
35.1803	505.56
35.1947	498.97
35.2091	505.48
35.2236	514.72
35.2380	507.75
35.2525	507.20
35.2669	507.99
35.2813	534.53
35.2958	485.25
35.3102	488.65
35.3247	537.74
35.3391	543.23
35.3535	526.03
35.3680	518.22
35.3824	507.28
35.3969	503.55
35.4113	525.43
35.4257	566.36
35.4402	506.29
35.4546	547.71
35.4691	560.10
35.4835	571.08
35.4979	508.16
35.5124	546.94
35.5268	553.51
35.5413	542.55
35.5557	549.57
35.5701	518.91
35.5846	524.78
35.5990	516.97
35.6135	508.07
35.6279	512.38
35.6423	557.08
35.6568	542.92
35.6712	545.86
35.6857	585.83
35.7001	707.45
35.7145	747.53
35.7290	699.77
35.7434	631.42
35.7579	620.15
35.7723	641.58
35.7867	731.77
35.8012	733.01
35.8156	758.98
35.8301	752.75
35.8445	672.44
35.8589	744.08
35.8734	813.44
35.8878	911.82
35.9023	1098.04
35.9167	1160.82
35.9311	1277.73
35.9456	1612.25
35.9600	2082.88
35.9745	2139.85
35.9889	2422.90
36.0033	2823.57
36.0178	3205.76
36.0322	3173.01
36.0467	2642.55
36.0611	2205.89
36.0755	2061.28
36.0900	2225.72
36.1044	1746.26
36.1189	1543.00
36.1333	1415.08
36.1477	1146.00
36.1622	1049.22
36.1766	980.65
36.1911	845.22
36.2055	745.46
36.2199	746.52
36.2344	754.84
36.2488	646.81
36.2633	588.28
36.2777	566.26
36.2921	559.47
36.3066	555.41
36.3210	556.56
36.3355	548.69
36.3499	572.08
36.3643	543.03
36.3788	526.43
36.3932	511.87
36.4077	532.61
36.4221	541.65
36.4365	546.11
36.4510	541.00
36.4654	559.60
36.4799	559.44
36.4943	556.48
36.5087	526.42
36.5232	540.60
36.5376	523.80
36.5521	555.18
36.5665	538.13
36.5809	503.29
36.5954	541.55
36.6098	530.18
36.6243	529.46
36.6387	529.02
36.6531	539.40
36.6676	521.84
36.6820	538.84
36.6965	559.33
36.7109	527.66
36.7253	516.90
36.7398	533.74
36.7542	541.85
36.7687	502.86
36.7831	538.16
36.7975	541.24
36.8120	590.83
36.8264	587.49
36.8409	573.42
36.8553	607.06
36.8697	613.02
36.8842	623.73
36.8986	589.45
36.9131	626.94
36.9275	544.24
36.9419	542.77
36.9564	562.24
36.9708	581.52
36.9853	573.69
36.9997	510.05
37.0141	529.63
37.0286	573.75
37.0430	542.52
37.0575	521.29
37.0719	543.48
37.0863	544.80
37.1008	546.66
37.1152	497.53
37.1297	503.66
37.1441	480.63
37.1585	488.60
37.1730	500.78
37.1874	485.65
37.2019	500.41
37.2163	501.35
37.2307	495.88
37.2452	511.08
37.2596	516.68
37.2741	484.79
37.2885	501.22
37.3029	511.27
37.3174	497.66
37.3318	487.08
37.3463	525.16
37.3607	513.69
37.3751	482.00
37.3896	474.73
37.4040	494.26
37.4185	490.21
37.4329	501.50
37.4473	500.86
37.4618	547.32
37.4762	500.12
37.4907	531.21
37.5051	511.88
37.5195	479.86
37.5340	535.01
37.5484	492.18
37.5629	497.38
37.5773	486.77
37.5917	515.69
37.6062	514.62
37.6206	485.64
37.6351	523.09
37.6495	506.39
37.6639	503.16
37.6784	495.33
37.6928	492.96
37.7073	482.25
37.7217	497.29
37.7361	483.44
37.7506	536.15
37.7650	524.45
37.7795	543.62
37.7939	518.60
37.8083	504.69
37.8228	492.46
37.8372	504.93
37.8517	491.33
37.8661	524.41
37.8805	503.43
37.8950	481.63
37.9094	502.28
37.9239	529.90
37.9383	504.51
37.9528	513.94
37.9672	489.36
37.9816	488.72
37.9961	490.08
38.0105	491.55
38.0250	499.79
38.0394	466.98
38.0538	526.71
38.0683	525.07
38.0827	486.47
38.0972	497.34
38.1116	508.89
38.1260	521.93
38.1405	513.00
38.1549	491.03
38.1694	508.21
38.1838	469.47
38.1982	483.70
38.2127	487.56
38.2271	529.90
38.2416	522.45
38.2560	513.42
38.2704	486.93
38.2849	506.11
38.2993	534.40
38.3138	539.82
38.3282	560.96
38.3426	512.73
38.3571	526.79
38.3715	514.92
38.3860	531.01
38.4004	537.80
38.4148	532.56
38.4293	552.66
38.4437	546.52
38.4582	591.06
38.4726	637.28
38.4870	724.37
38.5015	768.62
38.5159	793.32
38.5304	819.27
38.5448	806.93
38.5592	782.52
38.5737	742.53
38.5881	747.13
38.6026	730.88
38.6170	681.64
38.6314	657.17
38.6459	649.77
38.6603	623.03
38.6748	610.75
38.6892	598.72
38.7036	570.52
38.7181	539.27
38.7325	490.72
38.7470	524.66
38.7614	508.70
38.7758	504.48
38.7903	528.64
38.8047	526.11
38.8192	493.22
38.8336	507.38
38.8480	489.13
38.8625	513.15
38.8769	508.23
38.8914	486.31
38.9058	525.87
38.9202	541.30
38.9347	506.12
38.9491	506.92
38.9636	511.28
38.9780	497.99
38.9924	508.47
39.0069	497.47
39.0213	487.84
39.0358	474.62
39.0502	497.58
39.0646	510.94
39.0791	490.63
39.0935	508.54
39.1080	520.69
39.1224	521.20
39.1368	519.65
39.1513	513.94
39.1657	505.19
39.1802	522.19
39.1946	506.17
39.2090	529.63
39.2235	512.63
39.2379	498.68
39.2524	490.56
39.2668	501.10
39.2812	507.07
39.2957	516.05
39.3101	531.85
39.3246	503.87
39.3390	538.91
39.3534	527.27
39.3679	518.45
39.3823	453.35
39.3968	459.61
39.4112	472.82
39.4256	507.81
39.4401	488.08
39.4545	472.90
39.4690	506.16
39.4834	531.57
39.4978	509.02
39.5123	494.62
39.5267	524.62
39.5412	515.18
39.5556	507.77
39.5700	471.02
39.5845	484.91
39.5989	469.37
39.6134	513.09
39.6278	524.33
39.6422	490.52
39.6567	496.40
39.6711	467.58
39.6856	473.32
39.7000	498.76
39.7144	494.59
39.7289	476.93
39.7433	464.93
39.7578	505.96
39.7722	505.31
39.7866	496.32
39.8011	492.76
39.8155	490.39
39.8300	513.23
39.8444	499.21
39.8588	531.07
39.8733	525.57
39.8877	513.94
39.9022	491.83
39.9166	491.93
39.9310	503.04
39.9455	516.43
39.9599	475.24
39.9744	451.79
39.9888	475.63
40.0032	495.69
40.0177	464.53
40.0321	533.40
40.0466	470.46
40.0610	527.44
40.0754	484.07
40.0899	499.22
40.1043	497.31
40.1188	474.38
40.1332	469.94
40.1476	465.83
40.1621	472.34
40.1765	491.31
40.1910	509.89
40.2054	478.63
40.2198	502.80
40.2343	500.01
40.2487	485.70
40.2632	491.46
40.2776	512.78
40.2920	484.59
40.3065	461.40
40.3209	463.28
40.3354	488.25
40.3498	478.39
40.3642	476.39
40.3787	486.02
40.3931	482.42
40.4076	452.13
40.4220	547.02
40.4364	506.92
40.4509	478.69
40.4653	494.71
40.4798	502.68
40.4942	493.68
40.5086	471.85
40.5231	506.96
40.5375	527.68
40.5520	491.70
40.5664	471.20
40.5808	496.71
40.5953	511.31
40.6097	467.10
40.6242	479.26
40.6386	545.29
40.6530	512.92
40.6675	502.02
40.6819	489.05
40.6964	495.25
40.7108	517.30
40.7252	480.62
40.7397	487.16
40.7541	502.34
40.7686	487.09
40.7830	468.88
40.7974	477.54
40.8119	512.63
40.8263	497.27
40.8408	510.77
40.8552	464.54
40.8696	494.93
40.8841	484.86
40.8985	510.16
40.9130	510.46
40.9274	485.02
40.9418	535.64
40.9563	526.16
40.9707	505.47
40.9852	455.48
40.9996	466.35
41.0140	488.31
41.0285	508.39
41.0429	486.26
41.0574	507.87
41.0718	488.74
41.0862	492.51
41.1007	478.47
41.1151	482.29
41.1296	493.56
41.1440	470.85
41.1584	471.22
41.1729	491.26
41.1873	507.57
41.2018	492.32
41.2162	496.51
41.2306	493.71
41.2451	483.49
41.2595	504.46
41.2740	507.89
41.2884	514.80
41.3028	478.86
41.3173	462.76
41.3317	473.72
41.3462	507.13
41.3606	503.65
41.3750	487.52
41.3895	521.10
41.4039	522.07
41.4184	493.13
41.4328	511.32
41.4472	521.70
41.4617	477.83
41.4761	502.93
41.4906	482.22
41.5050	545.92
41.5194	511.26
41.5339	487.14
41.5483	519.71
41.5628	504.73
41.5772	490.52
41.5916	507.52
41.6061	486.01
41.6205	510.14
41.6350	471.90
41.6494	531.85
41.6639	514.36
41.6783	489.40
41.6927	488.80
41.7072	483.83
41.7216	479.12
41.7361	479.90
41.7505	480.32
41.7649	510.51
41.7794	503.48
41.7938	521.43
41.8083	471.90
41.8227	514.69
41.8371	508.49
41.8516	502.07
41.8660	522.32
41.8805	534.23
41.8949	537.00
41.9093	562.30
41.9238	573.91
41.9382	566.10
41.9527	578.29
41.9671	577.16
41.9815	575.87
41.9960	571.24
42.0104	580.40
42.0249	592.49
42.0393	562.16
42.0537	598.18
42.0682	581.37
42.0826	604.08
42.0971	585.68
42.1115	575.01
42.1259	613.08
42.1404	613.29
42.1548	587.86
42.1693	673.33
42.1837	719.17
42.1981	731.77
42.2126	784.39
42.2270	931.17
42.2415	1086.35
42.2559	1252.61
42.2703	1318.52
42.2848	1541.79
42.2992	1655.28
42.3137	1738.89
42.3281	1703.53
42.3425	1670.14
42.3570	1486.22
42.3714	1443.58
42.3859	1364.96
42.4003	1319.52
42.4147	1326.87
42.4292	1331.88
42.4436	1172.49
42.4581	1061.55
42.4725	953.57
42.4869	855.80
42.5014	755.12
42.5158	706.74
42.5303	660.46
42.5447	592.01
42.5591	596.48
42.5736	612.79
42.5880	600.80
42.6025	570.70
42.6169	554.91
42.6313	585.09
42.6458	575.46
42.6602	517.69
42.6747	500.44
42.6891	534.86
42.7035	559.02
42.7180	551.77
42.7324	522.21
42.7469	516.62
42.7613	495.22
42.7757	523.88
42.7902	516.82
42.8046	508.68
42.8191	510.05
42.8335	508.93
42.8479	489.78
42.8624	527.01
42.8768	491.84
42.8913	490.18
42.9057	500.09
42.9201	526.37
42.9346	507.59
42.9490	510.56
42.9635	543.96
42.9779	526.62
42.9923	508.41
43.0068	513.49
43.0212	495.34
43.0357	516.84
43.0501	493.20
43.0645	501.93
43.0790	512.01
43.0934	528.43
43.1079	517.87
43.1223	519.45
43.1367	499.43
43.1512	505.77
43.1656	512.22
43.1801	506.13
43.1945	539.57
43.2089	547.15
43.2234	520.89
43.2378	534.11
43.2523	516.43
43.2667	509.57
43.2811	496.09
43.2956	525.62
43.3100	525.78
43.3245	548.40
43.3389	545.14
43.3533	552.11
43.3678	553.94
43.3822	527.69
43.3967	509.64
43.4111	494.33
43.4255	544.40
43.4400	553.89
43.4544	521.15
43.4689	532.82
43.4833	501.39
43.4977	511.66
43.5122	536.98
43.5266	524.88
43.5411	499.64
43.5555	500.63
43.5699	509.81
43.5844	529.97
43.5988	515.91
43.6133	525.45
43.6277	543.34
43.6421	536.64
43.6566	534.62
43.6710	566.88
43.6855	579.91
43.6999	584.64
43.7143	590.22
43.7288	622.84
43.7432	604.63
43.7577	639.05
43.7721	659.42
43.7865	679.88
43.8010	644.83
43.8154	629.86
43.8299	641.03
43.8443	574.57
43.8587	637.57
43.8732	609.75
43.8876	590.34
43.9021	634.74
43.9165	555.31
43.9309	597.23
43.9454	544.01
43.9598	507.44
43.9743	516.79
43.9887	549.00
44.0031	485.03
44.0176	516.28
44.0320	494.17
44.0465	504.95
44.0609	551.09
44.0753	490.51
44.0898	524.81
44.1042	540.44
44.1187	531.29
44.1331	523.66
44.1475	512.07
44.1620	471.37
44.1764	519.22
44.1909	489.05
44.2053	502.68
44.2197	526.97
44.2342	537.37
44.2486	524.65
44.2631	521.43
44.2775	523.09
44.2919	504.44
44.3064	517.43
44.3208	507.14
44.3353	501.61
44.3497	533.25
44.3641	525.93
44.3786	516.83
44.3930	546.86
44.4075	569.38
44.4219	552.14
44.4363	571.67
44.4508	564.18
44.4652	606.09
44.4797	561.72
44.4941	577.66
44.5085	566.38
44.5230	556.04
44.5374	592.80
44.5519	552.90
44.5663	570.75
44.5807	584.26
44.5952	560.47
44.6096	569.43
44.6241	577.60
44.6385	583.64
44.6529	571.60
44.6674	548.45
44.6818	581.19
44.6963	647.12
44.7107	642.25
44.7251	681.81
44.7396	715.82
44.7540	782.35
44.7685	802.53
44.7829	861.95
44.7973	885.41
44.8118	821.25
44.8262	781.33
44.8407	769.18
44.8551	781.89
44.8695	756.27
44.8840	719.83
44.8984	740.59
44.9129	718.09
44.9273	706.02
44.9417	708.58
44.9562	642.10
44.9706	571.25
44.9851	543.70
44.9995	563.61
45.0139	498.11
45.0284	492.30
45.0428	534.33
45.0573	529.02
45.0717	526.35
45.0861	544.70
45.1006	515.01
45.1150	514.54
45.1295	525.20
45.1439	537.00
45.1583	472.57
45.1728	494.01
45.1872	478.69
45.2017	464.31
45.2161	521.53
45.2305	497.07
45.2450	535.00
45.2594	515.65
45.2739	543.43
45.2883	504.44
45.3028	496.40
45.3172	519.42
45.3316	516.21
45.3461	500.31
45.3605	507.84
45.3750	486.87
45.3894	516.49
45.4038	532.81
45.4183	523.90
45.4327	527.71
45.4472	499.16
45.4616	484.05
45.4760	473.33
45.4905	464.94
45.5049	470.06
45.5194	510.33
45.5338	491.73
45.5482	493.13
45.5627	514.74
45.5771	492.02
45.5916	516.17
45.6060	505.96
45.6204	463.91
45.6349	510.87
45.6493	471.72
45.6638	489.69
45.6782	514.88
45.6926	484.25
45.7071	514.00
45.7215	536.80
45.7360	509.15
45.7504	551.25
45.7648	512.96
45.7793	518.57
45.7937	478.20
45.8082	508.52
45.8226	479.71
45.8370	496.63
45.8515	499.46
45.8659	522.64
45.8804	505.91
45.8948	495.90
45.9092	505.10
45.9237	478.98
45.9381	523.92
45.9526	519.01
45.9670	531.12
45.9814	501.72
45.9959	500.12
46.0103	513.25
46.0248	488.63
46.0392	489.46
46.0536	510.26
46.0681	507.82
46.0825	515.41
46.0970	525.98
46.1114	544.58
46.1258	531.47
46.1403	506.88
46.1547	509.93
46.1692	528.79
46.1836	536.86
46.1980	510.24
46.2125	504.81
46.2269	511.10
46.2414	515.62
46.2558	500.75
46.2702	481.12
46.2847	464.54
46.2991	498.76
46.3136	508.28
46.3280	502.40
46.3424	525.42
46.3569	511.51
46.3713	501.20
46.3858	489.62
46.4002	511.79
46.4146	504.65
46.4291	505.86
46.4435	479.16
46.4580	470.75
46.4724	473.20
46.4868	473.96
46.5013	502.99
46.5157	490.05
46.5302	501.67
46.5446	488.82
46.5590	490.82
46.5735	468.05
46.5879	463.69
46.6024	479.48
46.6168	476.07
46.6312	485.47
46.6457	521.49
46.6601	517.38
46.6746	503.31
46.6890	491.79
46.7034	495.89
46.7179	495.79
46.7323	489.24
46.7468	491.92
46.7612	498.46
46.7756	525.31
46.7901	499.26
46.8045	506.61
46.8190	489.12
46.8334	495.39
46.8478	465.08
46.8623	507.35
46.8767	531.75
46.8912	472.68
46.9056	495.62
46.9200	509.66
46.9345	483.04
46.9489	486.48
46.9634	489.31
46.9778	481.30
46.9922	502.74
47.0067	497.40
47.0211	492.64
47.0356	493.61
47.0500	487.12
47.0644	503.41
47.0789	506.84
47.0933	527.45
47.1078	515.74
47.1222	508.91
47.1366	498.03
47.1511	498.03
47.1655	486.81
47.1800	483.68
47.1944	454.28
47.2088	501.91
47.2233	494.84
47.2377	521.65
47.2522	526.56
47.2666	493.52
47.2810	513.70
47.2955	493.04
47.3099	484.53
47.3244	483.57
47.3388	524.78
47.3532	513.43
47.3677	492.91
47.3821	480.41
47.3966	499.25
47.4110	472.58
47.4254	518.16
47.4399	495.80
47.4543	478.24
47.4688	549.02
47.4832	525.12
47.4976	495.89
47.5121	494.71
47.5265	500.39
47.5410	503.04
47.5554	520.91
47.5698	500.86
47.5843	522.17
47.5987	507.94
47.6132	493.18
47.6276	481.34
47.6420	506.48
47.6565	511.81
47.6709	481.99
47.6854	486.51
47.6998	522.95
47.7142	498.99
47.7287	511.07
47.7431	502.38
47.7576	487.55
47.7720	516.32
47.7864	525.29
47.8009	490.27
47.8153	544.19
47.8298	504.24
47.8442	483.48
47.8586	532.69
47.8731	519.14
47.8875	493.40
47.9020	509.02
47.9164	489.99
47.9308	505.74
47.9453	536.94
47.9597	508.85
47.9742	489.30
47.9886	501.00
48.0030	501.46
48.0175	521.68
48.0319	515.09
48.0464	491.54
48.0608	519.09
48.0752	509.83
48.0897	505.79
48.1041	543.83
48.1186	514.76
48.1330	499.10
48.1474	501.64
48.1619	504.01
48.1763	520.77
48.1908	512.17
48.2052	467.74
48.2196	500.75
48.2341	543.49
48.2485	502.13
48.2630	531.80
48.2774	503.18
48.2918	497.09
48.3063	491.18
48.3207	508.06
48.3352	482.68
48.3496	517.39
48.3640	479.78
48.3785	487.57
48.3929	470.37
48.4074	499.65
48.4218	522.23
48.4362	522.72
48.4507	522.95
48.4651	525.33
48.4796	542.51
48.4940	533.78
48.5084	512.32
48.5229	509.97
48.5373	506.71
48.5518	522.79
48.5662	493.58
48.5806	489.67
48.5951	527.54
48.6095	544.27
48.6240	516.97
48.6384	515.63
48.6528	489.14
48.6673	499.94
48.6817	501.82
48.6962	512.28
48.7106	538.36
48.7250	518.75
48.7395	523.88
48.7539	539.96
48.7684	496.52
48.7828	522.82
48.7972	521.65
48.8117	573.92
48.8261	582.02
48.8406	506.43
48.8550	541.09
48.8694	537.50
48.8839	570.71
48.8983	585.34
48.9128	563.21
48.9272	543.73
48.9416	550.37
48.9561	527.13
48.9705	539.55
48.9850	546.99
48.9994	567.74
49.0139	586.16
49.0283	598.92
49.0427	612.43
49.0572	616.87
49.0716	679.14
49.0861	696.18
49.1005	716.72
49.1149	653.22
49.1294	744.89
49.1438	759.42
49.1583	833.88
49.1727	866.07
49.1871	898.05
49.2016	994.12
49.2160	1021.96
49.2305	1126.13
49.2449	1226.62
49.2593	1318.60
49.2738	1395.12
49.2882	1514.21
49.3027	1540.92
49.3171	1680.27
49.3315	1775.24
49.3460	1881.05
49.3604	1854.19
49.3749	1892.36
49.3893	1806.21
49.4037	1777.25
49.4182	1727.12
49.4326	1747.36
49.4471	1745.82
49.4615	1653.39
49.4759	1581.65
49.4904	1485.70
49.5048	1430.45
49.5193	1324.82
49.5337	1283.68
49.5481	1186.62
49.5626	1148.91
49.5770	1096.08
49.5915	1001.93
49.6059	945.57
49.6203	874.27
49.6348	830.75
49.6492	776.83
49.6637	724.61
49.6781	689.30
49.6925	691.55
49.7070	724.91
49.7214	670.39
49.7359	622.99
49.7503	615.07
49.7647	594.50
49.7792	614.05
49.7936	580.54
49.8081	562.51
49.8225	549.41
49.8369	569.38
49.8514	573.79
49.8658	558.27
49.8803	568.88
49.8947	566.90
49.9091	551.01
49.9236	524.22
49.9380	533.24
49.9525	497.51
49.9669	551.19
49.9813	521.15
49.9958	534.87
50.0102	499.22
50.0247	552.65
50.0391	554.05
50.0535	524.38
50.0680	518.89
50.0824	526.14
50.0969	537.21
50.1113	529.44
50.1257	520.50
50.1402	533.00
50.1546	508.70
50.1691	517.74
50.1835	516.72
50.1979	511.08
50.2124	506.07
50.2268	525.34
50.2413	510.59
50.2557	484.60
50.2701	522.64
50.2846	509.83
50.2990	510.85
50.3135	535.80
50.3279	519.44
50.3423	533.72
50.3568	549.60
50.3712	525.61
50.3857	501.17
50.4001	521.06
50.4145	511.10
50.4290	534.07
50.4434	500.75
50.4579	469.62
50.4723	511.28
50.4867	495.54
50.5012	479.89
50.5156	481.95
50.5301	501.62
50.5445	486.97
50.5589	512.50
50.5734	491.39
50.5878	483.89
50.6023	515.87
50.6167	538.42
50.6311	528.34
50.6456	513.95
50.6600	534.88
50.6745	521.71
50.6889	506.87
50.7033	516.79
50.7178	504.85
50.7322	510.29
50.7467	526.62
50.7611	525.36
50.7755	535.82
50.7900	477.56
50.8044	473.56
50.8189	512.02
50.8333	504.57
50.8477	472.15
50.8622	473.99
50.8766	521.45
50.8911	504.11
50.9055	498.49
50.9199	475.25
50.9344	491.24
50.9488	478.87
50.9633	485.56
50.9777	499.02
50.9921	518.72
51.0066	489.50
51.0210	508.21
51.0355	523.05
51.0499	488.41
51.0643	488.55
51.0788	500.51
51.0932	509.68
51.1077	502.14
51.1221	508.65
51.1365	513.61
51.1510	494.40
51.1654	543.68
51.1799	536.63
51.1943	517.62
51.2087	504.22
51.2232	484.88
51.2376	499.34
51.2521	521.35
51.2665	483.39
51.2809	491.72
51.2954	492.84
51.3098	487.39
51.3243	478.06
51.3387	492.41
51.3531	498.54
51.3676	479.44
51.3820	495.51
51.3965	524.57
51.4109	509.21
51.4253	526.27
51.4398	493.52
51.4542	542.06
51.4687	512.49
51.4831	515.02
51.4975	518.22
51.5120	498.68
51.5264	497.29
51.5409	453.05
51.5553	496.79
51.5697	492.86
51.5842	517.35
51.5986	498.21
51.6131	511.95
51.6275	492.30
51.6419	499.64
51.6564	503.76
51.6708	468.69
51.6853	481.00
51.6997	510.05
51.7141	467.45
51.7286	486.86
51.7430	506.00
51.7575	541.08
51.7719	508.33
51.7863	516.79
51.8008	552.64
51.8152	546.92
51.8297	537.29
51.8441	483.04
51.8585	513.09
51.8730	504.81
51.8874	541.32
51.9019	550.60
51.9163	492.86
51.9307	521.27
51.9452	505.34
51.9596	479.35
51.9741	474.75
51.9885	503.94
52.0029	522.17
52.0174	470.55
52.0318	485.50
52.0463	511.78
52.0607	504.50
52.0751	511.19
52.0896	493.37
52.1040	468.24
52.1185	513.36
52.1329	511.46
52.1473	483.42
52.1618	503.72
52.1762	519.84
52.1907	489.45
52.2051	515.43
52.2195	510.36
52.2340	505.98
52.2484	530.83
52.2629	515.25
52.2773	494.76
52.2917	561.19
52.3062	524.22
52.3206	525.35
52.3351	526.01
52.3495	520.73
52.3639	505.52
52.3784	514.87
52.3928	536.66
52.4073	495.67
52.4217	551.52
52.4361	503.66
52.4506	514.54
52.4650	514.09
52.4795	474.17
52.4939	520.34
52.5083	529.20
52.5228	509.00
52.5372	493.12
52.5517	490.76
52.5661	518.66
52.5805	510.31
52.5950	495.75
52.6094	551.51
52.6239	497.27
52.6383	490.26
52.6527	505.64
52.6672	503.17
52.6816	505.94
52.6961	484.12
52.7105	506.43
52.7250	513.19
52.7394	532.48
52.7538	501.32
52.7683	513.12
52.7827	523.65
52.7972	499.91
52.8116	515.32
52.8260	495.18
52.8405	502.52
52.8549	526.16
52.8694	540.21
52.8838	520.29
52.8982	563.20
52.9127	486.08
52.9271	469.62
52.9416	515.69
52.9560	478.76
52.9704	479.75
52.9849	513.90
52.9993	508.39
53.0138	499.63
53.0282	511.50
53.0426	506.34
53.0571	514.93
53.0715	511.47
53.0860	542.44
53.1004	547.67
53.1148	489.93
53.1293	491.05
53.1437	517.86
53.1582	485.15
53.1726	495.85
53.1870	507.17
53.2015	471.19
53.2159	527.60
53.2304	547.01
53.2448	546.33
53.2592	515.86
53.2737	497.15
53.2881	539.51
53.3026	500.16
53.3170	492.21
53.3314	537.86
53.3459	495.56
53.3603	525.19
53.3748	514.31
53.3892	481.72
53.4036	509.81
53.4181	512.69
53.4325	505.49
53.4470	495.69
53.4614	496.88
53.4758	492.80
53.4903	518.10
53.5047	512.08
53.5192	503.35
53.5336	548.17
53.5480	507.48
53.5625	495.06
53.5769	521.20
53.5914	470.94
53.6058	514.40
53.6202	527.76
53.6347	506.33
53.6491	519.09
53.6636	535.91
53.6780	529.41
53.6924	490.66
53.7069	512.28
53.7213	544.24
53.7358	504.89
53.7502	526.91
53.7646	521.95
53.7791	513.76
53.7935	487.86
53.8080	502.57
53.8224	522.33
53.8368	512.54
53.8513	500.79
53.8657	511.90
53.8802	507.37
53.8946	528.53
53.9090	527.37
53.9235	524.07
53.9379	540.30
53.9524	522.16
53.9668	494.50
53.9812	526.30
53.9957	518.33
54.0101	504.35
54.0246	497.17
54.0390	495.15
54.0534	539.23
54.0679	534.94
54.0823	538.21
54.0968	538.05
54.1112	529.18
54.1256	525.87
54.1401	524.94
54.1545	532.61
54.1690	556.70
54.1834	564.28
54.1978	547.60
54.2123	539.60
54.2267	595.91
54.2412	644.35
54.2556	630.28
54.2700	653.31
54.2845	658.67
54.2989	640.70
54.3134	629.75
54.3278	633.10
54.3422	623.32
54.3567	602.37
54.3711	581.90
54.3856	602.95
54.4000	580.66
54.4144	556.44
54.4289	599.50
54.4433	587.28
54.4578	587.52
54.4722	577.22
54.4866	556.13
54.5011	561.51
54.5155	523.56
54.5300	572.27
54.5444	557.78
54.5588	529.36
54.5733	532.90
54.5877	517.52
54.6022	523.10
54.6166	532.85
54.6310	541.05
54.6455	519.15
54.6599	503.47
54.6744	512.24
54.6888	489.04
54.7032	526.84
54.7177	512.35
54.7321	485.63
54.7466	507.95
54.7610	479.81
54.7754	512.02
54.7899	551.27
54.8043	492.00
54.8188	505.20
54.8332	533.52
54.8476	531.14
54.8621	506.81
54.8765	520.80
54.8910	514.57
54.9054	513.81
54.9198	485.47
54.9343	505.82
54.9487	492.20
54.9632	497.00
54.9776	524.10
54.9920	511.95
55.0065	505.53
55.0209	485.65
55.0354	511.71
55.0498	507.17
55.0642	492.99
55.0787	496.07
55.0931	478.57
55.1076	485.81
55.1220	508.75
55.1364	555.52
55.1509	478.81
55.1653	497.32
55.1798	534.37
55.1942	495.49
55.2086	509.61
55.2231	555.25
55.2375	537.56
55.2520	525.50
55.2664	526.90
55.2808	493.40
55.2953	509.84
55.3097	549.80
55.3242	530.26
55.3386	518.74
55.3530	510.44
55.3675	508.61
55.3819	481.32
55.3964	524.46
55.4108	531.86
55.4252	524.55
55.4397	511.08
55.4541	473.51
55.4686	501.88
55.4830	489.75
55.4974	501.23
55.5119	501.19
55.5263	513.95
55.5408	534.30
55.5552	529.85
55.5696	531.86
55.5841	518.15
55.5985	514.93
55.6130	505.70
55.6274	500.77
55.6418	519.27
55.6563	542.25
55.6707	531.10
55.6852	544.22
55.6996	532.30
55.7140	520.01
55.7285	527.51
55.7429	537.30
55.7574	546.50
55.7718	527.80
55.7862	551.86
55.8007	526.23
55.8151	541.26
55.8296	524.54
55.8440	473.27
55.8584	540.34
55.8729	502.49
55.8873	491.59
55.9018	533.88
55.9162	509.31
55.9306	529.68
55.9451	543.80
55.9595	520.34
55.9740	496.97
55.9884	514.67
56.0028	517.97
56.0173	512.58
56.0317	501.96
56.0462	526.72
56.0606	520.91
56.0750	525.80
56.0895	529.49
56.1039	534.68
56.1184	512.17
56.1328	509.84
56.1472	532.89
56.1617	550.77
56.1761	520.90
56.1906	506.16
56.2050	454.25
56.2194	472.30
56.2339	465.82
56.2483	549.81
56.2628	515.07
56.2772	531.07
56.2916	542.59
56.3061	530.70
56.3205	490.59
56.3350	510.12
56.3494	559.57
56.3639	518.88
56.3783	498.71
56.3927	468.58
56.4072	503.67
56.4216	508.03
56.4361	514.43
56.4505	516.25
56.4649	523.05
56.4794	543.80
56.4938	538.08
56.5083	501.92
56.5227	501.80
56.5371	558.33
56.5516	526.98
56.5660	511.88
56.5805	506.95
56.5949	513.51
56.6093	494.00
56.6238	495.74
56.6382	541.21
56.6527	538.87
56.6671	521.02
56.6815	506.21
56.6960	493.05
56.7104	511.39
56.7249	498.69
56.7393	511.09
56.7537	531.55
56.7682	482.97
56.7826	546.00
56.7971	497.87
56.8115	488.03
56.8259	493.13
56.8404	477.93
56.8548	545.96
56.8693	507.57
56.8837	529.84
56.8981	574.23
56.9126	545.37
56.9270	509.86
56.9415	564.29
56.9559	519.60
56.9703	514.51
56.9848	494.41
56.9992	560.77
57.0137	524.95
57.0281	510.59
57.0425	506.29
57.0570	520.32
57.0714	549.91
57.0859	565.49
57.1003	506.84
57.1147	517.82
57.1292	547.53
57.1436	500.92
57.1581	512.80
57.1725	525.35
57.1869	499.50
57.2014	493.14
57.2158	549.61
57.2303	570.93
57.2447	539.16
57.2591	507.04
57.2736	525.94
57.2880	519.09
57.3025	537.13
57.3169	490.69
57.3313	564.65
57.3458	548.36
57.3602	510.38
57.3747	517.34
57.3891	502.71
57.4035	519.75
57.4180	507.23
57.4324	513.73
57.4469	526.78
57.4613	529.44
57.4757	532.89
57.4902	542.75
57.5046	498.31
57.5191	494.14
57.5335	517.55
57.5479	514.50
57.5624	529.27
57.5768	540.35
57.5913	551.97
57.6057	519.56
57.6201	546.56
57.6346	545.68
57.6490	534.87
57.6635	512.70
57.6779	533.18
57.6923	559.91
57.7068	558.81
57.7212	537.53
57.7357	525.31
57.7501	559.28
57.7645	574.42
57.7790	576.30
57.7934	584.45
57.8079	593.70
57.8223	614.41
57.8367	657.45
57.8512	683.86
57.8656	751.88
57.8801	727.17
57.8945	770.98
57.9089	764.24
57.9234	714.97
57.9378	649.21
57.9523	648.81
57.9667	655.29
57.9811	664.29
57.9956	690.37
58.0100	662.97
58.0245	683.86
58.0389	669.47
58.0533	696.37
58.0678	652.69
58.0822	622.38
58.0967	627.33
58.1111	611.79
58.1255	576.14
58.1400	584.14
58.1544	601.81
58.1689	602.59
58.1833	567.36
58.1977	562.83
58.2122	608.50
58.2266	556.24
58.2411	546.34
58.2555	564.07
58.2699	525.72
58.2844	552.01
58.2988	537.79
58.3133	567.24
58.3277	579.20
58.3421	539.38
58.3566	534.11
58.3710	512.47
58.3855	520.80
58.3999	532.62
58.4143	529.57
58.4288	545.59
58.4432	545.37
58.4577	522.71
58.4721	503.42
58.4865	560.11
58.5010	528.41
58.5154	529.11
58.5299	536.74
58.5443	552.54
58.5587	547.94
58.5732	560.36
58.5876	522.65
58.6021	513.41
58.6165	526.68
58.6309	516.53
58.6454	536.38
58.6598	546.90
58.6743	527.00
58.6887	513.06
58.7031	538.47
58.7176	548.52
58.7320	529.55
58.7465	529.29
58.7609	542.70
58.7753	539.10
58.7898	499.95
58.8042	505.32
58.8187	525.59
58.8331	526.92
58.8475	515.66
58.8620	527.08
58.8764	540.96
58.8909	521.72
58.9053	527.83
58.9197	528.92
58.9342	543.37
58.9486	517.04
58.9631	471.51
58.9775	465.92
58.9919	504.63
59.0064	489.26
59.0208	514.90
59.0353	535.04
59.0497	553.70
59.0641	536.56
59.0786	539.53
59.0930	521.62
59.1075	504.38
59.1219	537.51
59.1363	545.80
59.1508	517.78
59.1652	533.20
59.1797	546.31
59.1941	504.34
59.2085	520.47
59.2230	522.82
59.2374	526.18
59.2519	543.62
59.2663	527.10
59.2807	571.23
59.2952	546.11
59.3096	573.55
59.3241	557.85
59.3385	537.88
59.3529	559.71
59.3674	591.20
59.3818	587.54
59.3963	557.20
59.4107	566.56
59.4251	610.60
59.4396	558.58
59.4540	519.32
59.4685	555.64
59.4829	577.92
59.4973	561.12
59.5118	577.75
59.5262	540.35
59.5407	477.37
59.5551	507.79
59.5695	526.62
59.5840	520.24
59.5984	528.31
59.6129	558.96
59.6273	536.45
59.6417	579.67
59.6562	545.50
59.6706	523.16
59.6851	527.25
59.6995	557.00
59.7139	522.08
59.7284	531.19
59.7428	566.56
59.7573	530.02
59.7717	549.02
59.7861	565.39
59.8006	518.60
59.8150	522.84
59.8295	525.77
59.8439	506.70
59.8583	525.06
59.8728	514.17
59.8872	523.36
59.9017	538.30
59.9161	511.19
59.9305	508.82
59.9450	512.14
59.9594	523.46
59.9739	505.97
59.9883	514.02
60.0027	523.71
60.0172	544.56
60.0316	530.94
60.0461	538.50
60.0605	531.30
60.0750	549.64
60.0894	555.60
60.1038	508.05
60.1183	521.09
60.1327	530.45
60.1472	516.92
60.1616	558.00
60.1760	526.33
60.1905	505.07
60.2049	517.08
60.2194	547.69
60.2338	539.37
60.2482	510.60
60.2627	548.77
60.2771	561.04
60.2916	504.34
60.3060	513.22
60.3204	549.43
60.3349	547.93
60.3493	551.46
60.3638	525.72
60.3782	503.91
60.3926	508.91
60.4071	528.96
60.4215	514.98
60.4360	527.95
60.4504	491.21
60.4648	539.54
60.4793	530.59
60.4937	524.02
60.5082	514.84
60.5226	528.49
60.5370	526.04
60.5515	507.95
60.5659	493.77
60.5804	519.21
60.5948	511.81
60.6092	488.89
60.6237	521.95
60.6381	544.47
60.6526	552.28
60.6670	495.70
60.6814	504.02
60.6959	545.96
60.7103	538.61
60.7248	506.84
60.7392	544.50
60.7536	544.01
60.7681	533.40
60.7825	538.84
60.7970	518.73
60.8114	531.25
60.8258	576.31
60.8403	514.40
60.8547	511.94
60.8692	530.96
60.8836	529.38
60.8980	541.74
60.9125	536.91
60.9269	516.08
60.9414	550.00
60.9558	519.55
60.9702	551.25
60.9847	548.21
60.9991	554.95
61.0136	524.84
61.0280	541.54
61.0424	504.47
61.0569	524.82
61.0713	517.32
61.0858	569.81
61.1002	537.57
61.1146	512.71
61.1291	587.05
61.1435	522.79
61.1580	522.85
61.1724	547.49
61.1868	533.33
61.2013	566.83
61.2157	535.44
61.2302	550.07
61.2446	543.99
61.2590	487.80
61.2735	505.40
61.2879	524.73
61.3024	568.83
61.3168	545.14
61.3312	552.93
61.3457	550.99
61.3601	517.65
61.3746	518.58
61.3890	514.97
61.4034	565.19
61.4179	521.69
61.4323	548.48
61.4468	545.66
61.4612	558.63
61.4756	545.45
61.4901	563.33
61.5045	555.81
61.5190	559.85
61.5334	545.86
61.5478	508.15
61.5623	564.77
61.5767	524.14
61.5912	539.82
61.6056	535.31
61.6200	512.82
61.6345	522.62
61.6489	524.30
61.6634	554.94
61.6778	540.40
61.6922	530.79
61.7067	558.89
61.7211	537.09
61.7356	548.86
61.7500	560.16
61.7644	524.23
61.7789	550.63
61.7933	544.12
61.8078	535.41
61.8222	545.69
61.8366	564.30
61.8511	547.18
61.8655	549.52
61.8800	548.14
61.8944	545.19
61.9088	581.42
61.9233	556.59
61.9377	538.13
61.9522	573.13
61.9666	537.64
61.9810	552.27
61.9955	589.41
62.0099	539.27
62.0244	546.41
62.0388	547.82
62.0532	579.25
62.0677	545.47
62.0821	531.00
62.0966	557.59
62.1110	576.04
62.1254	569.78
62.1399	576.85
62.1543	538.60
62.1688	524.41
62.1832	537.52
62.1976	538.00
62.2121	550.20
62.2265	563.10
62.2410	530.22
62.2554	538.80
62.2698	556.84
62.2843	544.39
62.2987	528.48
62.3132	573.48
62.3276	567.41
62.3420	542.79
62.3565	531.36
62.3709	527.78
62.3854	548.67
62.3998	552.03
62.4142	525.17
62.4287	565.69
62.4431	528.20
62.4576	509.23
62.4720	550.29
62.4864	546.06
62.5009	541.48
62.5153	514.52
62.5298	542.11
62.5442	537.43
62.5586	562.18
62.5731	540.79
62.5875	520.86
62.6020	533.38
62.6164	571.78
62.6308	570.56
62.6453	570.64
62.6597	564.98
62.6742	567.38
62.6886	548.32
62.7030	567.00
62.7175	582.67
62.7319	584.12
62.7464	578.90
62.7608	546.72
62.7752	564.95
62.7897	578.97
62.8041	578.10
62.8186	592.90
62.8330	546.92
62.8474	530.93
62.8619	553.27
62.8763	577.39
62.8908	541.88
62.9052	550.34
62.9196	525.78
62.9341	544.99
62.9485	575.63
62.9630	561.06
62.9774	552.77
62.9918	539.68
63.0063	532.19
63.0207	546.98
63.0352	556.58
63.0496	561.99
63.0640	561.88
63.0785	568.72
63.0929	587.29
63.1074	580.31
63.1218	573.52
63.1362	562.69
63.1507	585.20
63.1651	603.26
63.1796	547.67
63.1940	565.10
63.2084	598.68
63.2229	584.39
63.2373	609.85
63.2518	593.27
63.2662	574.95
63.2806	589.05
63.2951	606.28
63.3095	559.20
63.3240	592.52
63.3384	615.57
63.3528	619.15
63.3673	606.57
63.3817	603.88
63.3962	597.96
63.4106	618.04
63.4250	656.65
63.4395	659.17
63.4539	656.20
63.4684	666.39
63.4828	684.36
63.4972	726.81
63.5117	755.04
63.5261	843.59
63.5406	817.92
63.5550	883.53
63.5694	936.73
63.5839	964.40
63.5983	1011.56
63.6128	954.93
63.6272	871.26
63.6416	850.23
63.6561	787.83
63.6705	747.45
63.6850	738.17
63.6994	787.84
63.7138	785.88
63.7283	833.37
63.7427	857.18
63.7572	801.83
63.7716	781.89
63.7861	779.81
63.8005	797.03
63.8149	768.10
63.8294	741.63
63.8438	678.80
63.8583	701.42
63.8727	652.80
63.8871	638.84
63.9016	648.56
63.9160	621.94
63.9305	615.24
63.9449	631.34
63.9593	592.74
63.9738	655.09
63.9882	605.92
64.0027	583.84
64.0171	611.67
64.0315	638.24
64.0460	599.55
64.0604	596.96
64.0749	597.28
64.0893	578.30
64.1037	597.80
64.1182	610.77
64.1326	595.98
64.1471	565.68
64.1615	555.33
64.1759	602.21
64.1904	601.54
64.2048	573.98
64.2193	605.38
64.2337	602.33
64.2481	616.12
64.2626	556.91
64.2770	616.46
64.2915	617.85
64.3059	602.95
64.3203	601.47
64.3348	613.97
64.3492	594.85
64.3637	622.46
64.3781	599.29
64.3925	576.71
64.4070	571.11
64.4214	611.98
64.4359	627.39
64.4503	587.82
64.4647	610.42
64.4792	622.99
64.4936	638.28
64.5081	586.19
64.5225	580.94
64.5369	635.78
64.5514	636.88
64.5658	631.53
64.5803	604.82
64.5947	624.08
64.6091	601.72
64.6236	616.02
64.6380	687.06
64.6525	668.54
64.6669	635.28
64.6813	640.10
64.6958	619.89
64.7102	643.07
64.7247	658.03
64.7391	683.57
64.7535	667.75
64.7680	672.52
64.7824	707.93
64.7969	731.38
64.8113	791.24
64.8257	756.09
64.8402	813.81
64.8546	845.20
64.8691	804.39
64.8835	863.42
64.8979	863.71
64.9124	875.47
64.9268	891.71
64.9413	919.23
64.9557	930.81
64.9701	1000.12
64.9846	1057.47
64.9990	1104.08
65.0135	1291.25
65.0279	1357.25
65.0423	1600.99
65.0568	1975.05
65.0712	2498.37
65.0857	3248.37
65.1001	4157.86
65.1145	5703.43
65.1290	7584.45
65.1434	9263.92
65.1579	10768.08
65.1723	11727.99
65.1867	11119.36
65.2012	9973.96
65.2156	8374.37
65.2301	6685.17
65.2445	5395.49
65.2589	4425.30
65.2734	3989.80
65.2878	4122.56
65.3023	4758.27
65.3167	5513.94
65.3311	6291.78
65.3456	6819.29
65.3600	6961.67
65.3745	6394.06
65.3889	5602.45
65.4033	4586.91
65.4178	3556.62
65.4322	2676.34
65.4467	2025.43
65.4611	1678.36
65.4755	1413.11
65.4900	1262.10
65.5044	1093.18
65.5189	1020.00
65.5333	1031.16
65.5477	950.65
65.5622	921.85
65.5766	855.71
65.5911	851.22
65.6055	761.33
65.6199	787.45
65.6344	767.88
65.6488	738.06
65.6633	743.58
65.6777	720.27
65.6921	696.52
65.7066	722.53
65.7210	717.11
65.7355	655.62
65.7499	687.65
65.7643	643.35
65.7788	666.45
65.7932	666.70
65.8077	652.94
65.8221	643.54
65.8365	677.80
65.8510	672.59
65.8654	678.31
65.8799	689.12
65.8943	674.92
65.9087	620.71
65.9232	660.08
65.9376	646.58
65.9521	656.72
65.9665	644.60
65.9809	655.79
65.9954	634.88
66.0098	611.89
66.0243	609.24
66.0387	610.21
66.0531	617.75
66.0676	670.16
66.0820	645.22
66.0965	636.60
66.1109	589.97
66.1253	585.97
66.1398	586.36
66.1542	596.88
66.1687	632.53
66.1831	608.03
66.1975	595.46
66.2120	580.51
66.2264	628.50
66.2409	647.74
66.2553	591.28
66.2697	586.52
66.2842	612.31
66.2986	611.62
66.3131	576.83
66.3275	593.28
66.3419	618.97
66.3564	612.72
66.3708	596.09
66.3853	605.23
66.3997	576.39
66.4141	584.65
66.4286	630.23
66.4430	600.47
66.4575	550.85
66.4719	593.61
66.4863	580.64
66.5008	580.32
66.5152	584.00
66.5297	594.96
66.5441	596.26
66.5585	585.81
66.5730	583.13
66.5874	561.85
66.6019	582.67
66.6163	594.92
66.6307	596.78
66.6452	579.49
66.6596	573.34
66.6741	544.52
66.6885	587.39
66.7029	599.83
66.7174	575.67
66.7318	596.44
66.7463	592.96
66.7607	609.75
66.7751	595.51
66.7896	585.60
66.8040	613.45
66.8185	605.23
66.8329	557.50
66.8473	558.86
66.8618	637.53
66.8762	602.65
66.8907	546.28
66.9051	621.22
66.9195	599.93
66.9340	587.18
66.9484	615.68
66.9629	585.36
66.9773	600.80
66.9917	587.13
67.0062	563.19
67.0206	556.44
67.0351	551.09
67.0495	547.80
67.0639	594.35
67.0784	628.33
67.0928	599.39
67.1073	567.15
67.1217	606.05
67.1361	612.04
67.1506	619.00
67.1650	612.69
67.1795	590.16
67.1939	593.39
67.2083	560.63
67.2228	577.18
67.2372	599.27
67.2517	569.98
67.2661	554.56
67.2805	566.48
67.2950	551.25
67.3094	587.23
67.3239	554.14
67.3383	574.94
67.3527	556.72
67.3672	568.04
67.3816	581.26
67.3961	596.98
67.4105	577.40
67.4250	585.08
67.4394	560.88
67.4538	559.36
67.4683	563.41
67.4827	579.24
67.4972	583.46
67.5116	567.98
67.5260	569.02
67.5405	580.15
67.5549	593.13
67.5694	560.19
67.5838	573.82
67.5982	576.57
67.6127	550.96
67.6271	567.60
67.6416	566.46
67.6560	547.58
67.6704	580.41
67.6849	540.35
67.6993	549.08
67.7138	567.63
67.7282	556.79
67.7426	603.92
67.7571	583.70
67.7715	555.88
67.7860	582.15
67.8004	601.82
67.8148	557.28
67.8293	566.25
67.8437	581.65
67.8582	610.92
67.8726	615.58
67.8870	553.87
67.9015	570.84
67.9159	544.42
67.9304	592.45
67.9448	606.54
67.9592	582.21
67.9737	585.03
67.9881	530.72
68.0026	548.04
68.0170	549.88
68.0314	570.82
68.0459	568.83
68.0603	570.75
68.0748	564.59
68.0892	591.37
68.1036	546.23
68.1181	583.21
68.1325	568.61
68.1470	580.44
68.1614	594.50
68.1758	548.37
68.1903	541.24
68.2047	526.88
68.2192	567.09
68.2336	602.67
68.2480	588.37
68.2625	589.23
68.2769	570.11
68.2914	515.57
68.3058	557.96
68.3202	553.19
68.3347	567.98
68.3491	581.87
68.3636	563.68
68.3780	583.27
68.3924	545.14
68.4069	584.03
68.4213	547.94
68.4358	552.81
68.4502	545.80
68.4646	589.41
68.4791	574.15
68.4935	595.70
68.5080	546.51
68.5224	583.93
68.5368	561.00
68.5513	584.45
68.5657	554.85
68.5802	539.63
68.5946	557.76
68.6090	538.22
68.6235	579.66
68.6379	572.87
68.6524	539.29
68.6668	578.17
68.6812	565.64
68.6957	530.65
68.7101	619.05
68.7246	582.18
68.7390	579.77
68.7534	579.02
68.7679	565.58
68.7823	565.67
68.7968	553.36
68.8112	578.34
68.8256	581.19
68.8401	548.66
68.8545	567.00
68.8690	595.97
68.8834	579.11
68.8978	588.02
68.9123	563.92
68.9267	589.07
68.9412	587.03
68.9556	566.08
68.9700	588.42
68.9845	586.02
68.9989	597.07
69.0134	589.28
69.0278	569.63
69.0422	571.98
69.0567	531.40
69.0711	539.40
69.0856	547.54
69.1000	603.51
69.1144	619.29
69.1289	558.20
69.1433	553.62
69.1578	564.09
69.1722	597.04
69.1866	601.41
69.2011	599.98
69.2155	545.26
69.2300	548.75
69.2444	581.94
69.2588	553.49
69.2733	592.56
69.2877	585.25
69.3022	580.05
69.3166	511.16
69.3310	575.33
69.3455	623.23
69.3599	605.60
69.3744	597.58
69.3888	526.86
69.4032	539.56
69.4177	515.80
69.4321	577.32
69.4466	546.36
69.4610	566.91
69.4754	553.68
69.4899	565.61
69.5043	562.58
69.5188	550.00
69.5332	572.84
69.5476	588.08
69.5621	599.07
69.5765	577.70
69.5910	555.97
69.6054	558.61
69.6198	533.94
69.6343	564.33
69.6487	629.15
69.6632	536.97
69.6776	557.03
69.6920	563.83
69.7065	620.89
69.7209	593.29
69.7354	564.80
69.7498	597.51
69.7642	557.76
69.7787	563.94
69.7931	533.22
69.8076	577.21
69.8220	557.34
69.8364	577.17
69.8509	539.64
69.8653	554.80
69.8798	542.81
69.8942	549.47
69.9086	563.12
69.9231	586.32
69.9375	611.01
69.9520	605.67
69.9664	556.27
69.9808	535.40
69.9953	623.01
70.0097	620.50
70.0242	584.92
70.0386	518.04
70.0530	536.31
70.0675	563.57
70.0819	544.11
70.0964	599.44
70.1108	553.87
70.1252	547.96
70.1397	606.20
70.1541	568.93
70.1686	584.88
70.1830	594.65
70.1974	561.84
70.2119	613.35
70.2263	584.01
70.2408	599.90
70.2552	554.49
70.2696	541.52
70.2841	593.87
70.2985	529.17
70.3130	578.40
70.3274	532.25
70.3418	556.79
70.3563	586.36
70.3707	580.14
70.3852	616.13
70.3996	530.68
70.4140	498.78
70.4285	566.08
70.4429	536.09
70.4574	555.50
70.4718	587.09
70.4862	559.09
70.5007	561.56
70.5151	583.70
70.5296	553.38
70.5440	560.76
70.5584	638.36
70.5729	571.38
70.5873	530.43
70.6018	523.93
70.6162	557.75
70.6306	533.06
70.6451	599.52
70.6595	622.88
70.6740	527.20
70.6884	553.34
70.7028	606.84
70.7173	572.90
70.7317	627.07
70.7462	574.37
70.7606	568.10
70.7750	596.73
70.7895	565.41
70.8039	585.96
70.8184	604.78
70.8328	592.32
70.8472	587.18
70.8617	641.09
70.8761	636.26
70.8906	538.49
70.9050	561.88
70.9194	585.46
70.9339	586.12
70.9483	645.63
70.9628	689.51
70.9772	568.83
70.9916	552.12
71.0061	503.95
71.0205	554.53
71.0350	601.31
71.0494	583.75
71.0638	557.77
71.0783	559.47
71.0927	625.29
71.1072	592.08
71.1216	561.54
71.1361	539.25
71.1505	557.49
71.1649	638.23
71.1794	626.25
71.1938	592.88
71.2083	588.39
71.2227	569.83
71.2371	593.34
71.2516	573.19
71.2660	542.15
71.2805	515.50
71.2949	559.19
71.3093	562.46
71.3238	631.64
71.3382	623.97
71.3527	580.55
71.3671	574.42
71.3815	560.11
71.3960	556.49
71.4104	536.70
71.4249	522.17
71.4393	512.16
71.4537	566.25
71.4682	597.92
71.4826	553.61
71.4971	552.18
71.5115	566.84
71.5259	537.97
71.5404	560.54
71.5548	622.99
71.5693	596.43
71.5837	535.61
71.5981	556.79
71.6126	555.61
71.6270	561.87
71.6415	559.63
71.6559	626.90
71.6703	608.86
71.6848	523.00
71.6992	587.07
71.7137	600.13
71.7281	568.60
71.7425	561.88
71.7570	557.68
71.7714	576.63
71.7859	539.66
71.8003	521.49
71.8147	570.33
71.8292	593.85
71.8436	556.26
71.8581	528.60
71.8725	572.66
71.8869	553.28
71.9014	576.43
71.9158	590.33
71.9303	572.81
71.9447	577.41
71.9591	572.74
71.9736	550.22
71.9880	529.20
72.0025	577.56
72.0169	551.30
72.0313	541.31
72.0458	571.04
72.0602	555.39
72.0747	605.79
72.0891	656.68
72.1035	621.99
72.1180	593.51
72.1324	539.37
72.1469	498.83
72.1613	532.27
72.1757	606.80
72.1902	605.21
72.2046	539.08
72.2191	508.01
72.2335	527.66
72.2479	548.65
72.2624	592.35
72.2768	609.02
72.2913	604.05
72.3057	580.22
72.3201	625.20
72.3346	634.28
72.3490	596.75
72.3635	636.24
72.3779	653.05
72.3923	626.99
72.4068	656.84
72.4212	618.24
72.4357	608.56
72.4501	547.64
72.4645	590.72
72.4790	563.27
72.4934	466.05
72.5079	539.32
72.5223	590.66
72.5367	583.79
72.5512	600.92
72.5656	506.58
72.5801	514.02
72.5945	583.89
72.6089	544.00
72.6234	517.23
72.6378	522.78
72.6523	576.17
72.6667	562.34
72.6811	545.08
72.6956	546.51
72.7100	568.26
72.7245	596.12
72.7389	601.15
72.7533	589.30
72.7678	650.23
72.7822	658.63
72.7967	588.34
72.8111	559.32
72.8255	560.82
72.8400	525.68
72.8544	559.59
72.8689	575.67
72.8833	497.23

Result vector
22.1120	566.81
22.1264	527.07
22.1409	558.66
22.1553	545.89
22.1697	596.93
22.1842	605.01
22.1986	584.69
22.2131	557.46
22.2275	539.05
22.2419	544.05
22.2564	573.95
22.2708	589.67
22.2853	576.58
22.2997	526.81
22.3141	558.24
22.3286	584.32
22.3430	606.52
22.3575	611.93
22.3719	596.05
22.3863	471.62
22.4008	540.98
22.4152	577.80
22.4297	632.60
22.4441	606.53
22.4585	574.68
22.4730	667.52
22.4874	630.28
22.5019	638.79
22.5163	590.82
22.5307	609.47
22.5452	628.69
22.5596	541.07
22.5741	626.20
22.5885	575.66
22.6029	520.00
22.6174	533.89
22.6318	636.56
22.6463	618.36
22.6607	602.79
22.6751	539.34
22.6896	558.08
22.7040	552.67
22.7185	491.81
22.7329	525.63
22.7473	621.85
22.7618	654.57
22.7762	565.38
22.7907	596.48
22.8051	582.44
22.8195	587.73
22.8340	534.74
22.8484	549.63
22.8629	660.08
22.8773	679.86
22.8917	570.68
22.9062	508.96
22.9206	565.04
22.9351	544.95
22.9495	553.22
22.9639	675.30
22.9784	711.29
22.9928	550.20
23.0073	618.15
23.0217	604.51
23.0361	543.18
23.0506	579.04
23.0650	617.87
23.0795	639.98
23.0939	624.12
23.1083	564.74
23.1228	530.06
23.1372	604.79
23.1517	533.21
23.1661	587.05
23.1806	522.89
23.1950	558.80
23.2094	563.55
23.2239	563.25
23.2383	560.57
23.2528	588.20
23.2672	536.54
23.2816	563.30
23.2961	526.88
23.3105	611.94
23.3250	537.71
23.3394	509.88
23.3538	525.53
23.3683	627.29
23.3827	575.91
23.3972	531.51
23.4116	582.99
23.4260	603.66
23.4405	512.63
23.4549	569.47
23.4694	534.07
23.4838	504.20
23.4982	525.60
23.5127	487.83
23.5271	549.52
23.5416	552.24
23.5560	586.38
23.5704	542.74
23.5849	567.95
23.5993	581.82
23.6138	520.59
23.6282	530.30
23.6426	565.98
23.6571	633.98
23.6715	566.79
23.6860	556.72
23.7004	576.96
23.7148	560.97
23.7293	596.40
23.7437	540.92
23.7582	461.71
23.7726	556.25
23.7870	526.62
23.8015	517.55
23.8159	532.02
23.8304	537.70
23.8448	554.20
23.8592	537.81
23.8737	524.12
23.8881	569.17
23.9026	578.50
23.9170	604.07
23.9314	606.13
23.9459	563.75
23.9603	569.19
23.9748	567.40
23.9892	550.74
24.0036	485.05
24.0181	561.94
24.0325	548.60
24.0470	562.68
24.0614	581.48
24.0758	514.49
24.0903	600.11
24.1047	639.40
24.1192	573.23
24.1336	574.87
24.1480	559.44
24.1625	553.03
24.1769	617.09
24.1914	561.89
24.2058	540.17
24.2202	558.75
24.2347	610.21
24.2491	546.49
24.2636	546.96
24.2780	622.18
24.2924	594.85
24.3069	546.17
24.3213	557.38
24.3358	560.57
24.3502	624.73
24.3646	542.51
24.3791	560.77
24.3935	525.80
24.4080	578.81
24.4224	537.48
24.4368	584.65
24.4513	541.97
24.4657	588.05
24.4802	563.44
24.4946	529.92
24.5090	518.63
24.5235	583.11
24.5379	549.59
24.5524	570.76
24.5668	574.17
24.5812	543.27
24.5957	597.86
24.6101	585.33
24.6246	564.06
24.6390	560.72
24.6534	570.42
24.6679	554.20
24.6823	530.60
24.6968	540.91
24.7112	578.08
24.7256	493.54
24.7401	529.38
24.7545	537.94
24.7690	507.13
24.7834	580.78
24.7978	535.64
24.8123	567.78
24.8267	562.88
24.8412	567.49
24.8556	521.13
24.8700	525.26
24.8845	503.22
24.8989	524.42
24.9134	551.03
24.9278	492.83
24.9422	519.76
24.9567	532.45
24.9711	533.67
24.9856	541.48
25.0000	536.89
25.0144	546.63
25.0289	530.06
25.0433	541.05
25.0578	538.67
25.0722	497.81
25.0866	503.47
25.1011	571.26
25.1155	522.22
25.1300	559.52
25.1444	510.12
25.1588	524.32
25.1733	530.23
25.1877	544.25
25.2022	526.61
25.2166	543.57
25.2310	527.67
25.2455	519.82
25.2599	593.95
25.2744	524.79
25.2888	550.71
25.3032	576.15
25.3177	569.35
25.3321	512.74
25.3466	525.28
25.3610	567.15
25.3754	505.49
25.3899	541.19
25.4043	553.00
25.4188	551.75
25.4332	534.10
25.4476	542.10
25.4621	549.79
25.4765	548.51
25.4910	555.03
25.5054	536.54
25.5198	554.37
25.5343	570.18
25.5487	573.94
25.5632	576.07
25.5776	508.42
25.5920	520.28
25.6065	546.74
25.6209	573.08
25.6354	569.12
25.6498	574.83
25.6642	477.23
25.6787	489.25
25.6931	542.79
25.7076	537.68
25.7220	566.98
25.7364	550.95
25.7509	583.46
25.7653	560.34
25.7798	552.47
25.7942	554.65
25.8086	545.84
25.8231	553.98
25.8375	555.22
25.8520	534.13
25.8664	544.83
25.8808	565.77
25.8953	572.68
25.9097	555.91
25.9242	534.22
25.9386	508.30
25.9530	521.89
25.9675	515.75
25.9819	524.94
25.9964	505.80
26.0108	514.51
26.0252	546.81
26.0397	532.05
26.0541	524.85
26.0686	543.84
26.0830	541.30
26.0974	532.00
26.1119	558.77
26.1263	564.89
26.1408	523.53
26.1552	504.26
26.1696	538.11
26.1841	550.44
26.1985	544.46
26.2130	531.51
26.2274	518.79
26.2418	509.25
26.2563	523.28
26.2707	534.54
26.2852	523.50
26.2996	527.13
26.3140	524.61
26.3285	547.25
26.3429	547.56
26.3574	538.27
26.3718	525.54
26.3862	501.90
26.4007	490.11
26.4151	510.42
26.4296	530.41
26.4440	517.99
26.4584	540.49
26.4729	520.45
26.4873	541.72
26.5018	529.21
26.5162	537.89
26.5306	538.80
26.5451	487.18
26.5595	517.63
26.5740	541.58
26.5884	507.92
26.6028	518.25
26.6173	539.75
26.6317	538.34
26.6462	561.52
26.6606	541.96
26.6750	511.59
26.6895	509.36
26.7039	545.12
26.7184	533.78
26.7328	498.78
26.7472	505.09
26.7617	514.73
26.7761	507.50
26.7906	531.01
26.8050	525.54
26.8194	513.69
26.8339	515.45
26.8483	525.90
26.8628	518.21
26.8772	518.77
26.8917	518.14
26.9061	535.26
26.9205	525.88
26.9350	489.44
26.9494	508.19
26.9639	503.11
26.9783	501.21
26.9927	492.30
27.0072	515.06
27.0216	548.84
27.0361	533.53
27.0505	505.05
27.0649	495.55
27.0794	499.68
27.0938	538.73
27.1083	528.31
27.1227	529.07
27.1371	501.42
27.1516	496.45
27.1660	533.03
27.1805	544.85
27.1949	533.08
27.2093	567.33
27.2238	508.10
27.2382	553.48
27.2527	560.05
27.2671	535.75
27.2815	537.91
27.2960	506.45
27.3104	511.77
27.3249	545.07
27.3393	535.13
27.3537	527.64
27.3682	522.53
27.3826	514.19
27.3971	501.74
27.4115	533.84
27.4259	529.79
27.4404	504.77
27.4548	495.42
27.4693	496.89
27.4837	492.63
27.4981	533.79
27.5126	531.83
27.5270	543.19
27.5415	508.58
27.5559	510.99
27.5703	509.88
27.5848	486.92
27.5992	471.00
27.6137	508.16
27.6281	529.57
27.6425	514.74
27.6570	521.72
27.6714	505.04
27.6859	479.62
27.7003	509.15
27.7147	531.39
27.7292	512.13
27.7436	510.20
27.7581	522.56
27.7725	486.24
27.7869	496.03
27.8014	521.21
27.8158	518.02
27.8303	513.44
27.8447	484.89
27.8591	490.56
27.8736	520.59
27.8880	522.27
27.9025	529.74
27.9169	488.14
27.9313	513.91
27.9458	505.19
27.9602	511.70
27.9747	505.65
27.9891	527.28
28.0035	502.75
28.0180	482.56
28.0324	481.69
28.0469	459.77
28.0613	518.84
28.0757	507.47
28.0902	506.94
28.1046	514.32
28.1191	515.64
28.1335	519.66
28.1479	511.56
28.1624	523.79
28.1768	499.35
28.1913	503.04
28.2057	482.92
28.2201	524.09
28.2346	521.24
28.2490	536.78
28.2635	520.50
28.2779	497.99
28.2923	494.36
28.3068	507.63
28.3212	523.81
28.3357	524.67
28.3501	539.25
28.3645	525.80
28.3790	507.70
28.3934	493.46
28.4079	498.08
28.4223	508.08
28.4367	501.58
28.4512	504.56
28.4656	514.69
28.4801	504.19
28.4945	491.28
28.5089	494.84
28.5234	512.23
28.5378	528.27
28.5523	502.70
28.5667	514.00
28.5811	521.36
28.5956	478.57
28.6100	533.29
28.6245	523.93
28.6389	506.77
28.6533	504.70
28.6678	516.25
28.6822	470.51
28.6967	481.67
28.7111	505.45
28.7255	510.78
28.7400	497.12
28.7544	483.24
28.7689	487.08
28.7833	479.57
28.7977	463.78
28.8122	515.75
28.8266	544.53
28.8411	533.26
28.8555	513.51
28.8699	505.67
28.8844	521.62
28.8988	474.56
28.9133	558.45
28.9277	508.67
28.9421	553.46
28.9566	493.14
28.9710	490.16
28.9855	492.68
28.9999	478.19
29.0143	463.46
29.0288	481.85
29.0432	507.79
29.0577	467.62
29.0721	530.73
29.0865	502.98
29.1010	520.29
29.1154	523.44
29.1299	535.52
29.1443	508.96
29.1587	493.01
29.1732	508.48
29.1876	514.42
29.2021	488.13
29.2165	469.12
29.2309	470.46
29.2454	533.05
29.2598	473.72
29.2743	501.92
29.2887	518.01
29.3031	491.06
29.3176	509.03
29.3320	492.98
29.3465	495.08
29.3609	496.71
29.3753	485.82
29.3898	492.76
29.4042	509.96
29.4187	532.38
29.4331	525.04
29.4475	506.50
29.4620	521.17
29.4764	561.41
29.4909	505.62
29.5053	504.00
29.5197	527.59
29.5342	500.34
29.5486	518.46
29.5631	504.25
29.5775	513.69
29.5919	522.12
29.6064	510.87
29.6208	503.37
29.6353	489.85
29.6497	490.94
29.6641	493.40
29.6786	492.06
29.6930	489.75
29.7075	505.04
29.7219	492.74
29.7363	490.84
29.7508	502.14
29.7652	518.79
29.7797	520.81
29.7941	504.12
29.8085	485.48
29.8230	498.26
29.8374	503.53
29.8519	503.19
29.8663	534.96
29.8807	508.57
29.8952	520.48
29.9096	530.37
29.9241	521.72
29.9385	501.20
29.9529	498.45
29.9674	519.29
29.9818	534.08
29.9963	512.21
30.0107	515.31
30.0251	513.66
30.0396	496.47
30.0540	508.75
30.0685	519.02
30.0829	510.12
30.0973	504.80
30.1118	519.31
30.1262	537.08
30.1407	509.94
30.1551	534.99
30.1695	526.73
30.1840	508.53
30.1984	494.66
30.2129	496.09
30.2273	484.10
30.2417	533.78
30.2562	525.95
30.2706	524.42
30.2851	555.74
30.2995	513.51
30.3139	495.03
30.3284	515.43
30.3428	497.11
30.3573	526.74
30.3717	530.95
30.3861	503.20
30.4006	514.45
30.4150	539.62
30.4295	529.98
30.4439	530.58
30.4583	559.69
30.4728	558.31
30.4872	557.05
30.5017	621.77
30.5161	656.14
30.5305	665.54
30.5450	707.55
30.5594	733.78
30.5739	749.28
30.5883	786.26
30.6028	754.55
30.6172	719.43
30.6316	719.90
30.6461	732.46
30.6605	676.96
30.6750	660.40
30.6894	601.93
30.7038	575.06
30.7183	580.34
30.7327	585.65
30.7472	557.61
30.7616	537.11
30.7760	550.20
30.7905	558.00
30.8049	542.25
30.8194	545.17
30.8338	546.47
30.8482	508.35
30.8627	533.10
30.8771	498.67
30.8916	484.48
30.9060	492.24
30.9204	499.99
30.9349	533.69
30.9493	513.48
30.9638	504.39
30.9782	503.31
30.9926	508.67
31.0071	521.67
31.0215	496.83
31.0360	491.76
31.0504	512.31
31.0648	553.65
31.0793	503.17
31.0937	498.75
31.1082	518.50
31.1226	526.42
31.1370	538.68
31.1515	532.77
31.1659	551.20
31.1804	527.48
31.1948	512.40
31.2092	530.40
31.2237	493.93
31.2381	495.51
31.2526	519.51
31.2670	477.76
31.2814	528.42
31.2959	523.17
31.3103	553.49
31.3248	541.07
31.3392	528.11
31.3536	540.06
31.3681	525.80
31.3825	505.01
31.3970	520.78
31.4114	509.62
31.4258	517.09
31.4403	500.62
31.4547	486.36
31.4692	525.23
31.4836	529.30
31.4980	507.81
31.5125	474.69
31.5269	496.28
31.5414	506.02
31.5558	509.82
31.5702	481.33
31.5847	493.73
31.5991	492.67
31.6136	509.46
31.6280	488.65
31.6424	471.67
31.6569	480.06
31.6713	504.38
31.6858	499.57
31.7002	514.74
31.7146	520.87
31.7291	500.93
31.7435	506.28
31.7580	508.68
31.7724	468.04
31.7868	502.49
31.8013	463.57
31.8157	512.56
31.8302	512.47
31.8446	480.29
31.8590	493.19
31.8735	518.20
31.8879	485.11
31.9024	506.33
31.9168	515.91
31.9312	479.85
31.9457	539.87
31.9601	492.10
31.9746	511.76
31.9890	523.43
32.0034	494.42
32.0179	474.45
32.0323	491.52
32.0468	506.00
32.0612	500.67
32.0756	512.08
32.0901	521.95
32.1045	500.54
32.1190	464.17
32.1334	489.00
32.1478	481.39
32.1623	507.13
32.1767	505.64
32.1912	508.44
32.2056	487.16
32.2200	497.74
32.2345	516.04
32.2489	489.90
32.2634	454.39
32.2778	502.06
32.2922	511.94
32.3067	501.46
32.3211	499.34
32.3356	499.31
32.3500	485.89
32.3644	486.74
32.3789	509.59
32.3933	513.49
32.4078	487.96
32.4222	516.39
32.4366	485.22
32.4511	491.41
32.4655	520.76
32.4800	518.77
32.4944	518.85
32.5088	498.94
32.5233	516.34
32.5377	508.78
32.5522	507.81
32.5666	509.27
32.5810	502.02
32.5955	529.65
32.6099	536.38
32.6244	497.06
32.6388	503.86
32.6532	501.83
32.6677	481.31
32.6821	498.07
32.6966	487.12
32.7110	510.59
32.7254	486.74
32.7399	497.35
32.7543	499.37
32.7688	488.23
32.7832	528.62
32.7976	482.25
32.8121	516.41
32.8265	509.35
32.8410	516.05
32.8554	509.08
32.8698	516.74
32.8843	519.25
32.8987	492.73
32.9132	513.03
32.9276	518.55
32.9420	509.79
32.9565	506.41
32.9709	491.19
32.9854	455.34
32.9998	512.79
33.0142	529.97
33.0287	504.36
33.0431	506.92
33.0576	526.46
33.0720	535.91
33.0864	481.17
33.1009	491.24
33.1153	507.40
33.1298	475.89
33.1442	484.26
33.1586	495.64
33.1731	499.64
33.1875	490.00
33.2020	503.25
33.2164	537.58
33.2308	487.33
33.2453	533.20
33.2597	499.49
33.2742	507.65
33.2886	494.75
33.3030	525.75
33.3175	479.20
33.3319	524.13
33.3464	474.74
33.3608	471.48
33.3752	474.79
33.3897	512.51
33.4041	497.70
33.4186	480.41
33.4330	518.72
33.4474	494.97
33.4619	503.92
33.4763	525.46
33.4908	504.51
33.5052	490.67
33.5196	490.59
33.5341	526.43
33.5485	515.50
33.5630	521.99
33.5774	484.74
33.5918	506.05
33.6063	488.02
33.6207	490.85
33.6352	476.69
33.6496	468.48
33.6640	530.81
33.6785	496.91
33.6929	507.76
33.7074	496.55
33.7218	499.15
33.7362	485.29
33.7507	521.06
33.7651	493.59
33.7796	511.69
33.7940	540.91
33.8084	505.97
33.8229	509.54
33.8373	496.52
33.8518	473.15
33.8662	493.59
33.8806	509.03
33.8951	471.59
33.9095	532.54
33.9240	527.33
33.9384	518.92
33.9528	512.40
33.9673	506.81
33.9817	492.91
33.9962	469.62
34.0106	479.62
34.0250	514.76
34.0395	501.96
34.0539	500.88
34.0684	502.39
34.0828	498.32
34.0972	510.15
34.1117	535.74
34.1261	493.03
34.1406	522.25
34.1550	465.78
34.1694	453.38
34.1839	486.13
34.1983	495.37
34.2128	513.19
34.2272	511.65
34.2417	488.61
34.2561	499.84
34.2705	479.86
34.2850	511.14
34.2994	518.25
34.3139	520.53
34.3283	537.82
34.3427	550.51
34.3572	529.44
34.3716	517.11
34.3861	517.71
34.4005	484.93
34.4149	485.35
34.4294	490.81
34.4438	508.58
34.4583	492.23
34.4727	497.77
34.4871	489.20
34.5016	509.54
34.5160	492.99
34.5305	479.82
34.5449	493.64
34.5593	494.89
34.5738	476.82
34.5882	514.66
34.6027	502.62
34.6171	466.83
34.6315	506.05
34.6460	517.78
34.6604	490.03
34.6749	492.71
34.6893	478.99
34.7037	490.51
34.7182	517.00
34.7326	520.19
34.7471	515.69
34.7615	503.56
34.7759	520.49
34.7904	498.14
34.8048	498.12
34.8193	520.49
34.8337	564.98
34.8481	497.91
34.8626	490.77
34.8770	494.66
34.8915	518.51
34.9059	510.52
34.9203	503.76
34.9348	514.76
34.9492	515.79
34.9637	471.87
34.9781	489.10
34.9925	521.43
35.0070	513.31
35.0214	495.69
35.0359	508.74
35.0503	527.35
35.0647	527.03
35.0792	512.22
35.0936	508.42
35.1081	526.24
35.1225	548.34
35.1369	504.70
35.1514	478.20
35.1658	509.53
35.1803	505.56
35.1947	498.97
35.2091	505.48
35.2236	514.72
35.2380	507.75
35.2525	507.20
35.2669	507.99
35.2813	534.53
35.2958	485.25
35.3102	488.65
35.3247	537.74
35.3391	543.23
35.3535	526.03
35.3680	518.22
35.3824	507.28
35.3969	503.55
35.4113	525.43
35.4257	566.36
35.4402	506.29
35.4546	547.71
35.4691	560.10
35.4835	571.08
35.4979	508.16
35.5124	546.94
35.5268	553.51
35.5413	542.55
35.5557	549.57
35.5701	518.91
35.5846	524.78
35.5990	516.97
35.6135	508.07
35.6279	512.38
35.6423	557.08
35.6568	542.92
35.6712	545.86
35.6857	585.83
35.7001	707.45
35.7145	747.53
35.7290	699.77
35.7434	631.42
35.7579	620.15
35.7723	641.58
35.7867	731.77
35.8012	733.01
35.8156	758.98
35.8301	752.75
35.8445	672.44
35.8589	744.08
35.8734	813.44
35.8878	911.82
35.9023	1098.04
35.9167	1160.82
35.9311	1277.73
35.9456	1612.25
35.9600	2082.88
35.9745	2139.85
35.9889	2422.90
36.0033	2823.57
36.0178	3205.76
36.0322	3173.01
36.0467	2642.55
36.0611	2205.89
36.0755	2061.28
36.0900	2225.72
36.1044	1746.26
36.1189	1543.00
36.1333	1415.08
36.1477	1146.00
36.1622	1049.22
36.1766	980.65
36.1911	845.22
36.2055	745.46
36.2199	746.52
36.2344	754.84
36.2488	646.81
36.2633	588.28
36.2777	566.26
36.2921	559.47
36.3066	555.41
36.3210	556.56
36.3355	548.69
36.3499	572.08
36.3643	543.03
36.3788	526.43
36.3932	511.87
36.4077	532.61
36.4221	541.65
36.4365	546.11
36.4510	541.00
36.4654	559.60
36.4799	559.44
36.4943	556.48
36.5087	526.42
36.5232	540.60
36.5376	523.80
36.5521	555.18
36.5665	538.13
36.5809	503.29
36.5954	541.55
36.6098	530.18
36.6243	529.46
36.6387	529.02
36.6531	539.40
36.6676	521.84
36.6820	538.84
36.6965	559.33
36.7109	527.66
36.7253	516.90
36.7398	533.74
36.7542	541.85
36.7687	502.86
36.7831	538.16
36.7975	541.24
36.8120	590.83
36.8264	587.49
36.8409	573.42
36.8553	607.06
36.8697	613.02
36.8842	623.73
36.8986	589.45
36.9131	626.94
36.9275	544.24
36.9419	542.77
36.9564	562.24
36.9708	581.52
36.9853	573.69
36.9997	510.05
37.0141	529.63
37.0286	573.75
37.0430	542.52
37.0575	521.29
37.0719	543.48
37.0863	544.80
37.1008	546.66
37.1152	497.53
37.1297	503.66
37.1441	480.63
37.1585	488.60
37.1730	500.78
37.1874	485.65
37.2019	500.41
37.2163	501.35
37.2307	495.88
37.2452	511.08
37.2596	516.68
37.2741	484.79
37.2885	501.22
37.3029	511.27
37.3174	497.66
37.3318	487.08
37.3463	525.16
37.3607	513.69
37.3751	482.00
37.3896	474.73
37.4040	494.26
37.4185	490.21
37.4329	501.50
37.4473	500.86
37.4618	547.32
37.4762	500.12
37.4907	531.21
37.5051	511.88
37.5195	479.86
37.5340	535.01
37.5484	492.18
37.5629	497.38
37.5773	486.77
37.5917	515.69
37.6062	514.62
37.6206	485.64
37.6351	523.09
37.6495	506.39
37.6639	503.16
37.6784	495.33
37.6928	492.96
37.7073	482.25
37.7217	497.29
37.7361	483.44
37.7506	536.15
37.7650	524.45
37.7795	543.62
37.7939	518.60
37.8083	504.69
37.8228	492.46
37.8372	504.93
37.8517	491.33
37.8661	524.41
37.8805	503.43
37.8950	481.63
37.9094	502.28
37.9239	529.90
37.9383	504.51
37.9528	513.94
37.9672	489.36
37.9816	488.72
37.9961	490.08
38.0105	491.55
38.0250	499.79
38.0394	466.98
38.0538	526.71
38.0683	525.07
38.0827	486.47
38.0972	497.34
38.1116	508.89
38.1260	521.93
38.1405	513.00
38.1549	491.03
38.1694	508.21
38.1838	469.47
38.1982	483.70
38.2127	487.56
38.2271	529.90
38.2416	522.45
38.2560	513.42
38.2704	486.93
38.2849	506.11
38.2993	534.40
38.3138	539.82
38.3282	560.96
38.3426	512.73
38.3571	526.79
38.3715	514.92
38.3860	531.01
38.4004	537.80
38.4148	532.56
38.4293	552.66
38.4437	546.52
38.4582	591.06
38.4726	637.28
38.4870	724.37
38.5015	768.62
38.5159	793.32
38.5304	819.27
38.5448	806.93
38.5592	782.52
38.5737	742.53
38.5881	747.13
38.6026	730.88
38.6170	681.64
38.6314	657.17
38.6459	649.77
38.6603	623.03
38.6748	610.75
38.6892	598.72
38.7036	570.52
38.7181	539.27
38.7325	490.72
38.7470	524.66
38.7614	508.70
38.7758	504.48
38.7903	528.64
38.8047	526.11
38.8192	493.22
38.8336	507.38
38.8480	489.13
38.8625	513.15
38.8769	508.23
38.8914	486.31
38.9058	525.87
38.9202	541.30
38.9347	506.12
38.9491	506.92
38.9636	511.28
38.9780	497.99
38.9924	508.47
39.0069	497.47
39.0213	487.84
39.0358	474.62
39.0502	497.58
39.0646	510.94
39.0791	490.63
39.0935	508.54
39.1080	520.69
39.1224	521.20
39.1368	519.65
39.1513	513.94
39.1657	505.19
39.1802	522.19
39.1946	506.17
39.2090	529.63
39.2235	512.63
39.2379	498.68
39.2524	490.56
39.2668	501.10
39.2812	507.07
39.2957	516.05
39.3101	531.85
39.3246	503.87
39.3390	538.91
39.3534	527.27
39.3679	518.45
39.3823	453.35
39.3968	459.61
39.4112	472.82
39.4256	507.81
39.4401	488.08
39.4545	472.90
39.4690	506.16
39.4834	531.57
39.4978	509.02
39.5123	494.62
39.5267	524.62
39.5412	515.18
39.5556	507.77
39.5700	471.02
39.5845	484.91
39.5989	469.37
39.6134	513.09
39.6278	524.33
39.6422	490.52
39.6567	496.40
39.6711	467.58
39.6856	473.32
39.7000	498.76
39.7144	494.59
39.7289	476.93
39.7433	464.93
39.7578	505.96
39.7722	505.31
39.7866	496.32
39.8011	492.76
39.8155	490.39
39.8300	513.23
39.8444	499.21
39.8588	531.07
39.8733	525.57
39.8877	513.94
39.9022	491.83
39.9166	491.93
39.9310	503.04
39.9455	516.43
39.9599	475.24
39.9744	451.79
39.9888	475.63
40.0032	495.69
40.0177	464.53
40.0321	533.40
40.0466	470.46
40.0610	527.44
40.0754	484.07
40.0899	499.22
40.1043	497.31
40.1188	474.38
40.1332	469.94
40.1476	465.83
40.1621	472.34
40.1765	491.31
40.1910	509.89
40.2054	478.63
40.2198	502.80
40.2343	500.01
40.2487	485.70
40.2632	491.46
40.2776	512.78
40.2920	484.59
40.3065	461.40
40.3209	463.28
40.3354	488.25
40.3498	478.39
40.3642	476.39
40.3787	486.02
40.3931	482.42
40.4076	452.13
40.4220	547.02
40.4364	506.92
40.4509	478.69
40.4653	494.71
40.4798	502.68
40.4942	493.68
40.5086	471.85
40.5231	506.96
40.5375	527.68
40.5520	491.70
40.5664	471.20
40.5808	496.71
40.5953	511.31
40.6097	467.10
40.6242	479.26
40.6386	545.29
40.6530	512.92
40.6675	502.02
40.6819	489.05
40.6964	495.25
40.7108	517.30
40.7252	480.62
40.7397	487.16
40.7541	502.34
40.7686	487.09
40.7830	468.88
40.7974	477.54
40.8119	512.63
40.8263	497.27
40.8408	510.77
40.8552	464.54
40.8696	494.93
40.8841	484.86
40.8985	510.16
40.9130	510.46
40.9274	485.02
40.9418	535.64
40.9563	526.16
40.9707	505.47
40.9852	455.48
40.9996	466.35
41.0140	488.31
41.0285	508.39
41.0429	486.26
41.0574	507.87
41.0718	488.74
41.0862	492.51
41.1007	478.47
41.1151	482.29
41.1296	493.56
41.1440	470.85
41.1584	471.22
41.1729	491.26
41.1873	507.57
41.2018	492.32
41.2162	496.51
41.2306	493.71
41.2451	483.49
41.2595	504.46
41.2740	507.89
41.2884	514.80
41.3028	478.86
41.3173	462.76
41.3317	473.72
41.3462	507.13
41.3606	503.65
41.3750	487.52
41.3895	521.10
41.4039	522.07
41.4184	493.13
41.4328	511.32
41.4472	521.70
41.4617	477.83
41.4761	502.93
41.4906	482.22
41.5050	545.92
41.5194	511.26
41.5339	487.14
41.5483	519.71
41.5628	504.73
41.5772	490.52
41.5916	507.52
41.6061	486.01
41.6205	510.14
41.6350	471.90
41.6494	531.85
41.6639	514.36
41.6783	489.40
41.6927	488.80
41.7072	483.83
41.7216	479.12
41.7361	479.90
41.7505	480.32
41.7649	510.51
41.7794	503.48
41.7938	521.43
41.8083	471.90
41.8227	514.69
41.8371	508.49
41.8516	502.07
41.8660	522.32
41.8805	534.23
41.8949	537.00
41.9093	562.30
41.9238	573.91
41.9382	566.10
41.9527	578.29
41.9671	577.16
41.9815	575.87
41.9960	571.24
42.0104	580.40
42.0249	592.49
42.0393	562.16
42.0537	598.18
42.0682	581.37
42.0826	604.08
42.0971	585.68
42.1115	575.01
42.1259	613.08
42.1404	613.29
42.1548	587.86
42.1693	673.33
42.1837	719.17
42.1981	731.77
42.2126	784.39
42.2270	931.17
42.2415	1086.35
42.2559	1252.61
42.2703	1318.52
42.2848	1541.79
42.2992	1655.28
42.3137	1738.89
42.3281	1703.53
42.3425	1670.14
42.3570	1486.22
42.3714	1443.58
42.3859	1364.96
42.4003	1319.52
42.4147	1326.87
42.4292	1331.88
42.4436	1172.49
42.4581	1061.55
42.4725	953.57
42.4869	855.80
42.5014	755.12
42.5158	706.74
42.5303	660.46
42.5447	592.01
42.5591	596.48
42.5736	612.79
42.5880	600.80
42.6025	570.70
42.6169	554.91
42.6313	585.09
42.6458	575.46
42.6602	517.69
42.6747	500.44
42.6891	534.86
42.7035	559.02
42.7180	551.77
42.7324	522.21
42.7469	516.62
42.7613	495.22
42.7757	523.88
42.7902	516.82
42.8046	508.68
42.8191	510.05
42.8335	508.93
42.8479	489.78
42.8624	527.01
42.8768	491.84
42.8913	490.18
42.9057	500.09
42.9201	526.37
42.9346	507.59
42.9490	510.56
42.9635	543.96
42.9779	526.62
42.9923	508.41
43.0068	513.49
43.0212	495.34
43.0357	516.84
43.0501	493.20
43.0645	501.93
43.0790	512.01
43.0934	528.43
43.1079	517.87
43.1223	519.45
43.1367	499.43
43.1512	505.77
43.1656	512.22
43.1801	506.13
43.1945	539.57
43.2089	547.15
43.2234	520.89
43.2378	534.11
43.2523	516.43
43.2667	509.57
43.2811	496.09
43.2956	525.62
43.3100	525.78
43.3245	548.40
43.3389	545.14
43.3533	552.11
43.3678	553.94
43.3822	527.69
43.3967	509.64
43.4111	494.33
43.4255	544.40
43.4400	553.89
43.4544	521.15
43.4689	532.82
43.4833	501.39
43.4977	511.66
43.5122	536.98
43.5266	524.88
43.5411	499.64
43.5555	500.63
43.5699	509.81
43.5844	529.97
43.5988	515.91
43.6133	525.45
43.6277	543.34
43.6421	536.64
43.6566	534.62
43.6710	566.88
43.6855	579.91
43.6999	584.64
43.7143	590.22
43.7288	622.84
43.7432	604.63
43.7577	639.05
43.7721	659.42
43.7865	679.88
43.8010	644.83
43.8154	629.86
43.8299	641.03
43.8443	574.57
43.8587	637.57
43.8732	609.75
43.8876	590.34
43.9021	634.74
43.9165	555.31
43.9309	597.23
43.9454	544.01
43.9598	507.44
43.9743	516.79
43.9887	549.00
44.0031	485.03
44.0176	516.28
44.0320	494.17
44.0465	504.95
44.0609	551.09
44.0753	490.51
44.0898	524.81
44.1042	540.44
44.1187	531.29
44.1331	523.66
44.1475	512.07
44.1620	471.37
44.1764	519.22
44.1909	489.05
44.2053	502.68
44.2197	526.97
44.2342	537.37
44.2486	524.65
44.2631	521.43
44.2775	523.09
44.2919	504.44
44.3064	517.43
44.3208	507.14
44.3353	501.61
44.3497	533.25
44.3641	525.93
44.3786	516.83
44.3930	546.86
44.4075	569.38
44.4219	552.14
44.4363	571.67
44.4508	564.18
44.4652	606.09
44.4797	561.72
44.4941	577.66
44.5085	566.38
44.5230	556.04
44.5374	592.80
44.5519	552.90
44.5663	570.75
44.5807	584.26
44.5952	560.47
44.6096	569.43
44.6241	577.60
44.6385	583.64
44.6529	571.60
44.6674	548.45
44.6818	581.19
44.6963	647.12
44.7107	642.25
44.7251	681.81
44.7396	715.82
44.7540	782.35
44.7685	802.53
44.7829	861.95
44.7973	885.41
44.8118	821.25
44.8262	781.33
44.8407	769.18
44.8551	781.89
44.8695	756.27
44.8840	719.83
44.8984	740.59
44.9129	718.09
44.9273	706.02
44.9417	708.58
44.9562	642.10
44.9706	571.25
44.9851	543.70
44.9995	563.61
45.0139	498.11
45.0284	492.30
45.0428	534.33
45.0573	529.02
45.0717	526.35
45.0861	544.70
45.1006	515.01
45.1150	514.54
45.1295	525.20
45.1439	537.00
45.1583	472.57
45.1728	494.01
45.1872	478.69
45.2017	464.31
45.2161	521.53
45.2305	497.07
45.2450	535.00
45.2594	515.65
45.2739	543.43
45.2883	504.44
45.3028	496.40
45.3172	519.42
45.3316	516.21
45.3461	500.31
45.3605	507.84
45.3750	486.87
45.3894	516.49
45.4038	532.81
45.4183	523.90
45.4327	527.71
45.4472	499.16
45.4616	484.05
45.4760	473.33
45.4905	464.94
45.5049	470.06
45.5194	510.33
45.5338	491.73
45.5482	493.13
45.5627	514.74
45.5771	492.02
45.5916	516.17
45.6060	505.96
45.6204	463.91
45.6349	510.87
45.6493	471.72
45.6638	489.69
45.6782	514.88
45.6926	484.25
45.7071	514.00
45.7215	536.80
45.7360	509.15
45.7504	551.25
45.7648	512.96
45.7793	518.57
45.7937	478.20
45.8082	508.52
45.8226	479.71
45.8370	496.63
45.8515	499.46
45.8659	522.64
45.8804	505.91
45.8948	495.90
45.9092	505.10
45.9237	478.98
45.9381	523.92
45.9526	519.01
45.9670	531.12
45.9814	501.72
45.9959	500.12
46.0103	513.25
46.0248	488.63
46.0392	489.46
46.0536	510.26
46.0681	507.82
46.0825	515.41
46.0970	525.98
46.1114	544.58
46.1258	531.47
46.1403	506.88
46.1547	509.93
46.1692	528.79
46.1836	536.86
46.1980	510.24
46.2125	504.81
46.2269	511.10
46.2414	515.62
46.2558	500.75
46.2702	481.12
46.2847	464.54
46.2991	498.76
46.3136	508.28
46.3280	502.40
46.3424	525.42
46.3569	511.51
46.3713	501.20
46.3858	489.62
46.4002	511.79
46.4146	504.65
46.4291	505.86
46.4435	479.16
46.4580	470.75
46.4724	473.20
46.4868	473.96
46.5013	502.99
46.5157	490.05
46.5302	501.67
46.5446	488.82
46.5590	490.82
46.5735	468.05
46.5879	463.69
46.6024	479.48
46.6168	476.07
46.6312	485.47
46.6457	521.49
46.6601	517.38
46.6746	503.31
46.6890	491.79
46.7034	495.89
46.7179	495.79
46.7323	489.24
46.7468	491.92
46.7612	498.46
46.7756	525.31
46.7901	499.26
46.8045	506.61
46.8190	489.12
46.8334	495.39
46.8478	465.08
46.8623	507.35
46.8767	531.75
46.8912	472.68
46.9056	495.62
46.9200	509.66
46.9345	483.04
46.9489	486.48
46.9634	489.31
46.9778	481.30
46.9922	502.74
47.0067	497.40
47.0211	492.64
47.0356	493.61
47.0500	487.12
47.0644	503.41
47.0789	506.84
47.0933	527.45
47.1078	515.74
47.1222	508.91
47.1366	498.03
47.1511	498.03
47.1655	486.81
47.1800	483.68
47.1944	454.28
47.2088	501.91
47.2233	494.84
47.2377	521.65
47.2522	526.56
47.2666	493.52
47.2810	513.70
47.2955	493.04
47.3099	484.53
47.3244	483.57
47.3388	524.78
47.3532	513.43
47.3677	492.91
47.3821	480.41
47.3966	499.25
47.4110	472.58
47.4254	518.16
47.4399	495.80
47.4543	478.24
47.4688	549.02
47.4832	525.12
47.4976	495.89
47.5121	494.71
47.5265	500.39
47.5410	503.04
47.5554	520.91
47.5698	500.86
47.5843	522.17
47.5987	507.94
47.6132	493.18
47.6276	481.34
47.6420	506.48
47.6565	511.81
47.6709	481.99
47.6854	486.51
47.6998	522.95
47.7142	498.99
47.7287	511.07
47.7431	502.38
47.7576	487.55
47.7720	516.32
47.7864	525.29
47.8009	490.27
47.8153	544.19
47.8298	504.24
47.8442	483.48
47.8586	532.69
47.8731	519.14
47.8875	493.40
47.9020	509.02
47.9164	489.99
47.9308	505.74
47.9453	536.94
47.9597	508.85
47.9742	489.30
47.9886	501.00
48.0030	501.46
48.0175	521.68
48.0319	515.09
48.0464	491.54
48.0608	519.09
48.0752	509.83
48.0897	505.79
48.1041	543.83
48.1186	514.76
48.1330	499.10
48.1474	501.64
48.1619	504.01
48.1763	520.77
48.1908	512.17
48.2052	467.74
48.2196	500.75
48.2341	543.49
48.2485	502.13
48.2630	531.80
48.2774	503.18
48.2918	497.09
48.3063	491.18
48.3207	508.06
48.3352	482.68
48.3496	517.39
48.3640	479.78
48.3785	487.57
48.3929	470.37
48.4074	499.65
48.4218	522.23
48.4362	522.72
48.4507	522.95
48.4651	525.33
48.4796	542.51
48.4940	533.78
48.5084	512.32
48.5229	509.97
48.5373	506.71
48.5518	522.79
48.5662	493.58
48.5806	489.67
48.5951	527.54
48.6095	544.27
48.6240	516.97
48.6384	515.63
48.6528	489.14
48.6673	499.94
48.6817	501.82
48.6962	512.28
48.7106	538.36
48.7250	518.75
48.7395	523.88
48.7539	539.96
48.7684	496.52
48.7828	522.82
48.7972	521.65
48.8117	573.92
48.8261	582.02
48.8406	506.43
48.8550	541.09
48.8694	537.50
48.8839	570.71
48.8983	585.34
48.9128	563.21
48.9272	543.73
48.9416	550.37
48.9561	527.13
48.9705	539.55
48.9850	546.99
48.9994	567.74
49.0139	586.16
49.0283	598.92
49.0427	612.43
49.0572	616.87
49.0716	679.14
49.0861	696.18
49.1005	716.72
49.1149	653.22
49.1294	744.89
49.1438	759.42
49.1583	833.88
49.1727	866.07
49.1871	898.05
49.2016	994.12
49.2160	1021.96
49.2305	1126.13
49.2449	1226.62
49.2593	1318.60
49.2738	1395.12
49.2882	1514.21
49.3027	1540.92
49.3171	1680.27
49.3315	1775.24
49.3460	1881.05
49.3604	1854.19
49.3749	1892.36
49.3893	1806.21
49.4037	1777.25
49.4182	1727.12
49.4326	1747.36
49.4471	1745.82
49.4615	1653.39
49.4759	1581.65
49.4904	1485.70
49.5048	1430.45
49.5193	1324.82
49.5337	1283.68
49.5481	1186.62
49.5626	1148.91
49.5770	1096.08
49.5915	1001.93
49.6059	945.57
49.6203	874.27
49.6348	830.75
49.6492	776.83
49.6637	724.61
49.6781	689.30
49.6925	691.55
49.7070	724.91
49.7214	670.39
49.7359	622.99
49.7503	615.07
49.7647	594.50
49.7792	614.05
49.7936	580.54
49.8081	562.51
49.8225	549.41
49.8369	569.38
49.8514	573.79
49.8658	558.27
49.8803	568.88
49.8947	566.90
49.9091	551.01
49.9236	524.22
49.9380	533.24
49.9525	497.51
49.9669	551.19
49.9813	521.15
49.9958	534.87
50.0102	499.22
50.0247	552.65
50.0391	554.05
50.0535	524.38
50.0680	518.89
50.0824	526.14
50.0969	537.21
50.1113	529.44
50.1257	520.50
50.1402	533.00
50.1546	508.70
50.1691	517.74
50.1835	516.72
50.1979	511.08
50.2124	506.07
50.2268	525.34
50.2413	510.59
50.2557	484.60
50.2701	522.64
50.2846	509.83
50.2990	510.85
50.3135	535.80
50.3279	519.44
50.3423	533.72
50.3568	549.60
50.3712	525.61
50.3857	501.17
50.4001	521.06
50.4145	511.10
50.4290	534.07
50.4434	500.75
50.4579	469.62
50.4723	511.28
50.4867	495.54
50.5012	479.89
50.5156	481.95
50.5301	501.62
50.5445	486.97
50.5589	512.50
50.5734	491.39
50.5878	483.89
50.6023	515.87
50.6167	538.42
50.6311	528.34
50.6456	513.95
50.6600	534.88
50.6745	521.71
50.6889	506.87
50.7033	516.79
50.7178	504.85
50.7322	510.29
50.7467	526.62
50.7611	525.36
50.7755	535.82
50.7900	477.56
50.8044	473.56
50.8189	512.02
50.8333	504.57
50.8477	472.15
50.8622	473.99
50.8766	521.45
50.8911	504.11
50.9055	498.49
50.9199	475.25
50.9344	491.24
50.9488	478.87
50.9633	485.56
50.9777	499.02
50.9921	518.72
51.0066	489.50
51.0210	508.21
51.0355	523.05
51.0499	488.41
51.0643	488.55
51.0788	500.51
51.0932	509.68
51.1077	502.14
51.1221	508.65
51.1365	513.61
51.1510	494.40
51.1654	543.68
51.1799	536.63
51.1943	517.62
51.2087	504.22
51.2232	484.88
51.2376	499.34
51.2521	521.35
51.2665	483.39
51.2809	491.72
51.2954	492.84
51.3098	487.39
51.3243	478.06
51.3387	492.41
51.3531	498.54
51.3676	479.44
51.3820	495.51
51.3965	524.57
51.4109	509.21
51.4253	526.27
51.4398	493.52
51.4542	542.06
51.4687	512.49
51.4831	515.02
51.4975	518.22
51.5120	498.68
51.5264	497.29
51.5409	453.05
51.5553	496.79
51.5697	492.86
51.5842	517.35
51.5986	498.21
51.6131	511.95
51.6275	492.30
51.6419	499.64
51.6564	503.76
51.6708	468.69
51.6853	481.00
51.6997	510.05
51.7141	467.45
51.7286	486.86
51.7430	506.00
51.7575	541.08
51.7719	508.33
51.7863	516.79
51.8008	552.64
51.8152	546.92
51.8297	537.29
51.8441	483.04
51.8585	513.09
51.8730	504.81
51.8874	541.32
51.9019	550.60
51.9163	492.86
51.9307	521.27
51.9452	505.34
51.9596	479.35
51.9741	474.75
51.9885	503.94
52.0029	522.17
52.0174	470.55
52.0318	485.50
52.0463	511.78
52.0607	504.50
52.0751	511.19
52.0896	493.37
52.1040	468.24
52.1185	513.36
52.1329	511.46
52.1473	483.42
52.1618	503.72
52.1762	519.84
52.1907	489.45
52.2051	515.43
52.2195	510.36
52.2340	505.98
52.2484	530.83
52.2629	515.25
52.2773	494.76
52.2917	561.19
52.3062	524.22
52.3206	525.35
52.3351	526.01
52.3495	520.73
52.3639	505.52
52.3784	514.87
52.3928	536.66
52.4073	495.67
52.4217	551.52
52.4361	503.66
52.4506	514.54
52.4650	514.09
52.4795	474.17
52.4939	520.34
52.5083	529.20
52.5228	509.00
52.5372	493.12
52.5517	490.76
52.5661	518.66
52.5805	510.31
52.5950	495.75
52.6094	551.51
52.6239	497.27
52.6383	490.26
52.6527	505.64
52.6672	503.17
52.6816	505.94
52.6961	484.12
52.7105	506.43
52.7250	513.19
52.7394	532.48
52.7538	501.32
52.7683	513.12
52.7827	523.65
52.7972	499.91
52.8116	515.32
52.8260	495.18
52.8405	502.52
52.8549	526.16
52.8694	540.21
52.8838	520.29
52.8982	563.20
52.9127	486.08
52.9271	469.62
52.9416	515.69
52.9560	478.76
52.9704	479.75
52.9849	513.90
52.9993	508.39
53.0138	499.63
53.0282	511.50
53.0426	506.34
53.0571	514.93
53.0715	511.47
53.0860	542.44
53.1004	547.67
53.1148	489.93
53.1293	491.05
53.1437	517.86
53.1582	485.15
53.1726	495.85
53.1870	507.17
53.2015	471.19
53.2159	527.60
53.2304	547.01
53.2448	546.33
53.2592	515.86
53.2737	497.15
53.2881	539.51
53.3026	500.16
53.3170	492.21
53.3314	537.86
53.3459	495.56
53.3603	525.19
53.3748	514.31
53.3892	481.72
53.4036	509.81
53.4181	512.69
53.4325	505.49
53.4470	495.69
53.4614	496.88
53.4758	492.80
53.4903	518.10
53.5047	512.08
53.5192	503.35
53.5336	548.17
53.5480	507.48
53.5625	495.06
53.5769	521.20
53.5914	470.94
53.6058	514.40
53.6202	527.76
53.6347	506.33
53.6491	519.09
53.6636	535.91
53.6780	529.41
53.6924	490.66
53.7069	512.28
53.7213	544.24
53.7358	504.89
53.7502	526.91
53.7646	521.95
53.7791	513.76
53.7935	487.86
53.8080	502.57
53.8224	522.33
53.8368	512.54
53.8513	500.79
53.8657	511.90
53.8802	507.37
53.8946	528.53
53.9090	527.37
53.9235	524.07
53.9379	540.30
53.9524	522.16
53.9668	494.50
53.9812	526.30
53.9957	518.33
54.0101	504.35
54.0246	497.17
54.0390	495.15
54.0534	539.23
54.0679	534.94
54.0823	538.21
54.0968	538.05
54.1112	529.18
54.1256	525.87
54.1401	524.94
54.1545	532.61
54.1690	556.70
54.1834	564.28
54.1978	547.60
54.2123	539.60
54.2267	595.91
54.2412	644.35
54.2556	630.28
54.2700	653.31
54.2845	658.67
54.2989	640.70
54.3134	629.75
54.3278	633.10
54.3422	623.32
54.3567	602.37
54.3711	581.90
54.3856	602.95
54.4000	580.66
54.4144	556.44
54.4289	599.50
54.4433	587.28
54.4578	587.52
54.4722	577.22
54.4866	556.13
54.5011	561.51
54.5155	523.56
54.5300	572.27
54.5444	557.78
54.5588	529.36
54.5733	532.90
54.5877	517.52
54.6022	523.10
54.6166	532.85
54.6310	541.05
54.6455	519.15
54.6599	503.47
54.6744	512.24
54.6888	489.04
54.7032	526.84
54.7177	512.35
54.7321	485.63
54.7466	507.95
54.7610	479.81
54.7754	512.02
54.7899	551.27
54.8043	492.00
54.8188	505.20
54.8332	533.52
54.8476	531.14
54.8621	506.81
54.8765	520.80
54.8910	514.57
54.9054	513.81
54.9198	485.47
54.9343	505.82
54.9487	492.20
54.9632	497.00
54.9776	524.10
54.9920	511.95
55.0065	505.53
55.0209	485.65
55.0354	511.71
55.0498	507.17
55.0642	492.99
55.0787	496.07
55.0931	478.57
55.1076	485.81
55.1220	508.75
55.1364	555.52
55.1509	478.81
55.1653	497.32
55.1798	534.37
55.1942	495.49
55.2086	509.61
55.2231	555.25
55.2375	537.56
55.2520	525.50
55.2664	526.90
55.2808	493.40
55.2953	509.84
55.3097	549.80
55.3242	530.26
55.3386	518.74
55.3530	510.44
55.3675	508.61
55.3819	481.32
55.3964	524.46
55.4108	531.86
55.4252	524.55
55.4397	511.08
55.4541	473.51
55.4686	501.88
55.4830	489.75
55.4974	501.23
55.5119	501.19
55.5263	513.95
55.5408	534.30
55.5552	529.85
55.5696	531.86
55.5841	518.15
55.5985	514.93
55.6130	505.70
55.6274	500.77
55.6418	519.27
55.6563	542.25
55.6707	531.10
55.6852	544.22
55.6996	532.30
55.7140	520.01
55.7285	527.51
55.7429	537.30
55.7574	546.50
55.7718	527.80
55.7862	551.86
55.8007	526.23
55.8151	541.26
55.8296	524.54
55.8440	473.27
55.8584	540.34
55.8729	502.49
55.8873	491.59
55.9018	533.88
55.9162	509.31
55.9306	529.68
55.9451	543.80
55.9595	520.34
55.9740	496.97
55.9884	514.67
56.0028	517.97
56.0173	512.58
56.0317	501.96
56.0462	526.72
56.0606	520.91
56.0750	525.80
56.0895	529.49
56.1039	534.68
56.1184	512.17
56.1328	509.84
56.1472	532.89
56.1617	550.77
56.1761	520.90
56.1906	506.16
56.2050	454.25
56.2194	472.30
56.2339	465.82
56.2483	549.81
56.2628	515.07
56.2772	531.07
56.2916	542.59
56.3061	530.70
56.3205	490.59
56.3350	510.12
56.3494	559.57
56.3639	518.88
56.3783	498.71
56.3927	468.58
56.4072	503.67
56.4216	508.03
56.4361	514.43
56.4505	516.25
56.4649	523.05
56.4794	543.80
56.4938	538.08
56.5083	501.92
56.5227	501.80
56.5371	558.33
56.5516	526.98
56.5660	511.88
56.5805	506.95
56.5949	513.51
56.6093	494.00
56.6238	495.74
56.6382	541.21
56.6527	538.87
56.6671	521.02
56.6815	506.21
56.6960	493.05
56.7104	511.39
56.7249	498.69
56.7393	511.09
56.7537	531.55
56.7682	482.97
56.7826	546.00
56.7971	497.87
56.8115	488.03
56.8259	493.13
56.8404	477.93
56.8548	545.96
56.8693	507.57
56.8837	529.84
56.8981	574.23
56.9126	545.37
56.9270	509.86
56.9415	564.29
56.9559	519.60
56.9703	514.51
56.9848	494.41
56.9992	560.77
57.0137	524.95
57.0281	510.59
57.0425	506.29
57.0570	520.32
57.0714	549.91
57.0859	565.49
57.1003	506.84
57.1147	517.82
57.1292	547.53
57.1436	500.92
57.1581	512.80
57.1725	525.35
57.1869	499.50
57.2014	493.14
57.2158	549.61
57.2303	570.93
57.2447	539.16
57.2591	507.04
57.2736	525.94
57.2880	519.09
57.3025	537.13
57.3169	490.69
57.3313	564.65
57.3458	548.36
57.3602	510.38
57.3747	517.34
57.3891	502.71
57.4035	519.75
57.4180	507.23
57.4324	513.73
57.4469	526.78
57.4613	529.44
57.4757	532.89
57.4902	542.75
57.5046	498.31
57.5191	494.14
57.5335	517.55
57.5479	514.50
57.5624	529.27
57.5768	540.35
57.5913	551.97
57.6057	519.56
57.6201	546.56
57.6346	545.68
57.6490	534.87
57.6635	512.70
57.6779	533.18
57.6923	559.91
57.7068	558.81
57.7212	537.53
57.7357	525.31
57.7501	559.28
57.7645	574.42
57.7790	576.30
57.7934	584.45
57.8079	593.70
57.8223	614.41
57.8367	657.45
57.8512	683.86
57.8656	751.88
57.8801	727.17
57.8945	770.98
57.9089	764.24
57.9234	714.97
57.9378	649.21
57.9523	648.81
57.9667	655.29
57.9811	664.29
57.9956	690.37
58.0100	662.97
58.0245	683.86
58.0389	669.47
58.0533	696.37
58.0678	652.69
58.0822	622.38
58.0967	627.33
58.1111	611.79
58.1255	576.14
58.1400	584.14
58.1544	601.81
58.1689	602.59
58.1833	567.36
58.1977	562.83
58.2122	608.50
58.2266	556.24
58.2411	546.34
58.2555	564.07
58.2699	525.72
58.2844	552.01
58.2988	537.79
58.3133	567.24
58.3277	579.20
58.3421	539.38
58.3566	534.11
58.3710	512.47
58.3855	520.80
58.3999	532.62
58.4143	529.57
58.4288	545.59
58.4432	545.37
58.4577	522.71
58.4721	503.42
58.4865	560.11
58.5010	528.41
58.5154	529.11
58.5299	536.74
58.5443	552.54
58.5587	547.94
58.5732	560.36
58.5876	522.65
58.6021	513.41
58.6165	526.68
58.6309	516.53
58.6454	536.38
58.6598	546.90
58.6743	527.00
58.6887	513.06
58.7031	538.47
58.7176	548.52
58.7320	529.55
58.7465	529.29
58.7609	542.70
58.7753	539.10
58.7898	499.95
58.8042	505.32
58.8187	525.59
58.8331	526.92
58.8475	515.66
58.8620	527.08
58.8764	540.96
58.8909	521.72
58.9053	527.83
58.9197	528.92
58.9342	543.37
58.9486	517.04
58.9631	471.51
58.9775	465.92
58.9919	504.63
59.0064	489.26
59.0208	514.90
59.0353	535.04
59.0497	553.70
59.0641	536.56
59.0786	539.53
59.0930	521.62
59.1075	504.38
59.1219	537.51
59.1363	545.80
59.1508	517.78
59.1652	533.20
59.1797	546.31
59.1941	504.34
59.2085	520.47
59.2230	522.82
59.2374	526.18
59.2519	543.62
59.2663	527.10
59.2807	571.23
59.2952	546.11
59.3096	573.55
59.3241	557.85
59.3385	537.88
59.3529	559.71
59.3674	591.20
59.3818	587.54
59.3963	557.20
59.4107	566.56
59.4251	610.60
59.4396	558.58
59.4540	519.32
59.4685	555.64
59.4829	577.92
59.4973	561.12
59.5118	577.75
59.5262	540.35
59.5407	477.37
59.5551	507.79
59.5695	526.62
59.5840	520.24
59.5984	528.31
59.6129	558.96
59.6273	536.45
59.6417	579.67
59.6562	545.50
59.6706	523.16
59.6851	527.25
59.6995	557.00
59.7139	522.08
59.7284	531.19
59.7428	566.56
59.7573	530.02
59.7717	549.02
59.7861	565.39
59.8006	518.60
59.8150	522.84
59.8295	525.77
59.8439	506.70
59.8583	525.06
59.8728	514.17
59.8872	523.36
59.9017	538.30
59.9161	511.19
59.9305	508.82
59.9450	512.14
59.9594	523.46
59.9739	505.97
59.9883	514.02
60.0027	523.71
60.0172	544.56
60.0316	530.94
60.0461	538.50
60.0605	531.30
60.0750	549.64
60.0894	555.60
60.1038	508.05
60.1183	521.09
60.1327	530.45
60.1472	516.92
60.1616	558.00
60.1760	526.33
60.1905	505.07
60.2049	517.08
60.2194	547.69
60.2338	539.37
60.2482	510.60
60.2627	548.77
60.2771	561.04
60.2916	504.34
60.3060	513.22
60.3204	549.43
60.3349	547.93
60.3493	551.46
60.3638	525.72
60.3782	503.91
60.3926	508.91
60.4071	528.96
60.4215	514.98
60.4360	527.95
60.4504	491.21
60.4648	539.54
60.4793	530.59
60.4937	524.02
60.5082	514.84
60.5226	528.49
60.5370	526.04
60.5515	507.95
60.5659	493.77
60.5804	519.21
60.5948	511.81
60.6092	488.89
60.6237	521.95
60.6381	544.47
60.6526	552.28
60.6670	495.70
60.6814	504.02
60.6959	545.96
60.7103	538.61
60.7248	506.84
60.7392	544.50
60.7536	544.01
60.7681	533.40
60.7825	538.84
60.7970	518.73
60.8114	531.25
60.8258	576.31
60.8403	514.40
60.8547	511.94
60.8692	530.96
60.8836	529.38
60.8980	541.74
60.9125	536.91
60.9269	516.08
60.9414	550.00
60.9558	519.55
60.9702	551.25
60.9847	548.21
60.9991	554.95
61.0136	524.84
61.0280	541.54
61.0424	504.47
61.0569	524.82
61.0713	517.32
61.0858	569.81
61.1002	537.57
61.1146	512.71
61.1291	587.05
61.1435	522.79
61.1580	522.85
61.1724	547.49
61.1868	533.33
61.2013	566.83
61.2157	535.44
61.2302	550.07
61.2446	543.99
61.2590	487.80
61.2735	505.40
61.2879	524.73
61.3024	568.83
61.3168	545.14
61.3312	552.93
61.3457	550.99
61.3601	517.65
61.3746	518.58
61.3890	514.97
61.4034	565.19
61.4179	521.69
61.4323	548.48
61.4468	545.66
61.4612	558.63
61.4756	545.45
61.4901	563.33
61.5045	555.81
61.5190	559.85
61.5334	545.86
61.5478	508.15
61.5623	564.77
61.5767	524.14
61.5912	539.82
61.6056	535.31
61.6200	512.82
61.6345	522.62
61.6489	524.30
61.6634	554.94
61.6778	540.40
61.6922	530.79
61.7067	558.89
61.7211	537.09
61.7356	548.86
61.7500	560.16
61.7644	524.23
61.7789	550.63
61.7933	544.12
61.8078	535.41
61.8222	545.69
61.8366	564.30
61.8511	547.18
61.8655	549.52
61.8800	548.14
61.8944	545.19
61.9088	581.42
61.9233	556.59
61.9377	538.13
61.9522	573.13
61.9666	537.64
61.9810	552.27
61.9955	589.41
62.0099	539.27
62.0244	546.41
62.0388	547.82
62.0532	579.25
62.0677	545.47
62.0821	531.00
62.0966	557.59
62.1110	576.04
62.1254	569.78
62.1399	576.85
62.1543	538.60
62.1688	524.41
62.1832	537.52
62.1976	538.00
62.2121	550.20
62.2265	563.10
62.2410	530.22
62.2554	538.80
62.2698	556.84
62.2843	544.39
62.2987	528.48
62.3132	573.48
62.3276	567.41
62.3420	542.79
62.3565	531.36
62.3709	527.78
62.3854	548.67
62.3998	552.03
62.4142	525.17
62.4287	565.69
62.4431	528.20
62.4576	509.23
62.4720	550.29
62.4864	546.06
62.5009	541.48
62.5153	514.52
62.5298	542.11
62.5442	537.43
62.5586	562.18
62.5731	540.79
62.5875	520.86
62.6020	533.38
62.6164	571.78
62.6308	570.56
62.6453	570.64
62.6597	564.98
62.6742	567.38
62.6886	548.32
62.7030	567.00
62.7175	582.67
62.7319	584.12
62.7464	578.90
62.7608	546.72
62.7752	564.95
62.7897	578.97
62.8041	578.10
62.8186	592.90
62.8330	546.92
62.8474	530.93
62.8619	553.27
62.8763	577.39
62.8908	541.88
62.9052	550.34
62.9196	525.78
62.9341	544.99
62.9485	575.63
62.9630	561.06
62.9774	552.77
62.9918	539.68
63.0063	532.19
63.0207	546.98
63.0352	556.58
63.0496	561.99
63.0640	561.88
63.0785	568.72
63.0929	587.29
63.1074	580.31
63.1218	573.52
63.1362	562.69
63.1507	585.20
63.1651	603.26
63.1796	547.67
63.1940	565.10
63.2084	598.68
63.2229	584.39
63.2373	609.85
63.2518	593.27
63.2662	574.95
63.2806	589.05
63.2951	606.28
63.3095	559.20
63.3240	592.52
63.3384	615.57
63.3528	619.15
63.3673	606.57
63.3817	603.88
63.3962	597.96
63.4106	618.04
63.4250	656.65
63.4395	659.17
63.4539	656.20
63.4684	666.39
63.4828	684.36
63.4972	726.81
63.5117	755.04
63.5261	843.59
63.5406	817.92
63.5550	883.53
63.5694	936.73
63.5839	964.40
63.5983	1011.56
63.6128	954.93
63.6272	871.26
63.6416	850.23
63.6561	787.83
63.6705	747.45
63.6850	738.17
63.6994	787.84
63.7138	785.88
63.7283	833.37
63.7427	857.18
63.7572	801.83
63.7716	781.89
63.7861	779.81
63.8005	797.03
63.8149	768.10
63.8294	741.63
63.8438	678.80
63.8583	701.42
63.8727	652.80
63.8871	638.84
63.9016	648.56
63.9160	621.94
63.9305	615.24
63.9449	631.34
63.9593	592.74
63.9738	655.09
63.9882	605.92
64.0027	583.84
64.0171	611.67
64.0315	638.24
64.0460	599.55
64.0604	596.96
64.0749	597.28
64.0893	578.30
64.1037	597.80
64.1182	610.77
64.1326	595.98
64.1471	565.68
64.1615	555.33
64.1759	602.21
64.1904	601.54
64.2048	573.98
64.2193	605.38
64.2337	602.33
64.2481	616.12
64.2626	556.91
64.2770	616.46
64.2915	617.85
64.3059	602.95
64.3203	601.47
64.3348	613.97
64.3492	594.85
64.3637	622.46
64.3781	599.29
64.3925	576.71
64.4070	571.11
64.4214	611.98
64.4359	627.39
64.4503	587.82
64.4647	610.42
64.4792	622.99
64.4936	638.28
64.5081	586.19
64.5225	580.94
64.5369	635.78
64.5514	636.88
64.5658	631.53
64.5803	604.82
64.5947	624.08
64.6091	601.72
64.6236	616.02
64.6380	687.06
64.6525	668.54
64.6669	635.28
64.6813	640.10
64.6958	619.89
64.7102	643.07
64.7247	658.03
64.7391	683.57
64.7535	667.75
64.7680	672.52
64.7824	707.93
64.7969	731.38
64.8113	791.24
64.8257	756.09
64.8402	813.81
64.8546	845.20
64.8691	804.39
64.8835	863.42
64.8979	863.71
64.9124	875.47
64.9268	891.71
64.9413	919.23
64.9557	930.81
64.9701	1000.12
64.9846	1057.47
64.9990	1104.08
65.0135	1291.25
65.0279	1357.25
65.0423	1600.99
65.0568	1975.05
65.0712	2498.37
65.0857	3248.37
65.1001	4157.86
65.1145	5703.43
65.1290	7584.45
65.1434	9263.92
65.1579	10768.08
65.1723	11727.99
65.1867	11119.36
65.2012	9973.96
65.2156	8374.37
65.2301	6685.17
65.2445	5395.49
65.2589	4425.30
65.2734	3989.80
65.2878	4122.56
65.3023	4758.27
65.3167	5513.94
65.3311	6291.78
65.3456	6819.29
65.3600	6961.67
65.3745	6394.06
65.3889	5602.45
65.4033	4586.91
65.4178	3556.62
65.4322	2676.34
65.4467	2025.43
65.4611	1678.36
65.4755	1413.11
65.4900	1262.10
65.5044	1093.18
65.5189	1020.00
65.5333	1031.16
65.5477	950.65
65.5622	921.85
65.5766	855.71
65.5911	851.22
65.6055	761.33
65.6199	787.45
65.6344	767.88
65.6488	738.06
65.6633	743.58
65.6777	720.27
65.6921	696.52
65.7066	722.53
65.7210	717.11
65.7355	655.62
65.7499	687.65
65.7643	643.35
65.7788	666.45
65.7932	666.70
65.8077	652.94
65.8221	643.54
65.8365	677.80
65.8510	672.59
65.8654	678.31
65.8799	689.12
65.8943	674.92
65.9087	620.71
65.9232	660.08
65.9376	646.58
65.9521	656.72
65.9665	644.60
65.9809	655.79
65.9954	634.88
66.0098	611.89
66.0243	609.24
66.0387	610.21
66.0531	617.75
66.0676	670.16
66.0820	645.22
66.0965	636.60
66.1109	589.97
66.1253	585.97
66.1398	586.36
66.1542	596.88
66.1687	632.53
66.1831	608.03
66.1975	595.46
66.2120	580.51
66.2264	628.50
66.2409	647.74
66.2553	591.28
66.2697	586.52
66.2842	612.31
66.2986	611.62
66.3131	576.83
66.3275	593.28
66.3419	618.97
66.3564	612.72
66.3708	596.09
66.3853	605.23
66.3997	576.39
66.4141	584.65
66.4286	630.23
66.4430	600.47
66.4575	550.85
66.4719	593.61
66.4863	580.64
66.5008	580.32
66.5152	584.00
66.5297	594.96
66.5441	596.26
66.5585	585.81
66.5730	583.13
66.5874	561.85
66.6019	582.67
66.6163	594.92
66.6307	596.78
66.6452	579.49
66.6596	573.34
66.6741	544.52
66.6885	587.39
66.7029	599.83
66.7174	575.67
66.7318	596.44
66.7463	592.96
66.7607	609.75
66.7751	595.51
66.7896	585.60
66.8040	613.45
66.8185	605.23
66.8329	557.50
66.8473	558.86
66.8618	637.53
66.8762	602.65
66.8907	546.28
66.9051	621.22
66.9195	599.93
66.9340	587.18
66.9484	615.68
66.9629	585.36
66.9773	600.80
66.9917	587.13
67.0062	563.19
67.0206	556.44
67.0351	551.09
67.0495	547.80
67.0639	594.35
67.0784	628.33
67.0928	599.39
67.1073	567.15
67.1217	606.05
67.1361	612.04
67.1506	619.00
67.1650	612.69
67.1795	590.16
67.1939	593.39
67.2083	560.63
67.2228	577.18
67.2372	599.27
67.2517	569.98
67.2661	554.56
67.2805	566.48
67.2950	551.25
67.3094	587.23
67.3239	554.14
67.3383	574.94
67.3527	556.72
67.3672	568.04
67.3816	581.26
67.3961	596.98
67.4105	577.40
67.4250	585.08
67.4394	560.88
67.4538	559.36
67.4683	563.41
67.4827	579.24
67.4972	583.46
67.5116	567.98
67.5260	569.02
67.5405	580.15
67.5549	593.13
67.5694	560.19
67.5838	573.82
67.5982	576.57
67.6127	550.96
67.6271	567.60
67.6416	566.46
67.6560	547.58
67.6704	580.41
67.6849	540.35
67.6993	549.08
67.7138	567.63
67.7282	556.79
67.7426	603.92
67.7571	583.70
67.7715	555.88
67.7860	582.15
67.8004	601.82
67.8148	557.28
67.8293	566.25
67.8437	581.65
67.8582	610.92
67.8726	615.58
67.8870	553.87
67.9015	570.84
67.9159	544.42
67.9304	592.45
67.9448	606.54
67.9592	582.21
67.9737	585.03
67.9881	530.72
68.0026	548.04
68.0170	549.88
68.0314	570.82
68.0459	568.83
68.0603	570.75
68.0748	564.59
68.0892	591.37
68.1036	546.23
68.1181	583.21
68.1325	568.61
68.1470	580.44
68.1614	594.50
68.1758	548.37
68.1903	541.24
68.2047	526.88
68.2192	567.09
68.2336	602.67
68.2480	588.37
68.2625	589.23
68.2769	570.11
68.2914	515.57
68.3058	557.96
68.3202	553.19
68.3347	567.98
68.3491	581.87
68.3636	563.68
68.3780	583.27
68.3924	545.14
68.4069	584.03
68.4213	547.94
68.4358	552.81
68.4502	545.80
68.4646	589.41
68.4791	574.15
68.4935	595.70
68.5080	546.51
68.5224	583.93
68.5368	561.00
68.5513	584.45
68.5657	554.85
68.5802	539.63
68.5946	557.76
68.6090	538.22
68.6235	579.66
68.6379	572.87
68.6524	539.29
68.6668	578.17
68.6812	565.64
68.6957	530.65
68.7101	619.05
68.7246	582.18
68.7390	579.77
68.7534	579.02
68.7679	565.58
68.7823	565.67
68.7968	553.36
68.8112	578.34
68.8256	581.19
68.8401	548.66
68.8545	567.00
68.8690	595.97
68.8834	579.11
68.8978	588.02
68.9123	563.92
68.9267	589.07
68.9412	587.03
68.9556	566.08
68.9700	588.42
68.9845	586.02
68.9989	597.07
69.0134	589.28
69.0278	569.63
69.0422	571.98
69.0567	531.40
69.0711	539.40
69.0856	547.54
69.1000	603.51
69.1144	619.29
69.1289	558.20
69.1433	553.62
69.1578	564.09
69.1722	597.04
69.1866	601.41
69.2011	599.98
69.2155	545.26
69.2300	548.75
69.2444	581.94
69.2588	553.49
69.2733	592.56
69.2877	585.25
69.3022	580.05
69.3166	511.16
69.3310	575.33
69.3455	623.23
69.3599	605.60
69.3744	597.58
69.3888	526.86
69.4032	539.56
69.4177	515.80
69.4321	577.32
69.4466	546.36
69.4610	566.91
69.4754	553.68
69.4899	565.61
69.5043	562.58
69.5188	550.00
69.5332	572.84
69.5476	588.08
69.5621	599.07
69.5765	577.70
69.5910	555.97
69.6054	558.61
69.6198	533.94
69.6343	564.33
69.6487	629.15
69.6632	536.97
69.6776	557.03
69.6920	563.83
69.7065	620.89
69.7209	593.29
69.7354	564.80
69.7498	597.51
69.7642	557.76
69.7787	563.94
69.7931	533.22
69.8076	577.21
69.8220	557.34
69.8364	577.17
69.8509	539.64
69.8653	554.80
69.8798	542.81
69.8942	549.47
69.9086	563.12
69.9231	586.32
69.9375	611.01
69.9520	605.67
69.9664	556.27
69.9808	535.40
69.9953	623.01
70.0097	620.50
70.0242	584.92
70.0386	518.04
70.0530	536.31
70.0675	563.57
70.0819	544.11
70.0964	599.44
70.1108	553.87
70.1252	547.96
70.1397	606.20
70.1541	568.93
70.1686	584.88
70.1830	594.65
70.1974	561.84
70.2119	613.35
70.2263	584.01
70.2408	599.90
70.2552	554.49
70.2696	541.52
70.2841	593.87
70.2985	529.17
70.3130	578.40
70.3274	532.25
70.3418	556.79
70.3563	586.36
70.3707	580.14
70.3852	616.13
70.3996	530.68
70.4140	498.78
70.4285	566.08
70.4429	536.09
70.4574	555.50
70.4718	587.09
70.4862	559.09
70.5007	561.56
70.5151	583.70
70.5296	553.38
70.5440	560.76
70.5584	638.36
70.5729	571.38
70.5873	530.43
70.6018	523.93
70.6162	557.75
70.6306	533.06
70.6451	599.52
70.6595	622.88
70.6740	527.20
70.6884	553.34
70.7028	606.84
70.7173	572.90
70.7317	627.07
70.7462	574.37
70.7606	568.10
70.7750	596.73
70.7895	565.41
70.8039	585.96
70.8184	604.78
70.8328	592.32
70.8472	587.18
70.8617	641.09
70.8761	636.26
70.8906	538.49
70.9050	561.88
70.9194	585.46
70.9339	586.12
70.9483	645.63
70.9628	689.51
70.9772	568.83
70.9916	552.12
71.0061	503.95
71.0205	554.53
71.0350	601.31
71.0494	583.75
71.0638	557.77
71.0783	559.47
71.0927	625.29
71.1072	592.08
71.1216	561.54
71.1361	539.25
71.1505	557.49
71.1649	638.23
71.1794	626.25
71.1938	592.88
71.2083	588.39
71.2227	569.83
71.2371	593.34
71.2516	573.19
71.2660	542.15
71.2805	515.50
71.2949	559.19
71.3093	562.46
71.3238	631.64
71.3382	623.97
71.3527	580.55
71.3671	574.42
71.3815	560.11
71.3960	556.49
71.4104	536.70
71.4249	522.17
71.4393	512.16
71.4537	566.25
71.4682	597.92
71.4826	553.61
71.4971	552.18
71.5115	566.84
71.5259	537.97
71.5404	560.54
71.5548	622.99
71.5693	596.43
71.5837	535.61
71.5981	556.79
71.6126	555.61
71.6270	561.87
71.6415	559.63
71.6559	626.90
71.6703	608.86
71.6848	523.00
71.6992	587.07
71.7137	600.13
71.7281	568.60
71.7425	561.88
71.7570	557.68
71.7714	576.63
71.7859	539.66
71.8003	521.49
71.8147	570.33
71.8292	593.85
71.8436	556.26
71.8581	528.60
71.8725	572.66
71.8869	553.28
71.9014	576.43
71.9158	590.33
71.9303	572.81
71.9447	577.41
71.9591	572.74
71.9736	550.22
71.9880	529.20
72.0025	577.56
72.0169	551.30
72.0313	541.31
72.0458	571.04
72.0602	555.39
72.0747	605.79
72.0891	656.68
72.1035	621.99
72.1180	593.51
72.1324	539.37
72.1469	498.83
72.1613	532.27
72.1757	606.80
72.1902	605.21
72.2046	539.08
72.2191	508.01
72.2335	527.66
72.2479	548.65
72.2624	592.35
72.2768	609.02
72.2913	604.05
72.3057	580.22
72.3201	625.20
72.3346	634.28
72.3490	596.75
72.3635	636.24
72.3779	653.05
72.3923	626.99
72.4068	656.84
72.4212	618.24
72.4357	608.56
72.4501	547.64
72.4645	590.72
72.4790	563.27
72.4934	466.05
72.5079	539.32
72.5223	590.66
72.5367	583.79
72.5512	600.92
72.5656	506.58
72.5801	514.02
72.5945	583.89
72.6089	544.00
72.6234	517.23
72.6378	522.78
72.6523	576.17
72.6667	562.34
72.6811	545.08
72.6956	546.51
72.7100	568.26
72.7245	596.12
72.7389	601.15
72.7533	589.30
72.7678	650.23
72.7822	658.63
72.7967	588.34
72.8111	559.32
72.8255	560.82
72.8400	525.68
72.8544	559.59
72.8689	575.67
72.8833	497.23