2022.09.19 19:37:17
Îáðàçåö: ß÷åéêà LCoV 16-09-2022
Lambda1 = 1.54060
Lambda2 = 1.54439
Lambdam = 1.54186
R = 0.497
2Theta	I

line¹ 0 ;repeat¹ 0
22.1120	589.97
22.1264	604.68
22.1409	587.30
22.1553	618.05
22.1697	582.07
22.1842	499.96
22.1986	516.78
22.2131	580.47
22.2275	512.60
22.2419	570.90
22.2564	633.75
22.2708	605.73
22.2853	575.89
22.2997	618.82
22.3141	642.57
22.3286	618.36
22.3430	551.29
22.3575	531.42
22.3719	558.58
22.3863	518.33
22.4008	533.38
22.4152	635.65
22.4297	594.65
22.4441	598.86
22.4585	548.99
22.4730	641.08
22.4874	564.75
22.5019	552.09
22.5163	558.20
22.5307	558.32
22.5452	517.93
22.5596	543.96
22.5741	579.98
22.5885	626.28
22.6029	636.51
22.6174	521.23
22.6318	520.81
22.6463	611.78
22.6607	563.33
22.6751	568.85
22.6896	610.13
22.7040	568.76
22.7185	620.67
22.7329	598.50
22.7473	628.15
22.7618	621.27
22.7762	620.63
22.7907	570.81
22.8051	580.97
22.8195	564.40
22.8340	512.57
22.8484	623.64
22.8629	555.05
22.8773	573.61
22.8917	547.76
22.9062	534.84
22.9206	539.14
22.9351	516.38
22.9495	441.05
22.9639	554.77
22.9784	583.97
22.9928	537.77
23.0073	541.70
23.0217	601.79
23.0361	635.12
23.0506	579.15
23.0650	683.01
23.0795	592.68
23.0939	643.87
23.1083	573.77
23.1228	569.17
23.1372	525.32
23.1517	501.06
23.1661	556.38
23.1806	584.95
23.1950	536.37
23.2094	553.21
23.2239	567.82
23.2383	577.01
23.2528	548.85
23.2672	551.65
23.2816	558.78
23.2961	518.72
23.3105	601.85
23.3250	522.84
23.3394	533.87
23.3538	585.50
23.3683	662.24
23.3827	545.81
23.3972	540.39
23.4116	529.25
23.4260	581.48
23.4405	535.50
23.4549	487.07
23.4694	529.37
23.4838	503.01
23.4982	550.88
23.5127	568.48
23.5271	532.17
23.5416	549.36
23.5560	616.87
23.5704	603.44
23.5849	571.25
23.5993	474.51
23.6138	589.37
23.6282	586.22
23.6426	510.06
23.6571	524.62
23.6715	512.56
23.6860	514.49
23.7004	553.26
23.7148	550.06
23.7293	594.63
23.7437	582.74
23.7582	572.00
23.7726	548.04
23.7870	586.61
23.8015	574.54
23.8159	548.57
23.8304	562.73
23.8448	593.32
23.8592	614.63
23.8737	582.01
23.8881	547.68
23.9026	619.99
23.9170	596.16
23.9314	493.24
23.9459	552.28
23.9603	512.31
23.9748	582.08
23.9892	505.90
24.0036	568.01
24.0181	537.90
24.0325	531.15
24.0470	538.35
24.0614	543.61
24.0758	574.71
24.0903	548.45
24.1047	511.25
24.1192	573.48
24.1336	547.38
24.1480	564.83
24.1625	551.86
24.1769	536.25
24.1914	611.71
24.2058	583.63
24.2202	592.00
24.2347	626.95
24.2491	582.20
24.2636	603.73
24.2780	620.57
24.2924	562.28
24.3069	595.95
24.3213	582.62
24.3358	592.12
24.3502	510.65
24.3646	566.43
24.3791	503.57
24.3935	551.23
24.4080	499.03
24.4224	559.60
24.4368	544.88
24.4513	502.24
24.4657	558.58
24.4802	567.58
24.4946	556.31
24.5090	521.55
24.5235	546.23
24.5379	535.53
24.5524	513.82
24.5668	554.55
24.5812	591.82
24.5957	554.00
24.6101	541.60
24.6246	564.82
24.6390	571.57
24.6534	542.36
24.6679	511.91
24.6823	530.39
24.6968	536.01
24.7112	576.17
24.7256	574.65
24.7401	560.79
24.7545	525.20
24.7690	528.88
24.7834	554.75
24.7978	498.36
24.8123	555.29
24.8267	541.22
24.8412	538.68
24.8556	542.88
24.8700	521.00
24.8845	535.12
24.8989	555.06
24.9134	604.96
24.9278	521.62
24.9422	477.07
24.9567	481.49
24.9711	519.90
24.9856	512.70
25.0000	526.46
25.0144	565.79
25.0289	601.36
25.0433	551.24
25.0578	457.81
25.0722	511.32
25.0866	578.84
25.1011	541.38
25.1155	550.50
25.1300	564.75
25.1444	543.08
25.1588	565.88
25.1733	549.92
25.1877	544.56
25.2022	550.90
25.2166	537.70
25.2310	531.67
25.2455	552.64
25.2599	559.93
25.2744	546.88
25.2888	538.05
25.3032	549.12
25.3177	523.09
25.3321	515.99
25.3466	507.28
25.3610	541.57
25.3754	551.37
25.3899	522.49
25.4043	493.62
25.4188	533.41
25.4332	590.65
25.4476	552.30
25.4621	565.05
25.4765	537.87
25.4910	508.20
25.5054	545.33
25.5198	544.12
25.5343	547.48
25.5487	523.85
25.5632	497.09
25.5776	530.92
25.5920	530.93
25.6065	509.92
25.6209	522.14
25.6354	536.95
25.6498	515.24
25.6642	535.42
25.6787	529.44
25.6931	495.04
25.7076	531.89
25.7220	515.08
25.7364	529.97
25.7509	575.26
25.7653	565.69
25.7798	570.69
25.7942	577.72
25.8086	520.85
25.8231	565.43
25.8375	557.58
25.8520	557.44
25.8664	541.94
25.8808	516.35
25.8953	521.18
25.9097	514.15
25.9242	530.61
25.9386	530.89
25.9530	508.18
25.9675	518.99
25.9819	572.47
25.9964	543.80
26.0108	495.00
26.0252	510.85
26.0397	514.88
26.0541	527.68
26.0686	515.11
26.0830	539.89
26.0974	547.46
26.1119	545.39
26.1263	571.01
26.1408	515.77
26.1552	519.62
26.1696	533.15
26.1841	539.85
26.1985	518.90
26.2130	525.93
26.2274	553.18
26.2418	501.64
26.2563	504.04
26.2707	499.49
26.2852	502.31
26.2996	501.85
26.3140	510.52
26.3285	512.82
26.3429	519.69
26.3574	509.11
26.3718	495.63
26.3862	495.44
26.4007	498.06
26.4151	537.66
26.4296	554.57
26.4440	521.73
26.4584	508.91
26.4729	520.82
26.4873	553.63
26.5018	534.37
26.5162	526.40
26.5306	556.74
26.5451	509.51
26.5595	509.93
26.5740	536.22
26.5884	551.58
26.6028	548.44
26.6173	541.25
26.6317	513.91
26.6462	492.02
26.6606	537.05
26.6750	521.09
26.6895	507.71
26.7039	536.51
26.7184	561.09
26.7328	525.33
26.7472	514.51
26.7617	528.47
26.7761	522.04
26.7906	478.80
26.8050	528.18
26.8194	544.10
26.8339	512.32
26.8483	490.87
26.8628	528.78
26.8772	499.12
26.8917	480.14
26.9061	490.42
26.9205	509.37
26.9350	510.77
26.9494	493.63
26.9639	506.32
26.9783	538.44
26.9927	526.32
27.0072	510.73
27.0216	514.71
27.0361	517.21
27.0505	520.54
27.0649	540.03
27.0794	497.77
27.0938	526.92
27.1083	532.22
27.1227	558.76
27.1371	523.93
27.1516	538.70
27.1660	544.79
27.1805	518.94
27.1949	499.99
27.2093	529.84
27.2238	558.33
27.2382	556.22
27.2527	514.42
27.2671	490.79
27.2815	493.06
27.2960	491.98
27.3104	512.68
27.3249	517.12
27.3393	546.75
27.3537	544.51
27.3682	518.12
27.3826	515.38
27.3971	500.82
27.4115	492.64
27.4259	531.24
27.4404	510.20
27.4548	494.73
27.4693	508.47
27.4837	528.77
27.4981	495.18
27.5126	480.67
27.5270	527.04
27.5415	537.32
27.5559	539.21
27.5703	516.61
27.5848	530.19
27.5992	534.76
27.6137	515.65
27.6281	509.41
27.6425	490.50
27.6570	512.12
27.6714	530.51
27.6859	499.37
27.7003	509.88
27.7147	513.33
27.7292	519.66
27.7436	513.74
27.7581	512.52
27.7725	503.98
27.7869	507.02
27.8014	533.51
27.8158	522.43
27.8303	529.40
27.8447	503.97
27.8591	496.64
27.8736	507.39
27.8880	496.56
27.9025	536.93
27.9169	517.43
27.9313	498.74
27.9458	510.87
27.9602	518.96
27.9747	500.49
27.9891	526.63
28.0035	534.36
28.0180	493.82
28.0324	521.28
28.0469	487.64
28.0613	503.45
28.0757	510.70
28.0902	506.78
28.1046	488.59
28.1191	516.45
28.1335	487.64
28.1479	495.21
28.1624	510.85
28.1768	539.94
28.1913	508.24
28.2057	538.29
28.2201	501.33
28.2346	534.05
28.2490	551.12
28.2635	514.95
28.2779	500.38
28.2923	514.99
28.3068	521.00
28.3212	500.00
28.3357	559.53
28.3501	515.93
28.3645	525.43
28.3790	501.02
28.3934	510.89
28.4079	482.11
28.4223	480.05
28.4367	525.16
28.4512	538.54
28.4656	517.10
28.4801	512.38
28.4945	530.84
28.5089	510.96
28.5234	516.46
28.5378	537.52
28.5523	509.10
28.5667	525.97
28.5811	482.03
28.5956	513.09
28.6100	522.32
28.6245	499.25
28.6389	529.53
28.6533	531.32
28.6678	521.47
28.6822	512.32
28.6967	531.76
28.7111	549.84
28.7255	516.19
28.7400	509.77
28.7544	508.48
28.7689	506.13
28.7833	514.54
28.7977	535.85
28.8122	519.99
28.8266	522.10
28.8411	500.08
28.8555	510.24
28.8699	532.17
28.8844	527.87
28.8988	536.41
28.9133	514.37
28.9277	500.18
28.9421	502.08
28.9566	544.11
28.9710	502.69
28.9855	514.48
28.9999	545.66
29.0143	528.00
29.0288	513.47
29.0432	507.02
29.0577	546.10
29.0721	501.86
29.0865	530.41
29.1010	518.45
29.1154	483.94
29.1299	510.93
29.1443	509.32
29.1587	516.62
29.1732	510.17
29.1876	500.93
29.2021	470.68
29.2165	490.45
29.2309	495.46
29.2454	525.54
29.2598	549.70
29.2743	494.25
29.2887	502.14
29.3031	504.54
29.3176	489.49
29.3320	528.58
29.3465	554.05
29.3609	538.18
29.3753	499.17
29.3898	475.03
29.4042	506.32
29.4187	516.25
29.4331	519.89
29.4475	489.58
29.4620	502.16
29.4764	490.49
29.4909	513.77
29.5053	501.23
29.5197	509.30
29.5342	493.09
29.5486	511.06
29.5631	526.85
29.5775	521.94
29.5919	506.19
29.6064	478.76
29.6208	513.28
29.6353	480.68
29.6497	474.17
29.6641	499.97
29.6786	494.41
29.6930	500.26
29.7075	541.02
29.7219	504.09
29.7363	464.97
29.7508	498.74
29.7652	479.39
29.7797	500.30
29.7941	525.74
29.8085	531.32
29.8230	527.05
29.8374	553.84
29.8519	516.37
29.8663	536.56
29.8807	515.72
29.8952	514.21
29.9096	547.02
29.9241	489.67
29.9385	452.23
29.9529	530.88
29.9674	512.78
29.9818	461.96
29.9963	516.65
30.0107	504.95
30.0251	527.48
30.0396	481.33
30.0540	503.88
30.0685	516.38
30.0829	478.89
30.0973	493.30
30.1118	503.44
30.1262	511.27
30.1407	553.53
30.1551	505.34
30.1695	498.71
30.1840	490.91
30.1984	518.91
30.2129	503.95
30.2273	490.72
30.2417	506.18
30.2562	482.70
30.2706	507.60
30.2851	500.60
30.2995	522.38
30.3139	524.04
30.3284	516.47
30.3428	514.74
30.3573	484.05
30.3717	487.04
30.3861	485.20
30.4006	482.85
30.4150	482.98
30.4295	557.82
30.4439	548.33
30.4583	535.98
30.4728	587.21
30.4872	596.74
30.5017	607.55
30.5161	658.99
30.5305	688.93
30.5450	690.23
30.5594	773.17
30.5739	738.17
30.5883	729.05
30.6028	729.44
30.6172	748.12
30.6316	698.76
30.6461	685.90
30.6605	674.24
30.6750	625.79
30.6894	630.78
30.7038	579.71
30.7183	570.11
30.7327	524.84
30.7472	515.96
30.7616	525.06
30.7760	527.02
30.7905	532.02
30.8049	551.36
30.8194	527.48
30.8338	518.66
30.8482	521.96
30.8627	534.76
30.8771	535.81
30.8916	512.26
30.9060	530.78
30.9204	509.86
30.9349	545.86
30.9493	531.90
30.9638	507.53
30.9782	514.10
30.9926	511.79
31.0071	498.80
31.0215	497.65
31.0360	515.32
31.0504	509.04
31.0648	505.48
31.0793	505.25
31.0937	516.61
31.1082	503.14
31.1226	525.99
31.1370	538.91
31.1515	493.07
31.1659	520.40
31.1804	502.88
31.1948	488.00
31.2092	491.11
31.2237	492.99
31.2381	529.31
31.2526	523.75
31.2670	522.61
31.2814	513.70
31.2959	530.51
31.3103	525.11
31.3248	526.90
31.3392	521.67
31.3536	501.49
31.3681	509.81
31.3825	510.58
31.3970	501.40
31.4114	515.07
31.4258	535.63
31.4403	505.46
31.4547	492.02
31.4692	503.58
31.4836	508.39
31.4980	514.71
31.5125	494.91
31.5269	515.16
31.5414	540.33
31.5558	528.12
31.5702	522.78
31.5847	508.44
31.5991	524.51
31.6136	513.63
31.6280	508.71
31.6424	514.88
31.6569	490.15
31.6713	477.16
31.6858	486.83
31.7002	501.18
31.7146	526.49
31.7291	506.88
31.7435	518.94
31.7580	481.30
31.7724	485.04
31.7868	495.47
31.8013	521.86
31.8157	497.83
31.8302	493.99
31.8446	464.23
31.8590	466.73
31.8735	504.34
31.8879	443.32
31.9024	519.83
31.9168	512.11
31.9312	501.84
31.9457	488.40
31.9601	480.06
31.9746	498.50
31.9890	521.22
32.0034	485.29
32.0179	513.31
32.0323	517.90
32.0468	457.12
32.0612	528.26
32.0756	476.67
32.0901	504.30
32.1045	496.76
32.1190	494.22
32.1334	472.32
32.1478	489.15
32.1623	516.21
32.1767	538.27
32.1912	501.37
32.2056	492.49
32.2200	482.02
32.2345	500.60
32.2489	544.68
32.2634	483.80
32.2778	529.10
32.2922	511.32
32.3067	517.73
32.3211	484.04
32.3356	500.67
32.3500	494.11
32.3644	499.01
32.3789	479.22
32.3933	505.10
32.4078	469.69
32.4222	494.09
32.4366	513.13
32.4511	494.96
32.4655	515.51
32.4800	499.22
32.4944	473.36
32.5088	494.39
32.5233	506.59
32.5377	550.71
32.5522	509.44
32.5666	477.58
32.5810	510.75
32.5955	487.47
32.6099	519.23
32.6244	463.61
32.6388	509.12
32.6532	507.17
32.6677	483.39
32.6821	495.80
32.6966	518.25
32.7110	521.31
32.7254	523.03
32.7399	527.79
32.7543	524.16
32.7688	520.35
32.7832	517.06
32.7976	489.23
32.8121	456.07
32.8265	487.82
32.8410	474.20
32.8554	486.88
32.8698	491.02
32.8843	504.86
32.8987	522.13
32.9132	476.19
32.9276	502.09
32.9420	517.74
32.9565	477.57
32.9709	516.44
32.9854	475.83
32.9998	520.28
33.0142	506.77
33.0287	469.72
33.0431	495.27
33.0576	532.28
33.0720	509.22
33.0864	515.62
33.1009	525.85
33.1153	521.28
33.1298	504.79
33.1442	473.11
33.1586	517.37
33.1731	516.29
33.1875	493.91
33.2020	486.15
33.2164	505.12
33.2308	504.47
33.2453	523.94
33.2597	506.68
33.2742	498.49
33.2886	497.28
33.3030	484.50
33.3175	488.20
33.3319	498.89
33.3464	487.38
33.3608	513.10
33.3752	494.62
33.3897	508.83
33.4041	519.41
33.4186	542.79
33.4330	515.59
33.4474	469.10
33.4619	511.31
33.4763	508.36
33.4908	492.41
33.5052	536.29
33.5196	503.47
33.5341	509.36
33.5485	505.89
33.5630	520.17
33.5774	502.42
33.5918	505.34
33.6063	497.66
33.6207	491.98
33.6352	519.64
33.6496	491.54
33.6640	509.85
33.6785	502.25
33.6929	491.98
33.7074	496.13
33.7218	507.07
33.7362	519.37
33.7507	505.85
33.7651	478.44
33.7796	488.57
33.7940	498.03
33.8084	506.15
33.8229	481.47
33.8373	490.18
33.8518	507.48
33.8662	506.89
33.8806	489.60
33.8951	531.91
33.9095	546.82
33.9240	503.62
33.9384	501.04
33.9528	511.91
33.9673	513.17
33.9817	494.79
33.9962	502.73
34.0106	464.22
34.0250	485.74
34.0395	505.73
34.0539	536.00
34.0684	526.81
34.0828	487.02
34.0972	496.88
34.1117	497.27
34.1261	514.58
34.1406	504.78
34.1550	522.06
34.1694	527.94
34.1839	507.76
34.1983	506.92
34.2128	511.20
34.2272	512.78
34.2417	512.59
34.2561	533.28
34.2705	497.32
34.2850	498.87
34.2994	497.24
34.3139	529.12
34.3283	516.41
34.3427	479.21
34.3572	501.58
34.3716	506.50
34.3861	495.61
34.4005	501.01
34.4149	488.97
34.4294	471.35
34.4438	478.23
34.4583	549.38
34.4727	501.91
34.4871	497.72
34.5016	494.39
34.5160	499.92
34.5305	498.02
34.5449	524.02
34.5593	513.81
34.5738	481.72
34.5882	517.68
34.6027	512.57
34.6171	529.05
34.6315	507.51
34.6460	477.04
34.6604	508.57
34.6749	494.01
34.6893	484.87
34.7037	508.02
34.7182	502.05
34.7326	504.25
34.7471	515.83
34.7615	486.31
34.7759	504.65
34.7904	502.83
34.8048	498.33
34.8193	510.62
34.8337	508.35
34.8481	471.16
34.8626	517.58
34.8770	533.99
34.8915	490.71
34.9059	503.05
34.9203	525.45
34.9348	514.71
34.9492	502.13
34.9637	490.18
34.9781	522.74
34.9925	528.93
35.0070	528.89
35.0214	494.63
35.0359	488.75
35.0503	497.50
35.0647	481.22
35.0792	477.25
35.0936	483.84
35.1081	489.48
35.1225	494.93
35.1369	480.77
35.1514	473.97
35.1658	492.83
35.1803	510.68
35.1947	491.54
35.2091	486.75
35.2236	484.47
35.2380	516.46
35.2525	531.70
35.2669	545.29
35.2813	546.00
35.2958	500.25
35.3102	494.36
35.3247	549.65
35.3391	530.59
35.3535	518.99
35.3680	499.06
35.3824	496.29
35.3969	513.60
35.4113	510.88
35.4257	538.09
35.4402	514.17
35.4546	519.01
35.4691	523.13
35.4835	545.15
35.4979	525.72
35.5124	493.95
35.5268	540.19
35.5413	538.49
35.5557	545.33
35.5701	541.61
35.5846	513.55
35.5990	499.58
35.6135	522.59
35.6279	535.38
35.6423	534.75
35.6568	510.35
35.6712	557.44
35.6857	594.37
35.7001	649.78
35.7145	701.69
35.7290	714.94
35.7434	657.41
35.7579	631.78
35.7723	605.85
35.7867	679.90
35.8012	711.17
35.8156	732.75
35.8301	714.48
35.8445	708.10
35.8589	780.67
35.8734	869.14
35.8878	902.64
35.9023	1055.16
35.9167	1161.64
35.9311	1306.40
35.9456	1634.69
35.9600	1971.65
35.9745	2242.03
35.9889	2390.54
36.0033	2739.42
36.0178	3192.79
36.0322	3090.39
36.0467	2557.95
36.0611	2112.13
36.0755	1945.93
36.0900	2177.07
36.1044	1858.85
36.1189	1501.21
36.1333	1419.05
36.1477	1208.36
36.1622	1107.85
36.1766	960.97
36.1911	864.14
36.2055	792.71
36.2199	778.99
36.2344	723.08
36.2488	620.40
36.2633	571.03
36.2777	574.64
36.2921	548.77
36.3066	569.25
36.3210	555.33
36.3355	537.32
36.3499	531.49
36.3643	520.98
36.3788	537.68
36.3932	521.41
36.4077	558.59
36.4221	557.84
36.4365	556.37
36.4510	517.46
36.4654	529.90
36.4799	551.98
36.4943	521.77
36.5087	527.72
36.5232	538.04
36.5376	507.67
36.5521	492.89
36.5665	508.96
36.5809	496.47
36.5954	514.85
36.6098	537.45
36.6243	530.60
36.6387	511.40
36.6531	494.06
36.6676	513.49
36.6820	522.83
36.6965	504.29
36.7109	508.86
36.7253	529.24
36.7398	491.16
36.7542	535.32
36.7687	553.79
36.7831	546.74
36.7975	542.19
36.8120	555.58
36.8264	543.48
36.8409	538.61
36.8553	594.53
36.8697	595.33
36.8842	595.69
36.8986	568.69
36.9131	558.70
36.9275	543.97
36.9419	595.26
36.9564	564.16
36.9708	539.26
36.9853	569.43
36.9997	553.60
37.0141	578.97
37.0286	584.12
37.0430	530.19
37.0575	563.58
37.0719	518.34
37.0863	537.96
37.1008	499.91
37.1152	513.35
37.1297	527.54
37.1441	487.83
37.1585	480.08
37.1730	489.83
37.1874	502.47
37.2019	513.02
37.2163	524.44
37.2307	519.40
37.2452	496.33
37.2596	506.77
37.2741	512.13
37.2885	514.24
37.3029	481.59
37.3174	507.74
37.3318	522.75
37.3463	520.99
37.3607	487.65
37.3751	495.89
37.3896	465.07
37.4040	498.69
37.4185	520.83
37.4329	484.79
37.4473	460.28
37.4618	488.57
37.4762	520.62
37.4907	488.26
37.5051	499.50
37.5195	510.19
37.5340	514.15
37.5484	504.21
37.5629	524.92
37.5773	512.31
37.5917	520.82
37.6062	498.23
37.6206	503.02
37.6351	513.80
37.6495	472.30
37.6639	502.27
37.6784	482.97
37.6928	486.21
37.7073	525.93
37.7217	526.91
37.7361	500.44
37.7506	542.65
37.7650	525.85
37.7795	504.33
37.7939	508.49
37.8083	489.92
37.8228	472.27
37.8372	495.10
37.8517	487.35
37.8661	535.11
37.8805	496.20
37.8950	496.83
37.9094	501.86
37.9239	474.17
37.9383	483.57
37.9528	476.03
37.9672	517.45
37.9816	491.94
37.9961	507.05
38.0105	532.71
38.0250	519.88
38.0394	515.94
38.0538	508.90
38.0683	500.70
38.0827	538.80
38.0972	507.89
38.1116	524.10
38.1260	519.89
38.1405	538.09
38.1549	529.88
38.1694	502.81
38.1838	508.78
38.1982	478.26
38.2127	486.34
38.2271	501.70
38.2416	528.75
38.2560	529.88
38.2704	520.19
38.2849	513.96
38.2993	480.37
38.3138	499.28
38.3282	525.60
38.3426	548.08
38.3571	517.87
38.3715	511.84
38.3860	532.56
38.4004	538.67
38.4148	553.38
38.4293	571.21
38.4437	554.19
38.4582	592.63
38.4726	653.15
38.4870	672.96
38.5015	709.26
38.5159	781.21
38.5304	832.89
38.5448	838.50
38.5592	809.50
38.5737	744.20
38.5881	728.34
38.6026	713.57
38.6170	683.33
38.6314	670.16
38.6459	689.43
38.6603	653.30
38.6748	627.09
38.6892	615.63
38.7036	578.79
38.7181	563.89
38.7325	547.77
38.7470	520.27
38.7614	514.46
38.7758	524.03
38.7903	519.53
38.8047	525.68
38.8192	523.48
38.8336	513.67
38.8480	511.28
38.8625	506.82
38.8769	512.10
38.8914	472.05
38.9058	460.49
38.9202	468.53
38.9347	483.50
38.9491	486.14
38.9636	481.73
38.9780	471.98
38.9924	476.88
39.0069	483.36
39.0213	521.99
39.0358	544.55
39.0502	526.08
39.0646	524.86
39.0791	542.11
39.0935	520.23
39.1080	500.08
39.1224	503.86
39.1368	480.27
39.1513	483.11
39.1657	488.61
39.1802	492.03
39.1946	493.92
39.2090	525.57
39.2235	513.76
39.2379	495.35
39.2524	518.81
39.2668	478.41
39.2812	483.99
39.2957	478.19
39.3101	502.77
39.3246	513.50
39.3390	501.77
39.3534	482.36
39.3679	505.83
39.3823	513.36
39.3968	525.19
39.4112	496.92
39.4256	502.92
39.4401	500.35
39.4545	490.54
39.4690	504.45
39.4834	509.84
39.4978	507.42
39.5123	501.29
39.5267	514.39
39.5412	506.39
39.5556	509.13
39.5700	510.41
39.5845	538.24
39.5989	476.63
39.6134	477.24
39.6278	511.55
39.6422	484.96
39.6567	496.95
39.6711	481.35
39.6856	504.03
39.7000	505.88
39.7144	532.91
39.7289	485.73
39.7433	478.25
39.7578	485.86
39.7722	477.54
39.7866	500.54
39.8011	506.45
39.8155	502.84
39.8300	510.42
39.8444	486.94
39.8588	491.16
39.8733	489.55
39.8877	495.21
39.9022	518.40
39.9166	485.54
39.9310	492.30
39.9455	513.55
39.9599	468.62
39.9744	482.75
39.9888	507.83
40.0032	499.05
40.0177	504.49
40.0321	526.83
40.0466	490.44
40.0610	472.57
40.0754	492.77
40.0899	508.43
40.1043	479.83
40.1188	501.95
40.1332	487.97
40.1476	505.43
40.1621	471.24
40.1765	508.75
40.1910	493.82
40.2054	526.33
40.2198	497.65
40.2343	498.23
40.2487	477.87
40.2632	483.87
40.2776	508.81
40.2920	501.23
40.3065	508.97
40.3209	488.11
40.3354	509.94
40.3498	507.38
40.3642	481.14
40.3787	482.67
40.3931	513.28
40.4076	484.74
40.4220	521.35
40.4364	520.76
40.4509	479.23
40.4653	501.14
40.4798	497.86
40.4942	450.39
40.5086	463.34
40.5231	476.63
40.5375	491.80
40.5520	494.71
40.5664	479.41
40.5808	541.47
40.5953	510.47
40.6097	531.15
40.6242	504.62
40.6386	480.76
40.6530	515.52
40.6675	518.43
40.6819	473.49
40.6964	489.63
40.7108	511.95
40.7252	512.47
40.7397	466.90
40.7541	533.10
40.7686	501.18
40.7830	469.27
40.7974	482.36
40.8119	507.24
40.8263	503.36
40.8408	467.76
40.8552	468.51
40.8696	499.78
40.8841	475.47
40.8985	540.50
40.9130	596.96
40.9274	490.85
40.9418	473.92
40.9563	471.77
40.9707	477.29
40.9852	535.93
40.9996	533.02
41.0140	501.72
41.0285	464.00
41.0429	462.21
41.0574	513.49
41.0718	480.29
41.0862	542.70
41.1007	494.86
41.1151	490.65
41.1296	509.30
41.1440	478.14
41.1584	508.15
41.1729	517.35
41.1873	519.19
41.2018	533.75
41.2162	491.24
41.2306	515.90
41.2451	500.83
41.2595	513.69
41.2740	472.31
41.2884	492.80
41.3028	494.64
41.3173	491.93
41.3317	488.62
41.3462	527.87
41.3606	494.79
41.3750	491.86
41.3895	483.43
41.4039	487.78
41.4184	501.34
41.4328	474.44
41.4472	463.74
41.4617	512.88
41.4761	525.78
41.4906	485.71
41.5050	497.55
41.5194	514.98
41.5339	526.99
41.5483	520.85
41.5628	505.16
41.5772	462.06
41.5916	496.72
41.6061	482.28
41.6205	513.16
41.6350	499.03
41.6494	500.72
41.6639	477.19
41.6783	500.44
41.6927	490.19
41.7072	508.48
41.7216	502.83
41.7361	501.61
41.7505	482.71
41.7649	500.85
41.7794	530.69
41.7938	486.62
41.8083	472.46
41.8227	514.83
41.8371	538.90
41.8516	519.37
41.8660	517.38
41.8805	540.44
41.8949	556.61
41.9093	545.85
41.9238	547.08
41.9382	576.14
41.9527	574.93
41.9671	519.64
41.9815	541.93
41.9960	604.05
42.0104	564.43
42.0249	575.38
42.0393	549.43
42.0537	562.74
42.0682	570.92
42.0826	568.89
42.0971	551.81
42.1115	559.44
42.1259	581.43
42.1404	558.33
42.1548	581.33
42.1693	629.82
42.1837	688.38
42.1981	793.20
42.2126	885.49
42.2270	954.82
42.2415	1086.35
42.2559	1214.94
42.2703	1366.38
42.2848	1510.05
42.2992	1593.05
42.3137	1673.21
42.3281	1650.10
42.3425	1621.60
42.3570	1532.65
42.3714	1417.67
42.3859	1346.45
42.4003	1322.71
42.4147	1361.28
42.4292	1304.04
42.4436	1182.87
42.4581	1062.09
42.4725	941.37
42.4869	840.53
42.5014	722.82
42.5158	684.93
42.5303	683.51
42.5447	635.17
42.5591	626.12
42.5736	571.05
42.5880	573.36
42.6025	570.02
42.6169	555.74
42.6313	557.71
42.6458	524.51
42.6602	528.27
42.6747	560.93
42.6891	539.90
42.7035	534.19
42.7180	539.86
42.7324	538.49
42.7469	525.81
42.7613	519.35
42.7757	519.40
42.7902	503.00
42.8046	549.55
42.8191	542.41
42.8335	543.29
42.8479	556.99
42.8624	551.36
42.8768	536.43
42.8913	515.50
42.9057	534.98
42.9201	521.65
42.9346	519.11
42.9490	487.30
42.9635	487.13
42.9779	496.14
42.9923	488.16
43.0068	491.71
43.0212	523.23
43.0357	508.22
43.0501	505.97
43.0645	495.75
43.0790	512.45
43.0934	530.61
43.1079	519.45
43.1223	530.22
43.1367	508.34
43.1512	501.05
43.1656	505.28
43.1801	485.38
43.1945	531.45
43.2089	537.15
43.2234	509.67
43.2378	529.67
43.2523	503.61
43.2667	497.01
43.2811	543.48
43.2956	539.93
43.3100	523.71
43.3245	549.16
43.3389	534.29
43.3533	525.88
43.3678	491.66
43.3822	481.83
43.3967	486.81
43.4111	489.42
43.4255	512.29
43.4400	525.62
43.4544	546.87
43.4689	502.83
43.4833	521.87
43.4977	540.42
43.5122	518.32
43.5266	496.10
43.5411	477.42
43.5555	513.90
43.5699	524.26
43.5844	533.13
43.5988	524.36
43.6133	517.64
43.6277	526.74
43.6421	510.42
43.6566	536.03
43.6710	541.23
43.6855	555.63
43.6999	550.53
43.7143	634.04
43.7288	633.47
43.7432	672.59
43.7577	685.07
43.7721	674.87
43.7865	633.30
43.8010	614.69
43.8154	622.36
43.8299	662.86
43.8443	645.95
43.8587	615.70
43.8732	627.84
43.8876	610.87
43.9021	574.17
43.9165	585.58
43.9309	547.75
43.9454	485.03
43.9598	502.74
43.9743	520.63
43.9887	517.44
44.0031	521.75
44.0176	499.95
44.0320	511.07
44.0465	500.42
44.0609	535.98
44.0753	511.14
44.0898	513.43
44.1042	532.23
44.1187	487.73
44.1331	472.01
44.1475	484.76
44.1620	494.47
44.1764	516.07
44.1909	538.42
44.2053	500.64
44.2197	516.61
44.2342	531.77
44.2486	531.86
44.2631	529.15
44.2775	536.23
44.2919	506.58
44.3064	498.37
44.3208	509.57
44.3353	550.83
44.3497	558.23
44.3641	543.82
44.3786	527.33
44.3930	535.09
44.4075	505.67
44.4219	548.93
44.4363	592.44
44.4508	559.65
44.4652	586.53
44.4797	589.10
44.4941	575.51
44.5085	557.10
44.5230	556.82
44.5374	596.35
44.5519	551.14
44.5663	563.83
44.5807	558.37
44.5952	538.64
44.6096	605.40
44.6241	586.41
44.6385	585.47
44.6529	579.99
44.6674	543.75
44.6818	594.51
44.6963	638.14
44.7107	638.91
44.7251	634.21
44.7396	730.27
44.7540	797.68
44.7685	830.46
44.7829	923.81
44.7973	863.74
44.8118	903.15
44.8262	812.62
44.8407	765.46
44.8551	769.33
44.8695	755.41
44.8840	716.06
44.8984	728.80
44.9129	695.63
44.9273	708.70
44.9417	684.33
44.9562	611.52
44.9706	552.14
44.9851	549.19
44.9995	587.32
45.0139	586.89
45.0284	563.61
45.0428	509.70
45.0573	523.04
45.0717	520.75
45.0861	513.40
45.1006	489.66
45.1150	520.55
45.1295	540.08
45.1439	493.77
45.1583	512.51
45.1728	511.65
45.1872	450.32
45.2017	500.80
45.2161	525.83
45.2305	499.30
45.2450	492.96
45.2594	531.67
45.2739	508.29
45.2883	499.79
45.3028	525.73
45.3172	472.34
45.3316	517.16
45.3461	557.65
45.3605	504.59
45.3750	479.37
45.3894	508.04
45.4038	484.13
45.4183	473.70
45.4327	516.61
45.4472	486.46
45.4616	526.52
45.4760	522.68
45.4905	476.80
45.5049	497.50
45.5194	489.49
45.5338	480.75
45.5482	490.02
45.5627	526.76
45.5771	503.16
45.5916	510.14
45.6060	497.75
45.6204	464.95
45.6349	520.60
45.6493	506.57
45.6638	505.86
45.6782	524.80
45.6926	504.22
45.7071	523.83
45.7215	529.47
45.7360	526.05
45.7504	505.68
45.7648	504.82
45.7793	525.40
45.7937	535.02
45.8082	536.47
45.8226	494.25
45.8370	512.74
45.8515	477.63
45.8659	484.97
45.8804	494.91
45.8948	505.99
45.9092	523.39
45.9237	485.34
45.9381	472.19
45.9526	474.16
45.9670	469.64
45.9814	485.38
45.9959	491.94
46.0103	526.78
46.0248	475.14
46.0392	475.84
46.0536	516.62
46.0681	480.03
46.0825	501.24
46.0970	509.69
46.1114	528.43
46.1258	521.22
46.1403	501.66
46.1547	509.98
46.1692	495.99
46.1836	487.26
46.1980	501.72
46.2125	490.65
46.2269	508.41
46.2414	508.32
46.2558	497.64
46.2702	492.17
46.2847	531.89
46.2991	505.61
46.3136	501.27
46.3280	479.26
46.3424	495.76
46.3569	537.44
46.3713	498.76
46.3858	526.31
46.4002	506.68
46.4146	496.61
46.4291	504.32
46.4435	504.80
46.4580	510.41
46.4724	494.60
46.4868	503.75
46.5013	522.00
46.5157	532.77
46.5302	498.28
46.5446	501.66
46.5590	511.81
46.5735	468.99
46.5879	518.29
46.6024	485.74
46.6168	509.09
46.6312	502.17
46.6457	472.03
46.6601	489.87
46.6746	508.73
46.6890	497.05
46.7034	501.96
46.7179	487.61
46.7323	481.37
46.7468	514.65
46.7612	497.31
46.7756	529.61
46.7901	520.98
46.8045	507.56
46.8190	524.63
46.8334	498.86
46.8478	526.28
46.8623	536.86
46.8767	528.60
46.8912	497.61
46.9056	517.99
46.9200	472.76
46.9345	489.85
46.9489	519.24
46.9634	514.12
46.9778	546.19
46.9922	518.38
47.0067	491.29
47.0211	492.67
47.0356	523.76
47.0500	515.34
47.0644	531.84
47.0789	501.49
47.0933	488.07
47.1078	475.84
47.1222	524.87
47.1366	526.93
47.1511	499.03
47.1655	490.08
47.1800	499.76
47.1944	481.18
47.2088	500.14
47.2233	495.67
47.2377	484.14
47.2522	534.66
47.2666	517.76
47.2810	526.94
47.2955	511.94
47.3099	497.93
47.3244	511.12
47.3388	501.29
47.3532	496.43
47.3677	514.64
47.3821	514.08
47.3966	504.45
47.4110	480.48
47.4254	486.77
47.4399	492.32
47.4543	486.58
47.4688	524.64
47.4832	495.95
47.4976	525.50
47.5121	535.45
47.5265	487.58
47.5410	478.70
47.5554	499.38
47.5698	494.84
47.5843	521.40
47.5987	515.32
47.6132	514.20
47.6276	487.19
47.6420	510.17
47.6565	505.67
47.6709	502.13
47.6854	493.46
47.6998	506.18
47.7142	531.00
47.7287	508.21
47.7431	479.30
47.7576	480.56
47.7720	514.57
47.7864	514.18
47.8009	471.06
47.8153	490.88
47.8298	508.73
47.8442	516.02
47.8586	523.47
47.8731	515.70
47.8875	498.55
47.9020	536.95
47.9164	507.93
47.9308	507.06
47.9453	490.88
47.9597	486.44
47.9742	489.62
47.9886	478.99
48.0030	493.54
48.0175	531.96
48.0319	523.92
48.0464	504.44
48.0608	539.96
48.0752	510.14
48.0897	515.16
48.1041	486.95
48.1186	527.09
48.1330	519.30
48.1474	479.33
48.1619	510.30
48.1763	497.41
48.1908	501.42
48.2052	497.52
48.2196	537.29
48.2341	525.33
48.2485	503.09
48.2630	515.74
48.2774	500.65
48.2918	515.54
48.3063	494.87
48.3207	505.14
48.3352	488.37
48.3496	497.24
48.3640	496.21
48.3785	472.44
48.3929	489.42
48.4074	478.80
48.4218	518.84
48.4362	514.47
48.4507	530.66
48.4651	563.18
48.4796	518.15
48.4940	483.85
48.5084	524.79
48.5229	523.97
48.5373	510.70
48.5518	512.63
48.5662	514.43
48.5806	491.55
48.5951	529.28
48.6095	520.69
48.6240	484.19
48.6384	503.19
48.6528	515.03
48.6673	515.04
48.6817	507.75
48.6962	503.88
48.7106	542.51
48.7250	527.45
48.7395	519.40
48.7539	508.57
48.7684	529.18
48.7828	537.27
48.7972	533.89
48.8117	486.29
48.8261	559.06
48.8406	553.90
48.8550	553.17
48.8694	565.93
48.8839	582.53
48.8983	525.30
48.9128	565.60
48.9272	572.54
48.9416	580.70
48.9561	524.43
48.9705	555.60
48.9850	571.93
48.9994	556.70
49.0139	620.33
49.0283	598.26
49.0427	623.69
49.0572	637.04
49.0716	660.30
49.0861	651.33
49.1005	738.88
49.1149	746.29
49.1294	731.15
49.1438	771.48
49.1583	829.15
49.1727	895.45
49.1871	893.79
49.2016	937.44
49.2160	1062.34
49.2305	1152.01
49.2449	1212.36
49.2593	1365.19
49.2738	1381.02
49.2882	1547.38
49.3027	1664.38
49.3171	1698.85
49.3315	1776.24
49.3460	1793.98
49.3604	1819.89
49.3749	1824.92
49.3893	1848.10
49.4037	1798.91
49.4182	1830.92
49.4326	1810.95
49.4471	1666.69
49.4615	1654.91
49.4759	1567.89
49.4904	1525.36
49.5048	1427.95
49.5193	1389.62
49.5337	1324.48
49.5481	1233.23
49.5626	1117.42
49.5770	1081.89
49.5915	1032.61
49.6059	925.73
49.6203	936.89
49.6348	857.98
49.6492	753.10
49.6637	743.16
49.6781	749.42
49.6925	703.52
49.7070	656.84
49.7214	641.21
49.7359	634.86
49.7503	601.45
49.7647	592.81
49.7792	622.56
49.7936	595.95
49.8081	531.08
49.8225	534.83
49.8369	588.04
49.8514	551.26
49.8658	566.61
49.8803	558.02
49.8947	547.43
49.9091	514.28
49.9236	529.13
49.9380	524.52
49.9525	501.15
49.9669	518.34
49.9813	529.03
49.9958	509.45
50.0102	537.16
50.0247	543.63
50.0391	538.94
50.0535	545.61
50.0680	528.95
50.0824	538.79
50.0969	530.67
50.1113	529.78
50.1257	511.99
50.1402	525.76
50.1546	559.24
50.1691	522.08
50.1835	508.56
50.1979	516.06
50.2124	539.57
50.2268	528.88
50.2413	526.23
50.2557	514.05
50.2701	505.69
50.2846	521.33
50.2990	522.44
50.3135	494.48
50.3279	521.08
50.3423	520.88
50.3568	534.46
50.3712	511.44
50.3857	518.11
50.4001	525.63
50.4145	513.35
50.4290	559.80
50.4434	524.26
50.4579	485.10
50.4723	503.64
50.4867	506.14
50.5012	505.03
50.5156	523.65
50.5301	524.17
50.5445	516.39
50.5589	522.92
50.5734	506.09
50.5878	489.85
50.6023	496.33
50.6167	493.58
50.6311	484.96
50.6456	509.87
50.6600	521.61
50.6745	515.27
50.6889	498.93
50.7033	497.74
50.7178	526.50
50.7322	478.38
50.7467	506.39
50.7611	488.07
50.7755	496.52
50.7900	512.12
50.8044	509.45
50.8189	528.85
50.8333	501.31
50.8477	527.69
50.8622	524.88
50.8766	501.29
50.8911	496.15
50.9055	494.68
50.9199	509.93
50.9344	515.42
50.9488	474.27
50.9633	473.58
50.9777	506.43
50.9921	489.47
51.0066	484.42
51.0210	520.13
51.0355	503.34
51.0499	506.52
51.0643	512.41
51.0788	490.23
51.0932	488.07
51.1077	462.76
51.1221	504.73
51.1365	510.41
51.1510	495.43
51.1654	506.72
51.1799	503.73
51.1943	490.15
51.2087	524.47
51.2232	525.61
51.2376	507.28
51.2521	510.95
51.2665	484.17
51.2809	502.61
51.2954	512.99
51.3098	509.98
51.3243	495.09
51.3387	534.83
51.3531	522.28
51.3676	506.01
51.3820	489.87
51.3965	470.95
51.4109	501.48
51.4253	536.16
51.4398	485.05
51.4542	465.69
51.4687	466.07
51.4831	524.35
51.4975	521.93
51.5120	502.99
51.5264	485.45
51.5409	516.47
51.5553	499.02
51.5697	514.92
51.5842	526.59
51.5986	483.62
51.6131	515.79
51.6275	516.28
51.6419	527.38
51.6564	507.93
51.6708	529.99
51.6853	521.60
51.6997	498.50
51.7141	480.52
51.7286	482.30
51.7430	496.46
51.7575	493.82
51.7719	484.50
51.7863	498.76
51.8008	528.83
51.8152	539.82
51.8297	502.13
51.8441	531.20
51.8585	555.50
51.8730	528.74
51.8874	475.60
51.9019	483.58
51.9163	508.56
51.9307	503.80
51.9452	503.51
51.9596	509.14
51.9741	539.00
51.9885	520.07
52.0029	551.12
52.0174	498.43
52.0318	521.89
52.0463	505.34
52.0607	534.02
52.0751	495.13
52.0896	532.49
52.1040	493.04
52.1185	517.87
52.1329	532.70
52.1473	493.07
52.1618	516.28
52.1762	489.55
52.1907	479.28
52.2051	463.78
52.2195	505.18
52.2340	517.51
52.2484	494.58
52.2629	513.01
52.2773	504.99
52.2917	498.48
52.3062	499.80
52.3206	518.49
52.3351	521.45
52.3495	515.12
52.3639	490.61
52.3784	525.76
52.3928	519.60
52.4073	479.57
52.4217	524.50
52.4361	474.62
52.4506	480.41
52.4650	508.86
52.4795	559.66
52.4939	540.34
52.5083	490.01
52.5228	512.99
52.5372	497.40
52.5517	496.28
52.5661	505.09
52.5805	469.27
52.5950	504.56
52.6094	526.37
52.6239	526.00
52.6383	505.07
52.6527	504.17
52.6672	479.92
52.6816	497.61
52.6961	470.45
52.7105	498.74
52.7250	486.49
52.7394	509.81
52.7538	500.49
52.7683	470.50
52.7827	469.25
52.7972	496.07
52.8116	502.00
52.8260	490.07
52.8405	502.01
52.8549	479.65
52.8694	514.56
52.8838	531.49
52.8982	535.74
52.9127	517.38
52.9271	487.19
52.9416	514.23
52.9560	534.11
52.9704	529.91
52.9849	536.33
52.9993	559.80
53.0138	516.20
53.0282	494.49
53.0426	529.12
53.0571	501.04
53.0715	513.54
53.0860	527.02
53.1004	515.93
53.1148	509.55
53.1293	512.97
53.1437	467.83
53.1582	505.93
53.1726	513.48
53.1870	527.57
53.2015	497.38
53.2159	505.57
53.2304	459.62
53.2448	508.06
53.2592	504.03
53.2737	517.83
53.2881	506.89
53.3026	488.70
53.3170	512.51
53.3314	537.00
53.3459	541.62
53.3603	504.08
53.3748	510.92
53.3892	500.82
53.4036	509.53
53.4181	525.68
53.4325	510.98
53.4470	498.54
53.4614	495.46
53.4758	545.76
53.4903	514.03
53.5047	493.14
53.5192	501.99
53.5336	558.54
53.5480	516.04
53.5625	504.96
53.5769	524.61
53.5914	506.45
53.6058	537.56
53.6202	525.93
53.6347	525.03
53.6491	521.31
53.6636	517.31
53.6780	515.93
53.6924	518.65
53.7069	519.31
53.7213	515.82
53.7358	486.95
53.7502	527.32
53.7646	513.51
53.7791	511.00
53.7935	525.30
53.8080	500.04
53.8224	497.71
53.8368	514.33
53.8513	521.00
53.8657	517.60
53.8802	502.36
53.8946	508.11
53.9090	510.44
53.9235	532.39
53.9379	539.01
53.9524	539.58
53.9668	526.72
53.9812	526.36
53.9957	516.34
54.0101	520.29
54.0246	543.63
54.0390	553.10
54.0534	530.87
54.0679	516.74
54.0823	537.58
54.0968	489.05
54.1112	533.07
54.1256	548.13
54.1401	524.06
54.1545	525.96
54.1690	572.83
54.1834	575.99
54.1978	510.78
54.2123	561.24
54.2267	561.56
54.2412	612.67
54.2556	610.87
54.2700	612.41
54.2845	601.32
54.2989	616.55
54.3134	660.23
54.3278	638.87
54.3422	609.94
54.3567	609.37
54.3711	595.23
54.3856	595.63
54.4000	577.98
54.4144	554.25
54.4289	583.03
54.4433	548.39
54.4578	573.06
54.4722	575.89
54.4866	561.18
54.5011	543.34
54.5155	540.72
54.5300	533.82
54.5444	571.90
54.5588	555.19
54.5733	522.91
54.5877	527.75
54.6022	526.30
54.6166	546.10
54.6310	505.32
54.6455	522.39
54.6599	523.78
54.6744	494.75
54.6888	471.14
54.7032	509.01
54.7177	521.03
54.7321	489.67
54.7466	503.46
54.7610	493.99
54.7754	531.30
54.7899	524.74
54.8043	532.78
54.8188	495.31
54.8332	508.59
54.8476	509.65
54.8621	519.41
54.8765	500.43
54.8910	483.97
54.9054	538.49
54.9198	506.62
54.9343	501.91
54.9487	495.73
54.9632	500.71
54.9776	508.77
54.9920	484.21
55.0065	482.69
55.0209	475.23
55.0354	485.34
55.0498	497.32
55.0642	546.47
55.0787	505.72
55.0931	487.07
55.1076	481.07
55.1220	510.82
55.1364	528.96
55.1509	502.10
55.1653	515.32
55.1798	531.78
55.1942	528.73
55.2086	513.13
55.2231	531.60
55.2375	513.95
55.2520	535.25
55.2664	530.36
55.2808	526.73
55.2953	523.99
55.3097	537.90
55.3242	504.68
55.3386	495.17
55.3530	516.87
55.3675	510.89
55.3819	495.96
55.3964	493.02
55.4108	470.30
55.4252	559.47
55.4397	555.18
55.4541	501.46
55.4686	521.09
55.4830	527.77
55.4974	529.84
55.5119	515.66
55.5263	537.62
55.5408	518.58
55.5552	508.40
55.5696	517.62
55.5841	508.55
55.5985	513.00
55.6130	503.67
55.6274	522.52
55.6418	511.44
55.6563	515.12
55.6707	500.41
55.6852	473.63
55.6996	511.74
55.7140	530.92
55.7285	546.82
55.7429	511.20
55.7574	513.96
55.7718	496.69
55.7862	501.83
55.8007	504.34
55.8151	526.94
55.8296	500.18
55.8440	521.32
55.8584	514.42
55.8729	534.44
55.8873	499.56
55.9018	515.03
55.9162	516.46
55.9306	505.75
55.9451	507.18
55.9595	493.28
55.9740	507.88
55.9884	522.51
56.0028	538.54
56.0173	563.16
56.0317	556.52
56.0462	533.88
56.0606	515.91
56.0750	516.79
56.0895	558.64
56.1039	485.15
56.1184	522.71
56.1328	520.85
56.1472	509.74
56.1617	505.78
56.1761	522.37
56.1906	521.04
56.2050	515.97
56.2194	554.65
56.2339	531.52
56.2483	520.35
56.2628	546.34
56.2772	523.33
56.2916	522.19
56.3061	527.69
56.3205	502.36
56.3350	558.23
56.3494	535.08
56.3639	504.58
56.3783	526.89
56.3927	532.09
56.4072	507.92
56.4216	477.64
56.4361	523.64
56.4505	491.91
56.4649	503.76
56.4794	513.44
56.4938	527.70
56.5083	487.60
56.5227	538.20
56.5371	562.95
56.5516	470.69
56.5660	511.36
56.5805	500.80
56.5949	518.53
56.6093	527.43
56.6238	507.57
56.6382	529.54
56.6527	497.59
56.6671	509.18
56.6815	510.28
56.6960	537.95
56.7104	561.65
56.7249	510.07
56.7393	493.43
56.7537	515.26
56.7682	535.22
56.7826	525.37
56.7971	506.17
56.8115	539.43
56.8259	510.81
56.8404	502.50
56.8548	529.51
56.8693	521.52
56.8837	513.59
56.8981	503.99
56.9126	529.51
56.9270	491.58
56.9415	537.79
56.9559	513.96
56.9703	513.41
56.9848	496.25
56.9992	479.95
57.0137	496.18
57.0281	481.92
57.0425	523.27
57.0570	497.35
57.0714	497.82
57.0859	539.57
57.1003	529.42
57.1147	522.38
57.1292	544.46
57.1436	519.15
57.1581	495.78
57.1725	490.96
57.1869	535.19
57.2014	499.28
57.2158	507.69
57.2303	488.49
57.2447	522.65
57.2591	509.84
57.2736	537.98
57.2880	515.27
57.3025	523.49
57.3169	530.04
57.3313	503.72
57.3458	530.57
57.3602	557.26
57.3747	530.06
57.3891	548.98
57.4035	521.30
57.4180	509.55
57.4324	525.31
57.4469	528.06
57.4613	523.07
57.4757	548.74
57.4902	560.36
57.5046	532.42
57.5191	532.13
57.5335	571.65
57.5479	527.92
57.5624	506.62
57.5768	511.54
57.5913	544.06
57.6057	549.43
57.6201	542.24
57.6346	551.22
57.6490	549.01
57.6635	547.43
57.6779	505.50
57.6923	500.15
57.7068	517.80
57.7212	573.49
57.7357	545.82
57.7501	564.18
57.7645	598.76
57.7790	599.49
57.7934	594.31
57.8079	582.78
57.8223	612.40
57.8367	650.94
57.8512	712.07
57.8656	757.58
57.8801	753.23
57.8945	761.81
57.9089	740.75
57.9234	708.04
57.9378	715.06
57.9523	658.25
57.9667	622.83
57.9811	661.74
57.9956	661.49
58.0100	610.97
58.0245	673.37
58.0389	636.16
58.0533	675.44
58.0678	629.11
58.0822	653.72
58.0967	617.74
58.1111	594.40
58.1255	600.10
58.1400	576.36
58.1544	553.10
58.1689	595.15
58.1833	560.52
58.1977	546.47
58.2122	521.93
58.2266	558.81
58.2411	563.94
58.2555	542.30
58.2699	537.53
58.2844	536.09
58.2988	510.27
58.3133	527.79
58.3277	530.43
58.3421	525.04
58.3566	514.36
58.3710	523.87
58.3855	528.63
58.3999	539.43
58.4143	521.87
58.4288	559.59
58.4432	527.84
58.4577	512.67
58.4721	510.24
58.4865	517.26
58.5010	541.06
58.5154	523.03
58.5299	510.90
58.5443	531.37
58.5587	538.83
58.5732	511.11
58.5876	543.91
58.6021	540.32
58.6165	506.49
58.6309	533.52
58.6454	508.85
58.6598	520.07
58.6743	519.40
58.6887	499.35
58.7031	557.49
58.7176	534.15
58.7320	507.29
58.7465	518.34
58.7609	550.67
58.7753	539.79
58.7898	530.24
58.8042	529.89
58.8187	520.94
58.8331	525.67
58.8475	489.84
58.8620	533.16
58.8764	537.24
58.8909	488.35
58.9053	534.29
58.9197	502.46
58.9342	526.23
58.9486	521.54
58.9631	524.51
58.9775	545.54
58.9919	539.45
59.0064	502.40
59.0208	516.62
59.0353	515.51
59.0497	522.31
59.0641	526.38
59.0786	548.72
59.0930	572.08
59.1075	547.77
59.1219	565.53
59.1363	543.47
59.1508	482.83
59.1652	535.33
59.1797	551.14
59.1941	525.86
59.2085	528.84
59.2230	547.31
59.2374	549.45
59.2519	513.54
59.2663	492.22
59.2807	554.46
59.2952	540.85
59.3096	523.64
59.3241	576.52
59.3385	618.66
59.3529	552.65
59.3674	533.99
59.3818	528.33
59.3963	563.34
59.4107	556.56
59.4251	580.28
59.4396	566.73
59.4540	531.76
59.4685	556.70
59.4829	563.19
59.4973	545.58
59.5118	552.75
59.5262	549.48
59.5407	538.84
59.5551	548.97
59.5695	580.56
59.5840	581.67
59.5984	556.79
59.6129	551.24
59.6273	545.58
59.6417	506.20
59.6562	510.13
59.6706	547.73
59.6851	525.00
59.6995	522.68
59.7139	527.02
59.7284	540.15
59.7428	510.59
59.7573	552.38
59.7717	552.62
59.7861	545.10
59.8006	529.23
59.8150	558.61
59.8295	572.88
59.8439	516.83
59.8583	556.13
59.8728	534.34
59.8872	515.41
59.9017	524.60
59.9161	571.71
59.9305	543.23
59.9450	496.12
59.9594	499.27
59.9739	526.11
59.9883	476.16
60.0027	527.23
60.0172	546.29
60.0316	561.87
60.0461	537.15
60.0605	515.28
60.0750	556.88
60.0894	552.23
60.1038	557.66
60.1183	546.91
60.1327	516.98
60.1472	530.83
60.1616	548.75
60.1760	552.75
60.1905	532.90
60.2049	539.27
60.2194	523.10
60.2338	530.17
60.2482	518.08
60.2627	515.70
60.2771	537.11
60.2916	557.95
60.3060	522.13
60.3204	543.71
60.3349	526.51
60.3493	580.38
60.3638	534.46
60.3782	506.24
60.3926	530.06
60.4071	535.79
60.4215	574.29
60.4360	555.05
60.4504	513.55
60.4648	539.07
60.4793	540.59
60.4937	556.33
60.5082	557.29
60.5226	552.39
60.5370	543.61
60.5515	532.10
60.5659	532.41
60.5804	513.37
60.5948	508.43
60.6092	541.13
60.6237	506.42
60.6381	545.01
60.6526	511.05
60.6670	499.04
60.6814	517.98
60.6959	536.55
60.7103	565.15
60.7248	521.57
60.7392	555.20
60.7536	561.80
60.7681	511.21
60.7825	515.14
60.7970	538.45
60.8114	525.86
60.8258	554.56
60.8403	515.83
60.8547	533.42
60.8692	539.87
60.8836	551.77
60.8980	532.99
60.9125	544.33
60.9269	555.50
60.9414	526.50
60.9558	501.09
60.9702	542.24
60.9847	504.60
60.9991	542.51
61.0136	545.06
61.0280	571.82
61.0424	546.18
61.0569	533.35
61.0713	555.38
61.0858	570.75
61.1002	555.55
61.1146	545.63
61.1291	526.39
61.1435	529.41
61.1580	545.03
61.1724	564.52
61.1868	538.80
61.2013	499.92
61.2157	537.85
61.2302	535.20
61.2446	528.66
61.2590	522.04
61.2735	532.98
61.2879	552.00
61.3024	528.65
61.3168	573.10
61.3312	580.43
61.3457	555.91
61.3601	523.09
61.3746	542.35
61.3890	514.02
61.4034	562.33
61.4179	522.75
61.4323	549.70
61.4468	557.07
61.4612	540.26
61.4756	544.77
61.4901	550.71
61.5045	538.23
61.5190	537.31
61.5334	545.01
61.5478	527.51
61.5623	534.97
61.5767	513.33
61.5912	533.10
61.6056	544.53
61.6200	531.18
61.6345	559.30
61.6489	526.03
61.6634	546.60
61.6778	523.08
61.6922	532.16
61.7067	523.46
61.7211	520.73
61.7356	542.27
61.7500	555.17
61.7644	551.18
61.7789	554.33
61.7933	519.27
61.8078	551.89
61.8222	523.21
61.8366	562.95
61.8511	533.75
61.8655	511.28
61.8800	562.48
61.8944	578.42
61.9088	519.46
61.9233	549.55
61.9377	552.49
61.9522	523.64
61.9666	503.40
61.9810	573.93
61.9955	562.00
62.0099	559.87
62.0244	548.32
62.0388	523.86
62.0532	545.97
62.0677	576.91
62.0821	594.65
62.0966	588.19
62.1110	551.16
62.1254	562.74
62.1399	563.45
62.1543	496.68
62.1688	523.08
62.1832	537.55
62.1976	528.92
62.2121	574.75
62.2265	563.87
62.2410	587.11
62.2554	562.89
62.2698	506.14
62.2843	548.32
62.2987	557.00
62.3132	524.68
62.3276	534.83
62.3420	554.13
62.3565	565.57
62.3709	552.15
62.3854	539.42
62.3998	532.32
62.4142	532.74
62.4287	543.62
62.4431	550.60
62.4576	561.95
62.4720	559.93
62.4864	558.29
62.5009	520.47
62.5153	552.49
62.5298	567.21
62.5442	545.46
62.5586	575.89
62.5731	548.78
62.5875	537.23
62.6020	557.08
62.6164	561.08
62.6308	571.49
62.6453	554.79
62.6597	570.90
62.6742	558.97
62.6886	531.86
62.7030	577.78
62.7175	547.13
62.7319	528.63
62.7464	563.78
62.7608	522.97
62.7752	552.67
62.7897	556.67
62.8041	553.39
62.8186	547.36
62.8330	584.32
62.8474	570.07
62.8619	549.47
62.8763	577.89
62.8908	546.73
62.9052	554.42
62.9196	561.91
62.9341	542.19
62.9485	561.62
62.9630	560.02
62.9774	557.29
62.9918	558.84
63.0063	554.32
63.0207	578.95
63.0352	547.05
63.0496	553.10
63.0640	568.89
63.0785	600.42
63.0929	604.39
63.1074	595.56
63.1218	619.11
63.1362	580.62
63.1507	554.81
63.1651	567.44
63.1796	580.56
63.1940	570.30
63.2084	572.11
63.2229	588.52
63.2373	563.71
63.2518	565.95
63.2662	572.49
63.2806	616.51
63.2951	575.44
63.3095	595.50
63.3240	615.30
63.3384	646.69
63.3528	581.33
63.3673	599.36
63.3817	612.52
63.3962	617.57
63.4106	648.57
63.4250	694.70
63.4395	691.84
63.4539	621.89
63.4684	667.75
63.4828	725.29
63.4972	687.77
63.5117	758.55
63.5261	845.53
63.5406	881.89
63.5550	898.30
63.5694	904.52
63.5839	978.74
63.5983	978.77
63.6128	905.81
63.6272	849.57
63.6416	803.56
63.6561	796.39
63.6705	786.00
63.6850	735.39
63.6994	819.37
63.7138	832.92
63.7283	812.45
63.7427	787.15
63.7572	810.60
63.7716	784.05
63.7861	736.57
63.8005	732.97
63.8149	699.06
63.8294	691.94
63.8438	650.92
63.8583	680.47
63.8727	635.01
63.8871	647.90
63.9016	682.38
63.9160	687.14
63.9305	626.07
63.9449	621.74
63.9593	582.43
63.9738	598.07
63.9882	582.66
64.0027	558.84
64.0171	630.92
64.0315	612.64
64.0460	602.85
64.0604	590.30
64.0749	626.70
64.0893	652.60
64.1037	590.60
64.1182	604.68
64.1326	603.91
64.1471	570.55
64.1615	615.65
64.1759	619.32
64.1904	592.69
64.2048	620.53
64.2193	592.48
64.2337	601.13
64.2481	603.35
64.2626	599.47
64.2770	609.26
64.2915	561.06
64.3059	596.85
64.3203	621.10
64.3348	619.45
64.3492	619.29
64.3637	574.22
64.3781	600.92
64.3925	582.33
64.4070	578.69
64.4214	645.97
64.4359	608.70
64.4503	559.96
64.4647	622.12
64.4792	625.00
64.4936	594.72
64.5081	610.90
64.5225	599.23
64.5369	605.53
64.5514	646.31
64.5658	589.41
64.5803	607.21
64.5947	662.46
64.6091	647.13
64.6236	670.64
64.6380	636.16
64.6525	659.53
64.6669	674.74
64.6813	657.37
64.6958	669.84
64.7102	673.22
64.7247	624.98
64.7391	692.36
64.7535	697.19
64.7680	699.52
64.7824	683.83
64.7969	748.82
64.8113	750.00
64.8257	804.71
64.8402	814.22
64.8546	840.49
64.8691	846.78
64.8835	839.90
64.8979	842.65
64.9124	846.75
64.9268	825.38
64.9413	864.44
64.9557	877.46
64.9701	930.66
64.9846	973.21
64.9990	1090.36
65.0135	1221.17
65.0279	1367.35
65.0423	1610.70
65.0568	1893.83
65.0712	2457.34
65.0857	3256.34
65.1001	4194.30
65.1145	5728.28
65.1290	7548.84
65.1434	9110.89
65.1579	10620.36
65.1723	11444.57
65.1867	11057.22
65.2012	9881.89
65.2156	8384.03
65.2301	6564.64
65.2445	5360.40
65.2589	4487.45
65.2734	4115.32
65.2878	4241.07
65.3023	4715.38
65.3167	5505.22
65.3311	6287.42
65.3456	6819.63
65.3600	6813.92
65.3745	6496.49
65.3889	5530.71
65.4033	4427.04
65.4178	3518.98
65.4322	2700.14
65.4467	2089.67
65.4611	1745.14
65.4755	1527.75
65.4900	1284.65
65.5044	1106.56
65.5189	1006.10
65.5333	963.04
65.5477	881.48
65.5622	856.01
65.5766	846.65
65.5911	852.03
65.6055	788.23
65.6199	761.81
65.6344	794.77
65.6488	813.40
65.6633	746.36
65.6777	651.26
65.6921	666.28
65.7066	733.82
65.7210	738.93
65.7355	694.97
65.7499	698.59
65.7643	682.25
65.7788	678.99
65.7932	677.40
65.8077	672.98
65.8221	633.56
65.8365	637.79
65.8510	633.44
65.8654	653.35
65.8799	639.08
65.8943	624.81
65.9087	617.13
65.9232	622.00
65.9376	634.15
65.9521	628.01
65.9665	635.11
65.9809	624.86
65.9954	623.34
66.0098	603.93
66.0243	606.96
66.0387	615.11
66.0531	571.40
66.0676	610.99
66.0820	630.14
66.0965	617.13
66.1109	619.34
66.1253	624.54
66.1398	624.00
66.1542	599.27
66.1687	619.97
66.1831	616.49
66.1975	614.67
66.2120	633.81
66.2264	625.81
66.2409	601.93
66.2553	596.12
66.2697	611.62
66.2842	594.27
66.2986	585.54
66.3131	610.76
66.3275	594.21
66.3419	609.62
66.3564	594.67
66.3708	587.74
66.3853	570.36
66.3997	579.91
66.4141	617.19
66.4286	640.74
66.4430	606.82
66.4575	603.37
66.4719	625.94
66.4863	611.45
66.5008	590.84
66.5152	585.78
66.5297	586.87
66.5441	607.03
66.5585	602.36
66.5730	572.08
66.5874	608.57
66.6019	594.20
66.6163	577.50
66.6307	588.49
66.6452	616.37
66.6596	582.33
66.6741	572.71
66.6885	567.60
66.7029	622.79
66.7174	589.47
66.7318	565.71
66.7463	541.48
66.7607	540.10
66.7751	566.45
66.7896	602.16
66.8040	602.46
66.8185	605.58
66.8329	599.95
66.8473	564.40
66.8618	595.04
66.8762	587.78
66.8907	572.49
66.9051	607.91
66.9195	575.15
66.9340	525.42
66.9484	586.48
66.9629	593.46
66.9773	576.48
66.9917	585.81
67.0062	581.43
67.0206	600.69
67.0351	598.18
67.0495	577.81
67.0639	609.35
67.0784	584.02
67.0928	580.70
67.1073	598.35
67.1217	602.19
67.1361	559.18
67.1506	561.80
67.1650	554.89
67.1795	543.32
67.1939	558.77
67.2083	573.94
67.2228	588.57
67.2372	618.16
67.2517	592.55
67.2661	568.78
67.2805	568.54
67.2950	562.01
67.3094	593.27
67.3239	582.68
67.3383	603.06
67.3527	606.18
67.3672	552.65
67.3816	524.20
67.3961	559.74
67.4105	549.96
67.4250	579.52
67.4394	564.47
67.4538	539.91
67.4683	585.83
67.4827	578.21
67.4972	551.29
67.5116	541.98
67.5260	581.44
67.5405	579.88
67.5549	572.28
67.5694	551.67
67.5838	581.53
67.5982	606.57
67.6127	555.68
67.6271	599.47
67.6416	617.66
67.6560	574.12
67.6704	535.93
67.6849	551.04
67.6993	593.69
67.7138	596.56
67.7282	569.62
67.7426	529.87
67.7571	571.34
67.7715	594.39
67.7860	585.51
67.8004	587.25
67.8148	583.08
67.8293	583.50
67.8437	552.97
67.8582	546.52
67.8726	573.12
67.8870	597.84
67.9015	606.65
67.9159	598.50
67.9304	544.74
67.9448	533.32
67.9592	532.21
67.9737	547.68
67.9881	578.36
68.0026	560.04
68.0170	578.36
68.0314	580.55
68.0459	561.54
68.0603	573.66
68.0748	578.16
68.0892	612.38
68.1036	560.20
68.1181	592.02
68.1325	569.58
68.1470	555.50
68.1614	556.46
68.1758	577.78
68.1903	580.06
68.2047	572.07
68.2192	572.04
68.2336	570.99
68.2480	587.37
68.2625	567.13
68.2769	568.29
68.2914	569.77
68.3058	519.92
68.3202	525.45
68.3347	614.13
68.3491	599.95
68.3636	585.18
68.3780	581.50
68.3924	571.09
68.4069	592.98
68.4213	598.58
68.4358	564.41
68.4502	536.68
68.4646	577.23
68.4791	628.58
68.4935	543.16
68.5080	529.13
68.5224	545.01
68.5368	532.01
68.5513	555.66
68.5657	547.80
68.5802	541.47
68.5946	606.71
68.6090	567.16
68.6235	574.28
68.6379	587.54
68.6524	585.56
68.6668	572.43
68.6812	520.74
68.6957	524.15
68.7101	621.84
68.7246	555.29
68.7390	568.96
68.7534	597.13
68.7679	571.46
68.7823	575.39
68.7968	566.65
68.8112	570.90
68.8256	552.50
68.8401	579.19
68.8545	557.90
68.8690	517.40
68.8834	524.32
68.8978	572.96
68.9123	594.06
68.9267	575.49
68.9412	602.28
68.9556	538.52
68.9700	514.96
68.9845	521.14
68.9989	599.09
69.0134	591.68
69.0278	534.39
69.0422	542.27
69.0567	578.31
69.0711	585.17
69.0856	559.88
69.1000	603.29
69.1144	534.02
69.1289	587.73
69.1433	562.74
69.1578	549.20
69.1722	584.29
69.1866	632.04
69.2011	536.20
69.2155	604.20
69.2300	596.59
69.2444	632.05
69.2588	583.36
69.2733	586.15
69.2877	560.89
69.3022	598.45
69.3166	573.74
69.3310	554.13
69.3455	595.96
69.3599	567.08
69.3744	573.97
69.3888	534.63
69.4032	590.52
69.4177	541.43
69.4321	589.17
69.4466	586.94
69.4610	638.19
69.4754	597.28
69.4899	611.49
69.5043	552.64
69.5188	572.63
69.5332	526.97
69.5476	593.51
69.5621	591.79
69.5765	563.14
69.5910	581.07
69.6054	527.21
69.6198	547.34
69.6343	605.03
69.6487	613.84
69.6632	591.26
69.6776	575.55
69.6920	572.86
69.7065	576.26
69.7209	561.51
69.7354	545.19
69.7498	588.76
69.7642	541.07
69.7787	595.46
69.7931	557.07
69.8076	587.80
69.8220	559.93
69.8364	535.12
69.8509	586.56
69.8653	610.72
69.8798	578.04
69.8942	612.51
69.9086	562.84
69.9231	599.20
69.9375	608.63
69.9520	591.63
69.9664	635.57
69.9808	583.81
69.9953	580.85
70.0097	613.02
70.0242	604.81
70.0386	544.96
70.0530	519.77
70.0675	541.73
70.0819	567.38
70.0964	577.89
70.1108	527.21
70.1252	556.63
70.1397	604.51
70.1541	551.01
70.1686	584.42
70.1830	616.95
70.1974	528.42
70.2119	554.38
70.2263	597.04
70.2408	562.32
70.2552	583.96
70.2696	561.63
70.2841	559.07
70.2985	531.83
70.3130	557.72
70.3274	550.97
70.3418	575.09
70.3563	624.41
70.3707	575.90
70.3852	591.75
70.3996	558.66
70.4140	544.57
70.4285	590.29
70.4429	504.36
70.4574	574.13
70.4718	594.93
70.4862	522.45
70.5007	558.51
70.5151	553.35
70.5296	536.32
70.5440	566.25
70.5584	594.04
70.5729	552.80
70.5873	544.99
70.6018	540.81
70.6162	559.21
70.6306	571.46
70.6451	559.80
70.6595	589.58
70.6740	561.51
70.6884	569.47
70.7028	667.60
70.7173	631.36
70.7317	518.18
70.7462	551.80
70.7606	538.07
70.7750	559.58
70.7895	606.85
70.8039	588.94
70.8184	635.69
70.8328	617.13
70.8472	552.04
70.8617	537.17
70.8761	578.97
70.8906	582.62
70.9050	589.63
70.9194	593.11
70.9339	591.21
70.9483	605.58
70.9628	628.60
70.9772	609.95
70.9916	567.73
71.0061	601.35
71.0205	570.51
71.0350	569.67
71.0494	587.06
71.0638	632.48
71.0783	593.06
71.0927	592.06
71.1072	550.94
71.1216	570.14
71.1361	591.96
71.1505	576.37
71.1649	582.01
71.1794	555.79
71.1938	571.17
71.2083	608.37
71.2227	597.69
71.2371	612.47
71.2516	578.00
71.2660	561.68
71.2805	593.15
71.2949	608.02
71.3093	571.54
71.3238	557.54
71.3382	584.03
71.3527	574.95
71.3671	568.39
71.3815	551.67
71.3960	523.23
71.4104	536.52
71.4249	609.55
71.4393	603.28
71.4537	592.76
71.4682	643.18
71.4826	584.20
71.4971	558.22
71.5115	526.02
71.5259	571.43
71.5404	608.14
71.5548	601.66
71.5693	607.66
71.5837	569.50
71.5981	543.11
71.6126	564.61
71.6270	598.22
71.6415	603.47
71.6559	551.02
71.6703	587.27
71.6848	567.17
71.6992	578.75
71.7137	590.43
71.7281	557.00
71.7425	525.11
71.7570	553.84
71.7714	561.63
71.7859	540.18
71.8003	570.83
71.8147	598.00
71.8292	560.18
71.8436	568.73
71.8581	562.49
71.8725	564.23
71.8869	540.82
71.9014	582.48
71.9158	609.08
71.9303	576.07
71.9447	562.47
71.9591	568.05
71.9736	639.24
71.9880	648.19
72.0025	601.35
72.0169	552.09
72.0313	601.22
72.0458	642.60
72.0602	570.46
72.0747	585.93
72.0891	673.74
72.1035	613.62
72.1180	584.27
72.1324	622.30
72.1469	597.18
72.1613	632.81
72.1757	665.63
72.1902	674.85
72.2046	660.80
72.2191	596.66
72.2335	615.31
72.2479	636.49
72.2624	619.14
72.2768	637.37
72.2913	603.66
72.3057	546.34
72.3201	560.58
72.3346	618.76
72.3490	634.99
72.3635	573.75
72.3779	563.59
72.3923	499.90
72.4068	516.72
72.4212	637.54
72.4357	586.59
72.4501	577.19
72.4645	589.42
72.4790	605.73
72.4934	586.82
72.5079	615.56
72.5223	590.45
72.5367	519.72
72.5512	564.57
72.5656	621.79
72.5801	573.83
72.5945	526.20
72.6089	490.27
72.6234	536.27
72.6378	556.58
72.6523	537.00
72.6667	544.35
72.6811	516.72
72.6956	496.71
72.7100	573.66
72.7245	551.01
72.7389	567.19
72.7533	578.51
72.7678	617.18
72.7822	631.83
72.7967	603.38
72.8111	642.62
72.8255	556.77
72.8400	490.33
72.8544	555.13
72.8689	609.60
72.8833	579.04

Result vector
22.1120	589.97
22.1264	604.68
22.1409	587.30
22.1553	618.05
22.1697	582.07
22.1842	499.96
22.1986	516.78
22.2131	580.47
22.2275	512.60
22.2419	570.90
22.2564	633.75
22.2708	605.73
22.2853	575.89
22.2997	618.82
22.3141	642.57
22.3286	618.36
22.3430	551.29
22.3575	531.42
22.3719	558.58
22.3863	518.33
22.4008	533.38
22.4152	635.65
22.4297	594.65
22.4441	598.86
22.4585	548.99
22.4730	641.08
22.4874	564.75
22.5019	552.09
22.5163	558.20
22.5307	558.32
22.5452	517.93
22.5596	543.96
22.5741	579.98
22.5885	626.28
22.6029	636.51
22.6174	521.23
22.6318	520.81
22.6463	611.78
22.6607	563.33
22.6751	568.85
22.6896	610.13
22.7040	568.76
22.7185	620.67
22.7329	598.50
22.7473	628.15
22.7618	621.27
22.7762	620.63
22.7907	570.81
22.8051	580.97
22.8195	564.40
22.8340	512.57
22.8484	623.64
22.8629	555.05
22.8773	573.61
22.8917	547.76
22.9062	534.84
22.9206	539.14
22.9351	516.38
22.9495	441.05
22.9639	554.77
22.9784	583.97
22.9928	537.77
23.0073	541.70
23.0217	601.79
23.0361	635.12
23.0506	579.15
23.0650	683.01
23.0795	592.68
23.0939	643.87
23.1083	573.77
23.1228	569.17
23.1372	525.32
23.1517	501.06
23.1661	556.38
23.1806	584.95
23.1950	536.37
23.2094	553.21
23.2239	567.82
23.2383	577.01
23.2528	548.85
23.2672	551.65
23.2816	558.78
23.2961	518.72
23.3105	601.85
23.3250	522.84
23.3394	533.87
23.3538	585.50
23.3683	662.24
23.3827	545.81
23.3972	540.39
23.4116	529.25
23.4260	581.48
23.4405	535.50
23.4549	487.07
23.4694	529.37
23.4838	503.01
23.4982	550.88
23.5127	568.48
23.5271	532.17
23.5416	549.36
23.5560	616.87
23.5704	603.44
23.5849	571.25
23.5993	474.51
23.6138	589.37
23.6282	586.22
23.6426	510.06
23.6571	524.62
23.6715	512.56
23.6860	514.49
23.7004	553.26
23.7148	550.06
23.7293	594.63
23.7437	582.74
23.7582	572.00
23.7726	548.04
23.7870	586.61
23.8015	574.54
23.8159	548.57
23.8304	562.73
23.8448	593.32
23.8592	614.63
23.8737	582.01
23.8881	547.68
23.9026	619.99
23.9170	596.16
23.9314	493.24
23.9459	552.28
23.9603	512.31
23.9748	582.08
23.9892	505.90
24.0036	568.01
24.0181	537.90
24.0325	531.15
24.0470	538.35
24.0614	543.61
24.0758	574.71
24.0903	548.45
24.1047	511.25
24.1192	573.48
24.1336	547.38
24.1480	564.83
24.1625	551.86
24.1769	536.25
24.1914	611.71
24.2058	583.63
24.2202	592.00
24.2347	626.95
24.2491	582.20
24.2636	603.73
24.2780	620.57
24.2924	562.28
24.3069	595.95
24.3213	582.62
24.3358	592.12
24.3502	510.65
24.3646	566.43
24.3791	503.57
24.3935	551.23
24.4080	499.03
24.4224	559.60
24.4368	544.88
24.4513	502.24
24.4657	558.58
24.4802	567.58
24.4946	556.31
24.5090	521.55
24.5235	546.23
24.5379	535.53
24.5524	513.82
24.5668	554.55
24.5812	591.82
24.5957	554.00
24.6101	541.60
24.6246	564.82
24.6390	571.57
24.6534	542.36
24.6679	511.91
24.6823	530.39
24.6968	536.01
24.7112	576.17
24.7256	574.65
24.7401	560.79
24.7545	525.20
24.7690	528.88
24.7834	554.75
24.7978	498.36
24.8123	555.29
24.8267	541.22
24.8412	538.68
24.8556	542.88
24.8700	521.00
24.8845	535.12
24.8989	555.06
24.9134	604.96
24.9278	521.62
24.9422	477.07
24.9567	481.49
24.9711	519.90
24.9856	512.70
25.0000	526.46
25.0144	565.79
25.0289	601.36
25.0433	551.24
25.0578	457.81
25.0722	511.32
25.0866	578.84
25.1011	541.38
25.1155	550.50
25.1300	564.75
25.1444	543.08
25.1588	565.88
25.1733	549.92
25.1877	544.56
25.2022	550.90
25.2166	537.70
25.2310	531.67
25.2455	552.64
25.2599	559.93
25.2744	546.88
25.2888	538.05
25.3032	549.12
25.3177	523.09
25.3321	515.99
25.3466	507.28
25.3610	541.57
25.3754	551.37
25.3899	522.49
25.4043	493.62
25.4188	533.41
25.4332	590.65
25.4476	552.30
25.4621	565.05
25.4765	537.87
25.4910	508.20
25.5054	545.33
25.5198	544.12
25.5343	547.48
25.5487	523.85
25.5632	497.09
25.5776	530.92
25.5920	530.93
25.6065	509.92
25.6209	522.14
25.6354	536.95
25.6498	515.24
25.6642	535.42
25.6787	529.44
25.6931	495.04
25.7076	531.89
25.7220	515.08
25.7364	529.97
25.7509	575.26
25.7653	565.69
25.7798	570.69
25.7942	577.72
25.8086	520.85
25.8231	565.43
25.8375	557.58
25.8520	557.44
25.8664	541.94
25.8808	516.35
25.8953	521.18
25.9097	514.15
25.9242	530.61
25.9386	530.89
25.9530	508.18
25.9675	518.99
25.9819	572.47
25.9964	543.80
26.0108	495.00
26.0252	510.85
26.0397	514.88
26.0541	527.68
26.0686	515.11
26.0830	539.89
26.0974	547.46
26.1119	545.39
26.1263	571.01
26.1408	515.77
26.1552	519.62
26.1696	533.15
26.1841	539.85
26.1985	518.90
26.2130	525.93
26.2274	553.18
26.2418	501.64
26.2563	504.04
26.2707	499.49
26.2852	502.31
26.2996	501.85
26.3140	510.52
26.3285	512.82
26.3429	519.69
26.3574	509.11
26.3718	495.63
26.3862	495.44
26.4007	498.06
26.4151	537.66
26.4296	554.57
26.4440	521.73
26.4584	508.91
26.4729	520.82
26.4873	553.63
26.5018	534.37
26.5162	526.40
26.5306	556.74
26.5451	509.51
26.5595	509.93
26.5740	536.22
26.5884	551.58
26.6028	548.44
26.6173	541.25
26.6317	513.91
26.6462	492.02
26.6606	537.05
26.6750	521.09
26.6895	507.71
26.7039	536.51
26.7184	561.09
26.7328	525.33
26.7472	514.51
26.7617	528.47
26.7761	522.04
26.7906	478.80
26.8050	528.18
26.8194	544.10
26.8339	512.32
26.8483	490.87
26.8628	528.78
26.8772	499.12
26.8917	480.14
26.9061	490.42
26.9205	509.37
26.9350	510.77
26.9494	493.63
26.9639	506.32
26.9783	538.44
26.9927	526.32
27.0072	510.73
27.0216	514.71
27.0361	517.21
27.0505	520.54
27.0649	540.03
27.0794	497.77
27.0938	526.92
27.1083	532.22
27.1227	558.76
27.1371	523.93
27.1516	538.70
27.1660	544.79
27.1805	518.94
27.1949	499.99
27.2093	529.84
27.2238	558.33
27.2382	556.22
27.2527	514.42
27.2671	490.79
27.2815	493.06
27.2960	491.98
27.3104	512.68
27.3249	517.12
27.3393	546.75
27.3537	544.51
27.3682	518.12
27.3826	515.38
27.3971	500.82
27.4115	492.64
27.4259	531.24
27.4404	510.20
27.4548	494.73
27.4693	508.47
27.4837	528.77
27.4981	495.18
27.5126	480.67
27.5270	527.04
27.5415	537.32
27.5559	539.21
27.5703	516.61
27.5848	530.19
27.5992	534.76
27.6137	515.65
27.6281	509.41
27.6425	490.50
27.6570	512.12
27.6714	530.51
27.6859	499.37
27.7003	509.88
27.7147	513.33
27.7292	519.66
27.7436	513.74
27.7581	512.52
27.7725	503.98
27.7869	507.02
27.8014	533.51
27.8158	522.43
27.8303	529.40
27.8447	503.97
27.8591	496.64
27.8736	507.39
27.8880	496.56
27.9025	536.93
27.9169	517.43
27.9313	498.74
27.9458	510.87
27.9602	518.96
27.9747	500.49
27.9891	526.63
28.0035	534.36
28.0180	493.82
28.0324	521.28
28.0469	487.64
28.0613	503.45
28.0757	510.70
28.0902	506.78
28.1046	488.59
28.1191	516.45
28.1335	487.64
28.1479	495.21
28.1624	510.85
28.1768	539.94
28.1913	508.24
28.2057	538.29
28.2201	501.33
28.2346	534.05
28.2490	551.12
28.2635	514.95
28.2779	500.38
28.2923	514.99
28.3068	521.00
28.3212	500.00
28.3357	559.53
28.3501	515.93
28.3645	525.43
28.3790	501.02
28.3934	510.89
28.4079	482.11
28.4223	480.05
28.4367	525.16
28.4512	538.54
28.4656	517.10
28.4801	512.38
28.4945	530.84
28.5089	510.96
28.5234	516.46
28.5378	537.52
28.5523	509.10
28.5667	525.97
28.5811	482.03
28.5956	513.09
28.6100	522.32
28.6245	499.25
28.6389	529.53
28.6533	531.32
28.6678	521.47
28.6822	512.32
28.6967	531.76
28.7111	549.84
28.7255	516.19
28.7400	509.77
28.7544	508.48
28.7689	506.13
28.7833	514.54
28.7977	535.85
28.8122	519.99
28.8266	522.10
28.8411	500.08
28.8555	510.24
28.8699	532.17
28.8844	527.87
28.8988	536.41
28.9133	514.37
28.9277	500.18
28.9421	502.08
28.9566	544.11
28.9710	502.69
28.9855	514.48
28.9999	545.66
29.0143	528.00
29.0288	513.47
29.0432	507.02
29.0577	546.10
29.0721	501.86
29.0865	530.41
29.1010	518.45
29.1154	483.94
29.1299	510.93
29.1443	509.32
29.1587	516.62
29.1732	510.17
29.1876	500.93
29.2021	470.68
29.2165	490.45
29.2309	495.46
29.2454	525.54
29.2598	549.70
29.2743	494.25
29.2887	502.14
29.3031	504.54
29.3176	489.49
29.3320	528.58
29.3465	554.05
29.3609	538.18
29.3753	499.17
29.3898	475.03
29.4042	506.32
29.4187	516.25
29.4331	519.89
29.4475	489.58
29.4620	502.16
29.4764	490.49
29.4909	513.77
29.5053	501.23
29.5197	509.30
29.5342	493.09
29.5486	511.06
29.5631	526.85
29.5775	521.94
29.5919	506.19
29.6064	478.76
29.6208	513.28
29.6353	480.68
29.6497	474.17
29.6641	499.97
29.6786	494.41
29.6930	500.26
29.7075	541.02
29.7219	504.09
29.7363	464.97
29.7508	498.74
29.7652	479.39
29.7797	500.30
29.7941	525.74
29.8085	531.32
29.8230	527.05
29.8374	553.84
29.8519	516.37
29.8663	536.56
29.8807	515.72
29.8952	514.21
29.9096	547.02
29.9241	489.67
29.9385	452.23
29.9529	530.88
29.9674	512.78
29.9818	461.96
29.9963	516.65
30.0107	504.95
30.0251	527.48
30.0396	481.33
30.0540	503.88
30.0685	516.38
30.0829	478.89
30.0973	493.30
30.1118	503.44
30.1262	511.27
30.1407	553.53
30.1551	505.34
30.1695	498.71
30.1840	490.91
30.1984	518.91
30.2129	503.95
30.2273	490.72
30.2417	506.18
30.2562	482.70
30.2706	507.60
30.2851	500.60
30.2995	522.38
30.3139	524.04
30.3284	516.47
30.3428	514.74
30.3573	484.05
30.3717	487.04
30.3861	485.20
30.4006	482.85
30.4150	482.98
30.4295	557.82
30.4439	548.33
30.4583	535.98
30.4728	587.21
30.4872	596.74
30.5017	607.55
30.5161	658.99
30.5305	688.93
30.5450	690.23
30.5594	773.17
30.5739	738.17
30.5883	729.05
30.6028	729.44
30.6172	748.12
30.6316	698.76
30.6461	685.90
30.6605	674.24
30.6750	625.79
30.6894	630.78
30.7038	579.71
30.7183	570.11
30.7327	524.84
30.7472	515.96
30.7616	525.06
30.7760	527.02
30.7905	532.02
30.8049	551.36
30.8194	527.48
30.8338	518.66
30.8482	521.96
30.8627	534.76
30.8771	535.81
30.8916	512.26
30.9060	530.78
30.9204	509.86
30.9349	545.86
30.9493	531.90
30.9638	507.53
30.9782	514.10
30.9926	511.79
31.0071	498.80
31.0215	497.65
31.0360	515.32
31.0504	509.04
31.0648	505.48
31.0793	505.25
31.0937	516.61
31.1082	503.14
31.1226	525.99
31.1370	538.91
31.1515	493.07
31.1659	520.40
31.1804	502.88
31.1948	488.00
31.2092	491.11
31.2237	492.99
31.2381	529.31
31.2526	523.75
31.2670	522.61
31.2814	513.70
31.2959	530.51
31.3103	525.11
31.3248	526.90
31.3392	521.67
31.3536	501.49
31.3681	509.81
31.3825	510.58
31.3970	501.40
31.4114	515.07
31.4258	535.63
31.4403	505.46
31.4547	492.02
31.4692	503.58
31.4836	508.39
31.4980	514.71
31.5125	494.91
31.5269	515.16
31.5414	540.33
31.5558	528.12
31.5702	522.78
31.5847	508.44
31.5991	524.51
31.6136	513.63
31.6280	508.71
31.6424	514.88
31.6569	490.15
31.6713	477.16
31.6858	486.83
31.7002	501.18
31.7146	526.49
31.7291	506.88
31.7435	518.94
31.7580	481.30
31.7724	485.04
31.7868	495.47
31.8013	521.86
31.8157	497.83
31.8302	493.99
31.8446	464.23
31.8590	466.73
31.8735	504.34
31.8879	443.32
31.9024	519.83
31.9168	512.11
31.9312	501.84
31.9457	488.40
31.9601	480.06
31.9746	498.50
31.9890	521.22
32.0034	485.29
32.0179	513.31
32.0323	517.90
32.0468	457.12
32.0612	528.26
32.0756	476.67
32.0901	504.30
32.1045	496.76
32.1190	494.22
32.1334	472.32
32.1478	489.15
32.1623	516.21
32.1767	538.27
32.1912	501.37
32.2056	492.49
32.2200	482.02
32.2345	500.60
32.2489	544.68
32.2634	483.80
32.2778	529.10
32.2922	511.32
32.3067	517.73
32.3211	484.04
32.3356	500.67
32.3500	494.11
32.3644	499.01
32.3789	479.22
32.3933	505.10
32.4078	469.69
32.4222	494.09
32.4366	513.13
32.4511	494.96
32.4655	515.51
32.4800	499.22
32.4944	473.36
32.5088	494.39
32.5233	506.59
32.5377	550.71
32.5522	509.44
32.5666	477.58
32.5810	510.75
32.5955	487.47
32.6099	519.23
32.6244	463.61
32.6388	509.12
32.6532	507.17
32.6677	483.39
32.6821	495.80
32.6966	518.25
32.7110	521.31
32.7254	523.03
32.7399	527.79
32.7543	524.16
32.7688	520.35
32.7832	517.06
32.7976	489.23
32.8121	456.07
32.8265	487.82
32.8410	474.20
32.8554	486.88
32.8698	491.02
32.8843	504.86
32.8987	522.13
32.9132	476.19
32.9276	502.09
32.9420	517.74
32.9565	477.57
32.9709	516.44
32.9854	475.83
32.9998	520.28
33.0142	506.77
33.0287	469.72
33.0431	495.27
33.0576	532.28
33.0720	509.22
33.0864	515.62
33.1009	525.85
33.1153	521.28
33.1298	504.79
33.1442	473.11
33.1586	517.37
33.1731	516.29
33.1875	493.91
33.2020	486.15
33.2164	505.12
33.2308	504.47
33.2453	523.94
33.2597	506.68
33.2742	498.49
33.2886	497.28
33.3030	484.50
33.3175	488.20
33.3319	498.89
33.3464	487.38
33.3608	513.10
33.3752	494.62
33.3897	508.83
33.4041	519.41
33.4186	542.79
33.4330	515.59
33.4474	469.10
33.4619	511.31
33.4763	508.36
33.4908	492.41
33.5052	536.29
33.5196	503.47
33.5341	509.36
33.5485	505.89
33.5630	520.17
33.5774	502.42
33.5918	505.34
33.6063	497.66
33.6207	491.98
33.6352	519.64
33.6496	491.54
33.6640	509.85
33.6785	502.25
33.6929	491.98
33.7074	496.13
33.7218	507.07
33.7362	519.37
33.7507	505.85
33.7651	478.44
33.7796	488.57
33.7940	498.03
33.8084	506.15
33.8229	481.47
33.8373	490.18
33.8518	507.48
33.8662	506.89
33.8806	489.60
33.8951	531.91
33.9095	546.82
33.9240	503.62
33.9384	501.04
33.9528	511.91
33.9673	513.17
33.9817	494.79
33.9962	502.73
34.0106	464.22
34.0250	485.74
34.0395	505.73
34.0539	536.00
34.0684	526.81
34.0828	487.02
34.0972	496.88
34.1117	497.27
34.1261	514.58
34.1406	504.78
34.1550	522.06
34.1694	527.94
34.1839	507.76
34.1983	506.92
34.2128	511.20
34.2272	512.78
34.2417	512.59
34.2561	533.28
34.2705	497.32
34.2850	498.87
34.2994	497.24
34.3139	529.12
34.3283	516.41
34.3427	479.21
34.3572	501.58
34.3716	506.50
34.3861	495.61
34.4005	501.01
34.4149	488.97
34.4294	471.35
34.4438	478.23
34.4583	549.38
34.4727	501.91
34.4871	497.72
34.5016	494.39
34.5160	499.92
34.5305	498.02
34.5449	524.02
34.5593	513.81
34.5738	481.72
34.5882	517.68
34.6027	512.57
34.6171	529.05
34.6315	507.51
34.6460	477.04
34.6604	508.57
34.6749	494.01
34.6893	484.87
34.7037	508.02
34.7182	502.05
34.7326	504.25
34.7471	515.83
34.7615	486.31
34.7759	504.65
34.7904	502.83
34.8048	498.33
34.8193	510.62
34.8337	508.35
34.8481	471.16
34.8626	517.58
34.8770	533.99
34.8915	490.71
34.9059	503.05
34.9203	525.45
34.9348	514.71
34.9492	502.13
34.9637	490.18
34.9781	522.74
34.9925	528.93
35.0070	528.89
35.0214	494.63
35.0359	488.75
35.0503	497.50
35.0647	481.22
35.0792	477.25
35.0936	483.84
35.1081	489.48
35.1225	494.93
35.1369	480.77
35.1514	473.97
35.1658	492.83
35.1803	510.68
35.1947	491.54
35.2091	486.75
35.2236	484.47
35.2380	516.46
35.2525	531.70
35.2669	545.29
35.2813	546.00
35.2958	500.25
35.3102	494.36
35.3247	549.65
35.3391	530.59
35.3535	518.99
35.3680	499.06
35.3824	496.29
35.3969	513.60
35.4113	510.88
35.4257	538.09
35.4402	514.17
35.4546	519.01
35.4691	523.13
35.4835	545.15
35.4979	525.72
35.5124	493.95
35.5268	540.19
35.5413	538.49
35.5557	545.33
35.5701	541.61
35.5846	513.55
35.5990	499.58
35.6135	522.59
35.6279	535.38
35.6423	534.75
35.6568	510.35
35.6712	557.44
35.6857	594.37
35.7001	649.78
35.7145	701.69
35.7290	714.94
35.7434	657.41
35.7579	631.78
35.7723	605.85
35.7867	679.90
35.8012	711.17
35.8156	732.75
35.8301	714.48
35.8445	708.10
35.8589	780.67
35.8734	869.14
35.8878	902.64
35.9023	1055.16
35.9167	1161.64
35.9311	1306.40
35.9456	1634.69
35.9600	1971.65
35.9745	2242.03
35.9889	2390.54
36.0033	2739.42
36.0178	3192.79
36.0322	3090.39
36.0467	2557.95
36.0611	2112.13
36.0755	1945.93
36.0900	2177.07
36.1044	1858.85
36.1189	1501.21
36.1333	1419.05
36.1477	1208.36
36.1622	1107.85
36.1766	960.97
36.1911	864.14
36.2055	792.71
36.2199	778.99
36.2344	723.08
36.2488	620.40
36.2633	571.03
36.2777	574.64
36.2921	548.77
36.3066	569.25
36.3210	555.33
36.3355	537.32
36.3499	531.49
36.3643	520.98
36.3788	537.68
36.3932	521.41
36.4077	558.59
36.4221	557.84
36.4365	556.37
36.4510	517.46
36.4654	529.90
36.4799	551.98
36.4943	521.77
36.5087	527.72
36.5232	538.04
36.5376	507.67
36.5521	492.89
36.5665	508.96
36.5809	496.47
36.5954	514.85
36.6098	537.45
36.6243	530.60
36.6387	511.40
36.6531	494.06
36.6676	513.49
36.6820	522.83
36.6965	504.29
36.7109	508.86
36.7253	529.24
36.7398	491.16
36.7542	535.32
36.7687	553.79
36.7831	546.74
36.7975	542.19
36.8120	555.58
36.8264	543.48
36.8409	538.61
36.8553	594.53
36.8697	595.33
36.8842	595.69
36.8986	568.69
36.9131	558.70
36.9275	543.97
36.9419	595.26
36.9564	564.16
36.9708	539.26
36.9853	569.43
36.9997	553.60
37.0141	578.97
37.0286	584.12
37.0430	530.19
37.0575	563.58
37.0719	518.34
37.0863	537.96
37.1008	499.91
37.1152	513.35
37.1297	527.54
37.1441	487.83
37.1585	480.08
37.1730	489.83
37.1874	502.47
37.2019	513.02
37.2163	524.44
37.2307	519.40
37.2452	496.33
37.2596	506.77
37.2741	512.13
37.2885	514.24
37.3029	481.59
37.3174	507.74
37.3318	522.75
37.3463	520.99
37.3607	487.65
37.3751	495.89
37.3896	465.07
37.4040	498.69
37.4185	520.83
37.4329	484.79
37.4473	460.28
37.4618	488.57
37.4762	520.62
37.4907	488.26
37.5051	499.50
37.5195	510.19
37.5340	514.15
37.5484	504.21
37.5629	524.92
37.5773	512.31
37.5917	520.82
37.6062	498.23
37.6206	503.02
37.6351	513.80
37.6495	472.30
37.6639	502.27
37.6784	482.97
37.6928	486.21
37.7073	525.93
37.7217	526.91
37.7361	500.44
37.7506	542.65
37.7650	525.85
37.7795	504.33
37.7939	508.49
37.8083	489.92
37.8228	472.27
37.8372	495.10
37.8517	487.35
37.8661	535.11
37.8805	496.20
37.8950	496.83
37.9094	501.86
37.9239	474.17
37.9383	483.57
37.9528	476.03
37.9672	517.45
37.9816	491.94
37.9961	507.05
38.0105	532.71
38.0250	519.88
38.0394	515.94
38.0538	508.90
38.0683	500.70
38.0827	538.80
38.0972	507.89
38.1116	524.10
38.1260	519.89
38.1405	538.09
38.1549	529.88
38.1694	502.81
38.1838	508.78
38.1982	478.26
38.2127	486.34
38.2271	501.70
38.2416	528.75
38.2560	529.88
38.2704	520.19
38.2849	513.96
38.2993	480.37
38.3138	499.28
38.3282	525.60
38.3426	548.08
38.3571	517.87
38.3715	511.84
38.3860	532.56
38.4004	538.67
38.4148	553.38
38.4293	571.21
38.4437	554.19
38.4582	592.63
38.4726	653.15
38.4870	672.96
38.5015	709.26
38.5159	781.21
38.5304	832.89
38.5448	838.50
38.5592	809.50
38.5737	744.20
38.5881	728.34
38.6026	713.57
38.6170	683.33
38.6314	670.16
38.6459	689.43
38.6603	653.30
38.6748	627.09
38.6892	615.63
38.7036	578.79
38.7181	563.89
38.7325	547.77
38.7470	520.27
38.7614	514.46
38.7758	524.03
38.7903	519.53
38.8047	525.68
38.8192	523.48
38.8336	513.67
38.8480	511.28
38.8625	506.82
38.8769	512.10
38.8914	472.05
38.9058	460.49
38.9202	468.53
38.9347	483.50
38.9491	486.14
38.9636	481.73
38.9780	471.98
38.9924	476.88
39.0069	483.36
39.0213	521.99
39.0358	544.55
39.0502	526.08
39.0646	524.86
39.0791	542.11
39.0935	520.23
39.1080	500.08
39.1224	503.86
39.1368	480.27
39.1513	483.11
39.1657	488.61
39.1802	492.03
39.1946	493.92
39.2090	525.57
39.2235	513.76
39.2379	495.35
39.2524	518.81
39.2668	478.41
39.2812	483.99
39.2957	478.19
39.3101	502.77
39.3246	513.50
39.3390	501.77
39.3534	482.36
39.3679	505.83
39.3823	513.36
39.3968	525.19
39.4112	496.92
39.4256	502.92
39.4401	500.35
39.4545	490.54
39.4690	504.45
39.4834	509.84
39.4978	507.42
39.5123	501.29
39.5267	514.39
39.5412	506.39
39.5556	509.13
39.5700	510.41
39.5845	538.24
39.5989	476.63
39.6134	477.24
39.6278	511.55
39.6422	484.96
39.6567	496.95
39.6711	481.35
39.6856	504.03
39.7000	505.88
39.7144	532.91
39.7289	485.73
39.7433	478.25
39.7578	485.86
39.7722	477.54
39.7866	500.54
39.8011	506.45
39.8155	502.84
39.8300	510.42
39.8444	486.94
39.8588	491.16
39.8733	489.55
39.8877	495.21
39.9022	518.40
39.9166	485.54
39.9310	492.30
39.9455	513.55
39.9599	468.62
39.9744	482.75
39.9888	507.83
40.0032	499.05
40.0177	504.49
40.0321	526.83
40.0466	490.44
40.0610	472.57
40.0754	492.77
40.0899	508.43
40.1043	479.83
40.1188	501.95
40.1332	487.97
40.1476	505.43
40.1621	471.24
40.1765	508.75
40.1910	493.82
40.2054	526.33
40.2198	497.65
40.2343	498.23
40.2487	477.87
40.2632	483.87
40.2776	508.81
40.2920	501.23
40.3065	508.97
40.3209	488.11
40.3354	509.94
40.3498	507.38
40.3642	481.14
40.3787	482.67
40.3931	513.28
40.4076	484.74
40.4220	521.35
40.4364	520.76
40.4509	479.23
40.4653	501.14
40.4798	497.86
40.4942	450.39
40.5086	463.34
40.5231	476.63
40.5375	491.80
40.5520	494.71
40.5664	479.41
40.5808	541.47
40.5953	510.47
40.6097	531.15
40.6242	504.62
40.6386	480.76
40.6530	515.52
40.6675	518.43
40.6819	473.49
40.6964	489.63
40.7108	511.95
40.7252	512.47
40.7397	466.90
40.7541	533.10
40.7686	501.18
40.7830	469.27
40.7974	482.36
40.8119	507.24
40.8263	503.36
40.8408	467.76
40.8552	468.51
40.8696	499.78
40.8841	475.47
40.8985	540.50
40.9130	596.96
40.9274	490.85
40.9418	473.92
40.9563	471.77
40.9707	477.29
40.9852	535.93
40.9996	533.02
41.0140	501.72
41.0285	464.00
41.0429	462.21
41.0574	513.49
41.0718	480.29
41.0862	542.70
41.1007	494.86
41.1151	490.65
41.1296	509.30
41.1440	478.14
41.1584	508.15
41.1729	517.35
41.1873	519.19
41.2018	533.75
41.2162	491.24
41.2306	515.90
41.2451	500.83
41.2595	513.69
41.2740	472.31
41.2884	492.80
41.3028	494.64
41.3173	491.93
41.3317	488.62
41.3462	527.87
41.3606	494.79
41.3750	491.86
41.3895	483.43
41.4039	487.78
41.4184	501.34
41.4328	474.44
41.4472	463.74
41.4617	512.88
41.4761	525.78
41.4906	485.71
41.5050	497.55
41.5194	514.98
41.5339	526.99
41.5483	520.85
41.5628	505.16
41.5772	462.06
41.5916	496.72
41.6061	482.28
41.6205	513.16
41.6350	499.03
41.6494	500.72
41.6639	477.19
41.6783	500.44
41.6927	490.19
41.7072	508.48
41.7216	502.83
41.7361	501.61
41.7505	482.71
41.7649	500.85
41.7794	530.69
41.7938	486.62
41.8083	472.46
41.8227	514.83
41.8371	538.90
41.8516	519.37
41.8660	517.38
41.8805	540.44
41.8949	556.61
41.9093	545.85
41.9238	547.08
41.9382	576.14
41.9527	574.93
41.9671	519.64
41.9815	541.93
41.9960	604.05
42.0104	564.43
42.0249	575.38
42.0393	549.43
42.0537	562.74
42.0682	570.92
42.0826	568.89
42.0971	551.81
42.1115	559.44
42.1259	581.43
42.1404	558.33
42.1548	581.33
42.1693	629.82
42.1837	688.38
42.1981	793.20
42.2126	885.49
42.2270	954.82
42.2415	1086.35
42.2559	1214.94
42.2703	1366.38
42.2848	1510.05
42.2992	1593.05
42.3137	1673.21
42.3281	1650.10
42.3425	1621.60
42.3570	1532.65
42.3714	1417.67
42.3859	1346.45
42.4003	1322.71
42.4147	1361.28
42.4292	1304.04
42.4436	1182.87
42.4581	1062.09
42.4725	941.37
42.4869	840.53
42.5014	722.82
42.5158	684.93
42.5303	683.51
42.5447	635.17
42.5591	626.12
42.5736	571.05
42.5880	573.36
42.6025	570.02
42.6169	555.74
42.6313	557.71
42.6458	524.51
42.6602	528.27
42.6747	560.93
42.6891	539.90
42.7035	534.19
42.7180	539.86
42.7324	538.49
42.7469	525.81
42.7613	519.35
42.7757	519.40
42.7902	503.00
42.8046	549.55
42.8191	542.41
42.8335	543.29
42.8479	556.99
42.8624	551.36
42.8768	536.43
42.8913	515.50
42.9057	534.98
42.9201	521.65
42.9346	519.11
42.9490	487.30
42.9635	487.13
42.9779	496.14
42.9923	488.16
43.0068	491.71
43.0212	523.23
43.0357	508.22
43.0501	505.97
43.0645	495.75
43.0790	512.45
43.0934	530.61
43.1079	519.45
43.1223	530.22
43.1367	508.34
43.1512	501.05
43.1656	505.28
43.1801	485.38
43.1945	531.45
43.2089	537.15
43.2234	509.67
43.2378	529.67
43.2523	503.61
43.2667	497.01
43.2811	543.48
43.2956	539.93
43.3100	523.71
43.3245	549.16
43.3389	534.29
43.3533	525.88
43.3678	491.66
43.3822	481.83
43.3967	486.81
43.4111	489.42
43.4255	512.29
43.4400	525.62
43.4544	546.87
43.4689	502.83
43.4833	521.87
43.4977	540.42
43.5122	518.32
43.5266	496.10
43.5411	477.42
43.5555	513.90
43.5699	524.26
43.5844	533.13
43.5988	524.36
43.6133	517.64
43.6277	526.74
43.6421	510.42
43.6566	536.03
43.6710	541.23
43.6855	555.63
43.6999	550.53
43.7143	634.04
43.7288	633.47
43.7432	672.59
43.7577	685.07
43.7721	674.87
43.7865	633.30
43.8010	614.69
43.8154	622.36
43.8299	662.86
43.8443	645.95
43.8587	615.70
43.8732	627.84
43.8876	610.87
43.9021	574.17
43.9165	585.58
43.9309	547.75
43.9454	485.03
43.9598	502.74
43.9743	520.63
43.9887	517.44
44.0031	521.75
44.0176	499.95
44.0320	511.07
44.0465	500.42
44.0609	535.98
44.0753	511.14
44.0898	513.43
44.1042	532.23
44.1187	487.73
44.1331	472.01
44.1475	484.76
44.1620	494.47
44.1764	516.07
44.1909	538.42
44.2053	500.64
44.2197	516.61
44.2342	531.77
44.2486	531.86
44.2631	529.15
44.2775	536.23
44.2919	506.58
44.3064	498.37
44.3208	509.57
44.3353	550.83
44.3497	558.23
44.3641	543.82
44.3786	527.33
44.3930	535.09
44.4075	505.67
44.4219	548.93
44.4363	592.44
44.4508	559.65
44.4652	586.53
44.4797	589.10
44.4941	575.51
44.5085	557.10
44.5230	556.82
44.5374	596.35
44.5519	551.14
44.5663	563.83
44.5807	558.37
44.5952	538.64
44.6096	605.40
44.6241	586.41
44.6385	585.47
44.6529	579.99
44.6674	543.75
44.6818	594.51
44.6963	638.14
44.7107	638.91
44.7251	634.21
44.7396	730.27
44.7540	797.68
44.7685	830.46
44.7829	923.81
44.7973	863.74
44.8118	903.15
44.8262	812.62
44.8407	765.46
44.8551	769.33
44.8695	755.41
44.8840	716.06
44.8984	728.80
44.9129	695.63
44.9273	708.70
44.9417	684.33
44.9562	611.52
44.9706	552.14
44.9851	549.19
44.9995	587.32
45.0139	586.89
45.0284	563.61
45.0428	509.70
45.0573	523.04
45.0717	520.75
45.0861	513.40
45.1006	489.66
45.1150	520.55
45.1295	540.08
45.1439	493.77
45.1583	512.51
45.1728	511.65
45.1872	450.32
45.2017	500.80
45.2161	525.83
45.2305	499.30
45.2450	492.96
45.2594	531.67
45.2739	508.29
45.2883	499.79
45.3028	525.73
45.3172	472.34
45.3316	517.16
45.3461	557.65
45.3605	504.59
45.3750	479.37
45.3894	508.04
45.4038	484.13
45.4183	473.70
45.4327	516.61
45.4472	486.46
45.4616	526.52
45.4760	522.68
45.4905	476.80
45.5049	497.50
45.5194	489.49
45.5338	480.75
45.5482	490.02
45.5627	526.76
45.5771	503.16
45.5916	510.14
45.6060	497.75
45.6204	464.95
45.6349	520.60
45.6493	506.57
45.6638	505.86
45.6782	524.80
45.6926	504.22
45.7071	523.83
45.7215	529.47
45.7360	526.05
45.7504	505.68
45.7648	504.82
45.7793	525.40
45.7937	535.02
45.8082	536.47
45.8226	494.25
45.8370	512.74
45.8515	477.63
45.8659	484.97
45.8804	494.91
45.8948	505.99
45.9092	523.39
45.9237	485.34
45.9381	472.19
45.9526	474.16
45.9670	469.64
45.9814	485.38
45.9959	491.94
46.0103	526.78
46.0248	475.14
46.0392	475.84
46.0536	516.62
46.0681	480.03
46.0825	501.24
46.0970	509.69
46.1114	528.43
46.1258	521.22
46.1403	501.66
46.1547	509.98
46.1692	495.99
46.1836	487.26
46.1980	501.72
46.2125	490.65
46.2269	508.41
46.2414	508.32
46.2558	497.64
46.2702	492.17
46.2847	531.89
46.2991	505.61
46.3136	501.27
46.3280	479.26
46.3424	495.76
46.3569	537.44
46.3713	498.76
46.3858	526.31
46.4002	506.68
46.4146	496.61
46.4291	504.32
46.4435	504.80
46.4580	510.41
46.4724	494.60
46.4868	503.75
46.5013	522.00
46.5157	532.77
46.5302	498.28
46.5446	501.66
46.5590	511.81
46.5735	468.99
46.5879	518.29
46.6024	485.74
46.6168	509.09
46.6312	502.17
46.6457	472.03
46.6601	489.87
46.6746	508.73
46.6890	497.05
46.7034	501.96
46.7179	487.61
46.7323	481.37
46.7468	514.65
46.7612	497.31
46.7756	529.61
46.7901	520.98
46.8045	507.56
46.8190	524.63
46.8334	498.86
46.8478	526.28
46.8623	536.86
46.8767	528.60
46.8912	497.61
46.9056	517.99
46.9200	472.76
46.9345	489.85
46.9489	519.24
46.9634	514.12
46.9778	546.19
46.9922	518.38
47.0067	491.29
47.0211	492.67
47.0356	523.76
47.0500	515.34
47.0644	531.84
47.0789	501.49
47.0933	488.07
47.1078	475.84
47.1222	524.87
47.1366	526.93
47.1511	499.03
47.1655	490.08
47.1800	499.76
47.1944	481.18
47.2088	500.14
47.2233	495.67
47.2377	484.14
47.2522	534.66
47.2666	517.76
47.2810	526.94
47.2955	511.94
47.3099	497.93
47.3244	511.12
47.3388	501.29
47.3532	496.43
47.3677	514.64
47.3821	514.08
47.3966	504.45
47.4110	480.48
47.4254	486.77
47.4399	492.32
47.4543	486.58
47.4688	524.64
47.4832	495.95
47.4976	525.50
47.5121	535.45
47.5265	487.58
47.5410	478.70
47.5554	499.38
47.5698	494.84
47.5843	521.40
47.5987	515.32
47.6132	514.20
47.6276	487.19
47.6420	510.17
47.6565	505.67
47.6709	502.13
47.6854	493.46
47.6998	506.18
47.7142	531.00
47.7287	508.21
47.7431	479.30
47.7576	480.56
47.7720	514.57
47.7864	514.18
47.8009	471.06
47.8153	490.88
47.8298	508.73
47.8442	516.02
47.8586	523.47
47.8731	515.70
47.8875	498.55
47.9020	536.95
47.9164	507.93
47.9308	507.06
47.9453	490.88
47.9597	486.44
47.9742	489.62
47.9886	478.99
48.0030	493.54
48.0175	531.96
48.0319	523.92
48.0464	504.44
48.0608	539.96
48.0752	510.14
48.0897	515.16
48.1041	486.95
48.1186	527.09
48.1330	519.30
48.1474	479.33
48.1619	510.30
48.1763	497.41
48.1908	501.42
48.2052	497.52
48.2196	537.29
48.2341	525.33
48.2485	503.09
48.2630	515.74
48.2774	500.65
48.2918	515.54
48.3063	494.87
48.3207	505.14
48.3352	488.37
48.3496	497.24
48.3640	496.21
48.3785	472.44
48.3929	489.42
48.4074	478.80
48.4218	518.84
48.4362	514.47
48.4507	530.66
48.4651	563.18
48.4796	518.15
48.4940	483.85
48.5084	524.79
48.5229	523.97
48.5373	510.70
48.5518	512.63
48.5662	514.43
48.5806	491.55
48.5951	529.28
48.6095	520.69
48.6240	484.19
48.6384	503.19
48.6528	515.03
48.6673	515.04
48.6817	507.75
48.6962	503.88
48.7106	542.51
48.7250	527.45
48.7395	519.40
48.7539	508.57
48.7684	529.18
48.7828	537.27
48.7972	533.89
48.8117	486.29
48.8261	559.06
48.8406	553.90
48.8550	553.17
48.8694	565.93
48.8839	582.53
48.8983	525.30
48.9128	565.60
48.9272	572.54
48.9416	580.70
48.9561	524.43
48.9705	555.60
48.9850	571.93
48.9994	556.70
49.0139	620.33
49.0283	598.26
49.0427	623.69
49.0572	637.04
49.0716	660.30
49.0861	651.33
49.1005	738.88
49.1149	746.29
49.1294	731.15
49.1438	771.48
49.1583	829.15
49.1727	895.45
49.1871	893.79
49.2016	937.44
49.2160	1062.34
49.2305	1152.01
49.2449	1212.36
49.2593	1365.19
49.2738	1381.02
49.2882	1547.38
49.3027	1664.38
49.3171	1698.85
49.3315	1776.24
49.3460	1793.98
49.3604	1819.89
49.3749	1824.92
49.3893	1848.10
49.4037	1798.91
49.4182	1830.92
49.4326	1810.95
49.4471	1666.69
49.4615	1654.91
49.4759	1567.89
49.4904	1525.36
49.5048	1427.95
49.5193	1389.62
49.5337	1324.48
49.5481	1233.23
49.5626	1117.42
49.5770	1081.89
49.5915	1032.61
49.6059	925.73
49.6203	936.89
49.6348	857.98
49.6492	753.10
49.6637	743.16
49.6781	749.42
49.6925	703.52
49.7070	656.84
49.7214	641.21
49.7359	634.86
49.7503	601.45
49.7647	592.81
49.7792	622.56
49.7936	595.95
49.8081	531.08
49.8225	534.83
49.8369	588.04
49.8514	551.26
49.8658	566.61
49.8803	558.02
49.8947	547.43
49.9091	514.28
49.9236	529.13
49.9380	524.52
49.9525	501.15
49.9669	518.34
49.9813	529.03
49.9958	509.45
50.0102	537.16
50.0247	543.63
50.0391	538.94
50.0535	545.61
50.0680	528.95
50.0824	538.79
50.0969	530.67
50.1113	529.78
50.1257	511.99
50.1402	525.76
50.1546	559.24
50.1691	522.08
50.1835	508.56
50.1979	516.06
50.2124	539.57
50.2268	528.88
50.2413	526.23
50.2557	514.05
50.2701	505.69
50.2846	521.33
50.2990	522.44
50.3135	494.48
50.3279	521.08
50.3423	520.88
50.3568	534.46
50.3712	511.44
50.3857	518.11
50.4001	525.63
50.4145	513.35
50.4290	559.80
50.4434	524.26
50.4579	485.10
50.4723	503.64
50.4867	506.14
50.5012	505.03
50.5156	523.65
50.5301	524.17
50.5445	516.39
50.5589	522.92
50.5734	506.09
50.5878	489.85
50.6023	496.33
50.6167	493.58
50.6311	484.96
50.6456	509.87
50.6600	521.61
50.6745	515.27
50.6889	498.93
50.7033	497.74
50.7178	526.50
50.7322	478.38
50.7467	506.39
50.7611	488.07
50.7755	496.52
50.7900	512.12
50.8044	509.45
50.8189	528.85
50.8333	501.31
50.8477	527.69
50.8622	524.88
50.8766	501.29
50.8911	496.15
50.9055	494.68
50.9199	509.93
50.9344	515.42
50.9488	474.27
50.9633	473.58
50.9777	506.43
50.9921	489.47
51.0066	484.42
51.0210	520.13
51.0355	503.34
51.0499	506.52
51.0643	512.41
51.0788	490.23
51.0932	488.07
51.1077	462.76
51.1221	504.73
51.1365	510.41
51.1510	495.43
51.1654	506.72
51.1799	503.73
51.1943	490.15
51.2087	524.47
51.2232	525.61
51.2376	507.28
51.2521	510.95
51.2665	484.17
51.2809	502.61
51.2954	512.99
51.3098	509.98
51.3243	495.09
51.3387	534.83
51.3531	522.28
51.3676	506.01
51.3820	489.87
51.3965	470.95
51.4109	501.48
51.4253	536.16
51.4398	485.05
51.4542	465.69
51.4687	466.07
51.4831	524.35
51.4975	521.93
51.5120	502.99
51.5264	485.45
51.5409	516.47
51.5553	499.02
51.5697	514.92
51.5842	526.59
51.5986	483.62
51.6131	515.79
51.6275	516.28
51.6419	527.38
51.6564	507.93
51.6708	529.99
51.6853	521.60
51.6997	498.50
51.7141	480.52
51.7286	482.30
51.7430	496.46
51.7575	493.82
51.7719	484.50
51.7863	498.76
51.8008	528.83
51.8152	539.82
51.8297	502.13
51.8441	531.20
51.8585	555.50
51.8730	528.74
51.8874	475.60
51.9019	483.58
51.9163	508.56
51.9307	503.80
51.9452	503.51
51.9596	509.14
51.9741	539.00
51.9885	520.07
52.0029	551.12
52.0174	498.43
52.0318	521.89
52.0463	505.34
52.0607	534.02
52.0751	495.13
52.0896	532.49
52.1040	493.04
52.1185	517.87
52.1329	532.70
52.1473	493.07
52.1618	516.28
52.1762	489.55
52.1907	479.28
52.2051	463.78
52.2195	505.18
52.2340	517.51
52.2484	494.58
52.2629	513.01
52.2773	504.99
52.2917	498.48
52.3062	499.80
52.3206	518.49
52.3351	521.45
52.3495	515.12
52.3639	490.61
52.3784	525.76
52.3928	519.60
52.4073	479.57
52.4217	524.50
52.4361	474.62
52.4506	480.41
52.4650	508.86
52.4795	559.66
52.4939	540.34
52.5083	490.01
52.5228	512.99
52.5372	497.40
52.5517	496.28
52.5661	505.09
52.5805	469.27
52.5950	504.56
52.6094	526.37
52.6239	526.00
52.6383	505.07
52.6527	504.17
52.6672	479.92
52.6816	497.61
52.6961	470.45
52.7105	498.74
52.7250	486.49
52.7394	509.81
52.7538	500.49
52.7683	470.50
52.7827	469.25
52.7972	496.07
52.8116	502.00
52.8260	490.07
52.8405	502.01
52.8549	479.65
52.8694	514.56
52.8838	531.49
52.8982	535.74
52.9127	517.38
52.9271	487.19
52.9416	514.23
52.9560	534.11
52.9704	529.91
52.9849	536.33
52.9993	559.80
53.0138	516.20
53.0282	494.49
53.0426	529.12
53.0571	501.04
53.0715	513.54
53.0860	527.02
53.1004	515.93
53.1148	509.55
53.1293	512.97
53.1437	467.83
53.1582	505.93
53.1726	513.48
53.1870	527.57
53.2015	497.38
53.2159	505.57
53.2304	459.62
53.2448	508.06
53.2592	504.03
53.2737	517.83
53.2881	506.89
53.3026	488.70
53.3170	512.51
53.3314	537.00
53.3459	541.62
53.3603	504.08
53.3748	510.92
53.3892	500.82
53.4036	509.53
53.4181	525.68
53.4325	510.98
53.4470	498.54
53.4614	495.46
53.4758	545.76
53.4903	514.03
53.5047	493.14
53.5192	501.99
53.5336	558.54
53.5480	516.04
53.5625	504.96
53.5769	524.61
53.5914	506.45
53.6058	537.56
53.6202	525.93
53.6347	525.03
53.6491	521.31
53.6636	517.31
53.6780	515.93
53.6924	518.65
53.7069	519.31
53.7213	515.82
53.7358	486.95
53.7502	527.32
53.7646	513.51
53.7791	511.00
53.7935	525.30
53.8080	500.04
53.8224	497.71
53.8368	514.33
53.8513	521.00
53.8657	517.60
53.8802	502.36
53.8946	508.11
53.9090	510.44
53.9235	532.39
53.9379	539.01
53.9524	539.58
53.9668	526.72
53.9812	526.36
53.9957	516.34
54.0101	520.29
54.0246	543.63
54.0390	553.10
54.0534	530.87
54.0679	516.74
54.0823	537.58
54.0968	489.05
54.1112	533.07
54.1256	548.13
54.1401	524.06
54.1545	525.96
54.1690	572.83
54.1834	575.99
54.1978	510.78
54.2123	561.24
54.2267	561.56
54.2412	612.67
54.2556	610.87
54.2700	612.41
54.2845	601.32
54.2989	616.55
54.3134	660.23
54.3278	638.87
54.3422	609.94
54.3567	609.37
54.3711	595.23
54.3856	595.63
54.4000	577.98
54.4144	554.25
54.4289	583.03
54.4433	548.39
54.4578	573.06
54.4722	575.89
54.4866	561.18
54.5011	543.34
54.5155	540.72
54.5300	533.82
54.5444	571.90
54.5588	555.19
54.5733	522.91
54.5877	527.75
54.6022	526.30
54.6166	546.10
54.6310	505.32
54.6455	522.39
54.6599	523.78
54.6744	494.75
54.6888	471.14
54.7032	509.01
54.7177	521.03
54.7321	489.67
54.7466	503.46
54.7610	493.99
54.7754	531.30
54.7899	524.74
54.8043	532.78
54.8188	495.31
54.8332	508.59
54.8476	509.65
54.8621	519.41
54.8765	500.43
54.8910	483.97
54.9054	538.49
54.9198	506.62
54.9343	501.91
54.9487	495.73
54.9632	500.71
54.9776	508.77
54.9920	484.21
55.0065	482.69
55.0209	475.23
55.0354	485.34
55.0498	497.32
55.0642	546.47
55.0787	505.72
55.0931	487.07
55.1076	481.07
55.1220	510.82
55.1364	528.96
55.1509	502.10
55.1653	515.32
55.1798	531.78
55.1942	528.73
55.2086	513.13
55.2231	531.60
55.2375	513.95
55.2520	535.25
55.2664	530.36
55.2808	526.73
55.2953	523.99
55.3097	537.90
55.3242	504.68
55.3386	495.17
55.3530	516.87
55.3675	510.89
55.3819	495.96
55.3964	493.02
55.4108	470.30
55.4252	559.47
55.4397	555.18
55.4541	501.46
55.4686	521.09
55.4830	527.77
55.4974	529.84
55.5119	515.66
55.5263	537.62
55.5408	518.58
55.5552	508.40
55.5696	517.62
55.5841	508.55
55.5985	513.00
55.6130	503.67
55.6274	522.52
55.6418	511.44
55.6563	515.12
55.6707	500.41
55.6852	473.63
55.6996	511.74
55.7140	530.92
55.7285	546.82
55.7429	511.20
55.7574	513.96
55.7718	496.69
55.7862	501.83
55.8007	504.34
55.8151	526.94
55.8296	500.18
55.8440	521.32
55.8584	514.42
55.8729	534.44
55.8873	499.56
55.9018	515.03
55.9162	516.46
55.9306	505.75
55.9451	507.18
55.9595	493.28
55.9740	507.88
55.9884	522.51
56.0028	538.54
56.0173	563.16
56.0317	556.52
56.0462	533.88
56.0606	515.91
56.0750	516.79
56.0895	558.64
56.1039	485.15
56.1184	522.71
56.1328	520.85
56.1472	509.74
56.1617	505.78
56.1761	522.37
56.1906	521.04
56.2050	515.97
56.2194	554.65
56.2339	531.52
56.2483	520.35
56.2628	546.34
56.2772	523.33
56.2916	522.19
56.3061	527.69
56.3205	502.36
56.3350	558.23
56.3494	535.08
56.3639	504.58
56.3783	526.89
56.3927	532.09
56.4072	507.92
56.4216	477.64
56.4361	523.64
56.4505	491.91
56.4649	503.76
56.4794	513.44
56.4938	527.70
56.5083	487.60
56.5227	538.20
56.5371	562.95
56.5516	470.69
56.5660	511.36
56.5805	500.80
56.5949	518.53
56.6093	527.43
56.6238	507.57
56.6382	529.54
56.6527	497.59
56.6671	509.18
56.6815	510.28
56.6960	537.95
56.7104	561.65
56.7249	510.07
56.7393	493.43
56.7537	515.26
56.7682	535.22
56.7826	525.37
56.7971	506.17
56.8115	539.43
56.8259	510.81
56.8404	502.50
56.8548	529.51
56.8693	521.52
56.8837	513.59
56.8981	503.99
56.9126	529.51
56.9270	491.58
56.9415	537.79
56.9559	513.96
56.9703	513.41
56.9848	496.25
56.9992	479.95
57.0137	496.18
57.0281	481.92
57.0425	523.27
57.0570	497.35
57.0714	497.82
57.0859	539.57
57.1003	529.42
57.1147	522.38
57.1292	544.46
57.1436	519.15
57.1581	495.78
57.1725	490.96
57.1869	535.19
57.2014	499.28
57.2158	507.69
57.2303	488.49
57.2447	522.65
57.2591	509.84
57.2736	537.98
57.2880	515.27
57.3025	523.49
57.3169	530.04
57.3313	503.72
57.3458	530.57
57.3602	557.26
57.3747	530.06
57.3891	548.98
57.4035	521.30
57.4180	509.55
57.4324	525.31
57.4469	528.06
57.4613	523.07
57.4757	548.74
57.4902	560.36
57.5046	532.42
57.5191	532.13
57.5335	571.65
57.5479	527.92
57.5624	506.62
57.5768	511.54
57.5913	544.06
57.6057	549.43
57.6201	542.24
57.6346	551.22
57.6490	549.01
57.6635	547.43
57.6779	505.50
57.6923	500.15
57.7068	517.80
57.7212	573.49
57.7357	545.82
57.7501	564.18
57.7645	598.76
57.7790	599.49
57.7934	594.31
57.8079	582.78
57.8223	612.40
57.8367	650.94
57.8512	712.07
57.8656	757.58
57.8801	753.23
57.8945	761.81
57.9089	740.75
57.9234	708.04
57.9378	715.06
57.9523	658.25
57.9667	622.83
57.9811	661.74
57.9956	661.49
58.0100	610.97
58.0245	673.37
58.0389	636.16
58.0533	675.44
58.0678	629.11
58.0822	653.72
58.0967	617.74
58.1111	594.40
58.1255	600.10
58.1400	576.36
58.1544	553.10
58.1689	595.15
58.1833	560.52
58.1977	546.47
58.2122	521.93
58.2266	558.81
58.2411	563.94
58.2555	542.30
58.2699	537.53
58.2844	536.09
58.2988	510.27
58.3133	527.79
58.3277	530.43
58.3421	525.04
58.3566	514.36
58.3710	523.87
58.3855	528.63
58.3999	539.43
58.4143	521.87
58.4288	559.59
58.4432	527.84
58.4577	512.67
58.4721	510.24
58.4865	517.26
58.5010	541.06
58.5154	523.03
58.5299	510.90
58.5443	531.37
58.5587	538.83
58.5732	511.11
58.5876	543.91
58.6021	540.32
58.6165	506.49
58.6309	533.52
58.6454	508.85
58.6598	520.07
58.6743	519.40
58.6887	499.35
58.7031	557.49
58.7176	534.15
58.7320	507.29
58.7465	518.34
58.7609	550.67
58.7753	539.79
58.7898	530.24
58.8042	529.89
58.8187	520.94
58.8331	525.67
58.8475	489.84
58.8620	533.16
58.8764	537.24
58.8909	488.35
58.9053	534.29
58.9197	502.46
58.9342	526.23
58.9486	521.54
58.9631	524.51
58.9775	545.54
58.9919	539.45
59.0064	502.40
59.0208	516.62
59.0353	515.51
59.0497	522.31
59.0641	526.38
59.0786	548.72
59.0930	572.08
59.1075	547.77
59.1219	565.53
59.1363	543.47
59.1508	482.83
59.1652	535.33
59.1797	551.14
59.1941	525.86
59.2085	528.84
59.2230	547.31
59.2374	549.45
59.2519	513.54
59.2663	492.22
59.2807	554.46
59.2952	540.85
59.3096	523.64
59.3241	576.52
59.3385	618.66
59.3529	552.65
59.3674	533.99
59.3818	528.33
59.3963	563.34
59.4107	556.56
59.4251	580.28
59.4396	566.73
59.4540	531.76
59.4685	556.70
59.4829	563.19
59.4973	545.58
59.5118	552.75
59.5262	549.48
59.5407	538.84
59.5551	548.97
59.5695	580.56
59.5840	581.67
59.5984	556.79
59.6129	551.24
59.6273	545.58
59.6417	506.20
59.6562	510.13
59.6706	547.73
59.6851	525.00
59.6995	522.68
59.7139	527.02
59.7284	540.15
59.7428	510.59
59.7573	552.38
59.7717	552.62
59.7861	545.10
59.8006	529.23
59.8150	558.61
59.8295	572.88
59.8439	516.83
59.8583	556.13
59.8728	534.34
59.8872	515.41
59.9017	524.60
59.9161	571.71
59.9305	543.23
59.9450	496.12
59.9594	499.27
59.9739	526.11
59.9883	476.16
60.0027	527.23
60.0172	546.29
60.0316	561.87
60.0461	537.15
60.0605	515.28
60.0750	556.88
60.0894	552.23
60.1038	557.66
60.1183	546.91
60.1327	516.98
60.1472	530.83
60.1616	548.75
60.1760	552.75
60.1905	532.90
60.2049	539.27
60.2194	523.10
60.2338	530.17
60.2482	518.08
60.2627	515.70
60.2771	537.11
60.2916	557.95
60.3060	522.13
60.3204	543.71
60.3349	526.51
60.3493	580.38
60.3638	534.46
60.3782	506.24
60.3926	530.06
60.4071	535.79
60.4215	574.29
60.4360	555.05
60.4504	513.55
60.4648	539.07
60.4793	540.59
60.4937	556.33
60.5082	557.29
60.5226	552.39
60.5370	543.61
60.5515	532.10
60.5659	532.41
60.5804	513.37
60.5948	508.43
60.6092	541.13
60.6237	506.42
60.6381	545.01
60.6526	511.05
60.6670	499.04
60.6814	517.98
60.6959	536.55
60.7103	565.15
60.7248	521.57
60.7392	555.20
60.7536	561.80
60.7681	511.21
60.7825	515.14
60.7970	538.45
60.8114	525.86
60.8258	554.56
60.8403	515.83
60.8547	533.42
60.8692	539.87
60.8836	551.77
60.8980	532.99
60.9125	544.33
60.9269	555.50
60.9414	526.50
60.9558	501.09
60.9702	542.24
60.9847	504.60
60.9991	542.51
61.0136	545.06
61.0280	571.82
61.0424	546.18
61.0569	533.35
61.0713	555.38
61.0858	570.75
61.1002	555.55
61.1146	545.63
61.1291	526.39
61.1435	529.41
61.1580	545.03
61.1724	564.52
61.1868	538.80
61.2013	499.92
61.2157	537.85
61.2302	535.20
61.2446	528.66
61.2590	522.04
61.2735	532.98
61.2879	552.00
61.3024	528.65
61.3168	573.10
61.3312	580.43
61.3457	555.91
61.3601	523.09
61.3746	542.35
61.3890	514.02
61.4034	562.33
61.4179	522.75
61.4323	549.70
61.4468	557.07
61.4612	540.26
61.4756	544.77
61.4901	550.71
61.5045	538.23
61.5190	537.31
61.5334	545.01
61.5478	527.51
61.5623	534.97
61.5767	513.33
61.5912	533.10
61.6056	544.53
61.6200	531.18
61.6345	559.30
61.6489	526.03
61.6634	546.60
61.6778	523.08
61.6922	532.16
61.7067	523.46
61.7211	520.73
61.7356	542.27
61.7500	555.17
61.7644	551.18
61.7789	554.33
61.7933	519.27
61.8078	551.89
61.8222	523.21
61.8366	562.95
61.8511	533.75
61.8655	511.28
61.8800	562.48
61.8944	578.42
61.9088	519.46
61.9233	549.55
61.9377	552.49
61.9522	523.64
61.9666	503.40
61.9810	573.93
61.9955	562.00
62.0099	559.87
62.0244	548.32
62.0388	523.86
62.0532	545.97
62.0677	576.91
62.0821	594.65
62.0966	588.19
62.1110	551.16
62.1254	562.74
62.1399	563.45
62.1543	496.68
62.1688	523.08
62.1832	537.55
62.1976	528.92
62.2121	574.75
62.2265	563.87
62.2410	587.11
62.2554	562.89
62.2698	506.14
62.2843	548.32
62.2987	557.00
62.3132	524.68
62.3276	534.83
62.3420	554.13
62.3565	565.57
62.3709	552.15
62.3854	539.42
62.3998	532.32
62.4142	532.74
62.4287	543.62
62.4431	550.60
62.4576	561.95
62.4720	559.93
62.4864	558.29
62.5009	520.47
62.5153	552.49
62.5298	567.21
62.5442	545.46
62.5586	575.89
62.5731	548.78
62.5875	537.23
62.6020	557.08
62.6164	561.08
62.6308	571.49
62.6453	554.79
62.6597	570.90
62.6742	558.97
62.6886	531.86
62.7030	577.78
62.7175	547.13
62.7319	528.63
62.7464	563.78
62.7608	522.97
62.7752	552.67
62.7897	556.67
62.8041	553.39
62.8186	547.36
62.8330	584.32
62.8474	570.07
62.8619	549.47
62.8763	577.89
62.8908	546.73
62.9052	554.42
62.9196	561.91
62.9341	542.19
62.9485	561.62
62.9630	560.02
62.9774	557.29
62.9918	558.84
63.0063	554.32
63.0207	578.95
63.0352	547.05
63.0496	553.10
63.0640	568.89
63.0785	600.42
63.0929	604.39
63.1074	595.56
63.1218	619.11
63.1362	580.62
63.1507	554.81
63.1651	567.44
63.1796	580.56
63.1940	570.30
63.2084	572.11
63.2229	588.52
63.2373	563.71
63.2518	565.95
63.2662	572.49
63.2806	616.51
63.2951	575.44
63.3095	595.50
63.3240	615.30
63.3384	646.69
63.3528	581.33
63.3673	599.36
63.3817	612.52
63.3962	617.57
63.4106	648.57
63.4250	694.70
63.4395	691.84
63.4539	621.89
63.4684	667.75
63.4828	725.29
63.4972	687.77
63.5117	758.55
63.5261	845.53
63.5406	881.89
63.5550	898.30
63.5694	904.52
63.5839	978.74
63.5983	978.77
63.6128	905.81
63.6272	849.57
63.6416	803.56
63.6561	796.39
63.6705	786.00
63.6850	735.39
63.6994	819.37
63.7138	832.92
63.7283	812.45
63.7427	787.15
63.7572	810.60
63.7716	784.05
63.7861	736.57
63.8005	732.97
63.8149	699.06
63.8294	691.94
63.8438	650.92
63.8583	680.47
63.8727	635.01
63.8871	647.90
63.9016	682.38
63.9160	687.14
63.9305	626.07
63.9449	621.74
63.9593	582.43
63.9738	598.07
63.9882	582.66
64.0027	558.84
64.0171	630.92
64.0315	612.64
64.0460	602.85
64.0604	590.30
64.0749	626.70
64.0893	652.60
64.1037	590.60
64.1182	604.68
64.1326	603.91
64.1471	570.55
64.1615	615.65
64.1759	619.32
64.1904	592.69
64.2048	620.53
64.2193	592.48
64.2337	601.13
64.2481	603.35
64.2626	599.47
64.2770	609.26
64.2915	561.06
64.3059	596.85
64.3203	621.10
64.3348	619.45
64.3492	619.29
64.3637	574.22
64.3781	600.92
64.3925	582.33
64.4070	578.69
64.4214	645.97
64.4359	608.70
64.4503	559.96
64.4647	622.12
64.4792	625.00
64.4936	594.72
64.5081	610.90
64.5225	599.23
64.5369	605.53
64.5514	646.31
64.5658	589.41
64.5803	607.21
64.5947	662.46
64.6091	647.13
64.6236	670.64
64.6380	636.16
64.6525	659.53
64.6669	674.74
64.6813	657.37
64.6958	669.84
64.7102	673.22
64.7247	624.98
64.7391	692.36
64.7535	697.19
64.7680	699.52
64.7824	683.83
64.7969	748.82
64.8113	750.00
64.8257	804.71
64.8402	814.22
64.8546	840.49
64.8691	846.78
64.8835	839.90
64.8979	842.65
64.9124	846.75
64.9268	825.38
64.9413	864.44
64.9557	877.46
64.9701	930.66
64.9846	973.21
64.9990	1090.36
65.0135	1221.17
65.0279	1367.35
65.0423	1610.70
65.0568	1893.83
65.0712	2457.34
65.0857	3256.34
65.1001	4194.30
65.1145	5728.28
65.1290	7548.84
65.1434	9110.89
65.1579	10620.36
65.1723	11444.57
65.1867	11057.22
65.2012	9881.89
65.2156	8384.03
65.2301	6564.64
65.2445	5360.40
65.2589	4487.45
65.2734	4115.32
65.2878	4241.07
65.3023	4715.38
65.3167	5505.22
65.3311	6287.42
65.3456	6819.63
65.3600	6813.92
65.3745	6496.49
65.3889	5530.71
65.4033	4427.04
65.4178	3518.98
65.4322	2700.14
65.4467	2089.67
65.4611	1745.14
65.4755	1527.75
65.4900	1284.65
65.5044	1106.56
65.5189	1006.10
65.5333	963.04
65.5477	881.48
65.5622	856.01
65.5766	846.65
65.5911	852.03
65.6055	788.23
65.6199	761.81
65.6344	794.77
65.6488	813.40
65.6633	746.36
65.6777	651.26
65.6921	666.28
65.7066	733.82
65.7210	738.93
65.7355	694.97
65.7499	698.59
65.7643	682.25
65.7788	678.99
65.7932	677.40
65.8077	672.98
65.8221	633.56
65.8365	637.79
65.8510	633.44
65.8654	653.35
65.8799	639.08
65.8943	624.81
65.9087	617.13
65.9232	622.00
65.9376	634.15
65.9521	628.01
65.9665	635.11
65.9809	624.86
65.9954	623.34
66.0098	603.93
66.0243	606.96
66.0387	615.11
66.0531	571.40
66.0676	610.99
66.0820	630.14
66.0965	617.13
66.1109	619.34
66.1253	624.54
66.1398	624.00
66.1542	599.27
66.1687	619.97
66.1831	616.49
66.1975	614.67
66.2120	633.81
66.2264	625.81
66.2409	601.93
66.2553	596.12
66.2697	611.62
66.2842	594.27
66.2986	585.54
66.3131	610.76
66.3275	594.21
66.3419	609.62
66.3564	594.67
66.3708	587.74
66.3853	570.36
66.3997	579.91
66.4141	617.19
66.4286	640.74
66.4430	606.82
66.4575	603.37
66.4719	625.94
66.4863	611.45
66.5008	590.84
66.5152	585.78
66.5297	586.87
66.5441	607.03
66.5585	602.36
66.5730	572.08
66.5874	608.57
66.6019	594.20
66.6163	577.50
66.6307	588.49
66.6452	616.37
66.6596	582.33
66.6741	572.71
66.6885	567.60
66.7029	622.79
66.7174	589.47
66.7318	565.71
66.7463	541.48
66.7607	540.10
66.7751	566.45
66.7896	602.16
66.8040	602.46
66.8185	605.58
66.8329	599.95
66.8473	564.40
66.8618	595.04
66.8762	587.78
66.8907	572.49
66.9051	607.91
66.9195	575.15
66.9340	525.42
66.9484	586.48
66.9629	593.46
66.9773	576.48
66.9917	585.81
67.0062	581.43
67.0206	600.69
67.0351	598.18
67.0495	577.81
67.0639	609.35
67.0784	584.02
67.0928	580.70
67.1073	598.35
67.1217	602.19
67.1361	559.18
67.1506	561.80
67.1650	554.89
67.1795	543.32
67.1939	558.77
67.2083	573.94
67.2228	588.57
67.2372	618.16
67.2517	592.55
67.2661	568.78
67.2805	568.54
67.2950	562.01
67.3094	593.27
67.3239	582.68
67.3383	603.06
67.3527	606.18
67.3672	552.65
67.3816	524.20
67.3961	559.74
67.4105	549.96
67.4250	579.52
67.4394	564.47
67.4538	539.91
67.4683	585.83
67.4827	578.21
67.4972	551.29
67.5116	541.98
67.5260	581.44
67.5405	579.88
67.5549	572.28
67.5694	551.67
67.5838	581.53
67.5982	606.57
67.6127	555.68
67.6271	599.47
67.6416	617.66
67.6560	574.12
67.6704	535.93
67.6849	551.04
67.6993	593.69
67.7138	596.56
67.7282	569.62
67.7426	529.87
67.7571	571.34
67.7715	594.39
67.7860	585.51
67.8004	587.25
67.8148	583.08
67.8293	583.50
67.8437	552.97
67.8582	546.52
67.8726	573.12
67.8870	597.84
67.9015	606.65
67.9159	598.50
67.9304	544.74
67.9448	533.32
67.9592	532.21
67.9737	547.68
67.9881	578.36
68.0026	560.04
68.0170	578.36
68.0314	580.55
68.0459	561.54
68.0603	573.66
68.0748	578.16
68.0892	612.38
68.1036	560.20
68.1181	592.02
68.1325	569.58
68.1470	555.50
68.1614	556.46
68.1758	577.78
68.1903	580.06
68.2047	572.07
68.2192	572.04
68.2336	570.99
68.2480	587.37
68.2625	567.13
68.2769	568.29
68.2914	569.77
68.3058	519.92
68.3202	525.45
68.3347	614.13
68.3491	599.95
68.3636	585.18
68.3780	581.50
68.3924	571.09
68.4069	592.98
68.4213	598.58
68.4358	564.41
68.4502	536.68
68.4646	577.23
68.4791	628.58
68.4935	543.16
68.5080	529.13
68.5224	545.01
68.5368	532.01
68.5513	555.66
68.5657	547.80
68.5802	541.47
68.5946	606.71
68.6090	567.16
68.6235	574.28
68.6379	587.54
68.6524	585.56
68.6668	572.43
68.6812	520.74
68.6957	524.15
68.7101	621.84
68.7246	555.29
68.7390	568.96
68.7534	597.13
68.7679	571.46
68.7823	575.39
68.7968	566.65
68.8112	570.90
68.8256	552.50
68.8401	579.19
68.8545	557.90
68.8690	517.40
68.8834	524.32
68.8978	572.96
68.9123	594.06
68.9267	575.49
68.9412	602.28
68.9556	538.52
68.9700	514.96
68.9845	521.14
68.9989	599.09
69.0134	591.68
69.0278	534.39
69.0422	542.27
69.0567	578.31
69.0711	585.17
69.0856	559.88
69.1000	603.29
69.1144	534.02
69.1289	587.73
69.1433	562.74
69.1578	549.20
69.1722	584.29
69.1866	632.04
69.2011	536.20
69.2155	604.20
69.2300	596.59
69.2444	632.05
69.2588	583.36
69.2733	586.15
69.2877	560.89
69.3022	598.45
69.3166	573.74
69.3310	554.13
69.3455	595.96
69.3599	567.08
69.3744	573.97
69.3888	534.63
69.4032	590.52
69.4177	541.43
69.4321	589.17
69.4466	586.94
69.4610	638.19
69.4754	597.28
69.4899	611.49
69.5043	552.64
69.5188	572.63
69.5332	526.97
69.5476	593.51
69.5621	591.79
69.5765	563.14
69.5910	581.07
69.6054	527.21
69.6198	547.34
69.6343	605.03
69.6487	613.84
69.6632	591.26
69.6776	575.55
69.6920	572.86
69.7065	576.26
69.7209	561.51
69.7354	545.19
69.7498	588.76
69.7642	541.07
69.7787	595.46
69.7931	557.07
69.8076	587.80
69.8220	559.93
69.8364	535.12
69.8509	586.56
69.8653	610.72
69.8798	578.04
69.8942	612.51
69.9086	562.84
69.9231	599.20
69.9375	608.63
69.9520	591.63
69.9664	635.57
69.9808	583.81
69.9953	580.85
70.0097	613.02
70.0242	604.81
70.0386	544.96
70.0530	519.77
70.0675	541.73
70.0819	567.38
70.0964	577.89
70.1108	527.21
70.1252	556.63
70.1397	604.51
70.1541	551.01
70.1686	584.42
70.1830	616.95
70.1974	528.42
70.2119	554.38
70.2263	597.04
70.2408	562.32
70.2552	583.96
70.2696	561.63
70.2841	559.07
70.2985	531.83
70.3130	557.72
70.3274	550.97
70.3418	575.09
70.3563	624.41
70.3707	575.90
70.3852	591.75
70.3996	558.66
70.4140	544.57
70.4285	590.29
70.4429	504.36
70.4574	574.13
70.4718	594.93
70.4862	522.45
70.5007	558.51
70.5151	553.35
70.5296	536.32
70.5440	566.25
70.5584	594.04
70.5729	552.80
70.5873	544.99
70.6018	540.81
70.6162	559.21
70.6306	571.46
70.6451	559.80
70.6595	589.58
70.6740	561.51
70.6884	569.47
70.7028	667.60
70.7173	631.36
70.7317	518.18
70.7462	551.80
70.7606	538.07
70.7750	559.58
70.7895	606.85
70.8039	588.94
70.8184	635.69
70.8328	617.13
70.8472	552.04
70.8617	537.17
70.8761	578.97
70.8906	582.62
70.9050	589.63
70.9194	593.11
70.9339	591.21
70.9483	605.58
70.9628	628.60
70.9772	609.95
70.9916	567.73
71.0061	601.35
71.0205	570.51
71.0350	569.67
71.0494	587.06
71.0638	632.48
71.0783	593.06
71.0927	592.06
71.1072	550.94
71.1216	570.14
71.1361	591.96
71.1505	576.37
71.1649	582.01
71.1794	555.79
71.1938	571.17
71.2083	608.37
71.2227	597.69
71.2371	612.47
71.2516	578.00
71.2660	561.68
71.2805	593.15
71.2949	608.02
71.3093	571.54
71.3238	557.54
71.3382	584.03
71.3527	574.95
71.3671	568.39
71.3815	551.67
71.3960	523.23
71.4104	536.52
71.4249	609.55
71.4393	603.28
71.4537	592.76
71.4682	643.18
71.4826	584.20
71.4971	558.22
71.5115	526.02
71.5259	571.43
71.5404	608.14
71.5548	601.66
71.5693	607.66
71.5837	569.50
71.5981	543.11
71.6126	564.61
71.6270	598.22
71.6415	603.47
71.6559	551.02
71.6703	587.27
71.6848	567.17
71.6992	578.75
71.7137	590.43
71.7281	557.00
71.7425	525.11
71.7570	553.84
71.7714	561.63
71.7859	540.18
71.8003	570.83
71.8147	598.00
71.8292	560.18
71.8436	568.73
71.8581	562.49
71.8725	564.23
71.8869	540.82
71.9014	582.48
71.9158	609.08
71.9303	576.07
71.9447	562.47
71.9591	568.05
71.9736	639.24
71.9880	648.19
72.0025	601.35
72.0169	552.09
72.0313	601.22
72.0458	642.60
72.0602	570.46
72.0747	585.93
72.0891	673.74
72.1035	613.62
72.1180	584.27
72.1324	622.30
72.1469	597.18
72.1613	632.81
72.1757	665.63
72.1902	674.85
72.2046	660.80
72.2191	596.66
72.2335	615.31
72.2479	636.49
72.2624	619.14
72.2768	637.37
72.2913	603.66
72.3057	546.34
72.3201	560.58
72.3346	618.76
72.3490	634.99
72.3635	573.75
72.3779	563.59
72.3923	499.90
72.4068	516.72
72.4212	637.54
72.4357	586.59
72.4501	577.19
72.4645	589.42
72.4790	605.73
72.4934	586.82
72.5079	615.56
72.5223	590.45
72.5367	519.72
72.5512	564.57
72.5656	621.79
72.5801	573.83
72.5945	526.20
72.6089	490.27
72.6234	536.27
72.6378	556.58
72.6523	537.00
72.6667	544.35
72.6811	516.72
72.6956	496.71
72.7100	573.66
72.7245	551.01
72.7389	567.19
72.7533	578.51
72.7678	617.18
72.7822	631.83
72.7967	603.38
72.8111	642.62
72.8255	556.77
72.8400	490.33
72.8544	555.13
72.8689	609.60
72.8833	579.04