2022.09.19 19:37:17
Îáðàçåö: ß÷åéêà LCoV 16-09-2022
Lambda1 = 1.54060
Lambda2 = 1.54439
Lambdam = 1.54186
R = 0.497
2Theta	I

line¹ 0 ;repeat¹ 0
22.1120	587.78
22.1264	587.28
22.1409	578.38
22.1553	505.90
22.1697	649.42
22.1842	654.54
22.1986	520.67
22.2131	513.35
22.2275	637.97
22.2419	627.24
22.2564	636.42
22.2708	618.42
22.2853	602.26
22.2997	536.37
22.3141	557.50
22.3286	585.40
22.3430	565.59
22.3575	612.96
22.3719	516.44
22.3863	526.01
22.4008	548.31
22.4152	652.56
22.4297	698.16
22.4441	646.79
22.4585	579.69
22.4730	616.85
22.4874	644.58
22.5019	554.71
22.5163	600.44
22.5307	555.27
22.5452	523.18
22.5596	603.33
22.5741	642.26
22.5885	613.52
22.6029	566.60
22.6174	552.04
22.6318	682.93
22.6463	643.30
22.6607	743.56
22.6751	658.10
22.6896	614.63
22.7040	584.52
22.7185	639.63
22.7329	616.44
22.7473	585.11
22.7618	567.52
22.7762	524.65
22.7907	523.62
22.8051	540.21
22.8195	510.80
22.8340	575.09
22.8484	579.46
22.8629	598.15
22.8773	611.01
22.8917	605.31
22.9062	593.78
22.9206	487.41
22.9351	481.54
22.9495	526.24
22.9639	550.20
22.9784	658.33
22.9928	651.99
23.0073	542.28
23.0217	541.16
23.0361	604.79
23.0506	549.44
23.0650	604.35
23.0795	497.15
23.0939	582.54
23.1083	566.70
23.1228	562.74
23.1372	575.62
23.1517	529.42
23.1661	565.18
23.1806	569.06
23.1950	527.02
23.2094	619.47
23.2239	589.39
23.2383	561.89
23.2528	636.87
23.2672	588.45
23.2816	640.30
23.2961	532.92
23.3105	554.39
23.3250	524.32
23.3394	531.83
23.3538	521.44
23.3683	546.34
23.3827	516.38
23.3972	508.28
23.4116	540.69
23.4260	554.54
23.4405	573.56
23.4549	591.97
23.4694	644.00
23.4838	561.87
23.4982	537.51
23.5127	564.62
23.5271	629.54
23.5416	562.34
23.5560	640.76
23.5704	571.77
23.5849	573.29
23.5993	547.05
23.6138	644.29
23.6282	531.97
23.6426	504.03
23.6571	542.03
23.6715	532.70
23.6860	622.02
23.7004	542.28
23.7148	582.01
23.7293	566.27
23.7437	600.27
23.7582	550.25
23.7726	498.77
23.7870	473.89
23.8015	568.00
23.8159	622.33
23.8304	536.90
23.8448	479.08
23.8592	581.90
23.8737	597.75
23.8881	488.27
23.9026	549.97
23.9170	453.81
23.9314	510.42
23.9459	535.34
23.9603	481.16
23.9748	578.95
23.9892	545.91
24.0036	551.17
24.0181	609.24
24.0325	643.95
24.0470	561.56
24.0614	550.89
24.0758	570.11
24.0903	595.84
24.1047	541.34
24.1192	522.70
24.1336	567.41
24.1480	532.13
24.1625	615.32
24.1769	586.80
24.1914	624.51
24.2058	540.72
24.2202	590.83
24.2347	529.73
24.2491	603.94
24.2636	565.81
24.2780	587.91
24.2924	634.56
24.3069	586.49
24.3213	542.69
24.3358	543.99
24.3502	544.50
24.3646	507.03
24.3791	520.57
24.3935	575.58
24.4080	554.96
24.4224	564.51
24.4368	543.49
24.4513	546.49
24.4657	565.67
24.4802	534.43
24.4946	546.17
24.5090	523.95
24.5235	510.00
24.5379	539.52
24.5524	625.23
24.5668	529.75
24.5812	512.84
24.5957	566.73
24.6101	575.03
24.6246	543.02
24.6390	528.03
24.6534	553.68
24.6679	535.85
24.6823	513.07
24.6968	547.19
24.7112	572.11
24.7256	495.51
24.7401	549.77
24.7545	558.75
24.7690	559.52
24.7834	579.90
24.7978	533.01
24.8123	556.56
24.8267	517.66
24.8412	542.86
24.8556	559.57
24.8700	555.40
24.8845	575.31
24.8989	546.44
24.9134	528.72
24.9278	513.76
24.9422	562.68
24.9567	505.85
24.9711	553.33
24.9856	565.95
25.0000	558.56
25.0144	536.80
25.0289	547.02
25.0433	570.46
25.0578	586.87
25.0722	545.07
25.0866	580.19
25.1011	519.39
25.1155	533.09
25.1300	550.98
25.1444	509.67
25.1588	528.21
25.1733	556.14
25.1877	535.24
25.2022	573.65
25.2166	590.25
25.2310	576.02
25.2455	531.56
25.2599	533.15
25.2744	556.59
25.2888	554.09
25.3032	530.39
25.3177	554.38
25.3321	565.38
25.3466	552.79
25.3610	551.07
25.3754	538.57
25.3899	521.13
25.4043	520.52
25.4188	507.04
25.4332	552.94
25.4476	530.03
25.4621	553.08
25.4765	547.22
25.4910	521.61
25.5054	486.57
25.5198	531.00
25.5343	510.48
25.5487	559.87
25.5632	554.30
25.5776	571.29
25.5920	565.17
25.6065	537.37
25.6209	524.43
25.6354	512.64
25.6498	528.08
25.6642	528.09
25.6787	512.25
25.6931	506.86
25.7076	558.23
25.7220	494.25
25.7364	538.73
25.7509	540.65
25.7653	536.92
25.7798	516.53
25.7942	503.24
25.8086	576.24
25.8231	582.80
25.8375	549.32
25.8520	542.63
25.8664	547.62
25.8808	541.98
25.8953	509.04
25.9097	518.58
25.9242	539.72
25.9386	527.16
25.9530	530.03
25.9675	554.81
25.9819	501.55
25.9964	528.05
26.0108	574.69
26.0252	566.16
26.0397	542.82
26.0541	535.70
26.0686	557.83
26.0830	523.70
26.0974	535.00
26.1119	557.00
26.1263	562.32
26.1408	529.88
26.1552	501.13
26.1696	518.94
26.1841	514.63
26.1985	505.22
26.2130	545.45
26.2274	546.23
26.2418	541.48
26.2563	504.16
26.2707	539.92
26.2852	531.18
26.2996	496.73
26.3140	544.81
26.3285	545.67
26.3429	535.79
26.3574	501.24
26.3718	517.14
26.3862	489.86
26.4007	474.77
26.4151	511.88
26.4296	521.25
26.4440	483.95
26.4584	522.83
26.4729	537.18
26.4873	499.54
26.5018	528.66
26.5162	533.98
26.5306	542.01
26.5451	559.59
26.5595	523.86
26.5740	533.06
26.5884	540.34
26.6028	556.42
26.6173	550.61
26.6317	538.89
26.6462	518.04
26.6606	519.68
26.6750	525.21
26.6895	552.12
26.7039	537.78
26.7184	522.96
26.7328	509.81
26.7472	504.00
26.7617	481.03
26.7761	510.25
26.7906	525.39
26.8050	523.06
26.8194	557.58
26.8339	514.47
26.8483	509.73
26.8628	538.57
26.8772	539.13
26.8917	530.44
26.9061	500.39
26.9205	524.55
26.9350	527.89
26.9494	503.49
26.9639	474.25
26.9783	504.27
26.9927	514.79
27.0072	539.02
27.0216	560.72
27.0361	509.31
27.0505	482.02
27.0649	512.54
27.0794	519.84
27.0938	509.73
27.1083	514.98
27.1227	535.78
27.1371	543.00
27.1516	539.63
27.1660	528.82
27.1805	521.06
27.1949	524.00
27.2093	502.17
27.2238	528.14
27.2382	521.87
27.2527	528.24
27.2671	502.82
27.2815	501.55
27.2960	516.30
27.3104	531.20
27.3249	485.85
27.3393	502.40
27.3537	524.53
27.3682	553.84
27.3826	509.73
27.3971	511.30
27.4115	505.03
27.4259	531.15
27.4404	496.26
27.4548	513.09
27.4693	518.84
27.4837	545.52
27.4981	523.90
27.5126	499.39
27.5270	516.62
27.5415	510.40
27.5559	551.70
27.5703	524.92
27.5848	513.35
27.5992	514.58
27.6137	489.44
27.6281	496.13
27.6425	530.55
27.6570	524.06
27.6714	541.53
27.6859	515.00
27.7003	560.43
27.7147	582.84
27.7292	535.31
27.7436	565.67
27.7581	527.04
27.7725	504.94
27.7869	517.86
27.8014	517.78
27.8158	497.19
27.8303	506.93
27.8447	486.56
27.8591	509.03
27.8736	527.06
27.8880	523.19
27.9025	525.60
27.9169	526.79
27.9313	525.22
27.9458	531.11
27.9602	505.93
27.9747	540.78
27.9891	544.81
28.0035	513.09
28.0180	529.52
28.0324	505.41
28.0469	467.28
28.0613	494.63
28.0757	490.24
28.0902	502.15
28.1046	509.59
28.1191	517.27
28.1335	534.74
28.1479	472.63
28.1624	542.73
28.1768	532.57
28.1913	509.48
28.2057	485.18
28.2201	491.90
28.2346	473.95
28.2490	493.43
28.2635	530.18
28.2779	528.05
28.2923	523.55
28.3068	498.59
28.3212	487.01
28.3357	546.39
28.3501	543.56
28.3645	502.46
28.3790	521.83
28.3934	529.18
28.4079	524.84
28.4223	527.82
28.4367	511.57
28.4512	489.25
28.4656	507.72
28.4801	523.60
28.4945	534.98
28.5089	541.83
28.5234	533.13
28.5378	498.59
28.5523	510.41
28.5667	511.21
28.5811	500.09
28.5956	502.12
28.6100	518.77
28.6245	514.81
28.6389	518.72
28.6533	519.45
28.6678	504.79
28.6822	497.29
28.6967	509.68
28.7111	515.69
28.7255	517.89
28.7400	493.85
28.7544	495.98
28.7689	492.95
28.7833	515.62
28.7977	507.74
28.8122	514.17
28.8266	509.49
28.8411	517.34
28.8555	514.91
28.8699	513.89
28.8844	474.65
28.8988	452.41
28.9133	474.65
28.9277	492.38
28.9421	458.87
28.9566	498.57
28.9710	492.95
28.9855	505.51
28.9999	503.68
29.0143	544.37
29.0288	557.93
29.0432	546.73
29.0577	509.82
29.0721	536.07
29.0865	549.68
29.1010	475.89
29.1154	484.05
29.1299	508.06
29.1443	498.43
29.1587	499.24
29.1732	533.55
29.1876	517.81
29.2021	519.75
29.2165	515.55
29.2309	465.13
29.2454	479.32
29.2598	485.06
29.2743	518.60
29.2887	546.33
29.3031	494.65
29.3176	482.03
29.3320	493.50
29.3465	506.17
29.3609	511.54
29.3753	499.80
29.3898	473.66
29.4042	533.67
29.4187	519.70
29.4331	545.73
29.4475	478.93
29.4620	504.57
29.4764	497.81
29.4909	503.88
29.5053	477.24
29.5197	462.55
29.5342	466.20
29.5486	480.87
29.5631	506.88
29.5775	511.36
29.5919	521.80
29.6064	482.95
29.6208	525.30
29.6353	567.92
29.6497	497.68
29.6641	498.55
29.6786	470.46
29.6930	486.73
29.7075	486.61
29.7219	500.43
29.7363	476.05
29.7508	504.20
29.7652	477.82
29.7797	495.63
29.7941	538.69
29.8085	525.98
29.8230	507.12
29.8374	488.14
29.8519	451.75
29.8663	536.88
29.8807	513.19
29.8952	491.03
29.9096	492.72
29.9241	509.54
29.9385	522.81
29.9529	484.90
29.9674	504.94
29.9818	496.37
29.9963	527.54
30.0107	543.23
30.0251	516.82
30.0396	477.50
30.0540	487.51
30.0685	457.96
30.0829	517.29
30.0973	508.13
30.1118	512.77
30.1262	520.08
30.1407	504.76
30.1551	514.11
30.1695	527.34
30.1840	524.05
30.1984	530.15
30.2129	502.64
30.2273	522.28
30.2417	550.18
30.2562	506.63
30.2706	486.38
30.2851	497.38
30.2995	499.11
30.3139	512.83
30.3284	512.13
30.3428	508.22
30.3573	517.16
30.3717	540.44
30.3861	534.02
30.4006	492.51
30.4150	517.71
30.4295	570.47
30.4439	539.20
30.4583	552.86
30.4728	559.98
30.4872	592.71
30.5017	584.85
30.5161	603.48
30.5305	677.29
30.5450	713.26
30.5594	727.92
30.5739	747.86
30.5883	762.04
30.6028	732.91
30.6172	703.77
30.6316	718.78
30.6461	647.80
30.6605	657.43
30.6750	619.16
30.6894	624.21
30.7038	600.55
30.7183	553.09
30.7327	560.02
30.7472	571.85
30.7616	518.36
30.7760	533.48
30.7905	512.11
30.8049	520.84
30.8194	521.23
30.8338	531.11
30.8482	506.91
30.8627	515.13
30.8771	549.36
30.8916	500.08
30.9060	501.66
30.9204	479.37
30.9349	502.79
30.9493	542.80
30.9638	505.43
30.9782	485.80
30.9926	467.64
31.0071	469.72
31.0215	509.72
31.0360	521.59
31.0504	505.07
31.0648	531.93
31.0793	547.69
31.0937	500.83
31.1082	489.77
31.1226	508.54
31.1370	522.89
31.1515	497.79
31.1659	494.44
31.1804	460.31
31.1948	496.10
31.2092	506.67
31.2237	513.33
31.2381	527.45
31.2526	497.66
31.2670	502.17
31.2814	527.49
31.2959	496.04
31.3103	561.60
31.3248	528.04
31.3392	539.98
31.3536	538.03
31.3681	497.96
31.3825	496.16
31.3970	506.07
31.4114	513.51
31.4258	520.15
31.4403	510.65
31.4547	498.39
31.4692	492.75
31.4836	507.00
31.4980	503.52
31.5125	459.88
31.5269	508.53
31.5414	511.49
31.5558	469.10
31.5702	484.44
31.5847	491.43
31.5991	505.95
31.6136	520.30
31.6280	480.91
31.6424	502.00
31.6569	515.82
31.6713	542.62
31.6858	511.56
31.7002	495.69
31.7146	503.84
31.7291	495.59
31.7435	513.19
31.7580	495.13
31.7724	509.93
31.7868	522.86
31.8013	482.57
31.8157	522.63
31.8302	477.89
31.8446	492.46
31.8590	511.60
31.8735	501.16
31.8879	501.17
31.9024	493.60
31.9168	519.36
31.9312	485.48
31.9457	486.38
31.9601	481.65
31.9746	482.58
31.9890	504.83
32.0034	503.72
32.0179	546.42
32.0323	518.58
32.0468	495.45
32.0612	484.92
32.0756	442.23
32.0901	510.84
32.1045	484.09
32.1190	508.96
32.1334	526.90
32.1478	483.14
32.1623	489.27
32.1767	498.72
32.1912	487.87
32.2056	495.23
32.2200	486.06
32.2345	498.61
32.2489	513.42
32.2634	540.68
32.2778	522.73
32.2922	549.53
32.3067	502.24
32.3211	485.91
32.3356	504.71
32.3500	512.54
32.3644	509.04
32.3789	470.31
32.3933	474.47
32.4078	515.49
32.4222	511.86
32.4366	483.03
32.4511	462.91
32.4655	473.56
32.4800	497.20
32.4944	514.20
32.5088	519.02
32.5233	520.90
32.5377	513.58
32.5522	502.99
32.5666	500.35
32.5810	482.66
32.5955	461.26
32.6099	522.89
32.6244	478.70
32.6388	522.41
32.6532	526.19
32.6677	481.14
32.6821	477.81
32.6966	482.91
32.7110	487.19
32.7254	511.56
32.7399	501.90
32.7543	513.88
32.7688	483.46
32.7832	512.45
32.7976	520.27
32.8121	498.06
32.8265	480.89
32.8410	501.63
32.8554	491.24
32.8698	523.99
32.8843	504.63
32.8987	533.85
32.9132	498.24
32.9276	517.79
32.9420	494.61
32.9565	490.55
32.9709	469.90
32.9854	461.25
32.9998	487.59
33.0142	494.20
33.0287	511.22
33.0431	504.14
33.0576	514.31
33.0720	550.74
33.0864	492.87
33.1009	493.56
33.1153	511.94
33.1298	495.47
33.1442	467.72
33.1586	480.63
33.1731	481.91
33.1875	488.54
33.2020	475.73
33.2164	504.43
33.2308	516.35
33.2453	500.15
33.2597	497.56
33.2742	484.01
33.2886	468.02
33.3030	514.51
33.3175	522.60
33.3319	500.15
33.3464	513.76
33.3608	495.68
33.3752	491.19
33.3897	501.73
33.4041	467.42
33.4186	489.58
33.4330	499.17
33.4474	489.58
33.4619	462.78
33.4763	496.97
33.4908	515.27
33.5052	494.64
33.5196	515.10
33.5341	501.03
33.5485	531.30
33.5630	471.17
33.5774	488.92
33.5918	515.95
33.6063	529.44
33.6207	544.87
33.6352	522.72
33.6496	485.75
33.6640	499.70
33.6785	490.38
33.6929	479.63
33.7074	490.23
33.7218	488.51
33.7362	484.32
33.7507	512.61
33.7651	487.51
33.7796	509.62
33.7940	474.95
33.8084	474.72
33.8229	520.94
33.8373	504.87
33.8518	483.10
33.8662	510.47
33.8806	467.15
33.8951	478.98
33.9095	500.79
33.9240	497.77
33.9384	492.23
33.9528	494.52
33.9673	469.09
33.9817	485.86
33.9962	486.87
34.0106	468.64
34.0250	498.20
34.0395	491.28
34.0539	475.79
34.0684	498.89
34.0828	507.50
34.0972	504.26
34.1117	566.68
34.1261	541.95
34.1406	476.09
34.1550	513.17
34.1694	520.62
34.1839	526.66
34.1983	499.64
34.2128	500.57
34.2272	502.87
34.2417	528.85
34.2561	504.08
34.2705	501.09
34.2850	495.21
34.2994	488.51
34.3139	500.86
34.3283	515.12
34.3427	504.64
34.3572	530.19
34.3716	495.12
34.3861	476.14
34.4005	502.50
34.4149	491.98
34.4294	506.65
34.4438	496.15
34.4583	510.20
34.4727	485.44
34.4871	477.60
34.5016	504.95
34.5160	488.13
34.5305	494.61
34.5449	499.89
34.5593	489.80
34.5738	476.10
34.5882	482.57
34.6027	495.65
34.6171	484.26
34.6315	522.66
34.6460	514.76
34.6604	474.64
34.6749	500.62
34.6893	512.29
34.7037	519.34
34.7182	517.76
34.7326	471.48
34.7471	510.69
34.7615	508.92
34.7759	507.42
34.7904	501.35
34.8048	513.68
34.8193	500.10
34.8337	489.78
34.8481	480.97
34.8626	498.78
34.8770	504.04
34.8915	501.09
34.9059	533.63
34.9203	491.75
34.9348	485.17
34.9492	513.65
34.9637	508.86
34.9781	484.36
34.9925	522.06
35.0070	505.27
35.0214	501.74
35.0359	508.76
35.0503	492.14
35.0647	462.08
35.0792	505.43
35.0936	532.19
35.1081	506.97
35.1225	506.69
35.1369	510.84
35.1514	481.76
35.1658	523.14
35.1803	512.68
35.1947	514.43
35.2091	499.59
35.2236	479.27
35.2380	491.54
35.2525	509.47
35.2669	499.38
35.2813	521.09
35.2958	520.73
35.3102	500.50
35.3247	509.46
35.3391	535.69
35.3535	503.65
35.3680	505.73
35.3824	476.08
35.3969	507.39
35.4113	497.59
35.4257	521.73
35.4402	505.06
35.4546	505.64
35.4691	549.55
35.4835	538.05
35.4979	563.40
35.5124	521.20
35.5268	548.78
35.5413	536.22
35.5557	509.83
35.5701	512.20
35.5846	498.88
35.5990	537.48
35.6135	527.57
35.6279	527.55
35.6423	494.41
35.6568	508.55
35.6712	540.71
35.6857	579.45
35.7001	689.10
35.7145	729.82
35.7290	720.73
35.7434	642.53
35.7579	629.63
35.7723	658.02
35.7867	703.71
35.8012	756.25
35.8156	751.09
35.8301	734.77
35.8445	729.05
35.8589	772.79
35.8734	825.21
35.8878	953.41
35.9023	1109.10
35.9167	1208.51
35.9311	1335.49
35.9456	1660.79
35.9600	2048.88
35.9745	2194.21
35.9889	2382.66
36.0033	2778.93
36.0178	3096.73
36.0322	3314.59
36.0467	2652.14
36.0611	2097.81
36.0755	1909.18
36.0900	2104.53
36.1044	1859.04
36.1189	1557.66
36.1333	1389.19
36.1477	1165.35
36.1622	1080.19
36.1766	940.87
36.1911	846.74
36.2055	746.93
36.2199	781.53
36.2344	725.58
36.2488	626.29
36.2633	614.95
36.2777	586.51
36.2921	580.41
36.3066	560.25
36.3210	562.74
36.3355	561.09
36.3499	543.25
36.3643	495.31
36.3788	527.15
36.3932	532.02
36.4077	505.37
36.4221	539.71
36.4365	523.74
36.4510	528.23
36.4654	547.95
36.4799	529.88
36.4943	529.48
36.5087	528.52
36.5232	519.03
36.5376	510.53
36.5521	532.00
36.5665	520.29
36.5809	527.52
36.5954	519.35
36.6098	495.95
36.6243	491.02
36.6387	503.43
36.6531	512.13
36.6676	527.86
36.6820	512.37
36.6965	528.75
36.7109	537.20
36.7253	513.00
36.7398	530.73
36.7542	564.14
36.7687	524.88
36.7831	553.55
36.7975	535.72
36.8120	593.50
36.8264	569.87
36.8409	536.97
36.8553	592.72
36.8697	582.77
36.8842	564.42
36.8986	620.77
36.9131	589.41
36.9275	536.38
36.9419	583.46
36.9564	565.12
36.9708	548.70
36.9853	537.38
36.9997	520.06
37.0141	542.97
37.0286	543.13
37.0430	531.26
37.0575	513.92
37.0719	506.20
37.0863	531.50
37.1008	490.88
37.1152	508.69
37.1297	526.55
37.1441	482.23
37.1585	509.48
37.1730	515.40
37.1874	505.47
37.2019	535.77
37.2163	535.10
37.2307	485.72
37.2452	488.41
37.2596	480.76
37.2741	506.48
37.2885	537.79
37.3029	527.19
37.3174	497.18
37.3318	526.47
37.3463	506.98
37.3607	481.19
37.3751	478.49
37.3896	493.07
37.4040	522.99
37.4185	493.31
37.4329	531.16
37.4473	514.11
37.4618	476.68
37.4762	526.26
37.4907	498.15
37.5051	535.65
37.5195	502.88
37.5340	503.14
37.5484	512.06
37.5629	491.17
37.5773	510.87
37.5917	508.63
37.6062	504.49
37.6206	489.53
37.6351	494.57
37.6495	480.51
37.6639	507.76
37.6784	522.63
37.6928	477.75
37.7073	505.45
37.7217	518.54
37.7361	510.66
37.7506	523.97
37.7650	497.37
37.7795	512.49
37.7939	508.71
37.8083	511.73
37.8228	514.79
37.8372	527.02
37.8517	515.68
37.8661	505.42
37.8805	521.78
37.8950	523.72
37.9094	517.81
37.9239	493.48
37.9383	506.06
37.9528	518.75
37.9672	515.39
37.9816	492.93
37.9961	513.56
38.0105	472.61
38.0250	503.14
38.0394	490.73
38.0538	496.68
38.0683	497.67
38.0827	534.98
38.0972	524.71
38.1116	498.97
38.1260	502.49
38.1405	467.47
38.1549	471.70
38.1694	477.31
38.1838	495.62
38.1982	505.58
38.2127	513.54
38.2271	511.01
38.2416	504.78
38.2560	487.53
38.2704	490.58
38.2849	485.15
38.2993	509.72
38.3138	512.42
38.3282	538.17
38.3426	530.61
38.3571	491.21
38.3715	533.53
38.3860	494.50
38.4004	513.39
38.4148	528.07
38.4293	583.87
38.4437	568.81
38.4582	579.81
38.4726	663.49
38.4870	686.05
38.5015	700.87
38.5159	740.47
38.5304	801.05
38.5448	821.60
38.5592	796.84
38.5737	755.99
38.5881	733.42
38.6026	738.37
38.6170	716.31
38.6314	736.41
38.6459	673.24
38.6603	651.23
38.6748	627.87
38.6892	610.20
38.7036	573.61
38.7181	547.89
38.7325	524.14
38.7470	527.61
38.7614	504.68
38.7758	504.67
38.7903	516.01
38.8047	525.17
38.8192	521.72
38.8336	491.08
38.8480	500.43
38.8625	517.43
38.8769	505.16
38.8914	470.44
38.9058	489.98
38.9202	483.47
38.9347	480.85
38.9491	491.45
38.9636	512.45
38.9780	547.98
38.9924	478.03
39.0069	467.40
39.0213	476.89
39.0358	463.70
39.0502	491.76
39.0646	492.08
39.0791	521.26
39.0935	507.26
39.1080	493.95
39.1224	509.79
39.1368	539.68
39.1513	499.90
39.1657	484.45
39.1802	448.86
39.1946	491.88
39.2090	479.93
39.2235	485.78
39.2379	507.90
39.2524	487.10
39.2668	516.02
39.2812	531.10
39.2957	504.59
39.3101	494.28
39.3246	511.79
39.3390	531.60
39.3534	554.63
39.3679	518.55
39.3823	465.49
39.3968	469.37
39.4112	508.82
39.4256	505.69
39.4401	535.15
39.4545	522.65
39.4690	487.36
39.4834	472.48
39.4978	518.08
39.5123	495.61
39.5267	482.18
39.5412	453.17
39.5556	462.70
39.5700	491.13
39.5845	483.07
39.5989	494.97
39.6134	468.91
39.6278	480.36
39.6422	498.71
39.6567	494.04
39.6711	504.42
39.6856	482.59
39.7000	513.55
39.7144	510.53
39.7289	499.10
39.7433	504.45
39.7578	514.46
39.7722	492.91
39.7866	469.74
39.8011	430.88
39.8155	497.85
39.8300	540.48
39.8444	490.16
39.8588	484.98
39.8733	482.41
39.8877	498.43
39.9022	498.17
39.9166	503.66
39.9310	483.92
39.9455	515.06
39.9599	476.26
39.9744	488.33
39.9888	481.54
40.0032	510.57
40.0177	505.13
40.0321	494.15
40.0466	491.56
40.0610	541.70
40.0754	501.01
40.0899	476.69
40.1043	507.54
40.1188	524.94
40.1332	513.79
40.1476	499.89
40.1621	514.66
40.1765	498.13
40.1910	481.18
40.2054	495.94
40.2198	497.44
40.2343	503.70
40.2487	510.18
40.2632	492.45
40.2776	501.81
40.2920	467.31
40.3065	527.72
40.3209	474.16
40.3354	501.00
40.3498	514.16
40.3642	526.70
40.3787	516.16
40.3931	478.83
40.4076	488.75
40.4220	540.14
40.4364	584.86
40.4509	510.47
40.4653	491.79
40.4798	473.37
40.4942	481.63
40.5086	445.10
40.5231	481.52
40.5375	532.37
40.5520	467.07
40.5664	496.75
40.5808	491.76
40.5953	519.63
40.6097	514.24
40.6242	501.93
40.6386	538.10
40.6530	505.69
40.6675	459.57
40.6819	486.86
40.6964	484.57
40.7108	493.14
40.7252	476.00
40.7397	487.61
40.7541	500.82
40.7686	496.72
40.7830	486.32
40.7974	515.29
40.8119	546.22
40.8263	487.48
40.8408	517.79
40.8552	498.19
40.8696	473.03
40.8841	487.94
40.8985	454.24
40.9130	496.03
40.9274	488.95
40.9418	505.92
40.9563	493.66
40.9707	479.88
40.9852	499.77
40.9996	508.88
41.0140	472.23
41.0285	549.49
41.0429	539.45
41.0574	494.14
41.0718	502.43
41.0862	509.45
41.1007	518.78
41.1151	487.33
41.1296	527.33
41.1440	482.25
41.1584	507.70
41.1729	505.34
41.1873	480.12
41.2018	485.26
41.2162	503.47
41.2306	511.49
41.2451	500.41
41.2595	475.67
41.2740	460.39
41.2884	514.55
41.3028	473.65
41.3173	455.29
41.3317	497.04
41.3462	503.57
41.3606	521.93
41.3750	520.01
41.3895	487.14
41.4039	497.51
41.4184	465.79
41.4328	501.64
41.4472	477.70
41.4617	507.98
41.4761	520.00
41.4906	491.47
41.5050	491.68
41.5194	539.46
41.5339	521.45
41.5483	480.36
41.5628	498.17
41.5772	488.63
41.5916	488.43
41.6061	546.63
41.6205	521.04
41.6350	531.31
41.6494	534.23
41.6639	488.88
41.6783	471.86
41.6927	492.56
41.7072	539.89
41.7216	541.33
41.7361	506.53
41.7505	513.43
41.7649	513.77
41.7794	514.13
41.7938	505.17
41.8083	514.27
41.8227	492.17
41.8371	506.30
41.8516	512.77
41.8660	563.48
41.8805	529.26
41.8949	516.20
41.9093	508.07
41.9238	528.33
41.9382	570.64
41.9527	516.82
41.9671	509.66
41.9815	566.31
41.9960	550.42
42.0104	541.35
42.0249	560.39
42.0393	531.56
42.0537	525.92
42.0682	557.11
42.0826	620.64
42.0971	572.66
42.1115	571.03
42.1259	576.92
42.1404	585.37
42.1548	623.55
42.1693	616.04
42.1837	727.19
42.1981	807.53
42.2126	877.36
42.2270	941.46
42.2415	1015.05
42.2559	1162.89
42.2703	1354.09
42.2848	1493.42
42.2992	1589.54
42.3137	1673.25
42.3281	1665.44
42.3425	1614.41
42.3570	1484.37
42.3714	1424.89
42.3859	1396.10
42.4003	1306.85
42.4147	1292.33
42.4292	1286.91
42.4436	1165.11
42.4581	1019.86
42.4725	939.35
42.4869	855.22
42.5014	767.92
42.5158	701.97
42.5303	667.94
42.5447	602.29
42.5591	618.95
42.5736	568.68
42.5880	562.06
42.6025	546.47
42.6169	529.38
42.6313	565.05
42.6458	571.08
42.6602	564.23
42.6747	519.94
42.6891	526.53
42.7035	533.71
42.7180	547.75
42.7324	533.05
42.7469	483.81
42.7613	498.31
42.7757	490.74
42.7902	495.69
42.8046	508.30
42.8191	517.04
42.8335	512.51
42.8479	493.79
42.8624	529.21
42.8768	536.10
42.8913	513.75
42.9057	520.24
42.9201	523.42
42.9346	523.26
42.9490	523.31
42.9635	488.15
42.9779	498.70
42.9923	521.49
43.0068	533.22
43.0212	537.66
43.0357	512.26
43.0501	485.06
43.0645	506.82
43.0790	519.87
43.0934	550.41
43.1079	505.02
43.1223	516.10
43.1367	499.84
43.1512	499.98
43.1656	517.23
43.1801	510.35
43.1945	544.92
43.2089	554.19
43.2234	508.74
43.2378	509.34
43.2523	521.46
43.2667	524.37
43.2811	525.41
43.2956	523.40
43.3100	537.35
43.3245	526.99
43.3389	556.85
43.3533	526.76
43.3678	488.31
43.3822	529.70
43.3967	527.61
43.4111	503.59
43.4255	497.02
43.4400	492.93
43.4544	501.83
43.4689	504.43
43.4833	483.19
43.4977	516.97
43.5122	495.64
43.5266	532.87
43.5411	505.39
43.5555	509.78
43.5699	515.01
43.5844	529.17
43.5988	509.69
43.6133	531.29
43.6277	541.50
43.6421	516.61
43.6566	563.89
43.6710	568.75
43.6855	544.64
43.6999	550.84
43.7143	626.88
43.7288	629.78
43.7432	691.32
43.7577	642.81
43.7721	678.68
43.7865	637.53
43.8010	587.52
43.8154	586.74
43.8299	608.60
43.8443	571.94
43.8587	594.20
43.8732	608.63
43.8876	587.78
43.9021	604.04
43.9165	574.01
43.9309	561.35
43.9454	562.90
43.9598	554.56
43.9743	544.15
43.9887	522.71
44.0031	515.08
44.0176	513.71
44.0320	506.06
44.0465	508.87
44.0609	530.70
44.0753	486.83
44.0898	523.18
44.1042	508.45
44.1187	517.74
44.1331	522.99
44.1475	527.74
44.1620	524.55
44.1764	509.06
44.1909	509.18
44.2053	509.69
44.2197	508.48
44.2342	522.94
44.2486	522.14
44.2631	506.94
44.2775	530.78
44.2919	547.26
44.3064	530.37
44.3208	566.21
44.3353	547.44
44.3497	560.70
44.3641	541.45
44.3786	506.36
44.3930	532.16
44.4075	540.08
44.4219	566.79
44.4363	573.91
44.4508	574.68
44.4652	576.18
44.4797	587.01
44.4941	558.48
44.5085	599.47
44.5230	576.61
44.5374	545.39
44.5519	545.87
44.5663	606.81
44.5807	601.86
44.5952	564.36
44.6096	559.03
44.6241	549.65
44.6385	596.62
44.6529	586.67
44.6674	578.45
44.6818	597.15
44.6963	622.89
44.7107	657.37
44.7251	691.10
44.7396	746.71
44.7540	777.80
44.7685	809.96
44.7829	902.36
44.7973	914.44
44.8118	868.15
44.8262	784.04
44.8407	747.93
44.8551	724.54
44.8695	715.04
44.8840	719.60
44.8984	689.08
44.9129	704.43
44.9273	668.53
44.9417	674.90
44.9562	613.42
44.9706	521.20
44.9851	529.06
44.9995	575.69
45.0139	574.38
45.0284	514.03
45.0428	489.28
45.0573	536.47
45.0717	517.80
45.0861	510.74
45.1006	515.37
45.1150	506.63
45.1295	506.79
45.1439	491.65
45.1583	508.70
45.1728	524.48
45.1872	521.71
45.2017	524.19
45.2161	523.08
45.2305	493.19
45.2450	514.48
45.2594	517.64
45.2739	496.88
45.2883	509.41
45.3028	499.44
45.3172	500.52
45.3316	494.91
45.3461	527.28
45.3605	553.65
45.3750	499.21
45.3894	501.96
45.4038	477.17
45.4183	490.19
45.4327	544.63
45.4472	483.97
45.4616	494.23
45.4760	511.83
45.4905	488.04
45.5049	517.01
45.5194	518.49
45.5338	527.80
45.5482	505.57
45.5627	504.72
45.5771	456.76
45.5916	485.02
45.6060	517.59
45.6204	481.63
45.6349	476.25
45.6493	497.98
45.6638	461.91
45.6782	480.16
45.6926	465.81
45.7071	478.57
45.7215	510.20
45.7360	516.54
45.7504	507.72
45.7648	523.59
45.7793	520.04
45.7937	485.19
45.8082	518.94
45.8226	544.55
45.8370	499.81
45.8515	491.32
45.8659	529.89
45.8804	475.06
45.8948	512.26
45.9092	510.77
45.9237	482.87
45.9381	498.08
45.9526	461.90
45.9670	499.05
45.9814	476.53
45.9959	469.29
46.0103	485.48
46.0248	546.92
46.0392	515.13
46.0536	499.34
46.0681	509.55
46.0825	519.50
46.0970	545.57
46.1114	511.22
46.1258	515.08
46.1403	499.90
46.1547	494.35
46.1692	499.58
46.1836	504.10
46.1980	517.47
46.2125	507.75
46.2269	501.96
46.2414	493.18
46.2558	487.52
46.2702	482.37
46.2847	503.70
46.2991	501.90
46.3136	529.20
46.3280	521.08
46.3424	510.21
46.3569	502.43
46.3713	494.80
46.3858	524.14
46.4002	486.19
46.4146	519.00
46.4291	525.14
46.4435	494.51
46.4580	511.36
46.4724	478.41
46.4868	491.67
46.5013	491.62
46.5157	478.73
46.5302	510.41
46.5446	475.22
46.5590	506.69
46.5735	484.60
46.5879	515.26
46.6024	512.98
46.6168	514.59
46.6312	507.07
46.6457	483.54
46.6601	540.78
46.6746	520.44
46.6890	496.25
46.7034	524.44
46.7179	511.45
46.7323	478.63
46.7468	461.94
46.7612	464.94
46.7756	541.72
46.7901	525.71
46.8045	514.96
46.8190	524.29
46.8334	480.87
46.8478	489.10
46.8623	528.35
46.8767	508.38
46.8912	509.08
46.9056	559.41
46.9200	497.68
46.9345	484.87
46.9489	508.69
46.9634	477.85
46.9778	497.24
46.9922	518.00
47.0067	491.14
47.0211	517.30
47.0356	547.84
47.0500	532.47
47.0644	539.15
47.0789	517.95
47.0933	503.22
47.1078	498.20
47.1222	510.56
47.1366	528.44
47.1511	470.78
47.1655	450.11
47.1800	493.21
47.1944	485.34
47.2088	477.71
47.2233	516.95
47.2377	512.41
47.2522	495.20
47.2666	521.53
47.2810	520.22
47.2955	498.68
47.3099	513.74
47.3244	509.52
47.3388	491.01
47.3532	492.81
47.3677	516.28
47.3821	515.83
47.3966	466.73
47.4110	501.26
47.4254	499.42
47.4399	520.66
47.4543	471.10
47.4688	477.86
47.4832	486.86
47.4976	530.07
47.5121	507.18
47.5265	500.60
47.5410	518.50
47.5554	502.79
47.5698	478.88
47.5843	501.96
47.5987	535.34
47.6132	514.59
47.6276	475.60
47.6420	486.79
47.6565	499.91
47.6709	477.02
47.6854	497.30
47.6998	511.65
47.7142	481.87
47.7287	491.75
47.7431	508.88
47.7576	512.46
47.7720	517.81
47.7864	499.86
47.8009	494.00
47.8153	508.66
47.8298	510.09
47.8442	496.23
47.8586	499.30
47.8731	550.54
47.8875	501.64
47.9020	536.31
47.9164	482.06
47.9308	472.60
47.9453	516.34
47.9597	505.48
47.9742	519.64
47.9886	500.54
48.0030	512.55
48.0175	510.37
48.0319	483.61
48.0464	476.19
48.0608	524.75
48.0752	524.24
48.0897	536.06
48.1041	511.24
48.1186	526.10
48.1330	530.50
48.1474	494.43
48.1619	538.06
48.1763	528.82
48.1908	496.51
48.2052	502.14
48.2196	523.72
48.2341	513.72
48.2485	493.85
48.2630	475.03
48.2774	471.23
48.2918	471.30
48.3063	515.03
48.3207	526.58
48.3352	516.81
48.3496	478.51
48.3640	513.41
48.3785	509.32
48.3929	476.50
48.4074	494.93
48.4218	498.20
48.4362	490.26
48.4507	529.44
48.4651	541.69
48.4796	511.05
48.4940	539.98
48.5084	496.54
48.5229	508.99
48.5373	503.64
48.5518	498.87
48.5662	538.96
48.5806	482.70
48.5951	493.32
48.6095	506.66
48.6240	506.67
48.6384	490.05
48.6528	491.60
48.6673	520.41
48.6817	501.39
48.6962	504.43
48.7106	482.32
48.7250	525.02
48.7395	521.77
48.7539	523.76
48.7684	506.50
48.7828	542.92
48.7972	526.42
48.8117	507.23
48.8261	529.97
48.8406	520.99
48.8550	538.10
48.8694	561.03
48.8839	547.78
48.8983	577.97
48.9128	595.97
48.9272	524.05
48.9416	592.52
48.9561	570.57
48.9705	546.91
48.9850	569.62
48.9994	612.39
49.0139	573.28
49.0283	591.96
49.0427	593.04
49.0572	676.73
49.0716	644.53
49.0861	666.63
49.1005	665.24
49.1149	723.56
49.1294	763.16
49.1438	779.79
49.1583	815.77
49.1727	874.46
49.1871	919.62
49.2016	956.64
49.2160	1073.24
49.2305	1100.62
49.2449	1220.38
49.2593	1385.18
49.2738	1402.19
49.2882	1477.31
49.3027	1611.12
49.3171	1594.02
49.3315	1738.11
49.3460	1779.40
49.3604	1781.50
49.3749	1753.22
49.3893	1851.39
49.4037	1812.40
49.4182	1840.44
49.4326	1786.37
49.4471	1622.16
49.4615	1638.14
49.4759	1593.63
49.4904	1509.70
49.5048	1457.68
49.5193	1366.63
49.5337	1339.82
49.5481	1165.39
49.5626	1113.02
49.5770	1053.50
49.5915	982.63
49.6059	932.67
49.6203	873.34
49.6348	820.51
49.6492	755.21
49.6637	731.04
49.6781	694.50
49.6925	687.76
49.7070	680.15
49.7214	666.78
49.7359	625.83
49.7503	603.28
49.7647	584.19
49.7792	583.53
49.7936	561.63
49.8081	577.84
49.8225	581.27
49.8369	571.24
49.8514	534.62
49.8658	528.06
49.8803	578.67
49.8947	597.69
49.9091	556.58
49.9236	561.48
49.9380	563.92
49.9525	533.78
49.9669	557.16
49.9813	548.29
49.9958	552.87
50.0102	564.44
50.0247	570.48
50.0391	550.79
50.0535	544.76
50.0680	521.01
50.0824	494.60
50.0969	519.64
50.1113	537.77
50.1257	517.51
50.1402	500.75
50.1546	486.91
50.1691	515.11
50.1835	524.57
50.1979	495.63
50.2124	513.35
50.2268	529.61
50.2413	546.88
50.2557	530.08
50.2701	519.60
50.2846	511.43
50.2990	493.87
50.3135	468.93
50.3279	480.04
50.3423	493.16
50.3568	507.06
50.3712	537.94
50.3857	510.15
50.4001	496.13
50.4145	516.31
50.4290	529.03
50.4434	489.93
50.4579	513.16
50.4723	538.70
50.4867	494.78
50.5012	487.45
50.5156	508.48
50.5301	483.92
50.5445	504.13
50.5589	525.85
50.5734	521.58
50.5878	532.10
50.6023	510.09
50.6167	494.39
50.6311	523.75
50.6456	501.94
50.6600	493.99
50.6745	496.58
50.6889	487.10
50.7033	532.46
50.7178	508.68
50.7322	478.40
50.7467	490.48
50.7611	477.02
50.7755	512.64
50.7900	537.12
50.8044	529.50
50.8189	537.84
50.8333	512.51
50.8477	490.29
50.8622	522.95
50.8766	484.40
50.8911	499.03
50.9055	504.87
50.9199	463.70
50.9344	469.31
50.9488	543.25
50.9633	528.64
50.9777	510.96
50.9921	521.40
51.0066	524.54
51.0210	514.68
51.0355	502.96
51.0499	475.35
51.0643	517.12
51.0788	502.28
51.0932	522.33
51.1077	497.29
51.1221	522.51
51.1365	530.64
51.1510	493.73
51.1654	502.98
51.1799	518.41
51.1943	518.49
51.2087	496.98
51.2232	506.77
51.2376	492.77
51.2521	505.75
51.2665	507.90
51.2809	531.71
51.2954	494.11
51.3098	519.49
51.3243	502.68
51.3387	520.70
51.3531	526.59
51.3676	521.80
51.3820	534.40
51.3965	508.34
51.4109	502.57
51.4253	499.78
51.4398	518.43
51.4542	501.64
51.4687	489.41
51.4831	537.67
51.4975	522.15
51.5120	505.16
51.5264	518.14
51.5409	506.72
51.5553	497.69
51.5697	469.07
51.5842	495.04
51.5986	513.72
51.6131	508.76
51.6275	498.24
51.6419	475.12
51.6564	499.99
51.6708	508.32
51.6853	509.15
51.6997	525.28
51.7141	494.53
51.7286	493.13
51.7430	500.32
51.7575	513.47
51.7719	495.56
51.7863	503.26
51.8008	503.95
51.8152	502.80
51.8297	516.19
51.8441	524.05
51.8585	487.98
51.8730	512.77
51.8874	514.81
51.9019	524.17
51.9163	504.01
51.9307	494.67
51.9452	488.95
51.9596	481.32
51.9741	512.76
51.9885	494.80
52.0029	500.98
52.0174	477.39
52.0318	466.96
52.0463	477.37
52.0607	487.25
52.0751	485.20
52.0896	513.70
52.1040	478.12
52.1185	494.97
52.1329	505.86
52.1473	487.08
52.1618	475.32
52.1762	502.58
52.1907	509.64
52.2051	476.24
52.2195	515.83
52.2340	498.44
52.2484	509.97
52.2629	509.21
52.2773	505.43
52.2917	522.07
52.3062	540.00
52.3206	522.09
52.3351	491.53
52.3495	490.91
52.3639	486.72
52.3784	500.22
52.3928	478.95
52.4073	495.42
52.4217	518.20
52.4361	506.98
52.4506	507.77
52.4650	516.25
52.4795	536.47
52.4939	523.84
52.5083	525.29
52.5228	505.22
52.5372	520.90
52.5517	529.89
52.5661	529.91
52.5805	502.62
52.5950	511.56
52.6094	495.31
52.6239	493.47
52.6383	492.05
52.6527	508.53
52.6672	504.74
52.6816	525.44
52.6961	519.99
52.7105	500.72
52.7250	512.32
52.7394	462.16
52.7538	515.62
52.7683	521.86
52.7827	545.01
52.7972	508.26
52.8116	498.57
52.8260	520.17
52.8405	527.72
52.8549	517.26
52.8694	535.76
52.8838	511.57
52.8982	535.10
52.9127	531.54
52.9271	529.20
52.9416	504.89
52.9560	494.50
52.9704	530.04
52.9849	532.62
52.9993	481.33
53.0138	528.42
53.0282	560.39
53.0426	541.16
53.0571	544.55
53.0715	509.76
53.0860	535.01
53.1004	508.92
53.1148	523.82
53.1293	508.82
53.1437	467.14
53.1582	493.78
53.1726	527.29
53.1870	497.61
53.2015	487.51
53.2159	505.79
53.2304	514.99
53.2448	500.05
53.2592	523.72
53.2737	536.92
53.2881	526.65
53.3026	551.68
53.3170	513.60
53.3314	492.48
53.3459	511.11
53.3603	467.46
53.3748	485.82
53.3892	500.01
53.4036	516.83
53.4181	508.28
53.4325	506.26
53.4470	501.63
53.4614	503.84
53.4758	535.48
53.4903	544.53
53.5047	509.23
53.5192	504.38
53.5336	504.83
53.5480	504.38
53.5625	514.17
53.5769	522.34
53.5914	517.22
53.6058	489.76
53.6202	509.17
53.6347	512.71
53.6491	523.26
53.6636	520.49
53.6780	487.84
53.6924	498.04
53.7069	511.85
53.7213	509.29
53.7358	537.50
53.7502	533.76
53.7646	487.00
53.7791	521.37
53.7935	491.33
53.8080	520.92
53.8224	493.98
53.8368	495.37
53.8513	550.55
53.8657	511.92
53.8802	518.23
53.8946	539.65
53.9090	554.40
53.9235	519.08
53.9379	520.67
53.9524	497.91
53.9668	494.95
53.9812	514.83
53.9957	548.05
54.0101	516.39
54.0246	542.90
54.0390	549.60
54.0534	557.85
54.0679	515.50
54.0823	542.53
54.0968	539.50
54.1112	573.97
54.1256	532.55
54.1401	521.11
54.1545	535.06
54.1690	566.54
54.1834	547.99
54.1978	550.69
54.2123	599.05
54.2267	573.26
54.2412	605.84
54.2556	639.65
54.2700	620.49
54.2845	612.47
54.2989	636.69
54.3134	634.75
54.3278	651.64
54.3422	626.14
54.3567	598.86
54.3711	608.55
54.3856	593.90
54.4000	586.42
54.4144	590.61
54.4289	617.13
54.4433	567.39
54.4578	548.75
54.4722	583.96
54.4866	544.23
54.5011	545.46
54.5155	532.10
54.5300	524.94
54.5444	520.56
54.5588	491.11
54.5733	499.39
54.5877	494.80
54.6022	504.50
54.6166	509.09
54.6310	542.31
54.6455	527.44
54.6599	514.01
54.6744	495.18
54.6888	506.95
54.7032	503.54
54.7177	532.64
54.7321	538.20
54.7466	523.44
54.7610	494.74
54.7754	537.55
54.7899	545.77
54.8043	541.98
54.8188	517.85
54.8332	521.57
54.8476	513.35
54.8621	537.15
54.8765	485.57
54.8910	487.49
54.9054	526.21
54.9198	513.39
54.9343	525.39
54.9487	538.80
54.9632	537.56
54.9776	526.80
54.9920	464.52
55.0065	504.31
55.0209	534.80
55.0354	510.30
55.0498	511.41
55.0642	517.11
55.0787	505.40
55.0931	518.83
55.1076	523.90
55.1220	517.53
55.1364	511.01
55.1509	502.57
55.1653	503.15
55.1798	550.83
55.1942	515.10
55.2086	469.24
55.2231	502.20
55.2375	516.21
55.2520	548.21
55.2664	525.81
55.2808	527.33
55.2953	553.37
55.3097	520.28
55.3242	520.51
55.3386	536.06
55.3530	530.65
55.3675	520.13
55.3819	508.50
55.3964	481.10
55.4108	458.31
55.4252	519.03
55.4397	505.16
55.4541	534.52
55.4686	522.08
55.4830	513.11
55.4974	508.37
55.5119	509.60
55.5263	539.87
55.5408	531.05
55.5552	508.94
55.5696	527.60
55.5841	502.69
55.5985	508.51
55.6130	509.07
55.6274	553.05
55.6418	561.93
55.6563	508.74
55.6707	509.98
55.6852	516.75
55.6996	493.51
55.7140	545.28
55.7285	498.64
55.7429	529.32
55.7574	524.53
55.7718	549.41
55.7862	507.58
55.8007	512.73
55.8151	521.33
55.8296	497.24
55.8440	487.45
55.8584	523.21
55.8729	522.09
55.8873	514.80
55.9018	564.58
55.9162	514.50
55.9306	523.05
55.9451	485.79
55.9595	494.14
55.9740	530.79
55.9884	497.60
56.0028	516.67
56.0173	512.76
56.0317	526.45
56.0462	517.04
56.0606	501.77
56.0750	527.60
56.0895	514.14
56.1039	542.80
56.1184	514.73
56.1328	534.73
56.1472	504.94
56.1617	506.14
56.1761	526.25
56.1906	506.98
56.2050	504.68
56.2194	515.50
56.2339	507.08
56.2483	516.29
56.2628	511.18
56.2772	520.61
56.2916	523.92
56.3061	497.59
56.3205	512.71
56.3350	568.09
56.3494	524.27
56.3639	484.12
56.3783	519.90
56.3927	535.50
56.4072	509.19
56.4216	526.89
56.4361	524.43
56.4505	502.33
56.4649	530.71
56.4794	531.43
56.4938	532.17
56.5083	503.72
56.5227	513.03
56.5371	501.81
56.5516	519.56
56.5660	529.31
56.5805	468.20
56.5949	562.11
56.6093	552.25
56.6238	523.84
56.6382	495.91
56.6527	503.96
56.6671	494.05
56.6815	485.77
56.6960	503.85
56.7104	560.79
56.7249	519.79
56.7393	533.25
56.7537	516.97
56.7682	502.17
56.7826	529.35
56.7971	512.04
56.8115	511.71
56.8259	533.96
56.8404	536.76
56.8548	546.44
56.8693	546.87
56.8837	525.00
56.8981	523.84
56.9126	528.29
56.9270	527.43
56.9415	552.92
56.9559	509.30
56.9703	504.58
56.9848	479.48
56.9992	516.77
57.0137	503.67
57.0281	508.18
57.0425	538.68
57.0570	538.03
57.0714	569.62
57.0859	524.96
57.1003	525.57
57.1147	535.91
57.1292	550.65
57.1436	514.57
57.1581	524.15
57.1725	537.10
57.1869	533.80
57.2014	517.93
57.2158	503.58
57.2303	521.23
57.2447	510.50
57.2591	533.70
57.2736	527.66
57.2880	521.28
57.3025	521.24
57.3169	524.80
57.3313	535.89
57.3458	543.99
57.3602	527.85
57.3747	522.61
57.3891	478.29
57.4035	533.60
57.4180	561.37
57.4324	585.58
57.4469	547.42
57.4613	544.44
57.4757	577.70
57.4902	555.54
57.5046	562.74
57.5191	516.93
57.5335	543.48
57.5479	527.59
57.5624	531.76
57.5768	474.04
57.5913	544.52
57.6057	521.41
57.6201	504.27
57.6346	533.91
57.6490	523.55
57.6635	531.75
57.6779	522.37
57.6923	526.18
57.7068	531.33
57.7212	535.06
57.7357	534.88
57.7501	577.74
57.7645	572.70
57.7790	533.06
57.7934	603.58
57.8079	636.89
57.8223	665.19
57.8367	678.70
57.8512	707.64
57.8656	748.60
57.8801	729.05
57.8945	770.44
57.9089	772.89
57.9234	716.30
57.9378	720.31
57.9523	722.14
57.9667	672.00
57.9811	648.35
57.9956	658.45
58.0100	651.46
58.0245	681.41
58.0389	651.78
58.0533	661.07
58.0678	610.78
58.0822	624.07
58.0967	611.71
58.1111	615.39
58.1255	594.60
58.1400	539.26
58.1544	540.94
58.1689	566.10
58.1833	568.48
58.1977	548.13
58.2122	551.43
58.2266	575.56
58.2411	569.83
58.2555	574.65
58.2699	539.09
58.2844	540.87
58.2988	532.23
58.3133	548.85
58.3277	547.56
58.3421	544.49
58.3566	552.58
58.3710	530.63
58.3855	505.76
58.3999	529.03
58.4143	518.57
58.4288	520.31
58.4432	526.16
58.4577	538.97
58.4721	499.63
58.4865	511.68
58.5010	539.86
58.5154	534.90
58.5299	569.42
58.5443	525.83
58.5587	522.92
58.5732	536.13
58.5876	521.97
58.6021	521.85
58.6165	536.48
58.6309	510.67
58.6454	517.37
58.6598	548.43
58.6743	521.80
58.6887	508.36
58.7031	573.64
58.7176	548.37
58.7320	523.49
58.7465	523.00
58.7609	521.59
58.7753	537.59
58.7898	528.68
58.8042	545.20
58.8187	565.92
58.8331	522.02
58.8475	514.23
58.8620	532.39
58.8764	541.63
58.8909	529.73
58.9053	558.57
58.9197	525.59
58.9342	512.39
58.9486	518.57
58.9631	509.27
58.9775	529.17
58.9919	505.16
59.0064	537.65
59.0208	525.56
59.0353	518.46
59.0497	550.93
59.0641	543.17
59.0786	548.20
59.0930	519.11
59.1075	533.33
59.1219	557.69
59.1363	553.50
59.1508	516.24
59.1652	524.56
59.1797	538.49
59.1941	485.56
59.2085	502.60
59.2230	525.28
59.2374	545.16
59.2519	522.60
59.2663	535.06
59.2807	551.15
59.2952	530.23
59.3096	542.19
59.3241	553.89
59.3385	566.07
59.3529	557.61
59.3674	573.37
59.3818	529.77
59.3963	533.10
59.4107	524.44
59.4251	580.42
59.4396	553.68
59.4540	550.25
59.4685	562.52
59.4829	553.12
59.4973	560.75
59.5118	545.61
59.5262	560.06
59.5407	539.70
59.5551	609.35
59.5695	606.90
59.5840	562.43
59.5984	585.48
59.6129	548.28
59.6273	533.13
59.6417	516.02
59.6562	540.76
59.6706	508.92
59.6851	543.49
59.6995	531.43
59.7139	514.37
59.7284	525.12
59.7428	541.94
59.7573	516.48
59.7717	527.73
59.7861	540.15
59.8006	526.87
59.8150	573.10
59.8295	538.72
59.8439	522.34
59.8583	536.19
59.8728	539.71
59.8872	494.97
59.9017	541.43
59.9161	550.78
59.9305	531.60
59.9450	581.30
59.9594	556.86
59.9739	523.88
59.9883	547.26
60.0027	547.06
60.0172	532.68
60.0316	515.59
60.0461	561.24
60.0605	514.83
60.0750	523.35
60.0894	519.37
60.1038	540.88
60.1183	554.01
60.1327	541.24
60.1472	517.79
60.1616	540.58
60.1760	538.29
60.1905	513.17
60.2049	538.40
60.2194	558.91
60.2338	550.91
60.2482	536.38
60.2627	574.75
60.2771	568.84
60.2916	554.20
60.3060	523.66
60.3204	539.10
60.3349	574.08
60.3493	533.53
60.3638	583.25
60.3782	540.85
60.3926	487.49
60.4071	474.53
60.4215	584.46
60.4360	556.13
60.4504	499.61
60.4648	526.74
60.4793	507.86
60.4937	517.38
60.5082	563.08
60.5226	549.61
60.5370	551.53
60.5515	564.48
60.5659	533.24
60.5804	541.27
60.5948	509.34
60.6092	515.58
60.6237	492.22
60.6381	523.57
60.6526	556.48
60.6670	503.35
60.6814	538.27
60.6959	522.13
60.7103	560.77
60.7248	534.21
60.7392	535.90
60.7536	542.63
60.7681	525.34
60.7825	536.88
60.7970	515.90
60.8114	535.76
60.8258	576.78
60.8403	527.48
60.8547	578.05
60.8692	522.11
60.8836	529.73
60.8980	566.00
60.9125	525.44
60.9269	511.41
60.9414	546.76
60.9558	530.58
60.9702	533.96
60.9847	532.28
60.9991	551.02
61.0136	504.16
61.0280	560.41
61.0424	517.33
61.0569	561.55
61.0713	589.89
61.0858	532.16
61.1002	545.79
61.1146	538.28
61.1291	533.46
61.1435	525.22
61.1580	544.93
61.1724	541.11
61.1868	544.77
61.2013	529.39
61.2157	521.57
61.2302	532.64
61.2446	563.56
61.2590	510.48
61.2735	532.18
61.2879	547.55
61.3024	551.21
61.3168	505.43
61.3312	568.32
61.3457	548.50
61.3601	561.29
61.3746	579.44
61.3890	564.81
61.4034	537.02
61.4179	545.16
61.4323	507.70
61.4468	500.88
61.4612	527.26
61.4756	508.70
61.4901	516.57
61.5045	515.13
61.5190	513.47
61.5334	526.95
61.5478	531.33
61.5623	583.43
61.5767	551.59
61.5912	561.06
61.6056	568.36
61.6200	541.57
61.6345	549.95
61.6489	527.87
61.6634	562.81
61.6778	536.53
61.6922	508.16
61.7067	532.06
61.7211	551.84
61.7356	538.54
61.7500	529.09
61.7644	540.36
61.7789	518.58
61.7933	531.61
61.8078	543.30
61.8222	555.78
61.8366	543.65
61.8511	539.51
61.8655	517.71
61.8800	528.03
61.8944	521.76
61.9088	518.57
61.9233	580.12
61.9377	588.80
61.9522	552.27
61.9666	533.54
61.9810	564.02
61.9955	563.45
62.0099	584.78
62.0244	567.15
62.0388	553.61
62.0532	555.13
62.0677	529.82
62.0821	543.24
62.0966	577.39
62.1110	593.16
62.1254	596.85
62.1399	554.35
62.1543	520.30
62.1688	524.15
62.1832	540.03
62.1976	548.32
62.2121	532.29
62.2265	528.00
62.2410	544.17
62.2554	560.12
62.2698	546.01
62.2843	580.51
62.2987	524.52
62.3132	531.49
62.3276	529.59
62.3420	546.39
62.3565	557.23
62.3709	570.52
62.3854	544.82
62.3998	541.97
62.4142	550.02
62.4287	579.69
62.4431	573.77
62.4576	571.25
62.4720	555.61
62.4864	551.76
62.5009	566.75
62.5153	547.78
62.5298	521.75
62.5442	526.25
62.5586	543.87
62.5731	517.43
62.5875	554.20
62.6020	557.92
62.6164	545.60
62.6308	561.41
62.6453	557.77
62.6597	547.97
62.6742	548.63
62.6886	528.60
62.7030	537.44
62.7175	567.61
62.7319	557.54
62.7464	529.02
62.7608	528.38
62.7752	552.22
62.7897	547.93
62.8041	563.07
62.8186	589.85
62.8330	573.33
62.8474	560.65
62.8619	569.23
62.8763	603.86
62.8908	563.07
62.9052	557.00
62.9196	554.85
62.9341	565.61
62.9485	586.85
62.9630	554.88
62.9774	539.58
62.9918	580.29
63.0063	562.33
63.0207	569.82
63.0352	553.87
63.0496	562.85
63.0640	582.71
63.0785	561.69
63.0929	583.90
63.1074	600.12
63.1218	609.21
63.1362	603.93
63.1507	540.55
63.1651	557.46
63.1796	581.33
63.1940	562.17
63.2084	564.27
63.2229	603.09
63.2373	591.98
63.2518	554.45
63.2662	553.20
63.2806	599.89
63.2951	608.75
63.3095	639.00
63.3240	611.58
63.3384	608.99
63.3528	572.54
63.3673	612.80
63.3817	603.53
63.3962	609.38
63.4106	647.88
63.4250	641.26
63.4395	649.41
63.4539	612.72
63.4684	663.28
63.4828	694.84
63.4972	781.91
63.5117	789.31
63.5261	794.95
63.5406	881.81
63.5550	924.99
63.5694	931.05
63.5839	972.77
63.5983	963.75
63.6128	917.31
63.6272	865.71
63.6416	832.46
63.6561	776.57
63.6705	785.72
63.6850	800.33
63.6994	791.15
63.7138	811.95
63.7283	822.07
63.7427	803.44
63.7572	793.51
63.7716	763.41
63.7861	735.57
63.8005	746.25
63.8149	739.38
63.8294	676.29
63.8438	649.40
63.8583	670.69
63.8727	699.86
63.8871	627.78
63.9016	617.03
63.9160	594.37
63.9305	598.75
63.9449	608.19
63.9593	621.55
63.9738	592.23
63.9882	612.70
64.0027	634.09
64.0171	619.70
64.0315	615.93
64.0460	589.88
64.0604	603.17
64.0749	603.80
64.0893	608.73
64.1037	619.73
64.1182	624.29
64.1326	631.91
64.1471	578.94
64.1615	577.94
64.1759	621.22
64.1904	580.10
64.2048	562.14
64.2193	622.18
64.2337	640.57
64.2481	595.92
64.2626	573.50
64.2770	539.95
64.2915	578.58
64.3059	650.49
64.3203	637.09
64.3348	609.43
64.3492	574.93
64.3637	597.38
64.3781	589.23
64.3925	581.49
64.4070	607.93
64.4214	596.75
64.4359	615.10
64.4503	611.62
64.4647	619.67
64.4792	617.37
64.4936	613.89
64.5081	614.08
64.5225	595.85
64.5369	594.60
64.5514	591.18
64.5658	624.62
64.5803	615.38
64.5947	647.40
64.6091	667.44
64.6236	638.87
64.6380	650.30
64.6525	637.36
64.6669	657.68
64.6813	620.50
64.6958	680.75
64.7102	668.33
64.7247	645.66
64.7391	662.60
64.7535	721.80
64.7680	724.62
64.7824	710.96
64.7969	690.51
64.8113	735.96
64.8257	813.01
64.8402	811.06
64.8546	830.67
64.8691	829.43
64.8835	827.45
64.8979	846.53
64.9124	868.78
64.9268	855.32
64.9413	856.87
64.9557	948.96
64.9701	948.04
64.9846	1021.91
64.9990	1073.53
65.0135	1218.91
65.0279	1391.54
65.0423	1623.46
65.0568	2001.52
65.0712	2526.08
65.0857	3234.40
65.1001	4306.80
65.1145	5726.32
65.1290	7595.09
65.1434	8930.60
65.1579	10531.09
65.1723	11607.42
65.1867	11071.46
65.2012	9818.80
65.2156	8394.59
65.2301	6654.66
65.2445	5217.89
65.2589	4346.21
65.2734	4051.62
65.2878	4161.51
65.3023	4790.57
65.3167	5589.29
65.3311	6285.94
65.3456	6811.88
65.3600	6897.52
65.3745	6469.81
65.3889	5507.72
65.4033	4458.71
65.4178	3556.23
65.4322	2779.68
65.4467	2073.48
65.4611	1631.51
65.4755	1438.29
65.4900	1257.68
65.5044	1158.50
65.5189	1034.00
65.5333	943.91
65.5477	889.74
65.5622	865.35
65.5766	829.87
65.5911	777.68
65.6055	772.48
65.6199	767.44
65.6344	758.16
65.6488	723.21
65.6633	714.11
65.6777	713.57
65.6921	727.88
65.7066	715.93
65.7210	703.44
65.7355	684.81
65.7499	687.99
65.7643	709.39
65.7788	708.09
65.7932	701.32
65.8077	656.93
65.8221	624.74
65.8365	653.97
65.8510	662.71
65.8654	655.71
65.8799	635.91
65.8943	659.95
65.9087	651.95
65.9232	602.50
65.9376	665.08
65.9521	611.16
65.9665	607.74
65.9809	631.00
65.9954	624.20
66.0098	580.04
66.0243	611.75
66.0387	604.58
66.0531	583.21
66.0676	624.66
66.0820	564.48
66.0965	606.35
66.1109	628.49
66.1253	626.29
66.1398	630.11
66.1542	645.39
66.1687	648.74
66.1831	655.89
66.1975	634.54
66.2120	605.05
66.2264	607.82
66.2409	613.05
66.2553	623.40
66.2697	612.73
66.2842	608.57
66.2986	599.17
66.3131	606.87
66.3275	591.52
66.3419	628.91
66.3564	603.81
66.3708	618.61
66.3853	618.28
66.3997	578.83
66.4141	570.66
66.4286	586.10
66.4430	603.52
66.4575	614.28
66.4719	649.33
66.4863	608.40
66.5008	570.94
66.5152	589.32
66.5297	595.84
66.5441	594.30
66.5585	558.75
66.5730	572.29
66.5874	580.09
66.6019	561.29
66.6163	565.46
66.6307	590.29
66.6452	556.27
66.6596	558.58
66.6741	557.98
66.6885	534.64
66.7029	568.56
66.7174	602.40
66.7318	570.96
66.7463	568.23
66.7607	574.76
66.7751	581.86
66.7896	596.65
66.8040	584.60
66.8185	563.98
66.8329	559.42
66.8473	586.35
66.8618	607.80
66.8762	574.33
66.8907	593.25
66.9051	598.94
66.9195	559.06
66.9340	568.68
66.9484	577.15
66.9629	595.07
66.9773	572.30
66.9917	565.83
67.0062	580.86
67.0206	598.66
67.0351	601.15
67.0495	623.88
67.0639	594.30
67.0784	574.39
67.0928	582.05
67.1073	586.98
67.1217	601.11
67.1361	592.31
67.1506	570.62
67.1650	615.83
67.1795	593.85
67.1939	592.36
67.2083	593.55
67.2228	591.01
67.2372	592.05
67.2517	585.55
67.2661	562.78
67.2805	593.22
67.2950	574.05
67.3094	558.51
67.3239	565.28
67.3383	578.22
67.3527	582.76
67.3672	583.53
67.3816	565.81
67.3961	563.53
67.4105	563.25
67.4250	567.30
67.4394	588.68
67.4538	571.04
67.4683	559.28
67.4827	573.37
67.4972	570.30
67.5116	567.66
67.5260	564.19
67.5405	581.38
67.5549	587.93
67.5694	582.20
67.5838	573.71
67.5982	581.64
67.6127	562.02
67.6271	576.20
67.6416	610.83
67.6560	565.40
67.6704	571.30
67.6849	561.84
67.6993	558.39
67.7138	600.42
67.7282	580.70
67.7426	569.41
67.7571	595.18
67.7715	553.44
67.7860	622.33
67.8004	561.34
67.8148	561.40
67.8293	562.40
67.8437	546.82
67.8582	604.99
67.8726	618.33
67.8870	549.69
67.9015	552.58
67.9159	564.47
67.9304	546.11
67.9448	542.56
67.9592	590.74
67.9737	583.37
67.9881	541.74
68.0026	565.15
68.0170	565.36
68.0314	579.97
68.0459	562.74
68.0603	575.77
68.0748	574.42
68.0892	589.22
68.1036	558.98
68.1181	563.08
68.1325	530.23
68.1470	578.85
68.1614	564.35
68.1758	617.29
68.1903	561.23
68.2047	578.58
68.2192	593.26
68.2336	563.10
68.2480	563.76
68.2625	583.91
68.2769	577.91
68.2914	573.28
68.3058	588.51
68.3202	593.48
68.3347	601.82
68.3491	601.98
68.3636	605.58
68.3780	586.74
68.3924	560.24
68.4069	573.11
68.4213	587.35
68.4358	620.91
68.4502	545.09
68.4646	569.06
68.4791	588.64
68.4935	597.16
68.5080	578.91
68.5224	550.45
68.5368	607.37
68.5513	562.41
68.5657	571.02
68.5802	596.04
68.5946	586.07
68.6090	559.52
68.6235	553.09
68.6379	577.53
68.6524	536.23
68.6668	549.35
68.6812	522.23
68.6957	564.79
68.7101	634.01
68.7246	587.64
68.7390	600.02
68.7534	572.48
68.7679	574.79
68.7823	577.77
68.7968	568.74
68.8112	538.36
68.8256	593.13
68.8401	600.79
68.8545	555.09
68.8690	563.87
68.8834	549.91
68.8978	545.87
68.9123	590.75
68.9267	590.22
68.9412	603.39
68.9556	597.26
68.9700	562.96
68.9845	575.92
68.9989	621.05
69.0134	553.02
69.0278	590.55
69.0422	546.98
69.0567	552.74
69.0711	575.29
69.0856	605.26
69.1000	552.26
69.1144	595.87
69.1289	589.52
69.1433	534.01
69.1578	552.84
69.1722	567.49
69.1866	590.93
69.2011	554.90
69.2155	547.61
69.2300	573.54
69.2444	551.52
69.2588	564.91
69.2733	568.00
69.2877	603.43
69.3022	588.53
69.3166	531.24
69.3310	579.08
69.3455	555.05
69.3599	585.19
69.3744	557.47
69.3888	551.80
69.4032	584.83
69.4177	584.36
69.4321	621.80
69.4466	592.71
69.4610	587.65
69.4754	595.98
69.4899	545.60
69.5043	584.12
69.5188	555.38
69.5332	567.12
69.5476	537.12
69.5621	555.76
69.5765	522.23
69.5910	581.35
69.6054	568.88
69.6198	557.32
69.6343	554.82
69.6487	574.08
69.6632	569.44
69.6776	569.49
69.6920	546.13
69.7065	573.58
69.7209	592.95
69.7354	565.46
69.7498	530.14
69.7642	558.78
69.7787	579.95
69.7931	560.38
69.8076	589.17
69.8220	584.51
69.8364	547.26
69.8509	564.44
69.8653	608.69
69.8798	590.61
69.8942	576.35
69.9086	586.88
69.9231	597.29
69.9375	579.74
69.9520	598.74
69.9664	595.30
69.9808	562.96
69.9953	545.90
70.0097	566.37
70.0242	536.31
70.0386	527.53
70.0530	591.58
70.0675	578.75
70.0819	555.05
70.0964	585.52
70.1108	569.81
70.1252	604.49
70.1397	539.35
70.1541	556.92
70.1686	602.85
70.1830	622.94
70.1974	542.01
70.2119	587.63
70.2263	549.99
70.2408	523.19
70.2552	540.46
70.2696	585.08
70.2841	585.37
70.2985	548.84
70.3130	546.19
70.3274	568.64
70.3418	554.14
70.3563	590.81
70.3707	553.23
70.3852	574.85
70.3996	571.51
70.4140	553.49
70.4285	595.63
70.4429	565.99
70.4574	543.89
70.4718	620.38
70.4862	542.17
70.5007	563.50
70.5151	575.90
70.5296	552.46
70.5440	581.26
70.5584	564.01
70.5729	575.58
70.5873	581.05
70.6018	548.73
70.6162	561.18
70.6306	552.17
70.6451	519.47
70.6595	559.83
70.6740	535.92
70.6884	588.54
70.7028	586.67
70.7173	607.70
70.7317	570.24
70.7462	563.63
70.7606	581.44
70.7750	668.97
70.7895	585.65
70.8039	552.81
70.8184	560.63
70.8328	590.52
70.8472	588.53
70.8617	567.73
70.8761	480.83
70.8906	555.29
70.9050	629.73
70.9194	608.14
70.9339	617.05
70.9483	598.48
70.9628	568.55
70.9772	605.58
70.9916	540.34
71.0061	541.40
71.0205	542.87
71.0350	557.23
71.0494	638.90
71.0638	639.36
71.0783	619.13
71.0927	615.69
71.1072	600.39
71.1216	583.62
71.1361	576.91
71.1505	621.47
71.1649	606.05
71.1794	583.70
71.1938	634.18
71.2083	624.55
71.2227	562.12
71.2371	566.00
71.2516	575.61
71.2660	584.89
71.2805	550.71
71.2949	534.40
71.3093	574.42
71.3238	551.00
71.3382	557.70
71.3527	536.65
71.3671	541.95
71.3815	576.38
71.3960	596.18
71.4104	598.13
71.4249	622.85
71.4393	596.54
71.4537	592.86
71.4682	625.44
71.4826	555.81
71.4971	504.61
71.5115	508.96
71.5259	543.38
71.5404	596.70
71.5548	564.39
71.5693	538.12
71.5837	519.29
71.5981	536.63
71.6126	577.81
71.6270	572.28
71.6415	632.49
71.6559	580.31
71.6703	572.15
71.6848	561.12
71.6992	573.30
71.7137	587.12
71.7281	526.51
71.7425	543.12
71.7570	573.34
71.7714	596.48
71.7859	586.47
71.8003	570.42
71.8147	596.30
71.8292	582.40
71.8436	595.76
71.8581	520.88
71.8725	499.02
71.8869	577.80
71.9014	536.78
71.9158	603.59
71.9303	530.93
71.9447	503.17
71.9591	586.86
71.9736	605.34
71.9880	564.40
72.0025	555.37
72.0169	483.16
72.0313	457.39
72.0458	534.08
72.0602	568.95
72.0747	665.21
72.0891	691.87
72.1035	685.90
72.1180	678.88
72.1324	628.96
72.1469	587.51
72.1613	607.39
72.1757	644.10
72.1902	697.01
72.2046	729.81
72.2191	593.76
72.2335	526.16
72.2479	512.52
72.2624	463.19
72.2768	569.18
72.2913	581.05
72.3057	557.22
72.3201	566.61
72.3346	589.00
72.3490	595.42
72.3635	534.13
72.3779	555.48
72.3923	587.47
72.4068	586.51
72.4212	542.44
72.4357	614.82
72.4501	625.05
72.4645	573.80
72.4790	594.10
72.4934	605.53
72.5079	562.53
72.5223	534.21
72.5367	490.10
72.5512	575.19
72.5656	632.91
72.5801	550.83
72.5945	528.90
72.6089	544.54
72.6234	547.97
72.6378	492.42
72.6523	550.45
72.6667	589.66
72.6811	575.44
72.6956	623.61
72.7100	602.06
72.7245	559.28
72.7389	600.61
72.7533	600.06
72.7678	557.65
72.7822	603.75
72.7967	693.52
72.8111	645.62
72.8255	601.93
72.8400	616.19
72.8544	566.54
72.8689	571.35
72.8833	634.95

Result vector
22.1120	587.78
22.1264	587.28
22.1409	578.38
22.1553	505.90
22.1697	649.42
22.1842	654.54
22.1986	520.67
22.2131	513.35
22.2275	637.97
22.2419	627.24
22.2564	636.42
22.2708	618.42
22.2853	602.26
22.2997	536.37
22.3141	557.50
22.3286	585.40
22.3430	565.59
22.3575	612.96
22.3719	516.44
22.3863	526.01
22.4008	548.31
22.4152	652.56
22.4297	698.16
22.4441	646.79
22.4585	579.69
22.4730	616.85
22.4874	644.58
22.5019	554.71
22.5163	600.44
22.5307	555.27
22.5452	523.18
22.5596	603.33
22.5741	642.26
22.5885	613.52
22.6029	566.60
22.6174	552.04
22.6318	682.93
22.6463	643.30
22.6607	743.56
22.6751	658.10
22.6896	614.63
22.7040	584.52
22.7185	639.63
22.7329	616.44
22.7473	585.11
22.7618	567.52
22.7762	524.65
22.7907	523.62
22.8051	540.21
22.8195	510.80
22.8340	575.09
22.8484	579.46
22.8629	598.15
22.8773	611.01
22.8917	605.31
22.9062	593.78
22.9206	487.41
22.9351	481.54
22.9495	526.24
22.9639	550.20
22.9784	658.33
22.9928	651.99
23.0073	542.28
23.0217	541.16
23.0361	604.79
23.0506	549.44
23.0650	604.35
23.0795	497.15
23.0939	582.54
23.1083	566.70
23.1228	562.74
23.1372	575.62
23.1517	529.42
23.1661	565.18
23.1806	569.06
23.1950	527.02
23.2094	619.47
23.2239	589.39
23.2383	561.89
23.2528	636.87
23.2672	588.45
23.2816	640.30
23.2961	532.92
23.3105	554.39
23.3250	524.32
23.3394	531.83
23.3538	521.44
23.3683	546.34
23.3827	516.38
23.3972	508.28
23.4116	540.69
23.4260	554.54
23.4405	573.56
23.4549	591.97
23.4694	644.00
23.4838	561.87
23.4982	537.51
23.5127	564.62
23.5271	629.54
23.5416	562.34
23.5560	640.76
23.5704	571.77
23.5849	573.29
23.5993	547.05
23.6138	644.29
23.6282	531.97
23.6426	504.03
23.6571	542.03
23.6715	532.70
23.6860	622.02
23.7004	542.28
23.7148	582.01
23.7293	566.27
23.7437	600.27
23.7582	550.25
23.7726	498.77
23.7870	473.89
23.8015	568.00
23.8159	622.33
23.8304	536.90
23.8448	479.08
23.8592	581.90
23.8737	597.75
23.8881	488.27
23.9026	549.97
23.9170	453.81
23.9314	510.42
23.9459	535.34
23.9603	481.16
23.9748	578.95
23.9892	545.91
24.0036	551.17
24.0181	609.24
24.0325	643.95
24.0470	561.56
24.0614	550.89
24.0758	570.11
24.0903	595.84
24.1047	541.34
24.1192	522.70
24.1336	567.41
24.1480	532.13
24.1625	615.32
24.1769	586.80
24.1914	624.51
24.2058	540.72
24.2202	590.83
24.2347	529.73
24.2491	603.94
24.2636	565.81
24.2780	587.91
24.2924	634.56
24.3069	586.49
24.3213	542.69
24.3358	543.99
24.3502	544.50
24.3646	507.03
24.3791	520.57
24.3935	575.58
24.4080	554.96
24.4224	564.51
24.4368	543.49
24.4513	546.49
24.4657	565.67
24.4802	534.43
24.4946	546.17
24.5090	523.95
24.5235	510.00
24.5379	539.52
24.5524	625.23
24.5668	529.75
24.5812	512.84
24.5957	566.73
24.6101	575.03
24.6246	543.02
24.6390	528.03
24.6534	553.68
24.6679	535.85
24.6823	513.07
24.6968	547.19
24.7112	572.11
24.7256	495.51
24.7401	549.77
24.7545	558.75
24.7690	559.52
24.7834	579.90
24.7978	533.01
24.8123	556.56
24.8267	517.66
24.8412	542.86
24.8556	559.57
24.8700	555.40
24.8845	575.31
24.8989	546.44
24.9134	528.72
24.9278	513.76
24.9422	562.68
24.9567	505.85
24.9711	553.33
24.9856	565.95
25.0000	558.56
25.0144	536.80
25.0289	547.02
25.0433	570.46
25.0578	586.87
25.0722	545.07
25.0866	580.19
25.1011	519.39
25.1155	533.09
25.1300	550.98
25.1444	509.67
25.1588	528.21
25.1733	556.14
25.1877	535.24
25.2022	573.65
25.2166	590.25
25.2310	576.02
25.2455	531.56
25.2599	533.15
25.2744	556.59
25.2888	554.09
25.3032	530.39
25.3177	554.38
25.3321	565.38
25.3466	552.79
25.3610	551.07
25.3754	538.57
25.3899	521.13
25.4043	520.52
25.4188	507.04
25.4332	552.94
25.4476	530.03
25.4621	553.08
25.4765	547.22
25.4910	521.61
25.5054	486.57
25.5198	531.00
25.5343	510.48
25.5487	559.87
25.5632	554.30
25.5776	571.29
25.5920	565.17
25.6065	537.37
25.6209	524.43
25.6354	512.64
25.6498	528.08
25.6642	528.09
25.6787	512.25
25.6931	506.86
25.7076	558.23
25.7220	494.25
25.7364	538.73
25.7509	540.65
25.7653	536.92
25.7798	516.53
25.7942	503.24
25.8086	576.24
25.8231	582.80
25.8375	549.32
25.8520	542.63
25.8664	547.62
25.8808	541.98
25.8953	509.04
25.9097	518.58
25.9242	539.72
25.9386	527.16
25.9530	530.03
25.9675	554.81
25.9819	501.55
25.9964	528.05
26.0108	574.69
26.0252	566.16
26.0397	542.82
26.0541	535.70
26.0686	557.83
26.0830	523.70
26.0974	535.00
26.1119	557.00
26.1263	562.32
26.1408	529.88
26.1552	501.13
26.1696	518.94
26.1841	514.63
26.1985	505.22
26.2130	545.45
26.2274	546.23
26.2418	541.48
26.2563	504.16
26.2707	539.92
26.2852	531.18
26.2996	496.73
26.3140	544.81
26.3285	545.67
26.3429	535.79
26.3574	501.24
26.3718	517.14
26.3862	489.86
26.4007	474.77
26.4151	511.88
26.4296	521.25
26.4440	483.95
26.4584	522.83
26.4729	537.18
26.4873	499.54
26.5018	528.66
26.5162	533.98
26.5306	542.01
26.5451	559.59
26.5595	523.86
26.5740	533.06
26.5884	540.34
26.6028	556.42
26.6173	550.61
26.6317	538.89
26.6462	518.04
26.6606	519.68
26.6750	525.21
26.6895	552.12
26.7039	537.78
26.7184	522.96
26.7328	509.81
26.7472	504.00
26.7617	481.03
26.7761	510.25
26.7906	525.39
26.8050	523.06
26.8194	557.58
26.8339	514.47
26.8483	509.73
26.8628	538.57
26.8772	539.13
26.8917	530.44
26.9061	500.39
26.9205	524.55
26.9350	527.89
26.9494	503.49
26.9639	474.25
26.9783	504.27
26.9927	514.79
27.0072	539.02
27.0216	560.72
27.0361	509.31
27.0505	482.02
27.0649	512.54
27.0794	519.84
27.0938	509.73
27.1083	514.98
27.1227	535.78
27.1371	543.00
27.1516	539.63
27.1660	528.82
27.1805	521.06
27.1949	524.00
27.2093	502.17
27.2238	528.14
27.2382	521.87
27.2527	528.24
27.2671	502.82
27.2815	501.55
27.2960	516.30
27.3104	531.20
27.3249	485.85
27.3393	502.40
27.3537	524.53
27.3682	553.84
27.3826	509.73
27.3971	511.30
27.4115	505.03
27.4259	531.15
27.4404	496.26
27.4548	513.09
27.4693	518.84
27.4837	545.52
27.4981	523.90
27.5126	499.39
27.5270	516.62
27.5415	510.40
27.5559	551.70
27.5703	524.92
27.5848	513.35
27.5992	514.58
27.6137	489.44
27.6281	496.13
27.6425	530.55
27.6570	524.06
27.6714	541.53
27.6859	515.00
27.7003	560.43
27.7147	582.84
27.7292	535.31
27.7436	565.67
27.7581	527.04
27.7725	504.94
27.7869	517.86
27.8014	517.78
27.8158	497.19
27.8303	506.93
27.8447	486.56
27.8591	509.03
27.8736	527.06
27.8880	523.19
27.9025	525.60
27.9169	526.79
27.9313	525.22
27.9458	531.11
27.9602	505.93
27.9747	540.78
27.9891	544.81
28.0035	513.09
28.0180	529.52
28.0324	505.41
28.0469	467.28
28.0613	494.63
28.0757	490.24
28.0902	502.15
28.1046	509.59
28.1191	517.27
28.1335	534.74
28.1479	472.63
28.1624	542.73
28.1768	532.57
28.1913	509.48
28.2057	485.18
28.2201	491.90
28.2346	473.95
28.2490	493.43
28.2635	530.18
28.2779	528.05
28.2923	523.55
28.3068	498.59
28.3212	487.01
28.3357	546.39
28.3501	543.56
28.3645	502.46
28.3790	521.83
28.3934	529.18
28.4079	524.84
28.4223	527.82
28.4367	511.57
28.4512	489.25
28.4656	507.72
28.4801	523.60
28.4945	534.98
28.5089	541.83
28.5234	533.13
28.5378	498.59
28.5523	510.41
28.5667	511.21
28.5811	500.09
28.5956	502.12
28.6100	518.77
28.6245	514.81
28.6389	518.72
28.6533	519.45
28.6678	504.79
28.6822	497.29
28.6967	509.68
28.7111	515.69
28.7255	517.89
28.7400	493.85
28.7544	495.98
28.7689	492.95
28.7833	515.62
28.7977	507.74
28.8122	514.17
28.8266	509.49
28.8411	517.34
28.8555	514.91
28.8699	513.89
28.8844	474.65
28.8988	452.41
28.9133	474.65
28.9277	492.38
28.9421	458.87
28.9566	498.57
28.9710	492.95
28.9855	505.51
28.9999	503.68
29.0143	544.37
29.0288	557.93
29.0432	546.73
29.0577	509.82
29.0721	536.07
29.0865	549.68
29.1010	475.89
29.1154	484.05
29.1299	508.06
29.1443	498.43
29.1587	499.24
29.1732	533.55
29.1876	517.81
29.2021	519.75
29.2165	515.55
29.2309	465.13
29.2454	479.32
29.2598	485.06
29.2743	518.60
29.2887	546.33
29.3031	494.65
29.3176	482.03
29.3320	493.50
29.3465	506.17
29.3609	511.54
29.3753	499.80
29.3898	473.66
29.4042	533.67
29.4187	519.70
29.4331	545.73
29.4475	478.93
29.4620	504.57
29.4764	497.81
29.4909	503.88
29.5053	477.24
29.5197	462.55
29.5342	466.20
29.5486	480.87
29.5631	506.88
29.5775	511.36
29.5919	521.80
29.6064	482.95
29.6208	525.30
29.6353	567.92
29.6497	497.68
29.6641	498.55
29.6786	470.46
29.6930	486.73
29.7075	486.61
29.7219	500.43
29.7363	476.05
29.7508	504.20
29.7652	477.82
29.7797	495.63
29.7941	538.69
29.8085	525.98
29.8230	507.12
29.8374	488.14
29.8519	451.75
29.8663	536.88
29.8807	513.19
29.8952	491.03
29.9096	492.72
29.9241	509.54
29.9385	522.81
29.9529	484.90
29.9674	504.94
29.9818	496.37
29.9963	527.54
30.0107	543.23
30.0251	516.82
30.0396	477.50
30.0540	487.51
30.0685	457.96
30.0829	517.29
30.0973	508.13
30.1118	512.77
30.1262	520.08
30.1407	504.76
30.1551	514.11
30.1695	527.34
30.1840	524.05
30.1984	530.15
30.2129	502.64
30.2273	522.28
30.2417	550.18
30.2562	506.63
30.2706	486.38
30.2851	497.38
30.2995	499.11
30.3139	512.83
30.3284	512.13
30.3428	508.22
30.3573	517.16
30.3717	540.44
30.3861	534.02
30.4006	492.51
30.4150	517.71
30.4295	570.47
30.4439	539.20
30.4583	552.86
30.4728	559.98
30.4872	592.71
30.5017	584.85
30.5161	603.48
30.5305	677.29
30.5450	713.26
30.5594	727.92
30.5739	747.86
30.5883	762.04
30.6028	732.91
30.6172	703.77
30.6316	718.78
30.6461	647.80
30.6605	657.43
30.6750	619.16
30.6894	624.21
30.7038	600.55
30.7183	553.09
30.7327	560.02
30.7472	571.85
30.7616	518.36
30.7760	533.48
30.7905	512.11
30.8049	520.84
30.8194	521.23
30.8338	531.11
30.8482	506.91
30.8627	515.13
30.8771	549.36
30.8916	500.08
30.9060	501.66
30.9204	479.37
30.9349	502.79
30.9493	542.80
30.9638	505.43
30.9782	485.80
30.9926	467.64
31.0071	469.72
31.0215	509.72
31.0360	521.59
31.0504	505.07
31.0648	531.93
31.0793	547.69
31.0937	500.83
31.1082	489.77
31.1226	508.54
31.1370	522.89
31.1515	497.79
31.1659	494.44
31.1804	460.31
31.1948	496.10
31.2092	506.67
31.2237	513.33
31.2381	527.45
31.2526	497.66
31.2670	502.17
31.2814	527.49
31.2959	496.04
31.3103	561.60
31.3248	528.04
31.3392	539.98
31.3536	538.03
31.3681	497.96
31.3825	496.16
31.3970	506.07
31.4114	513.51
31.4258	520.15
31.4403	510.65
31.4547	498.39
31.4692	492.75
31.4836	507.00
31.4980	503.52
31.5125	459.88
31.5269	508.53
31.5414	511.49
31.5558	469.10
31.5702	484.44
31.5847	491.43
31.5991	505.95
31.6136	520.30
31.6280	480.91
31.6424	502.00
31.6569	515.82
31.6713	542.62
31.6858	511.56
31.7002	495.69
31.7146	503.84
31.7291	495.59
31.7435	513.19
31.7580	495.13
31.7724	509.93
31.7868	522.86
31.8013	482.57
31.8157	522.63
31.8302	477.89
31.8446	492.46
31.8590	511.60
31.8735	501.16
31.8879	501.17
31.9024	493.60
31.9168	519.36
31.9312	485.48
31.9457	486.38
31.9601	481.65
31.9746	482.58
31.9890	504.83
32.0034	503.72
32.0179	546.42
32.0323	518.58
32.0468	495.45
32.0612	484.92
32.0756	442.23
32.0901	510.84
32.1045	484.09
32.1190	508.96
32.1334	526.90
32.1478	483.14
32.1623	489.27
32.1767	498.72
32.1912	487.87
32.2056	495.23
32.2200	486.06
32.2345	498.61
32.2489	513.42
32.2634	540.68
32.2778	522.73
32.2922	549.53
32.3067	502.24
32.3211	485.91
32.3356	504.71
32.3500	512.54
32.3644	509.04
32.3789	470.31
32.3933	474.47
32.4078	515.49
32.4222	511.86
32.4366	483.03
32.4511	462.91
32.4655	473.56
32.4800	497.20
32.4944	514.20
32.5088	519.02
32.5233	520.90
32.5377	513.58
32.5522	502.99
32.5666	500.35
32.5810	482.66
32.5955	461.26
32.6099	522.89
32.6244	478.70
32.6388	522.41
32.6532	526.19
32.6677	481.14
32.6821	477.81
32.6966	482.91
32.7110	487.19
32.7254	511.56
32.7399	501.90
32.7543	513.88
32.7688	483.46
32.7832	512.45
32.7976	520.27
32.8121	498.06
32.8265	480.89
32.8410	501.63
32.8554	491.24
32.8698	523.99
32.8843	504.63
32.8987	533.85
32.9132	498.24
32.9276	517.79
32.9420	494.61
32.9565	490.55
32.9709	469.90
32.9854	461.25
32.9998	487.59
33.0142	494.20
33.0287	511.22
33.0431	504.14
33.0576	514.31
33.0720	550.74
33.0864	492.87
33.1009	493.56
33.1153	511.94
33.1298	495.47
33.1442	467.72
33.1586	480.63
33.1731	481.91
33.1875	488.54
33.2020	475.73
33.2164	504.43
33.2308	516.35
33.2453	500.15
33.2597	497.56
33.2742	484.01
33.2886	468.02
33.3030	514.51
33.3175	522.60
33.3319	500.15
33.3464	513.76
33.3608	495.68
33.3752	491.19
33.3897	501.73
33.4041	467.42
33.4186	489.58
33.4330	499.17
33.4474	489.58
33.4619	462.78
33.4763	496.97
33.4908	515.27
33.5052	494.64
33.5196	515.10
33.5341	501.03
33.5485	531.30
33.5630	471.17
33.5774	488.92
33.5918	515.95
33.6063	529.44
33.6207	544.87
33.6352	522.72
33.6496	485.75
33.6640	499.70
33.6785	490.38
33.6929	479.63
33.7074	490.23
33.7218	488.51
33.7362	484.32
33.7507	512.61
33.7651	487.51
33.7796	509.62
33.7940	474.95
33.8084	474.72
33.8229	520.94
33.8373	504.87
33.8518	483.10
33.8662	510.47
33.8806	467.15
33.8951	478.98
33.9095	500.79
33.9240	497.77
33.9384	492.23
33.9528	494.52
33.9673	469.09
33.9817	485.86
33.9962	486.87
34.0106	468.64
34.0250	498.20
34.0395	491.28
34.0539	475.79
34.0684	498.89
34.0828	507.50
34.0972	504.26
34.1117	566.68
34.1261	541.95
34.1406	476.09
34.1550	513.17
34.1694	520.62
34.1839	526.66
34.1983	499.64
34.2128	500.57
34.2272	502.87
34.2417	528.85
34.2561	504.08
34.2705	501.09
34.2850	495.21
34.2994	488.51
34.3139	500.86
34.3283	515.12
34.3427	504.64
34.3572	530.19
34.3716	495.12
34.3861	476.14
34.4005	502.50
34.4149	491.98
34.4294	506.65
34.4438	496.15
34.4583	510.20
34.4727	485.44
34.4871	477.60
34.5016	504.95
34.5160	488.13
34.5305	494.61
34.5449	499.89
34.5593	489.80
34.5738	476.10
34.5882	482.57
34.6027	495.65
34.6171	484.26
34.6315	522.66
34.6460	514.76
34.6604	474.64
34.6749	500.62
34.6893	512.29
34.7037	519.34
34.7182	517.76
34.7326	471.48
34.7471	510.69
34.7615	508.92
34.7759	507.42
34.7904	501.35
34.8048	513.68
34.8193	500.10
34.8337	489.78
34.8481	480.97
34.8626	498.78
34.8770	504.04
34.8915	501.09
34.9059	533.63
34.9203	491.75
34.9348	485.17
34.9492	513.65
34.9637	508.86
34.9781	484.36
34.9925	522.06
35.0070	505.27
35.0214	501.74
35.0359	508.76
35.0503	492.14
35.0647	462.08
35.0792	505.43
35.0936	532.19
35.1081	506.97
35.1225	506.69
35.1369	510.84
35.1514	481.76
35.1658	523.14
35.1803	512.68
35.1947	514.43
35.2091	499.59
35.2236	479.27
35.2380	491.54
35.2525	509.47
35.2669	499.38
35.2813	521.09
35.2958	520.73
35.3102	500.50
35.3247	509.46
35.3391	535.69
35.3535	503.65
35.3680	505.73
35.3824	476.08
35.3969	507.39
35.4113	497.59
35.4257	521.73
35.4402	505.06
35.4546	505.64
35.4691	549.55
35.4835	538.05
35.4979	563.40
35.5124	521.20
35.5268	548.78
35.5413	536.22
35.5557	509.83
35.5701	512.20
35.5846	498.88
35.5990	537.48
35.6135	527.57
35.6279	527.55
35.6423	494.41
35.6568	508.55
35.6712	540.71
35.6857	579.45
35.7001	689.10
35.7145	729.82
35.7290	720.73
35.7434	642.53
35.7579	629.63
35.7723	658.02
35.7867	703.71
35.8012	756.25
35.8156	751.09
35.8301	734.77
35.8445	729.05
35.8589	772.79
35.8734	825.21
35.8878	953.41
35.9023	1109.10
35.9167	1208.51
35.9311	1335.49
35.9456	1660.79
35.9600	2048.88
35.9745	2194.21
35.9889	2382.66
36.0033	2778.93
36.0178	3096.73
36.0322	3314.59
36.0467	2652.14
36.0611	2097.81
36.0755	1909.18
36.0900	2104.53
36.1044	1859.04
36.1189	1557.66
36.1333	1389.19
36.1477	1165.35
36.1622	1080.19
36.1766	940.87
36.1911	846.74
36.2055	746.93
36.2199	781.53
36.2344	725.58
36.2488	626.29
36.2633	614.95
36.2777	586.51
36.2921	580.41
36.3066	560.25
36.3210	562.74
36.3355	561.09
36.3499	543.25
36.3643	495.31
36.3788	527.15
36.3932	532.02
36.4077	505.37
36.4221	539.71
36.4365	523.74
36.4510	528.23
36.4654	547.95
36.4799	529.88
36.4943	529.48
36.5087	528.52
36.5232	519.03
36.5376	510.53
36.5521	532.00
36.5665	520.29
36.5809	527.52
36.5954	519.35
36.6098	495.95
36.6243	491.02
36.6387	503.43
36.6531	512.13
36.6676	527.86
36.6820	512.37
36.6965	528.75
36.7109	537.20
36.7253	513.00
36.7398	530.73
36.7542	564.14
36.7687	524.88
36.7831	553.55
36.7975	535.72
36.8120	593.50
36.8264	569.87
36.8409	536.97
36.8553	592.72
36.8697	582.77
36.8842	564.42
36.8986	620.77
36.9131	589.41
36.9275	536.38
36.9419	583.46
36.9564	565.12
36.9708	548.70
36.9853	537.38
36.9997	520.06
37.0141	542.97
37.0286	543.13
37.0430	531.26
37.0575	513.92
37.0719	506.20
37.0863	531.50
37.1008	490.88
37.1152	508.69
37.1297	526.55
37.1441	482.23
37.1585	509.48
37.1730	515.40
37.1874	505.47
37.2019	535.77
37.2163	535.10
37.2307	485.72
37.2452	488.41
37.2596	480.76
37.2741	506.48
37.2885	537.79
37.3029	527.19
37.3174	497.18
37.3318	526.47
37.3463	506.98
37.3607	481.19
37.3751	478.49
37.3896	493.07
37.4040	522.99
37.4185	493.31
37.4329	531.16
37.4473	514.11
37.4618	476.68
37.4762	526.26
37.4907	498.15
37.5051	535.65
37.5195	502.88
37.5340	503.14
37.5484	512.06
37.5629	491.17
37.5773	510.87
37.5917	508.63
37.6062	504.49
37.6206	489.53
37.6351	494.57
37.6495	480.51
37.6639	507.76
37.6784	522.63
37.6928	477.75
37.7073	505.45
37.7217	518.54
37.7361	510.66
37.7506	523.97
37.7650	497.37
37.7795	512.49
37.7939	508.71
37.8083	511.73
37.8228	514.79
37.8372	527.02
37.8517	515.68
37.8661	505.42
37.8805	521.78
37.8950	523.72
37.9094	517.81
37.9239	493.48
37.9383	506.06
37.9528	518.75
37.9672	515.39
37.9816	492.93
37.9961	513.56
38.0105	472.61
38.0250	503.14
38.0394	490.73
38.0538	496.68
38.0683	497.67
38.0827	534.98
38.0972	524.71
38.1116	498.97
38.1260	502.49
38.1405	467.47
38.1549	471.70
38.1694	477.31
38.1838	495.62
38.1982	505.58
38.2127	513.54
38.2271	511.01
38.2416	504.78
38.2560	487.53
38.2704	490.58
38.2849	485.15
38.2993	509.72
38.3138	512.42
38.3282	538.17
38.3426	530.61
38.3571	491.21
38.3715	533.53
38.3860	494.50
38.4004	513.39
38.4148	528.07
38.4293	583.87
38.4437	568.81
38.4582	579.81
38.4726	663.49
38.4870	686.05
38.5015	700.87
38.5159	740.47
38.5304	801.05
38.5448	821.60
38.5592	796.84
38.5737	755.99
38.5881	733.42
38.6026	738.37
38.6170	716.31
38.6314	736.41
38.6459	673.24
38.6603	651.23
38.6748	627.87
38.6892	610.20
38.7036	573.61
38.7181	547.89
38.7325	524.14
38.7470	527.61
38.7614	504.68
38.7758	504.67
38.7903	516.01
38.8047	525.17
38.8192	521.72
38.8336	491.08
38.8480	500.43
38.8625	517.43
38.8769	505.16
38.8914	470.44
38.9058	489.98
38.9202	483.47
38.9347	480.85
38.9491	491.45
38.9636	512.45
38.9780	547.98
38.9924	478.03
39.0069	467.40
39.0213	476.89
39.0358	463.70
39.0502	491.76
39.0646	492.08
39.0791	521.26
39.0935	507.26
39.1080	493.95
39.1224	509.79
39.1368	539.68
39.1513	499.90
39.1657	484.45
39.1802	448.86
39.1946	491.88
39.2090	479.93
39.2235	485.78
39.2379	507.90
39.2524	487.10
39.2668	516.02
39.2812	531.10
39.2957	504.59
39.3101	494.28
39.3246	511.79
39.3390	531.60
39.3534	554.63
39.3679	518.55
39.3823	465.49
39.3968	469.37
39.4112	508.82
39.4256	505.69
39.4401	535.15
39.4545	522.65
39.4690	487.36
39.4834	472.48
39.4978	518.08
39.5123	495.61
39.5267	482.18
39.5412	453.17
39.5556	462.70
39.5700	491.13
39.5845	483.07
39.5989	494.97
39.6134	468.91
39.6278	480.36
39.6422	498.71
39.6567	494.04
39.6711	504.42
39.6856	482.59
39.7000	513.55
39.7144	510.53
39.7289	499.10
39.7433	504.45
39.7578	514.46
39.7722	492.91
39.7866	469.74
39.8011	430.88
39.8155	497.85
39.8300	540.48
39.8444	490.16
39.8588	484.98
39.8733	482.41
39.8877	498.43
39.9022	498.17
39.9166	503.66
39.9310	483.92
39.9455	515.06
39.9599	476.26
39.9744	488.33
39.9888	481.54
40.0032	510.57
40.0177	505.13
40.0321	494.15
40.0466	491.56
40.0610	541.70
40.0754	501.01
40.0899	476.69
40.1043	507.54
40.1188	524.94
40.1332	513.79
40.1476	499.89
40.1621	514.66
40.1765	498.13
40.1910	481.18
40.2054	495.94
40.2198	497.44
40.2343	503.70
40.2487	510.18
40.2632	492.45
40.2776	501.81
40.2920	467.31
40.3065	527.72
40.3209	474.16
40.3354	501.00
40.3498	514.16
40.3642	526.70
40.3787	516.16
40.3931	478.83
40.4076	488.75
40.4220	540.14
40.4364	584.86
40.4509	510.47
40.4653	491.79
40.4798	473.37
40.4942	481.63
40.5086	445.10
40.5231	481.52
40.5375	532.37
40.5520	467.07
40.5664	496.75
40.5808	491.76
40.5953	519.63
40.6097	514.24
40.6242	501.93
40.6386	538.10
40.6530	505.69
40.6675	459.57
40.6819	486.86
40.6964	484.57
40.7108	493.14
40.7252	476.00
40.7397	487.61
40.7541	500.82
40.7686	496.72
40.7830	486.32
40.7974	515.29
40.8119	546.22
40.8263	487.48
40.8408	517.79
40.8552	498.19
40.8696	473.03
40.8841	487.94
40.8985	454.24
40.9130	496.03
40.9274	488.95
40.9418	505.92
40.9563	493.66
40.9707	479.88
40.9852	499.77
40.9996	508.88
41.0140	472.23
41.0285	549.49
41.0429	539.45
41.0574	494.14
41.0718	502.43
41.0862	509.45
41.1007	518.78
41.1151	487.33
41.1296	527.33
41.1440	482.25
41.1584	507.70
41.1729	505.34
41.1873	480.12
41.2018	485.26
41.2162	503.47
41.2306	511.49
41.2451	500.41
41.2595	475.67
41.2740	460.39
41.2884	514.55
41.3028	473.65
41.3173	455.29
41.3317	497.04
41.3462	503.57
41.3606	521.93
41.3750	520.01
41.3895	487.14
41.4039	497.51
41.4184	465.79
41.4328	501.64
41.4472	477.70
41.4617	507.98
41.4761	520.00
41.4906	491.47
41.5050	491.68
41.5194	539.46
41.5339	521.45
41.5483	480.36
41.5628	498.17
41.5772	488.63
41.5916	488.43
41.6061	546.63
41.6205	521.04
41.6350	531.31
41.6494	534.23
41.6639	488.88
41.6783	471.86
41.6927	492.56
41.7072	539.89
41.7216	541.33
41.7361	506.53
41.7505	513.43
41.7649	513.77
41.7794	514.13
41.7938	505.17
41.8083	514.27
41.8227	492.17
41.8371	506.30
41.8516	512.77
41.8660	563.48
41.8805	529.26
41.8949	516.20
41.9093	508.07
41.9238	528.33
41.9382	570.64
41.9527	516.82
41.9671	509.66
41.9815	566.31
41.9960	550.42
42.0104	541.35
42.0249	560.39
42.0393	531.56
42.0537	525.92
42.0682	557.11
42.0826	620.64
42.0971	572.66
42.1115	571.03
42.1259	576.92
42.1404	585.37
42.1548	623.55
42.1693	616.04
42.1837	727.19
42.1981	807.53
42.2126	877.36
42.2270	941.46
42.2415	1015.05
42.2559	1162.89
42.2703	1354.09
42.2848	1493.42
42.2992	1589.54
42.3137	1673.25
42.3281	1665.44
42.3425	1614.41
42.3570	1484.37
42.3714	1424.89
42.3859	1396.10
42.4003	1306.85
42.4147	1292.33
42.4292	1286.91
42.4436	1165.11
42.4581	1019.86
42.4725	939.35
42.4869	855.22
42.5014	767.92
42.5158	701.97
42.5303	667.94
42.5447	602.29
42.5591	618.95
42.5736	568.68
42.5880	562.06
42.6025	546.47
42.6169	529.38
42.6313	565.05
42.6458	571.08
42.6602	564.23
42.6747	519.94
42.6891	526.53
42.7035	533.71
42.7180	547.75
42.7324	533.05
42.7469	483.81
42.7613	498.31
42.7757	490.74
42.7902	495.69
42.8046	508.30
42.8191	517.04
42.8335	512.51
42.8479	493.79
42.8624	529.21
42.8768	536.10
42.8913	513.75
42.9057	520.24
42.9201	523.42
42.9346	523.26
42.9490	523.31
42.9635	488.15
42.9779	498.70
42.9923	521.49
43.0068	533.22
43.0212	537.66
43.0357	512.26
43.0501	485.06
43.0645	506.82
43.0790	519.87
43.0934	550.41
43.1079	505.02
43.1223	516.10
43.1367	499.84
43.1512	499.98
43.1656	517.23
43.1801	510.35
43.1945	544.92
43.2089	554.19
43.2234	508.74
43.2378	509.34
43.2523	521.46
43.2667	524.37
43.2811	525.41
43.2956	523.40
43.3100	537.35
43.3245	526.99
43.3389	556.85
43.3533	526.76
43.3678	488.31
43.3822	529.70
43.3967	527.61
43.4111	503.59
43.4255	497.02
43.4400	492.93
43.4544	501.83
43.4689	504.43
43.4833	483.19
43.4977	516.97
43.5122	495.64
43.5266	532.87
43.5411	505.39
43.5555	509.78
43.5699	515.01
43.5844	529.17
43.5988	509.69
43.6133	531.29
43.6277	541.50
43.6421	516.61
43.6566	563.89
43.6710	568.75
43.6855	544.64
43.6999	550.84
43.7143	626.88
43.7288	629.78
43.7432	691.32
43.7577	642.81
43.7721	678.68
43.7865	637.53
43.8010	587.52
43.8154	586.74
43.8299	608.60
43.8443	571.94
43.8587	594.20
43.8732	608.63
43.8876	587.78
43.9021	604.04
43.9165	574.01
43.9309	561.35
43.9454	562.90
43.9598	554.56
43.9743	544.15
43.9887	522.71
44.0031	515.08
44.0176	513.71
44.0320	506.06
44.0465	508.87
44.0609	530.70
44.0753	486.83
44.0898	523.18
44.1042	508.45
44.1187	517.74
44.1331	522.99
44.1475	527.74
44.1620	524.55
44.1764	509.06
44.1909	509.18
44.2053	509.69
44.2197	508.48
44.2342	522.94
44.2486	522.14
44.2631	506.94
44.2775	530.78
44.2919	547.26
44.3064	530.37
44.3208	566.21
44.3353	547.44
44.3497	560.70
44.3641	541.45
44.3786	506.36
44.3930	532.16
44.4075	540.08
44.4219	566.79
44.4363	573.91
44.4508	574.68
44.4652	576.18
44.4797	587.01
44.4941	558.48
44.5085	599.47
44.5230	576.61
44.5374	545.39
44.5519	545.87
44.5663	606.81
44.5807	601.86
44.5952	564.36
44.6096	559.03
44.6241	549.65
44.6385	596.62
44.6529	586.67
44.6674	578.45
44.6818	597.15
44.6963	622.89
44.7107	657.37
44.7251	691.10
44.7396	746.71
44.7540	777.80
44.7685	809.96
44.7829	902.36
44.7973	914.44
44.8118	868.15
44.8262	784.04
44.8407	747.93
44.8551	724.54
44.8695	715.04
44.8840	719.60
44.8984	689.08
44.9129	704.43
44.9273	668.53
44.9417	674.90
44.9562	613.42
44.9706	521.20
44.9851	529.06
44.9995	575.69
45.0139	574.38
45.0284	514.03
45.0428	489.28
45.0573	536.47
45.0717	517.80
45.0861	510.74
45.1006	515.37
45.1150	506.63
45.1295	506.79
45.1439	491.65
45.1583	508.70
45.1728	524.48
45.1872	521.71
45.2017	524.19
45.2161	523.08
45.2305	493.19
45.2450	514.48
45.2594	517.64
45.2739	496.88
45.2883	509.41
45.3028	499.44
45.3172	500.52
45.3316	494.91
45.3461	527.28
45.3605	553.65
45.3750	499.21
45.3894	501.96
45.4038	477.17
45.4183	490.19
45.4327	544.63
45.4472	483.97
45.4616	494.23
45.4760	511.83
45.4905	488.04
45.5049	517.01
45.5194	518.49
45.5338	527.80
45.5482	505.57
45.5627	504.72
45.5771	456.76
45.5916	485.02
45.6060	517.59
45.6204	481.63
45.6349	476.25
45.6493	497.98
45.6638	461.91
45.6782	480.16
45.6926	465.81
45.7071	478.57
45.7215	510.20
45.7360	516.54
45.7504	507.72
45.7648	523.59
45.7793	520.04
45.7937	485.19
45.8082	518.94
45.8226	544.55
45.8370	499.81
45.8515	491.32
45.8659	529.89
45.8804	475.06
45.8948	512.26
45.9092	510.77
45.9237	482.87
45.9381	498.08
45.9526	461.90
45.9670	499.05
45.9814	476.53
45.9959	469.29
46.0103	485.48
46.0248	546.92
46.0392	515.13
46.0536	499.34
46.0681	509.55
46.0825	519.50
46.0970	545.57
46.1114	511.22
46.1258	515.08
46.1403	499.90
46.1547	494.35
46.1692	499.58
46.1836	504.10
46.1980	517.47
46.2125	507.75
46.2269	501.96
46.2414	493.18
46.2558	487.52
46.2702	482.37
46.2847	503.70
46.2991	501.90
46.3136	529.20
46.3280	521.08
46.3424	510.21
46.3569	502.43
46.3713	494.80
46.3858	524.14
46.4002	486.19
46.4146	519.00
46.4291	525.14
46.4435	494.51
46.4580	511.36
46.4724	478.41
46.4868	491.67
46.5013	491.62
46.5157	478.73
46.5302	510.41
46.5446	475.22
46.5590	506.69
46.5735	484.60
46.5879	515.26
46.6024	512.98
46.6168	514.59
46.6312	507.07
46.6457	483.54
46.6601	540.78
46.6746	520.44
46.6890	496.25
46.7034	524.44
46.7179	511.45
46.7323	478.63
46.7468	461.94
46.7612	464.94
46.7756	541.72
46.7901	525.71
46.8045	514.96
46.8190	524.29
46.8334	480.87
46.8478	489.10
46.8623	528.35
46.8767	508.38
46.8912	509.08
46.9056	559.41
46.9200	497.68
46.9345	484.87
46.9489	508.69
46.9634	477.85
46.9778	497.24
46.9922	518.00
47.0067	491.14
47.0211	517.30
47.0356	547.84
47.0500	532.47
47.0644	539.15
47.0789	517.95
47.0933	503.22
47.1078	498.20
47.1222	510.56
47.1366	528.44
47.1511	470.78
47.1655	450.11
47.1800	493.21
47.1944	485.34
47.2088	477.71
47.2233	516.95
47.2377	512.41
47.2522	495.20
47.2666	521.53
47.2810	520.22
47.2955	498.68
47.3099	513.74
47.3244	509.52
47.3388	491.01
47.3532	492.81
47.3677	516.28
47.3821	515.83
47.3966	466.73
47.4110	501.26
47.4254	499.42
47.4399	520.66
47.4543	471.10
47.4688	477.86
47.4832	486.86
47.4976	530.07
47.5121	507.18
47.5265	500.60
47.5410	518.50
47.5554	502.79
47.5698	478.88
47.5843	501.96
47.5987	535.34
47.6132	514.59
47.6276	475.60
47.6420	486.79
47.6565	499.91
47.6709	477.02
47.6854	497.30
47.6998	511.65
47.7142	481.87
47.7287	491.75
47.7431	508.88
47.7576	512.46
47.7720	517.81
47.7864	499.86
47.8009	494.00
47.8153	508.66
47.8298	510.09
47.8442	496.23
47.8586	499.30
47.8731	550.54
47.8875	501.64
47.9020	536.31
47.9164	482.06
47.9308	472.60
47.9453	516.34
47.9597	505.48
47.9742	519.64
47.9886	500.54
48.0030	512.55
48.0175	510.37
48.0319	483.61
48.0464	476.19
48.0608	524.75
48.0752	524.24
48.0897	536.06
48.1041	511.24
48.1186	526.10
48.1330	530.50
48.1474	494.43
48.1619	538.06
48.1763	528.82
48.1908	496.51
48.2052	502.14
48.2196	523.72
48.2341	513.72
48.2485	493.85
48.2630	475.03
48.2774	471.23
48.2918	471.30
48.3063	515.03
48.3207	526.58
48.3352	516.81
48.3496	478.51
48.3640	513.41
48.3785	509.32
48.3929	476.50
48.4074	494.93
48.4218	498.20
48.4362	490.26
48.4507	529.44
48.4651	541.69
48.4796	511.05
48.4940	539.98
48.5084	496.54
48.5229	508.99
48.5373	503.64
48.5518	498.87
48.5662	538.96
48.5806	482.70
48.5951	493.32
48.6095	506.66
48.6240	506.67
48.6384	490.05
48.6528	491.60
48.6673	520.41
48.6817	501.39
48.6962	504.43
48.7106	482.32
48.7250	525.02
48.7395	521.77
48.7539	523.76
48.7684	506.50
48.7828	542.92
48.7972	526.42
48.8117	507.23
48.8261	529.97
48.8406	520.99
48.8550	538.10
48.8694	561.03
48.8839	547.78
48.8983	577.97
48.9128	595.97
48.9272	524.05
48.9416	592.52
48.9561	570.57
48.9705	546.91
48.9850	569.62
48.9994	612.39
49.0139	573.28
49.0283	591.96
49.0427	593.04
49.0572	676.73
49.0716	644.53
49.0861	666.63
49.1005	665.24
49.1149	723.56
49.1294	763.16
49.1438	779.79
49.1583	815.77
49.1727	874.46
49.1871	919.62
49.2016	956.64
49.2160	1073.24
49.2305	1100.62
49.2449	1220.38
49.2593	1385.18
49.2738	1402.19
49.2882	1477.31
49.3027	1611.12
49.3171	1594.02
49.3315	1738.11
49.3460	1779.40
49.3604	1781.50
49.3749	1753.22
49.3893	1851.39
49.4037	1812.40
49.4182	1840.44
49.4326	1786.37
49.4471	1622.16
49.4615	1638.14
49.4759	1593.63
49.4904	1509.70
49.5048	1457.68
49.5193	1366.63
49.5337	1339.82
49.5481	1165.39
49.5626	1113.02
49.5770	1053.50
49.5915	982.63
49.6059	932.67
49.6203	873.34
49.6348	820.51
49.6492	755.21
49.6637	731.04
49.6781	694.50
49.6925	687.76
49.7070	680.15
49.7214	666.78
49.7359	625.83
49.7503	603.28
49.7647	584.19
49.7792	583.53
49.7936	561.63
49.8081	577.84
49.8225	581.27
49.8369	571.24
49.8514	534.62
49.8658	528.06
49.8803	578.67
49.8947	597.69
49.9091	556.58
49.9236	561.48
49.9380	563.92
49.9525	533.78
49.9669	557.16
49.9813	548.29
49.9958	552.87
50.0102	564.44
50.0247	570.48
50.0391	550.79
50.0535	544.76
50.0680	521.01
50.0824	494.60
50.0969	519.64
50.1113	537.77
50.1257	517.51
50.1402	500.75
50.1546	486.91
50.1691	515.11
50.1835	524.57
50.1979	495.63
50.2124	513.35
50.2268	529.61
50.2413	546.88
50.2557	530.08
50.2701	519.60
50.2846	511.43
50.2990	493.87
50.3135	468.93
50.3279	480.04
50.3423	493.16
50.3568	507.06
50.3712	537.94
50.3857	510.15
50.4001	496.13
50.4145	516.31
50.4290	529.03
50.4434	489.93
50.4579	513.16
50.4723	538.70
50.4867	494.78
50.5012	487.45
50.5156	508.48
50.5301	483.92
50.5445	504.13
50.5589	525.85
50.5734	521.58
50.5878	532.10
50.6023	510.09
50.6167	494.39
50.6311	523.75
50.6456	501.94
50.6600	493.99
50.6745	496.58
50.6889	487.10
50.7033	532.46
50.7178	508.68
50.7322	478.40
50.7467	490.48
50.7611	477.02
50.7755	512.64
50.7900	537.12
50.8044	529.50
50.8189	537.84
50.8333	512.51
50.8477	490.29
50.8622	522.95
50.8766	484.40
50.8911	499.03
50.9055	504.87
50.9199	463.70
50.9344	469.31
50.9488	543.25
50.9633	528.64
50.9777	510.96
50.9921	521.40
51.0066	524.54
51.0210	514.68
51.0355	502.96
51.0499	475.35
51.0643	517.12
51.0788	502.28
51.0932	522.33
51.1077	497.29
51.1221	522.51
51.1365	530.64
51.1510	493.73
51.1654	502.98
51.1799	518.41
51.1943	518.49
51.2087	496.98
51.2232	506.77
51.2376	492.77
51.2521	505.75
51.2665	507.90
51.2809	531.71
51.2954	494.11
51.3098	519.49
51.3243	502.68
51.3387	520.70
51.3531	526.59
51.3676	521.80
51.3820	534.40
51.3965	508.34
51.4109	502.57
51.4253	499.78
51.4398	518.43
51.4542	501.64
51.4687	489.41
51.4831	537.67
51.4975	522.15
51.5120	505.16
51.5264	518.14
51.5409	506.72
51.5553	497.69
51.5697	469.07
51.5842	495.04
51.5986	513.72
51.6131	508.76
51.6275	498.24
51.6419	475.12
51.6564	499.99
51.6708	508.32
51.6853	509.15
51.6997	525.28
51.7141	494.53
51.7286	493.13
51.7430	500.32
51.7575	513.47
51.7719	495.56
51.7863	503.26
51.8008	503.95
51.8152	502.80
51.8297	516.19
51.8441	524.05
51.8585	487.98
51.8730	512.77
51.8874	514.81
51.9019	524.17
51.9163	504.01
51.9307	494.67
51.9452	488.95
51.9596	481.32
51.9741	512.76
51.9885	494.80
52.0029	500.98
52.0174	477.39
52.0318	466.96
52.0463	477.37
52.0607	487.25
52.0751	485.20
52.0896	513.70
52.1040	478.12
52.1185	494.97
52.1329	505.86
52.1473	487.08
52.1618	475.32
52.1762	502.58
52.1907	509.64
52.2051	476.24
52.2195	515.83
52.2340	498.44
52.2484	509.97
52.2629	509.21
52.2773	505.43
52.2917	522.07
52.3062	540.00
52.3206	522.09
52.3351	491.53
52.3495	490.91
52.3639	486.72
52.3784	500.22
52.3928	478.95
52.4073	495.42
52.4217	518.20
52.4361	506.98
52.4506	507.77
52.4650	516.25
52.4795	536.47
52.4939	523.84
52.5083	525.29
52.5228	505.22
52.5372	520.90
52.5517	529.89
52.5661	529.91
52.5805	502.62
52.5950	511.56
52.6094	495.31
52.6239	493.47
52.6383	492.05
52.6527	508.53
52.6672	504.74
52.6816	525.44
52.6961	519.99
52.7105	500.72
52.7250	512.32
52.7394	462.16
52.7538	515.62
52.7683	521.86
52.7827	545.01
52.7972	508.26
52.8116	498.57
52.8260	520.17
52.8405	527.72
52.8549	517.26
52.8694	535.76
52.8838	511.57
52.8982	535.10
52.9127	531.54
52.9271	529.20
52.9416	504.89
52.9560	494.50
52.9704	530.04
52.9849	532.62
52.9993	481.33
53.0138	528.42
53.0282	560.39
53.0426	541.16
53.0571	544.55
53.0715	509.76
53.0860	535.01
53.1004	508.92
53.1148	523.82
53.1293	508.82
53.1437	467.14
53.1582	493.78
53.1726	527.29
53.1870	497.61
53.2015	487.51
53.2159	505.79
53.2304	514.99
53.2448	500.05
53.2592	523.72
53.2737	536.92
53.2881	526.65
53.3026	551.68
53.3170	513.60
53.3314	492.48
53.3459	511.11
53.3603	467.46
53.3748	485.82
53.3892	500.01
53.4036	516.83
53.4181	508.28
53.4325	506.26
53.4470	501.63
53.4614	503.84
53.4758	535.48
53.4903	544.53
53.5047	509.23
53.5192	504.38
53.5336	504.83
53.5480	504.38
53.5625	514.17
53.5769	522.34
53.5914	517.22
53.6058	489.76
53.6202	509.17
53.6347	512.71
53.6491	523.26
53.6636	520.49
53.6780	487.84
53.6924	498.04
53.7069	511.85
53.7213	509.29
53.7358	537.50
53.7502	533.76
53.7646	487.00
53.7791	521.37
53.7935	491.33
53.8080	520.92
53.8224	493.98
53.8368	495.37
53.8513	550.55
53.8657	511.92
53.8802	518.23
53.8946	539.65
53.9090	554.40
53.9235	519.08
53.9379	520.67
53.9524	497.91
53.9668	494.95
53.9812	514.83
53.9957	548.05
54.0101	516.39
54.0246	542.90
54.0390	549.60
54.0534	557.85
54.0679	515.50
54.0823	542.53
54.0968	539.50
54.1112	573.97
54.1256	532.55
54.1401	521.11
54.1545	535.06
54.1690	566.54
54.1834	547.99
54.1978	550.69
54.2123	599.05
54.2267	573.26
54.2412	605.84
54.2556	639.65
54.2700	620.49
54.2845	612.47
54.2989	636.69
54.3134	634.75
54.3278	651.64
54.3422	626.14
54.3567	598.86
54.3711	608.55
54.3856	593.90
54.4000	586.42
54.4144	590.61
54.4289	617.13
54.4433	567.39
54.4578	548.75
54.4722	583.96
54.4866	544.23
54.5011	545.46
54.5155	532.10
54.5300	524.94
54.5444	520.56
54.5588	491.11
54.5733	499.39
54.5877	494.80
54.6022	504.50
54.6166	509.09
54.6310	542.31
54.6455	527.44
54.6599	514.01
54.6744	495.18
54.6888	506.95
54.7032	503.54
54.7177	532.64
54.7321	538.20
54.7466	523.44
54.7610	494.74
54.7754	537.55
54.7899	545.77
54.8043	541.98
54.8188	517.85
54.8332	521.57
54.8476	513.35
54.8621	537.15
54.8765	485.57
54.8910	487.49
54.9054	526.21
54.9198	513.39
54.9343	525.39
54.9487	538.80
54.9632	537.56
54.9776	526.80
54.9920	464.52
55.0065	504.31
55.0209	534.80
55.0354	510.30
55.0498	511.41
55.0642	517.11
55.0787	505.40
55.0931	518.83
55.1076	523.90
55.1220	517.53
55.1364	511.01
55.1509	502.57
55.1653	503.15
55.1798	550.83
55.1942	515.10
55.2086	469.24
55.2231	502.20
55.2375	516.21
55.2520	548.21
55.2664	525.81
55.2808	527.33
55.2953	553.37
55.3097	520.28
55.3242	520.51
55.3386	536.06
55.3530	530.65
55.3675	520.13
55.3819	508.50
55.3964	481.10
55.4108	458.31
55.4252	519.03
55.4397	505.16
55.4541	534.52
55.4686	522.08
55.4830	513.11
55.4974	508.37
55.5119	509.60
55.5263	539.87
55.5408	531.05
55.5552	508.94
55.5696	527.60
55.5841	502.69
55.5985	508.51
55.6130	509.07
55.6274	553.05
55.6418	561.93
55.6563	508.74
55.6707	509.98
55.6852	516.75
55.6996	493.51
55.7140	545.28
55.7285	498.64
55.7429	529.32
55.7574	524.53
55.7718	549.41
55.7862	507.58
55.8007	512.73
55.8151	521.33
55.8296	497.24
55.8440	487.45
55.8584	523.21
55.8729	522.09
55.8873	514.80
55.9018	564.58
55.9162	514.50
55.9306	523.05
55.9451	485.79
55.9595	494.14
55.9740	530.79
55.9884	497.60
56.0028	516.67
56.0173	512.76
56.0317	526.45
56.0462	517.04
56.0606	501.77
56.0750	527.60
56.0895	514.14
56.1039	542.80
56.1184	514.73
56.1328	534.73
56.1472	504.94
56.1617	506.14
56.1761	526.25
56.1906	506.98
56.2050	504.68
56.2194	515.50
56.2339	507.08
56.2483	516.29
56.2628	511.18
56.2772	520.61
56.2916	523.92
56.3061	497.59
56.3205	512.71
56.3350	568.09
56.3494	524.27
56.3639	484.12
56.3783	519.90
56.3927	535.50
56.4072	509.19
56.4216	526.89
56.4361	524.43
56.4505	502.33
56.4649	530.71
56.4794	531.43
56.4938	532.17
56.5083	503.72
56.5227	513.03
56.5371	501.81
56.5516	519.56
56.5660	529.31
56.5805	468.20
56.5949	562.11
56.6093	552.25
56.6238	523.84
56.6382	495.91
56.6527	503.96
56.6671	494.05
56.6815	485.77
56.6960	503.85
56.7104	560.79
56.7249	519.79
56.7393	533.25
56.7537	516.97
56.7682	502.17
56.7826	529.35
56.7971	512.04
56.8115	511.71
56.8259	533.96
56.8404	536.76
56.8548	546.44
56.8693	546.87
56.8837	525.00
56.8981	523.84
56.9126	528.29
56.9270	527.43
56.9415	552.92
56.9559	509.30
56.9703	504.58
56.9848	479.48
56.9992	516.77
57.0137	503.67
57.0281	508.18
57.0425	538.68
57.0570	538.03
57.0714	569.62
57.0859	524.96
57.1003	525.57
57.1147	535.91
57.1292	550.65
57.1436	514.57
57.1581	524.15
57.1725	537.10
57.1869	533.80
57.2014	517.93
57.2158	503.58
57.2303	521.23
57.2447	510.50
57.2591	533.70
57.2736	527.66
57.2880	521.28
57.3025	521.24
57.3169	524.80
57.3313	535.89
57.3458	543.99
57.3602	527.85
57.3747	522.61
57.3891	478.29
57.4035	533.60
57.4180	561.37
57.4324	585.58
57.4469	547.42
57.4613	544.44
57.4757	577.70
57.4902	555.54
57.5046	562.74
57.5191	516.93
57.5335	543.48
57.5479	527.59
57.5624	531.76
57.5768	474.04
57.5913	544.52
57.6057	521.41
57.6201	504.27
57.6346	533.91
57.6490	523.55
57.6635	531.75
57.6779	522.37
57.6923	526.18
57.7068	531.33
57.7212	535.06
57.7357	534.88
57.7501	577.74
57.7645	572.70
57.7790	533.06
57.7934	603.58
57.8079	636.89
57.8223	665.19
57.8367	678.70
57.8512	707.64
57.8656	748.60
57.8801	729.05
57.8945	770.44
57.9089	772.89
57.9234	716.30
57.9378	720.31
57.9523	722.14
57.9667	672.00
57.9811	648.35
57.9956	658.45
58.0100	651.46
58.0245	681.41
58.0389	651.78
58.0533	661.07
58.0678	610.78
58.0822	624.07
58.0967	611.71
58.1111	615.39
58.1255	594.60
58.1400	539.26
58.1544	540.94
58.1689	566.10
58.1833	568.48
58.1977	548.13
58.2122	551.43
58.2266	575.56
58.2411	569.83
58.2555	574.65
58.2699	539.09
58.2844	540.87
58.2988	532.23
58.3133	548.85
58.3277	547.56
58.3421	544.49
58.3566	552.58
58.3710	530.63
58.3855	505.76
58.3999	529.03
58.4143	518.57
58.4288	520.31
58.4432	526.16
58.4577	538.97
58.4721	499.63
58.4865	511.68
58.5010	539.86
58.5154	534.90
58.5299	569.42
58.5443	525.83
58.5587	522.92
58.5732	536.13
58.5876	521.97
58.6021	521.85
58.6165	536.48
58.6309	510.67
58.6454	517.37
58.6598	548.43
58.6743	521.80
58.6887	508.36
58.7031	573.64
58.7176	548.37
58.7320	523.49
58.7465	523.00
58.7609	521.59
58.7753	537.59
58.7898	528.68
58.8042	545.20
58.8187	565.92
58.8331	522.02
58.8475	514.23
58.8620	532.39
58.8764	541.63
58.8909	529.73
58.9053	558.57
58.9197	525.59
58.9342	512.39
58.9486	518.57
58.9631	509.27
58.9775	529.17
58.9919	505.16
59.0064	537.65
59.0208	525.56
59.0353	518.46
59.0497	550.93
59.0641	543.17
59.0786	548.20
59.0930	519.11
59.1075	533.33
59.1219	557.69
59.1363	553.50
59.1508	516.24
59.1652	524.56
59.1797	538.49
59.1941	485.56
59.2085	502.60
59.2230	525.28
59.2374	545.16
59.2519	522.60
59.2663	535.06
59.2807	551.15
59.2952	530.23
59.3096	542.19
59.3241	553.89
59.3385	566.07
59.3529	557.61
59.3674	573.37
59.3818	529.77
59.3963	533.10
59.4107	524.44
59.4251	580.42
59.4396	553.68
59.4540	550.25
59.4685	562.52
59.4829	553.12
59.4973	560.75
59.5118	545.61
59.5262	560.06
59.5407	539.70
59.5551	609.35
59.5695	606.90
59.5840	562.43
59.5984	585.48
59.6129	548.28
59.6273	533.13
59.6417	516.02
59.6562	540.76
59.6706	508.92
59.6851	543.49
59.6995	531.43
59.7139	514.37
59.7284	525.12
59.7428	541.94
59.7573	516.48
59.7717	527.73
59.7861	540.15
59.8006	526.87
59.8150	573.10
59.8295	538.72
59.8439	522.34
59.8583	536.19
59.8728	539.71
59.8872	494.97
59.9017	541.43
59.9161	550.78
59.9305	531.60
59.9450	581.30
59.9594	556.86
59.9739	523.88
59.9883	547.26
60.0027	547.06
60.0172	532.68
60.0316	515.59
60.0461	561.24
60.0605	514.83
60.0750	523.35
60.0894	519.37
60.1038	540.88
60.1183	554.01
60.1327	541.24
60.1472	517.79
60.1616	540.58
60.1760	538.29
60.1905	513.17
60.2049	538.40
60.2194	558.91
60.2338	550.91
60.2482	536.38
60.2627	574.75
60.2771	568.84
60.2916	554.20
60.3060	523.66
60.3204	539.10
60.3349	574.08
60.3493	533.53
60.3638	583.25
60.3782	540.85
60.3926	487.49
60.4071	474.53
60.4215	584.46
60.4360	556.13
60.4504	499.61
60.4648	526.74
60.4793	507.86
60.4937	517.38
60.5082	563.08
60.5226	549.61
60.5370	551.53
60.5515	564.48
60.5659	533.24
60.5804	541.27
60.5948	509.34
60.6092	515.58
60.6237	492.22
60.6381	523.57
60.6526	556.48
60.6670	503.35
60.6814	538.27
60.6959	522.13
60.7103	560.77
60.7248	534.21
60.7392	535.90
60.7536	542.63
60.7681	525.34
60.7825	536.88
60.7970	515.90
60.8114	535.76
60.8258	576.78
60.8403	527.48
60.8547	578.05
60.8692	522.11
60.8836	529.73
60.8980	566.00
60.9125	525.44
60.9269	511.41
60.9414	546.76
60.9558	530.58
60.9702	533.96
60.9847	532.28
60.9991	551.02
61.0136	504.16
61.0280	560.41
61.0424	517.33
61.0569	561.55
61.0713	589.89
61.0858	532.16
61.1002	545.79
61.1146	538.28
61.1291	533.46
61.1435	525.22
61.1580	544.93
61.1724	541.11
61.1868	544.77
61.2013	529.39
61.2157	521.57
61.2302	532.64
61.2446	563.56
61.2590	510.48
61.2735	532.18
61.2879	547.55
61.3024	551.21
61.3168	505.43
61.3312	568.32
61.3457	548.50
61.3601	561.29
61.3746	579.44
61.3890	564.81
61.4034	537.02
61.4179	545.16
61.4323	507.70
61.4468	500.88
61.4612	527.26
61.4756	508.70
61.4901	516.57
61.5045	515.13
61.5190	513.47
61.5334	526.95
61.5478	531.33
61.5623	583.43
61.5767	551.59
61.5912	561.06
61.6056	568.36
61.6200	541.57
61.6345	549.95
61.6489	527.87
61.6634	562.81
61.6778	536.53
61.6922	508.16
61.7067	532.06
61.7211	551.84
61.7356	538.54
61.7500	529.09
61.7644	540.36
61.7789	518.58
61.7933	531.61
61.8078	543.30
61.8222	555.78
61.8366	543.65
61.8511	539.51
61.8655	517.71
61.8800	528.03
61.8944	521.76
61.9088	518.57
61.9233	580.12
61.9377	588.80
61.9522	552.27
61.9666	533.54
61.9810	564.02
61.9955	563.45
62.0099	584.78
62.0244	567.15
62.0388	553.61
62.0532	555.13
62.0677	529.82
62.0821	543.24
62.0966	577.39
62.1110	593.16
62.1254	596.85
62.1399	554.35
62.1543	520.30
62.1688	524.15
62.1832	540.03
62.1976	548.32
62.2121	532.29
62.2265	528.00
62.2410	544.17
62.2554	560.12
62.2698	546.01
62.2843	580.51
62.2987	524.52
62.3132	531.49
62.3276	529.59
62.3420	546.39
62.3565	557.23
62.3709	570.52
62.3854	544.82
62.3998	541.97
62.4142	550.02
62.4287	579.69
62.4431	573.77
62.4576	571.25
62.4720	555.61
62.4864	551.76
62.5009	566.75
62.5153	547.78
62.5298	521.75
62.5442	526.25
62.5586	543.87
62.5731	517.43
62.5875	554.20
62.6020	557.92
62.6164	545.60
62.6308	561.41
62.6453	557.77
62.6597	547.97
62.6742	548.63
62.6886	528.60
62.7030	537.44
62.7175	567.61
62.7319	557.54
62.7464	529.02
62.7608	528.38
62.7752	552.22
62.7897	547.93
62.8041	563.07
62.8186	589.85
62.8330	573.33
62.8474	560.65
62.8619	569.23
62.8763	603.86
62.8908	563.07
62.9052	557.00
62.9196	554.85
62.9341	565.61
62.9485	586.85
62.9630	554.88
62.9774	539.58
62.9918	580.29
63.0063	562.33
63.0207	569.82
63.0352	553.87
63.0496	562.85
63.0640	582.71
63.0785	561.69
63.0929	583.90
63.1074	600.12
63.1218	609.21
63.1362	603.93
63.1507	540.55
63.1651	557.46
63.1796	581.33
63.1940	562.17
63.2084	564.27
63.2229	603.09
63.2373	591.98
63.2518	554.45
63.2662	553.20
63.2806	599.89
63.2951	608.75
63.3095	639.00
63.3240	611.58
63.3384	608.99
63.3528	572.54
63.3673	612.80
63.3817	603.53
63.3962	609.38
63.4106	647.88
63.4250	641.26
63.4395	649.41
63.4539	612.72
63.4684	663.28
63.4828	694.84
63.4972	781.91
63.5117	789.31
63.5261	794.95
63.5406	881.81
63.5550	924.99
63.5694	931.05
63.5839	972.77
63.5983	963.75
63.6128	917.31
63.6272	865.71
63.6416	832.46
63.6561	776.57
63.6705	785.72
63.6850	800.33
63.6994	791.15
63.7138	811.95
63.7283	822.07
63.7427	803.44
63.7572	793.51
63.7716	763.41
63.7861	735.57
63.8005	746.25
63.8149	739.38
63.8294	676.29
63.8438	649.40
63.8583	670.69
63.8727	699.86
63.8871	627.78
63.9016	617.03
63.9160	594.37
63.9305	598.75
63.9449	608.19
63.9593	621.55
63.9738	592.23
63.9882	612.70
64.0027	634.09
64.0171	619.70
64.0315	615.93
64.0460	589.88
64.0604	603.17
64.0749	603.80
64.0893	608.73
64.1037	619.73
64.1182	624.29
64.1326	631.91
64.1471	578.94
64.1615	577.94
64.1759	621.22
64.1904	580.10
64.2048	562.14
64.2193	622.18
64.2337	640.57
64.2481	595.92
64.2626	573.50
64.2770	539.95
64.2915	578.58
64.3059	650.49
64.3203	637.09
64.3348	609.43
64.3492	574.93
64.3637	597.38
64.3781	589.23
64.3925	581.49
64.4070	607.93
64.4214	596.75
64.4359	615.10
64.4503	611.62
64.4647	619.67
64.4792	617.37
64.4936	613.89
64.5081	614.08
64.5225	595.85
64.5369	594.60
64.5514	591.18
64.5658	624.62
64.5803	615.38
64.5947	647.40
64.6091	667.44
64.6236	638.87
64.6380	650.30
64.6525	637.36
64.6669	657.68
64.6813	620.50
64.6958	680.75
64.7102	668.33
64.7247	645.66
64.7391	662.60
64.7535	721.80
64.7680	724.62
64.7824	710.96
64.7969	690.51
64.8113	735.96
64.8257	813.01
64.8402	811.06
64.8546	830.67
64.8691	829.43
64.8835	827.45
64.8979	846.53
64.9124	868.78
64.9268	855.32
64.9413	856.87
64.9557	948.96
64.9701	948.04
64.9846	1021.91
64.9990	1073.53
65.0135	1218.91
65.0279	1391.54
65.0423	1623.46
65.0568	2001.52
65.0712	2526.08
65.0857	3234.40
65.1001	4306.80
65.1145	5726.32
65.1290	7595.09
65.1434	8930.60
65.1579	10531.09
65.1723	11607.42
65.1867	11071.46
65.2012	9818.80
65.2156	8394.59
65.2301	6654.66
65.2445	5217.89
65.2589	4346.21
65.2734	4051.62
65.2878	4161.51
65.3023	4790.57
65.3167	5589.29
65.3311	6285.94
65.3456	6811.88
65.3600	6897.52
65.3745	6469.81
65.3889	5507.72
65.4033	4458.71
65.4178	3556.23
65.4322	2779.68
65.4467	2073.48
65.4611	1631.51
65.4755	1438.29
65.4900	1257.68
65.5044	1158.50
65.5189	1034.00
65.5333	943.91
65.5477	889.74
65.5622	865.35
65.5766	829.87
65.5911	777.68
65.6055	772.48
65.6199	767.44
65.6344	758.16
65.6488	723.21
65.6633	714.11
65.6777	713.57
65.6921	727.88
65.7066	715.93
65.7210	703.44
65.7355	684.81
65.7499	687.99
65.7643	709.39
65.7788	708.09
65.7932	701.32
65.8077	656.93
65.8221	624.74
65.8365	653.97
65.8510	662.71
65.8654	655.71
65.8799	635.91
65.8943	659.95
65.9087	651.95
65.9232	602.50
65.9376	665.08
65.9521	611.16
65.9665	607.74
65.9809	631.00
65.9954	624.20
66.0098	580.04
66.0243	611.75
66.0387	604.58
66.0531	583.21
66.0676	624.66
66.0820	564.48
66.0965	606.35
66.1109	628.49
66.1253	626.29
66.1398	630.11
66.1542	645.39
66.1687	648.74
66.1831	655.89
66.1975	634.54
66.2120	605.05
66.2264	607.82
66.2409	613.05
66.2553	623.40
66.2697	612.73
66.2842	608.57
66.2986	599.17
66.3131	606.87
66.3275	591.52
66.3419	628.91
66.3564	603.81
66.3708	618.61
66.3853	618.28
66.3997	578.83
66.4141	570.66
66.4286	586.10
66.4430	603.52
66.4575	614.28
66.4719	649.33
66.4863	608.40
66.5008	570.94
66.5152	589.32
66.5297	595.84
66.5441	594.30
66.5585	558.75
66.5730	572.29
66.5874	580.09
66.6019	561.29
66.6163	565.46
66.6307	590.29
66.6452	556.27
66.6596	558.58
66.6741	557.98
66.6885	534.64
66.7029	568.56
66.7174	602.40
66.7318	570.96
66.7463	568.23
66.7607	574.76
66.7751	581.86
66.7896	596.65
66.8040	584.60
66.8185	563.98
66.8329	559.42
66.8473	586.35
66.8618	607.80
66.8762	574.33
66.8907	593.25
66.9051	598.94
66.9195	559.06
66.9340	568.68
66.9484	577.15
66.9629	595.07
66.9773	572.30
66.9917	565.83
67.0062	580.86
67.0206	598.66
67.0351	601.15
67.0495	623.88
67.0639	594.30
67.0784	574.39
67.0928	582.05
67.1073	586.98
67.1217	601.11
67.1361	592.31
67.1506	570.62
67.1650	615.83
67.1795	593.85
67.1939	592.36
67.2083	593.55
67.2228	591.01
67.2372	592.05
67.2517	585.55
67.2661	562.78
67.2805	593.22
67.2950	574.05
67.3094	558.51
67.3239	565.28
67.3383	578.22
67.3527	582.76
67.3672	583.53
67.3816	565.81
67.3961	563.53
67.4105	563.25
67.4250	567.30
67.4394	588.68
67.4538	571.04
67.4683	559.28
67.4827	573.37
67.4972	570.30
67.5116	567.66
67.5260	564.19
67.5405	581.38
67.5549	587.93
67.5694	582.20
67.5838	573.71
67.5982	581.64
67.6127	562.02
67.6271	576.20
67.6416	610.83
67.6560	565.40
67.6704	571.30
67.6849	561.84
67.6993	558.39
67.7138	600.42
67.7282	580.70
67.7426	569.41
67.7571	595.18
67.7715	553.44
67.7860	622.33
67.8004	561.34
67.8148	561.40
67.8293	562.40
67.8437	546.82
67.8582	604.99
67.8726	618.33
67.8870	549.69
67.9015	552.58
67.9159	564.47
67.9304	546.11
67.9448	542.56
67.9592	590.74
67.9737	583.37
67.9881	541.74
68.0026	565.15
68.0170	565.36
68.0314	579.97
68.0459	562.74
68.0603	575.77
68.0748	574.42
68.0892	589.22
68.1036	558.98
68.1181	563.08
68.1325	530.23
68.1470	578.85
68.1614	564.35
68.1758	617.29
68.1903	561.23
68.2047	578.58
68.2192	593.26
68.2336	563.10
68.2480	563.76
68.2625	583.91
68.2769	577.91
68.2914	573.28
68.3058	588.51
68.3202	593.48
68.3347	601.82
68.3491	601.98
68.3636	605.58
68.3780	586.74
68.3924	560.24
68.4069	573.11
68.4213	587.35
68.4358	620.91
68.4502	545.09
68.4646	569.06
68.4791	588.64
68.4935	597.16
68.5080	578.91
68.5224	550.45
68.5368	607.37
68.5513	562.41
68.5657	571.02
68.5802	596.04
68.5946	586.07
68.6090	559.52
68.6235	553.09
68.6379	577.53
68.6524	536.23
68.6668	549.35
68.6812	522.23
68.6957	564.79
68.7101	634.01
68.7246	587.64
68.7390	600.02
68.7534	572.48
68.7679	574.79
68.7823	577.77
68.7968	568.74
68.8112	538.36
68.8256	593.13
68.8401	600.79
68.8545	555.09
68.8690	563.87
68.8834	549.91
68.8978	545.87
68.9123	590.75
68.9267	590.22
68.9412	603.39
68.9556	597.26
68.9700	562.96
68.9845	575.92
68.9989	621.05
69.0134	553.02
69.0278	590.55
69.0422	546.98
69.0567	552.74
69.0711	575.29
69.0856	605.26
69.1000	552.26
69.1144	595.87
69.1289	589.52
69.1433	534.01
69.1578	552.84
69.1722	567.49
69.1866	590.93
69.2011	554.90
69.2155	547.61
69.2300	573.54
69.2444	551.52
69.2588	564.91
69.2733	568.00
69.2877	603.43
69.3022	588.53
69.3166	531.24
69.3310	579.08
69.3455	555.05
69.3599	585.19
69.3744	557.47
69.3888	551.80
69.4032	584.83
69.4177	584.36
69.4321	621.80
69.4466	592.71
69.4610	587.65
69.4754	595.98
69.4899	545.60
69.5043	584.12
69.5188	555.38
69.5332	567.12
69.5476	537.12
69.5621	555.76
69.5765	522.23
69.5910	581.35
69.6054	568.88
69.6198	557.32
69.6343	554.82
69.6487	574.08
69.6632	569.44
69.6776	569.49
69.6920	546.13
69.7065	573.58
69.7209	592.95
69.7354	565.46
69.7498	530.14
69.7642	558.78
69.7787	579.95
69.7931	560.38
69.8076	589.17
69.8220	584.51
69.8364	547.26
69.8509	564.44
69.8653	608.69
69.8798	590.61
69.8942	576.35
69.9086	586.88
69.9231	597.29
69.9375	579.74
69.9520	598.74
69.9664	595.30
69.9808	562.96
69.9953	545.90
70.0097	566.37
70.0242	536.31
70.0386	527.53
70.0530	591.58
70.0675	578.75
70.0819	555.05
70.0964	585.52
70.1108	569.81
70.1252	604.49
70.1397	539.35
70.1541	556.92
70.1686	602.85
70.1830	622.94
70.1974	542.01
70.2119	587.63
70.2263	549.99
70.2408	523.19
70.2552	540.46
70.2696	585.08
70.2841	585.37
70.2985	548.84
70.3130	546.19
70.3274	568.64
70.3418	554.14
70.3563	590.81
70.3707	553.23
70.3852	574.85
70.3996	571.51
70.4140	553.49
70.4285	595.63
70.4429	565.99
70.4574	543.89
70.4718	620.38
70.4862	542.17
70.5007	563.50
70.5151	575.90
70.5296	552.46
70.5440	581.26
70.5584	564.01
70.5729	575.58
70.5873	581.05
70.6018	548.73
70.6162	561.18
70.6306	552.17
70.6451	519.47
70.6595	559.83
70.6740	535.92
70.6884	588.54
70.7028	586.67
70.7173	607.70
70.7317	570.24
70.7462	563.63
70.7606	581.44
70.7750	668.97
70.7895	585.65
70.8039	552.81
70.8184	560.63
70.8328	590.52
70.8472	588.53
70.8617	567.73
70.8761	480.83
70.8906	555.29
70.9050	629.73
70.9194	608.14
70.9339	617.05
70.9483	598.48
70.9628	568.55
70.9772	605.58
70.9916	540.34
71.0061	541.40
71.0205	542.87
71.0350	557.23
71.0494	638.90
71.0638	639.36
71.0783	619.13
71.0927	615.69
71.1072	600.39
71.1216	583.62
71.1361	576.91
71.1505	621.47
71.1649	606.05
71.1794	583.70
71.1938	634.18
71.2083	624.55
71.2227	562.12
71.2371	566.00
71.2516	575.61
71.2660	584.89
71.2805	550.71
71.2949	534.40
71.3093	574.42
71.3238	551.00
71.3382	557.70
71.3527	536.65
71.3671	541.95
71.3815	576.38
71.3960	596.18
71.4104	598.13
71.4249	622.85
71.4393	596.54
71.4537	592.86
71.4682	625.44
71.4826	555.81
71.4971	504.61
71.5115	508.96
71.5259	543.38
71.5404	596.70
71.5548	564.39
71.5693	538.12
71.5837	519.29
71.5981	536.63
71.6126	577.81
71.6270	572.28
71.6415	632.49
71.6559	580.31
71.6703	572.15
71.6848	561.12
71.6992	573.30
71.7137	587.12
71.7281	526.51
71.7425	543.12
71.7570	573.34
71.7714	596.48
71.7859	586.47
71.8003	570.42
71.8147	596.30
71.8292	582.40
71.8436	595.76
71.8581	520.88
71.8725	499.02
71.8869	577.80
71.9014	536.78
71.9158	603.59
71.9303	530.93
71.9447	503.17
71.9591	586.86
71.9736	605.34
71.9880	564.40
72.0025	555.37
72.0169	483.16
72.0313	457.39
72.0458	534.08
72.0602	568.95
72.0747	665.21
72.0891	691.87
72.1035	685.90
72.1180	678.88
72.1324	628.96
72.1469	587.51
72.1613	607.39
72.1757	644.10
72.1902	697.01
72.2046	729.81
72.2191	593.76
72.2335	526.16
72.2479	512.52
72.2624	463.19
72.2768	569.18
72.2913	581.05
72.3057	557.22
72.3201	566.61
72.3346	589.00
72.3490	595.42
72.3635	534.13
72.3779	555.48
72.3923	587.47
72.4068	586.51
72.4212	542.44
72.4357	614.82
72.4501	625.05
72.4645	573.80
72.4790	594.10
72.4934	605.53
72.5079	562.53
72.5223	534.21
72.5367	490.10
72.5512	575.19
72.5656	632.91
72.5801	550.83
72.5945	528.90
72.6089	544.54
72.6234	547.97
72.6378	492.42
72.6523	550.45
72.6667	589.66
72.6811	575.44
72.6956	623.61
72.7100	602.06
72.7245	559.28
72.7389	600.61
72.7533	600.06
72.7678	557.65
72.7822	603.75
72.7967	693.52
72.8111	645.62
72.8255	601.93
72.8400	616.19
72.8544	566.54
72.8689	571.35
72.8833	634.95