2022.09.19 19:37:17
Îáðàçåö: ß÷åéêà LCoV 16-09-2022
Lambda1 = 1.54060
Lambda2 = 1.54439
Lambdam = 1.54186
R = 0.497
2Theta	I

line¹ 0 ;repeat¹ 0
22.1120	582.70
22.1264	584.04
22.1409	526.03
22.1553	549.66
22.1697	627.65
22.1842	572.08
22.1986	504.93
22.2131	539.05
22.2275	602.70
22.2419	638.38
22.2564	640.18
22.2708	502.31
22.2853	575.84
22.2997	578.62
22.3141	637.89
22.3286	537.85
22.3430	504.60
22.3575	560.52
22.3719	570.53
22.3863	604.20
22.4008	580.88
22.4152	656.39
22.4297	660.95
22.4441	606.91
22.4585	677.08
22.4730	668.26
22.4874	631.13
22.5019	572.76
22.5163	596.57
22.5307	593.87
22.5452	595.05
22.5596	594.20
22.5741	597.12
22.5885	570.61
22.6029	615.64
22.6174	556.63
22.6318	563.30
22.6463	582.50
22.6607	652.78
22.6751	563.59
22.6896	574.08
22.7040	579.93
22.7185	513.32
22.7329	508.66
22.7473	477.14
22.7618	482.28
22.7762	544.86
22.7907	586.25
22.8051	696.83
22.8195	590.12
22.8340	500.88
22.8484	609.67
22.8629	619.59
22.8773	602.44
22.8917	632.66
22.9062	658.47
22.9206	560.78
22.9351	528.90
22.9495	603.96
22.9639	563.67
22.9784	563.29
22.9928	612.53
23.0073	612.26
23.0217	627.18
23.0361	586.78
23.0506	584.58
23.0650	621.57
23.0795	594.83
23.0939	595.13
23.1083	511.61
23.1228	622.71
23.1372	542.68
23.1517	512.15
23.1661	591.87
23.1806	580.13
23.1950	593.91
23.2094	529.89
23.2239	589.47
23.2383	562.08
23.2528	583.19
23.2672	554.21
23.2816	598.84
23.2961	545.31
23.3105	568.75
23.3250	513.37
23.3394	581.09
23.3538	600.41
23.3683	584.32
23.3827	553.20
23.3972	519.61
23.4116	606.20
23.4260	580.03
23.4405	597.68
23.4549	544.93
23.4694	494.39
23.4838	582.34
23.4982	561.90
23.5127	516.55
23.5271	590.61
23.5416	533.59
23.5560	540.38
23.5704	600.89
23.5849	541.55
23.5993	607.44
23.6138	599.93
23.6282	504.57
23.6426	469.70
23.6571	504.56
23.6715	519.31
23.6860	569.80
23.7004	551.99
23.7148	529.18
23.7293	491.31
23.7437	565.97
23.7582	573.39
23.7726	578.06
23.7870	589.83
23.8015	563.15
23.8159	596.28
23.8304	618.00
23.8448	550.90
23.8592	555.95
23.8737	502.30
23.8881	514.56
23.9026	545.83
23.9170	623.36
23.9314	536.46
23.9459	524.90
23.9603	518.11
23.9748	541.46
23.9892	573.77
24.0036	569.85
24.0181	623.10
24.0325	586.48
24.0470	611.34
24.0614	557.83
24.0758	528.28
24.0903	541.04
24.1047	640.96
24.1192	590.78
24.1336	525.40
24.1480	505.20
24.1625	587.78
24.1769	581.22
24.1914	573.42
24.2058	548.27
24.2202	542.01
24.2347	575.12
24.2491	633.87
24.2636	611.39
24.2780	595.65
24.2924	570.94
24.3069	623.17
24.3213	602.37
24.3358	609.48
24.3502	547.47
24.3646	521.66
24.3791	536.27
24.3935	536.96
24.4080	585.24
24.4224	558.44
24.4368	527.25
24.4513	569.03
24.4657	515.85
24.4802	513.74
24.4946	575.61
24.5090	572.20
24.5235	509.18
24.5379	519.36
24.5524	539.69
24.5668	555.89
24.5812	571.06
24.5957	588.57
24.6101	601.03
24.6246	554.71
24.6390	528.99
24.6534	546.17
24.6679	559.97
24.6823	535.62
24.6968	536.88
24.7112	559.76
24.7256	525.00
24.7401	574.87
24.7545	552.64
24.7690	540.28
24.7834	520.38
24.7978	558.35
24.8123	536.50
24.8267	597.96
24.8412	527.33
24.8556	598.60
24.8700	598.72
24.8845	559.27
24.8989	529.18
24.9134	517.21
24.9278	533.19
24.9422	481.84
24.9567	523.53
24.9711	514.96
24.9856	543.39
25.0000	582.30
25.0144	538.15
25.0289	529.30
25.0433	518.70
25.0578	561.32
25.0722	559.96
25.0866	536.94
25.1011	502.25
25.1155	606.08
25.1300	507.11
25.1444	543.78
25.1588	597.13
25.1733	571.40
25.1877	519.82
25.2022	535.20
25.2166	512.40
25.2310	550.89
25.2455	516.06
25.2599	521.66
25.2744	532.78
25.2888	501.05
25.3032	565.01
25.3177	532.45
25.3321	541.95
25.3466	536.31
25.3610	543.12
25.3754	542.28
25.3899	527.25
25.4043	538.82
25.4188	582.50
25.4332	562.42
25.4476	542.69
25.4621	520.49
25.4765	523.33
25.4910	493.98
25.5054	536.53
25.5198	550.80
25.5343	560.06
25.5487	557.48
25.5632	510.20
25.5776	548.46
25.5920	525.14
25.6065	535.70
25.6209	551.23
25.6354	575.14
25.6498	522.79
25.6642	528.45
25.6787	501.90
25.6931	504.48
25.7076	563.36
25.7220	558.90
25.7364	545.40
25.7509	550.05
25.7653	497.80
25.7798	520.39
25.7942	509.11
25.8086	519.58
25.8231	557.92
25.8375	562.57
25.8520	550.42
25.8664	547.78
25.8808	539.66
25.8953	542.61
25.9097	569.76
25.9242	566.32
25.9386	587.59
25.9530	560.87
25.9675	512.33
25.9819	545.66
25.9964	537.89
26.0108	544.55
26.0252	490.79
26.0397	492.08
26.0541	512.40
26.0686	509.40
26.0830	519.80
26.0974	517.46
26.1119	498.84
26.1263	533.28
26.1408	516.81
26.1552	525.13
26.1696	536.61
26.1841	500.87
26.1985	522.48
26.2130	533.08
26.2274	532.93
26.2418	542.25
26.2563	533.84
26.2707	510.46
26.2852	528.88
26.2996	543.76
26.3140	502.52
26.3285	521.73
26.3429	548.67
26.3574	541.61
26.3718	534.03
26.3862	559.43
26.4007	512.94
26.4151	501.81
26.4296	540.24
26.4440	526.22
26.4584	516.60
26.4729	519.50
26.4873	535.31
26.5018	519.58
26.5162	507.95
26.5306	509.35
26.5451	528.13
26.5595	553.04
26.5740	520.90
26.5884	508.67
26.6028	514.70
26.6173	521.08
26.6317	539.44
26.6462	534.50
26.6606	526.52
26.6750	529.89
26.6895	519.86
26.7039	495.89
26.7184	520.85
26.7328	510.57
26.7472	521.83
26.7617	538.58
26.7761	529.90
26.7906	532.24
26.8050	530.80
26.8194	514.72
26.8339	545.12
26.8483	508.97
26.8628	504.12
26.8772	524.64
26.8917	521.50
26.9061	535.09
26.9205	533.84
26.9350	522.59
26.9494	537.72
26.9639	526.88
26.9783	537.46
26.9927	535.59
27.0072	506.53
27.0216	532.16
27.0361	496.99
27.0505	516.85
27.0649	542.36
27.0794	548.84
27.0938	562.64
27.1083	515.93
27.1227	522.26
27.1371	521.71
27.1516	516.28
27.1660	525.72
27.1805	533.80
27.1949	491.30
27.2093	503.49
27.2238	543.44
27.2382	542.28
27.2527	536.13
27.2671	516.62
27.2815	523.84
27.2960	509.44
27.3104	524.49
27.3249	538.34
27.3393	564.53
27.3537	505.71
27.3682	450.33
27.3826	498.40
27.3971	524.16
27.4115	492.30
27.4259	547.85
27.4404	533.65
27.4548	519.16
27.4693	556.74
27.4837	508.45
27.4981	508.43
27.5126	496.85
27.5270	517.90
27.5415	535.47
27.5559	527.92
27.5703	509.46
27.5848	501.31
27.5992	506.02
27.6137	485.94
27.6281	529.63
27.6425	542.60
27.6570	555.55
27.6714	544.22
27.6859	493.61
27.7003	551.11
27.7147	521.02
27.7292	514.86
27.7436	551.81
27.7581	537.66
27.7725	504.53
27.7869	544.13
27.8014	526.45
27.8158	518.15
27.8303	514.90
27.8447	503.92
27.8591	537.78
27.8736	520.82
27.8880	515.50
27.9025	507.19
27.9169	521.53
27.9313	536.55
27.9458	528.99
27.9602	504.78
27.9747	521.45
27.9891	493.39
28.0035	473.78
28.0180	504.62
28.0324	500.02
28.0469	552.79
28.0613	536.35
28.0757	511.26
28.0902	495.58
28.1046	516.31
28.1191	488.93
28.1335	506.63
28.1479	508.13
28.1624	521.20
28.1768	495.58
28.1913	517.53
28.2057	514.23
28.2201	520.03
28.2346	561.97
28.2490	508.47
28.2635	480.97
28.2779	505.41
28.2923	523.78
28.3068	535.00
28.3212	511.13
28.3357	558.26
28.3501	570.69
28.3645	525.46
28.3790	497.57
28.3934	478.19
28.4079	494.19
28.4223	497.94
28.4367	498.24
28.4512	490.58
28.4656	500.33
28.4801	519.77
28.4945	504.62
28.5089	531.25
28.5234	494.53
28.5378	532.79
28.5523	522.10
28.5667	481.22
28.5811	498.10
28.5956	513.82
28.6100	536.07
28.6245	489.71
28.6389	523.75
28.6533	532.30
28.6678	495.70
28.6822	511.61
28.6967	486.79
28.7111	513.71
28.7255	520.90
28.7400	519.89
28.7544	497.82
28.7689	508.54
28.7833	545.92
28.7977	512.10
28.8122	540.04
28.8266	461.80
28.8411	476.33
28.8555	535.02
28.8699	491.80
28.8844	482.28
28.8988	541.88
28.9133	500.63
28.9277	521.05
28.9421	536.07
28.9566	463.29
28.9710	498.84
28.9855	497.99
28.9999	459.65
29.0143	513.82
29.0288	537.10
29.0432	500.88
29.0577	519.53
29.0721	534.87
29.0865	499.73
29.1010	524.56
29.1154	549.92
29.1299	536.53
29.1443	503.36
29.1587	485.49
29.1732	497.91
29.1876	484.42
29.2021	507.45
29.2165	529.35
29.2309	520.65
29.2454	520.65
29.2598	490.46
29.2743	504.65
29.2887	493.98
29.3031	520.86
29.3176	501.64
29.3320	514.12
29.3465	512.22
29.3609	527.49
29.3753	509.87
29.3898	510.66
29.4042	496.72
29.4187	506.36
29.4331	513.85
29.4475	482.24
29.4620	502.44
29.4764	548.75
29.4909	515.11
29.5053	512.14
29.5197	487.11
29.5342	539.45
29.5486	491.17
29.5631	525.81
29.5775	528.01
29.5919	468.50
29.6064	495.19
29.6208	464.07
29.6353	483.35
29.6497	506.73
29.6641	500.82
29.6786	505.34
29.6930	472.92
29.7075	503.33
29.7219	499.67
29.7363	506.81
29.7508	499.26
29.7652	484.50
29.7797	490.33
29.7941	484.96
29.8085	502.13
29.8230	534.13
29.8374	487.32
29.8519	498.73
29.8663	513.13
29.8807	494.85
29.8952	582.62
29.9096	510.36
29.9241	492.63
29.9385	519.32
29.9529	547.25
29.9674	509.90
29.9818	520.42
29.9963	534.43
30.0107	496.30
30.0251	495.15
30.0396	506.12
30.0540	497.01
30.0685	536.97
30.0829	542.33
30.0973	507.17
30.1118	490.58
30.1262	521.60
30.1407	509.31
30.1551	488.35
30.1695	518.85
30.1840	520.33
30.1984	503.37
30.2129	521.47
30.2273	522.32
30.2417	515.43
30.2562	525.84
30.2706	518.31
30.2851	522.92
30.2995	532.09
30.3139	524.61
30.3284	512.20
30.3428	526.45
30.3573	526.54
30.3717	525.44
30.3861	526.76
30.4006	526.80
30.4150	507.66
30.4295	526.45
30.4439	533.90
30.4583	558.89
30.4728	577.88
30.4872	593.77
30.5017	622.91
30.5161	621.42
30.5305	678.00
30.5450	715.16
30.5594	737.86
30.5739	755.78
30.5883	790.53
30.6028	751.18
30.6172	683.08
30.6316	681.38
30.6461	681.46
30.6605	679.08
30.6750	653.43
30.6894	634.61
30.7038	638.14
30.7183	608.99
30.7327	548.33
30.7472	576.73
30.7616	528.89
30.7760	540.50
30.7905	541.39
30.8049	512.51
30.8194	514.95
30.8338	505.00
30.8482	510.61
30.8627	512.47
30.8771	519.39
30.8916	493.49
30.9060	521.02
30.9204	516.11
30.9349	507.27
30.9493	522.51
30.9638	507.36
30.9782	516.44
30.9926	537.74
31.0071	536.39
31.0215	505.47
31.0360	527.34
31.0504	513.07
31.0648	500.96
31.0793	503.95
31.0937	484.37
31.1082	507.00
31.1226	532.98
31.1370	493.76
31.1515	487.98
31.1659	517.32
31.1804	507.52
31.1948	502.19
31.2092	524.95
31.2237	500.58
31.2381	496.55
31.2526	500.12
31.2670	518.86
31.2814	517.47
31.2959	518.43
31.3103	509.65
31.3248	541.55
31.3392	506.44
31.3536	524.61
31.3681	509.29
31.3825	511.67
31.3970	495.16
31.4114	503.53
31.4258	522.93
31.4403	503.55
31.4547	491.41
31.4692	487.94
31.4836	499.94
31.4980	497.93
31.5125	498.31
31.5269	514.76
31.5414	509.84
31.5558	509.73
31.5702	497.44
31.5847	489.77
31.5991	496.80
31.6136	469.42
31.6280	485.27
31.6424	511.78
31.6569	469.67
31.6713	448.28
31.6858	488.55
31.7002	515.53
31.7146	533.37
31.7291	479.60
31.7435	523.51
31.7580	475.29
31.7724	488.26
31.7868	452.82
31.8013	473.30
31.8157	506.52
31.8302	500.81
31.8446	508.19
31.8590	515.28
31.8735	523.96
31.8879	520.43
31.9024	504.65
31.9168	507.74
31.9312	489.51
31.9457	503.94
31.9601	475.80
31.9746	500.36
31.9890	503.00
32.0034	498.21
32.0179	518.33
32.0323	496.63
32.0468	512.57
32.0612	529.94
32.0756	507.11
32.0901	507.85
32.1045	517.34
32.1190	535.72
32.1334	513.82
32.1478	502.83
32.1623	535.55
32.1767	508.56
32.1912	514.38
32.2056	495.11
32.2200	477.82
32.2345	543.72
32.2489	504.28
32.2634	493.91
32.2778	495.85
32.2922	510.07
32.3067	521.75
32.3211	494.64
32.3356	513.18
32.3500	520.93
32.3644	495.72
32.3789	513.03
32.3933	493.19
32.4078	502.35
32.4222	505.27
32.4366	519.71
32.4511	518.61
32.4655	494.16
32.4800	516.25
32.4944	473.02
32.5088	485.73
32.5233	484.39
32.5377	522.84
32.5522	497.91
32.5666	506.85
32.5810	550.77
32.5955	505.14
32.6099	488.15
32.6244	503.94
32.6388	514.68
32.6532	497.97
32.6677	481.74
32.6821	464.01
32.6966	488.18
32.7110	535.71
32.7254	490.76
32.7399	482.91
32.7543	507.50
32.7688	459.60
32.7832	493.51
32.7976	506.48
32.8121	504.72
32.8265	499.47
32.8410	481.17
32.8554	523.86
32.8698	519.77
32.8843	491.51
32.8987	511.87
32.9132	503.42
32.9276	495.69
32.9420	491.71
32.9565	484.87
32.9709	533.66
32.9854	511.61
32.9998	507.63
33.0142	509.67
33.0287	541.24
33.0431	502.88
33.0576	501.55
33.0720	545.92
33.0864	523.22
33.1009	505.14
33.1153	486.71
33.1298	480.38
33.1442	495.95
33.1586	498.37
33.1731	507.60
33.1875	495.02
33.2020	501.74
33.2164	475.61
33.2308	499.40
33.2453	504.19
33.2597	490.73
33.2742	474.93
33.2886	500.34
33.3030	497.38
33.3175	515.20
33.3319	503.45
33.3464	517.17
33.3608	508.74
33.3752	473.45
33.3897	489.01
33.4041	498.45
33.4186	533.03
33.4330	536.84
33.4474	471.32
33.4619	498.95
33.4763	509.38
33.4908	498.57
33.5052	491.89
33.5196	521.35
33.5341	509.68
33.5485	515.72
33.5630	529.10
33.5774	513.28
33.5918	531.38
33.6063	523.22
33.6207	502.53
33.6352	515.96
33.6496	504.85
33.6640	477.69
33.6785	483.14
33.6929	499.60
33.7074	510.29
33.7218	526.61
33.7362	542.17
33.7507	520.56
33.7651	464.81
33.7796	496.88
33.7940	481.94
33.8084	472.61
33.8229	512.95
33.8373	500.28
33.8518	511.18
33.8662	486.82
33.8806	479.26
33.8951	471.64
33.9095	464.80
33.9240	486.15
33.9384	515.64
33.9528	520.02
33.9673	517.07
33.9817	501.52
33.9962	512.59
34.0106	524.02
34.0250	508.85
34.0395	522.95
34.0539	504.12
34.0684	486.39
34.0828	482.67
34.0972	501.41
34.1117	540.61
34.1261	513.76
34.1406	491.62
34.1550	473.26
34.1694	497.73
34.1839	527.86
34.1983	497.63
34.2128	491.36
34.2272	493.55
34.2417	510.98
34.2561	523.53
34.2705	509.54
34.2850	502.73
34.2994	483.38
34.3139	478.14
34.3283	504.13
34.3427	502.97
34.3572	479.79
34.3716	518.10
34.3861	505.61
34.4005	489.10
34.4149	496.24
34.4294	485.92
34.4438	482.47
34.4583	504.42
34.4727	531.09
34.4871	525.47
34.5016	504.51
34.5160	502.97
34.5305	529.47
34.5449	487.68
34.5593	500.20
34.5738	513.83
34.5882	522.42
34.6027	518.36
34.6171	521.28
34.6315	506.43
34.6460	478.58
34.6604	487.27
34.6749	487.36
34.6893	502.19
34.7037	510.05
34.7182	525.25
34.7326	499.42
34.7471	488.06
34.7615	492.63
34.7759	504.33
34.7904	502.78
34.8048	488.26
34.8193	523.55
34.8337	481.75
34.8481	508.14
34.8626	522.98
34.8770	493.98
34.8915	488.96
34.9059	500.51
34.9203	512.91
34.9348	500.14
34.9492	496.87
34.9637	505.72
34.9781	474.70
34.9925	483.52
35.0070	472.38
35.0214	493.86
35.0359	497.26
35.0503	522.94
35.0647	499.41
35.0792	498.91
35.0936	530.75
35.1081	495.86
35.1225	487.16
35.1369	516.12
35.1514	525.02
35.1658	505.02
35.1803	508.85
35.1947	494.62
35.2091	544.09
35.2236	507.08
35.2380	524.18
35.2525	529.61
35.2669	510.07
35.2813	531.90
35.2958	503.23
35.3102	462.41
35.3247	510.05
35.3391	514.10
35.3535	504.73
35.3680	476.06
35.3824	484.98
35.3969	525.08
35.4113	519.81
35.4257	538.34
35.4402	548.77
35.4546	533.73
35.4691	542.81
35.4835	514.19
35.4979	532.65
35.5124	506.39
35.5268	516.05
35.5413	528.92
35.5557	514.03
35.5701	512.63
35.5846	519.43
35.5990	511.58
35.6135	522.92
35.6279	554.56
35.6423	535.08
35.6568	532.21
35.6712	547.97
35.6857	578.09
35.7001	689.51
35.7145	775.19
35.7290	737.02
35.7434	635.01
35.7579	610.09
35.7723	600.36
35.7867	680.23
35.8012	759.97
35.8156	754.57
35.8301	712.90
35.8445	700.04
35.8589	779.72
35.8734	872.46
35.8878	960.60
35.9023	1062.20
35.9167	1151.01
35.9311	1316.25
35.9456	1678.08
35.9600	2015.13
35.9745	2158.26
35.9889	2372.85
36.0033	2779.60
36.0178	3120.96
36.0322	3293.75
36.0467	2639.56
36.0611	2209.95
36.0755	1954.26
36.0900	2215.56
36.1044	1939.91
36.1189	1515.00
36.1333	1330.87
36.1477	1177.96
36.1622	1058.42
36.1766	914.64
36.1911	807.72
36.2055	790.04
36.2199	767.73
36.2344	760.77
36.2488	652.01
36.2633	604.96
36.2777	567.43
36.2921	577.60
36.3066	584.51
36.3210	565.94
36.3355	530.24
36.3499	548.03
36.3643	548.16
36.3788	526.63
36.3932	509.14
36.4077	538.07
36.4221	540.61
36.4365	525.72
36.4510	528.62
36.4654	543.37
36.4799	545.87
36.4943	547.40
36.5087	532.14
36.5232	521.44
36.5376	509.39
36.5521	546.11
36.5665	492.75
36.5809	523.10
36.5954	515.63
36.6098	548.99
36.6243	523.35
36.6387	525.33
36.6531	512.13
36.6676	500.03
36.6820	505.90
36.6965	533.84
36.7109	529.87
36.7253	518.60
36.7398	517.82
36.7542	538.06
36.7687	537.08
36.7831	549.68
36.7975	522.23
36.8120	567.29
36.8264	571.78
36.8409	593.84
36.8553	560.33
36.8697	583.10
36.8842	562.82
36.8986	569.22
36.9131	599.11
36.9275	546.85
36.9419	557.85
36.9564	591.87
36.9708	588.08
36.9853	591.39
36.9997	537.45
37.0141	553.69
37.0286	512.98
37.0430	520.26
37.0575	515.46
37.0719	554.71
37.0863	523.95
37.1008	509.41
37.1152	487.03
37.1297	515.93
37.1441	515.32
37.1585	510.66
37.1730	533.75
37.1874	521.26
37.2019	514.07
37.2163	531.48
37.2307	493.64
37.2452	502.00
37.2596	472.31
37.2741	498.37
37.2885	500.78
37.3029	528.98
37.3174	482.00
37.3318	520.25
37.3463	529.67
37.3607	506.46
37.3751	500.64
37.3896	472.11
37.4040	473.11
37.4185	493.14
37.4329	505.96
37.4473	495.42
37.4618	507.70
37.4762	514.02
37.4907	505.25
37.5051	490.26
37.5195	538.93
37.5340	457.95
37.5484	477.98
37.5629	522.97
37.5773	507.33
37.5917	514.18
37.6062	515.76
37.6206	516.07
37.6351	537.95
37.6495	509.31
37.6639	505.68
37.6784	466.70
37.6928	468.05
37.7073	490.01
37.7217	543.51
37.7361	499.92
37.7506	508.31
37.7650	488.24
37.7795	488.79
37.7939	501.27
37.8083	523.30
37.8228	476.11
37.8372	494.93
37.8517	511.62
37.8661	528.15
37.8805	488.16
37.8950	475.11
37.9094	467.81
37.9239	457.39
37.9383	466.87
37.9528	507.91
37.9672	496.55
37.9816	488.30
37.9961	534.35
38.0105	504.90
38.0250	528.01
38.0394	486.09
38.0538	491.64
38.0683	529.39
38.0827	548.48
38.0972	503.59
38.1116	508.50
38.1260	481.77
38.1405	487.24
38.1549	533.79
38.1694	517.07
38.1838	481.62
38.1982	506.71
38.2127	543.25
38.2271	509.50
38.2416	493.93
38.2560	493.62
38.2704	501.88
38.2849	511.85
38.2993	511.38
38.3138	481.79
38.3282	522.47
38.3426	539.31
38.3571	520.51
38.3715	511.08
38.3860	543.18
38.4004	541.35
38.4148	528.39
38.4293	572.55
38.4437	554.96
38.4582	601.88
38.4726	597.74
38.4870	652.82
38.5015	711.40
38.5159	785.61
38.5304	835.05
38.5448	801.18
38.5592	809.16
38.5737	774.45
38.5881	748.44
38.6026	736.69
38.6170	705.83
38.6314	695.98
38.6459	674.65
38.6603	633.25
38.6748	608.97
38.6892	565.38
38.7036	571.66
38.7181	543.69
38.7325	545.12
38.7470	490.63
38.7614	473.14
38.7758	506.33
38.7903	520.80
38.8047	503.02
38.8192	497.93
38.8336	491.76
38.8480	533.70
38.8625	542.10
38.8769	537.88
38.8914	470.45
38.9058	491.80
38.9202	476.55
38.9347	511.08
38.9491	501.60
38.9636	513.72
38.9780	532.64
38.9924	483.15
39.0069	465.87
39.0213	511.82
39.0358	529.48
39.0502	513.99
39.0646	529.58
39.0791	507.46
39.0935	507.89
39.1080	526.14
39.1224	510.74
39.1368	510.30
39.1513	503.71
39.1657	515.61
39.1802	503.03
39.1946	475.83
39.2090	501.00
39.2235	487.62
39.2379	527.93
39.2524	511.20
39.2668	474.52
39.2812	535.98
39.2957	503.71
39.3101	520.28
39.3246	515.89
39.3390	517.66
39.3534	519.82
39.3679	502.65
39.3823	513.23
39.3968	503.37
39.4112	499.84
39.4256	520.66
39.4401	514.98
39.4545	493.72
39.4690	515.83
39.4834	520.91
39.4978	512.76
39.5123	497.65
39.5267	498.08
39.5412	498.52
39.5556	512.72
39.5700	495.37
39.5845	489.66
39.5989	525.06
39.6134	470.46
39.6278	512.15
39.6422	525.22
39.6567	518.63
39.6711	457.09
39.6856	472.31
39.7000	554.99
39.7144	547.22
39.7289	499.62
39.7433	486.50
39.7578	481.56
39.7722	485.56
39.7866	504.60
39.8011	477.36
39.8155	525.74
39.8300	517.66
39.8444	490.13
39.8588	502.19
39.8733	493.18
39.8877	478.68
39.9022	531.49
39.9166	504.35
39.9310	481.88
39.9455	510.60
39.9599	482.75
39.9744	505.16
39.9888	500.09
40.0032	484.15
40.0177	523.49
40.0321	540.86
40.0466	515.80
40.0610	483.77
40.0754	488.50
40.0899	494.83
40.1043	489.88
40.1188	502.71
40.1332	530.27
40.1476	492.81
40.1621	521.33
40.1765	493.83
40.1910	503.64
40.2054	499.56
40.2198	515.94
40.2343	490.61
40.2487	485.07
40.2632	506.58
40.2776	519.74
40.2920	481.44
40.3065	471.84
40.3209	467.86
40.3354	475.04
40.3498	490.12
40.3642	473.15
40.3787	490.69
40.3931	486.43
40.4076	494.45
40.4220	500.79
40.4364	521.10
40.4509	472.57
40.4653	515.86
40.4798	480.83
40.4942	500.52
40.5086	492.10
40.5231	507.93
40.5375	522.65
40.5520	514.17
40.5664	492.52
40.5808	486.42
40.5953	495.54
40.6097	503.03
40.6242	482.27
40.6386	500.83
40.6530	515.64
40.6675	511.79
40.6819	516.14
40.6964	487.94
40.7108	510.41
40.7252	509.78
40.7397	519.72
40.7541	520.52
40.7686	463.98
40.7830	498.83
40.7974	505.53
40.8119	488.91
40.8263	501.97
40.8408	486.95
40.8552	507.68
40.8696	505.75
40.8841	512.89
40.8985	499.96
40.9130	522.04
40.9274	494.85
40.9418	480.80
40.9563	487.36
40.9707	495.71
40.9852	494.85
40.9996	474.27
41.0140	455.24
41.0285	474.25
41.0429	527.78
41.0574	516.95
41.0718	503.17
41.0862	498.60
41.1007	483.88
41.1151	538.95
41.1296	529.81
41.1440	475.40
41.1584	490.79
41.1729	466.44
41.1873	483.85
41.2018	498.99
41.2162	509.22
41.2306	496.30
41.2451	510.45
41.2595	535.60
41.2740	490.57
41.2884	496.95
41.3028	472.87
41.3173	524.16
41.3317	494.80
41.3462	501.29
41.3606	484.52
41.3750	489.98
41.3895	495.03
41.4039	478.58
41.4184	484.42
41.4328	498.49
41.4472	500.06
41.4617	462.51
41.4761	477.35
41.4906	499.90
41.5050	496.31
41.5194	489.35
41.5339	486.63
41.5483	501.11
41.5628	483.46
41.5772	476.47
41.5916	453.14
41.6061	489.80
41.6205	483.68
41.6350	526.36
41.6494	520.43
41.6639	455.88
41.6783	479.17
41.6927	459.74
41.7072	547.77
41.7216	535.17
41.7361	499.75
41.7505	505.29
41.7649	488.74
41.7794	496.52
41.7938	495.83
41.8083	512.35
41.8227	528.01
41.8371	530.60
41.8516	518.67
41.8660	530.21
41.8805	531.50
41.8949	546.68
41.9093	551.24
41.9238	564.74
41.9382	516.17
41.9527	580.62
41.9671	571.79
41.9815	552.00
41.9960	528.43
42.0104	536.66
42.0249	531.22
42.0393	529.23
42.0537	557.61
42.0682	564.71
42.0826	599.96
42.0971	630.49
42.1115	592.36
42.1259	578.22
42.1404	578.23
42.1548	615.35
42.1693	655.75
42.1837	698.66
42.1981	772.99
42.2126	844.98
42.2270	901.50
42.2415	1053.65
42.2559	1167.31
42.2703	1359.55
42.2848	1537.96
42.2992	1617.40
42.3137	1649.41
42.3281	1665.87
42.3425	1576.76
42.3570	1474.56
42.3714	1406.76
42.3859	1363.39
42.4003	1377.28
42.4147	1322.95
42.4292	1296.00
42.4436	1149.16
42.4581	1030.42
42.4725	956.03
42.4869	810.06
42.5014	775.44
42.5158	701.37
42.5303	671.35
42.5447	650.68
42.5591	597.27
42.5736	568.26
42.5880	575.89
42.6025	560.99
42.6169	540.34
42.6313	536.34
42.6458	547.18
42.6602	523.02
42.6747	501.11
42.6891	505.90
42.7035	532.92
42.7180	529.33
42.7324	546.16
42.7469	550.87
42.7613	524.23
42.7757	546.76
42.7902	508.70
42.8046	538.00
42.8191	537.34
42.8335	547.88
42.8479	534.52
42.8624	551.15
42.8768	543.32
42.8913	506.15
42.9057	509.93
42.9201	516.47
42.9346	506.95
42.9490	516.00
42.9635	497.93
42.9779	505.94
42.9923	509.04
43.0068	500.13
43.0212	519.58
43.0357	528.87
43.0501	521.42
43.0645	494.20
43.0790	509.90
43.0934	526.09
43.1079	497.15
43.1223	494.67
43.1367	511.75
43.1512	509.13
43.1656	525.75
43.1801	513.79
43.1945	525.55
43.2089	518.69
43.2234	527.75
43.2378	522.62
43.2523	494.49
43.2667	524.91
43.2811	522.00
43.2956	511.66
43.3100	531.88
43.3245	535.51
43.3389	524.51
43.3533	520.45
43.3678	511.59
43.3822	494.41
43.3967	508.75
43.4111	510.85
43.4255	537.20
43.4400	532.66
43.4544	506.60
43.4689	528.71
43.4833	517.49
43.4977	529.81
43.5122	537.60
43.5266	459.00
43.5411	515.71
43.5555	488.25
43.5699	510.10
43.5844	501.47
43.5988	510.93
43.6133	530.96
43.6277	525.48
43.6421	557.47
43.6566	549.17
43.6710	541.44
43.6855	543.26
43.6999	592.63
43.7143	657.83
43.7288	640.76
43.7432	658.39
43.7577	638.54
43.7721	671.16
43.7865	680.19
43.8010	631.07
43.8154	612.96
43.8299	582.88
43.8443	598.19
43.8587	640.98
43.8732	643.19
43.8876	597.89
43.9021	594.59
43.9165	602.41
43.9309	563.81
43.9454	527.04
43.9598	531.81
43.9743	493.57
43.9887	501.84
44.0031	498.11
44.0176	512.40
44.0320	563.97
44.0465	537.34
44.0609	486.71
44.0753	499.18
44.0898	535.68
44.1042	520.61
44.1187	557.01
44.1331	514.23
44.1475	487.04
44.1620	512.48
44.1764	528.12
44.1909	563.35
44.2053	517.87
44.2197	487.20
44.2342	503.34
44.2486	546.18
44.2631	556.84
44.2775	547.19
44.2919	563.24
44.3064	518.09
44.3208	538.58
44.3353	549.58
44.3497	536.54
44.3641	521.27
44.3786	521.20
44.3930	548.95
44.4075	541.57
44.4219	597.14
44.4363	580.80
44.4508	546.33
44.4652	590.19
44.4797	589.93
44.4941	562.29
44.5085	569.83
44.5230	546.91
44.5374	540.58
44.5519	550.59
44.5663	552.35
44.5807	556.20
44.5952	572.14
44.6096	538.00
44.6241	574.19
44.6385	589.67
44.6529	594.80
44.6674	589.97
44.6818	568.56
44.6963	572.64
44.7107	660.41
44.7251	681.97
44.7396	721.18
44.7540	785.11
44.7685	815.83
44.7829	894.66
44.7973	857.74
44.8118	807.13
44.8262	827.34
44.8407	757.63
44.8551	762.58
44.8695	745.08
44.8840	721.74
44.8984	755.03
44.9129	726.95
44.9273	698.20
44.9417	694.89
44.9562	650.80
44.9706	584.10
44.9851	565.12
44.9995	522.40
45.0139	523.41
45.0284	526.37
45.0428	498.79
45.0573	495.16
45.0717	520.21
45.0861	564.00
45.1006	498.81
45.1150	520.63
45.1295	534.49
45.1439	516.94
45.1583	517.69
45.1728	505.85
45.1872	505.40
45.2017	537.69
45.2161	537.47
45.2305	494.83
45.2450	484.81
45.2594	526.48
45.2739	501.19
45.2883	489.81
45.3028	503.75
45.3172	490.10
45.3316	500.55
45.3461	492.75
45.3605	506.71
45.3750	501.04
45.3894	505.50
45.4038	470.33
45.4183	487.05
45.4327	506.31
45.4472	486.58
45.4616	497.81
45.4760	487.65
45.4905	500.30
45.5049	487.70
45.5194	491.37
45.5338	511.36
45.5482	509.19
45.5627	509.72
45.5771	502.78
45.5916	478.14
45.6060	493.78
45.6204	476.90
45.6349	517.28
45.6493	526.07
45.6638	505.25
45.6782	484.64
45.6926	490.11
45.7071	529.58
45.7215	513.66
45.7360	517.40
45.7504	529.02
45.7648	524.92
45.7793	500.14
45.7937	480.67
45.8082	486.73
45.8226	508.84
45.8370	505.35
45.8515	512.41
45.8659	524.14
45.8804	510.17
45.8948	501.85
45.9092	469.78
45.9237	484.54
45.9381	467.57
45.9526	483.05
45.9670	513.21
45.9814	485.07
45.9959	523.01
46.0103	550.76
46.0248	505.72
46.0392	479.02
46.0536	522.08
46.0681	527.48
46.0825	502.90
46.0970	487.05
46.1114	456.74
46.1258	494.38
46.1403	485.05
46.1547	485.60
46.1692	503.98
46.1836	498.82
46.1980	487.68
46.2125	495.28
46.2269	527.56
46.2414	553.14
46.2558	506.03
46.2702	518.57
46.2847	522.44
46.2991	504.08
46.3136	450.91
46.3280	481.63
46.3424	489.47
46.3569	464.14
46.3713	480.33
46.3858	479.62
46.4002	473.77
46.4146	494.09
46.4291	528.78
46.4435	523.76
46.4580	493.91
46.4724	495.22
46.4868	526.43
46.5013	512.24
46.5157	481.12
46.5302	516.13
46.5446	493.60
46.5590	496.25
46.5735	479.34
46.5879	468.85
46.6024	441.79
46.6168	493.04
46.6312	493.77
46.6457	483.65
46.6601	501.52
46.6746	479.77
46.6890	448.87
46.7034	503.71
46.7179	546.87
46.7323	484.62
46.7468	447.11
46.7612	471.52
46.7756	526.23
46.7901	516.03
46.8045	496.43
46.8190	513.04
46.8334	496.25
46.8478	479.50
46.8623	486.01
46.8767	497.68
46.8912	515.86
46.9056	525.23
46.9200	535.39
46.9345	512.19
46.9489	514.37
46.9634	479.93
46.9778	490.31
46.9922	503.28
47.0067	508.06
47.0211	487.25
47.0356	493.48
47.0500	509.28
47.0644	518.57
47.0789	519.45
47.0933	486.15
47.1078	493.89
47.1222	554.79
47.1366	539.16
47.1511	486.19
47.1655	533.31
47.1800	514.79
47.1944	475.41
47.2088	497.54
47.2233	484.48
47.2377	480.28
47.2522	483.47
47.2666	496.99
47.2810	522.65
47.2955	461.88
47.3099	466.65
47.3244	469.73
47.3388	503.23
47.3532	523.96
47.3677	524.71
47.3821	511.19
47.3966	519.58
47.4110	502.02
47.4254	500.03
47.4399	496.36
47.4543	526.55
47.4688	534.48
47.4832	511.98
47.4976	510.80
47.5121	511.75
47.5265	503.88
47.5410	490.71
47.5554	485.02
47.5698	498.27
47.5843	477.34
47.5987	531.50
47.6132	497.79
47.6276	503.84
47.6420	496.55
47.6565	503.91
47.6709	488.19
47.6854	527.41
47.6998	534.12
47.7142	514.18
47.7287	496.61
47.7431	509.84
47.7576	546.13
47.7720	513.38
47.7864	490.97
47.8009	509.72
47.8153	515.59
47.8298	495.41
47.8442	504.38
47.8586	539.26
47.8731	514.90
47.8875	472.37
47.9020	501.52
47.9164	505.63
47.9308	503.10
47.9453	494.54
47.9597	506.70
47.9742	495.57
47.9886	481.95
48.0030	467.91
48.0175	514.57
48.0319	483.53
48.0464	509.22
48.0608	517.96
48.0752	518.98
48.0897	558.98
48.1041	478.58
48.1186	511.45
48.1330	528.48
48.1474	494.75
48.1619	492.02
48.1763	487.67
48.1908	503.19
48.2052	517.72
48.2196	483.31
48.2341	518.60
48.2485	521.30
48.2630	470.20
48.2774	481.57
48.2918	513.72
48.3063	518.98
48.3207	527.86
48.3352	493.97
48.3496	513.34
48.3640	500.78
48.3785	484.68
48.3929	506.46
48.4074	500.44
48.4218	547.14
48.4362	494.61
48.4507	475.60
48.4651	539.60
48.4796	526.82
48.4940	496.60
48.5084	504.49
48.5229	503.95
48.5373	515.97
48.5518	505.78
48.5662	506.17
48.5806	537.59
48.5951	527.57
48.6095	512.95
48.6240	507.23
48.6384	529.66
48.6528	497.56
48.6673	508.04
48.6817	496.84
48.6962	543.85
48.7106	531.69
48.7250	507.08
48.7395	513.25
48.7539	520.35
48.7684	487.40
48.7828	533.37
48.7972	532.78
48.8117	555.31
48.8261	569.59
48.8406	541.99
48.8550	547.55
48.8694	543.60
48.8839	541.90
48.8983	540.30
48.9128	538.45
48.9272	526.72
48.9416	540.90
48.9561	540.93
48.9705	563.86
48.9850	543.85
48.9994	541.94
49.0139	610.12
49.0283	579.41
49.0427	602.09
49.0572	633.05
49.0716	671.43
49.0861	664.73
49.1005	689.78
49.1149	737.22
49.1294	710.51
49.1438	761.25
49.1583	825.49
49.1727	851.76
49.1871	880.21
49.2016	936.45
49.2160	1065.10
49.2305	1155.29
49.2449	1228.84
49.2593	1265.03
49.2738	1401.46
49.2882	1486.45
49.3027	1587.52
49.3171	1662.64
49.3315	1763.26
49.3460	1765.71
49.3604	1839.89
49.3749	1924.05
49.3893	1834.53
49.4037	1832.38
49.4182	1785.13
49.4326	1771.14
49.4471	1648.07
49.4615	1642.44
49.4759	1649.95
49.4904	1501.94
49.5048	1411.17
49.5193	1361.37
49.5337	1279.59
49.5481	1153.24
49.5626	1149.24
49.5770	1084.93
49.5915	1018.24
49.6059	902.93
49.6203	838.44
49.6348	860.16
49.6492	761.94
49.6637	761.14
49.6781	740.64
49.6925	677.56
49.7070	678.18
49.7214	634.71
49.7359	642.06
49.7503	614.66
49.7647	574.30
49.7792	602.54
49.7936	590.34
49.8081	537.56
49.8225	586.48
49.8369	577.29
49.8514	545.24
49.8658	582.16
49.8803	548.29
49.8947	540.30
49.9091	556.34
49.9236	492.70
49.9380	510.73
49.9525	528.37
49.9669	491.18
49.9813	531.13
49.9958	520.39
50.0102	512.44
50.0247	539.55
50.0391	523.77
50.0535	509.65
50.0680	537.07
50.0824	537.19
50.0969	574.53
50.1113	535.51
50.1257	531.62
50.1402	508.52
50.1546	508.75
50.1691	493.83
50.1835	513.26
50.1979	509.34
50.2124	500.63
50.2268	505.30
50.2413	512.32
50.2557	550.38
50.2701	505.87
50.2846	513.72
50.2990	479.68
50.3135	485.44
50.3279	493.67
50.3423	527.66
50.3568	538.37
50.3712	530.69
50.3857	504.16
50.4001	512.68
50.4145	542.58
50.4290	524.98
50.4434	496.66
50.4579	507.56
50.4723	512.59
50.4867	529.57
50.5012	516.38
50.5156	500.89
50.5301	510.69
50.5445	550.36
50.5589	538.24
50.5734	503.04
50.5878	497.68
50.6023	505.30
50.6167	486.76
50.6311	507.86
50.6456	500.95
50.6600	487.18
50.6745	460.32
50.6889	495.80
50.7033	508.25
50.7178	542.74
50.7322	484.82
50.7467	488.86
50.7611	462.14
50.7755	488.46
50.7900	525.82
50.8044	520.20
50.8189	485.03
50.8333	511.86
50.8477	524.82
50.8622	511.58
50.8766	515.57
50.8911	491.58
50.9055	521.68
50.9199	509.00
50.9344	482.76
50.9488	518.92
50.9633	487.67
50.9777	487.86
50.9921	483.67
51.0066	492.83
51.0210	508.55
51.0355	506.49
51.0499	528.92
51.0643	526.08
51.0788	488.35
51.0932	508.99
51.1077	545.38
51.1221	533.40
51.1365	511.09
51.1510	473.95
51.1654	489.51
51.1799	476.25
51.1943	522.34
51.2087	490.02
51.2232	491.04
51.2376	523.93
51.2521	534.82
51.2665	508.45
51.2809	490.31
51.2954	495.08
51.3098	505.03
51.3243	514.14
51.3387	486.05
51.3531	494.27
51.3676	569.56
51.3820	526.47
51.3965	500.34
51.4109	512.11
51.4253	532.43
51.4398	516.06
51.4542	494.30
51.4687	509.01
51.4831	505.02
51.4975	461.29
51.5120	479.30
51.5264	523.24
51.5409	500.79
51.5553	504.33
51.5697	498.22
51.5842	494.50
51.5986	518.07
51.6131	493.12
51.6275	482.41
51.6419	504.04
51.6564	498.95
51.6708	519.78
51.6853	509.23
51.6997	545.66
51.7141	510.83
51.7286	487.12
51.7430	500.24
51.7575	477.87
51.7719	498.60
51.7863	510.72
51.8008	502.66
51.8152	513.29
51.8297	482.83
51.8441	526.37
51.8585	516.55
51.8730	477.15
51.8874	461.79
51.9019	536.87
51.9163	515.00
51.9307	473.55
51.9452	505.97
51.9596	500.40
51.9741	502.51
51.9885	506.05
52.0029	519.83
52.0174	522.24
52.0318	486.77
52.0463	476.27
52.0607	515.35
52.0751	495.68
52.0896	511.17
52.1040	518.89
52.1185	530.55
52.1329	521.97
52.1473	488.77
52.1618	534.19
52.1762	501.42
52.1907	482.13
52.2051	515.28
52.2195	514.12
52.2340	539.07
52.2484	512.10
52.2629	487.21
52.2773	506.60
52.2917	518.29
52.3062	529.80
52.3206	501.62
52.3351	533.72
52.3495	521.08
52.3639	508.85
52.3784	501.16
52.3928	506.60
52.4073	533.38
52.4217	532.89
52.4361	535.80
52.4506	515.75
52.4650	491.27
52.4795	511.90
52.4939	492.02
52.5083	487.15
52.5228	504.46
52.5372	489.24
52.5517	504.45
52.5661	531.00
52.5805	465.48
52.5950	481.44
52.6094	500.25
52.6239	500.51
52.6383	504.64
52.6527	502.93
52.6672	511.11
52.6816	506.58
52.6961	470.75
52.7105	501.64
52.7250	495.58
52.7394	502.13
52.7538	523.70
52.7683	508.66
52.7827	514.17
52.7972	534.40
52.8116	514.85
52.8260	477.18
52.8405	514.54
52.8549	511.69
52.8694	479.97
52.8838	479.80
52.8982	485.65
52.9127	539.32
52.9271	505.05
52.9416	515.50
52.9560	513.71
52.9704	507.11
52.9849	510.84
52.9993	512.42
53.0138	496.48
53.0282	506.19
53.0426	467.83
53.0571	511.10
53.0715	508.73
53.0860	510.74
53.1004	476.58
53.1148	534.44
53.1293	517.09
53.1437	487.32
53.1582	489.94
53.1726	523.43
53.1870	495.10
53.2015	503.10
53.2159	501.74
53.2304	498.75
53.2448	500.22
53.2592	530.85
53.2737	482.49
53.2881	477.09
53.3026	491.33
53.3170	500.25
53.3314	526.45
53.3459	523.69
53.3603	481.68
53.3748	528.15
53.3892	546.56
53.4036	506.29
53.4181	513.31
53.4325	528.67
53.4470	496.07
53.4614	511.39
53.4758	523.41
53.4903	547.79
53.5047	536.98
53.5192	508.75
53.5336	494.15
53.5480	499.87
53.5625	518.27
53.5769	521.88
53.5914	522.33
53.6058	506.35
53.6202	497.22
53.6347	517.55
53.6491	536.05
53.6636	500.86
53.6780	495.38
53.6924	474.20
53.7069	499.08
53.7213	485.58
53.7358	476.78
53.7502	513.41
53.7646	569.06
53.7791	530.50
53.7935	545.85
53.8080	515.22
53.8224	518.06
53.8368	525.64
53.8513	504.38
53.8657	486.56
53.8802	486.43
53.8946	488.78
53.9090	507.40
53.9235	503.16
53.9379	524.11
53.9524	536.51
53.9668	508.26
53.9812	530.57
53.9957	519.82
54.0101	521.95
54.0246	505.37
54.0390	518.37
54.0534	495.32
54.0679	510.40
54.0823	498.72
54.0968	517.41
54.1112	544.77
54.1256	564.54
54.1401	543.37
54.1545	542.50
54.1690	532.52
54.1834	543.38
54.1978	576.57
54.2123	575.40
54.2267	592.06
54.2412	613.98
54.2556	629.04
54.2700	617.45
54.2845	626.65
54.2989	679.91
54.3134	649.02
54.3278	615.47
54.3422	602.04
54.3567	604.58
54.3711	600.37
54.3856	571.85
54.4000	580.77
54.4144	610.51
54.4289	638.57
54.4433	595.20
54.4578	594.22
54.4722	582.03
54.4866	551.85
54.5011	540.28
54.5155	551.57
54.5300	524.49
54.5444	497.56
54.5588	515.14
54.5733	520.89
54.5877	552.51
54.6022	530.54
54.6166	503.48
54.6310	517.13
54.6455	507.25
54.6599	505.96
54.6744	511.30
54.6888	521.65
54.7032	503.20
54.7177	498.81
54.7321	522.40
54.7466	528.66
54.7610	532.41
54.7754	541.62
54.7899	514.09
54.8043	518.42
54.8188	507.97
54.8332	520.76
54.8476	513.47
54.8621	504.56
54.8765	507.30
54.8910	478.07
54.9054	517.63
54.9198	505.78
54.9343	528.38
54.9487	522.59
54.9632	480.65
54.9776	452.30
54.9920	489.70
55.0065	508.28
55.0209	542.05
55.0354	530.35
55.0498	532.87
55.0642	520.33
55.0787	509.68
55.0931	543.28
55.1076	517.76
55.1220	535.07
55.1364	523.82
55.1509	503.57
55.1653	517.20
55.1798	506.72
55.1942	491.56
55.2086	493.70
55.2231	539.74
55.2375	526.89
55.2520	531.81
55.2664	526.17
55.2808	474.30
55.2953	474.36
55.3097	491.16
55.3242	510.18
55.3386	505.19
55.3530	499.57
55.3675	523.11
55.3819	514.70
55.3964	516.96
55.4108	496.54
55.4252	513.06
55.4397	520.94
55.4541	550.14
55.4686	553.85
55.4830	528.96
55.4974	515.77
55.5119	519.98
55.5263	540.61
55.5408	514.83
55.5552	537.47
55.5696	525.77
55.5841	509.59
55.5985	509.18
55.6130	499.43
55.6274	484.06
55.6418	494.98
55.6563	516.06
55.6707	498.79
55.6852	542.45
55.6996	546.01
55.7140	530.84
55.7285	529.29
55.7429	513.89
55.7574	512.23
55.7718	524.53
55.7862	538.43
55.8007	522.42
55.8151	515.56
55.8296	476.11
55.8440	489.19
55.8584	519.95
55.8729	547.36
55.8873	515.73
55.9018	524.29
55.9162	498.91
55.9306	531.08
55.9451	524.34
55.9595	524.83
55.9740	546.00
55.9884	525.05
56.0028	513.61
56.0173	543.88
56.0317	575.30
56.0462	522.27
56.0606	521.02
56.0750	493.98
56.0895	533.44
56.1039	548.15
56.1184	466.00
56.1328	506.69
56.1472	489.54
56.1617	505.77
56.1761	518.11
56.1906	489.56
56.2050	520.56
56.2194	531.64
56.2339	526.11
56.2483	530.49
56.2628	521.19
56.2772	488.60
56.2916	552.03
56.3061	529.08
56.3205	526.43
56.3350	541.34
56.3494	516.53
56.3639	532.56
56.3783	501.73
56.3927	505.49
56.4072	521.09
56.4216	512.68
56.4361	533.25
56.4505	511.29
56.4649	525.11
56.4794	499.37
56.4938	502.39
56.5083	487.97
56.5227	519.34
56.5371	515.24
56.5516	498.31
56.5660	479.51
56.5805	490.38
56.5949	521.68
56.6093	563.18
56.6238	507.65
56.6382	510.33
56.6527	544.01
56.6671	527.51
56.6815	512.86
56.6960	524.00
56.7104	558.43
56.7249	502.44
56.7393	492.43
56.7537	490.24
56.7682	522.53
56.7826	467.53
56.7971	478.60
56.8115	538.82
56.8259	535.35
56.8404	540.83
56.8548	502.82
56.8693	547.99
56.8837	537.83
56.8981	565.50
56.9126	512.10
56.9270	522.04
56.9415	504.41
56.9559	539.72
56.9703	546.13
56.9848	500.60
56.9992	529.22
57.0137	518.02
57.0281	528.49
57.0425	573.92
57.0570	560.83
57.0714	528.22
57.0859	546.39
57.1003	508.95
57.1147	549.86
57.1292	549.61
57.1436	529.53
57.1581	520.25
57.1725	524.70
57.1869	522.36
57.2014	484.07
57.2158	524.86
57.2303	518.15
57.2447	511.51
57.2591	488.83
57.2736	517.11
57.2880	514.98
57.3025	482.40
57.3169	536.54
57.3313	529.32
57.3458	521.78
57.3602	521.58
57.3747	543.55
57.3891	544.51
57.4035	534.43
57.4180	506.08
57.4324	529.24
57.4469	525.35
57.4613	542.47
57.4757	541.15
57.4902	515.93
57.5046	521.88
57.5191	526.83
57.5335	521.13
57.5479	541.42
57.5624	499.32
57.5768	487.89
57.5913	501.04
57.6057	543.04
57.6201	541.40
57.6346	535.98
57.6490	541.11
57.6635	538.82
57.6779	559.66
57.6923	530.23
57.7068	542.19
57.7212	540.46
57.7357	521.13
57.7501	569.84
57.7645	572.35
57.7790	600.15
57.7934	627.70
57.8079	592.05
57.8223	658.54
57.8367	660.98
57.8512	712.62
57.8656	782.29
57.8801	753.10
57.8945	753.54
57.9089	762.34
57.9234	784.62
57.9378	732.42
57.9523	643.92
57.9667	613.55
57.9811	655.74
57.9956	667.03
58.0100	661.95
58.0245	691.72
58.0389	685.07
58.0533	654.23
58.0678	657.40
58.0822	675.16
58.0967	648.50
58.1111	615.33
58.1255	619.19
58.1400	563.67
58.1544	540.63
58.1689	560.50
58.1833	544.57
58.1977	542.08
58.2122	538.05
58.2266	550.39
58.2411	545.85
58.2555	572.16
58.2699	542.65
58.2844	546.42
58.2988	528.14
58.3133	502.73
58.3277	515.32
58.3421	527.50
58.3566	530.70
58.3710	550.37
58.3855	537.96
58.3999	498.88
58.4143	526.13
58.4288	554.11
58.4432	534.16
58.4577	514.03
58.4721	538.91
58.4865	502.87
58.5010	513.80
58.5154	533.38
58.5299	533.27
58.5443	525.11
58.5587	528.30
58.5732	524.95
58.5876	543.58
58.6021	521.52
58.6165	526.29
58.6309	538.98
58.6454	528.78
58.6598	567.42
58.6743	514.70
58.6887	521.53
58.7031	573.66
58.7176	558.49
58.7320	507.34
58.7465	543.34
58.7609	513.33
58.7753	532.50
58.7898	550.33
58.8042	521.72
58.8187	524.79
58.8331	541.61
58.8475	514.91
58.8620	541.09
58.8764	524.66
58.8909	551.58
58.9053	542.50
58.9197	522.48
58.9342	557.42
58.9486	535.25
58.9631	541.80
58.9775	537.52
58.9919	527.58
59.0064	508.04
59.0208	523.12
59.0353	530.88
59.0497	519.05
59.0641	563.20
59.0786	544.82
59.0930	551.47
59.1075	498.17
59.1219	547.69
59.1363	550.83
59.1508	530.62
59.1652	505.93
59.1797	542.54
59.1941	522.11
59.2085	534.20
59.2230	546.46
59.2374	545.92
59.2519	545.48
59.2663	504.28
59.2807	583.27
59.2952	538.68
59.3096	547.68
59.3241	565.82
59.3385	561.73
59.3529	581.34
59.3674	590.78
59.3818	604.84
59.3963	585.84
59.4107	559.97
59.4251	582.75
59.4396	584.06
59.4540	552.11
59.4685	578.46
59.4829	537.01
59.4973	526.01
59.5118	547.99
59.5262	531.41
59.5407	544.29
59.5551	537.12
59.5695	540.02
59.5840	546.22
59.5984	525.25
59.6129	599.87
59.6273	570.27
59.6417	501.44
59.6562	540.62
59.6706	554.49
59.6851	516.80
59.6995	526.20
59.7139	496.78
59.7284	530.36
59.7428	529.73
59.7573	534.49
59.7717	514.16
59.7861	522.27
59.8006	514.11
59.8150	541.51
59.8295	535.61
59.8439	537.90
59.8583	543.01
59.8728	556.87
59.8872	541.59
59.9017	555.50
59.9161	519.77
59.9305	521.66
59.9450	522.50
59.9594	519.91
59.9739	547.99
59.9883	522.25
60.0027	499.48
60.0172	523.85
60.0316	509.17
60.0461	514.71
60.0605	534.32
60.0750	519.10
60.0894	531.89
60.1038	572.05
60.1183	560.96
60.1327	495.21
60.1472	504.19
60.1616	546.78
60.1760	552.14
60.1905	477.98
60.2049	533.38
60.2194	533.34
60.2338	523.35
60.2482	521.92
60.2627	519.60
60.2771	519.01
60.2916	543.78
60.3060	540.96
60.3204	528.42
60.3349	552.86
60.3493	550.00
60.3638	564.26
60.3782	536.76
60.3926	506.92
60.4071	534.77
60.4215	540.07
60.4360	546.62
60.4504	540.27
60.4648	558.14
60.4793	557.08
60.4937	547.14
60.5082	492.06
60.5226	495.83
60.5370	518.99
60.5515	533.84
60.5659	505.56
60.5804	518.13
60.5948	517.37
60.6092	530.32
60.6237	534.19
60.6381	547.02
60.6526	516.97
60.6670	525.33
60.6814	562.09
60.6959	537.67
60.7103	539.49
60.7248	542.20
60.7392	529.75
60.7536	495.95
60.7681	470.16
60.7825	495.18
60.7970	531.71
60.8114	508.06
60.8258	534.93
60.8403	514.22
60.8547	505.31
60.8692	511.30
60.8836	546.67
60.8980	521.49
60.9125	516.94
60.9269	519.92
60.9414	539.36
60.9558	517.28
60.9702	563.55
60.9847	585.70
60.9991	557.88
61.0136	545.02
61.0280	570.18
61.0424	518.13
61.0569	496.06
61.0713	531.51
61.0858	544.37
61.1002	536.60
61.1146	566.55
61.1291	516.55
61.1435	504.83
61.1580	563.65
61.1724	579.19
61.1868	549.26
61.2013	567.40
61.2157	532.54
61.2302	526.63
61.2446	534.44
61.2590	543.37
61.2735	524.65
61.2879	544.92
61.3024	509.29
61.3168	523.86
61.3312	553.83
61.3457	559.13
61.3601	541.55
61.3746	504.49
61.3890	499.00
61.4034	552.33
61.4179	547.83
61.4323	530.72
61.4468	504.64
61.4612	553.95
61.4756	539.23
61.4901	538.27
61.5045	549.69
61.5190	547.53
61.5334	545.27
61.5478	553.51
61.5623	565.04
61.5767	581.23
61.5912	530.06
61.6056	542.28
61.6200	540.31
61.6345	551.66
61.6489	557.99
61.6634	529.35
61.6778	518.23
61.6922	538.14
61.7067	547.19
61.7211	585.01
61.7356	549.49
61.7500	534.60
61.7644	526.45
61.7789	547.95
61.7933	575.20
61.8078	541.70
61.8222	545.19
61.8366	545.66
61.8511	547.60
61.8655	521.04
61.8800	508.07
61.8944	584.81
61.9088	533.69
61.9233	534.34
61.9377	519.46
61.9522	535.18
61.9666	555.82
61.9810	524.87
61.9955	513.70
62.0099	502.30
62.0244	551.29
62.0388	547.11
62.0532	551.16
62.0677	522.47
62.0821	538.76
62.0966	557.58
62.1110	528.44
62.1254	602.48
62.1399	577.95
62.1543	512.41
62.1688	544.80
62.1832	532.57
62.1976	532.53
62.2121	543.12
62.2265	554.84
62.2410	563.66
62.2554	529.98
62.2698	534.58
62.2843	551.50
62.2987	537.60
62.3132	557.35
62.3276	571.28
62.3420	553.35
62.3565	566.87
62.3709	573.40
62.3854	541.44
62.3998	521.90
62.4142	535.54
62.4287	559.15
62.4431	553.78
62.4576	543.30
62.4720	553.18
62.4864	545.35
62.5009	549.93
62.5153	553.19
62.5298	563.41
62.5442	553.05
62.5586	578.54
62.5731	558.05
62.5875	538.84
62.6020	523.85
62.6164	535.53
62.6308	566.80
62.6453	572.96
62.6597	593.61
62.6742	562.78
62.6886	528.92
62.7030	533.44
62.7175	555.41
62.7319	547.17
62.7464	590.30
62.7608	540.57
62.7752	573.74
62.7897	558.80
62.8041	546.10
62.8186	569.04
62.8330	579.52
62.8474	585.81
62.8619	574.40
62.8763	585.08
62.8908	552.06
62.9052	557.77
62.9196	578.06
62.9341	581.14
62.9485	552.54
62.9630	563.36
62.9774	592.58
62.9918	582.09
63.0063	567.97
63.0207	572.42
63.0352	558.88
63.0496	579.66
63.0640	574.06
63.0785	579.59
63.0929	582.92
63.1074	556.87
63.1218	578.76
63.1362	560.76
63.1507	570.81
63.1651	560.53
63.1796	541.67
63.1940	547.75
63.2084	568.04
63.2229	581.76
63.2373	599.21
63.2518	583.56
63.2662	555.00
63.2806	607.65
63.2951	579.12
63.3095	577.45
63.3240	599.37
63.3384	608.57
63.3528	598.21
63.3673	607.06
63.3817	611.36
63.3962	593.99
63.4106	584.07
63.4250	609.84
63.4395	638.65
63.4539	650.95
63.4684	691.50
63.4828	742.90
63.4972	753.10
63.5117	791.08
63.5261	809.43
63.5406	895.44
63.5550	914.16
63.5694	928.52
63.5839	979.47
63.5983	945.30
63.6128	868.39
63.6272	843.55
63.6416	798.31
63.6561	778.78
63.6705	782.25
63.6850	755.68
63.6994	821.72
63.7138	844.72
63.7283	816.23
63.7427	828.18
63.7572	833.04
63.7716	784.64
63.7861	776.73
63.8005	744.66
63.8149	715.86
63.8294	726.57
63.8438	650.78
63.8583	648.11
63.8727	661.37
63.8871	605.67
63.9016	645.61
63.9160	625.32
63.9305	621.67
63.9449	583.79
63.9593	555.61
63.9738	593.78
63.9882	600.94
64.0027	621.89
64.0171	593.02
64.0315	613.47
64.0460	624.14
64.0604	571.49
64.0749	560.54
64.0893	650.50
64.1037	612.49
64.1182	592.06
64.1326	622.80
64.1471	587.39
64.1615	611.96
64.1759	612.38
64.1904	619.94
64.2048	617.70
64.2193	621.01
64.2337	643.91
64.2481	613.01
64.2626	591.87
64.2770	581.49
64.2915	596.94
64.3059	636.21
64.3203	613.49
64.3348	580.42
64.3492	584.70
64.3637	586.85
64.3781	586.73
64.3925	596.70
64.4070	596.69
64.4214	613.03
64.4359	614.15
64.4503	582.03
64.4647	590.03
64.4792	601.20
64.4936	651.37
64.5081	596.76
64.5225	601.51
64.5369	615.74
64.5514	604.84
64.5658	622.27
64.5803	641.98
64.5947	620.71
64.6091	654.74
64.6236	666.03
64.6380	691.08
64.6525	649.56
64.6669	628.77
64.6813	614.01
64.6958	629.21
64.7102	668.45
64.7247	671.27
64.7391	678.18
64.7535	715.90
64.7680	690.58
64.7824	696.90
64.7969	726.75
64.8113	783.53
64.8257	775.58
64.8402	801.25
64.8546	812.75
64.8691	837.76
64.8835	822.44
64.8979	855.78
64.9124	882.24
64.9268	868.81
64.9413	920.06
64.9557	930.17
64.9701	971.57
64.9846	1023.26
64.9990	1091.51
65.0135	1176.53
65.0279	1335.84
65.0423	1639.34
65.0568	1967.33
65.0712	2465.32
65.0857	3260.21
65.1001	4116.70
65.1145	5661.55
65.1290	7617.21
65.1434	9046.05
65.1579	10664.67
65.1723	11507.91
65.1867	11166.59
65.2012	10094.78
65.2156	8454.36
65.2301	6690.92
65.2445	5272.00
65.2589	4333.49
65.2734	4106.30
65.2878	4281.34
65.3023	4759.58
65.3167	5505.22
65.3311	6384.97
65.3456	6873.18
65.3600	6941.27
65.3745	6435.10
65.3889	5544.20
65.4033	4433.16
65.4178	3520.24
65.4322	2819.84
65.4467	2116.77
65.4611	1688.49
65.4755	1478.29
65.4900	1243.45
65.5044	1116.90
65.5189	1021.65
65.5333	993.81
65.5477	942.38
65.5622	866.37
65.5766	834.73
65.5911	817.13
65.6055	806.29
65.6199	790.62
65.6344	750.21
65.6488	724.68
65.6633	734.87
65.6777	711.66
65.6921	716.39
65.7066	736.28
65.7210	691.18
65.7355	677.25
65.7499	709.33
65.7643	639.73
65.7788	701.11
65.7932	681.09
65.8077	681.59
65.8221	639.61
65.8365	659.16
65.8510	673.22
65.8654	654.49
65.8799	668.42
65.8943	616.81
65.9087	645.13
65.9232	656.72
65.9376	667.55
65.9521	655.04
65.9665	622.31
65.9809	614.95
65.9954	644.82
66.0098	643.44
66.0243	635.96
66.0387	600.13
66.0531	599.86
66.0676	618.21
66.0820	635.66
66.0965	613.34
66.1109	604.92
66.1253	616.72
66.1398	599.29
66.1542	606.39
66.1687	607.51
66.1831	651.58
66.1975	653.74
66.2120	628.88
66.2264	615.12
66.2409	626.26
66.2553	617.14
66.2697	599.92
66.2842	611.54
66.2986	608.61
66.3131	632.17
66.3275	597.63
66.3419	571.60
66.3564	610.75
66.3708	594.74
66.3853	562.84
66.3997	597.81
66.4141	623.95
66.4286	629.99
66.4430	603.73
66.4575	618.06
66.4719	611.43
66.4863	586.42
66.5008	590.13
66.5152	568.43
66.5297	589.33
66.5441	556.40
66.5585	560.28
66.5730	622.61
66.5874	597.00
66.6019	604.25
66.6163	591.13
66.6307	587.47
66.6452	603.31
66.6596	620.36
66.6741	591.74
66.6885	560.66
66.7029	610.29
66.7174	611.16
66.7318	547.87
66.7463	575.51
66.7607	577.28
66.7751	593.60
66.7896	565.86
66.8040	584.37
66.8185	632.17
66.8329	577.54
66.8473	596.86
66.8618	593.11
66.8762	608.47
66.8907	572.73
66.9051	593.69
66.9195	576.53
66.9340	584.46
66.9484	615.21
66.9629	567.81
66.9773	557.10
66.9917	573.20
67.0062	573.28
67.0206	546.63
67.0351	523.94
67.0495	577.98
67.0639	571.08
67.0784	566.55
67.0928	579.23
67.1073	588.20
67.1217	568.62
67.1361	583.70
67.1506	569.09
67.1650	555.13
67.1795	579.46
67.1939	575.50
67.2083	573.97
67.2228	563.17
67.2372	572.87
67.2517	579.02
67.2661	609.94
67.2805	593.21
67.2950	584.73
67.3094	563.29
67.3239	555.51
67.3383	602.51
67.3527	584.91
67.3672	552.94
67.3816	558.21
67.3961	559.96
67.4105	577.92
67.4250	624.35
67.4394	599.28
67.4538	570.60
67.4683	590.97
67.4827	568.80
67.4972	591.10
67.5116	544.83
67.5260	556.02
67.5405	571.07
67.5549	569.40
67.5694	565.28
67.5838	567.88
67.5982	566.62
67.6127	560.41
67.6271	556.58
67.6416	577.33
67.6560	591.90
67.6704	534.08
67.6849	561.52
67.6993	548.70
67.7138	587.52
67.7282	561.67
67.7426	553.63
67.7571	575.11
67.7715	535.78
67.7860	557.62
67.8004	532.80
67.8148	567.02
67.8293	599.59
67.8437	563.19
67.8582	575.56
67.8726	580.77
67.8870	547.59
67.9015	555.63
67.9159	560.14
67.9304	551.05
67.9448	606.94
67.9592	533.04
67.9737	565.27
67.9881	630.71
68.0026	579.28
68.0170	585.07
68.0314	602.63
68.0459	558.27
68.0603	556.02
68.0748	569.28
68.0892	565.43
68.1036	537.79
68.1181	565.61
68.1325	572.11
68.1470	555.46
68.1614	591.37
68.1758	585.96
68.1903	529.77
68.2047	560.14
68.2192	597.42
68.2336	579.44
68.2480	586.65
68.2625	553.91
68.2769	539.32
68.2914	561.92
68.3058	592.19
68.3202	603.26
68.3347	570.21
68.3491	571.62
68.3636	548.59
68.3780	559.88
68.3924	581.60
68.4069	542.68
68.4213	551.54
68.4358	536.52
68.4502	580.80
68.4646	566.68
68.4791	615.09
68.4935	584.36
68.5080	543.70
68.5224	613.12
68.5368	572.79
68.5513	578.33
68.5657	573.47
68.5802	570.46
68.5946	586.31
68.6090	564.63
68.6235	556.42
68.6379	546.17
68.6524	577.58
68.6668	556.25
68.6812	561.79
68.6957	555.95
68.7101	587.27
68.7246	595.77
68.7390	561.03
68.7534	612.60
68.7679	562.41
68.7823	563.61
68.7968	558.74
68.8112	595.24
68.8256	611.08
68.8401	589.10
68.8545	531.85
68.8690	612.36
68.8834	565.68
68.8978	568.03
68.9123	577.78
68.9267	548.73
68.9412	612.31
68.9556	567.23
68.9700	537.54
68.9845	557.22
68.9989	586.61
69.0134	579.33
69.0278	549.09
69.0422	606.22
69.0567	595.77
69.0711	552.66
69.0856	573.86
69.1000	564.77
69.1144	552.52
69.1289	577.62
69.1433	578.29
69.1578	564.90
69.1722	563.68
69.1866	550.38
69.2011	525.48
69.2155	550.35
69.2300	539.27
69.2444	592.23
69.2588	580.33
69.2733	577.12
69.2877	589.79
69.3022	624.27
69.3166	588.02
69.3310	608.15
69.3455	583.49
69.3599	545.54
69.3744	601.16
69.3888	559.29
69.4032	594.19
69.4177	611.06
69.4321	577.68
69.4466	560.52
69.4610	580.08
69.4754	547.93
69.4899	592.36
69.5043	587.98
69.5188	569.62
69.5332	603.32
69.5476	624.27
69.5621	591.48
69.5765	545.88
69.5910	558.41
69.6054	608.34
69.6198	568.74
69.6343	580.11
69.6487	535.69
69.6632	615.86
69.6776	570.02
69.6920	590.87
69.7065	630.76
69.7209	588.01
69.7354	569.29
69.7498	618.06
69.7642	558.95
69.7787	587.59
69.7931	599.54
69.8076	575.66
69.8220	582.56
69.8364	583.02
69.8509	582.56
69.8653	593.56
69.8798	604.84
69.8942	584.94
69.9086	584.64
69.9231	596.64
69.9375	583.29
69.9520	555.55
69.9664	551.17
69.9808	525.84
69.9953	550.36
70.0097	555.91
70.0242	543.06
70.0386	596.61
70.0530	609.21
70.0675	579.74
70.0819	593.93
70.0964	614.67
70.1108	563.54
70.1252	590.72
70.1397	581.40
70.1541	536.90
70.1686	539.94
70.1830	537.60
70.1974	589.34
70.2119	564.03
70.2263	547.61
70.2408	615.91
70.2552	553.06
70.2696	582.07
70.2841	613.78
70.2985	572.19
70.3130	597.47
70.3274	584.07
70.3418	564.98
70.3563	551.65
70.3707	551.20
70.3852	598.61
70.3996	581.73
70.4140	546.40
70.4285	606.47
70.4429	578.42
70.4574	584.85
70.4718	599.83
70.4862	565.55
70.5007	599.88
70.5151	597.69
70.5296	572.51
70.5440	550.13
70.5584	585.28
70.5729	617.32
70.5873	530.87
70.6018	579.94
70.6162	601.20
70.6306	602.89
70.6451	591.23
70.6595	570.41
70.6740	577.03
70.6884	618.70
70.7028	638.63
70.7173	579.08
70.7317	556.28
70.7462	565.36
70.7606	575.09
70.7750	593.35
70.7895	589.23
70.8039	585.67
70.8184	592.54
70.8328	592.54
70.8472	593.69
70.8617	541.79
70.8761	545.34
70.8906	593.96
70.9050	626.77
70.9194	568.64
70.9339	603.07
70.9483	616.52
70.9628	631.87
70.9772	596.70
70.9916	612.66
71.0061	598.46
71.0205	592.84
71.0350	524.39
71.0494	518.66
71.0638	574.83
71.0783	570.26
71.0927	603.08
71.1072	623.60
71.1216	578.76
71.1361	562.96
71.1505	567.68
71.1649	574.82
71.1794	565.74
71.1938	564.75
71.2083	615.03
71.2227	567.68
71.2371	550.70
71.2516	570.80
71.2660	531.59
71.2805	518.42
71.2949	529.01
71.3093	530.82
71.3238	564.16
71.3382	606.39
71.3527	580.07
71.3671	596.92
71.3815	638.11
71.3960	567.98
71.4104	509.72
71.4249	562.87
71.4393	565.13
71.4537	516.91
71.4682	569.83
71.4826	559.07
71.4971	569.75
71.5115	565.31
71.5259	549.25
71.5404	577.15
71.5548	574.12
71.5693	599.83
71.5837	588.99
71.5981	543.42
71.6126	581.49
71.6270	597.24
71.6415	601.39
71.6559	588.58
71.6703	555.89
71.6848	572.76
71.6992	569.76
71.7137	565.77
71.7281	580.28
71.7425	583.97
71.7570	551.93
71.7714	572.43
71.7859	518.57
71.8003	581.09
71.8147	645.94
71.8292	599.55
71.8436	568.77
71.8581	565.48
71.8725	598.39
71.8869	519.68
71.9014	552.39
71.9158	607.61
71.9303	657.34
71.9447	657.15
71.9591	582.01
71.9736	520.16
71.9880	548.81
72.0025	569.36
72.0169	530.80
72.0313	475.59
72.0458	563.31
72.0602	610.59
72.0747	600.37
72.0891	629.29
72.1035	613.15
72.1180	576.89
72.1324	580.55
72.1469	596.59
72.1613	620.38
72.1757	623.74
72.1902	573.21
72.2046	569.79
72.2191	534.35
72.2335	567.84
72.2479	549.94
72.2624	535.32
72.2768	656.76
72.2913	578.67
72.3057	587.11
72.3201	689.83
72.3346	673.49
72.3490	608.91
72.3635	630.24
72.3779	591.43
72.3923	568.90
72.4068	571.89
72.4212	557.61
72.4357	608.29
72.4501	595.75
72.4645	566.51
72.4790	543.16
72.4934	589.38
72.5079	572.95
72.5223	513.32
72.5367	561.65
72.5512	608.72
72.5656	637.28
72.5801	571.64
72.5945	409.74
72.6089	416.58
72.6234	529.99
72.6378	552.79
72.6523	616.43
72.6667	623.61
72.6811	599.74
72.6956	551.18
72.7100	542.39
72.7245	478.23
72.7389	498.72
72.7533	530.87
72.7678	539.19
72.7822	597.71
72.7967	544.87
72.8111	515.24
72.8255	568.07
72.8400	586.55
72.8544	520.39
72.8689	600.11
72.8833	567.35

Result vector
22.1120	582.70
22.1264	584.04
22.1409	526.03
22.1553	549.66
22.1697	627.65
22.1842	572.08
22.1986	504.93
22.2131	539.05
22.2275	602.70
22.2419	638.38
22.2564	640.18
22.2708	502.31
22.2853	575.84
22.2997	578.62
22.3141	637.89
22.3286	537.85
22.3430	504.60
22.3575	560.52
22.3719	570.53
22.3863	604.20
22.4008	580.88
22.4152	656.39
22.4297	660.95
22.4441	606.91
22.4585	677.08
22.4730	668.26
22.4874	631.13
22.5019	572.76
22.5163	596.57
22.5307	593.87
22.5452	595.05
22.5596	594.20
22.5741	597.12
22.5885	570.61
22.6029	615.64
22.6174	556.63
22.6318	563.30
22.6463	582.50
22.6607	652.78
22.6751	563.59
22.6896	574.08
22.7040	579.93
22.7185	513.32
22.7329	508.66
22.7473	477.14
22.7618	482.28
22.7762	544.86
22.7907	586.25
22.8051	696.83
22.8195	590.12
22.8340	500.88
22.8484	609.67
22.8629	619.59
22.8773	602.44
22.8917	632.66
22.9062	658.47
22.9206	560.78
22.9351	528.90
22.9495	603.96
22.9639	563.67
22.9784	563.29
22.9928	612.53
23.0073	612.26
23.0217	627.18
23.0361	586.78
23.0506	584.58
23.0650	621.57
23.0795	594.83
23.0939	595.13
23.1083	511.61
23.1228	622.71
23.1372	542.68
23.1517	512.15
23.1661	591.87
23.1806	580.13
23.1950	593.91
23.2094	529.89
23.2239	589.47
23.2383	562.08
23.2528	583.19
23.2672	554.21
23.2816	598.84
23.2961	545.31
23.3105	568.75
23.3250	513.37
23.3394	581.09
23.3538	600.41
23.3683	584.32
23.3827	553.20
23.3972	519.61
23.4116	606.20
23.4260	580.03
23.4405	597.68
23.4549	544.93
23.4694	494.39
23.4838	582.34
23.4982	561.90
23.5127	516.55
23.5271	590.61
23.5416	533.59
23.5560	540.38
23.5704	600.89
23.5849	541.55
23.5993	607.44
23.6138	599.93
23.6282	504.57
23.6426	469.70
23.6571	504.56
23.6715	519.31
23.6860	569.80
23.7004	551.99
23.7148	529.18
23.7293	491.31
23.7437	565.97
23.7582	573.39
23.7726	578.06
23.7870	589.83
23.8015	563.15
23.8159	596.28
23.8304	618.00
23.8448	550.90
23.8592	555.95
23.8737	502.30
23.8881	514.56
23.9026	545.83
23.9170	623.36
23.9314	536.46
23.9459	524.90
23.9603	518.11
23.9748	541.46
23.9892	573.77
24.0036	569.85
24.0181	623.10
24.0325	586.48
24.0470	611.34
24.0614	557.83
24.0758	528.28
24.0903	541.04
24.1047	640.96
24.1192	590.78
24.1336	525.40
24.1480	505.20
24.1625	587.78
24.1769	581.22
24.1914	573.42
24.2058	548.27
24.2202	542.01
24.2347	575.12
24.2491	633.87
24.2636	611.39
24.2780	595.65
24.2924	570.94
24.3069	623.17
24.3213	602.37
24.3358	609.48
24.3502	547.47
24.3646	521.66
24.3791	536.27
24.3935	536.96
24.4080	585.24
24.4224	558.44
24.4368	527.25
24.4513	569.03
24.4657	515.85
24.4802	513.74
24.4946	575.61
24.5090	572.20
24.5235	509.18
24.5379	519.36
24.5524	539.69
24.5668	555.89
24.5812	571.06
24.5957	588.57
24.6101	601.03
24.6246	554.71
24.6390	528.99
24.6534	546.17
24.6679	559.97
24.6823	535.62
24.6968	536.88
24.7112	559.76
24.7256	525.00
24.7401	574.87
24.7545	552.64
24.7690	540.28
24.7834	520.38
24.7978	558.35
24.8123	536.50
24.8267	597.96
24.8412	527.33
24.8556	598.60
24.8700	598.72
24.8845	559.27
24.8989	529.18
24.9134	517.21
24.9278	533.19
24.9422	481.84
24.9567	523.53
24.9711	514.96
24.9856	543.39
25.0000	582.30
25.0144	538.15
25.0289	529.30
25.0433	518.70
25.0578	561.32
25.0722	559.96
25.0866	536.94
25.1011	502.25
25.1155	606.08
25.1300	507.11
25.1444	543.78
25.1588	597.13
25.1733	571.40
25.1877	519.82
25.2022	535.20
25.2166	512.40
25.2310	550.89
25.2455	516.06
25.2599	521.66
25.2744	532.78
25.2888	501.05
25.3032	565.01
25.3177	532.45
25.3321	541.95
25.3466	536.31
25.3610	543.12
25.3754	542.28
25.3899	527.25
25.4043	538.82
25.4188	582.50
25.4332	562.42
25.4476	542.69
25.4621	520.49
25.4765	523.33
25.4910	493.98
25.5054	536.53
25.5198	550.80
25.5343	560.06
25.5487	557.48
25.5632	510.20
25.5776	548.46
25.5920	525.14
25.6065	535.70
25.6209	551.23
25.6354	575.14
25.6498	522.79
25.6642	528.45
25.6787	501.90
25.6931	504.48
25.7076	563.36
25.7220	558.90
25.7364	545.40
25.7509	550.05
25.7653	497.80
25.7798	520.39
25.7942	509.11
25.8086	519.58
25.8231	557.92
25.8375	562.57
25.8520	550.42
25.8664	547.78
25.8808	539.66
25.8953	542.61
25.9097	569.76
25.9242	566.32
25.9386	587.59
25.9530	560.87
25.9675	512.33
25.9819	545.66
25.9964	537.89
26.0108	544.55
26.0252	490.79
26.0397	492.08
26.0541	512.40
26.0686	509.40
26.0830	519.80
26.0974	517.46
26.1119	498.84
26.1263	533.28
26.1408	516.81
26.1552	525.13
26.1696	536.61
26.1841	500.87
26.1985	522.48
26.2130	533.08
26.2274	532.93
26.2418	542.25
26.2563	533.84
26.2707	510.46
26.2852	528.88
26.2996	543.76
26.3140	502.52
26.3285	521.73
26.3429	548.67
26.3574	541.61
26.3718	534.03
26.3862	559.43
26.4007	512.94
26.4151	501.81
26.4296	540.24
26.4440	526.22
26.4584	516.60
26.4729	519.50
26.4873	535.31
26.5018	519.58
26.5162	507.95
26.5306	509.35
26.5451	528.13
26.5595	553.04
26.5740	520.90
26.5884	508.67
26.6028	514.70
26.6173	521.08
26.6317	539.44
26.6462	534.50
26.6606	526.52
26.6750	529.89
26.6895	519.86
26.7039	495.89
26.7184	520.85
26.7328	510.57
26.7472	521.83
26.7617	538.58
26.7761	529.90
26.7906	532.24
26.8050	530.80
26.8194	514.72
26.8339	545.12
26.8483	508.97
26.8628	504.12
26.8772	524.64
26.8917	521.50
26.9061	535.09
26.9205	533.84
26.9350	522.59
26.9494	537.72
26.9639	526.88
26.9783	537.46
26.9927	535.59
27.0072	506.53
27.0216	532.16
27.0361	496.99
27.0505	516.85
27.0649	542.36
27.0794	548.84
27.0938	562.64
27.1083	515.93
27.1227	522.26
27.1371	521.71
27.1516	516.28
27.1660	525.72
27.1805	533.80
27.1949	491.30
27.2093	503.49
27.2238	543.44
27.2382	542.28
27.2527	536.13
27.2671	516.62
27.2815	523.84
27.2960	509.44
27.3104	524.49
27.3249	538.34
27.3393	564.53
27.3537	505.71
27.3682	450.33
27.3826	498.40
27.3971	524.16
27.4115	492.30
27.4259	547.85
27.4404	533.65
27.4548	519.16
27.4693	556.74
27.4837	508.45
27.4981	508.43
27.5126	496.85
27.5270	517.90
27.5415	535.47
27.5559	527.92
27.5703	509.46
27.5848	501.31
27.5992	506.02
27.6137	485.94
27.6281	529.63
27.6425	542.60
27.6570	555.55
27.6714	544.22
27.6859	493.61
27.7003	551.11
27.7147	521.02
27.7292	514.86
27.7436	551.81
27.7581	537.66
27.7725	504.53
27.7869	544.13
27.8014	526.45
27.8158	518.15
27.8303	514.90
27.8447	503.92
27.8591	537.78
27.8736	520.82
27.8880	515.50
27.9025	507.19
27.9169	521.53
27.9313	536.55
27.9458	528.99
27.9602	504.78
27.9747	521.45
27.9891	493.39
28.0035	473.78
28.0180	504.62
28.0324	500.02
28.0469	552.79
28.0613	536.35
28.0757	511.26
28.0902	495.58
28.1046	516.31
28.1191	488.93
28.1335	506.63
28.1479	508.13
28.1624	521.20
28.1768	495.58
28.1913	517.53
28.2057	514.23
28.2201	520.03
28.2346	561.97
28.2490	508.47
28.2635	480.97
28.2779	505.41
28.2923	523.78
28.3068	535.00
28.3212	511.13
28.3357	558.26
28.3501	570.69
28.3645	525.46
28.3790	497.57
28.3934	478.19
28.4079	494.19
28.4223	497.94
28.4367	498.24
28.4512	490.58
28.4656	500.33
28.4801	519.77
28.4945	504.62
28.5089	531.25
28.5234	494.53
28.5378	532.79
28.5523	522.10
28.5667	481.22
28.5811	498.10
28.5956	513.82
28.6100	536.07
28.6245	489.71
28.6389	523.75
28.6533	532.30
28.6678	495.70
28.6822	511.61
28.6967	486.79
28.7111	513.71
28.7255	520.90
28.7400	519.89
28.7544	497.82
28.7689	508.54
28.7833	545.92
28.7977	512.10
28.8122	540.04
28.8266	461.80
28.8411	476.33
28.8555	535.02
28.8699	491.80
28.8844	482.28
28.8988	541.88
28.9133	500.63
28.9277	521.05
28.9421	536.07
28.9566	463.29
28.9710	498.84
28.9855	497.99
28.9999	459.65
29.0143	513.82
29.0288	537.10
29.0432	500.88
29.0577	519.53
29.0721	534.87
29.0865	499.73
29.1010	524.56
29.1154	549.92
29.1299	536.53
29.1443	503.36
29.1587	485.49
29.1732	497.91
29.1876	484.42
29.2021	507.45
29.2165	529.35
29.2309	520.65
29.2454	520.65
29.2598	490.46
29.2743	504.65
29.2887	493.98
29.3031	520.86
29.3176	501.64
29.3320	514.12
29.3465	512.22
29.3609	527.49
29.3753	509.87
29.3898	510.66
29.4042	496.72
29.4187	506.36
29.4331	513.85
29.4475	482.24
29.4620	502.44
29.4764	548.75
29.4909	515.11
29.5053	512.14
29.5197	487.11
29.5342	539.45
29.5486	491.17
29.5631	525.81
29.5775	528.01
29.5919	468.50
29.6064	495.19
29.6208	464.07
29.6353	483.35
29.6497	506.73
29.6641	500.82
29.6786	505.34
29.6930	472.92
29.7075	503.33
29.7219	499.67
29.7363	506.81
29.7508	499.26
29.7652	484.50
29.7797	490.33
29.7941	484.96
29.8085	502.13
29.8230	534.13
29.8374	487.32
29.8519	498.73
29.8663	513.13
29.8807	494.85
29.8952	582.62
29.9096	510.36
29.9241	492.63
29.9385	519.32
29.9529	547.25
29.9674	509.90
29.9818	520.42
29.9963	534.43
30.0107	496.30
30.0251	495.15
30.0396	506.12
30.0540	497.01
30.0685	536.97
30.0829	542.33
30.0973	507.17
30.1118	490.58
30.1262	521.60
30.1407	509.31
30.1551	488.35
30.1695	518.85
30.1840	520.33
30.1984	503.37
30.2129	521.47
30.2273	522.32
30.2417	515.43
30.2562	525.84
30.2706	518.31
30.2851	522.92
30.2995	532.09
30.3139	524.61
30.3284	512.20
30.3428	526.45
30.3573	526.54
30.3717	525.44
30.3861	526.76
30.4006	526.80
30.4150	507.66
30.4295	526.45
30.4439	533.90
30.4583	558.89
30.4728	577.88
30.4872	593.77
30.5017	622.91
30.5161	621.42
30.5305	678.00
30.5450	715.16
30.5594	737.86
30.5739	755.78
30.5883	790.53
30.6028	751.18
30.6172	683.08
30.6316	681.38
30.6461	681.46
30.6605	679.08
30.6750	653.43
30.6894	634.61
30.7038	638.14
30.7183	608.99
30.7327	548.33
30.7472	576.73
30.7616	528.89
30.7760	540.50
30.7905	541.39
30.8049	512.51
30.8194	514.95
30.8338	505.00
30.8482	510.61
30.8627	512.47
30.8771	519.39
30.8916	493.49
30.9060	521.02
30.9204	516.11
30.9349	507.27
30.9493	522.51
30.9638	507.36
30.9782	516.44
30.9926	537.74
31.0071	536.39
31.0215	505.47
31.0360	527.34
31.0504	513.07
31.0648	500.96
31.0793	503.95
31.0937	484.37
31.1082	507.00
31.1226	532.98
31.1370	493.76
31.1515	487.98
31.1659	517.32
31.1804	507.52
31.1948	502.19
31.2092	524.95
31.2237	500.58
31.2381	496.55
31.2526	500.12
31.2670	518.86
31.2814	517.47
31.2959	518.43
31.3103	509.65
31.3248	541.55
31.3392	506.44
31.3536	524.61
31.3681	509.29
31.3825	511.67
31.3970	495.16
31.4114	503.53
31.4258	522.93
31.4403	503.55
31.4547	491.41
31.4692	487.94
31.4836	499.94
31.4980	497.93
31.5125	498.31
31.5269	514.76
31.5414	509.84
31.5558	509.73
31.5702	497.44
31.5847	489.77
31.5991	496.80
31.6136	469.42
31.6280	485.27
31.6424	511.78
31.6569	469.67
31.6713	448.28
31.6858	488.55
31.7002	515.53
31.7146	533.37
31.7291	479.60
31.7435	523.51
31.7580	475.29
31.7724	488.26
31.7868	452.82
31.8013	473.30
31.8157	506.52
31.8302	500.81
31.8446	508.19
31.8590	515.28
31.8735	523.96
31.8879	520.43
31.9024	504.65
31.9168	507.74
31.9312	489.51
31.9457	503.94
31.9601	475.80
31.9746	500.36
31.9890	503.00
32.0034	498.21
32.0179	518.33
32.0323	496.63
32.0468	512.57
32.0612	529.94
32.0756	507.11
32.0901	507.85
32.1045	517.34
32.1190	535.72
32.1334	513.82
32.1478	502.83
32.1623	535.55
32.1767	508.56
32.1912	514.38
32.2056	495.11
32.2200	477.82
32.2345	543.72
32.2489	504.28
32.2634	493.91
32.2778	495.85
32.2922	510.07
32.3067	521.75
32.3211	494.64
32.3356	513.18
32.3500	520.93
32.3644	495.72
32.3789	513.03
32.3933	493.19
32.4078	502.35
32.4222	505.27
32.4366	519.71
32.4511	518.61
32.4655	494.16
32.4800	516.25
32.4944	473.02
32.5088	485.73
32.5233	484.39
32.5377	522.84
32.5522	497.91
32.5666	506.85
32.5810	550.77
32.5955	505.14
32.6099	488.15
32.6244	503.94
32.6388	514.68
32.6532	497.97
32.6677	481.74
32.6821	464.01
32.6966	488.18
32.7110	535.71
32.7254	490.76
32.7399	482.91
32.7543	507.50
32.7688	459.60
32.7832	493.51
32.7976	506.48
32.8121	504.72
32.8265	499.47
32.8410	481.17
32.8554	523.86
32.8698	519.77
32.8843	491.51
32.8987	511.87
32.9132	503.42
32.9276	495.69
32.9420	491.71
32.9565	484.87
32.9709	533.66
32.9854	511.61
32.9998	507.63
33.0142	509.67
33.0287	541.24
33.0431	502.88
33.0576	501.55
33.0720	545.92
33.0864	523.22
33.1009	505.14
33.1153	486.71
33.1298	480.38
33.1442	495.95
33.1586	498.37
33.1731	507.60
33.1875	495.02
33.2020	501.74
33.2164	475.61
33.2308	499.40
33.2453	504.19
33.2597	490.73
33.2742	474.93
33.2886	500.34
33.3030	497.38
33.3175	515.20
33.3319	503.45
33.3464	517.17
33.3608	508.74
33.3752	473.45
33.3897	489.01
33.4041	498.45
33.4186	533.03
33.4330	536.84
33.4474	471.32
33.4619	498.95
33.4763	509.38
33.4908	498.57
33.5052	491.89
33.5196	521.35
33.5341	509.68
33.5485	515.72
33.5630	529.10
33.5774	513.28
33.5918	531.38
33.6063	523.22
33.6207	502.53
33.6352	515.96
33.6496	504.85
33.6640	477.69
33.6785	483.14
33.6929	499.60
33.7074	510.29
33.7218	526.61
33.7362	542.17
33.7507	520.56
33.7651	464.81
33.7796	496.88
33.7940	481.94
33.8084	472.61
33.8229	512.95
33.8373	500.28
33.8518	511.18
33.8662	486.82
33.8806	479.26
33.8951	471.64
33.9095	464.80
33.9240	486.15
33.9384	515.64
33.9528	520.02
33.9673	517.07
33.9817	501.52
33.9962	512.59
34.0106	524.02
34.0250	508.85
34.0395	522.95
34.0539	504.12
34.0684	486.39
34.0828	482.67
34.0972	501.41
34.1117	540.61
34.1261	513.76
34.1406	491.62
34.1550	473.26
34.1694	497.73
34.1839	527.86
34.1983	497.63
34.2128	491.36
34.2272	493.55
34.2417	510.98
34.2561	523.53
34.2705	509.54
34.2850	502.73
34.2994	483.38
34.3139	478.14
34.3283	504.13
34.3427	502.97
34.3572	479.79
34.3716	518.10
34.3861	505.61
34.4005	489.10
34.4149	496.24
34.4294	485.92
34.4438	482.47
34.4583	504.42
34.4727	531.09
34.4871	525.47
34.5016	504.51
34.5160	502.97
34.5305	529.47
34.5449	487.68
34.5593	500.20
34.5738	513.83
34.5882	522.42
34.6027	518.36
34.6171	521.28
34.6315	506.43
34.6460	478.58
34.6604	487.27
34.6749	487.36
34.6893	502.19
34.7037	510.05
34.7182	525.25
34.7326	499.42
34.7471	488.06
34.7615	492.63
34.7759	504.33
34.7904	502.78
34.8048	488.26
34.8193	523.55
34.8337	481.75
34.8481	508.14
34.8626	522.98
34.8770	493.98
34.8915	488.96
34.9059	500.51
34.9203	512.91
34.9348	500.14
34.9492	496.87
34.9637	505.72
34.9781	474.70
34.9925	483.52
35.0070	472.38
35.0214	493.86
35.0359	497.26
35.0503	522.94
35.0647	499.41
35.0792	498.91
35.0936	530.75
35.1081	495.86
35.1225	487.16
35.1369	516.12
35.1514	525.02
35.1658	505.02
35.1803	508.85
35.1947	494.62
35.2091	544.09
35.2236	507.08
35.2380	524.18
35.2525	529.61
35.2669	510.07
35.2813	531.90
35.2958	503.23
35.3102	462.41
35.3247	510.05
35.3391	514.10
35.3535	504.73
35.3680	476.06
35.3824	484.98
35.3969	525.08
35.4113	519.81
35.4257	538.34
35.4402	548.77
35.4546	533.73
35.4691	542.81
35.4835	514.19
35.4979	532.65
35.5124	506.39
35.5268	516.05
35.5413	528.92
35.5557	514.03
35.5701	512.63
35.5846	519.43
35.5990	511.58
35.6135	522.92
35.6279	554.56
35.6423	535.08
35.6568	532.21
35.6712	547.97
35.6857	578.09
35.7001	689.51
35.7145	775.19
35.7290	737.02
35.7434	635.01
35.7579	610.09
35.7723	600.36
35.7867	680.23
35.8012	759.97
35.8156	754.57
35.8301	712.90
35.8445	700.04
35.8589	779.72
35.8734	872.46
35.8878	960.60
35.9023	1062.20
35.9167	1151.01
35.9311	1316.25
35.9456	1678.08
35.9600	2015.13
35.9745	2158.26
35.9889	2372.85
36.0033	2779.60
36.0178	3120.96
36.0322	3293.75
36.0467	2639.56
36.0611	2209.95
36.0755	1954.26
36.0900	2215.56
36.1044	1939.91
36.1189	1515.00
36.1333	1330.87
36.1477	1177.96
36.1622	1058.42
36.1766	914.64
36.1911	807.72
36.2055	790.04
36.2199	767.73
36.2344	760.77
36.2488	652.01
36.2633	604.96
36.2777	567.43
36.2921	577.60
36.3066	584.51
36.3210	565.94
36.3355	530.24
36.3499	548.03
36.3643	548.16
36.3788	526.63
36.3932	509.14
36.4077	538.07
36.4221	540.61
36.4365	525.72
36.4510	528.62
36.4654	543.37
36.4799	545.87
36.4943	547.40
36.5087	532.14
36.5232	521.44
36.5376	509.39
36.5521	546.11
36.5665	492.75
36.5809	523.10
36.5954	515.63
36.6098	548.99
36.6243	523.35
36.6387	525.33
36.6531	512.13
36.6676	500.03
36.6820	505.90
36.6965	533.84
36.7109	529.87
36.7253	518.60
36.7398	517.82
36.7542	538.06
36.7687	537.08
36.7831	549.68
36.7975	522.23
36.8120	567.29
36.8264	571.78
36.8409	593.84
36.8553	560.33
36.8697	583.10
36.8842	562.82
36.8986	569.22
36.9131	599.11
36.9275	546.85
36.9419	557.85
36.9564	591.87
36.9708	588.08
36.9853	591.39
36.9997	537.45
37.0141	553.69
37.0286	512.98
37.0430	520.26
37.0575	515.46
37.0719	554.71
37.0863	523.95
37.1008	509.41
37.1152	487.03
37.1297	515.93
37.1441	515.32
37.1585	510.66
37.1730	533.75
37.1874	521.26
37.2019	514.07
37.2163	531.48
37.2307	493.64
37.2452	502.00
37.2596	472.31
37.2741	498.37
37.2885	500.78
37.3029	528.98
37.3174	482.00
37.3318	520.25
37.3463	529.67
37.3607	506.46
37.3751	500.64
37.3896	472.11
37.4040	473.11
37.4185	493.14
37.4329	505.96
37.4473	495.42
37.4618	507.70
37.4762	514.02
37.4907	505.25
37.5051	490.26
37.5195	538.93
37.5340	457.95
37.5484	477.98
37.5629	522.97
37.5773	507.33
37.5917	514.18
37.6062	515.76
37.6206	516.07
37.6351	537.95
37.6495	509.31
37.6639	505.68
37.6784	466.70
37.6928	468.05
37.7073	490.01
37.7217	543.51
37.7361	499.92
37.7506	508.31
37.7650	488.24
37.7795	488.79
37.7939	501.27
37.8083	523.30
37.8228	476.11
37.8372	494.93
37.8517	511.62
37.8661	528.15
37.8805	488.16
37.8950	475.11
37.9094	467.81
37.9239	457.39
37.9383	466.87
37.9528	507.91
37.9672	496.55
37.9816	488.30
37.9961	534.35
38.0105	504.90
38.0250	528.01
38.0394	486.09
38.0538	491.64
38.0683	529.39
38.0827	548.48
38.0972	503.59
38.1116	508.50
38.1260	481.77
38.1405	487.24
38.1549	533.79
38.1694	517.07
38.1838	481.62
38.1982	506.71
38.2127	543.25
38.2271	509.50
38.2416	493.93
38.2560	493.62
38.2704	501.88
38.2849	511.85
38.2993	511.38
38.3138	481.79
38.3282	522.47
38.3426	539.31
38.3571	520.51
38.3715	511.08
38.3860	543.18
38.4004	541.35
38.4148	528.39
38.4293	572.55
38.4437	554.96
38.4582	601.88
38.4726	597.74
38.4870	652.82
38.5015	711.40
38.5159	785.61
38.5304	835.05
38.5448	801.18
38.5592	809.16
38.5737	774.45
38.5881	748.44
38.6026	736.69
38.6170	705.83
38.6314	695.98
38.6459	674.65
38.6603	633.25
38.6748	608.97
38.6892	565.38
38.7036	571.66
38.7181	543.69
38.7325	545.12
38.7470	490.63
38.7614	473.14
38.7758	506.33
38.7903	520.80
38.8047	503.02
38.8192	497.93
38.8336	491.76
38.8480	533.70
38.8625	542.10
38.8769	537.88
38.8914	470.45
38.9058	491.80
38.9202	476.55
38.9347	511.08
38.9491	501.60
38.9636	513.72
38.9780	532.64
38.9924	483.15
39.0069	465.87
39.0213	511.82
39.0358	529.48
39.0502	513.99
39.0646	529.58
39.0791	507.46
39.0935	507.89
39.1080	526.14
39.1224	510.74
39.1368	510.30
39.1513	503.71
39.1657	515.61
39.1802	503.03
39.1946	475.83
39.2090	501.00
39.2235	487.62
39.2379	527.93
39.2524	511.20
39.2668	474.52
39.2812	535.98
39.2957	503.71
39.3101	520.28
39.3246	515.89
39.3390	517.66
39.3534	519.82
39.3679	502.65
39.3823	513.23
39.3968	503.37
39.4112	499.84
39.4256	520.66
39.4401	514.98
39.4545	493.72
39.4690	515.83
39.4834	520.91
39.4978	512.76
39.5123	497.65
39.5267	498.08
39.5412	498.52
39.5556	512.72
39.5700	495.37
39.5845	489.66
39.5989	525.06
39.6134	470.46
39.6278	512.15
39.6422	525.22
39.6567	518.63
39.6711	457.09
39.6856	472.31
39.7000	554.99
39.7144	547.22
39.7289	499.62
39.7433	486.50
39.7578	481.56
39.7722	485.56
39.7866	504.60
39.8011	477.36
39.8155	525.74
39.8300	517.66
39.8444	490.13
39.8588	502.19
39.8733	493.18
39.8877	478.68
39.9022	531.49
39.9166	504.35
39.9310	481.88
39.9455	510.60
39.9599	482.75
39.9744	505.16
39.9888	500.09
40.0032	484.15
40.0177	523.49
40.0321	540.86
40.0466	515.80
40.0610	483.77
40.0754	488.50
40.0899	494.83
40.1043	489.88
40.1188	502.71
40.1332	530.27
40.1476	492.81
40.1621	521.33
40.1765	493.83
40.1910	503.64
40.2054	499.56
40.2198	515.94
40.2343	490.61
40.2487	485.07
40.2632	506.58
40.2776	519.74
40.2920	481.44
40.3065	471.84
40.3209	467.86
40.3354	475.04
40.3498	490.12
40.3642	473.15
40.3787	490.69
40.3931	486.43
40.4076	494.45
40.4220	500.79
40.4364	521.10
40.4509	472.57
40.4653	515.86
40.4798	480.83
40.4942	500.52
40.5086	492.10
40.5231	507.93
40.5375	522.65
40.5520	514.17
40.5664	492.52
40.5808	486.42
40.5953	495.54
40.6097	503.03
40.6242	482.27
40.6386	500.83
40.6530	515.64
40.6675	511.79
40.6819	516.14
40.6964	487.94
40.7108	510.41
40.7252	509.78
40.7397	519.72
40.7541	520.52
40.7686	463.98
40.7830	498.83
40.7974	505.53
40.8119	488.91
40.8263	501.97
40.8408	486.95
40.8552	507.68
40.8696	505.75
40.8841	512.89
40.8985	499.96
40.9130	522.04
40.9274	494.85
40.9418	480.80
40.9563	487.36
40.9707	495.71
40.9852	494.85
40.9996	474.27
41.0140	455.24
41.0285	474.25
41.0429	527.78
41.0574	516.95
41.0718	503.17
41.0862	498.60
41.1007	483.88
41.1151	538.95
41.1296	529.81
41.1440	475.40
41.1584	490.79
41.1729	466.44
41.1873	483.85
41.2018	498.99
41.2162	509.22
41.2306	496.30
41.2451	510.45
41.2595	535.60
41.2740	490.57
41.2884	496.95
41.3028	472.87
41.3173	524.16
41.3317	494.80
41.3462	501.29
41.3606	484.52
41.3750	489.98
41.3895	495.03
41.4039	478.58
41.4184	484.42
41.4328	498.49
41.4472	500.06
41.4617	462.51
41.4761	477.35
41.4906	499.90
41.5050	496.31
41.5194	489.35
41.5339	486.63
41.5483	501.11
41.5628	483.46
41.5772	476.47
41.5916	453.14
41.6061	489.80
41.6205	483.68
41.6350	526.36
41.6494	520.43
41.6639	455.88
41.6783	479.17
41.6927	459.74
41.7072	547.77
41.7216	535.17
41.7361	499.75
41.7505	505.29
41.7649	488.74
41.7794	496.52
41.7938	495.83
41.8083	512.35
41.8227	528.01
41.8371	530.60
41.8516	518.67
41.8660	530.21
41.8805	531.50
41.8949	546.68
41.9093	551.24
41.9238	564.74
41.9382	516.17
41.9527	580.62
41.9671	571.79
41.9815	552.00
41.9960	528.43
42.0104	536.66
42.0249	531.22
42.0393	529.23
42.0537	557.61
42.0682	564.71
42.0826	599.96
42.0971	630.49
42.1115	592.36
42.1259	578.22
42.1404	578.23
42.1548	615.35
42.1693	655.75
42.1837	698.66
42.1981	772.99
42.2126	844.98
42.2270	901.50
42.2415	1053.65
42.2559	1167.31
42.2703	1359.55
42.2848	1537.96
42.2992	1617.40
42.3137	1649.41
42.3281	1665.87
42.3425	1576.76
42.3570	1474.56
42.3714	1406.76
42.3859	1363.39
42.4003	1377.28
42.4147	1322.95
42.4292	1296.00
42.4436	1149.16
42.4581	1030.42
42.4725	956.03
42.4869	810.06
42.5014	775.44
42.5158	701.37
42.5303	671.35
42.5447	650.68
42.5591	597.27
42.5736	568.26
42.5880	575.89
42.6025	560.99
42.6169	540.34
42.6313	536.34
42.6458	547.18
42.6602	523.02
42.6747	501.11
42.6891	505.90
42.7035	532.92
42.7180	529.33
42.7324	546.16
42.7469	550.87
42.7613	524.23
42.7757	546.76
42.7902	508.70
42.8046	538.00
42.8191	537.34
42.8335	547.88
42.8479	534.52
42.8624	551.15
42.8768	543.32
42.8913	506.15
42.9057	509.93
42.9201	516.47
42.9346	506.95
42.9490	516.00
42.9635	497.93
42.9779	505.94
42.9923	509.04
43.0068	500.13
43.0212	519.58
43.0357	528.87
43.0501	521.42
43.0645	494.20
43.0790	509.90
43.0934	526.09
43.1079	497.15
43.1223	494.67
43.1367	511.75
43.1512	509.13
43.1656	525.75
43.1801	513.79
43.1945	525.55
43.2089	518.69
43.2234	527.75
43.2378	522.62
43.2523	494.49
43.2667	524.91
43.2811	522.00
43.2956	511.66
43.3100	531.88
43.3245	535.51
43.3389	524.51
43.3533	520.45
43.3678	511.59
43.3822	494.41
43.3967	508.75
43.4111	510.85
43.4255	537.20
43.4400	532.66
43.4544	506.60
43.4689	528.71
43.4833	517.49
43.4977	529.81
43.5122	537.60
43.5266	459.00
43.5411	515.71
43.5555	488.25
43.5699	510.10
43.5844	501.47
43.5988	510.93
43.6133	530.96
43.6277	525.48
43.6421	557.47
43.6566	549.17
43.6710	541.44
43.6855	543.26
43.6999	592.63
43.7143	657.83
43.7288	640.76
43.7432	658.39
43.7577	638.54
43.7721	671.16
43.7865	680.19
43.8010	631.07
43.8154	612.96
43.8299	582.88
43.8443	598.19
43.8587	640.98
43.8732	643.19
43.8876	597.89
43.9021	594.59
43.9165	602.41
43.9309	563.81
43.9454	527.04
43.9598	531.81
43.9743	493.57
43.9887	501.84
44.0031	498.11
44.0176	512.40
44.0320	563.97
44.0465	537.34
44.0609	486.71
44.0753	499.18
44.0898	535.68
44.1042	520.61
44.1187	557.01
44.1331	514.23
44.1475	487.04
44.1620	512.48
44.1764	528.12
44.1909	563.35
44.2053	517.87
44.2197	487.20
44.2342	503.34
44.2486	546.18
44.2631	556.84
44.2775	547.19
44.2919	563.24
44.3064	518.09
44.3208	538.58
44.3353	549.58
44.3497	536.54
44.3641	521.27
44.3786	521.20
44.3930	548.95
44.4075	541.57
44.4219	597.14
44.4363	580.80
44.4508	546.33
44.4652	590.19
44.4797	589.93
44.4941	562.29
44.5085	569.83
44.5230	546.91
44.5374	540.58
44.5519	550.59
44.5663	552.35
44.5807	556.20
44.5952	572.14
44.6096	538.00
44.6241	574.19
44.6385	589.67
44.6529	594.80
44.6674	589.97
44.6818	568.56
44.6963	572.64
44.7107	660.41
44.7251	681.97
44.7396	721.18
44.7540	785.11
44.7685	815.83
44.7829	894.66
44.7973	857.74
44.8118	807.13
44.8262	827.34
44.8407	757.63
44.8551	762.58
44.8695	745.08
44.8840	721.74
44.8984	755.03
44.9129	726.95
44.9273	698.20
44.9417	694.89
44.9562	650.80
44.9706	584.10
44.9851	565.12
44.9995	522.40
45.0139	523.41
45.0284	526.37
45.0428	498.79
45.0573	495.16
45.0717	520.21
45.0861	564.00
45.1006	498.81
45.1150	520.63
45.1295	534.49
45.1439	516.94
45.1583	517.69
45.1728	505.85
45.1872	505.40
45.2017	537.69
45.2161	537.47
45.2305	494.83
45.2450	484.81
45.2594	526.48
45.2739	501.19
45.2883	489.81
45.3028	503.75
45.3172	490.10
45.3316	500.55
45.3461	492.75
45.3605	506.71
45.3750	501.04
45.3894	505.50
45.4038	470.33
45.4183	487.05
45.4327	506.31
45.4472	486.58
45.4616	497.81
45.4760	487.65
45.4905	500.30
45.5049	487.70
45.5194	491.37
45.5338	511.36
45.5482	509.19
45.5627	509.72
45.5771	502.78
45.5916	478.14
45.6060	493.78
45.6204	476.90
45.6349	517.28
45.6493	526.07
45.6638	505.25
45.6782	484.64
45.6926	490.11
45.7071	529.58
45.7215	513.66
45.7360	517.40
45.7504	529.02
45.7648	524.92
45.7793	500.14
45.7937	480.67
45.8082	486.73
45.8226	508.84
45.8370	505.35
45.8515	512.41
45.8659	524.14
45.8804	510.17
45.8948	501.85
45.9092	469.78
45.9237	484.54
45.9381	467.57
45.9526	483.05
45.9670	513.21
45.9814	485.07
45.9959	523.01
46.0103	550.76
46.0248	505.72
46.0392	479.02
46.0536	522.08
46.0681	527.48
46.0825	502.90
46.0970	487.05
46.1114	456.74
46.1258	494.38
46.1403	485.05
46.1547	485.60
46.1692	503.98
46.1836	498.82
46.1980	487.68
46.2125	495.28
46.2269	527.56
46.2414	553.14
46.2558	506.03
46.2702	518.57
46.2847	522.44
46.2991	504.08
46.3136	450.91
46.3280	481.63
46.3424	489.47
46.3569	464.14
46.3713	480.33
46.3858	479.62
46.4002	473.77
46.4146	494.09
46.4291	528.78
46.4435	523.76
46.4580	493.91
46.4724	495.22
46.4868	526.43
46.5013	512.24
46.5157	481.12
46.5302	516.13
46.5446	493.60
46.5590	496.25
46.5735	479.34
46.5879	468.85
46.6024	441.79
46.6168	493.04
46.6312	493.77
46.6457	483.65
46.6601	501.52
46.6746	479.77
46.6890	448.87
46.7034	503.71
46.7179	546.87
46.7323	484.62
46.7468	447.11
46.7612	471.52
46.7756	526.23
46.7901	516.03
46.8045	496.43
46.8190	513.04
46.8334	496.25
46.8478	479.50
46.8623	486.01
46.8767	497.68
46.8912	515.86
46.9056	525.23
46.9200	535.39
46.9345	512.19
46.9489	514.37
46.9634	479.93
46.9778	490.31
46.9922	503.28
47.0067	508.06
47.0211	487.25
47.0356	493.48
47.0500	509.28
47.0644	518.57
47.0789	519.45
47.0933	486.15
47.1078	493.89
47.1222	554.79
47.1366	539.16
47.1511	486.19
47.1655	533.31
47.1800	514.79
47.1944	475.41
47.2088	497.54
47.2233	484.48
47.2377	480.28
47.2522	483.47
47.2666	496.99
47.2810	522.65
47.2955	461.88
47.3099	466.65
47.3244	469.73
47.3388	503.23
47.3532	523.96
47.3677	524.71
47.3821	511.19
47.3966	519.58
47.4110	502.02
47.4254	500.03
47.4399	496.36
47.4543	526.55
47.4688	534.48
47.4832	511.98
47.4976	510.80
47.5121	511.75
47.5265	503.88
47.5410	490.71
47.5554	485.02
47.5698	498.27
47.5843	477.34
47.5987	531.50
47.6132	497.79
47.6276	503.84
47.6420	496.55
47.6565	503.91
47.6709	488.19
47.6854	527.41
47.6998	534.12
47.7142	514.18
47.7287	496.61
47.7431	509.84
47.7576	546.13
47.7720	513.38
47.7864	490.97
47.8009	509.72
47.8153	515.59
47.8298	495.41
47.8442	504.38
47.8586	539.26
47.8731	514.90
47.8875	472.37
47.9020	501.52
47.9164	505.63
47.9308	503.10
47.9453	494.54
47.9597	506.70
47.9742	495.57
47.9886	481.95
48.0030	467.91
48.0175	514.57
48.0319	483.53
48.0464	509.22
48.0608	517.96
48.0752	518.98
48.0897	558.98
48.1041	478.58
48.1186	511.45
48.1330	528.48
48.1474	494.75
48.1619	492.02
48.1763	487.67
48.1908	503.19
48.2052	517.72
48.2196	483.31
48.2341	518.60
48.2485	521.30
48.2630	470.20
48.2774	481.57
48.2918	513.72
48.3063	518.98
48.3207	527.86
48.3352	493.97
48.3496	513.34
48.3640	500.78
48.3785	484.68
48.3929	506.46
48.4074	500.44
48.4218	547.14
48.4362	494.61
48.4507	475.60
48.4651	539.60
48.4796	526.82
48.4940	496.60
48.5084	504.49
48.5229	503.95
48.5373	515.97
48.5518	505.78
48.5662	506.17
48.5806	537.59
48.5951	527.57
48.6095	512.95
48.6240	507.23
48.6384	529.66
48.6528	497.56
48.6673	508.04
48.6817	496.84
48.6962	543.85
48.7106	531.69
48.7250	507.08
48.7395	513.25
48.7539	520.35
48.7684	487.40
48.7828	533.37
48.7972	532.78
48.8117	555.31
48.8261	569.59
48.8406	541.99
48.8550	547.55
48.8694	543.60
48.8839	541.90
48.8983	540.30
48.9128	538.45
48.9272	526.72
48.9416	540.90
48.9561	540.93
48.9705	563.86
48.9850	543.85
48.9994	541.94
49.0139	610.12
49.0283	579.41
49.0427	602.09
49.0572	633.05
49.0716	671.43
49.0861	664.73
49.1005	689.78
49.1149	737.22
49.1294	710.51
49.1438	761.25
49.1583	825.49
49.1727	851.76
49.1871	880.21
49.2016	936.45
49.2160	1065.10
49.2305	1155.29
49.2449	1228.84
49.2593	1265.03
49.2738	1401.46
49.2882	1486.45
49.3027	1587.52
49.3171	1662.64
49.3315	1763.26
49.3460	1765.71
49.3604	1839.89
49.3749	1924.05
49.3893	1834.53
49.4037	1832.38
49.4182	1785.13
49.4326	1771.14
49.4471	1648.07
49.4615	1642.44
49.4759	1649.95
49.4904	1501.94
49.5048	1411.17
49.5193	1361.37
49.5337	1279.59
49.5481	1153.24
49.5626	1149.24
49.5770	1084.93
49.5915	1018.24
49.6059	902.93
49.6203	838.44
49.6348	860.16
49.6492	761.94
49.6637	761.14
49.6781	740.64
49.6925	677.56
49.7070	678.18
49.7214	634.71
49.7359	642.06
49.7503	614.66
49.7647	574.30
49.7792	602.54
49.7936	590.34
49.8081	537.56
49.8225	586.48
49.8369	577.29
49.8514	545.24
49.8658	582.16
49.8803	548.29
49.8947	540.30
49.9091	556.34
49.9236	492.70
49.9380	510.73
49.9525	528.37
49.9669	491.18
49.9813	531.13
49.9958	520.39
50.0102	512.44
50.0247	539.55
50.0391	523.77
50.0535	509.65
50.0680	537.07
50.0824	537.19
50.0969	574.53
50.1113	535.51
50.1257	531.62
50.1402	508.52
50.1546	508.75
50.1691	493.83
50.1835	513.26
50.1979	509.34
50.2124	500.63
50.2268	505.30
50.2413	512.32
50.2557	550.38
50.2701	505.87
50.2846	513.72
50.2990	479.68
50.3135	485.44
50.3279	493.67
50.3423	527.66
50.3568	538.37
50.3712	530.69
50.3857	504.16
50.4001	512.68
50.4145	542.58
50.4290	524.98
50.4434	496.66
50.4579	507.56
50.4723	512.59
50.4867	529.57
50.5012	516.38
50.5156	500.89
50.5301	510.69
50.5445	550.36
50.5589	538.24
50.5734	503.04
50.5878	497.68
50.6023	505.30
50.6167	486.76
50.6311	507.86
50.6456	500.95
50.6600	487.18
50.6745	460.32
50.6889	495.80
50.7033	508.25
50.7178	542.74
50.7322	484.82
50.7467	488.86
50.7611	462.14
50.7755	488.46
50.7900	525.82
50.8044	520.20
50.8189	485.03
50.8333	511.86
50.8477	524.82
50.8622	511.58
50.8766	515.57
50.8911	491.58
50.9055	521.68
50.9199	509.00
50.9344	482.76
50.9488	518.92
50.9633	487.67
50.9777	487.86
50.9921	483.67
51.0066	492.83
51.0210	508.55
51.0355	506.49
51.0499	528.92
51.0643	526.08
51.0788	488.35
51.0932	508.99
51.1077	545.38
51.1221	533.40
51.1365	511.09
51.1510	473.95
51.1654	489.51
51.1799	476.25
51.1943	522.34
51.2087	490.02
51.2232	491.04
51.2376	523.93
51.2521	534.82
51.2665	508.45
51.2809	490.31
51.2954	495.08
51.3098	505.03
51.3243	514.14
51.3387	486.05
51.3531	494.27
51.3676	569.56
51.3820	526.47
51.3965	500.34
51.4109	512.11
51.4253	532.43
51.4398	516.06
51.4542	494.30
51.4687	509.01
51.4831	505.02
51.4975	461.29
51.5120	479.30
51.5264	523.24
51.5409	500.79
51.5553	504.33
51.5697	498.22
51.5842	494.50
51.5986	518.07
51.6131	493.12
51.6275	482.41
51.6419	504.04
51.6564	498.95
51.6708	519.78
51.6853	509.23
51.6997	545.66
51.7141	510.83
51.7286	487.12
51.7430	500.24
51.7575	477.87
51.7719	498.60
51.7863	510.72
51.8008	502.66
51.8152	513.29
51.8297	482.83
51.8441	526.37
51.8585	516.55
51.8730	477.15
51.8874	461.79
51.9019	536.87
51.9163	515.00
51.9307	473.55
51.9452	505.97
51.9596	500.40
51.9741	502.51
51.9885	506.05
52.0029	519.83
52.0174	522.24
52.0318	486.77
52.0463	476.27
52.0607	515.35
52.0751	495.68
52.0896	511.17
52.1040	518.89
52.1185	530.55
52.1329	521.97
52.1473	488.77
52.1618	534.19
52.1762	501.42
52.1907	482.13
52.2051	515.28
52.2195	514.12
52.2340	539.07
52.2484	512.10
52.2629	487.21
52.2773	506.60
52.2917	518.29
52.3062	529.80
52.3206	501.62
52.3351	533.72
52.3495	521.08
52.3639	508.85
52.3784	501.16
52.3928	506.60
52.4073	533.38
52.4217	532.89
52.4361	535.80
52.4506	515.75
52.4650	491.27
52.4795	511.90
52.4939	492.02
52.5083	487.15
52.5228	504.46
52.5372	489.24
52.5517	504.45
52.5661	531.00
52.5805	465.48
52.5950	481.44
52.6094	500.25
52.6239	500.51
52.6383	504.64
52.6527	502.93
52.6672	511.11
52.6816	506.58
52.6961	470.75
52.7105	501.64
52.7250	495.58
52.7394	502.13
52.7538	523.70
52.7683	508.66
52.7827	514.17
52.7972	534.40
52.8116	514.85
52.8260	477.18
52.8405	514.54
52.8549	511.69
52.8694	479.97
52.8838	479.80
52.8982	485.65
52.9127	539.32
52.9271	505.05
52.9416	515.50
52.9560	513.71
52.9704	507.11
52.9849	510.84
52.9993	512.42
53.0138	496.48
53.0282	506.19
53.0426	467.83
53.0571	511.10
53.0715	508.73
53.0860	510.74
53.1004	476.58
53.1148	534.44
53.1293	517.09
53.1437	487.32
53.1582	489.94
53.1726	523.43
53.1870	495.10
53.2015	503.10
53.2159	501.74
53.2304	498.75
53.2448	500.22
53.2592	530.85
53.2737	482.49
53.2881	477.09
53.3026	491.33
53.3170	500.25
53.3314	526.45
53.3459	523.69
53.3603	481.68
53.3748	528.15
53.3892	546.56
53.4036	506.29
53.4181	513.31
53.4325	528.67
53.4470	496.07
53.4614	511.39
53.4758	523.41
53.4903	547.79
53.5047	536.98
53.5192	508.75
53.5336	494.15
53.5480	499.87
53.5625	518.27
53.5769	521.88
53.5914	522.33
53.6058	506.35
53.6202	497.22
53.6347	517.55
53.6491	536.05
53.6636	500.86
53.6780	495.38
53.6924	474.20
53.7069	499.08
53.7213	485.58
53.7358	476.78
53.7502	513.41
53.7646	569.06
53.7791	530.50
53.7935	545.85
53.8080	515.22
53.8224	518.06
53.8368	525.64
53.8513	504.38
53.8657	486.56
53.8802	486.43
53.8946	488.78
53.9090	507.40
53.9235	503.16
53.9379	524.11
53.9524	536.51
53.9668	508.26
53.9812	530.57
53.9957	519.82
54.0101	521.95
54.0246	505.37
54.0390	518.37
54.0534	495.32
54.0679	510.40
54.0823	498.72
54.0968	517.41
54.1112	544.77
54.1256	564.54
54.1401	543.37
54.1545	542.50
54.1690	532.52
54.1834	543.38
54.1978	576.57
54.2123	575.40
54.2267	592.06
54.2412	613.98
54.2556	629.04
54.2700	617.45
54.2845	626.65
54.2989	679.91
54.3134	649.02
54.3278	615.47
54.3422	602.04
54.3567	604.58
54.3711	600.37
54.3856	571.85
54.4000	580.77
54.4144	610.51
54.4289	638.57
54.4433	595.20
54.4578	594.22
54.4722	582.03
54.4866	551.85
54.5011	540.28
54.5155	551.57
54.5300	524.49
54.5444	497.56
54.5588	515.14
54.5733	520.89
54.5877	552.51
54.6022	530.54
54.6166	503.48
54.6310	517.13
54.6455	507.25
54.6599	505.96
54.6744	511.30
54.6888	521.65
54.7032	503.20
54.7177	498.81
54.7321	522.40
54.7466	528.66
54.7610	532.41
54.7754	541.62
54.7899	514.09
54.8043	518.42
54.8188	507.97
54.8332	520.76
54.8476	513.47
54.8621	504.56
54.8765	507.30
54.8910	478.07
54.9054	517.63
54.9198	505.78
54.9343	528.38
54.9487	522.59
54.9632	480.65
54.9776	452.30
54.9920	489.70
55.0065	508.28
55.0209	542.05
55.0354	530.35
55.0498	532.87
55.0642	520.33
55.0787	509.68
55.0931	543.28
55.1076	517.76
55.1220	535.07
55.1364	523.82
55.1509	503.57
55.1653	517.20
55.1798	506.72
55.1942	491.56
55.2086	493.70
55.2231	539.74
55.2375	526.89
55.2520	531.81
55.2664	526.17
55.2808	474.30
55.2953	474.36
55.3097	491.16
55.3242	510.18
55.3386	505.19
55.3530	499.57
55.3675	523.11
55.3819	514.70
55.3964	516.96
55.4108	496.54
55.4252	513.06
55.4397	520.94
55.4541	550.14
55.4686	553.85
55.4830	528.96
55.4974	515.77
55.5119	519.98
55.5263	540.61
55.5408	514.83
55.5552	537.47
55.5696	525.77
55.5841	509.59
55.5985	509.18
55.6130	499.43
55.6274	484.06
55.6418	494.98
55.6563	516.06
55.6707	498.79
55.6852	542.45
55.6996	546.01
55.7140	530.84
55.7285	529.29
55.7429	513.89
55.7574	512.23
55.7718	524.53
55.7862	538.43
55.8007	522.42
55.8151	515.56
55.8296	476.11
55.8440	489.19
55.8584	519.95
55.8729	547.36
55.8873	515.73
55.9018	524.29
55.9162	498.91
55.9306	531.08
55.9451	524.34
55.9595	524.83
55.9740	546.00
55.9884	525.05
56.0028	513.61
56.0173	543.88
56.0317	575.30
56.0462	522.27
56.0606	521.02
56.0750	493.98
56.0895	533.44
56.1039	548.15
56.1184	466.00
56.1328	506.69
56.1472	489.54
56.1617	505.77
56.1761	518.11
56.1906	489.56
56.2050	520.56
56.2194	531.64
56.2339	526.11
56.2483	530.49
56.2628	521.19
56.2772	488.60
56.2916	552.03
56.3061	529.08
56.3205	526.43
56.3350	541.34
56.3494	516.53
56.3639	532.56
56.3783	501.73
56.3927	505.49
56.4072	521.09
56.4216	512.68
56.4361	533.25
56.4505	511.29
56.4649	525.11
56.4794	499.37
56.4938	502.39
56.5083	487.97
56.5227	519.34
56.5371	515.24
56.5516	498.31
56.5660	479.51
56.5805	490.38
56.5949	521.68
56.6093	563.18
56.6238	507.65
56.6382	510.33
56.6527	544.01
56.6671	527.51
56.6815	512.86
56.6960	524.00
56.7104	558.43
56.7249	502.44
56.7393	492.43
56.7537	490.24
56.7682	522.53
56.7826	467.53
56.7971	478.60
56.8115	538.82
56.8259	535.35
56.8404	540.83
56.8548	502.82
56.8693	547.99
56.8837	537.83
56.8981	565.50
56.9126	512.10
56.9270	522.04
56.9415	504.41
56.9559	539.72
56.9703	546.13
56.9848	500.60
56.9992	529.22
57.0137	518.02
57.0281	528.49
57.0425	573.92
57.0570	560.83
57.0714	528.22
57.0859	546.39
57.1003	508.95
57.1147	549.86
57.1292	549.61
57.1436	529.53
57.1581	520.25
57.1725	524.70
57.1869	522.36
57.2014	484.07
57.2158	524.86
57.2303	518.15
57.2447	511.51
57.2591	488.83
57.2736	517.11
57.2880	514.98
57.3025	482.40
57.3169	536.54
57.3313	529.32
57.3458	521.78
57.3602	521.58
57.3747	543.55
57.3891	544.51
57.4035	534.43
57.4180	506.08
57.4324	529.24
57.4469	525.35
57.4613	542.47
57.4757	541.15
57.4902	515.93
57.5046	521.88
57.5191	526.83
57.5335	521.13
57.5479	541.42
57.5624	499.32
57.5768	487.89
57.5913	501.04
57.6057	543.04
57.6201	541.40
57.6346	535.98
57.6490	541.11
57.6635	538.82
57.6779	559.66
57.6923	530.23
57.7068	542.19
57.7212	540.46
57.7357	521.13
57.7501	569.84
57.7645	572.35
57.7790	600.15
57.7934	627.70
57.8079	592.05
57.8223	658.54
57.8367	660.98
57.8512	712.62
57.8656	782.29
57.8801	753.10
57.8945	753.54
57.9089	762.34
57.9234	784.62
57.9378	732.42
57.9523	643.92
57.9667	613.55
57.9811	655.74
57.9956	667.03
58.0100	661.95
58.0245	691.72
58.0389	685.07
58.0533	654.23
58.0678	657.40
58.0822	675.16
58.0967	648.50
58.1111	615.33
58.1255	619.19
58.1400	563.67
58.1544	540.63
58.1689	560.50
58.1833	544.57
58.1977	542.08
58.2122	538.05
58.2266	550.39
58.2411	545.85
58.2555	572.16
58.2699	542.65
58.2844	546.42
58.2988	528.14
58.3133	502.73
58.3277	515.32
58.3421	527.50
58.3566	530.70
58.3710	550.37
58.3855	537.96
58.3999	498.88
58.4143	526.13
58.4288	554.11
58.4432	534.16
58.4577	514.03
58.4721	538.91
58.4865	502.87
58.5010	513.80
58.5154	533.38
58.5299	533.27
58.5443	525.11
58.5587	528.30
58.5732	524.95
58.5876	543.58
58.6021	521.52
58.6165	526.29
58.6309	538.98
58.6454	528.78
58.6598	567.42
58.6743	514.70
58.6887	521.53
58.7031	573.66
58.7176	558.49
58.7320	507.34
58.7465	543.34
58.7609	513.33
58.7753	532.50
58.7898	550.33
58.8042	521.72
58.8187	524.79
58.8331	541.61
58.8475	514.91
58.8620	541.09
58.8764	524.66
58.8909	551.58
58.9053	542.50
58.9197	522.48
58.9342	557.42
58.9486	535.25
58.9631	541.80
58.9775	537.52
58.9919	527.58
59.0064	508.04
59.0208	523.12
59.0353	530.88
59.0497	519.05
59.0641	563.20
59.0786	544.82
59.0930	551.47
59.1075	498.17
59.1219	547.69
59.1363	550.83
59.1508	530.62
59.1652	505.93
59.1797	542.54
59.1941	522.11
59.2085	534.20
59.2230	546.46
59.2374	545.92
59.2519	545.48
59.2663	504.28
59.2807	583.27
59.2952	538.68
59.3096	547.68
59.3241	565.82
59.3385	561.73
59.3529	581.34
59.3674	590.78
59.3818	604.84
59.3963	585.84
59.4107	559.97
59.4251	582.75
59.4396	584.06
59.4540	552.11
59.4685	578.46
59.4829	537.01
59.4973	526.01
59.5118	547.99
59.5262	531.41
59.5407	544.29
59.5551	537.12
59.5695	540.02
59.5840	546.22
59.5984	525.25
59.6129	599.87
59.6273	570.27
59.6417	501.44
59.6562	540.62
59.6706	554.49
59.6851	516.80
59.6995	526.20
59.7139	496.78
59.7284	530.36
59.7428	529.73
59.7573	534.49
59.7717	514.16
59.7861	522.27
59.8006	514.11
59.8150	541.51
59.8295	535.61
59.8439	537.90
59.8583	543.01
59.8728	556.87
59.8872	541.59
59.9017	555.50
59.9161	519.77
59.9305	521.66
59.9450	522.50
59.9594	519.91
59.9739	547.99
59.9883	522.25
60.0027	499.48
60.0172	523.85
60.0316	509.17
60.0461	514.71
60.0605	534.32
60.0750	519.10
60.0894	531.89
60.1038	572.05
60.1183	560.96
60.1327	495.21
60.1472	504.19
60.1616	546.78
60.1760	552.14
60.1905	477.98
60.2049	533.38
60.2194	533.34
60.2338	523.35
60.2482	521.92
60.2627	519.60
60.2771	519.01
60.2916	543.78
60.3060	540.96
60.3204	528.42
60.3349	552.86
60.3493	550.00
60.3638	564.26
60.3782	536.76
60.3926	506.92
60.4071	534.77
60.4215	540.07
60.4360	546.62
60.4504	540.27
60.4648	558.14
60.4793	557.08
60.4937	547.14
60.5082	492.06
60.5226	495.83
60.5370	518.99
60.5515	533.84
60.5659	505.56
60.5804	518.13
60.5948	517.37
60.6092	530.32
60.6237	534.19
60.6381	547.02
60.6526	516.97
60.6670	525.33
60.6814	562.09
60.6959	537.67
60.7103	539.49
60.7248	542.20
60.7392	529.75
60.7536	495.95
60.7681	470.16
60.7825	495.18
60.7970	531.71
60.8114	508.06
60.8258	534.93
60.8403	514.22
60.8547	505.31
60.8692	511.30
60.8836	546.67
60.8980	521.49
60.9125	516.94
60.9269	519.92
60.9414	539.36
60.9558	517.28
60.9702	563.55
60.9847	585.70
60.9991	557.88
61.0136	545.02
61.0280	570.18
61.0424	518.13
61.0569	496.06
61.0713	531.51
61.0858	544.37
61.1002	536.60
61.1146	566.55
61.1291	516.55
61.1435	504.83
61.1580	563.65
61.1724	579.19
61.1868	549.26
61.2013	567.40
61.2157	532.54
61.2302	526.63
61.2446	534.44
61.2590	543.37
61.2735	524.65
61.2879	544.92
61.3024	509.29
61.3168	523.86
61.3312	553.83
61.3457	559.13
61.3601	541.55
61.3746	504.49
61.3890	499.00
61.4034	552.33
61.4179	547.83
61.4323	530.72
61.4468	504.64
61.4612	553.95
61.4756	539.23
61.4901	538.27
61.5045	549.69
61.5190	547.53
61.5334	545.27
61.5478	553.51
61.5623	565.04
61.5767	581.23
61.5912	530.06
61.6056	542.28
61.6200	540.31
61.6345	551.66
61.6489	557.99
61.6634	529.35
61.6778	518.23
61.6922	538.14
61.7067	547.19
61.7211	585.01
61.7356	549.49
61.7500	534.60
61.7644	526.45
61.7789	547.95
61.7933	575.20
61.8078	541.70
61.8222	545.19
61.8366	545.66
61.8511	547.60
61.8655	521.04
61.8800	508.07
61.8944	584.81
61.9088	533.69
61.9233	534.34
61.9377	519.46
61.9522	535.18
61.9666	555.82
61.9810	524.87
61.9955	513.70
62.0099	502.30
62.0244	551.29
62.0388	547.11
62.0532	551.16
62.0677	522.47
62.0821	538.76
62.0966	557.58
62.1110	528.44
62.1254	602.48
62.1399	577.95
62.1543	512.41
62.1688	544.80
62.1832	532.57
62.1976	532.53
62.2121	543.12
62.2265	554.84
62.2410	563.66
62.2554	529.98
62.2698	534.58
62.2843	551.50
62.2987	537.60
62.3132	557.35
62.3276	571.28
62.3420	553.35
62.3565	566.87
62.3709	573.40
62.3854	541.44
62.3998	521.90
62.4142	535.54
62.4287	559.15
62.4431	553.78
62.4576	543.30
62.4720	553.18
62.4864	545.35
62.5009	549.93
62.5153	553.19
62.5298	563.41
62.5442	553.05
62.5586	578.54
62.5731	558.05
62.5875	538.84
62.6020	523.85
62.6164	535.53
62.6308	566.80
62.6453	572.96
62.6597	593.61
62.6742	562.78
62.6886	528.92
62.7030	533.44
62.7175	555.41
62.7319	547.17
62.7464	590.30
62.7608	540.57
62.7752	573.74
62.7897	558.80
62.8041	546.10
62.8186	569.04
62.8330	579.52
62.8474	585.81
62.8619	574.40
62.8763	585.08
62.8908	552.06
62.9052	557.77
62.9196	578.06
62.9341	581.14
62.9485	552.54
62.9630	563.36
62.9774	592.58
62.9918	582.09
63.0063	567.97
63.0207	572.42
63.0352	558.88
63.0496	579.66
63.0640	574.06
63.0785	579.59
63.0929	582.92
63.1074	556.87
63.1218	578.76
63.1362	560.76
63.1507	570.81
63.1651	560.53
63.1796	541.67
63.1940	547.75
63.2084	568.04
63.2229	581.76
63.2373	599.21
63.2518	583.56
63.2662	555.00
63.2806	607.65
63.2951	579.12
63.3095	577.45
63.3240	599.37
63.3384	608.57
63.3528	598.21
63.3673	607.06
63.3817	611.36
63.3962	593.99
63.4106	584.07
63.4250	609.84
63.4395	638.65
63.4539	650.95
63.4684	691.50
63.4828	742.90
63.4972	753.10
63.5117	791.08
63.5261	809.43
63.5406	895.44
63.5550	914.16
63.5694	928.52
63.5839	979.47
63.5983	945.30
63.6128	868.39
63.6272	843.55
63.6416	798.31
63.6561	778.78
63.6705	782.25
63.6850	755.68
63.6994	821.72
63.7138	844.72
63.7283	816.23
63.7427	828.18
63.7572	833.04
63.7716	784.64
63.7861	776.73
63.8005	744.66
63.8149	715.86
63.8294	726.57
63.8438	650.78
63.8583	648.11
63.8727	661.37
63.8871	605.67
63.9016	645.61
63.9160	625.32
63.9305	621.67
63.9449	583.79
63.9593	555.61
63.9738	593.78
63.9882	600.94
64.0027	621.89
64.0171	593.02
64.0315	613.47
64.0460	624.14
64.0604	571.49
64.0749	560.54
64.0893	650.50
64.1037	612.49
64.1182	592.06
64.1326	622.80
64.1471	587.39
64.1615	611.96
64.1759	612.38
64.1904	619.94
64.2048	617.70
64.2193	621.01
64.2337	643.91
64.2481	613.01
64.2626	591.87
64.2770	581.49
64.2915	596.94
64.3059	636.21
64.3203	613.49
64.3348	580.42
64.3492	584.70
64.3637	586.85
64.3781	586.73
64.3925	596.70
64.4070	596.69
64.4214	613.03
64.4359	614.15
64.4503	582.03
64.4647	590.03
64.4792	601.20
64.4936	651.37
64.5081	596.76
64.5225	601.51
64.5369	615.74
64.5514	604.84
64.5658	622.27
64.5803	641.98
64.5947	620.71
64.6091	654.74
64.6236	666.03
64.6380	691.08
64.6525	649.56
64.6669	628.77
64.6813	614.01
64.6958	629.21
64.7102	668.45
64.7247	671.27
64.7391	678.18
64.7535	715.90
64.7680	690.58
64.7824	696.90
64.7969	726.75
64.8113	783.53
64.8257	775.58
64.8402	801.25
64.8546	812.75
64.8691	837.76
64.8835	822.44
64.8979	855.78
64.9124	882.24
64.9268	868.81
64.9413	920.06
64.9557	930.17
64.9701	971.57
64.9846	1023.26
64.9990	1091.51
65.0135	1176.53
65.0279	1335.84
65.0423	1639.34
65.0568	1967.33
65.0712	2465.32
65.0857	3260.21
65.1001	4116.70
65.1145	5661.55
65.1290	7617.21
65.1434	9046.05
65.1579	10664.67
65.1723	11507.91
65.1867	11166.59
65.2012	10094.78
65.2156	8454.36
65.2301	6690.92
65.2445	5272.00
65.2589	4333.49
65.2734	4106.30
65.2878	4281.34
65.3023	4759.58
65.3167	5505.22
65.3311	6384.97
65.3456	6873.18
65.3600	6941.27
65.3745	6435.10
65.3889	5544.20
65.4033	4433.16
65.4178	3520.24
65.4322	2819.84
65.4467	2116.77
65.4611	1688.49
65.4755	1478.29
65.4900	1243.45
65.5044	1116.90
65.5189	1021.65
65.5333	993.81
65.5477	942.38
65.5622	866.37
65.5766	834.73
65.5911	817.13
65.6055	806.29
65.6199	790.62
65.6344	750.21
65.6488	724.68
65.6633	734.87
65.6777	711.66
65.6921	716.39
65.7066	736.28
65.7210	691.18
65.7355	677.25
65.7499	709.33
65.7643	639.73
65.7788	701.11
65.7932	681.09
65.8077	681.59
65.8221	639.61
65.8365	659.16
65.8510	673.22
65.8654	654.49
65.8799	668.42
65.8943	616.81
65.9087	645.13
65.9232	656.72
65.9376	667.55
65.9521	655.04
65.9665	622.31
65.9809	614.95
65.9954	644.82
66.0098	643.44
66.0243	635.96
66.0387	600.13
66.0531	599.86
66.0676	618.21
66.0820	635.66
66.0965	613.34
66.1109	604.92
66.1253	616.72
66.1398	599.29
66.1542	606.39
66.1687	607.51
66.1831	651.58
66.1975	653.74
66.2120	628.88
66.2264	615.12
66.2409	626.26
66.2553	617.14
66.2697	599.92
66.2842	611.54
66.2986	608.61
66.3131	632.17
66.3275	597.63
66.3419	571.60
66.3564	610.75
66.3708	594.74
66.3853	562.84
66.3997	597.81
66.4141	623.95
66.4286	629.99
66.4430	603.73
66.4575	618.06
66.4719	611.43
66.4863	586.42
66.5008	590.13
66.5152	568.43
66.5297	589.33
66.5441	556.40
66.5585	560.28
66.5730	622.61
66.5874	597.00
66.6019	604.25
66.6163	591.13
66.6307	587.47
66.6452	603.31
66.6596	620.36
66.6741	591.74
66.6885	560.66
66.7029	610.29
66.7174	611.16
66.7318	547.87
66.7463	575.51
66.7607	577.28
66.7751	593.60
66.7896	565.86
66.8040	584.37
66.8185	632.17
66.8329	577.54
66.8473	596.86
66.8618	593.11
66.8762	608.47
66.8907	572.73
66.9051	593.69
66.9195	576.53
66.9340	584.46
66.9484	615.21
66.9629	567.81
66.9773	557.10
66.9917	573.20
67.0062	573.28
67.0206	546.63
67.0351	523.94
67.0495	577.98
67.0639	571.08
67.0784	566.55
67.0928	579.23
67.1073	588.20
67.1217	568.62
67.1361	583.70
67.1506	569.09
67.1650	555.13
67.1795	579.46
67.1939	575.50
67.2083	573.97
67.2228	563.17
67.2372	572.87
67.2517	579.02
67.2661	609.94
67.2805	593.21
67.2950	584.73
67.3094	563.29
67.3239	555.51
67.3383	602.51
67.3527	584.91
67.3672	552.94
67.3816	558.21
67.3961	559.96
67.4105	577.92
67.4250	624.35
67.4394	599.28
67.4538	570.60
67.4683	590.97
67.4827	568.80
67.4972	591.10
67.5116	544.83
67.5260	556.02
67.5405	571.07
67.5549	569.40
67.5694	565.28
67.5838	567.88
67.5982	566.62
67.6127	560.41
67.6271	556.58
67.6416	577.33
67.6560	591.90
67.6704	534.08
67.6849	561.52
67.6993	548.70
67.7138	587.52
67.7282	561.67
67.7426	553.63
67.7571	575.11
67.7715	535.78
67.7860	557.62
67.8004	532.80
67.8148	567.02
67.8293	599.59
67.8437	563.19
67.8582	575.56
67.8726	580.77
67.8870	547.59
67.9015	555.63
67.9159	560.14
67.9304	551.05
67.9448	606.94
67.9592	533.04
67.9737	565.27
67.9881	630.71
68.0026	579.28
68.0170	585.07
68.0314	602.63
68.0459	558.27
68.0603	556.02
68.0748	569.28
68.0892	565.43
68.1036	537.79
68.1181	565.61
68.1325	572.11
68.1470	555.46
68.1614	591.37
68.1758	585.96
68.1903	529.77
68.2047	560.14
68.2192	597.42
68.2336	579.44
68.2480	586.65
68.2625	553.91
68.2769	539.32
68.2914	561.92
68.3058	592.19
68.3202	603.26
68.3347	570.21
68.3491	571.62
68.3636	548.59
68.3780	559.88
68.3924	581.60
68.4069	542.68
68.4213	551.54
68.4358	536.52
68.4502	580.80
68.4646	566.68
68.4791	615.09
68.4935	584.36
68.5080	543.70
68.5224	613.12
68.5368	572.79
68.5513	578.33
68.5657	573.47
68.5802	570.46
68.5946	586.31
68.6090	564.63
68.6235	556.42
68.6379	546.17
68.6524	577.58
68.6668	556.25
68.6812	561.79
68.6957	555.95
68.7101	587.27
68.7246	595.77
68.7390	561.03
68.7534	612.60
68.7679	562.41
68.7823	563.61
68.7968	558.74
68.8112	595.24
68.8256	611.08
68.8401	589.10
68.8545	531.85
68.8690	612.36
68.8834	565.68
68.8978	568.03
68.9123	577.78
68.9267	548.73
68.9412	612.31
68.9556	567.23
68.9700	537.54
68.9845	557.22
68.9989	586.61
69.0134	579.33
69.0278	549.09
69.0422	606.22
69.0567	595.77
69.0711	552.66
69.0856	573.86
69.1000	564.77
69.1144	552.52
69.1289	577.62
69.1433	578.29
69.1578	564.90
69.1722	563.68
69.1866	550.38
69.2011	525.48
69.2155	550.35
69.2300	539.27
69.2444	592.23
69.2588	580.33
69.2733	577.12
69.2877	589.79
69.3022	624.27
69.3166	588.02
69.3310	608.15
69.3455	583.49
69.3599	545.54
69.3744	601.16
69.3888	559.29
69.4032	594.19
69.4177	611.06
69.4321	577.68
69.4466	560.52
69.4610	580.08
69.4754	547.93
69.4899	592.36
69.5043	587.98
69.5188	569.62
69.5332	603.32
69.5476	624.27
69.5621	591.48
69.5765	545.88
69.5910	558.41
69.6054	608.34
69.6198	568.74
69.6343	580.11
69.6487	535.69
69.6632	615.86
69.6776	570.02
69.6920	590.87
69.7065	630.76
69.7209	588.01
69.7354	569.29
69.7498	618.06
69.7642	558.95
69.7787	587.59
69.7931	599.54
69.8076	575.66
69.8220	582.56
69.8364	583.02
69.8509	582.56
69.8653	593.56
69.8798	604.84
69.8942	584.94
69.9086	584.64
69.9231	596.64
69.9375	583.29
69.9520	555.55
69.9664	551.17
69.9808	525.84
69.9953	550.36
70.0097	555.91
70.0242	543.06
70.0386	596.61
70.0530	609.21
70.0675	579.74
70.0819	593.93
70.0964	614.67
70.1108	563.54
70.1252	590.72
70.1397	581.40
70.1541	536.90
70.1686	539.94
70.1830	537.60
70.1974	589.34
70.2119	564.03
70.2263	547.61
70.2408	615.91
70.2552	553.06
70.2696	582.07
70.2841	613.78
70.2985	572.19
70.3130	597.47
70.3274	584.07
70.3418	564.98
70.3563	551.65
70.3707	551.20
70.3852	598.61
70.3996	581.73
70.4140	546.40
70.4285	606.47
70.4429	578.42
70.4574	584.85
70.4718	599.83
70.4862	565.55
70.5007	599.88
70.5151	597.69
70.5296	572.51
70.5440	550.13
70.5584	585.28
70.5729	617.32
70.5873	530.87
70.6018	579.94
70.6162	601.20
70.6306	602.89
70.6451	591.23
70.6595	570.41
70.6740	577.03
70.6884	618.70
70.7028	638.63
70.7173	579.08
70.7317	556.28
70.7462	565.36
70.7606	575.09
70.7750	593.35
70.7895	589.23
70.8039	585.67
70.8184	592.54
70.8328	592.54
70.8472	593.69
70.8617	541.79
70.8761	545.34
70.8906	593.96
70.9050	626.77
70.9194	568.64
70.9339	603.07
70.9483	616.52
70.9628	631.87
70.9772	596.70
70.9916	612.66
71.0061	598.46
71.0205	592.84
71.0350	524.39
71.0494	518.66
71.0638	574.83
71.0783	570.26
71.0927	603.08
71.1072	623.60
71.1216	578.76
71.1361	562.96
71.1505	567.68
71.1649	574.82
71.1794	565.74
71.1938	564.75
71.2083	615.03
71.2227	567.68
71.2371	550.70
71.2516	570.80
71.2660	531.59
71.2805	518.42
71.2949	529.01
71.3093	530.82
71.3238	564.16
71.3382	606.39
71.3527	580.07
71.3671	596.92
71.3815	638.11
71.3960	567.98
71.4104	509.72
71.4249	562.87
71.4393	565.13
71.4537	516.91
71.4682	569.83
71.4826	559.07
71.4971	569.75
71.5115	565.31
71.5259	549.25
71.5404	577.15
71.5548	574.12
71.5693	599.83
71.5837	588.99
71.5981	543.42
71.6126	581.49
71.6270	597.24
71.6415	601.39
71.6559	588.58
71.6703	555.89
71.6848	572.76
71.6992	569.76
71.7137	565.77
71.7281	580.28
71.7425	583.97
71.7570	551.93
71.7714	572.43
71.7859	518.57
71.8003	581.09
71.8147	645.94
71.8292	599.55
71.8436	568.77
71.8581	565.48
71.8725	598.39
71.8869	519.68
71.9014	552.39
71.9158	607.61
71.9303	657.34
71.9447	657.15
71.9591	582.01
71.9736	520.16
71.9880	548.81
72.0025	569.36
72.0169	530.80
72.0313	475.59
72.0458	563.31
72.0602	610.59
72.0747	600.37
72.0891	629.29
72.1035	613.15
72.1180	576.89
72.1324	580.55
72.1469	596.59
72.1613	620.38
72.1757	623.74
72.1902	573.21
72.2046	569.79
72.2191	534.35
72.2335	567.84
72.2479	549.94
72.2624	535.32
72.2768	656.76
72.2913	578.67
72.3057	587.11
72.3201	689.83
72.3346	673.49
72.3490	608.91
72.3635	630.24
72.3779	591.43
72.3923	568.90
72.4068	571.89
72.4212	557.61
72.4357	608.29
72.4501	595.75
72.4645	566.51
72.4790	543.16
72.4934	589.38
72.5079	572.95
72.5223	513.32
72.5367	561.65
72.5512	608.72
72.5656	637.28
72.5801	571.64
72.5945	409.74
72.6089	416.58
72.6234	529.99
72.6378	552.79
72.6523	616.43
72.6667	623.61
72.6811	599.74
72.6956	551.18
72.7100	542.39
72.7245	478.23
72.7389	498.72
72.7533	530.87
72.7678	539.19
72.7822	597.71
72.7967	544.87
72.8111	515.24
72.8255	568.07
72.8400	586.55
72.8544	520.39
72.8689	600.11
72.8833	567.35