2022.09.19 19:37:17
Îáðàçåö: ß÷åéêà LCoV 16-09-2022
Lambda1 = 1.54060
Lambda2 = 1.54439
Lambdam = 1.54186
R = 0.497
2Theta	I

line¹ 0 ;repeat¹ 0
22.1120	597.09
22.1264	552.43
22.1409	575.44
22.1553	592.35
22.1697	601.52
22.1842	602.36
22.1986	560.88
22.2131	598.87
22.2275	542.90
22.2419	596.52
22.2564	458.15
22.2708	504.68
22.2853	640.93
22.2997	536.83
22.3141	570.36
22.3286	483.60
22.3430	613.01
22.3575	570.48
22.3719	565.53
22.3863	581.98
22.4008	561.66
22.4152	560.55
22.4297	600.00
22.4441	585.44
22.4585	662.89
22.4730	654.86
22.4874	618.04
22.5019	603.48
22.5163	614.08
22.5307	685.54
22.5452	637.83
22.5596	578.62
22.5741	631.19
22.5885	519.48
22.6029	621.10
22.6174	593.88
22.6318	523.62
22.6463	536.07
22.6607	503.78
22.6751	478.59
22.6896	560.60
22.7040	564.05
22.7185	620.47
22.7329	666.51
22.7473	600.51
22.7618	528.23
22.7762	476.79
22.7907	570.67
22.8051	550.49
22.8195	540.81
22.8340	579.48
22.8484	609.82
22.8629	678.78
22.8773	720.24
22.8917	661.25
22.9062	563.59
22.9206	506.15
22.9351	464.21
22.9495	549.18
22.9639	555.00
22.9784	554.81
22.9928	576.62
23.0073	579.01
23.0217	608.70
23.0361	560.43
23.0506	583.82
23.0650	559.92
23.0795	532.43
23.0939	588.53
23.1083	547.11
23.1228	621.92
23.1372	541.73
23.1517	501.74
23.1661	541.11
23.1806	538.70
23.1950	538.06
23.2094	563.83
23.2239	565.20
23.2383	555.86
23.2528	554.76
23.2672	527.81
23.2816	557.96
23.2961	504.22
23.3105	545.17
23.3250	519.92
23.3394	604.17
23.3538	572.59
23.3683	584.40
23.3827	576.36
23.3972	526.39
23.4116	494.49
23.4260	516.72
23.4405	502.86
23.4549	566.16
23.4694	520.18
23.4838	601.68
23.4982	548.59
23.5127	536.90
23.5271	535.46
23.5416	586.75
23.5560	620.74
23.5704	552.36
23.5849	572.00
23.5993	581.11
23.6138	561.42
23.6282	517.90
23.6426	553.78
23.6571	580.33
23.6715	564.10
23.6860	516.36
23.7004	566.38
23.7148	546.84
23.7293	559.91
23.7437	541.78
23.7582	563.31
23.7726	583.23
23.7870	581.53
23.8015	518.93
23.8159	497.33
23.8304	483.87
23.8448	533.28
23.8592	602.24
23.8737	598.47
23.8881	501.86
23.9026	587.35
23.9170	529.83
23.9314	569.28
23.9459	522.07
23.9603	523.21
23.9748	544.70
23.9892	559.11
24.0036	586.72
24.0181	578.07
24.0325	538.10
24.0470	519.55
24.0614	556.71
24.0758	513.37
24.0903	576.66
24.1047	556.34
24.1192	577.65
24.1336	568.77
24.1480	577.02
24.1625	617.58
24.1769	566.49
24.1914	516.47
24.2058	568.43
24.2202	559.53
24.2347	554.44
24.2491	608.97
24.2636	570.34
24.2780	565.45
24.2924	585.27
24.3069	595.48
24.3213	557.09
24.3358	584.71
24.3502	581.90
24.3646	579.33
24.3791	515.53
24.3935	552.25
24.4080	541.73
24.4224	567.40
24.4368	570.24
24.4513	524.44
24.4657	526.74
24.4802	535.46
24.4946	555.64
24.5090	558.56
24.5235	504.68
24.5379	595.13
24.5524	556.72
24.5668	519.19
24.5812	596.17
24.5957	540.48
24.6101	560.24
24.6246	478.19
24.6390	538.71
24.6534	553.72
24.6679	558.10
24.6823	526.20
24.6968	523.80
24.7112	541.54
24.7256	567.15
24.7401	522.52
24.7545	510.19
24.7690	508.79
24.7834	532.79
24.7978	574.81
24.8123	538.34
24.8267	540.62
24.8412	574.18
24.8556	547.07
24.8700	496.89
24.8845	482.42
24.8989	562.49
24.9134	536.61
24.9278	560.36
24.9422	528.25
24.9567	577.70
24.9711	516.33
24.9856	537.16
25.0000	513.10
25.0144	568.42
25.0289	543.42
25.0433	504.83
25.0578	536.18
25.0722	561.32
25.0866	583.37
25.1011	518.84
25.1155	550.98
25.1300	587.83
25.1444	570.85
25.1588	546.92
25.1733	535.29
25.1877	512.58
25.2022	507.61
25.2166	615.63
25.2310	551.97
25.2455	545.61
25.2599	487.69
25.2744	536.11
25.2888	583.49
25.3032	532.01
25.3177	511.61
25.3321	538.69
25.3466	572.94
25.3610	529.33
25.3754	558.37
25.3899	517.25
25.4043	522.33
25.4188	557.81
25.4332	542.23
25.4476	537.26
25.4621	538.91
25.4765	555.97
25.4910	554.76
25.5054	553.31
25.5198	497.61
25.5343	560.05
25.5487	576.54
25.5632	560.33
25.5776	545.21
25.5920	551.95
25.6065	563.68
25.6209	534.92
25.6354	540.54
25.6498	515.42
25.6642	538.00
25.6787	484.45
25.6931	499.94
25.7076	550.81
25.7220	582.40
25.7364	494.71
25.7509	486.64
25.7653	505.02
25.7798	554.44
25.7942	582.47
25.8086	570.84
25.8231	534.90
25.8375	535.47
25.8520	533.65
25.8664	593.90
25.8808	598.90
25.8953	528.31
25.9097	488.50
25.9242	527.61
25.9386	567.66
25.9530	529.48
25.9675	498.92
25.9819	514.39
25.9964	534.21
26.0108	525.62
26.0252	527.38
26.0397	527.87
26.0541	519.44
26.0686	553.84
26.0830	549.52
26.0974	518.13
26.1119	548.41
26.1263	546.30
26.1408	522.96
26.1552	514.82
26.1696	526.39
26.1841	537.89
26.1985	530.89
26.2130	499.84
26.2274	514.96
26.2418	552.20
26.2563	529.94
26.2707	495.31
26.2852	486.06
26.2996	528.62
26.3140	521.51
26.3285	510.15
26.3429	505.21
26.3574	530.18
26.3718	537.89
26.3862	509.27
26.4007	502.18
26.4151	516.77
26.4296	533.86
26.4440	524.73
26.4584	517.36
26.4729	556.17
26.4873	539.77
26.5018	522.45
26.5162	518.98
26.5306	524.37
26.5451	511.49
26.5595	535.24
26.5740	527.26
26.5884	539.85
26.6028	527.95
26.6173	553.72
26.6317	564.46
26.6462	540.81
26.6606	534.82
26.6750	531.41
26.6895	520.85
26.7039	543.03
26.7184	531.99
26.7328	518.84
26.7472	537.85
26.7617	546.35
26.7761	519.37
26.7906	499.24
26.8050	520.19
26.8194	545.63
26.8339	520.47
26.8483	504.63
26.8628	524.20
26.8772	540.07
26.8917	510.23
26.9061	505.71
26.9205	520.63
26.9350	510.25
26.9494	499.64
26.9639	514.65
26.9783	531.36
26.9927	516.33
27.0072	530.54
27.0216	566.07
27.0361	552.93
27.0505	528.45
27.0649	518.46
27.0794	536.04
27.0938	538.98
27.1083	524.02
27.1227	539.64
27.1371	535.01
27.1516	517.89
27.1660	518.37
27.1805	513.18
27.1949	494.43
27.2093	497.01
27.2238	515.88
27.2382	487.38
27.2527	527.07
27.2671	522.01
27.2815	516.87
27.2960	525.16
27.3104	525.70
27.3249	505.14
27.3393	551.40
27.3537	531.14
27.3682	514.49
27.3826	549.47
27.3971	520.33
27.4115	524.37
27.4259	539.03
27.4404	508.29
27.4548	519.32
27.4693	525.52
27.4837	519.52
27.4981	521.13
27.5126	494.41
27.5270	496.90
27.5415	491.96
27.5559	503.13
27.5703	508.76
27.5848	523.94
27.5992	517.06
27.6137	535.03
27.6281	533.15
27.6425	516.88
27.6570	495.02
27.6714	485.51
27.6859	485.90
27.7003	495.74
27.7147	520.97
27.7292	531.01
27.7436	525.96
27.7581	534.67
27.7725	533.86
27.7869	510.22
27.8014	510.67
27.8158	499.18
27.8303	521.21
27.8447	508.20
27.8591	511.28
27.8736	526.61
27.8880	523.29
27.9025	564.64
27.9169	497.18
27.9313	485.01
27.9458	498.74
27.9602	490.28
27.9747	539.99
27.9891	510.97
28.0035	496.91
28.0180	484.41
28.0324	477.33
28.0469	515.24
28.0613	528.78
28.0757	501.12
28.0902	485.28
28.1046	506.74
28.1191	512.64
28.1335	502.65
28.1479	512.86
28.1624	480.96
28.1768	544.15
28.1913	549.89
28.2057	546.94
28.2201	478.91
28.2346	498.90
28.2490	485.33
28.2635	499.61
28.2779	466.74
28.2923	475.56
28.3068	505.46
28.3212	502.40
28.3357	485.69
28.3501	527.40
28.3645	547.90
28.3790	513.24
28.3934	528.52
28.4079	509.70
28.4223	506.10
28.4367	501.60
28.4512	489.90
28.4656	500.76
28.4801	492.51
28.4945	517.18
28.5089	511.73
28.5234	505.29
28.5378	548.47
28.5523	509.47
28.5667	504.31
28.5811	518.28
28.5956	491.58
28.6100	536.99
28.6245	498.60
28.6389	533.99
28.6533	525.46
28.6678	507.85
28.6822	509.44
28.6967	510.89
28.7111	530.98
28.7255	520.25
28.7400	508.83
28.7544	539.50
28.7689	533.71
28.7833	528.58
28.7977	521.50
28.8122	552.38
28.8266	514.51
28.8411	514.26
28.8555	545.49
28.8699	499.32
28.8844	505.16
28.8988	517.83
28.9133	484.36
28.9277	493.93
28.9421	457.65
28.9566	484.30
28.9710	485.33
28.9855	510.21
28.9999	504.65
29.0143	487.67
29.0288	505.95
29.0432	496.29
29.0577	501.55
29.0721	534.98
29.0865	504.03
29.1010	496.42
29.1154	479.26
29.1299	491.94
29.1443	484.59
29.1587	482.34
29.1732	490.19
29.1876	504.16
29.2021	481.50
29.2165	500.95
29.2309	534.71
29.2454	508.26
29.2598	500.93
29.2743	512.29
29.2887	505.04
29.3031	509.84
29.3176	521.58
29.3320	517.88
29.3465	532.02
29.3609	464.30
29.3753	499.52
29.3898	503.90
29.4042	503.06
29.4187	517.32
29.4331	469.29
29.4475	485.53
29.4620	509.93
29.4764	552.74
29.4909	507.62
29.5053	483.27
29.5197	497.71
29.5342	487.94
29.5486	510.88
29.5631	498.36
29.5775	529.75
29.5919	465.17
29.6064	479.81
29.6208	484.51
29.6353	511.25
29.6497	516.38
29.6641	483.70
29.6786	502.47
29.6930	506.94
29.7075	526.70
29.7219	507.77
29.7363	486.25
29.7508	503.92
29.7652	494.76
29.7797	475.71
29.7941	504.08
29.8085	509.06
29.8230	518.94
29.8374	506.51
29.8519	498.16
29.8663	536.19
29.8807	510.74
29.8952	536.85
29.9096	526.73
29.9241	491.33
29.9385	513.61
29.9529	520.58
29.9674	446.54
29.9818	464.85
29.9963	503.64
30.0107	526.62
30.0251	506.25
30.0396	487.01
30.0540	509.93
30.0685	523.71
30.0829	491.99
30.0973	523.97
30.1118	515.15
30.1262	476.33
30.1407	499.23
30.1551	479.45
30.1695	507.44
30.1840	515.42
30.1984	503.34
30.2129	487.62
30.2273	495.19
30.2417	524.10
30.2562	541.56
30.2706	516.59
30.2851	533.85
30.2995	507.85
30.3139	533.97
30.3284	525.83
30.3428	477.69
30.3573	479.11
30.3717	499.42
30.3861	486.22
30.4006	527.72
30.4150	535.92
30.4295	537.13
30.4439	577.25
30.4583	560.65
30.4728	570.56
30.4872	588.66
30.5017	587.86
30.5161	639.14
30.5305	665.64
30.5450	712.80
30.5594	751.86
30.5739	736.16
30.5883	740.03
30.6028	769.09
30.6172	702.13
30.6316	685.88
30.6461	698.65
30.6605	638.73
30.6750	602.85
30.6894	568.61
30.7038	565.45
30.7183	521.32
30.7327	556.40
30.7472	562.31
30.7616	526.34
30.7760	528.93
30.7905	492.26
30.8049	529.64
30.8194	542.70
30.8338	515.82
30.8482	506.58
30.8627	509.31
30.8771	506.74
30.8916	508.68
30.9060	506.92
30.9204	513.37
30.9349	528.05
30.9493	523.22
30.9638	491.43
30.9782	503.22
30.9926	490.80
31.0071	493.35
31.0215	507.06
31.0360	533.86
31.0504	517.95
31.0648	511.19
31.0793	508.51
31.0937	519.31
31.1082	511.96
31.1226	535.08
31.1370	506.91
31.1515	463.99
31.1659	480.60
31.1804	488.38
31.1948	512.94
31.2092	513.66
31.2237	529.41
31.2381	533.89
31.2526	501.96
31.2670	482.38
31.2814	523.43
31.2959	487.81
31.3103	511.98
31.3248	506.74
31.3392	522.61
31.3536	539.85
31.3681	525.07
31.3825	495.93
31.3970	499.23
31.4114	514.09
31.4258	517.18
31.4403	510.43
31.4547	494.36
31.4692	509.91
31.4836	492.47
31.4980	496.06
31.5125	531.25
31.5269	510.66
31.5414	494.29
31.5558	512.59
31.5702	489.41
31.5847	512.93
31.5991	494.79
31.6136	493.68
31.6280	502.33
31.6424	520.45
31.6569	492.74
31.6713	507.35
31.6858	481.61
31.7002	525.32
31.7146	528.22
31.7291	510.50
31.7435	496.46
31.7580	485.00
31.7724	506.80
31.7868	510.54
31.8013	482.99
31.8157	479.51
31.8302	504.59
31.8446	487.03
31.8590	489.79
31.8735	488.77
31.8879	511.31
31.9024	519.54
31.9168	506.76
31.9312	491.42
31.9457	514.18
31.9601	482.59
31.9746	509.60
31.9890	510.13
32.0034	489.28
32.0179	453.88
32.0323	498.83
32.0468	501.60
32.0612	504.68
32.0756	491.47
32.0901	499.21
32.1045	478.07
32.1190	495.78
32.1334	499.80
32.1478	480.98
32.1623	483.15
32.1767	487.80
32.1912	508.92
32.2056	512.56
32.2200	489.99
32.2345	470.98
32.2489	466.78
32.2634	475.35
32.2778	517.90
32.2922	490.18
32.3067	519.58
32.3211	497.54
32.3356	514.12
32.3500	507.07
32.3644	479.57
32.3789	485.46
32.3933	477.12
32.4078	490.51
32.4222	532.07
32.4366	496.78
32.4511	491.61
32.4655	478.81
32.4800	509.00
32.4944	496.45
32.5088	484.53
32.5233	487.50
32.5377	515.76
32.5522	470.76
32.5666	503.72
32.5810	503.57
32.5955	521.92
32.6099	526.68
32.6244	484.76
32.6388	498.29
32.6532	504.05
32.6677	489.92
32.6821	486.51
32.6966	522.36
32.7110	546.94
32.7254	528.05
32.7399	535.46
32.7543	516.59
32.7688	519.04
32.7832	518.47
32.7976	518.46
32.8121	528.79
32.8265	542.95
32.8410	538.64
32.8554	529.87
32.8698	538.52
32.8843	503.64
32.8987	514.10
32.9132	527.44
32.9276	497.72
32.9420	508.76
32.9565	472.34
32.9709	457.48
32.9854	524.17
32.9998	493.16
33.0142	474.48
33.0287	487.19
33.0431	524.77
33.0576	530.36
33.0720	535.48
33.0864	532.60
33.1009	531.33
33.1153	497.27
33.1298	487.33
33.1442	508.23
33.1586	503.17
33.1731	480.79
33.1875	468.25
33.2020	521.99
33.2164	535.44
33.2308	543.80
33.2453	477.96
33.2597	486.91
33.2742	496.36
33.2886	482.68
33.3030	495.31
33.3175	505.65
33.3319	525.72
33.3464	496.56
33.3608	523.60
33.3752	518.99
33.3897	499.73
33.4041	503.72
33.4186	504.45
33.4330	516.76
33.4474	512.76
33.4619	522.77
33.4763	511.44
33.4908	482.85
33.5052	480.36
33.5196	480.44
33.5341	472.99
33.5485	530.41
33.5630	470.32
33.5774	490.92
33.5918	499.57
33.6063	504.15
33.6207	526.75
33.6352	529.93
33.6496	504.16
33.6640	483.70
33.6785	478.79
33.6929	509.27
33.7074	508.68
33.7218	466.73
33.7362	524.91
33.7507	538.25
33.7651	479.20
33.7796	497.75
33.7940	508.11
33.8084	516.71
33.8229	509.76
33.8373	511.93
33.8518	506.45
33.8662	539.64
33.8806	492.49
33.8951	483.87
33.9095	534.29
33.9240	487.91
33.9384	511.69
33.9528	534.38
33.9673	519.12
33.9817	501.24
33.9962	507.26
34.0106	508.28
34.0250	505.58
34.0395	494.76
34.0539	480.58
34.0684	510.63
34.0828	532.56
34.0972	508.17
34.1117	507.02
34.1261	477.19
34.1406	505.91
34.1550	498.39
34.1694	485.72
34.1839	491.26
34.1983	534.97
34.2128	509.27
34.2272	517.65
34.2417	526.58
34.2561	515.60
34.2705	492.06
34.2850	520.10
34.2994	490.38
34.3139	505.11
34.3283	497.76
34.3427	507.74
34.3572	535.16
34.3716	533.79
34.3861	497.26
34.4005	483.31
34.4149	509.68
34.4294	539.22
34.4438	508.61
34.4583	504.05
34.4727	538.77
34.4871	535.38
34.5016	510.37
34.5160	513.07
34.5305	503.10
34.5449	503.83
34.5593	518.42
34.5738	507.36
34.5882	512.25
34.6027	502.74
34.6171	481.37
34.6315	494.43
34.6460	489.12
34.6604	474.90
34.6749	501.07
34.6893	486.68
34.7037	491.33
34.7182	530.21
34.7326	508.41
34.7471	512.93
34.7615	492.88
34.7759	519.60
34.7904	567.55
34.8048	518.64
34.8193	501.82
34.8337	499.91
34.8481	484.72
34.8626	538.51
34.8770	499.07
34.8915	512.97
34.9059	550.23
34.9203	513.18
34.9348	519.82
34.9492	522.76
34.9637	511.24
34.9781	491.29
34.9925	497.94
35.0070	506.61
35.0214	531.25
35.0359	559.50
35.0503	520.33
35.0647	504.72
35.0792	510.20
35.0936	510.08
35.1081	510.29
35.1225	556.85
35.1369	508.45
35.1514	476.77
35.1658	497.42
35.1803	517.90
35.1947	479.08
35.2091	488.70
35.2236	499.67
35.2380	540.10
35.2525	534.72
35.2669	511.87
35.2813	504.05
35.2958	468.75
35.3102	527.60
35.3247	547.46
35.3391	516.56
35.3535	495.56
35.3680	460.05
35.3824	484.56
35.3969	504.15
35.4113	483.86
35.4257	524.89
35.4402	507.21
35.4546	512.11
35.4691	533.72
35.4835	552.80
35.4979	545.01
35.5124	503.25
35.5268	536.58
35.5413	537.92
35.5557	551.86
35.5701	508.99
35.5846	508.48
35.5990	519.61
35.6135	499.11
35.6279	504.32
35.6423	521.33
35.6568	536.91
35.6712	591.04
35.6857	603.03
35.7001	661.58
35.7145	736.58
35.7290	690.50
35.7434	644.80
35.7579	611.39
35.7723	638.09
35.7867	667.00
35.8012	686.75
35.8156	735.65
35.8301	725.21
35.8445	688.75
35.8589	759.70
35.8734	820.21
35.8878	939.24
35.9023	1074.94
35.9167	1189.73
35.9311	1260.39
35.9456	1644.34
35.9600	1993.98
35.9745	2115.03
35.9889	2309.63
36.0033	2801.00
36.0178	3108.18
36.0322	3207.34
36.0467	2670.43
36.0611	2167.52
36.0755	1841.50
36.0900	2152.16
36.1044	2102.71
36.1189	1513.02
36.1333	1322.01
36.1477	1102.84
36.1622	1023.05
36.1766	935.91
36.1911	840.07
36.2055	755.42
36.2199	790.49
36.2344	729.49
36.2488	607.08
36.2633	557.22
36.2777	577.11
36.2921	570.54
36.3066	554.49
36.3210	541.63
36.3355	544.57
36.3499	572.95
36.3643	556.42
36.3788	521.19
36.3932	531.54
36.4077	507.17
36.4221	526.03
36.4365	547.99
36.4510	522.68
36.4654	532.05
36.4799	540.49
36.4943	532.45
36.5087	525.48
36.5232	521.67
36.5376	539.36
36.5521	554.12
36.5665	474.32
36.5809	537.03
36.5954	497.79
36.6098	534.24
36.6243	514.25
36.6387	503.38
36.6531	537.66
36.6676	531.81
36.6820	530.21
36.6965	558.29
36.7109	548.51
36.7253	526.47
36.7398	540.18
36.7542	523.62
36.7687	507.53
36.7831	500.92
36.7975	523.89
36.8120	513.13
36.8264	557.24
36.8409	583.92
36.8553	589.40
36.8697	610.52
36.8842	624.25
36.8986	599.20
36.9131	587.58
36.9275	537.65
36.9419	623.61
36.9564	548.81
36.9708	505.33
36.9853	535.03
36.9997	561.66
37.0141	519.34
37.0286	517.63
37.0430	525.58
37.0575	508.34
37.0719	536.48
37.0863	544.79
37.1008	533.49
37.1152	500.17
37.1297	539.41
37.1441	510.53
37.1585	505.40
37.1730	500.78
37.1874	495.13
37.2019	506.13
37.2163	514.06
37.2307	484.79
37.2452	556.15
37.2596	533.46
37.2741	459.56
37.2885	468.47
37.3029	506.00
37.3174	486.79
37.3318	519.76
37.3463	492.85
37.3607	496.06
37.3751	502.23
37.3896	479.93
37.4040	484.63
37.4185	488.81
37.4329	494.21
37.4473	476.43
37.4618	474.77
37.4762	483.67
37.4907	522.77
37.5051	489.14
37.5195	492.26
37.5340	501.08
37.5484	512.14
37.5629	496.92
37.5773	491.54
37.5917	435.34
37.6062	488.53
37.6206	496.05
37.6351	487.92
37.6495	499.82
37.6639	481.31
37.6784	472.64
37.6928	495.57
37.7073	533.31
37.7217	507.94
37.7361	524.78
37.7506	532.94
37.7650	455.77
37.7795	496.49
37.7939	535.38
37.8083	508.64
37.8228	489.09
37.8372	507.19
37.8517	507.42
37.8661	532.64
37.8805	475.49
37.8950	467.79
37.9094	495.78
37.9239	514.45
37.9383	535.59
37.9528	509.37
37.9672	465.78
37.9816	490.82
37.9961	483.45
38.0105	506.51
38.0250	518.84
38.0394	475.13
38.0538	476.30
38.0683	473.65
38.0827	494.90
38.0972	491.71
38.1116	488.28
38.1260	497.88
38.1405	486.71
38.1549	478.59
38.1694	523.29
38.1838	511.72
38.1982	489.84
38.2127	479.66
38.2271	467.62
38.2416	481.71
38.2560	456.27
38.2704	451.18
38.2849	514.81
38.2993	520.37
38.3138	509.80
38.3282	486.64
38.3426	486.96
38.3571	483.17
38.3715	506.16
38.3860	536.36
38.4004	525.69
38.4148	546.01
38.4293	567.64
38.4437	569.87
38.4582	580.60
38.4726	684.10
38.4870	675.16
38.5015	719.73
38.5159	768.86
38.5304	791.52
38.5448	772.85
38.5592	807.78
38.5737	778.49
38.5881	730.66
38.6026	720.53
38.6170	685.49
38.6314	696.27
38.6459	669.42
38.6603	610.94
38.6748	606.58
38.6892	569.44
38.7036	541.14
38.7181	555.66
38.7325	538.22
38.7470	527.91
38.7614	532.93
38.7758	519.65
38.7903	505.92
38.8047	515.46
38.8192	524.09
38.8336	484.45
38.8480	530.03
38.8625	531.34
38.8769	513.53
38.8914	485.31
38.9058	512.91
38.9202	477.90
38.9347	541.55
38.9491	535.66
38.9636	497.17
38.9780	499.30
38.9924	519.89
39.0069	492.24
39.0213	476.16
39.0358	500.92
39.0502	500.69
39.0646	500.99
39.0791	495.09
39.0935	529.66
39.1080	478.24
39.1224	465.99
39.1368	519.23
39.1513	517.11
39.1657	508.11
39.1802	514.38
39.1946	464.39
39.2090	473.24
39.2235	521.87
39.2379	518.97
39.2524	504.63
39.2668	509.75
39.2812	496.50
39.2957	503.08
39.3101	510.60
39.3246	507.10
39.3390	532.56
39.3534	492.25
39.3679	507.79
39.3823	517.90
39.3968	497.07
39.4112	502.65
39.4256	514.37
39.4401	477.91
39.4545	498.50
39.4690	463.04
39.4834	476.60
39.4978	482.54
39.5123	497.30
39.5267	490.65
39.5412	475.08
39.5556	494.35
39.5700	487.15
39.5845	499.30
39.5989	477.06
39.6134	501.09
39.6278	480.55
39.6422	472.46
39.6567	511.93
39.6711	479.93
39.6856	499.46
39.7000	496.89
39.7144	506.95
39.7289	488.69
39.7433	486.28
39.7578	518.62
39.7722	512.78
39.7866	512.04
39.8011	515.33
39.8155	517.12
39.8300	511.59
39.8444	478.38
39.8588	525.41
39.8733	506.62
39.8877	500.73
39.9022	530.12
39.9166	491.96
39.9310	523.97
39.9455	490.88
39.9599	516.83
39.9744	480.14
39.9888	474.17
40.0032	465.49
40.0177	483.73
40.0321	504.26
40.0466	524.07
40.0610	504.25
40.0754	473.50
40.0899	538.63
40.1043	522.66
40.1188	510.70
40.1332	526.00
40.1476	501.61
40.1621	522.10
40.1765	481.14
40.1910	455.93
40.2054	474.86
40.2198	476.48
40.2343	530.92
40.2487	490.62
40.2632	504.85
40.2776	491.78
40.2920	484.15
40.3065	502.31
40.3209	498.81
40.3354	531.49
40.3498	489.44
40.3642	493.08
40.3787	493.98
40.3931	478.23
40.4076	485.87
40.4220	511.95
40.4364	499.29
40.4509	468.36
40.4653	483.38
40.4798	502.33
40.4942	476.71
40.5086	477.94
40.5231	487.07
40.5375	496.44
40.5520	509.50
40.5664	490.92
40.5808	509.95
40.5953	470.49
40.6097	466.97
40.6242	500.55
40.6386	482.49
40.6530	505.27
40.6675	483.39
40.6819	481.24
40.6964	505.34
40.7108	532.10
40.7252	520.84
40.7397	529.70
40.7541	472.11
40.7686	492.77
40.7830	528.61
40.7974	547.12
40.8119	479.91
40.8263	470.79
40.8408	497.00
40.8552	503.73
40.8696	519.28
40.8841	495.57
40.8985	497.06
40.9130	504.95
40.9274	505.56
40.9418	487.75
40.9563	508.44
40.9707	495.66
40.9852	481.87
40.9996	491.01
41.0140	470.76
41.0285	478.10
41.0429	506.04
41.0574	527.89
41.0718	514.20
41.0862	487.55
41.1007	469.36
41.1151	507.15
41.1296	539.94
41.1440	532.21
41.1584	481.68
41.1729	514.60
41.1873	501.10
41.2018	514.54
41.2162	515.87
41.2306	509.01
41.2451	482.73
41.2595	505.95
41.2740	534.71
41.2884	505.05
41.3028	485.40
41.3173	476.45
41.3317	482.51
41.3462	517.69
41.3606	535.28
41.3750	518.78
41.3895	484.64
41.4039	502.32
41.4184	520.51
41.4328	526.30
41.4472	485.65
41.4617	530.64
41.4761	511.60
41.4906	504.74
41.5050	499.37
41.5194	504.12
41.5339	480.86
41.5483	509.71
41.5628	530.48
41.5772	477.64
41.5916	496.05
41.6061	509.14
41.6205	521.93
41.6350	510.45
41.6494	480.98
41.6639	461.34
41.6783	461.30
41.6927	465.58
41.7072	434.96
41.7216	483.33
41.7361	473.69
41.7505	477.69
41.7649	489.62
41.7794	493.84
41.7938	507.60
41.8083	521.92
41.8227	492.84
41.8371	497.22
41.8516	532.61
41.8660	549.79
41.8805	524.78
41.8949	530.43
41.9093	570.55
41.9238	513.53
41.9382	532.76
41.9527	533.97
41.9671	552.06
41.9815	587.69
41.9960	569.81
42.0104	560.36
42.0249	548.80
42.0393	539.27
42.0537	595.47
42.0682	552.34
42.0826	595.65
42.0971	595.18
42.1115	569.62
42.1259	594.91
42.1404	600.95
42.1548	633.18
42.1693	656.54
42.1837	706.29
42.1981	750.80
42.2126	839.89
42.2270	932.56
42.2415	1070.08
42.2559	1200.42
42.2703	1364.69
42.2848	1500.43
42.2992	1612.53
42.3137	1652.47
42.3281	1706.30
42.3425	1651.72
42.3570	1490.04
42.3714	1391.80
42.3859	1313.15
42.4003	1316.86
42.4147	1286.73
42.4292	1254.13
42.4436	1139.54
42.4581	1029.85
42.4725	939.26
42.4869	813.01
42.5014	742.77
42.5158	700.72
42.5303	647.87
42.5447	623.98
42.5591	604.88
42.5736	624.44
42.5880	577.14
42.6025	544.19
42.6169	543.98
42.6313	531.13
42.6458	543.97
42.6602	539.12
42.6747	512.66
42.6891	527.55
42.7035	512.36
42.7180	529.86
42.7324	539.15
42.7469	524.16
42.7613	522.27
42.7757	522.49
42.7902	521.98
42.8046	520.03
42.8191	532.89
42.8335	513.19
42.8479	518.28
42.8624	517.04
42.8768	511.03
42.8913	477.21
42.9057	516.18
42.9201	516.43
42.9346	516.59
42.9490	527.70
42.9635	498.11
42.9779	502.70
42.9923	524.69
43.0068	508.79
43.0212	478.06
43.0357	483.29
43.0501	500.85
43.0645	521.10
43.0790	501.56
43.0934	534.38
43.1079	522.34
43.1223	553.37
43.1367	512.44
43.1512	489.48
43.1656	512.00
43.1801	510.00
43.1945	487.64
43.2089	490.24
43.2234	515.99
43.2378	538.20
43.2523	545.20
43.2667	523.26
43.2811	495.86
43.2956	497.80
43.3100	522.49
43.3245	530.40
43.3389	534.71
43.3533	498.08
43.3678	490.00
43.3822	527.46
43.3967	519.04
43.4111	540.50
43.4255	527.61
43.4400	511.79
43.4544	479.19
43.4689	519.68
43.4833	519.79
43.4977	538.40
43.5122	527.99
43.5266	525.90
43.5411	543.41
43.5555	543.26
43.5699	499.73
43.5844	529.61
43.5988	506.80
43.6133	517.49
43.6277	515.33
43.6421	523.91
43.6566	539.35
43.6710	537.68
43.6855	590.67
43.6999	593.73
43.7143	594.47
43.7288	644.85
43.7432	649.80
43.7577	674.66
43.7721	691.70
43.7865	636.89
43.8010	643.29
43.8154	629.23
43.8299	617.72
43.8443	607.80
43.8587	627.90
43.8732	636.56
43.8876	574.24
43.9021	561.85
43.9165	547.20
43.9309	478.94
43.9454	526.80
43.9598	495.38
43.9743	529.23
43.9887	509.17
44.0031	487.71
44.0176	491.90
44.0320	518.81
44.0465	507.18
44.0609	541.21
44.0753	512.27
44.0898	504.87
44.1042	502.08
44.1187	478.39
44.1331	481.41
44.1475	452.86
44.1620	498.32
44.1764	547.79
44.1909	510.50
44.2053	544.85
44.2197	533.85
44.2342	505.20
44.2486	519.03
44.2631	506.55
44.2775	551.93
44.2919	533.26
44.3064	528.51
44.3208	536.56
44.3353	530.00
44.3497	566.50
44.3641	542.28
44.3786	529.74
44.3930	552.35
44.4075	561.54
44.4219	551.82
44.4363	592.12
44.4508	558.79
44.4652	586.21
44.4797	554.06
44.4941	530.56
44.5085	521.60
44.5230	542.25
44.5374	586.32
44.5519	558.90
44.5663	572.84
44.5807	555.10
44.5952	560.35
44.6096	570.77
44.6241	564.02
44.6385	583.07
44.6529	568.91
44.6674	583.81
44.6818	566.39
44.6963	621.38
44.7107	624.95
44.7251	651.83
44.7396	759.34
44.7540	764.57
44.7685	785.49
44.7829	870.81
44.7973	860.81
44.8118	851.74
44.8262	818.65
44.8407	762.05
44.8551	729.58
44.8695	723.16
44.8840	732.21
44.8984	775.41
44.9129	724.50
44.9273	748.89
44.9417	674.73
44.9562	622.30
44.9706	571.99
44.9851	549.52
44.9995	530.56
45.0139	527.97
45.0284	522.97
45.0428	527.52
45.0573	504.93
45.0717	508.66
45.0861	514.74
45.1006	467.81
45.1150	512.58
45.1295	514.45
45.1439	514.09
45.1583	506.62
45.1728	522.96
45.1872	518.32
45.2017	531.46
45.2161	518.74
45.2305	500.07
45.2450	497.92
45.2594	486.02
45.2739	488.83
45.2883	479.29
45.3028	516.83
45.3172	544.35
45.3316	524.91
45.3461	511.97
45.3605	526.38
45.3750	530.58
45.3894	475.11
45.4038	469.89
45.4183	505.95
45.4327	500.72
45.4472	512.45
45.4616	516.37
45.4760	521.48
45.4905	498.44
45.5049	482.99
45.5194	513.58
45.5338	542.17
45.5482	506.97
45.5627	512.50
45.5771	515.79
45.5916	497.63
45.6060	487.87
45.6204	518.88
45.6349	520.33
45.6493	534.64
45.6638	483.71
45.6782	498.04
45.6926	485.54
45.7071	532.27
45.7215	529.22
45.7360	493.67
45.7504	511.89
45.7648	522.40
45.7793	541.95
45.7937	533.77
45.8082	484.00
45.8226	502.92
45.8370	518.33
45.8515	500.44
45.8659	533.18
45.8804	517.44
45.8948	514.84
45.9092	492.39
45.9237	505.47
45.9381	513.77
45.9526	528.15
45.9670	495.01
45.9814	527.07
45.9959	499.74
46.0103	464.87
46.0248	483.05
46.0392	522.23
46.0536	514.47
46.0681	502.62
46.0825	528.88
46.0970	515.19
46.1114	476.95
46.1258	526.94
46.1403	491.30
46.1547	493.40
46.1692	516.25
46.1836	523.55
46.1980	516.20
46.2125	510.88
46.2269	483.76
46.2414	505.26
46.2558	499.97
46.2702	464.17
46.2847	477.35
46.2991	494.20
46.3136	499.40
46.3280	496.89
46.3424	502.35
46.3569	512.39
46.3713	502.48
46.3858	497.18
46.4002	485.22
46.4146	526.12
46.4291	536.26
46.4435	499.44
46.4580	505.89
46.4724	538.89
46.4868	483.02
46.5013	497.31
46.5157	510.23
46.5302	511.09
46.5446	462.61
46.5590	482.47
46.5735	488.52
46.5879	488.25
46.6024	520.91
46.6168	516.74
46.6312	502.13
46.6457	483.15
46.6601	498.18
46.6746	499.67
46.6890	491.29
46.7034	487.30
46.7179	512.12
46.7323	490.12
46.7468	485.16
46.7612	449.18
46.7756	490.70
46.7901	475.11
46.8045	485.78
46.8190	501.80
46.8334	479.74
46.8478	505.08
46.8623	487.91
46.8767	500.84
46.8912	492.58
46.9056	531.19
46.9200	504.14
46.9345	501.59
46.9489	497.23
46.9634	489.42
46.9778	519.23
46.9922	525.36
47.0067	499.60
47.0211	523.12
47.0356	525.99
47.0500	492.06
47.0644	484.68
47.0789	514.13
47.0933	493.27
47.1078	493.57
47.1222	477.30
47.1366	478.55
47.1511	489.30
47.1655	526.98
47.1800	516.17
47.1944	465.45
47.2088	464.35
47.2233	480.85
47.2377	483.78
47.2522	494.88
47.2666	510.25
47.2810	523.72
47.2955	525.65
47.3099	503.01
47.3244	485.02
47.3388	528.38
47.3532	526.59
47.3677	500.34
47.3821	493.39
47.3966	470.76
47.4110	469.12
47.4254	509.97
47.4399	486.24
47.4543	491.13
47.4688	496.77
47.4832	528.69
47.4976	475.20
47.5121	481.61
47.5265	482.48
47.5410	515.98
47.5554	486.24
47.5698	492.70
47.5843	508.95
47.5987	492.21
47.6132	515.51
47.6276	510.49
47.6420	489.32
47.6565	475.78
47.6709	493.11
47.6854	485.55
47.6998	488.17
47.7142	484.32
47.7287	510.20
47.7431	517.09
47.7576	515.06
47.7720	520.40
47.7864	532.43
47.8009	483.90
47.8153	496.28
47.8298	512.30
47.8442	534.98
47.8586	527.99
47.8731	478.17
47.8875	466.94
47.9020	486.62
47.9164	476.03
47.9308	483.81
47.9453	508.76
47.9597	505.64
47.9742	502.79
47.9886	518.29
48.0030	470.86
48.0175	498.72
48.0319	472.48
48.0464	483.03
48.0608	506.44
48.0752	476.09
48.0897	540.50
48.1041	503.99
48.1186	557.53
48.1330	548.41
48.1474	486.04
48.1619	496.97
48.1763	516.66
48.1908	486.89
48.2052	487.11
48.2196	509.58
48.2341	537.99
48.2485	528.03
48.2630	500.81
48.2774	536.95
48.2918	515.15
48.3063	524.55
48.3207	521.91
48.3352	519.93
48.3496	530.01
48.3640	544.52
48.3785	524.61
48.3929	484.42
48.4074	492.20
48.4218	514.53
48.4362	531.08
48.4507	493.99
48.4651	527.64
48.4796	506.77
48.4940	506.43
48.5084	483.19
48.5229	525.56
48.5373	510.05
48.5518	495.88
48.5662	488.46
48.5806	501.79
48.5951	513.19
48.6095	506.27
48.6240	504.71
48.6384	485.49
48.6528	507.56
48.6673	537.04
48.6817	496.60
48.6962	501.71
48.7106	530.08
48.7250	501.58
48.7395	480.60
48.7539	551.89
48.7684	533.79
48.7828	565.79
48.7972	538.71
48.8117	541.06
48.8261	526.76
48.8406	552.74
48.8550	498.84
48.8694	527.27
48.8839	538.07
48.8983	552.76
48.9128	539.45
48.9272	574.36
48.9416	550.77
48.9561	549.74
48.9705	592.38
48.9850	589.57
48.9994	615.41
49.0139	594.10
49.0283	563.75
49.0427	604.85
49.0572	583.49
49.0716	657.03
49.0861	700.77
49.1005	687.50
49.1149	711.09
49.1294	730.10
49.1438	782.46
49.1583	783.97
49.1727	900.43
49.1871	969.40
49.2016	972.44
49.2160	1006.06
49.2305	1087.63
49.2449	1225.51
49.2593	1322.86
49.2738	1439.67
49.2882	1534.56
49.3027	1587.43
49.3171	1656.95
49.3315	1724.73
49.3460	1791.10
49.3604	1834.69
49.3749	1843.14
49.3893	1830.70
49.4037	1745.89
49.4182	1875.99
49.4326	1808.84
49.4471	1674.52
49.4615	1630.48
49.4759	1576.20
49.4904	1474.68
49.5048	1387.49
49.5193	1325.54
49.5337	1340.78
49.5481	1192.75
49.5626	1126.54
49.5770	1060.60
49.5915	962.01
49.6059	897.09
49.6203	812.96
49.6348	811.36
49.6492	798.21
49.6637	740.82
49.6781	701.20
49.6925	701.90
49.7070	657.03
49.7214	641.20
49.7359	622.24
49.7503	623.96
49.7647	605.10
49.7792	605.82
49.7936	612.21
49.8081	591.18
49.8225	611.98
49.8369	576.05
49.8514	589.61
49.8658	575.95
49.8803	563.98
49.8947	533.67
49.9091	566.10
49.9236	530.80
49.9380	550.99
49.9525	505.64
49.9669	484.80
49.9813	528.31
49.9958	542.42
50.0102	542.96
50.0247	526.92
50.0391	528.29
50.0535	513.82
50.0680	478.25
50.0824	511.68
50.0969	525.59
50.1113	484.44
50.1257	509.35
50.1402	479.46
50.1546	495.28
50.1691	533.25
50.1835	541.32
50.1979	503.75
50.2124	525.75
50.2268	502.30
50.2413	492.98
50.2557	485.42
50.2701	522.77
50.2846	523.96
50.2990	514.45
50.3135	515.51
50.3279	485.57
50.3423	474.97
50.3568	505.64
50.3712	500.98
50.3857	517.29
50.4001	503.37
50.4145	500.00
50.4290	488.98
50.4434	510.50
50.4579	508.87
50.4723	494.05
50.4867	501.84
50.5012	481.54
50.5156	501.21
50.5301	514.26
50.5445	514.73
50.5589	509.15
50.5734	513.29
50.5878	516.80
50.6023	489.03
50.6167	498.13
50.6311	499.55
50.6456	521.70
50.6600	502.06
50.6745	502.47
50.6889	504.35
50.7033	536.83
50.7178	503.45
50.7322	496.04
50.7467	486.34
50.7611	501.22
50.7755	523.96
50.7900	517.04
50.8044	523.69
50.8189	518.18
50.8333	523.51
50.8477	481.90
50.8622	526.44
50.8766	519.37
50.8911	488.59
50.9055	554.60
50.9199	514.03
50.9344	513.09
50.9488	495.47
50.9633	500.85
50.9777	532.80
50.9921	548.01
51.0066	496.90
51.0210	509.72
51.0355	513.59
51.0499	517.77
51.0643	541.74
51.0788	523.49
51.0932	522.78
51.1077	528.13
51.1221	503.19
51.1365	525.29
51.1510	508.11
51.1654	507.11
51.1799	522.40
51.1943	504.67
51.2087	473.90
51.2232	459.66
51.2376	518.68
51.2521	515.14
51.2665	500.17
51.2809	548.36
51.2954	499.04
51.3098	486.68
51.3243	521.34
51.3387	524.72
51.3531	479.58
51.3676	494.50
51.3820	500.85
51.3965	507.28
51.4109	482.54
51.4253	529.13
51.4398	531.56
51.4542	513.11
51.4687	505.00
51.4831	502.93
51.4975	515.09
51.5120	481.02
51.5264	511.17
51.5409	516.02
51.5553	535.40
51.5697	525.22
51.5842	493.21
51.5986	482.77
51.6131	503.25
51.6275	505.00
51.6419	513.21
51.6564	529.94
51.6708	488.03
51.6853	488.90
51.6997	507.37
51.7141	536.92
51.7286	505.91
51.7430	492.10
51.7575	474.38
51.7719	487.31
51.7863	494.28
51.8008	476.82
51.8152	510.15
51.8297	513.51
51.8441	525.90
51.8585	514.66
51.8730	509.97
51.8874	482.42
51.9019	504.12
51.9163	495.26
51.9307	501.53
51.9452	520.19
51.9596	479.01
51.9741	467.22
51.9885	477.90
52.0029	487.94
52.0174	526.81
52.0318	505.85
52.0463	510.47
52.0607	527.32
52.0751	518.42
52.0896	556.37
52.1040	525.32
52.1185	514.01
52.1329	516.58
52.1473	481.95
52.1618	492.22
52.1762	501.11
52.1907	482.23
52.2051	507.46
52.2195	526.74
52.2340	508.44
52.2484	504.81
52.2629	497.93
52.2773	524.86
52.2917	513.35
52.3062	505.21
52.3206	521.94
52.3351	510.28
52.3495	478.01
52.3639	534.93
52.3784	485.55
52.3928	489.53
52.4073	476.77
52.4217	504.96
52.4361	500.56
52.4506	494.20
52.4650	536.11
52.4795	496.77
52.4939	519.33
52.5083	474.56
52.5228	512.26
52.5372	506.13
52.5517	532.94
52.5661	513.23
52.5805	477.90
52.5950	502.22
52.6094	528.02
52.6239	506.25
52.6383	525.51
52.6527	517.57
52.6672	507.85
52.6816	503.22
52.6961	479.99
52.7105	542.42
52.7250	516.67
52.7394	513.08
52.7538	516.89
52.7683	505.33
52.7827	562.15
52.7972	521.97
52.8116	491.15
52.8260	526.84
52.8405	510.72
52.8549	532.69
52.8694	492.90
52.8838	510.90
52.8982	539.60
52.9127	552.98
52.9271	501.73
52.9416	492.15
52.9560	481.68
52.9704	491.65
52.9849	495.69
52.9993	502.22
53.0138	495.80
53.0282	504.45
53.0426	536.51
53.0571	516.70
53.0715	540.18
53.0860	525.84
53.1004	509.31
53.1148	544.66
53.1293	508.22
53.1437	498.63
53.1582	492.46
53.1726	519.05
53.1870	520.49
53.2015	484.87
53.2159	522.69
53.2304	525.51
53.2448	486.90
53.2592	520.99
53.2737	526.70
53.2881	523.53
53.3026	501.07
53.3170	492.32
53.3314	526.94
53.3459	525.25
53.3603	488.78
53.3748	501.20
53.3892	517.72
53.4036	495.45
53.4181	497.05
53.4325	497.96
53.4470	473.46
53.4614	489.00
53.4758	516.87
53.4903	495.91
53.5047	497.25
53.5192	522.68
53.5336	538.58
53.5480	513.76
53.5625	528.79
53.5769	481.29
53.5914	520.94
53.6058	531.32
53.6202	484.23
53.6347	523.94
53.6491	538.68
53.6636	502.74
53.6780	516.51
53.6924	513.47
53.7069	513.75
53.7213	524.30
53.7358	507.67
53.7502	488.49
53.7646	496.14
53.7791	515.87
53.7935	517.58
53.8080	507.57
53.8224	502.27
53.8368	550.61
53.8513	509.08
53.8657	493.15
53.8802	509.87
53.8946	528.22
53.9090	517.22
53.9235	480.66
53.9379	519.24
53.9524	503.73
53.9668	502.52
53.9812	513.54
53.9957	504.33
54.0101	539.29
54.0246	528.11
54.0390	524.98
54.0534	530.14
54.0679	526.63
54.0823	533.37
54.0968	547.46
54.1112	566.09
54.1256	567.90
54.1401	538.15
54.1545	529.06
54.1690	569.74
54.1834	584.60
54.1978	610.06
54.2123	604.26
54.2267	599.79
54.2412	610.60
54.2556	607.29
54.2700	644.18
54.2845	662.09
54.2989	635.67
54.3134	607.02
54.3278	590.26
54.3422	631.66
54.3567	614.05
54.3711	584.44
54.3856	561.97
54.4000	549.25
54.4144	545.44
54.4289	606.72
54.4433	601.63
54.4578	562.36
54.4722	571.56
54.4866	569.74
54.5011	527.12
54.5155	479.13
54.5300	526.86
54.5444	528.31
54.5588	538.09
54.5733	526.23
54.5877	510.05
54.6022	520.14
54.6166	522.58
54.6310	542.44
54.6455	538.50
54.6599	556.39
54.6744	525.81
54.6888	511.75
54.7032	540.52
54.7177	538.44
54.7321	482.31
54.7466	497.36
54.7610	494.24
54.7754	517.59
54.7899	514.22
54.8043	521.96
54.8188	522.75
54.8332	539.84
54.8476	549.15
54.8621	539.26
54.8765	535.39
54.8910	512.12
54.9054	516.73
54.9198	498.63
54.9343	514.29
54.9487	484.91
54.9632	491.81
54.9776	494.15
54.9920	509.44
55.0065	514.30
55.0209	532.89
55.0354	523.52
55.0498	545.33
55.0642	512.69
55.0787	505.33
55.0931	559.24
55.1076	514.81
55.1220	535.91
55.1364	535.33
55.1509	516.17
55.1653	522.47
55.1798	514.62
55.1942	502.81
55.2086	534.07
55.2231	529.82
55.2375	499.51
55.2520	511.49
55.2664	503.17
55.2808	495.22
55.2953	508.32
55.3097	539.49
55.3242	526.38
55.3386	528.31
55.3530	485.76
55.3675	497.80
55.3819	515.56
55.3964	485.04
55.4108	509.96
55.4252	519.72
55.4397	512.82
55.4541	517.27
55.4686	548.98
55.4830	521.72
55.4974	529.57
55.5119	516.13
55.5263	529.65
55.5408	511.70
55.5552	509.19
55.5696	508.45
55.5841	514.66
55.5985	495.09
55.6130	501.81
55.6274	530.11
55.6418	502.87
55.6563	558.23
55.6707	524.21
55.6852	526.52
55.6996	524.38
55.7140	565.72
55.7285	528.71
55.7429	525.43
55.7574	508.80
55.7718	498.48
55.7862	501.93
55.8007	524.46
55.8151	554.68
55.8296	538.25
55.8440	547.17
55.8584	520.93
55.8729	522.68
55.8873	505.53
55.9018	507.61
55.9162	497.04
55.9306	495.16
55.9451	530.31
55.9595	502.23
55.9740	510.00
55.9884	483.17
56.0028	510.43
56.0173	525.84
56.0317	524.16
56.0462	533.37
56.0606	542.23
56.0750	497.99
56.0895	551.56
56.1039	515.32
56.1184	516.71
56.1328	509.72
56.1472	495.59
56.1617	495.46
56.1761	509.41
56.1906	502.03
56.2050	513.64
56.2194	544.89
56.2339	508.79
56.2483	516.44
56.2628	480.14
56.2772	477.76
56.2916	508.97
56.3061	523.01
56.3205	508.73
56.3350	481.10
56.3494	517.57
56.3639	532.38
56.3783	505.83
56.3927	523.08
56.4072	560.47
56.4216	560.56
56.4361	561.99
56.4505	495.59
56.4649	499.24
56.4794	481.24
56.4938	502.10
56.5083	482.71
56.5227	533.26
56.5371	532.82
56.5516	504.05
56.5660	519.97
56.5805	518.73
56.5949	522.54
56.6093	536.79
56.6238	526.08
56.6382	503.68
56.6527	515.45
56.6671	505.18
56.6815	496.92
56.6960	470.34
56.7104	521.11
56.7249	550.01
56.7393	517.31
56.7537	502.54
56.7682	510.42
56.7826	537.90
56.7971	502.91
56.8115	523.16
56.8259	521.99
56.8404	513.00
56.8548	477.78
56.8693	534.94
56.8837	526.23
56.8981	518.09
56.9126	522.00
56.9270	516.91
56.9415	543.82
56.9559	510.65
56.9703	454.11
56.9848	492.25
56.9992	551.77
57.0137	525.67
57.0281	517.57
57.0425	519.27
57.0570	499.59
57.0714	492.24
57.0859	542.63
57.1003	543.41
57.1147	567.45
57.1292	536.95
57.1436	507.59
57.1581	513.13
57.1725	530.49
57.1869	528.70
57.2014	536.06
57.2158	509.18
57.2303	539.40
57.2447	553.92
57.2591	519.24
57.2736	513.09
57.2880	519.83
57.3025	503.64
57.3169	504.81
57.3313	486.44
57.3458	516.33
57.3602	527.44
57.3747	525.11
57.3891	516.66
57.4035	509.66
57.4180	522.09
57.4324	540.20
57.4469	509.07
57.4613	530.31
57.4757	536.03
57.4902	534.16
57.5046	541.44
57.5191	504.59
57.5335	526.93
57.5479	537.01
57.5624	548.22
57.5768	518.64
57.5913	502.35
57.6057	535.66
57.6201	547.48
57.6346	535.66
57.6490	552.72
57.6635	580.70
57.6779	576.85
57.6923	544.32
57.7068	522.67
57.7212	541.15
57.7357	561.46
57.7501	570.02
57.7645	522.20
57.7790	578.96
57.7934	593.76
57.8079	629.95
57.8223	674.31
57.8367	721.93
57.8512	715.77
57.8656	778.36
57.8801	769.74
57.8945	786.52
57.9089	747.87
57.9234	755.21
57.9378	757.73
57.9523	713.95
57.9667	640.94
57.9811	634.11
57.9956	617.51
58.0100	645.21
58.0245	640.67
58.0389	662.66
58.0533	644.18
58.0678	617.63
58.0822	633.47
58.0967	610.24
58.1111	613.85
58.1255	594.45
58.1400	540.58
58.1544	554.21
58.1689	527.89
58.1833	540.07
58.1977	546.66
58.2122	539.69
58.2266	538.57
58.2411	541.82
58.2555	559.36
58.2699	567.13
58.2844	573.65
58.2988	556.03
58.3133	549.50
58.3277	538.99
58.3421	551.69
58.3566	527.63
58.3710	519.66
58.3855	542.07
58.3999	533.12
58.4143	536.01
58.4288	577.20
58.4432	539.18
58.4577	540.33
58.4721	553.39
58.4865	535.44
58.5010	537.46
58.5154	543.80
58.5299	547.91
58.5443	513.01
58.5587	518.70
58.5732	527.20
58.5876	485.04
58.6021	500.61
58.6165	540.18
58.6309	554.16
58.6454	522.86
58.6598	510.35
58.6743	536.13
58.6887	516.73
58.7031	548.79
58.7176	559.30
58.7320	509.48
58.7465	535.50
58.7609	496.74
58.7753	537.40
58.7898	508.60
58.8042	494.73
58.8187	536.52
58.8331	528.43
58.8475	532.20
58.8620	574.35
58.8764	556.44
58.8909	530.23
58.9053	532.28
58.9197	547.80
58.9342	541.79
58.9486	514.49
58.9631	532.11
58.9775	523.10
58.9919	526.38
59.0064	534.15
59.0208	535.87
59.0353	544.13
59.0497	537.58
59.0641	524.56
59.0786	556.32
59.0930	581.75
59.1075	520.03
59.1219	490.02
59.1363	514.01
59.1508	508.77
59.1652	551.73
59.1797	568.33
59.1941	552.18
59.2085	558.43
59.2230	542.74
59.2374	543.42
59.2519	551.56
59.2663	565.75
59.2807	531.18
59.2952	519.32
59.3096	546.16
59.3241	537.44
59.3385	551.87
59.3529	542.08
59.3674	554.16
59.3818	535.38
59.3963	552.18
59.4107	554.69
59.4251	607.01
59.4396	591.39
59.4540	546.61
59.4685	549.95
59.4829	552.88
59.4973	536.11
59.5118	523.49
59.5262	542.37
59.5407	523.28
59.5551	541.87
59.5695	545.09
59.5840	546.53
59.5984	513.93
59.6129	527.64
59.6273	554.81
59.6417	544.31
59.6562	546.95
59.6706	532.21
59.6851	548.16
59.6995	515.37
59.7139	535.25
59.7284	517.74
59.7428	527.94
59.7573	529.28
59.7717	529.86
59.7861	525.58
59.8006	526.18
59.8150	520.53
59.8295	545.32
59.8439	542.40
59.8583	590.70
59.8728	540.29
59.8872	500.80
59.9017	537.73
59.9161	545.18
59.9305	521.68
59.9450	554.95
59.9594	542.65
59.9739	562.47
59.9883	524.33
60.0027	519.75
60.0172	530.87
60.0316	529.90
60.0461	526.78
60.0605	533.51
60.0750	536.05
60.0894	527.00
60.1038	551.36
60.1183	514.74
60.1327	542.39
60.1472	521.32
60.1616	519.71
60.1760	558.01
60.1905	507.11
60.2049	537.04
60.2194	527.42
60.2338	557.01
60.2482	554.09
60.2627	537.72
60.2771	562.63
60.2916	526.90
60.3060	533.01
60.3204	512.76
60.3349	543.01
60.3493	532.87
60.3638	517.33
60.3782	520.65
60.3926	518.91
60.4071	527.42
60.4215	542.78
60.4360	523.17
60.4504	543.53
60.4648	526.21
60.4793	524.92
60.4937	522.24
60.5082	533.81
60.5226	531.64
60.5370	519.08
60.5515	529.58
60.5659	545.21
60.5804	544.94
60.5948	548.27
60.6092	506.48
60.6237	519.46
60.6381	545.39
60.6526	532.84
60.6670	555.29
60.6814	508.21
60.6959	514.03
60.7103	528.18
60.7248	567.42
60.7392	560.05
60.7536	525.82
60.7681	474.97
60.7825	517.73
60.7970	531.05
60.8114	517.36
60.8258	526.81
60.8403	601.15
60.8547	577.94
60.8692	554.93
60.8836	575.74
60.8980	506.11
60.9125	537.01
60.9269	526.84
60.9414	542.08
60.9558	490.01
60.9702	520.81
60.9847	550.23
60.9991	564.89
61.0136	520.74
61.0280	532.82
61.0424	551.00
61.0569	505.21
61.0713	535.32
61.0858	557.49
61.1002	527.59
61.1146	540.11
61.1291	545.13
61.1435	527.80
61.1580	523.72
61.1724	534.62
61.1868	544.90
61.2013	557.05
61.2157	518.66
61.2302	550.20
61.2446	540.64
61.2590	512.21
61.2735	564.97
61.2879	555.24
61.3024	520.43
61.3168	524.53
61.3312	535.22
61.3457	517.33
61.3601	506.66
61.3746	506.26
61.3890	521.55
61.4034	522.04
61.4179	534.91
61.4323	540.32
61.4468	507.38
61.4612	546.46
61.4756	534.37
61.4901	561.59
61.5045	545.62
61.5190	564.49
61.5334	568.04
61.5478	543.45
61.5623	556.47
61.5767	547.82
61.5912	550.41
61.6056	558.67
61.6200	531.42
61.6345	550.61
61.6489	565.43
61.6634	543.30
61.6778	548.95
61.6922	557.57
61.7067	543.76
61.7211	521.49
61.7356	518.93
61.7500	513.72
61.7644	547.48
61.7789	568.55
61.7933	543.41
61.8078	543.67
61.8222	524.44
61.8366	549.99
61.8511	526.91
61.8655	534.97
61.8800	536.58
61.8944	571.19
61.9088	581.29
61.9233	551.47
61.9377	538.16
61.9522	540.53
61.9666	537.75
61.9810	526.09
61.9955	585.18
62.0099	563.83
62.0244	570.72
62.0388	564.88
62.0532	532.91
62.0677	578.03
62.0821	575.49
62.0966	587.06
62.1110	555.49
62.1254	544.92
62.1399	529.11
62.1543	510.26
62.1688	524.14
62.1832	553.61
62.1976	555.36
62.2121	563.40
62.2265	526.33
62.2410	558.96
62.2554	545.39
62.2698	535.63
62.2843	522.89
62.2987	561.16
62.3132	578.94
62.3276	531.19
62.3420	531.98
62.3565	558.06
62.3709	540.49
62.3854	528.26
62.3998	512.32
62.4142	533.27
62.4287	600.68
62.4431	570.49
62.4576	522.63
62.4720	553.11
62.4864	584.11
62.5009	558.32
62.5153	550.27
62.5298	539.69
62.5442	511.12
62.5586	541.33
62.5731	531.47
62.5875	515.16
62.6020	573.92
62.6164	575.49
62.6308	548.07
62.6453	525.93
62.6597	528.29
62.6742	560.74
62.6886	551.48
62.7030	583.85
62.7175	568.17
62.7319	568.54
62.7464	536.97
62.7608	511.72
62.7752	531.30
62.7897	553.48
62.8041	571.50
62.8186	561.70
62.8330	559.30
62.8474	564.06
62.8619	594.13
62.8763	570.67
62.8908	532.18
62.9052	564.03
62.9196	543.04
62.9341	572.39
62.9485	571.00
62.9630	541.19
62.9774	546.78
62.9918	549.38
63.0063	536.48
63.0207	549.75
63.0352	547.41
63.0496	569.08
63.0640	601.17
63.0785	582.41
63.0929	543.61
63.1074	563.56
63.1218	621.70
63.1362	597.13
63.1507	533.79
63.1651	602.78
63.1796	600.21
63.1940	573.14
63.2084	598.74
63.2229	580.63
63.2373	593.20
63.2518	576.80
63.2662	582.85
63.2806	595.09
63.2951	570.02
63.3095	605.50
63.3240	607.92
63.3384	625.37
63.3528	628.92
63.3673	596.66
63.3817	594.22
63.3962	615.31
63.4106	610.58
63.4250	650.83
63.4395	634.07
63.4539	669.04
63.4684	709.56
63.4828	761.46
63.4972	774.56
63.5117	776.38
63.5261	837.03
63.5406	931.94
63.5550	986.95
63.5694	951.64
63.5839	991.82
63.5983	944.81
63.6128	888.12
63.6272	898.90
63.6416	798.28
63.6561	780.06
63.6705	730.71
63.6850	745.93
63.6994	780.93
63.7138	839.08
63.7283	789.01
63.7427	815.76
63.7572	830.62
63.7716	807.39
63.7861	797.19
63.8005	742.19
63.8149	693.97
63.8294	685.09
63.8438	656.39
63.8583	674.67
63.8727	659.14
63.8871	614.89
63.9016	652.98
63.9160	609.43
63.9305	592.14
63.9449	622.96
63.9593	608.96
63.9738	579.70
63.9882	610.57
64.0027	582.15
64.0171	646.83
64.0315	629.39
64.0460	608.50
64.0604	589.60
64.0749	573.93
64.0893	593.16
64.1037	598.74
64.1182	605.98
64.1326	568.89
64.1471	585.22
64.1615	608.19
64.1759	615.46
64.1904	596.51
64.2048	575.68
64.2193	577.47
64.2337	581.83
64.2481	592.54
64.2626	559.04
64.2770	571.47
64.2915	576.10
64.3059	576.64
64.3203	624.31
64.3348	592.94
64.3492	611.03
64.3637	599.38
64.3781	589.93
64.3925	573.47
64.4070	569.49
64.4214	592.67
64.4359	645.57
64.4503	574.78
64.4647	583.68
64.4792	645.69
64.4936	620.83
64.5081	622.83
64.5225	627.77
64.5369	636.00
64.5514	617.31
64.5658	597.90
64.5803	580.20
64.5947	569.84
64.6091	597.39
64.6236	588.37
64.6380	634.17
64.6525	617.85
64.6669	630.36
64.6813	644.44
64.6958	651.82
64.7102	705.76
64.7247	696.53
64.7391	644.07
64.7535	676.13
64.7680	652.05
64.7824	708.40
64.7969	733.66
64.8113	744.49
64.8257	793.28
64.8402	806.79
64.8546	881.67
64.8691	865.86
64.8835	860.75
64.8979	855.59
64.9124	839.40
64.9268	843.29
64.9413	897.73
64.9557	921.87
64.9701	938.74
64.9846	1013.70
64.9990	1123.31
65.0135	1261.25
65.0279	1398.31
65.0423	1608.18
65.0568	2057.23
65.0712	2535.63
65.0857	3267.34
65.1001	4219.54
65.1145	5696.40
65.1290	7603.70
65.1434	9146.63
65.1579	10706.87
65.1723	11501.08
65.1867	11159.09
65.2012	10031.12
65.2156	8404.61
65.2301	6542.23
65.2445	5295.00
65.2589	4463.65
65.2734	4124.53
65.2878	4230.91
65.3023	4753.94
65.3167	5406.86
65.3311	6296.25
65.3456	6919.76
65.3600	6926.74
65.3745	6411.70
65.3889	5488.04
65.4033	4514.51
65.4178	3544.51
65.4322	2738.69
65.4467	2132.02
65.4611	1755.71
65.4755	1487.22
65.4900	1265.78
65.5044	1175.86
65.5189	1090.07
65.5333	1020.27
65.5477	945.21
65.5622	937.14
65.5766	836.67
65.5911	798.96
65.6055	798.72
65.6199	786.73
65.6344	795.06
65.6488	755.58
65.6633	743.54
65.6777	712.42
65.6921	688.00
65.7066	709.25
65.7210	715.03
65.7355	657.90
65.7499	662.21
65.7643	649.98
65.7788	688.11
65.7932	652.64
65.8077	686.46
65.8221	672.27
65.8365	678.28
65.8510	636.85
65.8654	684.30
65.8799	595.68
65.8943	617.39
65.9087	653.56
65.9232	642.18
65.9376	621.14
65.9521	635.22
65.9665	614.28
65.9809	618.14
65.9954	615.59
66.0098	637.13
66.0243	621.32
66.0387	601.24
66.0531	636.33
66.0676	606.28
66.0820	646.10
66.0965	627.83
66.1109	607.95
66.1253	620.27
66.1398	582.16
66.1542	584.82
66.1687	622.38
66.1831	627.67
66.1975	593.97
66.2120	601.40
66.2264	617.03
66.2409	627.12
66.2553	597.75
66.2697	603.89
66.2842	646.64
66.2986	595.77
66.3131	623.48
66.3275	614.06
66.3419	608.87
66.3564	627.80
66.3708	601.47
66.3853	592.78
66.3997	574.81
66.4141	569.34
66.4286	587.85
66.4430	585.04
66.4575	580.12
66.4719	614.56
66.4863	610.43
66.5008	590.23
66.5152	590.57
66.5297	599.49
66.5441	596.65
66.5585	579.39
66.5730	576.60
66.5874	610.01
66.6019	593.01
66.6163	587.59
66.6307	558.42
66.6452	557.89
66.6596	586.03
66.6741	555.98
66.6885	577.57
66.7029	605.47
66.7174	612.88
66.7318	564.68
66.7463	565.76
66.7607	569.94
66.7751	556.17
66.7896	591.84
66.8040	595.12
66.8185	598.01
66.8329	584.11
66.8473	599.66
66.8618	602.80
66.8762	568.25
66.8907	596.78
66.9051	646.74
66.9195	585.85
66.9340	585.17
66.9484	564.11
66.9629	547.73
66.9773	591.23
66.9917	597.35
67.0062	560.03
67.0206	561.53
67.0351	561.09
67.0495	588.09
67.0639	566.36
67.0784	555.83
67.0928	583.26
67.1073	580.82
67.1217	594.52
67.1361	590.16
67.1506	550.96
67.1650	550.33
67.1795	600.91
67.1939	606.20
67.2083	617.28
67.2228	576.92
67.2372	574.53
67.2517	560.91
67.2661	575.55
67.2805	563.17
67.2950	554.64
67.3094	606.83
67.3239	575.67
67.3383	559.61
67.3527	548.50
67.3672	564.78
67.3816	587.46
67.3961	571.56
67.4105	573.26
67.4250	620.32
67.4394	610.59
67.4538	572.89
67.4683	557.62
67.4827	579.46
67.4972	555.07
67.5116	571.15
67.5260	571.44
67.5405	573.15
67.5549	578.78
67.5694	577.06
67.5838	557.90
67.5982	577.42
67.6127	559.10
67.6271	545.94
67.6416	563.97
67.6560	541.67
67.6704	565.98
67.6849	555.87
67.6993	583.91
67.7138	586.13
67.7282	560.83
67.7426	557.81
67.7571	553.23
67.7715	534.88
67.7860	532.18
67.8004	564.10
67.8148	590.10
67.8293	587.70
67.8437	580.60
67.8582	577.27
67.8726	579.66
67.8870	554.82
67.9015	574.86
67.9159	594.91
67.9304	584.13
67.9448	600.59
67.9592	555.21
67.9737	550.64
67.9881	575.59
68.0026	570.04
68.0170	605.52
68.0314	558.96
68.0459	597.50
68.0603	597.10
68.0748	564.56
68.0892	597.12
68.1036	593.87
68.1181	581.83
68.1325	563.10
68.1470	528.55
68.1614	568.00
68.1758	591.95
68.1903	557.54
68.2047	600.40
68.2192	555.90
68.2336	575.85
68.2480	579.22
68.2625	596.87
68.2769	553.35
68.2914	581.60
68.3058	601.30
68.3202	565.03
68.3347	590.39
68.3491	577.15
68.3636	567.16
68.3780	587.78
68.3924	568.61
68.4069	573.47
68.4213	559.73
68.4358	570.88
68.4502	560.73
68.4646	567.08
68.4791	565.75
68.4935	564.80
68.5080	590.95
68.5224	547.05
68.5368	556.47
68.5513	605.37
68.5657	562.55
68.5802	558.73
68.5946	553.98
68.6090	571.68
68.6235	548.29
68.6379	596.71
68.6524	553.66
68.6668	538.87
68.6812	519.40
68.6957	560.76
68.7101	597.52
68.7246	573.38
68.7390	553.38
68.7534	564.91
68.7679	589.36
68.7823	580.14
68.7968	577.78
68.8112	558.90
68.8256	551.74
68.8401	548.77
68.8545	573.33
68.8690	574.56
68.8834	564.58
68.8978	538.94
68.9123	565.47
68.9267	556.84
68.9412	593.38
68.9556	535.90
68.9700	593.79
68.9845	478.19
68.9989	557.37
69.0134	564.92
69.0278	577.76
69.0422	585.35
69.0567	578.05
69.0711	509.39
69.0856	565.06
69.1000	590.03
69.1144	568.72
69.1289	638.69
69.1433	562.01
69.1578	529.65
69.1722	606.87
69.1866	561.99
69.2011	564.95
69.2155	597.73
69.2300	563.70
69.2444	595.31
69.2588	592.91
69.2733	574.76
69.2877	524.06
69.3022	585.70
69.3166	511.20
69.3310	544.61
69.3455	595.12
69.3599	550.12
69.3744	532.68
69.3888	535.25
69.4032	594.12
69.4177	582.33
69.4321	626.10
69.4466	569.67
69.4610	530.42
69.4754	619.48
69.4899	587.26
69.5043	567.70
69.5188	600.74
69.5332	559.38
69.5476	561.22
69.5621	512.78
69.5765	524.56
69.5910	575.34
69.6054	606.74
69.6198	536.21
69.6343	589.10
69.6487	588.65
69.6632	557.66
69.6776	579.11
69.6920	554.78
69.7065	612.67
69.7209	585.06
69.7354	541.75
69.7498	558.73
69.7642	545.28
69.7787	579.90
69.7931	590.81
69.8076	607.09
69.8220	575.37
69.8364	575.59
69.8509	555.38
69.8653	595.74
69.8798	543.08
69.8942	525.20
69.9086	557.17
69.9231	565.79
69.9375	594.85
69.9520	527.75
69.9664	603.46
69.9808	569.19
69.9953	595.04
70.0097	574.51
70.0242	522.04
70.0386	565.96
70.0530	671.25
70.0675	612.69
70.0819	586.87
70.0964	598.24
70.1108	539.92
70.1252	591.29
70.1397	548.33
70.1541	587.35
70.1686	581.78
70.1830	592.95
70.1974	572.46
70.2119	574.87
70.2263	592.18
70.2408	530.57
70.2552	555.77
70.2696	563.07
70.2841	536.70
70.2985	568.43
70.3130	590.99
70.3274	586.19
70.3418	594.83
70.3563	551.36
70.3707	581.92
70.3852	555.20
70.3996	584.58
70.4140	537.31
70.4285	596.76
70.4429	558.58
70.4574	584.60
70.4718	622.69
70.4862	599.60
70.5007	565.45
70.5151	582.24
70.5296	571.92
70.5440	569.59
70.5584	597.37
70.5729	561.15
70.5873	554.35
70.6018	529.24
70.6162	557.73
70.6306	547.21
70.6451	534.55
70.6595	552.19
70.6740	563.40
70.6884	538.15
70.7028	581.10
70.7173	556.13
70.7317	529.25
70.7462	531.52
70.7606	571.84
70.7750	585.45
70.7895	576.03
70.8039	611.19
70.8184	630.06
70.8328	608.28
70.8472	528.78
70.8617	546.99
70.8761	579.58
70.8906	559.87
70.9050	550.28
70.9194	601.30
70.9339	602.70
70.9483	547.00
70.9628	580.10
70.9772	574.45
70.9916	576.75
71.0061	599.11
71.0205	582.89
71.0350	594.66
71.0494	593.02
71.0638	615.86
71.0783	598.73
71.0927	616.38
71.1072	633.55
71.1216	609.48
71.1361	542.38
71.1505	559.56
71.1649	600.58
71.1794	606.10
71.1938	561.08
71.2083	592.18
71.2227	582.57
71.2371	584.74
71.2516	564.08
71.2660	592.24
71.2805	574.24
71.2949	577.57
71.3093	568.12
71.3238	617.18
71.3382	643.54
71.3527	554.16
71.3671	546.06
71.3815	553.80
71.3960	545.51
71.4104	537.22
71.4249	533.70
71.4393	564.96
71.4537	558.73
71.4682	558.51
71.4826	577.48
71.4971	601.48
71.5115	580.63
71.5259	540.87
71.5404	567.32
71.5548	582.30
71.5693	563.79
71.5837	534.77
71.5981	556.40
71.6126	532.78
71.6270	571.78
71.6415	639.17
71.6559	582.99
71.6703	571.20
71.6848	591.84
71.6992	575.07
71.7137	610.69
71.7281	608.56
71.7425	633.38
71.7570	584.67
71.7714	592.02
71.7859	588.70
71.8003	611.93
71.8147	628.73
71.8292	619.91
71.8436	620.76
71.8581	556.42
71.8725	547.12
71.8869	579.79
71.9014	562.55
71.9158	561.35
71.9303	558.38
71.9447	571.41
71.9591	587.11
71.9736	549.71
71.9880	599.01
72.0025	564.34
72.0169	500.29
72.0313	551.25
72.0458	592.16
72.0602	631.01
72.0747	574.72
72.0891	582.48
72.1035	649.43
72.1180	631.44
72.1324	620.18
72.1469	553.92
72.1613	569.55
72.1757	612.01
72.1902	634.59
72.2046	630.14
72.2191	603.37
72.2335	622.06
72.2479	612.96
72.2624	595.28
72.2768	587.01
72.2913	591.95
72.3057	560.84
72.3201	550.08
72.3346	547.00
72.3490	570.67
72.3635	593.43
72.3779	536.17
72.3923	546.34
72.4068	551.05
72.4212	560.19
72.4357	575.35
72.4501	594.70
72.4645	642.71
72.4790	634.62
72.4934	566.60
72.5079	609.38
72.5223	606.40
72.5367	594.08
72.5512	562.71
72.5656	560.87
72.5801	528.01
72.5945	509.13
72.6089	476.25
72.6234	546.14
72.6378	598.65
72.6523	573.28
72.6667	625.77
72.6811	602.25
72.6956	567.18
72.7100	550.48
72.7245	524.77
72.7389	542.74
72.7533	533.76
72.7678	573.32
72.7822	600.05
72.7967	550.62
72.8111	509.28
72.8255	505.23
72.8400	529.09
72.8544	587.75
72.8689	623.55
72.8833	549.74

Result vector
22.1120	597.09
22.1264	552.43
22.1409	575.44
22.1553	592.35
22.1697	601.52
22.1842	602.36
22.1986	560.88
22.2131	598.87
22.2275	542.90
22.2419	596.52
22.2564	458.15
22.2708	504.68
22.2853	640.93
22.2997	536.83
22.3141	570.36
22.3286	483.60
22.3430	613.01
22.3575	570.48
22.3719	565.53
22.3863	581.98
22.4008	561.66
22.4152	560.55
22.4297	600.00
22.4441	585.44
22.4585	662.89
22.4730	654.86
22.4874	618.04
22.5019	603.48
22.5163	614.08
22.5307	685.54
22.5452	637.83
22.5596	578.62
22.5741	631.19
22.5885	519.48
22.6029	621.10
22.6174	593.88
22.6318	523.62
22.6463	536.07
22.6607	503.78
22.6751	478.59
22.6896	560.60
22.7040	564.05
22.7185	620.47
22.7329	666.51
22.7473	600.51
22.7618	528.23
22.7762	476.79
22.7907	570.67
22.8051	550.49
22.8195	540.81
22.8340	579.48
22.8484	609.82
22.8629	678.78
22.8773	720.24
22.8917	661.25
22.9062	563.59
22.9206	506.15
22.9351	464.21
22.9495	549.18
22.9639	555.00
22.9784	554.81
22.9928	576.62
23.0073	579.01
23.0217	608.70
23.0361	560.43
23.0506	583.82
23.0650	559.92
23.0795	532.43
23.0939	588.53
23.1083	547.11
23.1228	621.92
23.1372	541.73
23.1517	501.74
23.1661	541.11
23.1806	538.70
23.1950	538.06
23.2094	563.83
23.2239	565.20
23.2383	555.86
23.2528	554.76
23.2672	527.81
23.2816	557.96
23.2961	504.22
23.3105	545.17
23.3250	519.92
23.3394	604.17
23.3538	572.59
23.3683	584.40
23.3827	576.36
23.3972	526.39
23.4116	494.49
23.4260	516.72
23.4405	502.86
23.4549	566.16
23.4694	520.18
23.4838	601.68
23.4982	548.59
23.5127	536.90
23.5271	535.46
23.5416	586.75
23.5560	620.74
23.5704	552.36
23.5849	572.00
23.5993	581.11
23.6138	561.42
23.6282	517.90
23.6426	553.78
23.6571	580.33
23.6715	564.10
23.6860	516.36
23.7004	566.38
23.7148	546.84
23.7293	559.91
23.7437	541.78
23.7582	563.31
23.7726	583.23
23.7870	581.53
23.8015	518.93
23.8159	497.33
23.8304	483.87
23.8448	533.28
23.8592	602.24
23.8737	598.47
23.8881	501.86
23.9026	587.35
23.9170	529.83
23.9314	569.28
23.9459	522.07
23.9603	523.21
23.9748	544.70
23.9892	559.11
24.0036	586.72
24.0181	578.07
24.0325	538.10
24.0470	519.55
24.0614	556.71
24.0758	513.37
24.0903	576.66
24.1047	556.34
24.1192	577.65
24.1336	568.77
24.1480	577.02
24.1625	617.58
24.1769	566.49
24.1914	516.47
24.2058	568.43
24.2202	559.53
24.2347	554.44
24.2491	608.97
24.2636	570.34
24.2780	565.45
24.2924	585.27
24.3069	595.48
24.3213	557.09
24.3358	584.71
24.3502	581.90
24.3646	579.33
24.3791	515.53
24.3935	552.25
24.4080	541.73
24.4224	567.40
24.4368	570.24
24.4513	524.44
24.4657	526.74
24.4802	535.46
24.4946	555.64
24.5090	558.56
24.5235	504.68
24.5379	595.13
24.5524	556.72
24.5668	519.19
24.5812	596.17
24.5957	540.48
24.6101	560.24
24.6246	478.19
24.6390	538.71
24.6534	553.72
24.6679	558.10
24.6823	526.20
24.6968	523.80
24.7112	541.54
24.7256	567.15
24.7401	522.52
24.7545	510.19
24.7690	508.79
24.7834	532.79
24.7978	574.81
24.8123	538.34
24.8267	540.62
24.8412	574.18
24.8556	547.07
24.8700	496.89
24.8845	482.42
24.8989	562.49
24.9134	536.61
24.9278	560.36
24.9422	528.25
24.9567	577.70
24.9711	516.33
24.9856	537.16
25.0000	513.10
25.0144	568.42
25.0289	543.42
25.0433	504.83
25.0578	536.18
25.0722	561.32
25.0866	583.37
25.1011	518.84
25.1155	550.98
25.1300	587.83
25.1444	570.85
25.1588	546.92
25.1733	535.29
25.1877	512.58
25.2022	507.61
25.2166	615.63
25.2310	551.97
25.2455	545.61
25.2599	487.69
25.2744	536.11
25.2888	583.49
25.3032	532.01
25.3177	511.61
25.3321	538.69
25.3466	572.94
25.3610	529.33
25.3754	558.37
25.3899	517.25
25.4043	522.33
25.4188	557.81
25.4332	542.23
25.4476	537.26
25.4621	538.91
25.4765	555.97
25.4910	554.76
25.5054	553.31
25.5198	497.61
25.5343	560.05
25.5487	576.54
25.5632	560.33
25.5776	545.21
25.5920	551.95
25.6065	563.68
25.6209	534.92
25.6354	540.54
25.6498	515.42
25.6642	538.00
25.6787	484.45
25.6931	499.94
25.7076	550.81
25.7220	582.40
25.7364	494.71
25.7509	486.64
25.7653	505.02
25.7798	554.44
25.7942	582.47
25.8086	570.84
25.8231	534.90
25.8375	535.47
25.8520	533.65
25.8664	593.90
25.8808	598.90
25.8953	528.31
25.9097	488.50
25.9242	527.61
25.9386	567.66
25.9530	529.48
25.9675	498.92
25.9819	514.39
25.9964	534.21
26.0108	525.62
26.0252	527.38
26.0397	527.87
26.0541	519.44
26.0686	553.84
26.0830	549.52
26.0974	518.13
26.1119	548.41
26.1263	546.30
26.1408	522.96
26.1552	514.82
26.1696	526.39
26.1841	537.89
26.1985	530.89
26.2130	499.84
26.2274	514.96
26.2418	552.20
26.2563	529.94
26.2707	495.31
26.2852	486.06
26.2996	528.62
26.3140	521.51
26.3285	510.15
26.3429	505.21
26.3574	530.18
26.3718	537.89
26.3862	509.27
26.4007	502.18
26.4151	516.77
26.4296	533.86
26.4440	524.73
26.4584	517.36
26.4729	556.17
26.4873	539.77
26.5018	522.45
26.5162	518.98
26.5306	524.37
26.5451	511.49
26.5595	535.24
26.5740	527.26
26.5884	539.85
26.6028	527.95
26.6173	553.72
26.6317	564.46
26.6462	540.81
26.6606	534.82
26.6750	531.41
26.6895	520.85
26.7039	543.03
26.7184	531.99
26.7328	518.84
26.7472	537.85
26.7617	546.35
26.7761	519.37
26.7906	499.24
26.8050	520.19
26.8194	545.63
26.8339	520.47
26.8483	504.63
26.8628	524.20
26.8772	540.07
26.8917	510.23
26.9061	505.71
26.9205	520.63
26.9350	510.25
26.9494	499.64
26.9639	514.65
26.9783	531.36
26.9927	516.33
27.0072	530.54
27.0216	566.07
27.0361	552.93
27.0505	528.45
27.0649	518.46
27.0794	536.04
27.0938	538.98
27.1083	524.02
27.1227	539.64
27.1371	535.01
27.1516	517.89
27.1660	518.37
27.1805	513.18
27.1949	494.43
27.2093	497.01
27.2238	515.88
27.2382	487.38
27.2527	527.07
27.2671	522.01
27.2815	516.87
27.2960	525.16
27.3104	525.70
27.3249	505.14
27.3393	551.40
27.3537	531.14
27.3682	514.49
27.3826	549.47
27.3971	520.33
27.4115	524.37
27.4259	539.03
27.4404	508.29
27.4548	519.32
27.4693	525.52
27.4837	519.52
27.4981	521.13
27.5126	494.41
27.5270	496.90
27.5415	491.96
27.5559	503.13
27.5703	508.76
27.5848	523.94
27.5992	517.06
27.6137	535.03
27.6281	533.15
27.6425	516.88
27.6570	495.02
27.6714	485.51
27.6859	485.90
27.7003	495.74
27.7147	520.97
27.7292	531.01
27.7436	525.96
27.7581	534.67
27.7725	533.86
27.7869	510.22
27.8014	510.67
27.8158	499.18
27.8303	521.21
27.8447	508.20
27.8591	511.28
27.8736	526.61
27.8880	523.29
27.9025	564.64
27.9169	497.18
27.9313	485.01
27.9458	498.74
27.9602	490.28
27.9747	539.99
27.9891	510.97
28.0035	496.91
28.0180	484.41
28.0324	477.33
28.0469	515.24
28.0613	528.78
28.0757	501.12
28.0902	485.28
28.1046	506.74
28.1191	512.64
28.1335	502.65
28.1479	512.86
28.1624	480.96
28.1768	544.15
28.1913	549.89
28.2057	546.94
28.2201	478.91
28.2346	498.90
28.2490	485.33
28.2635	499.61
28.2779	466.74
28.2923	475.56
28.3068	505.46
28.3212	502.40
28.3357	485.69
28.3501	527.40
28.3645	547.90
28.3790	513.24
28.3934	528.52
28.4079	509.70
28.4223	506.10
28.4367	501.60
28.4512	489.90
28.4656	500.76
28.4801	492.51
28.4945	517.18
28.5089	511.73
28.5234	505.29
28.5378	548.47
28.5523	509.47
28.5667	504.31
28.5811	518.28
28.5956	491.58
28.6100	536.99
28.6245	498.60
28.6389	533.99
28.6533	525.46
28.6678	507.85
28.6822	509.44
28.6967	510.89
28.7111	530.98
28.7255	520.25
28.7400	508.83
28.7544	539.50
28.7689	533.71
28.7833	528.58
28.7977	521.50
28.8122	552.38
28.8266	514.51
28.8411	514.26
28.8555	545.49
28.8699	499.32
28.8844	505.16
28.8988	517.83
28.9133	484.36
28.9277	493.93
28.9421	457.65
28.9566	484.30
28.9710	485.33
28.9855	510.21
28.9999	504.65
29.0143	487.67
29.0288	505.95
29.0432	496.29
29.0577	501.55
29.0721	534.98
29.0865	504.03
29.1010	496.42
29.1154	479.26
29.1299	491.94
29.1443	484.59
29.1587	482.34
29.1732	490.19
29.1876	504.16
29.2021	481.50
29.2165	500.95
29.2309	534.71
29.2454	508.26
29.2598	500.93
29.2743	512.29
29.2887	505.04
29.3031	509.84
29.3176	521.58
29.3320	517.88
29.3465	532.02
29.3609	464.30
29.3753	499.52
29.3898	503.90
29.4042	503.06
29.4187	517.32
29.4331	469.29
29.4475	485.53
29.4620	509.93
29.4764	552.74
29.4909	507.62
29.5053	483.27
29.5197	497.71
29.5342	487.94
29.5486	510.88
29.5631	498.36
29.5775	529.75
29.5919	465.17
29.6064	479.81
29.6208	484.51
29.6353	511.25
29.6497	516.38
29.6641	483.70
29.6786	502.47
29.6930	506.94
29.7075	526.70
29.7219	507.77
29.7363	486.25
29.7508	503.92
29.7652	494.76
29.7797	475.71
29.7941	504.08
29.8085	509.06
29.8230	518.94
29.8374	506.51
29.8519	498.16
29.8663	536.19
29.8807	510.74
29.8952	536.85
29.9096	526.73
29.9241	491.33
29.9385	513.61
29.9529	520.58
29.9674	446.54
29.9818	464.85
29.9963	503.64
30.0107	526.62
30.0251	506.25
30.0396	487.01
30.0540	509.93
30.0685	523.71
30.0829	491.99
30.0973	523.97
30.1118	515.15
30.1262	476.33
30.1407	499.23
30.1551	479.45
30.1695	507.44
30.1840	515.42
30.1984	503.34
30.2129	487.62
30.2273	495.19
30.2417	524.10
30.2562	541.56
30.2706	516.59
30.2851	533.85
30.2995	507.85
30.3139	533.97
30.3284	525.83
30.3428	477.69
30.3573	479.11
30.3717	499.42
30.3861	486.22
30.4006	527.72
30.4150	535.92
30.4295	537.13
30.4439	577.25
30.4583	560.65
30.4728	570.56
30.4872	588.66
30.5017	587.86
30.5161	639.14
30.5305	665.64
30.5450	712.80
30.5594	751.86
30.5739	736.16
30.5883	740.03
30.6028	769.09
30.6172	702.13
30.6316	685.88
30.6461	698.65
30.6605	638.73
30.6750	602.85
30.6894	568.61
30.7038	565.45
30.7183	521.32
30.7327	556.40
30.7472	562.31
30.7616	526.34
30.7760	528.93
30.7905	492.26
30.8049	529.64
30.8194	542.70
30.8338	515.82
30.8482	506.58
30.8627	509.31
30.8771	506.74
30.8916	508.68
30.9060	506.92
30.9204	513.37
30.9349	528.05
30.9493	523.22
30.9638	491.43
30.9782	503.22
30.9926	490.80
31.0071	493.35
31.0215	507.06
31.0360	533.86
31.0504	517.95
31.0648	511.19
31.0793	508.51
31.0937	519.31
31.1082	511.96
31.1226	535.08
31.1370	506.91
31.1515	463.99
31.1659	480.60
31.1804	488.38
31.1948	512.94
31.2092	513.66
31.2237	529.41
31.2381	533.89
31.2526	501.96
31.2670	482.38
31.2814	523.43
31.2959	487.81
31.3103	511.98
31.3248	506.74
31.3392	522.61
31.3536	539.85
31.3681	525.07
31.3825	495.93
31.3970	499.23
31.4114	514.09
31.4258	517.18
31.4403	510.43
31.4547	494.36
31.4692	509.91
31.4836	492.47
31.4980	496.06
31.5125	531.25
31.5269	510.66
31.5414	494.29
31.5558	512.59
31.5702	489.41
31.5847	512.93
31.5991	494.79
31.6136	493.68
31.6280	502.33
31.6424	520.45
31.6569	492.74
31.6713	507.35
31.6858	481.61
31.7002	525.32
31.7146	528.22
31.7291	510.50
31.7435	496.46
31.7580	485.00
31.7724	506.80
31.7868	510.54
31.8013	482.99
31.8157	479.51
31.8302	504.59
31.8446	487.03
31.8590	489.79
31.8735	488.77
31.8879	511.31
31.9024	519.54
31.9168	506.76
31.9312	491.42
31.9457	514.18
31.9601	482.59
31.9746	509.60
31.9890	510.13
32.0034	489.28
32.0179	453.88
32.0323	498.83
32.0468	501.60
32.0612	504.68
32.0756	491.47
32.0901	499.21
32.1045	478.07
32.1190	495.78
32.1334	499.80
32.1478	480.98
32.1623	483.15
32.1767	487.80
32.1912	508.92
32.2056	512.56
32.2200	489.99
32.2345	470.98
32.2489	466.78
32.2634	475.35
32.2778	517.90
32.2922	490.18
32.3067	519.58
32.3211	497.54
32.3356	514.12
32.3500	507.07
32.3644	479.57
32.3789	485.46
32.3933	477.12
32.4078	490.51
32.4222	532.07
32.4366	496.78
32.4511	491.61
32.4655	478.81
32.4800	509.00
32.4944	496.45
32.5088	484.53
32.5233	487.50
32.5377	515.76
32.5522	470.76
32.5666	503.72
32.5810	503.57
32.5955	521.92
32.6099	526.68
32.6244	484.76
32.6388	498.29
32.6532	504.05
32.6677	489.92
32.6821	486.51
32.6966	522.36
32.7110	546.94
32.7254	528.05
32.7399	535.46
32.7543	516.59
32.7688	519.04
32.7832	518.47
32.7976	518.46
32.8121	528.79
32.8265	542.95
32.8410	538.64
32.8554	529.87
32.8698	538.52
32.8843	503.64
32.8987	514.10
32.9132	527.44
32.9276	497.72
32.9420	508.76
32.9565	472.34
32.9709	457.48
32.9854	524.17
32.9998	493.16
33.0142	474.48
33.0287	487.19
33.0431	524.77
33.0576	530.36
33.0720	535.48
33.0864	532.60
33.1009	531.33
33.1153	497.27
33.1298	487.33
33.1442	508.23
33.1586	503.17
33.1731	480.79
33.1875	468.25
33.2020	521.99
33.2164	535.44
33.2308	543.80
33.2453	477.96
33.2597	486.91
33.2742	496.36
33.2886	482.68
33.3030	495.31
33.3175	505.65
33.3319	525.72
33.3464	496.56
33.3608	523.60
33.3752	518.99
33.3897	499.73
33.4041	503.72
33.4186	504.45
33.4330	516.76
33.4474	512.76
33.4619	522.77
33.4763	511.44
33.4908	482.85
33.5052	480.36
33.5196	480.44
33.5341	472.99
33.5485	530.41
33.5630	470.32
33.5774	490.92
33.5918	499.57
33.6063	504.15
33.6207	526.75
33.6352	529.93
33.6496	504.16
33.6640	483.70
33.6785	478.79
33.6929	509.27
33.7074	508.68
33.7218	466.73
33.7362	524.91
33.7507	538.25
33.7651	479.20
33.7796	497.75
33.7940	508.11
33.8084	516.71
33.8229	509.76
33.8373	511.93
33.8518	506.45
33.8662	539.64
33.8806	492.49
33.8951	483.87
33.9095	534.29
33.9240	487.91
33.9384	511.69
33.9528	534.38
33.9673	519.12
33.9817	501.24
33.9962	507.26
34.0106	508.28
34.0250	505.58
34.0395	494.76
34.0539	480.58
34.0684	510.63
34.0828	532.56
34.0972	508.17
34.1117	507.02
34.1261	477.19
34.1406	505.91
34.1550	498.39
34.1694	485.72
34.1839	491.26
34.1983	534.97
34.2128	509.27
34.2272	517.65
34.2417	526.58
34.2561	515.60
34.2705	492.06
34.2850	520.10
34.2994	490.38
34.3139	505.11
34.3283	497.76
34.3427	507.74
34.3572	535.16
34.3716	533.79
34.3861	497.26
34.4005	483.31
34.4149	509.68
34.4294	539.22
34.4438	508.61
34.4583	504.05
34.4727	538.77
34.4871	535.38
34.5016	510.37
34.5160	513.07
34.5305	503.10
34.5449	503.83
34.5593	518.42
34.5738	507.36
34.5882	512.25
34.6027	502.74
34.6171	481.37
34.6315	494.43
34.6460	489.12
34.6604	474.90
34.6749	501.07
34.6893	486.68
34.7037	491.33
34.7182	530.21
34.7326	508.41
34.7471	512.93
34.7615	492.88
34.7759	519.60
34.7904	567.55
34.8048	518.64
34.8193	501.82
34.8337	499.91
34.8481	484.72
34.8626	538.51
34.8770	499.07
34.8915	512.97
34.9059	550.23
34.9203	513.18
34.9348	519.82
34.9492	522.76
34.9637	511.24
34.9781	491.29
34.9925	497.94
35.0070	506.61
35.0214	531.25
35.0359	559.50
35.0503	520.33
35.0647	504.72
35.0792	510.20
35.0936	510.08
35.1081	510.29
35.1225	556.85
35.1369	508.45
35.1514	476.77
35.1658	497.42
35.1803	517.90
35.1947	479.08
35.2091	488.70
35.2236	499.67
35.2380	540.10
35.2525	534.72
35.2669	511.87
35.2813	504.05
35.2958	468.75
35.3102	527.60
35.3247	547.46
35.3391	516.56
35.3535	495.56
35.3680	460.05
35.3824	484.56
35.3969	504.15
35.4113	483.86
35.4257	524.89
35.4402	507.21
35.4546	512.11
35.4691	533.72
35.4835	552.80
35.4979	545.01
35.5124	503.25
35.5268	536.58
35.5413	537.92
35.5557	551.86
35.5701	508.99
35.5846	508.48
35.5990	519.61
35.6135	499.11
35.6279	504.32
35.6423	521.33
35.6568	536.91
35.6712	591.04
35.6857	603.03
35.7001	661.58
35.7145	736.58
35.7290	690.50
35.7434	644.80
35.7579	611.39
35.7723	638.09
35.7867	667.00
35.8012	686.75
35.8156	735.65
35.8301	725.21
35.8445	688.75
35.8589	759.70
35.8734	820.21
35.8878	939.24
35.9023	1074.94
35.9167	1189.73
35.9311	1260.39
35.9456	1644.34
35.9600	1993.98
35.9745	2115.03
35.9889	2309.63
36.0033	2801.00
36.0178	3108.18
36.0322	3207.34
36.0467	2670.43
36.0611	2167.52
36.0755	1841.50
36.0900	2152.16
36.1044	2102.71
36.1189	1513.02
36.1333	1322.01
36.1477	1102.84
36.1622	1023.05
36.1766	935.91
36.1911	840.07
36.2055	755.42
36.2199	790.49
36.2344	729.49
36.2488	607.08
36.2633	557.22
36.2777	577.11
36.2921	570.54
36.3066	554.49
36.3210	541.63
36.3355	544.57
36.3499	572.95
36.3643	556.42
36.3788	521.19
36.3932	531.54
36.4077	507.17
36.4221	526.03
36.4365	547.99
36.4510	522.68
36.4654	532.05
36.4799	540.49
36.4943	532.45
36.5087	525.48
36.5232	521.67
36.5376	539.36
36.5521	554.12
36.5665	474.32
36.5809	537.03
36.5954	497.79
36.6098	534.24
36.6243	514.25
36.6387	503.38
36.6531	537.66
36.6676	531.81
36.6820	530.21
36.6965	558.29
36.7109	548.51
36.7253	526.47
36.7398	540.18
36.7542	523.62
36.7687	507.53
36.7831	500.92
36.7975	523.89
36.8120	513.13
36.8264	557.24
36.8409	583.92
36.8553	589.40
36.8697	610.52
36.8842	624.25
36.8986	599.20
36.9131	587.58
36.9275	537.65
36.9419	623.61
36.9564	548.81
36.9708	505.33
36.9853	535.03
36.9997	561.66
37.0141	519.34
37.0286	517.63
37.0430	525.58
37.0575	508.34
37.0719	536.48
37.0863	544.79
37.1008	533.49
37.1152	500.17
37.1297	539.41
37.1441	510.53
37.1585	505.40
37.1730	500.78
37.1874	495.13
37.2019	506.13
37.2163	514.06
37.2307	484.79
37.2452	556.15
37.2596	533.46
37.2741	459.56
37.2885	468.47
37.3029	506.00
37.3174	486.79
37.3318	519.76
37.3463	492.85
37.3607	496.06
37.3751	502.23
37.3896	479.93
37.4040	484.63
37.4185	488.81
37.4329	494.21
37.4473	476.43
37.4618	474.77
37.4762	483.67
37.4907	522.77
37.5051	489.14
37.5195	492.26
37.5340	501.08
37.5484	512.14
37.5629	496.92
37.5773	491.54
37.5917	435.34
37.6062	488.53
37.6206	496.05
37.6351	487.92
37.6495	499.82
37.6639	481.31
37.6784	472.64
37.6928	495.57
37.7073	533.31
37.7217	507.94
37.7361	524.78
37.7506	532.94
37.7650	455.77
37.7795	496.49
37.7939	535.38
37.8083	508.64
37.8228	489.09
37.8372	507.19
37.8517	507.42
37.8661	532.64
37.8805	475.49
37.8950	467.79
37.9094	495.78
37.9239	514.45
37.9383	535.59
37.9528	509.37
37.9672	465.78
37.9816	490.82
37.9961	483.45
38.0105	506.51
38.0250	518.84
38.0394	475.13
38.0538	476.30
38.0683	473.65
38.0827	494.90
38.0972	491.71
38.1116	488.28
38.1260	497.88
38.1405	486.71
38.1549	478.59
38.1694	523.29
38.1838	511.72
38.1982	489.84
38.2127	479.66
38.2271	467.62
38.2416	481.71
38.2560	456.27
38.2704	451.18
38.2849	514.81
38.2993	520.37
38.3138	509.80
38.3282	486.64
38.3426	486.96
38.3571	483.17
38.3715	506.16
38.3860	536.36
38.4004	525.69
38.4148	546.01
38.4293	567.64
38.4437	569.87
38.4582	580.60
38.4726	684.10
38.4870	675.16
38.5015	719.73
38.5159	768.86
38.5304	791.52
38.5448	772.85
38.5592	807.78
38.5737	778.49
38.5881	730.66
38.6026	720.53
38.6170	685.49
38.6314	696.27
38.6459	669.42
38.6603	610.94
38.6748	606.58
38.6892	569.44
38.7036	541.14
38.7181	555.66
38.7325	538.22
38.7470	527.91
38.7614	532.93
38.7758	519.65
38.7903	505.92
38.8047	515.46
38.8192	524.09
38.8336	484.45
38.8480	530.03
38.8625	531.34
38.8769	513.53
38.8914	485.31
38.9058	512.91
38.9202	477.90
38.9347	541.55
38.9491	535.66
38.9636	497.17
38.9780	499.30
38.9924	519.89
39.0069	492.24
39.0213	476.16
39.0358	500.92
39.0502	500.69
39.0646	500.99
39.0791	495.09
39.0935	529.66
39.1080	478.24
39.1224	465.99
39.1368	519.23
39.1513	517.11
39.1657	508.11
39.1802	514.38
39.1946	464.39
39.2090	473.24
39.2235	521.87
39.2379	518.97
39.2524	504.63
39.2668	509.75
39.2812	496.50
39.2957	503.08
39.3101	510.60
39.3246	507.10
39.3390	532.56
39.3534	492.25
39.3679	507.79
39.3823	517.90
39.3968	497.07
39.4112	502.65
39.4256	514.37
39.4401	477.91
39.4545	498.50
39.4690	463.04
39.4834	476.60
39.4978	482.54
39.5123	497.30
39.5267	490.65
39.5412	475.08
39.5556	494.35
39.5700	487.15
39.5845	499.30
39.5989	477.06
39.6134	501.09
39.6278	480.55
39.6422	472.46
39.6567	511.93
39.6711	479.93
39.6856	499.46
39.7000	496.89
39.7144	506.95
39.7289	488.69
39.7433	486.28
39.7578	518.62
39.7722	512.78
39.7866	512.04
39.8011	515.33
39.8155	517.12
39.8300	511.59
39.8444	478.38
39.8588	525.41
39.8733	506.62
39.8877	500.73
39.9022	530.12
39.9166	491.96
39.9310	523.97
39.9455	490.88
39.9599	516.83
39.9744	480.14
39.9888	474.17
40.0032	465.49
40.0177	483.73
40.0321	504.26
40.0466	524.07
40.0610	504.25
40.0754	473.50
40.0899	538.63
40.1043	522.66
40.1188	510.70
40.1332	526.00
40.1476	501.61
40.1621	522.10
40.1765	481.14
40.1910	455.93
40.2054	474.86
40.2198	476.48
40.2343	530.92
40.2487	490.62
40.2632	504.85
40.2776	491.78
40.2920	484.15
40.3065	502.31
40.3209	498.81
40.3354	531.49
40.3498	489.44
40.3642	493.08
40.3787	493.98
40.3931	478.23
40.4076	485.87
40.4220	511.95
40.4364	499.29
40.4509	468.36
40.4653	483.38
40.4798	502.33
40.4942	476.71
40.5086	477.94
40.5231	487.07
40.5375	496.44
40.5520	509.50
40.5664	490.92
40.5808	509.95
40.5953	470.49
40.6097	466.97
40.6242	500.55
40.6386	482.49
40.6530	505.27
40.6675	483.39
40.6819	481.24
40.6964	505.34
40.7108	532.10
40.7252	520.84
40.7397	529.70
40.7541	472.11
40.7686	492.77
40.7830	528.61
40.7974	547.12
40.8119	479.91
40.8263	470.79
40.8408	497.00
40.8552	503.73
40.8696	519.28
40.8841	495.57
40.8985	497.06
40.9130	504.95
40.9274	505.56
40.9418	487.75
40.9563	508.44
40.9707	495.66
40.9852	481.87
40.9996	491.01
41.0140	470.76
41.0285	478.10
41.0429	506.04
41.0574	527.89
41.0718	514.20
41.0862	487.55
41.1007	469.36
41.1151	507.15
41.1296	539.94
41.1440	532.21
41.1584	481.68
41.1729	514.60
41.1873	501.10
41.2018	514.54
41.2162	515.87
41.2306	509.01
41.2451	482.73
41.2595	505.95
41.2740	534.71
41.2884	505.05
41.3028	485.40
41.3173	476.45
41.3317	482.51
41.3462	517.69
41.3606	535.28
41.3750	518.78
41.3895	484.64
41.4039	502.32
41.4184	520.51
41.4328	526.30
41.4472	485.65
41.4617	530.64
41.4761	511.60
41.4906	504.74
41.5050	499.37
41.5194	504.12
41.5339	480.86
41.5483	509.71
41.5628	530.48
41.5772	477.64
41.5916	496.05
41.6061	509.14
41.6205	521.93
41.6350	510.45
41.6494	480.98
41.6639	461.34
41.6783	461.30
41.6927	465.58
41.7072	434.96
41.7216	483.33
41.7361	473.69
41.7505	477.69
41.7649	489.62
41.7794	493.84
41.7938	507.60
41.8083	521.92
41.8227	492.84
41.8371	497.22
41.8516	532.61
41.8660	549.79
41.8805	524.78
41.8949	530.43
41.9093	570.55
41.9238	513.53
41.9382	532.76
41.9527	533.97
41.9671	552.06
41.9815	587.69
41.9960	569.81
42.0104	560.36
42.0249	548.80
42.0393	539.27
42.0537	595.47
42.0682	552.34
42.0826	595.65
42.0971	595.18
42.1115	569.62
42.1259	594.91
42.1404	600.95
42.1548	633.18
42.1693	656.54
42.1837	706.29
42.1981	750.80
42.2126	839.89
42.2270	932.56
42.2415	1070.08
42.2559	1200.42
42.2703	1364.69
42.2848	1500.43
42.2992	1612.53
42.3137	1652.47
42.3281	1706.30
42.3425	1651.72
42.3570	1490.04
42.3714	1391.80
42.3859	1313.15
42.4003	1316.86
42.4147	1286.73
42.4292	1254.13
42.4436	1139.54
42.4581	1029.85
42.4725	939.26
42.4869	813.01
42.5014	742.77
42.5158	700.72
42.5303	647.87
42.5447	623.98
42.5591	604.88
42.5736	624.44
42.5880	577.14
42.6025	544.19
42.6169	543.98
42.6313	531.13
42.6458	543.97
42.6602	539.12
42.6747	512.66
42.6891	527.55
42.7035	512.36
42.7180	529.86
42.7324	539.15
42.7469	524.16
42.7613	522.27
42.7757	522.49
42.7902	521.98
42.8046	520.03
42.8191	532.89
42.8335	513.19
42.8479	518.28
42.8624	517.04
42.8768	511.03
42.8913	477.21
42.9057	516.18
42.9201	516.43
42.9346	516.59
42.9490	527.70
42.9635	498.11
42.9779	502.70
42.9923	524.69
43.0068	508.79
43.0212	478.06
43.0357	483.29
43.0501	500.85
43.0645	521.10
43.0790	501.56
43.0934	534.38
43.1079	522.34
43.1223	553.37
43.1367	512.44
43.1512	489.48
43.1656	512.00
43.1801	510.00
43.1945	487.64
43.2089	490.24
43.2234	515.99
43.2378	538.20
43.2523	545.20
43.2667	523.26
43.2811	495.86
43.2956	497.80
43.3100	522.49
43.3245	530.40
43.3389	534.71
43.3533	498.08
43.3678	490.00
43.3822	527.46
43.3967	519.04
43.4111	540.50
43.4255	527.61
43.4400	511.79
43.4544	479.19
43.4689	519.68
43.4833	519.79
43.4977	538.40
43.5122	527.99
43.5266	525.90
43.5411	543.41
43.5555	543.26
43.5699	499.73
43.5844	529.61
43.5988	506.80
43.6133	517.49
43.6277	515.33
43.6421	523.91
43.6566	539.35
43.6710	537.68
43.6855	590.67
43.6999	593.73
43.7143	594.47
43.7288	644.85
43.7432	649.80
43.7577	674.66
43.7721	691.70
43.7865	636.89
43.8010	643.29
43.8154	629.23
43.8299	617.72
43.8443	607.80
43.8587	627.90
43.8732	636.56
43.8876	574.24
43.9021	561.85
43.9165	547.20
43.9309	478.94
43.9454	526.80
43.9598	495.38
43.9743	529.23
43.9887	509.17
44.0031	487.71
44.0176	491.90
44.0320	518.81
44.0465	507.18
44.0609	541.21
44.0753	512.27
44.0898	504.87
44.1042	502.08
44.1187	478.39
44.1331	481.41
44.1475	452.86
44.1620	498.32
44.1764	547.79
44.1909	510.50
44.2053	544.85
44.2197	533.85
44.2342	505.20
44.2486	519.03
44.2631	506.55
44.2775	551.93
44.2919	533.26
44.3064	528.51
44.3208	536.56
44.3353	530.00
44.3497	566.50
44.3641	542.28
44.3786	529.74
44.3930	552.35
44.4075	561.54
44.4219	551.82
44.4363	592.12
44.4508	558.79
44.4652	586.21
44.4797	554.06
44.4941	530.56
44.5085	521.60
44.5230	542.25
44.5374	586.32
44.5519	558.90
44.5663	572.84
44.5807	555.10
44.5952	560.35
44.6096	570.77
44.6241	564.02
44.6385	583.07
44.6529	568.91
44.6674	583.81
44.6818	566.39
44.6963	621.38
44.7107	624.95
44.7251	651.83
44.7396	759.34
44.7540	764.57
44.7685	785.49
44.7829	870.81
44.7973	860.81
44.8118	851.74
44.8262	818.65
44.8407	762.05
44.8551	729.58
44.8695	723.16
44.8840	732.21
44.8984	775.41
44.9129	724.50
44.9273	748.89
44.9417	674.73
44.9562	622.30
44.9706	571.99
44.9851	549.52
44.9995	530.56
45.0139	527.97
45.0284	522.97
45.0428	527.52
45.0573	504.93
45.0717	508.66
45.0861	514.74
45.1006	467.81
45.1150	512.58
45.1295	514.45
45.1439	514.09
45.1583	506.62
45.1728	522.96
45.1872	518.32
45.2017	531.46
45.2161	518.74
45.2305	500.07
45.2450	497.92
45.2594	486.02
45.2739	488.83
45.2883	479.29
45.3028	516.83
45.3172	544.35
45.3316	524.91
45.3461	511.97
45.3605	526.38
45.3750	530.58
45.3894	475.11
45.4038	469.89
45.4183	505.95
45.4327	500.72
45.4472	512.45
45.4616	516.37
45.4760	521.48
45.4905	498.44
45.5049	482.99
45.5194	513.58
45.5338	542.17
45.5482	506.97
45.5627	512.50
45.5771	515.79
45.5916	497.63
45.6060	487.87
45.6204	518.88
45.6349	520.33
45.6493	534.64
45.6638	483.71
45.6782	498.04
45.6926	485.54
45.7071	532.27
45.7215	529.22
45.7360	493.67
45.7504	511.89
45.7648	522.40
45.7793	541.95
45.7937	533.77
45.8082	484.00
45.8226	502.92
45.8370	518.33
45.8515	500.44
45.8659	533.18
45.8804	517.44
45.8948	514.84
45.9092	492.39
45.9237	505.47
45.9381	513.77
45.9526	528.15
45.9670	495.01
45.9814	527.07
45.9959	499.74
46.0103	464.87
46.0248	483.05
46.0392	522.23
46.0536	514.47
46.0681	502.62
46.0825	528.88
46.0970	515.19
46.1114	476.95
46.1258	526.94
46.1403	491.30
46.1547	493.40
46.1692	516.25
46.1836	523.55
46.1980	516.20
46.2125	510.88
46.2269	483.76
46.2414	505.26
46.2558	499.97
46.2702	464.17
46.2847	477.35
46.2991	494.20
46.3136	499.40
46.3280	496.89
46.3424	502.35
46.3569	512.39
46.3713	502.48
46.3858	497.18
46.4002	485.22
46.4146	526.12
46.4291	536.26
46.4435	499.44
46.4580	505.89
46.4724	538.89
46.4868	483.02
46.5013	497.31
46.5157	510.23
46.5302	511.09
46.5446	462.61
46.5590	482.47
46.5735	488.52
46.5879	488.25
46.6024	520.91
46.6168	516.74
46.6312	502.13
46.6457	483.15
46.6601	498.18
46.6746	499.67
46.6890	491.29
46.7034	487.30
46.7179	512.12
46.7323	490.12
46.7468	485.16
46.7612	449.18
46.7756	490.70
46.7901	475.11
46.8045	485.78
46.8190	501.80
46.8334	479.74
46.8478	505.08
46.8623	487.91
46.8767	500.84
46.8912	492.58
46.9056	531.19
46.9200	504.14
46.9345	501.59
46.9489	497.23
46.9634	489.42
46.9778	519.23
46.9922	525.36
47.0067	499.60
47.0211	523.12
47.0356	525.99
47.0500	492.06
47.0644	484.68
47.0789	514.13
47.0933	493.27
47.1078	493.57
47.1222	477.30
47.1366	478.55
47.1511	489.30
47.1655	526.98
47.1800	516.17
47.1944	465.45
47.2088	464.35
47.2233	480.85
47.2377	483.78
47.2522	494.88
47.2666	510.25
47.2810	523.72
47.2955	525.65
47.3099	503.01
47.3244	485.02
47.3388	528.38
47.3532	526.59
47.3677	500.34
47.3821	493.39
47.3966	470.76
47.4110	469.12
47.4254	509.97
47.4399	486.24
47.4543	491.13
47.4688	496.77
47.4832	528.69
47.4976	475.20
47.5121	481.61
47.5265	482.48
47.5410	515.98
47.5554	486.24
47.5698	492.70
47.5843	508.95
47.5987	492.21
47.6132	515.51
47.6276	510.49
47.6420	489.32
47.6565	475.78
47.6709	493.11
47.6854	485.55
47.6998	488.17
47.7142	484.32
47.7287	510.20
47.7431	517.09
47.7576	515.06
47.7720	520.40
47.7864	532.43
47.8009	483.90
47.8153	496.28
47.8298	512.30
47.8442	534.98
47.8586	527.99
47.8731	478.17
47.8875	466.94
47.9020	486.62
47.9164	476.03
47.9308	483.81
47.9453	508.76
47.9597	505.64
47.9742	502.79
47.9886	518.29
48.0030	470.86
48.0175	498.72
48.0319	472.48
48.0464	483.03
48.0608	506.44
48.0752	476.09
48.0897	540.50
48.1041	503.99
48.1186	557.53
48.1330	548.41
48.1474	486.04
48.1619	496.97
48.1763	516.66
48.1908	486.89
48.2052	487.11
48.2196	509.58
48.2341	537.99
48.2485	528.03
48.2630	500.81
48.2774	536.95
48.2918	515.15
48.3063	524.55
48.3207	521.91
48.3352	519.93
48.3496	530.01
48.3640	544.52
48.3785	524.61
48.3929	484.42
48.4074	492.20
48.4218	514.53
48.4362	531.08
48.4507	493.99
48.4651	527.64
48.4796	506.77
48.4940	506.43
48.5084	483.19
48.5229	525.56
48.5373	510.05
48.5518	495.88
48.5662	488.46
48.5806	501.79
48.5951	513.19
48.6095	506.27
48.6240	504.71
48.6384	485.49
48.6528	507.56
48.6673	537.04
48.6817	496.60
48.6962	501.71
48.7106	530.08
48.7250	501.58
48.7395	480.60
48.7539	551.89
48.7684	533.79
48.7828	565.79
48.7972	538.71
48.8117	541.06
48.8261	526.76
48.8406	552.74
48.8550	498.84
48.8694	527.27
48.8839	538.07
48.8983	552.76
48.9128	539.45
48.9272	574.36
48.9416	550.77
48.9561	549.74
48.9705	592.38
48.9850	589.57
48.9994	615.41
49.0139	594.10
49.0283	563.75
49.0427	604.85
49.0572	583.49
49.0716	657.03
49.0861	700.77
49.1005	687.50
49.1149	711.09
49.1294	730.10
49.1438	782.46
49.1583	783.97
49.1727	900.43
49.1871	969.40
49.2016	972.44
49.2160	1006.06
49.2305	1087.63
49.2449	1225.51
49.2593	1322.86
49.2738	1439.67
49.2882	1534.56
49.3027	1587.43
49.3171	1656.95
49.3315	1724.73
49.3460	1791.10
49.3604	1834.69
49.3749	1843.14
49.3893	1830.70
49.4037	1745.89
49.4182	1875.99
49.4326	1808.84
49.4471	1674.52
49.4615	1630.48
49.4759	1576.20
49.4904	1474.68
49.5048	1387.49
49.5193	1325.54
49.5337	1340.78
49.5481	1192.75
49.5626	1126.54
49.5770	1060.60
49.5915	962.01
49.6059	897.09
49.6203	812.96
49.6348	811.36
49.6492	798.21
49.6637	740.82
49.6781	701.20
49.6925	701.90
49.7070	657.03
49.7214	641.20
49.7359	622.24
49.7503	623.96
49.7647	605.10
49.7792	605.82
49.7936	612.21
49.8081	591.18
49.8225	611.98
49.8369	576.05
49.8514	589.61
49.8658	575.95
49.8803	563.98
49.8947	533.67
49.9091	566.10
49.9236	530.80
49.9380	550.99
49.9525	505.64
49.9669	484.80
49.9813	528.31
49.9958	542.42
50.0102	542.96
50.0247	526.92
50.0391	528.29
50.0535	513.82
50.0680	478.25
50.0824	511.68
50.0969	525.59
50.1113	484.44
50.1257	509.35
50.1402	479.46
50.1546	495.28
50.1691	533.25
50.1835	541.32
50.1979	503.75
50.2124	525.75
50.2268	502.30
50.2413	492.98
50.2557	485.42
50.2701	522.77
50.2846	523.96
50.2990	514.45
50.3135	515.51
50.3279	485.57
50.3423	474.97
50.3568	505.64
50.3712	500.98
50.3857	517.29
50.4001	503.37
50.4145	500.00
50.4290	488.98
50.4434	510.50
50.4579	508.87
50.4723	494.05
50.4867	501.84
50.5012	481.54
50.5156	501.21
50.5301	514.26
50.5445	514.73
50.5589	509.15
50.5734	513.29
50.5878	516.80
50.6023	489.03
50.6167	498.13
50.6311	499.55
50.6456	521.70
50.6600	502.06
50.6745	502.47
50.6889	504.35
50.7033	536.83
50.7178	503.45
50.7322	496.04
50.7467	486.34
50.7611	501.22
50.7755	523.96
50.7900	517.04
50.8044	523.69
50.8189	518.18
50.8333	523.51
50.8477	481.90
50.8622	526.44
50.8766	519.37
50.8911	488.59
50.9055	554.60
50.9199	514.03
50.9344	513.09
50.9488	495.47
50.9633	500.85
50.9777	532.80
50.9921	548.01
51.0066	496.90
51.0210	509.72
51.0355	513.59
51.0499	517.77
51.0643	541.74
51.0788	523.49
51.0932	522.78
51.1077	528.13
51.1221	503.19
51.1365	525.29
51.1510	508.11
51.1654	507.11
51.1799	522.40
51.1943	504.67
51.2087	473.90
51.2232	459.66
51.2376	518.68
51.2521	515.14
51.2665	500.17
51.2809	548.36
51.2954	499.04
51.3098	486.68
51.3243	521.34
51.3387	524.72
51.3531	479.58
51.3676	494.50
51.3820	500.85
51.3965	507.28
51.4109	482.54
51.4253	529.13
51.4398	531.56
51.4542	513.11
51.4687	505.00
51.4831	502.93
51.4975	515.09
51.5120	481.02
51.5264	511.17
51.5409	516.02
51.5553	535.40
51.5697	525.22
51.5842	493.21
51.5986	482.77
51.6131	503.25
51.6275	505.00
51.6419	513.21
51.6564	529.94
51.6708	488.03
51.6853	488.90
51.6997	507.37
51.7141	536.92
51.7286	505.91
51.7430	492.10
51.7575	474.38
51.7719	487.31
51.7863	494.28
51.8008	476.82
51.8152	510.15
51.8297	513.51
51.8441	525.90
51.8585	514.66
51.8730	509.97
51.8874	482.42
51.9019	504.12
51.9163	495.26
51.9307	501.53
51.9452	520.19
51.9596	479.01
51.9741	467.22
51.9885	477.90
52.0029	487.94
52.0174	526.81
52.0318	505.85
52.0463	510.47
52.0607	527.32
52.0751	518.42
52.0896	556.37
52.1040	525.32
52.1185	514.01
52.1329	516.58
52.1473	481.95
52.1618	492.22
52.1762	501.11
52.1907	482.23
52.2051	507.46
52.2195	526.74
52.2340	508.44
52.2484	504.81
52.2629	497.93
52.2773	524.86
52.2917	513.35
52.3062	505.21
52.3206	521.94
52.3351	510.28
52.3495	478.01
52.3639	534.93
52.3784	485.55
52.3928	489.53
52.4073	476.77
52.4217	504.96
52.4361	500.56
52.4506	494.20
52.4650	536.11
52.4795	496.77
52.4939	519.33
52.5083	474.56
52.5228	512.26
52.5372	506.13
52.5517	532.94
52.5661	513.23
52.5805	477.90
52.5950	502.22
52.6094	528.02
52.6239	506.25
52.6383	525.51
52.6527	517.57
52.6672	507.85
52.6816	503.22
52.6961	479.99
52.7105	542.42
52.7250	516.67
52.7394	513.08
52.7538	516.89
52.7683	505.33
52.7827	562.15
52.7972	521.97
52.8116	491.15
52.8260	526.84
52.8405	510.72
52.8549	532.69
52.8694	492.90
52.8838	510.90
52.8982	539.60
52.9127	552.98
52.9271	501.73
52.9416	492.15
52.9560	481.68
52.9704	491.65
52.9849	495.69
52.9993	502.22
53.0138	495.80
53.0282	504.45
53.0426	536.51
53.0571	516.70
53.0715	540.18
53.0860	525.84
53.1004	509.31
53.1148	544.66
53.1293	508.22
53.1437	498.63
53.1582	492.46
53.1726	519.05
53.1870	520.49
53.2015	484.87
53.2159	522.69
53.2304	525.51
53.2448	486.90
53.2592	520.99
53.2737	526.70
53.2881	523.53
53.3026	501.07
53.3170	492.32
53.3314	526.94
53.3459	525.25
53.3603	488.78
53.3748	501.20
53.3892	517.72
53.4036	495.45
53.4181	497.05
53.4325	497.96
53.4470	473.46
53.4614	489.00
53.4758	516.87
53.4903	495.91
53.5047	497.25
53.5192	522.68
53.5336	538.58
53.5480	513.76
53.5625	528.79
53.5769	481.29
53.5914	520.94
53.6058	531.32
53.6202	484.23
53.6347	523.94
53.6491	538.68
53.6636	502.74
53.6780	516.51
53.6924	513.47
53.7069	513.75
53.7213	524.30
53.7358	507.67
53.7502	488.49
53.7646	496.14
53.7791	515.87
53.7935	517.58
53.8080	507.57
53.8224	502.27
53.8368	550.61
53.8513	509.08
53.8657	493.15
53.8802	509.87
53.8946	528.22
53.9090	517.22
53.9235	480.66
53.9379	519.24
53.9524	503.73
53.9668	502.52
53.9812	513.54
53.9957	504.33
54.0101	539.29
54.0246	528.11
54.0390	524.98
54.0534	530.14
54.0679	526.63
54.0823	533.37
54.0968	547.46
54.1112	566.09
54.1256	567.90
54.1401	538.15
54.1545	529.06
54.1690	569.74
54.1834	584.60
54.1978	610.06
54.2123	604.26
54.2267	599.79
54.2412	610.60
54.2556	607.29
54.2700	644.18
54.2845	662.09
54.2989	635.67
54.3134	607.02
54.3278	590.26
54.3422	631.66
54.3567	614.05
54.3711	584.44
54.3856	561.97
54.4000	549.25
54.4144	545.44
54.4289	606.72
54.4433	601.63
54.4578	562.36
54.4722	571.56
54.4866	569.74
54.5011	527.12
54.5155	479.13
54.5300	526.86
54.5444	528.31
54.5588	538.09
54.5733	526.23
54.5877	510.05
54.6022	520.14
54.6166	522.58
54.6310	542.44
54.6455	538.50
54.6599	556.39
54.6744	525.81
54.6888	511.75
54.7032	540.52
54.7177	538.44
54.7321	482.31
54.7466	497.36
54.7610	494.24
54.7754	517.59
54.7899	514.22
54.8043	521.96
54.8188	522.75
54.8332	539.84
54.8476	549.15
54.8621	539.26
54.8765	535.39
54.8910	512.12
54.9054	516.73
54.9198	498.63
54.9343	514.29
54.9487	484.91
54.9632	491.81
54.9776	494.15
54.9920	509.44
55.0065	514.30
55.0209	532.89
55.0354	523.52
55.0498	545.33
55.0642	512.69
55.0787	505.33
55.0931	559.24
55.1076	514.81
55.1220	535.91
55.1364	535.33
55.1509	516.17
55.1653	522.47
55.1798	514.62
55.1942	502.81
55.2086	534.07
55.2231	529.82
55.2375	499.51
55.2520	511.49
55.2664	503.17
55.2808	495.22
55.2953	508.32
55.3097	539.49
55.3242	526.38
55.3386	528.31
55.3530	485.76
55.3675	497.80
55.3819	515.56
55.3964	485.04
55.4108	509.96
55.4252	519.72
55.4397	512.82
55.4541	517.27
55.4686	548.98
55.4830	521.72
55.4974	529.57
55.5119	516.13
55.5263	529.65
55.5408	511.70
55.5552	509.19
55.5696	508.45
55.5841	514.66
55.5985	495.09
55.6130	501.81
55.6274	530.11
55.6418	502.87
55.6563	558.23
55.6707	524.21
55.6852	526.52
55.6996	524.38
55.7140	565.72
55.7285	528.71
55.7429	525.43
55.7574	508.80
55.7718	498.48
55.7862	501.93
55.8007	524.46
55.8151	554.68
55.8296	538.25
55.8440	547.17
55.8584	520.93
55.8729	522.68
55.8873	505.53
55.9018	507.61
55.9162	497.04
55.9306	495.16
55.9451	530.31
55.9595	502.23
55.9740	510.00
55.9884	483.17
56.0028	510.43
56.0173	525.84
56.0317	524.16
56.0462	533.37
56.0606	542.23
56.0750	497.99
56.0895	551.56
56.1039	515.32
56.1184	516.71
56.1328	509.72
56.1472	495.59
56.1617	495.46
56.1761	509.41
56.1906	502.03
56.2050	513.64
56.2194	544.89
56.2339	508.79
56.2483	516.44
56.2628	480.14
56.2772	477.76
56.2916	508.97
56.3061	523.01
56.3205	508.73
56.3350	481.10
56.3494	517.57
56.3639	532.38
56.3783	505.83
56.3927	523.08
56.4072	560.47
56.4216	560.56
56.4361	561.99
56.4505	495.59
56.4649	499.24
56.4794	481.24
56.4938	502.10
56.5083	482.71
56.5227	533.26
56.5371	532.82
56.5516	504.05
56.5660	519.97
56.5805	518.73
56.5949	522.54
56.6093	536.79
56.6238	526.08
56.6382	503.68
56.6527	515.45
56.6671	505.18
56.6815	496.92
56.6960	470.34
56.7104	521.11
56.7249	550.01
56.7393	517.31
56.7537	502.54
56.7682	510.42
56.7826	537.90
56.7971	502.91
56.8115	523.16
56.8259	521.99
56.8404	513.00
56.8548	477.78
56.8693	534.94
56.8837	526.23
56.8981	518.09
56.9126	522.00
56.9270	516.91
56.9415	543.82
56.9559	510.65
56.9703	454.11
56.9848	492.25
56.9992	551.77
57.0137	525.67
57.0281	517.57
57.0425	519.27
57.0570	499.59
57.0714	492.24
57.0859	542.63
57.1003	543.41
57.1147	567.45
57.1292	536.95
57.1436	507.59
57.1581	513.13
57.1725	530.49
57.1869	528.70
57.2014	536.06
57.2158	509.18
57.2303	539.40
57.2447	553.92
57.2591	519.24
57.2736	513.09
57.2880	519.83
57.3025	503.64
57.3169	504.81
57.3313	486.44
57.3458	516.33
57.3602	527.44
57.3747	525.11
57.3891	516.66
57.4035	509.66
57.4180	522.09
57.4324	540.20
57.4469	509.07
57.4613	530.31
57.4757	536.03
57.4902	534.16
57.5046	541.44
57.5191	504.59
57.5335	526.93
57.5479	537.01
57.5624	548.22
57.5768	518.64
57.5913	502.35
57.6057	535.66
57.6201	547.48
57.6346	535.66
57.6490	552.72
57.6635	580.70
57.6779	576.85
57.6923	544.32
57.7068	522.67
57.7212	541.15
57.7357	561.46
57.7501	570.02
57.7645	522.20
57.7790	578.96
57.7934	593.76
57.8079	629.95
57.8223	674.31
57.8367	721.93
57.8512	715.77
57.8656	778.36
57.8801	769.74
57.8945	786.52
57.9089	747.87
57.9234	755.21
57.9378	757.73
57.9523	713.95
57.9667	640.94
57.9811	634.11
57.9956	617.51
58.0100	645.21
58.0245	640.67
58.0389	662.66
58.0533	644.18
58.0678	617.63
58.0822	633.47
58.0967	610.24
58.1111	613.85
58.1255	594.45
58.1400	540.58
58.1544	554.21
58.1689	527.89
58.1833	540.07
58.1977	546.66
58.2122	539.69
58.2266	538.57
58.2411	541.82
58.2555	559.36
58.2699	567.13
58.2844	573.65
58.2988	556.03
58.3133	549.50
58.3277	538.99
58.3421	551.69
58.3566	527.63
58.3710	519.66
58.3855	542.07
58.3999	533.12
58.4143	536.01
58.4288	577.20
58.4432	539.18
58.4577	540.33
58.4721	553.39
58.4865	535.44
58.5010	537.46
58.5154	543.80
58.5299	547.91
58.5443	513.01
58.5587	518.70
58.5732	527.20
58.5876	485.04
58.6021	500.61
58.6165	540.18
58.6309	554.16
58.6454	522.86
58.6598	510.35
58.6743	536.13
58.6887	516.73
58.7031	548.79
58.7176	559.30
58.7320	509.48
58.7465	535.50
58.7609	496.74
58.7753	537.40
58.7898	508.60
58.8042	494.73
58.8187	536.52
58.8331	528.43
58.8475	532.20
58.8620	574.35
58.8764	556.44
58.8909	530.23
58.9053	532.28
58.9197	547.80
58.9342	541.79
58.9486	514.49
58.9631	532.11
58.9775	523.10
58.9919	526.38
59.0064	534.15
59.0208	535.87
59.0353	544.13
59.0497	537.58
59.0641	524.56
59.0786	556.32
59.0930	581.75
59.1075	520.03
59.1219	490.02
59.1363	514.01
59.1508	508.77
59.1652	551.73
59.1797	568.33
59.1941	552.18
59.2085	558.43
59.2230	542.74
59.2374	543.42
59.2519	551.56
59.2663	565.75
59.2807	531.18
59.2952	519.32
59.3096	546.16
59.3241	537.44
59.3385	551.87
59.3529	542.08
59.3674	554.16
59.3818	535.38
59.3963	552.18
59.4107	554.69
59.4251	607.01
59.4396	591.39
59.4540	546.61
59.4685	549.95
59.4829	552.88
59.4973	536.11
59.5118	523.49
59.5262	542.37
59.5407	523.28
59.5551	541.87
59.5695	545.09
59.5840	546.53
59.5984	513.93
59.6129	527.64
59.6273	554.81
59.6417	544.31
59.6562	546.95
59.6706	532.21
59.6851	548.16
59.6995	515.37
59.7139	535.25
59.7284	517.74
59.7428	527.94
59.7573	529.28
59.7717	529.86
59.7861	525.58
59.8006	526.18
59.8150	520.53
59.8295	545.32
59.8439	542.40
59.8583	590.70
59.8728	540.29
59.8872	500.80
59.9017	537.73
59.9161	545.18
59.9305	521.68
59.9450	554.95
59.9594	542.65
59.9739	562.47
59.9883	524.33
60.0027	519.75
60.0172	530.87
60.0316	529.90
60.0461	526.78
60.0605	533.51
60.0750	536.05
60.0894	527.00
60.1038	551.36
60.1183	514.74
60.1327	542.39
60.1472	521.32
60.1616	519.71
60.1760	558.01
60.1905	507.11
60.2049	537.04
60.2194	527.42
60.2338	557.01
60.2482	554.09
60.2627	537.72
60.2771	562.63
60.2916	526.90
60.3060	533.01
60.3204	512.76
60.3349	543.01
60.3493	532.87
60.3638	517.33
60.3782	520.65
60.3926	518.91
60.4071	527.42
60.4215	542.78
60.4360	523.17
60.4504	543.53
60.4648	526.21
60.4793	524.92
60.4937	522.24
60.5082	533.81
60.5226	531.64
60.5370	519.08
60.5515	529.58
60.5659	545.21
60.5804	544.94
60.5948	548.27
60.6092	506.48
60.6237	519.46
60.6381	545.39
60.6526	532.84
60.6670	555.29
60.6814	508.21
60.6959	514.03
60.7103	528.18
60.7248	567.42
60.7392	560.05
60.7536	525.82
60.7681	474.97
60.7825	517.73
60.7970	531.05
60.8114	517.36
60.8258	526.81
60.8403	601.15
60.8547	577.94
60.8692	554.93
60.8836	575.74
60.8980	506.11
60.9125	537.01
60.9269	526.84
60.9414	542.08
60.9558	490.01
60.9702	520.81
60.9847	550.23
60.9991	564.89
61.0136	520.74
61.0280	532.82
61.0424	551.00
61.0569	505.21
61.0713	535.32
61.0858	557.49
61.1002	527.59
61.1146	540.11
61.1291	545.13
61.1435	527.80
61.1580	523.72
61.1724	534.62
61.1868	544.90
61.2013	557.05
61.2157	518.66
61.2302	550.20
61.2446	540.64
61.2590	512.21
61.2735	564.97
61.2879	555.24
61.3024	520.43
61.3168	524.53
61.3312	535.22
61.3457	517.33
61.3601	506.66
61.3746	506.26
61.3890	521.55
61.4034	522.04
61.4179	534.91
61.4323	540.32
61.4468	507.38
61.4612	546.46
61.4756	534.37
61.4901	561.59
61.5045	545.62
61.5190	564.49
61.5334	568.04
61.5478	543.45
61.5623	556.47
61.5767	547.82
61.5912	550.41
61.6056	558.67
61.6200	531.42
61.6345	550.61
61.6489	565.43
61.6634	543.30
61.6778	548.95
61.6922	557.57
61.7067	543.76
61.7211	521.49
61.7356	518.93
61.7500	513.72
61.7644	547.48
61.7789	568.55
61.7933	543.41
61.8078	543.67
61.8222	524.44
61.8366	549.99
61.8511	526.91
61.8655	534.97
61.8800	536.58
61.8944	571.19
61.9088	581.29
61.9233	551.47
61.9377	538.16
61.9522	540.53
61.9666	537.75
61.9810	526.09
61.9955	585.18
62.0099	563.83
62.0244	570.72
62.0388	564.88
62.0532	532.91
62.0677	578.03
62.0821	575.49
62.0966	587.06
62.1110	555.49
62.1254	544.92
62.1399	529.11
62.1543	510.26
62.1688	524.14
62.1832	553.61
62.1976	555.36
62.2121	563.40
62.2265	526.33
62.2410	558.96
62.2554	545.39
62.2698	535.63
62.2843	522.89
62.2987	561.16
62.3132	578.94
62.3276	531.19
62.3420	531.98
62.3565	558.06
62.3709	540.49
62.3854	528.26
62.3998	512.32
62.4142	533.27
62.4287	600.68
62.4431	570.49
62.4576	522.63
62.4720	553.11
62.4864	584.11
62.5009	558.32
62.5153	550.27
62.5298	539.69
62.5442	511.12
62.5586	541.33
62.5731	531.47
62.5875	515.16
62.6020	573.92
62.6164	575.49
62.6308	548.07
62.6453	525.93
62.6597	528.29
62.6742	560.74
62.6886	551.48
62.7030	583.85
62.7175	568.17
62.7319	568.54
62.7464	536.97
62.7608	511.72
62.7752	531.30
62.7897	553.48
62.8041	571.50
62.8186	561.70
62.8330	559.30
62.8474	564.06
62.8619	594.13
62.8763	570.67
62.8908	532.18
62.9052	564.03
62.9196	543.04
62.9341	572.39
62.9485	571.00
62.9630	541.19
62.9774	546.78
62.9918	549.38
63.0063	536.48
63.0207	549.75
63.0352	547.41
63.0496	569.08
63.0640	601.17
63.0785	582.41
63.0929	543.61
63.1074	563.56
63.1218	621.70
63.1362	597.13
63.1507	533.79
63.1651	602.78
63.1796	600.21
63.1940	573.14
63.2084	598.74
63.2229	580.63
63.2373	593.20
63.2518	576.80
63.2662	582.85
63.2806	595.09
63.2951	570.02
63.3095	605.50
63.3240	607.92
63.3384	625.37
63.3528	628.92
63.3673	596.66
63.3817	594.22
63.3962	615.31
63.4106	610.58
63.4250	650.83
63.4395	634.07
63.4539	669.04
63.4684	709.56
63.4828	761.46
63.4972	774.56
63.5117	776.38
63.5261	837.03
63.5406	931.94
63.5550	986.95
63.5694	951.64
63.5839	991.82
63.5983	944.81
63.6128	888.12
63.6272	898.90
63.6416	798.28
63.6561	780.06
63.6705	730.71
63.6850	745.93
63.6994	780.93
63.7138	839.08
63.7283	789.01
63.7427	815.76
63.7572	830.62
63.7716	807.39
63.7861	797.19
63.8005	742.19
63.8149	693.97
63.8294	685.09
63.8438	656.39
63.8583	674.67
63.8727	659.14
63.8871	614.89
63.9016	652.98
63.9160	609.43
63.9305	592.14
63.9449	622.96
63.9593	608.96
63.9738	579.70
63.9882	610.57
64.0027	582.15
64.0171	646.83
64.0315	629.39
64.0460	608.50
64.0604	589.60
64.0749	573.93
64.0893	593.16
64.1037	598.74
64.1182	605.98
64.1326	568.89
64.1471	585.22
64.1615	608.19
64.1759	615.46
64.1904	596.51
64.2048	575.68
64.2193	577.47
64.2337	581.83
64.2481	592.54
64.2626	559.04
64.2770	571.47
64.2915	576.10
64.3059	576.64
64.3203	624.31
64.3348	592.94
64.3492	611.03
64.3637	599.38
64.3781	589.93
64.3925	573.47
64.4070	569.49
64.4214	592.67
64.4359	645.57
64.4503	574.78
64.4647	583.68
64.4792	645.69
64.4936	620.83
64.5081	622.83
64.5225	627.77
64.5369	636.00
64.5514	617.31
64.5658	597.90
64.5803	580.20
64.5947	569.84
64.6091	597.39
64.6236	588.37
64.6380	634.17
64.6525	617.85
64.6669	630.36
64.6813	644.44
64.6958	651.82
64.7102	705.76
64.7247	696.53
64.7391	644.07
64.7535	676.13
64.7680	652.05
64.7824	708.40
64.7969	733.66
64.8113	744.49
64.8257	793.28
64.8402	806.79
64.8546	881.67
64.8691	865.86
64.8835	860.75
64.8979	855.59
64.9124	839.40
64.9268	843.29
64.9413	897.73
64.9557	921.87
64.9701	938.74
64.9846	1013.70
64.9990	1123.31
65.0135	1261.25
65.0279	1398.31
65.0423	1608.18
65.0568	2057.23
65.0712	2535.63
65.0857	3267.34
65.1001	4219.54
65.1145	5696.40
65.1290	7603.70
65.1434	9146.63
65.1579	10706.87
65.1723	11501.08
65.1867	11159.09
65.2012	10031.12
65.2156	8404.61
65.2301	6542.23
65.2445	5295.00
65.2589	4463.65
65.2734	4124.53
65.2878	4230.91
65.3023	4753.94
65.3167	5406.86
65.3311	6296.25
65.3456	6919.76
65.3600	6926.74
65.3745	6411.70
65.3889	5488.04
65.4033	4514.51
65.4178	3544.51
65.4322	2738.69
65.4467	2132.02
65.4611	1755.71
65.4755	1487.22
65.4900	1265.78
65.5044	1175.86
65.5189	1090.07
65.5333	1020.27
65.5477	945.21
65.5622	937.14
65.5766	836.67
65.5911	798.96
65.6055	798.72
65.6199	786.73
65.6344	795.06
65.6488	755.58
65.6633	743.54
65.6777	712.42
65.6921	688.00
65.7066	709.25
65.7210	715.03
65.7355	657.90
65.7499	662.21
65.7643	649.98
65.7788	688.11
65.7932	652.64
65.8077	686.46
65.8221	672.27
65.8365	678.28
65.8510	636.85
65.8654	684.30
65.8799	595.68
65.8943	617.39
65.9087	653.56
65.9232	642.18
65.9376	621.14
65.9521	635.22
65.9665	614.28
65.9809	618.14
65.9954	615.59
66.0098	637.13
66.0243	621.32
66.0387	601.24
66.0531	636.33
66.0676	606.28
66.0820	646.10
66.0965	627.83
66.1109	607.95
66.1253	620.27
66.1398	582.16
66.1542	584.82
66.1687	622.38
66.1831	627.67
66.1975	593.97
66.2120	601.40
66.2264	617.03
66.2409	627.12
66.2553	597.75
66.2697	603.89
66.2842	646.64
66.2986	595.77
66.3131	623.48
66.3275	614.06
66.3419	608.87
66.3564	627.80
66.3708	601.47
66.3853	592.78
66.3997	574.81
66.4141	569.34
66.4286	587.85
66.4430	585.04
66.4575	580.12
66.4719	614.56
66.4863	610.43
66.5008	590.23
66.5152	590.57
66.5297	599.49
66.5441	596.65
66.5585	579.39
66.5730	576.60
66.5874	610.01
66.6019	593.01
66.6163	587.59
66.6307	558.42
66.6452	557.89
66.6596	586.03
66.6741	555.98
66.6885	577.57
66.7029	605.47
66.7174	612.88
66.7318	564.68
66.7463	565.76
66.7607	569.94
66.7751	556.17
66.7896	591.84
66.8040	595.12
66.8185	598.01
66.8329	584.11
66.8473	599.66
66.8618	602.80
66.8762	568.25
66.8907	596.78
66.9051	646.74
66.9195	585.85
66.9340	585.17
66.9484	564.11
66.9629	547.73
66.9773	591.23
66.9917	597.35
67.0062	560.03
67.0206	561.53
67.0351	561.09
67.0495	588.09
67.0639	566.36
67.0784	555.83
67.0928	583.26
67.1073	580.82
67.1217	594.52
67.1361	590.16
67.1506	550.96
67.1650	550.33
67.1795	600.91
67.1939	606.20
67.2083	617.28
67.2228	576.92
67.2372	574.53
67.2517	560.91
67.2661	575.55
67.2805	563.17
67.2950	554.64
67.3094	606.83
67.3239	575.67
67.3383	559.61
67.3527	548.50
67.3672	564.78
67.3816	587.46
67.3961	571.56
67.4105	573.26
67.4250	620.32
67.4394	610.59
67.4538	572.89
67.4683	557.62
67.4827	579.46
67.4972	555.07
67.5116	571.15
67.5260	571.44
67.5405	573.15
67.5549	578.78
67.5694	577.06
67.5838	557.90
67.5982	577.42
67.6127	559.10
67.6271	545.94
67.6416	563.97
67.6560	541.67
67.6704	565.98
67.6849	555.87
67.6993	583.91
67.7138	586.13
67.7282	560.83
67.7426	557.81
67.7571	553.23
67.7715	534.88
67.7860	532.18
67.8004	564.10
67.8148	590.10
67.8293	587.70
67.8437	580.60
67.8582	577.27
67.8726	579.66
67.8870	554.82
67.9015	574.86
67.9159	594.91
67.9304	584.13
67.9448	600.59
67.9592	555.21
67.9737	550.64
67.9881	575.59
68.0026	570.04
68.0170	605.52
68.0314	558.96
68.0459	597.50
68.0603	597.10
68.0748	564.56
68.0892	597.12
68.1036	593.87
68.1181	581.83
68.1325	563.10
68.1470	528.55
68.1614	568.00
68.1758	591.95
68.1903	557.54
68.2047	600.40
68.2192	555.90
68.2336	575.85
68.2480	579.22
68.2625	596.87
68.2769	553.35
68.2914	581.60
68.3058	601.30
68.3202	565.03
68.3347	590.39
68.3491	577.15
68.3636	567.16
68.3780	587.78
68.3924	568.61
68.4069	573.47
68.4213	559.73
68.4358	570.88
68.4502	560.73
68.4646	567.08
68.4791	565.75
68.4935	564.80
68.5080	590.95
68.5224	547.05
68.5368	556.47
68.5513	605.37
68.5657	562.55
68.5802	558.73
68.5946	553.98
68.6090	571.68
68.6235	548.29
68.6379	596.71
68.6524	553.66
68.6668	538.87
68.6812	519.40
68.6957	560.76
68.7101	597.52
68.7246	573.38
68.7390	553.38
68.7534	564.91
68.7679	589.36
68.7823	580.14
68.7968	577.78
68.8112	558.90
68.8256	551.74
68.8401	548.77
68.8545	573.33
68.8690	574.56
68.8834	564.58
68.8978	538.94
68.9123	565.47
68.9267	556.84
68.9412	593.38
68.9556	535.90
68.9700	593.79
68.9845	478.19
68.9989	557.37
69.0134	564.92
69.0278	577.76
69.0422	585.35
69.0567	578.05
69.0711	509.39
69.0856	565.06
69.1000	590.03
69.1144	568.72
69.1289	638.69
69.1433	562.01
69.1578	529.65
69.1722	606.87
69.1866	561.99
69.2011	564.95
69.2155	597.73
69.2300	563.70
69.2444	595.31
69.2588	592.91
69.2733	574.76
69.2877	524.06
69.3022	585.70
69.3166	511.20
69.3310	544.61
69.3455	595.12
69.3599	550.12
69.3744	532.68
69.3888	535.25
69.4032	594.12
69.4177	582.33
69.4321	626.10
69.4466	569.67
69.4610	530.42
69.4754	619.48
69.4899	587.26
69.5043	567.70
69.5188	600.74
69.5332	559.38
69.5476	561.22
69.5621	512.78
69.5765	524.56
69.5910	575.34
69.6054	606.74
69.6198	536.21
69.6343	589.10
69.6487	588.65
69.6632	557.66
69.6776	579.11
69.6920	554.78
69.7065	612.67
69.7209	585.06
69.7354	541.75
69.7498	558.73
69.7642	545.28
69.7787	579.90
69.7931	590.81
69.8076	607.09
69.8220	575.37
69.8364	575.59
69.8509	555.38
69.8653	595.74
69.8798	543.08
69.8942	525.20
69.9086	557.17
69.9231	565.79
69.9375	594.85
69.9520	527.75
69.9664	603.46
69.9808	569.19
69.9953	595.04
70.0097	574.51
70.0242	522.04
70.0386	565.96
70.0530	671.25
70.0675	612.69
70.0819	586.87
70.0964	598.24
70.1108	539.92
70.1252	591.29
70.1397	548.33
70.1541	587.35
70.1686	581.78
70.1830	592.95
70.1974	572.46
70.2119	574.87
70.2263	592.18
70.2408	530.57
70.2552	555.77
70.2696	563.07
70.2841	536.70
70.2985	568.43
70.3130	590.99
70.3274	586.19
70.3418	594.83
70.3563	551.36
70.3707	581.92
70.3852	555.20
70.3996	584.58
70.4140	537.31
70.4285	596.76
70.4429	558.58
70.4574	584.60
70.4718	622.69
70.4862	599.60
70.5007	565.45
70.5151	582.24
70.5296	571.92
70.5440	569.59
70.5584	597.37
70.5729	561.15
70.5873	554.35
70.6018	529.24
70.6162	557.73
70.6306	547.21
70.6451	534.55
70.6595	552.19
70.6740	563.40
70.6884	538.15
70.7028	581.10
70.7173	556.13
70.7317	529.25
70.7462	531.52
70.7606	571.84
70.7750	585.45
70.7895	576.03
70.8039	611.19
70.8184	630.06
70.8328	608.28
70.8472	528.78
70.8617	546.99
70.8761	579.58
70.8906	559.87
70.9050	550.28
70.9194	601.30
70.9339	602.70
70.9483	547.00
70.9628	580.10
70.9772	574.45
70.9916	576.75
71.0061	599.11
71.0205	582.89
71.0350	594.66
71.0494	593.02
71.0638	615.86
71.0783	598.73
71.0927	616.38
71.1072	633.55
71.1216	609.48
71.1361	542.38
71.1505	559.56
71.1649	600.58
71.1794	606.10
71.1938	561.08
71.2083	592.18
71.2227	582.57
71.2371	584.74
71.2516	564.08
71.2660	592.24
71.2805	574.24
71.2949	577.57
71.3093	568.12
71.3238	617.18
71.3382	643.54
71.3527	554.16
71.3671	546.06
71.3815	553.80
71.3960	545.51
71.4104	537.22
71.4249	533.70
71.4393	564.96
71.4537	558.73
71.4682	558.51
71.4826	577.48
71.4971	601.48
71.5115	580.63
71.5259	540.87
71.5404	567.32
71.5548	582.30
71.5693	563.79
71.5837	534.77
71.5981	556.40
71.6126	532.78
71.6270	571.78
71.6415	639.17
71.6559	582.99
71.6703	571.20
71.6848	591.84
71.6992	575.07
71.7137	610.69
71.7281	608.56
71.7425	633.38
71.7570	584.67
71.7714	592.02
71.7859	588.70
71.8003	611.93
71.8147	628.73
71.8292	619.91
71.8436	620.76
71.8581	556.42
71.8725	547.12
71.8869	579.79
71.9014	562.55
71.9158	561.35
71.9303	558.38
71.9447	571.41
71.9591	587.11
71.9736	549.71
71.9880	599.01
72.0025	564.34
72.0169	500.29
72.0313	551.25
72.0458	592.16
72.0602	631.01
72.0747	574.72
72.0891	582.48
72.1035	649.43
72.1180	631.44
72.1324	620.18
72.1469	553.92
72.1613	569.55
72.1757	612.01
72.1902	634.59
72.2046	630.14
72.2191	603.37
72.2335	622.06
72.2479	612.96
72.2624	595.28
72.2768	587.01
72.2913	591.95
72.3057	560.84
72.3201	550.08
72.3346	547.00
72.3490	570.67
72.3635	593.43
72.3779	536.17
72.3923	546.34
72.4068	551.05
72.4212	560.19
72.4357	575.35
72.4501	594.70
72.4645	642.71
72.4790	634.62
72.4934	566.60
72.5079	609.38
72.5223	606.40
72.5367	594.08
72.5512	562.71
72.5656	560.87
72.5801	528.01
72.5945	509.13
72.6089	476.25
72.6234	546.14
72.6378	598.65
72.6523	573.28
72.6667	625.77
72.6811	602.25
72.6956	567.18
72.7100	550.48
72.7245	524.77
72.7389	542.74
72.7533	533.76
72.7678	573.32
72.7822	600.05
72.7967	550.62
72.8111	509.28
72.8255	505.23
72.8400	529.09
72.8544	587.75
72.8689	623.55
72.8833	549.74