2022.09.19 19:37:17
Îáðàçåö: ß÷åéêà LCoV 16-09-2022
Lambda1 = 1.54060
Lambda2 = 1.54439
Lambdam = 1.54186
R = 0.497
2Theta	I

line¹ 0 ;repeat¹ 0
22.1120	548.87
22.1264	585.56
22.1409	551.62
22.1553	599.62
22.1697	617.61
22.1842	615.81
22.1986	519.87
22.2131	563.97
22.2275	571.64
22.2419	563.22
22.2564	591.17
22.2708	555.95
22.2853	584.26
22.2997	555.56
22.3141	543.94
22.3286	472.04
22.3430	561.31
22.3575	594.28
22.3719	578.46
22.3863	480.40
22.4008	502.65
22.4152	578.97
22.4297	669.01
22.4441	623.78
22.4585	618.41
22.4730	619.19
22.4874	614.93
22.5019	659.83
22.5163	629.65
22.5307	563.94
22.5452	583.89
22.5596	604.52
22.5741	642.91
22.5885	655.61
22.6029	641.98
22.6174	596.29
22.6318	593.21
22.6463	613.97
22.6607	542.62
22.6751	582.34
22.6896	568.62
22.7040	522.07
22.7185	552.73
22.7329	603.85
22.7473	600.88
22.7618	593.83
22.7762	602.53
22.7907	569.68
22.8051	481.14
22.8195	577.37
22.8340	503.53
22.8484	585.44
22.8629	628.07
22.8773	541.88
22.8917	504.74
22.9062	559.27
22.9206	491.66
22.9351	544.83
22.9495	560.86
22.9639	530.35
22.9784	560.87
22.9928	526.39
23.0073	525.57
23.0217	578.71
23.0361	522.58
23.0506	600.65
23.0650	614.44
23.0795	572.35
23.0939	573.16
23.1083	601.97
23.1228	561.99
23.1372	560.33
23.1517	563.28
23.1661	542.55
23.1806	511.11
23.1950	530.98
23.2094	613.35
23.2239	524.64
23.2383	554.18
23.2528	542.99
23.2672	539.60
23.2816	487.99
23.2961	601.84
23.3105	534.34
23.3250	547.46
23.3394	565.33
23.3538	577.54
23.3683	576.36
23.3827	582.92
23.3972	571.81
23.4116	544.17
23.4260	517.24
23.4405	521.88
23.4549	527.23
23.4694	546.26
23.4838	636.29
23.4982	544.46
23.5127	592.90
23.5271	540.49
23.5416	539.37
23.5560	653.25
23.5704	559.90
23.5849	610.91
23.5993	545.65
23.6138	508.00
23.6282	512.60
23.6426	554.22
23.6571	541.38
23.6715	567.38
23.6860	517.14
23.7004	535.47
23.7148	455.03
23.7293	571.05
23.7437	557.03
23.7582	574.46
23.7726	548.04
23.7870	595.79
23.8015	506.67
23.8159	534.76
23.8304	552.64
23.8448	496.13
23.8592	532.99
23.8737	536.53
23.8881	512.61
23.9026	542.55
23.9170	562.21
23.9314	556.41
23.9459	563.00
23.9603	536.20
23.9748	610.93
23.9892	538.76
24.0036	567.09
24.0181	532.55
24.0325	554.04
24.0470	561.39
24.0614	471.76
24.0758	537.73
24.0903	523.76
24.1047	544.81
24.1192	524.06
24.1336	583.34
24.1480	565.88
24.1625	574.94
24.1769	625.51
24.1914	595.09
24.2058	546.00
24.2202	616.94
24.2347	609.57
24.2491	653.43
24.2636	581.67
24.2780	582.45
24.2924	548.35
24.3069	554.70
24.3213	583.79
24.3358	574.81
24.3502	610.11
24.3646	523.46
24.3791	515.19
24.3935	548.16
24.4080	484.61
24.4224	536.00
24.4368	507.27
24.4513	460.42
24.4657	552.64
24.4802	559.77
24.4946	509.61
24.5090	536.92
24.5235	525.27
24.5379	503.82
24.5524	580.02
24.5668	578.07
24.5812	572.53
24.5957	568.01
24.6101	580.58
24.6246	539.72
24.6390	562.19
24.6534	543.19
24.6679	507.66
24.6823	531.81
24.6968	579.09
24.7112	549.31
24.7256	529.37
24.7401	500.74
24.7545	585.95
24.7690	549.44
24.7834	548.13
24.7978	503.05
24.8123	570.25
24.8267	507.47
24.8412	495.21
24.8556	511.14
24.8700	529.00
24.8845	526.59
24.8989	522.79
24.9134	517.94
24.9278	509.69
24.9422	540.01
24.9567	544.40
24.9711	531.11
24.9856	527.78
25.0000	583.07
25.0144	617.10
25.0289	554.74
25.0433	524.68
25.0578	522.21
25.0722	518.03
25.0866	538.41
25.1011	522.39
25.1155	560.33
25.1300	555.29
25.1444	538.03
25.1588	527.78
25.1733	547.23
25.1877	518.59
25.2022	544.37
25.2166	527.54
25.2310	519.78
25.2455	484.75
25.2599	526.75
25.2744	536.13
25.2888	581.56
25.3032	550.68
25.3177	552.42
25.3321	530.21
25.3466	534.92
25.3610	546.95
25.3754	513.28
25.3899	491.20
25.4043	543.07
25.4188	548.69
25.4332	519.30
25.4476	518.42
25.4621	493.98
25.4765	483.50
25.4910	509.32
25.5054	490.68
25.5198	543.28
25.5343	567.56
25.5487	528.27
25.5632	505.92
25.5776	531.76
25.5920	509.60
25.6065	530.01
25.6209	481.06
25.6354	528.68
25.6498	526.16
25.6642	540.08
25.6787	545.76
25.6931	520.81
25.7076	541.84
25.7220	556.44
25.7364	505.85
25.7509	553.90
25.7653	537.82
25.7798	528.83
25.7942	533.73
25.8086	534.14
25.8231	589.55
25.8375	538.94
25.8520	548.45
25.8664	565.56
25.8808	525.42
25.8953	543.96
25.9097	549.18
25.9242	499.84
25.9386	540.86
25.9530	533.15
25.9675	551.07
25.9819	541.75
25.9964	509.57
26.0108	557.49
26.0252	573.66
26.0397	566.87
26.0541	549.11
26.0686	573.88
26.0830	579.91
26.0974	508.78
26.1119	511.87
26.1263	530.37
26.1408	519.93
26.1552	511.67
26.1696	518.72
26.1841	520.44
26.1985	534.48
26.2130	548.07
26.2274	509.97
26.2418	547.70
26.2563	546.32
26.2707	519.42
26.2852	531.81
26.2996	553.41
26.3140	527.35
26.3285	540.16
26.3429	548.35
26.3574	531.72
26.3718	509.70
26.3862	533.13
26.4007	519.94
26.4151	527.23
26.4296	535.27
26.4440	507.08
26.4584	549.38
26.4729	534.06
26.4873	562.75
26.5018	582.78
26.5162	527.19
26.5306	561.98
26.5451	522.60
26.5595	552.77
26.5740	561.25
26.5884	514.25
26.6028	521.64
26.6173	544.27
26.6317	526.90
26.6462	536.95
26.6606	520.30
26.6750	521.55
26.6895	506.34
26.7039	528.22
26.7184	517.25
26.7328	502.35
26.7472	544.88
26.7617	507.60
26.7761	522.85
26.7906	518.75
26.8050	534.53
26.8194	527.80
26.8339	498.49
26.8483	556.26
26.8628	561.83
26.8772	534.16
26.8917	509.84
26.9061	516.35
26.9205	522.85
26.9350	520.25
26.9494	519.02
26.9639	536.93
26.9783	530.20
26.9927	508.33
27.0072	505.17
27.0216	487.86
27.0361	492.40
27.0505	505.73
27.0649	501.04
27.0794	504.33
27.0938	545.33
27.1083	529.23
27.1227	486.32
27.1371	490.29
27.1516	491.81
27.1660	503.59
27.1805	506.12
27.1949	496.94
27.2093	503.33
27.2238	511.09
27.2382	522.54
27.2527	499.93
27.2671	491.03
27.2815	515.40
27.2960	494.47
27.3104	501.59
27.3249	530.23
27.3393	511.56
27.3537	543.74
27.3682	510.95
27.3826	488.93
27.3971	503.43
27.4115	511.52
27.4259	513.86
27.4404	516.21
27.4548	548.85
27.4693	545.09
27.4837	524.47
27.4981	499.10
27.5126	515.23
27.5270	469.35
27.5415	520.46
27.5559	517.77
27.5703	508.62
27.5848	506.45
27.5992	498.99
27.6137	514.77
27.6281	510.11
27.6425	547.90
27.6570	534.72
27.6714	479.55
27.6859	488.99
27.7003	517.27
27.7147	537.92
27.7292	533.51
27.7436	524.06
27.7581	502.11
27.7725	503.18
27.7869	554.89
27.8014	516.28
27.8158	548.84
27.8303	550.16
27.8447	527.10
27.8591	493.22
27.8736	522.94
27.8880	493.12
27.9025	478.89
27.9169	470.85
27.9313	495.52
27.9458	525.75
27.9602	529.82
27.9747	470.65
27.9891	454.43
28.0035	508.04
28.0180	503.66
28.0324	529.86
28.0469	529.93
28.0613	585.60
28.0757	511.53
28.0902	558.24
28.1046	515.83
28.1191	522.39
28.1335	551.71
28.1479	500.96
28.1624	493.64
28.1768	497.67
28.1913	517.40
28.2057	521.67
28.2201	512.88
28.2346	513.61
28.2490	517.83
28.2635	495.64
28.2779	519.41
28.2923	480.34
28.3068	474.63
28.3212	524.63
28.3357	495.50
28.3501	499.45
28.3645	513.99
28.3790	502.57
28.3934	496.41
28.4079	472.59
28.4223	524.24
28.4367	528.22
28.4512	498.01
28.4656	488.93
28.4801	504.28
28.4945	488.85
28.5089	524.85
28.5234	500.26
28.5378	490.25
28.5523	455.86
28.5667	494.55
28.5811	519.25
28.5956	528.35
28.6100	532.42
28.6245	514.04
28.6389	514.22
28.6533	520.22
28.6678	517.46
28.6822	476.94
28.6967	519.15
28.7111	516.95
28.7255	513.80
28.7400	507.52
28.7544	508.31
28.7689	489.90
28.7833	496.77
28.7977	496.42
28.8122	494.88
28.8266	470.45
28.8411	487.88
28.8555	512.24
28.8699	506.79
28.8844	488.47
28.8988	481.28
28.9133	500.97
28.9277	526.16
28.9421	489.53
28.9566	487.98
28.9710	510.21
28.9855	526.25
28.9999	501.48
29.0143	474.36
29.0288	525.01
29.0432	528.67
29.0577	514.69
29.0721	510.03
29.0865	519.83
29.1010	480.91
29.1154	527.77
29.1299	510.10
29.1443	534.47
29.1587	525.11
29.1732	511.53
29.1876	527.79
29.2021	497.13
29.2165	480.02
29.2309	465.76
29.2454	502.37
29.2598	463.20
29.2743	467.91
29.2887	491.79
29.3031	532.65
29.3176	527.32
29.3320	503.62
29.3465	511.97
29.3609	504.83
29.3753	541.30
29.3898	486.74
29.4042	514.14
29.4187	515.89
29.4331	544.01
29.4475	510.38
29.4620	482.78
29.4764	535.41
29.4909	506.45
29.5053	492.81
29.5197	490.60
29.5342	488.11
29.5486	471.43
29.5631	519.74
29.5775	493.42
29.5919	501.71
29.6064	469.58
29.6208	515.72
29.6353	484.42
29.6497	456.21
29.6641	483.99
29.6786	489.23
29.6930	483.88
29.7075	497.41
29.7219	501.02
29.7363	511.13
29.7508	504.23
29.7652	476.92
29.7797	508.64
29.7941	538.69
29.8085	523.85
29.8230	513.24
29.8374	520.12
29.8519	489.12
29.8663	495.49
29.8807	479.08
29.8952	480.96
29.9096	523.05
29.9241	534.59
29.9385	537.87
29.9529	509.56
29.9674	522.62
29.9818	511.79
29.9963	514.13
30.0107	469.45
30.0251	525.37
30.0396	498.66
30.0540	507.54
30.0685	500.47
30.0829	500.31
30.0973	505.21
30.1118	478.88
30.1262	515.40
30.1407	482.74
30.1551	504.10
30.1695	519.80
30.1840	529.18
30.1984	489.00
30.2129	516.66
30.2273	482.85
30.2417	526.67
30.2562	507.04
30.2706	523.06
30.2851	525.65
30.2995	487.59
30.3139	496.71
30.3284	529.74
30.3428	486.46
30.3573	527.75
30.3717	526.08
30.3861	536.97
30.4006	530.80
30.4150	549.29
30.4295	587.02
30.4439	520.79
30.4583	530.33
30.4728	576.75
30.4872	577.31
30.5017	579.52
30.5161	589.77
30.5305	680.62
30.5450	715.48
30.5594	733.18
30.5739	755.77
30.5883	697.24
30.6028	718.99
30.6172	706.01
30.6316	730.35
30.6461	663.72
30.6605	664.30
30.6750	659.95
30.6894	631.64
30.7038	602.29
30.7183	554.06
30.7327	547.10
30.7472	558.93
30.7616	548.21
30.7760	525.92
30.7905	506.84
30.8049	521.69
30.8194	533.38
30.8338	512.86
30.8482	503.19
30.8627	537.64
30.8771	516.52
30.8916	531.75
30.9060	524.54
30.9204	484.79
30.9349	501.26
30.9493	497.58
30.9638	482.25
30.9782	530.80
30.9926	536.77
31.0071	505.67
31.0215	520.92
31.0360	522.69
31.0504	484.68
31.0648	510.40
31.0793	509.01
31.0937	485.93
31.1082	513.76
31.1226	518.61
31.1370	488.07
31.1515	470.35
31.1659	519.50
31.1804	536.45
31.1948	520.51
31.2092	529.65
31.2237	504.63
31.2381	512.17
31.2526	484.10
31.2670	520.69
31.2814	522.94
31.2959	535.14
31.3103	519.11
31.3248	514.12
31.3392	501.60
31.3536	526.68
31.3681	519.08
31.3825	514.19
31.3970	506.00
31.4114	504.19
31.4258	521.11
31.4403	533.22
31.4547	547.88
31.4692	532.38
31.4836	533.23
31.4980	511.64
31.5125	525.29
31.5269	497.68
31.5414	505.44
31.5558	530.31
31.5702	486.32
31.5847	501.36
31.5991	503.21
31.6136	489.41
31.6280	497.49
31.6424	474.51
31.6569	532.94
31.6713	521.37
31.6858	482.85
31.7002	503.31
31.7146	492.81
31.7291	524.44
31.7435	516.64
31.7580	483.00
31.7724	533.56
31.7868	535.13
31.8013	495.85
31.8157	506.90
31.8302	508.43
31.8446	488.77
31.8590	486.87
31.8735	516.75
31.8879	478.10
31.9024	496.28
31.9168	505.64
31.9312	495.89
31.9457	481.06
31.9601	523.82
31.9746	513.98
31.9890	528.23
32.0034	527.15
32.0179	516.94
32.0323	528.27
32.0468	515.41
32.0612	508.39
32.0756	529.02
32.0901	537.27
32.1045	509.39
32.1190	502.07
32.1334	471.22
32.1478	473.62
32.1623	499.04
32.1767	472.96
32.1912	483.41
32.2056	466.30
32.2200	509.17
32.2345	510.96
32.2489	502.57
32.2634	508.42
32.2778	502.21
32.2922	497.90
32.3067	488.42
32.3211	478.87
32.3356	521.34
32.3500	493.59
32.3644	520.89
32.3789	506.64
32.3933	528.80
32.4078	524.22
32.4222	524.10
32.4366	474.58
32.4511	468.51
32.4655	519.60
32.4800	566.27
32.4944	498.60
32.5088	465.43
32.5233	473.74
32.5377	500.08
32.5522	523.72
32.5666	522.50
32.5810	482.73
32.5955	516.10
32.6099	511.79
32.6244	489.17
32.6388	493.95
32.6532	479.82
32.6677	479.73
32.6821	495.53
32.6966	490.70
32.7110	496.96
32.7254	480.97
32.7399	490.19
32.7543	485.75
32.7688	484.27
32.7832	515.83
32.7976	491.51
32.8121	469.91
32.8265	467.39
32.8410	501.40
32.8554	523.20
32.8698	512.76
32.8843	495.55
32.8987	520.53
32.9132	535.75
32.9276	496.94
32.9420	532.48
32.9565	489.71
32.9709	482.59
32.9854	507.87
32.9998	494.16
33.0142	510.36
33.0287	539.75
33.0431	505.03
33.0576	498.36
33.0720	529.32
33.0864	519.42
33.1009	478.82
33.1153	493.67
33.1298	505.20
33.1442	464.83
33.1586	524.14
33.1731	522.48
33.1875	496.04
33.2020	488.60
33.2164	478.29
33.2308	495.03
33.2453	522.79
33.2597	493.81
33.2742	472.79
33.2886	512.15
33.3030	494.00
33.3175	531.09
33.3319	498.63
33.3464	505.70
33.3608	505.15
33.3752	536.65
33.3897	500.82
33.4041	499.23
33.4186	492.95
33.4330	545.80
33.4474	498.58
33.4619	499.53
33.4763	536.06
33.4908	509.09
33.5052	504.46
33.5196	476.90
33.5341	490.32
33.5485	501.49
33.5630	510.74
33.5774	532.00
33.5918	505.51
33.6063	511.25
33.6207	501.81
33.6352	474.04
33.6496	490.67
33.6640	511.86
33.6785	482.00
33.6929	492.75
33.7074	511.08
33.7218	511.40
33.7362	510.93
33.7507	518.09
33.7651	489.62
33.7796	527.17
33.7940	493.12
33.8084	485.50
33.8229	481.10
33.8373	504.17
33.8518	500.76
33.8662	492.65
33.8806	476.22
33.8951	485.08
33.9095	512.23
33.9240	487.25
33.9384	473.48
33.9528	487.58
33.9673	446.98
33.9817	513.68
33.9962	494.08
34.0106	471.93
34.0250	500.53
34.0395	511.80
34.0539	502.25
34.0684	470.77
34.0828	470.78
34.0972	476.54
34.1117	496.35
34.1261	505.23
34.1406	473.05
34.1550	513.83
34.1694	527.89
34.1839	528.69
34.1983	520.29
34.2128	516.78
34.2272	499.29
34.2417	508.37
34.2561	542.68
34.2705	509.90
34.2850	534.21
34.2994	523.34
34.3139	526.94
34.3283	511.54
34.3427	502.17
34.3572	491.38
34.3716	504.74
34.3861	512.99
34.4005	510.08
34.4149	543.41
34.4294	527.67
34.4438	503.17
34.4583	513.81
34.4727	531.46
34.4871	500.99
34.5016	478.61
34.5160	505.26
34.5305	470.14
34.5449	502.72
34.5593	489.36
34.5738	477.56
34.5882	527.22
34.6027	520.08
34.6171	503.65
34.6315	492.89
34.6460	459.31
34.6604	507.91
34.6749	530.36
34.6893	504.40
34.7037	539.30
34.7182	491.17
34.7326	508.34
34.7471	538.59
34.7615	534.65
34.7759	515.17
34.7904	511.98
34.8048	490.12
34.8193	496.80
34.8337	508.86
34.8481	512.15
34.8626	517.66
34.8770	507.03
34.8915	509.65
34.9059	501.78
34.9203	513.13
34.9348	486.66
34.9492	488.57
34.9637	478.37
34.9781	493.23
34.9925	494.95
35.0070	509.43
35.0214	495.93
35.0359	485.08
35.0503	474.80
35.0647	513.15
35.0792	520.33
35.0936	509.01
35.1081	503.35
35.1225	509.54
35.1369	497.08
35.1514	504.15
35.1658	496.08
35.1803	503.83
35.1947	521.92
35.2091	516.74
35.2236	506.03
35.2380	502.74
35.2525	498.74
35.2669	563.02
35.2813	535.85
35.2958	502.11
35.3102	487.36
35.3247	481.64
35.3391	512.00
35.3535	521.87
35.3680	546.59
35.3824	501.03
35.3969	522.82
35.4113	520.40
35.4257	549.29
35.4402	506.07
35.4546	509.90
35.4691	552.70
35.4835	528.97
35.4979	498.17
35.5124	501.43
35.5268	529.55
35.5413	530.55
35.5557	529.11
35.5701	510.18
35.5846	543.61
35.5990	540.20
35.6135	547.91
35.6279	528.40
35.6423	532.29
35.6568	524.21
35.6712	527.37
35.6857	591.80
35.7001	670.00
35.7145	758.14
35.7290	751.47
35.7434	667.28
35.7579	590.09
35.7723	619.10
35.7867	727.39
35.8012	757.69
35.8156	753.18
35.8301	748.69
35.8445	727.32
35.8589	760.59
35.8734	857.75
35.8878	995.47
35.9023	1065.27
35.9167	1113.30
35.9311	1290.87
35.9456	1643.67
35.9600	1944.67
35.9745	2082.72
35.9889	2314.55
36.0033	2745.28
36.0178	3105.97
36.0322	3261.06
36.0467	2680.18
36.0611	2117.98
36.0755	1878.56
36.0900	2143.75
36.1044	2129.52
36.1189	1563.40
36.1333	1316.42
36.1477	1148.88
36.1622	1084.42
36.1766	995.66
36.1911	837.27
36.2055	746.55
36.2199	755.24
36.2344	741.55
36.2488	647.07
36.2633	535.41
36.2777	613.11
36.2921	549.21
36.3066	538.43
36.3210	588.47
36.3355	586.82
36.3499	548.06
36.3643	525.90
36.3788	526.14
36.3932	508.15
36.4077	531.04
36.4221	554.96
36.4365	517.79
36.4510	482.96
36.4654	535.15
36.4799	569.61
36.4943	548.30
36.5087	547.92
36.5232	512.40
36.5376	534.46
36.5521	538.28
36.5665	560.77
36.5809	563.26
36.5954	536.91
36.6098	551.85
36.6243	544.09
36.6387	549.21
36.6531	513.83
36.6676	510.54
36.6820	512.86
36.6965	516.28
36.7109	549.03
36.7253	549.70
36.7398	532.41
36.7542	518.20
36.7687	529.31
36.7831	571.12
36.7975	543.22
36.8120	552.66
36.8264	565.62
36.8409	574.55
36.8553	601.09
36.8697	578.79
36.8842	594.20
36.8986	570.65
36.9131	596.13
36.9275	601.03
36.9419	579.62
36.9564	525.58
36.9708	541.94
36.9853	574.22
36.9997	536.73
37.0141	557.28
37.0286	532.21
37.0430	511.67
37.0575	523.39
37.0719	493.18
37.0863	514.14
37.1008	496.62
37.1152	503.65
37.1297	498.83
37.1441	487.92
37.1585	498.78
37.1730	503.31
37.1874	490.54
37.2019	512.33
37.2163	533.04
37.2307	475.51
37.2452	494.83
37.2596	465.17
37.2741	496.73
37.2885	542.93
37.3029	516.67
37.3174	549.04
37.3318	514.75
37.3463	489.64
37.3607	480.88
37.3751	526.46
37.3896	533.73
37.4040	517.74
37.4185	493.89
37.4329	526.81
37.4473	519.46
37.4618	502.90
37.4762	503.10
37.4907	507.29
37.5051	514.68
37.5195	521.80
37.5340	505.24
37.5484	488.83
37.5629	474.94
37.5773	476.35
37.5917	496.12
37.6062	516.12
37.6206	483.04
37.6351	530.68
37.6495	523.39
37.6639	527.11
37.6784	524.44
37.6928	521.09
37.7073	537.64
37.7217	489.97
37.7361	503.31
37.7506	513.74
37.7650	505.00
37.7795	507.78
37.7939	485.91
37.8083	540.11
37.8228	506.64
37.8372	483.16
37.8517	471.86
37.8661	487.66
37.8805	524.61
37.8950	517.14
37.9094	500.92
37.9239	497.74
37.9383	484.38
37.9528	468.35
37.9672	479.78
37.9816	510.61
37.9961	520.37
38.0105	474.15
38.0250	505.84
38.0394	498.21
38.0538	503.92
38.0683	495.21
38.0827	535.65
38.0972	542.52
38.1116	514.71
38.1260	508.29
38.1405	511.98
38.1549	493.58
38.1694	539.54
38.1838	544.51
38.1982	501.57
38.2127	496.81
38.2271	503.58
38.2416	511.12
38.2560	492.52
38.2704	512.05
38.2849	512.06
38.2993	475.94
38.3138	533.42
38.3282	526.97
38.3426	555.36
38.3571	531.82
38.3715	513.96
38.3860	517.86
38.4004	489.80
38.4148	489.55
38.4293	556.49
38.4437	562.31
38.4582	583.98
38.4726	642.31
38.4870	699.16
38.5015	744.77
38.5159	729.86
38.5304	754.08
38.5448	796.70
38.5592	787.75
38.5737	769.52
38.5881	758.67
38.6026	705.51
38.6170	715.82
38.6314	710.84
38.6459	675.27
38.6603	636.60
38.6748	619.52
38.6892	606.98
38.7036	583.12
38.7181	539.16
38.7325	492.45
38.7470	490.26
38.7614	476.36
38.7758	529.80
38.7903	511.67
38.8047	496.87
38.8192	524.77
38.8336	543.03
38.8480	517.98
38.8625	508.76
38.8769	526.68
38.8914	515.51
38.9058	533.30
38.9202	500.69
38.9347	489.41
38.9491	487.70
38.9636	484.77
38.9780	473.37
38.9924	491.63
39.0069	499.93
39.0213	524.03
39.0358	527.05
39.0502	507.33
39.0646	518.03
39.0791	519.52
39.0935	548.74
39.1080	479.22
39.1224	508.91
39.1368	544.10
39.1513	502.03
39.1657	503.98
39.1802	493.84
39.1946	518.49
39.2090	498.66
39.2235	524.32
39.2379	503.32
39.2524	518.75
39.2668	481.40
39.2812	482.21
39.2957	477.00
39.3101	516.42
39.3246	500.26
39.3390	540.05
39.3534	506.51
39.3679	482.41
39.3823	504.98
39.3968	515.97
39.4112	500.71
39.4256	504.93
39.4401	480.08
39.4545	503.14
39.4690	502.76
39.4834	504.64
39.4978	528.04
39.5123	475.88
39.5267	503.66
39.5412	522.98
39.5556	509.75
39.5700	496.08
39.5845	459.46
39.5989	460.55
39.6134	471.73
39.6278	472.96
39.6422	485.74
39.6567	494.13
39.6711	467.47
39.6856	485.60
39.7000	491.10
39.7144	513.17
39.7289	522.39
39.7433	536.00
39.7578	493.36
39.7722	511.40
39.7866	520.90
39.8011	493.47
39.8155	523.58
39.8300	477.92
39.8444	494.15
39.8588	498.34
39.8733	500.93
39.8877	475.45
39.9022	507.15
39.9166	486.28
39.9310	499.18
39.9455	500.40
39.9599	488.83
39.9744	499.80
39.9888	493.59
40.0032	478.80
40.0177	501.12
40.0321	494.12
40.0466	459.60
40.0610	491.01
40.0754	486.54
40.0899	487.27
40.1043	466.44
40.1188	535.01
40.1332	509.15
40.1476	524.10
40.1621	469.97
40.1765	479.91
40.1910	477.83
40.2054	498.15
40.2198	510.85
40.2343	516.25
40.2487	496.19
40.2632	497.40
40.2776	489.17
40.2920	485.09
40.3065	539.80
40.3209	501.61
40.3354	496.50
40.3498	491.53
40.3642	533.74
40.3787	508.84
40.3931	510.41
40.4076	482.11
40.4220	533.36
40.4364	509.23
40.4509	493.86
40.4653	547.21
40.4798	556.35
40.4942	517.31
40.5086	480.17
40.5231	488.52
40.5375	500.38
40.5520	484.46
40.5664	490.44
40.5808	514.66
40.5953	537.33
40.6097	486.12
40.6242	517.02
40.6386	514.15
40.6530	490.64
40.6675	512.97
40.6819	521.50
40.6964	514.74
40.7108	501.32
40.7252	487.80
40.7397	501.57
40.7541	517.48
40.7686	460.43
40.7830	468.00
40.7974	492.60
40.8119	492.15
40.8263	478.05
40.8408	466.56
40.8552	507.25
40.8696	504.75
40.8841	493.63
40.8985	491.17
40.9130	504.34
40.9274	485.55
40.9418	545.82
40.9563	454.46
40.9707	467.02
40.9852	477.43
40.9996	475.51
41.0140	504.98
41.0285	471.74
41.0429	474.38
41.0574	495.55
41.0718	485.90
41.0862	495.24
41.1007	478.63
41.1151	502.04
41.1296	517.47
41.1440	444.34
41.1584	456.33
41.1729	517.23
41.1873	482.26
41.2018	476.47
41.2162	482.06
41.2306	497.95
41.2451	511.97
41.2595	497.76
41.2740	471.69
41.2884	490.94
41.3028	508.19
41.3173	489.87
41.3317	512.32
41.3462	482.98
41.3606	503.18
41.3750	531.75
41.3895	496.95
41.4039	475.10
41.4184	450.21
41.4328	496.92
41.4472	511.44
41.4617	494.82
41.4761	514.24
41.4906	477.69
41.5050	489.12
41.5194	481.49
41.5339	481.71
41.5483	478.41
41.5628	522.38
41.5772	515.03
41.5916	515.90
41.6061	531.26
41.6205	495.57
41.6350	468.20
41.6494	446.01
41.6639	428.78
41.6783	453.46
41.6927	472.86
41.7072	506.19
41.7216	483.46
41.7361	470.51
41.7505	521.80
41.7649	524.37
41.7794	527.73
41.7938	522.27
41.8083	514.37
41.8227	491.36
41.8371	500.05
41.8516	529.04
41.8660	553.85
41.8805	532.24
41.8949	501.58
41.9093	564.09
41.9238	568.75
41.9382	566.79
41.9527	543.42
41.9671	531.84
41.9815	511.67
41.9960	518.37
42.0104	539.45
42.0249	564.03
42.0393	587.52
42.0537	592.64
42.0682	584.18
42.0826	569.12
42.0971	578.07
42.1115	586.76
42.1259	604.79
42.1404	619.52
42.1548	582.64
42.1693	669.29
42.1837	709.58
42.1981	747.37
42.2126	843.13
42.2270	913.21
42.2415	1094.11
42.2559	1210.63
42.2703	1378.51
42.2848	1514.07
42.2992	1592.59
42.3137	1666.24
42.3281	1672.11
42.3425	1615.70
42.3570	1484.19
42.3714	1451.17
42.3859	1377.32
42.4003	1311.07
42.4147	1321.66
42.4292	1292.58
42.4436	1160.58
42.4581	1037.54
42.4725	967.50
42.4869	870.60
42.5014	776.96
42.5158	748.30
42.5303	657.53
42.5447	633.52
42.5591	615.89
42.5736	601.05
42.5880	575.54
42.6025	557.69
42.6169	583.80
42.6313	585.34
42.6458	539.75
42.6602	553.31
42.6747	540.94
42.6891	513.05
42.7035	536.62
42.7180	559.22
42.7324	521.00
42.7469	511.12
42.7613	508.81
42.7757	513.09
42.7902	504.57
42.8046	521.23
42.8191	495.92
42.8335	539.00
42.8479	505.67
42.8624	558.70
42.8768	521.19
42.8913	479.62
42.9057	510.33
42.9201	543.14
42.9346	508.33
42.9490	477.71
42.9635	492.08
42.9779	525.03
42.9923	513.26
43.0068	508.83
43.0212	510.63
43.0357	489.01
43.0501	462.47
43.0645	514.77
43.0790	534.46
43.0934	532.60
43.1079	518.62
43.1223	544.08
43.1367	524.32
43.1512	501.46
43.1656	535.56
43.1801	525.52
43.1945	490.07
43.2089	498.99
43.2234	515.34
43.2378	549.10
43.2523	533.21
43.2667	507.18
43.2811	513.36
43.2956	494.01
43.3100	532.07
43.3245	548.23
43.3389	533.21
43.3533	506.82
43.3678	530.06
43.3822	537.17
43.3967	528.16
43.4111	480.22
43.4255	531.84
43.4400	501.88
43.4544	503.61
43.4689	509.89
43.4833	518.20
43.4977	507.91
43.5122	511.96
43.5266	499.11
43.5411	496.89
43.5555	564.69
43.5699	531.17
43.5844	514.75
43.5988	533.40
43.6133	532.24
43.6277	535.40
43.6421	535.73
43.6566	525.90
43.6710	523.03
43.6855	564.61
43.6999	604.09
43.7143	628.62
43.7288	632.44
43.7432	649.91
43.7577	695.04
43.7721	648.48
43.7865	636.27
43.8010	611.70
43.8154	601.28
43.8299	641.77
43.8443	616.72
43.8587	619.66
43.8732	612.73
43.8876	569.96
43.9021	571.75
43.9165	565.90
43.9309	531.33
43.9454	547.91
43.9598	539.52
43.9743	482.52
43.9887	513.95
44.0031	508.12
44.0176	510.47
44.0320	532.90
44.0465	520.62
44.0609	552.81
44.0753	516.12
44.0898	497.72
44.1042	515.02
44.1187	504.61
44.1331	537.28
44.1475	495.56
44.1620	508.68
44.1764	523.09
44.1909	506.31
44.2053	518.85
44.2197	529.23
44.2342	518.10
44.2486	515.61
44.2631	492.29
44.2775	550.48
44.2919	565.54
44.3064	533.36
44.3208	508.71
44.3353	539.70
44.3497	546.08
44.3641	577.17
44.3786	541.16
44.3930	534.68
44.4075	570.57
44.4219	533.91
44.4363	575.83
44.4508	590.96
44.4652	596.96
44.4797	585.67
44.4941	576.11
44.5085	547.45
44.5230	562.28
44.5374	591.44
44.5519	566.90
44.5663	564.55
44.5807	578.74
44.5952	562.25
44.6096	539.30
44.6241	553.24
44.6385	593.93
44.6529	562.74
44.6674	567.84
44.6818	594.88
44.6963	622.65
44.7107	683.93
44.7251	703.24
44.7396	718.61
44.7540	760.69
44.7685	862.09
44.7829	877.87
44.7973	886.79
44.8118	878.20
44.8262	890.40
44.8407	802.59
44.8551	716.98
44.8695	702.70
44.8840	720.42
44.8984	747.82
44.9129	667.05
44.9273	672.17
44.9417	675.55
44.9562	619.95
44.9706	601.45
44.9851	585.75
44.9995	558.58
45.0139	537.42
45.0284	534.14
45.0428	535.91
45.0573	531.24
45.0717	537.14
45.0861	563.98
45.1006	506.08
45.1150	521.14
45.1295	555.23
45.1439	522.35
45.1583	511.00
45.1728	504.51
45.1872	519.00
45.2017	506.58
45.2161	492.18
45.2305	497.11
45.2450	459.40
45.2594	503.43
45.2739	509.81
45.2883	491.63
45.3028	490.40
45.3172	495.76
45.3316	546.21
45.3461	488.72
45.3605	487.13
45.3750	488.23
45.3894	489.76
45.4038	480.57
45.4183	475.30
45.4327	451.17
45.4472	481.38
45.4616	523.03
45.4760	510.24
45.4905	468.65
45.5049	513.87
45.5194	491.35
45.5338	503.82
45.5482	483.21
45.5627	478.27
45.5771	517.66
45.5916	524.80
45.6060	499.89
45.6204	523.67
45.6349	511.47
45.6493	504.67
45.6638	502.32
45.6782	498.94
45.6926	458.01
45.7071	502.85
45.7215	526.60
45.7360	472.30
45.7504	491.94
45.7648	493.69
45.7793	486.11
45.7937	542.79
45.8082	517.11
45.8226	512.14
45.8370	525.84
45.8515	537.69
45.8659	524.71
45.8804	491.88
45.8948	489.76
45.9092	508.08
45.9237	529.16
45.9381	527.96
45.9526	468.25
45.9670	489.07
45.9814	509.80
45.9959	497.33
46.0103	530.17
46.0248	505.68
46.0392	522.30
46.0536	467.20
46.0681	484.45
46.0825	496.87
46.0970	504.81
46.1114	488.05
46.1258	521.40
46.1403	489.67
46.1547	474.03
46.1692	511.25
46.1836	478.51
46.1980	473.54
46.2125	485.13
46.2269	487.65
46.2414	496.80
46.2558	525.87
46.2702	522.74
46.2847	502.36
46.2991	480.97
46.3136	489.71
46.3280	529.39
46.3424	494.38
46.3569	509.60
46.3713	486.07
46.3858	490.38
46.4002	500.92
46.4146	473.20
46.4291	499.84
46.4435	495.53
46.4580	493.11
46.4724	499.00
46.4868	501.67
46.5013	506.69
46.5157	508.73
46.5302	545.49
46.5446	512.45
46.5590	477.92
46.5735	467.34
46.5879	463.22
46.6024	496.02
46.6168	489.57
46.6312	511.19
46.6457	482.58
46.6601	483.45
46.6746	514.59
46.6890	492.47
46.7034	487.57
46.7179	517.66
46.7323	483.90
46.7468	481.50
46.7612	506.37
46.7756	507.05
46.7901	496.11
46.8045	503.53
46.8190	504.95
46.8334	498.09
46.8478	524.51
46.8623	524.36
46.8767	513.86
46.8912	499.98
46.9056	506.08
46.9200	479.49
46.9345	498.71
46.9489	497.63
46.9634	480.36
46.9778	498.99
46.9922	514.22
47.0067	502.29
47.0211	521.52
47.0356	522.87
47.0500	522.16
47.0644	522.67
47.0789	510.46
47.0933	526.25
47.1078	485.75
47.1222	505.98
47.1366	491.90
47.1511	498.76
47.1655	532.57
47.1800	531.12
47.1944	500.96
47.2088	496.67
47.2233	499.35
47.2377	509.21
47.2522	505.15
47.2666	500.40
47.2810	524.00
47.2955	524.75
47.3099	517.71
47.3244	486.57
47.3388	529.81
47.3532	528.87
47.3677	502.90
47.3821	482.35
47.3966	501.06
47.4110	493.58
47.4254	514.50
47.4399	478.93
47.4543	453.69
47.4688	533.61
47.4832	513.20
47.4976	501.62
47.5121	484.17
47.5265	511.21
47.5410	522.82
47.5554	519.29
47.5698	490.11
47.5843	524.81
47.5987	519.78
47.6132	509.82
47.6276	528.32
47.6420	490.27
47.6565	485.44
47.6709	479.84
47.6854	487.65
47.6998	475.44
47.7142	479.60
47.7287	502.43
47.7431	528.12
47.7576	484.21
47.7720	496.48
47.7864	546.27
47.8009	518.27
47.8153	495.81
47.8298	507.24
47.8442	524.50
47.8586	515.01
47.8731	524.72
47.8875	543.45
47.9020	520.80
47.9164	495.36
47.9308	484.66
47.9453	463.04
47.9597	483.84
47.9742	497.38
47.9886	526.74
48.0030	475.33
48.0175	509.97
48.0319	518.69
48.0464	515.67
48.0608	559.55
48.0752	555.03
48.0897	508.17
48.1041	475.93
48.1186	502.92
48.1330	502.77
48.1474	471.62
48.1619	525.23
48.1763	492.35
48.1908	479.36
48.2052	506.01
48.2196	508.82
48.2341	501.94
48.2485	519.77
48.2630	511.57
48.2774	480.85
48.2918	476.37
48.3063	464.24
48.3207	519.41
48.3352	538.49
48.3496	490.59
48.3640	512.97
48.3785	510.54
48.3929	498.35
48.4074	490.03
48.4218	481.25
48.4362	513.27
48.4507	502.79
48.4651	490.37
48.4796	539.15
48.4940	499.31
48.5084	506.39
48.5229	481.16
48.5373	520.90
48.5518	532.93
48.5662	530.21
48.5806	524.15
48.5951	540.28
48.6095	536.56
48.6240	504.80
48.6384	545.50
48.6528	515.44
48.6673	508.81
48.6817	538.70
48.6962	534.61
48.7106	527.47
48.7250	494.00
48.7395	526.24
48.7539	510.73
48.7684	509.28
48.7828	540.87
48.7972	521.18
48.8117	516.37
48.8261	545.30
48.8406	552.53
48.8550	556.78
48.8694	524.92
48.8839	528.33
48.8983	543.50
48.9128	574.13
48.9272	541.93
48.9416	533.99
48.9561	551.71
48.9705	576.24
48.9850	559.32
48.9994	551.05
49.0139	572.38
49.0283	589.30
49.0427	613.30
49.0572	657.88
49.0716	627.80
49.0861	666.92
49.1005	694.65
49.1149	709.30
49.1294	744.10
49.1438	728.26
49.1583	807.18
49.1727	875.90
49.1871	862.40
49.2016	951.42
49.2160	1074.57
49.2305	1174.34
49.2449	1247.85
49.2593	1302.07
49.2738	1427.24
49.2882	1546.34
49.3027	1644.21
49.3171	1595.28
49.3315	1748.63
49.3460	1775.85
49.3604	1784.74
49.3749	1838.53
49.3893	1816.10
49.4037	1801.38
49.4182	1767.77
49.4326	1750.72
49.4471	1663.74
49.4615	1661.63
49.4759	1642.47
49.4904	1509.16
49.5048	1398.94
49.5193	1340.97
49.5337	1305.41
49.5481	1254.87
49.5626	1149.90
49.5770	1107.85
49.5915	978.99
49.6059	921.08
49.6203	859.89
49.6348	825.79
49.6492	786.11
49.6637	730.63
49.6781	714.38
49.6925	705.98
49.7070	659.65
49.7214	687.93
49.7359	634.35
49.7503	657.37
49.7647	630.50
49.7792	597.82
49.7936	561.07
49.8081	557.25
49.8225	564.25
49.8369	520.80
49.8514	524.00
49.8658	551.29
49.8803	541.62
49.8947	566.70
49.9091	580.31
49.9236	542.99
49.9380	579.71
49.9525	551.17
49.9669	482.02
49.9813	526.00
49.9958	546.76
50.0102	499.40
50.0247	504.36
50.0391	475.33
50.0535	485.17
50.0680	506.92
50.0824	518.04
50.0969	523.31
50.1113	534.92
50.1257	534.70
50.1402	536.05
50.1546	520.81
50.1691	516.00
50.1835	537.13
50.1979	545.04
50.2124	485.51
50.2268	497.55
50.2413	508.53
50.2557	491.43
50.2701	532.98
50.2846	504.92
50.2990	487.29
50.3135	518.86
50.3279	526.59
50.3423	540.76
50.3568	536.44
50.3712	535.07
50.3857	480.81
50.4001	480.69
50.4145	481.48
50.4290	534.08
50.4434	514.89
50.4579	511.20
50.4723	498.85
50.4867	529.26
50.5012	491.32
50.5156	485.35
50.5301	512.13
50.5445	486.76
50.5589	445.04
50.5734	485.24
50.5878	523.62
50.6023	485.35
50.6167	470.36
50.6311	483.82
50.6456	477.63
50.6600	503.14
50.6745	521.01
50.6889	529.66
50.7033	547.45
50.7178	524.81
50.7322	530.99
50.7467	524.67
50.7611	513.39
50.7755	528.41
50.7900	514.29
50.8044	539.12
50.8189	525.98
50.8333	533.86
50.8477	479.85
50.8622	491.40
50.8766	532.73
50.8911	509.42
50.9055	533.02
50.9199	510.33
50.9344	501.98
50.9488	517.61
50.9633	473.81
50.9777	457.52
50.9921	493.55
51.0066	518.23
51.0210	547.64
51.0355	536.46
51.0499	494.70
51.0643	485.52
51.0788	494.81
51.0932	518.94
51.1077	511.50
51.1221	511.82
51.1365	494.24
51.1510	479.11
51.1654	544.26
51.1799	550.14
51.1943	511.00
51.2087	525.45
51.2232	532.27
51.2376	505.82
51.2521	496.94
51.2665	497.38
51.2809	517.76
51.2954	489.85
51.3098	491.63
51.3243	524.47
51.3387	504.79
51.3531	504.47
51.3676	496.56
51.3820	486.97
51.3965	491.67
51.4109	495.08
51.4253	510.36
51.4398	494.18
51.4542	490.00
51.4687	532.22
51.4831	512.18
51.4975	512.21
51.5120	515.90
51.5264	478.60
51.5409	497.87
51.5553	488.38
51.5697	498.58
51.5842	479.64
51.5986	507.23
51.6131	528.70
51.6275	493.34
51.6419	505.31
51.6564	494.63
51.6708	503.24
51.6853	518.82
51.6997	510.80
51.7141	495.48
51.7286	487.43
51.7430	498.26
51.7575	495.82
51.7719	490.53
51.7863	501.13
51.8008	517.03
51.8152	517.89
51.8297	503.29
51.8441	495.73
51.8585	488.95
51.8730	479.07
51.8874	479.78
51.9019	496.09
51.9163	510.70
51.9307	525.73
51.9452	526.82
51.9596	502.62
51.9741	469.85
51.9885	484.93
52.0029	506.72
52.0174	481.17
52.0318	522.12
52.0463	512.17
52.0607	518.68
52.0751	519.74
52.0896	566.27
52.1040	512.49
52.1185	538.16
52.1329	520.35
52.1473	483.95
52.1618	488.85
52.1762	539.90
52.1907	525.63
52.2051	509.36
52.2195	497.83
52.2340	480.21
52.2484	531.38
52.2629	528.18
52.2773	525.77
52.2917	510.65
52.3062	524.49
52.3206	526.29
52.3351	500.18
52.3495	506.47
52.3639	499.01
52.3784	508.21
52.3928	503.87
52.4073	498.95
52.4217	528.53
52.4361	538.34
52.4506	494.75
52.4650	503.25
52.4795	508.71
52.4939	531.56
52.5083	507.30
52.5228	511.24
52.5372	532.67
52.5517	480.52
52.5661	527.38
52.5805	492.72
52.5950	501.61
52.6094	535.38
52.6239	488.93
52.6383	520.04
52.6527	506.61
52.6672	459.67
52.6816	483.89
52.6961	522.48
52.7105	547.82
52.7250	517.32
52.7394	526.57
52.7538	528.97
52.7683	495.67
52.7827	485.64
52.7972	539.51
52.8116	536.12
52.8260	519.55
52.8405	486.07
52.8549	474.34
52.8694	473.96
52.8838	475.81
52.8982	513.69
52.9127	506.70
52.9271	516.67
52.9416	510.94
52.9560	525.93
52.9704	487.64
52.9849	507.80
52.9993	524.37
53.0138	548.17
53.0282	503.96
53.0426	510.25
53.0571	517.17
53.0715	535.85
53.0860	535.32
53.1004	523.25
53.1148	514.41
53.1293	518.95
53.1437	505.74
53.1582	505.52
53.1726	503.93
53.1870	474.44
53.2015	508.98
53.2159	506.30
53.2304	486.84
53.2448	494.61
53.2592	515.18
53.2737	517.98
53.2881	530.20
53.3026	509.86
53.3170	501.25
53.3314	530.24
53.3459	521.02
53.3603	506.70
53.3748	497.01
53.3892	470.25
53.4036	470.78
53.4181	490.49
53.4325	524.31
53.4470	549.74
53.4614	489.32
53.4758	496.64
53.4903	485.95
53.5047	539.10
53.5192	513.72
53.5336	513.57
53.5480	484.06
53.5625	493.83
53.5769	496.19
53.5914	504.74
53.6058	505.13
53.6202	516.66
53.6347	513.42
53.6491	516.21
53.6636	505.08
53.6780	492.17
53.6924	495.08
53.7069	503.87
53.7213	503.83
53.7358	519.60
53.7502	507.96
53.7646	513.99
53.7791	525.26
53.7935	523.60
53.8080	530.93
53.8224	489.60
53.8368	504.93
53.8513	529.88
53.8657	525.14
53.8802	522.50
53.8946	498.33
53.9090	525.77
53.9235	521.36
53.9379	560.21
53.9524	503.06
53.9668	476.41
53.9812	511.45
53.9957	581.62
54.0101	511.11
54.0246	517.28
54.0390	517.62
54.0534	545.10
54.0679	532.98
54.0823	508.23
54.0968	519.57
54.1112	515.02
54.1256	516.11
54.1401	533.91
54.1545	529.57
54.1690	562.86
54.1834	568.01
54.1978	537.73
54.2123	568.27
54.2267	608.84
54.2412	619.32
54.2556	645.53
54.2700	631.56
54.2845	693.53
54.2989	662.65
54.3134	610.06
54.3278	615.32
54.3422	630.30
54.3567	602.11
54.3711	561.42
54.3856	577.95
54.4000	606.82
54.4144	597.03
54.4289	631.92
54.4433	602.30
54.4578	585.39
54.4722	582.79
54.4866	565.75
54.5011	509.23
54.5155	507.78
54.5300	492.14
54.5444	484.68
54.5588	515.68
54.5733	504.03
54.5877	508.53
54.6022	520.80
54.6166	510.09
54.6310	503.45
54.6455	506.67
54.6599	497.43
54.6744	551.49
54.6888	508.00
54.7032	515.84
54.7177	543.81
54.7321	511.99
54.7466	521.66
54.7610	514.13
54.7754	526.83
54.7899	534.73
54.8043	528.20
54.8188	535.96
54.8332	497.11
54.8476	478.37
54.8621	538.35
54.8765	504.66
54.8910	506.01
54.9054	522.29
54.9198	530.53
54.9343	512.83
54.9487	522.65
54.9632	495.29
54.9776	523.12
54.9920	504.14
55.0065	509.08
55.0209	544.75
55.0354	547.29
55.0498	510.78
55.0642	534.75
55.0787	547.58
55.0931	547.29
55.1076	502.02
55.1220	497.90
55.1364	531.56
55.1509	509.99
55.1653	526.85
55.1798	533.75
55.1942	492.40
55.2086	504.17
55.2231	513.09
55.2375	516.34
55.2520	539.66
55.2664	523.40
55.2808	518.76
55.2953	509.02
55.3097	506.36
55.3242	518.93
55.3386	513.67
55.3530	519.59
55.3675	518.02
55.3819	505.74
55.3964	517.87
55.4108	490.29
55.4252	543.83
55.4397	508.00
55.4541	509.73
55.4686	536.59
55.4830	508.79
55.4974	518.24
55.5119	513.56
55.5263	547.42
55.5408	538.91
55.5552	552.81
55.5696	534.48
55.5841	520.85
55.5985	509.62
55.6130	525.84
55.6274	534.04
55.6418	527.91
55.6563	554.75
55.6707	529.84
55.6852	494.93
55.6996	539.47
55.7140	530.95
55.7285	544.89
55.7429	534.14
55.7574	538.51
55.7718	529.23
55.7862	548.07
55.8007	535.06
55.8151	526.30
55.8296	510.07
55.8440	500.40
55.8584	516.54
55.8729	522.89
55.8873	504.76
55.9018	512.30
55.9162	529.88
55.9306	541.73
55.9451	543.20
55.9595	515.22
55.9740	518.14
55.9884	504.86
56.0028	538.71
56.0173	524.40
56.0317	524.28
56.0462	499.15
56.0606	521.31
56.0750	544.67
56.0895	582.31
56.1039	534.19
56.1184	507.22
56.1328	550.01
56.1472	491.94
56.1617	509.04
56.1761	519.64
56.1906	509.14
56.2050	511.06
56.2194	545.64
56.2339	516.39
56.2483	515.46
56.2628	535.94
56.2772	539.92
56.2916	519.64
56.3061	539.41
56.3205	508.32
56.3350	528.79
56.3494	529.05
56.3639	507.44
56.3783	520.02
56.3927	487.43
56.4072	491.09
56.4216	511.88
56.4361	573.38
56.4505	524.94
56.4649	529.11
56.4794	563.84
56.4938	511.98
56.5083	501.61
56.5227	520.99
56.5371	505.36
56.5516	512.27
56.5660	495.47
56.5805	471.94
56.5949	533.41
56.6093	522.74
56.6238	523.54
56.6382	474.39
56.6527	491.35
56.6671	509.95
56.6815	478.48
56.6960	486.48
56.7104	526.87
56.7249	513.26
56.7393	507.00
56.7537	507.67
56.7682	525.72
56.7826	523.59
56.7971	503.45
56.8115	499.05
56.8259	545.98
56.8404	538.62
56.8548	536.68
56.8693	486.05
56.8837	507.43
56.8981	491.13
56.9126	522.02
56.9270	503.67
56.9415	516.31
56.9559	494.74
56.9703	504.56
56.9848	562.37
56.9992	517.68
57.0137	510.32
57.0281	544.43
57.0425	483.74
57.0570	511.52
57.0714	545.18
57.0859	568.44
57.1003	534.26
57.1147	521.61
57.1292	505.15
57.1436	521.45
57.1581	499.54
57.1725	526.90
57.1869	489.04
57.2014	506.29
57.2158	528.38
57.2303	529.50
57.2447	538.95
57.2591	536.14
57.2736	533.48
57.2880	522.20
57.3025	529.34
57.3169	502.90
57.3313	541.26
57.3458	526.22
57.3602	522.21
57.3747	485.02
57.3891	464.70
57.4035	496.59
57.4180	518.94
57.4324	542.64
57.4469	513.88
57.4613	556.42
57.4757	549.10
57.4902	537.99
57.5046	497.25
57.5191	520.09
57.5335	584.41
57.5479	519.08
57.5624	518.65
57.5768	535.90
57.5913	529.55
57.6057	533.37
57.6201	518.37
57.6346	488.60
57.6490	480.53
57.6635	512.61
57.6779	527.64
57.6923	510.15
57.7068	547.32
57.7212	577.96
57.7357	564.64
57.7501	546.87
57.7645	575.39
57.7790	594.17
57.7934	544.01
57.8079	637.74
57.8223	616.52
57.8367	687.02
57.8512	699.77
57.8656	740.04
57.8801	713.45
57.8945	757.50
57.9089	733.71
57.9234	724.97
57.9378	720.01
57.9523	660.75
57.9667	625.63
57.9811	648.44
57.9956	665.08
58.0100	669.15
58.0245	701.04
58.0389	646.48
58.0533	657.71
58.0678	682.34
58.0822	618.66
58.0967	582.36
58.1111	600.52
58.1255	600.82
58.1400	586.27
58.1544	565.65
58.1689	545.10
58.1833	562.70
58.1977	547.28
58.2122	558.82
58.2266	572.35
58.2411	562.99
58.2555	519.06
58.2699	529.59
58.2844	554.08
58.2988	542.07
58.3133	581.87
58.3277	539.31
58.3421	518.07
58.3566	511.93
58.3710	525.95
58.3855	518.37
58.3999	510.25
58.4143	543.48
58.4288	539.66
58.4432	531.14
58.4577	538.34
58.4721	580.06
58.4865	555.63
58.5010	515.36
58.5154	525.21
58.5299	557.60
58.5443	525.70
58.5587	496.33
58.5732	503.39
58.5876	509.31
58.6021	504.70
58.6165	503.93
58.6309	519.06
58.6454	498.51
58.6598	486.08
58.6743	500.14
58.6887	506.48
58.7031	539.87
58.7176	552.54
58.7320	527.82
58.7465	564.26
58.7609	523.75
58.7753	538.51
58.7898	522.28
58.8042	519.92
58.8187	531.93
58.8331	520.18
58.8475	526.12
58.8620	555.97
58.8764	513.31
58.8909	506.93
58.9053	535.26
58.9197	526.18
58.9342	510.35
58.9486	531.34
58.9631	515.87
58.9775	512.07
58.9919	527.96
59.0064	539.10
59.0208	556.88
59.0353	553.80
59.0497	538.18
59.0641	547.78
59.0786	545.45
59.0930	560.04
59.1075	526.92
59.1219	500.17
59.1363	507.00
59.1508	517.94
59.1652	512.72
59.1797	524.41
59.1941	524.87
59.2085	528.09
59.2230	559.66
59.2374	565.89
59.2519	556.17
59.2663	538.88
59.2807	545.12
59.2952	545.28
59.3096	529.03
59.3241	581.86
59.3385	537.31
59.3529	554.27
59.3674	573.28
59.3818	544.18
59.3963	546.06
59.4107	535.49
59.4251	575.45
59.4396	556.55
59.4540	522.22
59.4685	568.36
59.4829	580.27
59.4973	543.15
59.5118	585.99
59.5262	562.11
59.5407	537.01
59.5551	532.64
59.5695	522.90
59.5840	536.99
59.5984	542.95
59.6129	532.86
59.6273	538.96
59.6417	542.60
59.6562	510.38
59.6706	503.86
59.6851	532.49
59.6995	542.92
59.7139	530.07
59.7284	562.64
59.7428	506.79
59.7573	554.16
59.7717	529.73
59.7861	522.08
59.8006	548.12
59.8150	562.13
59.8295	571.78
59.8439	544.72
59.8583	543.86
59.8728	564.88
59.8872	513.94
59.9017	527.03
59.9161	511.71
59.9305	529.94
59.9450	562.60
59.9594	483.63
59.9739	546.66
59.9883	541.84
60.0027	540.61
60.0172	500.78
60.0316	518.94
60.0461	549.17
60.0605	558.57
60.0750	492.62
60.0894	539.40
60.1038	528.70
60.1183	509.44
60.1327	564.98
60.1472	504.36
60.1616	527.92
60.1760	568.71
60.1905	518.65
60.2049	509.66
60.2194	541.15
60.2338	540.80
60.2482	523.26
60.2627	504.53
60.2771	513.03
60.2916	548.50
60.3060	510.68
60.3204	510.78
60.3349	548.47
60.3493	549.25
60.3638	555.10
60.3782	529.46
60.3926	505.78
60.4071	521.77
60.4215	544.21
60.4360	579.88
60.4504	514.01
60.4648	512.69
60.4793	541.06
60.4937	566.86
60.5082	545.71
60.5226	533.25
60.5370	497.72
60.5515	538.13
60.5659	539.76
60.5804	510.26
60.5948	536.82
60.6092	541.68
60.6237	515.59
60.6381	549.96
60.6526	521.84
60.6670	526.03
60.6814	557.30
60.6959	534.06
60.7103	556.11
60.7248	539.65
60.7392	518.46
60.7536	526.61
60.7681	552.00
60.7825	556.21
60.7970	538.88
60.8114	503.05
60.8258	562.52
60.8403	524.51
60.8547	570.89
60.8692	560.86
60.8836	501.28
60.8980	573.56
60.9125	544.47
60.9269	550.26
60.9414	551.08
60.9558	557.55
60.9702	537.78
60.9847	552.38
60.9991	543.30
61.0136	547.21
61.0280	546.26
61.0424	540.30
61.0569	556.40
61.0713	537.27
61.0858	549.92
61.1002	532.59
61.1146	532.05
61.1291	559.48
61.1435	513.13
61.1580	547.53
61.1724	550.89
61.1868	531.97
61.2013	542.54
61.2157	532.07
61.2302	547.55
61.2446	575.80
61.2590	522.59
61.2735	541.46
61.2879	565.19
61.3024	557.26
61.3168	548.38
61.3312	568.39
61.3457	536.28
61.3601	567.72
61.3746	548.28
61.3890	526.65
61.4034	540.79
61.4179	542.10
61.4323	559.31
61.4468	540.42
61.4612	558.68
61.4756	540.31
61.4901	546.37
61.5045	527.01
61.5190	533.22
61.5334	532.26
61.5478	551.48
61.5623	524.99
61.5767	553.32
61.5912	551.97
61.6056	525.84
61.6200	495.39
61.6345	518.92
61.6489	521.27
61.6634	526.20
61.6778	520.88
61.6922	534.89
61.7067	569.47
61.7211	559.81
61.7356	547.33
61.7500	567.56
61.7644	564.02
61.7789	559.57
61.7933	568.17
61.8078	547.70
61.8222	556.28
61.8366	579.02
61.8511	554.10
61.8655	532.32
61.8800	533.78
61.8944	551.25
61.9088	573.29
61.9233	570.11
61.9377	568.42
61.9522	560.67
61.9666	534.29
61.9810	538.49
61.9955	544.73
62.0099	526.15
62.0244	566.77
62.0388	542.04
62.0532	540.15
62.0677	570.22
62.0821	555.71
62.0966	550.36
62.1110	524.42
62.1254	553.98
62.1399	551.47
62.1543	556.63
62.1688	534.55
62.1832	545.24
62.1976	535.77
62.2121	561.33
62.2265	540.03
62.2410	541.00
62.2554	563.47
62.2698	560.09
62.2843	553.94
62.2987	535.44
62.3132	515.44
62.3276	538.35
62.3420	570.18
62.3565	566.45
62.3709	571.13
62.3854	538.03
62.3998	520.79
62.4142	512.51
62.4287	573.78
62.4431	569.78
62.4576	530.90
62.4720	541.52
62.4864	540.22
62.5009	529.41
62.5153	559.76
62.5298	535.95
62.5442	548.72
62.5586	542.44
62.5731	541.20
62.5875	579.14
62.6020	560.40
62.6164	562.10
62.6308	576.71
62.6453	559.94
62.6597	561.03
62.6742	550.16
62.6886	517.75
62.7030	511.85
62.7175	531.92
62.7319	546.39
62.7464	580.93
62.7608	547.25
62.7752	560.73
62.7897	562.57
62.8041	578.38
62.8186	615.87
62.8330	567.74
62.8474	575.99
62.8619	548.17
62.8763	579.30
62.8908	579.80
62.9052	573.13
62.9196	587.13
62.9341	576.97
62.9485	586.37
62.9630	565.24
62.9774	586.72
62.9918	569.89
63.0063	596.77
63.0207	591.56
63.0352	605.28
63.0496	613.25
63.0640	594.28
63.0785	515.40
63.0929	547.50
63.1074	555.27
63.1218	585.07
63.1362	574.41
63.1507	546.95
63.1651	563.27
63.1796	585.24
63.1940	571.37
63.2084	551.07
63.2229	539.04
63.2373	568.91
63.2518	574.65
63.2662	558.34
63.2806	582.79
63.2951	569.37
63.3095	577.47
63.3240	587.36
63.3384	579.64
63.3528	582.24
63.3673	605.95
63.3817	591.03
63.3962	638.81
63.4106	606.61
63.4250	668.44
63.4395	640.91
63.4539	644.28
63.4684	721.20
63.4828	756.54
63.4972	749.20
63.5117	764.07
63.5261	869.55
63.5406	919.17
63.5550	941.64
63.5694	956.20
63.5839	985.04
63.5983	920.84
63.6128	879.36
63.6272	855.61
63.6416	805.35
63.6561	771.27
63.6705	782.02
63.6850	755.66
63.6994	756.01
63.7138	820.03
63.7283	790.16
63.7427	839.88
63.7572	814.75
63.7716	786.74
63.7861	755.32
63.8005	772.74
63.8149	751.77
63.8294	672.56
63.8438	660.10
63.8583	673.48
63.8727	638.72
63.8871	589.85
63.9016	605.75
63.9160	601.17
63.9305	626.49
63.9449	605.84
63.9593	586.29
63.9738	614.04
63.9882	649.99
64.0027	616.98
64.0171	642.49
64.0315	601.33
64.0460	578.35
64.0604	583.34
64.0749	630.30
64.0893	623.74
64.1037	579.68
64.1182	595.64
64.1326	615.64
64.1471	606.84
64.1615	580.88
64.1759	585.25
64.1904	581.85
64.2048	570.72
64.2193	596.81
64.2337	623.21
64.2481	608.64
64.2626	578.52
64.2770	589.39
64.2915	583.41
64.3059	578.71
64.3203	610.74
64.3348	620.09
64.3492	595.74
64.3637	557.67
64.3781	607.01
64.3925	592.20
64.4070	596.05
64.4214	621.18
64.4359	609.92
64.4503	576.96
64.4647	630.92
64.4792	601.64
64.4936	605.29
64.5081	579.55
64.5225	602.24
64.5369	665.20
64.5514	640.99
64.5658	662.43
64.5803	633.57
64.5947	645.24
64.6091	656.91
64.6236	615.57
64.6380	626.08
64.6525	625.37
64.6669	682.46
64.6813	644.47
64.6958	644.06
64.7102	668.31
64.7247	663.93
64.7391	663.63
64.7535	718.49
64.7680	688.73
64.7824	705.56
64.7969	694.44
64.8113	736.29
64.8257	788.93
64.8402	796.13
64.8546	836.17
64.8691	807.24
64.8835	808.05
64.8979	895.07
64.9124	839.89
64.9268	871.71
64.9413	929.16
64.9557	921.92
64.9701	962.04
64.9846	1008.45
64.9990	1069.87
65.0135	1262.87
65.0279	1406.70
65.0423	1603.64
65.0568	1960.93
65.0712	2475.90
65.0857	3230.75
65.1001	4187.77
65.1145	5836.15
65.1290	7802.09
65.1434	9260.03
65.1579	10589.49
65.1723	11399.86
65.1867	11066.64
65.2012	9888.51
65.2156	8320.64
65.2301	6664.15
65.2445	5300.99
65.2589	4367.00
65.2734	4106.94
65.2878	4223.34
65.3023	4756.52
65.3167	5583.06
65.3311	6366.32
65.3456	6951.52
65.3600	6859.59
65.3745	6419.20
65.3889	5538.65
65.4033	4374.71
65.4178	3472.51
65.4322	2771.29
65.4467	2075.86
65.4611	1748.81
65.4755	1483.41
65.4900	1275.39
65.5044	1160.90
65.5189	997.84
65.5333	947.51
65.5477	941.75
65.5622	869.92
65.5766	907.45
65.5911	812.76
65.6055	819.05
65.6199	803.27
65.6344	821.14
65.6488	752.93
65.6633	729.19
65.6777	736.35
65.6921	698.78
65.7066	703.38
65.7210	648.46
65.7355	674.68
65.7499	673.11
65.7643	682.44
65.7788	667.85
65.7932	663.26
65.8077	669.77
65.8221	649.83
65.8365	645.55
65.8510	630.94
65.8654	659.06
65.8799	618.51
65.8943	672.49
65.9087	653.06
65.9232	634.45
65.9376	641.84
65.9521	629.80
65.9665	637.01
65.9809	670.18
65.9954	622.31
66.0098	652.71
66.0243	649.65
66.0387	627.08
66.0531	605.83
66.0676	610.58
66.0820	623.78
66.0965	636.41
66.1109	637.83
66.1253	613.65
66.1398	607.40
66.1542	613.69
66.1687	608.33
66.1831	580.11
66.1975	597.38
66.2120	598.96
66.2264	647.31
66.2409	623.80
66.2553	595.85
66.2697	576.82
66.2842	589.95
66.2986	593.83
66.3131	618.76
66.3275	623.44
66.3419	613.46
66.3564	579.78
66.3708	565.82
66.3853	587.91
66.3997	599.37
66.4141	622.69
66.4286	604.43
66.4430	606.12
66.4575	578.58
66.4719	622.64
66.4863	590.41
66.5008	582.22
66.5152	589.55
66.5297	567.81
66.5441	589.58
66.5585	570.31
66.5730	589.23
66.5874	553.84
66.6019	576.67
66.6163	596.93
66.6307	554.01
66.6452	598.34
66.6596	612.19
66.6741	597.10
66.6885	544.80
66.7029	575.99
66.7174	589.00
66.7318	586.01
66.7463	636.31
66.7607	602.76
66.7751	571.93
66.7896	581.18
66.8040	596.93
66.8185	613.51
66.8329	570.55
66.8473	566.88
66.8618	546.30
66.8762	588.14
66.8907	587.67
66.9051	618.17
66.9195	585.16
66.9340	569.94
66.9484	583.23
66.9629	573.23
66.9773	550.81
66.9917	589.69
67.0062	592.34
67.0206	610.83
67.0351	628.37
67.0495	584.25
67.0639	545.32
67.0784	558.82
67.0928	612.65
67.1073	607.97
67.1217	575.93
67.1361	555.31
67.1506	580.48
67.1650	629.77
67.1795	568.93
67.1939	553.10
67.2083	599.82
67.2228	586.57
67.2372	617.77
67.2517	586.16
67.2661	543.41
67.2805	584.99
67.2950	550.55
67.3094	580.17
67.3239	554.13
67.3383	585.71
67.3527	562.98
67.3672	546.89
67.3816	564.32
67.3961	570.15
67.4105	581.85
67.4250	593.99
67.4394	596.67
67.4538	576.45
67.4683	596.78
67.4827	631.91
67.4972	638.15
67.5116	605.31
67.5260	577.68
67.5405	525.46
67.5549	537.09
67.5694	577.21
67.5838	573.65
67.5982	590.07
67.6127	585.08
67.6271	568.76
67.6416	576.55
67.6560	592.05
67.6704	556.80
67.6849	545.56
67.6993	529.39
67.7138	575.80
67.7282	536.16
67.7426	554.18
67.7571	558.21
67.7715	558.33
67.7860	574.22
67.8004	557.31
67.8148	579.96
67.8293	582.28
67.8437	568.82
67.8582	566.25
67.8726	574.07
67.8870	569.39
67.9015	550.34
67.9159	537.76
67.9304	526.88
67.9448	568.59
67.9592	550.72
67.9737	569.80
67.9881	594.25
68.0026	574.87
68.0170	584.11
68.0314	591.40
68.0459	568.80
68.0603	568.83
68.0748	588.65
68.0892	589.65
68.1036	553.04
68.1181	588.61
68.1325	618.88
68.1470	573.59
68.1614	570.16
68.1758	601.78
68.1903	567.62
68.2047	601.35
68.2192	554.40
68.2336	609.52
68.2480	557.88
68.2625	562.15
68.2769	563.39
68.2914	561.92
68.3058	548.48
68.3202	555.18
68.3347	581.18
68.3491	571.86
68.3636	596.49
68.3780	577.53
68.3924	505.04
68.4069	559.64
68.4213	558.12
68.4358	608.08
68.4502	581.60
68.4646	556.24
68.4791	590.39
68.4935	620.80
68.5080	586.23
68.5224	570.51
68.5368	593.39
68.5513	574.02
68.5657	581.62
68.5802	553.62
68.5946	544.99
68.6090	551.92
68.6235	548.61
68.6379	544.12
68.6524	593.38
68.6668	576.58
68.6812	566.54
68.6957	574.29
68.7101	602.01
68.7246	556.43
68.7390	567.62
68.7534	586.61
68.7679	549.54
68.7823	553.06
68.7968	560.16
68.8112	579.70
68.8256	572.83
68.8401	581.40
68.8545	560.37
68.8690	553.74
68.8834	578.57
68.8978	527.50
68.9123	559.28
68.9267	577.52
68.9412	562.51
68.9556	527.31
68.9700	550.24
68.9845	550.34
68.9989	613.77
69.0134	564.26
69.0278	544.72
69.0422	556.14
69.0567	548.01
69.0711	570.72
69.0856	560.98
69.1000	564.68
69.1144	576.31
69.1289	607.64
69.1433	515.62
69.1578	550.25
69.1722	596.95
69.1866	590.76
69.2011	570.68
69.2155	549.37
69.2300	544.19
69.2444	575.59
69.2588	594.88
69.2733	588.98
69.2877	578.97
69.3022	488.42
69.3166	568.94
69.3310	576.88
69.3455	555.85
69.3599	565.59
69.3744	546.66
69.3888	558.37
69.4032	536.50
69.4177	526.50
69.4321	579.97
69.4466	600.72
69.4610	564.83
69.4754	578.43
69.4899	572.77
69.5043	549.29
69.5188	534.38
69.5332	545.09
69.5476	616.94
69.5621	570.64
69.5765	576.66
69.5910	577.87
69.6054	560.43
69.6198	554.97
69.6343	580.96
69.6487	588.25
69.6632	578.56
69.6776	527.62
69.6920	507.94
69.7065	566.27
69.7209	547.93
69.7354	552.73
69.7498	599.39
69.7642	580.93
69.7787	648.63
69.7931	552.59
69.8076	590.51
69.8220	557.53
69.8364	601.06
69.8509	606.42
69.8653	620.57
69.8798	618.59
69.8942	610.45
69.9086	554.40
69.9231	585.57
69.9375	632.19
69.9520	578.83
69.9664	577.44
69.9808	558.70
69.9953	594.59
70.0097	580.09
70.0242	613.68
70.0386	605.65
70.0530	617.03
70.0675	555.72
70.0819	596.21
70.0964	555.86
70.1108	542.04
70.1252	548.95
70.1397	512.72
70.1541	578.63
70.1686	556.87
70.1830	542.48
70.1974	591.99
70.2119	597.64
70.2263	577.30
70.2408	602.87
70.2552	611.49
70.2696	546.31
70.2841	573.95
70.2985	582.81
70.3130	596.99
70.3274	593.30
70.3418	553.91
70.3563	519.89
70.3707	578.16
70.3852	569.77
70.3996	597.15
70.4140	548.57
70.4285	636.88
70.4429	577.51
70.4574	560.43
70.4718	607.20
70.4862	553.56
70.5007	568.99
70.5151	585.08
70.5296	566.85
70.5440	557.62
70.5584	569.89
70.5729	558.99
70.5873	536.22
70.6018	515.87
70.6162	531.41
70.6306	564.97
70.6451	584.84
70.6595	584.32
70.6740	573.34
70.6884	520.31
70.7028	526.40
70.7173	578.67
70.7317	530.75
70.7462	558.34
70.7606	573.09
70.7750	581.82
70.7895	602.54
70.8039	530.17
70.8184	577.36
70.8328	577.58
70.8472	542.41
70.8617	561.30
70.8761	602.26
70.8906	557.89
70.9050	558.10
70.9194	610.30
70.9339	639.45
70.9483	638.17
70.9628	579.94
70.9772	601.70
70.9916	581.41
71.0061	584.84
71.0205	572.91
71.0350	501.31
71.0494	494.31
71.0638	548.47
71.0783	600.15
71.0927	596.33
71.1072	536.42
71.1216	541.84
71.1361	575.34
71.1505	553.39
71.1649	571.09
71.1794	594.07
71.1938	570.06
71.2083	535.69
71.2227	578.23
71.2371	572.12
71.2516	518.06
71.2660	568.88
71.2805	565.08
71.2949	541.62
71.3093	564.36
71.3238	563.96
71.3382	606.82
71.3527	580.74
71.3671	572.52
71.3815	565.72
71.3960	559.23
71.4104	599.25
71.4249	606.17
71.4393	604.78
71.4537	605.53
71.4682	566.68
71.4826	564.75
71.4971	561.14
71.5115	537.07
71.5259	519.13
71.5404	536.02
71.5548	602.04
71.5693	571.91
71.5837	541.84
71.5981	514.29
71.6126	561.86
71.6270	616.95
71.6415	576.41
71.6559	543.78
71.6703	536.50
71.6848	528.86
71.6992	607.35
71.7137	619.26
71.7281	621.81
71.7425	597.88
71.7570	583.79
71.7714	612.00
71.7859	590.59
71.8003	571.87
71.8147	634.80
71.8292	631.17
71.8436	557.57
71.8581	554.72
71.8725	599.98
71.8869	574.59
71.9014	616.52
71.9158	595.85
71.9303	600.38
71.9447	595.78
71.9591	630.25
71.9736	587.90
71.9880	543.17
72.0025	599.75
72.0169	580.06
72.0313	587.26
72.0458	613.09
72.0602	580.71
72.0747	616.05
72.0891	649.66
72.1035	643.68
72.1180	625.69
72.1324	587.79
72.1469	530.85
72.1613	585.67
72.1757	589.94
72.1902	548.12
72.2046	559.41
72.2191	611.50
72.2335	596.13
72.2479	594.90
72.2624	541.44
72.2768	565.56
72.2913	592.53
72.3057	607.09
72.3201	529.73
72.3346	544.00
72.3490	617.03
72.3635	632.28
72.3779	594.10
72.3923	577.75
72.4068	635.80
72.4212	692.47
72.4357	651.17
72.4501	565.44
72.4645	548.93
72.4790	578.73
72.4934	575.93
72.5079	568.49
72.5223	564.24
72.5367	542.06
72.5512	562.32
72.5656	528.70
72.5801	522.63
72.5945	530.88
72.6089	497.10
72.6234	522.25
72.6378	505.73
72.6523	511.27
72.6667	623.05
72.6811	650.24
72.6956	572.76
72.7100	597.37
72.7245	657.04
72.7389	656.32
72.7533	610.67
72.7678	613.20
72.7822	605.80
72.7967	563.39
72.8111	593.17
72.8255	666.04
72.8400	607.21
72.8544	500.10
72.8689	513.61
72.8833	564.89

Result vector
22.1120	548.87
22.1264	585.56
22.1409	551.62
22.1553	599.62
22.1697	617.61
22.1842	615.81
22.1986	519.87
22.2131	563.97
22.2275	571.64
22.2419	563.22
22.2564	591.17
22.2708	555.95
22.2853	584.26
22.2997	555.56
22.3141	543.94
22.3286	472.04
22.3430	561.31
22.3575	594.28
22.3719	578.46
22.3863	480.40
22.4008	502.65
22.4152	578.97
22.4297	669.01
22.4441	623.78
22.4585	618.41
22.4730	619.19
22.4874	614.93
22.5019	659.83
22.5163	629.65
22.5307	563.94
22.5452	583.89
22.5596	604.52
22.5741	642.91
22.5885	655.61
22.6029	641.98
22.6174	596.29
22.6318	593.21
22.6463	613.97
22.6607	542.62
22.6751	582.34
22.6896	568.62
22.7040	522.07
22.7185	552.73
22.7329	603.85
22.7473	600.88
22.7618	593.83
22.7762	602.53
22.7907	569.68
22.8051	481.14
22.8195	577.37
22.8340	503.53
22.8484	585.44
22.8629	628.07
22.8773	541.88
22.8917	504.74
22.9062	559.27
22.9206	491.66
22.9351	544.83
22.9495	560.86
22.9639	530.35
22.9784	560.87
22.9928	526.39
23.0073	525.57
23.0217	578.71
23.0361	522.58
23.0506	600.65
23.0650	614.44
23.0795	572.35
23.0939	573.16
23.1083	601.97
23.1228	561.99
23.1372	560.33
23.1517	563.28
23.1661	542.55
23.1806	511.11
23.1950	530.98
23.2094	613.35
23.2239	524.64
23.2383	554.18
23.2528	542.99
23.2672	539.60
23.2816	487.99
23.2961	601.84
23.3105	534.34
23.3250	547.46
23.3394	565.33
23.3538	577.54
23.3683	576.36
23.3827	582.92
23.3972	571.81
23.4116	544.17
23.4260	517.24
23.4405	521.88
23.4549	527.23
23.4694	546.26
23.4838	636.29
23.4982	544.46
23.5127	592.90
23.5271	540.49
23.5416	539.37
23.5560	653.25
23.5704	559.90
23.5849	610.91
23.5993	545.65
23.6138	508.00
23.6282	512.60
23.6426	554.22
23.6571	541.38
23.6715	567.38
23.6860	517.14
23.7004	535.47
23.7148	455.03
23.7293	571.05
23.7437	557.03
23.7582	574.46
23.7726	548.04
23.7870	595.79
23.8015	506.67
23.8159	534.76
23.8304	552.64
23.8448	496.13
23.8592	532.99
23.8737	536.53
23.8881	512.61
23.9026	542.55
23.9170	562.21
23.9314	556.41
23.9459	563.00
23.9603	536.20
23.9748	610.93
23.9892	538.76
24.0036	567.09
24.0181	532.55
24.0325	554.04
24.0470	561.39
24.0614	471.76
24.0758	537.73
24.0903	523.76
24.1047	544.81
24.1192	524.06
24.1336	583.34
24.1480	565.88
24.1625	574.94
24.1769	625.51
24.1914	595.09
24.2058	546.00
24.2202	616.94
24.2347	609.57
24.2491	653.43
24.2636	581.67
24.2780	582.45
24.2924	548.35
24.3069	554.70
24.3213	583.79
24.3358	574.81
24.3502	610.11
24.3646	523.46
24.3791	515.19
24.3935	548.16
24.4080	484.61
24.4224	536.00
24.4368	507.27
24.4513	460.42
24.4657	552.64
24.4802	559.77
24.4946	509.61
24.5090	536.92
24.5235	525.27
24.5379	503.82
24.5524	580.02
24.5668	578.07
24.5812	572.53
24.5957	568.01
24.6101	580.58
24.6246	539.72
24.6390	562.19
24.6534	543.19
24.6679	507.66
24.6823	531.81
24.6968	579.09
24.7112	549.31
24.7256	529.37
24.7401	500.74
24.7545	585.95
24.7690	549.44
24.7834	548.13
24.7978	503.05
24.8123	570.25
24.8267	507.47
24.8412	495.21
24.8556	511.14
24.8700	529.00
24.8845	526.59
24.8989	522.79
24.9134	517.94
24.9278	509.69
24.9422	540.01
24.9567	544.40
24.9711	531.11
24.9856	527.78
25.0000	583.07
25.0144	617.10
25.0289	554.74
25.0433	524.68
25.0578	522.21
25.0722	518.03
25.0866	538.41
25.1011	522.39
25.1155	560.33
25.1300	555.29
25.1444	538.03
25.1588	527.78
25.1733	547.23
25.1877	518.59
25.2022	544.37
25.2166	527.54
25.2310	519.78
25.2455	484.75
25.2599	526.75
25.2744	536.13
25.2888	581.56
25.3032	550.68
25.3177	552.42
25.3321	530.21
25.3466	534.92
25.3610	546.95
25.3754	513.28
25.3899	491.20
25.4043	543.07
25.4188	548.69
25.4332	519.30
25.4476	518.42
25.4621	493.98
25.4765	483.50
25.4910	509.32
25.5054	490.68
25.5198	543.28
25.5343	567.56
25.5487	528.27
25.5632	505.92
25.5776	531.76
25.5920	509.60
25.6065	530.01
25.6209	481.06
25.6354	528.68
25.6498	526.16
25.6642	540.08
25.6787	545.76
25.6931	520.81
25.7076	541.84
25.7220	556.44
25.7364	505.85
25.7509	553.90
25.7653	537.82
25.7798	528.83
25.7942	533.73
25.8086	534.14
25.8231	589.55
25.8375	538.94
25.8520	548.45
25.8664	565.56
25.8808	525.42
25.8953	543.96
25.9097	549.18
25.9242	499.84
25.9386	540.86
25.9530	533.15
25.9675	551.07
25.9819	541.75
25.9964	509.57
26.0108	557.49
26.0252	573.66
26.0397	566.87
26.0541	549.11
26.0686	573.88
26.0830	579.91
26.0974	508.78
26.1119	511.87
26.1263	530.37
26.1408	519.93
26.1552	511.67
26.1696	518.72
26.1841	520.44
26.1985	534.48
26.2130	548.07
26.2274	509.97
26.2418	547.70
26.2563	546.32
26.2707	519.42
26.2852	531.81
26.2996	553.41
26.3140	527.35
26.3285	540.16
26.3429	548.35
26.3574	531.72
26.3718	509.70
26.3862	533.13
26.4007	519.94
26.4151	527.23
26.4296	535.27
26.4440	507.08
26.4584	549.38
26.4729	534.06
26.4873	562.75
26.5018	582.78
26.5162	527.19
26.5306	561.98
26.5451	522.60
26.5595	552.77
26.5740	561.25
26.5884	514.25
26.6028	521.64
26.6173	544.27
26.6317	526.90
26.6462	536.95
26.6606	520.30
26.6750	521.55
26.6895	506.34
26.7039	528.22
26.7184	517.25
26.7328	502.35
26.7472	544.88
26.7617	507.60
26.7761	522.85
26.7906	518.75
26.8050	534.53
26.8194	527.80
26.8339	498.49
26.8483	556.26
26.8628	561.83
26.8772	534.16
26.8917	509.84
26.9061	516.35
26.9205	522.85
26.9350	520.25
26.9494	519.02
26.9639	536.93
26.9783	530.20
26.9927	508.33
27.0072	505.17
27.0216	487.86
27.0361	492.40
27.0505	505.73
27.0649	501.04
27.0794	504.33
27.0938	545.33
27.1083	529.23
27.1227	486.32
27.1371	490.29
27.1516	491.81
27.1660	503.59
27.1805	506.12
27.1949	496.94
27.2093	503.33
27.2238	511.09
27.2382	522.54
27.2527	499.93
27.2671	491.03
27.2815	515.40
27.2960	494.47
27.3104	501.59
27.3249	530.23
27.3393	511.56
27.3537	543.74
27.3682	510.95
27.3826	488.93
27.3971	503.43
27.4115	511.52
27.4259	513.86
27.4404	516.21
27.4548	548.85
27.4693	545.09
27.4837	524.47
27.4981	499.10
27.5126	515.23
27.5270	469.35
27.5415	520.46
27.5559	517.77
27.5703	508.62
27.5848	506.45
27.5992	498.99
27.6137	514.77
27.6281	510.11
27.6425	547.90
27.6570	534.72
27.6714	479.55
27.6859	488.99
27.7003	517.27
27.7147	537.92
27.7292	533.51
27.7436	524.06
27.7581	502.11
27.7725	503.18
27.7869	554.89
27.8014	516.28
27.8158	548.84
27.8303	550.16
27.8447	527.10
27.8591	493.22
27.8736	522.94
27.8880	493.12
27.9025	478.89
27.9169	470.85
27.9313	495.52
27.9458	525.75
27.9602	529.82
27.9747	470.65
27.9891	454.43
28.0035	508.04
28.0180	503.66
28.0324	529.86
28.0469	529.93
28.0613	585.60
28.0757	511.53
28.0902	558.24
28.1046	515.83
28.1191	522.39
28.1335	551.71
28.1479	500.96
28.1624	493.64
28.1768	497.67
28.1913	517.40
28.2057	521.67
28.2201	512.88
28.2346	513.61
28.2490	517.83
28.2635	495.64
28.2779	519.41
28.2923	480.34
28.3068	474.63
28.3212	524.63
28.3357	495.50
28.3501	499.45
28.3645	513.99
28.3790	502.57
28.3934	496.41
28.4079	472.59
28.4223	524.24
28.4367	528.22
28.4512	498.01
28.4656	488.93
28.4801	504.28
28.4945	488.85
28.5089	524.85
28.5234	500.26
28.5378	490.25
28.5523	455.86
28.5667	494.55
28.5811	519.25
28.5956	528.35
28.6100	532.42
28.6245	514.04
28.6389	514.22
28.6533	520.22
28.6678	517.46
28.6822	476.94
28.6967	519.15
28.7111	516.95
28.7255	513.80
28.7400	507.52
28.7544	508.31
28.7689	489.90
28.7833	496.77
28.7977	496.42
28.8122	494.88
28.8266	470.45
28.8411	487.88
28.8555	512.24
28.8699	506.79
28.8844	488.47
28.8988	481.28
28.9133	500.97
28.9277	526.16
28.9421	489.53
28.9566	487.98
28.9710	510.21
28.9855	526.25
28.9999	501.48
29.0143	474.36
29.0288	525.01
29.0432	528.67
29.0577	514.69
29.0721	510.03
29.0865	519.83
29.1010	480.91
29.1154	527.77
29.1299	510.10
29.1443	534.47
29.1587	525.11
29.1732	511.53
29.1876	527.79
29.2021	497.13
29.2165	480.02
29.2309	465.76
29.2454	502.37
29.2598	463.20
29.2743	467.91
29.2887	491.79
29.3031	532.65
29.3176	527.32
29.3320	503.62
29.3465	511.97
29.3609	504.83
29.3753	541.30
29.3898	486.74
29.4042	514.14
29.4187	515.89
29.4331	544.01
29.4475	510.38
29.4620	482.78
29.4764	535.41
29.4909	506.45
29.5053	492.81
29.5197	490.60
29.5342	488.11
29.5486	471.43
29.5631	519.74
29.5775	493.42
29.5919	501.71
29.6064	469.58
29.6208	515.72
29.6353	484.42
29.6497	456.21
29.6641	483.99
29.6786	489.23
29.6930	483.88
29.7075	497.41
29.7219	501.02
29.7363	511.13
29.7508	504.23
29.7652	476.92
29.7797	508.64
29.7941	538.69
29.8085	523.85
29.8230	513.24
29.8374	520.12
29.8519	489.12
29.8663	495.49
29.8807	479.08
29.8952	480.96
29.9096	523.05
29.9241	534.59
29.9385	537.87
29.9529	509.56
29.9674	522.62
29.9818	511.79
29.9963	514.13
30.0107	469.45
30.0251	525.37
30.0396	498.66
30.0540	507.54
30.0685	500.47
30.0829	500.31
30.0973	505.21
30.1118	478.88
30.1262	515.40
30.1407	482.74
30.1551	504.10
30.1695	519.80
30.1840	529.18
30.1984	489.00
30.2129	516.66
30.2273	482.85
30.2417	526.67
30.2562	507.04
30.2706	523.06
30.2851	525.65
30.2995	487.59
30.3139	496.71
30.3284	529.74
30.3428	486.46
30.3573	527.75
30.3717	526.08
30.3861	536.97
30.4006	530.80
30.4150	549.29
30.4295	587.02
30.4439	520.79
30.4583	530.33
30.4728	576.75
30.4872	577.31
30.5017	579.52
30.5161	589.77
30.5305	680.62
30.5450	715.48
30.5594	733.18
30.5739	755.77
30.5883	697.24
30.6028	718.99
30.6172	706.01
30.6316	730.35
30.6461	663.72
30.6605	664.30
30.6750	659.95
30.6894	631.64
30.7038	602.29
30.7183	554.06
30.7327	547.10
30.7472	558.93
30.7616	548.21
30.7760	525.92
30.7905	506.84
30.8049	521.69
30.8194	533.38
30.8338	512.86
30.8482	503.19
30.8627	537.64
30.8771	516.52
30.8916	531.75
30.9060	524.54
30.9204	484.79
30.9349	501.26
30.9493	497.58
30.9638	482.25
30.9782	530.80
30.9926	536.77
31.0071	505.67
31.0215	520.92
31.0360	522.69
31.0504	484.68
31.0648	510.40
31.0793	509.01
31.0937	485.93
31.1082	513.76
31.1226	518.61
31.1370	488.07
31.1515	470.35
31.1659	519.50
31.1804	536.45
31.1948	520.51
31.2092	529.65
31.2237	504.63
31.2381	512.17
31.2526	484.10
31.2670	520.69
31.2814	522.94
31.2959	535.14
31.3103	519.11
31.3248	514.12
31.3392	501.60
31.3536	526.68
31.3681	519.08
31.3825	514.19
31.3970	506.00
31.4114	504.19
31.4258	521.11
31.4403	533.22
31.4547	547.88
31.4692	532.38
31.4836	533.23
31.4980	511.64
31.5125	525.29
31.5269	497.68
31.5414	505.44
31.5558	530.31
31.5702	486.32
31.5847	501.36
31.5991	503.21
31.6136	489.41
31.6280	497.49
31.6424	474.51
31.6569	532.94
31.6713	521.37
31.6858	482.85
31.7002	503.31
31.7146	492.81
31.7291	524.44
31.7435	516.64
31.7580	483.00
31.7724	533.56
31.7868	535.13
31.8013	495.85
31.8157	506.90
31.8302	508.43
31.8446	488.77
31.8590	486.87
31.8735	516.75
31.8879	478.10
31.9024	496.28
31.9168	505.64
31.9312	495.89
31.9457	481.06
31.9601	523.82
31.9746	513.98
31.9890	528.23
32.0034	527.15
32.0179	516.94
32.0323	528.27
32.0468	515.41
32.0612	508.39
32.0756	529.02
32.0901	537.27
32.1045	509.39
32.1190	502.07
32.1334	471.22
32.1478	473.62
32.1623	499.04
32.1767	472.96
32.1912	483.41
32.2056	466.30
32.2200	509.17
32.2345	510.96
32.2489	502.57
32.2634	508.42
32.2778	502.21
32.2922	497.90
32.3067	488.42
32.3211	478.87
32.3356	521.34
32.3500	493.59
32.3644	520.89
32.3789	506.64
32.3933	528.80
32.4078	524.22
32.4222	524.10
32.4366	474.58
32.4511	468.51
32.4655	519.60
32.4800	566.27
32.4944	498.60
32.5088	465.43
32.5233	473.74
32.5377	500.08
32.5522	523.72
32.5666	522.50
32.5810	482.73
32.5955	516.10
32.6099	511.79
32.6244	489.17
32.6388	493.95
32.6532	479.82
32.6677	479.73
32.6821	495.53
32.6966	490.70
32.7110	496.96
32.7254	480.97
32.7399	490.19
32.7543	485.75
32.7688	484.27
32.7832	515.83
32.7976	491.51
32.8121	469.91
32.8265	467.39
32.8410	501.40
32.8554	523.20
32.8698	512.76
32.8843	495.55
32.8987	520.53
32.9132	535.75
32.9276	496.94
32.9420	532.48
32.9565	489.71
32.9709	482.59
32.9854	507.87
32.9998	494.16
33.0142	510.36
33.0287	539.75
33.0431	505.03
33.0576	498.36
33.0720	529.32
33.0864	519.42
33.1009	478.82
33.1153	493.67
33.1298	505.20
33.1442	464.83
33.1586	524.14
33.1731	522.48
33.1875	496.04
33.2020	488.60
33.2164	478.29
33.2308	495.03
33.2453	522.79
33.2597	493.81
33.2742	472.79
33.2886	512.15
33.3030	494.00
33.3175	531.09
33.3319	498.63
33.3464	505.70
33.3608	505.15
33.3752	536.65
33.3897	500.82
33.4041	499.23
33.4186	492.95
33.4330	545.80
33.4474	498.58
33.4619	499.53
33.4763	536.06
33.4908	509.09
33.5052	504.46
33.5196	476.90
33.5341	490.32
33.5485	501.49
33.5630	510.74
33.5774	532.00
33.5918	505.51
33.6063	511.25
33.6207	501.81
33.6352	474.04
33.6496	490.67
33.6640	511.86
33.6785	482.00
33.6929	492.75
33.7074	511.08
33.7218	511.40
33.7362	510.93
33.7507	518.09
33.7651	489.62
33.7796	527.17
33.7940	493.12
33.8084	485.50
33.8229	481.10
33.8373	504.17
33.8518	500.76
33.8662	492.65
33.8806	476.22
33.8951	485.08
33.9095	512.23
33.9240	487.25
33.9384	473.48
33.9528	487.58
33.9673	446.98
33.9817	513.68
33.9962	494.08
34.0106	471.93
34.0250	500.53
34.0395	511.80
34.0539	502.25
34.0684	470.77
34.0828	470.78
34.0972	476.54
34.1117	496.35
34.1261	505.23
34.1406	473.05
34.1550	513.83
34.1694	527.89
34.1839	528.69
34.1983	520.29
34.2128	516.78
34.2272	499.29
34.2417	508.37
34.2561	542.68
34.2705	509.90
34.2850	534.21
34.2994	523.34
34.3139	526.94
34.3283	511.54
34.3427	502.17
34.3572	491.38
34.3716	504.74
34.3861	512.99
34.4005	510.08
34.4149	543.41
34.4294	527.67
34.4438	503.17
34.4583	513.81
34.4727	531.46
34.4871	500.99
34.5016	478.61
34.5160	505.26
34.5305	470.14
34.5449	502.72
34.5593	489.36
34.5738	477.56
34.5882	527.22
34.6027	520.08
34.6171	503.65
34.6315	492.89
34.6460	459.31
34.6604	507.91
34.6749	530.36
34.6893	504.40
34.7037	539.30
34.7182	491.17
34.7326	508.34
34.7471	538.59
34.7615	534.65
34.7759	515.17
34.7904	511.98
34.8048	490.12
34.8193	496.80
34.8337	508.86
34.8481	512.15
34.8626	517.66
34.8770	507.03
34.8915	509.65
34.9059	501.78
34.9203	513.13
34.9348	486.66
34.9492	488.57
34.9637	478.37
34.9781	493.23
34.9925	494.95
35.0070	509.43
35.0214	495.93
35.0359	485.08
35.0503	474.80
35.0647	513.15
35.0792	520.33
35.0936	509.01
35.1081	503.35
35.1225	509.54
35.1369	497.08
35.1514	504.15
35.1658	496.08
35.1803	503.83
35.1947	521.92
35.2091	516.74
35.2236	506.03
35.2380	502.74
35.2525	498.74
35.2669	563.02
35.2813	535.85
35.2958	502.11
35.3102	487.36
35.3247	481.64
35.3391	512.00
35.3535	521.87
35.3680	546.59
35.3824	501.03
35.3969	522.82
35.4113	520.40
35.4257	549.29
35.4402	506.07
35.4546	509.90
35.4691	552.70
35.4835	528.97
35.4979	498.17
35.5124	501.43
35.5268	529.55
35.5413	530.55
35.5557	529.11
35.5701	510.18
35.5846	543.61
35.5990	540.20
35.6135	547.91
35.6279	528.40
35.6423	532.29
35.6568	524.21
35.6712	527.37
35.6857	591.80
35.7001	670.00
35.7145	758.14
35.7290	751.47
35.7434	667.28
35.7579	590.09
35.7723	619.10
35.7867	727.39
35.8012	757.69
35.8156	753.18
35.8301	748.69
35.8445	727.32
35.8589	760.59
35.8734	857.75
35.8878	995.47
35.9023	1065.27
35.9167	1113.30
35.9311	1290.87
35.9456	1643.67
35.9600	1944.67
35.9745	2082.72
35.9889	2314.55
36.0033	2745.28
36.0178	3105.97
36.0322	3261.06
36.0467	2680.18
36.0611	2117.98
36.0755	1878.56
36.0900	2143.75
36.1044	2129.52
36.1189	1563.40
36.1333	1316.42
36.1477	1148.88
36.1622	1084.42
36.1766	995.66
36.1911	837.27
36.2055	746.55
36.2199	755.24
36.2344	741.55
36.2488	647.07
36.2633	535.41
36.2777	613.11
36.2921	549.21
36.3066	538.43
36.3210	588.47
36.3355	586.82
36.3499	548.06
36.3643	525.90
36.3788	526.14
36.3932	508.15
36.4077	531.04
36.4221	554.96
36.4365	517.79
36.4510	482.96
36.4654	535.15
36.4799	569.61
36.4943	548.30
36.5087	547.92
36.5232	512.40
36.5376	534.46
36.5521	538.28
36.5665	560.77
36.5809	563.26
36.5954	536.91
36.6098	551.85
36.6243	544.09
36.6387	549.21
36.6531	513.83
36.6676	510.54
36.6820	512.86
36.6965	516.28
36.7109	549.03
36.7253	549.70
36.7398	532.41
36.7542	518.20
36.7687	529.31
36.7831	571.12
36.7975	543.22
36.8120	552.66
36.8264	565.62
36.8409	574.55
36.8553	601.09
36.8697	578.79
36.8842	594.20
36.8986	570.65
36.9131	596.13
36.9275	601.03
36.9419	579.62
36.9564	525.58
36.9708	541.94
36.9853	574.22
36.9997	536.73
37.0141	557.28
37.0286	532.21
37.0430	511.67
37.0575	523.39
37.0719	493.18
37.0863	514.14
37.1008	496.62
37.1152	503.65
37.1297	498.83
37.1441	487.92
37.1585	498.78
37.1730	503.31
37.1874	490.54
37.2019	512.33
37.2163	533.04
37.2307	475.51
37.2452	494.83
37.2596	465.17
37.2741	496.73
37.2885	542.93
37.3029	516.67
37.3174	549.04
37.3318	514.75
37.3463	489.64
37.3607	480.88
37.3751	526.46
37.3896	533.73
37.4040	517.74
37.4185	493.89
37.4329	526.81
37.4473	519.46
37.4618	502.90
37.4762	503.10
37.4907	507.29
37.5051	514.68
37.5195	521.80
37.5340	505.24
37.5484	488.83
37.5629	474.94
37.5773	476.35
37.5917	496.12
37.6062	516.12
37.6206	483.04
37.6351	530.68
37.6495	523.39
37.6639	527.11
37.6784	524.44
37.6928	521.09
37.7073	537.64
37.7217	489.97
37.7361	503.31
37.7506	513.74
37.7650	505.00
37.7795	507.78
37.7939	485.91
37.8083	540.11
37.8228	506.64
37.8372	483.16
37.8517	471.86
37.8661	487.66
37.8805	524.61
37.8950	517.14
37.9094	500.92
37.9239	497.74
37.9383	484.38
37.9528	468.35
37.9672	479.78
37.9816	510.61
37.9961	520.37
38.0105	474.15
38.0250	505.84
38.0394	498.21
38.0538	503.92
38.0683	495.21
38.0827	535.65
38.0972	542.52
38.1116	514.71
38.1260	508.29
38.1405	511.98
38.1549	493.58
38.1694	539.54
38.1838	544.51
38.1982	501.57
38.2127	496.81
38.2271	503.58
38.2416	511.12
38.2560	492.52
38.2704	512.05
38.2849	512.06
38.2993	475.94
38.3138	533.42
38.3282	526.97
38.3426	555.36
38.3571	531.82
38.3715	513.96
38.3860	517.86
38.4004	489.80
38.4148	489.55
38.4293	556.49
38.4437	562.31
38.4582	583.98
38.4726	642.31
38.4870	699.16
38.5015	744.77
38.5159	729.86
38.5304	754.08
38.5448	796.70
38.5592	787.75
38.5737	769.52
38.5881	758.67
38.6026	705.51
38.6170	715.82
38.6314	710.84
38.6459	675.27
38.6603	636.60
38.6748	619.52
38.6892	606.98
38.7036	583.12
38.7181	539.16
38.7325	492.45
38.7470	490.26
38.7614	476.36
38.7758	529.80
38.7903	511.67
38.8047	496.87
38.8192	524.77
38.8336	543.03
38.8480	517.98
38.8625	508.76
38.8769	526.68
38.8914	515.51
38.9058	533.30
38.9202	500.69
38.9347	489.41
38.9491	487.70
38.9636	484.77
38.9780	473.37
38.9924	491.63
39.0069	499.93
39.0213	524.03
39.0358	527.05
39.0502	507.33
39.0646	518.03
39.0791	519.52
39.0935	548.74
39.1080	479.22
39.1224	508.91
39.1368	544.10
39.1513	502.03
39.1657	503.98
39.1802	493.84
39.1946	518.49
39.2090	498.66
39.2235	524.32
39.2379	503.32
39.2524	518.75
39.2668	481.40
39.2812	482.21
39.2957	477.00
39.3101	516.42
39.3246	500.26
39.3390	540.05
39.3534	506.51
39.3679	482.41
39.3823	504.98
39.3968	515.97
39.4112	500.71
39.4256	504.93
39.4401	480.08
39.4545	503.14
39.4690	502.76
39.4834	504.64
39.4978	528.04
39.5123	475.88
39.5267	503.66
39.5412	522.98
39.5556	509.75
39.5700	496.08
39.5845	459.46
39.5989	460.55
39.6134	471.73
39.6278	472.96
39.6422	485.74
39.6567	494.13
39.6711	467.47
39.6856	485.60
39.7000	491.10
39.7144	513.17
39.7289	522.39
39.7433	536.00
39.7578	493.36
39.7722	511.40
39.7866	520.90
39.8011	493.47
39.8155	523.58
39.8300	477.92
39.8444	494.15
39.8588	498.34
39.8733	500.93
39.8877	475.45
39.9022	507.15
39.9166	486.28
39.9310	499.18
39.9455	500.40
39.9599	488.83
39.9744	499.80
39.9888	493.59
40.0032	478.80
40.0177	501.12
40.0321	494.12
40.0466	459.60
40.0610	491.01
40.0754	486.54
40.0899	487.27
40.1043	466.44
40.1188	535.01
40.1332	509.15
40.1476	524.10
40.1621	469.97
40.1765	479.91
40.1910	477.83
40.2054	498.15
40.2198	510.85
40.2343	516.25
40.2487	496.19
40.2632	497.40
40.2776	489.17
40.2920	485.09
40.3065	539.80
40.3209	501.61
40.3354	496.50
40.3498	491.53
40.3642	533.74
40.3787	508.84
40.3931	510.41
40.4076	482.11
40.4220	533.36
40.4364	509.23
40.4509	493.86
40.4653	547.21
40.4798	556.35
40.4942	517.31
40.5086	480.17
40.5231	488.52
40.5375	500.38
40.5520	484.46
40.5664	490.44
40.5808	514.66
40.5953	537.33
40.6097	486.12
40.6242	517.02
40.6386	514.15
40.6530	490.64
40.6675	512.97
40.6819	521.50
40.6964	514.74
40.7108	501.32
40.7252	487.80
40.7397	501.57
40.7541	517.48
40.7686	460.43
40.7830	468.00
40.7974	492.60
40.8119	492.15
40.8263	478.05
40.8408	466.56
40.8552	507.25
40.8696	504.75
40.8841	493.63
40.8985	491.17
40.9130	504.34
40.9274	485.55
40.9418	545.82
40.9563	454.46
40.9707	467.02
40.9852	477.43
40.9996	475.51
41.0140	504.98
41.0285	471.74
41.0429	474.38
41.0574	495.55
41.0718	485.90
41.0862	495.24
41.1007	478.63
41.1151	502.04
41.1296	517.47
41.1440	444.34
41.1584	456.33
41.1729	517.23
41.1873	482.26
41.2018	476.47
41.2162	482.06
41.2306	497.95
41.2451	511.97
41.2595	497.76
41.2740	471.69
41.2884	490.94
41.3028	508.19
41.3173	489.87
41.3317	512.32
41.3462	482.98
41.3606	503.18
41.3750	531.75
41.3895	496.95
41.4039	475.10
41.4184	450.21
41.4328	496.92
41.4472	511.44
41.4617	494.82
41.4761	514.24
41.4906	477.69
41.5050	489.12
41.5194	481.49
41.5339	481.71
41.5483	478.41
41.5628	522.38
41.5772	515.03
41.5916	515.90
41.6061	531.26
41.6205	495.57
41.6350	468.20
41.6494	446.01
41.6639	428.78
41.6783	453.46
41.6927	472.86
41.7072	506.19
41.7216	483.46
41.7361	470.51
41.7505	521.80
41.7649	524.37
41.7794	527.73
41.7938	522.27
41.8083	514.37
41.8227	491.36
41.8371	500.05
41.8516	529.04
41.8660	553.85
41.8805	532.24
41.8949	501.58
41.9093	564.09
41.9238	568.75
41.9382	566.79
41.9527	543.42
41.9671	531.84
41.9815	511.67
41.9960	518.37
42.0104	539.45
42.0249	564.03
42.0393	587.52
42.0537	592.64
42.0682	584.18
42.0826	569.12
42.0971	578.07
42.1115	586.76
42.1259	604.79
42.1404	619.52
42.1548	582.64
42.1693	669.29
42.1837	709.58
42.1981	747.37
42.2126	843.13
42.2270	913.21
42.2415	1094.11
42.2559	1210.63
42.2703	1378.51
42.2848	1514.07
42.2992	1592.59
42.3137	1666.24
42.3281	1672.11
42.3425	1615.70
42.3570	1484.19
42.3714	1451.17
42.3859	1377.32
42.4003	1311.07
42.4147	1321.66
42.4292	1292.58
42.4436	1160.58
42.4581	1037.54
42.4725	967.50
42.4869	870.60
42.5014	776.96
42.5158	748.30
42.5303	657.53
42.5447	633.52
42.5591	615.89
42.5736	601.05
42.5880	575.54
42.6025	557.69
42.6169	583.80
42.6313	585.34
42.6458	539.75
42.6602	553.31
42.6747	540.94
42.6891	513.05
42.7035	536.62
42.7180	559.22
42.7324	521.00
42.7469	511.12
42.7613	508.81
42.7757	513.09
42.7902	504.57
42.8046	521.23
42.8191	495.92
42.8335	539.00
42.8479	505.67
42.8624	558.70
42.8768	521.19
42.8913	479.62
42.9057	510.33
42.9201	543.14
42.9346	508.33
42.9490	477.71
42.9635	492.08
42.9779	525.03
42.9923	513.26
43.0068	508.83
43.0212	510.63
43.0357	489.01
43.0501	462.47
43.0645	514.77
43.0790	534.46
43.0934	532.60
43.1079	518.62
43.1223	544.08
43.1367	524.32
43.1512	501.46
43.1656	535.56
43.1801	525.52
43.1945	490.07
43.2089	498.99
43.2234	515.34
43.2378	549.10
43.2523	533.21
43.2667	507.18
43.2811	513.36
43.2956	494.01
43.3100	532.07
43.3245	548.23
43.3389	533.21
43.3533	506.82
43.3678	530.06
43.3822	537.17
43.3967	528.16
43.4111	480.22
43.4255	531.84
43.4400	501.88
43.4544	503.61
43.4689	509.89
43.4833	518.20
43.4977	507.91
43.5122	511.96
43.5266	499.11
43.5411	496.89
43.5555	564.69
43.5699	531.17
43.5844	514.75
43.5988	533.40
43.6133	532.24
43.6277	535.40
43.6421	535.73
43.6566	525.90
43.6710	523.03
43.6855	564.61
43.6999	604.09
43.7143	628.62
43.7288	632.44
43.7432	649.91
43.7577	695.04
43.7721	648.48
43.7865	636.27
43.8010	611.70
43.8154	601.28
43.8299	641.77
43.8443	616.72
43.8587	619.66
43.8732	612.73
43.8876	569.96
43.9021	571.75
43.9165	565.90
43.9309	531.33
43.9454	547.91
43.9598	539.52
43.9743	482.52
43.9887	513.95
44.0031	508.12
44.0176	510.47
44.0320	532.90
44.0465	520.62
44.0609	552.81
44.0753	516.12
44.0898	497.72
44.1042	515.02
44.1187	504.61
44.1331	537.28
44.1475	495.56
44.1620	508.68
44.1764	523.09
44.1909	506.31
44.2053	518.85
44.2197	529.23
44.2342	518.10
44.2486	515.61
44.2631	492.29
44.2775	550.48
44.2919	565.54
44.3064	533.36
44.3208	508.71
44.3353	539.70
44.3497	546.08
44.3641	577.17
44.3786	541.16
44.3930	534.68
44.4075	570.57
44.4219	533.91
44.4363	575.83
44.4508	590.96
44.4652	596.96
44.4797	585.67
44.4941	576.11
44.5085	547.45
44.5230	562.28
44.5374	591.44
44.5519	566.90
44.5663	564.55
44.5807	578.74
44.5952	562.25
44.6096	539.30
44.6241	553.24
44.6385	593.93
44.6529	562.74
44.6674	567.84
44.6818	594.88
44.6963	622.65
44.7107	683.93
44.7251	703.24
44.7396	718.61
44.7540	760.69
44.7685	862.09
44.7829	877.87
44.7973	886.79
44.8118	878.20
44.8262	890.40
44.8407	802.59
44.8551	716.98
44.8695	702.70
44.8840	720.42
44.8984	747.82
44.9129	667.05
44.9273	672.17
44.9417	675.55
44.9562	619.95
44.9706	601.45
44.9851	585.75
44.9995	558.58
45.0139	537.42
45.0284	534.14
45.0428	535.91
45.0573	531.24
45.0717	537.14
45.0861	563.98
45.1006	506.08
45.1150	521.14
45.1295	555.23
45.1439	522.35
45.1583	511.00
45.1728	504.51
45.1872	519.00
45.2017	506.58
45.2161	492.18
45.2305	497.11
45.2450	459.40
45.2594	503.43
45.2739	509.81
45.2883	491.63
45.3028	490.40
45.3172	495.76
45.3316	546.21
45.3461	488.72
45.3605	487.13
45.3750	488.23
45.3894	489.76
45.4038	480.57
45.4183	475.30
45.4327	451.17
45.4472	481.38
45.4616	523.03
45.4760	510.24
45.4905	468.65
45.5049	513.87
45.5194	491.35
45.5338	503.82
45.5482	483.21
45.5627	478.27
45.5771	517.66
45.5916	524.80
45.6060	499.89
45.6204	523.67
45.6349	511.47
45.6493	504.67
45.6638	502.32
45.6782	498.94
45.6926	458.01
45.7071	502.85
45.7215	526.60
45.7360	472.30
45.7504	491.94
45.7648	493.69
45.7793	486.11
45.7937	542.79
45.8082	517.11
45.8226	512.14
45.8370	525.84
45.8515	537.69
45.8659	524.71
45.8804	491.88
45.8948	489.76
45.9092	508.08
45.9237	529.16
45.9381	527.96
45.9526	468.25
45.9670	489.07
45.9814	509.80
45.9959	497.33
46.0103	530.17
46.0248	505.68
46.0392	522.30
46.0536	467.20
46.0681	484.45
46.0825	496.87
46.0970	504.81
46.1114	488.05
46.1258	521.40
46.1403	489.67
46.1547	474.03
46.1692	511.25
46.1836	478.51
46.1980	473.54
46.2125	485.13
46.2269	487.65
46.2414	496.80
46.2558	525.87
46.2702	522.74
46.2847	502.36
46.2991	480.97
46.3136	489.71
46.3280	529.39
46.3424	494.38
46.3569	509.60
46.3713	486.07
46.3858	490.38
46.4002	500.92
46.4146	473.20
46.4291	499.84
46.4435	495.53
46.4580	493.11
46.4724	499.00
46.4868	501.67
46.5013	506.69
46.5157	508.73
46.5302	545.49
46.5446	512.45
46.5590	477.92
46.5735	467.34
46.5879	463.22
46.6024	496.02
46.6168	489.57
46.6312	511.19
46.6457	482.58
46.6601	483.45
46.6746	514.59
46.6890	492.47
46.7034	487.57
46.7179	517.66
46.7323	483.90
46.7468	481.50
46.7612	506.37
46.7756	507.05
46.7901	496.11
46.8045	503.53
46.8190	504.95
46.8334	498.09
46.8478	524.51
46.8623	524.36
46.8767	513.86
46.8912	499.98
46.9056	506.08
46.9200	479.49
46.9345	498.71
46.9489	497.63
46.9634	480.36
46.9778	498.99
46.9922	514.22
47.0067	502.29
47.0211	521.52
47.0356	522.87
47.0500	522.16
47.0644	522.67
47.0789	510.46
47.0933	526.25
47.1078	485.75
47.1222	505.98
47.1366	491.90
47.1511	498.76
47.1655	532.57
47.1800	531.12
47.1944	500.96
47.2088	496.67
47.2233	499.35
47.2377	509.21
47.2522	505.15
47.2666	500.40
47.2810	524.00
47.2955	524.75
47.3099	517.71
47.3244	486.57
47.3388	529.81
47.3532	528.87
47.3677	502.90
47.3821	482.35
47.3966	501.06
47.4110	493.58
47.4254	514.50
47.4399	478.93
47.4543	453.69
47.4688	533.61
47.4832	513.20
47.4976	501.62
47.5121	484.17
47.5265	511.21
47.5410	522.82
47.5554	519.29
47.5698	490.11
47.5843	524.81
47.5987	519.78
47.6132	509.82
47.6276	528.32
47.6420	490.27
47.6565	485.44
47.6709	479.84
47.6854	487.65
47.6998	475.44
47.7142	479.60
47.7287	502.43
47.7431	528.12
47.7576	484.21
47.7720	496.48
47.7864	546.27
47.8009	518.27
47.8153	495.81
47.8298	507.24
47.8442	524.50
47.8586	515.01
47.8731	524.72
47.8875	543.45
47.9020	520.80
47.9164	495.36
47.9308	484.66
47.9453	463.04
47.9597	483.84
47.9742	497.38
47.9886	526.74
48.0030	475.33
48.0175	509.97
48.0319	518.69
48.0464	515.67
48.0608	559.55
48.0752	555.03
48.0897	508.17
48.1041	475.93
48.1186	502.92
48.1330	502.77
48.1474	471.62
48.1619	525.23
48.1763	492.35
48.1908	479.36
48.2052	506.01
48.2196	508.82
48.2341	501.94
48.2485	519.77
48.2630	511.57
48.2774	480.85
48.2918	476.37
48.3063	464.24
48.3207	519.41
48.3352	538.49
48.3496	490.59
48.3640	512.97
48.3785	510.54
48.3929	498.35
48.4074	490.03
48.4218	481.25
48.4362	513.27
48.4507	502.79
48.4651	490.37
48.4796	539.15
48.4940	499.31
48.5084	506.39
48.5229	481.16
48.5373	520.90
48.5518	532.93
48.5662	530.21
48.5806	524.15
48.5951	540.28
48.6095	536.56
48.6240	504.80
48.6384	545.50
48.6528	515.44
48.6673	508.81
48.6817	538.70
48.6962	534.61
48.7106	527.47
48.7250	494.00
48.7395	526.24
48.7539	510.73
48.7684	509.28
48.7828	540.87
48.7972	521.18
48.8117	516.37
48.8261	545.30
48.8406	552.53
48.8550	556.78
48.8694	524.92
48.8839	528.33
48.8983	543.50
48.9128	574.13
48.9272	541.93
48.9416	533.99
48.9561	551.71
48.9705	576.24
48.9850	559.32
48.9994	551.05
49.0139	572.38
49.0283	589.30
49.0427	613.30
49.0572	657.88
49.0716	627.80
49.0861	666.92
49.1005	694.65
49.1149	709.30
49.1294	744.10
49.1438	728.26
49.1583	807.18
49.1727	875.90
49.1871	862.40
49.2016	951.42
49.2160	1074.57
49.2305	1174.34
49.2449	1247.85
49.2593	1302.07
49.2738	1427.24
49.2882	1546.34
49.3027	1644.21
49.3171	1595.28
49.3315	1748.63
49.3460	1775.85
49.3604	1784.74
49.3749	1838.53
49.3893	1816.10
49.4037	1801.38
49.4182	1767.77
49.4326	1750.72
49.4471	1663.74
49.4615	1661.63
49.4759	1642.47
49.4904	1509.16
49.5048	1398.94
49.5193	1340.97
49.5337	1305.41
49.5481	1254.87
49.5626	1149.90
49.5770	1107.85
49.5915	978.99
49.6059	921.08
49.6203	859.89
49.6348	825.79
49.6492	786.11
49.6637	730.63
49.6781	714.38
49.6925	705.98
49.7070	659.65
49.7214	687.93
49.7359	634.35
49.7503	657.37
49.7647	630.50
49.7792	597.82
49.7936	561.07
49.8081	557.25
49.8225	564.25
49.8369	520.80
49.8514	524.00
49.8658	551.29
49.8803	541.62
49.8947	566.70
49.9091	580.31
49.9236	542.99
49.9380	579.71
49.9525	551.17
49.9669	482.02
49.9813	526.00
49.9958	546.76
50.0102	499.40
50.0247	504.36
50.0391	475.33
50.0535	485.17
50.0680	506.92
50.0824	518.04
50.0969	523.31
50.1113	534.92
50.1257	534.70
50.1402	536.05
50.1546	520.81
50.1691	516.00
50.1835	537.13
50.1979	545.04
50.2124	485.51
50.2268	497.55
50.2413	508.53
50.2557	491.43
50.2701	532.98
50.2846	504.92
50.2990	487.29
50.3135	518.86
50.3279	526.59
50.3423	540.76
50.3568	536.44
50.3712	535.07
50.3857	480.81
50.4001	480.69
50.4145	481.48
50.4290	534.08
50.4434	514.89
50.4579	511.20
50.4723	498.85
50.4867	529.26
50.5012	491.32
50.5156	485.35
50.5301	512.13
50.5445	486.76
50.5589	445.04
50.5734	485.24
50.5878	523.62
50.6023	485.35
50.6167	470.36
50.6311	483.82
50.6456	477.63
50.6600	503.14
50.6745	521.01
50.6889	529.66
50.7033	547.45
50.7178	524.81
50.7322	530.99
50.7467	524.67
50.7611	513.39
50.7755	528.41
50.7900	514.29
50.8044	539.12
50.8189	525.98
50.8333	533.86
50.8477	479.85
50.8622	491.40
50.8766	532.73
50.8911	509.42
50.9055	533.02
50.9199	510.33
50.9344	501.98
50.9488	517.61
50.9633	473.81
50.9777	457.52
50.9921	493.55
51.0066	518.23
51.0210	547.64
51.0355	536.46
51.0499	494.70
51.0643	485.52
51.0788	494.81
51.0932	518.94
51.1077	511.50
51.1221	511.82
51.1365	494.24
51.1510	479.11
51.1654	544.26
51.1799	550.14
51.1943	511.00
51.2087	525.45
51.2232	532.27
51.2376	505.82
51.2521	496.94
51.2665	497.38
51.2809	517.76
51.2954	489.85
51.3098	491.63
51.3243	524.47
51.3387	504.79
51.3531	504.47
51.3676	496.56
51.3820	486.97
51.3965	491.67
51.4109	495.08
51.4253	510.36
51.4398	494.18
51.4542	490.00
51.4687	532.22
51.4831	512.18
51.4975	512.21
51.5120	515.90
51.5264	478.60
51.5409	497.87
51.5553	488.38
51.5697	498.58
51.5842	479.64
51.5986	507.23
51.6131	528.70
51.6275	493.34
51.6419	505.31
51.6564	494.63
51.6708	503.24
51.6853	518.82
51.6997	510.80
51.7141	495.48
51.7286	487.43
51.7430	498.26
51.7575	495.82
51.7719	490.53
51.7863	501.13
51.8008	517.03
51.8152	517.89
51.8297	503.29
51.8441	495.73
51.8585	488.95
51.8730	479.07
51.8874	479.78
51.9019	496.09
51.9163	510.70
51.9307	525.73
51.9452	526.82
51.9596	502.62
51.9741	469.85
51.9885	484.93
52.0029	506.72
52.0174	481.17
52.0318	522.12
52.0463	512.17
52.0607	518.68
52.0751	519.74
52.0896	566.27
52.1040	512.49
52.1185	538.16
52.1329	520.35
52.1473	483.95
52.1618	488.85
52.1762	539.90
52.1907	525.63
52.2051	509.36
52.2195	497.83
52.2340	480.21
52.2484	531.38
52.2629	528.18
52.2773	525.77
52.2917	510.65
52.3062	524.49
52.3206	526.29
52.3351	500.18
52.3495	506.47
52.3639	499.01
52.3784	508.21
52.3928	503.87
52.4073	498.95
52.4217	528.53
52.4361	538.34
52.4506	494.75
52.4650	503.25
52.4795	508.71
52.4939	531.56
52.5083	507.30
52.5228	511.24
52.5372	532.67
52.5517	480.52
52.5661	527.38
52.5805	492.72
52.5950	501.61
52.6094	535.38
52.6239	488.93
52.6383	520.04
52.6527	506.61
52.6672	459.67
52.6816	483.89
52.6961	522.48
52.7105	547.82
52.7250	517.32
52.7394	526.57
52.7538	528.97
52.7683	495.67
52.7827	485.64
52.7972	539.51
52.8116	536.12
52.8260	519.55
52.8405	486.07
52.8549	474.34
52.8694	473.96
52.8838	475.81
52.8982	513.69
52.9127	506.70
52.9271	516.67
52.9416	510.94
52.9560	525.93
52.9704	487.64
52.9849	507.80
52.9993	524.37
53.0138	548.17
53.0282	503.96
53.0426	510.25
53.0571	517.17
53.0715	535.85
53.0860	535.32
53.1004	523.25
53.1148	514.41
53.1293	518.95
53.1437	505.74
53.1582	505.52
53.1726	503.93
53.1870	474.44
53.2015	508.98
53.2159	506.30
53.2304	486.84
53.2448	494.61
53.2592	515.18
53.2737	517.98
53.2881	530.20
53.3026	509.86
53.3170	501.25
53.3314	530.24
53.3459	521.02
53.3603	506.70
53.3748	497.01
53.3892	470.25
53.4036	470.78
53.4181	490.49
53.4325	524.31
53.4470	549.74
53.4614	489.32
53.4758	496.64
53.4903	485.95
53.5047	539.10
53.5192	513.72
53.5336	513.57
53.5480	484.06
53.5625	493.83
53.5769	496.19
53.5914	504.74
53.6058	505.13
53.6202	516.66
53.6347	513.42
53.6491	516.21
53.6636	505.08
53.6780	492.17
53.6924	495.08
53.7069	503.87
53.7213	503.83
53.7358	519.60
53.7502	507.96
53.7646	513.99
53.7791	525.26
53.7935	523.60
53.8080	530.93
53.8224	489.60
53.8368	504.93
53.8513	529.88
53.8657	525.14
53.8802	522.50
53.8946	498.33
53.9090	525.77
53.9235	521.36
53.9379	560.21
53.9524	503.06
53.9668	476.41
53.9812	511.45
53.9957	581.62
54.0101	511.11
54.0246	517.28
54.0390	517.62
54.0534	545.10
54.0679	532.98
54.0823	508.23
54.0968	519.57
54.1112	515.02
54.1256	516.11
54.1401	533.91
54.1545	529.57
54.1690	562.86
54.1834	568.01
54.1978	537.73
54.2123	568.27
54.2267	608.84
54.2412	619.32
54.2556	645.53
54.2700	631.56
54.2845	693.53
54.2989	662.65
54.3134	610.06
54.3278	615.32
54.3422	630.30
54.3567	602.11
54.3711	561.42
54.3856	577.95
54.4000	606.82
54.4144	597.03
54.4289	631.92
54.4433	602.30
54.4578	585.39
54.4722	582.79
54.4866	565.75
54.5011	509.23
54.5155	507.78
54.5300	492.14
54.5444	484.68
54.5588	515.68
54.5733	504.03
54.5877	508.53
54.6022	520.80
54.6166	510.09
54.6310	503.45
54.6455	506.67
54.6599	497.43
54.6744	551.49
54.6888	508.00
54.7032	515.84
54.7177	543.81
54.7321	511.99
54.7466	521.66
54.7610	514.13
54.7754	526.83
54.7899	534.73
54.8043	528.20
54.8188	535.96
54.8332	497.11
54.8476	478.37
54.8621	538.35
54.8765	504.66
54.8910	506.01
54.9054	522.29
54.9198	530.53
54.9343	512.83
54.9487	522.65
54.9632	495.29
54.9776	523.12
54.9920	504.14
55.0065	509.08
55.0209	544.75
55.0354	547.29
55.0498	510.78
55.0642	534.75
55.0787	547.58
55.0931	547.29
55.1076	502.02
55.1220	497.90
55.1364	531.56
55.1509	509.99
55.1653	526.85
55.1798	533.75
55.1942	492.40
55.2086	504.17
55.2231	513.09
55.2375	516.34
55.2520	539.66
55.2664	523.40
55.2808	518.76
55.2953	509.02
55.3097	506.36
55.3242	518.93
55.3386	513.67
55.3530	519.59
55.3675	518.02
55.3819	505.74
55.3964	517.87
55.4108	490.29
55.4252	543.83
55.4397	508.00
55.4541	509.73
55.4686	536.59
55.4830	508.79
55.4974	518.24
55.5119	513.56
55.5263	547.42
55.5408	538.91
55.5552	552.81
55.5696	534.48
55.5841	520.85
55.5985	509.62
55.6130	525.84
55.6274	534.04
55.6418	527.91
55.6563	554.75
55.6707	529.84
55.6852	494.93
55.6996	539.47
55.7140	530.95
55.7285	544.89
55.7429	534.14
55.7574	538.51
55.7718	529.23
55.7862	548.07
55.8007	535.06
55.8151	526.30
55.8296	510.07
55.8440	500.40
55.8584	516.54
55.8729	522.89
55.8873	504.76
55.9018	512.30
55.9162	529.88
55.9306	541.73
55.9451	543.20
55.9595	515.22
55.9740	518.14
55.9884	504.86
56.0028	538.71
56.0173	524.40
56.0317	524.28
56.0462	499.15
56.0606	521.31
56.0750	544.67
56.0895	582.31
56.1039	534.19
56.1184	507.22
56.1328	550.01
56.1472	491.94
56.1617	509.04
56.1761	519.64
56.1906	509.14
56.2050	511.06
56.2194	545.64
56.2339	516.39
56.2483	515.46
56.2628	535.94
56.2772	539.92
56.2916	519.64
56.3061	539.41
56.3205	508.32
56.3350	528.79
56.3494	529.05
56.3639	507.44
56.3783	520.02
56.3927	487.43
56.4072	491.09
56.4216	511.88
56.4361	573.38
56.4505	524.94
56.4649	529.11
56.4794	563.84
56.4938	511.98
56.5083	501.61
56.5227	520.99
56.5371	505.36
56.5516	512.27
56.5660	495.47
56.5805	471.94
56.5949	533.41
56.6093	522.74
56.6238	523.54
56.6382	474.39
56.6527	491.35
56.6671	509.95
56.6815	478.48
56.6960	486.48
56.7104	526.87
56.7249	513.26
56.7393	507.00
56.7537	507.67
56.7682	525.72
56.7826	523.59
56.7971	503.45
56.8115	499.05
56.8259	545.98
56.8404	538.62
56.8548	536.68
56.8693	486.05
56.8837	507.43
56.8981	491.13
56.9126	522.02
56.9270	503.67
56.9415	516.31
56.9559	494.74
56.9703	504.56
56.9848	562.37
56.9992	517.68
57.0137	510.32
57.0281	544.43
57.0425	483.74
57.0570	511.52
57.0714	545.18
57.0859	568.44
57.1003	534.26
57.1147	521.61
57.1292	505.15
57.1436	521.45
57.1581	499.54
57.1725	526.90
57.1869	489.04
57.2014	506.29
57.2158	528.38
57.2303	529.50
57.2447	538.95
57.2591	536.14
57.2736	533.48
57.2880	522.20
57.3025	529.34
57.3169	502.90
57.3313	541.26
57.3458	526.22
57.3602	522.21
57.3747	485.02
57.3891	464.70
57.4035	496.59
57.4180	518.94
57.4324	542.64
57.4469	513.88
57.4613	556.42
57.4757	549.10
57.4902	537.99
57.5046	497.25
57.5191	520.09
57.5335	584.41
57.5479	519.08
57.5624	518.65
57.5768	535.90
57.5913	529.55
57.6057	533.37
57.6201	518.37
57.6346	488.60
57.6490	480.53
57.6635	512.61
57.6779	527.64
57.6923	510.15
57.7068	547.32
57.7212	577.96
57.7357	564.64
57.7501	546.87
57.7645	575.39
57.7790	594.17
57.7934	544.01
57.8079	637.74
57.8223	616.52
57.8367	687.02
57.8512	699.77
57.8656	740.04
57.8801	713.45
57.8945	757.50
57.9089	733.71
57.9234	724.97
57.9378	720.01
57.9523	660.75
57.9667	625.63
57.9811	648.44
57.9956	665.08
58.0100	669.15
58.0245	701.04
58.0389	646.48
58.0533	657.71
58.0678	682.34
58.0822	618.66
58.0967	582.36
58.1111	600.52
58.1255	600.82
58.1400	586.27
58.1544	565.65
58.1689	545.10
58.1833	562.70
58.1977	547.28
58.2122	558.82
58.2266	572.35
58.2411	562.99
58.2555	519.06
58.2699	529.59
58.2844	554.08
58.2988	542.07
58.3133	581.87
58.3277	539.31
58.3421	518.07
58.3566	511.93
58.3710	525.95
58.3855	518.37
58.3999	510.25
58.4143	543.48
58.4288	539.66
58.4432	531.14
58.4577	538.34
58.4721	580.06
58.4865	555.63
58.5010	515.36
58.5154	525.21
58.5299	557.60
58.5443	525.70
58.5587	496.33
58.5732	503.39
58.5876	509.31
58.6021	504.70
58.6165	503.93
58.6309	519.06
58.6454	498.51
58.6598	486.08
58.6743	500.14
58.6887	506.48
58.7031	539.87
58.7176	552.54
58.7320	527.82
58.7465	564.26
58.7609	523.75
58.7753	538.51
58.7898	522.28
58.8042	519.92
58.8187	531.93
58.8331	520.18
58.8475	526.12
58.8620	555.97
58.8764	513.31
58.8909	506.93
58.9053	535.26
58.9197	526.18
58.9342	510.35
58.9486	531.34
58.9631	515.87
58.9775	512.07
58.9919	527.96
59.0064	539.10
59.0208	556.88
59.0353	553.80
59.0497	538.18
59.0641	547.78
59.0786	545.45
59.0930	560.04
59.1075	526.92
59.1219	500.17
59.1363	507.00
59.1508	517.94
59.1652	512.72
59.1797	524.41
59.1941	524.87
59.2085	528.09
59.2230	559.66
59.2374	565.89
59.2519	556.17
59.2663	538.88
59.2807	545.12
59.2952	545.28
59.3096	529.03
59.3241	581.86
59.3385	537.31
59.3529	554.27
59.3674	573.28
59.3818	544.18
59.3963	546.06
59.4107	535.49
59.4251	575.45
59.4396	556.55
59.4540	522.22
59.4685	568.36
59.4829	580.27
59.4973	543.15
59.5118	585.99
59.5262	562.11
59.5407	537.01
59.5551	532.64
59.5695	522.90
59.5840	536.99
59.5984	542.95
59.6129	532.86
59.6273	538.96
59.6417	542.60
59.6562	510.38
59.6706	503.86
59.6851	532.49
59.6995	542.92
59.7139	530.07
59.7284	562.64
59.7428	506.79
59.7573	554.16
59.7717	529.73
59.7861	522.08
59.8006	548.12
59.8150	562.13
59.8295	571.78
59.8439	544.72
59.8583	543.86
59.8728	564.88
59.8872	513.94
59.9017	527.03
59.9161	511.71
59.9305	529.94
59.9450	562.60
59.9594	483.63
59.9739	546.66
59.9883	541.84
60.0027	540.61
60.0172	500.78
60.0316	518.94
60.0461	549.17
60.0605	558.57
60.0750	492.62
60.0894	539.40
60.1038	528.70
60.1183	509.44
60.1327	564.98
60.1472	504.36
60.1616	527.92
60.1760	568.71
60.1905	518.65
60.2049	509.66
60.2194	541.15
60.2338	540.80
60.2482	523.26
60.2627	504.53
60.2771	513.03
60.2916	548.50
60.3060	510.68
60.3204	510.78
60.3349	548.47
60.3493	549.25
60.3638	555.10
60.3782	529.46
60.3926	505.78
60.4071	521.77
60.4215	544.21
60.4360	579.88
60.4504	514.01
60.4648	512.69
60.4793	541.06
60.4937	566.86
60.5082	545.71
60.5226	533.25
60.5370	497.72
60.5515	538.13
60.5659	539.76
60.5804	510.26
60.5948	536.82
60.6092	541.68
60.6237	515.59
60.6381	549.96
60.6526	521.84
60.6670	526.03
60.6814	557.30
60.6959	534.06
60.7103	556.11
60.7248	539.65
60.7392	518.46
60.7536	526.61
60.7681	552.00
60.7825	556.21
60.7970	538.88
60.8114	503.05
60.8258	562.52
60.8403	524.51
60.8547	570.89
60.8692	560.86
60.8836	501.28
60.8980	573.56
60.9125	544.47
60.9269	550.26
60.9414	551.08
60.9558	557.55
60.9702	537.78
60.9847	552.38
60.9991	543.30
61.0136	547.21
61.0280	546.26
61.0424	540.30
61.0569	556.40
61.0713	537.27
61.0858	549.92
61.1002	532.59
61.1146	532.05
61.1291	559.48
61.1435	513.13
61.1580	547.53
61.1724	550.89
61.1868	531.97
61.2013	542.54
61.2157	532.07
61.2302	547.55
61.2446	575.80
61.2590	522.59
61.2735	541.46
61.2879	565.19
61.3024	557.26
61.3168	548.38
61.3312	568.39
61.3457	536.28
61.3601	567.72
61.3746	548.28
61.3890	526.65
61.4034	540.79
61.4179	542.10
61.4323	559.31
61.4468	540.42
61.4612	558.68
61.4756	540.31
61.4901	546.37
61.5045	527.01
61.5190	533.22
61.5334	532.26
61.5478	551.48
61.5623	524.99
61.5767	553.32
61.5912	551.97
61.6056	525.84
61.6200	495.39
61.6345	518.92
61.6489	521.27
61.6634	526.20
61.6778	520.88
61.6922	534.89
61.7067	569.47
61.7211	559.81
61.7356	547.33
61.7500	567.56
61.7644	564.02
61.7789	559.57
61.7933	568.17
61.8078	547.70
61.8222	556.28
61.8366	579.02
61.8511	554.10
61.8655	532.32
61.8800	533.78
61.8944	551.25
61.9088	573.29
61.9233	570.11
61.9377	568.42
61.9522	560.67
61.9666	534.29
61.9810	538.49
61.9955	544.73
62.0099	526.15
62.0244	566.77
62.0388	542.04
62.0532	540.15
62.0677	570.22
62.0821	555.71
62.0966	550.36
62.1110	524.42
62.1254	553.98
62.1399	551.47
62.1543	556.63
62.1688	534.55
62.1832	545.24
62.1976	535.77
62.2121	561.33
62.2265	540.03
62.2410	541.00
62.2554	563.47
62.2698	560.09
62.2843	553.94
62.2987	535.44
62.3132	515.44
62.3276	538.35
62.3420	570.18
62.3565	566.45
62.3709	571.13
62.3854	538.03
62.3998	520.79
62.4142	512.51
62.4287	573.78
62.4431	569.78
62.4576	530.90
62.4720	541.52
62.4864	540.22
62.5009	529.41
62.5153	559.76
62.5298	535.95
62.5442	548.72
62.5586	542.44
62.5731	541.20
62.5875	579.14
62.6020	560.40
62.6164	562.10
62.6308	576.71
62.6453	559.94
62.6597	561.03
62.6742	550.16
62.6886	517.75
62.7030	511.85
62.7175	531.92
62.7319	546.39
62.7464	580.93
62.7608	547.25
62.7752	560.73
62.7897	562.57
62.8041	578.38
62.8186	615.87
62.8330	567.74
62.8474	575.99
62.8619	548.17
62.8763	579.30
62.8908	579.80
62.9052	573.13
62.9196	587.13
62.9341	576.97
62.9485	586.37
62.9630	565.24
62.9774	586.72
62.9918	569.89
63.0063	596.77
63.0207	591.56
63.0352	605.28
63.0496	613.25
63.0640	594.28
63.0785	515.40
63.0929	547.50
63.1074	555.27
63.1218	585.07
63.1362	574.41
63.1507	546.95
63.1651	563.27
63.1796	585.24
63.1940	571.37
63.2084	551.07
63.2229	539.04
63.2373	568.91
63.2518	574.65
63.2662	558.34
63.2806	582.79
63.2951	569.37
63.3095	577.47
63.3240	587.36
63.3384	579.64
63.3528	582.24
63.3673	605.95
63.3817	591.03
63.3962	638.81
63.4106	606.61
63.4250	668.44
63.4395	640.91
63.4539	644.28
63.4684	721.20
63.4828	756.54
63.4972	749.20
63.5117	764.07
63.5261	869.55
63.5406	919.17
63.5550	941.64
63.5694	956.20
63.5839	985.04
63.5983	920.84
63.6128	879.36
63.6272	855.61
63.6416	805.35
63.6561	771.27
63.6705	782.02
63.6850	755.66
63.6994	756.01
63.7138	820.03
63.7283	790.16
63.7427	839.88
63.7572	814.75
63.7716	786.74
63.7861	755.32
63.8005	772.74
63.8149	751.77
63.8294	672.56
63.8438	660.10
63.8583	673.48
63.8727	638.72
63.8871	589.85
63.9016	605.75
63.9160	601.17
63.9305	626.49
63.9449	605.84
63.9593	586.29
63.9738	614.04
63.9882	649.99
64.0027	616.98
64.0171	642.49
64.0315	601.33
64.0460	578.35
64.0604	583.34
64.0749	630.30
64.0893	623.74
64.1037	579.68
64.1182	595.64
64.1326	615.64
64.1471	606.84
64.1615	580.88
64.1759	585.25
64.1904	581.85
64.2048	570.72
64.2193	596.81
64.2337	623.21
64.2481	608.64
64.2626	578.52
64.2770	589.39
64.2915	583.41
64.3059	578.71
64.3203	610.74
64.3348	620.09
64.3492	595.74
64.3637	557.67
64.3781	607.01
64.3925	592.20
64.4070	596.05
64.4214	621.18
64.4359	609.92
64.4503	576.96
64.4647	630.92
64.4792	601.64
64.4936	605.29
64.5081	579.55
64.5225	602.24
64.5369	665.20
64.5514	640.99
64.5658	662.43
64.5803	633.57
64.5947	645.24
64.6091	656.91
64.6236	615.57
64.6380	626.08
64.6525	625.37
64.6669	682.46
64.6813	644.47
64.6958	644.06
64.7102	668.31
64.7247	663.93
64.7391	663.63
64.7535	718.49
64.7680	688.73
64.7824	705.56
64.7969	694.44
64.8113	736.29
64.8257	788.93
64.8402	796.13
64.8546	836.17
64.8691	807.24
64.8835	808.05
64.8979	895.07
64.9124	839.89
64.9268	871.71
64.9413	929.16
64.9557	921.92
64.9701	962.04
64.9846	1008.45
64.9990	1069.87
65.0135	1262.87
65.0279	1406.70
65.0423	1603.64
65.0568	1960.93
65.0712	2475.90
65.0857	3230.75
65.1001	4187.77
65.1145	5836.15
65.1290	7802.09
65.1434	9260.03
65.1579	10589.49
65.1723	11399.86
65.1867	11066.64
65.2012	9888.51
65.2156	8320.64
65.2301	6664.15
65.2445	5300.99
65.2589	4367.00
65.2734	4106.94
65.2878	4223.34
65.3023	4756.52
65.3167	5583.06
65.3311	6366.32
65.3456	6951.52
65.3600	6859.59
65.3745	6419.20
65.3889	5538.65
65.4033	4374.71
65.4178	3472.51
65.4322	2771.29
65.4467	2075.86
65.4611	1748.81
65.4755	1483.41
65.4900	1275.39
65.5044	1160.90
65.5189	997.84
65.5333	947.51
65.5477	941.75
65.5622	869.92
65.5766	907.45
65.5911	812.76
65.6055	819.05
65.6199	803.27
65.6344	821.14
65.6488	752.93
65.6633	729.19
65.6777	736.35
65.6921	698.78
65.7066	703.38
65.7210	648.46
65.7355	674.68
65.7499	673.11
65.7643	682.44
65.7788	667.85
65.7932	663.26
65.8077	669.77
65.8221	649.83
65.8365	645.55
65.8510	630.94
65.8654	659.06
65.8799	618.51
65.8943	672.49
65.9087	653.06
65.9232	634.45
65.9376	641.84
65.9521	629.80
65.9665	637.01
65.9809	670.18
65.9954	622.31
66.0098	652.71
66.0243	649.65
66.0387	627.08
66.0531	605.83
66.0676	610.58
66.0820	623.78
66.0965	636.41
66.1109	637.83
66.1253	613.65
66.1398	607.40
66.1542	613.69
66.1687	608.33
66.1831	580.11
66.1975	597.38
66.2120	598.96
66.2264	647.31
66.2409	623.80
66.2553	595.85
66.2697	576.82
66.2842	589.95
66.2986	593.83
66.3131	618.76
66.3275	623.44
66.3419	613.46
66.3564	579.78
66.3708	565.82
66.3853	587.91
66.3997	599.37
66.4141	622.69
66.4286	604.43
66.4430	606.12
66.4575	578.58
66.4719	622.64
66.4863	590.41
66.5008	582.22
66.5152	589.55
66.5297	567.81
66.5441	589.58
66.5585	570.31
66.5730	589.23
66.5874	553.84
66.6019	576.67
66.6163	596.93
66.6307	554.01
66.6452	598.34
66.6596	612.19
66.6741	597.10
66.6885	544.80
66.7029	575.99
66.7174	589.00
66.7318	586.01
66.7463	636.31
66.7607	602.76
66.7751	571.93
66.7896	581.18
66.8040	596.93
66.8185	613.51
66.8329	570.55
66.8473	566.88
66.8618	546.30
66.8762	588.14
66.8907	587.67
66.9051	618.17
66.9195	585.16
66.9340	569.94
66.9484	583.23
66.9629	573.23
66.9773	550.81
66.9917	589.69
67.0062	592.34
67.0206	610.83
67.0351	628.37
67.0495	584.25
67.0639	545.32
67.0784	558.82
67.0928	612.65
67.1073	607.97
67.1217	575.93
67.1361	555.31
67.1506	580.48
67.1650	629.77
67.1795	568.93
67.1939	553.10
67.2083	599.82
67.2228	586.57
67.2372	617.77
67.2517	586.16
67.2661	543.41
67.2805	584.99
67.2950	550.55
67.3094	580.17
67.3239	554.13
67.3383	585.71
67.3527	562.98
67.3672	546.89
67.3816	564.32
67.3961	570.15
67.4105	581.85
67.4250	593.99
67.4394	596.67
67.4538	576.45
67.4683	596.78
67.4827	631.91
67.4972	638.15
67.5116	605.31
67.5260	577.68
67.5405	525.46
67.5549	537.09
67.5694	577.21
67.5838	573.65
67.5982	590.07
67.6127	585.08
67.6271	568.76
67.6416	576.55
67.6560	592.05
67.6704	556.80
67.6849	545.56
67.6993	529.39
67.7138	575.80
67.7282	536.16
67.7426	554.18
67.7571	558.21
67.7715	558.33
67.7860	574.22
67.8004	557.31
67.8148	579.96
67.8293	582.28
67.8437	568.82
67.8582	566.25
67.8726	574.07
67.8870	569.39
67.9015	550.34
67.9159	537.76
67.9304	526.88
67.9448	568.59
67.9592	550.72
67.9737	569.80
67.9881	594.25
68.0026	574.87
68.0170	584.11
68.0314	591.40
68.0459	568.80
68.0603	568.83
68.0748	588.65
68.0892	589.65
68.1036	553.04
68.1181	588.61
68.1325	618.88
68.1470	573.59
68.1614	570.16
68.1758	601.78
68.1903	567.62
68.2047	601.35
68.2192	554.40
68.2336	609.52
68.2480	557.88
68.2625	562.15
68.2769	563.39
68.2914	561.92
68.3058	548.48
68.3202	555.18
68.3347	581.18
68.3491	571.86
68.3636	596.49
68.3780	577.53
68.3924	505.04
68.4069	559.64
68.4213	558.12
68.4358	608.08
68.4502	581.60
68.4646	556.24
68.4791	590.39
68.4935	620.80
68.5080	586.23
68.5224	570.51
68.5368	593.39
68.5513	574.02
68.5657	581.62
68.5802	553.62
68.5946	544.99
68.6090	551.92
68.6235	548.61
68.6379	544.12
68.6524	593.38
68.6668	576.58
68.6812	566.54
68.6957	574.29
68.7101	602.01
68.7246	556.43
68.7390	567.62
68.7534	586.61
68.7679	549.54
68.7823	553.06
68.7968	560.16
68.8112	579.70
68.8256	572.83
68.8401	581.40
68.8545	560.37
68.8690	553.74
68.8834	578.57
68.8978	527.50
68.9123	559.28
68.9267	577.52
68.9412	562.51
68.9556	527.31
68.9700	550.24
68.9845	550.34
68.9989	613.77
69.0134	564.26
69.0278	544.72
69.0422	556.14
69.0567	548.01
69.0711	570.72
69.0856	560.98
69.1000	564.68
69.1144	576.31
69.1289	607.64
69.1433	515.62
69.1578	550.25
69.1722	596.95
69.1866	590.76
69.2011	570.68
69.2155	549.37
69.2300	544.19
69.2444	575.59
69.2588	594.88
69.2733	588.98
69.2877	578.97
69.3022	488.42
69.3166	568.94
69.3310	576.88
69.3455	555.85
69.3599	565.59
69.3744	546.66
69.3888	558.37
69.4032	536.50
69.4177	526.50
69.4321	579.97
69.4466	600.72
69.4610	564.83
69.4754	578.43
69.4899	572.77
69.5043	549.29
69.5188	534.38
69.5332	545.09
69.5476	616.94
69.5621	570.64
69.5765	576.66
69.5910	577.87
69.6054	560.43
69.6198	554.97
69.6343	580.96
69.6487	588.25
69.6632	578.56
69.6776	527.62
69.6920	507.94
69.7065	566.27
69.7209	547.93
69.7354	552.73
69.7498	599.39
69.7642	580.93
69.7787	648.63
69.7931	552.59
69.8076	590.51
69.8220	557.53
69.8364	601.06
69.8509	606.42
69.8653	620.57
69.8798	618.59
69.8942	610.45
69.9086	554.40
69.9231	585.57
69.9375	632.19
69.9520	578.83
69.9664	577.44
69.9808	558.70
69.9953	594.59
70.0097	580.09
70.0242	613.68
70.0386	605.65
70.0530	617.03
70.0675	555.72
70.0819	596.21
70.0964	555.86
70.1108	542.04
70.1252	548.95
70.1397	512.72
70.1541	578.63
70.1686	556.87
70.1830	542.48
70.1974	591.99
70.2119	597.64
70.2263	577.30
70.2408	602.87
70.2552	611.49
70.2696	546.31
70.2841	573.95
70.2985	582.81
70.3130	596.99
70.3274	593.30
70.3418	553.91
70.3563	519.89
70.3707	578.16
70.3852	569.77
70.3996	597.15
70.4140	548.57
70.4285	636.88
70.4429	577.51
70.4574	560.43
70.4718	607.20
70.4862	553.56
70.5007	568.99
70.5151	585.08
70.5296	566.85
70.5440	557.62
70.5584	569.89
70.5729	558.99
70.5873	536.22
70.6018	515.87
70.6162	531.41
70.6306	564.97
70.6451	584.84
70.6595	584.32
70.6740	573.34
70.6884	520.31
70.7028	526.40
70.7173	578.67
70.7317	530.75
70.7462	558.34
70.7606	573.09
70.7750	581.82
70.7895	602.54
70.8039	530.17
70.8184	577.36
70.8328	577.58
70.8472	542.41
70.8617	561.30
70.8761	602.26
70.8906	557.89
70.9050	558.10
70.9194	610.30
70.9339	639.45
70.9483	638.17
70.9628	579.94
70.9772	601.70
70.9916	581.41
71.0061	584.84
71.0205	572.91
71.0350	501.31
71.0494	494.31
71.0638	548.47
71.0783	600.15
71.0927	596.33
71.1072	536.42
71.1216	541.84
71.1361	575.34
71.1505	553.39
71.1649	571.09
71.1794	594.07
71.1938	570.06
71.2083	535.69
71.2227	578.23
71.2371	572.12
71.2516	518.06
71.2660	568.88
71.2805	565.08
71.2949	541.62
71.3093	564.36
71.3238	563.96
71.3382	606.82
71.3527	580.74
71.3671	572.52
71.3815	565.72
71.3960	559.23
71.4104	599.25
71.4249	606.17
71.4393	604.78
71.4537	605.53
71.4682	566.68
71.4826	564.75
71.4971	561.14
71.5115	537.07
71.5259	519.13
71.5404	536.02
71.5548	602.04
71.5693	571.91
71.5837	541.84
71.5981	514.29
71.6126	561.86
71.6270	616.95
71.6415	576.41
71.6559	543.78
71.6703	536.50
71.6848	528.86
71.6992	607.35
71.7137	619.26
71.7281	621.81
71.7425	597.88
71.7570	583.79
71.7714	612.00
71.7859	590.59
71.8003	571.87
71.8147	634.80
71.8292	631.17
71.8436	557.57
71.8581	554.72
71.8725	599.98
71.8869	574.59
71.9014	616.52
71.9158	595.85
71.9303	600.38
71.9447	595.78
71.9591	630.25
71.9736	587.90
71.9880	543.17
72.0025	599.75
72.0169	580.06
72.0313	587.26
72.0458	613.09
72.0602	580.71
72.0747	616.05
72.0891	649.66
72.1035	643.68
72.1180	625.69
72.1324	587.79
72.1469	530.85
72.1613	585.67
72.1757	589.94
72.1902	548.12
72.2046	559.41
72.2191	611.50
72.2335	596.13
72.2479	594.90
72.2624	541.44
72.2768	565.56
72.2913	592.53
72.3057	607.09
72.3201	529.73
72.3346	544.00
72.3490	617.03
72.3635	632.28
72.3779	594.10
72.3923	577.75
72.4068	635.80
72.4212	692.47
72.4357	651.17
72.4501	565.44
72.4645	548.93
72.4790	578.73
72.4934	575.93
72.5079	568.49
72.5223	564.24
72.5367	542.06
72.5512	562.32
72.5656	528.70
72.5801	522.63
72.5945	530.88
72.6089	497.10
72.6234	522.25
72.6378	505.73
72.6523	511.27
72.6667	623.05
72.6811	650.24
72.6956	572.76
72.7100	597.37
72.7245	657.04
72.7389	656.32
72.7533	610.67
72.7678	613.20
72.7822	605.80
72.7967	563.39
72.8111	593.17
72.8255	666.04
72.8400	607.21
72.8544	500.10
72.8689	513.61
72.8833	564.89