2022.09.19 19:37:17
Îáðàçåö: ß÷åéêà LCoV 16-09-2022
Lambda1 = 1.54060
Lambda2 = 1.54439
Lambdam = 1.54186
R = 0.497
2Theta	I

line¹ 0 ;repeat¹ 0
22.1120	616.53
22.1264	565.75
22.1409	470.75
22.1553	524.77
22.1697	616.81
22.1842	643.03
22.1986	558.19
22.2131	590.83
22.2275	496.90
22.2419	564.32
22.2564	509.97
22.2708	610.74
22.2853	619.61
22.2997	643.25
22.3141	546.34
22.3286	540.19
22.3430	552.55
22.3575	598.78
22.3719	524.53
22.3863	592.00
22.4008	626.06
22.4152	630.73
22.4297	693.15
22.4441	579.69
22.4585	603.07
22.4730	601.98
22.4874	514.52
22.5019	519.84
22.5163	559.37
22.5307	540.72
22.5452	518.45
22.5596	637.17
22.5741	640.74
22.5885	607.77
22.6029	566.91
22.6174	493.69
22.6318	469.99
22.6463	573.46
22.6607	597.22
22.6751	457.58
22.6896	526.51
22.7040	633.41
22.7185	597.03
22.7329	610.48
22.7473	542.81
22.7618	500.85
22.7762	581.63
22.7907	628.81
22.8051	545.50
22.8195	600.48
22.8340	530.64
22.8484	576.85
22.8629	645.50
22.8773	621.02
22.8917	580.82
22.9062	562.15
22.9206	549.24
22.9351	519.05
22.9495	524.58
22.9639	576.59
22.9784	574.89
22.9928	577.23
23.0073	512.37
23.0217	594.57
23.0361	492.36
23.0506	460.40
23.0650	550.71
23.0795	561.44
23.0939	587.73
23.1083	577.38
23.1228	626.81
23.1372	512.46
23.1517	533.29
23.1661	550.50
23.1806	523.34
23.1950	545.28
23.2094	536.51
23.2239	516.89
23.2383	506.04
23.2528	540.67
23.2672	556.73
23.2816	560.94
23.2961	559.79
23.3105	576.40
23.3250	619.35
23.3394	605.66
23.3538	562.83
23.3683	505.98
23.3827	512.00
23.3972	519.42
23.4116	519.92
23.4260	549.99
23.4405	568.52
23.4549	497.00
23.4694	547.43
23.4838	581.35
23.4982	527.53
23.5127	492.97
23.5271	561.01
23.5416	525.41
23.5560	544.14
23.5704	572.63
23.5849	605.24
23.5993	575.48
23.6138	530.85
23.6282	578.19
23.6426	592.95
23.6571	543.63
23.6715	527.91
23.6860	492.74
23.7004	511.71
23.7148	541.10
23.7293	555.13
23.7437	588.74
23.7582	591.11
23.7726	550.40
23.7870	593.33
23.8015	503.04
23.8159	607.12
23.8304	586.41
23.8448	535.19
23.8592	577.47
23.8737	532.55
23.8881	540.10
23.9026	599.35
23.9170	568.25
23.9314	535.22
23.9459	536.51
23.9603	537.82
23.9748	614.26
23.9892	557.85
24.0036	527.83
24.0181	549.50
24.0325	574.74
24.0470	576.10
24.0614	589.42
24.0758	514.23
24.0903	566.75
24.1047	575.53
24.1192	560.24
24.1336	582.51
24.1480	557.86
24.1625	566.02
24.1769	599.21
24.1914	601.51
24.2058	509.42
24.2202	560.02
24.2347	614.51
24.2491	575.22
24.2636	565.83
24.2780	595.39
24.2924	565.85
24.3069	544.64
24.3213	555.05
24.3358	562.95
24.3502	555.52
24.3646	600.57
24.3791	577.58
24.3935	567.41
24.4080	574.61
24.4224	533.63
24.4368	597.21
24.4513	540.89
24.4657	529.07
24.4802	530.09
24.4946	575.77
24.5090	553.59
24.5235	471.31
24.5379	539.39
24.5524	532.92
24.5668	585.16
24.5812	614.84
24.5957	508.15
24.6101	538.46
24.6246	575.07
24.6390	525.34
24.6534	547.21
24.6679	542.41
24.6823	487.28
24.6968	527.59
24.7112	486.09
24.7256	548.07
24.7401	553.47
24.7545	565.80
24.7690	513.27
24.7834	501.60
24.7978	478.45
24.8123	509.68
24.8267	489.28
24.8412	547.97
24.8556	563.73
24.8700	560.89
24.8845	587.35
24.8989	583.11
24.9134	561.26
24.9278	469.38
24.9422	566.07
24.9567	501.13
24.9711	499.93
24.9856	523.25
25.0000	528.19
25.0144	543.08
25.0289	546.49
25.0433	587.30
25.0578	594.68
25.0722	544.70
25.0866	578.46
25.1011	529.75
25.1155	493.24
25.1300	529.12
25.1444	564.57
25.1588	532.69
25.1733	544.10
25.1877	547.31
25.2022	562.88
25.2166	600.73
25.2310	550.80
25.2455	516.04
25.2599	518.90
25.2744	560.64
25.2888	537.45
25.3032	531.43
25.3177	561.89
25.3321	562.55
25.3466	566.88
25.3610	560.32
25.3754	537.63
25.3899	538.38
25.4043	536.61
25.4188	511.57
25.4332	517.93
25.4476	523.07
25.4621	531.16
25.4765	565.07
25.4910	552.86
25.5054	527.53
25.5198	555.59
25.5343	522.69
25.5487	549.64
25.5632	523.81
25.5776	535.15
25.5920	544.21
25.6065	546.89
25.6209	516.37
25.6354	524.29
25.6498	560.40
25.6642	520.00
25.6787	544.48
25.6931	534.66
25.7076	531.52
25.7220	516.63
25.7364	529.91
25.7509	530.01
25.7653	528.17
25.7798	529.36
25.7942	546.45
25.8086	540.02
25.8231	521.63
25.8375	580.27
25.8520	577.22
25.8664	539.60
25.8808	564.68
25.8953	571.05
25.9097	573.81
25.9242	552.99
25.9386	542.23
25.9530	525.08
25.9675	510.52
25.9819	538.99
25.9964	555.51
26.0108	540.36
26.0252	523.83
26.0397	535.51
26.0541	498.70
26.0686	518.93
26.0830	510.54
26.0974	498.69
26.1119	510.87
26.1263	487.98
26.1408	522.51
26.1552	528.53
26.1696	539.43
26.1841	517.83
26.1985	532.02
26.2130	535.68
26.2274	571.18
26.2418	528.13
26.2563	526.86
26.2707	550.56
26.2852	532.32
26.2996	521.36
26.3140	529.19
26.3285	538.72
26.3429	526.16
26.3574	535.21
26.3718	543.72
26.3862	492.28
26.4007	524.42
26.4151	513.27
26.4296	562.68
26.4440	548.01
26.4584	548.27
26.4729	543.55
26.4873	524.73
26.5018	500.48
26.5162	510.57
26.5306	497.26
26.5451	507.94
26.5595	538.88
26.5740	548.77
26.5884	534.72
26.6028	537.20
26.6173	538.20
26.6317	553.64
26.6462	503.01
26.6606	515.56
26.6750	560.23
26.6895	528.53
26.7039	535.15
26.7184	540.75
26.7328	537.44
26.7472	548.13
26.7617	549.90
26.7761	528.20
26.7906	499.70
26.8050	509.03
26.8194	497.34
26.8339	511.57
26.8483	516.39
26.8628	533.59
26.8772	543.09
26.8917	513.18
26.9061	531.32
26.9205	513.36
26.9350	530.92
26.9494	515.50
26.9639	491.99
26.9783	530.82
26.9927	541.21
27.0072	526.18
27.0216	546.94
27.0361	565.68
27.0505	534.97
27.0649	548.00
27.0794	522.95
27.0938	517.12
27.1083	506.71
27.1227	526.36
27.1371	541.74
27.1516	499.88
27.1660	514.96
27.1805	498.83
27.1949	507.99
27.2093	512.27
27.2238	519.19
27.2382	528.99
27.2527	495.03
27.2671	525.69
27.2815	524.53
27.2960	504.94
27.3104	512.73
27.3249	543.95
27.3393	529.96
27.3537	538.37
27.3682	515.41
27.3826	481.82
27.3971	497.52
27.4115	526.35
27.4259	552.72
27.4404	528.87
27.4548	515.49
27.4693	511.73
27.4837	538.57
27.4981	488.28
27.5126	517.13
27.5270	497.13
27.5415	511.92
27.5559	538.64
27.5703	553.17
27.5848	542.84
27.5992	525.81
27.6137	533.47
27.6281	501.19
27.6425	500.03
27.6570	510.39
27.6714	547.20
27.6859	519.03
27.7003	523.71
27.7147	533.39
27.7292	521.96
27.7436	504.72
27.7581	511.75
27.7725	511.69
27.7869	503.98
27.8014	496.17
27.8158	474.59
27.8303	495.58
27.8447	507.18
27.8591	526.86
27.8736	476.21
27.8880	506.36
27.9025	535.07
27.9169	541.64
27.9313	514.32
27.9458	487.95
27.9602	484.58
27.9747	488.54
27.9891	523.87
28.0035	520.63
28.0180	514.56
28.0324	525.13
28.0469	527.22
28.0613	536.98
28.0757	505.55
28.0902	527.39
28.1046	503.59
28.1191	517.75
28.1335	521.50
28.1479	502.96
28.1624	494.44
28.1768	476.00
28.1913	502.14
28.2057	508.93
28.2201	482.18
28.2346	501.74
28.2490	502.78
28.2635	487.89
28.2779	519.92
28.2923	551.56
28.3068	533.51
28.3212	528.81
28.3357	541.12
28.3501	499.80
28.3645	495.47
28.3790	533.92
28.3934	542.29
28.4079	522.55
28.4223	518.22
28.4367	554.76
28.4512	535.49
28.4656	513.15
28.4801	524.22
28.4945	511.99
28.5089	490.85
28.5234	511.33
28.5378	554.72
28.5523	550.58
28.5667	493.35
28.5811	510.87
28.5956	502.35
28.6100	497.17
28.6245	512.90
28.6389	509.31
28.6533	478.26
28.6678	472.13
28.6822	496.60
28.6967	515.51
28.7111	537.97
28.7255	512.98
28.7400	498.89
28.7544	517.50
28.7689	510.21
28.7833	493.81
28.7977	517.91
28.8122	523.98
28.8266	486.46
28.8411	473.92
28.8555	481.79
28.8699	539.64
28.8844	508.75
28.8988	508.31
28.9133	498.08
28.9277	506.78
28.9421	520.06
28.9566	495.15
28.9710	512.90
28.9855	471.59
28.9999	525.84
29.0143	527.37
29.0288	548.14
29.0432	521.90
29.0577	497.28
29.0721	463.82
29.0865	485.12
29.1010	493.29
29.1154	476.31
29.1299	511.78
29.1443	485.72
29.1587	475.27
29.1732	508.78
29.1876	500.34
29.2021	522.02
29.2165	509.20
29.2309	518.20
29.2454	536.81
29.2598	478.12
29.2743	506.15
29.2887	520.17
29.3031	485.40
29.3176	518.74
29.3320	508.42
29.3465	495.52
29.3609	492.29
29.3753	503.58
29.3898	493.22
29.4042	481.40
29.4187	505.95
29.4331	506.25
29.4475	493.11
29.4620	494.15
29.4764	528.31
29.4909	504.91
29.5053	521.04
29.5197	509.43
29.5342	494.45
29.5486	470.07
29.5631	503.36
29.5775	495.98
29.5919	506.68
29.6064	477.64
29.6208	502.42
29.6353	550.44
29.6497	524.06
29.6641	512.58
29.6786	474.94
29.6930	483.37
29.7075	512.49
29.7219	531.42
29.7363	477.59
29.7508	512.19
29.7652	510.22
29.7797	496.48
29.7941	474.42
29.8085	484.32
29.8230	497.76
29.8374	498.60
29.8519	516.02
29.8663	510.55
29.8807	506.67
29.8952	532.22
29.9096	526.32
29.9241	504.87
29.9385	513.72
29.9529	514.28
29.9674	523.52
29.9818	508.68
29.9963	517.44
30.0107	483.02
30.0251	493.53
30.0396	527.96
30.0540	543.07
30.0685	532.60
30.0829	557.00
30.0973	532.61
30.1118	490.37
30.1262	478.15
30.1407	512.30
30.1551	533.76
30.1695	514.14
30.1840	496.17
30.1984	510.39
30.2129	492.22
30.2273	485.83
30.2417	497.76
30.2562	488.00
30.2706	496.33
30.2851	528.44
30.2995	520.62
30.3139	502.11
30.3284	527.25
30.3428	532.73
30.3573	518.93
30.3717	495.06
30.3861	513.70
30.4006	498.47
30.4150	505.72
30.4295	549.86
30.4439	549.76
30.4583	533.19
30.4728	591.68
30.4872	563.04
30.5017	594.26
30.5161	612.34
30.5305	696.17
30.5450	713.90
30.5594	723.87
30.5739	755.91
30.5883	739.98
30.6028	701.60
30.6172	714.08
30.6316	735.66
30.6461	711.40
30.6605	636.61
30.6750	609.51
30.6894	602.68
30.7038	609.42
30.7183	554.52
30.7327	547.98
30.7472	542.97
30.7616	500.56
30.7760	535.04
30.7905	512.16
30.8049	537.57
30.8194	521.83
30.8338	489.77
30.8482	509.57
30.8627	516.65
30.8771	535.07
30.8916	549.59
30.9060	527.49
30.9204	531.65
30.9349	546.21
30.9493	536.08
30.9638	540.50
30.9782	516.26
30.9926	500.72
31.0071	510.97
31.0215	501.63
31.0360	505.64
31.0504	499.40
31.0648	500.85
31.0793	488.88
31.0937	496.95
31.1082	504.03
31.1226	486.72
31.1370	519.73
31.1515	510.80
31.1659	499.85
31.1804	500.85
31.1948	508.34
31.2092	516.04
31.2237	510.83
31.2381	532.02
31.2526	525.51
31.2670	508.00
31.2814	552.11
31.2959	534.33
31.3103	499.53
31.3248	537.02
31.3392	557.00
31.3536	547.16
31.3681	513.58
31.3825	487.79
31.3970	497.69
31.4114	496.06
31.4258	513.63
31.4403	525.48
31.4547	505.78
31.4692	499.73
31.4836	513.88
31.4980	474.04
31.5125	508.44
31.5269	509.68
31.5414	520.09
31.5558	499.54
31.5702	510.96
31.5847	477.87
31.5991	492.12
31.6136	526.52
31.6280	501.16
31.6424	504.35
31.6569	511.17
31.6713	490.82
31.6858	527.33
31.7002	504.79
31.7146	517.06
31.7291	515.16
31.7435	503.48
31.7580	488.58
31.7724	470.14
31.7868	506.83
31.8013	489.09
31.8157	487.32
31.8302	490.65
31.8446	479.92
31.8590	534.69
31.8735	495.75
31.8879	481.86
31.9024	481.93
31.9168	508.18
31.9312	484.71
31.9457	496.95
31.9601	483.50
31.9746	499.36
31.9890	476.45
32.0034	500.22
32.0179	506.69
32.0323	506.69
32.0468	504.92
32.0612	532.78
32.0756	503.69
32.0901	517.73
32.1045	466.78
32.1190	481.49
32.1334	510.70
32.1478	483.54
32.1623	500.71
32.1767	470.42
32.1912	466.07
32.2056	489.10
32.2200	531.40
32.2345	512.02
32.2489	532.50
32.2634	481.45
32.2778	485.67
32.2922	501.98
32.3067	515.46
32.3211	505.19
32.3356	484.31
32.3500	494.53
32.3644	500.90
32.3789	516.86
32.3933	500.23
32.4078	520.02
32.4222	538.46
32.4366	512.51
32.4511	542.79
32.4655	518.78
32.4800	475.71
32.4944	495.91
32.5088	493.11
32.5233	503.15
32.5377	503.72
32.5522	546.33
32.5666	510.53
32.5810	475.55
32.5955	485.69
32.6099	479.18
32.6244	464.70
32.6388	512.50
32.6532	539.27
32.6677	500.66
32.6821	535.59
32.6966	517.20
32.7110	515.01
32.7254	508.41
32.7399	512.46
32.7543	515.26
32.7688	486.64
32.7832	496.78
32.7976	534.56
32.8121	511.59
32.8265	502.80
32.8410	502.04
32.8554	477.15
32.8698	500.09
32.8843	535.83
32.8987	540.03
32.9132	517.07
32.9276	490.71
32.9420	476.15
32.9565	472.74
32.9709	499.46
32.9854	531.20
32.9998	496.10
33.0142	510.42
33.0287	478.27
33.0431	522.18
33.0576	542.01
33.0720	521.92
33.0864	523.90
33.1009	533.03
33.1153	524.32
33.1298	532.83
33.1442	489.24
33.1586	496.06
33.1731	504.42
33.1875	487.54
33.2020	489.62
33.2164	515.24
33.2308	513.86
33.2453	496.33
33.2597	463.03
33.2742	489.93
33.2886	537.25
33.3030	506.08
33.3175	501.12
33.3319	527.69
33.3464	519.15
33.3608	503.44
33.3752	512.83
33.3897	482.77
33.4041	511.92
33.4186	507.51
33.4330	498.40
33.4474	497.46
33.4619	503.90
33.4763	513.23
33.4908	492.52
33.5052	505.95
33.5196	512.59
33.5341	506.34
33.5485	502.68
33.5630	488.48
33.5774	496.40
33.5918	500.32
33.6063	467.12
33.6207	483.80
33.6352	531.75
33.6496	498.22
33.6640	506.75
33.6785	553.68
33.6929	501.85
33.7074	518.11
33.7218	473.12
33.7362	484.64
33.7507	490.67
33.7651	458.84
33.7796	513.29
33.7940	523.16
33.8084	528.03
33.8229	514.08
33.8373	539.83
33.8518	510.68
33.8662	536.00
33.8806	528.01
33.8951	528.89
33.9095	514.56
33.9240	500.02
33.9384	498.12
33.9528	477.19
33.9673	477.37
33.9817	474.17
33.9962	496.30
34.0106	505.74
34.0250	495.81
34.0395	488.14
34.0539	470.66
34.0684	486.43
34.0828	532.59
34.0972	504.14
34.1117	495.69
34.1261	501.29
34.1406	513.59
34.1550	509.78
34.1694	513.94
34.1839	491.66
34.1983	483.48
34.2128	523.91
34.2272	479.34
34.2417	493.95
34.2561	513.39
34.2705	513.82
34.2850	538.08
34.2994	492.32
34.3139	504.62
34.3283	539.25
34.3427	512.13
34.3572	502.98
34.3716	497.46
34.3861	487.75
34.4005	497.86
34.4149	511.81
34.4294	511.92
34.4438	489.59
34.4583	497.59
34.4727	540.80
34.4871	505.08
34.5016	503.58
34.5160	509.78
34.5305	506.28
34.5449	477.98
34.5593	508.23
34.5738	540.99
34.5882	513.77
34.6027	506.51
34.6171	494.60
34.6315	524.32
34.6460	504.00
34.6604	519.98
34.6749	522.76
34.6893	481.44
34.7037	534.97
34.7182	505.53
34.7326	486.60
34.7471	498.25
34.7615	475.95
34.7759	492.69
34.7904	509.46
34.8048	493.94
34.8193	509.20
34.8337	501.77
34.8481	499.74
34.8626	493.85
34.8770	495.36
34.8915	507.42
34.9059	541.06
34.9203	534.71
34.9348	528.99
34.9492	495.84
34.9637	523.87
34.9781	503.87
34.9925	502.90
35.0070	497.90
35.0214	522.94
35.0359	513.01
35.0503	489.93
35.0647	491.36
35.0792	514.93
35.0936	530.21
35.1081	529.76
35.1225	551.73
35.1369	523.79
35.1514	508.93
35.1658	532.36
35.1803	509.02
35.1947	512.98
35.2091	509.97
35.2236	529.26
35.2380	535.34
35.2525	504.88
35.2669	511.52
35.2813	504.47
35.2958	471.87
35.3102	517.94
35.3247	511.88
35.3391	522.46
35.3535	503.15
35.3680	502.92
35.3824	495.22
35.3969	496.57
35.4113	483.98
35.4257	549.64
35.4402	556.55
35.4546	558.25
35.4691	536.39
35.4835	558.13
35.4979	570.42
35.5124	545.75
35.5268	542.10
35.5413	563.55
35.5557	542.77
35.5701	565.64
35.5846	518.51
35.5990	516.89
35.6135	513.32
35.6279	533.93
35.6423	533.18
35.6568	536.71
35.6712	567.18
35.6857	610.90
35.7001	654.38
35.7145	766.70
35.7290	754.80
35.7434	648.20
35.7579	618.91
35.7723	635.74
35.7867	674.50
35.8012	753.45
35.8156	742.82
35.8301	708.05
35.8445	737.27
35.8589	802.55
35.8734	835.20
35.8878	956.91
35.9023	1061.71
35.9167	1152.82
35.9311	1321.82
35.9456	1622.48
35.9600	1959.68
35.9745	2146.22
35.9889	2292.64
36.0033	2703.96
36.0178	3077.04
36.0322	3253.76
36.0467	2638.09
36.0611	2049.22
36.0755	1908.15
36.0900	2134.50
36.1044	2152.76
36.1189	1651.22
36.1333	1325.34
36.1477	1145.68
36.1622	1061.81
36.1766	998.57
36.1911	864.76
36.2055	762.58
36.2199	732.58
36.2344	712.00
36.2488	627.17
36.2633	562.08
36.2777	559.96
36.2921	552.54
36.3066	538.37
36.3210	522.12
36.3355	528.76
36.3499	518.18
36.3643	526.49
36.3788	555.89
36.3932	576.86
36.4077	504.33
36.4221	532.36
36.4365	546.42
36.4510	483.38
36.4654	547.35
36.4799	536.61
36.4943	527.12
36.5087	493.06
36.5232	493.92
36.5376	530.60
36.5521	563.06
36.5665	534.89
36.5809	539.85
36.5954	519.09
36.6098	508.31
36.6243	502.18
36.6387	549.52
36.6531	546.37
36.6676	489.10
36.6820	518.80
36.6965	525.65
36.7109	539.96
36.7253	548.11
36.7398	545.75
36.7542	538.08
36.7687	546.40
36.7831	533.45
36.7975	549.29
36.8120	578.48
36.8264	565.49
36.8409	567.05
36.8553	612.79
36.8697	563.31
36.8842	591.29
36.8986	585.80
36.9131	569.22
36.9275	560.28
36.9419	599.76
36.9564	574.11
36.9708	550.50
36.9853	512.30
36.9997	521.63
37.0141	564.50
37.0286	565.05
37.0430	550.98
37.0575	517.10
37.0719	514.51
37.0863	509.90
37.1008	496.16
37.1152	542.84
37.1297	568.39
37.1441	510.30
37.1585	485.76
37.1730	514.70
37.1874	520.28
37.2019	533.86
37.2163	529.77
37.2307	508.18
37.2452	493.63
37.2596	505.12
37.2741	510.76
37.2885	507.08
37.3029	516.60
37.3174	465.70
37.3318	507.14
37.3463	497.98
37.3607	524.34
37.3751	506.94
37.3896	479.74
37.4040	511.58
37.4185	489.58
37.4329	509.04
37.4473	476.13
37.4618	484.20
37.4762	474.30
37.4907	519.90
37.5051	510.98
37.5195	527.08
37.5340	494.41
37.5484	512.35
37.5629	500.24
37.5773	517.55
37.5917	521.75
37.6062	513.71
37.6206	477.43
37.6351	508.72
37.6495	503.93
37.6639	505.84
37.6784	524.73
37.6928	498.31
37.7073	526.13
37.7217	518.31
37.7361	508.96
37.7506	504.66
37.7650	509.83
37.7795	526.06
37.7939	520.72
37.8083	513.96
37.8228	541.78
37.8372	493.66
37.8517	498.88
37.8661	493.53
37.8805	499.22
37.8950	532.91
37.9094	517.71
37.9239	489.75
37.9383	520.59
37.9528	473.59
37.9672	501.84
37.9816	459.83
37.9961	467.25
38.0105	488.50
38.0250	483.82
38.0394	469.61
38.0538	462.73
38.0683	485.64
38.0827	498.13
38.0972	486.45
38.1116	492.40
38.1260	525.18
38.1405	499.75
38.1549	496.80
38.1694	509.34
38.1838	495.87
38.1982	484.44
38.2127	518.85
38.2271	505.52
38.2416	503.52
38.2560	473.87
38.2704	519.13
38.2849	541.06
38.2993	493.22
38.3138	529.08
38.3282	574.29
38.3426	552.67
38.3571	524.16
38.3715	540.46
38.3860	514.19
38.4004	519.53
38.4148	529.15
38.4293	564.84
38.4437	595.32
38.4582	597.59
38.4726	657.26
38.4870	674.85
38.5015	721.85
38.5159	740.30
38.5304	802.32
38.5448	791.80
38.5592	778.84
38.5737	746.55
38.5881	706.71
38.6026	693.30
38.6170	719.10
38.6314	687.71
38.6459	684.95
38.6603	661.40
38.6748	652.32
38.6892	577.31
38.7036	571.23
38.7181	560.39
38.7325	550.35
38.7470	534.34
38.7614	539.45
38.7758	520.68
38.7903	508.64
38.8047	505.31
38.8192	521.52
38.8336	495.11
38.8480	497.31
38.8625	508.71
38.8769	487.61
38.8914	487.08
38.9058	509.56
38.9202	515.52
38.9347	531.82
38.9491	511.26
38.9636	490.27
38.9780	517.16
38.9924	510.86
39.0069	530.62
39.0213	586.32
39.0358	531.50
39.0502	490.77
39.0646	504.40
39.0791	513.95
39.0935	531.59
39.1080	501.68
39.1224	502.59
39.1368	486.85
39.1513	463.31
39.1657	504.60
39.1802	517.31
39.1946	484.63
39.2090	482.36
39.2235	471.45
39.2379	481.75
39.2524	525.99
39.2668	498.67
39.2812	503.04
39.2957	511.42
39.3101	524.51
39.3246	537.03
39.3390	553.89
39.3534	531.17
39.3679	494.78
39.3823	508.66
39.3968	484.25
39.4112	504.06
39.4256	512.15
39.4401	486.14
39.4545	502.50
39.4690	518.23
39.4834	493.59
39.4978	441.13
39.5123	502.43
39.5267	474.99
39.5412	464.01
39.5556	494.17
39.5700	468.94
39.5845	468.64
39.5989	502.49
39.6134	482.97
39.6278	484.95
39.6422	477.73
39.6567	470.34
39.6711	502.78
39.6856	473.58
39.7000	461.56
39.7144	502.87
39.7289	483.07
39.7433	492.23
39.7578	490.51
39.7722	484.74
39.7866	503.53
39.8011	502.55
39.8155	527.84
39.8300	541.93
39.8444	490.17
39.8588	522.12
39.8733	484.31
39.8877	526.80
39.9022	523.20
39.9166	484.86
39.9310	474.25
39.9455	486.63
39.9599	459.95
39.9744	483.57
39.9888	491.28
40.0032	496.71
40.0177	498.20
40.0321	512.07
40.0466	477.12
40.0610	453.37
40.0754	485.08
40.0899	497.89
40.1043	541.62
40.1188	492.00
40.1332	502.71
40.1476	502.14
40.1621	471.03
40.1765	468.03
40.1910	498.40
40.2054	531.13
40.2198	502.15
40.2343	515.63
40.2487	507.05
40.2632	486.37
40.2776	482.28
40.2920	493.98
40.3065	474.61
40.3209	477.07
40.3354	465.98
40.3498	490.58
40.3642	503.93
40.3787	485.99
40.3931	470.05
40.4076	483.67
40.4220	489.70
40.4364	491.78
40.4509	487.50
40.4653	512.13
40.4798	502.66
40.4942	534.43
40.5086	495.00
40.5231	517.08
40.5375	518.65
40.5520	484.35
40.5664	474.39
40.5808	484.24
40.5953	499.94
40.6097	481.29
40.6242	455.75
40.6386	511.87
40.6530	506.45
40.6675	509.86
40.6819	501.48
40.6964	502.57
40.7108	521.44
40.7252	503.46
40.7397	482.42
40.7541	498.14
40.7686	456.71
40.7830	488.19
40.7974	498.57
40.8119	535.03
40.8263	553.83
40.8408	492.52
40.8552	478.51
40.8696	524.01
40.8841	475.38
40.8985	486.54
40.9130	497.49
40.9274	483.73
40.9418	490.42
40.9563	485.06
40.9707	483.25
40.9852	451.80
40.9996	501.25
41.0140	533.48
41.0285	510.60
41.0429	504.48
41.0574	499.57
41.0718	478.45
41.0862	507.31
41.1007	497.00
41.1151	513.59
41.1296	489.72
41.1440	492.65
41.1584	491.00
41.1729	498.56
41.1873	530.73
41.2018	512.76
41.2162	505.83
41.2306	500.38
41.2451	487.92
41.2595	514.56
41.2740	499.29
41.2884	493.37
41.3028	496.67
41.3173	500.56
41.3317	496.69
41.3462	497.10
41.3606	513.09
41.3750	512.41
41.3895	462.71
41.4039	461.82
41.4184	465.32
41.4328	531.67
41.4472	499.94
41.4617	485.25
41.4761	484.98
41.4906	504.03
41.5050	467.24
41.5194	470.66
41.5339	496.84
41.5483	495.67
41.5628	502.85
41.5772	508.04
41.5916	470.77
41.6061	480.53
41.6205	492.57
41.6350	520.03
41.6494	485.85
41.6639	494.62
41.6783	505.44
41.6927	475.98
41.7072	490.55
41.7216	526.97
41.7361	533.15
41.7505	516.53
41.7649	506.83
41.7794	484.89
41.7938	486.47
41.8083	500.02
41.8227	537.90
41.8371	488.47
41.8516	529.28
41.8660	511.15
41.8805	512.47
41.8949	499.64
41.9093	533.91
41.9238	508.11
41.9382	522.09
41.9527	537.30
41.9671	556.59
41.9815	527.19
41.9960	518.15
42.0104	552.63
42.0249	538.59
42.0393	542.54
42.0537	618.53
42.0682	544.32
42.0826	550.41
42.0971	581.91
42.1115	549.07
42.1259	592.05
42.1404	635.88
42.1548	615.55
42.1693	651.58
42.1837	682.82
42.1981	710.64
42.2126	812.02
42.2270	940.05
42.2415	1072.94
42.2559	1231.12
42.2703	1345.41
42.2848	1518.89
42.2992	1619.22
42.3137	1676.97
42.3281	1615.25
42.3425	1548.32
42.3570	1453.15
42.3714	1407.58
42.3859	1348.51
42.4003	1355.81
42.4147	1374.17
42.4292	1296.47
42.4436	1128.73
42.4581	1005.38
42.4725	909.38
42.4869	879.14
42.5014	770.42
42.5158	668.27
42.5303	661.75
42.5447	623.47
42.5591	596.66
42.5736	606.74
42.5880	575.89
42.6025	555.05
42.6169	580.02
42.6313	558.97
42.6458	551.63
42.6602	554.77
42.6747	551.43
42.6891	493.81
42.7035	538.17
42.7180	551.26
42.7324	528.28
42.7469	530.23
42.7613	528.03
42.7757	512.98
42.7902	517.58
42.8046	479.22
42.8191	512.48
42.8335	508.26
42.8479	507.49
42.8624	495.46
42.8768	508.00
42.8913	538.17
42.9057	548.79
42.9201	560.71
42.9346	524.55
42.9490	493.95
42.9635	520.10
42.9779	547.33
42.9923	545.81
43.0068	503.59
43.0212	491.18
43.0357	516.03
43.0501	513.17
43.0645	472.16
43.0790	512.95
43.0934	522.79
43.1079	503.57
43.1223	513.07
43.1367	521.33
43.1512	496.53
43.1656	517.51
43.1801	533.11
43.1945	490.30
43.2089	535.26
43.2234	570.73
43.2378	530.74
43.2523	499.34
43.2667	523.92
43.2811	549.66
43.2956	523.31
43.3100	527.28
43.3245	517.10
43.3389	529.77
43.3533	548.34
43.3678	525.03
43.3822	542.58
43.3967	477.72
43.4111	485.93
43.4255	530.28
43.4400	495.95
43.4544	503.04
43.4689	541.33
43.4833	549.88
43.4977	529.07
43.5122	495.67
43.5266	505.98
43.5411	497.58
43.5555	513.37
43.5699	516.52
43.5844	515.82
43.5988	519.23
43.6133	500.80
43.6277	500.79
43.6421	551.46
43.6566	558.38
43.6710	549.19
43.6855	607.86
43.6999	614.88
43.7143	629.00
43.7288	620.44
43.7432	648.19
43.7577	626.28
43.7721	636.95
43.7865	661.48
43.8010	640.73
43.8154	610.75
43.8299	599.36
43.8443	590.21
43.8587	597.64
43.8732	574.23
43.8876	567.41
43.9021	538.16
43.9165	518.06
43.9309	498.58
43.9454	532.11
43.9598	491.13
43.9743	523.63
43.9887	517.66
44.0031	473.46
44.0176	498.46
44.0320	496.78
44.0465	496.24
44.0609	529.32
44.0753	544.74
44.0898	574.20
44.1042	537.43
44.1187	524.39
44.1331	520.32
44.1475	488.68
44.1620	504.70
44.1764	512.13
44.1909	548.30
44.2053	519.17
44.2197	540.17
44.2342	524.47
44.2486	483.45
44.2631	512.31
44.2775	532.51
44.2919	519.08
44.3064	553.74
44.3208	549.48
44.3353	539.45
44.3497	532.82
44.3641	481.09
44.3786	493.57
44.3930	543.38
44.4075	554.64
44.4219	569.36
44.4363	605.83
44.4508	550.88
44.4652	540.17
44.4797	578.41
44.4941	573.53
44.5085	568.04
44.5230	548.49
44.5374	531.96
44.5519	535.39
44.5663	560.14
44.5807	566.19
44.5952	541.33
44.6096	543.23
44.6241	561.14
44.6385	552.95
44.6529	578.03
44.6674	578.70
44.6818	575.97
44.6963	590.64
44.7107	639.82
44.7251	631.52
44.7396	715.95
44.7540	807.88
44.7685	814.40
44.7829	898.25
44.7973	895.28
44.8118	888.58
44.8262	787.79
44.8407	767.45
44.8551	755.41
44.8695	754.29
44.8840	736.90
44.8984	789.74
44.9129	720.94
44.9273	722.88
44.9417	682.76
44.9562	624.20
44.9706	576.77
44.9851	529.50
44.9995	527.74
45.0139	532.89
45.0284	517.28
45.0428	500.34
45.0573	500.08
45.0717	517.27
45.0861	548.00
45.1006	513.23
45.1150	522.56
45.1295	481.14
45.1439	453.29
45.1583	492.11
45.1728	498.50
45.1872	490.22
45.2017	495.72
45.2161	484.70
45.2305	496.80
45.2450	486.91
45.2594	499.62
45.2739	525.56
45.2883	508.97
45.3028	511.95
45.3172	512.23
45.3316	538.05
45.3461	523.83
45.3605	499.21
45.3750	490.97
45.3894	501.97
45.4038	505.64
45.4183	532.76
45.4327	526.34
45.4472	486.27
45.4616	507.38
45.4760	529.67
45.4905	535.99
45.5049	489.38
45.5194	496.26
45.5338	477.16
45.5482	509.86
45.5627	488.85
45.5771	461.29
45.5916	501.66
45.6060	464.85
45.6204	487.93
45.6349	501.60
45.6493	494.60
45.6638	486.34
45.6782	487.97
45.6926	490.96
45.7071	539.21
45.7215	514.98
45.7360	516.17
45.7504	530.44
45.7648	478.88
45.7793	495.37
45.7937	511.79
45.8082	509.19
45.8226	502.21
45.8370	496.85
45.8515	486.78
45.8659	510.59
45.8804	509.44
45.8948	514.89
45.9092	514.69
45.9237	515.46
45.9381	508.43
45.9526	507.11
45.9670	502.18
45.9814	501.81
45.9959	483.55
46.0103	488.01
46.0248	535.38
46.0392	494.81
46.0536	506.48
46.0681	513.34
46.0825	505.41
46.0970	502.61
46.1114	489.74
46.1258	522.04
46.1403	490.70
46.1547	487.75
46.1692	511.81
46.1836	496.02
46.1980	482.07
46.2125	479.89
46.2269	504.36
46.2414	520.18
46.2558	516.47
46.2702	495.88
46.2847	473.96
46.2991	499.58
46.3136	498.30
46.3280	489.53
46.3424	494.52
46.3569	470.13
46.3713	501.31
46.3858	499.00
46.4002	485.38
46.4146	504.24
46.4291	553.32
46.4435	491.72
46.4580	475.35
46.4724	491.89
46.4868	516.06
46.5013	504.57
46.5157	501.30
46.5302	533.87
46.5446	541.36
46.5590	499.71
46.5735	496.70
46.5879	503.63
46.6024	466.58
46.6168	457.55
46.6312	488.51
46.6457	516.59
46.6601	507.41
46.6746	504.67
46.6890	485.70
46.7034	508.37
46.7179	509.74
46.7323	490.98
46.7468	486.36
46.7612	498.59
46.7756	507.33
46.7901	467.61
46.8045	476.30
46.8190	533.71
46.8334	527.96
46.8478	516.25
46.8623	530.13
46.8767	498.88
46.8912	475.84
46.9056	492.20
46.9200	480.59
46.9345	489.54
46.9489	522.81
46.9634	478.99
46.9778	469.82
46.9922	493.04
47.0067	507.80
47.0211	509.70
47.0356	506.31
47.0500	536.13
47.0644	534.08
47.0789	563.15
47.0933	511.14
47.1078	517.40
47.1222	512.59
47.1366	504.22
47.1511	500.39
47.1655	513.07
47.1800	481.04
47.1944	501.89
47.2088	508.68
47.2233	515.18
47.2377	522.00
47.2522	486.71
47.2666	483.83
47.2810	462.16
47.2955	483.77
47.3099	504.90
47.3244	527.58
47.3388	495.13
47.3532	514.47
47.3677	505.22
47.3821	495.39
47.3966	507.38
47.4110	500.95
47.4254	507.93
47.4399	471.37
47.4543	520.40
47.4688	499.48
47.4832	500.18
47.4976	509.45
47.5121	521.85
47.5265	495.09
47.5410	507.52
47.5554	492.00
47.5698	478.84
47.5843	487.04
47.5987	507.22
47.6132	535.10
47.6276	519.75
47.6420	509.75
47.6565	498.75
47.6709	507.52
47.6854	515.13
47.6998	511.66
47.7142	516.48
47.7287	523.62
47.7431	512.77
47.7576	508.23
47.7720	518.75
47.7864	509.89
47.8009	504.71
47.8153	503.03
47.8298	482.09
47.8442	501.70
47.8586	492.49
47.8731	496.37
47.8875	468.84
47.9020	484.42
47.9164	477.87
47.9308	533.09
47.9453	529.53
47.9597	497.10
47.9742	504.66
47.9886	502.27
48.0030	498.14
48.0175	538.52
48.0319	509.22
48.0464	509.19
48.0608	517.96
48.0752	498.84
48.0897	520.94
48.1041	507.34
48.1186	530.39
48.1330	525.12
48.1474	486.92
48.1619	505.22
48.1763	486.78
48.1908	492.21
48.2052	484.78
48.2196	458.70
48.2341	477.73
48.2485	533.75
48.2630	504.38
48.2774	520.91
48.2918	503.58
48.3063	498.17
48.3207	496.58
48.3352	523.99
48.3496	502.01
48.3640	489.87
48.3785	515.24
48.3929	492.98
48.4074	497.06
48.4218	485.97
48.4362	508.16
48.4507	517.82
48.4651	529.86
48.4796	542.39
48.4940	525.73
48.5084	510.53
48.5229	503.54
48.5373	507.50
48.5518	523.59
48.5662	522.79
48.5806	480.46
48.5951	502.25
48.6095	571.19
48.6240	514.51
48.6384	511.42
48.6528	491.09
48.6673	529.18
48.6817	479.92
48.6962	513.13
48.7106	513.40
48.7250	550.19
48.7395	524.08
48.7539	568.22
48.7684	535.77
48.7828	563.55
48.7972	550.16
48.8117	508.34
48.8261	531.72
48.8406	552.56
48.8550	561.29
48.8694	564.32
48.8839	549.37
48.8983	530.74
48.9128	574.20
48.9272	575.11
48.9416	587.46
48.9561	582.35
48.9705	571.12
48.9850	560.27
48.9994	602.27
49.0139	600.71
49.0283	591.93
49.0427	630.70
49.0572	616.57
49.0716	667.12
49.0861	678.01
49.1005	665.42
49.1149	687.58
49.1294	728.25
49.1438	748.98
49.1583	799.65
49.1727	837.93
49.1871	853.25
49.2016	990.60
49.2160	1087.50
49.2305	1126.85
49.2449	1236.44
49.2593	1276.43
49.2738	1394.64
49.2882	1528.09
49.3027	1591.37
49.3171	1649.58
49.3315	1770.74
49.3460	1760.19
49.3604	1841.83
49.3749	1809.39
49.3893	1802.18
49.4037	1809.14
49.4182	1748.04
49.4326	1734.12
49.4471	1692.40
49.4615	1622.07
49.4759	1611.11
49.4904	1553.27
49.5048	1445.47
49.5193	1388.12
49.5337	1303.63
49.5481	1188.11
49.5626	1112.47
49.5770	1035.79
49.5915	973.34
49.6059	946.67
49.6203	863.23
49.6348	837.50
49.6492	785.54
49.6637	736.98
49.6781	675.83
49.6925	681.30
49.7070	657.24
49.7214	675.03
49.7359	663.11
49.7503	634.16
49.7647	582.20
49.7792	571.74
49.7936	566.83
49.8081	615.08
49.8225	573.52
49.8369	550.05
49.8514	534.43
49.8658	563.61
49.8803	563.97
49.8947	556.58
49.9091	555.62
49.9236	531.25
49.9380	561.46
49.9525	555.79
49.9669	531.95
49.9813	492.48
49.9958	519.55
50.0102	519.66
50.0247	550.11
50.0391	544.00
50.0535	557.28
50.0680	548.69
50.0824	547.21
50.0969	548.66
50.1113	505.74
50.1257	486.21
50.1402	497.38
50.1546	507.69
50.1691	547.95
50.1835	530.53
50.1979	515.07
50.2124	543.07
50.2268	522.37
50.2413	550.45
50.2557	531.86
50.2701	518.10
50.2846	512.38
50.2990	511.74
50.3135	515.50
50.3279	528.79
50.3423	545.04
50.3568	489.07
50.3712	498.84
50.3857	477.04
50.4001	513.89
50.4145	498.27
50.4290	513.03
50.4434	499.50
50.4579	554.99
50.4723	501.62
50.4867	490.83
50.5012	471.13
50.5156	486.68
50.5301	508.95
50.5445	515.27
50.5589	506.36
50.5734	527.75
50.5878	544.03
50.6023	536.06
50.6167	509.95
50.6311	517.43
50.6456	486.80
50.6600	503.43
50.6745	515.80
50.6889	509.13
50.7033	523.48
50.7178	521.96
50.7322	480.84
50.7467	510.76
50.7611	490.72
50.7755	509.50
50.7900	484.79
50.8044	516.57
50.8189	514.71
50.8333	504.42
50.8477	507.81
50.8622	503.62
50.8766	515.82
50.8911	480.44
50.9055	480.77
50.9199	495.45
50.9344	518.46
50.9488	517.31
50.9633	497.08
50.9777	510.29
50.9921	524.38
51.0066	505.27
51.0210	521.52
51.0355	498.97
51.0499	509.96
51.0643	533.84
51.0788	495.79
51.0932	514.70
51.1077	505.55
51.1221	491.28
51.1365	501.80
51.1510	495.17
51.1654	472.04
51.1799	491.30
51.1943	509.95
51.2087	488.04
51.2232	511.17
51.2376	532.78
51.2521	526.28
51.2665	524.15
51.2809	517.54
51.2954	498.71
51.3098	497.24
51.3243	499.43
51.3387	490.95
51.3531	455.17
51.3676	465.92
51.3820	505.23
51.3965	531.78
51.4109	518.02
51.4253	499.81
51.4398	501.73
51.4542	537.51
51.4687	529.07
51.4831	536.63
51.4975	518.19
51.5120	502.41
51.5264	499.57
51.5409	502.12
51.5553	511.90
51.5697	498.06
51.5842	514.15
51.5986	511.38
51.6131	507.08
51.6275	512.44
51.6419	509.07
51.6564	492.82
51.6708	492.94
51.6853	503.82
51.6997	508.92
51.7141	522.98
51.7286	523.18
51.7430	551.28
51.7575	518.38
51.7719	513.86
51.7863	552.61
51.8008	536.67
51.8152	502.14
51.8297	482.30
51.8441	466.34
51.8585	511.43
51.8730	502.59
51.8874	497.11
51.9019	517.67
51.9163	509.60
51.9307	485.12
51.9452	488.72
51.9596	520.90
51.9741	516.56
51.9885	504.15
52.0029	489.02
52.0174	512.41
52.0318	513.72
52.0463	493.22
52.0607	516.19
52.0751	485.41
52.0896	494.11
52.1040	456.94
52.1185	495.99
52.1329	535.53
52.1473	502.11
52.1618	520.63
52.1762	502.34
52.1907	482.61
52.2051	491.64
52.2195	500.17
52.2340	490.91
52.2484	508.36
52.2629	517.94
52.2773	490.68
52.2917	506.10
52.3062	495.21
52.3206	503.18
52.3351	502.72
52.3495	551.03
52.3639	518.19
52.3784	499.22
52.3928	497.93
52.4073	497.86
52.4217	533.86
52.4361	499.91
52.4506	513.12
52.4650	505.63
52.4795	497.36
52.4939	519.64
52.5083	495.78
52.5228	544.06
52.5372	523.49
52.5517	499.10
52.5661	505.35
52.5805	496.06
52.5950	514.51
52.6094	498.43
52.6239	490.89
52.6383	532.51
52.6527	526.84
52.6672	497.65
52.6816	488.74
52.6961	521.56
52.7105	530.72
52.7250	526.50
52.7394	512.58
52.7538	490.15
52.7683	497.11
52.7827	526.51
52.7972	514.86
52.8116	486.02
52.8260	478.96
52.8405	511.60
52.8549	480.38
52.8694	482.07
52.8838	488.92
52.8982	502.25
52.9127	525.29
52.9271	528.43
52.9416	531.71
52.9560	507.86
52.9704	510.23
52.9849	504.83
52.9993	476.37
53.0138	494.39
53.0282	470.55
53.0426	481.73
53.0571	482.02
53.0715	447.70
53.0860	477.14
53.1004	508.08
53.1148	530.79
53.1293	544.36
53.1437	519.66
53.1582	492.57
53.1726	556.51
53.1870	517.91
53.2015	507.34
53.2159	519.99
53.2304	507.90
53.2448	527.25
53.2592	480.59
53.2737	492.20
53.2881	524.30
53.3026	522.56
53.3170	504.23
53.3314	505.94
53.3459	512.57
53.3603	498.46
53.3748	463.97
53.3892	479.83
53.4036	512.24
53.4181	500.12
53.4325	499.43
53.4470	509.50
53.4614	513.62
53.4758	483.68
53.4903	513.83
53.5047	499.66
53.5192	518.79
53.5336	515.25
53.5480	522.91
53.5625	543.81
53.5769	532.13
53.5914	546.38
53.6058	529.01
53.6202	506.30
53.6347	525.78
53.6491	516.92
53.6636	514.00
53.6780	500.38
53.6924	520.76
53.7069	570.22
53.7213	507.77
53.7358	501.87
53.7502	502.60
53.7646	500.92
53.7791	542.08
53.7935	518.40
53.8080	545.57
53.8224	520.03
53.8368	520.95
53.8513	533.75
53.8657	533.17
53.8802	504.79
53.8946	527.43
53.9090	502.11
53.9235	483.71
53.9379	532.16
53.9524	504.02
53.9668	515.35
53.9812	552.35
53.9957	511.58
54.0101	495.02
54.0246	515.12
54.0390	541.96
54.0534	499.75
54.0679	524.35
54.0823	550.67
54.0968	541.34
54.1112	508.39
54.1256	565.19
54.1401	565.00
54.1545	527.16
54.1690	530.89
54.1834	544.97
54.1978	550.53
54.2123	590.39
54.2267	583.53
54.2412	594.74
54.2556	612.66
54.2700	632.20
54.2845	639.62
54.2989	632.00
54.3134	618.40
54.3278	627.51
54.3422	595.99
54.3567	588.07
54.3711	587.28
54.3856	568.53
54.4000	545.26
54.4144	575.65
54.4289	619.65
54.4433	578.40
54.4578	562.85
54.4722	586.03
54.4866	582.54
54.5011	558.92
54.5155	547.41
54.5300	543.83
54.5444	522.46
54.5588	541.84
54.5733	526.44
54.5877	520.48
54.6022	520.65
54.6166	541.99
54.6310	532.15
54.6455	521.40
54.6599	530.48
54.6744	478.65
54.6888	514.75
54.7032	533.11
54.7177	482.56
54.7321	500.63
54.7466	491.77
54.7610	516.40
54.7754	506.72
54.7899	492.97
54.8043	482.19
54.8188	491.08
54.8332	521.33
54.8476	522.15
54.8621	517.34
54.8765	497.80
54.8910	504.33
54.9054	518.87
54.9198	481.06
54.9343	513.64
54.9487	527.83
54.9632	513.05
54.9776	508.43
54.9920	503.05
55.0065	523.27
55.0209	536.53
55.0354	509.96
55.0498	501.85
55.0642	515.21
55.0787	516.54
55.0931	504.12
55.1076	504.14
55.1220	540.02
55.1364	508.95
55.1509	483.29
55.1653	525.80
55.1798	534.96
55.1942	501.22
55.2086	510.38
55.2231	539.89
55.2375	510.17
55.2520	523.29
55.2664	538.42
55.2808	514.07
55.2953	503.00
55.3097	526.98
55.3242	514.85
55.3386	536.10
55.3530	514.68
55.3675	544.30
55.3819	531.63
55.3964	512.37
55.4108	524.95
55.4252	531.38
55.4397	506.18
55.4541	508.75
55.4686	531.91
55.4830	522.83
55.4974	532.78
55.5119	550.77
55.5263	535.41
55.5408	539.44
55.5552	543.13
55.5696	511.21
55.5841	514.50
55.5985	514.28
55.6130	521.24
55.6274	534.99
55.6418	495.49
55.6563	489.14
55.6707	530.69
55.6852	529.93
55.6996	523.64
55.7140	561.63
55.7285	544.99
55.7429	539.32
55.7574	502.51
55.7718	530.35
55.7862	579.44
55.8007	554.60
55.8151	514.01
55.8296	547.99
55.8440	531.90
55.8584	538.31
55.8729	526.99
55.8873	500.37
55.9018	513.16
55.9162	552.23
55.9306	517.76
55.9451	511.66
55.9595	519.60
55.9740	526.69
55.9884	537.29
56.0028	509.04
56.0173	535.42
56.0317	543.46
56.0462	513.95
56.0606	537.74
56.0750	539.18
56.0895	538.83
56.1039	516.03
56.1184	521.10
56.1328	507.70
56.1472	481.13
56.1617	564.74
56.1761	522.16
56.1906	508.18
56.2050	507.70
56.2194	519.41
56.2339	516.95
56.2483	529.48
56.2628	481.95
56.2772	511.56
56.2916	505.33
56.3061	506.60
56.3205	522.75
56.3350	570.01
56.3494	506.53
56.3639	491.56
56.3783	525.45
56.3927	495.71
56.4072	504.97
56.4216	538.54
56.4361	502.46
56.4505	491.99
56.4649	522.78
56.4794	509.49
56.4938	539.58
56.5083	552.63
56.5227	538.31
56.5371	519.99
56.5516	506.74
56.5660	506.38
56.5805	529.23
56.5949	506.13
56.6093	495.40
56.6238	512.81
56.6382	545.47
56.6527	505.36
56.6671	509.03
56.6815	479.56
56.6960	506.67
56.7104	517.63
56.7249	517.25
56.7393	508.12
56.7537	482.56
56.7682	513.17
56.7826	504.62
56.7971	513.90
56.8115	538.60
56.8259	539.39
56.8404	529.87
56.8548	537.12
56.8693	553.21
56.8837	542.48
56.8981	514.93
56.9126	526.90
56.9270	501.72
56.9415	517.02
56.9559	518.44
56.9703	482.06
56.9848	524.85
56.9992	539.03
57.0137	532.77
57.0281	555.62
57.0425	518.73
57.0570	557.51
57.0714	543.76
57.0859	544.49
57.1003	516.51
57.1147	538.95
57.1292	529.79
57.1436	480.70
57.1581	509.14
57.1725	534.16
57.1869	497.58
57.2014	517.19
57.2158	512.30
57.2303	547.24
57.2447	516.11
57.2591	491.66
57.2736	502.32
57.2880	535.85
57.3025	515.22
57.3169	483.95
57.3313	526.61
57.3458	551.09
57.3602	547.15
57.3747	503.24
57.3891	547.37
57.4035	522.29
57.4180	491.30
57.4324	537.37
57.4469	530.84
57.4613	537.60
57.4757	542.89
57.4902	530.59
57.5046	517.71
57.5191	536.32
57.5335	540.53
57.5479	578.03
57.5624	567.56
57.5768	516.61
57.5913	483.67
57.6057	573.55
57.6201	533.10
57.6346	526.97
57.6490	543.58
57.6635	555.70
57.6779	581.00
57.6923	552.13
57.7068	548.89
57.7212	552.49
57.7357	582.98
57.7501	584.90
57.7645	554.56
57.7790	596.27
57.7934	594.61
57.8079	613.88
57.8223	642.45
57.8367	690.94
57.8512	688.25
57.8656	749.27
57.8801	741.71
57.8945	753.15
57.9089	704.81
57.9234	727.46
57.9378	676.85
57.9523	653.74
57.9667	654.84
57.9811	612.44
57.9956	662.09
58.0100	640.08
58.0245	665.92
58.0389	641.08
58.0533	660.88
58.0678	647.21
58.0822	615.70
58.0967	597.20
58.1111	556.90
58.1255	550.03
58.1400	555.99
58.1544	534.73
58.1689	562.03
58.1833	547.93
58.1977	532.06
58.2122	575.01
58.2266	572.07
58.2411	571.36
58.2555	542.65
58.2699	558.55
58.2844	564.45
58.2988	534.82
58.3133	552.93
58.3277	546.98
58.3421	552.37
58.3566	527.81
58.3710	531.58
58.3855	524.63
58.3999	508.23
58.4143	527.95
58.4288	562.89
58.4432	508.27
58.4577	525.86
58.4721	552.67
58.4865	531.35
58.5010	530.45
58.5154	518.98
58.5299	522.68
58.5443	517.65
58.5587	523.69
58.5732	532.27
58.5876	541.29
58.6021	527.36
58.6165	513.14
58.6309	501.84
58.6454	535.59
58.6598	508.99
58.6743	522.63
58.6887	521.38
58.7031	559.94
58.7176	543.91
58.7320	532.50
58.7465	526.83
58.7609	530.10
58.7753	519.37
58.7898	510.38
58.8042	503.07
58.8187	539.92
58.8331	543.80
58.8475	512.20
58.8620	509.28
58.8764	521.07
58.8909	495.21
58.9053	530.77
58.9197	513.88
58.9342	515.59
58.9486	523.89
58.9631	489.67
58.9775	511.50
58.9919	525.86
59.0064	493.67
59.0208	531.96
59.0353	537.60
59.0497	531.83
59.0641	561.19
59.0786	563.70
59.0930	572.09
59.1075	566.25
59.1219	587.38
59.1363	513.18
59.1508	497.37
59.1652	527.95
59.1797	548.63
59.1941	551.50
59.2085	513.47
59.2230	529.15
59.2374	551.32
59.2519	537.36
59.2663	527.06
59.2807	584.66
59.2952	527.76
59.3096	537.96
59.3241	541.63
59.3385	539.35
59.3529	547.62
59.3674	573.13
59.3818	539.75
59.3963	515.02
59.4107	551.10
59.4251	602.36
59.4396	589.47
59.4540	559.53
59.4685	536.25
59.4829	536.45
59.4973	521.36
59.5118	543.58
59.5262	562.21
59.5407	562.75
59.5551	553.63
59.5695	558.10
59.5840	544.60
59.5984	530.23
59.6129	514.99
59.6273	538.76
59.6417	552.60
59.6562	561.82
59.6706	550.07
59.6851	515.48
59.6995	511.21
59.7139	531.50
59.7284	526.19
59.7428	548.86
59.7573	513.21
59.7717	497.58
59.7861	576.53
59.8006	541.23
59.8150	497.98
59.8295	537.81
59.8439	494.72
59.8583	548.19
59.8728	531.41
59.8872	513.82
59.9017	535.45
59.9161	526.73
59.9305	527.70
59.9450	495.32
59.9594	499.21
59.9739	503.09
59.9883	543.00
60.0027	508.20
60.0172	474.59
60.0316	543.25
60.0461	522.54
60.0605	523.83
60.0750	540.13
60.0894	544.63
60.1038	530.53
60.1183	518.61
60.1327	553.09
60.1472	493.07
60.1616	515.51
60.1760	541.48
60.1905	508.37
60.2049	515.68
60.2194	528.77
60.2338	523.64
60.2482	520.39
60.2627	508.31
60.2771	519.23
60.2916	535.32
60.3060	524.60
60.3204	559.23
60.3349	535.81
60.3493	534.00
60.3638	565.17
60.3782	535.98
60.3926	522.21
60.4071	543.11
60.4215	573.94
60.4360	562.19
60.4504	526.70
60.4648	530.36
60.4793	513.31
60.4937	526.85
60.5082	512.75
60.5226	533.35
60.5370	535.77
60.5515	518.17
60.5659	516.85
60.5804	520.31
60.5948	546.55
60.6092	547.19
60.6237	508.24
60.6381	499.38
60.6526	521.72
60.6670	532.54
60.6814	510.26
60.6959	566.25
60.7103	539.87
60.7248	542.66
60.7392	522.86
60.7536	557.32
60.7681	526.63
60.7825	539.08
60.7970	539.81
60.8114	525.46
60.8258	540.19
60.8403	543.93
60.8547	517.27
60.8692	491.10
60.8836	508.92
60.8980	566.19
60.9125	555.49
60.9269	554.36
60.9414	558.31
60.9558	514.05
60.9702	529.54
60.9847	563.17
60.9991	537.01
61.0136	523.45
61.0280	510.65
61.0424	482.95
61.0569	517.80
61.0713	532.30
61.0858	560.20
61.1002	569.59
61.1146	543.90
61.1291	543.22
61.1435	514.42
61.1580	537.01
61.1724	519.66
61.1868	546.96
61.2013	517.95
61.2157	535.65
61.2302	542.75
61.2446	571.44
61.2590	525.82
61.2735	539.38
61.2879	549.18
61.3024	530.36
61.3168	578.00
61.3312	557.69
61.3457	574.63
61.3601	543.51
61.3746	559.17
61.3890	505.95
61.4034	513.94
61.4179	526.00
61.4323	553.88
61.4468	543.02
61.4612	539.58
61.4756	540.00
61.4901	567.87
61.5045	526.35
61.5190	525.09
61.5334	538.83
61.5478	510.98
61.5623	527.13
61.5767	539.10
61.5912	546.71
61.6056	545.48
61.6200	559.16
61.6345	562.11
61.6489	529.81
61.6634	529.29
61.6778	533.81
61.6922	505.75
61.7067	526.63
61.7211	566.05
61.7356	541.80
61.7500	549.15
61.7644	553.88
61.7789	555.89
61.7933	543.26
61.8078	543.63
61.8222	545.39
61.8366	511.47
61.8511	535.39
61.8655	560.38
61.8800	561.52
61.8944	550.25
61.9088	531.73
61.9233	570.74
61.9377	583.24
61.9522	538.54
61.9666	492.81
61.9810	570.53
61.9955	569.18
62.0099	533.51
62.0244	561.48
62.0388	521.02
62.0532	530.26
62.0677	565.75
62.0821	512.92
62.0966	530.25
62.1110	518.82
62.1254	558.26
62.1399	542.88
62.1543	525.96
62.1688	542.64
62.1832	555.25
62.1976	538.95
62.2121	517.93
62.2265	591.18
62.2410	575.45
62.2554	559.93
62.2698	516.65
62.2843	547.58
62.2987	563.51
62.3132	524.22
62.3276	537.99
62.3420	548.27
62.3565	555.00
62.3709	542.74
62.3854	539.18
62.3998	547.65
62.4142	552.82
62.4287	569.58
62.4431	527.42
62.4576	531.38
62.4720	567.65
62.4864	526.69
62.5009	554.74
62.5153	557.60
62.5298	566.88
62.5442	573.26
62.5586	577.76
62.5731	555.50
62.5875	544.51
62.6020	575.87
62.6164	573.43
62.6308	544.02
62.6453	564.80
62.6597	541.84
62.6742	555.42
62.6886	538.54
62.7030	548.89
62.7175	546.62
62.7319	526.26
62.7464	530.97
62.7608	529.82
62.7752	531.18
62.7897	573.47
62.8041	568.81
62.8186	556.12
62.8330	566.52
62.8474	559.78
62.8619	597.61
62.8763	595.62
62.8908	570.12
62.9052	550.35
62.9196	546.75
62.9341	541.82
62.9485	536.24
62.9630	526.51
62.9774	554.85
62.9918	562.90
63.0063	557.62
63.0207	552.41
63.0352	555.00
63.0496	539.29
63.0640	572.29
63.0785	604.11
63.0929	598.57
63.1074	563.99
63.1218	603.37
63.1362	572.29
63.1507	519.17
63.1651	556.09
63.1796	535.80
63.1940	528.32
63.2084	552.73
63.2229	570.84
63.2373	556.32
63.2518	569.45
63.2662	558.98
63.2806	598.31
63.2951	594.35
63.3095	581.95
63.3240	560.60
63.3384	626.00
63.3528	588.78
63.3673	618.34
63.3817	631.92
63.3962	624.01
63.4106	619.35
63.4250	653.13
63.4395	650.99
63.4539	651.69
63.4684	717.40
63.4828	756.17
63.4972	772.88
63.5117	815.52
63.5261	886.09
63.5406	956.58
63.5550	989.91
63.5694	983.09
63.5839	932.70
63.5983	870.13
63.6128	892.13
63.6272	846.17
63.6416	799.47
63.6561	772.53
63.6705	797.71
63.6850	790.31
63.6994	805.10
63.7138	828.43
63.7283	835.84
63.7427	807.26
63.7572	798.47
63.7716	803.07
63.7861	813.93
63.8005	703.88
63.8149	708.17
63.8294	690.31
63.8438	662.73
63.8583	654.67
63.8727	655.33
63.8871	630.94
63.9016	616.65
63.9160	631.69
63.9305	631.84
63.9449	580.43
63.9593	601.21
63.9738	596.46
63.9882	571.56
64.0027	616.40
64.0171	605.58
64.0315	595.55
64.0460	560.92
64.0604	564.32
64.0749	600.09
64.0893	629.89
64.1037	580.96
64.1182	601.74
64.1326	598.99
64.1471	601.71
64.1615	596.20
64.1759	584.75
64.1904	577.59
64.2048	564.92
64.2193	612.14
64.2337	599.58
64.2481	587.06
64.2626	552.26
64.2770	599.05
64.2915	611.49
64.3059	600.74
64.3203	583.05
64.3348	596.98
64.3492	634.69
64.3637	610.79
64.3781	570.16
64.3925	606.24
64.4070	589.30
64.4214	628.60
64.4359	650.23
64.4503	637.93
64.4647	613.40
64.4792	604.41
64.4936	585.73
64.5081	622.07
64.5225	627.01
64.5369	622.75
64.5514	604.52
64.5658	607.81
64.5803	604.39
64.5947	649.47
64.6091	650.51
64.6236	631.87
64.6380	660.23
64.6525	666.16
64.6669	658.69
64.6813	702.69
64.6958	699.97
64.7102	711.28
64.7247	658.25
64.7391	670.91
64.7535	686.47
64.7680	723.10
64.7824	738.37
64.7969	724.26
64.8113	768.87
64.8257	737.87
64.8402	791.83
64.8546	778.71
64.8691	822.81
64.8835	827.78
64.8979	895.80
64.9124	869.68
64.9268	829.61
64.9413	888.43
64.9557	892.37
64.9701	923.98
64.9846	1011.33
64.9990	1112.68
65.0135	1257.82
65.0279	1427.01
65.0423	1622.50
65.0568	1900.48
65.0712	2498.91
65.0857	3272.53
65.1001	4275.34
65.1145	5790.71
65.1290	7640.24
65.1434	9096.78
65.1579	10749.03
65.1723	11395.15
65.1867	11206.71
65.2012	10080.79
65.2156	8235.91
65.2301	6553.70
65.2445	5316.34
65.2589	4422.50
65.2734	4044.56
65.2878	4231.97
65.3023	4770.21
65.3167	5495.52
65.3311	6389.01
65.3456	6710.97
65.3600	6918.06
65.3745	6432.45
65.3889	5505.98
65.4033	4346.61
65.4178	3496.27
65.4322	2796.67
65.4467	2049.35
65.4611	1682.97
65.4755	1531.77
65.4900	1281.30
65.5044	1131.26
65.5189	1039.44
65.5333	926.48
65.5477	915.45
65.5622	869.35
65.5766	844.91
65.5911	842.74
65.6055	787.65
65.6199	784.76
65.6344	767.44
65.6488	733.28
65.6633	729.64
65.6777	678.80
65.6921	699.86
65.7066	706.61
65.7210	724.72
65.7355	700.66
65.7499	702.04
65.7643	662.27
65.7788	658.16
65.7932	672.44
65.8077	662.13
65.8221	697.98
65.8365	655.91
65.8510	676.97
65.8654	670.42
65.8799	645.80
65.8943	649.74
65.9087	661.93
65.9232	618.77
65.9376	626.58
65.9521	627.85
65.9665	620.77
65.9809	618.92
65.9954	647.96
66.0098	635.79
66.0243	619.48
66.0387	619.44
66.0531	618.78
66.0676	627.52
66.0820	622.93
66.0965	602.17
66.1109	607.53
66.1253	658.60
66.1398	633.43
66.1542	582.32
66.1687	636.02
66.1831	628.13
66.1975	565.62
66.2120	557.72
66.2264	590.54
66.2409	608.78
66.2553	628.17
66.2697	625.73
66.2842	597.93
66.2986	582.81
66.3131	621.96
66.3275	593.22
66.3419	630.44
66.3564	611.93
66.3708	602.09
66.3853	589.35
66.3997	579.30
66.4141	594.64
66.4286	627.67
66.4430	601.87
66.4575	603.46
66.4719	601.79
66.4863	600.44
66.5008	576.47
66.5152	609.20
66.5297	602.49
66.5441	596.39
66.5585	608.58
66.5730	570.27
66.5874	552.05
66.6019	581.05
66.6163	609.17
66.6307	590.59
66.6452	566.93
66.6596	593.63
66.6741	576.96
66.6885	572.52
66.7029	590.82
66.7174	612.93
66.7318	598.31
66.7463	567.58
66.7607	570.23
66.7751	614.30
66.7896	614.00
66.8040	594.12
66.8185	598.90
66.8329	580.59
66.8473	574.20
66.8618	587.02
66.8762	595.14
66.8907	585.23
66.9051	590.86
66.9195	575.64
66.9340	561.44
66.9484	595.52
66.9629	570.59
66.9773	563.35
66.9917	558.13
67.0062	573.60
67.0206	560.62
67.0351	584.69
67.0495	588.50
67.0639	611.20
67.0784	614.85
67.0928	597.49
67.1073	593.48
67.1217	569.94
67.1361	555.86
67.1506	561.78
67.1650	575.48
67.1795	555.11
67.1939	547.21
67.2083	544.36
67.2228	558.91
67.2372	582.05
67.2517	583.73
67.2661	559.62
67.2805	536.14
67.2950	572.58
67.3094	570.16
67.3239	572.22
67.3383	615.73
67.3527	578.36
67.3672	567.26
67.3816	571.96
67.3961	601.03
67.4105	557.15
67.4250	562.95
67.4394	585.90
67.4538	571.62
67.4683	602.39
67.4827	615.45
67.4972	599.70
67.5116	552.34
67.5260	565.41
67.5405	555.95
67.5549	585.20
67.5694	571.25
67.5838	570.86
67.5982	595.24
67.6127	560.99
67.6271	583.29
67.6416	569.88
67.6560	554.83
67.6704	590.35
67.6849	545.18
67.6993	557.08
67.7138	568.64
67.7282	585.27
67.7426	563.26
67.7571	589.31
67.7715	597.42
67.7860	563.91
67.8004	567.72
67.8148	554.04
67.8293	589.55
67.8437	571.47
67.8582	610.76
67.8726	599.01
67.8870	571.13
67.9015	590.09
67.9159	592.53
67.9304	536.18
67.9448	560.87
67.9592	567.67
67.9737	554.50
67.9881	548.15
68.0026	549.65
68.0170	572.99
68.0314	584.86
68.0459	567.87
68.0603	561.95
68.0748	547.16
68.0892	571.74
68.1036	582.30
68.1181	577.75
68.1325	586.41
68.1470	561.53
68.1614	571.44
68.1758	547.89
68.1903	561.58
68.2047	570.63
68.2192	574.75
68.2336	595.52
68.2480	559.11
68.2625	542.83
68.2769	543.32
68.2914	568.57
68.3058	602.36
68.3202	579.25
68.3347	590.88
68.3491	583.28
68.3636	574.98
68.3780	571.73
68.3924	621.44
68.4069	578.11
68.4213	564.71
68.4358	552.78
68.4502	557.04
68.4646	551.25
68.4791	513.73
68.4935	581.19
68.5080	581.54
68.5224	573.47
68.5368	562.26
68.5513	563.09
68.5657	543.23
68.5802	534.60
68.5946	546.52
68.6090	558.15
68.6235	556.31
68.6379	546.84
68.6524	541.48
68.6668	559.66
68.6812	569.49
68.6957	578.94
68.7101	630.99
68.7246	566.81
68.7390	571.11
68.7534	570.47
68.7679	549.34
68.7823	567.48
68.7968	594.20
68.8112	570.21
68.8256	566.02
68.8401	540.55
68.8545	575.33
68.8690	576.44
68.8834	580.20
68.8978	545.21
68.9123	557.18
68.9267	598.25
68.9412	560.21
68.9556	558.57
68.9700	572.60
68.9845	549.16
68.9989	548.16
69.0134	548.31
69.0278	572.02
69.0422	575.37
69.0567	523.12
69.0711	554.91
69.0856	579.29
69.1000	549.41
69.1144	603.72
69.1289	618.84
69.1433	563.73
69.1578	548.44
69.1722	568.26
69.1866	599.67
69.2011	592.18
69.2155	560.52
69.2300	586.29
69.2444	548.25
69.2588	590.84
69.2733	592.80
69.2877	536.94
69.3022	563.74
69.3166	544.10
69.3310	565.84
69.3455	542.26
69.3599	555.59
69.3744	562.17
69.3888	640.61
69.4032	578.95
69.4177	584.52
69.4321	535.89
69.4466	585.74
69.4610	562.50
69.4754	561.87
69.4899	583.47
69.5043	548.16
69.5188	561.22
69.5332	624.70
69.5476	589.48
69.5621	581.08
69.5765	593.69
69.5910	611.04
69.6054	609.10
69.6198	522.70
69.6343	534.22
69.6487	577.15
69.6632	551.68
69.6776	549.52
69.6920	516.95
69.7065	557.55
69.7209	553.01
69.7354	558.59
69.7498	530.44
69.7642	583.32
69.7787	585.35
69.7931	541.06
69.8076	553.66
69.8220	608.54
69.8364	616.91
69.8509	597.57
69.8653	575.08
69.8798	536.97
69.8942	603.62
69.9086	540.29
69.9231	554.69
69.9375	593.78
69.9520	552.10
69.9664	630.46
69.9808	552.80
69.9953	555.05
70.0097	586.18
70.0242	580.78
70.0386	520.08
70.0530	540.54
70.0675	594.56
70.0819	613.91
70.0964	547.46
70.1108	585.03
70.1252	600.81
70.1397	573.82
70.1541	579.28
70.1686	559.41
70.1830	574.16
70.1974	622.44
70.2119	609.28
70.2263	616.94
70.2408	607.50
70.2552	551.33
70.2696	566.29
70.2841	620.00
70.2985	588.20
70.3130	578.31
70.3274	549.80
70.3418	576.23
70.3563	599.23
70.3707	612.09
70.3852	557.50
70.3996	565.95
70.4140	570.49
70.4285	581.38
70.4429	557.55
70.4574	539.55
70.4718	596.56
70.4862	580.14
70.5007	556.82
70.5151	580.24
70.5296	575.19
70.5440	586.00
70.5584	583.74
70.5729	540.00
70.5873	515.01
70.6018	526.74
70.6162	619.78
70.6306	624.94
70.6451	559.32
70.6595	555.50
70.6740	616.41
70.6884	599.18
70.7028	562.39
70.7173	559.71
70.7317	536.15
70.7462	574.23
70.7606	552.51
70.7750	574.58
70.7895	534.14
70.8039	582.89
70.8184	586.74
70.8328	593.21
70.8472	538.65
70.8617	549.26
70.8761	586.59
70.8906	582.04
70.9050	638.78
70.9194	654.93
70.9339	612.82
70.9483	549.96
70.9628	531.11
70.9772	522.69
70.9916	597.36
71.0061	581.58
71.0205	589.24
71.0350	575.34
71.0494	564.65
71.0638	581.67
71.0783	558.59
71.0927	599.28
71.1072	599.46
71.1216	586.65
71.1361	529.73
71.1505	561.38
71.1649	629.61
71.1794	611.52
71.1938	555.17
71.2083	553.86
71.2227	531.48
71.2371	531.96
71.2516	539.13
71.2660	571.79
71.2805	543.03
71.2949	551.29
71.3093	566.49
71.3238	577.28
71.3382	636.85
71.3527	642.12
71.3671	585.86
71.3815	566.91
71.3960	575.07
71.4104	580.14
71.4249	590.28
71.4393	596.63
71.4537	576.63
71.4682	565.63
71.4826	525.19
71.4971	537.68
71.5115	548.88
71.5259	543.69
71.5404	555.33
71.5548	565.88
71.5693	554.04
71.5837	509.39
71.5981	564.60
71.6126	559.16
71.6270	549.02
71.6415	541.51
71.6559	546.17
71.6703	629.00
71.6848	604.81
71.6992	598.38
71.7137	610.79
71.7281	600.74
71.7425	581.76
71.7570	587.95
71.7714	601.34
71.7859	555.95
71.8003	589.48
71.8147	585.21
71.8292	550.87
71.8436	615.12
71.8581	571.28
71.8725	547.98
71.8869	539.80
71.9014	652.97
71.9158	661.59
71.9303	584.64
71.9447	517.23
71.9591	513.80
71.9736	517.30
71.9880	480.72
72.0025	528.27
72.0169	591.46
72.0313	681.85
72.0458	659.94
72.0602	591.62
72.0747	570.21
72.0891	624.50
72.1035	651.44
72.1180	543.55
72.1324	560.89
72.1469	661.03
72.1613	698.84
72.1757	694.77
72.1902	680.60
72.2046	632.93
72.2191	526.69
72.2335	537.69
72.2479	536.33
72.2624	534.71
72.2768	589.39
72.2913	595.32
72.3057	575.09
72.3201	589.33
72.3346	585.90
72.3490	566.29
72.3635	558.22
72.3779	482.16
72.3923	502.09
72.4068	584.99
72.4212	562.55
72.4357	527.00
72.4501	505.78
72.4645	587.07
72.4790	578.86
72.4934	538.69
72.5079	562.31
72.5223	568.48
72.5367	538.51
72.5512	537.28
72.5656	607.76
72.5801	539.33
72.5945	517.40
72.6089	505.00
72.6234	502.49
72.6378	514.52
72.6523	531.07
72.6667	586.73
72.6811	643.06
72.6956	514.90
72.7100	552.07
72.7245	605.29
72.7389	537.35
72.7533	501.74
72.7678	506.33
72.7822	592.84
72.7967	572.28
72.8111	608.12
72.8255	606.62
72.8400	630.04
72.8544	569.71
72.8689	509.48
72.8833	531.93

Result vector
22.1120	616.53
22.1264	565.75
22.1409	470.75
22.1553	524.77
22.1697	616.81
22.1842	643.03
22.1986	558.19
22.2131	590.83
22.2275	496.90
22.2419	564.32
22.2564	509.97
22.2708	610.74
22.2853	619.61
22.2997	643.25
22.3141	546.34
22.3286	540.19
22.3430	552.55
22.3575	598.78
22.3719	524.53
22.3863	592.00
22.4008	626.06
22.4152	630.73
22.4297	693.15
22.4441	579.69
22.4585	603.07
22.4730	601.98
22.4874	514.52
22.5019	519.84
22.5163	559.37
22.5307	540.72
22.5452	518.45
22.5596	637.17
22.5741	640.74
22.5885	607.77
22.6029	566.91
22.6174	493.69
22.6318	469.99
22.6463	573.46
22.6607	597.22
22.6751	457.58
22.6896	526.51
22.7040	633.41
22.7185	597.03
22.7329	610.48
22.7473	542.81
22.7618	500.85
22.7762	581.63
22.7907	628.81
22.8051	545.50
22.8195	600.48
22.8340	530.64
22.8484	576.85
22.8629	645.50
22.8773	621.02
22.8917	580.82
22.9062	562.15
22.9206	549.24
22.9351	519.05
22.9495	524.58
22.9639	576.59
22.9784	574.89
22.9928	577.23
23.0073	512.37
23.0217	594.57
23.0361	492.36
23.0506	460.40
23.0650	550.71
23.0795	561.44
23.0939	587.73
23.1083	577.38
23.1228	626.81
23.1372	512.46
23.1517	533.29
23.1661	550.50
23.1806	523.34
23.1950	545.28
23.2094	536.51
23.2239	516.89
23.2383	506.04
23.2528	540.67
23.2672	556.73
23.2816	560.94
23.2961	559.79
23.3105	576.40
23.3250	619.35
23.3394	605.66
23.3538	562.83
23.3683	505.98
23.3827	512.00
23.3972	519.42
23.4116	519.92
23.4260	549.99
23.4405	568.52
23.4549	497.00
23.4694	547.43
23.4838	581.35
23.4982	527.53
23.5127	492.97
23.5271	561.01
23.5416	525.41
23.5560	544.14
23.5704	572.63
23.5849	605.24
23.5993	575.48
23.6138	530.85
23.6282	578.19
23.6426	592.95
23.6571	543.63
23.6715	527.91
23.6860	492.74
23.7004	511.71
23.7148	541.10
23.7293	555.13
23.7437	588.74
23.7582	591.11
23.7726	550.40
23.7870	593.33
23.8015	503.04
23.8159	607.12
23.8304	586.41
23.8448	535.19
23.8592	577.47
23.8737	532.55
23.8881	540.10
23.9026	599.35
23.9170	568.25
23.9314	535.22
23.9459	536.51
23.9603	537.82
23.9748	614.26
23.9892	557.85
24.0036	527.83
24.0181	549.50
24.0325	574.74
24.0470	576.10
24.0614	589.42
24.0758	514.23
24.0903	566.75
24.1047	575.53
24.1192	560.24
24.1336	582.51
24.1480	557.86
24.1625	566.02
24.1769	599.21
24.1914	601.51
24.2058	509.42
24.2202	560.02
24.2347	614.51
24.2491	575.22
24.2636	565.83
24.2780	595.39
24.2924	565.85
24.3069	544.64
24.3213	555.05
24.3358	562.95
24.3502	555.52
24.3646	600.57
24.3791	577.58
24.3935	567.41
24.4080	574.61
24.4224	533.63
24.4368	597.21
24.4513	540.89
24.4657	529.07
24.4802	530.09
24.4946	575.77
24.5090	553.59
24.5235	471.31
24.5379	539.39
24.5524	532.92
24.5668	585.16
24.5812	614.84
24.5957	508.15
24.6101	538.46
24.6246	575.07
24.6390	525.34
24.6534	547.21
24.6679	542.41
24.6823	487.28
24.6968	527.59
24.7112	486.09
24.7256	548.07
24.7401	553.47
24.7545	565.80
24.7690	513.27
24.7834	501.60
24.7978	478.45
24.8123	509.68
24.8267	489.28
24.8412	547.97
24.8556	563.73
24.8700	560.89
24.8845	587.35
24.8989	583.11
24.9134	561.26
24.9278	469.38
24.9422	566.07
24.9567	501.13
24.9711	499.93
24.9856	523.25
25.0000	528.19
25.0144	543.08
25.0289	546.49
25.0433	587.30
25.0578	594.68
25.0722	544.70
25.0866	578.46
25.1011	529.75
25.1155	493.24
25.1300	529.12
25.1444	564.57
25.1588	532.69
25.1733	544.10
25.1877	547.31
25.2022	562.88
25.2166	600.73
25.2310	550.80
25.2455	516.04
25.2599	518.90
25.2744	560.64
25.2888	537.45
25.3032	531.43
25.3177	561.89
25.3321	562.55
25.3466	566.88
25.3610	560.32
25.3754	537.63
25.3899	538.38
25.4043	536.61
25.4188	511.57
25.4332	517.93
25.4476	523.07
25.4621	531.16
25.4765	565.07
25.4910	552.86
25.5054	527.53
25.5198	555.59
25.5343	522.69
25.5487	549.64
25.5632	523.81
25.5776	535.15
25.5920	544.21
25.6065	546.89
25.6209	516.37
25.6354	524.29
25.6498	560.40
25.6642	520.00
25.6787	544.48
25.6931	534.66
25.7076	531.52
25.7220	516.63
25.7364	529.91
25.7509	530.01
25.7653	528.17
25.7798	529.36
25.7942	546.45
25.8086	540.02
25.8231	521.63
25.8375	580.27
25.8520	577.22
25.8664	539.60
25.8808	564.68
25.8953	571.05
25.9097	573.81
25.9242	552.99
25.9386	542.23
25.9530	525.08
25.9675	510.52
25.9819	538.99
25.9964	555.51
26.0108	540.36
26.0252	523.83
26.0397	535.51
26.0541	498.70
26.0686	518.93
26.0830	510.54
26.0974	498.69
26.1119	510.87
26.1263	487.98
26.1408	522.51
26.1552	528.53
26.1696	539.43
26.1841	517.83
26.1985	532.02
26.2130	535.68
26.2274	571.18
26.2418	528.13
26.2563	526.86
26.2707	550.56
26.2852	532.32
26.2996	521.36
26.3140	529.19
26.3285	538.72
26.3429	526.16
26.3574	535.21
26.3718	543.72
26.3862	492.28
26.4007	524.42
26.4151	513.27
26.4296	562.68
26.4440	548.01
26.4584	548.27
26.4729	543.55
26.4873	524.73
26.5018	500.48
26.5162	510.57
26.5306	497.26
26.5451	507.94
26.5595	538.88
26.5740	548.77
26.5884	534.72
26.6028	537.20
26.6173	538.20
26.6317	553.64
26.6462	503.01
26.6606	515.56
26.6750	560.23
26.6895	528.53
26.7039	535.15
26.7184	540.75
26.7328	537.44
26.7472	548.13
26.7617	549.90
26.7761	528.20
26.7906	499.70
26.8050	509.03
26.8194	497.34
26.8339	511.57
26.8483	516.39
26.8628	533.59
26.8772	543.09
26.8917	513.18
26.9061	531.32
26.9205	513.36
26.9350	530.92
26.9494	515.50
26.9639	491.99
26.9783	530.82
26.9927	541.21
27.0072	526.18
27.0216	546.94
27.0361	565.68
27.0505	534.97
27.0649	548.00
27.0794	522.95
27.0938	517.12
27.1083	506.71
27.1227	526.36
27.1371	541.74
27.1516	499.88
27.1660	514.96
27.1805	498.83
27.1949	507.99
27.2093	512.27
27.2238	519.19
27.2382	528.99
27.2527	495.03
27.2671	525.69
27.2815	524.53
27.2960	504.94
27.3104	512.73
27.3249	543.95
27.3393	529.96
27.3537	538.37
27.3682	515.41
27.3826	481.82
27.3971	497.52
27.4115	526.35
27.4259	552.72
27.4404	528.87
27.4548	515.49
27.4693	511.73
27.4837	538.57
27.4981	488.28
27.5126	517.13
27.5270	497.13
27.5415	511.92
27.5559	538.64
27.5703	553.17
27.5848	542.84
27.5992	525.81
27.6137	533.47
27.6281	501.19
27.6425	500.03
27.6570	510.39
27.6714	547.20
27.6859	519.03
27.7003	523.71
27.7147	533.39
27.7292	521.96
27.7436	504.72
27.7581	511.75
27.7725	511.69
27.7869	503.98
27.8014	496.17
27.8158	474.59
27.8303	495.58
27.8447	507.18
27.8591	526.86
27.8736	476.21
27.8880	506.36
27.9025	535.07
27.9169	541.64
27.9313	514.32
27.9458	487.95
27.9602	484.58
27.9747	488.54
27.9891	523.87
28.0035	520.63
28.0180	514.56
28.0324	525.13
28.0469	527.22
28.0613	536.98
28.0757	505.55
28.0902	527.39
28.1046	503.59
28.1191	517.75
28.1335	521.50
28.1479	502.96
28.1624	494.44
28.1768	476.00
28.1913	502.14
28.2057	508.93
28.2201	482.18
28.2346	501.74
28.2490	502.78
28.2635	487.89
28.2779	519.92
28.2923	551.56
28.3068	533.51
28.3212	528.81
28.3357	541.12
28.3501	499.80
28.3645	495.47
28.3790	533.92
28.3934	542.29
28.4079	522.55
28.4223	518.22
28.4367	554.76
28.4512	535.49
28.4656	513.15
28.4801	524.22
28.4945	511.99
28.5089	490.85
28.5234	511.33
28.5378	554.72
28.5523	550.58
28.5667	493.35
28.5811	510.87
28.5956	502.35
28.6100	497.17
28.6245	512.90
28.6389	509.31
28.6533	478.26
28.6678	472.13
28.6822	496.60
28.6967	515.51
28.7111	537.97
28.7255	512.98
28.7400	498.89
28.7544	517.50
28.7689	510.21
28.7833	493.81
28.7977	517.91
28.8122	523.98
28.8266	486.46
28.8411	473.92
28.8555	481.79
28.8699	539.64
28.8844	508.75
28.8988	508.31
28.9133	498.08
28.9277	506.78
28.9421	520.06
28.9566	495.15
28.9710	512.90
28.9855	471.59
28.9999	525.84
29.0143	527.37
29.0288	548.14
29.0432	521.90
29.0577	497.28
29.0721	463.82
29.0865	485.12
29.1010	493.29
29.1154	476.31
29.1299	511.78
29.1443	485.72
29.1587	475.27
29.1732	508.78
29.1876	500.34
29.2021	522.02
29.2165	509.20
29.2309	518.20
29.2454	536.81
29.2598	478.12
29.2743	506.15
29.2887	520.17
29.3031	485.40
29.3176	518.74
29.3320	508.42
29.3465	495.52
29.3609	492.29
29.3753	503.58
29.3898	493.22
29.4042	481.40
29.4187	505.95
29.4331	506.25
29.4475	493.11
29.4620	494.15
29.4764	528.31
29.4909	504.91
29.5053	521.04
29.5197	509.43
29.5342	494.45
29.5486	470.07
29.5631	503.36
29.5775	495.98
29.5919	506.68
29.6064	477.64
29.6208	502.42
29.6353	550.44
29.6497	524.06
29.6641	512.58
29.6786	474.94
29.6930	483.37
29.7075	512.49
29.7219	531.42
29.7363	477.59
29.7508	512.19
29.7652	510.22
29.7797	496.48
29.7941	474.42
29.8085	484.32
29.8230	497.76
29.8374	498.60
29.8519	516.02
29.8663	510.55
29.8807	506.67
29.8952	532.22
29.9096	526.32
29.9241	504.87
29.9385	513.72
29.9529	514.28
29.9674	523.52
29.9818	508.68
29.9963	517.44
30.0107	483.02
30.0251	493.53
30.0396	527.96
30.0540	543.07
30.0685	532.60
30.0829	557.00
30.0973	532.61
30.1118	490.37
30.1262	478.15
30.1407	512.30
30.1551	533.76
30.1695	514.14
30.1840	496.17
30.1984	510.39
30.2129	492.22
30.2273	485.83
30.2417	497.76
30.2562	488.00
30.2706	496.33
30.2851	528.44
30.2995	520.62
30.3139	502.11
30.3284	527.25
30.3428	532.73
30.3573	518.93
30.3717	495.06
30.3861	513.70
30.4006	498.47
30.4150	505.72
30.4295	549.86
30.4439	549.76
30.4583	533.19
30.4728	591.68
30.4872	563.04
30.5017	594.26
30.5161	612.34
30.5305	696.17
30.5450	713.90
30.5594	723.87
30.5739	755.91
30.5883	739.98
30.6028	701.60
30.6172	714.08
30.6316	735.66
30.6461	711.40
30.6605	636.61
30.6750	609.51
30.6894	602.68
30.7038	609.42
30.7183	554.52
30.7327	547.98
30.7472	542.97
30.7616	500.56
30.7760	535.04
30.7905	512.16
30.8049	537.57
30.8194	521.83
30.8338	489.77
30.8482	509.57
30.8627	516.65
30.8771	535.07
30.8916	549.59
30.9060	527.49
30.9204	531.65
30.9349	546.21
30.9493	536.08
30.9638	540.50
30.9782	516.26
30.9926	500.72
31.0071	510.97
31.0215	501.63
31.0360	505.64
31.0504	499.40
31.0648	500.85
31.0793	488.88
31.0937	496.95
31.1082	504.03
31.1226	486.72
31.1370	519.73
31.1515	510.80
31.1659	499.85
31.1804	500.85
31.1948	508.34
31.2092	516.04
31.2237	510.83
31.2381	532.02
31.2526	525.51
31.2670	508.00
31.2814	552.11
31.2959	534.33
31.3103	499.53
31.3248	537.02
31.3392	557.00
31.3536	547.16
31.3681	513.58
31.3825	487.79
31.3970	497.69
31.4114	496.06
31.4258	513.63
31.4403	525.48
31.4547	505.78
31.4692	499.73
31.4836	513.88
31.4980	474.04
31.5125	508.44
31.5269	509.68
31.5414	520.09
31.5558	499.54
31.5702	510.96
31.5847	477.87
31.5991	492.12
31.6136	526.52
31.6280	501.16
31.6424	504.35
31.6569	511.17
31.6713	490.82
31.6858	527.33
31.7002	504.79
31.7146	517.06
31.7291	515.16
31.7435	503.48
31.7580	488.58
31.7724	470.14
31.7868	506.83
31.8013	489.09
31.8157	487.32
31.8302	490.65
31.8446	479.92
31.8590	534.69
31.8735	495.75
31.8879	481.86
31.9024	481.93
31.9168	508.18
31.9312	484.71
31.9457	496.95
31.9601	483.50
31.9746	499.36
31.9890	476.45
32.0034	500.22
32.0179	506.69
32.0323	506.69
32.0468	504.92
32.0612	532.78
32.0756	503.69
32.0901	517.73
32.1045	466.78
32.1190	481.49
32.1334	510.70
32.1478	483.54
32.1623	500.71
32.1767	470.42
32.1912	466.07
32.2056	489.10
32.2200	531.40
32.2345	512.02
32.2489	532.50
32.2634	481.45
32.2778	485.67
32.2922	501.98
32.3067	515.46
32.3211	505.19
32.3356	484.31
32.3500	494.53
32.3644	500.90
32.3789	516.86
32.3933	500.23
32.4078	520.02
32.4222	538.46
32.4366	512.51
32.4511	542.79
32.4655	518.78
32.4800	475.71
32.4944	495.91
32.5088	493.11
32.5233	503.15
32.5377	503.72
32.5522	546.33
32.5666	510.53
32.5810	475.55
32.5955	485.69
32.6099	479.18
32.6244	464.70
32.6388	512.50
32.6532	539.27
32.6677	500.66
32.6821	535.59
32.6966	517.20
32.7110	515.01
32.7254	508.41
32.7399	512.46
32.7543	515.26
32.7688	486.64
32.7832	496.78
32.7976	534.56
32.8121	511.59
32.8265	502.80
32.8410	502.04
32.8554	477.15
32.8698	500.09
32.8843	535.83
32.8987	540.03
32.9132	517.07
32.9276	490.71
32.9420	476.15
32.9565	472.74
32.9709	499.46
32.9854	531.20
32.9998	496.10
33.0142	510.42
33.0287	478.27
33.0431	522.18
33.0576	542.01
33.0720	521.92
33.0864	523.90
33.1009	533.03
33.1153	524.32
33.1298	532.83
33.1442	489.24
33.1586	496.06
33.1731	504.42
33.1875	487.54
33.2020	489.62
33.2164	515.24
33.2308	513.86
33.2453	496.33
33.2597	463.03
33.2742	489.93
33.2886	537.25
33.3030	506.08
33.3175	501.12
33.3319	527.69
33.3464	519.15
33.3608	503.44
33.3752	512.83
33.3897	482.77
33.4041	511.92
33.4186	507.51
33.4330	498.40
33.4474	497.46
33.4619	503.90
33.4763	513.23
33.4908	492.52
33.5052	505.95
33.5196	512.59
33.5341	506.34
33.5485	502.68
33.5630	488.48
33.5774	496.40
33.5918	500.32
33.6063	467.12
33.6207	483.80
33.6352	531.75
33.6496	498.22
33.6640	506.75
33.6785	553.68
33.6929	501.85
33.7074	518.11
33.7218	473.12
33.7362	484.64
33.7507	490.67
33.7651	458.84
33.7796	513.29
33.7940	523.16
33.8084	528.03
33.8229	514.08
33.8373	539.83
33.8518	510.68
33.8662	536.00
33.8806	528.01
33.8951	528.89
33.9095	514.56
33.9240	500.02
33.9384	498.12
33.9528	477.19
33.9673	477.37
33.9817	474.17
33.9962	496.30
34.0106	505.74
34.0250	495.81
34.0395	488.14
34.0539	470.66
34.0684	486.43
34.0828	532.59
34.0972	504.14
34.1117	495.69
34.1261	501.29
34.1406	513.59
34.1550	509.78
34.1694	513.94
34.1839	491.66
34.1983	483.48
34.2128	523.91
34.2272	479.34
34.2417	493.95
34.2561	513.39
34.2705	513.82
34.2850	538.08
34.2994	492.32
34.3139	504.62
34.3283	539.25
34.3427	512.13
34.3572	502.98
34.3716	497.46
34.3861	487.75
34.4005	497.86
34.4149	511.81
34.4294	511.92
34.4438	489.59
34.4583	497.59
34.4727	540.80
34.4871	505.08
34.5016	503.58
34.5160	509.78
34.5305	506.28
34.5449	477.98
34.5593	508.23
34.5738	540.99
34.5882	513.77
34.6027	506.51
34.6171	494.60
34.6315	524.32
34.6460	504.00
34.6604	519.98
34.6749	522.76
34.6893	481.44
34.7037	534.97
34.7182	505.53
34.7326	486.60
34.7471	498.25
34.7615	475.95
34.7759	492.69
34.7904	509.46
34.8048	493.94
34.8193	509.20
34.8337	501.77
34.8481	499.74
34.8626	493.85
34.8770	495.36
34.8915	507.42
34.9059	541.06
34.9203	534.71
34.9348	528.99
34.9492	495.84
34.9637	523.87
34.9781	503.87
34.9925	502.90
35.0070	497.90
35.0214	522.94
35.0359	513.01
35.0503	489.93
35.0647	491.36
35.0792	514.93
35.0936	530.21
35.1081	529.76
35.1225	551.73
35.1369	523.79
35.1514	508.93
35.1658	532.36
35.1803	509.02
35.1947	512.98
35.2091	509.97
35.2236	529.26
35.2380	535.34
35.2525	504.88
35.2669	511.52
35.2813	504.47
35.2958	471.87
35.3102	517.94
35.3247	511.88
35.3391	522.46
35.3535	503.15
35.3680	502.92
35.3824	495.22
35.3969	496.57
35.4113	483.98
35.4257	549.64
35.4402	556.55
35.4546	558.25
35.4691	536.39
35.4835	558.13
35.4979	570.42
35.5124	545.75
35.5268	542.10
35.5413	563.55
35.5557	542.77
35.5701	565.64
35.5846	518.51
35.5990	516.89
35.6135	513.32
35.6279	533.93
35.6423	533.18
35.6568	536.71
35.6712	567.18
35.6857	610.90
35.7001	654.38
35.7145	766.70
35.7290	754.80
35.7434	648.20
35.7579	618.91
35.7723	635.74
35.7867	674.50
35.8012	753.45
35.8156	742.82
35.8301	708.05
35.8445	737.27
35.8589	802.55
35.8734	835.20
35.8878	956.91
35.9023	1061.71
35.9167	1152.82
35.9311	1321.82
35.9456	1622.48
35.9600	1959.68
35.9745	2146.22
35.9889	2292.64
36.0033	2703.96
36.0178	3077.04
36.0322	3253.76
36.0467	2638.09
36.0611	2049.22
36.0755	1908.15
36.0900	2134.50
36.1044	2152.76
36.1189	1651.22
36.1333	1325.34
36.1477	1145.68
36.1622	1061.81
36.1766	998.57
36.1911	864.76
36.2055	762.58
36.2199	732.58
36.2344	712.00
36.2488	627.17
36.2633	562.08
36.2777	559.96
36.2921	552.54
36.3066	538.37
36.3210	522.12
36.3355	528.76
36.3499	518.18
36.3643	526.49
36.3788	555.89
36.3932	576.86
36.4077	504.33
36.4221	532.36
36.4365	546.42
36.4510	483.38
36.4654	547.35
36.4799	536.61
36.4943	527.12
36.5087	493.06
36.5232	493.92
36.5376	530.60
36.5521	563.06
36.5665	534.89
36.5809	539.85
36.5954	519.09
36.6098	508.31
36.6243	502.18
36.6387	549.52
36.6531	546.37
36.6676	489.10
36.6820	518.80
36.6965	525.65
36.7109	539.96
36.7253	548.11
36.7398	545.75
36.7542	538.08
36.7687	546.40
36.7831	533.45
36.7975	549.29
36.8120	578.48
36.8264	565.49
36.8409	567.05
36.8553	612.79
36.8697	563.31
36.8842	591.29
36.8986	585.80
36.9131	569.22
36.9275	560.28
36.9419	599.76
36.9564	574.11
36.9708	550.50
36.9853	512.30
36.9997	521.63
37.0141	564.50
37.0286	565.05
37.0430	550.98
37.0575	517.10
37.0719	514.51
37.0863	509.90
37.1008	496.16
37.1152	542.84
37.1297	568.39
37.1441	510.30
37.1585	485.76
37.1730	514.70
37.1874	520.28
37.2019	533.86
37.2163	529.77
37.2307	508.18
37.2452	493.63
37.2596	505.12
37.2741	510.76
37.2885	507.08
37.3029	516.60
37.3174	465.70
37.3318	507.14
37.3463	497.98
37.3607	524.34
37.3751	506.94
37.3896	479.74
37.4040	511.58
37.4185	489.58
37.4329	509.04
37.4473	476.13
37.4618	484.20
37.4762	474.30
37.4907	519.90
37.5051	510.98
37.5195	527.08
37.5340	494.41
37.5484	512.35
37.5629	500.24
37.5773	517.55
37.5917	521.75
37.6062	513.71
37.6206	477.43
37.6351	508.72
37.6495	503.93
37.6639	505.84
37.6784	524.73
37.6928	498.31
37.7073	526.13
37.7217	518.31
37.7361	508.96
37.7506	504.66
37.7650	509.83
37.7795	526.06
37.7939	520.72
37.8083	513.96
37.8228	541.78
37.8372	493.66
37.8517	498.88
37.8661	493.53
37.8805	499.22
37.8950	532.91
37.9094	517.71
37.9239	489.75
37.9383	520.59
37.9528	473.59
37.9672	501.84
37.9816	459.83
37.9961	467.25
38.0105	488.50
38.0250	483.82
38.0394	469.61
38.0538	462.73
38.0683	485.64
38.0827	498.13
38.0972	486.45
38.1116	492.40
38.1260	525.18
38.1405	499.75
38.1549	496.80
38.1694	509.34
38.1838	495.87
38.1982	484.44
38.2127	518.85
38.2271	505.52
38.2416	503.52
38.2560	473.87
38.2704	519.13
38.2849	541.06
38.2993	493.22
38.3138	529.08
38.3282	574.29
38.3426	552.67
38.3571	524.16
38.3715	540.46
38.3860	514.19
38.4004	519.53
38.4148	529.15
38.4293	564.84
38.4437	595.32
38.4582	597.59
38.4726	657.26
38.4870	674.85
38.5015	721.85
38.5159	740.30
38.5304	802.32
38.5448	791.80
38.5592	778.84
38.5737	746.55
38.5881	706.71
38.6026	693.30
38.6170	719.10
38.6314	687.71
38.6459	684.95
38.6603	661.40
38.6748	652.32
38.6892	577.31
38.7036	571.23
38.7181	560.39
38.7325	550.35
38.7470	534.34
38.7614	539.45
38.7758	520.68
38.7903	508.64
38.8047	505.31
38.8192	521.52
38.8336	495.11
38.8480	497.31
38.8625	508.71
38.8769	487.61
38.8914	487.08
38.9058	509.56
38.9202	515.52
38.9347	531.82
38.9491	511.26
38.9636	490.27
38.9780	517.16
38.9924	510.86
39.0069	530.62
39.0213	586.32
39.0358	531.50
39.0502	490.77
39.0646	504.40
39.0791	513.95
39.0935	531.59
39.1080	501.68
39.1224	502.59
39.1368	486.85
39.1513	463.31
39.1657	504.60
39.1802	517.31
39.1946	484.63
39.2090	482.36
39.2235	471.45
39.2379	481.75
39.2524	525.99
39.2668	498.67
39.2812	503.04
39.2957	511.42
39.3101	524.51
39.3246	537.03
39.3390	553.89
39.3534	531.17
39.3679	494.78
39.3823	508.66
39.3968	484.25
39.4112	504.06
39.4256	512.15
39.4401	486.14
39.4545	502.50
39.4690	518.23
39.4834	493.59
39.4978	441.13
39.5123	502.43
39.5267	474.99
39.5412	464.01
39.5556	494.17
39.5700	468.94
39.5845	468.64
39.5989	502.49
39.6134	482.97
39.6278	484.95
39.6422	477.73
39.6567	470.34
39.6711	502.78
39.6856	473.58
39.7000	461.56
39.7144	502.87
39.7289	483.07
39.7433	492.23
39.7578	490.51
39.7722	484.74
39.7866	503.53
39.8011	502.55
39.8155	527.84
39.8300	541.93
39.8444	490.17
39.8588	522.12
39.8733	484.31
39.8877	526.80
39.9022	523.20
39.9166	484.86
39.9310	474.25
39.9455	486.63
39.9599	459.95
39.9744	483.57
39.9888	491.28
40.0032	496.71
40.0177	498.20
40.0321	512.07
40.0466	477.12
40.0610	453.37
40.0754	485.08
40.0899	497.89
40.1043	541.62
40.1188	492.00
40.1332	502.71
40.1476	502.14
40.1621	471.03
40.1765	468.03
40.1910	498.40
40.2054	531.13
40.2198	502.15
40.2343	515.63
40.2487	507.05
40.2632	486.37
40.2776	482.28
40.2920	493.98
40.3065	474.61
40.3209	477.07
40.3354	465.98
40.3498	490.58
40.3642	503.93
40.3787	485.99
40.3931	470.05
40.4076	483.67
40.4220	489.70
40.4364	491.78
40.4509	487.50
40.4653	512.13
40.4798	502.66
40.4942	534.43
40.5086	495.00
40.5231	517.08
40.5375	518.65
40.5520	484.35
40.5664	474.39
40.5808	484.24
40.5953	499.94
40.6097	481.29
40.6242	455.75
40.6386	511.87
40.6530	506.45
40.6675	509.86
40.6819	501.48
40.6964	502.57
40.7108	521.44
40.7252	503.46
40.7397	482.42
40.7541	498.14
40.7686	456.71
40.7830	488.19
40.7974	498.57
40.8119	535.03
40.8263	553.83
40.8408	492.52
40.8552	478.51
40.8696	524.01
40.8841	475.38
40.8985	486.54
40.9130	497.49
40.9274	483.73
40.9418	490.42
40.9563	485.06
40.9707	483.25
40.9852	451.80
40.9996	501.25
41.0140	533.48
41.0285	510.60
41.0429	504.48
41.0574	499.57
41.0718	478.45
41.0862	507.31
41.1007	497.00
41.1151	513.59
41.1296	489.72
41.1440	492.65
41.1584	491.00
41.1729	498.56
41.1873	530.73
41.2018	512.76
41.2162	505.83
41.2306	500.38
41.2451	487.92
41.2595	514.56
41.2740	499.29
41.2884	493.37
41.3028	496.67
41.3173	500.56
41.3317	496.69
41.3462	497.10
41.3606	513.09
41.3750	512.41
41.3895	462.71
41.4039	461.82
41.4184	465.32
41.4328	531.67
41.4472	499.94
41.4617	485.25
41.4761	484.98
41.4906	504.03
41.5050	467.24
41.5194	470.66
41.5339	496.84
41.5483	495.67
41.5628	502.85
41.5772	508.04
41.5916	470.77
41.6061	480.53
41.6205	492.57
41.6350	520.03
41.6494	485.85
41.6639	494.62
41.6783	505.44
41.6927	475.98
41.7072	490.55
41.7216	526.97
41.7361	533.15
41.7505	516.53
41.7649	506.83
41.7794	484.89
41.7938	486.47
41.8083	500.02
41.8227	537.90
41.8371	488.47
41.8516	529.28
41.8660	511.15
41.8805	512.47
41.8949	499.64
41.9093	533.91
41.9238	508.11
41.9382	522.09
41.9527	537.30
41.9671	556.59
41.9815	527.19
41.9960	518.15
42.0104	552.63
42.0249	538.59
42.0393	542.54
42.0537	618.53
42.0682	544.32
42.0826	550.41
42.0971	581.91
42.1115	549.07
42.1259	592.05
42.1404	635.88
42.1548	615.55
42.1693	651.58
42.1837	682.82
42.1981	710.64
42.2126	812.02
42.2270	940.05
42.2415	1072.94
42.2559	1231.12
42.2703	1345.41
42.2848	1518.89
42.2992	1619.22
42.3137	1676.97
42.3281	1615.25
42.3425	1548.32
42.3570	1453.15
42.3714	1407.58
42.3859	1348.51
42.4003	1355.81
42.4147	1374.17
42.4292	1296.47
42.4436	1128.73
42.4581	1005.38
42.4725	909.38
42.4869	879.14
42.5014	770.42
42.5158	668.27
42.5303	661.75
42.5447	623.47
42.5591	596.66
42.5736	606.74
42.5880	575.89
42.6025	555.05
42.6169	580.02
42.6313	558.97
42.6458	551.63
42.6602	554.77
42.6747	551.43
42.6891	493.81
42.7035	538.17
42.7180	551.26
42.7324	528.28
42.7469	530.23
42.7613	528.03
42.7757	512.98
42.7902	517.58
42.8046	479.22
42.8191	512.48
42.8335	508.26
42.8479	507.49
42.8624	495.46
42.8768	508.00
42.8913	538.17
42.9057	548.79
42.9201	560.71
42.9346	524.55
42.9490	493.95
42.9635	520.10
42.9779	547.33
42.9923	545.81
43.0068	503.59
43.0212	491.18
43.0357	516.03
43.0501	513.17
43.0645	472.16
43.0790	512.95
43.0934	522.79
43.1079	503.57
43.1223	513.07
43.1367	521.33
43.1512	496.53
43.1656	517.51
43.1801	533.11
43.1945	490.30
43.2089	535.26
43.2234	570.73
43.2378	530.74
43.2523	499.34
43.2667	523.92
43.2811	549.66
43.2956	523.31
43.3100	527.28
43.3245	517.10
43.3389	529.77
43.3533	548.34
43.3678	525.03
43.3822	542.58
43.3967	477.72
43.4111	485.93
43.4255	530.28
43.4400	495.95
43.4544	503.04
43.4689	541.33
43.4833	549.88
43.4977	529.07
43.5122	495.67
43.5266	505.98
43.5411	497.58
43.5555	513.37
43.5699	516.52
43.5844	515.82
43.5988	519.23
43.6133	500.80
43.6277	500.79
43.6421	551.46
43.6566	558.38
43.6710	549.19
43.6855	607.86
43.6999	614.88
43.7143	629.00
43.7288	620.44
43.7432	648.19
43.7577	626.28
43.7721	636.95
43.7865	661.48
43.8010	640.73
43.8154	610.75
43.8299	599.36
43.8443	590.21
43.8587	597.64
43.8732	574.23
43.8876	567.41
43.9021	538.16
43.9165	518.06
43.9309	498.58
43.9454	532.11
43.9598	491.13
43.9743	523.63
43.9887	517.66
44.0031	473.46
44.0176	498.46
44.0320	496.78
44.0465	496.24
44.0609	529.32
44.0753	544.74
44.0898	574.20
44.1042	537.43
44.1187	524.39
44.1331	520.32
44.1475	488.68
44.1620	504.70
44.1764	512.13
44.1909	548.30
44.2053	519.17
44.2197	540.17
44.2342	524.47
44.2486	483.45
44.2631	512.31
44.2775	532.51
44.2919	519.08
44.3064	553.74
44.3208	549.48
44.3353	539.45
44.3497	532.82
44.3641	481.09
44.3786	493.57
44.3930	543.38
44.4075	554.64
44.4219	569.36
44.4363	605.83
44.4508	550.88
44.4652	540.17
44.4797	578.41
44.4941	573.53
44.5085	568.04
44.5230	548.49
44.5374	531.96
44.5519	535.39
44.5663	560.14
44.5807	566.19
44.5952	541.33
44.6096	543.23
44.6241	561.14
44.6385	552.95
44.6529	578.03
44.6674	578.70
44.6818	575.97
44.6963	590.64
44.7107	639.82
44.7251	631.52
44.7396	715.95
44.7540	807.88
44.7685	814.40
44.7829	898.25
44.7973	895.28
44.8118	888.58
44.8262	787.79
44.8407	767.45
44.8551	755.41
44.8695	754.29
44.8840	736.90
44.8984	789.74
44.9129	720.94
44.9273	722.88
44.9417	682.76
44.9562	624.20
44.9706	576.77
44.9851	529.50
44.9995	527.74
45.0139	532.89
45.0284	517.28
45.0428	500.34
45.0573	500.08
45.0717	517.27
45.0861	548.00
45.1006	513.23
45.1150	522.56
45.1295	481.14
45.1439	453.29
45.1583	492.11
45.1728	498.50
45.1872	490.22
45.2017	495.72
45.2161	484.70
45.2305	496.80
45.2450	486.91
45.2594	499.62
45.2739	525.56
45.2883	508.97
45.3028	511.95
45.3172	512.23
45.3316	538.05
45.3461	523.83
45.3605	499.21
45.3750	490.97
45.3894	501.97
45.4038	505.64
45.4183	532.76
45.4327	526.34
45.4472	486.27
45.4616	507.38
45.4760	529.67
45.4905	535.99
45.5049	489.38
45.5194	496.26
45.5338	477.16
45.5482	509.86
45.5627	488.85
45.5771	461.29
45.5916	501.66
45.6060	464.85
45.6204	487.93
45.6349	501.60
45.6493	494.60
45.6638	486.34
45.6782	487.97
45.6926	490.96
45.7071	539.21
45.7215	514.98
45.7360	516.17
45.7504	530.44
45.7648	478.88
45.7793	495.37
45.7937	511.79
45.8082	509.19
45.8226	502.21
45.8370	496.85
45.8515	486.78
45.8659	510.59
45.8804	509.44
45.8948	514.89
45.9092	514.69
45.9237	515.46
45.9381	508.43
45.9526	507.11
45.9670	502.18
45.9814	501.81
45.9959	483.55
46.0103	488.01
46.0248	535.38
46.0392	494.81
46.0536	506.48
46.0681	513.34
46.0825	505.41
46.0970	502.61
46.1114	489.74
46.1258	522.04
46.1403	490.70
46.1547	487.75
46.1692	511.81
46.1836	496.02
46.1980	482.07
46.2125	479.89
46.2269	504.36
46.2414	520.18
46.2558	516.47
46.2702	495.88
46.2847	473.96
46.2991	499.58
46.3136	498.30
46.3280	489.53
46.3424	494.52
46.3569	470.13
46.3713	501.31
46.3858	499.00
46.4002	485.38
46.4146	504.24
46.4291	553.32
46.4435	491.72
46.4580	475.35
46.4724	491.89
46.4868	516.06
46.5013	504.57
46.5157	501.30
46.5302	533.87
46.5446	541.36
46.5590	499.71
46.5735	496.70
46.5879	503.63
46.6024	466.58
46.6168	457.55
46.6312	488.51
46.6457	516.59
46.6601	507.41
46.6746	504.67
46.6890	485.70
46.7034	508.37
46.7179	509.74
46.7323	490.98
46.7468	486.36
46.7612	498.59
46.7756	507.33
46.7901	467.61
46.8045	476.30
46.8190	533.71
46.8334	527.96
46.8478	516.25
46.8623	530.13
46.8767	498.88
46.8912	475.84
46.9056	492.20
46.9200	480.59
46.9345	489.54
46.9489	522.81
46.9634	478.99
46.9778	469.82
46.9922	493.04
47.0067	507.80
47.0211	509.70
47.0356	506.31
47.0500	536.13
47.0644	534.08
47.0789	563.15
47.0933	511.14
47.1078	517.40
47.1222	512.59
47.1366	504.22
47.1511	500.39
47.1655	513.07
47.1800	481.04
47.1944	501.89
47.2088	508.68
47.2233	515.18
47.2377	522.00
47.2522	486.71
47.2666	483.83
47.2810	462.16
47.2955	483.77
47.3099	504.90
47.3244	527.58
47.3388	495.13
47.3532	514.47
47.3677	505.22
47.3821	495.39
47.3966	507.38
47.4110	500.95
47.4254	507.93
47.4399	471.37
47.4543	520.40
47.4688	499.48
47.4832	500.18
47.4976	509.45
47.5121	521.85
47.5265	495.09
47.5410	507.52
47.5554	492.00
47.5698	478.84
47.5843	487.04
47.5987	507.22
47.6132	535.10
47.6276	519.75
47.6420	509.75
47.6565	498.75
47.6709	507.52
47.6854	515.13
47.6998	511.66
47.7142	516.48
47.7287	523.62
47.7431	512.77
47.7576	508.23
47.7720	518.75
47.7864	509.89
47.8009	504.71
47.8153	503.03
47.8298	482.09
47.8442	501.70
47.8586	492.49
47.8731	496.37
47.8875	468.84
47.9020	484.42
47.9164	477.87
47.9308	533.09
47.9453	529.53
47.9597	497.10
47.9742	504.66
47.9886	502.27
48.0030	498.14
48.0175	538.52
48.0319	509.22
48.0464	509.19
48.0608	517.96
48.0752	498.84
48.0897	520.94
48.1041	507.34
48.1186	530.39
48.1330	525.12
48.1474	486.92
48.1619	505.22
48.1763	486.78
48.1908	492.21
48.2052	484.78
48.2196	458.70
48.2341	477.73
48.2485	533.75
48.2630	504.38
48.2774	520.91
48.2918	503.58
48.3063	498.17
48.3207	496.58
48.3352	523.99
48.3496	502.01
48.3640	489.87
48.3785	515.24
48.3929	492.98
48.4074	497.06
48.4218	485.97
48.4362	508.16
48.4507	517.82
48.4651	529.86
48.4796	542.39
48.4940	525.73
48.5084	510.53
48.5229	503.54
48.5373	507.50
48.5518	523.59
48.5662	522.79
48.5806	480.46
48.5951	502.25
48.6095	571.19
48.6240	514.51
48.6384	511.42
48.6528	491.09
48.6673	529.18
48.6817	479.92
48.6962	513.13
48.7106	513.40
48.7250	550.19
48.7395	524.08
48.7539	568.22
48.7684	535.77
48.7828	563.55
48.7972	550.16
48.8117	508.34
48.8261	531.72
48.8406	552.56
48.8550	561.29
48.8694	564.32
48.8839	549.37
48.8983	530.74
48.9128	574.20
48.9272	575.11
48.9416	587.46
48.9561	582.35
48.9705	571.12
48.9850	560.27
48.9994	602.27
49.0139	600.71
49.0283	591.93
49.0427	630.70
49.0572	616.57
49.0716	667.12
49.0861	678.01
49.1005	665.42
49.1149	687.58
49.1294	728.25
49.1438	748.98
49.1583	799.65
49.1727	837.93
49.1871	853.25
49.2016	990.60
49.2160	1087.50
49.2305	1126.85
49.2449	1236.44
49.2593	1276.43
49.2738	1394.64
49.2882	1528.09
49.3027	1591.37
49.3171	1649.58
49.3315	1770.74
49.3460	1760.19
49.3604	1841.83
49.3749	1809.39
49.3893	1802.18
49.4037	1809.14
49.4182	1748.04
49.4326	1734.12
49.4471	1692.40
49.4615	1622.07
49.4759	1611.11
49.4904	1553.27
49.5048	1445.47
49.5193	1388.12
49.5337	1303.63
49.5481	1188.11
49.5626	1112.47
49.5770	1035.79
49.5915	973.34
49.6059	946.67
49.6203	863.23
49.6348	837.50
49.6492	785.54
49.6637	736.98
49.6781	675.83
49.6925	681.30
49.7070	657.24
49.7214	675.03
49.7359	663.11
49.7503	634.16
49.7647	582.20
49.7792	571.74
49.7936	566.83
49.8081	615.08
49.8225	573.52
49.8369	550.05
49.8514	534.43
49.8658	563.61
49.8803	563.97
49.8947	556.58
49.9091	555.62
49.9236	531.25
49.9380	561.46
49.9525	555.79
49.9669	531.95
49.9813	492.48
49.9958	519.55
50.0102	519.66
50.0247	550.11
50.0391	544.00
50.0535	557.28
50.0680	548.69
50.0824	547.21
50.0969	548.66
50.1113	505.74
50.1257	486.21
50.1402	497.38
50.1546	507.69
50.1691	547.95
50.1835	530.53
50.1979	515.07
50.2124	543.07
50.2268	522.37
50.2413	550.45
50.2557	531.86
50.2701	518.10
50.2846	512.38
50.2990	511.74
50.3135	515.50
50.3279	528.79
50.3423	545.04
50.3568	489.07
50.3712	498.84
50.3857	477.04
50.4001	513.89
50.4145	498.27
50.4290	513.03
50.4434	499.50
50.4579	554.99
50.4723	501.62
50.4867	490.83
50.5012	471.13
50.5156	486.68
50.5301	508.95
50.5445	515.27
50.5589	506.36
50.5734	527.75
50.5878	544.03
50.6023	536.06
50.6167	509.95
50.6311	517.43
50.6456	486.80
50.6600	503.43
50.6745	515.80
50.6889	509.13
50.7033	523.48
50.7178	521.96
50.7322	480.84
50.7467	510.76
50.7611	490.72
50.7755	509.50
50.7900	484.79
50.8044	516.57
50.8189	514.71
50.8333	504.42
50.8477	507.81
50.8622	503.62
50.8766	515.82
50.8911	480.44
50.9055	480.77
50.9199	495.45
50.9344	518.46
50.9488	517.31
50.9633	497.08
50.9777	510.29
50.9921	524.38
51.0066	505.27
51.0210	521.52
51.0355	498.97
51.0499	509.96
51.0643	533.84
51.0788	495.79
51.0932	514.70
51.1077	505.55
51.1221	491.28
51.1365	501.80
51.1510	495.17
51.1654	472.04
51.1799	491.30
51.1943	509.95
51.2087	488.04
51.2232	511.17
51.2376	532.78
51.2521	526.28
51.2665	524.15
51.2809	517.54
51.2954	498.71
51.3098	497.24
51.3243	499.43
51.3387	490.95
51.3531	455.17
51.3676	465.92
51.3820	505.23
51.3965	531.78
51.4109	518.02
51.4253	499.81
51.4398	501.73
51.4542	537.51
51.4687	529.07
51.4831	536.63
51.4975	518.19
51.5120	502.41
51.5264	499.57
51.5409	502.12
51.5553	511.90
51.5697	498.06
51.5842	514.15
51.5986	511.38
51.6131	507.08
51.6275	512.44
51.6419	509.07
51.6564	492.82
51.6708	492.94
51.6853	503.82
51.6997	508.92
51.7141	522.98
51.7286	523.18
51.7430	551.28
51.7575	518.38
51.7719	513.86
51.7863	552.61
51.8008	536.67
51.8152	502.14
51.8297	482.30
51.8441	466.34
51.8585	511.43
51.8730	502.59
51.8874	497.11
51.9019	517.67
51.9163	509.60
51.9307	485.12
51.9452	488.72
51.9596	520.90
51.9741	516.56
51.9885	504.15
52.0029	489.02
52.0174	512.41
52.0318	513.72
52.0463	493.22
52.0607	516.19
52.0751	485.41
52.0896	494.11
52.1040	456.94
52.1185	495.99
52.1329	535.53
52.1473	502.11
52.1618	520.63
52.1762	502.34
52.1907	482.61
52.2051	491.64
52.2195	500.17
52.2340	490.91
52.2484	508.36
52.2629	517.94
52.2773	490.68
52.2917	506.10
52.3062	495.21
52.3206	503.18
52.3351	502.72
52.3495	551.03
52.3639	518.19
52.3784	499.22
52.3928	497.93
52.4073	497.86
52.4217	533.86
52.4361	499.91
52.4506	513.12
52.4650	505.63
52.4795	497.36
52.4939	519.64
52.5083	495.78
52.5228	544.06
52.5372	523.49
52.5517	499.10
52.5661	505.35
52.5805	496.06
52.5950	514.51
52.6094	498.43
52.6239	490.89
52.6383	532.51
52.6527	526.84
52.6672	497.65
52.6816	488.74
52.6961	521.56
52.7105	530.72
52.7250	526.50
52.7394	512.58
52.7538	490.15
52.7683	497.11
52.7827	526.51
52.7972	514.86
52.8116	486.02
52.8260	478.96
52.8405	511.60
52.8549	480.38
52.8694	482.07
52.8838	488.92
52.8982	502.25
52.9127	525.29
52.9271	528.43
52.9416	531.71
52.9560	507.86
52.9704	510.23
52.9849	504.83
52.9993	476.37
53.0138	494.39
53.0282	470.55
53.0426	481.73
53.0571	482.02
53.0715	447.70
53.0860	477.14
53.1004	508.08
53.1148	530.79
53.1293	544.36
53.1437	519.66
53.1582	492.57
53.1726	556.51
53.1870	517.91
53.2015	507.34
53.2159	519.99
53.2304	507.90
53.2448	527.25
53.2592	480.59
53.2737	492.20
53.2881	524.30
53.3026	522.56
53.3170	504.23
53.3314	505.94
53.3459	512.57
53.3603	498.46
53.3748	463.97
53.3892	479.83
53.4036	512.24
53.4181	500.12
53.4325	499.43
53.4470	509.50
53.4614	513.62
53.4758	483.68
53.4903	513.83
53.5047	499.66
53.5192	518.79
53.5336	515.25
53.5480	522.91
53.5625	543.81
53.5769	532.13
53.5914	546.38
53.6058	529.01
53.6202	506.30
53.6347	525.78
53.6491	516.92
53.6636	514.00
53.6780	500.38
53.6924	520.76
53.7069	570.22
53.7213	507.77
53.7358	501.87
53.7502	502.60
53.7646	500.92
53.7791	542.08
53.7935	518.40
53.8080	545.57
53.8224	520.03
53.8368	520.95
53.8513	533.75
53.8657	533.17
53.8802	504.79
53.8946	527.43
53.9090	502.11
53.9235	483.71
53.9379	532.16
53.9524	504.02
53.9668	515.35
53.9812	552.35
53.9957	511.58
54.0101	495.02
54.0246	515.12
54.0390	541.96
54.0534	499.75
54.0679	524.35
54.0823	550.67
54.0968	541.34
54.1112	508.39
54.1256	565.19
54.1401	565.00
54.1545	527.16
54.1690	530.89
54.1834	544.97
54.1978	550.53
54.2123	590.39
54.2267	583.53
54.2412	594.74
54.2556	612.66
54.2700	632.20
54.2845	639.62
54.2989	632.00
54.3134	618.40
54.3278	627.51
54.3422	595.99
54.3567	588.07
54.3711	587.28
54.3856	568.53
54.4000	545.26
54.4144	575.65
54.4289	619.65
54.4433	578.40
54.4578	562.85
54.4722	586.03
54.4866	582.54
54.5011	558.92
54.5155	547.41
54.5300	543.83
54.5444	522.46
54.5588	541.84
54.5733	526.44
54.5877	520.48
54.6022	520.65
54.6166	541.99
54.6310	532.15
54.6455	521.40
54.6599	530.48
54.6744	478.65
54.6888	514.75
54.7032	533.11
54.7177	482.56
54.7321	500.63
54.7466	491.77
54.7610	516.40
54.7754	506.72
54.7899	492.97
54.8043	482.19
54.8188	491.08
54.8332	521.33
54.8476	522.15
54.8621	517.34
54.8765	497.80
54.8910	504.33
54.9054	518.87
54.9198	481.06
54.9343	513.64
54.9487	527.83
54.9632	513.05
54.9776	508.43
54.9920	503.05
55.0065	523.27
55.0209	536.53
55.0354	509.96
55.0498	501.85
55.0642	515.21
55.0787	516.54
55.0931	504.12
55.1076	504.14
55.1220	540.02
55.1364	508.95
55.1509	483.29
55.1653	525.80
55.1798	534.96
55.1942	501.22
55.2086	510.38
55.2231	539.89
55.2375	510.17
55.2520	523.29
55.2664	538.42
55.2808	514.07
55.2953	503.00
55.3097	526.98
55.3242	514.85
55.3386	536.10
55.3530	514.68
55.3675	544.30
55.3819	531.63
55.3964	512.37
55.4108	524.95
55.4252	531.38
55.4397	506.18
55.4541	508.75
55.4686	531.91
55.4830	522.83
55.4974	532.78
55.5119	550.77
55.5263	535.41
55.5408	539.44
55.5552	543.13
55.5696	511.21
55.5841	514.50
55.5985	514.28
55.6130	521.24
55.6274	534.99
55.6418	495.49
55.6563	489.14
55.6707	530.69
55.6852	529.93
55.6996	523.64
55.7140	561.63
55.7285	544.99
55.7429	539.32
55.7574	502.51
55.7718	530.35
55.7862	579.44
55.8007	554.60
55.8151	514.01
55.8296	547.99
55.8440	531.90
55.8584	538.31
55.8729	526.99
55.8873	500.37
55.9018	513.16
55.9162	552.23
55.9306	517.76
55.9451	511.66
55.9595	519.60
55.9740	526.69
55.9884	537.29
56.0028	509.04
56.0173	535.42
56.0317	543.46
56.0462	513.95
56.0606	537.74
56.0750	539.18
56.0895	538.83
56.1039	516.03
56.1184	521.10
56.1328	507.70
56.1472	481.13
56.1617	564.74
56.1761	522.16
56.1906	508.18
56.2050	507.70
56.2194	519.41
56.2339	516.95
56.2483	529.48
56.2628	481.95
56.2772	511.56
56.2916	505.33
56.3061	506.60
56.3205	522.75
56.3350	570.01
56.3494	506.53
56.3639	491.56
56.3783	525.45
56.3927	495.71
56.4072	504.97
56.4216	538.54
56.4361	502.46
56.4505	491.99
56.4649	522.78
56.4794	509.49
56.4938	539.58
56.5083	552.63
56.5227	538.31
56.5371	519.99
56.5516	506.74
56.5660	506.38
56.5805	529.23
56.5949	506.13
56.6093	495.40
56.6238	512.81
56.6382	545.47
56.6527	505.36
56.6671	509.03
56.6815	479.56
56.6960	506.67
56.7104	517.63
56.7249	517.25
56.7393	508.12
56.7537	482.56
56.7682	513.17
56.7826	504.62
56.7971	513.90
56.8115	538.60
56.8259	539.39
56.8404	529.87
56.8548	537.12
56.8693	553.21
56.8837	542.48
56.8981	514.93
56.9126	526.90
56.9270	501.72
56.9415	517.02
56.9559	518.44
56.9703	482.06
56.9848	524.85
56.9992	539.03
57.0137	532.77
57.0281	555.62
57.0425	518.73
57.0570	557.51
57.0714	543.76
57.0859	544.49
57.1003	516.51
57.1147	538.95
57.1292	529.79
57.1436	480.70
57.1581	509.14
57.1725	534.16
57.1869	497.58
57.2014	517.19
57.2158	512.30
57.2303	547.24
57.2447	516.11
57.2591	491.66
57.2736	502.32
57.2880	535.85
57.3025	515.22
57.3169	483.95
57.3313	526.61
57.3458	551.09
57.3602	547.15
57.3747	503.24
57.3891	547.37
57.4035	522.29
57.4180	491.30
57.4324	537.37
57.4469	530.84
57.4613	537.60
57.4757	542.89
57.4902	530.59
57.5046	517.71
57.5191	536.32
57.5335	540.53
57.5479	578.03
57.5624	567.56
57.5768	516.61
57.5913	483.67
57.6057	573.55
57.6201	533.10
57.6346	526.97
57.6490	543.58
57.6635	555.70
57.6779	581.00
57.6923	552.13
57.7068	548.89
57.7212	552.49
57.7357	582.98
57.7501	584.90
57.7645	554.56
57.7790	596.27
57.7934	594.61
57.8079	613.88
57.8223	642.45
57.8367	690.94
57.8512	688.25
57.8656	749.27
57.8801	741.71
57.8945	753.15
57.9089	704.81
57.9234	727.46
57.9378	676.85
57.9523	653.74
57.9667	654.84
57.9811	612.44
57.9956	662.09
58.0100	640.08
58.0245	665.92
58.0389	641.08
58.0533	660.88
58.0678	647.21
58.0822	615.70
58.0967	597.20
58.1111	556.90
58.1255	550.03
58.1400	555.99
58.1544	534.73
58.1689	562.03
58.1833	547.93
58.1977	532.06
58.2122	575.01
58.2266	572.07
58.2411	571.36
58.2555	542.65
58.2699	558.55
58.2844	564.45
58.2988	534.82
58.3133	552.93
58.3277	546.98
58.3421	552.37
58.3566	527.81
58.3710	531.58
58.3855	524.63
58.3999	508.23
58.4143	527.95
58.4288	562.89
58.4432	508.27
58.4577	525.86
58.4721	552.67
58.4865	531.35
58.5010	530.45
58.5154	518.98
58.5299	522.68
58.5443	517.65
58.5587	523.69
58.5732	532.27
58.5876	541.29
58.6021	527.36
58.6165	513.14
58.6309	501.84
58.6454	535.59
58.6598	508.99
58.6743	522.63
58.6887	521.38
58.7031	559.94
58.7176	543.91
58.7320	532.50
58.7465	526.83
58.7609	530.10
58.7753	519.37
58.7898	510.38
58.8042	503.07
58.8187	539.92
58.8331	543.80
58.8475	512.20
58.8620	509.28
58.8764	521.07
58.8909	495.21
58.9053	530.77
58.9197	513.88
58.9342	515.59
58.9486	523.89
58.9631	489.67
58.9775	511.50
58.9919	525.86
59.0064	493.67
59.0208	531.96
59.0353	537.60
59.0497	531.83
59.0641	561.19
59.0786	563.70
59.0930	572.09
59.1075	566.25
59.1219	587.38
59.1363	513.18
59.1508	497.37
59.1652	527.95
59.1797	548.63
59.1941	551.50
59.2085	513.47
59.2230	529.15
59.2374	551.32
59.2519	537.36
59.2663	527.06
59.2807	584.66
59.2952	527.76
59.3096	537.96
59.3241	541.63
59.3385	539.35
59.3529	547.62
59.3674	573.13
59.3818	539.75
59.3963	515.02
59.4107	551.10
59.4251	602.36
59.4396	589.47
59.4540	559.53
59.4685	536.25
59.4829	536.45
59.4973	521.36
59.5118	543.58
59.5262	562.21
59.5407	562.75
59.5551	553.63
59.5695	558.10
59.5840	544.60
59.5984	530.23
59.6129	514.99
59.6273	538.76
59.6417	552.60
59.6562	561.82
59.6706	550.07
59.6851	515.48
59.6995	511.21
59.7139	531.50
59.7284	526.19
59.7428	548.86
59.7573	513.21
59.7717	497.58
59.7861	576.53
59.8006	541.23
59.8150	497.98
59.8295	537.81
59.8439	494.72
59.8583	548.19
59.8728	531.41
59.8872	513.82
59.9017	535.45
59.9161	526.73
59.9305	527.70
59.9450	495.32
59.9594	499.21
59.9739	503.09
59.9883	543.00
60.0027	508.20
60.0172	474.59
60.0316	543.25
60.0461	522.54
60.0605	523.83
60.0750	540.13
60.0894	544.63
60.1038	530.53
60.1183	518.61
60.1327	553.09
60.1472	493.07
60.1616	515.51
60.1760	541.48
60.1905	508.37
60.2049	515.68
60.2194	528.77
60.2338	523.64
60.2482	520.39
60.2627	508.31
60.2771	519.23
60.2916	535.32
60.3060	524.60
60.3204	559.23
60.3349	535.81
60.3493	534.00
60.3638	565.17
60.3782	535.98
60.3926	522.21
60.4071	543.11
60.4215	573.94
60.4360	562.19
60.4504	526.70
60.4648	530.36
60.4793	513.31
60.4937	526.85
60.5082	512.75
60.5226	533.35
60.5370	535.77
60.5515	518.17
60.5659	516.85
60.5804	520.31
60.5948	546.55
60.6092	547.19
60.6237	508.24
60.6381	499.38
60.6526	521.72
60.6670	532.54
60.6814	510.26
60.6959	566.25
60.7103	539.87
60.7248	542.66
60.7392	522.86
60.7536	557.32
60.7681	526.63
60.7825	539.08
60.7970	539.81
60.8114	525.46
60.8258	540.19
60.8403	543.93
60.8547	517.27
60.8692	491.10
60.8836	508.92
60.8980	566.19
60.9125	555.49
60.9269	554.36
60.9414	558.31
60.9558	514.05
60.9702	529.54
60.9847	563.17
60.9991	537.01
61.0136	523.45
61.0280	510.65
61.0424	482.95
61.0569	517.80
61.0713	532.30
61.0858	560.20
61.1002	569.59
61.1146	543.90
61.1291	543.22
61.1435	514.42
61.1580	537.01
61.1724	519.66
61.1868	546.96
61.2013	517.95
61.2157	535.65
61.2302	542.75
61.2446	571.44
61.2590	525.82
61.2735	539.38
61.2879	549.18
61.3024	530.36
61.3168	578.00
61.3312	557.69
61.3457	574.63
61.3601	543.51
61.3746	559.17
61.3890	505.95
61.4034	513.94
61.4179	526.00
61.4323	553.88
61.4468	543.02
61.4612	539.58
61.4756	540.00
61.4901	567.87
61.5045	526.35
61.5190	525.09
61.5334	538.83
61.5478	510.98
61.5623	527.13
61.5767	539.10
61.5912	546.71
61.6056	545.48
61.6200	559.16
61.6345	562.11
61.6489	529.81
61.6634	529.29
61.6778	533.81
61.6922	505.75
61.7067	526.63
61.7211	566.05
61.7356	541.80
61.7500	549.15
61.7644	553.88
61.7789	555.89
61.7933	543.26
61.8078	543.63
61.8222	545.39
61.8366	511.47
61.8511	535.39
61.8655	560.38
61.8800	561.52
61.8944	550.25
61.9088	531.73
61.9233	570.74
61.9377	583.24
61.9522	538.54
61.9666	492.81
61.9810	570.53
61.9955	569.18
62.0099	533.51
62.0244	561.48
62.0388	521.02
62.0532	530.26
62.0677	565.75
62.0821	512.92
62.0966	530.25
62.1110	518.82
62.1254	558.26
62.1399	542.88
62.1543	525.96
62.1688	542.64
62.1832	555.25
62.1976	538.95
62.2121	517.93
62.2265	591.18
62.2410	575.45
62.2554	559.93
62.2698	516.65
62.2843	547.58
62.2987	563.51
62.3132	524.22
62.3276	537.99
62.3420	548.27
62.3565	555.00
62.3709	542.74
62.3854	539.18
62.3998	547.65
62.4142	552.82
62.4287	569.58
62.4431	527.42
62.4576	531.38
62.4720	567.65
62.4864	526.69
62.5009	554.74
62.5153	557.60
62.5298	566.88
62.5442	573.26
62.5586	577.76
62.5731	555.50
62.5875	544.51
62.6020	575.87
62.6164	573.43
62.6308	544.02
62.6453	564.80
62.6597	541.84
62.6742	555.42
62.6886	538.54
62.7030	548.89
62.7175	546.62
62.7319	526.26
62.7464	530.97
62.7608	529.82
62.7752	531.18
62.7897	573.47
62.8041	568.81
62.8186	556.12
62.8330	566.52
62.8474	559.78
62.8619	597.61
62.8763	595.62
62.8908	570.12
62.9052	550.35
62.9196	546.75
62.9341	541.82
62.9485	536.24
62.9630	526.51
62.9774	554.85
62.9918	562.90
63.0063	557.62
63.0207	552.41
63.0352	555.00
63.0496	539.29
63.0640	572.29
63.0785	604.11
63.0929	598.57
63.1074	563.99
63.1218	603.37
63.1362	572.29
63.1507	519.17
63.1651	556.09
63.1796	535.80
63.1940	528.32
63.2084	552.73
63.2229	570.84
63.2373	556.32
63.2518	569.45
63.2662	558.98
63.2806	598.31
63.2951	594.35
63.3095	581.95
63.3240	560.60
63.3384	626.00
63.3528	588.78
63.3673	618.34
63.3817	631.92
63.3962	624.01
63.4106	619.35
63.4250	653.13
63.4395	650.99
63.4539	651.69
63.4684	717.40
63.4828	756.17
63.4972	772.88
63.5117	815.52
63.5261	886.09
63.5406	956.58
63.5550	989.91
63.5694	983.09
63.5839	932.70
63.5983	870.13
63.6128	892.13
63.6272	846.17
63.6416	799.47
63.6561	772.53
63.6705	797.71
63.6850	790.31
63.6994	805.10
63.7138	828.43
63.7283	835.84
63.7427	807.26
63.7572	798.47
63.7716	803.07
63.7861	813.93
63.8005	703.88
63.8149	708.17
63.8294	690.31
63.8438	662.73
63.8583	654.67
63.8727	655.33
63.8871	630.94
63.9016	616.65
63.9160	631.69
63.9305	631.84
63.9449	580.43
63.9593	601.21
63.9738	596.46
63.9882	571.56
64.0027	616.40
64.0171	605.58
64.0315	595.55
64.0460	560.92
64.0604	564.32
64.0749	600.09
64.0893	629.89
64.1037	580.96
64.1182	601.74
64.1326	598.99
64.1471	601.71
64.1615	596.20
64.1759	584.75
64.1904	577.59
64.2048	564.92
64.2193	612.14
64.2337	599.58
64.2481	587.06
64.2626	552.26
64.2770	599.05
64.2915	611.49
64.3059	600.74
64.3203	583.05
64.3348	596.98
64.3492	634.69
64.3637	610.79
64.3781	570.16
64.3925	606.24
64.4070	589.30
64.4214	628.60
64.4359	650.23
64.4503	637.93
64.4647	613.40
64.4792	604.41
64.4936	585.73
64.5081	622.07
64.5225	627.01
64.5369	622.75
64.5514	604.52
64.5658	607.81
64.5803	604.39
64.5947	649.47
64.6091	650.51
64.6236	631.87
64.6380	660.23
64.6525	666.16
64.6669	658.69
64.6813	702.69
64.6958	699.97
64.7102	711.28
64.7247	658.25
64.7391	670.91
64.7535	686.47
64.7680	723.10
64.7824	738.37
64.7969	724.26
64.8113	768.87
64.8257	737.87
64.8402	791.83
64.8546	778.71
64.8691	822.81
64.8835	827.78
64.8979	895.80
64.9124	869.68
64.9268	829.61
64.9413	888.43
64.9557	892.37
64.9701	923.98
64.9846	1011.33
64.9990	1112.68
65.0135	1257.82
65.0279	1427.01
65.0423	1622.50
65.0568	1900.48
65.0712	2498.91
65.0857	3272.53
65.1001	4275.34
65.1145	5790.71
65.1290	7640.24
65.1434	9096.78
65.1579	10749.03
65.1723	11395.15
65.1867	11206.71
65.2012	10080.79
65.2156	8235.91
65.2301	6553.70
65.2445	5316.34
65.2589	4422.50
65.2734	4044.56
65.2878	4231.97
65.3023	4770.21
65.3167	5495.52
65.3311	6389.01
65.3456	6710.97
65.3600	6918.06
65.3745	6432.45
65.3889	5505.98
65.4033	4346.61
65.4178	3496.27
65.4322	2796.67
65.4467	2049.35
65.4611	1682.97
65.4755	1531.77
65.4900	1281.30
65.5044	1131.26
65.5189	1039.44
65.5333	926.48
65.5477	915.45
65.5622	869.35
65.5766	844.91
65.5911	842.74
65.6055	787.65
65.6199	784.76
65.6344	767.44
65.6488	733.28
65.6633	729.64
65.6777	678.80
65.6921	699.86
65.7066	706.61
65.7210	724.72
65.7355	700.66
65.7499	702.04
65.7643	662.27
65.7788	658.16
65.7932	672.44
65.8077	662.13
65.8221	697.98
65.8365	655.91
65.8510	676.97
65.8654	670.42
65.8799	645.80
65.8943	649.74
65.9087	661.93
65.9232	618.77
65.9376	626.58
65.9521	627.85
65.9665	620.77
65.9809	618.92
65.9954	647.96
66.0098	635.79
66.0243	619.48
66.0387	619.44
66.0531	618.78
66.0676	627.52
66.0820	622.93
66.0965	602.17
66.1109	607.53
66.1253	658.60
66.1398	633.43
66.1542	582.32
66.1687	636.02
66.1831	628.13
66.1975	565.62
66.2120	557.72
66.2264	590.54
66.2409	608.78
66.2553	628.17
66.2697	625.73
66.2842	597.93
66.2986	582.81
66.3131	621.96
66.3275	593.22
66.3419	630.44
66.3564	611.93
66.3708	602.09
66.3853	589.35
66.3997	579.30
66.4141	594.64
66.4286	627.67
66.4430	601.87
66.4575	603.46
66.4719	601.79
66.4863	600.44
66.5008	576.47
66.5152	609.20
66.5297	602.49
66.5441	596.39
66.5585	608.58
66.5730	570.27
66.5874	552.05
66.6019	581.05
66.6163	609.17
66.6307	590.59
66.6452	566.93
66.6596	593.63
66.6741	576.96
66.6885	572.52
66.7029	590.82
66.7174	612.93
66.7318	598.31
66.7463	567.58
66.7607	570.23
66.7751	614.30
66.7896	614.00
66.8040	594.12
66.8185	598.90
66.8329	580.59
66.8473	574.20
66.8618	587.02
66.8762	595.14
66.8907	585.23
66.9051	590.86
66.9195	575.64
66.9340	561.44
66.9484	595.52
66.9629	570.59
66.9773	563.35
66.9917	558.13
67.0062	573.60
67.0206	560.62
67.0351	584.69
67.0495	588.50
67.0639	611.20
67.0784	614.85
67.0928	597.49
67.1073	593.48
67.1217	569.94
67.1361	555.86
67.1506	561.78
67.1650	575.48
67.1795	555.11
67.1939	547.21
67.2083	544.36
67.2228	558.91
67.2372	582.05
67.2517	583.73
67.2661	559.62
67.2805	536.14
67.2950	572.58
67.3094	570.16
67.3239	572.22
67.3383	615.73
67.3527	578.36
67.3672	567.26
67.3816	571.96
67.3961	601.03
67.4105	557.15
67.4250	562.95
67.4394	585.90
67.4538	571.62
67.4683	602.39
67.4827	615.45
67.4972	599.70
67.5116	552.34
67.5260	565.41
67.5405	555.95
67.5549	585.20
67.5694	571.25
67.5838	570.86
67.5982	595.24
67.6127	560.99
67.6271	583.29
67.6416	569.88
67.6560	554.83
67.6704	590.35
67.6849	545.18
67.6993	557.08
67.7138	568.64
67.7282	585.27
67.7426	563.26
67.7571	589.31
67.7715	597.42
67.7860	563.91
67.8004	567.72
67.8148	554.04
67.8293	589.55
67.8437	571.47
67.8582	610.76
67.8726	599.01
67.8870	571.13
67.9015	590.09
67.9159	592.53
67.9304	536.18
67.9448	560.87
67.9592	567.67
67.9737	554.50
67.9881	548.15
68.0026	549.65
68.0170	572.99
68.0314	584.86
68.0459	567.87
68.0603	561.95
68.0748	547.16
68.0892	571.74
68.1036	582.30
68.1181	577.75
68.1325	586.41
68.1470	561.53
68.1614	571.44
68.1758	547.89
68.1903	561.58
68.2047	570.63
68.2192	574.75
68.2336	595.52
68.2480	559.11
68.2625	542.83
68.2769	543.32
68.2914	568.57
68.3058	602.36
68.3202	579.25
68.3347	590.88
68.3491	583.28
68.3636	574.98
68.3780	571.73
68.3924	621.44
68.4069	578.11
68.4213	564.71
68.4358	552.78
68.4502	557.04
68.4646	551.25
68.4791	513.73
68.4935	581.19
68.5080	581.54
68.5224	573.47
68.5368	562.26
68.5513	563.09
68.5657	543.23
68.5802	534.60
68.5946	546.52
68.6090	558.15
68.6235	556.31
68.6379	546.84
68.6524	541.48
68.6668	559.66
68.6812	569.49
68.6957	578.94
68.7101	630.99
68.7246	566.81
68.7390	571.11
68.7534	570.47
68.7679	549.34
68.7823	567.48
68.7968	594.20
68.8112	570.21
68.8256	566.02
68.8401	540.55
68.8545	575.33
68.8690	576.44
68.8834	580.20
68.8978	545.21
68.9123	557.18
68.9267	598.25
68.9412	560.21
68.9556	558.57
68.9700	572.60
68.9845	549.16
68.9989	548.16
69.0134	548.31
69.0278	572.02
69.0422	575.37
69.0567	523.12
69.0711	554.91
69.0856	579.29
69.1000	549.41
69.1144	603.72
69.1289	618.84
69.1433	563.73
69.1578	548.44
69.1722	568.26
69.1866	599.67
69.2011	592.18
69.2155	560.52
69.2300	586.29
69.2444	548.25
69.2588	590.84
69.2733	592.80
69.2877	536.94
69.3022	563.74
69.3166	544.10
69.3310	565.84
69.3455	542.26
69.3599	555.59
69.3744	562.17
69.3888	640.61
69.4032	578.95
69.4177	584.52
69.4321	535.89
69.4466	585.74
69.4610	562.50
69.4754	561.87
69.4899	583.47
69.5043	548.16
69.5188	561.22
69.5332	624.70
69.5476	589.48
69.5621	581.08
69.5765	593.69
69.5910	611.04
69.6054	609.10
69.6198	522.70
69.6343	534.22
69.6487	577.15
69.6632	551.68
69.6776	549.52
69.6920	516.95
69.7065	557.55
69.7209	553.01
69.7354	558.59
69.7498	530.44
69.7642	583.32
69.7787	585.35
69.7931	541.06
69.8076	553.66
69.8220	608.54
69.8364	616.91
69.8509	597.57
69.8653	575.08
69.8798	536.97
69.8942	603.62
69.9086	540.29
69.9231	554.69
69.9375	593.78
69.9520	552.10
69.9664	630.46
69.9808	552.80
69.9953	555.05
70.0097	586.18
70.0242	580.78
70.0386	520.08
70.0530	540.54
70.0675	594.56
70.0819	613.91
70.0964	547.46
70.1108	585.03
70.1252	600.81
70.1397	573.82
70.1541	579.28
70.1686	559.41
70.1830	574.16
70.1974	622.44
70.2119	609.28
70.2263	616.94
70.2408	607.50
70.2552	551.33
70.2696	566.29
70.2841	620.00
70.2985	588.20
70.3130	578.31
70.3274	549.80
70.3418	576.23
70.3563	599.23
70.3707	612.09
70.3852	557.50
70.3996	565.95
70.4140	570.49
70.4285	581.38
70.4429	557.55
70.4574	539.55
70.4718	596.56
70.4862	580.14
70.5007	556.82
70.5151	580.24
70.5296	575.19
70.5440	586.00
70.5584	583.74
70.5729	540.00
70.5873	515.01
70.6018	526.74
70.6162	619.78
70.6306	624.94
70.6451	559.32
70.6595	555.50
70.6740	616.41
70.6884	599.18
70.7028	562.39
70.7173	559.71
70.7317	536.15
70.7462	574.23
70.7606	552.51
70.7750	574.58
70.7895	534.14
70.8039	582.89
70.8184	586.74
70.8328	593.21
70.8472	538.65
70.8617	549.26
70.8761	586.59
70.8906	582.04
70.9050	638.78
70.9194	654.93
70.9339	612.82
70.9483	549.96
70.9628	531.11
70.9772	522.69
70.9916	597.36
71.0061	581.58
71.0205	589.24
71.0350	575.34
71.0494	564.65
71.0638	581.67
71.0783	558.59
71.0927	599.28
71.1072	599.46
71.1216	586.65
71.1361	529.73
71.1505	561.38
71.1649	629.61
71.1794	611.52
71.1938	555.17
71.2083	553.86
71.2227	531.48
71.2371	531.96
71.2516	539.13
71.2660	571.79
71.2805	543.03
71.2949	551.29
71.3093	566.49
71.3238	577.28
71.3382	636.85
71.3527	642.12
71.3671	585.86
71.3815	566.91
71.3960	575.07
71.4104	580.14
71.4249	590.28
71.4393	596.63
71.4537	576.63
71.4682	565.63
71.4826	525.19
71.4971	537.68
71.5115	548.88
71.5259	543.69
71.5404	555.33
71.5548	565.88
71.5693	554.04
71.5837	509.39
71.5981	564.60
71.6126	559.16
71.6270	549.02
71.6415	541.51
71.6559	546.17
71.6703	629.00
71.6848	604.81
71.6992	598.38
71.7137	610.79
71.7281	600.74
71.7425	581.76
71.7570	587.95
71.7714	601.34
71.7859	555.95
71.8003	589.48
71.8147	585.21
71.8292	550.87
71.8436	615.12
71.8581	571.28
71.8725	547.98
71.8869	539.80
71.9014	652.97
71.9158	661.59
71.9303	584.64
71.9447	517.23
71.9591	513.80
71.9736	517.30
71.9880	480.72
72.0025	528.27
72.0169	591.46
72.0313	681.85
72.0458	659.94
72.0602	591.62
72.0747	570.21
72.0891	624.50
72.1035	651.44
72.1180	543.55
72.1324	560.89
72.1469	661.03
72.1613	698.84
72.1757	694.77
72.1902	680.60
72.2046	632.93
72.2191	526.69
72.2335	537.69
72.2479	536.33
72.2624	534.71
72.2768	589.39
72.2913	595.32
72.3057	575.09
72.3201	589.33
72.3346	585.90
72.3490	566.29
72.3635	558.22
72.3779	482.16
72.3923	502.09
72.4068	584.99
72.4212	562.55
72.4357	527.00
72.4501	505.78
72.4645	587.07
72.4790	578.86
72.4934	538.69
72.5079	562.31
72.5223	568.48
72.5367	538.51
72.5512	537.28
72.5656	607.76
72.5801	539.33
72.5945	517.40
72.6089	505.00
72.6234	502.49
72.6378	514.52
72.6523	531.07
72.6667	586.73
72.6811	643.06
72.6956	514.90
72.7100	552.07
72.7245	605.29
72.7389	537.35
72.7533	501.74
72.7678	506.33
72.7822	592.84
72.7967	572.28
72.8111	608.12
72.8255	606.62
72.8400	630.04
72.8544	569.71
72.8689	509.48
72.8833	531.93