2022.09.19 19:37:17
Îáðàçåö: ß÷åéêà LCoV 16-09-2022
Lambda1 = 1.54060
Lambda2 = 1.54439
Lambdam = 1.54186
R = 0.497
2Theta	I

line¹ 0 ;repeat¹ 0
22.1120	541.26
22.1264	576.62
22.1409	564.06
22.1553	511.47
22.1697	546.57
22.1842	656.44
22.1986	568.19
22.2131	585.44
22.2275	567.41
22.2419	496.89
22.2564	565.55
22.2708	668.29
22.2853	694.27
22.2997	609.94
22.3141	572.82
22.3286	591.95
22.3430	565.87
22.3575	562.11
22.3719	602.65
22.3863	581.29
22.4008	633.71
22.4152	573.19
22.4297	615.35
22.4441	627.62
22.4585	642.97
22.4730	586.22
22.4874	586.17
22.5019	598.98
22.5163	524.40
22.5307	565.94
22.5452	539.06
22.5596	572.87
22.5741	652.79
22.5885	592.98
22.6029	608.68
22.6174	559.35
22.6318	557.55
22.6463	558.67
22.6607	570.50
22.6751	517.11
22.6896	647.16
22.7040	545.88
22.7185	528.24
22.7329	549.80
22.7473	524.83
22.7618	659.88
22.7762	636.41
22.7907	586.74
22.8051	603.85
22.8195	589.20
22.8340	562.41
22.8484	613.97
22.8629	603.62
22.8773	530.49
22.8917	529.13
22.9062	554.96
22.9206	524.79
22.9351	558.97
22.9495	697.34
22.9639	653.16
22.9784	569.14
22.9928	591.18
23.0073	575.92
23.0217	627.51
23.0361	545.32
23.0506	543.47
23.0650	633.78
23.0795	569.68
23.0939	633.17
23.1083	532.72
23.1228	511.94
23.1372	588.73
23.1517	532.23
23.1661	531.55
23.1806	526.13
23.1950	528.81
23.2094	570.50
23.2239	489.26
23.2383	596.04
23.2528	517.78
23.2672	468.60
23.2816	545.47
23.2961	534.91
23.3105	528.66
23.3250	600.88
23.3394	591.33
23.3538	532.19
23.3683	548.42
23.3827	595.90
23.3972	535.65
23.4116	508.80
23.4260	536.00
23.4405	569.98
23.4549	503.86
23.4694	573.03
23.4838	578.88
23.4982	550.59
23.5127	534.37
23.5271	590.96
23.5416	615.20
23.5560	573.34
23.5704	517.59
23.5849	499.44
23.5993	572.36
23.6138	574.64
23.6282	525.12
23.6426	565.96
23.6571	564.39
23.6715	501.34
23.6860	453.92
23.7004	571.39
23.7148	496.13
23.7293	600.28
23.7437	563.00
23.7582	609.00
23.7726	539.84
23.7870	560.13
23.8015	528.67
23.8159	566.32
23.8304	497.12
23.8448	501.94
23.8592	527.55
23.8737	594.89
23.8881	569.96
23.9026	606.21
23.9170	536.75
23.9314	515.34
23.9459	540.84
23.9603	578.08
23.9748	560.76
23.9892	511.03
24.0036	548.07
24.0181	551.78
24.0325	514.89
24.0470	525.20
24.0614	491.56
24.0758	564.49
24.0903	596.13
24.1047	536.19
24.1192	630.49
24.1336	590.13
24.1480	577.61
24.1625	577.66
24.1769	608.44
24.1914	584.06
24.2058	611.99
24.2202	596.24
24.2347	570.14
24.2491	637.87
24.2636	572.40
24.2780	621.03
24.2924	561.75
24.3069	563.43
24.3213	597.22
24.3358	555.28
24.3502	557.79
24.3646	544.37
24.3791	597.71
24.3935	518.48
24.4080	597.30
24.4224	544.06
24.4368	490.59
24.4513	513.59
24.4657	550.43
24.4802	471.77
24.4946	537.12
24.5090	478.58
24.5235	532.98
24.5379	526.04
24.5524	558.83
24.5668	593.24
24.5812	588.02
24.5957	600.12
24.6101	563.98
24.6246	598.82
24.6390	593.77
24.6534	517.90
24.6679	553.13
24.6823	522.57
24.6968	482.61
24.7112	511.53
24.7256	538.70
24.7401	533.84
24.7545	579.52
24.7690	506.59
24.7834	511.56
24.7978	531.83
24.8123	603.52
24.8267	544.75
24.8412	573.74
24.8556	550.81
24.8700	546.94
24.8845	523.69
24.8989	561.15
24.9134	536.97
24.9278	558.89
24.9422	575.19
24.9567	577.75
24.9711	499.60
24.9856	556.63
25.0000	533.42
25.0144	503.40
25.0289	516.16
25.0433	510.84
25.0578	522.47
25.0722	522.42
25.0866	582.10
25.1011	533.51
25.1155	527.93
25.1300	523.61
25.1444	539.46
25.1588	557.09
25.1733	533.77
25.1877	557.24
25.2022	529.97
25.2166	532.19
25.2310	534.56
25.2455	511.21
25.2599	550.82
25.2744	563.19
25.2888	568.90
25.3032	550.80
25.3177	512.32
25.3321	563.40
25.3466	547.96
25.3610	507.89
25.3754	567.76
25.3899	552.81
25.4043	539.90
25.4188	561.37
25.4332	577.31
25.4476	549.04
25.4621	542.31
25.4765	554.26
25.4910	519.83
25.5054	550.29
25.5198	586.13
25.5343	565.03
25.5487	515.19
25.5632	544.21
25.5776	548.41
25.5920	500.10
25.6065	531.17
25.6209	508.34
25.6354	528.31
25.6498	515.39
25.6642	524.60
25.6787	526.02
25.6931	542.95
25.7076	555.57
25.7220	542.96
25.7364	522.82
25.7509	538.81
25.7653	551.29
25.7798	561.06
25.7942	539.16
25.8086	538.67
25.8231	522.49
25.8375	550.47
25.8520	540.09
25.8664	538.12
25.8808	585.90
25.8953	527.59
25.9097	523.25
25.9242	538.91
25.9386	552.73
25.9530	553.02
25.9675	504.92
25.9819	515.11
25.9964	513.56
26.0108	520.79
26.0252	549.90
26.0397	521.72
26.0541	487.65
26.0686	515.28
26.0830	544.49
26.0974	516.67
26.1119	512.15
26.1263	554.26
26.1408	497.52
26.1552	498.62
26.1696	498.17
26.1841	521.67
26.1985	515.55
26.2130	514.24
26.2274	532.95
26.2418	577.63
26.2563	533.84
26.2707	521.34
26.2852	545.66
26.2996	546.26
26.3140	545.39
26.3285	554.82
26.3429	535.29
26.3574	516.16
26.3718	540.22
26.3862	539.35
26.4007	514.30
26.4151	540.37
26.4296	526.08
26.4440	486.94
26.4584	495.28
26.4729	540.50
26.4873	542.52
26.5018	523.59
26.5162	521.64
26.5306	508.60
26.5451	518.05
26.5595	531.10
26.5740	530.65
26.5884	519.50
26.6028	554.60
26.6173	540.01
26.6317	512.04
26.6462	519.77
26.6606	553.47
26.6750	531.36
26.6895	543.68
26.7039	545.81
26.7184	534.70
26.7328	504.28
26.7472	545.63
26.7617	514.54
26.7761	493.85
26.7906	494.74
26.8050	511.51
26.8194	506.01
26.8339	481.13
26.8483	500.64
26.8628	517.67
26.8772	526.89
26.8917	520.55
26.9061	552.10
26.9205	549.25
26.9350	525.10
26.9494	507.48
26.9639	494.63
26.9783	497.85
26.9927	504.71
27.0072	492.79
27.0216	498.49
27.0361	528.02
27.0505	532.46
27.0649	500.05
27.0794	521.38
27.0938	555.35
27.1083	562.11
27.1227	549.83
27.1371	501.78
27.1516	471.53
27.1660	509.38
27.1805	528.34
27.1949	514.04
27.2093	527.07
27.2238	549.72
27.2382	539.48
27.2527	526.80
27.2671	512.91
27.2815	534.78
27.2960	515.98
27.3104	512.85
27.3249	484.50
27.3393	518.87
27.3537	534.52
27.3682	531.45
27.3826	504.79
27.3971	499.34
27.4115	505.88
27.4259	544.01
27.4404	538.78
27.4548	522.04
27.4693	521.86
27.4837	521.86
27.4981	552.74
27.5126	512.05
27.5270	501.31
27.5415	538.45
27.5559	522.44
27.5703	493.80
27.5848	538.04
27.5992	534.40
27.6137	526.21
27.6281	515.50
27.6425	506.46
27.6570	513.29
27.6714	504.50
27.6859	518.76
27.7003	547.67
27.7147	538.43
27.7292	534.10
27.7436	505.57
27.7581	532.26
27.7725	512.22
27.7869	505.60
27.8014	518.45
27.8158	527.03
27.8303	508.69
27.8447	530.96
27.8591	538.04
27.8736	489.53
27.8880	487.17
27.9025	524.97
27.9169	517.80
27.9313	488.52
27.9458	498.60
27.9602	518.99
27.9747	535.98
27.9891	499.25
28.0035	503.90
28.0180	505.69
28.0324	500.29
28.0469	496.93
28.0613	531.00
28.0757	500.84
28.0902	500.25
28.1046	516.05
28.1191	537.86
28.1335	543.18
28.1479	508.02
28.1624	524.33
28.1768	531.15
28.1913	508.07
28.2057	491.06
28.2201	507.28
28.2346	491.59
28.2490	508.24
28.2635	538.11
28.2779	487.32
28.2923	486.06
28.3068	505.81
28.3212	499.53
28.3357	472.93
28.3501	561.58
28.3645	544.43
28.3790	518.31
28.3934	520.00
28.4079	486.13
28.4223	522.46
28.4367	537.04
28.4512	496.80
28.4656	513.95
28.4801	506.74
28.4945	515.29
28.5089	526.66
28.5234	535.63
28.5378	527.39
28.5523	497.63
28.5667	530.05
28.5811	545.34
28.5956	543.49
28.6100	542.65
28.6245	485.52
28.6389	504.00
28.6533	514.05
28.6678	505.01
28.6822	500.02
28.6967	494.50
28.7111	516.77
28.7255	493.81
28.7400	533.99
28.7544	536.17
28.7689	511.79
28.7833	493.63
28.7977	486.90
28.8122	493.33
28.8266	538.30
28.8411	534.37
28.8555	499.51
28.8699	533.25
28.8844	522.43
28.8988	537.31
28.9133	539.23
28.9277	504.39
28.9421	498.10
28.9566	498.90
28.9710	502.18
28.9855	457.77
28.9999	495.42
29.0143	513.37
29.0288	498.30
29.0432	499.54
29.0577	500.49
29.0721	458.79
29.0865	518.10
29.1010	510.23
29.1154	524.73
29.1299	484.99
29.1443	480.42
29.1587	496.16
29.1732	514.12
29.1876	486.61
29.2021	507.02
29.2165	542.80
29.2309	526.07
29.2454	493.26
29.2598	515.15
29.2743	518.30
29.2887	528.50
29.3031	524.60
29.3176	518.15
29.3320	544.70
29.3465	529.65
29.3609	494.25
29.3753	524.36
29.3898	479.56
29.4042	490.22
29.4187	507.06
29.4331	492.20
29.4475	460.58
29.4620	521.63
29.4764	518.90
29.4909	514.51
29.5053	507.02
29.5197	509.89
29.5342	534.78
29.5486	534.44
29.5631	543.37
29.5775	506.63
29.5919	500.97
29.6064	493.71
29.6208	480.95
29.6353	501.13
29.6497	494.51
29.6641	510.32
29.6786	509.70
29.6930	494.24
29.7075	515.48
29.7219	523.49
29.7363	481.14
29.7508	514.24
29.7652	488.18
29.7797	481.67
29.7941	506.23
29.8085	465.15
29.8230	487.26
29.8374	534.18
29.8519	503.22
29.8663	511.75
29.8807	536.70
29.8952	471.65
29.9096	516.38
29.9241	477.04
29.9385	487.98
29.9529	488.26
29.9674	483.58
29.9818	494.37
29.9963	487.43
30.0107	482.62
30.0251	474.96
30.0396	487.40
30.0540	533.09
30.0685	490.51
30.0829	497.40
30.0973	546.38
30.1118	490.77
30.1262	528.21
30.1407	520.91
30.1551	522.53
30.1695	538.28
30.1840	515.56
30.1984	495.78
30.2129	504.68
30.2273	501.64
30.2417	535.34
30.2562	504.96
30.2706	508.87
30.2851	507.54
30.2995	517.99
30.3139	541.11
30.3284	517.96
30.3428	539.78
30.3573	505.20
30.3717	502.32
30.3861	509.63
30.4006	511.33
30.4150	554.79
30.4295	554.96
30.4439	535.82
30.4583	544.49
30.4728	579.60
30.4872	560.98
30.5017	586.39
30.5161	624.84
30.5305	701.22
30.5450	719.47
30.5594	755.12
30.5739	713.58
30.5883	743.24
30.6028	729.98
30.6172	723.83
30.6316	734.22
30.6461	680.88
30.6605	639.30
30.6750	643.09
30.6894	590.89
30.7038	588.24
30.7183	563.05
30.7327	565.39
30.7472	560.10
30.7616	526.52
30.7760	536.24
30.7905	539.79
30.8049	539.37
30.8194	500.28
30.8338	510.95
30.8482	520.93
30.8627	500.03
30.8771	504.62
30.8916	529.82
30.9060	516.90
30.9204	517.55
30.9349	528.56
30.9493	508.51
30.9638	523.33
30.9782	514.98
30.9926	492.84
31.0071	485.83
31.0215	484.95
31.0360	499.07
31.0504	500.70
31.0648	507.90
31.0793	512.12
31.0937	509.60
31.1082	483.28
31.1226	497.47
31.1370	514.49
31.1515	490.26
31.1659	497.41
31.1804	507.91
31.1948	533.69
31.2092	518.82
31.2237	518.68
31.2381	528.38
31.2526	516.80
31.2670	522.20
31.2814	539.16
31.2959	518.65
31.3103	513.81
31.3248	533.40
31.3392	534.24
31.3536	557.11
31.3681	550.91
31.3825	521.39
31.3970	502.72
31.4114	498.76
31.4258	504.69
31.4403	506.03
31.4547	503.05
31.4692	521.42
31.4836	517.91
31.4980	479.33
31.5125	500.04
31.5269	486.38
31.5414	511.36
31.5558	509.21
31.5702	479.13
31.5847	499.12
31.5991	488.20
31.6136	533.52
31.6280	525.94
31.6424	498.63
31.6569	496.19
31.6713	516.43
31.6858	540.22
31.7002	511.66
31.7146	511.80
31.7291	539.59
31.7435	496.09
31.7580	456.29
31.7724	487.98
31.7868	503.72
31.8013	506.82
31.8157	524.04
31.8302	506.45
31.8446	507.71
31.8590	518.98
31.8735	533.41
31.8879	510.48
31.9024	475.25
31.9168	534.33
31.9312	531.36
31.9457	511.49
31.9601	531.19
31.9746	504.59
31.9890	507.04
32.0034	501.65
32.0179	497.59
32.0323	503.58
32.0468	489.74
32.0612	463.20
32.0756	476.08
32.0901	528.92
32.1045	494.40
32.1190	520.80
32.1334	511.66
32.1478	485.95
32.1623	510.55
32.1767	498.73
32.1912	479.59
32.2056	495.20
32.2200	513.50
32.2345	507.40
32.2489	472.61
32.2634	517.88
32.2778	528.80
32.2922	492.41
32.3067	524.60
32.3211	488.82
32.3356	527.89
32.3500	541.66
32.3644	484.30
32.3789	484.34
32.3933	487.74
32.4078	489.19
32.4222	482.53
32.4366	531.51
32.4511	520.75
32.4655	534.34
32.4800	500.43
32.4944	482.68
32.5088	522.96
32.5233	544.15
32.5377	557.88
32.5522	519.86
32.5666	495.88
32.5810	509.62
32.5955	489.77
32.6099	525.21
32.6244	515.14
32.6388	542.02
32.6532	506.55
32.6677	464.89
32.6821	488.00
32.6966	527.74
32.7110	504.53
32.7254	496.21
32.7399	474.90
32.7543	478.54
32.7688	469.13
32.7832	484.82
32.7976	485.53
32.8121	498.12
32.8265	517.67
32.8410	502.76
32.8554	523.31
32.8698	532.07
32.8843	535.29
32.8987	506.20
32.9132	482.22
32.9276	532.33
32.9420	518.66
32.9565	510.37
32.9709	481.74
32.9854	467.05
32.9998	480.37
33.0142	510.99
33.0287	497.34
33.0431	499.19
33.0576	497.81
33.0720	519.24
33.0864	519.22
33.1009	510.91
33.1153	543.39
33.1298	536.15
33.1442	468.94
33.1586	509.82
33.1731	515.74
33.1875	514.13
33.2020	509.72
33.2164	510.13
33.2308	497.97
33.2453	508.39
33.2597	502.42
33.2742	490.06
33.2886	502.28
33.3030	511.86
33.3175	538.28
33.3319	494.86
33.3464	512.24
33.3608	507.63
33.3752	494.36
33.3897	490.89
33.4041	469.65
33.4186	505.82
33.4330	512.94
33.4474	514.82
33.4619	503.19
33.4763	515.80
33.4908	489.11
33.5052	474.04
33.5196	497.15
33.5341	498.24
33.5485	511.60
33.5630	487.68
33.5774	502.95
33.5918	477.44
33.6063	518.35
33.6207	518.07
33.6352	511.74
33.6496	509.86
33.6640	494.19
33.6785	498.93
33.6929	523.19
33.7074	537.15
33.7218	511.39
33.7362	503.30
33.7507	467.65
33.7651	474.58
33.7796	474.89
33.7940	501.10
33.8084	512.32
33.8229	532.59
33.8373	522.54
33.8518	499.10
33.8662	506.81
33.8806	489.96
33.8951	509.74
33.9095	472.06
33.9240	472.78
33.9384	505.82
33.9528	489.38
33.9673	498.97
33.9817	508.72
33.9962	520.84
34.0106	495.03
34.0250	512.07
34.0395	489.78
34.0539	476.69
34.0684	497.24
34.0828	515.42
34.0972	513.78
34.1117	516.48
34.1261	516.24
34.1406	501.51
34.1550	501.86
34.1694	515.34
34.1839	497.51
34.1983	472.71
34.2128	478.15
34.2272	501.20
34.2417	485.22
34.2561	512.13
34.2705	485.96
34.2850	498.33
34.2994	506.71
34.3139	503.75
34.3283	493.55
34.3427	502.35
34.3572	500.39
34.3716	514.39
34.3861	523.64
34.4005	506.13
34.4149	495.12
34.4294	490.30
34.4438	465.99
34.4583	445.52
34.4727	497.43
34.4871	516.22
34.5016	497.74
34.5160	495.03
34.5305	497.77
34.5449	498.17
34.5593	525.52
34.5738	497.57
34.5882	486.59
34.6027	488.23
34.6171	469.67
34.6315	490.13
34.6460	500.83
34.6604	508.20
34.6749	492.74
34.6893	498.38
34.7037	524.93
34.7182	500.91
34.7326	468.45
34.7471	504.06
34.7615	527.58
34.7759	511.81
34.7904	491.11
34.8048	512.59
34.8193	524.79
34.8337	529.29
34.8481	501.60
34.8626	495.26
34.8770	507.65
34.8915	511.84
34.9059	516.42
34.9203	492.14
34.9348	501.28
34.9492	503.75
34.9637	517.46
34.9781	504.02
34.9925	488.70
35.0070	475.38
35.0214	500.14
35.0359	474.98
35.0503	485.11
35.0647	523.03
35.0792	520.88
35.0936	533.01
35.1081	523.70
35.1225	502.62
35.1369	509.89
35.1514	489.63
35.1658	515.82
35.1803	490.99
35.1947	467.98
35.2091	469.48
35.2236	512.57
35.2380	472.95
35.2525	490.10
35.2669	501.60
35.2813	545.30
35.2958	519.41
35.3102	493.97
35.3247	514.49
35.3391	505.16
35.3535	517.00
35.3680	537.16
35.3824	514.87
35.3969	512.77
35.4113	495.48
35.4257	515.80
35.4402	548.85
35.4546	523.46
35.4691	530.18
35.4835	534.88
35.4979	511.29
35.5124	515.97
35.5268	518.80
35.5413	535.08
35.5557	549.32
35.5701	554.98
35.5846	537.51
35.5990	537.46
35.6135	510.62
35.6279	504.61
35.6423	525.57
35.6568	526.80
35.6712	541.54
35.6857	611.47
35.7001	680.60
35.7145	718.99
35.7290	698.93
35.7434	644.78
35.7579	632.54
35.7723	639.01
35.7867	708.97
35.8012	734.30
35.8156	736.20
35.8301	747.58
35.8445	662.26
35.8589	791.35
35.8734	866.70
35.8878	946.80
35.9023	1124.23
35.9167	1172.51
35.9311	1294.83
35.9456	1620.23
35.9600	1996.50
35.9745	2194.53
35.9889	2299.14
36.0033	2672.29
36.0178	2953.55
36.0322	3244.03
36.0467	2605.37
36.0611	2192.50
36.0755	1962.96
36.0900	2043.74
36.1044	2092.63
36.1189	1596.35
36.1333	1332.88
36.1477	1175.05
36.1622	1087.89
36.1766	995.77
36.1911	826.97
36.2055	751.59
36.2199	772.25
36.2344	764.88
36.2488	665.79
36.2633	545.45
36.2777	556.69
36.2921	572.29
36.3066	548.73
36.3210	495.19
36.3355	533.24
36.3499	526.54
36.3643	545.49
36.3788	538.87
36.3932	515.42
36.4077	489.98
36.4221	535.47
36.4365	527.71
36.4510	525.91
36.4654	554.42
36.4799	522.90
36.4943	513.55
36.5087	514.28
36.5232	527.06
36.5376	521.50
36.5521	533.03
36.5665	543.93
36.5809	520.54
36.5954	506.50
36.6098	540.70
36.6243	513.00
36.6387	496.96
36.6531	503.75
36.6676	518.81
36.6820	540.01
36.6965	554.63
36.7109	502.68
36.7253	493.68
36.7398	519.34
36.7542	532.96
36.7687	553.66
36.7831	556.12
36.7975	567.22
36.8120	558.61
36.8264	539.84
36.8409	559.33
36.8553	575.83
36.8697	563.26
36.8842	578.57
36.8986	586.07
36.9131	558.53
36.9275	549.81
36.9419	594.57
36.9564	525.16
36.9708	553.57
36.9853	540.96
36.9997	585.72
37.0141	580.15
37.0286	528.80
37.0430	524.45
37.0575	516.92
37.0719	527.92
37.0863	507.10
37.1008	481.30
37.1152	522.69
37.1297	521.18
37.1441	508.90
37.1585	520.03
37.1730	502.26
37.1874	436.75
37.2019	502.16
37.2163	503.82
37.2307	517.29
37.2452	528.16
37.2596	503.07
37.2741	489.18
37.2885	524.30
37.3029	521.66
37.3174	497.62
37.3318	525.98
37.3463	518.57
37.3607	525.33
37.3751	516.85
37.3896	471.67
37.4040	487.83
37.4185	494.53
37.4329	480.90
37.4473	487.06
37.4618	495.14
37.4762	511.13
37.4907	512.85
37.5051	488.83
37.5195	494.85
37.5340	512.55
37.5484	522.51
37.5629	494.77
37.5773	490.34
37.5917	505.76
37.6062	485.00
37.6206	509.76
37.6351	516.58
37.6495	521.96
37.6639	511.86
37.6784	493.71
37.6928	493.22
37.7073	539.14
37.7217	511.86
37.7361	492.40
37.7506	504.90
37.7650	497.25
37.7795	522.35
37.7939	505.55
37.8083	491.72
37.8228	490.48
37.8372	498.68
37.8517	448.57
37.8661	509.02
37.8805	509.10
37.8950	516.76
37.9094	499.75
37.9239	506.51
37.9383	513.68
37.9528	522.20
37.9672	480.20
37.9816	499.10
37.9961	479.03
38.0105	494.19
38.0250	508.55
38.0394	511.68
38.0538	525.04
38.0683	533.33
38.0827	528.41
38.0972	487.67
38.1116	498.97
38.1260	527.72
38.1405	485.84
38.1549	493.73
38.1694	480.16
38.1838	513.70
38.1982	501.30
38.2127	526.90
38.2271	494.87
38.2416	507.97
38.2560	535.53
38.2704	501.67
38.2849	508.69
38.2993	495.47
38.3138	472.20
38.3282	511.69
38.3426	531.48
38.3571	519.02
38.3715	510.47
38.3860	517.50
38.4004	497.65
38.4148	498.47
38.4293	557.63
38.4437	569.82
38.4582	616.30
38.4726	683.99
38.4870	673.62
38.5015	717.01
38.5159	772.15
38.5304	808.80
38.5448	789.07
38.5592	776.51
38.5737	719.49
38.5881	705.36
38.6026	676.51
38.6170	676.34
38.6314	689.24
38.6459	642.32
38.6603	645.20
38.6748	645.73
38.6892	551.02
38.7036	515.26
38.7181	517.86
38.7325	497.93
38.7470	507.80
38.7614	515.72
38.7758	492.10
38.7903	519.66
38.8047	511.85
38.8192	531.79
38.8336	548.32
38.8480	489.26
38.8625	496.54
38.8769	512.25
38.8914	486.97
38.9058	479.02
38.9202	495.12
38.9347	513.12
38.9491	473.50
38.9636	470.12
38.9780	491.63
38.9924	513.09
39.0069	493.72
39.0213	515.99
39.0358	514.68
39.0502	502.75
39.0646	520.46
39.0791	500.26
39.0935	517.50
39.1080	477.80
39.1224	518.06
39.1368	512.31
39.1513	527.98
39.1657	490.46
39.1802	491.59
39.1946	515.48
39.2090	527.40
39.2235	500.47
39.2379	520.49
39.2524	491.09
39.2668	489.33
39.2812	510.10
39.2957	497.59
39.3101	509.47
39.3246	495.19
39.3390	514.98
39.3534	531.03
39.3679	501.98
39.3823	486.77
39.3968	491.16
39.4112	492.06
39.4256	500.94
39.4401	475.43
39.4545	479.29
39.4690	460.32
39.4834	485.11
39.4978	514.49
39.5123	517.58
39.5267	490.45
39.5412	493.92
39.5556	481.21
39.5700	490.83
39.5845	531.87
39.5989	499.50
39.6134	481.20
39.6278	464.17
39.6422	491.51
39.6567	469.85
39.6711	493.93
39.6856	493.15
39.7000	505.37
39.7144	489.04
39.7289	480.76
39.7433	484.55
39.7578	514.30
39.7722	506.40
39.7866	484.91
39.8011	504.99
39.8155	524.79
39.8300	496.76
39.8444	453.87
39.8588	496.81
39.8733	500.43
39.8877	498.63
39.9022	493.92
39.9166	470.17
39.9310	473.30
39.9455	498.08
39.9599	487.09
39.9744	458.23
39.9888	498.28
40.0032	471.15
40.0177	446.35
40.0321	508.98
40.0466	507.47
40.0610	493.29
40.0754	487.78
40.0899	488.35
40.1043	522.69
40.1188	519.99
40.1332	488.23
40.1476	485.94
40.1621	484.23
40.1765	484.60
40.1910	467.54
40.2054	461.70
40.2198	484.32
40.2343	451.40
40.2487	474.79
40.2632	480.24
40.2776	487.82
40.2920	487.24
40.3065	499.00
40.3209	510.66
40.3354	499.91
40.3498	506.26
40.3642	452.63
40.3787	444.89
40.3931	457.02
40.4076	489.33
40.4220	458.05
40.4364	495.72
40.4509	504.30
40.4653	501.34
40.4798	528.10
40.4942	506.69
40.5086	502.75
40.5231	485.60
40.5375	536.25
40.5520	488.66
40.5664	486.54
40.5808	492.61
40.5953	501.26
40.6097	485.09
40.6242	480.84
40.6386	496.60
40.6530	521.08
40.6675	507.63
40.6819	516.58
40.6964	485.15
40.7108	487.86
40.7252	533.19
40.7397	490.93
40.7541	515.96
40.7686	492.55
40.7830	463.36
40.7974	492.12
40.8119	489.07
40.8263	468.97
40.8408	473.82
40.8552	492.84
40.8696	500.88
40.8841	520.01
40.8985	512.23
40.9130	492.82
40.9274	466.51
40.9418	460.34
40.9563	453.69
40.9707	479.65
40.9852	468.80
40.9996	454.59
41.0140	489.58
41.0285	547.79
41.0429	497.71
41.0574	518.70
41.0718	497.81
41.0862	511.01
41.1007	516.51
41.1151	480.50
41.1296	518.71
41.1440	509.97
41.1584	504.45
41.1729	477.97
41.1873	490.52
41.2018	487.96
41.2162	465.25
41.2306	523.33
41.2451	498.60
41.2595	491.28
41.2740	495.73
41.2884	491.62
41.3028	490.20
41.3173	480.33
41.3317	529.24
41.3462	513.10
41.3606	482.68
41.3750	487.67
41.3895	492.64
41.4039	487.34
41.4184	521.26
41.4328	519.28
41.4472	546.09
41.4617	527.56
41.4761	516.29
41.4906	511.07
41.5050	499.62
41.5194	458.15
41.5339	515.46
41.5483	522.09
41.5628	496.94
41.5772	476.84
41.5916	479.49
41.6061	484.13
41.6205	481.90
41.6350	466.15
41.6494	489.86
41.6639	497.88
41.6783	498.89
41.6927	508.66
41.7072	544.89
41.7216	492.30
41.7361	466.77
41.7505	496.88
41.7649	491.98
41.7794	516.61
41.7938	532.51
41.8083	506.82
41.8227	486.71
41.8371	513.86
41.8516	507.95
41.8660	502.51
41.8805	523.47
41.8949	555.05
41.9093	564.35
41.9238	547.13
41.9382	551.57
41.9527	540.73
41.9671	587.03
41.9815	530.06
41.9960	501.80
42.0104	534.90
42.0249	533.02
42.0393	520.60
42.0537	573.91
42.0682	609.88
42.0826	550.62
42.0971	565.37
42.1115	584.05
42.1259	577.97
42.1404	563.09
42.1548	605.33
42.1693	656.37
42.1837	700.79
42.1981	733.31
42.2126	820.99
42.2270	938.92
42.2415	1090.51
42.2559	1225.40
42.2703	1336.74
42.2848	1470.41
42.2992	1613.43
42.3137	1685.13
42.3281	1688.44
42.3425	1626.70
42.3570	1465.74
42.3714	1363.35
42.3859	1423.44
42.4003	1396.27
42.4147	1329.32
42.4292	1255.88
42.4436	1105.35
42.4581	982.70
42.4725	929.96
42.4869	799.91
42.5014	725.56
42.5158	663.54
42.5303	663.79
42.5447	661.85
42.5591	601.13
42.5736	587.62
42.5880	571.05
42.6025	603.92
42.6169	611.09
42.6313	554.23
42.6458	561.24
42.6602	536.30
42.6747	492.89
42.6891	512.00
42.7035	556.93
42.7180	539.67
42.7324	538.09
42.7469	519.71
42.7613	496.07
42.7757	525.43
42.7902	533.38
42.8046	529.59
42.8191	517.69
42.8335	485.20
42.8479	514.31
42.8624	561.63
42.8768	518.04
42.8913	494.38
42.9057	553.80
42.9201	531.07
42.9346	520.07
42.9490	517.86
42.9635	539.30
42.9779	512.83
42.9923	485.42
43.0068	502.09
43.0212	509.88
43.0357	509.43
43.0501	488.95
43.0645	519.58
43.0790	503.70
43.0934	508.32
43.1079	498.69
43.1223	485.68
43.1367	509.52
43.1512	508.11
43.1656	534.24
43.1801	504.08
43.1945	499.12
43.2089	545.30
43.2234	499.65
43.2378	520.92
43.2523	521.64
43.2667	501.79
43.2811	513.73
43.2956	532.14
43.3100	521.21
43.3245	510.29
43.3389	530.05
43.3533	547.13
43.3678	544.62
43.3822	530.35
43.3967	505.09
43.4111	511.67
43.4255	516.09
43.4400	527.48
43.4544	500.22
43.4689	504.40
43.4833	510.85
43.4977	499.53
43.5122	494.47
43.5266	529.54
43.5411	508.26
43.5555	508.48
43.5699	490.11
43.5844	532.39
43.5988	516.54
43.6133	527.40
43.6277	530.00
43.6421	538.41
43.6566	541.20
43.6710	553.24
43.6855	582.06
43.6999	592.67
43.7143	647.14
43.7288	637.38
43.7432	638.03
43.7577	634.90
43.7721	658.04
43.7865	636.90
43.8010	633.76
43.8154	631.15
43.8299	630.87
43.8443	589.19
43.8587	658.82
43.8732	616.01
43.8876	533.94
43.9021	566.05
43.9165	538.23
43.9309	537.82
43.9454	507.29
43.9598	506.58
43.9743	495.32
43.9887	480.66
44.0031	479.31
44.0176	521.84
44.0320	520.98
44.0465	474.98
44.0609	515.67
44.0753	531.63
44.0898	515.43
44.1042	533.71
44.1187	506.14
44.1331	516.30
44.1475	466.08
44.1620	511.96
44.1764	514.55
44.1909	498.59
44.2053	545.11
44.2197	540.75
44.2342	524.46
44.2486	523.98
44.2631	495.30
44.2775	515.81
44.2919	561.57
44.3064	508.92
44.3208	519.11
44.3353	490.78
44.3497	523.95
44.3641	494.37
44.3786	497.70
44.3930	572.98
44.4075	532.31
44.4219	544.48
44.4363	601.56
44.4508	572.71
44.4652	577.79
44.4797	583.77
44.4941	590.27
44.5085	598.24
44.5230	600.59
44.5374	573.51
44.5519	571.89
44.5663	561.51
44.5807	545.60
44.5952	572.84
44.6096	572.69
44.6241	550.11
44.6385	569.39
44.6529	632.08
44.6674	583.36
44.6818	572.30
44.6963	598.12
44.7107	631.54
44.7251	670.84
44.7396	735.94
44.7540	828.16
44.7685	837.34
44.7829	830.09
44.7973	900.08
44.8118	853.90
44.8262	824.13
44.8407	780.28
44.8551	748.70
44.8695	706.32
44.8840	718.37
44.8984	741.03
44.9129	716.61
44.9273	693.23
44.9417	684.51
44.9562	603.66
44.9706	583.29
44.9851	532.78
44.9995	516.90
45.0139	519.89
45.0284	533.80
45.0428	517.34
45.0573	508.07
45.0717	533.87
45.0861	571.61
45.1006	503.73
45.1150	535.67
45.1295	526.51
45.1439	489.33
45.1583	498.81
45.1728	561.04
45.1872	518.77
45.2017	489.90
45.2161	516.48
45.2305	520.51
45.2450	485.29
45.2594	464.20
45.2739	490.10
45.2883	494.48
45.3028	530.75
45.3172	490.68
45.3316	512.95
45.3461	549.50
45.3605	509.36
45.3750	500.76
45.3894	501.56
45.4038	501.96
45.4183	492.28
45.4327	508.97
45.4472	479.78
45.4616	522.52
45.4760	521.66
45.4905	485.35
45.5049	483.31
45.5194	508.23
45.5338	495.47
45.5482	488.20
45.5627	492.20
45.5771	525.65
45.5916	531.24
45.6060	513.64
45.6204	488.80
45.6349	508.87
45.6493	495.96
45.6638	486.34
45.6782	523.27
45.6926	484.11
45.7071	494.30
45.7215	504.89
45.7360	489.16
45.7504	501.00
45.7648	530.53
45.7793	513.73
45.7937	530.79
45.8082	540.94
45.8226	515.32
45.8370	507.59
45.8515	499.61
45.8659	520.18
45.8804	499.83
45.8948	521.65
45.9092	453.57
45.9237	492.47
45.9381	470.09
45.9526	496.37
45.9670	501.34
45.9814	503.72
45.9959	494.53
46.0103	485.68
46.0248	483.81
46.0392	497.16
46.0536	499.92
46.0681	503.05
46.0825	483.19
46.0970	470.62
46.1114	488.12
46.1258	508.93
46.1403	481.05
46.1547	532.01
46.1692	523.08
46.1836	503.63
46.1980	475.57
46.2125	513.93
46.2269	526.91
46.2414	519.93
46.2558	466.05
46.2702	470.36
46.2847	480.66
46.2991	488.53
46.3136	489.09
46.3280	509.71
46.3424	507.59
46.3569	493.79
46.3713	496.86
46.3858	505.24
46.4002	490.05
46.4146	456.59
46.4291	500.17
46.4435	481.92
46.4580	485.14
46.4724	523.76
46.4868	500.26
46.5013	482.56
46.5157	484.07
46.5302	476.19
46.5446	475.23
46.5590	485.09
46.5735	521.96
46.5879	505.92
46.6024	495.95
46.6168	488.97
46.6312	498.78
46.6457	499.83
46.6601	463.79
46.6746	484.64
46.6890	509.25
46.7034	507.18
46.7179	512.86
46.7323	535.58
46.7468	499.17
46.7612	473.14
46.7756	504.73
46.7901	475.93
46.8045	511.72
46.8190	491.59
46.8334	470.60
46.8478	470.97
46.8623	507.73
46.8767	540.71
46.8912	513.14
46.9056	502.56
46.9200	501.19
46.9345	502.47
46.9489	504.73
46.9634	522.94
46.9778	534.84
46.9922	507.39
47.0067	477.05
47.0211	499.43
47.0356	494.03
47.0500	481.31
47.0644	516.01
47.0789	531.69
47.0933	517.15
47.1078	509.99
47.1222	493.02
47.1366	518.50
47.1511	499.85
47.1655	497.85
47.1800	505.59
47.1944	467.98
47.2088	529.13
47.2233	516.43
47.2377	530.48
47.2522	511.56
47.2666	537.36
47.2810	545.54
47.2955	487.77
47.3099	497.49
47.3244	520.69
47.3388	503.44
47.3532	534.96
47.3677	527.32
47.3821	478.72
47.3966	462.73
47.4110	469.72
47.4254	546.71
47.4399	509.24
47.4543	492.05
47.4688	535.67
47.4832	515.50
47.4976	499.23
47.5121	547.92
47.5265	507.49
47.5410	464.91
47.5554	518.28
47.5698	466.66
47.5843	462.21
47.5987	484.22
47.6132	523.95
47.6276	500.01
47.6420	500.66
47.6565	512.15
47.6709	510.14
47.6854	501.51
47.6998	523.56
47.7142	474.08
47.7287	474.49
47.7431	464.40
47.7576	469.54
47.7720	485.24
47.7864	497.22
47.8009	491.93
47.8153	507.65
47.8298	494.19
47.8442	503.35
47.8586	519.71
47.8731	474.06
47.8875	491.39
47.9020	518.66
47.9164	506.22
47.9308	529.61
47.9453	497.57
47.9597	506.90
47.9742	510.08
47.9886	459.16
48.0030	500.23
48.0175	494.99
48.0319	481.39
48.0464	526.46
48.0608	508.15
48.0752	495.15
48.0897	488.88
48.1041	508.17
48.1186	521.67
48.1330	507.29
48.1474	439.83
48.1619	507.81
48.1763	508.56
48.1908	497.23
48.2052	510.63
48.2196	504.68
48.2341	485.51
48.2485	492.90
48.2630	474.90
48.2774	494.90
48.2918	473.66
48.3063	520.60
48.3207	523.10
48.3352	507.53
48.3496	484.40
48.3640	498.43
48.3785	520.39
48.3929	515.95
48.4074	531.55
48.4218	521.08
48.4362	533.46
48.4507	511.05
48.4651	515.96
48.4796	530.25
48.4940	495.23
48.5084	500.07
48.5229	480.13
48.5373	483.09
48.5518	486.58
48.5662	514.52
48.5806	519.49
48.5951	537.55
48.6095	545.27
48.6240	511.30
48.6384	500.73
48.6528	493.62
48.6673	490.19
48.6817	510.15
48.6962	484.70
48.7106	538.09
48.7250	540.20
48.7395	533.54
48.7539	523.03
48.7684	530.41
48.7828	512.39
48.7972	527.57
48.8117	553.93
48.8261	516.87
48.8406	502.70
48.8550	532.22
48.8694	565.58
48.8839	578.96
48.8983	555.82
48.9128	530.32
48.9272	546.80
48.9416	547.82
48.9561	492.02
48.9705	520.95
48.9850	560.77
48.9994	594.09
49.0139	556.32
49.0283	624.89
49.0427	602.72
49.0572	609.47
49.0716	684.16
49.0861	688.66
49.1005	674.09
49.1149	718.02
49.1294	775.30
49.1438	743.54
49.1583	793.78
49.1727	856.18
49.1871	893.72
49.2016	1062.74
49.2160	1078.71
49.2305	1110.68
49.2449	1186.74
49.2593	1312.08
49.2738	1377.18
49.2882	1519.63
49.3027	1589.56
49.3171	1684.85
49.3315	1762.63
49.3460	1819.97
49.3604	1833.40
49.3749	1830.74
49.3893	1784.31
49.4037	1825.17
49.4182	1760.23
49.4326	1804.88
49.4471	1628.87
49.4615	1608.80
49.4759	1614.65
49.4904	1509.39
49.5048	1416.22
49.5193	1342.39
49.5337	1275.28
49.5481	1213.27
49.5626	1148.56
49.5770	1087.17
49.5915	998.19
49.6059	972.69
49.6203	847.37
49.6348	825.74
49.6492	750.66
49.6637	735.34
49.6781	721.84
49.6925	690.96
49.7070	746.27
49.7214	662.88
49.7359	650.94
49.7503	668.31
49.7647	605.04
49.7792	601.32
49.7936	548.95
49.8081	547.41
49.8225	592.38
49.8369	562.22
49.8514	564.37
49.8658	561.42
49.8803	549.85
49.8947	549.93
49.9091	578.51
49.9236	529.23
49.9380	537.83
49.9525	569.57
49.9669	543.00
49.9813	532.74
49.9958	548.70
50.0102	527.44
50.0247	525.15
50.0391	498.88
50.0535	510.88
50.0680	519.34
50.0824	558.27
50.0969	546.00
50.1113	520.91
50.1257	534.91
50.1402	526.00
50.1546	524.22
50.1691	519.99
50.1835	545.43
50.1979	536.61
50.2124	542.36
50.2268	514.53
50.2413	487.91
50.2557	486.13
50.2701	506.92
50.2846	499.82
50.2990	514.69
50.3135	540.92
50.3279	526.71
50.3423	510.94
50.3568	517.34
50.3712	530.37
50.3857	541.13
50.4001	500.06
50.4145	498.79
50.4290	528.21
50.4434	495.90
50.4579	504.17
50.4723	533.71
50.4867	534.62
50.5012	489.92
50.5156	504.02
50.5301	529.94
50.5445	508.04
50.5589	480.78
50.5734	474.83
50.5878	491.50
50.6023	491.65
50.6167	500.26
50.6311	491.78
50.6456	530.32
50.6600	510.68
50.6745	499.65
50.6889	509.41
50.7033	505.48
50.7178	530.29
50.7322	511.39
50.7467	505.92
50.7611	496.33
50.7755	482.62
50.7900	502.06
50.8044	507.54
50.8189	521.65
50.8333	506.17
50.8477	479.99
50.8622	510.04
50.8766	521.03
50.8911	512.83
50.9055	527.49
50.9199	540.39
50.9344	535.36
50.9488	524.40
50.9633	512.40
50.9777	512.67
50.9921	496.74
51.0066	531.51
51.0210	528.04
51.0355	516.57
51.0499	493.52
51.0643	537.04
51.0788	536.47
51.0932	555.09
51.1077	535.28
51.1221	553.55
51.1365	505.05
51.1510	466.05
51.1654	495.06
51.1799	537.16
51.1943	517.49
51.2087	500.57
51.2232	499.56
51.2376	496.68
51.2521	522.66
51.2665	510.38
51.2809	520.00
51.2954	499.31
51.3098	499.35
51.3243	514.37
51.3387	519.88
51.3531	519.88
51.3676	513.65
51.3820	494.31
51.3965	492.22
51.4109	489.77
51.4253	505.31
51.4398	502.30
51.4542	506.89
51.4687	489.45
51.4831	502.75
51.4975	512.11
51.5120	500.24
51.5264	505.18
51.5409	515.96
51.5553	508.16
51.5697	478.22
51.5842	501.29
51.5986	486.57
51.6131	513.27
51.6275	506.36
51.6419	515.18
51.6564	483.36
51.6708	485.76
51.6853	493.04
51.6997	494.45
51.7141	506.42
51.7286	479.92
51.7430	507.31
51.7575	478.83
51.7719	459.32
51.7863	483.73
51.8008	534.35
51.8152	533.14
51.8297	523.59
51.8441	513.31
51.8585	521.83
51.8730	531.64
51.8874	501.44
51.9019	516.81
51.9163	500.53
51.9307	497.43
51.9452	533.96
51.9596	513.49
51.9741	501.79
51.9885	492.17
52.0029	491.50
52.0174	521.03
52.0318	544.75
52.0463	511.66
52.0607	536.49
52.0751	485.38
52.0896	499.10
52.1040	495.60
52.1185	484.90
52.1329	462.57
52.1473	434.00
52.1618	491.02
52.1762	512.38
52.1907	484.09
52.2051	490.38
52.2195	479.92
52.2340	469.96
52.2484	497.36
52.2629	513.17
52.2773	501.79
52.2917	474.55
52.3062	512.12
52.3206	519.06
52.3351	522.07
52.3495	500.18
52.3639	499.25
52.3784	489.41
52.3928	502.92
52.4073	500.30
52.4217	486.29
52.4361	522.82
52.4506	511.70
52.4650	508.74
52.4795	507.59
52.4939	520.99
52.5083	499.65
52.5228	519.75
52.5372	499.61
52.5517	497.65
52.5661	504.43
52.5805	526.26
52.5950	512.40
52.6094	485.74
52.6239	520.86
52.6383	524.70
52.6527	505.70
52.6672	499.30
52.6816	528.84
52.6961	505.78
52.7105	504.97
52.7250	503.37
52.7394	492.74
52.7538	494.47
52.7683	493.71
52.7827	508.14
52.7972	532.99
52.8116	517.25
52.8260	514.38
52.8405	550.61
52.8549	534.19
52.8694	533.84
52.8838	515.30
52.8982	498.72
52.9127	490.40
52.9271	469.57
52.9416	486.70
52.9560	531.24
52.9704	500.50
52.9849	522.32
52.9993	520.35
53.0138	521.31
53.0282	544.51
53.0426	508.31
53.0571	537.93
53.0715	499.41
53.0860	510.76
53.1004	536.62
53.1148	494.81
53.1293	505.38
53.1437	491.07
53.1582	482.55
53.1726	514.34
53.1870	497.33
53.2015	506.59
53.2159	537.36
53.2304	529.29
53.2448	559.42
53.2592	499.06
53.2737	458.30
53.2881	499.79
53.3026	533.16
53.3170	491.09
53.3314	532.15
53.3459	538.42
53.3603	524.29
53.3748	477.08
53.3892	516.98
53.4036	491.42
53.4181	482.91
53.4325	503.89
53.4470	490.87
53.4614	522.89
53.4758	544.72
53.4903	501.35
53.5047	452.04
53.5192	489.39
53.5336	523.09
53.5480	532.92
53.5625	534.31
53.5769	515.28
53.5914	507.31
53.6058	529.12
53.6202	476.67
53.6347	497.35
53.6491	490.32
53.6636	504.10
53.6780	516.11
53.6924	496.41
53.7069	560.42
53.7213	539.53
53.7358	479.27
53.7502	482.23
53.7646	500.24
53.7791	514.82
53.7935	492.73
53.8080	520.18
53.8224	546.09
53.8368	477.62
53.8513	509.65
53.8657	503.30
53.8802	482.68
53.8946	509.15
53.9090	559.40
53.9235	522.23
53.9379	476.78
53.9524	478.34
53.9668	473.62
53.9812	499.13
53.9957	515.06
54.0101	532.35
54.0246	562.20
54.0390	520.10
54.0534	520.21
54.0679	509.22
54.0823	500.78
54.0968	556.20
54.1112	530.50
54.1256	541.04
54.1401	540.81
54.1545	505.44
54.1690	549.39
54.1834	553.84
54.1978	559.56
54.2123	545.47
54.2267	577.13
54.2412	631.88
54.2556	651.38
54.2700	607.84
54.2845	643.78
54.2989	659.17
54.3134	630.63
54.3278	610.70
54.3422	606.55
54.3567	553.01
54.3711	614.84
54.3856	584.73
54.4000	583.46
54.4144	597.74
54.4289	600.62
54.4433	617.44
54.4578	562.06
54.4722	571.88
54.4866	523.49
54.5011	519.10
54.5155	544.34
54.5300	534.44
54.5444	519.22
54.5588	544.46
54.5733	531.18
54.5877	496.66
54.6022	491.16
54.6166	535.26
54.6310	551.62
54.6455	536.75
54.6599	513.10
54.6744	486.49
54.6888	496.14
54.7032	517.96
54.7177	515.17
54.7321	504.64
54.7466	511.47
54.7610	493.71
54.7754	512.24
54.7899	516.97
54.8043	488.98
54.8188	495.47
54.8332	498.56
54.8476	510.70
54.8621	529.58
54.8765	490.36
54.8910	488.46
54.9054	526.13
54.9198	543.32
54.9343	540.62
54.9487	543.39
54.9632	514.28
54.9776	493.75
54.9920	508.37
55.0065	501.75
55.0209	526.25
55.0354	528.98
55.0498	483.13
55.0642	514.33
55.0787	515.80
55.0931	517.64
55.1076	517.73
55.1220	496.13
55.1364	523.51
55.1509	516.15
55.1653	528.74
55.1798	546.91
55.1942	501.20
55.2086	497.37
55.2231	514.42
55.2375	495.31
55.2520	482.92
55.2664	509.24
55.2808	555.06
55.2953	506.15
55.3097	522.93
55.3242	523.52
55.3386	519.20
55.3530	532.79
55.3675	518.14
55.3819	483.29
55.3964	500.16
55.4108	481.04
55.4252	500.87
55.4397	491.70
55.4541	513.44
55.4686	533.58
55.4830	481.96
55.4974	515.80
55.5119	510.09
55.5263	514.76
55.5408	507.99
55.5552	493.18
55.5696	539.39
55.5841	516.66
55.5985	490.71
55.6130	500.55
55.6274	492.20
55.6418	511.79
55.6563	564.06
55.6707	535.19
55.6852	519.70
55.6996	529.25
55.7140	548.42
55.7285	542.98
55.7429	500.96
55.7574	516.26
55.7718	516.52
55.7862	509.14
55.8007	501.65
55.8151	518.03
55.8296	578.16
55.8440	511.16
55.8584	528.23
55.8729	522.25
55.8873	499.66
55.9018	537.57
55.9162	510.05
55.9306	547.39
55.9451	497.15
55.9595	497.14
55.9740	503.37
55.9884	516.22
56.0028	510.54
56.0173	519.16
56.0317	527.64
56.0462	501.20
56.0606	518.87
56.0750	502.45
56.0895	538.51
56.1039	536.94
56.1184	532.14
56.1328	535.16
56.1472	516.03
56.1617	487.23
56.1761	497.96
56.1906	514.14
56.2050	477.62
56.2194	534.78
56.2339	493.67
56.2483	535.41
56.2628	492.45
56.2772	515.29
56.2916	531.27
56.3061	524.79
56.3205	507.99
56.3350	554.77
56.3494	502.57
56.3639	523.86
56.3783	516.50
56.3927	497.53
56.4072	518.32
56.4216	549.79
56.4361	540.00
56.4505	526.56
56.4649	531.60
56.4794	532.17
56.4938	509.81
56.5083	489.83
56.5227	522.17
56.5371	524.44
56.5516	501.09
56.5660	531.42
56.5805	486.66
56.5949	522.87
56.6093	524.01
56.6238	482.87
56.6382	507.34
56.6527	509.04
56.6671	496.95
56.6815	482.67
56.6960	497.62
56.7104	547.95
56.7249	504.96
56.7393	513.92
56.7537	541.53
56.7682	482.56
56.7826	527.86
56.7971	552.76
56.8115	557.12
56.8259	544.11
56.8404	512.85
56.8548	543.35
56.8693	524.34
56.8837	511.16
56.8981	521.21
56.9126	531.00
56.9270	506.48
56.9415	544.49
56.9559	512.68
56.9703	515.22
56.9848	520.16
56.9992	514.93
57.0137	505.84
57.0281	500.23
57.0425	482.98
57.0570	512.92
57.0714	493.77
57.0859	517.71
57.1003	506.86
57.1147	563.08
57.1292	527.41
57.1436	527.27
57.1581	509.75
57.1725	488.09
57.1869	500.60
57.2014	510.69
57.2158	537.53
57.2303	538.71
57.2447	524.52
57.2591	508.53
57.2736	514.45
57.2880	510.72
57.3025	523.35
57.3169	518.52
57.3313	548.87
57.3458	523.87
57.3602	516.76
57.3747	514.48
57.3891	507.16
57.4035	505.80
57.4180	543.29
57.4324	531.89
57.4469	503.25
57.4613	516.02
57.4757	544.07
57.4902	525.56
57.5046	520.70
57.5191	488.54
57.5335	550.04
57.5479	525.59
57.5624	508.59
57.5768	475.77
57.5913	550.28
57.6057	533.95
57.6201	535.83
57.6346	541.62
57.6490	563.08
57.6635	551.59
57.6779	518.97
57.6923	522.77
57.7068	577.62
57.7212	559.34
57.7357	548.40
57.7501	578.62
57.7645	567.48
57.7790	588.75
57.7934	560.56
57.8079	612.05
57.8223	669.65
57.8367	702.32
57.8512	702.00
57.8656	739.56
57.8801	695.99
57.8945	725.85
57.9089	775.46
57.9234	709.71
57.9378	688.80
57.9523	670.95
57.9667	668.52
57.9811	674.99
57.9956	652.79
58.0100	659.23
58.0245	641.60
58.0389	654.62
58.0533	653.53
58.0678	631.26
58.0822	604.41
58.0967	599.23
58.1111	574.42
58.1255	588.38
58.1400	569.28
58.1544	562.55
58.1689	560.94
58.1833	571.63
58.1977	568.04
58.2122	535.75
58.2266	568.28
58.2411	562.25
58.2555	535.92
58.2699	520.76
58.2844	531.36
58.2988	557.58
58.3133	575.49
58.3277	559.29
58.3421	535.02
58.3566	542.65
58.3710	511.15
58.3855	550.23
58.3999	531.42
58.4143	536.30
58.4288	553.22
58.4432	537.66
58.4577	520.48
58.4721	514.24
58.4865	549.07
58.5010	547.38
58.5154	504.42
58.5299	505.94
58.5443	505.28
58.5587	528.33
58.5732	508.75
58.5876	539.99
58.6021	551.91
58.6165	540.86
58.6309	539.80
58.6454	535.07
58.6598	513.40
58.6743	512.44
58.6887	502.33
58.7031	521.04
58.7176	499.20
58.7320	498.36
58.7465	518.66
58.7609	507.83
58.7753	512.00
58.7898	522.22
58.8042	535.56
58.8187	518.87
58.8331	514.14
58.8475	534.22
58.8620	526.99
58.8764	499.87
58.8909	496.76
58.9053	534.50
58.9197	519.03
58.9342	514.07
58.9486	522.93
58.9631	511.04
58.9775	508.74
58.9919	494.29
59.0064	522.27
59.0208	543.41
59.0353	526.19
59.0497	528.23
59.0641	539.42
59.0786	504.87
59.0930	547.11
59.1075	545.50
59.1219	537.90
59.1363	507.74
59.1508	521.28
59.1652	540.10
59.1797	550.73
59.1941	542.60
59.2085	544.28
59.2230	555.29
59.2374	552.72
59.2519	528.85
59.2663	543.20
59.2807	547.79
59.2952	556.26
59.3096	549.93
59.3241	555.96
59.3385	595.03
59.3529	547.50
59.3674	532.50
59.3818	584.10
59.3963	569.00
59.4107	542.09
59.4251	562.50
59.4396	549.19
59.4540	533.26
59.4685	553.70
59.4829	574.65
59.4973	577.89
59.5118	552.48
59.5262	550.29
59.5407	549.52
59.5551	549.67
59.5695	527.84
59.5840	541.02
59.5984	540.33
59.6129	538.49
59.6273	518.86
59.6417	546.93
59.6562	562.72
59.6706	542.24
59.6851	520.73
59.6995	538.32
59.7139	533.58
59.7284	536.84
59.7428	561.28
59.7573	549.15
59.7717	533.01
59.7861	543.89
59.8006	526.71
59.8150	525.20
59.8295	532.15
59.8439	511.52
59.8583	537.26
59.8728	522.49
59.8872	492.75
59.9017	505.30
59.9161	549.18
59.9305	565.04
59.9450	548.51
59.9594	509.94
59.9739	499.59
59.9883	547.91
60.0027	513.69
60.0172	564.31
60.0316	536.52
60.0461	553.40
60.0605	522.04
60.0750	540.73
60.0894	570.21
60.1038	549.75
60.1183	529.19
60.1327	545.16
60.1472	511.98
60.1616	522.97
60.1760	534.14
60.1905	527.15
60.2049	517.11
60.2194	528.93
60.2338	536.22
60.2482	530.34
60.2627	536.77
60.2771	523.89
60.2916	562.40
60.3060	556.79
60.3204	539.14
60.3349	558.51
60.3493	567.98
60.3638	519.79
60.3782	562.83
60.3926	554.79
60.4071	546.39
60.4215	601.67
60.4360	510.46
60.4504	473.27
60.4648	524.81
60.4793	557.42
60.4937	546.66
60.5082	543.92
60.5226	539.55
60.5370	558.80
60.5515	529.28
60.5659	522.74
60.5804	504.47
60.5948	547.15
60.6092	523.26
60.6237	521.50
60.6381	553.44
60.6526	521.77
60.6670	539.23
60.6814	509.22
60.6959	516.60
60.7103	509.12
60.7248	521.02
60.7392	539.07
60.7536	516.39
60.7681	537.37
60.7825	539.00
60.7970	545.68
60.8114	547.29
60.8258	520.45
60.8403	501.19
60.8547	545.24
60.8692	509.54
60.8836	564.58
60.8980	533.44
60.9125	546.53
60.9269	538.44
60.9414	505.90
60.9558	557.43
60.9702	523.17
60.9847	524.80
60.9991	484.98
61.0136	500.88
61.0280	532.01
61.0424	498.70
61.0569	567.40
61.0713	519.74
61.0858	543.92
61.1002	524.33
61.1146	533.21
61.1291	557.60
61.1435	527.94
61.1580	496.05
61.1724	518.15
61.1868	503.31
61.2013	561.09
61.2157	563.00
61.2302	546.37
61.2446	567.78
61.2590	532.53
61.2735	535.74
61.2879	532.22
61.3024	526.48
61.3168	529.55
61.3312	538.96
61.3457	538.09
61.3601	547.32
61.3746	528.33
61.3890	526.69
61.4034	538.60
61.4179	511.12
61.4323	548.39
61.4468	551.32
61.4612	529.77
61.4756	552.47
61.4901	518.35
61.5045	538.25
61.5190	537.57
61.5334	494.00
61.5478	509.24
61.5623	548.05
61.5767	532.36
61.5912	533.66
61.6056	539.04
61.6200	539.23
61.6345	548.72
61.6489	544.43
61.6634	555.89
61.6778	514.24
61.6922	523.60
61.7067	519.36
61.7211	551.61
61.7356	507.81
61.7500	542.32
61.7644	522.98
61.7789	528.24
61.7933	544.57
61.8078	524.87
61.8222	564.94
61.8366	535.21
61.8511	509.69
61.8655	522.11
61.8800	521.92
61.8944	596.24
61.9088	579.34
61.9233	540.29
61.9377	555.30
61.9522	545.05
61.9666	526.20
61.9810	544.06
61.9955	574.13
62.0099	541.44
62.0244	536.69
62.0388	546.05
62.0532	501.58
62.0677	544.88
62.0821	576.88
62.0966	584.62
62.1110	522.28
62.1254	549.10
62.1399	508.83
62.1543	512.33
62.1688	560.97
62.1832	546.51
62.1976	537.98
62.2121	545.03
62.2265	549.76
62.2410	550.25
62.2554	522.22
62.2698	527.91
62.2843	550.48
62.2987	544.22
62.3132	531.81
62.3276	542.54
62.3420	561.06
62.3565	528.92
62.3709	541.69
62.3854	544.90
62.3998	557.33
62.4142	521.29
62.4287	539.62
62.4431	553.29
62.4576	548.37
62.4720	550.73
62.4864	519.83
62.5009	513.04
62.5153	578.02
62.5298	549.77
62.5442	557.78
62.5586	536.23
62.5731	543.33
62.5875	535.69
62.6020	537.14
62.6164	530.32
62.6308	541.82
62.6453	527.26
62.6597	534.81
62.6742	540.62
62.6886	525.45
62.7030	555.09
62.7175	545.38
62.7319	549.39
62.7464	585.14
62.7608	532.59
62.7752	542.43
62.7897	563.93
62.8041	519.62
62.8186	548.42
62.8330	552.11
62.8474	551.71
62.8619	561.81
62.8763	559.01
62.8908	557.51
62.9052	593.79
62.9196	566.30
62.9341	577.14
62.9485	551.86
62.9630	538.17
62.9774	553.81
62.9918	560.99
63.0063	561.67
63.0207	562.90
63.0352	582.15
63.0496	577.35
63.0640	593.90
63.0785	598.15
63.0929	583.85
63.1074	552.36
63.1218	601.21
63.1362	607.21
63.1507	570.25
63.1651	557.52
63.1796	573.44
63.1940	525.12
63.2084	566.42
63.2229	571.40
63.2373	592.60
63.2518	588.52
63.2662	565.72
63.2806	574.35
63.2951	542.35
63.3095	556.84
63.3240	580.38
63.3384	625.50
63.3528	606.93
63.3673	614.66
63.3817	645.28
63.3962	619.00
63.4106	629.25
63.4250	666.79
63.4395	672.18
63.4539	669.05
63.4684	706.98
63.4828	713.54
63.4972	743.66
63.5117	829.51
63.5261	862.64
63.5406	908.92
63.5550	969.62
63.5694	977.53
63.5839	926.60
63.5983	883.15
63.6128	892.29
63.6272	808.45
63.6416	790.83
63.6561	720.22
63.6705	777.40
63.6850	749.37
63.6994	772.55
63.7138	833.51
63.7283	801.89
63.7427	801.14
63.7572	788.56
63.7716	758.06
63.7861	764.01
63.8005	748.68
63.8149	705.77
63.8294	714.25
63.8438	681.94
63.8583	655.90
63.8727	638.82
63.8871	625.23
63.9016	649.20
63.9160	598.45
63.9305	570.72
63.9449	637.74
63.9593	627.09
63.9738	610.31
63.9882	628.54
64.0027	628.08
64.0171	631.35
64.0315	631.81
64.0460	600.83
64.0604	682.92
64.0749	630.60
64.0893	660.32
64.1037	583.99
64.1182	595.69
64.1326	568.19
64.1471	568.77
64.1615	611.15
64.1759	577.58
64.1904	603.38
64.2048	587.71
64.2193	579.02
64.2337	584.45
64.2481	604.26
64.2626	589.96
64.2770	603.64
64.2915	594.44
64.3059	589.23
64.3203	601.90
64.3348	590.09
64.3492	581.71
64.3637	574.19
64.3781	600.54
64.3925	616.71
64.4070	623.16
64.4214	596.31
64.4359	605.85
64.4503	576.60
64.4647	586.61
64.4792	611.52
64.4936	594.78
64.5081	628.16
64.5225	613.11
64.5369	630.08
64.5514	625.78
64.5658	614.39
64.5803	584.92
64.5947	603.18
64.6091	642.39
64.6236	641.36
64.6380	621.64
64.6525	642.14
64.6669	664.54
64.6813	658.05
64.6958	702.63
64.7102	714.06
64.7247	664.87
64.7391	654.22
64.7535	680.48
64.7680	659.72
64.7824	723.70
64.7969	736.28
64.8113	766.76
64.8257	768.96
64.8402	818.98
64.8546	826.98
64.8691	901.63
64.8835	812.95
64.8979	838.82
64.9124	816.49
64.9268	896.95
64.9413	880.42
64.9557	886.78
64.9701	907.06
64.9846	1010.35
64.9990	1118.21
65.0135	1229.42
65.0279	1338.87
65.0423	1650.10
65.0568	2043.59
65.0712	2538.02
65.0857	3222.53
65.1001	4320.18
65.1145	5795.52
65.1290	7599.16
65.1434	9160.15
65.1579	10660.36
65.1723	11413.80
65.1867	11107.06
65.2012	10024.73
65.2156	8261.74
65.2301	6657.52
65.2445	5341.57
65.2589	4396.61
65.2734	4057.07
65.2878	4202.62
65.3023	4722.60
65.3167	5559.68
65.3311	6342.30
65.3456	6896.45
65.3600	6836.82
65.3745	6390.32
65.3889	5531.95
65.4033	4402.01
65.4178	3417.27
65.4322	2761.05
65.4467	2133.35
65.4611	1666.19
65.4755	1444.97
65.4900	1259.02
65.5044	1155.11
65.5189	1044.94
65.5333	960.65
65.5477	903.94
65.5622	860.27
65.5766	802.59
65.5911	819.73
65.6055	750.31
65.6199	770.67
65.6344	762.72
65.6488	765.86
65.6633	758.00
65.6777	735.08
65.6921	685.00
65.7066	699.46
65.7210	700.97
65.7355	657.38
65.7499	682.24
65.7643	632.58
65.7788	637.05
65.7932	641.48
65.8077	681.11
65.8221	693.72
65.8365	664.82
65.8510	645.70
65.8654	636.67
65.8799	642.47
65.8943	648.54
65.9087	675.31
65.9232	657.91
65.9376	615.62
65.9521	601.03
65.9665	593.94
65.9809	627.90
65.9954	646.57
66.0098	641.51
66.0243	591.55
66.0387	632.97
66.0531	619.67
66.0676	605.58
66.0820	588.29
66.0965	611.15
66.1109	590.88
66.1253	587.57
66.1398	583.71
66.1542	594.63
66.1687	617.21
66.1831	583.58
66.1975	602.46
66.2120	622.79
66.2264	609.27
66.2409	610.95
66.2553	663.18
66.2697	627.36
66.2842	599.22
66.2986	596.52
66.3131	601.87
66.3275	578.53
66.3419	591.82
66.3564	586.94
66.3708	592.09
66.3853	585.35
66.3997	571.22
66.4141	610.06
66.4286	629.09
66.4430	558.28
66.4575	565.94
66.4719	611.07
66.4863	601.92
66.5008	591.78
66.5152	586.73
66.5297	592.82
66.5441	590.52
66.5585	582.47
66.5730	579.88
66.5874	596.57
66.6019	599.60
66.6163	587.78
66.6307	618.79
66.6452	599.13
66.6596	609.72
66.6741	577.75
66.6885	578.92
66.7029	594.88
66.7174	605.28
66.7318	571.49
66.7463	607.40
66.7607	575.37
66.7751	602.16
66.7896	576.20
66.8040	566.32
66.8185	576.06
66.8329	608.68
66.8473	600.02
66.8618	623.29
66.8762	618.58
66.8907	569.05
66.9051	594.27
66.9195	573.20
66.9340	589.08
66.9484	594.93
66.9629	591.26
66.9773	574.65
66.9917	585.79
67.0062	606.97
67.0206	609.15
67.0351	599.53
67.0495	611.73
67.0639	593.31
67.0784	578.90
67.0928	588.92
67.1073	562.53
67.1217	586.51
67.1361	563.33
67.1506	541.64
67.1650	560.01
67.1795	549.27
67.1939	549.63
67.2083	567.19
67.2228	580.09
67.2372	590.39
67.2517	567.18
67.2661	593.55
67.2805	599.10
67.2950	542.11
67.3094	566.01
67.3239	580.12
67.3383	602.45
67.3527	586.48
67.3672	575.03
67.3816	543.04
67.3961	547.33
67.4105	555.12
67.4250	565.21
67.4394	557.04
67.4538	550.58
67.4683	601.20
67.4827	609.44
67.4972	574.66
67.5116	582.63
67.5260	575.84
67.5405	540.20
67.5549	569.73
67.5694	565.70
67.5838	560.42
67.5982	569.55
67.6127	587.13
67.6271	550.68
67.6416	570.57
67.6560	565.90
67.6704	566.72
67.6849	564.34
67.6993	606.57
67.7138	559.18
67.7282	566.72
67.7426	563.61
67.7571	548.98
67.7715	560.59
67.7860	579.34
67.8004	554.84
67.8148	551.85
67.8293	563.19
67.8437	574.47
67.8582	585.70
67.8726	556.97
67.8870	552.36
67.9015	559.03
67.9159	557.16
67.9304	553.84
67.9448	579.22
67.9592	582.23
67.9737	583.52
67.9881	538.36
68.0026	543.62
68.0170	562.90
68.0314	591.74
68.0459	546.44
68.0603	558.12
68.0748	569.83
68.0892	563.95
68.1036	575.33
68.1181	573.38
68.1325	596.32
68.1470	566.75
68.1614	583.11
68.1758	538.45
68.1903	533.70
68.2047	547.82
68.2192	582.36
68.2336	604.53
68.2480	600.50
68.2625	562.82
68.2769	535.34
68.2914	591.44
68.3058	563.92
68.3202	586.80
68.3347	546.97
68.3491	540.07
68.3636	530.80
68.3780	577.34
68.3924	549.85
68.4069	570.35
68.4213	617.28
68.4358	569.67
68.4502	555.44
68.4646	579.79
68.4791	541.80
68.4935	583.74
68.5080	543.66
68.5224	558.71
68.5368	567.38
68.5513	593.95
68.5657	604.43
68.5802	567.06
68.5946	558.86
68.6090	567.82
68.6235	584.09
68.6379	595.76
68.6524	614.20
68.6668	575.98
68.6812	559.28
68.6957	537.72
68.7101	569.48
68.7246	585.30
68.7390	587.25
68.7534	598.00
68.7679	585.06
68.7823	569.75
68.7968	566.49
68.8112	564.05
68.8256	562.63
68.8401	615.84
68.8545	601.41
68.8690	573.04
68.8834	536.88
68.8978	571.96
68.9123	575.13
68.9267	546.69
68.9412	594.80
68.9556	540.76
68.9700	555.30
68.9845	534.12
68.9989	515.22
69.0134	597.72
69.0278	553.90
69.0422	572.49
69.0567	574.93
69.0711	569.70
69.0856	576.27
69.1000	566.32
69.1144	586.54
69.1289	593.75
69.1433	570.22
69.1578	545.49
69.1722	568.92
69.1866	555.56
69.2011	581.33
69.2155	563.36
69.2300	520.37
69.2444	581.92
69.2588	551.21
69.2733	568.43
69.2877	578.52
69.3022	555.79
69.3166	554.44
69.3310	579.34
69.3455	560.89
69.3599	550.61
69.3744	545.99
69.3888	570.63
69.4032	601.20
69.4177	576.03
69.4321	598.59
69.4466	570.67
69.4610	584.76
69.4754	595.36
69.4899	606.23
69.5043	603.59
69.5188	536.92
69.5332	618.69
69.5476	614.38
69.5621	566.43
69.5765	613.79
69.5910	593.53
69.6054	537.56
69.6198	573.00
69.6343	590.45
69.6487	574.59
69.6632	554.47
69.6776	574.50
69.6920	572.36
69.7065	561.34
69.7209	563.30
69.7354	585.41
69.7498	600.63
69.7642	553.63
69.7787	585.71
69.7931	570.16
69.8076	559.06
69.8220	539.15
69.8364	573.47
69.8509	625.10
69.8653	578.03
69.8798	577.02
69.8942	543.04
69.9086	574.92
69.9231	593.93
69.9375	634.54
69.9520	552.60
69.9664	586.33
69.9808	557.35
69.9953	574.16
70.0097	613.41
70.0242	546.27
70.0386	582.62
70.0530	554.17
70.0675	562.18
70.0819	597.33
70.0964	595.98
70.1108	560.79
70.1252	570.16
70.1397	552.07
70.1541	579.67
70.1686	569.80
70.1830	602.03
70.1974	597.72
70.2119	563.99
70.2263	559.26
70.2408	514.47
70.2552	556.32
70.2696	596.18
70.2841	570.56
70.2985	561.40
70.3130	591.84
70.3274	562.13
70.3418	597.50
70.3563	592.07
70.3707	595.05
70.3852	630.74
70.3996	554.14
70.4140	545.94
70.4285	621.66
70.4429	627.09
70.4574	577.31
70.4718	604.69
70.4862	576.07
70.5007	560.03
70.5151	605.21
70.5296	586.34
70.5440	558.94
70.5584	605.05
70.5729	583.60
70.5873	506.51
70.6018	558.89
70.6162	553.07
70.6306	609.16
70.6451	578.62
70.6595	517.11
70.6740	573.04
70.6884	579.52
70.7028	555.49
70.7173	630.65
70.7317	594.22
70.7462	578.56
70.7606	601.58
70.7750	557.75
70.7895	568.85
70.8039	614.01
70.8184	587.25
70.8328	586.46
70.8472	588.35
70.8617	594.52
70.8761	610.30
70.8906	552.91
70.9050	577.00
70.9194	526.16
70.9339	539.00
70.9483	590.26
70.9628	607.29
70.9772	574.41
70.9916	604.99
71.0061	552.90
71.0205	534.60
71.0350	516.64
71.0494	558.61
71.0638	556.39
71.0783	550.91
71.0927	581.00
71.1072	585.14
71.1216	593.85
71.1361	585.90
71.1505	561.60
71.1649	576.63
71.1794	561.40
71.1938	593.53
71.2083	587.83
71.2227	564.62
71.2371	600.04
71.2516	576.03
71.2660	565.97
71.2805	589.55
71.2949	533.97
71.3093	554.22
71.3238	553.50
71.3382	554.25
71.3527	590.07
71.3671	611.26
71.3815	580.82
71.3960	554.63
71.4104	543.66
71.4249	637.23
71.4393	609.50
71.4537	556.29
71.4682	549.29
71.4826	572.33
71.4971	527.05
71.5115	562.40
71.5259	569.51
71.5404	581.64
71.5548	630.59
71.5693	644.97
71.5837	629.51
71.5981	576.31
71.6126	584.93
71.6270	641.62
71.6415	602.61
71.6559	562.78
71.6703	611.78
71.6848	585.13
71.6992	568.07
71.7137	587.17
71.7281	595.16
71.7425	588.13
71.7570	589.77
71.7714	614.99
71.7859	597.33
71.8003	566.95
71.8147	596.50
71.8292	618.20
71.8436	598.93
71.8581	552.60
71.8725	547.85
71.8869	536.80
71.9014	617.42
71.9158	614.83
71.9303	609.27
71.9447	619.03
71.9591	566.07
71.9736	547.04
71.9880	557.15
72.0025	592.33
72.0169	596.42
72.0313	576.10
72.0458	559.16
72.0602	628.57
72.0747	568.97
72.0891	515.83
72.1035	555.83
72.1180	604.48
72.1324	642.90
72.1469	636.59
72.1613	617.97
72.1757	649.31
72.1902	601.34
72.2046	622.67
72.2191	657.98
72.2335	568.88
72.2479	530.58
72.2624	548.05
72.2768	615.35
72.2913	570.15
72.3057	515.59
72.3201	510.10
72.3346	563.65
72.3490	673.88
72.3635	610.37
72.3779	522.00
72.3923	537.78
72.4068	584.52
72.4212	609.87
72.4357	638.61
72.4501	606.25
72.4645	537.18
72.4790	531.20
72.4934	498.82
72.5079	487.98
72.5223	507.15
72.5367	521.40
72.5512	580.16
72.5656	611.75
72.5801	570.05
72.5945	522.07
72.6089	553.88
72.6234	606.01
72.6378	531.63
72.6523	477.85
72.6667	547.77
72.6811	575.09
72.6956	577.43
72.7100	541.14
72.7245	583.53
72.7389	699.99
72.7533	599.51
72.7678	601.76
72.7822	649.76
72.7967	517.18
72.8111	583.77
72.8255	716.31
72.8400	660.69
72.8544	539.21
72.8689	474.64
72.8833	529.09

Result vector
22.1120	541.26
22.1264	576.62
22.1409	564.06
22.1553	511.47
22.1697	546.57
22.1842	656.44
22.1986	568.19
22.2131	585.44
22.2275	567.41
22.2419	496.89
22.2564	565.55
22.2708	668.29
22.2853	694.27
22.2997	609.94
22.3141	572.82
22.3286	591.95
22.3430	565.87
22.3575	562.11
22.3719	602.65
22.3863	581.29
22.4008	633.71
22.4152	573.19
22.4297	615.35
22.4441	627.62
22.4585	642.97
22.4730	586.22
22.4874	586.17
22.5019	598.98
22.5163	524.40
22.5307	565.94
22.5452	539.06
22.5596	572.87
22.5741	652.79
22.5885	592.98
22.6029	608.68
22.6174	559.35
22.6318	557.55
22.6463	558.67
22.6607	570.50
22.6751	517.11
22.6896	647.16
22.7040	545.88
22.7185	528.24
22.7329	549.80
22.7473	524.83
22.7618	659.88
22.7762	636.41
22.7907	586.74
22.8051	603.85
22.8195	589.20
22.8340	562.41
22.8484	613.97
22.8629	603.62
22.8773	530.49
22.8917	529.13
22.9062	554.96
22.9206	524.79
22.9351	558.97
22.9495	697.34
22.9639	653.16
22.9784	569.14
22.9928	591.18
23.0073	575.92
23.0217	627.51
23.0361	545.32
23.0506	543.47
23.0650	633.78
23.0795	569.68
23.0939	633.17
23.1083	532.72
23.1228	511.94
23.1372	588.73
23.1517	532.23
23.1661	531.55
23.1806	526.13
23.1950	528.81
23.2094	570.50
23.2239	489.26
23.2383	596.04
23.2528	517.78
23.2672	468.60
23.2816	545.47
23.2961	534.91
23.3105	528.66
23.3250	600.88
23.3394	591.33
23.3538	532.19
23.3683	548.42
23.3827	595.90
23.3972	535.65
23.4116	508.80
23.4260	536.00
23.4405	569.98
23.4549	503.86
23.4694	573.03
23.4838	578.88
23.4982	550.59
23.5127	534.37
23.5271	590.96
23.5416	615.20
23.5560	573.34
23.5704	517.59
23.5849	499.44
23.5993	572.36
23.6138	574.64
23.6282	525.12
23.6426	565.96
23.6571	564.39
23.6715	501.34
23.6860	453.92
23.7004	571.39
23.7148	496.13
23.7293	600.28
23.7437	563.00
23.7582	609.00
23.7726	539.84
23.7870	560.13
23.8015	528.67
23.8159	566.32
23.8304	497.12
23.8448	501.94
23.8592	527.55
23.8737	594.89
23.8881	569.96
23.9026	606.21
23.9170	536.75
23.9314	515.34
23.9459	540.84
23.9603	578.08
23.9748	560.76
23.9892	511.03
24.0036	548.07
24.0181	551.78
24.0325	514.89
24.0470	525.20
24.0614	491.56
24.0758	564.49
24.0903	596.13
24.1047	536.19
24.1192	630.49
24.1336	590.13
24.1480	577.61
24.1625	577.66
24.1769	608.44
24.1914	584.06
24.2058	611.99
24.2202	596.24
24.2347	570.14
24.2491	637.87
24.2636	572.40
24.2780	621.03
24.2924	561.75
24.3069	563.43
24.3213	597.22
24.3358	555.28
24.3502	557.79
24.3646	544.37
24.3791	597.71
24.3935	518.48
24.4080	597.30
24.4224	544.06
24.4368	490.59
24.4513	513.59
24.4657	550.43
24.4802	471.77
24.4946	537.12
24.5090	478.58
24.5235	532.98
24.5379	526.04
24.5524	558.83
24.5668	593.24
24.5812	588.02
24.5957	600.12
24.6101	563.98
24.6246	598.82
24.6390	593.77
24.6534	517.90
24.6679	553.13
24.6823	522.57
24.6968	482.61
24.7112	511.53
24.7256	538.70
24.7401	533.84
24.7545	579.52
24.7690	506.59
24.7834	511.56
24.7978	531.83
24.8123	603.52
24.8267	544.75
24.8412	573.74
24.8556	550.81
24.8700	546.94
24.8845	523.69
24.8989	561.15
24.9134	536.97
24.9278	558.89
24.9422	575.19
24.9567	577.75
24.9711	499.60
24.9856	556.63
25.0000	533.42
25.0144	503.40
25.0289	516.16
25.0433	510.84
25.0578	522.47
25.0722	522.42
25.0866	582.10
25.1011	533.51
25.1155	527.93
25.1300	523.61
25.1444	539.46
25.1588	557.09
25.1733	533.77
25.1877	557.24
25.2022	529.97
25.2166	532.19
25.2310	534.56
25.2455	511.21
25.2599	550.82
25.2744	563.19
25.2888	568.90
25.3032	550.80
25.3177	512.32
25.3321	563.40
25.3466	547.96
25.3610	507.89
25.3754	567.76
25.3899	552.81
25.4043	539.90
25.4188	561.37
25.4332	577.31
25.4476	549.04
25.4621	542.31
25.4765	554.26
25.4910	519.83
25.5054	550.29
25.5198	586.13
25.5343	565.03
25.5487	515.19
25.5632	544.21
25.5776	548.41
25.5920	500.10
25.6065	531.17
25.6209	508.34
25.6354	528.31
25.6498	515.39
25.6642	524.60
25.6787	526.02
25.6931	542.95
25.7076	555.57
25.7220	542.96
25.7364	522.82
25.7509	538.81
25.7653	551.29
25.7798	561.06
25.7942	539.16
25.8086	538.67
25.8231	522.49
25.8375	550.47
25.8520	540.09
25.8664	538.12
25.8808	585.90
25.8953	527.59
25.9097	523.25
25.9242	538.91
25.9386	552.73
25.9530	553.02
25.9675	504.92
25.9819	515.11
25.9964	513.56
26.0108	520.79
26.0252	549.90
26.0397	521.72
26.0541	487.65
26.0686	515.28
26.0830	544.49
26.0974	516.67
26.1119	512.15
26.1263	554.26
26.1408	497.52
26.1552	498.62
26.1696	498.17
26.1841	521.67
26.1985	515.55
26.2130	514.24
26.2274	532.95
26.2418	577.63
26.2563	533.84
26.2707	521.34
26.2852	545.66
26.2996	546.26
26.3140	545.39
26.3285	554.82
26.3429	535.29
26.3574	516.16
26.3718	540.22
26.3862	539.35
26.4007	514.30
26.4151	540.37
26.4296	526.08
26.4440	486.94
26.4584	495.28
26.4729	540.50
26.4873	542.52
26.5018	523.59
26.5162	521.64
26.5306	508.60
26.5451	518.05
26.5595	531.10
26.5740	530.65
26.5884	519.50
26.6028	554.60
26.6173	540.01
26.6317	512.04
26.6462	519.77
26.6606	553.47
26.6750	531.36
26.6895	543.68
26.7039	545.81
26.7184	534.70
26.7328	504.28
26.7472	545.63
26.7617	514.54
26.7761	493.85
26.7906	494.74
26.8050	511.51
26.8194	506.01
26.8339	481.13
26.8483	500.64
26.8628	517.67
26.8772	526.89
26.8917	520.55
26.9061	552.10
26.9205	549.25
26.9350	525.10
26.9494	507.48
26.9639	494.63
26.9783	497.85
26.9927	504.71
27.0072	492.79
27.0216	498.49
27.0361	528.02
27.0505	532.46
27.0649	500.05
27.0794	521.38
27.0938	555.35
27.1083	562.11
27.1227	549.83
27.1371	501.78
27.1516	471.53
27.1660	509.38
27.1805	528.34
27.1949	514.04
27.2093	527.07
27.2238	549.72
27.2382	539.48
27.2527	526.80
27.2671	512.91
27.2815	534.78
27.2960	515.98
27.3104	512.85
27.3249	484.50
27.3393	518.87
27.3537	534.52
27.3682	531.45
27.3826	504.79
27.3971	499.34
27.4115	505.88
27.4259	544.01
27.4404	538.78
27.4548	522.04
27.4693	521.86
27.4837	521.86
27.4981	552.74
27.5126	512.05
27.5270	501.31
27.5415	538.45
27.5559	522.44
27.5703	493.80
27.5848	538.04
27.5992	534.40
27.6137	526.21
27.6281	515.50
27.6425	506.46
27.6570	513.29
27.6714	504.50
27.6859	518.76
27.7003	547.67
27.7147	538.43
27.7292	534.10
27.7436	505.57
27.7581	532.26
27.7725	512.22
27.7869	505.60
27.8014	518.45
27.8158	527.03
27.8303	508.69
27.8447	530.96
27.8591	538.04
27.8736	489.53
27.8880	487.17
27.9025	524.97
27.9169	517.80
27.9313	488.52
27.9458	498.60
27.9602	518.99
27.9747	535.98
27.9891	499.25
28.0035	503.90
28.0180	505.69
28.0324	500.29
28.0469	496.93
28.0613	531.00
28.0757	500.84
28.0902	500.25
28.1046	516.05
28.1191	537.86
28.1335	543.18
28.1479	508.02
28.1624	524.33
28.1768	531.15
28.1913	508.07
28.2057	491.06
28.2201	507.28
28.2346	491.59
28.2490	508.24
28.2635	538.11
28.2779	487.32
28.2923	486.06
28.3068	505.81
28.3212	499.53
28.3357	472.93
28.3501	561.58
28.3645	544.43
28.3790	518.31
28.3934	520.00
28.4079	486.13
28.4223	522.46
28.4367	537.04
28.4512	496.80
28.4656	513.95
28.4801	506.74
28.4945	515.29
28.5089	526.66
28.5234	535.63
28.5378	527.39
28.5523	497.63
28.5667	530.05
28.5811	545.34
28.5956	543.49
28.6100	542.65
28.6245	485.52
28.6389	504.00
28.6533	514.05
28.6678	505.01
28.6822	500.02
28.6967	494.50
28.7111	516.77
28.7255	493.81
28.7400	533.99
28.7544	536.17
28.7689	511.79
28.7833	493.63
28.7977	486.90
28.8122	493.33
28.8266	538.30
28.8411	534.37
28.8555	499.51
28.8699	533.25
28.8844	522.43
28.8988	537.31
28.9133	539.23
28.9277	504.39
28.9421	498.10
28.9566	498.90
28.9710	502.18
28.9855	457.77
28.9999	495.42
29.0143	513.37
29.0288	498.30
29.0432	499.54
29.0577	500.49
29.0721	458.79
29.0865	518.10
29.1010	510.23
29.1154	524.73
29.1299	484.99
29.1443	480.42
29.1587	496.16
29.1732	514.12
29.1876	486.61
29.2021	507.02
29.2165	542.80
29.2309	526.07
29.2454	493.26
29.2598	515.15
29.2743	518.30
29.2887	528.50
29.3031	524.60
29.3176	518.15
29.3320	544.70
29.3465	529.65
29.3609	494.25
29.3753	524.36
29.3898	479.56
29.4042	490.22
29.4187	507.06
29.4331	492.20
29.4475	460.58
29.4620	521.63
29.4764	518.90
29.4909	514.51
29.5053	507.02
29.5197	509.89
29.5342	534.78
29.5486	534.44
29.5631	543.37
29.5775	506.63
29.5919	500.97
29.6064	493.71
29.6208	480.95
29.6353	501.13
29.6497	494.51
29.6641	510.32
29.6786	509.70
29.6930	494.24
29.7075	515.48
29.7219	523.49
29.7363	481.14
29.7508	514.24
29.7652	488.18
29.7797	481.67
29.7941	506.23
29.8085	465.15
29.8230	487.26
29.8374	534.18
29.8519	503.22
29.8663	511.75
29.8807	536.70
29.8952	471.65
29.9096	516.38
29.9241	477.04
29.9385	487.98
29.9529	488.26
29.9674	483.58
29.9818	494.37
29.9963	487.43
30.0107	482.62
30.0251	474.96
30.0396	487.40
30.0540	533.09
30.0685	490.51
30.0829	497.40
30.0973	546.38
30.1118	490.77
30.1262	528.21
30.1407	520.91
30.1551	522.53
30.1695	538.28
30.1840	515.56
30.1984	495.78
30.2129	504.68
30.2273	501.64
30.2417	535.34
30.2562	504.96
30.2706	508.87
30.2851	507.54
30.2995	517.99
30.3139	541.11
30.3284	517.96
30.3428	539.78
30.3573	505.20
30.3717	502.32
30.3861	509.63
30.4006	511.33
30.4150	554.79
30.4295	554.96
30.4439	535.82
30.4583	544.49
30.4728	579.60
30.4872	560.98
30.5017	586.39
30.5161	624.84
30.5305	701.22
30.5450	719.47
30.5594	755.12
30.5739	713.58
30.5883	743.24
30.6028	729.98
30.6172	723.83
30.6316	734.22
30.6461	680.88
30.6605	639.30
30.6750	643.09
30.6894	590.89
30.7038	588.24
30.7183	563.05
30.7327	565.39
30.7472	560.10
30.7616	526.52
30.7760	536.24
30.7905	539.79
30.8049	539.37
30.8194	500.28
30.8338	510.95
30.8482	520.93
30.8627	500.03
30.8771	504.62
30.8916	529.82
30.9060	516.90
30.9204	517.55
30.9349	528.56
30.9493	508.51
30.9638	523.33
30.9782	514.98
30.9926	492.84
31.0071	485.83
31.0215	484.95
31.0360	499.07
31.0504	500.70
31.0648	507.90
31.0793	512.12
31.0937	509.60
31.1082	483.28
31.1226	497.47
31.1370	514.49
31.1515	490.26
31.1659	497.41
31.1804	507.91
31.1948	533.69
31.2092	518.82
31.2237	518.68
31.2381	528.38
31.2526	516.80
31.2670	522.20
31.2814	539.16
31.2959	518.65
31.3103	513.81
31.3248	533.40
31.3392	534.24
31.3536	557.11
31.3681	550.91
31.3825	521.39
31.3970	502.72
31.4114	498.76
31.4258	504.69
31.4403	506.03
31.4547	503.05
31.4692	521.42
31.4836	517.91
31.4980	479.33
31.5125	500.04
31.5269	486.38
31.5414	511.36
31.5558	509.21
31.5702	479.13
31.5847	499.12
31.5991	488.20
31.6136	533.52
31.6280	525.94
31.6424	498.63
31.6569	496.19
31.6713	516.43
31.6858	540.22
31.7002	511.66
31.7146	511.80
31.7291	539.59
31.7435	496.09
31.7580	456.29
31.7724	487.98
31.7868	503.72
31.8013	506.82
31.8157	524.04
31.8302	506.45
31.8446	507.71
31.8590	518.98
31.8735	533.41
31.8879	510.48
31.9024	475.25
31.9168	534.33
31.9312	531.36
31.9457	511.49
31.9601	531.19
31.9746	504.59
31.9890	507.04
32.0034	501.65
32.0179	497.59
32.0323	503.58
32.0468	489.74
32.0612	463.20
32.0756	476.08
32.0901	528.92
32.1045	494.40
32.1190	520.80
32.1334	511.66
32.1478	485.95
32.1623	510.55
32.1767	498.73
32.1912	479.59
32.2056	495.20
32.2200	513.50
32.2345	507.40
32.2489	472.61
32.2634	517.88
32.2778	528.80
32.2922	492.41
32.3067	524.60
32.3211	488.82
32.3356	527.89
32.3500	541.66
32.3644	484.30
32.3789	484.34
32.3933	487.74
32.4078	489.19
32.4222	482.53
32.4366	531.51
32.4511	520.75
32.4655	534.34
32.4800	500.43
32.4944	482.68
32.5088	522.96
32.5233	544.15
32.5377	557.88
32.5522	519.86
32.5666	495.88
32.5810	509.62
32.5955	489.77
32.6099	525.21
32.6244	515.14
32.6388	542.02
32.6532	506.55
32.6677	464.89
32.6821	488.00
32.6966	527.74
32.7110	504.53
32.7254	496.21
32.7399	474.90
32.7543	478.54
32.7688	469.13
32.7832	484.82
32.7976	485.53
32.8121	498.12
32.8265	517.67
32.8410	502.76
32.8554	523.31
32.8698	532.07
32.8843	535.29
32.8987	506.20
32.9132	482.22
32.9276	532.33
32.9420	518.66
32.9565	510.37
32.9709	481.74
32.9854	467.05
32.9998	480.37
33.0142	510.99
33.0287	497.34
33.0431	499.19
33.0576	497.81
33.0720	519.24
33.0864	519.22
33.1009	510.91
33.1153	543.39
33.1298	536.15
33.1442	468.94
33.1586	509.82
33.1731	515.74
33.1875	514.13
33.2020	509.72
33.2164	510.13
33.2308	497.97
33.2453	508.39
33.2597	502.42
33.2742	490.06
33.2886	502.28
33.3030	511.86
33.3175	538.28
33.3319	494.86
33.3464	512.24
33.3608	507.63
33.3752	494.36
33.3897	490.89
33.4041	469.65
33.4186	505.82
33.4330	512.94
33.4474	514.82
33.4619	503.19
33.4763	515.80
33.4908	489.11
33.5052	474.04
33.5196	497.15
33.5341	498.24
33.5485	511.60
33.5630	487.68
33.5774	502.95
33.5918	477.44
33.6063	518.35
33.6207	518.07
33.6352	511.74
33.6496	509.86
33.6640	494.19
33.6785	498.93
33.6929	523.19
33.7074	537.15
33.7218	511.39
33.7362	503.30
33.7507	467.65
33.7651	474.58
33.7796	474.89
33.7940	501.10
33.8084	512.32
33.8229	532.59
33.8373	522.54
33.8518	499.10
33.8662	506.81
33.8806	489.96
33.8951	509.74
33.9095	472.06
33.9240	472.78
33.9384	505.82
33.9528	489.38
33.9673	498.97
33.9817	508.72
33.9962	520.84
34.0106	495.03
34.0250	512.07
34.0395	489.78
34.0539	476.69
34.0684	497.24
34.0828	515.42
34.0972	513.78
34.1117	516.48
34.1261	516.24
34.1406	501.51
34.1550	501.86
34.1694	515.34
34.1839	497.51
34.1983	472.71
34.2128	478.15
34.2272	501.20
34.2417	485.22
34.2561	512.13
34.2705	485.96
34.2850	498.33
34.2994	506.71
34.3139	503.75
34.3283	493.55
34.3427	502.35
34.3572	500.39
34.3716	514.39
34.3861	523.64
34.4005	506.13
34.4149	495.12
34.4294	490.30
34.4438	465.99
34.4583	445.52
34.4727	497.43
34.4871	516.22
34.5016	497.74
34.5160	495.03
34.5305	497.77
34.5449	498.17
34.5593	525.52
34.5738	497.57
34.5882	486.59
34.6027	488.23
34.6171	469.67
34.6315	490.13
34.6460	500.83
34.6604	508.20
34.6749	492.74
34.6893	498.38
34.7037	524.93
34.7182	500.91
34.7326	468.45
34.7471	504.06
34.7615	527.58
34.7759	511.81
34.7904	491.11
34.8048	512.59
34.8193	524.79
34.8337	529.29
34.8481	501.60
34.8626	495.26
34.8770	507.65
34.8915	511.84
34.9059	516.42
34.9203	492.14
34.9348	501.28
34.9492	503.75
34.9637	517.46
34.9781	504.02
34.9925	488.70
35.0070	475.38
35.0214	500.14
35.0359	474.98
35.0503	485.11
35.0647	523.03
35.0792	520.88
35.0936	533.01
35.1081	523.70
35.1225	502.62
35.1369	509.89
35.1514	489.63
35.1658	515.82
35.1803	490.99
35.1947	467.98
35.2091	469.48
35.2236	512.57
35.2380	472.95
35.2525	490.10
35.2669	501.60
35.2813	545.30
35.2958	519.41
35.3102	493.97
35.3247	514.49
35.3391	505.16
35.3535	517.00
35.3680	537.16
35.3824	514.87
35.3969	512.77
35.4113	495.48
35.4257	515.80
35.4402	548.85
35.4546	523.46
35.4691	530.18
35.4835	534.88
35.4979	511.29
35.5124	515.97
35.5268	518.80
35.5413	535.08
35.5557	549.32
35.5701	554.98
35.5846	537.51
35.5990	537.46
35.6135	510.62
35.6279	504.61
35.6423	525.57
35.6568	526.80
35.6712	541.54
35.6857	611.47
35.7001	680.60
35.7145	718.99
35.7290	698.93
35.7434	644.78
35.7579	632.54
35.7723	639.01
35.7867	708.97
35.8012	734.30
35.8156	736.20
35.8301	747.58
35.8445	662.26
35.8589	791.35
35.8734	866.70
35.8878	946.80
35.9023	1124.23
35.9167	1172.51
35.9311	1294.83
35.9456	1620.23
35.9600	1996.50
35.9745	2194.53
35.9889	2299.14
36.0033	2672.29
36.0178	2953.55
36.0322	3244.03
36.0467	2605.37
36.0611	2192.50
36.0755	1962.96
36.0900	2043.74
36.1044	2092.63
36.1189	1596.35
36.1333	1332.88
36.1477	1175.05
36.1622	1087.89
36.1766	995.77
36.1911	826.97
36.2055	751.59
36.2199	772.25
36.2344	764.88
36.2488	665.79
36.2633	545.45
36.2777	556.69
36.2921	572.29
36.3066	548.73
36.3210	495.19
36.3355	533.24
36.3499	526.54
36.3643	545.49
36.3788	538.87
36.3932	515.42
36.4077	489.98
36.4221	535.47
36.4365	527.71
36.4510	525.91
36.4654	554.42
36.4799	522.90
36.4943	513.55
36.5087	514.28
36.5232	527.06
36.5376	521.50
36.5521	533.03
36.5665	543.93
36.5809	520.54
36.5954	506.50
36.6098	540.70
36.6243	513.00
36.6387	496.96
36.6531	503.75
36.6676	518.81
36.6820	540.01
36.6965	554.63
36.7109	502.68
36.7253	493.68
36.7398	519.34
36.7542	532.96
36.7687	553.66
36.7831	556.12
36.7975	567.22
36.8120	558.61
36.8264	539.84
36.8409	559.33
36.8553	575.83
36.8697	563.26
36.8842	578.57
36.8986	586.07
36.9131	558.53
36.9275	549.81
36.9419	594.57
36.9564	525.16
36.9708	553.57
36.9853	540.96
36.9997	585.72
37.0141	580.15
37.0286	528.80
37.0430	524.45
37.0575	516.92
37.0719	527.92
37.0863	507.10
37.1008	481.30
37.1152	522.69
37.1297	521.18
37.1441	508.90
37.1585	520.03
37.1730	502.26
37.1874	436.75
37.2019	502.16
37.2163	503.82
37.2307	517.29
37.2452	528.16
37.2596	503.07
37.2741	489.18
37.2885	524.30
37.3029	521.66
37.3174	497.62
37.3318	525.98
37.3463	518.57
37.3607	525.33
37.3751	516.85
37.3896	471.67
37.4040	487.83
37.4185	494.53
37.4329	480.90
37.4473	487.06
37.4618	495.14
37.4762	511.13
37.4907	512.85
37.5051	488.83
37.5195	494.85
37.5340	512.55
37.5484	522.51
37.5629	494.77
37.5773	490.34
37.5917	505.76
37.6062	485.00
37.6206	509.76
37.6351	516.58
37.6495	521.96
37.6639	511.86
37.6784	493.71
37.6928	493.22
37.7073	539.14
37.7217	511.86
37.7361	492.40
37.7506	504.90
37.7650	497.25
37.7795	522.35
37.7939	505.55
37.8083	491.72
37.8228	490.48
37.8372	498.68
37.8517	448.57
37.8661	509.02
37.8805	509.10
37.8950	516.76
37.9094	499.75
37.9239	506.51
37.9383	513.68
37.9528	522.20
37.9672	480.20
37.9816	499.10
37.9961	479.03
38.0105	494.19
38.0250	508.55
38.0394	511.68
38.0538	525.04
38.0683	533.33
38.0827	528.41
38.0972	487.67
38.1116	498.97
38.1260	527.72
38.1405	485.84
38.1549	493.73
38.1694	480.16
38.1838	513.70
38.1982	501.30
38.2127	526.90
38.2271	494.87
38.2416	507.97
38.2560	535.53
38.2704	501.67
38.2849	508.69
38.2993	495.47
38.3138	472.20
38.3282	511.69
38.3426	531.48
38.3571	519.02
38.3715	510.47
38.3860	517.50
38.4004	497.65
38.4148	498.47
38.4293	557.63
38.4437	569.82
38.4582	616.30
38.4726	683.99
38.4870	673.62
38.5015	717.01
38.5159	772.15
38.5304	808.80
38.5448	789.07
38.5592	776.51
38.5737	719.49
38.5881	705.36
38.6026	676.51
38.6170	676.34
38.6314	689.24
38.6459	642.32
38.6603	645.20
38.6748	645.73
38.6892	551.02
38.7036	515.26
38.7181	517.86
38.7325	497.93
38.7470	507.80
38.7614	515.72
38.7758	492.10
38.7903	519.66
38.8047	511.85
38.8192	531.79
38.8336	548.32
38.8480	489.26
38.8625	496.54
38.8769	512.25
38.8914	486.97
38.9058	479.02
38.9202	495.12
38.9347	513.12
38.9491	473.50
38.9636	470.12
38.9780	491.63
38.9924	513.09
39.0069	493.72
39.0213	515.99
39.0358	514.68
39.0502	502.75
39.0646	520.46
39.0791	500.26
39.0935	517.50
39.1080	477.80
39.1224	518.06
39.1368	512.31
39.1513	527.98
39.1657	490.46
39.1802	491.59
39.1946	515.48
39.2090	527.40
39.2235	500.47
39.2379	520.49
39.2524	491.09
39.2668	489.33
39.2812	510.10
39.2957	497.59
39.3101	509.47
39.3246	495.19
39.3390	514.98
39.3534	531.03
39.3679	501.98
39.3823	486.77
39.3968	491.16
39.4112	492.06
39.4256	500.94
39.4401	475.43
39.4545	479.29
39.4690	460.32
39.4834	485.11
39.4978	514.49
39.5123	517.58
39.5267	490.45
39.5412	493.92
39.5556	481.21
39.5700	490.83
39.5845	531.87
39.5989	499.50
39.6134	481.20
39.6278	464.17
39.6422	491.51
39.6567	469.85
39.6711	493.93
39.6856	493.15
39.7000	505.37
39.7144	489.04
39.7289	480.76
39.7433	484.55
39.7578	514.30
39.7722	506.40
39.7866	484.91
39.8011	504.99
39.8155	524.79
39.8300	496.76
39.8444	453.87
39.8588	496.81
39.8733	500.43
39.8877	498.63
39.9022	493.92
39.9166	470.17
39.9310	473.30
39.9455	498.08
39.9599	487.09
39.9744	458.23
39.9888	498.28
40.0032	471.15
40.0177	446.35
40.0321	508.98
40.0466	507.47
40.0610	493.29
40.0754	487.78
40.0899	488.35
40.1043	522.69
40.1188	519.99
40.1332	488.23
40.1476	485.94
40.1621	484.23
40.1765	484.60
40.1910	467.54
40.2054	461.70
40.2198	484.32
40.2343	451.40
40.2487	474.79
40.2632	480.24
40.2776	487.82
40.2920	487.24
40.3065	499.00
40.3209	510.66
40.3354	499.91
40.3498	506.26
40.3642	452.63
40.3787	444.89
40.3931	457.02
40.4076	489.33
40.4220	458.05
40.4364	495.72
40.4509	504.30
40.4653	501.34
40.4798	528.10
40.4942	506.69
40.5086	502.75
40.5231	485.60
40.5375	536.25
40.5520	488.66
40.5664	486.54
40.5808	492.61
40.5953	501.26
40.6097	485.09
40.6242	480.84
40.6386	496.60
40.6530	521.08
40.6675	507.63
40.6819	516.58
40.6964	485.15
40.7108	487.86
40.7252	533.19
40.7397	490.93
40.7541	515.96
40.7686	492.55
40.7830	463.36
40.7974	492.12
40.8119	489.07
40.8263	468.97
40.8408	473.82
40.8552	492.84
40.8696	500.88
40.8841	520.01
40.8985	512.23
40.9130	492.82
40.9274	466.51
40.9418	460.34
40.9563	453.69
40.9707	479.65
40.9852	468.80
40.9996	454.59
41.0140	489.58
41.0285	547.79
41.0429	497.71
41.0574	518.70
41.0718	497.81
41.0862	511.01
41.1007	516.51
41.1151	480.50
41.1296	518.71
41.1440	509.97
41.1584	504.45
41.1729	477.97
41.1873	490.52
41.2018	487.96
41.2162	465.25
41.2306	523.33
41.2451	498.60
41.2595	491.28
41.2740	495.73
41.2884	491.62
41.3028	490.20
41.3173	480.33
41.3317	529.24
41.3462	513.10
41.3606	482.68
41.3750	487.67
41.3895	492.64
41.4039	487.34
41.4184	521.26
41.4328	519.28
41.4472	546.09
41.4617	527.56
41.4761	516.29
41.4906	511.07
41.5050	499.62
41.5194	458.15
41.5339	515.46
41.5483	522.09
41.5628	496.94
41.5772	476.84
41.5916	479.49
41.6061	484.13
41.6205	481.90
41.6350	466.15
41.6494	489.86
41.6639	497.88
41.6783	498.89
41.6927	508.66
41.7072	544.89
41.7216	492.30
41.7361	466.77
41.7505	496.88
41.7649	491.98
41.7794	516.61
41.7938	532.51
41.8083	506.82
41.8227	486.71
41.8371	513.86
41.8516	507.95
41.8660	502.51
41.8805	523.47
41.8949	555.05
41.9093	564.35
41.9238	547.13
41.9382	551.57
41.9527	540.73
41.9671	587.03
41.9815	530.06
41.9960	501.80
42.0104	534.90
42.0249	533.02
42.0393	520.60
42.0537	573.91
42.0682	609.88
42.0826	550.62
42.0971	565.37
42.1115	584.05
42.1259	577.97
42.1404	563.09
42.1548	605.33
42.1693	656.37
42.1837	700.79
42.1981	733.31
42.2126	820.99
42.2270	938.92
42.2415	1090.51
42.2559	1225.40
42.2703	1336.74
42.2848	1470.41
42.2992	1613.43
42.3137	1685.13
42.3281	1688.44
42.3425	1626.70
42.3570	1465.74
42.3714	1363.35
42.3859	1423.44
42.4003	1396.27
42.4147	1329.32
42.4292	1255.88
42.4436	1105.35
42.4581	982.70
42.4725	929.96
42.4869	799.91
42.5014	725.56
42.5158	663.54
42.5303	663.79
42.5447	661.85
42.5591	601.13
42.5736	587.62
42.5880	571.05
42.6025	603.92
42.6169	611.09
42.6313	554.23
42.6458	561.24
42.6602	536.30
42.6747	492.89
42.6891	512.00
42.7035	556.93
42.7180	539.67
42.7324	538.09
42.7469	519.71
42.7613	496.07
42.7757	525.43
42.7902	533.38
42.8046	529.59
42.8191	517.69
42.8335	485.20
42.8479	514.31
42.8624	561.63
42.8768	518.04
42.8913	494.38
42.9057	553.80
42.9201	531.07
42.9346	520.07
42.9490	517.86
42.9635	539.30
42.9779	512.83
42.9923	485.42
43.0068	502.09
43.0212	509.88
43.0357	509.43
43.0501	488.95
43.0645	519.58
43.0790	503.70
43.0934	508.32
43.1079	498.69
43.1223	485.68
43.1367	509.52
43.1512	508.11
43.1656	534.24
43.1801	504.08
43.1945	499.12
43.2089	545.30
43.2234	499.65
43.2378	520.92
43.2523	521.64
43.2667	501.79
43.2811	513.73
43.2956	532.14
43.3100	521.21
43.3245	510.29
43.3389	530.05
43.3533	547.13
43.3678	544.62
43.3822	530.35
43.3967	505.09
43.4111	511.67
43.4255	516.09
43.4400	527.48
43.4544	500.22
43.4689	504.40
43.4833	510.85
43.4977	499.53
43.5122	494.47
43.5266	529.54
43.5411	508.26
43.5555	508.48
43.5699	490.11
43.5844	532.39
43.5988	516.54
43.6133	527.40
43.6277	530.00
43.6421	538.41
43.6566	541.20
43.6710	553.24
43.6855	582.06
43.6999	592.67
43.7143	647.14
43.7288	637.38
43.7432	638.03
43.7577	634.90
43.7721	658.04
43.7865	636.90
43.8010	633.76
43.8154	631.15
43.8299	630.87
43.8443	589.19
43.8587	658.82
43.8732	616.01
43.8876	533.94
43.9021	566.05
43.9165	538.23
43.9309	537.82
43.9454	507.29
43.9598	506.58
43.9743	495.32
43.9887	480.66
44.0031	479.31
44.0176	521.84
44.0320	520.98
44.0465	474.98
44.0609	515.67
44.0753	531.63
44.0898	515.43
44.1042	533.71
44.1187	506.14
44.1331	516.30
44.1475	466.08
44.1620	511.96
44.1764	514.55
44.1909	498.59
44.2053	545.11
44.2197	540.75
44.2342	524.46
44.2486	523.98
44.2631	495.30
44.2775	515.81
44.2919	561.57
44.3064	508.92
44.3208	519.11
44.3353	490.78
44.3497	523.95
44.3641	494.37
44.3786	497.70
44.3930	572.98
44.4075	532.31
44.4219	544.48
44.4363	601.56
44.4508	572.71
44.4652	577.79
44.4797	583.77
44.4941	590.27
44.5085	598.24
44.5230	600.59
44.5374	573.51
44.5519	571.89
44.5663	561.51
44.5807	545.60
44.5952	572.84
44.6096	572.69
44.6241	550.11
44.6385	569.39
44.6529	632.08
44.6674	583.36
44.6818	572.30
44.6963	598.12
44.7107	631.54
44.7251	670.84
44.7396	735.94
44.7540	828.16
44.7685	837.34
44.7829	830.09
44.7973	900.08
44.8118	853.90
44.8262	824.13
44.8407	780.28
44.8551	748.70
44.8695	706.32
44.8840	718.37
44.8984	741.03
44.9129	716.61
44.9273	693.23
44.9417	684.51
44.9562	603.66
44.9706	583.29
44.9851	532.78
44.9995	516.90
45.0139	519.89
45.0284	533.80
45.0428	517.34
45.0573	508.07
45.0717	533.87
45.0861	571.61
45.1006	503.73
45.1150	535.67
45.1295	526.51
45.1439	489.33
45.1583	498.81
45.1728	561.04
45.1872	518.77
45.2017	489.90
45.2161	516.48
45.2305	520.51
45.2450	485.29
45.2594	464.20
45.2739	490.10
45.2883	494.48
45.3028	530.75
45.3172	490.68
45.3316	512.95
45.3461	549.50
45.3605	509.36
45.3750	500.76
45.3894	501.56
45.4038	501.96
45.4183	492.28
45.4327	508.97
45.4472	479.78
45.4616	522.52
45.4760	521.66
45.4905	485.35
45.5049	483.31
45.5194	508.23
45.5338	495.47
45.5482	488.20
45.5627	492.20
45.5771	525.65
45.5916	531.24
45.6060	513.64
45.6204	488.80
45.6349	508.87
45.6493	495.96
45.6638	486.34
45.6782	523.27
45.6926	484.11
45.7071	494.30
45.7215	504.89
45.7360	489.16
45.7504	501.00
45.7648	530.53
45.7793	513.73
45.7937	530.79
45.8082	540.94
45.8226	515.32
45.8370	507.59
45.8515	499.61
45.8659	520.18
45.8804	499.83
45.8948	521.65
45.9092	453.57
45.9237	492.47
45.9381	470.09
45.9526	496.37
45.9670	501.34
45.9814	503.72
45.9959	494.53
46.0103	485.68
46.0248	483.81
46.0392	497.16
46.0536	499.92
46.0681	503.05
46.0825	483.19
46.0970	470.62
46.1114	488.12
46.1258	508.93
46.1403	481.05
46.1547	532.01
46.1692	523.08
46.1836	503.63
46.1980	475.57
46.2125	513.93
46.2269	526.91
46.2414	519.93
46.2558	466.05
46.2702	470.36
46.2847	480.66
46.2991	488.53
46.3136	489.09
46.3280	509.71
46.3424	507.59
46.3569	493.79
46.3713	496.86
46.3858	505.24
46.4002	490.05
46.4146	456.59
46.4291	500.17
46.4435	481.92
46.4580	485.14
46.4724	523.76
46.4868	500.26
46.5013	482.56
46.5157	484.07
46.5302	476.19
46.5446	475.23
46.5590	485.09
46.5735	521.96
46.5879	505.92
46.6024	495.95
46.6168	488.97
46.6312	498.78
46.6457	499.83
46.6601	463.79
46.6746	484.64
46.6890	509.25
46.7034	507.18
46.7179	512.86
46.7323	535.58
46.7468	499.17
46.7612	473.14
46.7756	504.73
46.7901	475.93
46.8045	511.72
46.8190	491.59
46.8334	470.60
46.8478	470.97
46.8623	507.73
46.8767	540.71
46.8912	513.14
46.9056	502.56
46.9200	501.19
46.9345	502.47
46.9489	504.73
46.9634	522.94
46.9778	534.84
46.9922	507.39
47.0067	477.05
47.0211	499.43
47.0356	494.03
47.0500	481.31
47.0644	516.01
47.0789	531.69
47.0933	517.15
47.1078	509.99
47.1222	493.02
47.1366	518.50
47.1511	499.85
47.1655	497.85
47.1800	505.59
47.1944	467.98
47.2088	529.13
47.2233	516.43
47.2377	530.48
47.2522	511.56
47.2666	537.36
47.2810	545.54
47.2955	487.77
47.3099	497.49
47.3244	520.69
47.3388	503.44
47.3532	534.96
47.3677	527.32
47.3821	478.72
47.3966	462.73
47.4110	469.72
47.4254	546.71
47.4399	509.24
47.4543	492.05
47.4688	535.67
47.4832	515.50
47.4976	499.23
47.5121	547.92
47.5265	507.49
47.5410	464.91
47.5554	518.28
47.5698	466.66
47.5843	462.21
47.5987	484.22
47.6132	523.95
47.6276	500.01
47.6420	500.66
47.6565	512.15
47.6709	510.14
47.6854	501.51
47.6998	523.56
47.7142	474.08
47.7287	474.49
47.7431	464.40
47.7576	469.54
47.7720	485.24
47.7864	497.22
47.8009	491.93
47.8153	507.65
47.8298	494.19
47.8442	503.35
47.8586	519.71
47.8731	474.06
47.8875	491.39
47.9020	518.66
47.9164	506.22
47.9308	529.61
47.9453	497.57
47.9597	506.90
47.9742	510.08
47.9886	459.16
48.0030	500.23
48.0175	494.99
48.0319	481.39
48.0464	526.46
48.0608	508.15
48.0752	495.15
48.0897	488.88
48.1041	508.17
48.1186	521.67
48.1330	507.29
48.1474	439.83
48.1619	507.81
48.1763	508.56
48.1908	497.23
48.2052	510.63
48.2196	504.68
48.2341	485.51
48.2485	492.90
48.2630	474.90
48.2774	494.90
48.2918	473.66
48.3063	520.60
48.3207	523.10
48.3352	507.53
48.3496	484.40
48.3640	498.43
48.3785	520.39
48.3929	515.95
48.4074	531.55
48.4218	521.08
48.4362	533.46
48.4507	511.05
48.4651	515.96
48.4796	530.25
48.4940	495.23
48.5084	500.07
48.5229	480.13
48.5373	483.09
48.5518	486.58
48.5662	514.52
48.5806	519.49
48.5951	537.55
48.6095	545.27
48.6240	511.30
48.6384	500.73
48.6528	493.62
48.6673	490.19
48.6817	510.15
48.6962	484.70
48.7106	538.09
48.7250	540.20
48.7395	533.54
48.7539	523.03
48.7684	530.41
48.7828	512.39
48.7972	527.57
48.8117	553.93
48.8261	516.87
48.8406	502.70
48.8550	532.22
48.8694	565.58
48.8839	578.96
48.8983	555.82
48.9128	530.32
48.9272	546.80
48.9416	547.82
48.9561	492.02
48.9705	520.95
48.9850	560.77
48.9994	594.09
49.0139	556.32
49.0283	624.89
49.0427	602.72
49.0572	609.47
49.0716	684.16
49.0861	688.66
49.1005	674.09
49.1149	718.02
49.1294	775.30
49.1438	743.54
49.1583	793.78
49.1727	856.18
49.1871	893.72
49.2016	1062.74
49.2160	1078.71
49.2305	1110.68
49.2449	1186.74
49.2593	1312.08
49.2738	1377.18
49.2882	1519.63
49.3027	1589.56
49.3171	1684.85
49.3315	1762.63
49.3460	1819.97
49.3604	1833.40
49.3749	1830.74
49.3893	1784.31
49.4037	1825.17
49.4182	1760.23
49.4326	1804.88
49.4471	1628.87
49.4615	1608.80
49.4759	1614.65
49.4904	1509.39
49.5048	1416.22
49.5193	1342.39
49.5337	1275.28
49.5481	1213.27
49.5626	1148.56
49.5770	1087.17
49.5915	998.19
49.6059	972.69
49.6203	847.37
49.6348	825.74
49.6492	750.66
49.6637	735.34
49.6781	721.84
49.6925	690.96
49.7070	746.27
49.7214	662.88
49.7359	650.94
49.7503	668.31
49.7647	605.04
49.7792	601.32
49.7936	548.95
49.8081	547.41
49.8225	592.38
49.8369	562.22
49.8514	564.37
49.8658	561.42
49.8803	549.85
49.8947	549.93
49.9091	578.51
49.9236	529.23
49.9380	537.83
49.9525	569.57
49.9669	543.00
49.9813	532.74
49.9958	548.70
50.0102	527.44
50.0247	525.15
50.0391	498.88
50.0535	510.88
50.0680	519.34
50.0824	558.27
50.0969	546.00
50.1113	520.91
50.1257	534.91
50.1402	526.00
50.1546	524.22
50.1691	519.99
50.1835	545.43
50.1979	536.61
50.2124	542.36
50.2268	514.53
50.2413	487.91
50.2557	486.13
50.2701	506.92
50.2846	499.82
50.2990	514.69
50.3135	540.92
50.3279	526.71
50.3423	510.94
50.3568	517.34
50.3712	530.37
50.3857	541.13
50.4001	500.06
50.4145	498.79
50.4290	528.21
50.4434	495.90
50.4579	504.17
50.4723	533.71
50.4867	534.62
50.5012	489.92
50.5156	504.02
50.5301	529.94
50.5445	508.04
50.5589	480.78
50.5734	474.83
50.5878	491.50
50.6023	491.65
50.6167	500.26
50.6311	491.78
50.6456	530.32
50.6600	510.68
50.6745	499.65
50.6889	509.41
50.7033	505.48
50.7178	530.29
50.7322	511.39
50.7467	505.92
50.7611	496.33
50.7755	482.62
50.7900	502.06
50.8044	507.54
50.8189	521.65
50.8333	506.17
50.8477	479.99
50.8622	510.04
50.8766	521.03
50.8911	512.83
50.9055	527.49
50.9199	540.39
50.9344	535.36
50.9488	524.40
50.9633	512.40
50.9777	512.67
50.9921	496.74
51.0066	531.51
51.0210	528.04
51.0355	516.57
51.0499	493.52
51.0643	537.04
51.0788	536.47
51.0932	555.09
51.1077	535.28
51.1221	553.55
51.1365	505.05
51.1510	466.05
51.1654	495.06
51.1799	537.16
51.1943	517.49
51.2087	500.57
51.2232	499.56
51.2376	496.68
51.2521	522.66
51.2665	510.38
51.2809	520.00
51.2954	499.31
51.3098	499.35
51.3243	514.37
51.3387	519.88
51.3531	519.88
51.3676	513.65
51.3820	494.31
51.3965	492.22
51.4109	489.77
51.4253	505.31
51.4398	502.30
51.4542	506.89
51.4687	489.45
51.4831	502.75
51.4975	512.11
51.5120	500.24
51.5264	505.18
51.5409	515.96
51.5553	508.16
51.5697	478.22
51.5842	501.29
51.5986	486.57
51.6131	513.27
51.6275	506.36
51.6419	515.18
51.6564	483.36
51.6708	485.76
51.6853	493.04
51.6997	494.45
51.7141	506.42
51.7286	479.92
51.7430	507.31
51.7575	478.83
51.7719	459.32
51.7863	483.73
51.8008	534.35
51.8152	533.14
51.8297	523.59
51.8441	513.31
51.8585	521.83
51.8730	531.64
51.8874	501.44
51.9019	516.81
51.9163	500.53
51.9307	497.43
51.9452	533.96
51.9596	513.49
51.9741	501.79
51.9885	492.17
52.0029	491.50
52.0174	521.03
52.0318	544.75
52.0463	511.66
52.0607	536.49
52.0751	485.38
52.0896	499.10
52.1040	495.60
52.1185	484.90
52.1329	462.57
52.1473	434.00
52.1618	491.02
52.1762	512.38
52.1907	484.09
52.2051	490.38
52.2195	479.92
52.2340	469.96
52.2484	497.36
52.2629	513.17
52.2773	501.79
52.2917	474.55
52.3062	512.12
52.3206	519.06
52.3351	522.07
52.3495	500.18
52.3639	499.25
52.3784	489.41
52.3928	502.92
52.4073	500.30
52.4217	486.29
52.4361	522.82
52.4506	511.70
52.4650	508.74
52.4795	507.59
52.4939	520.99
52.5083	499.65
52.5228	519.75
52.5372	499.61
52.5517	497.65
52.5661	504.43
52.5805	526.26
52.5950	512.40
52.6094	485.74
52.6239	520.86
52.6383	524.70
52.6527	505.70
52.6672	499.30
52.6816	528.84
52.6961	505.78
52.7105	504.97
52.7250	503.37
52.7394	492.74
52.7538	494.47
52.7683	493.71
52.7827	508.14
52.7972	532.99
52.8116	517.25
52.8260	514.38
52.8405	550.61
52.8549	534.19
52.8694	533.84
52.8838	515.30
52.8982	498.72
52.9127	490.40
52.9271	469.57
52.9416	486.70
52.9560	531.24
52.9704	500.50
52.9849	522.32
52.9993	520.35
53.0138	521.31
53.0282	544.51
53.0426	508.31
53.0571	537.93
53.0715	499.41
53.0860	510.76
53.1004	536.62
53.1148	494.81
53.1293	505.38
53.1437	491.07
53.1582	482.55
53.1726	514.34
53.1870	497.33
53.2015	506.59
53.2159	537.36
53.2304	529.29
53.2448	559.42
53.2592	499.06
53.2737	458.30
53.2881	499.79
53.3026	533.16
53.3170	491.09
53.3314	532.15
53.3459	538.42
53.3603	524.29
53.3748	477.08
53.3892	516.98
53.4036	491.42
53.4181	482.91
53.4325	503.89
53.4470	490.87
53.4614	522.89
53.4758	544.72
53.4903	501.35
53.5047	452.04
53.5192	489.39
53.5336	523.09
53.5480	532.92
53.5625	534.31
53.5769	515.28
53.5914	507.31
53.6058	529.12
53.6202	476.67
53.6347	497.35
53.6491	490.32
53.6636	504.10
53.6780	516.11
53.6924	496.41
53.7069	560.42
53.7213	539.53
53.7358	479.27
53.7502	482.23
53.7646	500.24
53.7791	514.82
53.7935	492.73
53.8080	520.18
53.8224	546.09
53.8368	477.62
53.8513	509.65
53.8657	503.30
53.8802	482.68
53.8946	509.15
53.9090	559.40
53.9235	522.23
53.9379	476.78
53.9524	478.34
53.9668	473.62
53.9812	499.13
53.9957	515.06
54.0101	532.35
54.0246	562.20
54.0390	520.10
54.0534	520.21
54.0679	509.22
54.0823	500.78
54.0968	556.20
54.1112	530.50
54.1256	541.04
54.1401	540.81
54.1545	505.44
54.1690	549.39
54.1834	553.84
54.1978	559.56
54.2123	545.47
54.2267	577.13
54.2412	631.88
54.2556	651.38
54.2700	607.84
54.2845	643.78
54.2989	659.17
54.3134	630.63
54.3278	610.70
54.3422	606.55
54.3567	553.01
54.3711	614.84
54.3856	584.73
54.4000	583.46
54.4144	597.74
54.4289	600.62
54.4433	617.44
54.4578	562.06
54.4722	571.88
54.4866	523.49
54.5011	519.10
54.5155	544.34
54.5300	534.44
54.5444	519.22
54.5588	544.46
54.5733	531.18
54.5877	496.66
54.6022	491.16
54.6166	535.26
54.6310	551.62
54.6455	536.75
54.6599	513.10
54.6744	486.49
54.6888	496.14
54.7032	517.96
54.7177	515.17
54.7321	504.64
54.7466	511.47
54.7610	493.71
54.7754	512.24
54.7899	516.97
54.8043	488.98
54.8188	495.47
54.8332	498.56
54.8476	510.70
54.8621	529.58
54.8765	490.36
54.8910	488.46
54.9054	526.13
54.9198	543.32
54.9343	540.62
54.9487	543.39
54.9632	514.28
54.9776	493.75
54.9920	508.37
55.0065	501.75
55.0209	526.25
55.0354	528.98
55.0498	483.13
55.0642	514.33
55.0787	515.80
55.0931	517.64
55.1076	517.73
55.1220	496.13
55.1364	523.51
55.1509	516.15
55.1653	528.74
55.1798	546.91
55.1942	501.20
55.2086	497.37
55.2231	514.42
55.2375	495.31
55.2520	482.92
55.2664	509.24
55.2808	555.06
55.2953	506.15
55.3097	522.93
55.3242	523.52
55.3386	519.20
55.3530	532.79
55.3675	518.14
55.3819	483.29
55.3964	500.16
55.4108	481.04
55.4252	500.87
55.4397	491.70
55.4541	513.44
55.4686	533.58
55.4830	481.96
55.4974	515.80
55.5119	510.09
55.5263	514.76
55.5408	507.99
55.5552	493.18
55.5696	539.39
55.5841	516.66
55.5985	490.71
55.6130	500.55
55.6274	492.20
55.6418	511.79
55.6563	564.06
55.6707	535.19
55.6852	519.70
55.6996	529.25
55.7140	548.42
55.7285	542.98
55.7429	500.96
55.7574	516.26
55.7718	516.52
55.7862	509.14
55.8007	501.65
55.8151	518.03
55.8296	578.16
55.8440	511.16
55.8584	528.23
55.8729	522.25
55.8873	499.66
55.9018	537.57
55.9162	510.05
55.9306	547.39
55.9451	497.15
55.9595	497.14
55.9740	503.37
55.9884	516.22
56.0028	510.54
56.0173	519.16
56.0317	527.64
56.0462	501.20
56.0606	518.87
56.0750	502.45
56.0895	538.51
56.1039	536.94
56.1184	532.14
56.1328	535.16
56.1472	516.03
56.1617	487.23
56.1761	497.96
56.1906	514.14
56.2050	477.62
56.2194	534.78
56.2339	493.67
56.2483	535.41
56.2628	492.45
56.2772	515.29
56.2916	531.27
56.3061	524.79
56.3205	507.99
56.3350	554.77
56.3494	502.57
56.3639	523.86
56.3783	516.50
56.3927	497.53
56.4072	518.32
56.4216	549.79
56.4361	540.00
56.4505	526.56
56.4649	531.60
56.4794	532.17
56.4938	509.81
56.5083	489.83
56.5227	522.17
56.5371	524.44
56.5516	501.09
56.5660	531.42
56.5805	486.66
56.5949	522.87
56.6093	524.01
56.6238	482.87
56.6382	507.34
56.6527	509.04
56.6671	496.95
56.6815	482.67
56.6960	497.62
56.7104	547.95
56.7249	504.96
56.7393	513.92
56.7537	541.53
56.7682	482.56
56.7826	527.86
56.7971	552.76
56.8115	557.12
56.8259	544.11
56.8404	512.85
56.8548	543.35
56.8693	524.34
56.8837	511.16
56.8981	521.21
56.9126	531.00
56.9270	506.48
56.9415	544.49
56.9559	512.68
56.9703	515.22
56.9848	520.16
56.9992	514.93
57.0137	505.84
57.0281	500.23
57.0425	482.98
57.0570	512.92
57.0714	493.77
57.0859	517.71
57.1003	506.86
57.1147	563.08
57.1292	527.41
57.1436	527.27
57.1581	509.75
57.1725	488.09
57.1869	500.60
57.2014	510.69
57.2158	537.53
57.2303	538.71
57.2447	524.52
57.2591	508.53
57.2736	514.45
57.2880	510.72
57.3025	523.35
57.3169	518.52
57.3313	548.87
57.3458	523.87
57.3602	516.76
57.3747	514.48
57.3891	507.16
57.4035	505.80
57.4180	543.29
57.4324	531.89
57.4469	503.25
57.4613	516.02
57.4757	544.07
57.4902	525.56
57.5046	520.70
57.5191	488.54
57.5335	550.04
57.5479	525.59
57.5624	508.59
57.5768	475.77
57.5913	550.28
57.6057	533.95
57.6201	535.83
57.6346	541.62
57.6490	563.08
57.6635	551.59
57.6779	518.97
57.6923	522.77
57.7068	577.62
57.7212	559.34
57.7357	548.40
57.7501	578.62
57.7645	567.48
57.7790	588.75
57.7934	560.56
57.8079	612.05
57.8223	669.65
57.8367	702.32
57.8512	702.00
57.8656	739.56
57.8801	695.99
57.8945	725.85
57.9089	775.46
57.9234	709.71
57.9378	688.80
57.9523	670.95
57.9667	668.52
57.9811	674.99
57.9956	652.79
58.0100	659.23
58.0245	641.60
58.0389	654.62
58.0533	653.53
58.0678	631.26
58.0822	604.41
58.0967	599.23
58.1111	574.42
58.1255	588.38
58.1400	569.28
58.1544	562.55
58.1689	560.94
58.1833	571.63
58.1977	568.04
58.2122	535.75
58.2266	568.28
58.2411	562.25
58.2555	535.92
58.2699	520.76
58.2844	531.36
58.2988	557.58
58.3133	575.49
58.3277	559.29
58.3421	535.02
58.3566	542.65
58.3710	511.15
58.3855	550.23
58.3999	531.42
58.4143	536.30
58.4288	553.22
58.4432	537.66
58.4577	520.48
58.4721	514.24
58.4865	549.07
58.5010	547.38
58.5154	504.42
58.5299	505.94
58.5443	505.28
58.5587	528.33
58.5732	508.75
58.5876	539.99
58.6021	551.91
58.6165	540.86
58.6309	539.80
58.6454	535.07
58.6598	513.40
58.6743	512.44
58.6887	502.33
58.7031	521.04
58.7176	499.20
58.7320	498.36
58.7465	518.66
58.7609	507.83
58.7753	512.00
58.7898	522.22
58.8042	535.56
58.8187	518.87
58.8331	514.14
58.8475	534.22
58.8620	526.99
58.8764	499.87
58.8909	496.76
58.9053	534.50
58.9197	519.03
58.9342	514.07
58.9486	522.93
58.9631	511.04
58.9775	508.74
58.9919	494.29
59.0064	522.27
59.0208	543.41
59.0353	526.19
59.0497	528.23
59.0641	539.42
59.0786	504.87
59.0930	547.11
59.1075	545.50
59.1219	537.90
59.1363	507.74
59.1508	521.28
59.1652	540.10
59.1797	550.73
59.1941	542.60
59.2085	544.28
59.2230	555.29
59.2374	552.72
59.2519	528.85
59.2663	543.20
59.2807	547.79
59.2952	556.26
59.3096	549.93
59.3241	555.96
59.3385	595.03
59.3529	547.50
59.3674	532.50
59.3818	584.10
59.3963	569.00
59.4107	542.09
59.4251	562.50
59.4396	549.19
59.4540	533.26
59.4685	553.70
59.4829	574.65
59.4973	577.89
59.5118	552.48
59.5262	550.29
59.5407	549.52
59.5551	549.67
59.5695	527.84
59.5840	541.02
59.5984	540.33
59.6129	538.49
59.6273	518.86
59.6417	546.93
59.6562	562.72
59.6706	542.24
59.6851	520.73
59.6995	538.32
59.7139	533.58
59.7284	536.84
59.7428	561.28
59.7573	549.15
59.7717	533.01
59.7861	543.89
59.8006	526.71
59.8150	525.20
59.8295	532.15
59.8439	511.52
59.8583	537.26
59.8728	522.49
59.8872	492.75
59.9017	505.30
59.9161	549.18
59.9305	565.04
59.9450	548.51
59.9594	509.94
59.9739	499.59
59.9883	547.91
60.0027	513.69
60.0172	564.31
60.0316	536.52
60.0461	553.40
60.0605	522.04
60.0750	540.73
60.0894	570.21
60.1038	549.75
60.1183	529.19
60.1327	545.16
60.1472	511.98
60.1616	522.97
60.1760	534.14
60.1905	527.15
60.2049	517.11
60.2194	528.93
60.2338	536.22
60.2482	530.34
60.2627	536.77
60.2771	523.89
60.2916	562.40
60.3060	556.79
60.3204	539.14
60.3349	558.51
60.3493	567.98
60.3638	519.79
60.3782	562.83
60.3926	554.79
60.4071	546.39
60.4215	601.67
60.4360	510.46
60.4504	473.27
60.4648	524.81
60.4793	557.42
60.4937	546.66
60.5082	543.92
60.5226	539.55
60.5370	558.80
60.5515	529.28
60.5659	522.74
60.5804	504.47
60.5948	547.15
60.6092	523.26
60.6237	521.50
60.6381	553.44
60.6526	521.77
60.6670	539.23
60.6814	509.22
60.6959	516.60
60.7103	509.12
60.7248	521.02
60.7392	539.07
60.7536	516.39
60.7681	537.37
60.7825	539.00
60.7970	545.68
60.8114	547.29
60.8258	520.45
60.8403	501.19
60.8547	545.24
60.8692	509.54
60.8836	564.58
60.8980	533.44
60.9125	546.53
60.9269	538.44
60.9414	505.90
60.9558	557.43
60.9702	523.17
60.9847	524.80
60.9991	484.98
61.0136	500.88
61.0280	532.01
61.0424	498.70
61.0569	567.40
61.0713	519.74
61.0858	543.92
61.1002	524.33
61.1146	533.21
61.1291	557.60
61.1435	527.94
61.1580	496.05
61.1724	518.15
61.1868	503.31
61.2013	561.09
61.2157	563.00
61.2302	546.37
61.2446	567.78
61.2590	532.53
61.2735	535.74
61.2879	532.22
61.3024	526.48
61.3168	529.55
61.3312	538.96
61.3457	538.09
61.3601	547.32
61.3746	528.33
61.3890	526.69
61.4034	538.60
61.4179	511.12
61.4323	548.39
61.4468	551.32
61.4612	529.77
61.4756	552.47
61.4901	518.35
61.5045	538.25
61.5190	537.57
61.5334	494.00
61.5478	509.24
61.5623	548.05
61.5767	532.36
61.5912	533.66
61.6056	539.04
61.6200	539.23
61.6345	548.72
61.6489	544.43
61.6634	555.89
61.6778	514.24
61.6922	523.60
61.7067	519.36
61.7211	551.61
61.7356	507.81
61.7500	542.32
61.7644	522.98
61.7789	528.24
61.7933	544.57
61.8078	524.87
61.8222	564.94
61.8366	535.21
61.8511	509.69
61.8655	522.11
61.8800	521.92
61.8944	596.24
61.9088	579.34
61.9233	540.29
61.9377	555.30
61.9522	545.05
61.9666	526.20
61.9810	544.06
61.9955	574.13
62.0099	541.44
62.0244	536.69
62.0388	546.05
62.0532	501.58
62.0677	544.88
62.0821	576.88
62.0966	584.62
62.1110	522.28
62.1254	549.10
62.1399	508.83
62.1543	512.33
62.1688	560.97
62.1832	546.51
62.1976	537.98
62.2121	545.03
62.2265	549.76
62.2410	550.25
62.2554	522.22
62.2698	527.91
62.2843	550.48
62.2987	544.22
62.3132	531.81
62.3276	542.54
62.3420	561.06
62.3565	528.92
62.3709	541.69
62.3854	544.90
62.3998	557.33
62.4142	521.29
62.4287	539.62
62.4431	553.29
62.4576	548.37
62.4720	550.73
62.4864	519.83
62.5009	513.04
62.5153	578.02
62.5298	549.77
62.5442	557.78
62.5586	536.23
62.5731	543.33
62.5875	535.69
62.6020	537.14
62.6164	530.32
62.6308	541.82
62.6453	527.26
62.6597	534.81
62.6742	540.62
62.6886	525.45
62.7030	555.09
62.7175	545.38
62.7319	549.39
62.7464	585.14
62.7608	532.59
62.7752	542.43
62.7897	563.93
62.8041	519.62
62.8186	548.42
62.8330	552.11
62.8474	551.71
62.8619	561.81
62.8763	559.01
62.8908	557.51
62.9052	593.79
62.9196	566.30
62.9341	577.14
62.9485	551.86
62.9630	538.17
62.9774	553.81
62.9918	560.99
63.0063	561.67
63.0207	562.90
63.0352	582.15
63.0496	577.35
63.0640	593.90
63.0785	598.15
63.0929	583.85
63.1074	552.36
63.1218	601.21
63.1362	607.21
63.1507	570.25
63.1651	557.52
63.1796	573.44
63.1940	525.12
63.2084	566.42
63.2229	571.40
63.2373	592.60
63.2518	588.52
63.2662	565.72
63.2806	574.35
63.2951	542.35
63.3095	556.84
63.3240	580.38
63.3384	625.50
63.3528	606.93
63.3673	614.66
63.3817	645.28
63.3962	619.00
63.4106	629.25
63.4250	666.79
63.4395	672.18
63.4539	669.05
63.4684	706.98
63.4828	713.54
63.4972	743.66
63.5117	829.51
63.5261	862.64
63.5406	908.92
63.5550	969.62
63.5694	977.53
63.5839	926.60
63.5983	883.15
63.6128	892.29
63.6272	808.45
63.6416	790.83
63.6561	720.22
63.6705	777.40
63.6850	749.37
63.6994	772.55
63.7138	833.51
63.7283	801.89
63.7427	801.14
63.7572	788.56
63.7716	758.06
63.7861	764.01
63.8005	748.68
63.8149	705.77
63.8294	714.25
63.8438	681.94
63.8583	655.90
63.8727	638.82
63.8871	625.23
63.9016	649.20
63.9160	598.45
63.9305	570.72
63.9449	637.74
63.9593	627.09
63.9738	610.31
63.9882	628.54
64.0027	628.08
64.0171	631.35
64.0315	631.81
64.0460	600.83
64.0604	682.92
64.0749	630.60
64.0893	660.32
64.1037	583.99
64.1182	595.69
64.1326	568.19
64.1471	568.77
64.1615	611.15
64.1759	577.58
64.1904	603.38
64.2048	587.71
64.2193	579.02
64.2337	584.45
64.2481	604.26
64.2626	589.96
64.2770	603.64
64.2915	594.44
64.3059	589.23
64.3203	601.90
64.3348	590.09
64.3492	581.71
64.3637	574.19
64.3781	600.54
64.3925	616.71
64.4070	623.16
64.4214	596.31
64.4359	605.85
64.4503	576.60
64.4647	586.61
64.4792	611.52
64.4936	594.78
64.5081	628.16
64.5225	613.11
64.5369	630.08
64.5514	625.78
64.5658	614.39
64.5803	584.92
64.5947	603.18
64.6091	642.39
64.6236	641.36
64.6380	621.64
64.6525	642.14
64.6669	664.54
64.6813	658.05
64.6958	702.63
64.7102	714.06
64.7247	664.87
64.7391	654.22
64.7535	680.48
64.7680	659.72
64.7824	723.70
64.7969	736.28
64.8113	766.76
64.8257	768.96
64.8402	818.98
64.8546	826.98
64.8691	901.63
64.8835	812.95
64.8979	838.82
64.9124	816.49
64.9268	896.95
64.9413	880.42
64.9557	886.78
64.9701	907.06
64.9846	1010.35
64.9990	1118.21
65.0135	1229.42
65.0279	1338.87
65.0423	1650.10
65.0568	2043.59
65.0712	2538.02
65.0857	3222.53
65.1001	4320.18
65.1145	5795.52
65.1290	7599.16
65.1434	9160.15
65.1579	10660.36
65.1723	11413.80
65.1867	11107.06
65.2012	10024.73
65.2156	8261.74
65.2301	6657.52
65.2445	5341.57
65.2589	4396.61
65.2734	4057.07
65.2878	4202.62
65.3023	4722.60
65.3167	5559.68
65.3311	6342.30
65.3456	6896.45
65.3600	6836.82
65.3745	6390.32
65.3889	5531.95
65.4033	4402.01
65.4178	3417.27
65.4322	2761.05
65.4467	2133.35
65.4611	1666.19
65.4755	1444.97
65.4900	1259.02
65.5044	1155.11
65.5189	1044.94
65.5333	960.65
65.5477	903.94
65.5622	860.27
65.5766	802.59
65.5911	819.73
65.6055	750.31
65.6199	770.67
65.6344	762.72
65.6488	765.86
65.6633	758.00
65.6777	735.08
65.6921	685.00
65.7066	699.46
65.7210	700.97
65.7355	657.38
65.7499	682.24
65.7643	632.58
65.7788	637.05
65.7932	641.48
65.8077	681.11
65.8221	693.72
65.8365	664.82
65.8510	645.70
65.8654	636.67
65.8799	642.47
65.8943	648.54
65.9087	675.31
65.9232	657.91
65.9376	615.62
65.9521	601.03
65.9665	593.94
65.9809	627.90
65.9954	646.57
66.0098	641.51
66.0243	591.55
66.0387	632.97
66.0531	619.67
66.0676	605.58
66.0820	588.29
66.0965	611.15
66.1109	590.88
66.1253	587.57
66.1398	583.71
66.1542	594.63
66.1687	617.21
66.1831	583.58
66.1975	602.46
66.2120	622.79
66.2264	609.27
66.2409	610.95
66.2553	663.18
66.2697	627.36
66.2842	599.22
66.2986	596.52
66.3131	601.87
66.3275	578.53
66.3419	591.82
66.3564	586.94
66.3708	592.09
66.3853	585.35
66.3997	571.22
66.4141	610.06
66.4286	629.09
66.4430	558.28
66.4575	565.94
66.4719	611.07
66.4863	601.92
66.5008	591.78
66.5152	586.73
66.5297	592.82
66.5441	590.52
66.5585	582.47
66.5730	579.88
66.5874	596.57
66.6019	599.60
66.6163	587.78
66.6307	618.79
66.6452	599.13
66.6596	609.72
66.6741	577.75
66.6885	578.92
66.7029	594.88
66.7174	605.28
66.7318	571.49
66.7463	607.40
66.7607	575.37
66.7751	602.16
66.7896	576.20
66.8040	566.32
66.8185	576.06
66.8329	608.68
66.8473	600.02
66.8618	623.29
66.8762	618.58
66.8907	569.05
66.9051	594.27
66.9195	573.20
66.9340	589.08
66.9484	594.93
66.9629	591.26
66.9773	574.65
66.9917	585.79
67.0062	606.97
67.0206	609.15
67.0351	599.53
67.0495	611.73
67.0639	593.31
67.0784	578.90
67.0928	588.92
67.1073	562.53
67.1217	586.51
67.1361	563.33
67.1506	541.64
67.1650	560.01
67.1795	549.27
67.1939	549.63
67.2083	567.19
67.2228	580.09
67.2372	590.39
67.2517	567.18
67.2661	593.55
67.2805	599.10
67.2950	542.11
67.3094	566.01
67.3239	580.12
67.3383	602.45
67.3527	586.48
67.3672	575.03
67.3816	543.04
67.3961	547.33
67.4105	555.12
67.4250	565.21
67.4394	557.04
67.4538	550.58
67.4683	601.20
67.4827	609.44
67.4972	574.66
67.5116	582.63
67.5260	575.84
67.5405	540.20
67.5549	569.73
67.5694	565.70
67.5838	560.42
67.5982	569.55
67.6127	587.13
67.6271	550.68
67.6416	570.57
67.6560	565.90
67.6704	566.72
67.6849	564.34
67.6993	606.57
67.7138	559.18
67.7282	566.72
67.7426	563.61
67.7571	548.98
67.7715	560.59
67.7860	579.34
67.8004	554.84
67.8148	551.85
67.8293	563.19
67.8437	574.47
67.8582	585.70
67.8726	556.97
67.8870	552.36
67.9015	559.03
67.9159	557.16
67.9304	553.84
67.9448	579.22
67.9592	582.23
67.9737	583.52
67.9881	538.36
68.0026	543.62
68.0170	562.90
68.0314	591.74
68.0459	546.44
68.0603	558.12
68.0748	569.83
68.0892	563.95
68.1036	575.33
68.1181	573.38
68.1325	596.32
68.1470	566.75
68.1614	583.11
68.1758	538.45
68.1903	533.70
68.2047	547.82
68.2192	582.36
68.2336	604.53
68.2480	600.50
68.2625	562.82
68.2769	535.34
68.2914	591.44
68.3058	563.92
68.3202	586.80
68.3347	546.97
68.3491	540.07
68.3636	530.80
68.3780	577.34
68.3924	549.85
68.4069	570.35
68.4213	617.28
68.4358	569.67
68.4502	555.44
68.4646	579.79
68.4791	541.80
68.4935	583.74
68.5080	543.66
68.5224	558.71
68.5368	567.38
68.5513	593.95
68.5657	604.43
68.5802	567.06
68.5946	558.86
68.6090	567.82
68.6235	584.09
68.6379	595.76
68.6524	614.20
68.6668	575.98
68.6812	559.28
68.6957	537.72
68.7101	569.48
68.7246	585.30
68.7390	587.25
68.7534	598.00
68.7679	585.06
68.7823	569.75
68.7968	566.49
68.8112	564.05
68.8256	562.63
68.8401	615.84
68.8545	601.41
68.8690	573.04
68.8834	536.88
68.8978	571.96
68.9123	575.13
68.9267	546.69
68.9412	594.80
68.9556	540.76
68.9700	555.30
68.9845	534.12
68.9989	515.22
69.0134	597.72
69.0278	553.90
69.0422	572.49
69.0567	574.93
69.0711	569.70
69.0856	576.27
69.1000	566.32
69.1144	586.54
69.1289	593.75
69.1433	570.22
69.1578	545.49
69.1722	568.92
69.1866	555.56
69.2011	581.33
69.2155	563.36
69.2300	520.37
69.2444	581.92
69.2588	551.21
69.2733	568.43
69.2877	578.52
69.3022	555.79
69.3166	554.44
69.3310	579.34
69.3455	560.89
69.3599	550.61
69.3744	545.99
69.3888	570.63
69.4032	601.20
69.4177	576.03
69.4321	598.59
69.4466	570.67
69.4610	584.76
69.4754	595.36
69.4899	606.23
69.5043	603.59
69.5188	536.92
69.5332	618.69
69.5476	614.38
69.5621	566.43
69.5765	613.79
69.5910	593.53
69.6054	537.56
69.6198	573.00
69.6343	590.45
69.6487	574.59
69.6632	554.47
69.6776	574.50
69.6920	572.36
69.7065	561.34
69.7209	563.30
69.7354	585.41
69.7498	600.63
69.7642	553.63
69.7787	585.71
69.7931	570.16
69.8076	559.06
69.8220	539.15
69.8364	573.47
69.8509	625.10
69.8653	578.03
69.8798	577.02
69.8942	543.04
69.9086	574.92
69.9231	593.93
69.9375	634.54
69.9520	552.60
69.9664	586.33
69.9808	557.35
69.9953	574.16
70.0097	613.41
70.0242	546.27
70.0386	582.62
70.0530	554.17
70.0675	562.18
70.0819	597.33
70.0964	595.98
70.1108	560.79
70.1252	570.16
70.1397	552.07
70.1541	579.67
70.1686	569.80
70.1830	602.03
70.1974	597.72
70.2119	563.99
70.2263	559.26
70.2408	514.47
70.2552	556.32
70.2696	596.18
70.2841	570.56
70.2985	561.40
70.3130	591.84
70.3274	562.13
70.3418	597.50
70.3563	592.07
70.3707	595.05
70.3852	630.74
70.3996	554.14
70.4140	545.94
70.4285	621.66
70.4429	627.09
70.4574	577.31
70.4718	604.69
70.4862	576.07
70.5007	560.03
70.5151	605.21
70.5296	586.34
70.5440	558.94
70.5584	605.05
70.5729	583.60
70.5873	506.51
70.6018	558.89
70.6162	553.07
70.6306	609.16
70.6451	578.62
70.6595	517.11
70.6740	573.04
70.6884	579.52
70.7028	555.49
70.7173	630.65
70.7317	594.22
70.7462	578.56
70.7606	601.58
70.7750	557.75
70.7895	568.85
70.8039	614.01
70.8184	587.25
70.8328	586.46
70.8472	588.35
70.8617	594.52
70.8761	610.30
70.8906	552.91
70.9050	577.00
70.9194	526.16
70.9339	539.00
70.9483	590.26
70.9628	607.29
70.9772	574.41
70.9916	604.99
71.0061	552.90
71.0205	534.60
71.0350	516.64
71.0494	558.61
71.0638	556.39
71.0783	550.91
71.0927	581.00
71.1072	585.14
71.1216	593.85
71.1361	585.90
71.1505	561.60
71.1649	576.63
71.1794	561.40
71.1938	593.53
71.2083	587.83
71.2227	564.62
71.2371	600.04
71.2516	576.03
71.2660	565.97
71.2805	589.55
71.2949	533.97
71.3093	554.22
71.3238	553.50
71.3382	554.25
71.3527	590.07
71.3671	611.26
71.3815	580.82
71.3960	554.63
71.4104	543.66
71.4249	637.23
71.4393	609.50
71.4537	556.29
71.4682	549.29
71.4826	572.33
71.4971	527.05
71.5115	562.40
71.5259	569.51
71.5404	581.64
71.5548	630.59
71.5693	644.97
71.5837	629.51
71.5981	576.31
71.6126	584.93
71.6270	641.62
71.6415	602.61
71.6559	562.78
71.6703	611.78
71.6848	585.13
71.6992	568.07
71.7137	587.17
71.7281	595.16
71.7425	588.13
71.7570	589.77
71.7714	614.99
71.7859	597.33
71.8003	566.95
71.8147	596.50
71.8292	618.20
71.8436	598.93
71.8581	552.60
71.8725	547.85
71.8869	536.80
71.9014	617.42
71.9158	614.83
71.9303	609.27
71.9447	619.03
71.9591	566.07
71.9736	547.04
71.9880	557.15
72.0025	592.33
72.0169	596.42
72.0313	576.10
72.0458	559.16
72.0602	628.57
72.0747	568.97
72.0891	515.83
72.1035	555.83
72.1180	604.48
72.1324	642.90
72.1469	636.59
72.1613	617.97
72.1757	649.31
72.1902	601.34
72.2046	622.67
72.2191	657.98
72.2335	568.88
72.2479	530.58
72.2624	548.05
72.2768	615.35
72.2913	570.15
72.3057	515.59
72.3201	510.10
72.3346	563.65
72.3490	673.88
72.3635	610.37
72.3779	522.00
72.3923	537.78
72.4068	584.52
72.4212	609.87
72.4357	638.61
72.4501	606.25
72.4645	537.18
72.4790	531.20
72.4934	498.82
72.5079	487.98
72.5223	507.15
72.5367	521.40
72.5512	580.16
72.5656	611.75
72.5801	570.05
72.5945	522.07
72.6089	553.88
72.6234	606.01
72.6378	531.63
72.6523	477.85
72.6667	547.77
72.6811	575.09
72.6956	577.43
72.7100	541.14
72.7245	583.53
72.7389	699.99
72.7533	599.51
72.7678	601.76
72.7822	649.76
72.7967	517.18
72.8111	583.77
72.8255	716.31
72.8400	660.69
72.8544	539.21
72.8689	474.64
72.8833	529.09