2022.09.19 19:37:16
Îáðàçåö: ß÷åéêà LCoV 16-09-2022
Lambda1 = 1.54060
Lambda2 = 1.54439
Lambdam = 1.54186
R = 0.497
2Theta	I

line¹ 0 ;repeat¹ 0
22.1120	471.91
22.1264	493.40
22.1409	528.97
22.1553	596.93
22.1697	617.24
22.1842	619.99
22.1986	554.02
22.2131	533.30
22.2275	593.88
22.2419	584.28
22.2564	578.59
22.2708	642.52
22.2853	576.63
22.2997	557.78
22.3141	548.40
22.3286	662.03
22.3430	573.95
22.3575	594.28
22.3719	607.66
22.3863	558.93
22.4008	523.02
22.4152	646.42
22.4297	665.95
22.4441	607.68
22.4585	600.39
22.4730	630.70
22.4874	624.90
22.5019	660.99
22.5163	634.94
22.5307	608.07
22.5452	605.37
22.5596	580.70
22.5741	530.71
22.5885	622.93
22.6029	601.70
22.6174	513.32
22.6318	581.49
22.6463	546.89
22.6607	556.78
22.6751	493.33
22.6896	507.58
22.7040	519.31
22.7185	527.17
22.7329	518.59
22.7473	596.43
22.7618	582.50
22.7762	587.60
22.7907	553.84
22.8051	598.22
22.8195	596.30
22.8340	565.42
22.8484	607.77
22.8629	533.56
22.8773	575.05
22.8917	550.63
22.9062	560.72
22.9206	619.77
22.9351	506.12
22.9495	513.02
22.9639	576.67
22.9784	549.16
22.9928	559.25
23.0073	562.19
23.0217	570.41
23.0361	605.43
23.0506	571.57
23.0650	500.57
23.0795	500.93
23.0939	538.70
23.1083	532.84
23.1228	611.06
23.1372	527.86
23.1517	519.59
23.1661	547.72
23.1806	621.39
23.1950	550.46
23.2094	557.63
23.2239	585.15
23.2383	607.09
23.2528	531.64
23.2672	529.58
23.2816	576.33
23.2961	644.42
23.3105	628.27
23.3250	648.78
23.3394	613.72
23.3538	640.97
23.3683	629.62
23.3827	596.79
23.3972	556.05
23.4116	553.48
23.4260	569.81
23.4405	571.77
23.4549	551.04
23.4694	617.29
23.4838	549.44
23.4982	540.68
23.5127	548.56
23.5271	546.80
23.5416	446.76
23.5560	572.16
23.5704	581.54
23.5849	614.03
23.5993	576.94
23.6138	526.37
23.6282	462.53
23.6426	541.37
23.6571	548.14
23.6715	484.63
23.6860	494.19
23.7004	559.61
23.7148	549.66
23.7293	597.12
23.7437	519.62
23.7582	545.54
23.7726	641.78
23.7870	565.93
23.8015	549.23
23.8159	543.85
23.8304	521.98
23.8448	605.51
23.8592	596.92
23.8737	572.69
23.8881	631.37
23.9026	534.31
23.9170	532.21
23.9314	620.97
23.9459	609.83
23.9603	491.09
23.9748	587.55
23.9892	585.83
24.0036	534.12
24.0181	597.60
24.0325	598.70
24.0470	597.95
24.0614	626.03
24.0758	565.38
24.0903	585.69
24.1047	528.84
24.1192	592.34
24.1336	582.27
24.1480	563.48
24.1625	581.91
24.1769	561.04
24.1914	572.07
24.2058	549.58
24.2202	586.91
24.2347	568.55
24.2491	626.29
24.2636	616.41
24.2780	597.58
24.2924	626.23
24.3069	564.67
24.3213	631.43
24.3358	587.03
24.3502	539.95
24.3646	548.99
24.3791	542.20
24.3935	568.28
24.4080	568.46
24.4224	560.14
24.4368	512.91
24.4513	532.41
24.4657	573.11
24.4802	568.36
24.4946	559.18
24.5090	515.40
24.5235	528.21
24.5379	548.04
24.5524	608.72
24.5668	570.45
24.5812	613.34
24.5957	534.94
24.6101	538.04
24.6246	550.88
24.6390	509.17
24.6534	583.11
24.6679	557.29
24.6823	539.42
24.6968	512.41
24.7112	531.79
24.7256	535.85
24.7401	546.10
24.7545	513.68
24.7690	516.43
24.7834	554.78
24.7978	528.52
24.8123	564.93
24.8267	550.25
24.8412	560.83
24.8556	585.24
24.8700	490.52
24.8845	551.75
24.8989	562.29
24.9134	551.24
24.9278	556.43
24.9422	567.72
24.9567	476.89
24.9711	507.95
24.9856	536.64
25.0000	554.67
25.0144	536.77
25.0289	569.38
25.0433	583.02
25.0578	566.24
25.0722	537.36
25.0866	577.95
25.1011	547.72
25.1155	557.84
25.1300	591.05
25.1444	535.07
25.1588	529.49
25.1733	516.90
25.1877	539.65
25.2022	537.66
25.2166	576.03
25.2310	559.92
25.2455	538.12
25.2599	521.94
25.2744	516.40
25.2888	521.92
25.3032	529.70
25.3177	564.02
25.3321	551.58
25.3466	538.35
25.3610	524.72
25.3754	521.07
25.3899	516.15
25.4043	525.68
25.4188	527.67
25.4332	523.08
25.4476	541.94
25.4621	516.31
25.4765	537.56
25.4910	533.65
25.5054	537.67
25.5198	519.65
25.5343	565.05
25.5487	581.89
25.5632	547.69
25.5776	555.97
25.5920	560.97
25.6065	542.48
25.6209	582.98
25.6354	560.30
25.6498	548.78
25.6642	538.90
25.6787	575.68
25.6931	584.64
25.7076	581.25
25.7220	566.28
25.7364	511.21
25.7509	516.60
25.7653	497.43
25.7798	513.12
25.7942	566.28
25.8086	514.84
25.8231	574.24
25.8375	521.31
25.8520	553.75
25.8664	572.04
25.8808	565.88
25.8953	559.98
25.9097	564.52
25.9242	560.58
25.9386	571.70
25.9530	566.20
25.9675	516.07
25.9819	550.29
25.9964	543.90
26.0108	551.51
26.0252	542.27
26.0397	545.32
26.0541	535.29
26.0686	517.67
26.0830	513.24
26.0974	525.35
26.1119	544.78
26.1263	525.56
26.1408	502.14
26.1552	522.09
26.1696	511.60
26.1841	521.11
26.1985	554.91
26.2130	568.40
26.2274	554.46
26.2418	550.58
26.2563	532.49
26.2707	553.62
26.2852	518.67
26.2996	499.15
26.3140	538.39
26.3285	566.73
26.3429	532.91
26.3574	539.51
26.3718	554.72
26.3862	495.99
26.4007	491.69
26.4151	517.67
26.4296	549.24
26.4440	525.58
26.4584	503.65
26.4729	527.34
26.4873	527.46
26.5018	533.28
26.5162	516.88
26.5306	535.54
26.5451	554.28
26.5595	559.56
26.5740	548.98
26.5884	540.62
26.6028	578.73
26.6173	557.24
26.6317	529.49
26.6462	523.48
26.6606	541.79
26.6750	499.13
26.6895	513.69
26.7039	565.57
26.7184	520.92
26.7328	496.92
26.7472	547.02
26.7617	552.82
26.7761	502.15
26.7906	493.15
26.8050	501.99
26.8194	528.25
26.8339	545.13
26.8483	543.67
26.8628	561.98
26.8772	541.05
26.8917	533.22
26.9061	533.27
26.9205	525.52
26.9350	529.51
26.9494	543.29
26.9639	550.87
26.9783	505.95
26.9927	495.63
27.0072	503.06
27.0216	519.02
27.0361	512.51
27.0505	521.05
27.0649	505.93
27.0794	507.41
27.0938	522.73
27.1083	526.58
27.1227	492.60
27.1371	509.99
27.1516	507.01
27.1660	519.82
27.1805	528.77
27.1949	493.10
27.2093	503.27
27.2238	495.78
27.2382	483.28
27.2527	514.06
27.2671	536.94
27.2815	542.50
27.2960	510.40
27.3104	537.60
27.3249	509.64
27.3393	517.37
27.3537	505.53
27.3682	517.34
27.3826	526.68
27.3971	522.93
27.4115	506.31
27.4259	528.20
27.4404	522.97
27.4548	509.78
27.4693	531.34
27.4837	534.02
27.4981	530.03
27.5126	546.58
27.5270	553.94
27.5415	522.03
27.5559	530.40
27.5703	532.01
27.5848	497.59
27.5992	524.39
27.6137	523.42
27.6281	574.73
27.6425	525.84
27.6570	475.44
27.6714	529.26
27.6859	530.09
27.7003	504.95
27.7147	498.73
27.7292	504.46
27.7436	546.86
27.7581	524.57
27.7725	518.74
27.7869	536.65
27.8014	539.84
27.8158	506.11
27.8303	522.46
27.8447	511.01
27.8591	497.98
27.8736	518.60
27.8880	502.35
27.9025	530.12
27.9169	538.64
27.9313	542.80
27.9458	564.50
27.9602	501.86
27.9747	517.71
27.9891	516.83
28.0035	515.44
28.0180	515.52
28.0324	525.61
28.0469	533.38
28.0613	517.02
28.0757	540.76
28.0902	531.20
28.1046	513.00
28.1191	565.31
28.1335	516.19
28.1479	504.74
28.1624	503.89
28.1768	504.21
28.1913	506.71
28.2057	493.26
28.2201	515.24
28.2346	508.52
28.2490	527.22
28.2635	509.84
28.2779	496.45
28.2923	505.57
28.3068	505.02
28.3212	500.75
28.3357	543.40
28.3501	550.51
28.3645	511.32
28.3790	471.26
28.3934	523.90
28.4079	539.66
28.4223	557.14
28.4367	529.06
28.4512	523.42
28.4656	528.18
28.4801	527.54
28.4945	533.04
28.5089	547.19
28.5234	511.07
28.5378	514.71
28.5523	476.55
28.5667	496.66
28.5811	523.30
28.5956	539.88
28.6100	556.30
28.6245	518.66
28.6389	513.40
28.6533	538.36
28.6678	500.57
28.6822	490.15
28.6967	531.15
28.7111	517.83
28.7255	479.53
28.7400	486.98
28.7544	506.81
28.7689	516.88
28.7833	515.02
28.7977	541.93
28.8122	505.13
28.8266	499.49
28.8411	493.74
28.8555	541.07
28.8699	551.26
28.8844	546.39
28.8988	515.36
28.9133	512.53
28.9277	531.37
28.9421	508.50
28.9566	489.44
28.9710	510.47
28.9855	521.39
28.9999	488.49
29.0143	515.04
29.0288	550.56
29.0432	494.77
29.0577	476.37
29.0721	547.16
29.0865	516.30
29.1010	507.35
29.1154	485.13
29.1299	534.65
29.1443	532.51
29.1587	501.50
29.1732	496.22
29.1876	489.00
29.2021	472.15
29.2165	497.48
29.2309	492.28
29.2454	463.47
29.2598	484.24
29.2743	528.34
29.2887	525.60
29.3031	514.67
29.3176	499.85
29.3320	508.63
29.3465	491.73
29.3609	534.77
29.3753	537.59
29.3898	489.67
29.4042	494.20
29.4187	514.18
29.4331	484.68
29.4475	462.94
29.4620	515.33
29.4764	537.62
29.4909	527.65
29.5053	524.86
29.5197	475.85
29.5342	510.16
29.5486	529.22
29.5631	510.89
29.5775	501.28
29.5919	521.73
29.6064	519.37
29.6208	470.64
29.6353	491.38
29.6497	523.90
29.6641	533.86
29.6786	497.60
29.6930	490.60
29.7075	513.51
29.7219	527.74
29.7363	522.06
29.7508	512.28
29.7652	494.79
29.7797	489.90
29.7941	499.50
29.8085	494.41
29.8230	500.77
29.8374	525.34
29.8519	503.43
29.8663	520.18
29.8807	547.97
29.8952	524.89
29.9096	530.33
29.9241	534.95
29.9385	525.36
29.9529	488.41
29.9674	480.85
29.9818	501.14
29.9963	465.68
30.0107	485.06
30.0251	496.50
30.0396	499.87
30.0540	543.38
30.0685	532.32
30.0829	511.19
30.0973	512.97
30.1118	511.35
30.1262	517.82
30.1407	477.91
30.1551	481.82
30.1695	534.23
30.1840	524.53
30.1984	508.40
30.2129	507.77
30.2273	489.82
30.2417	513.97
30.2562	507.47
30.2706	501.85
30.2851	530.95
30.2995	506.33
30.3139	532.21
30.3284	521.03
30.3428	529.01
30.3573	501.69
30.3717	480.03
30.3861	491.96
30.4006	519.07
30.4150	523.70
30.4295	536.15
30.4439	529.06
30.4583	503.91
30.4728	528.82
30.4872	569.89
30.5017	522.11
30.5161	566.46
30.5305	534.06
30.5450	593.22
30.5594	600.78
30.5739	630.87
30.5883	635.82
30.6028	658.74
30.6172	681.31
30.6316	730.45
30.6461	736.29
30.6605	723.29
30.6750	713.51
30.6894	713.07
30.7038	676.30
30.7183	657.16
30.7327	632.19
30.7472	643.63
30.7616	620.73
30.7760	602.10
30.7905	592.61
30.8049	576.70
30.8194	566.66
30.8338	523.34
30.8482	525.50
30.8627	522.99
30.8771	526.53
30.8916	532.03
30.9060	530.91
30.9204	511.21
30.9349	495.33
30.9493	494.17
30.9638	479.81
30.9782	509.34
30.9926	499.38
31.0071	481.85
31.0215	496.06
31.0360	521.73
31.0504	514.59
31.0648	534.20
31.0793	490.94
31.0937	512.77
31.1082	525.84
31.1226	515.32
31.1370	519.33
31.1515	499.85
31.1659	525.62
31.1804	514.85
31.1948	497.23
31.2092	515.66
31.2237	503.92
31.2381	523.73
31.2526	527.77
31.2670	546.28
31.2814	543.58
31.2959	511.37
31.3103	529.58
31.3248	505.35
31.3392	527.97
31.3536	522.55
31.3681	515.09
31.3825	536.19
31.3970	489.08
31.4114	518.31
31.4258	552.46
31.4403	539.24
31.4547	538.52
31.4692	546.22
31.4836	515.00
31.4980	514.61
31.5125	489.78
31.5269	517.76
31.5414	531.98
31.5558	528.21
31.5702	495.00
31.5847	518.94
31.5991	531.95
31.6136	523.74
31.6280	482.79
31.6424	493.28
31.6569	471.19
31.6713	480.76
31.6858	535.09
31.7002	501.49
31.7146	498.22
31.7291	513.43
31.7435	511.41
31.7580	505.37
31.7724	566.02
31.7868	521.36
31.8013	488.95
31.8157	508.93
31.8302	510.09
31.8446	503.15
31.8590	541.74
31.8735	516.91
31.8879	533.22
31.9024	551.64
31.9168	493.78
31.9312	495.65
31.9457	513.29
31.9601	496.35
31.9746	472.17
31.9890	500.17
32.0034	514.37
32.0179	500.51
32.0323	534.00
32.0468	515.13
32.0612	507.69
32.0756	539.76
32.0901	506.30
32.1045	506.15
32.1190	496.19
32.1334	494.66
32.1478	470.45
32.1623	522.02
32.1767	496.28
32.1912	476.65
32.2056	483.84
32.2200	500.95
32.2345	484.13
32.2489	490.96
32.2634	498.70
32.2778	527.99
32.2922	497.48
32.3067	498.56
32.3211	502.80
32.3356	471.98
32.3500	528.07
32.3644	505.18
32.3789	521.82
32.3933	509.38
32.4078	511.44
32.4222	521.42
32.4366	492.66
32.4511	503.13
32.4655	489.85
32.4800	513.66
32.4944	511.88
32.5088	514.50
32.5233	500.35
32.5377	502.49
32.5522	508.18
32.5666	502.20
32.5810	490.97
32.5955	491.25
32.6099	503.94
32.6244	499.77
32.6388	486.00
32.6532	509.00
32.6677	453.16
32.6821	500.81
32.6966	503.89
32.7110	524.11
32.7254	514.78
32.7399	503.09
32.7543	533.38
32.7688	472.20
32.7832	527.44
32.7976	500.65
32.8121	487.57
32.8265	512.63
32.8410	508.21
32.8554	489.81
32.8698	494.33
32.8843	497.95
32.8987	512.39
32.9132	481.56
32.9276	493.01
32.9420	502.51
32.9565	527.15
32.9709	524.21
32.9854	505.33
32.9998	493.92
33.0142	526.16
33.0287	501.02
33.0431	531.78
33.0576	519.93
33.0720	488.30
33.0864	529.86
33.1009	514.49
33.1153	486.65
33.1298	536.73
33.1442	540.53
33.1586	532.62
33.1731	522.39
33.1875	519.92
33.2020	509.36
33.2164	493.66
33.2308	479.05
33.2453	527.38
33.2597	495.41
33.2742	510.32
33.2886	510.81
33.3030	500.96
33.3175	518.85
33.3319	517.61
33.3464	478.49
33.3608	470.32
33.3752	484.95
33.3897	484.04
33.4041	511.85
33.4186	506.51
33.4330	516.15
33.4474	523.53
33.4619	513.23
33.4763	499.14
33.4908	470.03
33.5052	462.98
33.5196	467.72
33.5341	524.97
33.5485	499.75
33.5630	514.60
33.5774	494.65
33.5918	509.82
33.6063	480.63
33.6207	500.97
33.6352	515.26
33.6496	525.51
33.6640	498.38
33.6785	513.28
33.6929	516.05
33.7074	529.77
33.7218	494.96
33.7362	495.60
33.7507	508.51
33.7651	502.58
33.7796	540.27
33.7940	521.75
33.8084	518.13
33.8229	498.35
33.8373	514.96
33.8518	522.69
33.8662	498.40
33.8806	513.83
33.8951	503.29
33.9095	536.48
33.9240	522.40
33.9384	547.77
33.9528	488.02
33.9673	480.29
33.9817	482.37
33.9962	513.28
34.0106	513.59
34.0250	535.86
34.0395	509.73
34.0539	506.68
34.0684	516.12
34.0828	498.65
34.0972	503.04
34.1117	480.80
34.1261	495.49
34.1406	513.00
34.1550	503.73
34.1694	532.07
34.1839	501.99
34.1983	490.69
34.2128	484.95
34.2272	499.06
34.2417	502.38
34.2561	487.65
34.2705	488.01
34.2850	495.57
34.2994	514.68
34.3139	510.97
34.3283	504.77
34.3427	526.08
34.3572	517.97
34.3716	482.70
34.3861	511.12
34.4005	503.76
34.4149	506.19
34.4294	530.16
34.4438	466.96
34.4583	478.39
34.4727	502.57
34.4871	545.20
34.5016	536.11
34.5160	523.31
34.5305	496.25
34.5449	529.38
34.5593	530.78
34.5738	482.31
34.5882	505.15
34.6027	520.78
34.6171	541.31
34.6315	544.17
34.6460	547.30
34.6604	518.15
34.6749	532.77
34.6893	506.33
34.7037	537.82
34.7182	523.51
34.7326	505.19
34.7471	508.65
34.7615	541.15
34.7759	511.96
34.7904	505.33
34.8048	527.90
34.8193	510.94
34.8337	491.77
34.8481	459.57
34.8626	503.38
34.8770	500.12
34.8915	498.13
34.9059	501.74
34.9203	485.55
34.9348	500.53
34.9492	528.26
34.9637	508.54
34.9781	540.78
34.9925	536.48
35.0070	504.37
35.0214	511.02
35.0359	511.69
35.0503	516.25
35.0647	519.72
35.0792	518.70
35.0936	525.67
35.1081	522.77
35.1225	538.66
35.1369	519.17
35.1514	509.66
35.1658	531.92
35.1803	501.99
35.1947	479.03
35.2091	482.88
35.2236	491.36
35.2380	523.88
35.2525	528.57
35.2669	515.14
35.2813	519.80
35.2958	522.91
35.3102	490.91
35.3247	479.89
35.3391	509.32
35.3535	510.18
35.3680	492.23
35.3824	531.48
35.3969	535.81
35.4113	516.82
35.4257	558.57
35.4402	536.50
35.4546	501.52
35.4691	500.86
35.4835	551.27
35.4979	502.96
35.5124	505.02
35.5268	526.02
35.5413	518.88
35.5557	515.12
35.5701	521.54
35.5846	528.98
35.5990	516.44
35.6135	519.94
35.6279	520.57
35.6423	533.72
35.6568	518.77
35.6712	507.39
35.6857	572.40
35.7001	665.68
35.7145	686.39
35.7290	645.46
35.7434	645.56
35.7579	622.00
35.7723	578.49
35.7867	612.55
35.8012	661.03
35.8156	646.08
35.8301	619.42
35.8445	641.84
35.8589	682.50
35.8734	760.58
35.8878	875.88
35.9023	1008.97
35.9167	1151.47
35.9311	1367.22
35.9456	1943.54
35.9600	2383.11
35.9745	1945.34
35.9889	2024.18
36.0033	2352.38
36.0178	2476.89
36.0322	2295.20
36.0467	2272.56
36.0611	2171.38
36.0755	2100.29
36.0900	2070.57
36.1044	1894.28
36.1189	1748.49
36.1333	1575.57
36.1477	1393.23
36.1622	1409.09
36.1766	1304.61
36.1911	1116.07
36.2055	930.91
36.2199	828.86
36.2344	766.74
36.2488	717.27
36.2633	641.98
36.2777	650.53
36.2921	603.81
36.3066	596.14
36.3210	577.73
36.3355	539.61
36.3499	540.13
36.3643	561.67
36.3788	546.48
36.3932	519.53
36.4077	550.97
36.4221	532.37
36.4365	544.77
36.4510	530.46
36.4654	556.24
36.4799	523.95
36.4943	555.56
36.5087	556.73
36.5232	555.20
36.5376	513.01
36.5521	530.52
36.5665	516.82
36.5809	511.87
36.5954	552.28
36.6098	537.17
36.6243	518.54
36.6387	559.18
36.6531	521.21
36.6676	502.50
36.6820	497.31
36.6965	503.66
36.7109	493.91
36.7253	531.96
36.7398	519.45
36.7542	546.49
36.7687	546.81
36.7831	536.01
36.7975	592.42
36.8120	596.04
36.8264	594.44
36.8409	607.47
36.8553	596.14
36.8697	621.94
36.8842	581.77
36.8986	606.73
36.9131	601.30
36.9275	600.91
36.9419	614.10
36.9564	602.34
36.9708	573.51
36.9853	585.10
36.9997	559.48
37.0141	555.64
37.0286	534.32
37.0430	502.53
37.0575	540.19
37.0719	502.33
37.0863	509.75
37.1008	535.50
37.1152	534.44
37.1297	541.78
37.1441	492.44
37.1585	497.90
37.1730	501.37
37.1874	459.12
37.2019	498.98
37.2163	504.83
37.2307	475.84
37.2452	526.84
37.2596	497.94
37.2741	493.54
37.2885	490.94
37.3029	508.59
37.3174	521.77
37.3318	508.04
37.3463	534.52
37.3607	514.56
37.3751	497.05
37.3896	507.85
37.4040	505.36
37.4185	506.25
37.4329	501.28
37.4473	512.43
37.4618	505.11
37.4762	529.91
37.4907	528.85
37.5051	475.71
37.5195	491.46
37.5340	520.54
37.5484	497.52
37.5629	507.18
37.5773	495.66
37.5917	528.73
37.6062	514.90
37.6206	513.77
37.6351	534.43
37.6495	515.64
37.6639	505.74
37.6784	501.62
37.6928	496.32
37.7073	516.00
37.7217	493.46
37.7361	487.23
37.7506	496.03
37.7650	509.14
37.7795	513.47
37.7939	487.07
37.8083	508.24
37.8228	504.61
37.8372	543.00
37.8517	507.51
37.8661	555.65
37.8805	513.21
37.8950	512.52
37.9094	509.19
37.9239	505.22
37.9383	509.46
37.9528	520.42
37.9672	520.12
37.9816	514.36
37.9961	498.22
38.0105	481.00
38.0250	499.04
38.0394	500.77
38.0538	522.97
38.0683	522.65
38.0827	547.84
38.0972	533.80
38.1116	547.68
38.1260	502.63
38.1405	481.38
38.1549	521.03
38.1694	529.88
38.1838	512.68
38.1982	465.92
38.2127	511.15
38.2271	528.80
38.2416	515.85
38.2560	520.62
38.2704	511.69
38.2849	484.84
38.2993	459.86
38.3138	515.31
38.3282	548.24
38.3426	515.46
38.3571	539.36
38.3715	537.93
38.3860	514.69
38.4004	517.55
38.4148	561.94
38.4293	590.82
38.4437	589.77
38.4582	635.14
38.4726	638.46
38.4870	685.57
38.5015	742.69
38.5159	808.16
38.5304	778.36
38.5448	807.67
38.5592	818.12
38.5737	785.89
38.5881	748.67
38.6026	719.58
38.6170	695.85
38.6314	666.93
38.6459	662.32
38.6603	645.75
38.6748	622.11
38.6892	584.25
38.7036	565.88
38.7181	573.58
38.7325	515.38
38.7470	520.67
38.7614	514.62
38.7758	526.39
38.7903	536.22
38.8047	536.47
38.8192	515.80
38.8336	499.22
38.8480	502.76
38.8625	515.63
38.8769	536.06
38.8914	489.85
38.9058	504.36
38.9202	504.82
38.9347	504.02
38.9491	490.50
38.9636	498.27
38.9780	495.63
38.9924	498.55
39.0069	505.75
39.0213	504.89
39.0358	529.30
39.0502	528.69
39.0646	492.10
39.0791	480.20
39.0935	515.61
39.1080	517.33
39.1224	515.77
39.1368	522.83
39.1513	490.96
39.1657	507.11
39.1802	495.59
39.1946	490.20
39.2090	503.57
39.2235	510.93
39.2379	517.00
39.2524	493.98
39.2668	485.31
39.2812	515.68
39.2957	501.40
39.3101	531.68
39.3246	526.16
39.3390	523.44
39.3534	512.75
39.3679	533.11
39.3823	486.27
39.3968	507.04
39.4112	491.89
39.4256	507.78
39.4401	500.58
39.4545	495.76
39.4690	494.19
39.4834	498.92
39.4978	498.02
39.5123	488.22
39.5267	478.12
39.5412	492.45
39.5556	534.18
39.5700	523.10
39.5845	523.91
39.5989	541.86
39.6134	511.55
39.6278	491.71
39.6422	481.72
39.6567	473.59
39.6711	482.22
39.6856	511.31
39.7000	517.76
39.7144	516.29
39.7289	528.35
39.7433	503.33
39.7578	481.65
39.7722	483.39
39.7866	502.10
39.8011	514.97
39.8155	490.91
39.8300	490.24
39.8444	475.00
39.8588	493.17
39.8733	501.46
39.8877	509.35
39.9022	469.04
39.9166	522.19
39.9310	485.12
39.9455	488.59
39.9599	506.48
39.9744	506.32
39.9888	485.64
40.0032	486.13
40.0177	513.37
40.0321	469.62
40.0466	475.97
40.0610	520.82
40.0754	477.88
40.0899	528.06
40.1043	526.40
40.1188	501.76
40.1332	486.37
40.1476	477.37
40.1621	493.12
40.1765	523.77
40.1910	504.41
40.2054	493.05
40.2198	476.46
40.2343	499.35
40.2487	500.23
40.2632	515.90
40.2776	481.06
40.2920	507.66
40.3065	485.73
40.3209	520.36
40.3354	506.29
40.3498	479.24
40.3642	531.96
40.3787	530.56
40.3931	473.56
40.4076	482.03
40.4220	510.50
40.4364	500.11
40.4509	483.85
40.4653	502.43
40.4798	502.63
40.4942	473.44
40.5086	470.03
40.5231	481.61
40.5375	469.32
40.5520	486.71
40.5664	510.49
40.5808	504.01
40.5953	482.35
40.6097	533.99
40.6242	499.51
40.6386	520.08
40.6530	519.60
40.6675	522.33
40.6819	503.17
40.6964	545.23
40.7108	558.40
40.7252	486.08
40.7397	497.09
40.7541	477.26
40.7686	501.10
40.7830	526.86
40.7974	497.09
40.8119	509.23
40.8263	547.64
40.8408	486.88
40.8552	484.32
40.8696	527.57
40.8841	527.47
40.8985	518.29
40.9130	477.78
40.9274	475.90
40.9418	526.48
40.9563	487.26
40.9707	506.17
40.9852	490.28
40.9996	480.13
41.0140	478.94
41.0285	507.67
41.0429	541.11
41.0574	517.22
41.0718	485.85
41.0862	508.29
41.1007	495.01
41.1151	509.24
41.1296	510.60
41.1440	509.97
41.1584	492.73
41.1729	497.66
41.1873	452.59
41.2018	476.50
41.2162	508.64
41.2306	483.83
41.2451	488.26
41.2595	485.52
41.2740	499.98
41.2884	494.04
41.3028	506.62
41.3173	520.00
41.3317	529.33
41.3462	497.38
41.3606	483.97
41.3750	500.85
41.3895	519.76
41.4039	505.97
41.4184	479.52
41.4328	504.98
41.4472	518.54
41.4617	506.38
41.4761	518.15
41.4906	489.79
41.5050	499.91
41.5194	500.48
41.5339	522.68
41.5483	529.25
41.5628	535.35
41.5772	533.95
41.5916	514.93
41.6061	489.59
41.6205	465.70
41.6350	494.63
41.6494	499.13
41.6639	479.11
41.6783	483.38
41.6927	450.71
41.7072	542.41
41.7216	533.83
41.7361	490.51
41.7505	496.10
41.7649	517.91
41.7794	499.31
41.7938	482.38
41.8083	483.29
41.8227	506.08
41.8371	522.80
41.8516	515.42
41.8660	554.38
41.8805	511.11
41.8949	557.80
41.9093	554.22
41.9238	553.44
41.9382	579.37
41.9527	563.97
41.9671	551.49
41.9815	528.33
41.9960	545.61
42.0104	575.90
42.0249	607.58
42.0393	582.19
42.0537	556.65
42.0682	553.77
42.0826	527.99
42.0971	558.54
42.1115	599.02
42.1259	612.79
42.1404	604.57
42.1548	597.42
42.1693	679.09
42.1837	695.26
42.1981	755.83
42.2126	840.13
42.2270	955.17
42.2415	1012.45
42.2559	1158.02
42.2703	1337.67
42.2848	1470.81
42.2992	1587.14
42.3137	1663.56
42.3281	1632.57
42.3425	1535.14
42.3570	1482.06
42.3714	1426.57
42.3859	1348.50
42.4003	1370.48
42.4147	1352.68
42.4292	1299.26
42.4436	1176.16
42.4581	1024.99
42.4725	920.27
42.4869	854.05
42.5014	747.52
42.5158	686.30
42.5303	650.85
42.5447	615.20
42.5591	627.82
42.5736	596.68
42.5880	575.22
42.6025	563.35
42.6169	555.63
42.6313	536.42
42.6458	531.37
42.6602	520.23
42.6747	510.70
42.6891	530.27
42.7035	564.61
42.7180	543.60
42.7324	528.02
42.7469	538.73
42.7613	536.52
42.7757	521.19
42.7902	504.43
42.8046	500.80
42.8191	525.78
42.8335	508.84
42.8479	510.22
42.8624	536.93
42.8768	517.54
42.8913	497.36
42.9057	510.19
42.9201	510.04
42.9346	521.62
42.9490	470.94
42.9635	479.05
42.9779	514.44
42.9923	520.98
43.0068	512.42
43.0212	532.71
43.0357	515.83
43.0501	503.20
43.0645	501.94
43.0790	483.07
43.0934	513.67
43.1079	519.22
43.1223	524.15
43.1367	492.46
43.1512	489.57
43.1656	514.84
43.1801	526.38
43.1945	518.34
43.2089	519.71
43.2234	513.78
43.2378	515.09
43.2523	531.62
43.2667	552.88
43.2811	528.15
43.2956	500.50
43.3100	532.62
43.3245	557.07
43.3389	540.88
43.3533	518.33
43.3678	524.66
43.3822	525.53
43.3967	503.97
43.4111	508.39
43.4255	533.05
43.4400	532.13
43.4544	495.61
43.4689	498.95
43.4833	501.92
43.4977	506.62
43.5122	516.71
43.5266	520.71
43.5411	512.07
43.5555	520.14
43.5699	512.15
43.5844	519.51
43.5988	521.31
43.6133	529.30
43.6277	535.65
43.6421	540.84
43.6566	532.56
43.6710	508.85
43.6855	536.56
43.6999	543.71
43.7143	565.05
43.7288	533.85
43.7432	554.82
43.7577	568.24
43.7721	592.60
43.7865	580.78
43.8010	594.31
43.8154	623.31
43.8299	671.98
43.8443	691.12
43.8587	710.89
43.8732	665.16
43.8876	652.31
43.9021	630.63
43.9165	610.51
43.9309	631.30
43.9454	583.89
43.9598	585.59
43.9743	599.89
43.9887	580.98
44.0031	582.70
44.0176	563.38
44.0320	567.63
44.0465	537.55
44.0609	540.62
44.0753	511.33
44.0898	559.27
44.1042	547.47
44.1187	558.51
44.1331	523.75
44.1475	519.56
44.1620	533.29
44.1764	567.46
44.1909	527.83
44.2053	502.53
44.2197	547.49
44.2342	527.95
44.2486	535.23
44.2631	528.85
44.2775	512.61
44.2919	519.86
44.3064	537.04
44.3208	531.75
44.3353	538.68
44.3497	564.88
44.3641	563.75
44.3786	555.91
44.3930	522.46
44.4075	549.66
44.4219	581.94
44.4363	592.84
44.4508	594.84
44.4652	574.42
44.4797	563.83
44.4941	589.44
44.5085	590.71
44.5230	537.75
44.5374	552.27
44.5519	550.32
44.5663	602.27
44.5807	586.61
44.5952	588.74
44.6096	571.82
44.6241	552.74
44.6385	593.38
44.6529	611.92
44.6674	547.31
44.6818	574.92
44.6963	624.19
44.7107	632.98
44.7251	680.82
44.7396	713.92
44.7540	791.10
44.7685	871.59
44.7829	861.01
44.7973	876.79
44.8118	860.16
44.8262	832.56
44.8407	745.93
44.8551	725.01
44.8695	676.46
44.8840	736.83
44.8984	753.57
44.9129	759.22
44.9273	681.85
44.9417	666.98
44.9562	608.95
44.9706	573.99
44.9851	572.97
44.9995	533.32
45.0139	516.83
45.0284	511.46
45.0428	546.60
45.0573	519.67
45.0717	509.31
45.0861	532.01
45.1006	539.73
45.1150	505.24
45.1295	531.05
45.1439	511.15
45.1583	539.84
45.1728	534.61
45.1872	525.37
45.2017	543.02
45.2161	505.98
45.2305	512.38
45.2450	535.05
45.2594	526.33
45.2739	529.66
45.2883	520.12
45.3028	515.71
45.3172	509.31
45.3316	471.97
45.3461	490.44
45.3605	512.71
45.3750	533.61
45.3894	526.37
45.4038	503.61
45.4183	524.88
45.4327	528.12
45.4472	498.39
45.4616	519.79
45.4760	513.41
45.4905	507.69
45.5049	522.14
45.5194	531.63
45.5338	485.65
45.5482	483.07
45.5627	525.99
45.5771	498.03
45.5916	483.46
45.6060	484.92
45.6204	480.07
45.6349	519.95
45.6493	504.91
45.6638	487.80
45.6782	486.36
45.6926	483.03
45.7071	524.48
45.7215	500.87
45.7360	503.52
45.7504	515.67
45.7648	502.94
45.7793	522.71
45.7937	521.03
45.8082	480.23
45.8226	525.94
45.8370	524.52
45.8515	542.70
45.8659	540.34
45.8804	534.75
45.8948	471.51
45.9092	529.54
45.9237	510.41
45.9381	476.70
45.9526	505.32
45.9670	503.96
45.9814	500.47
45.9959	494.19
46.0103	474.78
46.0248	491.97
46.0392	501.62
46.0536	492.54
46.0681	513.16
46.0825	489.55
46.0970	497.96
46.1114	494.70
46.1258	512.05
46.1403	524.93
46.1547	480.07
46.1692	529.49
46.1836	507.04
46.1980	485.61
46.2125	459.53
46.2269	509.41
46.2414	503.37
46.2558	489.81
46.2702	497.76
46.2847	495.59
46.2991	490.82
46.3136	500.53
46.3280	515.72
46.3424	475.91
46.3569	507.31
46.3713	514.07
46.3858	503.91
46.4002	487.06
46.4146	480.35
46.4291	534.85
46.4435	491.41
46.4580	498.96
46.4724	504.31
46.4868	505.61
46.5013	493.25
46.5157	510.72
46.5302	516.00
46.5446	513.53
46.5590	536.62
46.5735	504.13
46.5879	507.48
46.6024	489.08
46.6168	520.79
46.6312	502.21
46.6457	493.92
46.6601	467.75
46.6746	463.87
46.6890	464.85
46.7034	471.42
46.7179	504.14
46.7323	518.96
46.7468	518.08
46.7612	496.95
46.7756	525.25
46.7901	521.33
46.8045	502.77
46.8190	522.39
46.8334	514.97
46.8478	504.65
46.8623	495.56
46.8767	490.97
46.8912	501.86
46.9056	532.29
46.9200	490.86
46.9345	488.35
46.9489	495.40
46.9634	488.97
46.9778	510.61
46.9922	514.01
47.0067	513.75
47.0211	510.39
47.0356	514.79
47.0500	515.71
47.0644	519.76
47.0789	526.95
47.0933	548.19
47.1078	502.93
47.1222	517.27
47.1366	517.34
47.1511	513.55
47.1655	521.46
47.1800	504.33
47.1944	497.09
47.2088	494.96
47.2233	522.20
47.2377	476.01
47.2522	479.55
47.2666	518.11
47.2810	527.68
47.2955	498.38
47.3099	514.84
47.3244	489.39
47.3388	493.26
47.3532	516.60
47.3677	520.97
47.3821	528.46
47.3966	511.01
47.4110	499.40
47.4254	498.64
47.4399	517.35
47.4543	514.80
47.4688	530.22
47.4832	507.97
47.4976	492.69
47.5121	522.68
47.5265	520.94
47.5410	519.97
47.5554	530.77
47.5698	527.70
47.5843	515.16
47.5987	520.78
47.6132	482.26
47.6276	501.54
47.6420	547.64
47.6565	495.27
47.6709	499.59
47.6854	505.51
47.6998	524.70
47.7142	510.83
47.7287	491.53
47.7431	478.83
47.7576	484.73
47.7720	477.41
47.7864	514.07
47.8009	509.02
47.8153	519.35
47.8298	487.89
47.8442	479.93
47.8586	541.91
47.8731	477.15
47.8875	480.49
47.9020	563.93
47.9164	496.82
47.9308	509.97
47.9453	525.62
47.9597	489.36
47.9742	491.77
47.9886	540.11
48.0030	542.93
48.0175	536.01
48.0319	526.21
48.0464	507.57
48.0608	490.29
48.0752	504.33
48.0897	505.67
48.1041	506.70
48.1186	546.99
48.1330	519.30
48.1474	477.22
48.1619	503.64
48.1763	501.71
48.1908	510.03
48.2052	475.90
48.2196	538.23
48.2341	479.90
48.2485	494.93
48.2630	488.97
48.2774	538.04
48.2918	504.94
48.3063	471.92
48.3207	504.95
48.3352	523.60
48.3496	497.79
48.3640	506.90
48.3785	518.42
48.3929	519.82
48.4074	477.27
48.4218	503.40
48.4362	536.68
48.4507	538.70
48.4651	515.83
48.4796	547.83
48.4940	502.05
48.5084	510.05
48.5229	536.62
48.5373	519.24
48.5518	516.10
48.5662	510.54
48.5806	527.99
48.5951	540.83
48.6095	532.08
48.6240	528.47
48.6384	532.70
48.6528	496.51
48.6673	507.33
48.6817	511.10
48.6962	555.66
48.7106	526.98
48.7250	536.15
48.7395	543.72
48.7539	528.40
48.7684	512.45
48.7828	547.98
48.7972	557.60
48.8117	501.58
48.8261	537.26
48.8406	529.58
48.8550	514.24
48.8694	554.06
48.8839	553.38
48.8983	560.30
48.9128	547.01
48.9272	540.15
48.9416	596.30
48.9561	579.20
48.9705	511.14
48.9850	582.66
48.9994	546.36
49.0139	589.34
49.0283	590.41
49.0427	620.21
49.0572	603.81
49.0716	601.18
49.0861	653.26
49.1005	674.47
49.1149	680.90
49.1294	728.50
49.1438	734.89
49.1583	794.85
49.1727	824.20
49.1871	824.82
49.2016	931.01
49.2160	994.92
49.2305	1089.22
49.2449	1133.98
49.2593	1206.10
49.2738	1281.63
49.2882	1427.55
49.3027	1475.91
49.3171	1550.99
49.3315	1649.00
49.3460	1664.63
49.3604	1728.65
49.3749	1693.69
49.3893	1691.05
49.4037	1673.91
49.4182	1735.65
49.4326	1698.20
49.4471	1568.42
49.4615	1586.33
49.4759	1555.77
49.4904	1470.30
49.5048	1422.53
49.5193	1309.29
49.5337	1252.67
49.5481	1186.21
49.5626	1099.55
49.5770	1083.53
49.5915	998.54
49.6059	941.01
49.6203	884.19
49.6348	872.61
49.6492	778.51
49.6637	737.03
49.6781	695.52
49.6925	683.65
49.7070	703.07
49.7214	625.22
49.7359	626.92
49.7503	620.43
49.7647	602.82
49.7792	603.42
49.7936	617.95
49.8081	588.13
49.8225	598.36
49.8369	588.98
49.8514	569.24
49.8658	576.34
49.8803	567.85
49.8947	523.06
49.9091	532.61
49.9236	516.33
49.9380	571.82
49.9525	556.78
49.9669	535.72
49.9813	536.97
49.9958	505.39
50.0102	519.13
50.0247	519.73
50.0391	543.12
50.0535	512.81
50.0680	508.14
50.0824	530.20
50.0969	513.46
50.1113	510.94
50.1257	524.27
50.1402	560.18
50.1546	523.07
50.1691	524.06
50.1835	514.00
50.1979	510.42
50.2124	516.79
50.2268	508.98
50.2413	524.93
50.2557	502.53
50.2701	486.12
50.2846	511.98
50.2990	528.28
50.3135	512.39
50.3279	487.02
50.3423	501.09
50.3568	487.16
50.3712	517.77
50.3857	524.38
50.4001	511.84
50.4145	511.80
50.4290	518.24
50.4434	471.35
50.4579	500.07
50.4723	513.48
50.4867	544.05
50.5012	531.25
50.5156	514.31
50.5301	537.43
50.5445	535.29
50.5589	518.11
50.5734	509.96
50.5878	515.59
50.6023	528.41
50.6167	474.25
50.6311	530.41
50.6456	543.00
50.6600	485.74
50.6745	489.61
50.6889	506.75
50.7033	539.39
50.7178	511.97
50.7322	490.11
50.7467	487.71
50.7611	506.71
50.7755	521.85
50.7900	512.39
50.8044	501.86
50.8189	541.80
50.8333	521.69
50.8477	528.24
50.8622	507.62
50.8766	530.47
50.8911	510.77
50.9055	518.40
50.9199	478.50
50.9344	492.92
50.9488	524.21
50.9633	519.81
50.9777	489.67
50.9921	480.46
51.0066	509.01
51.0210	509.68
51.0355	523.00
51.0499	526.17
51.0643	523.54
51.0788	537.18
51.0932	513.46
51.1077	531.55
51.1221	525.18
51.1365	498.31
51.1510	463.42
51.1654	514.21
51.1799	496.32
51.1943	468.31
51.2087	497.66
51.2232	508.41
51.2376	474.76
51.2521	513.66
51.2665	507.98
51.2809	517.22
51.2954	535.38
51.3098	525.68
51.3243	519.21
51.3387	507.43
51.3531	512.27
51.3676	502.30
51.3820	519.09
51.3965	512.39
51.4109	506.96
51.4253	522.83
51.4398	535.62
51.4542	535.51
51.4687	517.67
51.4831	530.70
51.4975	537.89
51.5120	526.91
51.5264	517.69
51.5409	499.48
51.5553	487.99
51.5697	497.98
51.5842	496.24
51.5986	453.28
51.6131	474.03
51.6275	508.45
51.6419	502.27
51.6564	544.62
51.6708	535.31
51.6853	526.97
51.6997	508.12
51.7141	533.64
51.7286	510.85
51.7430	476.53
51.7575	496.94
51.7719	539.78
51.7863	522.68
51.8008	494.23
51.8152	526.91
51.8297	532.23
51.8441	536.76
51.8585	499.65
51.8730	518.49
51.8874	526.37
51.9019	546.10
51.9163	498.11
51.9307	523.13
51.9452	535.75
51.9596	474.68
51.9741	473.89
51.9885	537.15
52.0029	498.90
52.0174	516.54
52.0318	527.98
52.0463	498.46
52.0607	541.92
52.0751	491.54
52.0896	533.71
52.1040	520.20
52.1185	532.96
52.1329	533.67
52.1473	520.63
52.1618	517.01
52.1762	509.59
52.1907	493.22
52.2051	469.35
52.2195	489.78
52.2340	532.08
52.2484	536.30
52.2629	545.40
52.2773	537.86
52.2917	517.13
52.3062	507.59
52.3206	500.87
52.3351	559.67
52.3495	534.45
52.3639	537.58
52.3784	545.89
52.3928	522.56
52.4073	494.28
52.4217	507.20
52.4361	516.72
52.4506	506.18
52.4650	491.91
52.4795	502.35
52.4939	510.40
52.5083	517.46
52.5228	518.73
52.5372	524.49
52.5517	516.69
52.5661	537.09
52.5805	541.82
52.5950	474.77
52.6094	519.89
52.6239	507.50
52.6383	523.75
52.6527	499.96
52.6672	521.23
52.6816	487.94
52.6961	509.92
52.7105	509.37
52.7250	539.89
52.7394	471.39
52.7538	518.37
52.7683	486.35
52.7827	480.93
52.7972	514.03
52.8116	488.54
52.8260	518.11
52.8405	515.58
52.8549	518.07
52.8694	494.53
52.8838	505.68
52.8982	512.51
52.9127	529.02
52.9271	557.63
52.9416	475.14
52.9560	510.35
52.9704	518.67
52.9849	500.04
52.9993	519.23
53.0138	469.46
53.0282	531.69
53.0426	492.92
53.0571	531.84
53.0715	573.31
53.0860	532.40
53.1004	519.05
53.1148	534.37
53.1293	543.94
53.1437	525.15
53.1582	534.56
53.1726	538.63
53.1870	500.87
53.2015	493.04
53.2159	515.39
53.2304	459.29
53.2448	533.34
53.2592	523.45
53.2737	499.09
53.2881	516.38
53.3026	474.72
53.3170	524.58
53.3314	555.99
53.3459	505.08
53.3603	515.98
53.3748	495.90
53.3892	503.69
53.4036	515.11
53.4181	526.38
53.4325	526.93
53.4470	498.02
53.4614	510.34
53.4758	520.17
53.4903	550.05
53.5047	529.25
53.5192	500.40
53.5336	505.60
53.5480	500.61
53.5625	519.69
53.5769	518.64
53.5914	526.85
53.6058	550.38
53.6202	543.17
53.6347	548.11
53.6491	516.87
53.6636	508.05
53.6780	504.72
53.6924	506.91
53.7069	506.33
53.7213	513.90
53.7358	505.00
53.7502	522.95
53.7646	512.56
53.7791	515.70
53.7935	568.65
53.8080	553.26
53.8224	519.10
53.8368	544.54
53.8513	526.83
53.8657	531.66
53.8802	526.93
53.8946	543.23
53.9090	542.92
53.9235	508.79
53.9379	531.56
53.9524	516.63
53.9668	498.48
53.9812	495.78
53.9957	494.23
54.0101	519.53
54.0246	556.22
54.0390	541.36
54.0534	521.80
54.0679	544.62
54.0823	562.26
54.0968	512.10
54.1112	520.94
54.1256	506.56
54.1401	505.41
54.1545	532.60
54.1690	520.08
54.1834	501.92
54.1978	480.71
54.2123	520.79
54.2267	540.18
54.2412	543.97
54.2556	543.55
54.2700	546.69
54.2845	557.48
54.2989	560.74
54.3134	564.30
54.3278	558.39
54.3422	559.92
54.3567	590.31
54.3711	600.53
54.3856	614.33
54.4000	602.42
54.4144	592.10
54.4289	652.17
54.4433	611.56
54.4578	598.35
54.4722	650.14
54.4866	631.69
54.5011	600.63
54.5155	577.69
54.5300	584.60
54.5444	573.20
54.5588	581.06
54.5733	553.40
54.5877	535.22
54.6022	512.56
54.6166	542.26
54.6310	558.80
54.6455	542.58
54.6599	562.20
54.6744	542.38
54.6888	529.10
54.7032	571.52
54.7177	548.18
54.7321	532.39
54.7466	545.18
54.7610	528.88
54.7754	522.90
54.7899	497.68
54.8043	505.74
54.8188	527.82
54.8332	534.07
54.8476	494.73
54.8621	517.03
54.8765	512.28
54.8910	505.39
54.9054	501.16
54.9198	515.35
54.9343	539.97
54.9487	499.07
54.9632	500.93
54.9776	511.09
54.9920	493.70
55.0065	476.42
55.0209	526.45
55.0354	542.55
55.0498	530.92
55.0642	526.65
55.0787	537.12
55.0931	529.58
55.1076	549.51
55.1220	532.28
55.1364	505.07
55.1509	488.64
55.1653	554.66
55.1798	526.90
55.1942	516.74
55.2086	506.03
55.2231	497.47
55.2375	509.78
55.2520	533.89
55.2664	505.59
55.2808	504.90
55.2953	511.79
55.3097	546.08
55.3242	527.11
55.3386	514.38
55.3530	506.88
55.3675	520.23
55.3819	494.92
55.3964	506.02
55.4108	520.72
55.4252	532.19
55.4397	536.64
55.4541	505.71
55.4686	515.27
55.4830	516.15
55.4974	519.26
55.5119	523.62
55.5263	505.03
55.5408	499.27
55.5552	524.75
55.5696	526.27
55.5841	491.17
55.5985	488.08
55.6130	520.57
55.6274	538.37
55.6418	545.78
55.6563	488.23
55.6707	480.90
55.6852	494.42
55.6996	507.72
55.7140	545.30
55.7285	510.92
55.7429	502.92
55.7574	533.70
55.7718	511.33
55.7862	574.46
55.8007	543.74
55.8151	519.73
55.8296	533.70
55.8440	565.04
55.8584	577.85
55.8729	532.90
55.8873	499.78
55.9018	497.99
55.9162	519.35
55.9306	525.22
55.9451	537.54
55.9595	526.45
55.9740	541.25
55.9884	542.98
56.0028	538.62
56.0173	529.33
56.0317	521.94
56.0462	540.26
56.0606	481.57
56.0750	497.24
56.0895	561.53
56.1039	497.54
56.1184	521.06
56.1328	573.45
56.1472	492.15
56.1617	521.53
56.1761	524.95
56.1906	531.43
56.2050	508.37
56.2194	559.99
56.2339	512.85
56.2483	534.08
56.2628	493.51
56.2772	512.51
56.2916	536.61
56.3061	561.98
56.3205	505.95
56.3350	517.90
56.3494	531.74
56.3639	537.53
56.3783	527.51
56.3927	516.83
56.4072	520.96
56.4216	516.87
56.4361	530.87
56.4505	487.40
56.4649	511.97
56.4794	506.24
56.4938	519.43
56.5083	530.09
56.5227	532.67
56.5371	526.28
56.5516	533.87
56.5660	501.16
56.5805	508.66
56.5949	513.51
56.6093	538.46
56.6238	508.59
56.6382	545.72
56.6527	530.86
56.6671	539.39
56.6815	513.40
56.6960	544.18
56.7104	548.14
56.7249	519.55
56.7393	503.13
56.7537	507.14
56.7682	494.44
56.7826	524.17
56.7971	538.50
56.8115	555.83
56.8259	509.73
56.8404	521.74
56.8548	514.47
56.8693	509.97
56.8837	543.80
56.8981	547.73
56.9126	559.49
56.9270	553.06
56.9415	568.06
56.9559	504.30
56.9703	539.47
56.9848	537.30
56.9992	520.12
57.0137	520.93
57.0281	561.35
57.0425	488.21
57.0570	515.66
57.0714	561.17
57.0859	546.33
57.1003	513.38
57.1147	520.50
57.1292	529.08
57.1436	511.19
57.1581	539.68
57.1725	522.76
57.1869	503.02
57.2014	542.25
57.2158	537.63
57.2303	528.86
57.2447	526.85
57.2591	497.70
57.2736	537.47
57.2880	507.76
57.3025	509.91
57.3169	544.81
57.3313	524.52
57.3458	537.81
57.3602	552.98
57.3747	529.29
57.3891	513.78
57.4035	515.49
57.4180	520.55
57.4324	541.00
57.4469	482.57
57.4613	492.54
57.4757	541.81
57.4902	533.64
57.5046	503.09
57.5191	512.46
57.5335	541.00
57.5479	526.69
57.5624	531.80
57.5768	538.02
57.5913	556.02
57.6057	547.26
57.6201	510.59
57.6346	540.87
57.6490	519.69
57.6635	506.90
57.6779	543.32
57.6923	537.28
57.7068	545.96
57.7212	518.75
57.7357	564.45
57.7501	538.51
57.7645	507.77
57.7790	544.62
57.7934	555.55
57.8079	537.01
57.8223	540.61
57.8367	546.02
57.8512	567.39
57.8656	603.26
57.8801	605.10
57.8945	621.62
57.9089	615.05
57.9234	592.82
57.9378	619.22
57.9523	632.05
57.9667	627.00
57.9811	632.52
57.9956	674.36
58.0100	680.20
58.0245	709.31
58.0389	692.09
58.0533	676.20
58.0678	694.24
58.0822	711.68
58.0967	670.23
58.1111	703.97
58.1255	682.84
58.1400	648.88
58.1544	642.83
58.1689	687.75
58.1833	663.41
58.1977	628.83
58.2122	657.39
58.2266	643.68
58.2411	630.53
58.2555	653.56
58.2699	589.53
58.2844	621.14
58.2988	613.36
58.3133	591.83
58.3277	581.36
58.3421	551.64
58.3566	559.87
58.3710	553.21
58.3855	539.73
58.3999	544.83
58.4143	564.24
58.4288	570.21
58.4432	544.24
58.4577	538.66
58.4721	550.16
58.4865	587.49
58.5010	541.55
58.5154	576.55
58.5299	548.86
58.5443	548.03
58.5587	546.53
58.5732	552.92
58.5876	582.44
58.6021	570.93
58.6165	546.18
58.6309	521.39
58.6454	553.60
58.6598	548.59
58.6743	536.45
58.6887	516.90
58.7031	542.13
58.7176	532.91
58.7320	519.16
58.7465	514.08
58.7609	544.48
58.7753	527.45
58.7898	552.32
58.8042	513.89
58.8187	538.41
58.8331	531.69
58.8475	504.36
58.8620	538.33
58.8764	557.28
58.8909	512.58
58.9053	525.90
58.9197	532.62
58.9342	549.86
58.9486	543.35
58.9631	539.57
58.9775	567.50
58.9919	539.25
59.0064	533.19
59.0208	526.99
59.0353	546.02
59.0497	543.88
59.0641	545.65
59.0786	524.64
59.0930	538.07
59.1075	528.05
59.1219	556.02
59.1363	553.01
59.1508	528.01
59.1652	530.82
59.1797	509.45
59.1941	525.76
59.2085	527.04
59.2230	534.26
59.2374	547.59
59.2519	554.40
59.2663	541.32
59.2807	566.90
59.2952	571.53
59.3096	539.22
59.3241	544.19
59.3385	569.12
59.3529	544.28
59.3674	527.37
59.3818	594.29
59.3963	573.57
59.4107	556.50
59.4251	587.20
59.4396	527.25
59.4540	525.28
59.4685	542.07
59.4829	573.51
59.4973	554.46
59.5118	581.38
59.5262	548.30
59.5407	553.05
59.5551	555.11
59.5695	546.17
59.5840	554.93
59.5984	537.31
59.6129	508.63
59.6273	562.12
59.6417	561.86
59.6562	540.62
59.6706	592.60
59.6851	554.17
59.6995	521.33
59.7139	578.64
59.7284	550.10
59.7428	551.83
59.7573	557.00
59.7717	539.24
59.7861	550.21
59.8006	517.34
59.8150	546.38
59.8295	548.70
59.8439	516.97
59.8583	521.12
59.8728	555.35
59.8872	535.31
59.9017	565.73
59.9161	542.71
59.9305	533.25
59.9450	542.22
59.9594	513.29
59.9739	489.18
59.9883	528.97
60.0027	551.06
60.0172	613.02
60.0316	578.58
60.0461	529.48
60.0605	532.32
60.0750	518.96
60.0894	564.87
60.1038	532.04
60.1183	546.34
60.1327	558.99
60.1472	521.17
60.1616	539.62
60.1760	523.40
60.1905	516.01
60.2049	537.36
60.2194	528.31
60.2338	532.49
60.2482	549.68
60.2627	529.70
60.2771	534.96
60.2916	547.21
60.3060	554.44
60.3204	528.52
60.3349	577.36
60.3493	519.89
60.3638	504.79
60.3782	528.58
60.3926	546.84
60.4071	554.93
60.4215	548.81
60.4360	541.23
60.4504	507.65
60.4648	549.32
60.4793	588.82
60.4937	541.53
60.5082	498.14
60.5226	519.92
60.5370	525.93
60.5515	557.27
60.5659	524.47
60.5804	536.34
60.5948	544.10
60.6092	511.83
60.6237	532.87
60.6381	561.77
60.6526	545.24
60.6670	552.25
60.6814	518.66
60.6959	513.23
60.7103	531.77
60.7248	537.26
60.7392	523.62
60.7536	568.47
60.7681	565.09
60.7825	544.42
60.7970	535.29
60.8114	526.12
60.8258	576.30
60.8403	550.00
60.8547	530.68
60.8692	576.81
60.8836	563.77
60.8980	558.18
60.9125	533.52
60.9269	563.53
60.9414	560.77
60.9558	566.78
60.9702	548.18
60.9847	543.31
60.9991	499.79
61.0136	535.21
61.0280	518.50
61.0424	562.57
61.0569	563.81
61.0713	549.48
61.0858	522.56
61.1002	525.01
61.1146	536.90
61.1291	527.01
61.1435	531.89
61.1580	525.73
61.1724	550.75
61.1868	551.36
61.2013	567.51
61.2157	570.45
61.2302	528.18
61.2446	547.78
61.2590	534.79
61.2735	524.45
61.2879	556.98
61.3024	552.20
61.3168	555.09
61.3312	548.78
61.3457	533.89
61.3601	534.77
61.3746	531.20
61.3890	527.07
61.4034	554.45
61.4179	541.94
61.4323	555.27
61.4468	527.47
61.4612	508.79
61.4756	542.37
61.4901	551.52
61.5045	545.89
61.5190	557.02
61.5334	550.02
61.5478	570.63
61.5623	529.70
61.5767	524.15
61.5912	520.36
61.6056	556.83
61.6200	567.04
61.6345	549.21
61.6489	522.41
61.6634	574.07
61.6778	535.42
61.6922	512.40
61.7067	586.05
61.7211	554.26
61.7356	520.28
61.7500	579.00
61.7644	589.96
61.7789	585.86
61.7933	531.39
61.8078	525.35
61.8222	532.58
61.8366	539.25
61.8511	545.74
61.8655	566.78
61.8800	552.89
61.8944	563.66
61.9088	566.20
61.9233	543.13
61.9377	530.56
61.9522	486.30
61.9666	511.35
61.9810	540.21
61.9955	501.43
62.0099	554.22
62.0244	559.77
62.0388	526.46
62.0532	539.12
62.0677	567.00
62.0821	566.71
62.0966	571.44
62.1110	550.06
62.1254	562.02
62.1399	551.30
62.1543	537.41
62.1688	552.34
62.1832	567.53
62.1976	565.06
62.2121	544.90
62.2265	527.87
62.2410	565.45
62.2554	551.26
62.2698	537.86
62.2843	562.70
62.2987	565.89
62.3132	576.82
62.3276	553.02
62.3420	555.12
62.3565	529.69
62.3709	535.32
62.3854	557.03
62.3998	533.74
62.4142	540.20
62.4287	584.26
62.4431	593.51
62.4576	578.94
62.4720	578.93
62.4864	555.43
62.5009	542.59
62.5153	574.34
62.5298	550.40
62.5442	567.17
62.5586	564.16
62.5731	539.81
62.5875	559.04
62.6020	572.43
62.6164	581.39
62.6308	556.40
62.6453	564.56
62.6597	571.20
62.6742	548.51
62.6886	559.96
62.7030	559.26
62.7175	550.70
62.7319	533.16
62.7464	572.69
62.7608	554.38
62.7752	567.91
62.7897	557.73
62.8041	571.45
62.8186	599.58
62.8330	544.30
62.8474	517.81
62.8619	560.14
62.8763	592.74
62.8908	534.46
62.9052	579.22
62.9196	556.99
62.9341	555.59
62.9485	566.17
62.9630	579.44
62.9774	581.90
62.9918	561.51
63.0063	555.72
63.0207	576.47
63.0352	580.74
63.0496	564.63
63.0640	601.58
63.0785	592.99
63.0929	580.77
63.1074	535.77
63.1218	567.35
63.1362	593.19
63.1507	575.82
63.1651	594.23
63.1796	560.61
63.1940	554.32
63.2084	556.14
63.2229	552.46
63.2373	572.70
63.2518	566.59
63.2662	552.39
63.2806	582.33
63.2951	565.38
63.3095	602.75
63.3240	596.40
63.3384	578.46
63.3528	559.82
63.3673	578.66
63.3817	578.93
63.3962	570.70
63.4106	529.26
63.4250	592.27
63.4395	579.04
63.4539	599.48
63.4684	599.46
63.4828	617.37
63.4972	597.78
63.5117	601.52
63.5261	612.96
63.5406	607.49
63.5550	631.26
63.5694	649.86
63.5839	645.23
63.5983	652.60
63.6128	692.72
63.6272	716.81
63.6416	716.72
63.6561	754.55
63.6705	783.95
63.6850	886.78
63.6994	913.71
63.7138	886.14
63.7283	911.29
63.7427	900.25
63.7572	856.35
63.7716	865.22
63.7861	827.60
63.8005	816.06
63.8149	849.92
63.8294	840.02
63.8438	801.00
63.8583	807.83
63.8727	725.87
63.8871	728.16
63.9016	742.04
63.9160	800.61
63.9305	790.66
63.9449	705.82
63.9593	704.00
63.9738	699.70
63.9882	705.18
64.0027	719.91
64.0171	704.02
64.0315	705.84
64.0460	690.07
64.0604	651.39
64.0749	620.01
64.0893	661.26
64.1037	596.06
64.1182	630.22
64.1326	693.43
64.1471	613.92
64.1615	639.60
64.1759	650.21
64.1904	586.64
64.2048	601.26
64.2193	656.02
64.2337	584.50
64.2481	584.72
64.2626	598.98
64.2770	611.89
64.2915	627.71
64.3059	631.25
64.3203	627.23
64.3348	614.76
64.3492	627.80
64.3637	595.94
64.3781	585.95
64.3925	606.02
64.4070	596.69
64.4214	617.62
64.4359	643.98
64.4503	638.67
64.4647	656.99
64.4792	659.07
64.4936	648.15
64.5081	616.89
64.5225	640.75
64.5369	651.14
64.5514	620.31
64.5658	587.25
64.5803	594.97
64.5947	609.64
64.6091	617.43
64.6236	635.90
64.6380	630.20
64.6525	640.68
64.6669	670.87
64.6813	674.69
64.6958	674.93
64.7102	716.24
64.7247	682.90
64.7391	658.05
64.7535	691.53
64.7680	710.36
64.7824	705.60
64.7969	738.64
64.8113	780.94
64.8257	743.96
64.8402	766.60
64.8546	835.16
64.8691	856.53
64.8835	802.75
64.8979	834.94
64.9124	889.88
64.9268	887.74
64.9413	918.79
64.9557	911.49
64.9701	1003.61
64.9846	1099.13
64.9990	1100.73
65.0135	1248.58
65.0279	1461.97
65.0423	1738.76
65.0568	2036.96
65.0712	2654.99
65.0857	3439.90
65.1001	4511.41
65.1145	6108.18
65.1290	7946.75
65.1434	9591.67
65.1579	11158.88
65.1723	11656.73
65.1867	11306.19
65.2012	10196.86
65.2156	8337.35
65.2301	6710.06
65.2445	5489.20
65.2589	4540.64
65.2734	4173.88
65.2878	4365.46
65.3023	4974.77
65.3167	5810.09
65.3311	6530.85
65.3456	7098.53
65.3600	6913.53
65.3745	6505.34
65.3889	5596.79
65.4033	4403.20
65.4178	3450.62
65.4322	2786.81
65.4467	2137.36
65.4611	1751.27
65.4755	1444.27
65.4900	1302.53
65.5044	1094.37
65.5189	1054.67
65.5333	1021.73
65.5477	955.83
65.5622	914.93
65.5766	845.17
65.5911	819.47
65.6055	805.29
65.6199	760.36
65.6344	751.57
65.6488	774.41
65.6633	739.88
65.6777	708.36
65.6921	684.86
65.7066	744.11
65.7210	728.55
65.7355	692.45
65.7499	706.85
65.7643	671.07
65.7788	651.80
65.7932	676.09
65.8077	687.27
65.8221	615.42
65.8365	650.31
65.8510	681.65
65.8654	680.78
65.8799	640.94
65.8943	632.56
65.9087	659.44
65.9232	631.14
65.9376	655.12
65.9521	625.29
65.9665	602.78
65.9809	631.02
65.9954	638.22
66.0098	620.01
66.0243	620.22
66.0387	614.48
66.0531	616.87
66.0676	625.07
66.0820	625.11
66.0965	613.36
66.1109	611.52
66.1253	642.33
66.1398	604.81
66.1542	595.33
66.1687	622.62
66.1831	592.26
66.1975	590.48
66.2120	597.08
66.2264	576.22
66.2409	587.40
66.2553	611.25
66.2697	584.95
66.2842	597.65
66.2986	612.84
66.3131	599.33
66.3275	611.82
66.3419	609.74
66.3564	592.82
66.3708	613.92
66.3853	604.67
66.3997	603.80
66.4141	606.11
66.4286	593.84
66.4430	609.14
66.4575	605.58
66.4719	589.01
66.4863	591.62
66.5008	585.26
66.5152	606.34
66.5297	580.72
66.5441	596.83
66.5585	573.23
66.5730	570.68
66.5874	573.16
66.6019	607.89
66.6163	613.94
66.6307	606.30
66.6452	616.40
66.6596	586.14
66.6741	557.43
66.6885	545.97
66.7029	593.45
66.7174	576.69
66.7318	576.46
66.7463	596.50
66.7607	598.38
66.7751	564.58
66.7896	586.81
66.8040	633.08
66.8185	597.67
66.8329	572.41
66.8473	581.69
66.8618	579.87
66.8762	602.66
66.8907	596.76
66.9051	608.07
66.9195	596.91
66.9340	606.42
66.9484	620.93
66.9629	542.99
66.9773	591.61
66.9917	585.56
67.0062	568.55
67.0206	601.58
67.0351	610.96
67.0495	549.47
67.0639	582.59
67.0784	608.77
67.0928	612.16
67.1073	607.90
67.1217	619.02
67.1361	584.71
67.1506	560.39
67.1650	577.42
67.1795	571.37
67.1939	594.12
67.2083	590.39
67.2228	586.87
67.2372	574.64
67.2517	554.77
67.2661	529.35
67.2805	577.77
67.2950	572.06
67.3094	558.25
67.3239	576.83
67.3383	596.96
67.3527	573.26
67.3672	562.37
67.3816	590.38
67.3961	567.74
67.4105	578.10
67.4250	603.23
67.4394	588.95
67.4538	575.06
67.4683	583.06
67.4827	606.01
67.4972	594.71
67.5116	566.65
67.5260	523.29
67.5405	565.12
67.5549	600.36
67.5694	588.52
67.5838	572.30
67.5982	576.02
67.6127	580.77
67.6271	573.78
67.6416	589.66
67.6560	562.66
67.6704	555.71
67.6849	552.64
67.6993	563.26
67.7138	589.92
67.7282	585.05
67.7426	553.83
67.7571	557.66
67.7715	540.47
67.7860	590.29
67.8004	613.57
67.8148	554.76
67.8293	555.94
67.8437	584.23
67.8582	581.76
67.8726	582.03
67.8870	589.63
67.9015	640.02
67.9159	586.49
67.9304	588.81
67.9448	583.53
67.9592	595.52
67.9737	581.37
67.9881	585.03
68.0026	588.69
68.0170	581.09
68.0314	598.41
68.0459	565.44
68.0603	596.62
68.0748	595.50
68.0892	612.83
68.1036	602.05
68.1181	591.76
68.1325	590.52
68.1470	601.06
68.1614	608.86
68.1758	605.34
68.1903	549.23
68.2047	579.96
68.2192	581.81
68.2336	588.03
68.2480	597.15
68.2625	596.84
68.2769	564.57
68.2914	579.31
68.3058	583.99
68.3202	605.68
68.3347	575.39
68.3491	575.00
68.3636	600.87
68.3780	604.68
68.3924	568.44
68.4069	566.60
68.4213	597.31
68.4358	605.16
68.4502	552.55
68.4646	570.00
68.4791	594.69
68.4935	564.80
68.5080	553.17
68.5224	559.99
68.5368	583.71
68.5513	577.88
68.5657	560.72
68.5802	594.82
68.5946	591.94
68.6090	573.73
68.6235	608.35
68.6379	597.67
68.6524	581.55
68.6668	553.63
68.6812	596.97
68.6957	594.10
68.7101	585.14
68.7246	604.96
68.7390	627.49
68.7534	576.08
68.7679	619.95
68.7823	597.96
68.7968	580.90
68.8112	556.94
68.8256	527.31
68.8401	595.48
68.8545	620.52
68.8690	538.58
68.8834	556.72
68.8978	592.08
68.9123	565.46
68.9267	591.48
68.9412	579.62
68.9556	518.72
68.9700	575.53
68.9845	599.61
68.9989	594.69
69.0134	563.97
69.0278	586.95
69.0422	591.61
69.0567	591.88
69.0711	585.71
69.0856	585.18
69.1000	593.08
69.1144	571.94
69.1289	566.13
69.1433	547.24
69.1578	557.68
69.1722	583.14
69.1866	530.70
69.2011	553.73
69.2155	572.31
69.2300	597.53
69.2444	566.28
69.2588	559.77
69.2733	568.82
69.2877	581.98
69.3022	572.88
69.3166	541.98
69.3310	598.99
69.3455	619.48
69.3599	599.91
69.3744	545.89
69.3888	581.71
69.4032	616.41
69.4177	574.34
69.4321	595.17
69.4466	563.75
69.4610	588.17
69.4754	587.15
69.4899	593.73
69.5043	584.91
69.5188	546.11
69.5332	556.83
69.5476	549.93
69.5621	573.06
69.5765	526.28
69.5910	549.21
69.6054	566.15
69.6198	575.40
69.6343	625.43
69.6487	634.45
69.6632	622.51
69.6776	592.45
69.6920	561.29
69.7065	594.56
69.7209	600.35
69.7354	527.80
69.7498	570.04
69.7642	610.09
69.7787	537.02
69.7931	552.79
69.8076	496.25
69.8220	597.08
69.8364	637.89
69.8509	602.87
69.8653	578.10
69.8798	574.02
69.8942	586.35
69.9086	610.99
69.9231	564.51
69.9375	597.33
69.9520	581.90
69.9664	628.67
69.9808	597.38
69.9953	593.29
70.0097	562.76
70.0242	546.60
70.0386	604.67
70.0530	595.75
70.0675	576.36
70.0819	589.22
70.0964	668.90
70.1108	563.44
70.1252	541.90
70.1397	569.59
70.1541	562.06
70.1686	520.49
70.1830	533.56
70.1974	594.06
70.2119	581.02
70.2263	560.82
70.2408	555.89
70.2552	562.92
70.2696	596.87
70.2841	572.53
70.2985	572.53
70.3130	560.71
70.3274	610.76
70.3418	626.48
70.3563	600.40
70.3707	545.11
70.3852	588.11
70.3996	603.64
70.4140	575.18
70.4285	596.22
70.4429	648.07
70.4574	633.21
70.4718	594.90
70.4862	595.48
70.5007	534.18
70.5151	550.58
70.5296	603.79
70.5440	576.44
70.5584	544.73
70.5729	583.46
70.5873	565.04
70.6018	548.44
70.6162	564.40
70.6306	577.57
70.6451	578.54
70.6595	585.24
70.6740	583.57
70.6884	573.38
70.7028	588.72
70.7173	620.67
70.7317	605.65
70.7462	567.58
70.7606	613.44
70.7750	572.02
70.7895	598.80
70.8039	595.24
70.8184	594.76
70.8328	598.79
70.8472	579.70
70.8617	587.24
70.8761	609.70
70.8906	604.96
70.9050	604.04
70.9194	563.90
70.9339	605.21
70.9483	630.42
70.9628	601.81
70.9772	596.48
70.9916	646.52
71.0061	663.05
71.0205	627.30
71.0350	616.15
71.0494	614.85
71.0638	582.64
71.0783	574.65
71.0927	620.92
71.1072	604.65
71.1216	560.22
71.1361	598.70
71.1505	621.17
71.1649	613.60
71.1794	546.39
71.1938	550.78
71.2083	593.93
71.2227	552.88
71.2371	575.17
71.2516	585.57
71.2660	599.16
71.2805	578.31
71.2949	605.31
71.3093	574.81
71.3238	612.45
71.3382	627.42
71.3527	601.39
71.3671	561.04
71.3815	637.88
71.3960	637.35
71.4104	570.10
71.4249	586.86
71.4393	563.36
71.4537	540.13
71.4682	588.83
71.4826	614.39
71.4971	624.01
71.5115	601.49
71.5259	572.27
71.5404	552.89
71.5548	538.37
71.5693	607.82
71.5837	565.88
71.5981	543.58
71.6126	559.50
71.6270	566.10
71.6415	567.60
71.6559	555.37
71.6703	543.18
71.6848	550.48
71.6992	606.15
71.7137	596.48
71.7281	581.40
71.7425	567.89
71.7570	523.79
71.7714	581.55
71.7859	590.75
71.8003	570.49
71.8147	578.89
71.8292	603.94
71.8436	583.70
71.8581	565.66
71.8725	575.44
71.8869	563.90
71.9014	600.91
71.9158	616.84
71.9303	631.30
71.9447	612.33
71.9591	607.65
71.9736	646.30
71.9880	563.54
72.0025	572.66
72.0169	605.50
72.0313	589.89
72.0458	601.30
72.0602	628.44
72.0747	599.30
72.0891	560.96
72.1035	600.30
72.1180	622.00
72.1324	603.24
72.1469	530.99
72.1613	517.07
72.1757	601.44
72.1902	571.64
72.2046	539.64
72.2191	517.57
72.2335	529.98
72.2479	615.80
72.2624	627.83
72.2768	582.98
72.2913	545.74
72.3057	600.23
72.3201	584.78
72.3346	566.69
72.3490	618.75
72.3635	581.48
72.3779	617.71
72.3923	590.43
72.4068	581.69
72.4212	651.44
72.4357	662.14
72.4501	636.00
72.4645	627.91
72.4790	576.52
72.4934	525.90
72.5079	562.74
72.5223	542.10
72.5367	535.84
72.5512	583.67
72.5656	550.13
72.5801	555.13
72.5945	505.90
72.6089	523.87
72.6234	617.14
72.6378	652.92
72.6523	575.65
72.6667	585.30
72.6811	600.30
72.6956	507.69
72.7100	517.06
72.7245	514.88
72.7389	577.25
72.7533	570.60
72.7678	583.18
72.7822	567.88
72.7967	592.08
72.8111	634.32
72.8255	593.62
72.8400	582.75
72.8544	566.17
72.8689	570.16
72.8833	593.34

Result vector
22.1120	471.91
22.1264	493.40
22.1409	528.97
22.1553	596.93
22.1697	617.24
22.1842	619.99
22.1986	554.02
22.2131	533.30
22.2275	593.88
22.2419	584.28
22.2564	578.59
22.2708	642.52
22.2853	576.63
22.2997	557.78
22.3141	548.40
22.3286	662.03
22.3430	573.95
22.3575	594.28
22.3719	607.66
22.3863	558.93
22.4008	523.02
22.4152	646.42
22.4297	665.95
22.4441	607.68
22.4585	600.39
22.4730	630.70
22.4874	624.90
22.5019	660.99
22.5163	634.94
22.5307	608.07
22.5452	605.37
22.5596	580.70
22.5741	530.71
22.5885	622.93
22.6029	601.70
22.6174	513.32
22.6318	581.49
22.6463	546.89
22.6607	556.78
22.6751	493.33
22.6896	507.58
22.7040	519.31
22.7185	527.17
22.7329	518.59
22.7473	596.43
22.7618	582.50
22.7762	587.60
22.7907	553.84
22.8051	598.22
22.8195	596.30
22.8340	565.42
22.8484	607.77
22.8629	533.56
22.8773	575.05
22.8917	550.63
22.9062	560.72
22.9206	619.77
22.9351	506.12
22.9495	513.02
22.9639	576.67
22.9784	549.16
22.9928	559.25
23.0073	562.19
23.0217	570.41
23.0361	605.43
23.0506	571.57
23.0650	500.57
23.0795	500.93
23.0939	538.70
23.1083	532.84
23.1228	611.06
23.1372	527.86
23.1517	519.59
23.1661	547.72
23.1806	621.39
23.1950	550.46
23.2094	557.63
23.2239	585.15
23.2383	607.09
23.2528	531.64
23.2672	529.58
23.2816	576.33
23.2961	644.42
23.3105	628.27
23.3250	648.78
23.3394	613.72
23.3538	640.97
23.3683	629.62
23.3827	596.79
23.3972	556.05
23.4116	553.48
23.4260	569.81
23.4405	571.77
23.4549	551.04
23.4694	617.29
23.4838	549.44
23.4982	540.68
23.5127	548.56
23.5271	546.80
23.5416	446.76
23.5560	572.16
23.5704	581.54
23.5849	614.03
23.5993	576.94
23.6138	526.37
23.6282	462.53
23.6426	541.37
23.6571	548.14
23.6715	484.63
23.6860	494.19
23.7004	559.61
23.7148	549.66
23.7293	597.12
23.7437	519.62
23.7582	545.54
23.7726	641.78
23.7870	565.93
23.8015	549.23
23.8159	543.85
23.8304	521.98
23.8448	605.51
23.8592	596.92
23.8737	572.69
23.8881	631.37
23.9026	534.31
23.9170	532.21
23.9314	620.97
23.9459	609.83
23.9603	491.09
23.9748	587.55
23.9892	585.83
24.0036	534.12
24.0181	597.60
24.0325	598.70
24.0470	597.95
24.0614	626.03
24.0758	565.38
24.0903	585.69
24.1047	528.84
24.1192	592.34
24.1336	582.27
24.1480	563.48
24.1625	581.91
24.1769	561.04
24.1914	572.07
24.2058	549.58
24.2202	586.91
24.2347	568.55
24.2491	626.29
24.2636	616.41
24.2780	597.58
24.2924	626.23
24.3069	564.67
24.3213	631.43
24.3358	587.03
24.3502	539.95
24.3646	548.99
24.3791	542.20
24.3935	568.28
24.4080	568.46
24.4224	560.14
24.4368	512.91
24.4513	532.41
24.4657	573.11
24.4802	568.36
24.4946	559.18
24.5090	515.40
24.5235	528.21
24.5379	548.04
24.5524	608.72
24.5668	570.45
24.5812	613.34
24.5957	534.94
24.6101	538.04
24.6246	550.88
24.6390	509.17
24.6534	583.11
24.6679	557.29
24.6823	539.42
24.6968	512.41
24.7112	531.79
24.7256	535.85
24.7401	546.10
24.7545	513.68
24.7690	516.43
24.7834	554.78
24.7978	528.52
24.8123	564.93
24.8267	550.25
24.8412	560.83
24.8556	585.24
24.8700	490.52
24.8845	551.75
24.8989	562.29
24.9134	551.24
24.9278	556.43
24.9422	567.72
24.9567	476.89
24.9711	507.95
24.9856	536.64
25.0000	554.67
25.0144	536.77
25.0289	569.38
25.0433	583.02
25.0578	566.24
25.0722	537.36
25.0866	577.95
25.1011	547.72
25.1155	557.84
25.1300	591.05
25.1444	535.07
25.1588	529.49
25.1733	516.90
25.1877	539.65
25.2022	537.66
25.2166	576.03
25.2310	559.92
25.2455	538.12
25.2599	521.94
25.2744	516.40
25.2888	521.92
25.3032	529.70
25.3177	564.02
25.3321	551.58
25.3466	538.35
25.3610	524.72
25.3754	521.07
25.3899	516.15
25.4043	525.68
25.4188	527.67
25.4332	523.08
25.4476	541.94
25.4621	516.31
25.4765	537.56
25.4910	533.65
25.5054	537.67
25.5198	519.65
25.5343	565.05
25.5487	581.89
25.5632	547.69
25.5776	555.97
25.5920	560.97
25.6065	542.48
25.6209	582.98
25.6354	560.30
25.6498	548.78
25.6642	538.90
25.6787	575.68
25.6931	584.64
25.7076	581.25
25.7220	566.28
25.7364	511.21
25.7509	516.60
25.7653	497.43
25.7798	513.12
25.7942	566.28
25.8086	514.84
25.8231	574.24
25.8375	521.31
25.8520	553.75
25.8664	572.04
25.8808	565.88
25.8953	559.98
25.9097	564.52
25.9242	560.58
25.9386	571.70
25.9530	566.20
25.9675	516.07
25.9819	550.29
25.9964	543.90
26.0108	551.51
26.0252	542.27
26.0397	545.32
26.0541	535.29
26.0686	517.67
26.0830	513.24
26.0974	525.35
26.1119	544.78
26.1263	525.56
26.1408	502.14
26.1552	522.09
26.1696	511.60
26.1841	521.11
26.1985	554.91
26.2130	568.40
26.2274	554.46
26.2418	550.58
26.2563	532.49
26.2707	553.62
26.2852	518.67
26.2996	499.15
26.3140	538.39
26.3285	566.73
26.3429	532.91
26.3574	539.51
26.3718	554.72
26.3862	495.99
26.4007	491.69
26.4151	517.67
26.4296	549.24
26.4440	525.58
26.4584	503.65
26.4729	527.34
26.4873	527.46
26.5018	533.28
26.5162	516.88
26.5306	535.54
26.5451	554.28
26.5595	559.56
26.5740	548.98
26.5884	540.62
26.6028	578.73
26.6173	557.24
26.6317	529.49
26.6462	523.48
26.6606	541.79
26.6750	499.13
26.6895	513.69
26.7039	565.57
26.7184	520.92
26.7328	496.92
26.7472	547.02
26.7617	552.82
26.7761	502.15
26.7906	493.15
26.8050	501.99
26.8194	528.25
26.8339	545.13
26.8483	543.67
26.8628	561.98
26.8772	541.05
26.8917	533.22
26.9061	533.27
26.9205	525.52
26.9350	529.51
26.9494	543.29
26.9639	550.87
26.9783	505.95
26.9927	495.63
27.0072	503.06
27.0216	519.02
27.0361	512.51
27.0505	521.05
27.0649	505.93
27.0794	507.41
27.0938	522.73
27.1083	526.58
27.1227	492.60
27.1371	509.99
27.1516	507.01
27.1660	519.82
27.1805	528.77
27.1949	493.10
27.2093	503.27
27.2238	495.78
27.2382	483.28
27.2527	514.06
27.2671	536.94
27.2815	542.50
27.2960	510.40
27.3104	537.60
27.3249	509.64
27.3393	517.37
27.3537	505.53
27.3682	517.34
27.3826	526.68
27.3971	522.93
27.4115	506.31
27.4259	528.20
27.4404	522.97
27.4548	509.78
27.4693	531.34
27.4837	534.02
27.4981	530.03
27.5126	546.58
27.5270	553.94
27.5415	522.03
27.5559	530.40
27.5703	532.01
27.5848	497.59
27.5992	524.39
27.6137	523.42
27.6281	574.73
27.6425	525.84
27.6570	475.44
27.6714	529.26
27.6859	530.09
27.7003	504.95
27.7147	498.73
27.7292	504.46
27.7436	546.86
27.7581	524.57
27.7725	518.74
27.7869	536.65
27.8014	539.84
27.8158	506.11
27.8303	522.46
27.8447	511.01
27.8591	497.98
27.8736	518.60
27.8880	502.35
27.9025	530.12
27.9169	538.64
27.9313	542.80
27.9458	564.50
27.9602	501.86
27.9747	517.71
27.9891	516.83
28.0035	515.44
28.0180	515.52
28.0324	525.61
28.0469	533.38
28.0613	517.02
28.0757	540.76
28.0902	531.20
28.1046	513.00
28.1191	565.31
28.1335	516.19
28.1479	504.74
28.1624	503.89
28.1768	504.21
28.1913	506.71
28.2057	493.26
28.2201	515.24
28.2346	508.52
28.2490	527.22
28.2635	509.84
28.2779	496.45
28.2923	505.57
28.3068	505.02
28.3212	500.75
28.3357	543.40
28.3501	550.51
28.3645	511.32
28.3790	471.26
28.3934	523.90
28.4079	539.66
28.4223	557.14
28.4367	529.06
28.4512	523.42
28.4656	528.18
28.4801	527.54
28.4945	533.04
28.5089	547.19
28.5234	511.07
28.5378	514.71
28.5523	476.55
28.5667	496.66
28.5811	523.30
28.5956	539.88
28.6100	556.30
28.6245	518.66
28.6389	513.40
28.6533	538.36
28.6678	500.57
28.6822	490.15
28.6967	531.15
28.7111	517.83
28.7255	479.53
28.7400	486.98
28.7544	506.81
28.7689	516.88
28.7833	515.02
28.7977	541.93
28.8122	505.13
28.8266	499.49
28.8411	493.74
28.8555	541.07
28.8699	551.26
28.8844	546.39
28.8988	515.36
28.9133	512.53
28.9277	531.37
28.9421	508.50
28.9566	489.44
28.9710	510.47
28.9855	521.39
28.9999	488.49
29.0143	515.04
29.0288	550.56
29.0432	494.77
29.0577	476.37
29.0721	547.16
29.0865	516.30
29.1010	507.35
29.1154	485.13
29.1299	534.65
29.1443	532.51
29.1587	501.50
29.1732	496.22
29.1876	489.00
29.2021	472.15
29.2165	497.48
29.2309	492.28
29.2454	463.47
29.2598	484.24
29.2743	528.34
29.2887	525.60
29.3031	514.67
29.3176	499.85
29.3320	508.63
29.3465	491.73
29.3609	534.77
29.3753	537.59
29.3898	489.67
29.4042	494.20
29.4187	514.18
29.4331	484.68
29.4475	462.94
29.4620	515.33
29.4764	537.62
29.4909	527.65
29.5053	524.86
29.5197	475.85
29.5342	510.16
29.5486	529.22
29.5631	510.89
29.5775	501.28
29.5919	521.73
29.6064	519.37
29.6208	470.64
29.6353	491.38
29.6497	523.90
29.6641	533.86
29.6786	497.60
29.6930	490.60
29.7075	513.51
29.7219	527.74
29.7363	522.06
29.7508	512.28
29.7652	494.79
29.7797	489.90
29.7941	499.50
29.8085	494.41
29.8230	500.77
29.8374	525.34
29.8519	503.43
29.8663	520.18
29.8807	547.97
29.8952	524.89
29.9096	530.33
29.9241	534.95
29.9385	525.36
29.9529	488.41
29.9674	480.85
29.9818	501.14
29.9963	465.68
30.0107	485.06
30.0251	496.50
30.0396	499.87
30.0540	543.38
30.0685	532.32
30.0829	511.19
30.0973	512.97
30.1118	511.35
30.1262	517.82
30.1407	477.91
30.1551	481.82
30.1695	534.23
30.1840	524.53
30.1984	508.40
30.2129	507.77
30.2273	489.82
30.2417	513.97
30.2562	507.47
30.2706	501.85
30.2851	530.95
30.2995	506.33
30.3139	532.21
30.3284	521.03
30.3428	529.01
30.3573	501.69
30.3717	480.03
30.3861	491.96
30.4006	519.07
30.4150	523.70
30.4295	536.15
30.4439	529.06
30.4583	503.91
30.4728	528.82
30.4872	569.89
30.5017	522.11
30.5161	566.46
30.5305	534.06
30.5450	593.22
30.5594	600.78
30.5739	630.87
30.5883	635.82
30.6028	658.74
30.6172	681.31
30.6316	730.45
30.6461	736.29
30.6605	723.29
30.6750	713.51
30.6894	713.07
30.7038	676.30
30.7183	657.16
30.7327	632.19
30.7472	643.63
30.7616	620.73
30.7760	602.10
30.7905	592.61
30.8049	576.70
30.8194	566.66
30.8338	523.34
30.8482	525.50
30.8627	522.99
30.8771	526.53
30.8916	532.03
30.9060	530.91
30.9204	511.21
30.9349	495.33
30.9493	494.17
30.9638	479.81
30.9782	509.34
30.9926	499.38
31.0071	481.85
31.0215	496.06
31.0360	521.73
31.0504	514.59
31.0648	534.20
31.0793	490.94
31.0937	512.77
31.1082	525.84
31.1226	515.32
31.1370	519.33
31.1515	499.85
31.1659	525.62
31.1804	514.85
31.1948	497.23
31.2092	515.66
31.2237	503.92
31.2381	523.73
31.2526	527.77
31.2670	546.28
31.2814	543.58
31.2959	511.37
31.3103	529.58
31.3248	505.35
31.3392	527.97
31.3536	522.55
31.3681	515.09
31.3825	536.19
31.3970	489.08
31.4114	518.31
31.4258	552.46
31.4403	539.24
31.4547	538.52
31.4692	546.22
31.4836	515.00
31.4980	514.61
31.5125	489.78
31.5269	517.76
31.5414	531.98
31.5558	528.21
31.5702	495.00
31.5847	518.94
31.5991	531.95
31.6136	523.74
31.6280	482.79
31.6424	493.28
31.6569	471.19
31.6713	480.76
31.6858	535.09
31.7002	501.49
31.7146	498.22
31.7291	513.43
31.7435	511.41
31.7580	505.37
31.7724	566.02
31.7868	521.36
31.8013	488.95
31.8157	508.93
31.8302	510.09
31.8446	503.15
31.8590	541.74
31.8735	516.91
31.8879	533.22
31.9024	551.64
31.9168	493.78
31.9312	495.65
31.9457	513.29
31.9601	496.35
31.9746	472.17
31.9890	500.17
32.0034	514.37
32.0179	500.51
32.0323	534.00
32.0468	515.13
32.0612	507.69
32.0756	539.76
32.0901	506.30
32.1045	506.15
32.1190	496.19
32.1334	494.66
32.1478	470.45
32.1623	522.02
32.1767	496.28
32.1912	476.65
32.2056	483.84
32.2200	500.95
32.2345	484.13
32.2489	490.96
32.2634	498.70
32.2778	527.99
32.2922	497.48
32.3067	498.56
32.3211	502.80
32.3356	471.98
32.3500	528.07
32.3644	505.18
32.3789	521.82
32.3933	509.38
32.4078	511.44
32.4222	521.42
32.4366	492.66
32.4511	503.13
32.4655	489.85
32.4800	513.66
32.4944	511.88
32.5088	514.50
32.5233	500.35
32.5377	502.49
32.5522	508.18
32.5666	502.20
32.5810	490.97
32.5955	491.25
32.6099	503.94
32.6244	499.77
32.6388	486.00
32.6532	509.00
32.6677	453.16
32.6821	500.81
32.6966	503.89
32.7110	524.11
32.7254	514.78
32.7399	503.09
32.7543	533.38
32.7688	472.20
32.7832	527.44
32.7976	500.65
32.8121	487.57
32.8265	512.63
32.8410	508.21
32.8554	489.81
32.8698	494.33
32.8843	497.95
32.8987	512.39
32.9132	481.56
32.9276	493.01
32.9420	502.51
32.9565	527.15
32.9709	524.21
32.9854	505.33
32.9998	493.92
33.0142	526.16
33.0287	501.02
33.0431	531.78
33.0576	519.93
33.0720	488.30
33.0864	529.86
33.1009	514.49
33.1153	486.65
33.1298	536.73
33.1442	540.53
33.1586	532.62
33.1731	522.39
33.1875	519.92
33.2020	509.36
33.2164	493.66
33.2308	479.05
33.2453	527.38
33.2597	495.41
33.2742	510.32
33.2886	510.81
33.3030	500.96
33.3175	518.85
33.3319	517.61
33.3464	478.49
33.3608	470.32
33.3752	484.95
33.3897	484.04
33.4041	511.85
33.4186	506.51
33.4330	516.15
33.4474	523.53
33.4619	513.23
33.4763	499.14
33.4908	470.03
33.5052	462.98
33.5196	467.72
33.5341	524.97
33.5485	499.75
33.5630	514.60
33.5774	494.65
33.5918	509.82
33.6063	480.63
33.6207	500.97
33.6352	515.26
33.6496	525.51
33.6640	498.38
33.6785	513.28
33.6929	516.05
33.7074	529.77
33.7218	494.96
33.7362	495.60
33.7507	508.51
33.7651	502.58
33.7796	540.27
33.7940	521.75
33.8084	518.13
33.8229	498.35
33.8373	514.96
33.8518	522.69
33.8662	498.40
33.8806	513.83
33.8951	503.29
33.9095	536.48
33.9240	522.40
33.9384	547.77
33.9528	488.02
33.9673	480.29
33.9817	482.37
33.9962	513.28
34.0106	513.59
34.0250	535.86
34.0395	509.73
34.0539	506.68
34.0684	516.12
34.0828	498.65
34.0972	503.04
34.1117	480.80
34.1261	495.49
34.1406	513.00
34.1550	503.73
34.1694	532.07
34.1839	501.99
34.1983	490.69
34.2128	484.95
34.2272	499.06
34.2417	502.38
34.2561	487.65
34.2705	488.01
34.2850	495.57
34.2994	514.68
34.3139	510.97
34.3283	504.77
34.3427	526.08
34.3572	517.97
34.3716	482.70
34.3861	511.12
34.4005	503.76
34.4149	506.19
34.4294	530.16
34.4438	466.96
34.4583	478.39
34.4727	502.57
34.4871	545.20
34.5016	536.11
34.5160	523.31
34.5305	496.25
34.5449	529.38
34.5593	530.78
34.5738	482.31
34.5882	505.15
34.6027	520.78
34.6171	541.31
34.6315	544.17
34.6460	547.30
34.6604	518.15
34.6749	532.77
34.6893	506.33
34.7037	537.82
34.7182	523.51
34.7326	505.19
34.7471	508.65
34.7615	541.15
34.7759	511.96
34.7904	505.33
34.8048	527.90
34.8193	510.94
34.8337	491.77
34.8481	459.57
34.8626	503.38
34.8770	500.12
34.8915	498.13
34.9059	501.74
34.9203	485.55
34.9348	500.53
34.9492	528.26
34.9637	508.54
34.9781	540.78
34.9925	536.48
35.0070	504.37
35.0214	511.02
35.0359	511.69
35.0503	516.25
35.0647	519.72
35.0792	518.70
35.0936	525.67
35.1081	522.77
35.1225	538.66
35.1369	519.17
35.1514	509.66
35.1658	531.92
35.1803	501.99
35.1947	479.03
35.2091	482.88
35.2236	491.36
35.2380	523.88
35.2525	528.57
35.2669	515.14
35.2813	519.80
35.2958	522.91
35.3102	490.91
35.3247	479.89
35.3391	509.32
35.3535	510.18
35.3680	492.23
35.3824	531.48
35.3969	535.81
35.4113	516.82
35.4257	558.57
35.4402	536.50
35.4546	501.52
35.4691	500.86
35.4835	551.27
35.4979	502.96
35.5124	505.02
35.5268	526.02
35.5413	518.88
35.5557	515.12
35.5701	521.54
35.5846	528.98
35.5990	516.44
35.6135	519.94
35.6279	520.57
35.6423	533.72
35.6568	518.77
35.6712	507.39
35.6857	572.40
35.7001	665.68
35.7145	686.39
35.7290	645.46
35.7434	645.56
35.7579	622.00
35.7723	578.49
35.7867	612.55
35.8012	661.03
35.8156	646.08
35.8301	619.42
35.8445	641.84
35.8589	682.50
35.8734	760.58
35.8878	875.88
35.9023	1008.97
35.9167	1151.47
35.9311	1367.22
35.9456	1943.54
35.9600	2383.11
35.9745	1945.34
35.9889	2024.18
36.0033	2352.38
36.0178	2476.89
36.0322	2295.20
36.0467	2272.56
36.0611	2171.38
36.0755	2100.29
36.0900	2070.57
36.1044	1894.28
36.1189	1748.49
36.1333	1575.57
36.1477	1393.23
36.1622	1409.09
36.1766	1304.61
36.1911	1116.07
36.2055	930.91
36.2199	828.86
36.2344	766.74
36.2488	717.27
36.2633	641.98
36.2777	650.53
36.2921	603.81
36.3066	596.14
36.3210	577.73
36.3355	539.61
36.3499	540.13
36.3643	561.67
36.3788	546.48
36.3932	519.53
36.4077	550.97
36.4221	532.37
36.4365	544.77
36.4510	530.46
36.4654	556.24
36.4799	523.95
36.4943	555.56
36.5087	556.73
36.5232	555.20
36.5376	513.01
36.5521	530.52
36.5665	516.82
36.5809	511.87
36.5954	552.28
36.6098	537.17
36.6243	518.54
36.6387	559.18
36.6531	521.21
36.6676	502.50
36.6820	497.31
36.6965	503.66
36.7109	493.91
36.7253	531.96
36.7398	519.45
36.7542	546.49
36.7687	546.81
36.7831	536.01
36.7975	592.42
36.8120	596.04
36.8264	594.44
36.8409	607.47
36.8553	596.14
36.8697	621.94
36.8842	581.77
36.8986	606.73
36.9131	601.30
36.9275	600.91
36.9419	614.10
36.9564	602.34
36.9708	573.51
36.9853	585.10
36.9997	559.48
37.0141	555.64
37.0286	534.32
37.0430	502.53
37.0575	540.19
37.0719	502.33
37.0863	509.75
37.1008	535.50
37.1152	534.44
37.1297	541.78
37.1441	492.44
37.1585	497.90
37.1730	501.37
37.1874	459.12
37.2019	498.98
37.2163	504.83
37.2307	475.84
37.2452	526.84
37.2596	497.94
37.2741	493.54
37.2885	490.94
37.3029	508.59
37.3174	521.77
37.3318	508.04
37.3463	534.52
37.3607	514.56
37.3751	497.05
37.3896	507.85
37.4040	505.36
37.4185	506.25
37.4329	501.28
37.4473	512.43
37.4618	505.11
37.4762	529.91
37.4907	528.85
37.5051	475.71
37.5195	491.46
37.5340	520.54
37.5484	497.52
37.5629	507.18
37.5773	495.66
37.5917	528.73
37.6062	514.90
37.6206	513.77
37.6351	534.43
37.6495	515.64
37.6639	505.74
37.6784	501.62
37.6928	496.32
37.7073	516.00
37.7217	493.46
37.7361	487.23
37.7506	496.03
37.7650	509.14
37.7795	513.47
37.7939	487.07
37.8083	508.24
37.8228	504.61
37.8372	543.00
37.8517	507.51
37.8661	555.65
37.8805	513.21
37.8950	512.52
37.9094	509.19
37.9239	505.22
37.9383	509.46
37.9528	520.42
37.9672	520.12
37.9816	514.36
37.9961	498.22
38.0105	481.00
38.0250	499.04
38.0394	500.77
38.0538	522.97
38.0683	522.65
38.0827	547.84
38.0972	533.80
38.1116	547.68
38.1260	502.63
38.1405	481.38
38.1549	521.03
38.1694	529.88
38.1838	512.68
38.1982	465.92
38.2127	511.15
38.2271	528.80
38.2416	515.85
38.2560	520.62
38.2704	511.69
38.2849	484.84
38.2993	459.86
38.3138	515.31
38.3282	548.24
38.3426	515.46
38.3571	539.36
38.3715	537.93
38.3860	514.69
38.4004	517.55
38.4148	561.94
38.4293	590.82
38.4437	589.77
38.4582	635.14
38.4726	638.46
38.4870	685.57
38.5015	742.69
38.5159	808.16
38.5304	778.36
38.5448	807.67
38.5592	818.12
38.5737	785.89
38.5881	748.67
38.6026	719.58
38.6170	695.85
38.6314	666.93
38.6459	662.32
38.6603	645.75
38.6748	622.11
38.6892	584.25
38.7036	565.88
38.7181	573.58
38.7325	515.38
38.7470	520.67
38.7614	514.62
38.7758	526.39
38.7903	536.22
38.8047	536.47
38.8192	515.80
38.8336	499.22
38.8480	502.76
38.8625	515.63
38.8769	536.06
38.8914	489.85
38.9058	504.36
38.9202	504.82
38.9347	504.02
38.9491	490.50
38.9636	498.27
38.9780	495.63
38.9924	498.55
39.0069	505.75
39.0213	504.89
39.0358	529.30
39.0502	528.69
39.0646	492.10
39.0791	480.20
39.0935	515.61
39.1080	517.33
39.1224	515.77
39.1368	522.83
39.1513	490.96
39.1657	507.11
39.1802	495.59
39.1946	490.20
39.2090	503.57
39.2235	510.93
39.2379	517.00
39.2524	493.98
39.2668	485.31
39.2812	515.68
39.2957	501.40
39.3101	531.68
39.3246	526.16
39.3390	523.44
39.3534	512.75
39.3679	533.11
39.3823	486.27
39.3968	507.04
39.4112	491.89
39.4256	507.78
39.4401	500.58
39.4545	495.76
39.4690	494.19
39.4834	498.92
39.4978	498.02
39.5123	488.22
39.5267	478.12
39.5412	492.45
39.5556	534.18
39.5700	523.10
39.5845	523.91
39.5989	541.86
39.6134	511.55
39.6278	491.71
39.6422	481.72
39.6567	473.59
39.6711	482.22
39.6856	511.31
39.7000	517.76
39.7144	516.29
39.7289	528.35
39.7433	503.33
39.7578	481.65
39.7722	483.39
39.7866	502.10
39.8011	514.97
39.8155	490.91
39.8300	490.24
39.8444	475.00
39.8588	493.17
39.8733	501.46
39.8877	509.35
39.9022	469.04
39.9166	522.19
39.9310	485.12
39.9455	488.59
39.9599	506.48
39.9744	506.32
39.9888	485.64
40.0032	486.13
40.0177	513.37
40.0321	469.62
40.0466	475.97
40.0610	520.82
40.0754	477.88
40.0899	528.06
40.1043	526.40
40.1188	501.76
40.1332	486.37
40.1476	477.37
40.1621	493.12
40.1765	523.77
40.1910	504.41
40.2054	493.05
40.2198	476.46
40.2343	499.35
40.2487	500.23
40.2632	515.90
40.2776	481.06
40.2920	507.66
40.3065	485.73
40.3209	520.36
40.3354	506.29
40.3498	479.24
40.3642	531.96
40.3787	530.56
40.3931	473.56
40.4076	482.03
40.4220	510.50
40.4364	500.11
40.4509	483.85
40.4653	502.43
40.4798	502.63
40.4942	473.44
40.5086	470.03
40.5231	481.61
40.5375	469.32
40.5520	486.71
40.5664	510.49
40.5808	504.01
40.5953	482.35
40.6097	533.99
40.6242	499.51
40.6386	520.08
40.6530	519.60
40.6675	522.33
40.6819	503.17
40.6964	545.23
40.7108	558.40
40.7252	486.08
40.7397	497.09
40.7541	477.26
40.7686	501.10
40.7830	526.86
40.7974	497.09
40.8119	509.23
40.8263	547.64
40.8408	486.88
40.8552	484.32
40.8696	527.57
40.8841	527.47
40.8985	518.29
40.9130	477.78
40.9274	475.90
40.9418	526.48
40.9563	487.26
40.9707	506.17
40.9852	490.28
40.9996	480.13
41.0140	478.94
41.0285	507.67
41.0429	541.11
41.0574	517.22
41.0718	485.85
41.0862	508.29
41.1007	495.01
41.1151	509.24
41.1296	510.60
41.1440	509.97
41.1584	492.73
41.1729	497.66
41.1873	452.59
41.2018	476.50
41.2162	508.64
41.2306	483.83
41.2451	488.26
41.2595	485.52
41.2740	499.98
41.2884	494.04
41.3028	506.62
41.3173	520.00
41.3317	529.33
41.3462	497.38
41.3606	483.97
41.3750	500.85
41.3895	519.76
41.4039	505.97
41.4184	479.52
41.4328	504.98
41.4472	518.54
41.4617	506.38
41.4761	518.15
41.4906	489.79
41.5050	499.91
41.5194	500.48
41.5339	522.68
41.5483	529.25
41.5628	535.35
41.5772	533.95
41.5916	514.93
41.6061	489.59
41.6205	465.70
41.6350	494.63
41.6494	499.13
41.6639	479.11
41.6783	483.38
41.6927	450.71
41.7072	542.41
41.7216	533.83
41.7361	490.51
41.7505	496.10
41.7649	517.91
41.7794	499.31
41.7938	482.38
41.8083	483.29
41.8227	506.08
41.8371	522.80
41.8516	515.42
41.8660	554.38
41.8805	511.11
41.8949	557.80
41.9093	554.22
41.9238	553.44
41.9382	579.37
41.9527	563.97
41.9671	551.49
41.9815	528.33
41.9960	545.61
42.0104	575.90
42.0249	607.58
42.0393	582.19
42.0537	556.65
42.0682	553.77
42.0826	527.99
42.0971	558.54
42.1115	599.02
42.1259	612.79
42.1404	604.57
42.1548	597.42
42.1693	679.09
42.1837	695.26
42.1981	755.83
42.2126	840.13
42.2270	955.17
42.2415	1012.45
42.2559	1158.02
42.2703	1337.67
42.2848	1470.81
42.2992	1587.14
42.3137	1663.56
42.3281	1632.57
42.3425	1535.14
42.3570	1482.06
42.3714	1426.57
42.3859	1348.50
42.4003	1370.48
42.4147	1352.68
42.4292	1299.26
42.4436	1176.16
42.4581	1024.99
42.4725	920.27
42.4869	854.05
42.5014	747.52
42.5158	686.30
42.5303	650.85
42.5447	615.20
42.5591	627.82
42.5736	596.68
42.5880	575.22
42.6025	563.35
42.6169	555.63
42.6313	536.42
42.6458	531.37
42.6602	520.23
42.6747	510.70
42.6891	530.27
42.7035	564.61
42.7180	543.60
42.7324	528.02
42.7469	538.73
42.7613	536.52
42.7757	521.19
42.7902	504.43
42.8046	500.80
42.8191	525.78
42.8335	508.84
42.8479	510.22
42.8624	536.93
42.8768	517.54
42.8913	497.36
42.9057	510.19
42.9201	510.04
42.9346	521.62
42.9490	470.94
42.9635	479.05
42.9779	514.44
42.9923	520.98
43.0068	512.42
43.0212	532.71
43.0357	515.83
43.0501	503.20
43.0645	501.94
43.0790	483.07
43.0934	513.67
43.1079	519.22
43.1223	524.15
43.1367	492.46
43.1512	489.57
43.1656	514.84
43.1801	526.38
43.1945	518.34
43.2089	519.71
43.2234	513.78
43.2378	515.09
43.2523	531.62
43.2667	552.88
43.2811	528.15
43.2956	500.50
43.3100	532.62
43.3245	557.07
43.3389	540.88
43.3533	518.33
43.3678	524.66
43.3822	525.53
43.3967	503.97
43.4111	508.39
43.4255	533.05
43.4400	532.13
43.4544	495.61
43.4689	498.95
43.4833	501.92
43.4977	506.62
43.5122	516.71
43.5266	520.71
43.5411	512.07
43.5555	520.14
43.5699	512.15
43.5844	519.51
43.5988	521.31
43.6133	529.30
43.6277	535.65
43.6421	540.84
43.6566	532.56
43.6710	508.85
43.6855	536.56
43.6999	543.71
43.7143	565.05
43.7288	533.85
43.7432	554.82
43.7577	568.24
43.7721	592.60
43.7865	580.78
43.8010	594.31
43.8154	623.31
43.8299	671.98
43.8443	691.12
43.8587	710.89
43.8732	665.16
43.8876	652.31
43.9021	630.63
43.9165	610.51
43.9309	631.30
43.9454	583.89
43.9598	585.59
43.9743	599.89
43.9887	580.98
44.0031	582.70
44.0176	563.38
44.0320	567.63
44.0465	537.55
44.0609	540.62
44.0753	511.33
44.0898	559.27
44.1042	547.47
44.1187	558.51
44.1331	523.75
44.1475	519.56
44.1620	533.29
44.1764	567.46
44.1909	527.83
44.2053	502.53
44.2197	547.49
44.2342	527.95
44.2486	535.23
44.2631	528.85
44.2775	512.61
44.2919	519.86
44.3064	537.04
44.3208	531.75
44.3353	538.68
44.3497	564.88
44.3641	563.75
44.3786	555.91
44.3930	522.46
44.4075	549.66
44.4219	581.94
44.4363	592.84
44.4508	594.84
44.4652	574.42
44.4797	563.83
44.4941	589.44
44.5085	590.71
44.5230	537.75
44.5374	552.27
44.5519	550.32
44.5663	602.27
44.5807	586.61
44.5952	588.74
44.6096	571.82
44.6241	552.74
44.6385	593.38
44.6529	611.92
44.6674	547.31
44.6818	574.92
44.6963	624.19
44.7107	632.98
44.7251	680.82
44.7396	713.92
44.7540	791.10
44.7685	871.59
44.7829	861.01
44.7973	876.79
44.8118	860.16
44.8262	832.56
44.8407	745.93
44.8551	725.01
44.8695	676.46
44.8840	736.83
44.8984	753.57
44.9129	759.22
44.9273	681.85
44.9417	666.98
44.9562	608.95
44.9706	573.99
44.9851	572.97
44.9995	533.32
45.0139	516.83
45.0284	511.46
45.0428	546.60
45.0573	519.67
45.0717	509.31
45.0861	532.01
45.1006	539.73
45.1150	505.24
45.1295	531.05
45.1439	511.15
45.1583	539.84
45.1728	534.61
45.1872	525.37
45.2017	543.02
45.2161	505.98
45.2305	512.38
45.2450	535.05
45.2594	526.33
45.2739	529.66
45.2883	520.12
45.3028	515.71
45.3172	509.31
45.3316	471.97
45.3461	490.44
45.3605	512.71
45.3750	533.61
45.3894	526.37
45.4038	503.61
45.4183	524.88
45.4327	528.12
45.4472	498.39
45.4616	519.79
45.4760	513.41
45.4905	507.69
45.5049	522.14
45.5194	531.63
45.5338	485.65
45.5482	483.07
45.5627	525.99
45.5771	498.03
45.5916	483.46
45.6060	484.92
45.6204	480.07
45.6349	519.95
45.6493	504.91
45.6638	487.80
45.6782	486.36
45.6926	483.03
45.7071	524.48
45.7215	500.87
45.7360	503.52
45.7504	515.67
45.7648	502.94
45.7793	522.71
45.7937	521.03
45.8082	480.23
45.8226	525.94
45.8370	524.52
45.8515	542.70
45.8659	540.34
45.8804	534.75
45.8948	471.51
45.9092	529.54
45.9237	510.41
45.9381	476.70
45.9526	505.32
45.9670	503.96
45.9814	500.47
45.9959	494.19
46.0103	474.78
46.0248	491.97
46.0392	501.62
46.0536	492.54
46.0681	513.16
46.0825	489.55
46.0970	497.96
46.1114	494.70
46.1258	512.05
46.1403	524.93
46.1547	480.07
46.1692	529.49
46.1836	507.04
46.1980	485.61
46.2125	459.53
46.2269	509.41
46.2414	503.37
46.2558	489.81
46.2702	497.76
46.2847	495.59
46.2991	490.82
46.3136	500.53
46.3280	515.72
46.3424	475.91
46.3569	507.31
46.3713	514.07
46.3858	503.91
46.4002	487.06
46.4146	480.35
46.4291	534.85
46.4435	491.41
46.4580	498.96
46.4724	504.31
46.4868	505.61
46.5013	493.25
46.5157	510.72
46.5302	516.00
46.5446	513.53
46.5590	536.62
46.5735	504.13
46.5879	507.48
46.6024	489.08
46.6168	520.79
46.6312	502.21
46.6457	493.92
46.6601	467.75
46.6746	463.87
46.6890	464.85
46.7034	471.42
46.7179	504.14
46.7323	518.96
46.7468	518.08
46.7612	496.95
46.7756	525.25
46.7901	521.33
46.8045	502.77
46.8190	522.39
46.8334	514.97
46.8478	504.65
46.8623	495.56
46.8767	490.97
46.8912	501.86
46.9056	532.29
46.9200	490.86
46.9345	488.35
46.9489	495.40
46.9634	488.97
46.9778	510.61
46.9922	514.01
47.0067	513.75
47.0211	510.39
47.0356	514.79
47.0500	515.71
47.0644	519.76
47.0789	526.95
47.0933	548.19
47.1078	502.93
47.1222	517.27
47.1366	517.34
47.1511	513.55
47.1655	521.46
47.1800	504.33
47.1944	497.09
47.2088	494.96
47.2233	522.20
47.2377	476.01
47.2522	479.55
47.2666	518.11
47.2810	527.68
47.2955	498.38
47.3099	514.84
47.3244	489.39
47.3388	493.26
47.3532	516.60
47.3677	520.97
47.3821	528.46
47.3966	511.01
47.4110	499.40
47.4254	498.64
47.4399	517.35
47.4543	514.80
47.4688	530.22
47.4832	507.97
47.4976	492.69
47.5121	522.68
47.5265	520.94
47.5410	519.97
47.5554	530.77
47.5698	527.70
47.5843	515.16
47.5987	520.78
47.6132	482.26
47.6276	501.54
47.6420	547.64
47.6565	495.27
47.6709	499.59
47.6854	505.51
47.6998	524.70
47.7142	510.83
47.7287	491.53
47.7431	478.83
47.7576	484.73
47.7720	477.41
47.7864	514.07
47.8009	509.02
47.8153	519.35
47.8298	487.89
47.8442	479.93
47.8586	541.91
47.8731	477.15
47.8875	480.49
47.9020	563.93
47.9164	496.82
47.9308	509.97
47.9453	525.62
47.9597	489.36
47.9742	491.77
47.9886	540.11
48.0030	542.93
48.0175	536.01
48.0319	526.21
48.0464	507.57
48.0608	490.29
48.0752	504.33
48.0897	505.67
48.1041	506.70
48.1186	546.99
48.1330	519.30
48.1474	477.22
48.1619	503.64
48.1763	501.71
48.1908	510.03
48.2052	475.90
48.2196	538.23
48.2341	479.90
48.2485	494.93
48.2630	488.97
48.2774	538.04
48.2918	504.94
48.3063	471.92
48.3207	504.95
48.3352	523.60
48.3496	497.79
48.3640	506.90
48.3785	518.42
48.3929	519.82
48.4074	477.27
48.4218	503.40
48.4362	536.68
48.4507	538.70
48.4651	515.83
48.4796	547.83
48.4940	502.05
48.5084	510.05
48.5229	536.62
48.5373	519.24
48.5518	516.10
48.5662	510.54
48.5806	527.99
48.5951	540.83
48.6095	532.08
48.6240	528.47
48.6384	532.70
48.6528	496.51
48.6673	507.33
48.6817	511.10
48.6962	555.66
48.7106	526.98
48.7250	536.15
48.7395	543.72
48.7539	528.40
48.7684	512.45
48.7828	547.98
48.7972	557.60
48.8117	501.58
48.8261	537.26
48.8406	529.58
48.8550	514.24
48.8694	554.06
48.8839	553.38
48.8983	560.30
48.9128	547.01
48.9272	540.15
48.9416	596.30
48.9561	579.20
48.9705	511.14
48.9850	582.66
48.9994	546.36
49.0139	589.34
49.0283	590.41
49.0427	620.21
49.0572	603.81
49.0716	601.18
49.0861	653.26
49.1005	674.47
49.1149	680.90
49.1294	728.50
49.1438	734.89
49.1583	794.85
49.1727	824.20
49.1871	824.82
49.2016	931.01
49.2160	994.92
49.2305	1089.22
49.2449	1133.98
49.2593	1206.10
49.2738	1281.63
49.2882	1427.55
49.3027	1475.91
49.3171	1550.99
49.3315	1649.00
49.3460	1664.63
49.3604	1728.65
49.3749	1693.69
49.3893	1691.05
49.4037	1673.91
49.4182	1735.65
49.4326	1698.20
49.4471	1568.42
49.4615	1586.33
49.4759	1555.77
49.4904	1470.30
49.5048	1422.53
49.5193	1309.29
49.5337	1252.67
49.5481	1186.21
49.5626	1099.55
49.5770	1083.53
49.5915	998.54
49.6059	941.01
49.6203	884.19
49.6348	872.61
49.6492	778.51
49.6637	737.03
49.6781	695.52
49.6925	683.65
49.7070	703.07
49.7214	625.22
49.7359	626.92
49.7503	620.43
49.7647	602.82
49.7792	603.42
49.7936	617.95
49.8081	588.13
49.8225	598.36
49.8369	588.98
49.8514	569.24
49.8658	576.34
49.8803	567.85
49.8947	523.06
49.9091	532.61
49.9236	516.33
49.9380	571.82
49.9525	556.78
49.9669	535.72
49.9813	536.97
49.9958	505.39
50.0102	519.13
50.0247	519.73
50.0391	543.12
50.0535	512.81
50.0680	508.14
50.0824	530.20
50.0969	513.46
50.1113	510.94
50.1257	524.27
50.1402	560.18
50.1546	523.07
50.1691	524.06
50.1835	514.00
50.1979	510.42
50.2124	516.79
50.2268	508.98
50.2413	524.93
50.2557	502.53
50.2701	486.12
50.2846	511.98
50.2990	528.28
50.3135	512.39
50.3279	487.02
50.3423	501.09
50.3568	487.16
50.3712	517.77
50.3857	524.38
50.4001	511.84
50.4145	511.80
50.4290	518.24
50.4434	471.35
50.4579	500.07
50.4723	513.48
50.4867	544.05
50.5012	531.25
50.5156	514.31
50.5301	537.43
50.5445	535.29
50.5589	518.11
50.5734	509.96
50.5878	515.59
50.6023	528.41
50.6167	474.25
50.6311	530.41
50.6456	543.00
50.6600	485.74
50.6745	489.61
50.6889	506.75
50.7033	539.39
50.7178	511.97
50.7322	490.11
50.7467	487.71
50.7611	506.71
50.7755	521.85
50.7900	512.39
50.8044	501.86
50.8189	541.80
50.8333	521.69
50.8477	528.24
50.8622	507.62
50.8766	530.47
50.8911	510.77
50.9055	518.40
50.9199	478.50
50.9344	492.92
50.9488	524.21
50.9633	519.81
50.9777	489.67
50.9921	480.46
51.0066	509.01
51.0210	509.68
51.0355	523.00
51.0499	526.17
51.0643	523.54
51.0788	537.18
51.0932	513.46
51.1077	531.55
51.1221	525.18
51.1365	498.31
51.1510	463.42
51.1654	514.21
51.1799	496.32
51.1943	468.31
51.2087	497.66
51.2232	508.41
51.2376	474.76
51.2521	513.66
51.2665	507.98
51.2809	517.22
51.2954	535.38
51.3098	525.68
51.3243	519.21
51.3387	507.43
51.3531	512.27
51.3676	502.30
51.3820	519.09
51.3965	512.39
51.4109	506.96
51.4253	522.83
51.4398	535.62
51.4542	535.51
51.4687	517.67
51.4831	530.70
51.4975	537.89
51.5120	526.91
51.5264	517.69
51.5409	499.48
51.5553	487.99
51.5697	497.98
51.5842	496.24
51.5986	453.28
51.6131	474.03
51.6275	508.45
51.6419	502.27
51.6564	544.62
51.6708	535.31
51.6853	526.97
51.6997	508.12
51.7141	533.64
51.7286	510.85
51.7430	476.53
51.7575	496.94
51.7719	539.78
51.7863	522.68
51.8008	494.23
51.8152	526.91
51.8297	532.23
51.8441	536.76
51.8585	499.65
51.8730	518.49
51.8874	526.37
51.9019	546.10
51.9163	498.11
51.9307	523.13
51.9452	535.75
51.9596	474.68
51.9741	473.89
51.9885	537.15
52.0029	498.90
52.0174	516.54
52.0318	527.98
52.0463	498.46
52.0607	541.92
52.0751	491.54
52.0896	533.71
52.1040	520.20
52.1185	532.96
52.1329	533.67
52.1473	520.63
52.1618	517.01
52.1762	509.59
52.1907	493.22
52.2051	469.35
52.2195	489.78
52.2340	532.08
52.2484	536.30
52.2629	545.40
52.2773	537.86
52.2917	517.13
52.3062	507.59
52.3206	500.87
52.3351	559.67
52.3495	534.45
52.3639	537.58
52.3784	545.89
52.3928	522.56
52.4073	494.28
52.4217	507.20
52.4361	516.72
52.4506	506.18
52.4650	491.91
52.4795	502.35
52.4939	510.40
52.5083	517.46
52.5228	518.73
52.5372	524.49
52.5517	516.69
52.5661	537.09
52.5805	541.82
52.5950	474.77
52.6094	519.89
52.6239	507.50
52.6383	523.75
52.6527	499.96
52.6672	521.23
52.6816	487.94
52.6961	509.92
52.7105	509.37
52.7250	539.89
52.7394	471.39
52.7538	518.37
52.7683	486.35
52.7827	480.93
52.7972	514.03
52.8116	488.54
52.8260	518.11
52.8405	515.58
52.8549	518.07
52.8694	494.53
52.8838	505.68
52.8982	512.51
52.9127	529.02
52.9271	557.63
52.9416	475.14
52.9560	510.35
52.9704	518.67
52.9849	500.04
52.9993	519.23
53.0138	469.46
53.0282	531.69
53.0426	492.92
53.0571	531.84
53.0715	573.31
53.0860	532.40
53.1004	519.05
53.1148	534.37
53.1293	543.94
53.1437	525.15
53.1582	534.56
53.1726	538.63
53.1870	500.87
53.2015	493.04
53.2159	515.39
53.2304	459.29
53.2448	533.34
53.2592	523.45
53.2737	499.09
53.2881	516.38
53.3026	474.72
53.3170	524.58
53.3314	555.99
53.3459	505.08
53.3603	515.98
53.3748	495.90
53.3892	503.69
53.4036	515.11
53.4181	526.38
53.4325	526.93
53.4470	498.02
53.4614	510.34
53.4758	520.17
53.4903	550.05
53.5047	529.25
53.5192	500.40
53.5336	505.60
53.5480	500.61
53.5625	519.69
53.5769	518.64
53.5914	526.85
53.6058	550.38
53.6202	543.17
53.6347	548.11
53.6491	516.87
53.6636	508.05
53.6780	504.72
53.6924	506.91
53.7069	506.33
53.7213	513.90
53.7358	505.00
53.7502	522.95
53.7646	512.56
53.7791	515.70
53.7935	568.65
53.8080	553.26
53.8224	519.10
53.8368	544.54
53.8513	526.83
53.8657	531.66
53.8802	526.93
53.8946	543.23
53.9090	542.92
53.9235	508.79
53.9379	531.56
53.9524	516.63
53.9668	498.48
53.9812	495.78
53.9957	494.23
54.0101	519.53
54.0246	556.22
54.0390	541.36
54.0534	521.80
54.0679	544.62
54.0823	562.26
54.0968	512.10
54.1112	520.94
54.1256	506.56
54.1401	505.41
54.1545	532.60
54.1690	520.08
54.1834	501.92
54.1978	480.71
54.2123	520.79
54.2267	540.18
54.2412	543.97
54.2556	543.55
54.2700	546.69
54.2845	557.48
54.2989	560.74
54.3134	564.30
54.3278	558.39
54.3422	559.92
54.3567	590.31
54.3711	600.53
54.3856	614.33
54.4000	602.42
54.4144	592.10
54.4289	652.17
54.4433	611.56
54.4578	598.35
54.4722	650.14
54.4866	631.69
54.5011	600.63
54.5155	577.69
54.5300	584.60
54.5444	573.20
54.5588	581.06
54.5733	553.40
54.5877	535.22
54.6022	512.56
54.6166	542.26
54.6310	558.80
54.6455	542.58
54.6599	562.20
54.6744	542.38
54.6888	529.10
54.7032	571.52
54.7177	548.18
54.7321	532.39
54.7466	545.18
54.7610	528.88
54.7754	522.90
54.7899	497.68
54.8043	505.74
54.8188	527.82
54.8332	534.07
54.8476	494.73
54.8621	517.03
54.8765	512.28
54.8910	505.39
54.9054	501.16
54.9198	515.35
54.9343	539.97
54.9487	499.07
54.9632	500.93
54.9776	511.09
54.9920	493.70
55.0065	476.42
55.0209	526.45
55.0354	542.55
55.0498	530.92
55.0642	526.65
55.0787	537.12
55.0931	529.58
55.1076	549.51
55.1220	532.28
55.1364	505.07
55.1509	488.64
55.1653	554.66
55.1798	526.90
55.1942	516.74
55.2086	506.03
55.2231	497.47
55.2375	509.78
55.2520	533.89
55.2664	505.59
55.2808	504.90
55.2953	511.79
55.3097	546.08
55.3242	527.11
55.3386	514.38
55.3530	506.88
55.3675	520.23
55.3819	494.92
55.3964	506.02
55.4108	520.72
55.4252	532.19
55.4397	536.64
55.4541	505.71
55.4686	515.27
55.4830	516.15
55.4974	519.26
55.5119	523.62
55.5263	505.03
55.5408	499.27
55.5552	524.75
55.5696	526.27
55.5841	491.17
55.5985	488.08
55.6130	520.57
55.6274	538.37
55.6418	545.78
55.6563	488.23
55.6707	480.90
55.6852	494.42
55.6996	507.72
55.7140	545.30
55.7285	510.92
55.7429	502.92
55.7574	533.70
55.7718	511.33
55.7862	574.46
55.8007	543.74
55.8151	519.73
55.8296	533.70
55.8440	565.04
55.8584	577.85
55.8729	532.90
55.8873	499.78
55.9018	497.99
55.9162	519.35
55.9306	525.22
55.9451	537.54
55.9595	526.45
55.9740	541.25
55.9884	542.98
56.0028	538.62
56.0173	529.33
56.0317	521.94
56.0462	540.26
56.0606	481.57
56.0750	497.24
56.0895	561.53
56.1039	497.54
56.1184	521.06
56.1328	573.45
56.1472	492.15
56.1617	521.53
56.1761	524.95
56.1906	531.43
56.2050	508.37
56.2194	559.99
56.2339	512.85
56.2483	534.08
56.2628	493.51
56.2772	512.51
56.2916	536.61
56.3061	561.98
56.3205	505.95
56.3350	517.90
56.3494	531.74
56.3639	537.53
56.3783	527.51
56.3927	516.83
56.4072	520.96
56.4216	516.87
56.4361	530.87
56.4505	487.40
56.4649	511.97
56.4794	506.24
56.4938	519.43
56.5083	530.09
56.5227	532.67
56.5371	526.28
56.5516	533.87
56.5660	501.16
56.5805	508.66
56.5949	513.51
56.6093	538.46
56.6238	508.59
56.6382	545.72
56.6527	530.86
56.6671	539.39
56.6815	513.40
56.6960	544.18
56.7104	548.14
56.7249	519.55
56.7393	503.13
56.7537	507.14
56.7682	494.44
56.7826	524.17
56.7971	538.50
56.8115	555.83
56.8259	509.73
56.8404	521.74
56.8548	514.47
56.8693	509.97
56.8837	543.80
56.8981	547.73
56.9126	559.49
56.9270	553.06
56.9415	568.06
56.9559	504.30
56.9703	539.47
56.9848	537.30
56.9992	520.12
57.0137	520.93
57.0281	561.35
57.0425	488.21
57.0570	515.66
57.0714	561.17
57.0859	546.33
57.1003	513.38
57.1147	520.50
57.1292	529.08
57.1436	511.19
57.1581	539.68
57.1725	522.76
57.1869	503.02
57.2014	542.25
57.2158	537.63
57.2303	528.86
57.2447	526.85
57.2591	497.70
57.2736	537.47
57.2880	507.76
57.3025	509.91
57.3169	544.81
57.3313	524.52
57.3458	537.81
57.3602	552.98
57.3747	529.29
57.3891	513.78
57.4035	515.49
57.4180	520.55
57.4324	541.00
57.4469	482.57
57.4613	492.54
57.4757	541.81
57.4902	533.64
57.5046	503.09
57.5191	512.46
57.5335	541.00
57.5479	526.69
57.5624	531.80
57.5768	538.02
57.5913	556.02
57.6057	547.26
57.6201	510.59
57.6346	540.87
57.6490	519.69
57.6635	506.90
57.6779	543.32
57.6923	537.28
57.7068	545.96
57.7212	518.75
57.7357	564.45
57.7501	538.51
57.7645	507.77
57.7790	544.62
57.7934	555.55
57.8079	537.01
57.8223	540.61
57.8367	546.02
57.8512	567.39
57.8656	603.26
57.8801	605.10
57.8945	621.62
57.9089	615.05
57.9234	592.82
57.9378	619.22
57.9523	632.05
57.9667	627.00
57.9811	632.52
57.9956	674.36
58.0100	680.20
58.0245	709.31
58.0389	692.09
58.0533	676.20
58.0678	694.24
58.0822	711.68
58.0967	670.23
58.1111	703.97
58.1255	682.84
58.1400	648.88
58.1544	642.83
58.1689	687.75
58.1833	663.41
58.1977	628.83
58.2122	657.39
58.2266	643.68
58.2411	630.53
58.2555	653.56
58.2699	589.53
58.2844	621.14
58.2988	613.36
58.3133	591.83
58.3277	581.36
58.3421	551.64
58.3566	559.87
58.3710	553.21
58.3855	539.73
58.3999	544.83
58.4143	564.24
58.4288	570.21
58.4432	544.24
58.4577	538.66
58.4721	550.16
58.4865	587.49
58.5010	541.55
58.5154	576.55
58.5299	548.86
58.5443	548.03
58.5587	546.53
58.5732	552.92
58.5876	582.44
58.6021	570.93
58.6165	546.18
58.6309	521.39
58.6454	553.60
58.6598	548.59
58.6743	536.45
58.6887	516.90
58.7031	542.13
58.7176	532.91
58.7320	519.16
58.7465	514.08
58.7609	544.48
58.7753	527.45
58.7898	552.32
58.8042	513.89
58.8187	538.41
58.8331	531.69
58.8475	504.36
58.8620	538.33
58.8764	557.28
58.8909	512.58
58.9053	525.90
58.9197	532.62
58.9342	549.86
58.9486	543.35
58.9631	539.57
58.9775	567.50
58.9919	539.25
59.0064	533.19
59.0208	526.99
59.0353	546.02
59.0497	543.88
59.0641	545.65
59.0786	524.64
59.0930	538.07
59.1075	528.05
59.1219	556.02
59.1363	553.01
59.1508	528.01
59.1652	530.82
59.1797	509.45
59.1941	525.76
59.2085	527.04
59.2230	534.26
59.2374	547.59
59.2519	554.40
59.2663	541.32
59.2807	566.90
59.2952	571.53
59.3096	539.22
59.3241	544.19
59.3385	569.12
59.3529	544.28
59.3674	527.37
59.3818	594.29
59.3963	573.57
59.4107	556.50
59.4251	587.20
59.4396	527.25
59.4540	525.28
59.4685	542.07
59.4829	573.51
59.4973	554.46
59.5118	581.38
59.5262	548.30
59.5407	553.05
59.5551	555.11
59.5695	546.17
59.5840	554.93
59.5984	537.31
59.6129	508.63
59.6273	562.12
59.6417	561.86
59.6562	540.62
59.6706	592.60
59.6851	554.17
59.6995	521.33
59.7139	578.64
59.7284	550.10
59.7428	551.83
59.7573	557.00
59.7717	539.24
59.7861	550.21
59.8006	517.34
59.8150	546.38
59.8295	548.70
59.8439	516.97
59.8583	521.12
59.8728	555.35
59.8872	535.31
59.9017	565.73
59.9161	542.71
59.9305	533.25
59.9450	542.22
59.9594	513.29
59.9739	489.18
59.9883	528.97
60.0027	551.06
60.0172	613.02
60.0316	578.58
60.0461	529.48
60.0605	532.32
60.0750	518.96
60.0894	564.87
60.1038	532.04
60.1183	546.34
60.1327	558.99
60.1472	521.17
60.1616	539.62
60.1760	523.40
60.1905	516.01
60.2049	537.36
60.2194	528.31
60.2338	532.49
60.2482	549.68
60.2627	529.70
60.2771	534.96
60.2916	547.21
60.3060	554.44
60.3204	528.52
60.3349	577.36
60.3493	519.89
60.3638	504.79
60.3782	528.58
60.3926	546.84
60.4071	554.93
60.4215	548.81
60.4360	541.23
60.4504	507.65
60.4648	549.32
60.4793	588.82
60.4937	541.53
60.5082	498.14
60.5226	519.92
60.5370	525.93
60.5515	557.27
60.5659	524.47
60.5804	536.34
60.5948	544.10
60.6092	511.83
60.6237	532.87
60.6381	561.77
60.6526	545.24
60.6670	552.25
60.6814	518.66
60.6959	513.23
60.7103	531.77
60.7248	537.26
60.7392	523.62
60.7536	568.47
60.7681	565.09
60.7825	544.42
60.7970	535.29
60.8114	526.12
60.8258	576.30
60.8403	550.00
60.8547	530.68
60.8692	576.81
60.8836	563.77
60.8980	558.18
60.9125	533.52
60.9269	563.53
60.9414	560.77
60.9558	566.78
60.9702	548.18
60.9847	543.31
60.9991	499.79
61.0136	535.21
61.0280	518.50
61.0424	562.57
61.0569	563.81
61.0713	549.48
61.0858	522.56
61.1002	525.01
61.1146	536.90
61.1291	527.01
61.1435	531.89
61.1580	525.73
61.1724	550.75
61.1868	551.36
61.2013	567.51
61.2157	570.45
61.2302	528.18
61.2446	547.78
61.2590	534.79
61.2735	524.45
61.2879	556.98
61.3024	552.20
61.3168	555.09
61.3312	548.78
61.3457	533.89
61.3601	534.77
61.3746	531.20
61.3890	527.07
61.4034	554.45
61.4179	541.94
61.4323	555.27
61.4468	527.47
61.4612	508.79
61.4756	542.37
61.4901	551.52
61.5045	545.89
61.5190	557.02
61.5334	550.02
61.5478	570.63
61.5623	529.70
61.5767	524.15
61.5912	520.36
61.6056	556.83
61.6200	567.04
61.6345	549.21
61.6489	522.41
61.6634	574.07
61.6778	535.42
61.6922	512.40
61.7067	586.05
61.7211	554.26
61.7356	520.28
61.7500	579.00
61.7644	589.96
61.7789	585.86
61.7933	531.39
61.8078	525.35
61.8222	532.58
61.8366	539.25
61.8511	545.74
61.8655	566.78
61.8800	552.89
61.8944	563.66
61.9088	566.20
61.9233	543.13
61.9377	530.56
61.9522	486.30
61.9666	511.35
61.9810	540.21
61.9955	501.43
62.0099	554.22
62.0244	559.77
62.0388	526.46
62.0532	539.12
62.0677	567.00
62.0821	566.71
62.0966	571.44
62.1110	550.06
62.1254	562.02
62.1399	551.30
62.1543	537.41
62.1688	552.34
62.1832	567.53
62.1976	565.06
62.2121	544.90
62.2265	527.87
62.2410	565.45
62.2554	551.26
62.2698	537.86
62.2843	562.70
62.2987	565.89
62.3132	576.82
62.3276	553.02
62.3420	555.12
62.3565	529.69
62.3709	535.32
62.3854	557.03
62.3998	533.74
62.4142	540.20
62.4287	584.26
62.4431	593.51
62.4576	578.94
62.4720	578.93
62.4864	555.43
62.5009	542.59
62.5153	574.34
62.5298	550.40
62.5442	567.17
62.5586	564.16
62.5731	539.81
62.5875	559.04
62.6020	572.43
62.6164	581.39
62.6308	556.40
62.6453	564.56
62.6597	571.20
62.6742	548.51
62.6886	559.96
62.7030	559.26
62.7175	550.70
62.7319	533.16
62.7464	572.69
62.7608	554.38
62.7752	567.91
62.7897	557.73
62.8041	571.45
62.8186	599.58
62.8330	544.30
62.8474	517.81
62.8619	560.14
62.8763	592.74
62.8908	534.46
62.9052	579.22
62.9196	556.99
62.9341	555.59
62.9485	566.17
62.9630	579.44
62.9774	581.90
62.9918	561.51
63.0063	555.72
63.0207	576.47
63.0352	580.74
63.0496	564.63
63.0640	601.58
63.0785	592.99
63.0929	580.77
63.1074	535.77
63.1218	567.35
63.1362	593.19
63.1507	575.82
63.1651	594.23
63.1796	560.61
63.1940	554.32
63.2084	556.14
63.2229	552.46
63.2373	572.70
63.2518	566.59
63.2662	552.39
63.2806	582.33
63.2951	565.38
63.3095	602.75
63.3240	596.40
63.3384	578.46
63.3528	559.82
63.3673	578.66
63.3817	578.93
63.3962	570.70
63.4106	529.26
63.4250	592.27
63.4395	579.04
63.4539	599.48
63.4684	599.46
63.4828	617.37
63.4972	597.78
63.5117	601.52
63.5261	612.96
63.5406	607.49
63.5550	631.26
63.5694	649.86
63.5839	645.23
63.5983	652.60
63.6128	692.72
63.6272	716.81
63.6416	716.72
63.6561	754.55
63.6705	783.95
63.6850	886.78
63.6994	913.71
63.7138	886.14
63.7283	911.29
63.7427	900.25
63.7572	856.35
63.7716	865.22
63.7861	827.60
63.8005	816.06
63.8149	849.92
63.8294	840.02
63.8438	801.00
63.8583	807.83
63.8727	725.87
63.8871	728.16
63.9016	742.04
63.9160	800.61
63.9305	790.66
63.9449	705.82
63.9593	704.00
63.9738	699.70
63.9882	705.18
64.0027	719.91
64.0171	704.02
64.0315	705.84
64.0460	690.07
64.0604	651.39
64.0749	620.01
64.0893	661.26
64.1037	596.06
64.1182	630.22
64.1326	693.43
64.1471	613.92
64.1615	639.60
64.1759	650.21
64.1904	586.64
64.2048	601.26
64.2193	656.02
64.2337	584.50
64.2481	584.72
64.2626	598.98
64.2770	611.89
64.2915	627.71
64.3059	631.25
64.3203	627.23
64.3348	614.76
64.3492	627.80
64.3637	595.94
64.3781	585.95
64.3925	606.02
64.4070	596.69
64.4214	617.62
64.4359	643.98
64.4503	638.67
64.4647	656.99
64.4792	659.07
64.4936	648.15
64.5081	616.89
64.5225	640.75
64.5369	651.14
64.5514	620.31
64.5658	587.25
64.5803	594.97
64.5947	609.64
64.6091	617.43
64.6236	635.90
64.6380	630.20
64.6525	640.68
64.6669	670.87
64.6813	674.69
64.6958	674.93
64.7102	716.24
64.7247	682.90
64.7391	658.05
64.7535	691.53
64.7680	710.36
64.7824	705.60
64.7969	738.64
64.8113	780.94
64.8257	743.96
64.8402	766.60
64.8546	835.16
64.8691	856.53
64.8835	802.75
64.8979	834.94
64.9124	889.88
64.9268	887.74
64.9413	918.79
64.9557	911.49
64.9701	1003.61
64.9846	1099.13
64.9990	1100.73
65.0135	1248.58
65.0279	1461.97
65.0423	1738.76
65.0568	2036.96
65.0712	2654.99
65.0857	3439.90
65.1001	4511.41
65.1145	6108.18
65.1290	7946.75
65.1434	9591.67
65.1579	11158.88
65.1723	11656.73
65.1867	11306.19
65.2012	10196.86
65.2156	8337.35
65.2301	6710.06
65.2445	5489.20
65.2589	4540.64
65.2734	4173.88
65.2878	4365.46
65.3023	4974.77
65.3167	5810.09
65.3311	6530.85
65.3456	7098.53
65.3600	6913.53
65.3745	6505.34
65.3889	5596.79
65.4033	4403.20
65.4178	3450.62
65.4322	2786.81
65.4467	2137.36
65.4611	1751.27
65.4755	1444.27
65.4900	1302.53
65.5044	1094.37
65.5189	1054.67
65.5333	1021.73
65.5477	955.83
65.5622	914.93
65.5766	845.17
65.5911	819.47
65.6055	805.29
65.6199	760.36
65.6344	751.57
65.6488	774.41
65.6633	739.88
65.6777	708.36
65.6921	684.86
65.7066	744.11
65.7210	728.55
65.7355	692.45
65.7499	706.85
65.7643	671.07
65.7788	651.80
65.7932	676.09
65.8077	687.27
65.8221	615.42
65.8365	650.31
65.8510	681.65
65.8654	680.78
65.8799	640.94
65.8943	632.56
65.9087	659.44
65.9232	631.14
65.9376	655.12
65.9521	625.29
65.9665	602.78
65.9809	631.02
65.9954	638.22
66.0098	620.01
66.0243	620.22
66.0387	614.48
66.0531	616.87
66.0676	625.07
66.0820	625.11
66.0965	613.36
66.1109	611.52
66.1253	642.33
66.1398	604.81
66.1542	595.33
66.1687	622.62
66.1831	592.26
66.1975	590.48
66.2120	597.08
66.2264	576.22
66.2409	587.40
66.2553	611.25
66.2697	584.95
66.2842	597.65
66.2986	612.84
66.3131	599.33
66.3275	611.82
66.3419	609.74
66.3564	592.82
66.3708	613.92
66.3853	604.67
66.3997	603.80
66.4141	606.11
66.4286	593.84
66.4430	609.14
66.4575	605.58
66.4719	589.01
66.4863	591.62
66.5008	585.26
66.5152	606.34
66.5297	580.72
66.5441	596.83
66.5585	573.23
66.5730	570.68
66.5874	573.16
66.6019	607.89
66.6163	613.94
66.6307	606.30
66.6452	616.40
66.6596	586.14
66.6741	557.43
66.6885	545.97
66.7029	593.45
66.7174	576.69
66.7318	576.46
66.7463	596.50
66.7607	598.38
66.7751	564.58
66.7896	586.81
66.8040	633.08
66.8185	597.67
66.8329	572.41
66.8473	581.69
66.8618	579.87
66.8762	602.66
66.8907	596.76
66.9051	608.07
66.9195	596.91
66.9340	606.42
66.9484	620.93
66.9629	542.99
66.9773	591.61
66.9917	585.56
67.0062	568.55
67.0206	601.58
67.0351	610.96
67.0495	549.47
67.0639	582.59
67.0784	608.77
67.0928	612.16
67.1073	607.90
67.1217	619.02
67.1361	584.71
67.1506	560.39
67.1650	577.42
67.1795	571.37
67.1939	594.12
67.2083	590.39
67.2228	586.87
67.2372	574.64
67.2517	554.77
67.2661	529.35
67.2805	577.77
67.2950	572.06
67.3094	558.25
67.3239	576.83
67.3383	596.96
67.3527	573.26
67.3672	562.37
67.3816	590.38
67.3961	567.74
67.4105	578.10
67.4250	603.23
67.4394	588.95
67.4538	575.06
67.4683	583.06
67.4827	606.01
67.4972	594.71
67.5116	566.65
67.5260	523.29
67.5405	565.12
67.5549	600.36
67.5694	588.52
67.5838	572.30
67.5982	576.02
67.6127	580.77
67.6271	573.78
67.6416	589.66
67.6560	562.66
67.6704	555.71
67.6849	552.64
67.6993	563.26
67.7138	589.92
67.7282	585.05
67.7426	553.83
67.7571	557.66
67.7715	540.47
67.7860	590.29
67.8004	613.57
67.8148	554.76
67.8293	555.94
67.8437	584.23
67.8582	581.76
67.8726	582.03
67.8870	589.63
67.9015	640.02
67.9159	586.49
67.9304	588.81
67.9448	583.53
67.9592	595.52
67.9737	581.37
67.9881	585.03
68.0026	588.69
68.0170	581.09
68.0314	598.41
68.0459	565.44
68.0603	596.62
68.0748	595.50
68.0892	612.83
68.1036	602.05
68.1181	591.76
68.1325	590.52
68.1470	601.06
68.1614	608.86
68.1758	605.34
68.1903	549.23
68.2047	579.96
68.2192	581.81
68.2336	588.03
68.2480	597.15
68.2625	596.84
68.2769	564.57
68.2914	579.31
68.3058	583.99
68.3202	605.68
68.3347	575.39
68.3491	575.00
68.3636	600.87
68.3780	604.68
68.3924	568.44
68.4069	566.60
68.4213	597.31
68.4358	605.16
68.4502	552.55
68.4646	570.00
68.4791	594.69
68.4935	564.80
68.5080	553.17
68.5224	559.99
68.5368	583.71
68.5513	577.88
68.5657	560.72
68.5802	594.82
68.5946	591.94
68.6090	573.73
68.6235	608.35
68.6379	597.67
68.6524	581.55
68.6668	553.63
68.6812	596.97
68.6957	594.10
68.7101	585.14
68.7246	604.96
68.7390	627.49
68.7534	576.08
68.7679	619.95
68.7823	597.96
68.7968	580.90
68.8112	556.94
68.8256	527.31
68.8401	595.48
68.8545	620.52
68.8690	538.58
68.8834	556.72
68.8978	592.08
68.9123	565.46
68.9267	591.48
68.9412	579.62
68.9556	518.72
68.9700	575.53
68.9845	599.61
68.9989	594.69
69.0134	563.97
69.0278	586.95
69.0422	591.61
69.0567	591.88
69.0711	585.71
69.0856	585.18
69.1000	593.08
69.1144	571.94
69.1289	566.13
69.1433	547.24
69.1578	557.68
69.1722	583.14
69.1866	530.70
69.2011	553.73
69.2155	572.31
69.2300	597.53
69.2444	566.28
69.2588	559.77
69.2733	568.82
69.2877	581.98
69.3022	572.88
69.3166	541.98
69.3310	598.99
69.3455	619.48
69.3599	599.91
69.3744	545.89
69.3888	581.71
69.4032	616.41
69.4177	574.34
69.4321	595.17
69.4466	563.75
69.4610	588.17
69.4754	587.15
69.4899	593.73
69.5043	584.91
69.5188	546.11
69.5332	556.83
69.5476	549.93
69.5621	573.06
69.5765	526.28
69.5910	549.21
69.6054	566.15
69.6198	575.40
69.6343	625.43
69.6487	634.45
69.6632	622.51
69.6776	592.45
69.6920	561.29
69.7065	594.56
69.7209	600.35
69.7354	527.80
69.7498	570.04
69.7642	610.09
69.7787	537.02
69.7931	552.79
69.8076	496.25
69.8220	597.08
69.8364	637.89
69.8509	602.87
69.8653	578.10
69.8798	574.02
69.8942	586.35
69.9086	610.99
69.9231	564.51
69.9375	597.33
69.9520	581.90
69.9664	628.67
69.9808	597.38
69.9953	593.29
70.0097	562.76
70.0242	546.60
70.0386	604.67
70.0530	595.75
70.0675	576.36
70.0819	589.22
70.0964	668.90
70.1108	563.44
70.1252	541.90
70.1397	569.59
70.1541	562.06
70.1686	520.49
70.1830	533.56
70.1974	594.06
70.2119	581.02
70.2263	560.82
70.2408	555.89
70.2552	562.92
70.2696	596.87
70.2841	572.53
70.2985	572.53
70.3130	560.71
70.3274	610.76
70.3418	626.48
70.3563	600.40
70.3707	545.11
70.3852	588.11
70.3996	603.64
70.4140	575.18
70.4285	596.22
70.4429	648.07
70.4574	633.21
70.4718	594.90
70.4862	595.48
70.5007	534.18
70.5151	550.58
70.5296	603.79
70.5440	576.44
70.5584	544.73
70.5729	583.46
70.5873	565.04
70.6018	548.44
70.6162	564.40
70.6306	577.57
70.6451	578.54
70.6595	585.24
70.6740	583.57
70.6884	573.38
70.7028	588.72
70.7173	620.67
70.7317	605.65
70.7462	567.58
70.7606	613.44
70.7750	572.02
70.7895	598.80
70.8039	595.24
70.8184	594.76
70.8328	598.79
70.8472	579.70
70.8617	587.24
70.8761	609.70
70.8906	604.96
70.9050	604.04
70.9194	563.90
70.9339	605.21
70.9483	630.42
70.9628	601.81
70.9772	596.48
70.9916	646.52
71.0061	663.05
71.0205	627.30
71.0350	616.15
71.0494	614.85
71.0638	582.64
71.0783	574.65
71.0927	620.92
71.1072	604.65
71.1216	560.22
71.1361	598.70
71.1505	621.17
71.1649	613.60
71.1794	546.39
71.1938	550.78
71.2083	593.93
71.2227	552.88
71.2371	575.17
71.2516	585.57
71.2660	599.16
71.2805	578.31
71.2949	605.31
71.3093	574.81
71.3238	612.45
71.3382	627.42
71.3527	601.39
71.3671	561.04
71.3815	637.88
71.3960	637.35
71.4104	570.10
71.4249	586.86
71.4393	563.36
71.4537	540.13
71.4682	588.83
71.4826	614.39
71.4971	624.01
71.5115	601.49
71.5259	572.27
71.5404	552.89
71.5548	538.37
71.5693	607.82
71.5837	565.88
71.5981	543.58
71.6126	559.50
71.6270	566.10
71.6415	567.60
71.6559	555.37
71.6703	543.18
71.6848	550.48
71.6992	606.15
71.7137	596.48
71.7281	581.40
71.7425	567.89
71.7570	523.79
71.7714	581.55
71.7859	590.75
71.8003	570.49
71.8147	578.89
71.8292	603.94
71.8436	583.70
71.8581	565.66
71.8725	575.44
71.8869	563.90
71.9014	600.91
71.9158	616.84
71.9303	631.30
71.9447	612.33
71.9591	607.65
71.9736	646.30
71.9880	563.54
72.0025	572.66
72.0169	605.50
72.0313	589.89
72.0458	601.30
72.0602	628.44
72.0747	599.30
72.0891	560.96
72.1035	600.30
72.1180	622.00
72.1324	603.24
72.1469	530.99
72.1613	517.07
72.1757	601.44
72.1902	571.64
72.2046	539.64
72.2191	517.57
72.2335	529.98
72.2479	615.80
72.2624	627.83
72.2768	582.98
72.2913	545.74
72.3057	600.23
72.3201	584.78
72.3346	566.69
72.3490	618.75
72.3635	581.48
72.3779	617.71
72.3923	590.43
72.4068	581.69
72.4212	651.44
72.4357	662.14
72.4501	636.00
72.4645	627.91
72.4790	576.52
72.4934	525.90
72.5079	562.74
72.5223	542.10
72.5367	535.84
72.5512	583.67
72.5656	550.13
72.5801	555.13
72.5945	505.90
72.6089	523.87
72.6234	617.14
72.6378	652.92
72.6523	575.65
72.6667	585.30
72.6811	600.30
72.6956	507.69
72.7100	517.06
72.7245	514.88
72.7389	577.25
72.7533	570.60
72.7678	583.18
72.7822	567.88
72.7967	592.08
72.8111	634.32
72.8255	593.62
72.8400	582.75
72.8544	566.17
72.8689	570.16
72.8833	593.34