2022.09.19 19:37:17
Îáðàçåö: ß÷åéêà LCoV 16-09-2022
Lambda1 = 1.54060
Lambda2 = 1.54439
Lambdam = 1.54186
R = 0.497
2Theta	I

line¹ 0 ;repeat¹ 0
22.1120	647.66
22.1264	618.74
22.1409	612.06
22.1553	543.19
22.1697	590.45
22.1842	555.57
22.1986	506.86
22.2131	511.06
22.2275	599.24
22.2419	578.92
22.2564	547.09
22.2708	536.02
22.2853	614.26
22.2997	657.83
22.3141	573.95
22.3286	575.83
22.3430	566.33
22.3575	616.49
22.3719	611.53
22.3863	584.96
22.4008	478.90
22.4152	538.66
22.4297	549.81
22.4441	656.76
22.4585	669.05
22.4730	571.25
22.4874	584.70
22.5019	572.76
22.5163	588.94
22.5307	533.09
22.5452	480.56
22.5596	601.29
22.5741	693.15
22.5885	684.93
22.6029	589.89
22.6174	461.88
22.6318	511.76
22.6463	577.28
22.6607	522.81
22.6751	512.84
22.6896	588.33
22.7040	606.61
22.7185	599.59
22.7329	590.46
22.7473	549.12
22.7618	539.11
22.7762	561.42
22.7907	604.47
22.8051	526.65
22.8195	567.55
22.8340	519.14
22.8484	571.17
22.8629	626.51
22.8773	517.54
22.8917	514.76
22.9062	542.02
22.9206	498.88
22.9351	524.69
22.9495	549.36
22.9639	538.70
22.9784	583.26
22.9928	457.70
23.0073	588.14
23.0217	572.30
23.0361	562.20
23.0506	570.30
23.0650	579.26
23.0795	518.78
23.0939	636.70
23.1083	559.49
23.1228	599.92
23.1372	602.61
23.1517	542.56
23.1661	558.48
23.1806	592.44
23.1950	562.57
23.2094	509.74
23.2239	583.08
23.2383	499.74
23.2528	562.29
23.2672	562.25
23.2816	542.38
23.2961	524.05
23.3105	613.65
23.3250	564.59
23.3394	541.51
23.3538	598.06
23.3683	595.12
23.3827	586.38
23.3972	598.59
23.4116	558.31
23.4260	622.19
23.4405	503.98
23.4549	528.22
23.4694	598.38
23.4838	604.57
23.4982	501.48
23.5127	560.82
23.5271	541.89
23.5416	595.94
23.5560	605.55
23.5704	574.09
23.5849	587.98
23.5993	586.82
23.6138	560.20
23.6282	571.02
23.6426	556.89
23.6571	515.30
23.6715	540.30
23.6860	566.90
23.7004	592.81
23.7148	517.95
23.7293	533.37
23.7437	595.04
23.7582	558.34
23.7726	648.00
23.7870	568.89
23.8015	569.85
23.8159	568.78
23.8304	582.21
23.8448	479.39
23.8592	554.14
23.8737	519.35
23.8881	526.03
23.9026	599.66
23.9170	568.87
23.9314	579.63
23.9459	571.01
23.9603	504.84
23.9748	572.38
23.9892	545.35
24.0036	529.63
24.0181	591.10
24.0325	513.51
24.0470	564.19
24.0614	602.61
24.0758	611.46
24.0903	670.07
24.1047	577.15
24.1192	578.65
24.1336	563.76
24.1480	592.32
24.1625	586.21
24.1769	508.50
24.1914	539.00
24.2058	568.77
24.2202	520.62
24.2347	599.86
24.2491	618.26
24.2636	570.32
24.2780	607.95
24.2924	640.88
24.3069	590.43
24.3213	577.44
24.3358	567.34
24.3502	599.45
24.3646	591.42
24.3791	524.70
24.3935	560.83
24.4080	501.43
24.4224	505.44
24.4368	579.76
24.4513	552.61
24.4657	545.54
24.4802	549.84
24.4946	557.30
24.5090	548.31
24.5235	615.88
24.5379	638.27
24.5524	557.44
24.5668	530.40
24.5812	556.95
24.5957	558.97
24.6101	599.26
24.6246	551.24
24.6390	561.54
24.6534	552.84
24.6679	564.49
24.6823	561.45
24.6968	575.10
24.7112	583.49
24.7256	555.25
24.7401	553.46
24.7545	503.67
24.7690	518.55
24.7834	537.78
24.7978	547.33
24.8123	566.97
24.8267	552.96
24.8412	552.03
24.8556	531.27
24.8700	563.44
24.8845	574.82
24.8989	529.52
24.9134	568.14
24.9278	563.11
24.9422	540.33
24.9567	526.69
24.9711	541.96
24.9856	531.10
25.0000	519.93
25.0144	575.66
25.0289	552.77
25.0433	575.35
25.0578	574.36
25.0722	579.60
25.0866	499.53
25.1011	513.32
25.1155	563.39
25.1300	559.22
25.1444	515.45
25.1588	574.65
25.1733	543.46
25.1877	539.61
25.2022	533.60
25.2166	522.10
25.2310	563.38
25.2455	549.15
25.2599	523.56
25.2744	530.14
25.2888	540.70
25.3032	593.99
25.3177	533.49
25.3321	486.81
25.3466	522.52
25.3610	514.15
25.3754	533.85
25.3899	551.14
25.4043	529.10
25.4188	553.89
25.4332	538.14
25.4476	527.83
25.4621	547.17
25.4765	561.58
25.4910	553.70
25.5054	537.08
25.5198	511.18
25.5343	539.30
25.5487	540.07
25.5632	506.36
25.5776	531.78
25.5920	570.36
25.6065	556.17
25.6209	526.99
25.6354	515.17
25.6498	524.92
25.6642	534.11
25.6787	476.81
25.6931	501.07
25.7076	533.32
25.7220	525.58
25.7364	515.27
25.7509	543.26
25.7653	548.08
25.7798	605.00
25.7942	565.23
25.8086	541.77
25.8231	553.33
25.8375	492.07
25.8520	515.81
25.8664	541.91
25.8808	510.46
25.8953	499.32
25.9097	531.45
25.9242	539.50
25.9386	520.37
25.9530	520.94
25.9675	497.16
25.9819	511.72
25.9964	552.97
26.0108	550.99
26.0252	555.59
26.0397	540.72
26.0541	529.89
26.0686	564.77
26.0830	520.68
26.0974	530.78
26.1119	533.85
26.1263	531.81
26.1408	501.32
26.1552	554.68
26.1696	500.83
26.1841	543.51
26.1985	541.77
26.2130	513.13
26.2274	509.73
26.2418	532.46
26.2563	523.69
26.2707	528.92
26.2852	569.59
26.2996	534.75
26.3140	541.26
26.3285	524.20
26.3429	503.97
26.3574	512.58
26.3718	522.74
26.3862	517.14
26.4007	521.60
26.4151	501.67
26.4296	506.98
26.4440	516.08
26.4584	537.04
26.4729	530.37
26.4873	530.72
26.5018	546.10
26.5162	509.15
26.5306	559.48
26.5451	534.17
26.5595	523.46
26.5740	491.14
26.5884	505.09
26.6028	527.30
26.6173	523.88
26.6317	560.74
26.6462	543.32
26.6606	540.65
26.6750	559.96
26.6895	512.00
26.7039	545.16
26.7184	544.00
26.7328	520.66
26.7472	523.64
26.7617	530.35
26.7761	522.97
26.7906	536.50
26.8050	529.71
26.8194	520.85
26.8339	497.65
26.8483	498.82
26.8628	550.98
26.8772	536.54
26.8917	503.71
26.9061	535.14
26.9205	540.21
26.9350	523.98
26.9494	580.62
26.9639	534.11
26.9783	513.92
26.9927	553.96
27.0072	530.67
27.0216	532.97
27.0361	527.54
27.0505	496.39
27.0649	546.55
27.0794	529.00
27.0938	511.67
27.1083	519.86
27.1227	555.42
27.1371	507.85
27.1516	509.29
27.1660	533.88
27.1805	536.71
27.1949	514.49
27.2093	519.59
27.2238	539.82
27.2382	542.17
27.2527	531.07
27.2671	509.05
27.2815	542.28
27.2960	535.76
27.3104	508.51
27.3249	482.49
27.3393	520.62
27.3537	530.06
27.3682	527.44
27.3826	533.14
27.3971	538.70
27.4115	519.43
27.4259	561.00
27.4404	510.91
27.4548	490.23
27.4693	515.80
27.4837	526.24
27.4981	499.31
27.5126	508.68
27.5270	511.26
27.5415	525.12
27.5559	551.11
27.5703	561.53
27.5848	543.74
27.5992	561.04
27.6137	535.51
27.6281	522.48
27.6425	505.13
27.6570	504.91
27.6714	521.73
27.6859	529.48
27.7003	519.45
27.7147	522.71
27.7292	520.58
27.7436	510.93
27.7581	489.42
27.7725	489.58
27.7869	509.31
27.8014	496.43
27.8158	508.04
27.8303	534.57
27.8447	523.46
27.8591	527.96
27.8736	547.33
27.8880	511.32
27.9025	521.95
27.9169	517.66
27.9313	502.87
27.9458	511.00
27.9602	500.37
27.9747	535.02
27.9891	522.93
28.0035	536.45
28.0180	573.74
28.0324	521.05
28.0469	482.10
28.0613	517.74
28.0757	516.24
28.0902	524.94
28.1046	510.31
28.1191	512.67
28.1335	519.48
28.1479	515.24
28.1624	525.92
28.1768	508.88
28.1913	524.77
28.2057	488.68
28.2201	500.64
28.2346	521.46
28.2490	556.31
28.2635	519.99
28.2779	508.43
28.2923	483.58
28.3068	499.05
28.3212	504.72
28.3357	518.01
28.3501	527.13
28.3645	525.45
28.3790	502.57
28.3934	502.64
28.4079	501.60
28.4223	520.77
28.4367	507.50
28.4512	487.20
28.4656	499.72
28.4801	490.49
28.4945	489.01
28.5089	477.70
28.5234	480.22
28.5378	503.55
28.5523	509.34
28.5667	485.02
28.5811	493.90
28.5956	533.09
28.6100	537.23
28.6245	489.85
28.6389	503.71
28.6533	511.89
28.6678	535.43
28.6822	526.02
28.6967	551.89
28.7111	519.31
28.7255	464.95
28.7400	475.73
28.7544	518.14
28.7689	510.64
28.7833	507.01
28.7977	525.44
28.8122	543.02
28.8266	543.89
28.8411	519.49
28.8555	547.29
28.8699	511.82
28.8844	499.34
28.8988	516.35
28.9133	492.71
28.9277	537.57
28.9421	506.83
28.9566	484.67
28.9710	475.95
28.9855	514.19
28.9999	486.48
29.0143	508.82
29.0288	529.80
29.0432	533.76
29.0577	497.69
29.0721	519.99
29.0865	528.22
29.1010	506.75
29.1154	522.81
29.1299	559.87
29.1443	537.95
29.1587	496.76
29.1732	546.56
29.1876	519.02
29.2021	497.18
29.2165	524.57
29.2309	522.60
29.2454	522.61
29.2598	504.62
29.2743	483.30
29.2887	534.29
29.3031	496.79
29.3176	472.94
29.3320	498.05
29.3465	513.57
29.3609	501.54
29.3753	495.39
29.3898	480.70
29.4042	523.08
29.4187	494.65
29.4331	513.16
29.4475	497.06
29.4620	502.61
29.4764	513.02
29.4909	486.24
29.5053	477.13
29.5197	494.59
29.5342	517.60
29.5486	512.78
29.5631	523.19
29.5775	497.89
29.5919	499.55
29.6064	486.19
29.6208	496.81
29.6353	487.00
29.6497	521.76
29.6641	519.25
29.6786	511.85
29.6930	499.82
29.7075	497.52
29.7219	481.88
29.7363	508.55
29.7508	526.79
29.7652	481.51
29.7797	493.84
29.7941	490.59
29.8085	521.38
29.8230	484.54
29.8374	483.99
29.8519	512.58
29.8663	493.04
29.8807	509.75
29.8952	517.66
29.9096	501.19
29.9241	472.64
29.9385	499.95
29.9529	494.42
29.9674	511.68
29.9818	499.12
29.9963	522.52
30.0107	505.70
30.0251	503.60
30.0396	493.13
30.0540	488.79
30.0685	476.76
30.0829	499.62
30.0973	461.84
30.1118	526.87
30.1262	535.00
30.1407	498.81
30.1551	497.25
30.1695	534.27
30.1840	513.28
30.1984	498.28
30.2129	525.18
30.2273	496.15
30.2417	536.06
30.2562	498.02
30.2706	501.15
30.2851	509.60
30.2995	486.12
30.3139	502.54
30.3284	527.21
30.3428	529.10
30.3573	502.58
30.3717	516.76
30.3861	526.58
30.4006	506.52
30.4150	545.69
30.4295	536.88
30.4439	531.65
30.4583	564.01
30.4728	537.58
30.4872	578.61
30.5017	608.54
30.5161	632.21
30.5305	686.30
30.5450	726.80
30.5594	740.60
30.5739	737.95
30.5883	751.24
30.6028	764.65
30.6172	750.54
30.6316	695.84
30.6461	687.30
30.6605	653.65
30.6750	617.94
30.6894	585.12
30.7038	598.92
30.7183	575.79
30.7327	546.34
30.7472	549.95
30.7616	508.89
30.7760	507.84
30.7905	468.82
30.8049	512.75
30.8194	517.79
30.8338	529.77
30.8482	539.95
30.8627	532.40
30.8771	521.95
30.8916	524.87
30.9060	543.10
30.9204	507.44
30.9349	503.97
30.9493	460.34
30.9638	487.34
30.9782	506.67
30.9926	492.99
31.0071	474.86
31.0215	502.14
31.0360	500.14
31.0504	500.64
31.0648	507.58
31.0793	471.09
31.0937	508.29
31.1082	489.57
31.1226	498.45
31.1370	495.30
31.1515	470.87
31.1659	497.91
31.1804	469.53
31.1948	491.74
31.2092	497.35
31.2237	497.95
31.2381	488.11
31.2526	488.02
31.2670	485.23
31.2814	540.99
31.2959	559.61
31.3103	533.00
31.3248	541.98
31.3392	535.12
31.3536	495.65
31.3681	544.94
31.3825	537.07
31.3970	503.27
31.4114	516.38
31.4258	536.26
31.4403	533.15
31.4547	487.33
31.4692	509.52
31.4836	516.20
31.4980	471.16
31.5125	485.59
31.5269	496.67
31.5414	491.11
31.5558	464.30
31.5702	495.30
31.5847	518.48
31.5991	496.01
31.6136	492.85
31.6280	489.42
31.6424	512.56
31.6569	494.07
31.6713	511.07
31.6858	510.64
31.7002	482.09
31.7146	492.68
31.7291	487.34
31.7435	505.12
31.7580	506.04
31.7724	483.50
31.7868	486.10
31.8013	496.31
31.8157	523.51
31.8302	501.50
31.8446	491.22
31.8590	530.12
31.8735	534.89
31.8879	529.25
31.9024	552.10
31.9168	541.23
31.9312	490.47
31.9457	523.30
31.9601	475.25
31.9746	463.92
31.9890	498.38
32.0034	499.03
32.0179	477.22
32.0323	496.87
32.0468	489.43
32.0612	517.60
32.0756	527.55
32.0901	532.94
32.1045	500.06
32.1190	526.21
32.1334	537.69
32.1478	499.58
32.1623	482.45
32.1767	511.26
32.1912	513.45
32.2056	507.79
32.2200	500.01
32.2345	516.18
32.2489	484.97
32.2634	485.83
32.2778	498.24
32.2922	486.14
32.3067	504.28
32.3211	487.57
32.3356	506.56
32.3500	530.65
32.3644	526.33
32.3789	486.11
32.3933	495.77
32.4078	463.35
32.4222	503.62
32.4366	467.51
32.4511	468.81
32.4655	499.18
32.4800	526.50
32.4944	503.60
32.5088	495.75
32.5233	487.16
32.5377	513.35
32.5522	525.15
32.5666	518.65
32.5810	481.82
32.5955	500.78
32.6099	521.47
32.6244	508.83
32.6388	497.15
32.6532	488.67
32.6677	485.38
32.6821	484.15
32.6966	483.55
32.7110	495.54
32.7254	488.27
32.7399	498.62
32.7543	511.53
32.7688	483.44
32.7832	483.55
32.7976	499.25
32.8121	502.29
32.8265	507.75
32.8410	488.98
32.8554	519.02
32.8698	514.12
32.8843	516.04
32.8987	505.38
32.9132	446.61
32.9276	509.27
32.9420	569.68
32.9565	496.68
32.9709	463.86
32.9854	506.46
32.9998	491.24
33.0142	497.83
33.0287	527.43
33.0431	501.13
33.0576	499.73
33.0720	499.27
33.0864	512.50
33.1009	482.79
33.1153	496.07
33.1298	477.54
33.1442	505.37
33.1586	491.06
33.1731	455.70
33.1875	473.39
33.2020	479.77
33.2164	483.72
33.2308	493.29
33.2453	518.00
33.2597	509.38
33.2742	503.19
33.2886	495.46
33.3030	491.83
33.3175	504.00
33.3319	503.25
33.3464	520.62
33.3608	489.80
33.3752	534.77
33.3897	508.91
33.4041	480.28
33.4186	515.27
33.4330	515.26
33.4474	486.61
33.4619	493.94
33.4763	464.88
33.4908	506.85
33.5052	519.84
33.5196	515.92
33.5341	525.85
33.5485	520.28
33.5630	480.54
33.5774	474.94
33.5918	499.10
33.6063	496.07
33.6207	509.73
33.6352	499.16
33.6496	502.40
33.6640	499.73
33.6785	501.92
33.6929	505.49
33.7074	522.26
33.7218	537.53
33.7362	484.80
33.7507	499.45
33.7651	445.10
33.7796	491.81
33.7940	529.13
33.8084	508.03
33.8229	524.25
33.8373	495.01
33.8518	522.90
33.8662	533.52
33.8806	540.50
33.8951	533.96
33.9095	516.92
33.9240	542.86
33.9384	547.50
33.9528	496.09
33.9673	499.50
33.9817	524.87
33.9962	494.51
34.0106	497.33
34.0250	510.66
34.0395	497.55
34.0539	441.70
34.0684	503.51
34.0828	526.77
34.0972	486.57
34.1117	493.43
34.1261	497.30
34.1406	501.12
34.1550	489.86
34.1694	500.33
34.1839	520.98
34.1983	524.49
34.2128	513.38
34.2272	496.99
34.2417	513.60
34.2561	477.98
34.2705	514.20
34.2850	498.12
34.2994	476.46
34.3139	457.15
34.3283	474.47
34.3427	531.64
34.3572	489.36
34.3716	459.30
34.3861	485.23
34.4005	522.85
34.4149	501.53
34.4294	506.64
34.4438	526.48
34.4583	535.06
34.4727	532.45
34.4871	526.84
34.5016	525.95
34.5160	523.37
34.5305	501.36
34.5449	489.11
34.5593	504.21
34.5738	501.17
34.5882	507.09
34.6027	511.00
34.6171	500.27
34.6315	519.94
34.6460	495.17
34.6604	475.39
34.6749	501.14
34.6893	498.26
34.7037	527.39
34.7182	492.88
34.7326	487.53
34.7471	512.60
34.7615	501.06
34.7759	497.28
34.7904	502.47
34.8048	484.29
34.8193	496.16
34.8337	502.04
34.8481	477.08
34.8626	507.53
34.8770	535.92
34.8915	511.80
34.9059	545.27
34.9203	493.35
34.9348	479.61
34.9492	478.31
34.9637	489.14
34.9781	507.60
34.9925	515.57
35.0070	523.37
35.0214	530.40
35.0359	499.84
35.0503	490.43
35.0647	518.77
35.0792	529.47
35.0936	530.29
35.1081	535.68
35.1225	535.38
35.1369	503.08
35.1514	502.29
35.1658	528.64
35.1803	529.27
35.1947	472.08
35.2091	487.81
35.2236	511.44
35.2380	528.18
35.2525	501.14
35.2669	490.02
35.2813	484.87
35.2958	527.14
35.3102	502.67
35.3247	484.41
35.3391	510.77
35.3535	498.30
35.3680	489.93
35.3824	492.98
35.3969	485.38
35.4113	500.23
35.4257	540.38
35.4402	517.99
35.4546	542.79
35.4691	563.34
35.4835	529.82
35.4979	529.13
35.5124	544.83
35.5268	548.73
35.5413	566.02
35.5557	555.23
35.5701	535.47
35.5846	514.11
35.5990	533.55
35.6135	505.47
35.6279	515.26
35.6423	570.47
35.6568	587.25
35.6712	564.42
35.6857	603.41
35.7001	686.32
35.7145	754.67
35.7290	684.24
35.7434	663.47
35.7579	616.81
35.7723	654.04
35.7867	694.03
35.8012	749.45
35.8156	789.71
35.8301	715.62
35.8445	712.20
35.8589	782.24
35.8734	853.80
35.8878	935.15
35.9023	1066.39
35.9167	1132.51
35.9311	1306.68
35.9456	1699.12
35.9600	1968.91
35.9745	2097.09
35.9889	2292.42
36.0033	2745.20
36.0178	2995.70
36.0322	3137.63
36.0467	2670.96
36.0611	2111.63
36.0755	1997.71
36.0900	2234.65
36.1044	2148.72
36.1189	1704.46
36.1333	1270.50
36.1477	1145.83
36.1622	1082.27
36.1766	966.34
36.1911	852.47
36.2055	764.91
36.2199	793.89
36.2344	722.31
36.2488	618.51
36.2633	566.67
36.2777	573.52
36.2921	568.53
36.3066	565.07
36.3210	556.85
36.3355	516.59
36.3499	542.19
36.3643	556.83
36.3788	539.66
36.3932	524.66
36.4077	511.37
36.4221	515.75
36.4365	523.22
36.4510	505.39
36.4654	519.61
36.4799	492.40
36.4943	476.53
36.5087	534.29
36.5232	545.51
36.5376	544.95
36.5521	534.98
36.5665	542.65
36.5809	501.89
36.5954	537.16
36.6098	516.55
36.6243	534.46
36.6387	526.70
36.6531	543.17
36.6676	519.84
36.6820	496.14
36.6965	492.15
36.7109	513.98
36.7253	514.71
36.7398	489.18
36.7542	519.25
36.7687	545.49
36.7831	558.98
36.7975	535.48
36.8120	559.32
36.8264	563.93
36.8409	569.81
36.8553	565.11
36.8697	564.38
36.8842	529.90
36.8986	555.26
36.9131	623.64
36.9275	603.61
36.9419	523.22
36.9564	564.30
36.9708	583.34
36.9853	564.27
36.9997	554.41
37.0141	526.94
37.0286	544.37
37.0430	514.72
37.0575	487.28
37.0719	525.62
37.0863	517.04
37.1008	530.51
37.1152	511.28
37.1297	537.63
37.1441	507.73
37.1585	515.78
37.1730	525.23
37.1874	502.44
37.2019	479.62
37.2163	503.30
37.2307	462.18
37.2452	503.09
37.2596	503.50
37.2741	501.63
37.2885	500.12
37.3029	473.57
37.3174	487.60
37.3318	486.89
37.3463	518.84
37.3607	529.98
37.3751	507.07
37.3896	455.89
37.4040	471.00
37.4185	497.01
37.4329	519.45
37.4473	464.06
37.4618	473.16
37.4762	519.11
37.4907	512.37
37.5051	510.03
37.5195	507.19
37.5340	500.85
37.5484	498.83
37.5629	508.75
37.5773	496.34
37.5917	486.22
37.6062	539.07
37.6206	512.81
37.6351	521.66
37.6495	517.87
37.6639	487.72
37.6784	481.23
37.6928	504.81
37.7073	498.85
37.7217	527.75
37.7361	484.67
37.7506	503.42
37.7650	470.11
37.7795	496.40
37.7939	505.75
37.8083	473.83
37.8228	485.99
37.8372	484.76
37.8517	479.18
37.8661	520.31
37.8805	505.18
37.8950	524.24
37.9094	511.33
37.9239	514.53
37.9383	524.47
37.9528	510.88
37.9672	485.90
37.9816	485.96
37.9961	528.14
38.0105	485.88
38.0250	505.43
38.0394	517.87
38.0538	491.07
38.0683	520.27
38.0827	516.54
38.0972	507.14
38.1116	518.30
38.1260	506.42
38.1405	488.59
38.1549	494.20
38.1694	515.17
38.1838	505.44
38.1982	494.67
38.2127	508.86
38.2271	485.73
38.2416	497.82
38.2560	512.60
38.2704	496.36
38.2849	498.79
38.2993	523.66
38.3138	507.41
38.3282	529.92
38.3426	524.20
38.3571	494.75
38.3715	521.83
38.3860	517.94
38.4004	534.17
38.4148	570.98
38.4293	573.66
38.4437	560.19
38.4582	613.15
38.4726	663.59
38.4870	710.91
38.5015	749.70
38.5159	768.44
38.5304	770.60
38.5448	791.80
38.5592	811.12
38.5737	768.36
38.5881	743.29
38.6026	718.60
38.6170	711.61
38.6314	670.07
38.6459	649.95
38.6603	657.90
38.6748	621.12
38.6892	591.18
38.7036	541.37
38.7181	523.34
38.7325	484.36
38.7470	505.78
38.7614	514.58
38.7758	493.99
38.7903	524.99
38.8047	507.26
38.8192	467.21
38.8336	489.92
38.8480	497.34
38.8625	480.28
38.8769	505.53
38.8914	521.38
38.9058	553.01
38.9202	514.64
38.9347	481.70
38.9491	501.50
38.9636	503.57
38.9780	454.61
38.9924	458.50
39.0069	474.92
39.0213	494.96
39.0358	496.76
39.0502	510.49
39.0646	521.31
39.0791	491.32
39.0935	482.42
39.1080	506.74
39.1224	510.13
39.1368	544.41
39.1513	488.14
39.1657	495.46
39.1802	491.69
39.1946	468.22
39.2090	490.06
39.2235	544.25
39.2379	545.96
39.2524	540.02
39.2668	484.20
39.2812	507.74
39.2957	504.78
39.3101	485.63
39.3246	511.14
39.3390	538.48
39.3534	525.72
39.3679	506.28
39.3823	485.78
39.3968	492.94
39.4112	505.86
39.4256	532.02
39.4401	505.37
39.4545	504.62
39.4690	494.50
39.4834	480.28
39.4978	465.96
39.5123	479.19
39.5267	512.29
39.5412	512.90
39.5556	499.83
39.5700	511.30
39.5845	483.91
39.5989	512.17
39.6134	507.85
39.6278	496.33
39.6422	478.50
39.6567	492.06
39.6711	525.87
39.6856	481.85
39.7000	489.44
39.7144	508.14
39.7289	480.27
39.7433	476.13
39.7578	464.50
39.7722	495.32
39.7866	479.85
39.8011	485.38
39.8155	518.67
39.8300	477.68
39.8444	481.97
39.8588	496.74
39.8733	482.19
39.8877	509.98
39.9022	528.07
39.9166	513.13
39.9310	494.44
39.9455	543.74
39.9599	486.74
39.9744	491.64
39.9888	470.68
40.0032	504.75
40.0177	472.16
40.0321	497.97
40.0466	493.04
40.0610	510.28
40.0754	506.73
40.0899	493.29
40.1043	480.60
40.1188	495.70
40.1332	473.63
40.1476	472.00
40.1621	471.28
40.1765	501.76
40.1910	481.42
40.2054	480.15
40.2198	502.75
40.2343	491.76
40.2487	482.73
40.2632	470.61
40.2776	497.61
40.2920	487.73
40.3065	478.24
40.3209	485.43
40.3354	489.45
40.3498	496.68
40.3642	495.07
40.3787	479.57
40.3931	475.34
40.4076	491.61
40.4220	507.79
40.4364	491.86
40.4509	472.10
40.4653	520.53
40.4798	507.91
40.4942	481.33
40.5086	464.21
40.5231	480.31
40.5375	471.97
40.5520	470.29
40.5664	496.28
40.5808	511.53
40.5953	496.11
40.6097	496.26
40.6242	486.74
40.6386	519.88
40.6530	523.99
40.6675	530.46
40.6819	485.48
40.6964	474.78
40.7108	498.67
40.7252	472.87
40.7397	498.95
40.7541	511.75
40.7686	506.01
40.7830	520.59
40.7974	527.53
40.8119	510.43
40.8263	526.18
40.8408	493.10
40.8552	498.93
40.8696	546.13
40.8841	491.43
40.8985	484.17
40.9130	484.47
40.9274	457.68
40.9418	469.62
40.9563	419.46
40.9707	457.00
40.9852	475.92
40.9996	477.38
41.0140	519.19
41.0285	512.88
41.0429	498.86
41.0574	528.20
41.0718	516.35
41.0862	476.69
41.1007	484.57
41.1151	497.22
41.1296	525.05
41.1440	527.00
41.1584	510.18
41.1729	491.04
41.1873	479.00
41.2018	466.98
41.2162	485.84
41.2306	502.82
41.2451	477.78
41.2595	544.87
41.2740	521.28
41.2884	546.60
41.3028	526.94
41.3173	534.93
41.3317	535.78
41.3462	490.39
41.3606	468.79
41.3750	511.76
41.3895	501.93
41.4039	502.77
41.4184	469.49
41.4328	492.23
41.4472	470.11
41.4617	489.58
41.4761	502.14
41.4906	514.14
41.5050	546.01
41.5194	469.48
41.5339	494.41
41.5483	491.92
41.5628	535.32
41.5772	498.80
41.5916	497.61
41.6061	520.66
41.6205	509.86
41.6350	527.77
41.6494	524.79
41.6639	483.32
41.6783	459.15
41.6927	509.27
41.7072	529.54
41.7216	535.71
41.7361	508.39
41.7505	511.93
41.7649	500.52
41.7794	509.82
41.7938	514.84
41.8083	522.18
41.8227	507.38
41.8371	500.43
41.8516	558.93
41.8660	566.61
41.8805	534.66
41.8949	534.62
41.9093	548.98
41.9238	553.37
41.9382	534.20
41.9527	540.38
41.9671	537.11
41.9815	560.60
41.9960	561.12
42.0104	594.57
42.0249	578.85
42.0393	531.94
42.0537	554.73
42.0682	592.99
42.0826	576.32
42.0971	550.28
42.1115	549.31
42.1259	621.17
42.1404	587.01
42.1548	596.44
42.1693	662.40
42.1837	662.58
42.1981	729.26
42.2126	817.66
42.2270	951.82
42.2415	1104.04
42.2559	1191.87
42.2703	1320.77
42.2848	1474.47
42.2992	1624.68
42.3137	1682.10
42.3281	1611.05
42.3425	1558.82
42.3570	1505.64
42.3714	1429.37
42.3859	1414.17
42.4003	1406.99
42.4147	1334.86
42.4292	1312.11
42.4436	1158.17
42.4581	1014.23
42.4725	913.02
42.4869	863.90
42.5014	769.15
42.5158	728.34
42.5303	671.41
42.5447	630.31
42.5591	614.27
42.5736	583.10
42.5880	574.91
42.6025	552.65
42.6169	556.01
42.6313	567.12
42.6458	524.69
42.6602	510.52
42.6747	540.89
42.6891	541.39
42.7035	521.76
42.7180	536.32
42.7324	493.98
42.7469	487.42
42.7613	495.64
42.7757	503.98
42.7902	513.58
42.8046	513.21
42.8191	501.69
42.8335	499.90
42.8479	499.87
42.8624	485.50
42.8768	517.68
42.8913	507.71
42.9057	535.33
42.9201	547.28
42.9346	534.75
42.9490	495.81
42.9635	486.57
42.9779	517.76
42.9923	527.26
43.0068	512.44
43.0212	509.41
43.0357	535.01
43.0501	537.25
43.0645	518.16
43.0790	531.40
43.0934	561.84
43.1079	530.64
43.1223	524.56
43.1367	545.00
43.1512	504.95
43.1656	521.15
43.1801	514.31
43.1945	496.66
43.2089	532.26
43.2234	515.12
43.2378	538.95
43.2523	508.46
43.2667	530.22
43.2811	497.40
43.2956	491.70
43.3100	519.56
43.3245	521.60
43.3389	541.05
43.3533	557.20
43.3678	515.15
43.3822	510.73
43.3967	500.36
43.4111	490.49
43.4255	559.04
43.4400	534.02
43.4544	490.36
43.4689	513.49
43.4833	484.71
43.4977	486.30
43.5122	538.42
43.5266	512.00
43.5411	530.39
43.5555	551.40
43.5699	501.11
43.5844	497.41
43.5988	488.29
43.6133	492.34
43.6277	539.33
43.6421	531.66
43.6566	544.79
43.6710	540.66
43.6855	576.10
43.6999	607.77
43.7143	622.03
43.7288	607.09
43.7432	658.66
43.7577	670.05
43.7721	673.19
43.7865	657.74
43.8010	604.05
43.8154	623.13
43.8299	600.54
43.8443	611.77
43.8587	648.37
43.8732	605.51
43.8876	583.45
43.9021	591.50
43.9165	551.83
43.9309	535.87
43.9454	536.28
43.9598	497.37
43.9743	505.85
43.9887	496.68
44.0031	558.35
44.0176	533.14
44.0320	493.96
44.0465	528.79
44.0609	527.15
44.0753	503.37
44.0898	529.69
44.1042	504.55
44.1187	523.80
44.1331	512.03
44.1475	498.26
44.1620	514.87
44.1764	512.23
44.1909	526.45
44.2053	515.07
44.2197	478.16
44.2342	491.92
44.2486	539.40
44.2631	508.26
44.2775	532.78
44.2919	528.75
44.3064	512.80
44.3208	495.55
44.3353	535.88
44.3497	495.51
44.3641	532.33
44.3786	537.58
44.3930	523.63
44.4075	525.92
44.4219	599.45
44.4363	586.01
44.4508	583.43
44.4652	616.33
44.4797	564.40
44.4941	590.51
44.5085	558.06
44.5230	550.07
44.5374	569.82
44.5519	609.52
44.5663	575.29
44.5807	569.49
44.5952	568.96
44.6096	580.07
44.6241	568.69
44.6385	546.09
44.6529	527.79
44.6674	603.86
44.6818	590.15
44.6963	564.14
44.7107	669.84
44.7251	685.58
44.7396	726.25
44.7540	789.16
44.7685	795.45
44.7829	826.07
44.7973	854.01
44.8118	849.36
44.8262	821.54
44.8407	754.60
44.8551	724.15
44.8695	737.49
44.8840	757.69
44.8984	703.18
44.9129	739.10
44.9273	710.31
44.9417	700.36
44.9562	614.56
44.9706	576.64
44.9851	550.95
44.9995	573.22
45.0139	515.11
45.0284	528.85
45.0428	546.77
45.0573	507.21
45.0717	517.68
45.0861	510.88
45.1006	517.43
45.1150	527.39
45.1295	522.04
45.1439	521.82
45.1583	508.76
45.1728	520.97
45.1872	515.05
45.2017	514.45
45.2161	509.25
45.2305	513.78
45.2450	544.17
45.2594	512.04
45.2739	514.24
45.2883	529.98
45.3028	542.43
45.3172	509.76
45.3316	534.78
45.3461	513.99
45.3605	510.83
45.3750	501.82
45.3894	505.21
45.4038	488.40
45.4183	478.43
45.4327	501.08
45.4472	499.39
45.4616	507.31
45.4760	502.11
45.4905	486.12
45.5049	500.09
45.5194	509.71
45.5338	533.87
45.5482	522.06
45.5627	490.62
45.5771	503.74
45.5916	513.69
45.6060	513.87
45.6204	507.02
45.6349	482.19
45.6493	502.41
45.6638	495.97
45.6782	510.65
45.6926	528.93
45.7071	554.02
45.7215	508.31
45.7360	484.02
45.7504	482.19
45.7648	503.12
45.7793	501.77
45.7937	508.81
45.8082	527.28
45.8226	510.19
45.8370	517.78
45.8515	501.88
45.8659	513.87
45.8804	529.12
45.8948	529.06
45.9092	488.72
45.9237	486.49
45.9381	497.73
45.9526	505.85
45.9670	507.38
45.9814	514.52
45.9959	513.83
46.0103	504.56
46.0248	513.53
46.0392	492.56
46.0536	478.89
46.0681	507.78
46.0825	523.67
46.0970	517.24
46.1114	552.08
46.1258	562.09
46.1403	514.54
46.1547	492.10
46.1692	507.83
46.1836	513.42
46.1980	519.13
46.2125	484.81
46.2269	494.00
46.2414	476.07
46.2558	511.01
46.2702	507.84
46.2847	510.15
46.2991	500.24
46.3136	512.83
46.3280	475.38
46.3424	471.48
46.3569	491.62
46.3713	509.27
46.3858	517.29
46.4002	499.21
46.4146	513.06
46.4291	510.35
46.4435	505.97
46.4580	507.84
46.4724	491.71
46.4868	498.29
46.5013	498.31
46.5157	485.67
46.5302	471.76
46.5446	492.14
46.5590	505.71
46.5735	483.92
46.5879	482.38
46.6024	481.13
46.6168	473.68
46.6312	514.04
46.6457	517.60
46.6601	522.35
46.6746	491.62
46.6890	484.22
46.7034	489.32
46.7179	499.08
46.7323	491.82
46.7468	506.32
46.7612	513.30
46.7756	513.67
46.7901	517.46
46.8045	517.03
46.8190	488.22
46.8334	491.23
46.8478	459.88
46.8623	533.12
46.8767	529.44
46.8912	506.81
46.9056	492.42
46.9200	495.39
46.9345	528.36
46.9489	507.43
46.9634	508.71
46.9778	501.10
46.9922	495.66
47.0067	490.56
47.0211	502.51
47.0356	505.41
47.0500	475.23
47.0644	502.15
47.0789	496.67
47.0933	512.00
47.1078	504.06
47.1222	531.59
47.1366	523.96
47.1511	507.06
47.1655	508.95
47.1800	476.53
47.1944	498.32
47.2088	477.92
47.2233	478.17
47.2377	518.42
47.2522	514.11
47.2666	489.05
47.2810	491.20
47.2955	470.94
47.3099	490.36
47.3244	516.59
47.3388	509.23
47.3532	525.36
47.3677	511.20
47.3821	498.85
47.3966	462.11
47.4110	471.47
47.4254	535.82
47.4399	518.17
47.4543	529.84
47.4688	530.39
47.4832	484.42
47.4976	483.65
47.5121	471.19
47.5265	496.85
47.5410	496.22
47.5554	499.49
47.5698	503.17
47.5843	517.30
47.5987	518.23
47.6132	513.59
47.6276	516.33
47.6420	487.74
47.6565	493.11
47.6709	502.52
47.6854	511.18
47.6998	508.03
47.7142	530.54
47.7287	488.60
47.7431	511.62
47.7576	482.74
47.7720	520.19
47.7864	525.58
47.8009	535.92
47.8153	499.29
47.8298	478.78
47.8442	491.45
47.8586	510.90
47.8731	475.67
47.8875	473.59
47.9020	546.78
47.9164	519.60
47.9308	498.86
47.9453	534.10
47.9597	542.03
47.9742	488.41
47.9886	505.25
48.0030	526.30
48.0175	497.60
48.0319	518.51
48.0464	518.15
48.0608	509.19
48.0752	558.91
48.0897	581.33
48.1041	527.15
48.1186	490.91
48.1330	488.84
48.1474	522.81
48.1619	509.00
48.1763	488.17
48.1908	485.97
48.2052	514.93
48.2196	512.66
48.2341	503.73
48.2485	507.67
48.2630	506.93
48.2774	522.92
48.2918	493.32
48.3063	544.68
48.3207	518.29
48.3352	509.71
48.3496	462.19
48.3640	515.03
48.3785	496.91
48.3929	496.12
48.4074	495.45
48.4218	501.72
48.4362	491.45
48.4507	495.86
48.4651	473.72
48.4796	497.59
48.4940	511.34
48.5084	534.56
48.5229	508.18
48.5373	507.99
48.5518	491.06
48.5662	525.13
48.5806	473.91
48.5951	500.49
48.6095	506.69
48.6240	484.07
48.6384	551.04
48.6528	507.46
48.6673	528.36
48.6817	539.70
48.6962	520.76
48.7106	534.07
48.7250	520.59
48.7395	513.94
48.7539	519.85
48.7684	515.46
48.7828	502.56
48.7972	527.86
48.8117	559.28
48.8261	535.47
48.8406	521.36
48.8550	514.27
48.8694	545.15
48.8839	564.17
48.8983	559.33
48.9128	522.01
48.9272	543.64
48.9416	566.18
48.9561	567.61
48.9705	610.93
48.9850	572.10
48.9994	568.68
49.0139	589.41
49.0283	605.32
49.0427	631.62
49.0572	695.50
49.0716	651.44
49.0861	650.77
49.1005	662.83
49.1149	691.10
49.1294	736.91
49.1438	745.52
49.1583	805.09
49.1727	907.43
49.1871	938.97
49.2016	978.07
49.2160	1058.00
49.2305	1093.75
49.2449	1243.54
49.2593	1372.15
49.2738	1469.44
49.2882	1550.68
49.3027	1588.59
49.3171	1695.10
49.3315	1792.85
49.3460	1860.41
49.3604	1867.57
49.3749	1785.78
49.3893	1790.96
49.4037	1799.46
49.4182	1787.41
49.4326	1746.03
49.4471	1651.75
49.4615	1655.21
49.4759	1610.67
49.4904	1519.45
49.5048	1417.75
49.5193	1333.55
49.5337	1306.13
49.5481	1238.18
49.5626	1141.64
49.5770	1068.70
49.5915	1012.29
49.6059	947.24
49.6203	848.95
49.6348	799.54
49.6492	783.61
49.6637	739.86
49.6781	671.90
49.6925	661.57
49.7070	685.17
49.7214	639.75
49.7359	609.83
49.7503	617.09
49.7647	579.82
49.7792	606.69
49.7936	590.18
49.8081	588.07
49.8225	569.65
49.8369	568.57
49.8514	559.99
49.8658	575.34
49.8803	559.96
49.8947	523.95
49.9091	531.24
49.9236	568.95
49.9380	574.92
49.9525	528.48
49.9669	543.03
49.9813	508.02
49.9958	561.07
50.0102	547.50
50.0247	556.34
50.0391	530.70
50.0535	558.83
50.0680	517.89
50.0824	536.92
50.0969	544.05
50.1113	509.82
50.1257	539.09
50.1402	534.63
50.1546	522.51
50.1691	515.68
50.1835	500.93
50.1979	490.74
50.2124	503.52
50.2268	501.13
50.2413	504.16
50.2557	490.23
50.2701	511.32
50.2846	523.11
50.2990	543.67
50.3135	507.84
50.3279	495.84
50.3423	538.21
50.3568	529.73
50.3712	520.64
50.3857	510.56
50.4001	507.39
50.4145	494.13
50.4290	510.20
50.4434	551.24
50.4579	538.99
50.4723	538.79
50.4867	527.16
50.5012	519.33
50.5156	535.20
50.5301	508.92
50.5445	505.63
50.5589	530.41
50.5734	488.12
50.5878	505.81
50.6023	508.84
50.6167	477.58
50.6311	502.37
50.6456	519.28
50.6600	498.88
50.6745	516.63
50.6889	514.77
50.7033	536.38
50.7178	518.70
50.7322	504.83
50.7467	499.22
50.7611	539.54
50.7755	511.44
50.7900	519.40
50.8044	481.66
50.8189	472.00
50.8333	503.04
50.8477	510.12
50.8622	528.85
50.8766	509.82
50.8911	497.88
50.9055	513.05
50.9199	498.79
50.9344	491.29
50.9488	502.22
50.9633	509.51
50.9777	513.91
50.9921	509.39
51.0066	488.45
51.0210	515.11
51.0355	504.45
51.0499	455.75
51.0643	469.75
51.0788	458.83
51.0932	487.51
51.1077	534.44
51.1221	508.39
51.1365	500.73
51.1510	483.08
51.1654	502.64
51.1799	499.45
51.1943	472.17
51.2087	509.44
51.2232	499.14
51.2376	498.65
51.2521	515.80
51.2665	511.20
51.2809	520.07
51.2954	510.69
51.3098	526.10
51.3243	488.08
51.3387	520.87
51.3531	502.71
51.3676	515.92
51.3820	532.38
51.3965	473.49
51.4109	495.69
51.4253	498.05
51.4398	522.44
51.4542	488.76
51.4687	519.29
51.4831	511.61
51.4975	521.61
51.5120	505.82
51.5264	535.01
51.5409	559.33
51.5553	493.15
51.5697	504.48
51.5842	523.69
51.5986	463.26
51.6131	491.82
51.6275	512.33
51.6419	518.09
51.6564	521.82
51.6708	526.21
51.6853	502.97
51.6997	516.11
51.7141	521.22
51.7286	516.46
51.7430	535.34
51.7575	533.06
51.7719	506.91
51.7863	541.67
51.8008	487.73
51.8152	460.52
51.8297	504.17
51.8441	516.02
51.8585	510.68
51.8730	488.27
51.8874	510.73
51.9019	508.94
51.9163	515.06
51.9307	502.98
51.9452	506.08
51.9596	475.33
51.9741	465.66
51.9885	477.88
52.0029	496.21
52.0174	491.37
52.0318	492.06
52.0463	496.45
52.0607	504.34
52.0751	486.44
52.0896	531.86
52.1040	502.93
52.1185	524.04
52.1329	526.14
52.1473	485.94
52.1618	499.30
52.1762	505.92
52.1907	518.45
52.2051	516.87
52.2195	509.69
52.2340	509.59
52.2484	524.96
52.2629	492.67
52.2773	510.08
52.2917	510.93
52.3062	487.73
52.3206	486.48
52.3351	531.36
52.3495	521.52
52.3639	524.30
52.3784	530.44
52.3928	518.12
52.4073	526.58
52.4217	516.46
52.4361	483.09
52.4506	492.30
52.4650	556.63
52.4795	545.93
52.4939	493.16
52.5083	471.43
52.5228	500.36
52.5372	472.59
52.5517	477.54
52.5661	522.55
52.5805	499.07
52.5950	522.89
52.6094	474.73
52.6239	539.35
52.6383	537.42
52.6527	495.96
52.6672	521.64
52.6816	533.41
52.6961	479.13
52.7105	529.66
52.7250	510.82
52.7394	488.44
52.7538	521.92
52.7683	476.08
52.7827	514.26
52.7972	490.36
52.8116	511.44
52.8260	484.95
52.8405	499.46
52.8549	516.57
52.8694	523.35
52.8838	515.93
52.8982	530.89
52.9127	494.79
52.9271	473.88
52.9416	526.37
52.9560	544.27
52.9704	471.26
52.9849	514.85
52.9993	529.21
53.0138	485.85
53.0282	524.86
53.0426	519.20
53.0571	548.53
53.0715	507.44
53.0860	519.04
53.1004	531.50
53.1148	502.78
53.1293	508.79
53.1437	508.13
53.1582	533.94
53.1726	549.54
53.1870	558.76
53.2015	484.24
53.2159	536.05
53.2304	515.66
53.2448	491.43
53.2592	488.27
53.2737	517.34
53.2881	501.03
53.3026	527.40
53.3170	496.26
53.3314	526.96
53.3459	545.17
53.3603	507.42
53.3748	477.19
53.3892	500.93
53.4036	515.16
53.4181	489.47
53.4325	526.41
53.4470	506.04
53.4614	518.53
53.4758	517.19
53.4903	539.83
53.5047	514.72
53.5192	496.58
53.5336	504.94
53.5480	487.59
53.5625	523.73
53.5769	525.27
53.5914	524.96
53.6058	501.05
53.6202	499.62
53.6347	478.00
53.6491	502.66
53.6636	504.28
53.6780	473.21
53.6924	492.45
53.7069	537.46
53.7213	508.35
53.7358	489.47
53.7502	523.79
53.7646	520.57
53.7791	515.70
53.7935	486.50
53.8080	512.97
53.8224	487.57
53.8368	464.42
53.8513	479.29
53.8657	503.67
53.8802	496.45
53.8946	503.55
53.9090	525.03
53.9235	539.32
53.9379	523.18
53.9524	513.93
53.9668	544.68
53.9812	534.86
53.9957	509.25
54.0101	514.87
54.0246	524.24
54.0390	507.02
54.0534	543.95
54.0679	570.78
54.0823	538.57
54.0968	556.28
54.1112	520.95
54.1256	560.43
54.1401	511.24
54.1545	540.18
54.1690	570.56
54.1834	564.50
54.1978	545.10
54.2123	559.01
54.2267	582.04
54.2412	597.74
54.2556	648.50
54.2700	642.64
54.2845	665.91
54.2989	626.13
54.3134	620.95
54.3278	618.52
54.3422	654.90
54.3567	622.67
54.3711	587.11
54.3856	577.38
54.4000	584.83
54.4144	601.01
54.4289	616.34
54.4433	589.75
54.4578	557.99
54.4722	528.80
54.4866	524.94
54.5011	537.23
54.5155	542.70
54.5300	547.51
54.5444	543.91
54.5588	560.57
54.5733	532.50
54.5877	523.20
54.6022	532.17
54.6166	518.32
54.6310	524.17
54.6455	527.27
54.6599	525.21
54.6744	522.24
54.6888	491.59
54.7032	533.79
54.7177	532.48
54.7321	534.61
54.7466	541.21
54.7610	520.64
54.7754	503.86
54.7899	518.27
54.8043	512.61
54.8188	501.92
54.8332	499.36
54.8476	502.20
54.8621	488.08
54.8765	497.84
54.8910	529.10
54.9054	538.64
54.9198	530.18
54.9343	512.90
54.9487	476.09
54.9632	513.02
54.9776	519.20
54.9920	517.89
55.0065	510.12
55.0209	519.69
55.0354	478.99
55.0498	473.64
55.0642	498.57
55.0787	515.13
55.0931	525.87
55.1076	494.88
55.1220	516.73
55.1364	528.38
55.1509	496.32
55.1653	499.72
55.1798	524.33
55.1942	515.86
55.2086	529.02
55.2231	514.32
55.2375	489.21
55.2520	499.77
55.2664	477.88
55.2808	504.03
55.2953	500.37
55.3097	508.04
55.3242	506.92
55.3386	505.68
55.3530	523.64
55.3675	516.45
55.3819	519.23
55.3964	538.47
55.4108	536.01
55.4252	515.82
55.4397	520.34
55.4541	543.14
55.4686	557.29
55.4830	509.60
55.4974	487.71
55.5119	503.27
55.5263	504.64
55.5408	516.05
55.5552	536.48
55.5696	553.21
55.5841	528.43
55.5985	520.90
55.6130	529.54
55.6274	522.02
55.6418	536.97
55.6563	515.93
55.6707	506.35
55.6852	479.56
55.6996	508.30
55.7140	499.26
55.7285	506.13
55.7429	519.03
55.7574	457.62
55.7718	511.73
55.7862	537.99
55.8007	511.66
55.8151	539.89
55.8296	512.17
55.8440	513.49
55.8584	531.42
55.8729	546.15
55.8873	529.11
55.9018	521.97
55.9162	516.19
55.9306	501.58
55.9451	506.97
55.9595	545.44
55.9740	518.88
55.9884	489.43
56.0028	515.98
56.0173	525.96
56.0317	542.38
56.0462	549.39
56.0606	555.99
56.0750	524.75
56.0895	536.70
56.1039	509.21
56.1184	494.95
56.1328	541.75
56.1472	532.87
56.1617	533.91
56.1761	527.40
56.1906	491.39
56.2050	529.15
56.2194	569.67
56.2339	541.53
56.2483	532.56
56.2628	512.45
56.2772	509.73
56.2916	521.01
56.3061	533.63
56.3205	493.65
56.3350	540.08
56.3494	510.26
56.3639	545.19
56.3783	511.00
56.3927	498.28
56.4072	505.74
56.4216	500.44
56.4361	508.47
56.4505	507.39
56.4649	502.29
56.4794	545.33
56.4938	522.61
56.5083	553.74
56.5227	493.35
56.5371	548.05
56.5516	528.01
56.5660	494.42
56.5805	512.81
56.5949	527.51
56.6093	509.89
56.6238	526.72
56.6382	529.24
56.6527	518.24
56.6671	523.96
56.6815	481.03
56.6960	513.48
56.7104	514.67
56.7249	485.28
56.7393	486.92
56.7537	500.68
56.7682	545.41
56.7826	488.96
56.7971	527.47
56.8115	523.86
56.8259	533.15
56.8404	562.29
56.8548	535.91
56.8693	513.34
56.8837	513.48
56.8981	543.34
56.9126	533.89
56.9270	485.97
56.9415	521.08
56.9559	507.85
56.9703	521.76
56.9848	531.76
56.9992	514.01
57.0137	532.57
57.0281	507.20
57.0425	516.22
57.0570	495.38
57.0714	498.32
57.0859	520.79
57.1003	546.24
57.1147	535.86
57.1292	505.89
57.1436	510.21
57.1581	499.67
57.1725	513.17
57.1869	501.46
57.2014	512.96
57.2158	502.65
57.2303	508.24
57.2447	513.27
57.2591	508.77
57.2736	544.52
57.2880	540.68
57.3025	490.78
57.3169	526.30
57.3313	534.92
57.3458	534.34
57.3602	524.91
57.3747	538.55
57.3891	513.60
57.4035	502.71
57.4180	524.78
57.4324	525.89
57.4469	545.54
57.4613	514.87
57.4757	533.79
57.4902	543.12
57.5046	565.06
57.5191	558.64
57.5335	556.55
57.5479	498.40
57.5624	517.76
57.5768	513.93
57.5913	520.78
57.6057	551.16
57.6201	508.34
57.6346	538.32
57.6490	564.77
57.6635	559.30
57.6779	505.72
57.6923	480.73
57.7068	545.41
57.7212	549.70
57.7357	533.74
57.7501	553.42
57.7645	564.65
57.7790	600.03
57.7934	594.22
57.8079	654.77
57.8223	685.49
57.8367	717.84
57.8512	702.43
57.8656	764.28
57.8801	783.14
57.8945	791.79
57.9089	753.19
57.9234	669.95
57.9378	700.67
57.9523	636.54
57.9667	623.75
57.9811	637.46
57.9956	619.53
58.0100	681.68
58.0245	686.31
58.0389	609.82
58.0533	629.63
58.0678	644.08
58.0822	643.34
58.0967	643.27
58.1111	594.05
58.1255	571.21
58.1400	562.62
58.1544	551.81
58.1689	549.65
58.1833	545.05
58.1977	519.88
58.2122	541.46
58.2266	568.51
58.2411	566.87
58.2555	602.40
58.2699	565.20
58.2844	547.03
58.2988	529.17
58.3133	497.33
58.3277	544.91
58.3421	543.03
58.3566	541.72
58.3710	542.25
58.3855	526.43
58.3999	546.23
58.4143	551.33
58.4288	548.07
58.4432	532.17
58.4577	497.42
58.4721	533.72
58.4865	526.67
58.5010	501.42
58.5154	506.94
58.5299	536.22
58.5443	560.49
58.5587	542.20
58.5732	549.69
58.5876	521.06
58.6021	500.99
58.6165	524.90
58.6309	518.64
58.6454	531.66
58.6598	500.72
58.6743	520.20
58.6887	504.87
58.7031	552.84
58.7176	554.59
58.7320	506.07
58.7465	532.65
58.7609	532.90
58.7753	561.40
58.7898	514.03
58.8042	518.18
58.8187	531.00
58.8331	525.02
58.8475	517.33
58.8620	552.36
58.8764	536.04
58.8909	539.04
58.9053	545.41
58.9197	513.30
58.9342	546.46
58.9486	543.49
58.9631	511.10
58.9775	523.75
58.9919	540.45
59.0064	480.02
59.0208	499.93
59.0353	522.94
59.0497	488.38
59.0641	532.26
59.0786	560.55
59.0930	552.59
59.1075	526.11
59.1219	552.53
59.1363	549.00
59.1508	530.66
59.1652	546.74
59.1797	541.53
59.1941	523.55
59.2085	526.63
59.2230	535.07
59.2374	518.60
59.2519	555.91
59.2663	551.49
59.2807	595.92
59.2952	554.63
59.3096	530.76
59.3241	536.03
59.3385	553.23
59.3529	530.23
59.3674	520.14
59.3818	554.86
59.3963	547.60
59.4107	546.17
59.4251	568.03
59.4396	578.16
59.4540	553.03
59.4685	537.27
59.4829	566.34
59.4973	545.58
59.5118	577.50
59.5262	577.21
59.5407	568.96
59.5551	557.07
59.5695	565.61
59.5840	538.29
59.5984	497.03
59.6129	551.02
59.6273	509.43
59.6417	509.99
59.6562	548.60
59.6706	570.71
59.6851	556.57
59.6995	526.68
59.7139	552.05
59.7284	538.17
59.7428	509.55
59.7573	499.66
59.7717	547.57
59.7861	515.26
59.8006	517.37
59.8150	523.46
59.8295	507.75
59.8439	521.63
59.8583	552.97
59.8728	522.75
59.8872	513.13
59.9017	557.43
59.9161	546.16
59.9305	556.16
59.9450	539.62
59.9594	502.42
59.9739	501.67
59.9883	535.31
60.0027	544.52
60.0172	517.80
60.0316	527.89
60.0461	534.30
60.0605	556.10
60.0750	555.92
60.0894	573.95
60.1038	516.43
60.1183	535.22
60.1327	520.66
60.1472	499.78
60.1616	544.77
60.1760	527.65
60.1905	523.27
60.2049	481.77
60.2194	544.38
60.2338	543.34
60.2482	543.48
60.2627	512.33
60.2771	524.59
60.2916	521.24
60.3060	516.51
60.3204	533.34
60.3349	522.79
60.3493	497.43
60.3638	525.88
60.3782	513.82
60.3926	521.42
60.4071	539.57
60.4215	544.36
60.4360	518.95
60.4504	489.45
60.4648	558.70
60.4793	538.62
60.4937	544.54
60.5082	516.79
60.5226	530.41
60.5370	524.09
60.5515	514.11
60.5659	556.70
60.5804	541.68
60.5948	530.19
60.6092	552.05
60.6237	519.41
60.6381	517.61
60.6526	518.39
60.6670	512.05
60.6814	528.27
60.6959	529.51
60.7103	559.10
60.7248	536.44
60.7392	520.52
60.7536	544.08
60.7681	513.49
60.7825	559.31
60.7970	550.72
60.8114	569.77
60.8258	535.56
60.8403	543.02
60.8547	533.95
60.8692	559.40
60.8836	546.20
60.8980	563.89
60.9125	551.14
60.9269	551.30
60.9414	536.58
60.9558	510.22
60.9702	493.16
60.9847	508.15
60.9991	522.38
61.0136	531.70
61.0280	520.13
61.0424	528.77
61.0569	547.02
61.0713	602.73
61.0858	562.51
61.1002	546.10
61.1146	526.91
61.1291	552.15
61.1435	513.18
61.1580	545.64
61.1724	526.77
61.1868	531.00
61.2013	530.37
61.2157	543.02
61.2302	541.89
61.2446	545.87
61.2590	542.59
61.2735	559.98
61.2879	548.21
61.3024	553.20
61.3168	533.93
61.3312	548.42
61.3457	551.61
61.3601	532.19
61.3746	534.47
61.3890	557.61
61.4034	572.73
61.4179	514.31
61.4323	555.43
61.4468	530.08
61.4612	577.60
61.4756	544.97
61.4901	536.71
61.5045	579.58
61.5190	553.85
61.5334	526.07
61.5478	532.75
61.5623	538.79
61.5767	537.54
61.5912	529.16
61.6056	568.71
61.6200	547.71
61.6345	561.48
61.6489	524.08
61.6634	533.38
61.6778	506.48
61.6922	527.32
61.7067	566.76
61.7211	560.06
61.7356	536.86
61.7500	553.28
61.7644	561.65
61.7789	576.74
61.7933	580.44
61.8078	566.72
61.8222	559.01
61.8366	534.36
61.8511	555.04
61.8655	570.28
61.8800	533.25
61.8944	528.16
61.9088	569.87
61.9233	581.14
61.9377	560.74
61.9522	591.78
61.9666	530.27
61.9810	511.83
61.9955	561.71
62.0099	554.77
62.0244	551.83
62.0388	529.12
62.0532	529.38
62.0677	551.58
62.0821	566.36
62.0966	561.80
62.1110	571.64
62.1254	555.92
62.1399	544.66
62.1543	510.47
62.1688	534.58
62.1832	531.13
62.1976	546.32
62.2121	558.83
62.2265	550.95
62.2410	550.01
62.2554	567.64
62.2698	535.26
62.2843	545.88
62.2987	545.98
62.3132	548.50
62.3276	562.44
62.3420	573.79
62.3565	544.32
62.3709	575.76
62.3854	569.80
62.3998	529.12
62.4142	534.16
62.4287	560.20
62.4431	534.20
62.4576	545.18
62.4720	562.99
62.4864	575.28
62.5009	577.57
62.5153	549.52
62.5298	552.65
62.5442	556.70
62.5586	578.45
62.5731	525.62
62.5875	522.20
62.6020	528.82
62.6164	554.57
62.6308	572.74
62.6453	588.19
62.6597	565.63
62.6742	567.69
62.6886	553.27
62.7030	559.39
62.7175	565.86
62.7319	522.31
62.7464	559.48
62.7608	524.34
62.7752	541.11
62.7897	555.98
62.8041	578.93
62.8186	561.27
62.8330	553.06
62.8474	553.08
62.8619	576.61
62.8763	562.74
62.8908	546.38
62.9052	559.90
62.9196	578.28
62.9341	573.39
62.9485	535.78
62.9630	536.60
62.9774	549.29
62.9918	556.06
63.0063	568.23
63.0207	576.63
63.0352	595.28
63.0496	564.24
63.0640	558.25
63.0785	556.53
63.0929	571.03
63.1074	549.72
63.1218	610.13
63.1362	588.67
63.1507	543.11
63.1651	572.06
63.1796	601.25
63.1940	561.64
63.2084	575.00
63.2229	592.38
63.2373	603.29
63.2518	560.81
63.2662	572.17
63.2806	596.65
63.2951	558.59
63.3095	615.41
63.3240	606.64
63.3384	618.46
63.3528	565.67
63.3673	581.49
63.3817	584.93
63.3962	597.53
63.4106	603.96
63.4250	644.33
63.4395	688.03
63.4539	644.79
63.4684	677.49
63.4828	743.43
63.4972	771.11
63.5117	792.12
63.5261	820.03
63.5406	871.55
63.5550	904.94
63.5694	970.50
63.5839	951.60
63.5983	912.06
63.6128	871.52
63.6272	822.50
63.6416	788.90
63.6561	773.16
63.6705	738.14
63.6850	739.44
63.6994	811.35
63.7138	824.74
63.7283	786.33
63.7427	772.55
63.7572	790.81
63.7716	767.70
63.7861	753.04
63.8005	709.19
63.8149	711.08
63.8294	713.29
63.8438	652.68
63.8583	641.45
63.8727	632.83
63.8871	619.79
63.9016	666.73
63.9160	644.63
63.9305	612.52
63.9449	626.93
63.9593	637.11
63.9738	587.12
63.9882	604.48
64.0027	583.66
64.0171	586.70
64.0315	645.35
64.0460	638.86
64.0604	598.70
64.0749	606.53
64.0893	630.50
64.1037	598.37
64.1182	619.13
64.1326	597.49
64.1471	533.27
64.1615	580.04
64.1759	616.05
64.1904	613.06
64.2048	559.35
64.2193	604.63
64.2337	612.36
64.2481	575.38
64.2626	613.61
64.2770	609.89
64.2915	596.65
64.3059	592.21
64.3203	593.07
64.3348	614.47
64.3492	612.47
64.3637	601.60
64.3781	582.66
64.3925	595.36
64.4070	607.31
64.4214	627.83
64.4359	592.27
64.4503	598.46
64.4647	635.45
64.4792	657.04
64.4936	621.64
64.5081	629.08
64.5225	619.22
64.5369	658.05
64.5514	633.50
64.5658	628.71
64.5803	634.31
64.5947	638.52
64.6091	628.75
64.6236	627.72
64.6380	657.89
64.6525	643.50
64.6669	686.12
64.6813	658.25
64.6958	630.83
64.7102	649.94
64.7247	655.84
64.7391	668.56
64.7535	673.31
64.7680	686.11
64.7824	721.86
64.7969	727.87
64.8113	748.75
64.8257	784.60
64.8402	800.87
64.8546	817.47
64.8691	844.77
64.8835	812.50
64.8979	881.06
64.9124	851.94
64.9268	832.60
64.9413	892.36
64.9557	930.38
64.9701	959.97
64.9846	1041.96
64.9990	1097.18
65.0135	1210.13
65.0279	1352.11
65.0423	1657.10
65.0568	2004.62
65.0712	2544.91
65.0857	3199.54
65.1001	4228.65
65.1145	5799.68
65.1290	7589.04
65.1434	9308.34
65.1579	10712.00
65.1723	11419.13
65.1867	11250.02
65.2012	10047.05
65.2156	8388.30
65.2301	6635.87
65.2445	5341.57
65.2589	4487.40
65.2734	4109.23
65.2878	4262.53
65.3023	4800.47
65.3167	5530.49
65.3311	6298.91
65.3456	6862.18
65.3600	6925.77
65.3745	6490.20
65.3889	5440.53
65.4033	4469.72
65.4178	3444.55
65.4322	2768.55
65.4467	2073.12
65.4611	1703.33
65.4755	1518.47
65.4900	1270.77
65.5044	1121.22
65.5189	1043.62
65.5333	1012.40
65.5477	950.29
65.5622	884.67
65.5766	851.60
65.5911	809.32
65.6055	779.25
65.6199	733.84
65.6344	802.69
65.6488	742.05
65.6633	718.71
65.6777	700.94
65.6921	681.39
65.7066	698.17
65.7210	687.13
65.7355	701.74
65.7499	713.67
65.7643	659.18
65.7788	709.01
65.7932	683.55
65.8077	709.69
65.8221	687.68
65.8365	674.70
65.8510	684.79
65.8654	710.45
65.8799	665.37
65.8943	661.83
65.9087	634.20
65.9232	597.45
65.9376	641.78
65.9521	648.25
65.9665	684.34
65.9809	667.49
65.9954	625.94
66.0098	610.69
66.0243	600.24
66.0387	616.17
66.0531	626.16
66.0676	645.17
66.0820	643.51
66.0965	654.00
66.1109	652.62
66.1253	636.81
66.1398	619.95
66.1542	613.43
66.1687	631.38
66.1831	649.53
66.1975	605.30
66.2120	617.70
66.2264	596.47
66.2409	612.58
66.2553	571.68
66.2697	582.88
66.2842	604.16
66.2986	586.34
66.3131	601.50
66.3275	608.84
66.3419	594.68
66.3564	626.11
66.3708	591.81
66.3853	580.43
66.3997	582.12
66.4141	537.35
66.4286	594.93
66.4430	579.81
66.4575	572.62
66.4719	624.49
66.4863	595.50
66.5008	588.88
66.5152	577.58
66.5297	566.27
66.5441	601.64
66.5585	614.06
66.5730	627.14
66.5874	564.36
66.6019	556.92
66.6163	569.82
66.6307	586.58
66.6452	584.39
66.6596	594.76
66.6741	593.68
66.6885	571.13
66.7029	612.54
66.7174	599.86
66.7318	591.42
66.7463	603.96
66.7607	560.80
66.7751	566.37
66.7896	606.33
66.8040	588.02
66.8185	608.31
66.8329	613.75
66.8473	563.72
66.8618	574.64
66.8762	576.25
66.8907	568.45
66.9051	605.82
66.9195	587.83
66.9340	553.13
66.9484	544.01
66.9629	590.88
66.9773	598.69
66.9917	578.79
67.0062	557.64
67.0206	548.42
67.0351	554.49
67.0495	568.11
67.0639	588.36
67.0784	567.11
67.0928	556.40
67.1073	535.03
67.1217	607.21
67.1361	607.63
67.1506	559.66
67.1650	553.68
67.1795	577.76
67.1939	552.26
67.2083	572.81
67.2228	575.89
67.2372	584.51
67.2517	562.77
67.2661	548.42
67.2805	564.65
67.2950	578.47
67.3094	612.54
67.3239	569.77
67.3383	556.99
67.3527	554.06
67.3672	559.74
67.3816	570.65
67.3961	574.10
67.4105	564.66
67.4250	575.99
67.4394	566.59
67.4538	558.63
67.4683	581.43
67.4827	567.93
67.4972	576.59
67.5116	566.62
67.5260	581.24
67.5405	576.81
67.5549	597.89
67.5694	544.16
67.5838	536.22
67.5982	561.22
67.6127	590.87
67.6271	571.52
67.6416	558.27
67.6560	606.86
67.6704	534.11
67.6849	544.54
67.6993	576.13
67.7138	598.14
67.7282	589.18
67.7426	575.06
67.7571	555.78
67.7715	562.96
67.7860	584.82
67.8004	556.88
67.8148	588.18
67.8293	594.00
67.8437	580.84
67.8582	597.74
67.8726	568.06
67.8870	567.40
67.9015	587.50
67.9159	583.29
67.9304	579.96
67.9448	570.42
67.9592	523.11
67.9737	610.94
67.9881	564.44
68.0026	600.51
68.0170	587.83
68.0314	574.72
68.0459	611.59
68.0603	609.95
68.0748	575.11
68.0892	568.05
68.1036	525.02
68.1181	596.66
68.1325	592.15
68.1470	525.37
68.1614	570.56
68.1758	579.71
68.1903	580.61
68.2047	591.86
68.2192	632.50
68.2336	558.78
68.2480	567.99
68.2625	575.88
68.2769	548.77
68.2914	543.15
68.3058	519.24
68.3202	569.19
68.3347	582.39
68.3491	608.14
68.3636	625.22
68.3780	593.36
68.3924	572.16
68.4069	583.75
68.4213	549.83
68.4358	555.54
68.4502	570.76
68.4646	579.56
68.4791	592.93
68.4935	571.87
68.5080	550.98
68.5224	556.10
68.5368	557.01
68.5513	593.25
68.5657	559.94
68.5802	572.34
68.5946	548.52
68.6090	574.20
68.6235	525.12
68.6379	561.21
68.6524	564.84
68.6668	572.16
68.6812	584.26
68.6957	557.36
68.7101	603.73
68.7246	569.54
68.7390	550.80
68.7534	584.97
68.7679	579.21
68.7823	595.00
68.7968	572.38
68.8112	624.23
68.8256	606.27
68.8401	572.88
68.8545	581.65
68.8690	607.66
68.8834	586.40
68.8978	597.57
68.9123	624.53
68.9267	581.07
68.9412	566.39
68.9556	536.94
68.9700	543.75
68.9845	574.31
68.9989	568.22
69.0134	587.67
69.0278	574.66
69.0422	574.98
69.0567	588.31
69.0711	545.92
69.0856	567.57
69.1000	570.58
69.1144	543.44
69.1289	549.00
69.1433	577.67
69.1578	588.97
69.1722	611.47
69.1866	556.30
69.2011	550.38
69.2155	592.04
69.2300	545.95
69.2444	588.75
69.2588	564.37
69.2733	584.40
69.2877	564.85
69.3022	544.79
69.3166	562.12
69.3310	551.53
69.3455	572.13
69.3599	575.40
69.3744	543.91
69.3888	558.20
69.4032	539.60
69.4177	567.11
69.4321	582.91
69.4466	548.10
69.4610	524.42
69.4754	602.96
69.4899	592.50
69.5043	603.45
69.5188	576.28
69.5332	576.74
69.5476	593.31
69.5621	590.48
69.5765	565.73
69.5910	528.27
69.6054	546.03
69.6198	586.15
69.6343	578.66
69.6487	555.00
69.6632	607.28
69.6776	566.55
69.6920	601.46
69.7065	630.25
69.7209	578.06
69.7354	579.33
69.7498	581.62
69.7642	597.10
69.7787	620.98
69.7931	590.93
69.8076	617.78
69.8220	545.53
69.8364	562.20
69.8509	541.88
69.8653	591.45
69.8798	572.25
69.8942	621.58
69.9086	583.29
69.9231	600.80
69.9375	673.03
69.9520	602.26
69.9664	531.65
69.9808	548.50
69.9953	571.92
70.0097	551.05
70.0242	515.34
70.0386	563.98
70.0530	523.28
70.0675	563.73
70.0819	602.71
70.0964	576.21
70.1108	567.74
70.1252	558.83
70.1397	577.39
70.1541	572.80
70.1686	542.49
70.1830	583.56
70.1974	630.93
70.2119	583.63
70.2263	556.63
70.2408	579.56
70.2552	520.39
70.2696	502.06
70.2841	523.80
70.2985	553.55
70.3130	602.24
70.3274	610.60
70.3418	574.30
70.3563	555.28
70.3707	567.59
70.3852	560.79
70.3996	592.70
70.4140	592.40
70.4285	623.02
70.4429	529.54
70.4574	570.36
70.4718	571.09
70.4862	596.29
70.5007	522.30
70.5151	491.66
70.5296	555.43
70.5440	587.14
70.5584	570.34
70.5729	568.64
70.5873	564.79
70.6018	585.54
70.6162	579.43
70.6306	549.79
70.6451	530.91
70.6595	554.59
70.6740	574.99
70.6884	568.75
70.7028	564.00
70.7173	585.12
70.7317	570.34
70.7462	580.69
70.7606	563.05
70.7750	605.72
70.7895	575.63
70.8039	632.90
70.8184	579.11
70.8328	557.42
70.8472	565.73
70.8617	564.53
70.8761	590.07
70.8906	608.97
70.9050	590.02
70.9194	625.13
70.9339	602.16
70.9483	580.54
70.9628	598.65
70.9772	594.26
70.9916	569.91
71.0061	532.53
71.0205	533.82
71.0350	555.54
71.0494	529.84
71.0638	564.99
71.0783	621.52
71.0927	635.60
71.1072	596.04
71.1216	590.04
71.1361	545.95
71.1505	551.39
71.1649	577.19
71.1794	579.24
71.1938	575.29
71.2083	570.15
71.2227	583.84
71.2371	588.00
71.2516	549.66
71.2660	565.54
71.2805	580.28
71.2949	582.69
71.3093	593.35
71.3238	547.97
71.3382	594.85
71.3527	570.35
71.3671	610.15
71.3815	609.51
71.3960	519.56
71.4104	542.02
71.4249	609.39
71.4393	596.00
71.4537	548.84
71.4682	549.73
71.4826	555.69
71.4971	529.86
71.5115	538.73
71.5259	544.28
71.5404	533.22
71.5548	548.93
71.5693	486.00
71.5837	495.26
71.5981	511.12
71.6126	551.48
71.6270	562.07
71.6415	536.21
71.6559	538.04
71.6703	546.60
71.6848	508.46
71.6992	570.66
71.7137	580.65
71.7281	552.93
71.7425	580.55
71.7570	599.15
71.7714	643.20
71.7859	613.54
71.8003	619.26
71.8147	642.78
71.8292	662.96
71.8436	622.49
71.8581	550.65
71.8725	571.43
71.8869	560.99
71.9014	612.41
71.9158	603.33
71.9303	550.35
71.9447	518.18
71.9591	528.57
71.9736	570.93
71.9880	572.68
72.0025	580.01
72.0169	615.29
72.0313	625.41
72.0458	546.34
72.0602	585.48
72.0747	596.85
72.0891	586.88
72.1035	647.42
72.1180	690.21
72.1324	702.51
72.1469	647.11
72.1613	652.63
72.1757	567.56
72.1902	535.05
72.2046	596.14
72.2191	557.36
72.2335	540.59
72.2479	574.04
72.2624	635.42
72.2768	567.45
72.2913	488.03
72.3057	559.22
72.3201	559.85
72.3346	567.67
72.3490	605.20
72.3635	575.16
72.3779	538.84
72.3923	569.34
72.4068	583.48
72.4212	634.45
72.4357	619.80
72.4501	595.94
72.4645	599.82
72.4790	496.10
72.4934	530.37
72.5079	568.71
72.5223	593.21
72.5367	567.00
72.5512	530.84
72.5656	534.52
72.5801	586.22
72.5945	561.44
72.6089	523.70
72.6234	513.97
72.6378	593.25
72.6523	569.34
72.6667	564.67
72.6811	562.51
72.6956	595.03
72.7100	583.56
72.7245	488.47
72.7389	519.75
72.7533	587.30
72.7678	548.68
72.7822	549.75
72.7967	558.04
72.8111	596.17
72.8255	596.39
72.8400	566.16
72.8544	598.33
72.8689	594.22
72.8833	528.34

Result vector
22.1120	647.66
22.1264	618.74
22.1409	612.06
22.1553	543.19
22.1697	590.45
22.1842	555.57
22.1986	506.86
22.2131	511.06
22.2275	599.24
22.2419	578.92
22.2564	547.09
22.2708	536.02
22.2853	614.26
22.2997	657.83
22.3141	573.95
22.3286	575.83
22.3430	566.33
22.3575	616.49
22.3719	611.53
22.3863	584.96
22.4008	478.90
22.4152	538.66
22.4297	549.81
22.4441	656.76
22.4585	669.05
22.4730	571.25
22.4874	584.70
22.5019	572.76
22.5163	588.94
22.5307	533.09
22.5452	480.56
22.5596	601.29
22.5741	693.15
22.5885	684.93
22.6029	589.89
22.6174	461.88
22.6318	511.76
22.6463	577.28
22.6607	522.81
22.6751	512.84
22.6896	588.33
22.7040	606.61
22.7185	599.59
22.7329	590.46
22.7473	549.12
22.7618	539.11
22.7762	561.42
22.7907	604.47
22.8051	526.65
22.8195	567.55
22.8340	519.14
22.8484	571.17
22.8629	626.51
22.8773	517.54
22.8917	514.76
22.9062	542.02
22.9206	498.88
22.9351	524.69
22.9495	549.36
22.9639	538.70
22.9784	583.26
22.9928	457.70
23.0073	588.14
23.0217	572.30
23.0361	562.20
23.0506	570.30
23.0650	579.26
23.0795	518.78
23.0939	636.70
23.1083	559.49
23.1228	599.92
23.1372	602.61
23.1517	542.56
23.1661	558.48
23.1806	592.44
23.1950	562.57
23.2094	509.74
23.2239	583.08
23.2383	499.74
23.2528	562.29
23.2672	562.25
23.2816	542.38
23.2961	524.05
23.3105	613.65
23.3250	564.59
23.3394	541.51
23.3538	598.06
23.3683	595.12
23.3827	586.38
23.3972	598.59
23.4116	558.31
23.4260	622.19
23.4405	503.98
23.4549	528.22
23.4694	598.38
23.4838	604.57
23.4982	501.48
23.5127	560.82
23.5271	541.89
23.5416	595.94
23.5560	605.55
23.5704	574.09
23.5849	587.98
23.5993	586.82
23.6138	560.20
23.6282	571.02
23.6426	556.89
23.6571	515.30
23.6715	540.30
23.6860	566.90
23.7004	592.81
23.7148	517.95
23.7293	533.37
23.7437	595.04
23.7582	558.34
23.7726	648.00
23.7870	568.89
23.8015	569.85
23.8159	568.78
23.8304	582.21
23.8448	479.39
23.8592	554.14
23.8737	519.35
23.8881	526.03
23.9026	599.66
23.9170	568.87
23.9314	579.63
23.9459	571.01
23.9603	504.84
23.9748	572.38
23.9892	545.35
24.0036	529.63
24.0181	591.10
24.0325	513.51
24.0470	564.19
24.0614	602.61
24.0758	611.46
24.0903	670.07
24.1047	577.15
24.1192	578.65
24.1336	563.76
24.1480	592.32
24.1625	586.21
24.1769	508.50
24.1914	539.00
24.2058	568.77
24.2202	520.62
24.2347	599.86
24.2491	618.26
24.2636	570.32
24.2780	607.95
24.2924	640.88
24.3069	590.43
24.3213	577.44
24.3358	567.34
24.3502	599.45
24.3646	591.42
24.3791	524.70
24.3935	560.83
24.4080	501.43
24.4224	505.44
24.4368	579.76
24.4513	552.61
24.4657	545.54
24.4802	549.84
24.4946	557.30
24.5090	548.31
24.5235	615.88
24.5379	638.27
24.5524	557.44
24.5668	530.40
24.5812	556.95
24.5957	558.97
24.6101	599.26
24.6246	551.24
24.6390	561.54
24.6534	552.84
24.6679	564.49
24.6823	561.45
24.6968	575.10
24.7112	583.49
24.7256	555.25
24.7401	553.46
24.7545	503.67
24.7690	518.55
24.7834	537.78
24.7978	547.33
24.8123	566.97
24.8267	552.96
24.8412	552.03
24.8556	531.27
24.8700	563.44
24.8845	574.82
24.8989	529.52
24.9134	568.14
24.9278	563.11
24.9422	540.33
24.9567	526.69
24.9711	541.96
24.9856	531.10
25.0000	519.93
25.0144	575.66
25.0289	552.77
25.0433	575.35
25.0578	574.36
25.0722	579.60
25.0866	499.53
25.1011	513.32
25.1155	563.39
25.1300	559.22
25.1444	515.45
25.1588	574.65
25.1733	543.46
25.1877	539.61
25.2022	533.60
25.2166	522.10
25.2310	563.38
25.2455	549.15
25.2599	523.56
25.2744	530.14
25.2888	540.70
25.3032	593.99
25.3177	533.49
25.3321	486.81
25.3466	522.52
25.3610	514.15
25.3754	533.85
25.3899	551.14
25.4043	529.10
25.4188	553.89
25.4332	538.14
25.4476	527.83
25.4621	547.17
25.4765	561.58
25.4910	553.70
25.5054	537.08
25.5198	511.18
25.5343	539.30
25.5487	540.07
25.5632	506.36
25.5776	531.78
25.5920	570.36
25.6065	556.17
25.6209	526.99
25.6354	515.17
25.6498	524.92
25.6642	534.11
25.6787	476.81
25.6931	501.07
25.7076	533.32
25.7220	525.58
25.7364	515.27
25.7509	543.26
25.7653	548.08
25.7798	605.00
25.7942	565.23
25.8086	541.77
25.8231	553.33
25.8375	492.07
25.8520	515.81
25.8664	541.91
25.8808	510.46
25.8953	499.32
25.9097	531.45
25.9242	539.50
25.9386	520.37
25.9530	520.94
25.9675	497.16
25.9819	511.72
25.9964	552.97
26.0108	550.99
26.0252	555.59
26.0397	540.72
26.0541	529.89
26.0686	564.77
26.0830	520.68
26.0974	530.78
26.1119	533.85
26.1263	531.81
26.1408	501.32
26.1552	554.68
26.1696	500.83
26.1841	543.51
26.1985	541.77
26.2130	513.13
26.2274	509.73
26.2418	532.46
26.2563	523.69
26.2707	528.92
26.2852	569.59
26.2996	534.75
26.3140	541.26
26.3285	524.20
26.3429	503.97
26.3574	512.58
26.3718	522.74
26.3862	517.14
26.4007	521.60
26.4151	501.67
26.4296	506.98
26.4440	516.08
26.4584	537.04
26.4729	530.37
26.4873	530.72
26.5018	546.10
26.5162	509.15
26.5306	559.48
26.5451	534.17
26.5595	523.46
26.5740	491.14
26.5884	505.09
26.6028	527.30
26.6173	523.88
26.6317	560.74
26.6462	543.32
26.6606	540.65
26.6750	559.96
26.6895	512.00
26.7039	545.16
26.7184	544.00
26.7328	520.66
26.7472	523.64
26.7617	530.35
26.7761	522.97
26.7906	536.50
26.8050	529.71
26.8194	520.85
26.8339	497.65
26.8483	498.82
26.8628	550.98
26.8772	536.54
26.8917	503.71
26.9061	535.14
26.9205	540.21
26.9350	523.98
26.9494	580.62
26.9639	534.11
26.9783	513.92
26.9927	553.96
27.0072	530.67
27.0216	532.97
27.0361	527.54
27.0505	496.39
27.0649	546.55
27.0794	529.00
27.0938	511.67
27.1083	519.86
27.1227	555.42
27.1371	507.85
27.1516	509.29
27.1660	533.88
27.1805	536.71
27.1949	514.49
27.2093	519.59
27.2238	539.82
27.2382	542.17
27.2527	531.07
27.2671	509.05
27.2815	542.28
27.2960	535.76
27.3104	508.51
27.3249	482.49
27.3393	520.62
27.3537	530.06
27.3682	527.44
27.3826	533.14
27.3971	538.70
27.4115	519.43
27.4259	561.00
27.4404	510.91
27.4548	490.23
27.4693	515.80
27.4837	526.24
27.4981	499.31
27.5126	508.68
27.5270	511.26
27.5415	525.12
27.5559	551.11
27.5703	561.53
27.5848	543.74
27.5992	561.04
27.6137	535.51
27.6281	522.48
27.6425	505.13
27.6570	504.91
27.6714	521.73
27.6859	529.48
27.7003	519.45
27.7147	522.71
27.7292	520.58
27.7436	510.93
27.7581	489.42
27.7725	489.58
27.7869	509.31
27.8014	496.43
27.8158	508.04
27.8303	534.57
27.8447	523.46
27.8591	527.96
27.8736	547.33
27.8880	511.32
27.9025	521.95
27.9169	517.66
27.9313	502.87
27.9458	511.00
27.9602	500.37
27.9747	535.02
27.9891	522.93
28.0035	536.45
28.0180	573.74
28.0324	521.05
28.0469	482.10
28.0613	517.74
28.0757	516.24
28.0902	524.94
28.1046	510.31
28.1191	512.67
28.1335	519.48
28.1479	515.24
28.1624	525.92
28.1768	508.88
28.1913	524.77
28.2057	488.68
28.2201	500.64
28.2346	521.46
28.2490	556.31
28.2635	519.99
28.2779	508.43
28.2923	483.58
28.3068	499.05
28.3212	504.72
28.3357	518.01
28.3501	527.13
28.3645	525.45
28.3790	502.57
28.3934	502.64
28.4079	501.60
28.4223	520.77
28.4367	507.50
28.4512	487.20
28.4656	499.72
28.4801	490.49
28.4945	489.01
28.5089	477.70
28.5234	480.22
28.5378	503.55
28.5523	509.34
28.5667	485.02
28.5811	493.90
28.5956	533.09
28.6100	537.23
28.6245	489.85
28.6389	503.71
28.6533	511.89
28.6678	535.43
28.6822	526.02
28.6967	551.89
28.7111	519.31
28.7255	464.95
28.7400	475.73
28.7544	518.14
28.7689	510.64
28.7833	507.01
28.7977	525.44
28.8122	543.02
28.8266	543.89
28.8411	519.49
28.8555	547.29
28.8699	511.82
28.8844	499.34
28.8988	516.35
28.9133	492.71
28.9277	537.57
28.9421	506.83
28.9566	484.67
28.9710	475.95
28.9855	514.19
28.9999	486.48
29.0143	508.82
29.0288	529.80
29.0432	533.76
29.0577	497.69
29.0721	519.99
29.0865	528.22
29.1010	506.75
29.1154	522.81
29.1299	559.87
29.1443	537.95
29.1587	496.76
29.1732	546.56
29.1876	519.02
29.2021	497.18
29.2165	524.57
29.2309	522.60
29.2454	522.61
29.2598	504.62
29.2743	483.30
29.2887	534.29
29.3031	496.79
29.3176	472.94
29.3320	498.05
29.3465	513.57
29.3609	501.54
29.3753	495.39
29.3898	480.70
29.4042	523.08
29.4187	494.65
29.4331	513.16
29.4475	497.06
29.4620	502.61
29.4764	513.02
29.4909	486.24
29.5053	477.13
29.5197	494.59
29.5342	517.60
29.5486	512.78
29.5631	523.19
29.5775	497.89
29.5919	499.55
29.6064	486.19
29.6208	496.81
29.6353	487.00
29.6497	521.76
29.6641	519.25
29.6786	511.85
29.6930	499.82
29.7075	497.52
29.7219	481.88
29.7363	508.55
29.7508	526.79
29.7652	481.51
29.7797	493.84
29.7941	490.59
29.8085	521.38
29.8230	484.54
29.8374	483.99
29.8519	512.58
29.8663	493.04
29.8807	509.75
29.8952	517.66
29.9096	501.19
29.9241	472.64
29.9385	499.95
29.9529	494.42
29.9674	511.68
29.9818	499.12
29.9963	522.52
30.0107	505.70
30.0251	503.60
30.0396	493.13
30.0540	488.79
30.0685	476.76
30.0829	499.62
30.0973	461.84
30.1118	526.87
30.1262	535.00
30.1407	498.81
30.1551	497.25
30.1695	534.27
30.1840	513.28
30.1984	498.28
30.2129	525.18
30.2273	496.15
30.2417	536.06
30.2562	498.02
30.2706	501.15
30.2851	509.60
30.2995	486.12
30.3139	502.54
30.3284	527.21
30.3428	529.10
30.3573	502.58
30.3717	516.76
30.3861	526.58
30.4006	506.52
30.4150	545.69
30.4295	536.88
30.4439	531.65
30.4583	564.01
30.4728	537.58
30.4872	578.61
30.5017	608.54
30.5161	632.21
30.5305	686.30
30.5450	726.80
30.5594	740.60
30.5739	737.95
30.5883	751.24
30.6028	764.65
30.6172	750.54
30.6316	695.84
30.6461	687.30
30.6605	653.65
30.6750	617.94
30.6894	585.12
30.7038	598.92
30.7183	575.79
30.7327	546.34
30.7472	549.95
30.7616	508.89
30.7760	507.84
30.7905	468.82
30.8049	512.75
30.8194	517.79
30.8338	529.77
30.8482	539.95
30.8627	532.40
30.8771	521.95
30.8916	524.87
30.9060	543.10
30.9204	507.44
30.9349	503.97
30.9493	460.34
30.9638	487.34
30.9782	506.67
30.9926	492.99
31.0071	474.86
31.0215	502.14
31.0360	500.14
31.0504	500.64
31.0648	507.58
31.0793	471.09
31.0937	508.29
31.1082	489.57
31.1226	498.45
31.1370	495.30
31.1515	470.87
31.1659	497.91
31.1804	469.53
31.1948	491.74
31.2092	497.35
31.2237	497.95
31.2381	488.11
31.2526	488.02
31.2670	485.23
31.2814	540.99
31.2959	559.61
31.3103	533.00
31.3248	541.98
31.3392	535.12
31.3536	495.65
31.3681	544.94
31.3825	537.07
31.3970	503.27
31.4114	516.38
31.4258	536.26
31.4403	533.15
31.4547	487.33
31.4692	509.52
31.4836	516.20
31.4980	471.16
31.5125	485.59
31.5269	496.67
31.5414	491.11
31.5558	464.30
31.5702	495.30
31.5847	518.48
31.5991	496.01
31.6136	492.85
31.6280	489.42
31.6424	512.56
31.6569	494.07
31.6713	511.07
31.6858	510.64
31.7002	482.09
31.7146	492.68
31.7291	487.34
31.7435	505.12
31.7580	506.04
31.7724	483.50
31.7868	486.10
31.8013	496.31
31.8157	523.51
31.8302	501.50
31.8446	491.22
31.8590	530.12
31.8735	534.89
31.8879	529.25
31.9024	552.10
31.9168	541.23
31.9312	490.47
31.9457	523.30
31.9601	475.25
31.9746	463.92
31.9890	498.38
32.0034	499.03
32.0179	477.22
32.0323	496.87
32.0468	489.43
32.0612	517.60
32.0756	527.55
32.0901	532.94
32.1045	500.06
32.1190	526.21
32.1334	537.69
32.1478	499.58
32.1623	482.45
32.1767	511.26
32.1912	513.45
32.2056	507.79
32.2200	500.01
32.2345	516.18
32.2489	484.97
32.2634	485.83
32.2778	498.24
32.2922	486.14
32.3067	504.28
32.3211	487.57
32.3356	506.56
32.3500	530.65
32.3644	526.33
32.3789	486.11
32.3933	495.77
32.4078	463.35
32.4222	503.62
32.4366	467.51
32.4511	468.81
32.4655	499.18
32.4800	526.50
32.4944	503.60
32.5088	495.75
32.5233	487.16
32.5377	513.35
32.5522	525.15
32.5666	518.65
32.5810	481.82
32.5955	500.78
32.6099	521.47
32.6244	508.83
32.6388	497.15
32.6532	488.67
32.6677	485.38
32.6821	484.15
32.6966	483.55
32.7110	495.54
32.7254	488.27
32.7399	498.62
32.7543	511.53
32.7688	483.44
32.7832	483.55
32.7976	499.25
32.8121	502.29
32.8265	507.75
32.8410	488.98
32.8554	519.02
32.8698	514.12
32.8843	516.04
32.8987	505.38
32.9132	446.61
32.9276	509.27
32.9420	569.68
32.9565	496.68
32.9709	463.86
32.9854	506.46
32.9998	491.24
33.0142	497.83
33.0287	527.43
33.0431	501.13
33.0576	499.73
33.0720	499.27
33.0864	512.50
33.1009	482.79
33.1153	496.07
33.1298	477.54
33.1442	505.37
33.1586	491.06
33.1731	455.70
33.1875	473.39
33.2020	479.77
33.2164	483.72
33.2308	493.29
33.2453	518.00
33.2597	509.38
33.2742	503.19
33.2886	495.46
33.3030	491.83
33.3175	504.00
33.3319	503.25
33.3464	520.62
33.3608	489.80
33.3752	534.77
33.3897	508.91
33.4041	480.28
33.4186	515.27
33.4330	515.26
33.4474	486.61
33.4619	493.94
33.4763	464.88
33.4908	506.85
33.5052	519.84
33.5196	515.92
33.5341	525.85
33.5485	520.28
33.5630	480.54
33.5774	474.94
33.5918	499.10
33.6063	496.07
33.6207	509.73
33.6352	499.16
33.6496	502.40
33.6640	499.73
33.6785	501.92
33.6929	505.49
33.7074	522.26
33.7218	537.53
33.7362	484.80
33.7507	499.45
33.7651	445.10
33.7796	491.81
33.7940	529.13
33.8084	508.03
33.8229	524.25
33.8373	495.01
33.8518	522.90
33.8662	533.52
33.8806	540.50
33.8951	533.96
33.9095	516.92
33.9240	542.86
33.9384	547.50
33.9528	496.09
33.9673	499.50
33.9817	524.87
33.9962	494.51
34.0106	497.33
34.0250	510.66
34.0395	497.55
34.0539	441.70
34.0684	503.51
34.0828	526.77
34.0972	486.57
34.1117	493.43
34.1261	497.30
34.1406	501.12
34.1550	489.86
34.1694	500.33
34.1839	520.98
34.1983	524.49
34.2128	513.38
34.2272	496.99
34.2417	513.60
34.2561	477.98
34.2705	514.20
34.2850	498.12
34.2994	476.46
34.3139	457.15
34.3283	474.47
34.3427	531.64
34.3572	489.36
34.3716	459.30
34.3861	485.23
34.4005	522.85
34.4149	501.53
34.4294	506.64
34.4438	526.48
34.4583	535.06
34.4727	532.45
34.4871	526.84
34.5016	525.95
34.5160	523.37
34.5305	501.36
34.5449	489.11
34.5593	504.21
34.5738	501.17
34.5882	507.09
34.6027	511.00
34.6171	500.27
34.6315	519.94
34.6460	495.17
34.6604	475.39
34.6749	501.14
34.6893	498.26
34.7037	527.39
34.7182	492.88
34.7326	487.53
34.7471	512.60
34.7615	501.06
34.7759	497.28
34.7904	502.47
34.8048	484.29
34.8193	496.16
34.8337	502.04
34.8481	477.08
34.8626	507.53
34.8770	535.92
34.8915	511.80
34.9059	545.27
34.9203	493.35
34.9348	479.61
34.9492	478.31
34.9637	489.14
34.9781	507.60
34.9925	515.57
35.0070	523.37
35.0214	530.40
35.0359	499.84
35.0503	490.43
35.0647	518.77
35.0792	529.47
35.0936	530.29
35.1081	535.68
35.1225	535.38
35.1369	503.08
35.1514	502.29
35.1658	528.64
35.1803	529.27
35.1947	472.08
35.2091	487.81
35.2236	511.44
35.2380	528.18
35.2525	501.14
35.2669	490.02
35.2813	484.87
35.2958	527.14
35.3102	502.67
35.3247	484.41
35.3391	510.77
35.3535	498.30
35.3680	489.93
35.3824	492.98
35.3969	485.38
35.4113	500.23
35.4257	540.38
35.4402	517.99
35.4546	542.79
35.4691	563.34
35.4835	529.82
35.4979	529.13
35.5124	544.83
35.5268	548.73
35.5413	566.02
35.5557	555.23
35.5701	535.47
35.5846	514.11
35.5990	533.55
35.6135	505.47
35.6279	515.26
35.6423	570.47
35.6568	587.25
35.6712	564.42
35.6857	603.41
35.7001	686.32
35.7145	754.67
35.7290	684.24
35.7434	663.47
35.7579	616.81
35.7723	654.04
35.7867	694.03
35.8012	749.45
35.8156	789.71
35.8301	715.62
35.8445	712.20
35.8589	782.24
35.8734	853.80
35.8878	935.15
35.9023	1066.39
35.9167	1132.51
35.9311	1306.68
35.9456	1699.12
35.9600	1968.91
35.9745	2097.09
35.9889	2292.42
36.0033	2745.20
36.0178	2995.70
36.0322	3137.63
36.0467	2670.96
36.0611	2111.63
36.0755	1997.71
36.0900	2234.65
36.1044	2148.72
36.1189	1704.46
36.1333	1270.50
36.1477	1145.83
36.1622	1082.27
36.1766	966.34
36.1911	852.47
36.2055	764.91
36.2199	793.89
36.2344	722.31
36.2488	618.51
36.2633	566.67
36.2777	573.52
36.2921	568.53
36.3066	565.07
36.3210	556.85
36.3355	516.59
36.3499	542.19
36.3643	556.83
36.3788	539.66
36.3932	524.66
36.4077	511.37
36.4221	515.75
36.4365	523.22
36.4510	505.39
36.4654	519.61
36.4799	492.40
36.4943	476.53
36.5087	534.29
36.5232	545.51
36.5376	544.95
36.5521	534.98
36.5665	542.65
36.5809	501.89
36.5954	537.16
36.6098	516.55
36.6243	534.46
36.6387	526.70
36.6531	543.17
36.6676	519.84
36.6820	496.14
36.6965	492.15
36.7109	513.98
36.7253	514.71
36.7398	489.18
36.7542	519.25
36.7687	545.49
36.7831	558.98
36.7975	535.48
36.8120	559.32
36.8264	563.93
36.8409	569.81
36.8553	565.11
36.8697	564.38
36.8842	529.90
36.8986	555.26
36.9131	623.64
36.9275	603.61
36.9419	523.22
36.9564	564.30
36.9708	583.34
36.9853	564.27
36.9997	554.41
37.0141	526.94
37.0286	544.37
37.0430	514.72
37.0575	487.28
37.0719	525.62
37.0863	517.04
37.1008	530.51
37.1152	511.28
37.1297	537.63
37.1441	507.73
37.1585	515.78
37.1730	525.23
37.1874	502.44
37.2019	479.62
37.2163	503.30
37.2307	462.18
37.2452	503.09
37.2596	503.50
37.2741	501.63
37.2885	500.12
37.3029	473.57
37.3174	487.60
37.3318	486.89
37.3463	518.84
37.3607	529.98
37.3751	507.07
37.3896	455.89
37.4040	471.00
37.4185	497.01
37.4329	519.45
37.4473	464.06
37.4618	473.16
37.4762	519.11
37.4907	512.37
37.5051	510.03
37.5195	507.19
37.5340	500.85
37.5484	498.83
37.5629	508.75
37.5773	496.34
37.5917	486.22
37.6062	539.07
37.6206	512.81
37.6351	521.66
37.6495	517.87
37.6639	487.72
37.6784	481.23
37.6928	504.81
37.7073	498.85
37.7217	527.75
37.7361	484.67
37.7506	503.42
37.7650	470.11
37.7795	496.40
37.7939	505.75
37.8083	473.83
37.8228	485.99
37.8372	484.76
37.8517	479.18
37.8661	520.31
37.8805	505.18
37.8950	524.24
37.9094	511.33
37.9239	514.53
37.9383	524.47
37.9528	510.88
37.9672	485.90
37.9816	485.96
37.9961	528.14
38.0105	485.88
38.0250	505.43
38.0394	517.87
38.0538	491.07
38.0683	520.27
38.0827	516.54
38.0972	507.14
38.1116	518.30
38.1260	506.42
38.1405	488.59
38.1549	494.20
38.1694	515.17
38.1838	505.44
38.1982	494.67
38.2127	508.86
38.2271	485.73
38.2416	497.82
38.2560	512.60
38.2704	496.36
38.2849	498.79
38.2993	523.66
38.3138	507.41
38.3282	529.92
38.3426	524.20
38.3571	494.75
38.3715	521.83
38.3860	517.94
38.4004	534.17
38.4148	570.98
38.4293	573.66
38.4437	560.19
38.4582	613.15
38.4726	663.59
38.4870	710.91
38.5015	749.70
38.5159	768.44
38.5304	770.60
38.5448	791.80
38.5592	811.12
38.5737	768.36
38.5881	743.29
38.6026	718.60
38.6170	711.61
38.6314	670.07
38.6459	649.95
38.6603	657.90
38.6748	621.12
38.6892	591.18
38.7036	541.37
38.7181	523.34
38.7325	484.36
38.7470	505.78
38.7614	514.58
38.7758	493.99
38.7903	524.99
38.8047	507.26
38.8192	467.21
38.8336	489.92
38.8480	497.34
38.8625	480.28
38.8769	505.53
38.8914	521.38
38.9058	553.01
38.9202	514.64
38.9347	481.70
38.9491	501.50
38.9636	503.57
38.9780	454.61
38.9924	458.50
39.0069	474.92
39.0213	494.96
39.0358	496.76
39.0502	510.49
39.0646	521.31
39.0791	491.32
39.0935	482.42
39.1080	506.74
39.1224	510.13
39.1368	544.41
39.1513	488.14
39.1657	495.46
39.1802	491.69
39.1946	468.22
39.2090	490.06
39.2235	544.25
39.2379	545.96
39.2524	540.02
39.2668	484.20
39.2812	507.74
39.2957	504.78
39.3101	485.63
39.3246	511.14
39.3390	538.48
39.3534	525.72
39.3679	506.28
39.3823	485.78
39.3968	492.94
39.4112	505.86
39.4256	532.02
39.4401	505.37
39.4545	504.62
39.4690	494.50
39.4834	480.28
39.4978	465.96
39.5123	479.19
39.5267	512.29
39.5412	512.90
39.5556	499.83
39.5700	511.30
39.5845	483.91
39.5989	512.17
39.6134	507.85
39.6278	496.33
39.6422	478.50
39.6567	492.06
39.6711	525.87
39.6856	481.85
39.7000	489.44
39.7144	508.14
39.7289	480.27
39.7433	476.13
39.7578	464.50
39.7722	495.32
39.7866	479.85
39.8011	485.38
39.8155	518.67
39.8300	477.68
39.8444	481.97
39.8588	496.74
39.8733	482.19
39.8877	509.98
39.9022	528.07
39.9166	513.13
39.9310	494.44
39.9455	543.74
39.9599	486.74
39.9744	491.64
39.9888	470.68
40.0032	504.75
40.0177	472.16
40.0321	497.97
40.0466	493.04
40.0610	510.28
40.0754	506.73
40.0899	493.29
40.1043	480.60
40.1188	495.70
40.1332	473.63
40.1476	472.00
40.1621	471.28
40.1765	501.76
40.1910	481.42
40.2054	480.15
40.2198	502.75
40.2343	491.76
40.2487	482.73
40.2632	470.61
40.2776	497.61
40.2920	487.73
40.3065	478.24
40.3209	485.43
40.3354	489.45
40.3498	496.68
40.3642	495.07
40.3787	479.57
40.3931	475.34
40.4076	491.61
40.4220	507.79
40.4364	491.86
40.4509	472.10
40.4653	520.53
40.4798	507.91
40.4942	481.33
40.5086	464.21
40.5231	480.31
40.5375	471.97
40.5520	470.29
40.5664	496.28
40.5808	511.53
40.5953	496.11
40.6097	496.26
40.6242	486.74
40.6386	519.88
40.6530	523.99
40.6675	530.46
40.6819	485.48
40.6964	474.78
40.7108	498.67
40.7252	472.87
40.7397	498.95
40.7541	511.75
40.7686	506.01
40.7830	520.59
40.7974	527.53
40.8119	510.43
40.8263	526.18
40.8408	493.10
40.8552	498.93
40.8696	546.13
40.8841	491.43
40.8985	484.17
40.9130	484.47
40.9274	457.68
40.9418	469.62
40.9563	419.46
40.9707	457.00
40.9852	475.92
40.9996	477.38
41.0140	519.19
41.0285	512.88
41.0429	498.86
41.0574	528.20
41.0718	516.35
41.0862	476.69
41.1007	484.57
41.1151	497.22
41.1296	525.05
41.1440	527.00
41.1584	510.18
41.1729	491.04
41.1873	479.00
41.2018	466.98
41.2162	485.84
41.2306	502.82
41.2451	477.78
41.2595	544.87
41.2740	521.28
41.2884	546.60
41.3028	526.94
41.3173	534.93
41.3317	535.78
41.3462	490.39
41.3606	468.79
41.3750	511.76
41.3895	501.93
41.4039	502.77
41.4184	469.49
41.4328	492.23
41.4472	470.11
41.4617	489.58
41.4761	502.14
41.4906	514.14
41.5050	546.01
41.5194	469.48
41.5339	494.41
41.5483	491.92
41.5628	535.32
41.5772	498.80
41.5916	497.61
41.6061	520.66
41.6205	509.86
41.6350	527.77
41.6494	524.79
41.6639	483.32
41.6783	459.15
41.6927	509.27
41.7072	529.54
41.7216	535.71
41.7361	508.39
41.7505	511.93
41.7649	500.52
41.7794	509.82
41.7938	514.84
41.8083	522.18
41.8227	507.38
41.8371	500.43
41.8516	558.93
41.8660	566.61
41.8805	534.66
41.8949	534.62
41.9093	548.98
41.9238	553.37
41.9382	534.20
41.9527	540.38
41.9671	537.11
41.9815	560.60
41.9960	561.12
42.0104	594.57
42.0249	578.85
42.0393	531.94
42.0537	554.73
42.0682	592.99
42.0826	576.32
42.0971	550.28
42.1115	549.31
42.1259	621.17
42.1404	587.01
42.1548	596.44
42.1693	662.40
42.1837	662.58
42.1981	729.26
42.2126	817.66
42.2270	951.82
42.2415	1104.04
42.2559	1191.87
42.2703	1320.77
42.2848	1474.47
42.2992	1624.68
42.3137	1682.10
42.3281	1611.05
42.3425	1558.82
42.3570	1505.64
42.3714	1429.37
42.3859	1414.17
42.4003	1406.99
42.4147	1334.86
42.4292	1312.11
42.4436	1158.17
42.4581	1014.23
42.4725	913.02
42.4869	863.90
42.5014	769.15
42.5158	728.34
42.5303	671.41
42.5447	630.31
42.5591	614.27
42.5736	583.10
42.5880	574.91
42.6025	552.65
42.6169	556.01
42.6313	567.12
42.6458	524.69
42.6602	510.52
42.6747	540.89
42.6891	541.39
42.7035	521.76
42.7180	536.32
42.7324	493.98
42.7469	487.42
42.7613	495.64
42.7757	503.98
42.7902	513.58
42.8046	513.21
42.8191	501.69
42.8335	499.90
42.8479	499.87
42.8624	485.50
42.8768	517.68
42.8913	507.71
42.9057	535.33
42.9201	547.28
42.9346	534.75
42.9490	495.81
42.9635	486.57
42.9779	517.76
42.9923	527.26
43.0068	512.44
43.0212	509.41
43.0357	535.01
43.0501	537.25
43.0645	518.16
43.0790	531.40
43.0934	561.84
43.1079	530.64
43.1223	524.56
43.1367	545.00
43.1512	504.95
43.1656	521.15
43.1801	514.31
43.1945	496.66
43.2089	532.26
43.2234	515.12
43.2378	538.95
43.2523	508.46
43.2667	530.22
43.2811	497.40
43.2956	491.70
43.3100	519.56
43.3245	521.60
43.3389	541.05
43.3533	557.20
43.3678	515.15
43.3822	510.73
43.3967	500.36
43.4111	490.49
43.4255	559.04
43.4400	534.02
43.4544	490.36
43.4689	513.49
43.4833	484.71
43.4977	486.30
43.5122	538.42
43.5266	512.00
43.5411	530.39
43.5555	551.40
43.5699	501.11
43.5844	497.41
43.5988	488.29
43.6133	492.34
43.6277	539.33
43.6421	531.66
43.6566	544.79
43.6710	540.66
43.6855	576.10
43.6999	607.77
43.7143	622.03
43.7288	607.09
43.7432	658.66
43.7577	670.05
43.7721	673.19
43.7865	657.74
43.8010	604.05
43.8154	623.13
43.8299	600.54
43.8443	611.77
43.8587	648.37
43.8732	605.51
43.8876	583.45
43.9021	591.50
43.9165	551.83
43.9309	535.87
43.9454	536.28
43.9598	497.37
43.9743	505.85
43.9887	496.68
44.0031	558.35
44.0176	533.14
44.0320	493.96
44.0465	528.79
44.0609	527.15
44.0753	503.37
44.0898	529.69
44.1042	504.55
44.1187	523.80
44.1331	512.03
44.1475	498.26
44.1620	514.87
44.1764	512.23
44.1909	526.45
44.2053	515.07
44.2197	478.16
44.2342	491.92
44.2486	539.40
44.2631	508.26
44.2775	532.78
44.2919	528.75
44.3064	512.80
44.3208	495.55
44.3353	535.88
44.3497	495.51
44.3641	532.33
44.3786	537.58
44.3930	523.63
44.4075	525.92
44.4219	599.45
44.4363	586.01
44.4508	583.43
44.4652	616.33
44.4797	564.40
44.4941	590.51
44.5085	558.06
44.5230	550.07
44.5374	569.82
44.5519	609.52
44.5663	575.29
44.5807	569.49
44.5952	568.96
44.6096	580.07
44.6241	568.69
44.6385	546.09
44.6529	527.79
44.6674	603.86
44.6818	590.15
44.6963	564.14
44.7107	669.84
44.7251	685.58
44.7396	726.25
44.7540	789.16
44.7685	795.45
44.7829	826.07
44.7973	854.01
44.8118	849.36
44.8262	821.54
44.8407	754.60
44.8551	724.15
44.8695	737.49
44.8840	757.69
44.8984	703.18
44.9129	739.10
44.9273	710.31
44.9417	700.36
44.9562	614.56
44.9706	576.64
44.9851	550.95
44.9995	573.22
45.0139	515.11
45.0284	528.85
45.0428	546.77
45.0573	507.21
45.0717	517.68
45.0861	510.88
45.1006	517.43
45.1150	527.39
45.1295	522.04
45.1439	521.82
45.1583	508.76
45.1728	520.97
45.1872	515.05
45.2017	514.45
45.2161	509.25
45.2305	513.78
45.2450	544.17
45.2594	512.04
45.2739	514.24
45.2883	529.98
45.3028	542.43
45.3172	509.76
45.3316	534.78
45.3461	513.99
45.3605	510.83
45.3750	501.82
45.3894	505.21
45.4038	488.40
45.4183	478.43
45.4327	501.08
45.4472	499.39
45.4616	507.31
45.4760	502.11
45.4905	486.12
45.5049	500.09
45.5194	509.71
45.5338	533.87
45.5482	522.06
45.5627	490.62
45.5771	503.74
45.5916	513.69
45.6060	513.87
45.6204	507.02
45.6349	482.19
45.6493	502.41
45.6638	495.97
45.6782	510.65
45.6926	528.93
45.7071	554.02
45.7215	508.31
45.7360	484.02
45.7504	482.19
45.7648	503.12
45.7793	501.77
45.7937	508.81
45.8082	527.28
45.8226	510.19
45.8370	517.78
45.8515	501.88
45.8659	513.87
45.8804	529.12
45.8948	529.06
45.9092	488.72
45.9237	486.49
45.9381	497.73
45.9526	505.85
45.9670	507.38
45.9814	514.52
45.9959	513.83
46.0103	504.56
46.0248	513.53
46.0392	492.56
46.0536	478.89
46.0681	507.78
46.0825	523.67
46.0970	517.24
46.1114	552.08
46.1258	562.09
46.1403	514.54
46.1547	492.10
46.1692	507.83
46.1836	513.42
46.1980	519.13
46.2125	484.81
46.2269	494.00
46.2414	476.07
46.2558	511.01
46.2702	507.84
46.2847	510.15
46.2991	500.24
46.3136	512.83
46.3280	475.38
46.3424	471.48
46.3569	491.62
46.3713	509.27
46.3858	517.29
46.4002	499.21
46.4146	513.06
46.4291	510.35
46.4435	505.97
46.4580	507.84
46.4724	491.71
46.4868	498.29
46.5013	498.31
46.5157	485.67
46.5302	471.76
46.5446	492.14
46.5590	505.71
46.5735	483.92
46.5879	482.38
46.6024	481.13
46.6168	473.68
46.6312	514.04
46.6457	517.60
46.6601	522.35
46.6746	491.62
46.6890	484.22
46.7034	489.32
46.7179	499.08
46.7323	491.82
46.7468	506.32
46.7612	513.30
46.7756	513.67
46.7901	517.46
46.8045	517.03
46.8190	488.22
46.8334	491.23
46.8478	459.88
46.8623	533.12
46.8767	529.44
46.8912	506.81
46.9056	492.42
46.9200	495.39
46.9345	528.36
46.9489	507.43
46.9634	508.71
46.9778	501.10
46.9922	495.66
47.0067	490.56
47.0211	502.51
47.0356	505.41
47.0500	475.23
47.0644	502.15
47.0789	496.67
47.0933	512.00
47.1078	504.06
47.1222	531.59
47.1366	523.96
47.1511	507.06
47.1655	508.95
47.1800	476.53
47.1944	498.32
47.2088	477.92
47.2233	478.17
47.2377	518.42
47.2522	514.11
47.2666	489.05
47.2810	491.20
47.2955	470.94
47.3099	490.36
47.3244	516.59
47.3388	509.23
47.3532	525.36
47.3677	511.20
47.3821	498.85
47.3966	462.11
47.4110	471.47
47.4254	535.82
47.4399	518.17
47.4543	529.84
47.4688	530.39
47.4832	484.42
47.4976	483.65
47.5121	471.19
47.5265	496.85
47.5410	496.22
47.5554	499.49
47.5698	503.17
47.5843	517.30
47.5987	518.23
47.6132	513.59
47.6276	516.33
47.6420	487.74
47.6565	493.11
47.6709	502.52
47.6854	511.18
47.6998	508.03
47.7142	530.54
47.7287	488.60
47.7431	511.62
47.7576	482.74
47.7720	520.19
47.7864	525.58
47.8009	535.92
47.8153	499.29
47.8298	478.78
47.8442	491.45
47.8586	510.90
47.8731	475.67
47.8875	473.59
47.9020	546.78
47.9164	519.60
47.9308	498.86
47.9453	534.10
47.9597	542.03
47.9742	488.41
47.9886	505.25
48.0030	526.30
48.0175	497.60
48.0319	518.51
48.0464	518.15
48.0608	509.19
48.0752	558.91
48.0897	581.33
48.1041	527.15
48.1186	490.91
48.1330	488.84
48.1474	522.81
48.1619	509.00
48.1763	488.17
48.1908	485.97
48.2052	514.93
48.2196	512.66
48.2341	503.73
48.2485	507.67
48.2630	506.93
48.2774	522.92
48.2918	493.32
48.3063	544.68
48.3207	518.29
48.3352	509.71
48.3496	462.19
48.3640	515.03
48.3785	496.91
48.3929	496.12
48.4074	495.45
48.4218	501.72
48.4362	491.45
48.4507	495.86
48.4651	473.72
48.4796	497.59
48.4940	511.34
48.5084	534.56
48.5229	508.18
48.5373	507.99
48.5518	491.06
48.5662	525.13
48.5806	473.91
48.5951	500.49
48.6095	506.69
48.6240	484.07
48.6384	551.04
48.6528	507.46
48.6673	528.36
48.6817	539.70
48.6962	520.76
48.7106	534.07
48.7250	520.59
48.7395	513.94
48.7539	519.85
48.7684	515.46
48.7828	502.56
48.7972	527.86
48.8117	559.28
48.8261	535.47
48.8406	521.36
48.8550	514.27
48.8694	545.15
48.8839	564.17
48.8983	559.33
48.9128	522.01
48.9272	543.64
48.9416	566.18
48.9561	567.61
48.9705	610.93
48.9850	572.10
48.9994	568.68
49.0139	589.41
49.0283	605.32
49.0427	631.62
49.0572	695.50
49.0716	651.44
49.0861	650.77
49.1005	662.83
49.1149	691.10
49.1294	736.91
49.1438	745.52
49.1583	805.09
49.1727	907.43
49.1871	938.97
49.2016	978.07
49.2160	1058.00
49.2305	1093.75
49.2449	1243.54
49.2593	1372.15
49.2738	1469.44
49.2882	1550.68
49.3027	1588.59
49.3171	1695.10
49.3315	1792.85
49.3460	1860.41
49.3604	1867.57
49.3749	1785.78
49.3893	1790.96
49.4037	1799.46
49.4182	1787.41
49.4326	1746.03
49.4471	1651.75
49.4615	1655.21
49.4759	1610.67
49.4904	1519.45
49.5048	1417.75
49.5193	1333.55
49.5337	1306.13
49.5481	1238.18
49.5626	1141.64
49.5770	1068.70
49.5915	1012.29
49.6059	947.24
49.6203	848.95
49.6348	799.54
49.6492	783.61
49.6637	739.86
49.6781	671.90
49.6925	661.57
49.7070	685.17
49.7214	639.75
49.7359	609.83
49.7503	617.09
49.7647	579.82
49.7792	606.69
49.7936	590.18
49.8081	588.07
49.8225	569.65
49.8369	568.57
49.8514	559.99
49.8658	575.34
49.8803	559.96
49.8947	523.95
49.9091	531.24
49.9236	568.95
49.9380	574.92
49.9525	528.48
49.9669	543.03
49.9813	508.02
49.9958	561.07
50.0102	547.50
50.0247	556.34
50.0391	530.70
50.0535	558.83
50.0680	517.89
50.0824	536.92
50.0969	544.05
50.1113	509.82
50.1257	539.09
50.1402	534.63
50.1546	522.51
50.1691	515.68
50.1835	500.93
50.1979	490.74
50.2124	503.52
50.2268	501.13
50.2413	504.16
50.2557	490.23
50.2701	511.32
50.2846	523.11
50.2990	543.67
50.3135	507.84
50.3279	495.84
50.3423	538.21
50.3568	529.73
50.3712	520.64
50.3857	510.56
50.4001	507.39
50.4145	494.13
50.4290	510.20
50.4434	551.24
50.4579	538.99
50.4723	538.79
50.4867	527.16
50.5012	519.33
50.5156	535.20
50.5301	508.92
50.5445	505.63
50.5589	530.41
50.5734	488.12
50.5878	505.81
50.6023	508.84
50.6167	477.58
50.6311	502.37
50.6456	519.28
50.6600	498.88
50.6745	516.63
50.6889	514.77
50.7033	536.38
50.7178	518.70
50.7322	504.83
50.7467	499.22
50.7611	539.54
50.7755	511.44
50.7900	519.40
50.8044	481.66
50.8189	472.00
50.8333	503.04
50.8477	510.12
50.8622	528.85
50.8766	509.82
50.8911	497.88
50.9055	513.05
50.9199	498.79
50.9344	491.29
50.9488	502.22
50.9633	509.51
50.9777	513.91
50.9921	509.39
51.0066	488.45
51.0210	515.11
51.0355	504.45
51.0499	455.75
51.0643	469.75
51.0788	458.83
51.0932	487.51
51.1077	534.44
51.1221	508.39
51.1365	500.73
51.1510	483.08
51.1654	502.64
51.1799	499.45
51.1943	472.17
51.2087	509.44
51.2232	499.14
51.2376	498.65
51.2521	515.80
51.2665	511.20
51.2809	520.07
51.2954	510.69
51.3098	526.10
51.3243	488.08
51.3387	520.87
51.3531	502.71
51.3676	515.92
51.3820	532.38
51.3965	473.49
51.4109	495.69
51.4253	498.05
51.4398	522.44
51.4542	488.76
51.4687	519.29
51.4831	511.61
51.4975	521.61
51.5120	505.82
51.5264	535.01
51.5409	559.33
51.5553	493.15
51.5697	504.48
51.5842	523.69
51.5986	463.26
51.6131	491.82
51.6275	512.33
51.6419	518.09
51.6564	521.82
51.6708	526.21
51.6853	502.97
51.6997	516.11
51.7141	521.22
51.7286	516.46
51.7430	535.34
51.7575	533.06
51.7719	506.91
51.7863	541.67
51.8008	487.73
51.8152	460.52
51.8297	504.17
51.8441	516.02
51.8585	510.68
51.8730	488.27
51.8874	510.73
51.9019	508.94
51.9163	515.06
51.9307	502.98
51.9452	506.08
51.9596	475.33
51.9741	465.66
51.9885	477.88
52.0029	496.21
52.0174	491.37
52.0318	492.06
52.0463	496.45
52.0607	504.34
52.0751	486.44
52.0896	531.86
52.1040	502.93
52.1185	524.04
52.1329	526.14
52.1473	485.94
52.1618	499.30
52.1762	505.92
52.1907	518.45
52.2051	516.87
52.2195	509.69
52.2340	509.59
52.2484	524.96
52.2629	492.67
52.2773	510.08
52.2917	510.93
52.3062	487.73
52.3206	486.48
52.3351	531.36
52.3495	521.52
52.3639	524.30
52.3784	530.44
52.3928	518.12
52.4073	526.58
52.4217	516.46
52.4361	483.09
52.4506	492.30
52.4650	556.63
52.4795	545.93
52.4939	493.16
52.5083	471.43
52.5228	500.36
52.5372	472.59
52.5517	477.54
52.5661	522.55
52.5805	499.07
52.5950	522.89
52.6094	474.73
52.6239	539.35
52.6383	537.42
52.6527	495.96
52.6672	521.64
52.6816	533.41
52.6961	479.13
52.7105	529.66
52.7250	510.82
52.7394	488.44
52.7538	521.92
52.7683	476.08
52.7827	514.26
52.7972	490.36
52.8116	511.44
52.8260	484.95
52.8405	499.46
52.8549	516.57
52.8694	523.35
52.8838	515.93
52.8982	530.89
52.9127	494.79
52.9271	473.88
52.9416	526.37
52.9560	544.27
52.9704	471.26
52.9849	514.85
52.9993	529.21
53.0138	485.85
53.0282	524.86
53.0426	519.20
53.0571	548.53
53.0715	507.44
53.0860	519.04
53.1004	531.50
53.1148	502.78
53.1293	508.79
53.1437	508.13
53.1582	533.94
53.1726	549.54
53.1870	558.76
53.2015	484.24
53.2159	536.05
53.2304	515.66
53.2448	491.43
53.2592	488.27
53.2737	517.34
53.2881	501.03
53.3026	527.40
53.3170	496.26
53.3314	526.96
53.3459	545.17
53.3603	507.42
53.3748	477.19
53.3892	500.93
53.4036	515.16
53.4181	489.47
53.4325	526.41
53.4470	506.04
53.4614	518.53
53.4758	517.19
53.4903	539.83
53.5047	514.72
53.5192	496.58
53.5336	504.94
53.5480	487.59
53.5625	523.73
53.5769	525.27
53.5914	524.96
53.6058	501.05
53.6202	499.62
53.6347	478.00
53.6491	502.66
53.6636	504.28
53.6780	473.21
53.6924	492.45
53.7069	537.46
53.7213	508.35
53.7358	489.47
53.7502	523.79
53.7646	520.57
53.7791	515.70
53.7935	486.50
53.8080	512.97
53.8224	487.57
53.8368	464.42
53.8513	479.29
53.8657	503.67
53.8802	496.45
53.8946	503.55
53.9090	525.03
53.9235	539.32
53.9379	523.18
53.9524	513.93
53.9668	544.68
53.9812	534.86
53.9957	509.25
54.0101	514.87
54.0246	524.24
54.0390	507.02
54.0534	543.95
54.0679	570.78
54.0823	538.57
54.0968	556.28
54.1112	520.95
54.1256	560.43
54.1401	511.24
54.1545	540.18
54.1690	570.56
54.1834	564.50
54.1978	545.10
54.2123	559.01
54.2267	582.04
54.2412	597.74
54.2556	648.50
54.2700	642.64
54.2845	665.91
54.2989	626.13
54.3134	620.95
54.3278	618.52
54.3422	654.90
54.3567	622.67
54.3711	587.11
54.3856	577.38
54.4000	584.83
54.4144	601.01
54.4289	616.34
54.4433	589.75
54.4578	557.99
54.4722	528.80
54.4866	524.94
54.5011	537.23
54.5155	542.70
54.5300	547.51
54.5444	543.91
54.5588	560.57
54.5733	532.50
54.5877	523.20
54.6022	532.17
54.6166	518.32
54.6310	524.17
54.6455	527.27
54.6599	525.21
54.6744	522.24
54.6888	491.59
54.7032	533.79
54.7177	532.48
54.7321	534.61
54.7466	541.21
54.7610	520.64
54.7754	503.86
54.7899	518.27
54.8043	512.61
54.8188	501.92
54.8332	499.36
54.8476	502.20
54.8621	488.08
54.8765	497.84
54.8910	529.10
54.9054	538.64
54.9198	530.18
54.9343	512.90
54.9487	476.09
54.9632	513.02
54.9776	519.20
54.9920	517.89
55.0065	510.12
55.0209	519.69
55.0354	478.99
55.0498	473.64
55.0642	498.57
55.0787	515.13
55.0931	525.87
55.1076	494.88
55.1220	516.73
55.1364	528.38
55.1509	496.32
55.1653	499.72
55.1798	524.33
55.1942	515.86
55.2086	529.02
55.2231	514.32
55.2375	489.21
55.2520	499.77
55.2664	477.88
55.2808	504.03
55.2953	500.37
55.3097	508.04
55.3242	506.92
55.3386	505.68
55.3530	523.64
55.3675	516.45
55.3819	519.23
55.3964	538.47
55.4108	536.01
55.4252	515.82
55.4397	520.34
55.4541	543.14
55.4686	557.29
55.4830	509.60
55.4974	487.71
55.5119	503.27
55.5263	504.64
55.5408	516.05
55.5552	536.48
55.5696	553.21
55.5841	528.43
55.5985	520.90
55.6130	529.54
55.6274	522.02
55.6418	536.97
55.6563	515.93
55.6707	506.35
55.6852	479.56
55.6996	508.30
55.7140	499.26
55.7285	506.13
55.7429	519.03
55.7574	457.62
55.7718	511.73
55.7862	537.99
55.8007	511.66
55.8151	539.89
55.8296	512.17
55.8440	513.49
55.8584	531.42
55.8729	546.15
55.8873	529.11
55.9018	521.97
55.9162	516.19
55.9306	501.58
55.9451	506.97
55.9595	545.44
55.9740	518.88
55.9884	489.43
56.0028	515.98
56.0173	525.96
56.0317	542.38
56.0462	549.39
56.0606	555.99
56.0750	524.75
56.0895	536.70
56.1039	509.21
56.1184	494.95
56.1328	541.75
56.1472	532.87
56.1617	533.91
56.1761	527.40
56.1906	491.39
56.2050	529.15
56.2194	569.67
56.2339	541.53
56.2483	532.56
56.2628	512.45
56.2772	509.73
56.2916	521.01
56.3061	533.63
56.3205	493.65
56.3350	540.08
56.3494	510.26
56.3639	545.19
56.3783	511.00
56.3927	498.28
56.4072	505.74
56.4216	500.44
56.4361	508.47
56.4505	507.39
56.4649	502.29
56.4794	545.33
56.4938	522.61
56.5083	553.74
56.5227	493.35
56.5371	548.05
56.5516	528.01
56.5660	494.42
56.5805	512.81
56.5949	527.51
56.6093	509.89
56.6238	526.72
56.6382	529.24
56.6527	518.24
56.6671	523.96
56.6815	481.03
56.6960	513.48
56.7104	514.67
56.7249	485.28
56.7393	486.92
56.7537	500.68
56.7682	545.41
56.7826	488.96
56.7971	527.47
56.8115	523.86
56.8259	533.15
56.8404	562.29
56.8548	535.91
56.8693	513.34
56.8837	513.48
56.8981	543.34
56.9126	533.89
56.9270	485.97
56.9415	521.08
56.9559	507.85
56.9703	521.76
56.9848	531.76
56.9992	514.01
57.0137	532.57
57.0281	507.20
57.0425	516.22
57.0570	495.38
57.0714	498.32
57.0859	520.79
57.1003	546.24
57.1147	535.86
57.1292	505.89
57.1436	510.21
57.1581	499.67
57.1725	513.17
57.1869	501.46
57.2014	512.96
57.2158	502.65
57.2303	508.24
57.2447	513.27
57.2591	508.77
57.2736	544.52
57.2880	540.68
57.3025	490.78
57.3169	526.30
57.3313	534.92
57.3458	534.34
57.3602	524.91
57.3747	538.55
57.3891	513.60
57.4035	502.71
57.4180	524.78
57.4324	525.89
57.4469	545.54
57.4613	514.87
57.4757	533.79
57.4902	543.12
57.5046	565.06
57.5191	558.64
57.5335	556.55
57.5479	498.40
57.5624	517.76
57.5768	513.93
57.5913	520.78
57.6057	551.16
57.6201	508.34
57.6346	538.32
57.6490	564.77
57.6635	559.30
57.6779	505.72
57.6923	480.73
57.7068	545.41
57.7212	549.70
57.7357	533.74
57.7501	553.42
57.7645	564.65
57.7790	600.03
57.7934	594.22
57.8079	654.77
57.8223	685.49
57.8367	717.84
57.8512	702.43
57.8656	764.28
57.8801	783.14
57.8945	791.79
57.9089	753.19
57.9234	669.95
57.9378	700.67
57.9523	636.54
57.9667	623.75
57.9811	637.46
57.9956	619.53
58.0100	681.68
58.0245	686.31
58.0389	609.82
58.0533	629.63
58.0678	644.08
58.0822	643.34
58.0967	643.27
58.1111	594.05
58.1255	571.21
58.1400	562.62
58.1544	551.81
58.1689	549.65
58.1833	545.05
58.1977	519.88
58.2122	541.46
58.2266	568.51
58.2411	566.87
58.2555	602.40
58.2699	565.20
58.2844	547.03
58.2988	529.17
58.3133	497.33
58.3277	544.91
58.3421	543.03
58.3566	541.72
58.3710	542.25
58.3855	526.43
58.3999	546.23
58.4143	551.33
58.4288	548.07
58.4432	532.17
58.4577	497.42
58.4721	533.72
58.4865	526.67
58.5010	501.42
58.5154	506.94
58.5299	536.22
58.5443	560.49
58.5587	542.20
58.5732	549.69
58.5876	521.06
58.6021	500.99
58.6165	524.90
58.6309	518.64
58.6454	531.66
58.6598	500.72
58.6743	520.20
58.6887	504.87
58.7031	552.84
58.7176	554.59
58.7320	506.07
58.7465	532.65
58.7609	532.90
58.7753	561.40
58.7898	514.03
58.8042	518.18
58.8187	531.00
58.8331	525.02
58.8475	517.33
58.8620	552.36
58.8764	536.04
58.8909	539.04
58.9053	545.41
58.9197	513.30
58.9342	546.46
58.9486	543.49
58.9631	511.10
58.9775	523.75
58.9919	540.45
59.0064	480.02
59.0208	499.93
59.0353	522.94
59.0497	488.38
59.0641	532.26
59.0786	560.55
59.0930	552.59
59.1075	526.11
59.1219	552.53
59.1363	549.00
59.1508	530.66
59.1652	546.74
59.1797	541.53
59.1941	523.55
59.2085	526.63
59.2230	535.07
59.2374	518.60
59.2519	555.91
59.2663	551.49
59.2807	595.92
59.2952	554.63
59.3096	530.76
59.3241	536.03
59.3385	553.23
59.3529	530.23
59.3674	520.14
59.3818	554.86
59.3963	547.60
59.4107	546.17
59.4251	568.03
59.4396	578.16
59.4540	553.03
59.4685	537.27
59.4829	566.34
59.4973	545.58
59.5118	577.50
59.5262	577.21
59.5407	568.96
59.5551	557.07
59.5695	565.61
59.5840	538.29
59.5984	497.03
59.6129	551.02
59.6273	509.43
59.6417	509.99
59.6562	548.60
59.6706	570.71
59.6851	556.57
59.6995	526.68
59.7139	552.05
59.7284	538.17
59.7428	509.55
59.7573	499.66
59.7717	547.57
59.7861	515.26
59.8006	517.37
59.8150	523.46
59.8295	507.75
59.8439	521.63
59.8583	552.97
59.8728	522.75
59.8872	513.13
59.9017	557.43
59.9161	546.16
59.9305	556.16
59.9450	539.62
59.9594	502.42
59.9739	501.67
59.9883	535.31
60.0027	544.52
60.0172	517.80
60.0316	527.89
60.0461	534.30
60.0605	556.10
60.0750	555.92
60.0894	573.95
60.1038	516.43
60.1183	535.22
60.1327	520.66
60.1472	499.78
60.1616	544.77
60.1760	527.65
60.1905	523.27
60.2049	481.77
60.2194	544.38
60.2338	543.34
60.2482	543.48
60.2627	512.33
60.2771	524.59
60.2916	521.24
60.3060	516.51
60.3204	533.34
60.3349	522.79
60.3493	497.43
60.3638	525.88
60.3782	513.82
60.3926	521.42
60.4071	539.57
60.4215	544.36
60.4360	518.95
60.4504	489.45
60.4648	558.70
60.4793	538.62
60.4937	544.54
60.5082	516.79
60.5226	530.41
60.5370	524.09
60.5515	514.11
60.5659	556.70
60.5804	541.68
60.5948	530.19
60.6092	552.05
60.6237	519.41
60.6381	517.61
60.6526	518.39
60.6670	512.05
60.6814	528.27
60.6959	529.51
60.7103	559.10
60.7248	536.44
60.7392	520.52
60.7536	544.08
60.7681	513.49
60.7825	559.31
60.7970	550.72
60.8114	569.77
60.8258	535.56
60.8403	543.02
60.8547	533.95
60.8692	559.40
60.8836	546.20
60.8980	563.89
60.9125	551.14
60.9269	551.30
60.9414	536.58
60.9558	510.22
60.9702	493.16
60.9847	508.15
60.9991	522.38
61.0136	531.70
61.0280	520.13
61.0424	528.77
61.0569	547.02
61.0713	602.73
61.0858	562.51
61.1002	546.10
61.1146	526.91
61.1291	552.15
61.1435	513.18
61.1580	545.64
61.1724	526.77
61.1868	531.00
61.2013	530.37
61.2157	543.02
61.2302	541.89
61.2446	545.87
61.2590	542.59
61.2735	559.98
61.2879	548.21
61.3024	553.20
61.3168	533.93
61.3312	548.42
61.3457	551.61
61.3601	532.19
61.3746	534.47
61.3890	557.61
61.4034	572.73
61.4179	514.31
61.4323	555.43
61.4468	530.08
61.4612	577.60
61.4756	544.97
61.4901	536.71
61.5045	579.58
61.5190	553.85
61.5334	526.07
61.5478	532.75
61.5623	538.79
61.5767	537.54
61.5912	529.16
61.6056	568.71
61.6200	547.71
61.6345	561.48
61.6489	524.08
61.6634	533.38
61.6778	506.48
61.6922	527.32
61.7067	566.76
61.7211	560.06
61.7356	536.86
61.7500	553.28
61.7644	561.65
61.7789	576.74
61.7933	580.44
61.8078	566.72
61.8222	559.01
61.8366	534.36
61.8511	555.04
61.8655	570.28
61.8800	533.25
61.8944	528.16
61.9088	569.87
61.9233	581.14
61.9377	560.74
61.9522	591.78
61.9666	530.27
61.9810	511.83
61.9955	561.71
62.0099	554.77
62.0244	551.83
62.0388	529.12
62.0532	529.38
62.0677	551.58
62.0821	566.36
62.0966	561.80
62.1110	571.64
62.1254	555.92
62.1399	544.66
62.1543	510.47
62.1688	534.58
62.1832	531.13
62.1976	546.32
62.2121	558.83
62.2265	550.95
62.2410	550.01
62.2554	567.64
62.2698	535.26
62.2843	545.88
62.2987	545.98
62.3132	548.50
62.3276	562.44
62.3420	573.79
62.3565	544.32
62.3709	575.76
62.3854	569.80
62.3998	529.12
62.4142	534.16
62.4287	560.20
62.4431	534.20
62.4576	545.18
62.4720	562.99
62.4864	575.28
62.5009	577.57
62.5153	549.52
62.5298	552.65
62.5442	556.70
62.5586	578.45
62.5731	525.62
62.5875	522.20
62.6020	528.82
62.6164	554.57
62.6308	572.74
62.6453	588.19
62.6597	565.63
62.6742	567.69
62.6886	553.27
62.7030	559.39
62.7175	565.86
62.7319	522.31
62.7464	559.48
62.7608	524.34
62.7752	541.11
62.7897	555.98
62.8041	578.93
62.8186	561.27
62.8330	553.06
62.8474	553.08
62.8619	576.61
62.8763	562.74
62.8908	546.38
62.9052	559.90
62.9196	578.28
62.9341	573.39
62.9485	535.78
62.9630	536.60
62.9774	549.29
62.9918	556.06
63.0063	568.23
63.0207	576.63
63.0352	595.28
63.0496	564.24
63.0640	558.25
63.0785	556.53
63.0929	571.03
63.1074	549.72
63.1218	610.13
63.1362	588.67
63.1507	543.11
63.1651	572.06
63.1796	601.25
63.1940	561.64
63.2084	575.00
63.2229	592.38
63.2373	603.29
63.2518	560.81
63.2662	572.17
63.2806	596.65
63.2951	558.59
63.3095	615.41
63.3240	606.64
63.3384	618.46
63.3528	565.67
63.3673	581.49
63.3817	584.93
63.3962	597.53
63.4106	603.96
63.4250	644.33
63.4395	688.03
63.4539	644.79
63.4684	677.49
63.4828	743.43
63.4972	771.11
63.5117	792.12
63.5261	820.03
63.5406	871.55
63.5550	904.94
63.5694	970.50
63.5839	951.60
63.5983	912.06
63.6128	871.52
63.6272	822.50
63.6416	788.90
63.6561	773.16
63.6705	738.14
63.6850	739.44
63.6994	811.35
63.7138	824.74
63.7283	786.33
63.7427	772.55
63.7572	790.81
63.7716	767.70
63.7861	753.04
63.8005	709.19
63.8149	711.08
63.8294	713.29
63.8438	652.68
63.8583	641.45
63.8727	632.83
63.8871	619.79
63.9016	666.73
63.9160	644.63
63.9305	612.52
63.9449	626.93
63.9593	637.11
63.9738	587.12
63.9882	604.48
64.0027	583.66
64.0171	586.70
64.0315	645.35
64.0460	638.86
64.0604	598.70
64.0749	606.53
64.0893	630.50
64.1037	598.37
64.1182	619.13
64.1326	597.49
64.1471	533.27
64.1615	580.04
64.1759	616.05
64.1904	613.06
64.2048	559.35
64.2193	604.63
64.2337	612.36
64.2481	575.38
64.2626	613.61
64.2770	609.89
64.2915	596.65
64.3059	592.21
64.3203	593.07
64.3348	614.47
64.3492	612.47
64.3637	601.60
64.3781	582.66
64.3925	595.36
64.4070	607.31
64.4214	627.83
64.4359	592.27
64.4503	598.46
64.4647	635.45
64.4792	657.04
64.4936	621.64
64.5081	629.08
64.5225	619.22
64.5369	658.05
64.5514	633.50
64.5658	628.71
64.5803	634.31
64.5947	638.52
64.6091	628.75
64.6236	627.72
64.6380	657.89
64.6525	643.50
64.6669	686.12
64.6813	658.25
64.6958	630.83
64.7102	649.94
64.7247	655.84
64.7391	668.56
64.7535	673.31
64.7680	686.11
64.7824	721.86
64.7969	727.87
64.8113	748.75
64.8257	784.60
64.8402	800.87
64.8546	817.47
64.8691	844.77
64.8835	812.50
64.8979	881.06
64.9124	851.94
64.9268	832.60
64.9413	892.36
64.9557	930.38
64.9701	959.97
64.9846	1041.96
64.9990	1097.18
65.0135	1210.13
65.0279	1352.11
65.0423	1657.10
65.0568	2004.62
65.0712	2544.91
65.0857	3199.54
65.1001	4228.65
65.1145	5799.68
65.1290	7589.04
65.1434	9308.34
65.1579	10712.00
65.1723	11419.13
65.1867	11250.02
65.2012	10047.05
65.2156	8388.30
65.2301	6635.87
65.2445	5341.57
65.2589	4487.40
65.2734	4109.23
65.2878	4262.53
65.3023	4800.47
65.3167	5530.49
65.3311	6298.91
65.3456	6862.18
65.3600	6925.77
65.3745	6490.20
65.3889	5440.53
65.4033	4469.72
65.4178	3444.55
65.4322	2768.55
65.4467	2073.12
65.4611	1703.33
65.4755	1518.47
65.4900	1270.77
65.5044	1121.22
65.5189	1043.62
65.5333	1012.40
65.5477	950.29
65.5622	884.67
65.5766	851.60
65.5911	809.32
65.6055	779.25
65.6199	733.84
65.6344	802.69
65.6488	742.05
65.6633	718.71
65.6777	700.94
65.6921	681.39
65.7066	698.17
65.7210	687.13
65.7355	701.74
65.7499	713.67
65.7643	659.18
65.7788	709.01
65.7932	683.55
65.8077	709.69
65.8221	687.68
65.8365	674.70
65.8510	684.79
65.8654	710.45
65.8799	665.37
65.8943	661.83
65.9087	634.20
65.9232	597.45
65.9376	641.78
65.9521	648.25
65.9665	684.34
65.9809	667.49
65.9954	625.94
66.0098	610.69
66.0243	600.24
66.0387	616.17
66.0531	626.16
66.0676	645.17
66.0820	643.51
66.0965	654.00
66.1109	652.62
66.1253	636.81
66.1398	619.95
66.1542	613.43
66.1687	631.38
66.1831	649.53
66.1975	605.30
66.2120	617.70
66.2264	596.47
66.2409	612.58
66.2553	571.68
66.2697	582.88
66.2842	604.16
66.2986	586.34
66.3131	601.50
66.3275	608.84
66.3419	594.68
66.3564	626.11
66.3708	591.81
66.3853	580.43
66.3997	582.12
66.4141	537.35
66.4286	594.93
66.4430	579.81
66.4575	572.62
66.4719	624.49
66.4863	595.50
66.5008	588.88
66.5152	577.58
66.5297	566.27
66.5441	601.64
66.5585	614.06
66.5730	627.14
66.5874	564.36
66.6019	556.92
66.6163	569.82
66.6307	586.58
66.6452	584.39
66.6596	594.76
66.6741	593.68
66.6885	571.13
66.7029	612.54
66.7174	599.86
66.7318	591.42
66.7463	603.96
66.7607	560.80
66.7751	566.37
66.7896	606.33
66.8040	588.02
66.8185	608.31
66.8329	613.75
66.8473	563.72
66.8618	574.64
66.8762	576.25
66.8907	568.45
66.9051	605.82
66.9195	587.83
66.9340	553.13
66.9484	544.01
66.9629	590.88
66.9773	598.69
66.9917	578.79
67.0062	557.64
67.0206	548.42
67.0351	554.49
67.0495	568.11
67.0639	588.36
67.0784	567.11
67.0928	556.40
67.1073	535.03
67.1217	607.21
67.1361	607.63
67.1506	559.66
67.1650	553.68
67.1795	577.76
67.1939	552.26
67.2083	572.81
67.2228	575.89
67.2372	584.51
67.2517	562.77
67.2661	548.42
67.2805	564.65
67.2950	578.47
67.3094	612.54
67.3239	569.77
67.3383	556.99
67.3527	554.06
67.3672	559.74
67.3816	570.65
67.3961	574.10
67.4105	564.66
67.4250	575.99
67.4394	566.59
67.4538	558.63
67.4683	581.43
67.4827	567.93
67.4972	576.59
67.5116	566.62
67.5260	581.24
67.5405	576.81
67.5549	597.89
67.5694	544.16
67.5838	536.22
67.5982	561.22
67.6127	590.87
67.6271	571.52
67.6416	558.27
67.6560	606.86
67.6704	534.11
67.6849	544.54
67.6993	576.13
67.7138	598.14
67.7282	589.18
67.7426	575.06
67.7571	555.78
67.7715	562.96
67.7860	584.82
67.8004	556.88
67.8148	588.18
67.8293	594.00
67.8437	580.84
67.8582	597.74
67.8726	568.06
67.8870	567.40
67.9015	587.50
67.9159	583.29
67.9304	579.96
67.9448	570.42
67.9592	523.11
67.9737	610.94
67.9881	564.44
68.0026	600.51
68.0170	587.83
68.0314	574.72
68.0459	611.59
68.0603	609.95
68.0748	575.11
68.0892	568.05
68.1036	525.02
68.1181	596.66
68.1325	592.15
68.1470	525.37
68.1614	570.56
68.1758	579.71
68.1903	580.61
68.2047	591.86
68.2192	632.50
68.2336	558.78
68.2480	567.99
68.2625	575.88
68.2769	548.77
68.2914	543.15
68.3058	519.24
68.3202	569.19
68.3347	582.39
68.3491	608.14
68.3636	625.22
68.3780	593.36
68.3924	572.16
68.4069	583.75
68.4213	549.83
68.4358	555.54
68.4502	570.76
68.4646	579.56
68.4791	592.93
68.4935	571.87
68.5080	550.98
68.5224	556.10
68.5368	557.01
68.5513	593.25
68.5657	559.94
68.5802	572.34
68.5946	548.52
68.6090	574.20
68.6235	525.12
68.6379	561.21
68.6524	564.84
68.6668	572.16
68.6812	584.26
68.6957	557.36
68.7101	603.73
68.7246	569.54
68.7390	550.80
68.7534	584.97
68.7679	579.21
68.7823	595.00
68.7968	572.38
68.8112	624.23
68.8256	606.27
68.8401	572.88
68.8545	581.65
68.8690	607.66
68.8834	586.40
68.8978	597.57
68.9123	624.53
68.9267	581.07
68.9412	566.39
68.9556	536.94
68.9700	543.75
68.9845	574.31
68.9989	568.22
69.0134	587.67
69.0278	574.66
69.0422	574.98
69.0567	588.31
69.0711	545.92
69.0856	567.57
69.1000	570.58
69.1144	543.44
69.1289	549.00
69.1433	577.67
69.1578	588.97
69.1722	611.47
69.1866	556.30
69.2011	550.38
69.2155	592.04
69.2300	545.95
69.2444	588.75
69.2588	564.37
69.2733	584.40
69.2877	564.85
69.3022	544.79
69.3166	562.12
69.3310	551.53
69.3455	572.13
69.3599	575.40
69.3744	543.91
69.3888	558.20
69.4032	539.60
69.4177	567.11
69.4321	582.91
69.4466	548.10
69.4610	524.42
69.4754	602.96
69.4899	592.50
69.5043	603.45
69.5188	576.28
69.5332	576.74
69.5476	593.31
69.5621	590.48
69.5765	565.73
69.5910	528.27
69.6054	546.03
69.6198	586.15
69.6343	578.66
69.6487	555.00
69.6632	607.28
69.6776	566.55
69.6920	601.46
69.7065	630.25
69.7209	578.06
69.7354	579.33
69.7498	581.62
69.7642	597.10
69.7787	620.98
69.7931	590.93
69.8076	617.78
69.8220	545.53
69.8364	562.20
69.8509	541.88
69.8653	591.45
69.8798	572.25
69.8942	621.58
69.9086	583.29
69.9231	600.80
69.9375	673.03
69.9520	602.26
69.9664	531.65
69.9808	548.50
69.9953	571.92
70.0097	551.05
70.0242	515.34
70.0386	563.98
70.0530	523.28
70.0675	563.73
70.0819	602.71
70.0964	576.21
70.1108	567.74
70.1252	558.83
70.1397	577.39
70.1541	572.80
70.1686	542.49
70.1830	583.56
70.1974	630.93
70.2119	583.63
70.2263	556.63
70.2408	579.56
70.2552	520.39
70.2696	502.06
70.2841	523.80
70.2985	553.55
70.3130	602.24
70.3274	610.60
70.3418	574.30
70.3563	555.28
70.3707	567.59
70.3852	560.79
70.3996	592.70
70.4140	592.40
70.4285	623.02
70.4429	529.54
70.4574	570.36
70.4718	571.09
70.4862	596.29
70.5007	522.30
70.5151	491.66
70.5296	555.43
70.5440	587.14
70.5584	570.34
70.5729	568.64
70.5873	564.79
70.6018	585.54
70.6162	579.43
70.6306	549.79
70.6451	530.91
70.6595	554.59
70.6740	574.99
70.6884	568.75
70.7028	564.00
70.7173	585.12
70.7317	570.34
70.7462	580.69
70.7606	563.05
70.7750	605.72
70.7895	575.63
70.8039	632.90
70.8184	579.11
70.8328	557.42
70.8472	565.73
70.8617	564.53
70.8761	590.07
70.8906	608.97
70.9050	590.02
70.9194	625.13
70.9339	602.16
70.9483	580.54
70.9628	598.65
70.9772	594.26
70.9916	569.91
71.0061	532.53
71.0205	533.82
71.0350	555.54
71.0494	529.84
71.0638	564.99
71.0783	621.52
71.0927	635.60
71.1072	596.04
71.1216	590.04
71.1361	545.95
71.1505	551.39
71.1649	577.19
71.1794	579.24
71.1938	575.29
71.2083	570.15
71.2227	583.84
71.2371	588.00
71.2516	549.66
71.2660	565.54
71.2805	580.28
71.2949	582.69
71.3093	593.35
71.3238	547.97
71.3382	594.85
71.3527	570.35
71.3671	610.15
71.3815	609.51
71.3960	519.56
71.4104	542.02
71.4249	609.39
71.4393	596.00
71.4537	548.84
71.4682	549.73
71.4826	555.69
71.4971	529.86
71.5115	538.73
71.5259	544.28
71.5404	533.22
71.5548	548.93
71.5693	486.00
71.5837	495.26
71.5981	511.12
71.6126	551.48
71.6270	562.07
71.6415	536.21
71.6559	538.04
71.6703	546.60
71.6848	508.46
71.6992	570.66
71.7137	580.65
71.7281	552.93
71.7425	580.55
71.7570	599.15
71.7714	643.20
71.7859	613.54
71.8003	619.26
71.8147	642.78
71.8292	662.96
71.8436	622.49
71.8581	550.65
71.8725	571.43
71.8869	560.99
71.9014	612.41
71.9158	603.33
71.9303	550.35
71.9447	518.18
71.9591	528.57
71.9736	570.93
71.9880	572.68
72.0025	580.01
72.0169	615.29
72.0313	625.41
72.0458	546.34
72.0602	585.48
72.0747	596.85
72.0891	586.88
72.1035	647.42
72.1180	690.21
72.1324	702.51
72.1469	647.11
72.1613	652.63
72.1757	567.56
72.1902	535.05
72.2046	596.14
72.2191	557.36
72.2335	540.59
72.2479	574.04
72.2624	635.42
72.2768	567.45
72.2913	488.03
72.3057	559.22
72.3201	559.85
72.3346	567.67
72.3490	605.20
72.3635	575.16
72.3779	538.84
72.3923	569.34
72.4068	583.48
72.4212	634.45
72.4357	619.80
72.4501	595.94
72.4645	599.82
72.4790	496.10
72.4934	530.37
72.5079	568.71
72.5223	593.21
72.5367	567.00
72.5512	530.84
72.5656	534.52
72.5801	586.22
72.5945	561.44
72.6089	523.70
72.6234	513.97
72.6378	593.25
72.6523	569.34
72.6667	564.67
72.6811	562.51
72.6956	595.03
72.7100	583.56
72.7245	488.47
72.7389	519.75
72.7533	587.30
72.7678	548.68
72.7822	549.75
72.7967	558.04
72.8111	596.17
72.8255	596.39
72.8400	566.16
72.8544	598.33
72.8689	594.22
72.8833	528.34