2022.09.19 19:37:17
Îáðàçåö: ß÷åéêà LCoV 16-09-2022
Lambda1 = 1.54060
Lambda2 = 1.54439
Lambdam = 1.54186
R = 0.497
2Theta	I

line¹ 0 ;repeat¹ 0
22.1120	566.97
22.1264	593.87
22.1409	584.36
22.1553	547.87
22.1697	547.50
22.1842	533.31
22.1986	542.87
22.2131	590.04
22.2275	619.95
22.2419	634.14
22.2564	624.53
22.2708	586.59
22.2853	574.30
22.2997	552.89
22.3141	580.44
22.3286	560.52
22.3430	570.54
22.3575	598.04
22.3719	533.30
22.3863	522.94
22.4008	515.30
22.4152	542.12
22.4297	554.01
22.4441	611.90
22.4585	684.00
22.4730	614.57
22.4874	618.10
22.5019	564.68
22.5163	586.34
22.5307	525.91
22.5452	565.61
22.5596	521.81
22.5741	557.08
22.5885	618.57
22.6029	516.40
22.6174	602.04
22.6318	580.84
22.6463	574.82
22.6607	560.85
22.6751	557.33
22.6896	556.29
22.7040	636.40
22.7185	577.22
22.7329	548.83
22.7473	614.60
22.7618	555.22
22.7762	604.47
22.7907	655.18
22.8051	611.19
22.8195	622.35
22.8340	579.20
22.8484	560.98
22.8629	597.87
22.8773	526.19
22.8917	519.03
22.9062	521.90
22.9206	529.05
22.9351	553.59
22.9495	520.49
22.9639	524.59
22.9784	586.20
22.9928	640.12
23.0073	597.95
23.0217	574.86
23.0361	480.56
23.0506	573.92
23.0650	541.06
23.0795	551.39
23.0939	686.29
23.1083	579.11
23.1228	569.88
23.1372	597.04
23.1517	524.95
23.1661	549.96
23.1806	550.62
23.1950	537.45
23.2094	525.78
23.2239	501.63
23.2383	607.14
23.2528	581.90
23.2672	527.57
23.2816	550.12
23.2961	537.41
23.3105	576.35
23.3250	608.87
23.3394	582.51
23.3538	574.80
23.3683	518.67
23.3827	495.07
23.3972	517.34
23.4116	549.95
23.4260	591.82
23.4405	520.39
23.4549	563.33
23.4694	536.39
23.4838	560.91
23.4982	550.05
23.5127	514.57
23.5271	542.29
23.5416	555.45
23.5560	497.85
23.5704	506.32
23.5849	501.30
23.5993	585.91
23.6138	646.71
23.6282	577.71
23.6426	549.89
23.6571	581.82
23.6715	477.40
23.6860	543.37
23.7004	565.72
23.7148	564.95
23.7293	437.90
23.7437	514.21
23.7582	512.93
23.7726	602.89
23.7870	514.67
23.8015	503.26
23.8159	520.44
23.8304	576.59
23.8448	559.67
23.8592	541.67
23.8737	587.76
23.8881	516.39
23.9026	636.94
23.9170	602.42
23.9314	498.48
23.9459	537.42
23.9603	505.97
23.9748	526.43
23.9892	505.27
24.0036	504.54
24.0181	541.58
24.0325	541.77
24.0470	527.84
24.0614	551.90
24.0758	529.11
24.0903	529.11
24.1047	569.82
24.1192	582.63
24.1336	557.01
24.1480	530.46
24.1625	580.92
24.1769	532.61
24.1914	575.14
24.2058	554.47
24.2202	579.13
24.2347	597.32
24.2491	583.90
24.2636	600.83
24.2780	585.03
24.2924	514.02
24.3069	551.43
24.3213	566.71
24.3358	625.09
24.3502	541.12
24.3646	518.46
24.3791	587.97
24.3935	557.99
24.4080	563.26
24.4224	543.60
24.4368	543.49
24.4513	487.25
24.4657	517.51
24.4802	555.09
24.4946	566.58
24.5090	542.63
24.5235	535.56
24.5379	521.57
24.5524	531.51
24.5668	522.59
24.5812	515.56
24.5957	583.20
24.6101	545.90
24.6246	528.66
24.6390	564.24
24.6534	548.49
24.6679	561.06
24.6823	542.20
24.6968	509.22
24.7112	563.49
24.7256	501.77
24.7401	526.36
24.7545	587.28
24.7690	544.25
24.7834	495.54
24.7978	536.92
24.8123	520.72
24.8267	532.60
24.8412	532.69
24.8556	570.36
24.8700	523.58
24.8845	560.11
24.8989	583.02
24.9134	562.48
24.9278	538.08
24.9422	555.44
24.9567	524.50
24.9711	536.63
24.9856	476.85
25.0000	503.01
25.0144	531.18
25.0289	581.88
25.0433	595.97
25.0578	594.95
25.0722	545.40
25.0866	574.37
25.1011	518.33
25.1155	537.85
25.1300	578.10
25.1444	545.61
25.1588	524.94
25.1733	561.40
25.1877	561.32
25.2022	538.10
25.2166	520.80
25.2310	557.31
25.2455	569.70
25.2599	542.53
25.2744	539.34
25.2888	557.66
25.3032	533.12
25.3177	548.52
25.3321	536.63
25.3466	518.27
25.3610	549.35
25.3754	518.02
25.3899	524.26
25.4043	527.67
25.4188	540.16
25.4332	562.03
25.4476	558.17
25.4621	559.11
25.4765	558.62
25.4910	542.79
25.5054	523.46
25.5198	540.07
25.5343	541.26
25.5487	538.68
25.5632	512.66
25.5776	510.94
25.5920	563.94
25.6065	560.84
25.6209	511.87
25.6354	511.38
25.6498	527.57
25.6642	522.87
25.6787	532.81
25.6931	530.59
25.7076	530.66
25.7220	517.42
25.7364	543.78
25.7509	552.55
25.7653	534.28
25.7798	534.58
25.7942	559.54
25.8086	508.00
25.8231	529.94
25.8375	559.78
25.8520	567.85
25.8664	556.26
25.8808	569.03
25.8953	560.27
25.9097	520.88
25.9242	549.38
25.9386	559.92
25.9530	532.87
25.9675	530.57
25.9819	526.83
25.9964	543.63
26.0108	516.75
26.0252	463.73
26.0397	526.34
26.0541	532.49
26.0686	539.31
26.0830	578.94
26.0974	543.49
26.1119	522.13
26.1263	559.93
26.1408	530.51
26.1552	512.56
26.1696	523.62
26.1841	534.60
26.1985	520.84
26.2130	540.56
26.2274	537.13
26.2418	554.21
26.2563	510.40
26.2707	512.43
26.2852	505.28
26.2996	512.82
26.3140	536.43
26.3285	539.61
26.3429	536.81
26.3574	530.30
26.3718	538.74
26.3862	531.39
26.4007	553.63
26.4151	540.45
26.4296	514.02
26.4440	484.08
26.4584	534.13
26.4729	527.81
26.4873	521.57
26.5018	544.94
26.5162	519.60
26.5306	524.18
26.5451	536.05
26.5595	531.75
26.5740	527.79
26.5884	560.98
26.6028	561.09
26.6173	526.84
26.6317	526.86
26.6462	563.23
26.6606	554.68
26.6750	537.66
26.6895	525.31
26.7039	533.53
26.7184	521.85
26.7328	491.42
26.7472	517.28
26.7617	506.00
26.7761	513.60
26.7906	507.02
26.8050	505.74
26.8194	509.51
26.8339	541.98
26.8483	519.63
26.8628	530.47
26.8772	507.70
26.8917	532.49
26.9061	544.08
26.9205	504.48
26.9350	512.82
26.9494	520.22
26.9639	543.54
26.9783	536.88
26.9927	500.35
27.0072	476.86
27.0216	468.65
27.0361	502.61
27.0505	518.10
27.0649	527.16
27.0794	518.16
27.0938	528.87
27.1083	544.41
27.1227	555.87
27.1371	538.99
27.1516	524.24
27.1660	509.53
27.1805	499.79
27.1949	517.13
27.2093	511.50
27.2238	538.17
27.2382	563.17
27.2527	525.32
27.2671	511.47
27.2815	508.09
27.2960	470.42
27.3104	541.88
27.3249	508.16
27.3393	525.74
27.3537	522.17
27.3682	498.36
27.3826	511.12
27.3971	494.93
27.4115	498.00
27.4259	518.83
27.4404	527.03
27.4548	516.82
27.4693	511.92
27.4837	507.89
27.4981	520.33
27.5126	520.01
27.5270	506.51
27.5415	515.94
27.5559	552.74
27.5703	528.37
27.5848	534.70
27.5992	540.28
27.6137	499.34
27.6281	508.54
27.6425	553.21
27.6570	557.64
27.6714	505.94
27.6859	501.38
27.7003	542.02
27.7147	531.94
27.7292	537.49
27.7436	555.00
27.7581	512.04
27.7725	522.41
27.7869	497.78
27.8014	514.56
27.8158	519.55
27.8303	494.82
27.8447	509.34
27.8591	563.19
27.8736	529.42
27.8880	495.67
27.9025	493.04
27.9169	520.41
27.9313	478.07
27.9458	477.01
27.9602	489.72
27.9747	517.91
27.9891	476.75
28.0035	486.59
28.0180	528.57
28.0324	537.29
28.0469	508.00
28.0613	532.05
28.0757	508.17
28.0902	553.77
28.1046	523.38
28.1191	505.07
28.1335	536.32
28.1479	513.81
28.1624	511.59
28.1768	503.96
28.1913	511.10
28.2057	489.60
28.2201	510.77
28.2346	507.17
28.2490	545.39
28.2635	514.47
28.2779	509.40
28.2923	509.24
28.3068	553.23
28.3212	505.96
28.3357	502.09
28.3501	534.77
28.3645	535.56
28.3790	517.79
28.3934	497.41
28.4079	470.64
28.4223	545.01
28.4367	527.83
28.4512	505.55
28.4656	508.70
28.4801	551.70
28.4945	510.85
28.5089	509.54
28.5234	510.29
28.5378	504.14
28.5523	514.08
28.5667	530.08
28.5811	506.06
28.5956	500.46
28.6100	534.45
28.6245	528.81
28.6389	540.29
28.6533	492.73
28.6678	507.65
28.6822	492.42
28.6967	496.04
28.7111	526.93
28.7255	497.79
28.7400	533.16
28.7544	506.67
28.7689	496.26
28.7833	519.50
28.7977	517.59
28.8122	506.67
28.8266	515.25
28.8411	503.53
28.8555	502.26
28.8699	539.45
28.8844	523.09
28.8988	538.30
28.9133	495.81
28.9277	494.88
28.9421	526.97
28.9566	471.59
28.9710	481.80
28.9855	449.63
28.9999	492.09
29.0143	521.88
29.0288	512.57
29.0432	491.63
29.0577	472.09
29.0721	519.14
29.0865	511.55
29.1010	510.61
29.1154	517.99
29.1299	485.84
29.1443	506.32
29.1587	500.16
29.1732	509.24
29.1876	519.99
29.2021	481.71
29.2165	544.35
29.2309	521.44
29.2454	543.18
29.2598	491.36
29.2743	492.17
29.2887	500.45
29.3031	488.04
29.3176	501.94
29.3320	524.04
29.3465	503.08
29.3609	530.15
29.3753	486.38
29.3898	509.72
29.4042	515.61
29.4187	506.55
29.4331	533.74
29.4475	510.05
29.4620	514.59
29.4764	530.21
29.4909	508.86
29.5053	497.04
29.5197	509.75
29.5342	495.99
29.5486	521.35
29.5631	501.47
29.5775	509.38
29.5919	505.59
29.6064	493.78
29.6208	515.58
29.6353	534.18
29.6497	470.43
29.6641	504.39
29.6786	505.95
29.6930	487.20
29.7075	514.70
29.7219	538.36
29.7363	543.50
29.7508	510.54
29.7652	476.86
29.7797	460.81
29.7941	493.74
29.8085	508.02
29.8230	508.61
29.8374	489.90
29.8519	478.94
29.8663	521.17
29.8807	507.25
29.8952	525.12
29.9096	511.46
29.9241	534.98
29.9385	503.63
29.9529	493.58
29.9674	526.08
29.9818	469.21
29.9963	467.26
30.0107	483.49
30.0251	494.50
30.0396	485.59
30.0540	505.46
30.0685	503.29
30.0829	520.56
30.0973	500.75
30.1118	511.25
30.1262	550.58
30.1407	501.03
30.1551	489.92
30.1695	519.08
30.1840	510.53
30.1984	489.66
30.2129	511.25
30.2273	491.22
30.2417	495.74
30.2562	519.50
30.2706	527.33
30.2851	548.14
30.2995	502.53
30.3139	541.52
30.3284	547.11
30.3428	558.65
30.3573	533.07
30.3717	511.77
30.3861	537.64
30.4006	519.20
30.4150	537.60
30.4295	567.45
30.4439	550.18
30.4583	562.87
30.4728	574.27
30.4872	578.13
30.5017	591.02
30.5161	611.00
30.5305	616.73
30.5450	703.91
30.5594	759.71
30.5739	735.42
30.5883	745.99
30.6028	735.54
30.6172	745.01
30.6316	703.96
30.6461	652.90
30.6605	610.29
30.6750	609.15
30.6894	619.75
30.7038	586.30
30.7183	575.33
30.7327	565.42
30.7472	537.66
30.7616	541.37
30.7760	557.76
30.7905	536.24
30.8049	540.88
30.8194	529.06
30.8338	575.95
30.8482	518.55
30.8627	506.10
30.8771	508.19
30.8916	519.61
30.9060	516.81
30.9204	496.00
30.9349	486.54
30.9493	494.73
30.9638	481.18
30.9782	486.91
30.9926	470.12
31.0071	473.21
31.0215	493.23
31.0360	512.32
31.0504	479.97
31.0648	480.38
31.0793	498.27
31.0937	517.04
31.1082	487.61
31.1226	496.55
31.1370	512.07
31.1515	511.92
31.1659	516.31
31.1804	501.09
31.1948	505.50
31.2092	530.21
31.2237	542.67
31.2381	523.73
31.2526	493.89
31.2670	530.90
31.2814	554.79
31.2959	522.61
31.3103	553.85
31.3248	553.15
31.3392	506.83
31.3536	524.78
31.3681	528.76
31.3825	525.88
31.3970	512.83
31.4114	501.76
31.4258	475.50
31.4403	540.44
31.4547	503.37
31.4692	499.08
31.4836	528.96
31.4980	545.65
31.5125	495.85
31.5269	496.02
31.5414	505.68
31.5558	511.58
31.5702	532.65
31.5847	517.00
31.5991	522.69
31.6136	515.41
31.6280	505.31
31.6424	523.58
31.6569	533.49
31.6713	509.62
31.6858	494.49
31.7002	512.30
31.7146	500.82
31.7291	503.42
31.7435	512.46
31.7580	476.89
31.7724	496.02
31.7868	499.81
31.8013	498.15
31.8157	491.71
31.8302	526.96
31.8446	510.35
31.8590	523.06
31.8735	534.81
31.8879	514.41
31.9024	525.39
31.9168	502.00
31.9312	505.54
31.9457	495.41
31.9601	514.02
31.9746	518.41
31.9890	501.18
32.0034	468.41
32.0179	508.79
32.0323	522.05
32.0468	517.99
32.0612	502.15
32.0756	489.65
32.0901	479.64
32.1045	499.71
32.1190	492.26
32.1334	555.53
32.1478	496.97
32.1623	494.33
32.1767	516.42
32.1912	503.28
32.2056	520.81
32.2200	505.82
32.2345	473.10
32.2489	501.51
32.2634	489.42
32.2778	512.62
32.2922	507.91
32.3067	496.36
32.3211	491.06
32.3356	483.48
32.3500	497.51
32.3644	539.17
32.3789	525.08
32.3933	495.74
32.4078	486.89
32.4222	521.90
32.4366	514.68
32.4511	474.18
32.4655	503.67
32.4800	515.55
32.4944	482.91
32.5088	480.56
32.5233	486.00
32.5377	517.78
32.5522	520.76
32.5666	543.11
32.5810	484.77
32.5955	497.69
32.6099	514.48
32.6244	516.36
32.6388	501.59
32.6532	490.73
32.6677	484.83
32.6821	475.72
32.6966	490.39
32.7110	526.22
32.7254	489.46
32.7399	496.41
32.7543	462.82
32.7688	466.01
32.7832	521.02
32.7976	493.53
32.8121	515.43
32.8265	488.09
32.8410	521.75
32.8554	513.57
32.8698	502.88
32.8843	491.58
32.8987	504.28
32.9132	504.32
32.9276	532.98
32.9420	521.47
32.9565	490.39
32.9709	467.15
32.9854	472.52
32.9998	519.28
33.0142	507.15
33.0287	503.02
33.0431	511.97
33.0576	514.25
33.0720	515.47
33.0864	497.39
33.1009	523.78
33.1153	505.52
33.1298	489.65
33.1442	519.49
33.1586	488.14
33.1731	496.45
33.1875	504.79
33.2020	502.16
33.2164	471.43
33.2308	494.08
33.2453	497.78
33.2597	505.54
33.2742	502.25
33.2886	513.02
33.3030	506.14
33.3175	513.68
33.3319	509.29
33.3464	477.26
33.3608	491.55
33.3752	442.34
33.3897	445.79
33.4041	480.77
33.4186	486.09
33.4330	505.75
33.4474	503.33
33.4619	497.07
33.4763	515.39
33.4908	533.18
33.5052	529.21
33.5196	505.27
33.5341	499.04
33.5485	503.00
33.5630	502.02
33.5774	477.48
33.5918	505.32
33.6063	501.74
33.6207	515.25
33.6352	499.84
33.6496	538.87
33.6640	514.98
33.6785	483.44
33.6929	501.02
33.7074	520.57
33.7218	509.49
33.7362	506.81
33.7507	510.09
33.7651	504.23
33.7796	499.25
33.7940	488.40
33.8084	510.89
33.8229	489.55
33.8373	518.54
33.8518	513.90
33.8662	508.65
33.8806	515.60
33.8951	471.66
33.9095	533.32
33.9240	463.88
33.9384	502.80
33.9528	504.42
33.9673	502.86
33.9817	518.64
33.9962	506.37
34.0106	473.12
34.0250	508.26
34.0395	534.16
34.0539	513.07
34.0684	483.49
34.0828	489.59
34.0972	503.41
34.1117	520.68
34.1261	516.77
34.1406	465.49
34.1550	493.08
34.1694	525.43
34.1839	548.77
34.1983	506.27
34.2128	499.98
34.2272	493.18
34.2417	495.14
34.2561	523.25
34.2705	500.56
34.2850	502.60
34.2994	494.50
34.3139	494.42
34.3283	525.82
34.3427	525.81
34.3572	520.27
34.3716	489.63
34.3861	488.32
34.4005	507.32
34.4149	553.70
34.4294	528.12
34.4438	502.70
34.4583	516.42
34.4727	510.67
34.4871	502.04
34.5016	498.03
34.5160	484.00
34.5305	487.19
34.5449	507.08
34.5593	505.24
34.5738	486.21
34.5882	511.48
34.6027	523.27
34.6171	477.01
34.6315	486.25
34.6460	510.38
34.6604	506.27
34.6749	515.99
34.6893	495.72
34.7037	514.20
34.7182	504.43
34.7326	493.16
34.7471	485.28
34.7615	466.44
34.7759	505.38
34.7904	496.86
34.8048	502.02
34.8193	507.03
34.8337	494.84
34.8481	486.12
34.8626	517.20
34.8770	543.17
34.8915	518.02
34.9059	507.72
34.9203	513.36
34.9348	488.30
34.9492	474.89
34.9637	476.07
34.9781	478.02
34.9925	512.52
35.0070	518.17
35.0214	495.98
35.0359	499.77
35.0503	526.14
35.0647	511.41
35.0792	509.79
35.0936	512.88
35.1081	517.92
35.1225	526.38
35.1369	507.10
35.1514	468.40
35.1658	503.75
35.1803	524.25
35.1947	501.27
35.2091	518.82
35.2236	506.59
35.2380	495.84
35.2525	481.34
35.2669	495.85
35.2813	529.11
35.2958	531.16
35.3102	488.85
35.3247	498.78
35.3391	486.81
35.3535	518.57
35.3680	550.88
35.3824	513.39
35.3969	502.42
35.4113	551.54
35.4257	530.51
35.4402	510.71
35.4546	515.57
35.4691	560.37
35.4835	553.38
35.4979	535.13
35.5124	518.48
35.5268	560.13
35.5413	572.35
35.5557	559.80
35.5701	558.02
35.5846	523.36
35.5990	537.32
35.6135	528.84
35.6279	537.45
35.6423	534.15
35.6568	524.48
35.6712	564.79
35.6857	578.26
35.7001	699.23
35.7145	770.53
35.7290	725.39
35.7434	620.76
35.7579	606.51
35.7723	613.89
35.7867	724.59
35.8012	747.67
35.8156	796.01
35.8301	744.52
35.8445	731.58
35.8589	810.34
35.8734	879.75
35.8878	978.06
35.9023	1154.89
35.9167	1194.14
35.9311	1247.93
35.9456	1609.25
35.9600	1936.24
35.9745	2078.14
35.9889	2307.24
36.0033	2673.26
36.0178	2983.00
36.0322	3147.66
36.0467	2683.72
36.0611	2209.16
36.0755	1907.95
36.0900	2100.79
36.1044	2213.62
36.1189	1704.20
36.1333	1283.91
36.1477	1049.20
36.1622	1031.85
36.1766	986.10
36.1911	824.39
36.2055	718.64
36.2199	750.43
36.2344	770.66
36.2488	659.78
36.2633	551.49
36.2777	595.52
36.2921	556.86
36.3066	507.59
36.3210	529.79
36.3355	554.67
36.3499	574.20
36.3643	511.09
36.3788	529.05
36.3932	510.29
36.4077	556.81
36.4221	528.44
36.4365	526.84
36.4510	497.15
36.4654	558.05
36.4799	526.34
36.4943	526.86
36.5087	523.32
36.5232	557.91
36.5376	565.04
36.5521	533.76
36.5665	502.93
36.5809	524.09
36.5954	542.40
36.6098	538.94
36.6243	522.93
36.6387	553.21
36.6531	534.09
36.6676	525.64
36.6820	490.84
36.6965	512.17
36.7109	542.25
36.7253	485.86
36.7398	505.71
36.7542	519.26
36.7687	523.30
36.7831	554.68
36.7975	556.38
36.8120	568.63
36.8264	613.97
36.8409	597.27
36.8553	591.41
36.8697	561.81
36.8842	568.27
36.8986	607.53
36.9131	576.27
36.9275	580.66
36.9419	590.05
36.9564	548.32
36.9708	592.82
36.9853	532.89
36.9997	558.83
37.0141	508.01
37.0286	518.11
37.0430	509.16
37.0575	524.44
37.0719	506.01
37.0863	543.72
37.1008	554.55
37.1152	542.83
37.1297	554.61
37.1441	533.57
37.1585	510.31
37.1730	489.46
37.1874	521.91
37.2019	470.94
37.2163	513.16
37.2307	496.52
37.2452	513.14
37.2596	497.56
37.2741	503.67
37.2885	510.96
37.3029	485.89
37.3174	518.51
37.3318	506.54
37.3463	491.54
37.3607	507.59
37.3751	483.45
37.3896	470.17
37.4040	473.16
37.4185	482.38
37.4329	503.25
37.4473	482.53
37.4618	500.62
37.4762	523.55
37.4907	514.83
37.5051	512.46
37.5195	506.91
37.5340	543.53
37.5484	530.39
37.5629	498.99
37.5773	521.33
37.5917	482.68
37.6062	500.19
37.6206	492.46
37.6351	497.09
37.6495	510.12
37.6639	513.85
37.6784	501.29
37.6928	515.74
37.7073	517.37
37.7217	495.74
37.7361	473.33
37.7506	470.50
37.7650	488.72
37.7795	526.57
37.7939	490.61
37.8083	555.74
37.8228	495.61
37.8372	487.57
37.8517	458.86
37.8661	505.21
37.8805	483.69
37.8950	477.76
37.9094	487.80
37.9239	510.32
37.9383	477.36
37.9528	473.42
37.9672	482.42
37.9816	508.35
37.9961	478.93
38.0105	474.32
38.0250	497.22
38.0394	495.45
38.0538	493.83
38.0683	499.02
38.0827	513.03
38.0972	491.03
38.1116	507.47
38.1260	506.57
38.1405	500.26
38.1549	482.09
38.1694	477.49
38.1838	520.34
38.1982	497.35
38.2127	479.05
38.2271	481.13
38.2416	516.31
38.2560	478.99
38.2704	502.75
38.2849	492.41
38.2993	502.34
38.3138	541.45
38.3282	538.44
38.3426	517.80
38.3571	543.25
38.3715	520.59
38.3860	524.68
38.4004	551.95
38.4148	543.49
38.4293	548.33
38.4437	576.98
38.4582	581.97
38.4726	629.80
38.4870	689.55
38.5015	722.85
38.5159	740.96
38.5304	780.32
38.5448	770.39
38.5592	807.72
38.5737	783.14
38.5881	732.75
38.6026	710.40
38.6170	693.47
38.6314	662.52
38.6459	668.44
38.6603	644.25
38.6748	586.93
38.6892	594.53
38.7036	569.63
38.7181	537.20
38.7325	509.78
38.7470	530.83
38.7614	518.57
38.7758	516.96
38.7903	524.69
38.8047	515.69
38.8192	502.28
38.8336	527.98
38.8480	519.26
38.8625	498.94
38.8769	488.01
38.8914	497.00
38.9058	519.02
38.9202	535.29
38.9347	523.49
38.9491	526.87
38.9636	470.85
38.9780	506.35
38.9924	528.39
39.0069	532.99
39.0213	531.70
39.0358	493.09
39.0502	467.07
39.0646	489.97
39.0791	520.51
39.0935	522.17
39.1080	519.80
39.1224	533.34
39.1368	499.18
39.1513	467.36
39.1657	509.57
39.1802	534.30
39.1946	506.12
39.2090	495.92
39.2235	500.53
39.2379	495.91
39.2524	503.73
39.2668	530.08
39.2812	531.87
39.2957	514.91
39.3101	523.20
39.3246	518.06
39.3390	528.38
39.3534	552.84
39.3679	538.49
39.3823	502.45
39.3968	471.42
39.4112	508.68
39.4256	523.00
39.4401	491.63
39.4545	538.68
39.4690	536.87
39.4834	499.94
39.4978	491.26
39.5123	487.95
39.5267	486.89
39.5412	505.40
39.5556	501.30
39.5700	499.50
39.5845	509.12
39.5989	508.20
39.6134	512.32
39.6278	489.34
39.6422	491.28
39.6567	516.08
39.6711	490.34
39.6856	461.89
39.7000	504.47
39.7144	516.17
39.7289	519.43
39.7433	485.82
39.7578	456.77
39.7722	464.77
39.7866	490.32
39.8011	509.56
39.8155	517.28
39.8300	482.33
39.8444	482.79
39.8588	539.59
39.8733	498.85
39.8877	509.89
39.9022	495.27
39.9166	499.09
39.9310	487.61
39.9455	483.18
39.9599	499.51
39.9744	496.20
39.9888	522.25
40.0032	529.57
40.0177	510.17
40.0321	518.24
40.0466	493.07
40.0610	483.78
40.0754	505.03
40.0899	497.88
40.1043	475.27
40.1188	497.18
40.1332	484.71
40.1476	505.56
40.1621	553.56
40.1765	502.10
40.1910	448.95
40.2054	466.37
40.2198	462.31
40.2343	533.86
40.2487	489.38
40.2632	475.09
40.2776	529.54
40.2920	518.71
40.3065	534.14
40.3209	510.24
40.3354	515.23
40.3498	481.91
40.3642	483.16
40.3787	500.24
40.3931	513.83
40.4076	516.08
40.4220	504.76
40.4364	518.08
40.4509	515.58
40.4653	494.19
40.4798	512.07
40.4942	501.66
40.5086	512.07
40.5231	504.27
40.5375	499.81
40.5520	514.16
40.5664	536.09
40.5808	484.13
40.5953	502.44
40.6097	515.42
40.6242	498.31
40.6386	494.47
40.6530	497.64
40.6675	519.77
40.6819	506.75
40.6964	490.57
40.7108	503.54
40.7252	491.58
40.7397	531.50
40.7541	520.34
40.7686	486.25
40.7830	499.72
40.7974	478.96
40.8119	511.01
40.8263	476.73
40.8408	511.94
40.8552	515.28
40.8696	537.62
40.8841	497.49
40.8985	513.44
40.9130	488.95
40.9274	465.76
40.9418	499.51
40.9563	524.40
40.9707	465.04
40.9852	488.01
40.9996	484.64
41.0140	485.17
41.0285	501.85
41.0429	522.38
41.0574	522.45
41.0718	473.16
41.0862	515.96
41.1007	494.47
41.1151	483.06
41.1296	515.21
41.1440	503.83
41.1584	515.39
41.1729	514.67
41.1873	539.23
41.2018	480.61
41.2162	508.30
41.2306	507.61
41.2451	490.07
41.2595	499.31
41.2740	497.92
41.2884	485.40
41.3028	520.16
41.3173	549.14
41.3317	523.80
41.3462	490.40
41.3606	532.97
41.3750	488.58
41.3895	472.98
41.4039	467.03
41.4184	505.43
41.4328	504.14
41.4472	506.17
41.4617	525.55
41.4761	505.81
41.4906	494.87
41.5050	448.47
41.5194	493.55
41.5339	478.06
41.5483	488.76
41.5628	515.40
41.5772	488.11
41.5916	496.88
41.6061	485.20
41.6205	489.73
41.6350	511.97
41.6494	521.73
41.6639	527.99
41.6783	508.22
41.6927	473.50
41.7072	481.81
41.7216	510.18
41.7361	507.16
41.7505	523.95
41.7649	495.10
41.7794	520.30
41.7938	537.60
41.8083	510.81
41.8227	526.60
41.8371	513.17
41.8516	506.46
41.8660	500.36
41.8805	527.45
41.8949	546.38
41.9093	551.85
41.9238	504.85
41.9382	526.33
41.9527	535.30
41.9671	559.87
41.9815	546.79
41.9960	579.75
42.0104	565.46
42.0249	556.91
42.0393	576.97
42.0537	560.66
42.0682	602.77
42.0826	585.58
42.0971	606.00
42.1115	602.51
42.1259	588.08
42.1404	598.40
42.1548	622.95
42.1693	641.96
42.1837	691.11
42.1981	757.48
42.2126	839.60
42.2270	947.95
42.2415	1046.37
42.2559	1162.82
42.2703	1328.06
42.2848	1501.21
42.2992	1593.18
42.3137	1674.18
42.3281	1590.59
42.3425	1549.61
42.3570	1439.18
42.3714	1421.85
42.3859	1417.09
42.4003	1371.52
42.4147	1301.28
42.4292	1258.82
42.4436	1096.56
42.4581	998.13
42.4725	937.09
42.4869	800.77
42.5014	752.23
42.5158	712.23
42.5303	662.05
42.5447	638.54
42.5591	594.41
42.5736	578.31
42.5880	583.86
42.6025	577.49
42.6169	527.38
42.6313	556.25
42.6458	540.62
42.6602	532.53
42.6747	528.67
42.6891	505.35
42.7035	548.93
42.7180	549.65
42.7324	543.53
42.7469	549.90
42.7613	499.78
42.7757	517.96
42.7902	531.72
42.8046	526.04
42.8191	532.68
42.8335	538.84
42.8479	521.06
42.8624	529.39
42.8768	530.86
42.8913	480.71
42.9057	531.53
42.9201	539.84
42.9346	489.34
42.9490	515.80
42.9635	533.99
42.9779	523.73
42.9923	510.44
43.0068	513.56
43.0212	507.81
43.0357	515.32
43.0501	513.46
43.0645	499.37
43.0790	484.92
43.0934	528.24
43.1079	515.15
43.1223	528.74
43.1367	498.14
43.1512	490.16
43.1656	547.68
43.1801	519.87
43.1945	531.00
43.2089	527.55
43.2234	525.27
43.2378	472.74
43.2523	494.14
43.2667	525.20
43.2811	541.43
43.2956	514.84
43.3100	519.05
43.3245	528.21
43.3389	536.81
43.3533	513.88
43.3678	480.68
43.3822	521.92
43.3967	565.23
43.4111	478.41
43.4255	485.53
43.4400	487.36
43.4544	512.35
43.4689	500.07
43.4833	523.00
43.4977	505.07
43.5122	526.75
43.5266	474.14
43.5411	517.67
43.5555	513.23
43.5699	534.40
43.5844	522.37
43.5988	546.66
43.6133	545.31
43.6277	537.34
43.6421	538.78
43.6566	557.74
43.6710	552.75
43.6855	552.73
43.6999	569.94
43.7143	632.77
43.7288	663.08
43.7432	651.88
43.7577	683.27
43.7721	665.86
43.7865	667.29
43.8010	640.96
43.8154	593.56
43.8299	619.47
43.8443	621.87
43.8587	628.46
43.8732	629.92
43.8876	574.34
43.9021	571.52
43.9165	572.45
43.9309	517.16
43.9454	588.00
43.9598	536.59
43.9743	482.05
43.9887	491.64
44.0031	515.55
44.0176	514.76
44.0320	518.41
44.0465	488.74
44.0609	479.17
44.0753	495.58
44.0898	575.85
44.1042	504.71
44.1187	523.30
44.1331	527.05
44.1475	504.74
44.1620	549.44
44.1764	530.69
44.1909	520.03
44.2053	515.82
44.2197	498.63
44.2342	517.22
44.2486	559.40
44.2631	516.20
44.2775	526.18
44.2919	553.54
44.3064	525.22
44.3208	524.34
44.3353	557.45
44.3497	530.36
44.3641	544.13
44.3786	537.68
44.3930	528.10
44.4075	515.11
44.4219	553.56
44.4363	571.69
44.4508	549.83
44.4652	537.82
44.4797	536.35
44.4941	560.63
44.5085	580.17
44.5230	579.03
44.5374	557.99
44.5519	574.12
44.5663	550.31
44.5807	545.37
44.5952	540.72
44.6096	560.92
44.6241	565.16
44.6385	586.93
44.6529	584.12
44.6674	618.66
44.6818	602.99
44.6963	563.90
44.7107	630.60
44.7251	664.55
44.7396	696.70
44.7540	772.26
44.7685	804.99
44.7829	853.50
44.7973	833.56
44.8118	891.10
44.8262	817.53
44.8407	783.52
44.8551	735.43
44.8695	739.49
44.8840	720.69
44.8984	766.62
44.9129	703.83
44.9273	638.03
44.9417	666.40
44.9562	584.25
44.9706	538.13
44.9851	559.10
44.9995	537.83
45.0139	501.44
45.0284	553.72
45.0428	504.51
45.0573	516.99
45.0717	569.92
45.0861	566.11
45.1006	498.51
45.1150	473.11
45.1295	553.10
45.1439	500.67
45.1583	502.11
45.1728	535.42
45.1872	521.19
45.2017	500.93
45.2161	521.82
45.2305	531.93
45.2450	497.77
45.2594	475.60
45.2739	489.89
45.2883	476.04
45.3028	493.01
45.3172	510.67
45.3316	494.59
45.3461	493.19
45.3605	486.41
45.3750	512.30
45.3894	489.14
45.4038	513.67
45.4183	514.24
45.4327	516.51
45.4472	480.32
45.4616	483.96
45.4760	509.92
45.4905	506.57
45.5049	496.01
45.5194	515.69
45.5338	494.56
45.5482	508.92
45.5627	494.54
45.5771	482.03
45.5916	503.19
45.6060	509.29
45.6204	533.12
45.6349	483.37
45.6493	505.52
45.6638	530.87
45.6782	510.74
45.6926	529.39
45.7071	534.81
45.7215	536.62
45.7360	517.70
45.7504	515.25
45.7648	513.94
45.7793	518.99
45.7937	511.30
45.8082	493.85
45.8226	493.21
45.8370	500.52
45.8515	495.24
45.8659	496.01
45.8804	501.39
45.8948	497.02
45.9092	520.56
45.9237	464.58
45.9381	511.29
45.9526	507.39
45.9670	490.39
45.9814	507.06
45.9959	464.34
46.0103	435.80
46.0248	467.28
46.0392	486.37
46.0536	478.98
46.0681	498.04
46.0825	493.34
46.0970	512.53
46.1114	481.46
46.1258	500.85
46.1403	500.68
46.1547	505.30
46.1692	526.04
46.1836	527.68
46.1980	491.93
46.2125	509.14
46.2269	511.20
46.2414	518.26
46.2558	489.28
46.2702	495.94
46.2847	482.92
46.2991	474.13
46.3136	487.59
46.3280	501.12
46.3424	500.97
46.3569	480.68
46.3713	466.30
46.3858	480.23
46.4002	476.93
46.4146	503.71
46.4291	581.28
46.4435	506.57
46.4580	473.88
46.4724	500.85
46.4868	497.98
46.5013	511.46
46.5157	492.84
46.5302	502.86
46.5446	514.97
46.5590	526.37
46.5735	500.67
46.5879	482.70
46.6024	505.01
46.6168	499.96
46.6312	519.97
46.6457	517.96
46.6601	503.09
46.6746	480.53
46.6890	472.31
46.7034	497.34
46.7179	491.29
46.7323	479.40
46.7468	508.44
46.7612	476.94
46.7756	512.54
46.7901	517.57
46.8045	493.83
46.8190	524.39
46.8334	533.48
46.8478	499.80
46.8623	515.44
46.8767	531.73
46.8912	526.92
46.9056	528.75
46.9200	532.42
46.9345	551.32
46.9489	524.70
46.9634	498.85
46.9778	487.31
46.9922	451.21
47.0067	482.98
47.0211	515.17
47.0356	505.81
47.0500	510.02
47.0644	502.47
47.0789	477.65
47.0933	511.79
47.1078	489.66
47.1222	505.66
47.1366	505.02
47.1511	509.98
47.1655	500.65
47.1800	504.90
47.1944	505.98
47.2088	524.29
47.2233	499.44
47.2377	525.03
47.2522	524.90
47.2666	508.20
47.2810	490.03
47.2955	490.83
47.3099	494.27
47.3244	499.18
47.3388	507.37
47.3532	507.29
47.3677	489.26
47.3821	508.93
47.3966	510.53
47.4110	500.11
47.4254	504.52
47.4399	506.28
47.4543	494.17
47.4688	517.22
47.4832	489.29
47.4976	504.38
47.5121	497.38
47.5265	527.57
47.5410	488.59
47.5554	515.72
47.5698	474.58
47.5843	488.59
47.5987	517.37
47.6132	486.33
47.6276	494.84
47.6420	506.50
47.6565	510.14
47.6709	478.37
47.6854	488.53
47.6998	512.49
47.7142	493.61
47.7287	482.96
47.7431	488.66
47.7576	507.67
47.7720	530.19
47.7864	531.57
47.8009	502.18
47.8153	487.25
47.8298	499.77
47.8442	493.80
47.8586	500.03
47.8731	512.38
47.8875	499.26
47.9020	506.98
47.9164	492.08
47.9308	502.93
47.9453	518.66
47.9597	523.61
47.9742	463.89
47.9886	487.20
48.0030	496.58
48.0175	501.99
48.0319	501.81
48.0464	511.42
48.0608	508.82
48.0752	502.40
48.0897	512.49
48.1041	528.59
48.1186	484.74
48.1330	536.62
48.1474	536.73
48.1619	523.71
48.1763	515.07
48.1908	519.28
48.2052	493.58
48.2196	506.43
48.2341	491.72
48.2485	520.81
48.2630	527.14
48.2774	528.27
48.2918	536.71
48.3063	517.32
48.3207	492.55
48.3352	501.31
48.3496	504.89
48.3640	514.76
48.3785	501.33
48.3929	497.85
48.4074	485.66
48.4218	509.38
48.4362	493.33
48.4507	495.90
48.4651	544.56
48.4796	523.49
48.4940	488.56
48.5084	516.49
48.5229	491.38
48.5373	494.40
48.5518	499.96
48.5662	509.81
48.5806	479.66
48.5951	538.91
48.6095	525.88
48.6240	509.19
48.6384	531.23
48.6528	520.38
48.6673	539.67
48.6817	503.30
48.6962	531.49
48.7106	547.44
48.7250	532.02
48.7395	524.83
48.7539	550.18
48.7684	551.79
48.7828	554.32
48.7972	553.70
48.8117	544.63
48.8261	532.77
48.8406	518.13
48.8550	535.33
48.8694	521.42
48.8839	537.78
48.8983	562.99
48.9128	552.58
48.9272	573.85
48.9416	595.67
48.9561	577.90
48.9705	559.50
48.9850	597.13
48.9994	588.74
49.0139	581.39
49.0283	614.36
49.0427	617.91
49.0572	617.97
49.0716	617.67
49.0861	646.54
49.1005	707.10
49.1149	733.29
49.1294	736.96
49.1438	767.03
49.1583	800.88
49.1727	876.57
49.1871	935.35
49.2016	956.57
49.2160	1011.53
49.2305	1148.32
49.2449	1268.65
49.2593	1264.16
49.2738	1440.32
49.2882	1537.72
49.3027	1569.97
49.3171	1599.55
49.3315	1732.94
49.3460	1839.99
49.3604	1884.16
49.3749	1872.38
49.3893	1763.69
49.4037	1764.65
49.4182	1816.09
49.4326	1788.07
49.4471	1683.35
49.4615	1681.04
49.4759	1631.55
49.4904	1497.31
49.5048	1303.84
49.5193	1287.99
49.5337	1267.81
49.5481	1201.12
49.5626	1109.52
49.5770	1052.95
49.5915	975.69
49.6059	936.49
49.6203	828.10
49.6348	813.85
49.6492	828.21
49.6637	749.22
49.6781	723.14
49.6925	671.76
49.7070	674.76
49.7214	661.32
49.7359	628.67
49.7503	614.97
49.7647	582.13
49.7792	572.91
49.7936	583.85
49.8081	607.05
49.8225	564.84
49.8369	551.10
49.8514	550.44
49.8658	552.78
49.8803	555.88
49.8947	535.20
49.9091	566.64
49.9236	558.31
49.9380	572.29
49.9525	513.53
49.9669	507.96
49.9813	479.89
49.9958	503.88
50.0102	506.76
50.0247	514.69
50.0391	545.83
50.0535	540.06
50.0680	535.93
50.0824	517.63
50.0969	535.22
50.1113	535.39
50.1257	514.18
50.1402	538.19
50.1546	534.26
50.1691	542.12
50.1835	513.38
50.1979	513.83
50.2124	517.54
50.2268	513.11
50.2413	520.11
50.2557	516.05
50.2701	487.53
50.2846	523.60
50.2990	516.03
50.3135	481.78
50.3279	507.24
50.3423	530.88
50.3568	504.00
50.3712	545.56
50.3857	499.43
50.4001	479.63
50.4145	495.17
50.4290	549.07
50.4434	482.09
50.4579	523.38
50.4723	528.62
50.4867	511.22
50.5012	499.85
50.5156	481.31
50.5301	509.11
50.5445	531.02
50.5589	539.49
50.5734	516.77
50.5878	509.76
50.6023	541.62
50.6167	497.33
50.6311	475.22
50.6456	505.71
50.6600	486.62
50.6745	488.56
50.6889	541.03
50.7033	534.18
50.7178	497.02
50.7322	489.31
50.7467	488.08
50.7611	501.79
50.7755	530.42
50.7900	527.26
50.8044	506.79
50.8189	534.84
50.8333	512.55
50.8477	535.80
50.8622	511.66
50.8766	500.50
50.8911	494.53
50.9055	518.42
50.9199	516.20
50.9344	498.32
50.9488	515.46
50.9633	490.19
50.9777	515.75
50.9921	535.57
51.0066	504.65
51.0210	483.66
51.0355	501.19
51.0499	493.17
51.0643	524.81
51.0788	518.85
51.0932	532.15
51.1077	527.16
51.1221	527.03
51.1365	519.11
51.1510	525.25
51.1654	492.18
51.1799	527.32
51.1943	486.23
51.2087	485.87
51.2232	486.95
51.2376	493.24
51.2521	512.81
51.2665	503.51
51.2809	540.65
51.2954	514.59
51.3098	549.46
51.3243	525.52
51.3387	524.78
51.3531	529.20
51.3676	537.93
51.3820	471.15
51.3965	507.12
51.4109	508.58
51.4253	537.55
51.4398	502.75
51.4542	473.01
51.4687	531.87
51.4831	523.15
51.4975	517.99
51.5120	549.74
51.5264	506.51
51.5409	496.74
51.5553	485.44
51.5697	526.48
51.5842	479.39
51.5986	495.09
51.6131	512.89
51.6275	521.61
51.6419	515.24
51.6564	502.89
51.6708	511.23
51.6853	472.72
51.6997	510.09
51.7141	491.02
51.7286	491.20
51.7430	492.85
51.7575	503.22
51.7719	528.77
51.7863	496.44
51.8008	475.16
51.8152	490.54
51.8297	501.91
51.8441	525.56
51.8585	531.55
51.8730	483.27
51.8874	487.11
51.9019	536.47
51.9163	515.66
51.9307	500.42
51.9452	511.53
51.9596	481.55
51.9741	541.51
51.9885	550.02
52.0029	481.03
52.0174	523.13
52.0318	485.13
52.0463	531.15
52.0607	476.11
52.0751	497.55
52.0896	533.87
52.1040	492.25
52.1185	544.16
52.1329	528.55
52.1473	472.09
52.1618	521.37
52.1762	496.31
52.1907	486.87
52.2051	487.57
52.2195	520.68
52.2340	479.46
52.2484	471.56
52.2629	518.88
52.2773	544.76
52.2917	540.62
52.3062	506.18
52.3206	528.47
52.3351	524.39
52.3495	492.39
52.3639	515.61
52.3784	509.39
52.3928	504.46
52.4073	461.45
52.4217	547.25
52.4361	548.85
52.4506	486.94
52.4650	549.34
52.4795	547.38
52.4939	546.60
52.5083	542.96
52.5228	503.57
52.5372	489.84
52.5517	528.07
52.5661	499.98
52.5805	542.37
52.5950	546.32
52.6094	484.10
52.6239	506.59
52.6383	523.74
52.6527	516.37
52.6672	479.28
52.6816	510.28
52.6961	538.98
52.7105	549.70
52.7250	521.88
52.7394	522.13
52.7538	519.34
52.7683	510.13
52.7827	542.11
52.7972	512.68
52.8116	489.24
52.8260	490.04
52.8405	504.29
52.8549	507.30
52.8694	495.00
52.8838	495.46
52.8982	524.67
52.9127	584.67
52.9271	541.26
52.9416	497.42
52.9560	507.80
52.9704	505.56
52.9849	521.85
52.9993	530.57
53.0138	539.13
53.0282	520.48
53.0426	477.64
53.0571	498.58
53.0715	570.24
53.0860	540.61
53.1004	552.59
53.1148	504.13
53.1293	555.08
53.1437	499.57
53.1582	507.30
53.1726	518.32
53.1870	503.51
53.2015	494.37
53.2159	490.00
53.2304	523.74
53.2448	531.28
53.2592	503.29
53.2737	514.37
53.2881	539.89
53.3026	528.27
53.3170	493.77
53.3314	502.14
53.3459	515.16
53.3603	512.85
53.3748	539.46
53.3892	517.35
53.4036	492.30
53.4181	498.09
53.4325	494.15
53.4470	508.20
53.4614	500.69
53.4758	532.98
53.4903	518.48
53.5047	515.78
53.5192	530.32
53.5336	517.09
53.5480	465.39
53.5625	533.53
53.5769	491.62
53.5914	521.28
53.6058	530.10
53.6202	507.13
53.6347	518.00
53.6491	513.44
53.6636	494.01
53.6780	479.82
53.6924	473.83
53.7069	494.53
53.7213	535.12
53.7358	539.17
53.7502	506.46
53.7646	484.51
53.7791	514.76
53.7935	514.22
53.8080	541.47
53.8224	514.46
53.8368	519.80
53.8513	516.06
53.8657	537.13
53.8802	510.07
53.8946	498.68
53.9090	522.40
53.9235	513.68
53.9379	502.34
53.9524	500.82
53.9668	506.29
53.9812	564.82
53.9957	501.92
54.0101	531.04
54.0246	565.94
54.0390	509.12
54.0534	533.28
54.0679	557.89
54.0823	517.87
54.0968	524.39
54.1112	542.80
54.1256	523.53
54.1401	514.18
54.1545	525.22
54.1690	545.10
54.1834	550.77
54.1978	582.35
54.2123	589.26
54.2267	581.02
54.2412	581.46
54.2556	621.28
54.2700	624.54
54.2845	629.05
54.2989	596.64
54.3134	625.39
54.3278	624.53
54.3422	627.98
54.3567	619.37
54.3711	586.21
54.3856	586.09
54.4000	597.77
54.4144	576.51
54.4289	589.41
54.4433	596.54
54.4578	574.65
54.4722	567.48
54.4866	556.49
54.5011	574.00
54.5155	546.76
54.5300	527.00
54.5444	544.03
54.5588	537.88
54.5733	505.50
54.5877	518.17
54.6022	522.59
54.6166	529.24
54.6310	550.58
54.6455	514.78
54.6599	534.65
54.6744	547.52
54.6888	514.72
54.7032	495.12
54.7177	494.06
54.7321	506.21
54.7466	516.88
54.7610	539.59
54.7754	526.47
54.7899	487.72
54.8043	471.86
54.8188	503.74
54.8332	519.21
54.8476	549.98
54.8621	578.26
54.8765	520.05
54.8910	517.68
54.9054	522.99
54.9198	485.90
54.9343	485.61
54.9487	524.34
54.9632	573.99
54.9776	542.23
54.9920	507.75
55.0065	514.34
55.0209	502.28
55.0354	497.29
55.0498	528.87
55.0642	535.07
55.0787	530.42
55.0931	529.64
55.1076	513.82
55.1220	541.42
55.1364	535.80
55.1509	495.12
55.1653	524.93
55.1798	531.62
55.1942	506.45
55.2086	531.06
55.2231	542.58
55.2375	472.77
55.2520	513.12
55.2664	525.27
55.2808	490.60
55.2953	501.78
55.3097	530.56
55.3242	582.09
55.3386	546.21
55.3530	544.36
55.3675	518.82
55.3819	496.38
55.3964	510.46
55.4108	508.41
55.4252	524.10
55.4397	494.26
55.4541	522.31
55.4686	534.43
55.4830	503.25
55.4974	490.91
55.5119	513.17
55.5263	531.07
55.5408	506.42
55.5552	518.36
55.5696	491.04
55.5841	524.58
55.5985	556.95
55.6130	535.71
55.6274	537.40
55.6418	504.58
55.6563	521.10
55.6707	547.57
55.6852	517.57
55.6996	510.72
55.7140	553.91
55.7285	513.30
55.7429	493.46
55.7574	513.69
55.7718	508.96
55.7862	506.09
55.8007	495.05
55.8151	539.45
55.8296	530.49
55.8440	485.14
55.8584	536.79
55.8729	526.06
55.8873	520.29
55.9018	507.70
55.9162	532.50
55.9306	494.80
55.9451	483.75
55.9595	515.50
55.9740	501.55
55.9884	508.00
56.0028	546.03
56.0173	507.53
56.0317	505.45
56.0462	526.03
56.0606	523.94
56.0750	499.70
56.0895	540.09
56.1039	511.67
56.1184	567.20
56.1328	528.66
56.1472	489.31
56.1617	500.61
56.1761	504.94
56.1906	501.13
56.2050	509.86
56.2194	509.39
56.2339	533.17
56.2483	559.38
56.2628	494.40
56.2772	501.54
56.2916	554.39
56.3061	513.43
56.3205	500.76
56.3350	532.37
56.3494	541.42
56.3639	534.60
56.3783	495.27
56.3927	477.94
56.4072	495.47
56.4216	513.80
56.4361	510.46
56.4505	508.70
56.4649	514.28
56.4794	530.50
56.4938	500.33
56.5083	474.91
56.5227	507.37
56.5371	538.42
56.5516	521.29
56.5660	488.76
56.5805	532.36
56.5949	521.99
56.6093	513.43
56.6238	509.22
56.6382	500.14
56.6527	528.14
56.6671	515.38
56.6815	507.20
56.6960	511.46
56.7104	559.26
56.7249	513.38
56.7393	540.11
56.7537	513.68
56.7682	511.64
56.7826	496.04
56.7971	485.17
56.8115	515.33
56.8259	558.51
56.8404	549.77
56.8548	537.47
56.8693	516.12
56.8837	504.86
56.8981	535.17
56.9126	480.07
56.9270	512.14
56.9415	509.80
56.9559	468.86
56.9703	531.54
56.9848	514.44
56.9992	546.68
57.0137	526.58
57.0281	557.11
57.0425	527.81
57.0570	542.43
57.0714	548.04
57.0859	511.13
57.1003	523.28
57.1147	512.45
57.1292	550.79
57.1436	516.28
57.1581	559.49
57.1725	515.06
57.1869	534.03
57.2014	528.56
57.2158	552.62
57.2303	533.51
57.2447	505.00
57.2591	512.20
57.2736	524.35
57.2880	510.79
57.3025	501.86
57.3169	501.25
57.3313	518.32
57.3458	519.57
57.3602	533.00
57.3747	514.31
57.3891	506.10
57.4035	483.45
57.4180	525.44
57.4324	526.29
57.4469	518.85
57.4613	544.75
57.4757	525.34
57.4902	527.87
57.5046	475.86
57.5191	501.69
57.5335	519.44
57.5479	543.46
57.5624	559.58
57.5768	557.60
57.5913	533.94
57.6057	547.47
57.6201	542.33
57.6346	531.14
57.6490	521.41
57.6635	519.91
57.6779	555.67
57.6923	537.31
57.7068	547.66
57.7212	550.49
57.7357	556.84
57.7501	562.23
57.7645	543.23
57.7790	600.55
57.7934	616.29
57.8079	641.54
57.8223	701.49
57.8367	705.75
57.8512	732.72
57.8656	763.95
57.8801	796.00
57.8945	772.74
57.9089	757.26
57.9234	700.10
57.9378	707.34
57.9523	644.07
57.9667	647.59
57.9811	642.90
57.9956	691.33
58.0100	694.74
58.0245	708.51
58.0389	634.57
58.0533	636.49
58.0678	648.49
58.0822	592.96
58.0967	589.66
58.1111	565.90
58.1255	562.36
58.1400	576.36
58.1544	534.19
58.1689	547.36
58.1833	556.17
58.1977	558.96
58.2122	587.21
58.2266	545.93
58.2411	558.75
58.2555	561.25
58.2699	540.09
58.2844	526.38
58.2988	535.40
58.3133	512.24
58.3277	544.44
58.3421	547.11
58.3566	560.24
58.3710	540.76
58.3855	522.83
58.3999	530.45
58.4143	538.60
58.4288	580.60
58.4432	533.86
58.4577	550.66
58.4721	547.55
58.4865	531.07
58.5010	554.70
58.5154	564.41
58.5299	560.68
58.5443	522.82
58.5587	541.91
58.5732	508.96
58.5876	500.73
58.6021	500.07
58.6165	537.22
58.6309	572.93
58.6454	548.52
58.6598	500.63
58.6743	527.90
58.6887	534.77
58.7031	558.04
58.7176	531.91
58.7320	510.70
58.7465	526.51
58.7609	510.21
58.7753	550.93
58.7898	539.98
58.8042	538.06
58.8187	524.07
58.8331	529.63
58.8475	519.31
58.8620	545.86
58.8764	536.37
58.8909	537.06
58.9053	552.36
58.9197	540.32
58.9342	535.89
58.9486	492.17
58.9631	505.80
58.9775	510.78
58.9919	503.27
59.0064	531.57
59.0208	545.67
59.0353	530.33
59.0497	512.10
59.0641	514.51
59.0786	539.14
59.0930	547.66
59.1075	539.01
59.1219	553.13
59.1363	570.99
59.1508	554.41
59.1652	557.29
59.1797	549.07
59.1941	522.41
59.2085	532.77
59.2230	548.76
59.2374	550.74
59.2519	600.29
59.2663	514.38
59.2807	559.06
59.2952	567.73
59.3096	565.83
59.3241	530.15
59.3385	583.81
59.3529	579.42
59.3674	522.74
59.3818	557.78
59.3963	576.50
59.4107	563.34
59.4251	561.72
59.4396	517.01
59.4540	522.67
59.4685	544.56
59.4829	575.12
59.4973	567.02
59.5118	530.04
59.5262	534.46
59.5407	529.86
59.5551	547.93
59.5695	552.35
59.5840	528.93
59.5984	533.49
59.6129	540.80
59.6273	522.06
59.6417	528.06
59.6562	542.84
59.6706	559.31
59.6851	541.21
59.6995	544.34
59.7139	527.12
59.7284	518.87
59.7428	488.23
59.7573	537.14
59.7717	547.97
59.7861	517.00
59.8006	524.93
59.8150	542.37
59.8295	561.58
59.8439	541.16
59.8583	579.70
59.8728	552.58
59.8872	516.53
59.9017	569.04
59.9161	592.06
59.9305	514.87
59.9450	540.83
59.9594	518.62
59.9739	566.68
59.9883	557.82
60.0027	513.65
60.0172	539.25
60.0316	549.16
60.0461	517.39
60.0605	573.70
60.0750	514.24
60.0894	540.64
60.1038	511.97
60.1183	559.74
60.1327	574.52
60.1472	537.23
60.1616	551.19
60.1760	550.33
60.1905	561.07
60.2049	533.44
60.2194	547.61
60.2338	523.72
60.2482	556.69
60.2627	526.67
60.2771	548.28
60.2916	554.84
60.3060	530.77
60.3204	529.36
60.3349	521.38
60.3493	509.39
60.3638	518.75
60.3782	535.75
60.3926	524.85
60.4071	511.75
60.4215	556.68
60.4360	561.60
60.4504	548.56
60.4648	552.21
60.4793	559.21
60.4937	512.90
60.5082	488.37
60.5226	533.49
60.5370	547.52
60.5515	543.53
60.5659	518.94
60.5804	532.13
60.5948	527.22
60.6092	529.72
60.6237	532.80
60.6381	552.05
60.6526	562.96
60.6670	549.13
60.6814	542.74
60.6959	519.07
60.7103	557.55
60.7248	537.68
60.7392	538.82
60.7536	505.93
60.7681	559.78
60.7825	488.86
60.7970	547.84
60.8114	535.39
60.8258	556.80
60.8403	532.23
60.8547	545.80
60.8692	539.92
60.8836	500.07
60.8980	553.77
60.9125	565.56
60.9269	520.00
60.9414	511.35
60.9558	517.91
60.9702	540.00
60.9847	551.14
60.9991	546.40
61.0136	528.55
61.0280	514.72
61.0424	572.02
61.0569	540.01
61.0713	549.64
61.0858	560.89
61.1002	569.35
61.1146	558.75
61.1291	553.29
61.1435	498.38
61.1580	531.68
61.1724	531.24
61.1868	528.81
61.2013	532.52
61.2157	581.75
61.2302	543.21
61.2446	529.08
61.2590	527.12
61.2735	565.82
61.2879	549.58
61.3024	509.93
61.3168	517.80
61.3312	546.99
61.3457	539.99
61.3601	563.17
61.3746	528.16
61.3890	542.55
61.4034	525.56
61.4179	540.07
61.4323	567.10
61.4468	513.11
61.4612	531.63
61.4756	540.46
61.4901	559.89
61.5045	544.86
61.5190	553.21
61.5334	512.17
61.5478	512.34
61.5623	525.01
61.5767	524.75
61.5912	536.69
61.6056	579.45
61.6200	529.49
61.6345	520.96
61.6489	517.19
61.6634	528.06
61.6778	542.03
61.6922	563.29
61.7067	582.42
61.7211	583.51
61.7356	550.60
61.7500	567.27
61.7644	564.90
61.7789	545.47
61.7933	531.37
61.8078	524.62
61.8222	515.23
61.8366	551.67
61.8511	539.22
61.8655	559.46
61.8800	538.80
61.8944	540.26
61.9088	543.42
61.9233	553.40
61.9377	553.86
61.9522	540.00
61.9666	535.94
61.9810	515.81
61.9955	530.45
62.0099	556.83
62.0244	570.12
62.0388	543.02
62.0532	525.04
62.0677	570.12
62.0821	555.55
62.0966	525.99
62.1110	541.02
62.1254	572.24
62.1399	540.98
62.1543	559.41
62.1688	569.82
62.1832	555.62
62.1976	539.37
62.2121	519.56
62.2265	532.30
62.2410	558.31
62.2554	573.20
62.2698	567.90
62.2843	567.82
62.2987	534.87
62.3132	530.65
62.3276	552.90
62.3420	555.51
62.3565	570.89
62.3709	539.74
62.3854	548.98
62.3998	551.61
62.4142	542.30
62.4287	550.99
62.4431	532.11
62.4576	529.90
62.4720	585.51
62.4864	572.05
62.5009	558.62
62.5153	539.99
62.5298	526.52
62.5442	530.82
62.5586	565.80
62.5731	571.17
62.5875	575.63
62.6020	556.40
62.6164	552.68
62.6308	575.14
62.6453	567.58
62.6597	572.42
62.6742	526.25
62.6886	543.39
62.7030	560.17
62.7175	553.62
62.7319	566.22
62.7464	585.63
62.7608	571.64
62.7752	568.86
62.7897	532.04
62.8041	545.33
62.8186	562.66
62.8330	538.12
62.8474	587.92
62.8619	572.54
62.8763	559.87
62.8908	565.87
62.9052	588.03
62.9196	553.89
62.9341	550.11
62.9485	548.77
62.9630	542.76
62.9774	573.35
62.9918	595.31
63.0063	557.38
63.0207	549.20
63.0352	558.48
63.0496	573.58
63.0640	590.70
63.0785	582.15
63.0929	576.85
63.1074	557.70
63.1218	582.32
63.1362	570.81
63.1507	565.15
63.1651	589.15
63.1796	558.94
63.1940	565.17
63.2084	570.06
63.2229	600.98
63.2373	593.78
63.2518	583.66
63.2662	590.65
63.2806	581.89
63.2951	592.57
63.3095	631.11
63.3240	638.49
63.3384	627.32
63.3528	621.71
63.3673	610.45
63.3817	649.98
63.3962	618.94
63.4106	573.58
63.4250	688.51
63.4395	653.74
63.4539	633.76
63.4684	675.16
63.4828	725.36
63.4972	733.16
63.5117	787.83
63.5261	835.25
63.5406	901.43
63.5550	961.06
63.5694	970.02
63.5839	982.96
63.5983	921.15
63.6128	874.81
63.6272	815.18
63.6416	800.73
63.6561	753.43
63.6705	797.21
63.6850	760.23
63.6994	769.21
63.7138	854.66
63.7283	826.64
63.7427	819.84
63.7572	770.30
63.7716	766.21
63.7861	768.95
63.8005	777.53
63.8149	728.12
63.8294	689.04
63.8438	671.88
63.8583	678.23
63.8727	655.51
63.8871	653.32
63.9016	680.03
63.9160	618.81
63.9305	613.04
63.9449	610.42
63.9593	558.17
63.9738	625.65
63.9882	600.27
64.0027	566.62
64.0171	561.11
64.0315	607.65
64.0460	613.96
64.0604	592.23
64.0749	592.40
64.0893	593.98
64.1037	614.91
64.1182	615.66
64.1326	608.63
64.1471	600.99
64.1615	592.00
64.1759	620.27
64.1904	608.88
64.2048	598.15
64.2193	610.15
64.2337	594.79
64.2481	569.11
64.2626	598.16
64.2770	617.38
64.2915	595.71
64.3059	609.58
64.3203	598.73
64.3348	613.92
64.3492	570.85
64.3637	578.68
64.3781	566.03
64.3925	632.27
64.4070	584.06
64.4214	635.23
64.4359	649.18
64.4503	589.02
64.4647	632.35
64.4792	624.80
64.4936	653.34
64.5081	600.00
64.5225	579.09
64.5369	623.58
64.5514	638.96
64.5658	624.97
64.5803	619.19
64.5947	605.59
64.6091	665.92
64.6236	675.06
64.6380	654.54
64.6525	638.41
64.6669	664.33
64.6813	649.22
64.6958	696.52
64.7102	693.84
64.7247	678.07
64.7391	668.98
64.7535	700.17
64.7680	691.58
64.7824	708.42
64.7969	734.73
64.8113	770.60
64.8257	764.34
64.8402	796.02
64.8546	805.11
64.8691	801.23
64.8835	808.66
64.8979	803.08
64.9124	862.67
64.9268	832.40
64.9413	865.92
64.9557	899.67
64.9701	912.72
64.9846	1000.03
64.9990	1126.32
65.0135	1231.38
65.0279	1383.36
65.0423	1622.26
65.0568	1981.68
65.0712	2535.75
65.0857	3262.22
65.1001	4317.70
65.1145	5822.34
65.1290	7594.89
65.1434	9224.03
65.1579	10705.06
65.1723	11581.01
65.1867	11121.58
65.2012	9902.63
65.2156	8238.84
65.2301	6641.88
65.2445	5320.59
65.2589	4379.20
65.2734	4110.01
65.2878	4276.46
65.3023	4823.42
65.3167	5556.97
65.3311	6388.73
65.3456	6989.45
65.3600	6764.25
65.3745	6416.13
65.3889	5444.84
65.4033	4487.56
65.4178	3486.85
65.4322	2790.63
65.4467	2128.49
65.4611	1754.22
65.4755	1497.03
65.4900	1288.48
65.5044	1159.30
65.5189	1061.95
65.5333	967.39
65.5477	921.65
65.5622	873.22
65.5766	871.67
65.5911	828.60
65.6055	788.14
65.6199	783.10
65.6344	789.15
65.6488	733.53
65.6633	703.48
65.6777	694.28
65.6921	679.22
65.7066	688.48
65.7210	697.65
65.7355	688.09
65.7499	662.02
65.7643	650.66
65.7788	671.32
65.7932	719.17
65.8077	718.01
65.8221	684.55
65.8365	662.38
65.8510	657.55
65.8654	690.86
65.8799	645.25
65.8943	635.73
65.9087	692.50
65.9232	684.31
65.9376	649.29
65.9521	612.30
65.9665	609.48
65.9809	620.69
65.9954	630.33
66.0098	634.36
66.0243	628.83
66.0387	595.66
66.0531	623.25
66.0676	598.52
66.0820	647.51
66.0965	664.63
66.1109	621.92
66.1253	643.79
66.1398	617.35
66.1542	634.21
66.1687	622.25
66.1831	614.48
66.1975	608.72
66.2120	621.52
66.2264	623.94
66.2409	606.23
66.2553	596.87
66.2697	551.94
66.2842	642.60
66.2986	575.42
66.3131	556.83
66.3275	611.80
66.3419	579.36
66.3564	608.51
66.3708	594.40
66.3853	576.26
66.3997	561.24
66.4141	563.74
66.4286	584.55
66.4430	617.75
66.4575	592.13
66.4719	626.49
66.4863	597.66
66.5008	593.57
66.5152	586.48
66.5297	607.99
66.5441	607.49
66.5585	583.37
66.5730	585.04
66.5874	627.30
66.6019	573.21
66.6163	586.86
66.6307	565.20
66.6452	555.59
66.6596	583.11
66.6741	604.99
66.6885	588.02
66.7029	572.60
66.7174	574.15
66.7318	594.21
66.7463	641.32
66.7607	601.45
66.7751	597.41
66.7896	567.92
66.8040	581.20
66.8185	616.25
66.8329	603.01
66.8473	584.83
66.8618	570.70
66.8762	584.13
66.8907	616.97
66.9051	607.68
66.9195	572.31
66.9340	603.09
66.9484	623.74
66.9629	593.15
66.9773	585.01
66.9917	561.54
67.0062	555.87
67.0206	582.55
67.0351	580.07
67.0495	552.64
67.0639	558.87
67.0784	575.98
67.0928	624.56
67.1073	589.95
67.1217	586.69
67.1361	566.06
67.1506	554.05
67.1650	590.65
67.1795	605.37
67.1939	603.58
67.2083	617.16
67.2228	600.25
67.2372	552.04
67.2517	544.51
67.2661	549.85
67.2805	564.02
67.2950	569.47
67.3094	561.41
67.3239	568.96
67.3383	568.17
67.3527	585.20
67.3672	566.32
67.3816	572.20
67.3961	563.47
67.4105	570.89
67.4250	577.64
67.4394	544.04
67.4538	572.59
67.4683	582.51
67.4827	566.59
67.4972	573.53
67.5116	585.88
67.5260	584.11
67.5405	609.52
67.5549	576.61
67.5694	578.59
67.5838	597.79
67.5982	585.50
67.6127	558.85
67.6271	578.68
67.6416	585.14
67.6560	584.35
67.6704	562.39
67.6849	570.68
67.6993	597.52
67.7138	572.60
67.7282	582.08
67.7426	570.76
67.7571	559.51
67.7715	556.64
67.7860	559.11
67.8004	567.67
67.8148	574.35
67.8293	579.95
67.8437	530.13
67.8582	575.61
67.8726	570.06
67.8870	571.23
67.9015	645.80
67.9159	558.82
67.9304	550.12
67.9448	575.56
67.9592	574.03
67.9737	577.06
67.9881	582.70
68.0026	557.22
68.0170	564.42
68.0314	582.37
68.0459	620.73
68.0603	638.58
68.0748	571.66
68.0892	606.17
68.1036	575.64
68.1181	546.09
68.1325	622.07
68.1470	592.47
68.1614	596.50
68.1758	513.59
68.1903	561.99
68.2047	566.84
68.2192	579.98
68.2336	548.66
68.2480	571.39
68.2625	564.00
68.2769	581.42
68.2914	604.12
68.3058	595.55
68.3202	620.97
68.3347	590.90
68.3491	596.72
68.3636	590.22
68.3780	549.17
68.3924	559.91
68.4069	570.67
68.4213	569.30
68.4358	606.47
68.4502	553.94
68.4646	554.43
68.4791	558.05
68.4935	546.82
68.5080	588.31
68.5224	549.58
68.5368	584.67
68.5513	573.05
68.5657	595.88
68.5802	565.91
68.5946	545.07
68.6090	562.52
68.6235	568.88
68.6379	579.52
68.6524	601.94
68.6668	560.83
68.6812	551.95
68.6957	552.54
68.7101	543.50
68.7246	565.68
68.7390	559.90
68.7534	543.51
68.7679	561.25
68.7823	552.53
68.7968	534.74
68.8112	577.40
68.8256	559.15
68.8401	573.23
68.8545	590.90
68.8690	546.15
68.8834	576.10
68.8978	586.83
68.9123	603.26
68.9267	600.07
68.9412	606.83
68.9556	523.11
68.9700	577.10
68.9845	612.30
68.9989	595.75
69.0134	511.00
69.0278	553.37
69.0422	579.74
69.0567	596.34
69.0711	590.85
69.0856	609.95
69.1000	584.35
69.1144	573.02
69.1289	535.13
69.1433	497.49
69.1578	537.38
69.1722	643.18
69.1866	602.08
69.2011	578.12
69.2155	555.13
69.2300	559.49
69.2444	584.57
69.2588	611.42
69.2733	579.64
69.2877	617.43
69.3022	543.52
69.3166	594.33
69.3310	577.22
69.3455	603.06
69.3599	592.23
69.3744	622.31
69.3888	596.23
69.4032	578.42
69.4177	577.99
69.4321	582.19
69.4466	584.85
69.4610	568.39
69.4754	623.15
69.4899	609.67
69.5043	598.00
69.5188	581.95
69.5332	608.18
69.5476	563.11
69.5621	555.39
69.5765	580.25
69.5910	540.31
69.6054	590.17
69.6198	570.20
69.6343	615.43
69.6487	568.61
69.6632	565.20
69.6776	548.88
69.6920	566.24
69.7065	567.23
69.7209	564.13
69.7354	539.09
69.7498	600.40
69.7642	567.71
69.7787	565.28
69.7931	557.17
69.8076	572.97
69.8220	597.85
69.8364	612.10
69.8509	554.14
69.8653	529.68
69.8798	595.64
69.8942	599.68
69.9086	597.73
69.9231	579.35
69.9375	528.83
69.9520	506.85
69.9664	565.25
69.9808	546.94
69.9953	579.57
70.0097	572.21
70.0242	585.00
70.0386	509.06
70.0530	589.82
70.0675	636.90
70.0819	602.08
70.0964	574.95
70.1108	605.48
70.1252	575.76
70.1397	556.44
70.1541	518.07
70.1686	574.39
70.1830	599.44
70.1974	582.68
70.2119	603.79
70.2263	570.27
70.2408	545.89
70.2552	529.67
70.2696	567.53
70.2841	584.93
70.2985	529.98
70.3130	536.22
70.3274	555.73
70.3418	586.26
70.3563	559.63
70.3707	537.13
70.3852	592.56
70.3996	585.72
70.4140	545.41
70.4285	601.67
70.4429	561.55
70.4574	591.61
70.4718	612.37
70.4862	584.53
70.5007	595.63
70.5151	603.08
70.5296	553.56
70.5440	561.70
70.5584	564.29
70.5729	580.04
70.5873	546.35
70.6018	565.01
70.6162	559.33
70.6306	553.48
70.6451	543.91
70.6595	582.46
70.6740	584.08
70.6884	546.17
70.7028	608.00
70.7173	577.92
70.7317	569.19
70.7462	551.25
70.7606	551.22
70.7750	556.88
70.7895	563.44
70.8039	599.35
70.8184	596.24
70.8328	580.13
70.8472	613.97
70.8617	594.66
70.8761	589.85
70.8906	556.70
70.9050	564.50
70.9194	534.37
70.9339	602.10
70.9483	640.38
70.9628	613.67
70.9772	552.82
70.9916	607.92
71.0061	608.62
71.0205	575.09
71.0350	615.55
71.0494	585.49
71.0638	543.11
71.0783	577.20
71.0927	587.08
71.1072	597.41
71.1216	596.92
71.1361	572.86
71.1505	605.32
71.1649	624.02
71.1794	598.69
71.1938	582.33
71.2083	544.18
71.2227	558.05
71.2371	596.65
71.2516	584.15
71.2660	593.35
71.2805	526.35
71.2949	487.00
71.3093	512.27
71.3238	565.65
71.3382	591.34
71.3527	604.74
71.3671	573.29
71.3815	536.84
71.3960	585.80
71.4104	539.76
71.4249	569.31
71.4393	574.68
71.4537	544.20
71.4682	541.50
71.4826	520.48
71.4971	554.51
71.5115	546.56
71.5259	566.25
71.5404	552.03
71.5548	595.69
71.5693	576.22
71.5837	538.35
71.5981	542.72
71.6126	547.70
71.6270	590.32
71.6415	622.58
71.6559	641.14
71.6703	601.64
71.6848	543.22
71.6992	569.40
71.7137	555.75
71.7281	588.46
71.7425	554.26
71.7570	563.99
71.7714	620.92
71.7859	601.57
71.8003	608.05
71.8147	561.44
71.8292	599.10
71.8436	596.97
71.8581	567.11
71.8725	588.66
71.8869	564.45
71.9014	609.60
71.9158	579.58
71.9303	583.01
71.9447	581.09
71.9591	568.18
71.9736	627.55
71.9880	605.51
72.0025	566.01
72.0169	488.02
72.0313	478.95
72.0458	535.40
72.0602	600.54
72.0747	608.73
72.0891	634.84
72.1035	717.28
72.1180	725.68
72.1324	618.07
72.1469	617.44
72.1613	641.69
72.1757	597.40
72.1902	591.09
72.2046	658.96
72.2191	612.46
72.2335	571.23
72.2479	600.49
72.2624	584.76
72.2768	529.25
72.2913	495.97
72.3057	553.60
72.3201	649.57
72.3346	659.30
72.3490	591.68
72.3635	581.48
72.3779	584.65
72.3923	542.95
72.4068	598.18
72.4212	602.23
72.4357	516.80
72.4501	524.14
72.4645	556.69
72.4790	589.08
72.4934	501.17
72.5079	446.86
72.5223	475.16
72.5367	583.18
72.5512	647.42
72.5656	672.98
72.5801	583.18
72.5945	525.84
72.6089	467.44
72.6234	495.48
72.6378	497.26
72.6523	569.86
72.6667	614.10
72.6811	589.84
72.6956	531.98
72.7100	505.35
72.7245	546.34
72.7389	565.03
72.7533	608.71
72.7678	609.22
72.7822	577.43
72.7967	585.52
72.8111	599.37
72.8255	618.97
72.8400	639.64
72.8544	586.50
72.8689	529.80
72.8833	529.14

Result vector
22.1120	566.97
22.1264	593.87
22.1409	584.36
22.1553	547.87
22.1697	547.50
22.1842	533.31
22.1986	542.87
22.2131	590.04
22.2275	619.95
22.2419	634.14
22.2564	624.53
22.2708	586.59
22.2853	574.30
22.2997	552.89
22.3141	580.44
22.3286	560.52
22.3430	570.54
22.3575	598.04
22.3719	533.30
22.3863	522.94
22.4008	515.30
22.4152	542.12
22.4297	554.01
22.4441	611.90
22.4585	684.00
22.4730	614.57
22.4874	618.10
22.5019	564.68
22.5163	586.34
22.5307	525.91
22.5452	565.61
22.5596	521.81
22.5741	557.08
22.5885	618.57
22.6029	516.40
22.6174	602.04
22.6318	580.84
22.6463	574.82
22.6607	560.85
22.6751	557.33
22.6896	556.29
22.7040	636.40
22.7185	577.22
22.7329	548.83
22.7473	614.60
22.7618	555.22
22.7762	604.47
22.7907	655.18
22.8051	611.19
22.8195	622.35
22.8340	579.20
22.8484	560.98
22.8629	597.87
22.8773	526.19
22.8917	519.03
22.9062	521.90
22.9206	529.05
22.9351	553.59
22.9495	520.49
22.9639	524.59
22.9784	586.20
22.9928	640.12
23.0073	597.95
23.0217	574.86
23.0361	480.56
23.0506	573.92
23.0650	541.06
23.0795	551.39
23.0939	686.29
23.1083	579.11
23.1228	569.88
23.1372	597.04
23.1517	524.95
23.1661	549.96
23.1806	550.62
23.1950	537.45
23.2094	525.78
23.2239	501.63
23.2383	607.14
23.2528	581.90
23.2672	527.57
23.2816	550.12
23.2961	537.41
23.3105	576.35
23.3250	608.87
23.3394	582.51
23.3538	574.80
23.3683	518.67
23.3827	495.07
23.3972	517.34
23.4116	549.95
23.4260	591.82
23.4405	520.39
23.4549	563.33
23.4694	536.39
23.4838	560.91
23.4982	550.05
23.5127	514.57
23.5271	542.29
23.5416	555.45
23.5560	497.85
23.5704	506.32
23.5849	501.30
23.5993	585.91
23.6138	646.71
23.6282	577.71
23.6426	549.89
23.6571	581.82
23.6715	477.40
23.6860	543.37
23.7004	565.72
23.7148	564.95
23.7293	437.90
23.7437	514.21
23.7582	512.93
23.7726	602.89
23.7870	514.67
23.8015	503.26
23.8159	520.44
23.8304	576.59
23.8448	559.67
23.8592	541.67
23.8737	587.76
23.8881	516.39
23.9026	636.94
23.9170	602.42
23.9314	498.48
23.9459	537.42
23.9603	505.97
23.9748	526.43
23.9892	505.27
24.0036	504.54
24.0181	541.58
24.0325	541.77
24.0470	527.84
24.0614	551.90
24.0758	529.11
24.0903	529.11
24.1047	569.82
24.1192	582.63
24.1336	557.01
24.1480	530.46
24.1625	580.92
24.1769	532.61
24.1914	575.14
24.2058	554.47
24.2202	579.13
24.2347	597.32
24.2491	583.90
24.2636	600.83
24.2780	585.03
24.2924	514.02
24.3069	551.43
24.3213	566.71
24.3358	625.09
24.3502	541.12
24.3646	518.46
24.3791	587.97
24.3935	557.99
24.4080	563.26
24.4224	543.60
24.4368	543.49
24.4513	487.25
24.4657	517.51
24.4802	555.09
24.4946	566.58
24.5090	542.63
24.5235	535.56
24.5379	521.57
24.5524	531.51
24.5668	522.59
24.5812	515.56
24.5957	583.20
24.6101	545.90
24.6246	528.66
24.6390	564.24
24.6534	548.49
24.6679	561.06
24.6823	542.20
24.6968	509.22
24.7112	563.49
24.7256	501.77
24.7401	526.36
24.7545	587.28
24.7690	544.25
24.7834	495.54
24.7978	536.92
24.8123	520.72
24.8267	532.60
24.8412	532.69
24.8556	570.36
24.8700	523.58
24.8845	560.11
24.8989	583.02
24.9134	562.48
24.9278	538.08
24.9422	555.44
24.9567	524.50
24.9711	536.63
24.9856	476.85
25.0000	503.01
25.0144	531.18
25.0289	581.88
25.0433	595.97
25.0578	594.95
25.0722	545.40
25.0866	574.37
25.1011	518.33
25.1155	537.85
25.1300	578.10
25.1444	545.61
25.1588	524.94
25.1733	561.40
25.1877	561.32
25.2022	538.10
25.2166	520.80
25.2310	557.31
25.2455	569.70
25.2599	542.53
25.2744	539.34
25.2888	557.66
25.3032	533.12
25.3177	548.52
25.3321	536.63
25.3466	518.27
25.3610	549.35
25.3754	518.02
25.3899	524.26
25.4043	527.67
25.4188	540.16
25.4332	562.03
25.4476	558.17
25.4621	559.11
25.4765	558.62
25.4910	542.79
25.5054	523.46
25.5198	540.07
25.5343	541.26
25.5487	538.68
25.5632	512.66
25.5776	510.94
25.5920	563.94
25.6065	560.84
25.6209	511.87
25.6354	511.38
25.6498	527.57
25.6642	522.87
25.6787	532.81
25.6931	530.59
25.7076	530.66
25.7220	517.42
25.7364	543.78
25.7509	552.55
25.7653	534.28
25.7798	534.58
25.7942	559.54
25.8086	508.00
25.8231	529.94
25.8375	559.78
25.8520	567.85
25.8664	556.26
25.8808	569.03
25.8953	560.27
25.9097	520.88
25.9242	549.38
25.9386	559.92
25.9530	532.87
25.9675	530.57
25.9819	526.83
25.9964	543.63
26.0108	516.75
26.0252	463.73
26.0397	526.34
26.0541	532.49
26.0686	539.31
26.0830	578.94
26.0974	543.49
26.1119	522.13
26.1263	559.93
26.1408	530.51
26.1552	512.56
26.1696	523.62
26.1841	534.60
26.1985	520.84
26.2130	540.56
26.2274	537.13
26.2418	554.21
26.2563	510.40
26.2707	512.43
26.2852	505.28
26.2996	512.82
26.3140	536.43
26.3285	539.61
26.3429	536.81
26.3574	530.30
26.3718	538.74
26.3862	531.39
26.4007	553.63
26.4151	540.45
26.4296	514.02
26.4440	484.08
26.4584	534.13
26.4729	527.81
26.4873	521.57
26.5018	544.94
26.5162	519.60
26.5306	524.18
26.5451	536.05
26.5595	531.75
26.5740	527.79
26.5884	560.98
26.6028	561.09
26.6173	526.84
26.6317	526.86
26.6462	563.23
26.6606	554.68
26.6750	537.66
26.6895	525.31
26.7039	533.53
26.7184	521.85
26.7328	491.42
26.7472	517.28
26.7617	506.00
26.7761	513.60
26.7906	507.02
26.8050	505.74
26.8194	509.51
26.8339	541.98
26.8483	519.63
26.8628	530.47
26.8772	507.70
26.8917	532.49
26.9061	544.08
26.9205	504.48
26.9350	512.82
26.9494	520.22
26.9639	543.54
26.9783	536.88
26.9927	500.35
27.0072	476.86
27.0216	468.65
27.0361	502.61
27.0505	518.10
27.0649	527.16
27.0794	518.16
27.0938	528.87
27.1083	544.41
27.1227	555.87
27.1371	538.99
27.1516	524.24
27.1660	509.53
27.1805	499.79
27.1949	517.13
27.2093	511.50
27.2238	538.17
27.2382	563.17
27.2527	525.32
27.2671	511.47
27.2815	508.09
27.2960	470.42
27.3104	541.88
27.3249	508.16
27.3393	525.74
27.3537	522.17
27.3682	498.36
27.3826	511.12
27.3971	494.93
27.4115	498.00
27.4259	518.83
27.4404	527.03
27.4548	516.82
27.4693	511.92
27.4837	507.89
27.4981	520.33
27.5126	520.01
27.5270	506.51
27.5415	515.94
27.5559	552.74
27.5703	528.37
27.5848	534.70
27.5992	540.28
27.6137	499.34
27.6281	508.54
27.6425	553.21
27.6570	557.64
27.6714	505.94
27.6859	501.38
27.7003	542.02
27.7147	531.94
27.7292	537.49
27.7436	555.00
27.7581	512.04
27.7725	522.41
27.7869	497.78
27.8014	514.56
27.8158	519.55
27.8303	494.82
27.8447	509.34
27.8591	563.19
27.8736	529.42
27.8880	495.67
27.9025	493.04
27.9169	520.41
27.9313	478.07
27.9458	477.01
27.9602	489.72
27.9747	517.91
27.9891	476.75
28.0035	486.59
28.0180	528.57
28.0324	537.29
28.0469	508.00
28.0613	532.05
28.0757	508.17
28.0902	553.77
28.1046	523.38
28.1191	505.07
28.1335	536.32
28.1479	513.81
28.1624	511.59
28.1768	503.96
28.1913	511.10
28.2057	489.60
28.2201	510.77
28.2346	507.17
28.2490	545.39
28.2635	514.47
28.2779	509.40
28.2923	509.24
28.3068	553.23
28.3212	505.96
28.3357	502.09
28.3501	534.77
28.3645	535.56
28.3790	517.79
28.3934	497.41
28.4079	470.64
28.4223	545.01
28.4367	527.83
28.4512	505.55
28.4656	508.70
28.4801	551.70
28.4945	510.85
28.5089	509.54
28.5234	510.29
28.5378	504.14
28.5523	514.08
28.5667	530.08
28.5811	506.06
28.5956	500.46
28.6100	534.45
28.6245	528.81
28.6389	540.29
28.6533	492.73
28.6678	507.65
28.6822	492.42
28.6967	496.04
28.7111	526.93
28.7255	497.79
28.7400	533.16
28.7544	506.67
28.7689	496.26
28.7833	519.50
28.7977	517.59
28.8122	506.67
28.8266	515.25
28.8411	503.53
28.8555	502.26
28.8699	539.45
28.8844	523.09
28.8988	538.30
28.9133	495.81
28.9277	494.88
28.9421	526.97
28.9566	471.59
28.9710	481.80
28.9855	449.63
28.9999	492.09
29.0143	521.88
29.0288	512.57
29.0432	491.63
29.0577	472.09
29.0721	519.14
29.0865	511.55
29.1010	510.61
29.1154	517.99
29.1299	485.84
29.1443	506.32
29.1587	500.16
29.1732	509.24
29.1876	519.99
29.2021	481.71
29.2165	544.35
29.2309	521.44
29.2454	543.18
29.2598	491.36
29.2743	492.17
29.2887	500.45
29.3031	488.04
29.3176	501.94
29.3320	524.04
29.3465	503.08
29.3609	530.15
29.3753	486.38
29.3898	509.72
29.4042	515.61
29.4187	506.55
29.4331	533.74
29.4475	510.05
29.4620	514.59
29.4764	530.21
29.4909	508.86
29.5053	497.04
29.5197	509.75
29.5342	495.99
29.5486	521.35
29.5631	501.47
29.5775	509.38
29.5919	505.59
29.6064	493.78
29.6208	515.58
29.6353	534.18
29.6497	470.43
29.6641	504.39
29.6786	505.95
29.6930	487.20
29.7075	514.70
29.7219	538.36
29.7363	543.50
29.7508	510.54
29.7652	476.86
29.7797	460.81
29.7941	493.74
29.8085	508.02
29.8230	508.61
29.8374	489.90
29.8519	478.94
29.8663	521.17
29.8807	507.25
29.8952	525.12
29.9096	511.46
29.9241	534.98
29.9385	503.63
29.9529	493.58
29.9674	526.08
29.9818	469.21
29.9963	467.26
30.0107	483.49
30.0251	494.50
30.0396	485.59
30.0540	505.46
30.0685	503.29
30.0829	520.56
30.0973	500.75
30.1118	511.25
30.1262	550.58
30.1407	501.03
30.1551	489.92
30.1695	519.08
30.1840	510.53
30.1984	489.66
30.2129	511.25
30.2273	491.22
30.2417	495.74
30.2562	519.50
30.2706	527.33
30.2851	548.14
30.2995	502.53
30.3139	541.52
30.3284	547.11
30.3428	558.65
30.3573	533.07
30.3717	511.77
30.3861	537.64
30.4006	519.20
30.4150	537.60
30.4295	567.45
30.4439	550.18
30.4583	562.87
30.4728	574.27
30.4872	578.13
30.5017	591.02
30.5161	611.00
30.5305	616.73
30.5450	703.91
30.5594	759.71
30.5739	735.42
30.5883	745.99
30.6028	735.54
30.6172	745.01
30.6316	703.96
30.6461	652.90
30.6605	610.29
30.6750	609.15
30.6894	619.75
30.7038	586.30
30.7183	575.33
30.7327	565.42
30.7472	537.66
30.7616	541.37
30.7760	557.76
30.7905	536.24
30.8049	540.88
30.8194	529.06
30.8338	575.95
30.8482	518.55
30.8627	506.10
30.8771	508.19
30.8916	519.61
30.9060	516.81
30.9204	496.00
30.9349	486.54
30.9493	494.73
30.9638	481.18
30.9782	486.91
30.9926	470.12
31.0071	473.21
31.0215	493.23
31.0360	512.32
31.0504	479.97
31.0648	480.38
31.0793	498.27
31.0937	517.04
31.1082	487.61
31.1226	496.55
31.1370	512.07
31.1515	511.92
31.1659	516.31
31.1804	501.09
31.1948	505.50
31.2092	530.21
31.2237	542.67
31.2381	523.73
31.2526	493.89
31.2670	530.90
31.2814	554.79
31.2959	522.61
31.3103	553.85
31.3248	553.15
31.3392	506.83
31.3536	524.78
31.3681	528.76
31.3825	525.88
31.3970	512.83
31.4114	501.76
31.4258	475.50
31.4403	540.44
31.4547	503.37
31.4692	499.08
31.4836	528.96
31.4980	545.65
31.5125	495.85
31.5269	496.02
31.5414	505.68
31.5558	511.58
31.5702	532.65
31.5847	517.00
31.5991	522.69
31.6136	515.41
31.6280	505.31
31.6424	523.58
31.6569	533.49
31.6713	509.62
31.6858	494.49
31.7002	512.30
31.7146	500.82
31.7291	503.42
31.7435	512.46
31.7580	476.89
31.7724	496.02
31.7868	499.81
31.8013	498.15
31.8157	491.71
31.8302	526.96
31.8446	510.35
31.8590	523.06
31.8735	534.81
31.8879	514.41
31.9024	525.39
31.9168	502.00
31.9312	505.54
31.9457	495.41
31.9601	514.02
31.9746	518.41
31.9890	501.18
32.0034	468.41
32.0179	508.79
32.0323	522.05
32.0468	517.99
32.0612	502.15
32.0756	489.65
32.0901	479.64
32.1045	499.71
32.1190	492.26
32.1334	555.53
32.1478	496.97
32.1623	494.33
32.1767	516.42
32.1912	503.28
32.2056	520.81
32.2200	505.82
32.2345	473.10
32.2489	501.51
32.2634	489.42
32.2778	512.62
32.2922	507.91
32.3067	496.36
32.3211	491.06
32.3356	483.48
32.3500	497.51
32.3644	539.17
32.3789	525.08
32.3933	495.74
32.4078	486.89
32.4222	521.90
32.4366	514.68
32.4511	474.18
32.4655	503.67
32.4800	515.55
32.4944	482.91
32.5088	480.56
32.5233	486.00
32.5377	517.78
32.5522	520.76
32.5666	543.11
32.5810	484.77
32.5955	497.69
32.6099	514.48
32.6244	516.36
32.6388	501.59
32.6532	490.73
32.6677	484.83
32.6821	475.72
32.6966	490.39
32.7110	526.22
32.7254	489.46
32.7399	496.41
32.7543	462.82
32.7688	466.01
32.7832	521.02
32.7976	493.53
32.8121	515.43
32.8265	488.09
32.8410	521.75
32.8554	513.57
32.8698	502.88
32.8843	491.58
32.8987	504.28
32.9132	504.32
32.9276	532.98
32.9420	521.47
32.9565	490.39
32.9709	467.15
32.9854	472.52
32.9998	519.28
33.0142	507.15
33.0287	503.02
33.0431	511.97
33.0576	514.25
33.0720	515.47
33.0864	497.39
33.1009	523.78
33.1153	505.52
33.1298	489.65
33.1442	519.49
33.1586	488.14
33.1731	496.45
33.1875	504.79
33.2020	502.16
33.2164	471.43
33.2308	494.08
33.2453	497.78
33.2597	505.54
33.2742	502.25
33.2886	513.02
33.3030	506.14
33.3175	513.68
33.3319	509.29
33.3464	477.26
33.3608	491.55
33.3752	442.34
33.3897	445.79
33.4041	480.77
33.4186	486.09
33.4330	505.75
33.4474	503.33
33.4619	497.07
33.4763	515.39
33.4908	533.18
33.5052	529.21
33.5196	505.27
33.5341	499.04
33.5485	503.00
33.5630	502.02
33.5774	477.48
33.5918	505.32
33.6063	501.74
33.6207	515.25
33.6352	499.84
33.6496	538.87
33.6640	514.98
33.6785	483.44
33.6929	501.02
33.7074	520.57
33.7218	509.49
33.7362	506.81
33.7507	510.09
33.7651	504.23
33.7796	499.25
33.7940	488.40
33.8084	510.89
33.8229	489.55
33.8373	518.54
33.8518	513.90
33.8662	508.65
33.8806	515.60
33.8951	471.66
33.9095	533.32
33.9240	463.88
33.9384	502.80
33.9528	504.42
33.9673	502.86
33.9817	518.64
33.9962	506.37
34.0106	473.12
34.0250	508.26
34.0395	534.16
34.0539	513.07
34.0684	483.49
34.0828	489.59
34.0972	503.41
34.1117	520.68
34.1261	516.77
34.1406	465.49
34.1550	493.08
34.1694	525.43
34.1839	548.77
34.1983	506.27
34.2128	499.98
34.2272	493.18
34.2417	495.14
34.2561	523.25
34.2705	500.56
34.2850	502.60
34.2994	494.50
34.3139	494.42
34.3283	525.82
34.3427	525.81
34.3572	520.27
34.3716	489.63
34.3861	488.32
34.4005	507.32
34.4149	553.70
34.4294	528.12
34.4438	502.70
34.4583	516.42
34.4727	510.67
34.4871	502.04
34.5016	498.03
34.5160	484.00
34.5305	487.19
34.5449	507.08
34.5593	505.24
34.5738	486.21
34.5882	511.48
34.6027	523.27
34.6171	477.01
34.6315	486.25
34.6460	510.38
34.6604	506.27
34.6749	515.99
34.6893	495.72
34.7037	514.20
34.7182	504.43
34.7326	493.16
34.7471	485.28
34.7615	466.44
34.7759	505.38
34.7904	496.86
34.8048	502.02
34.8193	507.03
34.8337	494.84
34.8481	486.12
34.8626	517.20
34.8770	543.17
34.8915	518.02
34.9059	507.72
34.9203	513.36
34.9348	488.30
34.9492	474.89
34.9637	476.07
34.9781	478.02
34.9925	512.52
35.0070	518.17
35.0214	495.98
35.0359	499.77
35.0503	526.14
35.0647	511.41
35.0792	509.79
35.0936	512.88
35.1081	517.92
35.1225	526.38
35.1369	507.10
35.1514	468.40
35.1658	503.75
35.1803	524.25
35.1947	501.27
35.2091	518.82
35.2236	506.59
35.2380	495.84
35.2525	481.34
35.2669	495.85
35.2813	529.11
35.2958	531.16
35.3102	488.85
35.3247	498.78
35.3391	486.81
35.3535	518.57
35.3680	550.88
35.3824	513.39
35.3969	502.42
35.4113	551.54
35.4257	530.51
35.4402	510.71
35.4546	515.57
35.4691	560.37
35.4835	553.38
35.4979	535.13
35.5124	518.48
35.5268	560.13
35.5413	572.35
35.5557	559.80
35.5701	558.02
35.5846	523.36
35.5990	537.32
35.6135	528.84
35.6279	537.45
35.6423	534.15
35.6568	524.48
35.6712	564.79
35.6857	578.26
35.7001	699.23
35.7145	770.53
35.7290	725.39
35.7434	620.76
35.7579	606.51
35.7723	613.89
35.7867	724.59
35.8012	747.67
35.8156	796.01
35.8301	744.52
35.8445	731.58
35.8589	810.34
35.8734	879.75
35.8878	978.06
35.9023	1154.89
35.9167	1194.14
35.9311	1247.93
35.9456	1609.25
35.9600	1936.24
35.9745	2078.14
35.9889	2307.24
36.0033	2673.26
36.0178	2983.00
36.0322	3147.66
36.0467	2683.72
36.0611	2209.16
36.0755	1907.95
36.0900	2100.79
36.1044	2213.62
36.1189	1704.20
36.1333	1283.91
36.1477	1049.20
36.1622	1031.85
36.1766	986.10
36.1911	824.39
36.2055	718.64
36.2199	750.43
36.2344	770.66
36.2488	659.78
36.2633	551.49
36.2777	595.52
36.2921	556.86
36.3066	507.59
36.3210	529.79
36.3355	554.67
36.3499	574.20
36.3643	511.09
36.3788	529.05
36.3932	510.29
36.4077	556.81
36.4221	528.44
36.4365	526.84
36.4510	497.15
36.4654	558.05
36.4799	526.34
36.4943	526.86
36.5087	523.32
36.5232	557.91
36.5376	565.04
36.5521	533.76
36.5665	502.93
36.5809	524.09
36.5954	542.40
36.6098	538.94
36.6243	522.93
36.6387	553.21
36.6531	534.09
36.6676	525.64
36.6820	490.84
36.6965	512.17
36.7109	542.25
36.7253	485.86
36.7398	505.71
36.7542	519.26
36.7687	523.30
36.7831	554.68
36.7975	556.38
36.8120	568.63
36.8264	613.97
36.8409	597.27
36.8553	591.41
36.8697	561.81
36.8842	568.27
36.8986	607.53
36.9131	576.27
36.9275	580.66
36.9419	590.05
36.9564	548.32
36.9708	592.82
36.9853	532.89
36.9997	558.83
37.0141	508.01
37.0286	518.11
37.0430	509.16
37.0575	524.44
37.0719	506.01
37.0863	543.72
37.1008	554.55
37.1152	542.83
37.1297	554.61
37.1441	533.57
37.1585	510.31
37.1730	489.46
37.1874	521.91
37.2019	470.94
37.2163	513.16
37.2307	496.52
37.2452	513.14
37.2596	497.56
37.2741	503.67
37.2885	510.96
37.3029	485.89
37.3174	518.51
37.3318	506.54
37.3463	491.54
37.3607	507.59
37.3751	483.45
37.3896	470.17
37.4040	473.16
37.4185	482.38
37.4329	503.25
37.4473	482.53
37.4618	500.62
37.4762	523.55
37.4907	514.83
37.5051	512.46
37.5195	506.91
37.5340	543.53
37.5484	530.39
37.5629	498.99
37.5773	521.33
37.5917	482.68
37.6062	500.19
37.6206	492.46
37.6351	497.09
37.6495	510.12
37.6639	513.85
37.6784	501.29
37.6928	515.74
37.7073	517.37
37.7217	495.74
37.7361	473.33
37.7506	470.50
37.7650	488.72
37.7795	526.57
37.7939	490.61
37.8083	555.74
37.8228	495.61
37.8372	487.57
37.8517	458.86
37.8661	505.21
37.8805	483.69
37.8950	477.76
37.9094	487.80
37.9239	510.32
37.9383	477.36
37.9528	473.42
37.9672	482.42
37.9816	508.35
37.9961	478.93
38.0105	474.32
38.0250	497.22
38.0394	495.45
38.0538	493.83
38.0683	499.02
38.0827	513.03
38.0972	491.03
38.1116	507.47
38.1260	506.57
38.1405	500.26
38.1549	482.09
38.1694	477.49
38.1838	520.34
38.1982	497.35
38.2127	479.05
38.2271	481.13
38.2416	516.31
38.2560	478.99
38.2704	502.75
38.2849	492.41
38.2993	502.34
38.3138	541.45
38.3282	538.44
38.3426	517.80
38.3571	543.25
38.3715	520.59
38.3860	524.68
38.4004	551.95
38.4148	543.49
38.4293	548.33
38.4437	576.98
38.4582	581.97
38.4726	629.80
38.4870	689.55
38.5015	722.85
38.5159	740.96
38.5304	780.32
38.5448	770.39
38.5592	807.72
38.5737	783.14
38.5881	732.75
38.6026	710.40
38.6170	693.47
38.6314	662.52
38.6459	668.44
38.6603	644.25
38.6748	586.93
38.6892	594.53
38.7036	569.63
38.7181	537.20
38.7325	509.78
38.7470	530.83
38.7614	518.57
38.7758	516.96
38.7903	524.69
38.8047	515.69
38.8192	502.28
38.8336	527.98
38.8480	519.26
38.8625	498.94
38.8769	488.01
38.8914	497.00
38.9058	519.02
38.9202	535.29
38.9347	523.49
38.9491	526.87
38.9636	470.85
38.9780	506.35
38.9924	528.39
39.0069	532.99
39.0213	531.70
39.0358	493.09
39.0502	467.07
39.0646	489.97
39.0791	520.51
39.0935	522.17
39.1080	519.80
39.1224	533.34
39.1368	499.18
39.1513	467.36
39.1657	509.57
39.1802	534.30
39.1946	506.12
39.2090	495.92
39.2235	500.53
39.2379	495.91
39.2524	503.73
39.2668	530.08
39.2812	531.87
39.2957	514.91
39.3101	523.20
39.3246	518.06
39.3390	528.38
39.3534	552.84
39.3679	538.49
39.3823	502.45
39.3968	471.42
39.4112	508.68
39.4256	523.00
39.4401	491.63
39.4545	538.68
39.4690	536.87
39.4834	499.94
39.4978	491.26
39.5123	487.95
39.5267	486.89
39.5412	505.40
39.5556	501.30
39.5700	499.50
39.5845	509.12
39.5989	508.20
39.6134	512.32
39.6278	489.34
39.6422	491.28
39.6567	516.08
39.6711	490.34
39.6856	461.89
39.7000	504.47
39.7144	516.17
39.7289	519.43
39.7433	485.82
39.7578	456.77
39.7722	464.77
39.7866	490.32
39.8011	509.56
39.8155	517.28
39.8300	482.33
39.8444	482.79
39.8588	539.59
39.8733	498.85
39.8877	509.89
39.9022	495.27
39.9166	499.09
39.9310	487.61
39.9455	483.18
39.9599	499.51
39.9744	496.20
39.9888	522.25
40.0032	529.57
40.0177	510.17
40.0321	518.24
40.0466	493.07
40.0610	483.78
40.0754	505.03
40.0899	497.88
40.1043	475.27
40.1188	497.18
40.1332	484.71
40.1476	505.56
40.1621	553.56
40.1765	502.10
40.1910	448.95
40.2054	466.37
40.2198	462.31
40.2343	533.86
40.2487	489.38
40.2632	475.09
40.2776	529.54
40.2920	518.71
40.3065	534.14
40.3209	510.24
40.3354	515.23
40.3498	481.91
40.3642	483.16
40.3787	500.24
40.3931	513.83
40.4076	516.08
40.4220	504.76
40.4364	518.08
40.4509	515.58
40.4653	494.19
40.4798	512.07
40.4942	501.66
40.5086	512.07
40.5231	504.27
40.5375	499.81
40.5520	514.16
40.5664	536.09
40.5808	484.13
40.5953	502.44
40.6097	515.42
40.6242	498.31
40.6386	494.47
40.6530	497.64
40.6675	519.77
40.6819	506.75
40.6964	490.57
40.7108	503.54
40.7252	491.58
40.7397	531.50
40.7541	520.34
40.7686	486.25
40.7830	499.72
40.7974	478.96
40.8119	511.01
40.8263	476.73
40.8408	511.94
40.8552	515.28
40.8696	537.62
40.8841	497.49
40.8985	513.44
40.9130	488.95
40.9274	465.76
40.9418	499.51
40.9563	524.40
40.9707	465.04
40.9852	488.01
40.9996	484.64
41.0140	485.17
41.0285	501.85
41.0429	522.38
41.0574	522.45
41.0718	473.16
41.0862	515.96
41.1007	494.47
41.1151	483.06
41.1296	515.21
41.1440	503.83
41.1584	515.39
41.1729	514.67
41.1873	539.23
41.2018	480.61
41.2162	508.30
41.2306	507.61
41.2451	490.07
41.2595	499.31
41.2740	497.92
41.2884	485.40
41.3028	520.16
41.3173	549.14
41.3317	523.80
41.3462	490.40
41.3606	532.97
41.3750	488.58
41.3895	472.98
41.4039	467.03
41.4184	505.43
41.4328	504.14
41.4472	506.17
41.4617	525.55
41.4761	505.81
41.4906	494.87
41.5050	448.47
41.5194	493.55
41.5339	478.06
41.5483	488.76
41.5628	515.40
41.5772	488.11
41.5916	496.88
41.6061	485.20
41.6205	489.73
41.6350	511.97
41.6494	521.73
41.6639	527.99
41.6783	508.22
41.6927	473.50
41.7072	481.81
41.7216	510.18
41.7361	507.16
41.7505	523.95
41.7649	495.10
41.7794	520.30
41.7938	537.60
41.8083	510.81
41.8227	526.60
41.8371	513.17
41.8516	506.46
41.8660	500.36
41.8805	527.45
41.8949	546.38
41.9093	551.85
41.9238	504.85
41.9382	526.33
41.9527	535.30
41.9671	559.87
41.9815	546.79
41.9960	579.75
42.0104	565.46
42.0249	556.91
42.0393	576.97
42.0537	560.66
42.0682	602.77
42.0826	585.58
42.0971	606.00
42.1115	602.51
42.1259	588.08
42.1404	598.40
42.1548	622.95
42.1693	641.96
42.1837	691.11
42.1981	757.48
42.2126	839.60
42.2270	947.95
42.2415	1046.37
42.2559	1162.82
42.2703	1328.06
42.2848	1501.21
42.2992	1593.18
42.3137	1674.18
42.3281	1590.59
42.3425	1549.61
42.3570	1439.18
42.3714	1421.85
42.3859	1417.09
42.4003	1371.52
42.4147	1301.28
42.4292	1258.82
42.4436	1096.56
42.4581	998.13
42.4725	937.09
42.4869	800.77
42.5014	752.23
42.5158	712.23
42.5303	662.05
42.5447	638.54
42.5591	594.41
42.5736	578.31
42.5880	583.86
42.6025	577.49
42.6169	527.38
42.6313	556.25
42.6458	540.62
42.6602	532.53
42.6747	528.67
42.6891	505.35
42.7035	548.93
42.7180	549.65
42.7324	543.53
42.7469	549.90
42.7613	499.78
42.7757	517.96
42.7902	531.72
42.8046	526.04
42.8191	532.68
42.8335	538.84
42.8479	521.06
42.8624	529.39
42.8768	530.86
42.8913	480.71
42.9057	531.53
42.9201	539.84
42.9346	489.34
42.9490	515.80
42.9635	533.99
42.9779	523.73
42.9923	510.44
43.0068	513.56
43.0212	507.81
43.0357	515.32
43.0501	513.46
43.0645	499.37
43.0790	484.92
43.0934	528.24
43.1079	515.15
43.1223	528.74
43.1367	498.14
43.1512	490.16
43.1656	547.68
43.1801	519.87
43.1945	531.00
43.2089	527.55
43.2234	525.27
43.2378	472.74
43.2523	494.14
43.2667	525.20
43.2811	541.43
43.2956	514.84
43.3100	519.05
43.3245	528.21
43.3389	536.81
43.3533	513.88
43.3678	480.68
43.3822	521.92
43.3967	565.23
43.4111	478.41
43.4255	485.53
43.4400	487.36
43.4544	512.35
43.4689	500.07
43.4833	523.00
43.4977	505.07
43.5122	526.75
43.5266	474.14
43.5411	517.67
43.5555	513.23
43.5699	534.40
43.5844	522.37
43.5988	546.66
43.6133	545.31
43.6277	537.34
43.6421	538.78
43.6566	557.74
43.6710	552.75
43.6855	552.73
43.6999	569.94
43.7143	632.77
43.7288	663.08
43.7432	651.88
43.7577	683.27
43.7721	665.86
43.7865	667.29
43.8010	640.96
43.8154	593.56
43.8299	619.47
43.8443	621.87
43.8587	628.46
43.8732	629.92
43.8876	574.34
43.9021	571.52
43.9165	572.45
43.9309	517.16
43.9454	588.00
43.9598	536.59
43.9743	482.05
43.9887	491.64
44.0031	515.55
44.0176	514.76
44.0320	518.41
44.0465	488.74
44.0609	479.17
44.0753	495.58
44.0898	575.85
44.1042	504.71
44.1187	523.30
44.1331	527.05
44.1475	504.74
44.1620	549.44
44.1764	530.69
44.1909	520.03
44.2053	515.82
44.2197	498.63
44.2342	517.22
44.2486	559.40
44.2631	516.20
44.2775	526.18
44.2919	553.54
44.3064	525.22
44.3208	524.34
44.3353	557.45
44.3497	530.36
44.3641	544.13
44.3786	537.68
44.3930	528.10
44.4075	515.11
44.4219	553.56
44.4363	571.69
44.4508	549.83
44.4652	537.82
44.4797	536.35
44.4941	560.63
44.5085	580.17
44.5230	579.03
44.5374	557.99
44.5519	574.12
44.5663	550.31
44.5807	545.37
44.5952	540.72
44.6096	560.92
44.6241	565.16
44.6385	586.93
44.6529	584.12
44.6674	618.66
44.6818	602.99
44.6963	563.90
44.7107	630.60
44.7251	664.55
44.7396	696.70
44.7540	772.26
44.7685	804.99
44.7829	853.50
44.7973	833.56
44.8118	891.10
44.8262	817.53
44.8407	783.52
44.8551	735.43
44.8695	739.49
44.8840	720.69
44.8984	766.62
44.9129	703.83
44.9273	638.03
44.9417	666.40
44.9562	584.25
44.9706	538.13
44.9851	559.10
44.9995	537.83
45.0139	501.44
45.0284	553.72
45.0428	504.51
45.0573	516.99
45.0717	569.92
45.0861	566.11
45.1006	498.51
45.1150	473.11
45.1295	553.10
45.1439	500.67
45.1583	502.11
45.1728	535.42
45.1872	521.19
45.2017	500.93
45.2161	521.82
45.2305	531.93
45.2450	497.77
45.2594	475.60
45.2739	489.89
45.2883	476.04
45.3028	493.01
45.3172	510.67
45.3316	494.59
45.3461	493.19
45.3605	486.41
45.3750	512.30
45.3894	489.14
45.4038	513.67
45.4183	514.24
45.4327	516.51
45.4472	480.32
45.4616	483.96
45.4760	509.92
45.4905	506.57
45.5049	496.01
45.5194	515.69
45.5338	494.56
45.5482	508.92
45.5627	494.54
45.5771	482.03
45.5916	503.19
45.6060	509.29
45.6204	533.12
45.6349	483.37
45.6493	505.52
45.6638	530.87
45.6782	510.74
45.6926	529.39
45.7071	534.81
45.7215	536.62
45.7360	517.70
45.7504	515.25
45.7648	513.94
45.7793	518.99
45.7937	511.30
45.8082	493.85
45.8226	493.21
45.8370	500.52
45.8515	495.24
45.8659	496.01
45.8804	501.39
45.8948	497.02
45.9092	520.56
45.9237	464.58
45.9381	511.29
45.9526	507.39
45.9670	490.39
45.9814	507.06
45.9959	464.34
46.0103	435.80
46.0248	467.28
46.0392	486.37
46.0536	478.98
46.0681	498.04
46.0825	493.34
46.0970	512.53
46.1114	481.46
46.1258	500.85
46.1403	500.68
46.1547	505.30
46.1692	526.04
46.1836	527.68
46.1980	491.93
46.2125	509.14
46.2269	511.20
46.2414	518.26
46.2558	489.28
46.2702	495.94
46.2847	482.92
46.2991	474.13
46.3136	487.59
46.3280	501.12
46.3424	500.97
46.3569	480.68
46.3713	466.30
46.3858	480.23
46.4002	476.93
46.4146	503.71
46.4291	581.28
46.4435	506.57
46.4580	473.88
46.4724	500.85
46.4868	497.98
46.5013	511.46
46.5157	492.84
46.5302	502.86
46.5446	514.97
46.5590	526.37
46.5735	500.67
46.5879	482.70
46.6024	505.01
46.6168	499.96
46.6312	519.97
46.6457	517.96
46.6601	503.09
46.6746	480.53
46.6890	472.31
46.7034	497.34
46.7179	491.29
46.7323	479.40
46.7468	508.44
46.7612	476.94
46.7756	512.54
46.7901	517.57
46.8045	493.83
46.8190	524.39
46.8334	533.48
46.8478	499.80
46.8623	515.44
46.8767	531.73
46.8912	526.92
46.9056	528.75
46.9200	532.42
46.9345	551.32
46.9489	524.70
46.9634	498.85
46.9778	487.31
46.9922	451.21
47.0067	482.98
47.0211	515.17
47.0356	505.81
47.0500	510.02
47.0644	502.47
47.0789	477.65
47.0933	511.79
47.1078	489.66
47.1222	505.66
47.1366	505.02
47.1511	509.98
47.1655	500.65
47.1800	504.90
47.1944	505.98
47.2088	524.29
47.2233	499.44
47.2377	525.03
47.2522	524.90
47.2666	508.20
47.2810	490.03
47.2955	490.83
47.3099	494.27
47.3244	499.18
47.3388	507.37
47.3532	507.29
47.3677	489.26
47.3821	508.93
47.3966	510.53
47.4110	500.11
47.4254	504.52
47.4399	506.28
47.4543	494.17
47.4688	517.22
47.4832	489.29
47.4976	504.38
47.5121	497.38
47.5265	527.57
47.5410	488.59
47.5554	515.72
47.5698	474.58
47.5843	488.59
47.5987	517.37
47.6132	486.33
47.6276	494.84
47.6420	506.50
47.6565	510.14
47.6709	478.37
47.6854	488.53
47.6998	512.49
47.7142	493.61
47.7287	482.96
47.7431	488.66
47.7576	507.67
47.7720	530.19
47.7864	531.57
47.8009	502.18
47.8153	487.25
47.8298	499.77
47.8442	493.80
47.8586	500.03
47.8731	512.38
47.8875	499.26
47.9020	506.98
47.9164	492.08
47.9308	502.93
47.9453	518.66
47.9597	523.61
47.9742	463.89
47.9886	487.20
48.0030	496.58
48.0175	501.99
48.0319	501.81
48.0464	511.42
48.0608	508.82
48.0752	502.40
48.0897	512.49
48.1041	528.59
48.1186	484.74
48.1330	536.62
48.1474	536.73
48.1619	523.71
48.1763	515.07
48.1908	519.28
48.2052	493.58
48.2196	506.43
48.2341	491.72
48.2485	520.81
48.2630	527.14
48.2774	528.27
48.2918	536.71
48.3063	517.32
48.3207	492.55
48.3352	501.31
48.3496	504.89
48.3640	514.76
48.3785	501.33
48.3929	497.85
48.4074	485.66
48.4218	509.38
48.4362	493.33
48.4507	495.90
48.4651	544.56
48.4796	523.49
48.4940	488.56
48.5084	516.49
48.5229	491.38
48.5373	494.40
48.5518	499.96
48.5662	509.81
48.5806	479.66
48.5951	538.91
48.6095	525.88
48.6240	509.19
48.6384	531.23
48.6528	520.38
48.6673	539.67
48.6817	503.30
48.6962	531.49
48.7106	547.44
48.7250	532.02
48.7395	524.83
48.7539	550.18
48.7684	551.79
48.7828	554.32
48.7972	553.70
48.8117	544.63
48.8261	532.77
48.8406	518.13
48.8550	535.33
48.8694	521.42
48.8839	537.78
48.8983	562.99
48.9128	552.58
48.9272	573.85
48.9416	595.67
48.9561	577.90
48.9705	559.50
48.9850	597.13
48.9994	588.74
49.0139	581.39
49.0283	614.36
49.0427	617.91
49.0572	617.97
49.0716	617.67
49.0861	646.54
49.1005	707.10
49.1149	733.29
49.1294	736.96
49.1438	767.03
49.1583	800.88
49.1727	876.57
49.1871	935.35
49.2016	956.57
49.2160	1011.53
49.2305	1148.32
49.2449	1268.65
49.2593	1264.16
49.2738	1440.32
49.2882	1537.72
49.3027	1569.97
49.3171	1599.55
49.3315	1732.94
49.3460	1839.99
49.3604	1884.16
49.3749	1872.38
49.3893	1763.69
49.4037	1764.65
49.4182	1816.09
49.4326	1788.07
49.4471	1683.35
49.4615	1681.04
49.4759	1631.55
49.4904	1497.31
49.5048	1303.84
49.5193	1287.99
49.5337	1267.81
49.5481	1201.12
49.5626	1109.52
49.5770	1052.95
49.5915	975.69
49.6059	936.49
49.6203	828.10
49.6348	813.85
49.6492	828.21
49.6637	749.22
49.6781	723.14
49.6925	671.76
49.7070	674.76
49.7214	661.32
49.7359	628.67
49.7503	614.97
49.7647	582.13
49.7792	572.91
49.7936	583.85
49.8081	607.05
49.8225	564.84
49.8369	551.10
49.8514	550.44
49.8658	552.78
49.8803	555.88
49.8947	535.20
49.9091	566.64
49.9236	558.31
49.9380	572.29
49.9525	513.53
49.9669	507.96
49.9813	479.89
49.9958	503.88
50.0102	506.76
50.0247	514.69
50.0391	545.83
50.0535	540.06
50.0680	535.93
50.0824	517.63
50.0969	535.22
50.1113	535.39
50.1257	514.18
50.1402	538.19
50.1546	534.26
50.1691	542.12
50.1835	513.38
50.1979	513.83
50.2124	517.54
50.2268	513.11
50.2413	520.11
50.2557	516.05
50.2701	487.53
50.2846	523.60
50.2990	516.03
50.3135	481.78
50.3279	507.24
50.3423	530.88
50.3568	504.00
50.3712	545.56
50.3857	499.43
50.4001	479.63
50.4145	495.17
50.4290	549.07
50.4434	482.09
50.4579	523.38
50.4723	528.62
50.4867	511.22
50.5012	499.85
50.5156	481.31
50.5301	509.11
50.5445	531.02
50.5589	539.49
50.5734	516.77
50.5878	509.76
50.6023	541.62
50.6167	497.33
50.6311	475.22
50.6456	505.71
50.6600	486.62
50.6745	488.56
50.6889	541.03
50.7033	534.18
50.7178	497.02
50.7322	489.31
50.7467	488.08
50.7611	501.79
50.7755	530.42
50.7900	527.26
50.8044	506.79
50.8189	534.84
50.8333	512.55
50.8477	535.80
50.8622	511.66
50.8766	500.50
50.8911	494.53
50.9055	518.42
50.9199	516.20
50.9344	498.32
50.9488	515.46
50.9633	490.19
50.9777	515.75
50.9921	535.57
51.0066	504.65
51.0210	483.66
51.0355	501.19
51.0499	493.17
51.0643	524.81
51.0788	518.85
51.0932	532.15
51.1077	527.16
51.1221	527.03
51.1365	519.11
51.1510	525.25
51.1654	492.18
51.1799	527.32
51.1943	486.23
51.2087	485.87
51.2232	486.95
51.2376	493.24
51.2521	512.81
51.2665	503.51
51.2809	540.65
51.2954	514.59
51.3098	549.46
51.3243	525.52
51.3387	524.78
51.3531	529.20
51.3676	537.93
51.3820	471.15
51.3965	507.12
51.4109	508.58
51.4253	537.55
51.4398	502.75
51.4542	473.01
51.4687	531.87
51.4831	523.15
51.4975	517.99
51.5120	549.74
51.5264	506.51
51.5409	496.74
51.5553	485.44
51.5697	526.48
51.5842	479.39
51.5986	495.09
51.6131	512.89
51.6275	521.61
51.6419	515.24
51.6564	502.89
51.6708	511.23
51.6853	472.72
51.6997	510.09
51.7141	491.02
51.7286	491.20
51.7430	492.85
51.7575	503.22
51.7719	528.77
51.7863	496.44
51.8008	475.16
51.8152	490.54
51.8297	501.91
51.8441	525.56
51.8585	531.55
51.8730	483.27
51.8874	487.11
51.9019	536.47
51.9163	515.66
51.9307	500.42
51.9452	511.53
51.9596	481.55
51.9741	541.51
51.9885	550.02
52.0029	481.03
52.0174	523.13
52.0318	485.13
52.0463	531.15
52.0607	476.11
52.0751	497.55
52.0896	533.87
52.1040	492.25
52.1185	544.16
52.1329	528.55
52.1473	472.09
52.1618	521.37
52.1762	496.31
52.1907	486.87
52.2051	487.57
52.2195	520.68
52.2340	479.46
52.2484	471.56
52.2629	518.88
52.2773	544.76
52.2917	540.62
52.3062	506.18
52.3206	528.47
52.3351	524.39
52.3495	492.39
52.3639	515.61
52.3784	509.39
52.3928	504.46
52.4073	461.45
52.4217	547.25
52.4361	548.85
52.4506	486.94
52.4650	549.34
52.4795	547.38
52.4939	546.60
52.5083	542.96
52.5228	503.57
52.5372	489.84
52.5517	528.07
52.5661	499.98
52.5805	542.37
52.5950	546.32
52.6094	484.10
52.6239	506.59
52.6383	523.74
52.6527	516.37
52.6672	479.28
52.6816	510.28
52.6961	538.98
52.7105	549.70
52.7250	521.88
52.7394	522.13
52.7538	519.34
52.7683	510.13
52.7827	542.11
52.7972	512.68
52.8116	489.24
52.8260	490.04
52.8405	504.29
52.8549	507.30
52.8694	495.00
52.8838	495.46
52.8982	524.67
52.9127	584.67
52.9271	541.26
52.9416	497.42
52.9560	507.80
52.9704	505.56
52.9849	521.85
52.9993	530.57
53.0138	539.13
53.0282	520.48
53.0426	477.64
53.0571	498.58
53.0715	570.24
53.0860	540.61
53.1004	552.59
53.1148	504.13
53.1293	555.08
53.1437	499.57
53.1582	507.30
53.1726	518.32
53.1870	503.51
53.2015	494.37
53.2159	490.00
53.2304	523.74
53.2448	531.28
53.2592	503.29
53.2737	514.37
53.2881	539.89
53.3026	528.27
53.3170	493.77
53.3314	502.14
53.3459	515.16
53.3603	512.85
53.3748	539.46
53.3892	517.35
53.4036	492.30
53.4181	498.09
53.4325	494.15
53.4470	508.20
53.4614	500.69
53.4758	532.98
53.4903	518.48
53.5047	515.78
53.5192	530.32
53.5336	517.09
53.5480	465.39
53.5625	533.53
53.5769	491.62
53.5914	521.28
53.6058	530.10
53.6202	507.13
53.6347	518.00
53.6491	513.44
53.6636	494.01
53.6780	479.82
53.6924	473.83
53.7069	494.53
53.7213	535.12
53.7358	539.17
53.7502	506.46
53.7646	484.51
53.7791	514.76
53.7935	514.22
53.8080	541.47
53.8224	514.46
53.8368	519.80
53.8513	516.06
53.8657	537.13
53.8802	510.07
53.8946	498.68
53.9090	522.40
53.9235	513.68
53.9379	502.34
53.9524	500.82
53.9668	506.29
53.9812	564.82
53.9957	501.92
54.0101	531.04
54.0246	565.94
54.0390	509.12
54.0534	533.28
54.0679	557.89
54.0823	517.87
54.0968	524.39
54.1112	542.80
54.1256	523.53
54.1401	514.18
54.1545	525.22
54.1690	545.10
54.1834	550.77
54.1978	582.35
54.2123	589.26
54.2267	581.02
54.2412	581.46
54.2556	621.28
54.2700	624.54
54.2845	629.05
54.2989	596.64
54.3134	625.39
54.3278	624.53
54.3422	627.98
54.3567	619.37
54.3711	586.21
54.3856	586.09
54.4000	597.77
54.4144	576.51
54.4289	589.41
54.4433	596.54
54.4578	574.65
54.4722	567.48
54.4866	556.49
54.5011	574.00
54.5155	546.76
54.5300	527.00
54.5444	544.03
54.5588	537.88
54.5733	505.50
54.5877	518.17
54.6022	522.59
54.6166	529.24
54.6310	550.58
54.6455	514.78
54.6599	534.65
54.6744	547.52
54.6888	514.72
54.7032	495.12
54.7177	494.06
54.7321	506.21
54.7466	516.88
54.7610	539.59
54.7754	526.47
54.7899	487.72
54.8043	471.86
54.8188	503.74
54.8332	519.21
54.8476	549.98
54.8621	578.26
54.8765	520.05
54.8910	517.68
54.9054	522.99
54.9198	485.90
54.9343	485.61
54.9487	524.34
54.9632	573.99
54.9776	542.23
54.9920	507.75
55.0065	514.34
55.0209	502.28
55.0354	497.29
55.0498	528.87
55.0642	535.07
55.0787	530.42
55.0931	529.64
55.1076	513.82
55.1220	541.42
55.1364	535.80
55.1509	495.12
55.1653	524.93
55.1798	531.62
55.1942	506.45
55.2086	531.06
55.2231	542.58
55.2375	472.77
55.2520	513.12
55.2664	525.27
55.2808	490.60
55.2953	501.78
55.3097	530.56
55.3242	582.09
55.3386	546.21
55.3530	544.36
55.3675	518.82
55.3819	496.38
55.3964	510.46
55.4108	508.41
55.4252	524.10
55.4397	494.26
55.4541	522.31
55.4686	534.43
55.4830	503.25
55.4974	490.91
55.5119	513.17
55.5263	531.07
55.5408	506.42
55.5552	518.36
55.5696	491.04
55.5841	524.58
55.5985	556.95
55.6130	535.71
55.6274	537.40
55.6418	504.58
55.6563	521.10
55.6707	547.57
55.6852	517.57
55.6996	510.72
55.7140	553.91
55.7285	513.30
55.7429	493.46
55.7574	513.69
55.7718	508.96
55.7862	506.09
55.8007	495.05
55.8151	539.45
55.8296	530.49
55.8440	485.14
55.8584	536.79
55.8729	526.06
55.8873	520.29
55.9018	507.70
55.9162	532.50
55.9306	494.80
55.9451	483.75
55.9595	515.50
55.9740	501.55
55.9884	508.00
56.0028	546.03
56.0173	507.53
56.0317	505.45
56.0462	526.03
56.0606	523.94
56.0750	499.70
56.0895	540.09
56.1039	511.67
56.1184	567.20
56.1328	528.66
56.1472	489.31
56.1617	500.61
56.1761	504.94
56.1906	501.13
56.2050	509.86
56.2194	509.39
56.2339	533.17
56.2483	559.38
56.2628	494.40
56.2772	501.54
56.2916	554.39
56.3061	513.43
56.3205	500.76
56.3350	532.37
56.3494	541.42
56.3639	534.60
56.3783	495.27
56.3927	477.94
56.4072	495.47
56.4216	513.80
56.4361	510.46
56.4505	508.70
56.4649	514.28
56.4794	530.50
56.4938	500.33
56.5083	474.91
56.5227	507.37
56.5371	538.42
56.5516	521.29
56.5660	488.76
56.5805	532.36
56.5949	521.99
56.6093	513.43
56.6238	509.22
56.6382	500.14
56.6527	528.14
56.6671	515.38
56.6815	507.20
56.6960	511.46
56.7104	559.26
56.7249	513.38
56.7393	540.11
56.7537	513.68
56.7682	511.64
56.7826	496.04
56.7971	485.17
56.8115	515.33
56.8259	558.51
56.8404	549.77
56.8548	537.47
56.8693	516.12
56.8837	504.86
56.8981	535.17
56.9126	480.07
56.9270	512.14
56.9415	509.80
56.9559	468.86
56.9703	531.54
56.9848	514.44
56.9992	546.68
57.0137	526.58
57.0281	557.11
57.0425	527.81
57.0570	542.43
57.0714	548.04
57.0859	511.13
57.1003	523.28
57.1147	512.45
57.1292	550.79
57.1436	516.28
57.1581	559.49
57.1725	515.06
57.1869	534.03
57.2014	528.56
57.2158	552.62
57.2303	533.51
57.2447	505.00
57.2591	512.20
57.2736	524.35
57.2880	510.79
57.3025	501.86
57.3169	501.25
57.3313	518.32
57.3458	519.57
57.3602	533.00
57.3747	514.31
57.3891	506.10
57.4035	483.45
57.4180	525.44
57.4324	526.29
57.4469	518.85
57.4613	544.75
57.4757	525.34
57.4902	527.87
57.5046	475.86
57.5191	501.69
57.5335	519.44
57.5479	543.46
57.5624	559.58
57.5768	557.60
57.5913	533.94
57.6057	547.47
57.6201	542.33
57.6346	531.14
57.6490	521.41
57.6635	519.91
57.6779	555.67
57.6923	537.31
57.7068	547.66
57.7212	550.49
57.7357	556.84
57.7501	562.23
57.7645	543.23
57.7790	600.55
57.7934	616.29
57.8079	641.54
57.8223	701.49
57.8367	705.75
57.8512	732.72
57.8656	763.95
57.8801	796.00
57.8945	772.74
57.9089	757.26
57.9234	700.10
57.9378	707.34
57.9523	644.07
57.9667	647.59
57.9811	642.90
57.9956	691.33
58.0100	694.74
58.0245	708.51
58.0389	634.57
58.0533	636.49
58.0678	648.49
58.0822	592.96
58.0967	589.66
58.1111	565.90
58.1255	562.36
58.1400	576.36
58.1544	534.19
58.1689	547.36
58.1833	556.17
58.1977	558.96
58.2122	587.21
58.2266	545.93
58.2411	558.75
58.2555	561.25
58.2699	540.09
58.2844	526.38
58.2988	535.40
58.3133	512.24
58.3277	544.44
58.3421	547.11
58.3566	560.24
58.3710	540.76
58.3855	522.83
58.3999	530.45
58.4143	538.60
58.4288	580.60
58.4432	533.86
58.4577	550.66
58.4721	547.55
58.4865	531.07
58.5010	554.70
58.5154	564.41
58.5299	560.68
58.5443	522.82
58.5587	541.91
58.5732	508.96
58.5876	500.73
58.6021	500.07
58.6165	537.22
58.6309	572.93
58.6454	548.52
58.6598	500.63
58.6743	527.90
58.6887	534.77
58.7031	558.04
58.7176	531.91
58.7320	510.70
58.7465	526.51
58.7609	510.21
58.7753	550.93
58.7898	539.98
58.8042	538.06
58.8187	524.07
58.8331	529.63
58.8475	519.31
58.8620	545.86
58.8764	536.37
58.8909	537.06
58.9053	552.36
58.9197	540.32
58.9342	535.89
58.9486	492.17
58.9631	505.80
58.9775	510.78
58.9919	503.27
59.0064	531.57
59.0208	545.67
59.0353	530.33
59.0497	512.10
59.0641	514.51
59.0786	539.14
59.0930	547.66
59.1075	539.01
59.1219	553.13
59.1363	570.99
59.1508	554.41
59.1652	557.29
59.1797	549.07
59.1941	522.41
59.2085	532.77
59.2230	548.76
59.2374	550.74
59.2519	600.29
59.2663	514.38
59.2807	559.06
59.2952	567.73
59.3096	565.83
59.3241	530.15
59.3385	583.81
59.3529	579.42
59.3674	522.74
59.3818	557.78
59.3963	576.50
59.4107	563.34
59.4251	561.72
59.4396	517.01
59.4540	522.67
59.4685	544.56
59.4829	575.12
59.4973	567.02
59.5118	530.04
59.5262	534.46
59.5407	529.86
59.5551	547.93
59.5695	552.35
59.5840	528.93
59.5984	533.49
59.6129	540.80
59.6273	522.06
59.6417	528.06
59.6562	542.84
59.6706	559.31
59.6851	541.21
59.6995	544.34
59.7139	527.12
59.7284	518.87
59.7428	488.23
59.7573	537.14
59.7717	547.97
59.7861	517.00
59.8006	524.93
59.8150	542.37
59.8295	561.58
59.8439	541.16
59.8583	579.70
59.8728	552.58
59.8872	516.53
59.9017	569.04
59.9161	592.06
59.9305	514.87
59.9450	540.83
59.9594	518.62
59.9739	566.68
59.9883	557.82
60.0027	513.65
60.0172	539.25
60.0316	549.16
60.0461	517.39
60.0605	573.70
60.0750	514.24
60.0894	540.64
60.1038	511.97
60.1183	559.74
60.1327	574.52
60.1472	537.23
60.1616	551.19
60.1760	550.33
60.1905	561.07
60.2049	533.44
60.2194	547.61
60.2338	523.72
60.2482	556.69
60.2627	526.67
60.2771	548.28
60.2916	554.84
60.3060	530.77
60.3204	529.36
60.3349	521.38
60.3493	509.39
60.3638	518.75
60.3782	535.75
60.3926	524.85
60.4071	511.75
60.4215	556.68
60.4360	561.60
60.4504	548.56
60.4648	552.21
60.4793	559.21
60.4937	512.90
60.5082	488.37
60.5226	533.49
60.5370	547.52
60.5515	543.53
60.5659	518.94
60.5804	532.13
60.5948	527.22
60.6092	529.72
60.6237	532.80
60.6381	552.05
60.6526	562.96
60.6670	549.13
60.6814	542.74
60.6959	519.07
60.7103	557.55
60.7248	537.68
60.7392	538.82
60.7536	505.93
60.7681	559.78
60.7825	488.86
60.7970	547.84
60.8114	535.39
60.8258	556.80
60.8403	532.23
60.8547	545.80
60.8692	539.92
60.8836	500.07
60.8980	553.77
60.9125	565.56
60.9269	520.00
60.9414	511.35
60.9558	517.91
60.9702	540.00
60.9847	551.14
60.9991	546.40
61.0136	528.55
61.0280	514.72
61.0424	572.02
61.0569	540.01
61.0713	549.64
61.0858	560.89
61.1002	569.35
61.1146	558.75
61.1291	553.29
61.1435	498.38
61.1580	531.68
61.1724	531.24
61.1868	528.81
61.2013	532.52
61.2157	581.75
61.2302	543.21
61.2446	529.08
61.2590	527.12
61.2735	565.82
61.2879	549.58
61.3024	509.93
61.3168	517.80
61.3312	546.99
61.3457	539.99
61.3601	563.17
61.3746	528.16
61.3890	542.55
61.4034	525.56
61.4179	540.07
61.4323	567.10
61.4468	513.11
61.4612	531.63
61.4756	540.46
61.4901	559.89
61.5045	544.86
61.5190	553.21
61.5334	512.17
61.5478	512.34
61.5623	525.01
61.5767	524.75
61.5912	536.69
61.6056	579.45
61.6200	529.49
61.6345	520.96
61.6489	517.19
61.6634	528.06
61.6778	542.03
61.6922	563.29
61.7067	582.42
61.7211	583.51
61.7356	550.60
61.7500	567.27
61.7644	564.90
61.7789	545.47
61.7933	531.37
61.8078	524.62
61.8222	515.23
61.8366	551.67
61.8511	539.22
61.8655	559.46
61.8800	538.80
61.8944	540.26
61.9088	543.42
61.9233	553.40
61.9377	553.86
61.9522	540.00
61.9666	535.94
61.9810	515.81
61.9955	530.45
62.0099	556.83
62.0244	570.12
62.0388	543.02
62.0532	525.04
62.0677	570.12
62.0821	555.55
62.0966	525.99
62.1110	541.02
62.1254	572.24
62.1399	540.98
62.1543	559.41
62.1688	569.82
62.1832	555.62
62.1976	539.37
62.2121	519.56
62.2265	532.30
62.2410	558.31
62.2554	573.20
62.2698	567.90
62.2843	567.82
62.2987	534.87
62.3132	530.65
62.3276	552.90
62.3420	555.51
62.3565	570.89
62.3709	539.74
62.3854	548.98
62.3998	551.61
62.4142	542.30
62.4287	550.99
62.4431	532.11
62.4576	529.90
62.4720	585.51
62.4864	572.05
62.5009	558.62
62.5153	539.99
62.5298	526.52
62.5442	530.82
62.5586	565.80
62.5731	571.17
62.5875	575.63
62.6020	556.40
62.6164	552.68
62.6308	575.14
62.6453	567.58
62.6597	572.42
62.6742	526.25
62.6886	543.39
62.7030	560.17
62.7175	553.62
62.7319	566.22
62.7464	585.63
62.7608	571.64
62.7752	568.86
62.7897	532.04
62.8041	545.33
62.8186	562.66
62.8330	538.12
62.8474	587.92
62.8619	572.54
62.8763	559.87
62.8908	565.87
62.9052	588.03
62.9196	553.89
62.9341	550.11
62.9485	548.77
62.9630	542.76
62.9774	573.35
62.9918	595.31
63.0063	557.38
63.0207	549.20
63.0352	558.48
63.0496	573.58
63.0640	590.70
63.0785	582.15
63.0929	576.85
63.1074	557.70
63.1218	582.32
63.1362	570.81
63.1507	565.15
63.1651	589.15
63.1796	558.94
63.1940	565.17
63.2084	570.06
63.2229	600.98
63.2373	593.78
63.2518	583.66
63.2662	590.65
63.2806	581.89
63.2951	592.57
63.3095	631.11
63.3240	638.49
63.3384	627.32
63.3528	621.71
63.3673	610.45
63.3817	649.98
63.3962	618.94
63.4106	573.58
63.4250	688.51
63.4395	653.74
63.4539	633.76
63.4684	675.16
63.4828	725.36
63.4972	733.16
63.5117	787.83
63.5261	835.25
63.5406	901.43
63.5550	961.06
63.5694	970.02
63.5839	982.96
63.5983	921.15
63.6128	874.81
63.6272	815.18
63.6416	800.73
63.6561	753.43
63.6705	797.21
63.6850	760.23
63.6994	769.21
63.7138	854.66
63.7283	826.64
63.7427	819.84
63.7572	770.30
63.7716	766.21
63.7861	768.95
63.8005	777.53
63.8149	728.12
63.8294	689.04
63.8438	671.88
63.8583	678.23
63.8727	655.51
63.8871	653.32
63.9016	680.03
63.9160	618.81
63.9305	613.04
63.9449	610.42
63.9593	558.17
63.9738	625.65
63.9882	600.27
64.0027	566.62
64.0171	561.11
64.0315	607.65
64.0460	613.96
64.0604	592.23
64.0749	592.40
64.0893	593.98
64.1037	614.91
64.1182	615.66
64.1326	608.63
64.1471	600.99
64.1615	592.00
64.1759	620.27
64.1904	608.88
64.2048	598.15
64.2193	610.15
64.2337	594.79
64.2481	569.11
64.2626	598.16
64.2770	617.38
64.2915	595.71
64.3059	609.58
64.3203	598.73
64.3348	613.92
64.3492	570.85
64.3637	578.68
64.3781	566.03
64.3925	632.27
64.4070	584.06
64.4214	635.23
64.4359	649.18
64.4503	589.02
64.4647	632.35
64.4792	624.80
64.4936	653.34
64.5081	600.00
64.5225	579.09
64.5369	623.58
64.5514	638.96
64.5658	624.97
64.5803	619.19
64.5947	605.59
64.6091	665.92
64.6236	675.06
64.6380	654.54
64.6525	638.41
64.6669	664.33
64.6813	649.22
64.6958	696.52
64.7102	693.84
64.7247	678.07
64.7391	668.98
64.7535	700.17
64.7680	691.58
64.7824	708.42
64.7969	734.73
64.8113	770.60
64.8257	764.34
64.8402	796.02
64.8546	805.11
64.8691	801.23
64.8835	808.66
64.8979	803.08
64.9124	862.67
64.9268	832.40
64.9413	865.92
64.9557	899.67
64.9701	912.72
64.9846	1000.03
64.9990	1126.32
65.0135	1231.38
65.0279	1383.36
65.0423	1622.26
65.0568	1981.68
65.0712	2535.75
65.0857	3262.22
65.1001	4317.70
65.1145	5822.34
65.1290	7594.89
65.1434	9224.03
65.1579	10705.06
65.1723	11581.01
65.1867	11121.58
65.2012	9902.63
65.2156	8238.84
65.2301	6641.88
65.2445	5320.59
65.2589	4379.20
65.2734	4110.01
65.2878	4276.46
65.3023	4823.42
65.3167	5556.97
65.3311	6388.73
65.3456	6989.45
65.3600	6764.25
65.3745	6416.13
65.3889	5444.84
65.4033	4487.56
65.4178	3486.85
65.4322	2790.63
65.4467	2128.49
65.4611	1754.22
65.4755	1497.03
65.4900	1288.48
65.5044	1159.30
65.5189	1061.95
65.5333	967.39
65.5477	921.65
65.5622	873.22
65.5766	871.67
65.5911	828.60
65.6055	788.14
65.6199	783.10
65.6344	789.15
65.6488	733.53
65.6633	703.48
65.6777	694.28
65.6921	679.22
65.7066	688.48
65.7210	697.65
65.7355	688.09
65.7499	662.02
65.7643	650.66
65.7788	671.32
65.7932	719.17
65.8077	718.01
65.8221	684.55
65.8365	662.38
65.8510	657.55
65.8654	690.86
65.8799	645.25
65.8943	635.73
65.9087	692.50
65.9232	684.31
65.9376	649.29
65.9521	612.30
65.9665	609.48
65.9809	620.69
65.9954	630.33
66.0098	634.36
66.0243	628.83
66.0387	595.66
66.0531	623.25
66.0676	598.52
66.0820	647.51
66.0965	664.63
66.1109	621.92
66.1253	643.79
66.1398	617.35
66.1542	634.21
66.1687	622.25
66.1831	614.48
66.1975	608.72
66.2120	621.52
66.2264	623.94
66.2409	606.23
66.2553	596.87
66.2697	551.94
66.2842	642.60
66.2986	575.42
66.3131	556.83
66.3275	611.80
66.3419	579.36
66.3564	608.51
66.3708	594.40
66.3853	576.26
66.3997	561.24
66.4141	563.74
66.4286	584.55
66.4430	617.75
66.4575	592.13
66.4719	626.49
66.4863	597.66
66.5008	593.57
66.5152	586.48
66.5297	607.99
66.5441	607.49
66.5585	583.37
66.5730	585.04
66.5874	627.30
66.6019	573.21
66.6163	586.86
66.6307	565.20
66.6452	555.59
66.6596	583.11
66.6741	604.99
66.6885	588.02
66.7029	572.60
66.7174	574.15
66.7318	594.21
66.7463	641.32
66.7607	601.45
66.7751	597.41
66.7896	567.92
66.8040	581.20
66.8185	616.25
66.8329	603.01
66.8473	584.83
66.8618	570.70
66.8762	584.13
66.8907	616.97
66.9051	607.68
66.9195	572.31
66.9340	603.09
66.9484	623.74
66.9629	593.15
66.9773	585.01
66.9917	561.54
67.0062	555.87
67.0206	582.55
67.0351	580.07
67.0495	552.64
67.0639	558.87
67.0784	575.98
67.0928	624.56
67.1073	589.95
67.1217	586.69
67.1361	566.06
67.1506	554.05
67.1650	590.65
67.1795	605.37
67.1939	603.58
67.2083	617.16
67.2228	600.25
67.2372	552.04
67.2517	544.51
67.2661	549.85
67.2805	564.02
67.2950	569.47
67.3094	561.41
67.3239	568.96
67.3383	568.17
67.3527	585.20
67.3672	566.32
67.3816	572.20
67.3961	563.47
67.4105	570.89
67.4250	577.64
67.4394	544.04
67.4538	572.59
67.4683	582.51
67.4827	566.59
67.4972	573.53
67.5116	585.88
67.5260	584.11
67.5405	609.52
67.5549	576.61
67.5694	578.59
67.5838	597.79
67.5982	585.50
67.6127	558.85
67.6271	578.68
67.6416	585.14
67.6560	584.35
67.6704	562.39
67.6849	570.68
67.6993	597.52
67.7138	572.60
67.7282	582.08
67.7426	570.76
67.7571	559.51
67.7715	556.64
67.7860	559.11
67.8004	567.67
67.8148	574.35
67.8293	579.95
67.8437	530.13
67.8582	575.61
67.8726	570.06
67.8870	571.23
67.9015	645.80
67.9159	558.82
67.9304	550.12
67.9448	575.56
67.9592	574.03
67.9737	577.06
67.9881	582.70
68.0026	557.22
68.0170	564.42
68.0314	582.37
68.0459	620.73
68.0603	638.58
68.0748	571.66
68.0892	606.17
68.1036	575.64
68.1181	546.09
68.1325	622.07
68.1470	592.47
68.1614	596.50
68.1758	513.59
68.1903	561.99
68.2047	566.84
68.2192	579.98
68.2336	548.66
68.2480	571.39
68.2625	564.00
68.2769	581.42
68.2914	604.12
68.3058	595.55
68.3202	620.97
68.3347	590.90
68.3491	596.72
68.3636	590.22
68.3780	549.17
68.3924	559.91
68.4069	570.67
68.4213	569.30
68.4358	606.47
68.4502	553.94
68.4646	554.43
68.4791	558.05
68.4935	546.82
68.5080	588.31
68.5224	549.58
68.5368	584.67
68.5513	573.05
68.5657	595.88
68.5802	565.91
68.5946	545.07
68.6090	562.52
68.6235	568.88
68.6379	579.52
68.6524	601.94
68.6668	560.83
68.6812	551.95
68.6957	552.54
68.7101	543.50
68.7246	565.68
68.7390	559.90
68.7534	543.51
68.7679	561.25
68.7823	552.53
68.7968	534.74
68.8112	577.40
68.8256	559.15
68.8401	573.23
68.8545	590.90
68.8690	546.15
68.8834	576.10
68.8978	586.83
68.9123	603.26
68.9267	600.07
68.9412	606.83
68.9556	523.11
68.9700	577.10
68.9845	612.30
68.9989	595.75
69.0134	511.00
69.0278	553.37
69.0422	579.74
69.0567	596.34
69.0711	590.85
69.0856	609.95
69.1000	584.35
69.1144	573.02
69.1289	535.13
69.1433	497.49
69.1578	537.38
69.1722	643.18
69.1866	602.08
69.2011	578.12
69.2155	555.13
69.2300	559.49
69.2444	584.57
69.2588	611.42
69.2733	579.64
69.2877	617.43
69.3022	543.52
69.3166	594.33
69.3310	577.22
69.3455	603.06
69.3599	592.23
69.3744	622.31
69.3888	596.23
69.4032	578.42
69.4177	577.99
69.4321	582.19
69.4466	584.85
69.4610	568.39
69.4754	623.15
69.4899	609.67
69.5043	598.00
69.5188	581.95
69.5332	608.18
69.5476	563.11
69.5621	555.39
69.5765	580.25
69.5910	540.31
69.6054	590.17
69.6198	570.20
69.6343	615.43
69.6487	568.61
69.6632	565.20
69.6776	548.88
69.6920	566.24
69.7065	567.23
69.7209	564.13
69.7354	539.09
69.7498	600.40
69.7642	567.71
69.7787	565.28
69.7931	557.17
69.8076	572.97
69.8220	597.85
69.8364	612.10
69.8509	554.14
69.8653	529.68
69.8798	595.64
69.8942	599.68
69.9086	597.73
69.9231	579.35
69.9375	528.83
69.9520	506.85
69.9664	565.25
69.9808	546.94
69.9953	579.57
70.0097	572.21
70.0242	585.00
70.0386	509.06
70.0530	589.82
70.0675	636.90
70.0819	602.08
70.0964	574.95
70.1108	605.48
70.1252	575.76
70.1397	556.44
70.1541	518.07
70.1686	574.39
70.1830	599.44
70.1974	582.68
70.2119	603.79
70.2263	570.27
70.2408	545.89
70.2552	529.67
70.2696	567.53
70.2841	584.93
70.2985	529.98
70.3130	536.22
70.3274	555.73
70.3418	586.26
70.3563	559.63
70.3707	537.13
70.3852	592.56
70.3996	585.72
70.4140	545.41
70.4285	601.67
70.4429	561.55
70.4574	591.61
70.4718	612.37
70.4862	584.53
70.5007	595.63
70.5151	603.08
70.5296	553.56
70.5440	561.70
70.5584	564.29
70.5729	580.04
70.5873	546.35
70.6018	565.01
70.6162	559.33
70.6306	553.48
70.6451	543.91
70.6595	582.46
70.6740	584.08
70.6884	546.17
70.7028	608.00
70.7173	577.92
70.7317	569.19
70.7462	551.25
70.7606	551.22
70.7750	556.88
70.7895	563.44
70.8039	599.35
70.8184	596.24
70.8328	580.13
70.8472	613.97
70.8617	594.66
70.8761	589.85
70.8906	556.70
70.9050	564.50
70.9194	534.37
70.9339	602.10
70.9483	640.38
70.9628	613.67
70.9772	552.82
70.9916	607.92
71.0061	608.62
71.0205	575.09
71.0350	615.55
71.0494	585.49
71.0638	543.11
71.0783	577.20
71.0927	587.08
71.1072	597.41
71.1216	596.92
71.1361	572.86
71.1505	605.32
71.1649	624.02
71.1794	598.69
71.1938	582.33
71.2083	544.18
71.2227	558.05
71.2371	596.65
71.2516	584.15
71.2660	593.35
71.2805	526.35
71.2949	487.00
71.3093	512.27
71.3238	565.65
71.3382	591.34
71.3527	604.74
71.3671	573.29
71.3815	536.84
71.3960	585.80
71.4104	539.76
71.4249	569.31
71.4393	574.68
71.4537	544.20
71.4682	541.50
71.4826	520.48
71.4971	554.51
71.5115	546.56
71.5259	566.25
71.5404	552.03
71.5548	595.69
71.5693	576.22
71.5837	538.35
71.5981	542.72
71.6126	547.70
71.6270	590.32
71.6415	622.58
71.6559	641.14
71.6703	601.64
71.6848	543.22
71.6992	569.40
71.7137	555.75
71.7281	588.46
71.7425	554.26
71.7570	563.99
71.7714	620.92
71.7859	601.57
71.8003	608.05
71.8147	561.44
71.8292	599.10
71.8436	596.97
71.8581	567.11
71.8725	588.66
71.8869	564.45
71.9014	609.60
71.9158	579.58
71.9303	583.01
71.9447	581.09
71.9591	568.18
71.9736	627.55
71.9880	605.51
72.0025	566.01
72.0169	488.02
72.0313	478.95
72.0458	535.40
72.0602	600.54
72.0747	608.73
72.0891	634.84
72.1035	717.28
72.1180	725.68
72.1324	618.07
72.1469	617.44
72.1613	641.69
72.1757	597.40
72.1902	591.09
72.2046	658.96
72.2191	612.46
72.2335	571.23
72.2479	600.49
72.2624	584.76
72.2768	529.25
72.2913	495.97
72.3057	553.60
72.3201	649.57
72.3346	659.30
72.3490	591.68
72.3635	581.48
72.3779	584.65
72.3923	542.95
72.4068	598.18
72.4212	602.23
72.4357	516.80
72.4501	524.14
72.4645	556.69
72.4790	589.08
72.4934	501.17
72.5079	446.86
72.5223	475.16
72.5367	583.18
72.5512	647.42
72.5656	672.98
72.5801	583.18
72.5945	525.84
72.6089	467.44
72.6234	495.48
72.6378	497.26
72.6523	569.86
72.6667	614.10
72.6811	589.84
72.6956	531.98
72.7100	505.35
72.7245	546.34
72.7389	565.03
72.7533	608.71
72.7678	609.22
72.7822	577.43
72.7967	585.52
72.8111	599.37
72.8255	618.97
72.8400	639.64
72.8544	586.50
72.8689	529.80
72.8833	529.14