2022.09.19 19:37:17
Îáðàçåö: ß÷åéêà LCoV 16-09-2022
Lambda1 = 1.54060
Lambda2 = 1.54439
Lambdam = 1.54186
R = 0.497
2Theta	I

line¹ 0 ;repeat¹ 0
22.1120	547.01
22.1264	564.08
22.1409	529.79
22.1553	557.48
22.1697	569.64
22.1842	639.14
22.1986	578.96
22.2131	523.71
22.2275	582.37
22.2419	569.39
22.2564	639.03
22.2708	495.37
22.2853	518.33
22.2997	528.80
22.3141	627.59
22.3286	571.96
22.3430	531.08
22.3575	584.60
22.3719	517.24
22.3863	543.61
22.4008	516.48
22.4152	604.63
22.4297	604.59
22.4441	539.44
22.4585	593.89
22.4730	542.49
22.4874	554.41
22.5019	576.47
22.5163	679.88
22.5307	591.65
22.5452	553.27
22.5596	517.77
22.5741	515.09
22.5885	679.81
22.6029	636.82
22.6174	532.43
22.6318	475.82
22.6463	473.08
22.6607	517.93
22.6751	631.10
22.6896	617.86
22.7040	601.31
22.7185	643.26
22.7329	663.33
22.7473	576.20
22.7618	555.22
22.7762	594.14
22.7907	631.13
22.8051	619.51
22.8195	567.33
22.8340	506.54
22.8484	577.78
22.8629	556.62
22.8773	579.12
22.8917	491.84
22.9062	622.54
22.9206	644.21
22.9351	552.01
22.9495	582.33
22.9639	587.78
22.9784	629.98
22.9928	604.89
23.0073	650.14
23.0217	616.75
23.0361	621.10
23.0506	605.87
23.0650	595.07
23.0795	681.54
23.0939	602.72
23.1083	616.96
23.1228	665.99
23.1372	560.59
23.1517	585.07
23.1661	533.07
23.1806	623.56
23.1950	544.56
23.2094	495.36
23.2239	573.32
23.2383	528.06
23.2528	550.05
23.2672	549.52
23.2816	571.72
23.2961	576.44
23.3105	555.83
23.3250	536.63
23.3394	533.74
23.3538	493.31
23.3683	571.30
23.3827	576.42
23.3972	542.01
23.4116	566.26
23.4260	564.50
23.4405	582.41
23.4549	565.76
23.4694	569.61
23.4838	577.25
23.4982	602.83
23.5127	546.63
23.5271	513.44
23.5416	562.94
23.5560	566.90
23.5704	484.17
23.5849	551.47
23.5993	548.41
23.6138	563.86
23.6282	543.68
23.6426	607.21
23.6571	488.00
23.6715	517.81
23.6860	528.10
23.7004	597.64
23.7148	553.04
23.7293	561.73
23.7437	500.51
23.7582	561.95
23.7726	623.99
23.7870	605.22
23.8015	469.49
23.8159	556.15
23.8304	521.57
23.8448	590.87
23.8592	549.00
23.8737	555.55
23.8881	551.93
23.9026	600.29
23.9170	600.09
23.9314	539.39
23.9459	519.09
23.9603	528.35
23.9748	586.95
23.9892	586.92
24.0036	520.70
24.0181	561.36
24.0325	590.31
24.0470	563.75
24.0614	612.13
24.0758	597.11
24.0903	556.02
24.1047	585.30
24.1192	519.24
24.1336	554.80
24.1480	547.14
24.1625	603.36
24.1769	606.09
24.1914	568.18
24.2058	583.42
24.2202	592.29
24.2347	666.15
24.2491	607.06
24.2636	561.62
24.2780	576.95
24.2924	565.88
24.3069	610.09
24.3213	576.77
24.3358	573.78
24.3502	561.28
24.3646	562.75
24.3791	522.82
24.3935	528.24
24.4080	516.73
24.4224	592.76
24.4368	551.44
24.4513	557.15
24.4657	570.49
24.4802	554.08
24.4946	526.92
24.5090	535.65
24.5235	580.95
24.5379	606.85
24.5524	574.73
24.5668	528.75
24.5812	550.42
24.5957	571.78
24.6101	534.83
24.6246	503.59
24.6390	600.30
24.6534	567.09
24.6679	579.43
24.6823	570.71
24.6968	547.50
24.7112	570.05
24.7256	526.77
24.7401	518.32
24.7545	538.33
24.7690	580.80
24.7834	562.80
24.7978	575.06
24.8123	577.17
24.8267	603.94
24.8412	539.38
24.8556	539.18
24.8700	580.17
24.8845	546.45
24.8989	532.93
24.9134	583.18
24.9278	559.04
24.9422	550.21
24.9567	526.58
24.9711	543.22
24.9856	578.93
25.0000	538.35
25.0144	625.91
25.0289	567.28
25.0433	523.12
25.0578	591.53
25.0722	559.40
25.0866	622.67
25.1011	553.17
25.1155	545.44
25.1300	532.72
25.1444	564.44
25.1588	541.64
25.1733	572.91
25.1877	526.61
25.2022	505.48
25.2166	573.96
25.2310	554.82
25.2455	533.62
25.2599	542.00
25.2744	584.01
25.2888	560.57
25.3032	547.60
25.3177	555.76
25.3321	500.13
25.3466	552.91
25.3610	530.97
25.3754	564.99
25.3899	546.50
25.4043	489.50
25.4188	512.09
25.4332	553.77
25.4476	525.69
25.4621	534.39
25.4765	530.85
25.4910	516.55
25.5054	505.83
25.5198	528.33
25.5343	508.90
25.5487	569.51
25.5632	538.67
25.5776	561.96
25.5920	557.73
25.6065	553.11
25.6209	603.90
25.6354	554.33
25.6498	540.10
25.6642	531.79
25.6787	558.28
25.6931	528.79
25.7076	482.91
25.7220	538.48
25.7364	551.78
25.7509	551.09
25.7653	532.54
25.7798	557.21
25.7942	554.17
25.8086	509.68
25.8231	526.60
25.8375	544.52
25.8520	557.24
25.8664	547.28
25.8808	538.17
25.8953	548.58
25.9097	546.91
25.9242	547.17
25.9386	569.88
25.9530	515.46
25.9675	527.87
25.9819	553.59
25.9964	522.27
26.0108	530.32
26.0252	546.50
26.0397	528.88
26.0541	546.34
26.0686	563.37
26.0830	527.78
26.0974	522.72
26.1119	531.85
26.1263	508.15
26.1408	501.59
26.1552	519.31
26.1696	537.67
26.1841	547.68
26.1985	536.74
26.2130	530.79
26.2274	527.12
26.2418	548.19
26.2563	583.56
26.2707	545.08
26.2852	535.15
26.2996	514.28
26.3140	529.13
26.3285	541.39
26.3429	510.47
26.3574	480.73
26.3718	526.18
26.3862	577.41
26.4007	564.67
26.4151	568.98
26.4296	539.46
26.4440	527.76
26.4584	526.53
26.4729	518.21
26.4873	527.10
26.5018	569.61
26.5162	573.50
26.5306	556.58
26.5451	516.80
26.5595	537.71
26.5740	539.07
26.5884	523.67
26.6028	524.44
26.6173	513.96
26.6317	557.09
26.6462	545.02
26.6606	535.91
26.6750	503.36
26.6895	515.08
26.7039	555.70
26.7184	540.56
26.7328	521.43
26.7472	518.64
26.7617	526.60
26.7761	532.19
26.7906	513.00
26.8050	506.33
26.8194	512.41
26.8339	523.05
26.8483	524.81
26.8628	542.51
26.8772	537.99
26.8917	518.24
26.9061	551.53
26.9205	525.56
26.9350	519.47
26.9494	521.89
26.9639	540.05
26.9783	511.32
26.9927	507.79
27.0072	500.15
27.0216	522.84
27.0361	515.48
27.0505	507.48
27.0649	529.68
27.0794	500.77
27.0938	513.17
27.1083	522.43
27.1227	538.86
27.1371	514.19
27.1516	511.61
27.1660	499.64
27.1805	502.75
27.1949	495.06
27.2093	510.15
27.2238	498.86
27.2382	499.16
27.2527	514.08
27.2671	521.31
27.2815	560.21
27.2960	529.69
27.3104	534.76
27.3249	520.98
27.3393	533.69
27.3537	522.37
27.3682	513.81
27.3826	519.08
27.3971	539.88
27.4115	522.81
27.4259	542.12
27.4404	514.26
27.4548	495.55
27.4693	512.68
27.4837	527.29
27.4981	529.99
27.5126	496.01
27.5270	518.73
27.5415	516.45
27.5559	537.39
27.5703	548.80
27.5848	526.09
27.5992	506.13
27.6137	496.34
27.6281	499.48
27.6425	530.27
27.6570	530.57
27.6714	499.35
27.6859	511.41
27.7003	519.01
27.7147	530.54
27.7292	516.10
27.7436	533.56
27.7581	524.26
27.7725	504.48
27.7869	516.44
27.8014	514.05
27.8158	531.97
27.8303	525.67
27.8447	533.54
27.8591	489.93
27.8736	514.14
27.8880	510.79
27.9025	537.39
27.9169	509.99
27.9313	521.63
27.9458	511.35
27.9602	478.90
27.9747	493.17
27.9891	473.15
28.0035	502.16
28.0180	553.13
28.0324	536.40
28.0469	546.56
28.0613	553.70
28.0757	545.04
28.0902	536.77
28.1046	484.51
28.1191	513.33
28.1335	490.73
28.1479	492.16
28.1624	535.61
28.1768	476.41
28.1913	503.73
28.2057	508.90
28.2201	499.90
28.2346	518.40
28.2490	520.07
28.2635	503.93
28.2779	495.86
28.2923	533.00
28.3068	506.33
28.3212	514.98
28.3357	494.91
28.3501	495.57
28.3645	502.13
28.3790	527.79
28.3934	485.68
28.4079	507.00
28.4223	542.71
28.4367	530.40
28.4512	511.30
28.4656	514.20
28.4801	501.51
28.4945	478.11
28.5089	491.32
28.5234	497.96
28.5378	511.19
28.5523	511.61
28.5667	509.92
28.5811	531.67
28.5956	490.38
28.6100	522.07
28.6245	533.03
28.6389	559.11
28.6533	504.52
28.6678	518.17
28.6822	488.96
28.6967	507.01
28.7111	535.52
28.7255	486.51
28.7400	516.07
28.7544	495.17
28.7689	505.09
28.7833	496.76
28.7977	508.95
28.8122	507.12
28.8266	522.39
28.8411	521.77
28.8555	516.13
28.8699	519.52
28.8844	510.39
28.8988	488.20
28.9133	491.96
28.9277	511.82
28.9421	547.23
28.9566	485.00
28.9710	504.35
28.9855	502.20
28.9999	487.21
29.0143	467.53
29.0288	483.10
29.0432	498.37
29.0577	478.65
29.0721	480.24
29.0865	555.94
29.1010	517.15
29.1154	521.41
29.1299	527.55
29.1443	495.65
29.1587	493.25
29.1732	508.85
29.1876	474.11
29.2021	481.20
29.2165	551.49
29.2309	507.75
29.2454	502.02
29.2598	505.57
29.2743	513.13
29.2887	510.23
29.3031	541.35
29.3176	514.46
29.3320	505.83
29.3465	512.80
29.3609	509.36
29.3753	480.72
29.3898	509.20
29.4042	516.96
29.4187	523.84
29.4331	513.23
29.4475	526.04
29.4620	512.74
29.4764	522.21
29.4909	517.38
29.5053	502.23
29.5197	467.78
29.5342	501.45
29.5486	477.57
29.5631	500.52
29.5775	521.62
29.5919	496.80
29.6064	509.57
29.6208	529.54
29.6353	523.98
29.6497	501.36
29.6641	518.16
29.6786	472.27
29.6930	466.59
29.7075	522.71
29.7219	539.87
29.7363	490.89
29.7508	511.52
29.7652	492.94
29.7797	484.33
29.7941	505.94
29.8085	497.34
29.8230	475.58
29.8374	490.13
29.8519	488.41
29.8663	499.40
29.8807	489.68
29.8952	517.71
29.9096	515.36
29.9241	521.73
29.9385	505.41
29.9529	538.79
29.9674	535.18
29.9818	487.95
29.9963	501.65
30.0107	500.79
30.0251	478.09
30.0396	491.05
30.0540	494.78
30.0685	508.66
30.0829	503.85
30.0973	487.85
30.1118	504.19
30.1262	541.95
30.1407	501.38
30.1551	484.63
30.1695	507.48
30.1840	506.78
30.1984	476.64
30.2129	504.88
30.2273	516.14
30.2417	504.47
30.2562	479.67
30.2706	524.17
30.2851	534.66
30.2995	496.52
30.3139	526.72
30.3284	520.93
30.3428	526.06
30.3573	496.88
30.3717	529.25
30.3861	546.86
30.4006	528.02
30.4150	553.44
30.4295	543.17
30.4439	535.91
30.4583	547.20
30.4728	535.91
30.4872	575.42
30.5017	616.77
30.5161	638.45
30.5305	658.66
30.5450	691.46
30.5594	693.28
30.5739	731.41
30.5883	746.75
30.6028	724.73
30.6172	720.46
30.6316	670.31
30.6461	710.39
30.6605	702.43
30.6750	620.98
30.6894	618.57
30.7038	623.78
30.7183	589.28
30.7327	580.53
30.7472	557.01
30.7616	534.36
30.7760	538.83
30.7905	533.10
30.8049	509.16
30.8194	540.34
30.8338	535.47
30.8482	530.02
30.8627	545.84
30.8771	552.41
30.8916	530.83
30.9060	551.34
30.9204	541.11
30.9349	521.97
30.9493	508.75
30.9638	488.93
30.9782	511.86
30.9926	469.16
31.0071	485.46
31.0215	516.00
31.0360	519.57
31.0504	494.17
31.0648	505.77
31.0793	479.89
31.0937	506.26
31.1082	506.45
31.1226	520.22
31.1370	532.89
31.1515	505.36
31.1659	524.14
31.1804	532.28
31.1948	489.42
31.2092	506.77
31.2237	521.39
31.2381	532.30
31.2526	519.83
31.2670	524.26
31.2814	516.75
31.2959	514.70
31.3103	518.56
31.3248	538.74
31.3392	553.82
31.3536	555.27
31.3681	494.01
31.3825	493.89
31.3970	519.94
31.4114	461.68
31.4258	459.58
31.4403	487.62
31.4547	505.30
31.4692	535.92
31.4836	506.42
31.4980	493.92
31.5125	510.03
31.5269	501.31
31.5414	531.34
31.5558	537.87
31.5702	508.23
31.5847	507.55
31.5991	496.08
31.6136	504.47
31.6280	494.97
31.6424	506.94
31.6569	490.51
31.6713	490.58
31.6858	512.43
31.7002	499.88
31.7146	492.91
31.7291	472.13
31.7435	517.07
31.7580	514.43
31.7724	473.46
31.7868	525.72
31.8013	512.80
31.8157	496.76
31.8302	496.50
31.8446	507.09
31.8590	519.36
31.8735	483.82
31.8879	478.08
31.9024	503.23
31.9168	471.20
31.9312	478.91
31.9457	506.38
31.9601	500.33
31.9746	505.68
31.9890	496.55
32.0034	483.81
32.0179	561.26
32.0323	527.25
32.0468	515.12
32.0612	511.07
32.0756	515.27
32.0901	527.18
32.1045	529.96
32.1190	497.60
32.1334	526.66
32.1478	490.50
32.1623	499.36
32.1767	483.94
32.1912	485.68
32.2056	516.18
32.2200	482.83
32.2345	474.90
32.2489	511.05
32.2634	524.20
32.2778	512.02
32.2922	511.89
32.3067	536.34
32.3211	508.90
32.3356	536.30
32.3500	502.82
32.3644	515.63
32.3789	520.19
32.3933	491.23
32.4078	486.31
32.4222	499.86
32.4366	469.10
32.4511	475.65
32.4655	529.29
32.4800	523.99
32.4944	494.93
32.5088	490.86
32.5233	484.33
32.5377	527.83
32.5522	542.90
32.5666	530.90
32.5810	496.00
32.5955	497.78
32.6099	521.33
32.6244	524.11
32.6388	529.47
32.6532	496.26
32.6677	490.13
32.6821	515.02
32.6966	494.82
32.7110	507.74
32.7254	517.36
32.7399	522.44
32.7543	487.91
32.7688	528.21
32.7832	486.66
32.7976	512.36
32.8121	523.68
32.8265	473.23
32.8410	494.83
32.8554	513.36
32.8698	506.74
32.8843	507.06
32.8987	501.95
32.9132	542.06
32.9276	508.22
32.9420	490.56
32.9565	476.81
32.9709	501.11
32.9854	501.55
32.9998	486.40
33.0142	496.94
33.0287	518.40
33.0431	503.92
33.0576	506.17
33.0720	478.39
33.0864	537.66
33.1009	537.39
33.1153	508.13
33.1298	526.73
33.1442	470.12
33.1586	458.34
33.1731	490.89
33.1875	490.31
33.2020	509.94
33.2164	530.43
33.2308	524.52
33.2453	498.46
33.2597	471.76
33.2742	487.66
33.2886	502.54
33.3030	509.49
33.3175	500.65
33.3319	521.40
33.3464	483.01
33.3608	489.03
33.3752	510.37
33.3897	506.63
33.4041	505.32
33.4186	517.96
33.4330	535.27
33.4474	486.47
33.4619	476.10
33.4763	493.52
33.4908	512.03
33.5052	513.82
33.5196	490.41
33.5341	521.23
33.5485	506.74
33.5630	493.54
33.5774	494.23
33.5918	515.92
33.6063	518.93
33.6207	505.46
33.6352	488.71
33.6496	496.39
33.6640	483.33
33.6785	462.06
33.6929	498.69
33.7074	500.36
33.7218	510.71
33.7362	492.07
33.7507	495.42
33.7651	464.94
33.7796	483.11
33.7940	485.87
33.8084	512.78
33.8229	503.37
33.8373	492.67
33.8518	505.52
33.8662	519.65
33.8806	495.53
33.8951	497.90
33.9095	530.49
33.9240	495.46
33.9384	500.68
33.9528	504.10
33.9673	490.90
33.9817	513.75
33.9962	503.83
34.0106	535.63
34.0250	506.99
34.0395	493.67
34.0539	520.68
34.0684	492.27
34.0828	495.67
34.0972	533.21
34.1117	497.50
34.1261	503.11
34.1406	487.09
34.1550	482.05
34.1694	508.88
34.1839	495.09
34.1983	505.09
34.2128	492.79
34.2272	516.98
34.2417	515.52
34.2561	506.52
34.2705	518.28
34.2850	531.84
34.2994	517.64
34.3139	507.80
34.3283	483.06
34.3427	494.49
34.3572	489.61
34.3716	504.19
34.3861	526.66
34.4005	516.52
34.4149	487.76
34.4294	487.73
34.4438	505.62
34.4583	472.05
34.4727	519.08
34.4871	487.24
34.5016	476.93
34.5160	486.75
34.5305	483.50
34.5449	496.18
34.5593	522.51
34.5738	502.38
34.5882	478.51
34.6027	498.05
34.6171	485.12
34.6315	498.43
34.6460	475.43
34.6604	499.95
34.6749	483.30
34.6893	515.22
34.7037	491.16
34.7182	493.21
34.7326	474.67
34.7471	503.35
34.7615	505.08
34.7759	505.06
34.7904	519.90
34.8048	496.16
34.8193	501.61
34.8337	514.87
34.8481	489.12
34.8626	518.31
34.8770	525.05
34.8915	498.88
34.9059	509.55
34.9203	504.71
34.9348	510.60
34.9492	523.29
34.9637	512.88
34.9781	498.51
34.9925	528.54
35.0070	496.24
35.0214	506.96
35.0359	525.57
35.0503	510.32
35.0647	506.67
35.0792	518.37
35.0936	489.09
35.1081	476.83
35.1225	503.29
35.1369	513.89
35.1514	494.12
35.1658	511.42
35.1803	510.16
35.1947	528.59
35.2091	505.65
35.2236	520.71
35.2380	485.45
35.2525	528.28
35.2669	527.48
35.2813	506.14
35.2958	514.20
35.3102	524.57
35.3247	502.92
35.3391	505.63
35.3535	515.87
35.3680	524.07
35.3824	512.63
35.3969	504.68
35.4113	529.32
35.4257	536.12
35.4402	533.82
35.4546	526.78
35.4691	554.88
35.4835	548.65
35.4979	553.77
35.5124	531.01
35.5268	508.02
35.5413	522.96
35.5557	529.78
35.5701	534.91
35.5846	562.35
35.5990	541.50
35.6135	538.91
35.6279	517.91
35.6423	534.45
35.6568	553.84
35.6712	542.22
35.6857	601.95
35.7001	705.69
35.7145	773.78
35.7290	726.49
35.7434	619.96
35.7579	604.58
35.7723	634.72
35.7867	710.67
35.8012	733.44
35.8156	745.18
35.8301	691.78
35.8445	703.55
35.8589	763.36
35.8734	862.59
35.8878	975.44
35.9023	1115.03
35.9167	1140.46
35.9311	1224.88
35.9456	1546.84
35.9600	1854.27
35.9745	1954.89
35.9889	2250.86
36.0033	2647.15
36.0178	3065.35
36.0322	3253.61
36.0467	2763.64
36.0611	2107.59
36.0755	1881.11
36.0900	2092.37
36.1044	2191.38
36.1189	1732.61
36.1333	1392.26
36.1477	1075.85
36.1622	997.92
36.1766	965.78
36.1911	891.15
36.2055	729.92
36.2199	712.30
36.2344	759.46
36.2488	673.93
36.2633	616.21
36.2777	560.95
36.2921	554.44
36.3066	584.04
36.3210	532.97
36.3355	553.90
36.3499	549.17
36.3643	552.88
36.3788	510.01
36.3932	520.54
36.4077	513.25
36.4221	496.09
36.4365	515.66
36.4510	515.38
36.4654	558.19
36.4799	534.99
36.4943	528.74
36.5087	546.96
36.5232	549.20
36.5376	538.21
36.5521	530.82
36.5665	509.41
36.5809	513.97
36.5954	525.34
36.6098	500.01
36.6243	512.30
36.6387	495.49
36.6531	510.52
36.6676	506.46
36.6820	483.11
36.6965	515.79
36.7109	526.28
36.7253	555.68
36.7398	513.00
36.7542	561.19
36.7687	528.99
36.7831	539.66
36.7975	546.12
36.8120	555.62
36.8264	573.50
36.8409	599.62
36.8553	618.86
36.8697	583.68
36.8842	583.17
36.8986	558.29
36.9131	607.70
36.9275	572.47
36.9419	590.37
36.9564	583.83
36.9708	526.94
36.9853	562.83
36.9997	537.45
37.0141	514.72
37.0286	525.49
37.0430	514.97
37.0575	509.21
37.0719	519.22
37.0863	489.74
37.1008	513.13
37.1152	492.33
37.1297	514.94
37.1441	489.83
37.1585	528.00
37.1730	553.34
37.1874	520.59
37.2019	476.54
37.2163	522.70
37.2307	521.62
37.2452	514.33
37.2596	513.18
37.2741	493.01
37.2885	509.24
37.3029	516.24
37.3174	507.70
37.3318	488.67
37.3463	499.93
37.3607	487.11
37.3751	500.64
37.3896	508.90
37.4040	483.35
37.4185	486.26
37.4329	507.90
37.4473	470.36
37.4618	504.93
37.4762	519.23
37.4907	505.49
37.5051	511.47
37.5195	531.65
37.5340	494.63
37.5484	501.11
37.5629	526.79
37.5773	518.32
37.5917	507.13
37.6062	524.38
37.6206	492.30
37.6351	534.51
37.6495	488.40
37.6639	488.03
37.6784	486.00
37.6928	486.78
37.7073	514.03
37.7217	487.91
37.7361	505.24
37.7506	504.93
37.7650	503.32
37.7795	476.45
37.7939	478.81
37.8083	523.37
37.8228	508.59
37.8372	491.31
37.8517	503.78
37.8661	489.45
37.8805	506.55
37.8950	503.82
37.9094	521.38
37.9239	503.39
37.9383	509.25
37.9528	511.19
37.9672	505.40
37.9816	509.97
37.9961	553.64
38.0105	496.48
38.0250	485.34
38.0394	475.68
38.0538	486.83
38.0683	473.04
38.0827	485.71
38.0972	545.54
38.1116	542.57
38.1260	540.88
38.1405	512.09
38.1549	532.53
38.1694	535.09
38.1838	525.65
38.1982	486.79
38.2127	487.78
38.2271	468.56
38.2416	478.29
38.2560	516.09
38.2704	507.53
38.2849	518.40
38.2993	480.97
38.3138	505.99
38.3282	507.73
38.3426	551.10
38.3571	524.50
38.3715	536.63
38.3860	552.60
38.4004	527.99
38.4148	589.56
38.4293	608.34
38.4437	604.22
38.4582	627.27
38.4726	651.14
38.4870	737.59
38.5015	772.83
38.5159	753.35
38.5304	782.27
38.5448	777.49
38.5592	805.81
38.5737	795.18
38.5881	744.15
38.6026	711.46
38.6170	694.37
38.6314	687.18
38.6459	671.22
38.6603	644.05
38.6748	593.67
38.6892	571.05
38.7036	561.32
38.7181	561.88
38.7325	523.59
38.7470	513.62
38.7614	521.06
38.7758	532.80
38.7903	527.75
38.8047	507.64
38.8192	523.50
38.8336	510.50
38.8480	493.44
38.8625	537.83
38.8769	513.80
38.8914	498.76
38.9058	541.45
38.9202	493.90
38.9347	486.03
38.9491	468.83
38.9636	446.10
38.9780	450.80
38.9924	529.55
39.0069	481.88
39.0213	462.18
39.0358	489.61
39.0502	511.91
39.0646	504.38
39.0791	498.99
39.0935	497.19
39.1080	494.99
39.1224	494.70
39.1368	518.76
39.1513	504.11
39.1657	491.29
39.1802	470.30
39.1946	490.69
39.2090	519.26
39.2235	495.71
39.2379	517.59
39.2524	535.01
39.2668	498.74
39.2812	485.55
39.2957	483.10
39.3101	525.58
39.3246	551.21
39.3390	515.51
39.3534	483.03
39.3679	498.49
39.3823	506.33
39.3968	483.83
39.4112	482.73
39.4256	541.44
39.4401	492.17
39.4545	498.85
39.4690	520.31
39.4834	487.25
39.4978	483.09
39.5123	480.76
39.5267	485.91
39.5412	504.71
39.5556	480.47
39.5700	500.37
39.5845	501.56
39.5989	489.36
39.6134	491.17
39.6278	514.32
39.6422	484.67
39.6567	456.30
39.6711	494.14
39.6856	508.01
39.7000	518.90
39.7144	491.36
39.7289	490.93
39.7433	507.30
39.7578	497.40
39.7722	507.93
39.7866	488.01
39.8011	464.91
39.8155	467.96
39.8300	485.70
39.8444	469.59
39.8588	509.96
39.8733	472.08
39.8877	466.37
39.9022	521.37
39.9166	477.13
39.9310	493.82
39.9455	512.19
39.9599	497.92
39.9744	486.33
39.9888	488.85
40.0032	518.85
40.0177	502.88
40.0321	500.57
40.0466	503.02
40.0610	492.18
40.0754	542.52
40.0899	472.70
40.1043	466.07
40.1188	507.37
40.1332	493.48
40.1476	453.27
40.1621	479.16
40.1765	505.90
40.1910	510.90
40.2054	493.99
40.2198	478.47
40.2343	479.65
40.2487	484.58
40.2632	510.77
40.2776	484.81
40.2920	497.18
40.3065	500.65
40.3209	478.62
40.3354	511.46
40.3498	513.53
40.3642	502.77
40.3787	492.43
40.3931	437.91
40.4076	528.80
40.4220	522.24
40.4364	485.50
40.4509	476.32
40.4653	498.43
40.4798	503.57
40.4942	542.15
40.5086	505.94
40.5231	504.91
40.5375	521.88
40.5520	504.96
40.5664	514.51
40.5808	502.34
40.5953	496.36
40.6097	516.60
40.6242	470.73
40.6386	493.26
40.6530	480.59
40.6675	472.93
40.6819	476.80
40.6964	486.71
40.7108	514.77
40.7252	496.87
40.7397	490.78
40.7541	488.88
40.7686	493.44
40.7830	501.06
40.7974	472.19
40.8119	524.62
40.8263	504.08
40.8408	490.09
40.8552	507.97
40.8696	513.96
40.8841	498.28
40.8985	495.85
40.9130	466.99
40.9274	464.65
40.9418	463.93
40.9563	478.08
40.9707	486.55
40.9852	480.93
40.9996	501.66
41.0140	487.56
41.0285	480.73
41.0429	545.55
41.0574	497.99
41.0718	514.73
41.0862	512.47
41.1007	492.25
41.1151	531.33
41.1296	564.74
41.1440	485.55
41.1584	481.70
41.1729	506.84
41.1873	470.94
41.2018	488.74
41.2162	483.10
41.2306	521.58
41.2451	548.53
41.2595	508.44
41.2740	469.19
41.2884	499.25
41.3028	529.48
41.3173	543.62
41.3317	515.15
41.3462	530.70
41.3606	487.00
41.3750	483.32
41.3895	518.77
41.4039	515.42
41.4184	513.66
41.4328	542.98
41.4472	505.56
41.4617	476.86
41.4761	551.92
41.4906	502.61
41.5050	514.32
41.5194	504.75
41.5339	487.01
41.5483	475.58
41.5628	482.07
41.5772	482.28
41.5916	504.61
41.6061	470.84
41.6205	479.06
41.6350	506.46
41.6494	479.91
41.6639	497.95
41.6783	468.38
41.6927	471.72
41.7072	504.54
41.7216	519.96
41.7361	493.38
41.7505	509.29
41.7649	512.67
41.7794	479.62
41.7938	509.69
41.8083	489.70
41.8227	504.09
41.8371	499.01
41.8516	496.86
41.8660	530.66
41.8805	521.47
41.8949	577.86
41.9093	579.38
41.9238	577.79
41.9382	548.87
41.9527	517.71
41.9671	582.32
41.9815	580.83
41.9960	578.51
42.0104	601.44
42.0249	570.61
42.0393	603.04
42.0537	580.42
42.0682	577.40
42.0826	525.75
42.0971	566.36
42.1115	580.47
42.1259	593.65
42.1404	589.04
42.1548	643.56
42.1693	624.60
42.1837	695.79
42.1981	759.73
42.2126	833.50
42.2270	920.57
42.2415	1074.25
42.2559	1201.35
42.2703	1321.33
42.2848	1513.03
42.2992	1577.26
42.3137	1631.61
42.3281	1605.84
42.3425	1506.69
42.3570	1485.86
42.3714	1426.43
42.3859	1396.06
42.4003	1313.89
42.4147	1343.03
42.4292	1258.12
42.4436	1125.60
42.4581	1036.03
42.4725	929.33
42.4869	836.09
42.5014	722.63
42.5158	689.33
42.5303	677.04
42.5447	621.09
42.5591	608.55
42.5736	582.00
42.5880	573.24
42.6025	585.59
42.6169	551.94
42.6313	570.01
42.6458	554.52
42.6602	525.52
42.6747	528.24
42.6891	522.02
42.7035	552.78
42.7180	528.50
42.7324	501.21
42.7469	517.15
42.7613	498.23
42.7757	502.83
42.7902	484.15
42.8046	482.74
42.8191	520.78
42.8335	506.41
42.8479	521.54
42.8624	540.30
42.8768	528.17
42.8913	532.31
42.9057	530.69
42.9201	517.25
42.9346	502.98
42.9490	530.02
42.9635	490.72
42.9779	484.72
42.9923	492.85
43.0068	509.25
43.0212	514.13
43.0357	486.16
43.0501	504.75
43.0645	506.19
43.0790	504.97
43.0934	514.10
43.1079	520.15
43.1223	515.01
43.1367	479.08
43.1512	482.97
43.1656	518.42
43.1801	510.75
43.1945	520.27
43.2089	552.41
43.2234	509.18
43.2378	513.90
43.2523	545.73
43.2667	526.40
43.2811	526.24
43.2956	526.85
43.3100	526.13
43.3245	488.88
43.3389	520.25
43.3533	529.58
43.3678	520.20
43.3822	522.74
43.3967	495.84
43.4111	506.05
43.4255	503.63
43.4400	522.10
43.4544	498.06
43.4689	513.31
43.4833	530.97
43.4977	519.62
43.5122	508.70
43.5266	510.97
43.5411	527.26
43.5555	550.50
43.5699	535.04
43.5844	540.93
43.5988	509.53
43.6133	536.31
43.6277	495.46
43.6421	543.42
43.6566	571.76
43.6710	559.43
43.6855	568.36
43.6999	644.35
43.7143	651.10
43.7288	639.87
43.7432	672.90
43.7577	719.69
43.7721	690.46
43.7865	681.89
43.8010	649.86
43.8154	618.58
43.8299	601.76
43.8443	599.88
43.8587	645.27
43.8732	618.31
43.8876	568.49
43.9021	594.41
43.9165	573.49
43.9309	544.37
43.9454	581.30
43.9598	503.45
43.9743	503.30
43.9887	497.12
44.0031	499.52
44.0176	495.87
44.0320	517.01
44.0465	508.74
44.0609	519.09
44.0753	510.33
44.0898	571.84
44.1042	541.55
44.1187	545.26
44.1331	539.88
44.1475	514.15
44.1620	516.32
44.1764	525.93
44.1909	502.90
44.2053	509.33
44.2197	554.65
44.2342	535.40
44.2486	532.41
44.2631	520.65
44.2775	526.09
44.2919	510.66
44.3064	501.92
44.3208	524.42
44.3353	522.04
44.3497	538.35
44.3641	555.97
44.3786	534.23
44.3930	510.47
44.4075	569.17
44.4219	575.13
44.4363	572.38
44.4508	531.04
44.4652	581.07
44.4797	567.06
44.4941	593.96
44.5085	559.24
44.5230	531.55
44.5374	584.37
44.5519	577.48
44.5663	558.20
44.5807	543.81
44.5952	587.87
44.6096	550.37
44.6241	564.03
44.6385	587.39
44.6529	586.00
44.6674	577.20
44.6818	600.65
44.6963	614.01
44.7107	652.96
44.7251	685.56
44.7396	733.68
44.7540	798.50
44.7685	809.46
44.7829	891.80
44.7973	855.65
44.8118	885.18
44.8262	846.15
44.8407	749.79
44.8551	713.45
44.8695	723.87
44.8840	747.57
44.8984	765.54
44.9129	743.97
44.9273	735.10
44.9417	683.44
44.9562	633.28
44.9706	540.17
44.9851	557.30
44.9995	541.70
45.0139	541.51
45.0284	489.60
45.0428	497.14
45.0573	525.53
45.0717	494.76
45.0861	522.41
45.1006	516.84
45.1150	522.64
45.1295	527.84
45.1439	463.86
45.1583	464.79
45.1728	524.41
45.1872	505.15
45.2017	468.41
45.2161	510.52
45.2305	504.03
45.2450	515.15
45.2594	495.23
45.2739	535.14
45.2883	492.88
45.3028	555.30
45.3172	510.74
45.3316	477.51
45.3461	505.08
45.3605	536.96
45.3750	521.48
45.3894	510.14
45.4038	490.43
45.4183	499.29
45.4327	510.38
45.4472	468.34
45.4616	502.08
45.4760	483.92
45.4905	500.36
45.5049	482.96
45.5194	493.20
45.5338	518.16
45.5482	489.00
45.5627	504.71
45.5771	500.64
45.5916	506.43
45.6060	495.77
45.6204	497.11
45.6349	532.15
45.6493	470.08
45.6638	492.64
45.6782	497.61
45.6926	511.82
45.7071	510.85
45.7215	483.77
45.7360	486.85
45.7504	517.42
45.7648	509.04
45.7793	521.36
45.7937	493.70
45.8082	514.93
45.8226	509.11
45.8370	489.34
45.8515	520.58
45.8659	522.84
45.8804	505.61
45.8948	510.84
45.9092	511.02
45.9237	516.11
45.9381	504.34
45.9526	499.50
45.9670	519.72
45.9814	502.95
45.9959	530.27
46.0103	492.50
46.0248	469.63
46.0392	488.34
46.0536	470.31
46.0681	458.09
46.0825	487.67
46.0970	488.56
46.1114	540.72
46.1258	522.86
46.1403	470.35
46.1547	462.07
46.1692	474.97
46.1836	499.94
46.1980	491.03
46.2125	526.74
46.2269	492.27
46.2414	482.64
46.2558	495.06
46.2702	476.47
46.2847	491.54
46.2991	496.22
46.3136	492.72
46.3280	521.37
46.3424	526.00
46.3569	533.44
46.3713	528.97
46.3858	504.37
46.4002	498.70
46.4146	519.06
46.4291	537.91
46.4435	513.76
46.4580	511.75
46.4724	486.53
46.4868	488.01
46.5013	501.82
46.5157	493.19
46.5302	490.37
46.5446	512.83
46.5590	488.70
46.5735	510.50
46.5879	486.77
46.6024	508.95
46.6168	508.79
46.6312	531.08
46.6457	519.44
46.6601	498.76
46.6746	488.68
46.6890	488.84
46.7034	509.86
46.7179	491.34
46.7323	505.49
46.7468	530.81
46.7612	505.93
46.7756	497.13
46.7901	537.88
46.8045	521.55
46.8190	508.07
46.8334	509.05
46.8478	514.09
46.8623	487.04
46.8767	521.38
46.8912	528.45
46.9056	525.85
46.9200	488.50
46.9345	525.89
46.9489	533.47
46.9634	518.73
46.9778	512.10
46.9922	484.42
47.0067	521.60
47.0211	540.76
47.0356	520.42
47.0500	537.32
47.0644	530.01
47.0789	505.14
47.0933	509.62
47.1078	507.65
47.1222	496.15
47.1366	513.14
47.1511	495.25
47.1655	520.12
47.1800	533.92
47.1944	489.06
47.2088	511.73
47.2233	512.33
47.2377	498.77
47.2522	508.27
47.2666	492.63
47.2810	504.42
47.2955	477.16
47.3099	503.90
47.3244	505.01
47.3388	491.45
47.3532	461.00
47.3677	499.02
47.3821	482.11
47.3966	479.96
47.4110	468.07
47.4254	531.34
47.4399	495.92
47.4543	481.01
47.4688	526.82
47.4832	531.26
47.4976	509.97
47.5121	497.73
47.5265	527.60
47.5410	519.07
47.5554	503.50
47.5698	483.22
47.5843	512.05
47.5987	491.74
47.6132	495.88
47.6276	471.10
47.6420	499.17
47.6565	510.98
47.6709	497.40
47.6854	478.95
47.6998	498.54
47.7142	531.37
47.7287	481.89
47.7431	497.68
47.7576	492.27
47.7720	495.04
47.7864	514.70
47.8009	496.44
47.8153	497.56
47.8298	516.63
47.8442	492.67
47.8586	527.45
47.8731	560.69
47.8875	504.52
47.9020	556.67
47.9164	533.34
47.9308	507.35
47.9453	550.39
47.9597	509.21
47.9742	498.82
47.9886	526.79
48.0030	475.27
48.0175	494.36
48.0319	530.82
48.0464	502.45
48.0608	516.45
48.0752	499.99
48.0897	540.89
48.1041	519.12
48.1186	521.16
48.1330	502.68
48.1474	485.20
48.1619	497.60
48.1763	487.71
48.1908	492.14
48.2052	495.27
48.2196	526.99
48.2341	499.13
48.2485	493.82
48.2630	495.75
48.2774	487.73
48.2918	521.29
48.3063	519.66
48.3207	479.96
48.3352	504.39
48.3496	514.38
48.3640	499.12
48.3785	483.05
48.3929	478.06
48.4074	490.44
48.4218	514.25
48.4362	523.54
48.4507	492.46
48.4651	513.37
48.4796	510.92
48.4940	522.27
48.5084	523.25
48.5229	496.28
48.5373	512.16
48.5518	530.64
48.5662	503.50
48.5806	514.40
48.5951	499.92
48.6095	506.45
48.6240	523.87
48.6384	507.16
48.6528	503.28
48.6673	506.00
48.6817	515.90
48.6962	514.56
48.7106	543.81
48.7250	552.67
48.7395	501.66
48.7539	514.98
48.7684	533.22
48.7828	537.72
48.7972	541.65
48.8117	534.62
48.8261	535.29
48.8406	537.65
48.8550	550.04
48.8694	610.04
48.8839	557.29
48.8983	576.37
48.9128	549.73
48.9272	562.86
48.9416	559.82
48.9561	611.85
48.9705	534.38
48.9850	575.07
48.9994	586.53
49.0139	599.13
49.0283	587.17
49.0427	606.62
49.0572	653.85
49.0716	672.61
49.0861	699.84
49.1005	687.66
49.1149	712.23
49.1294	782.14
49.1438	759.89
49.1583	812.58
49.1727	913.00
49.1871	941.56
49.2016	976.95
49.2160	1038.56
49.2305	1137.34
49.2449	1214.14
49.2593	1274.18
49.2738	1369.24
49.2882	1479.86
49.3027	1572.50
49.3171	1605.49
49.3315	1729.27
49.3460	1780.32
49.3604	1849.17
49.3749	1850.28
49.3893	1752.02
49.4037	1806.53
49.4182	1839.00
49.4326	1799.03
49.4471	1691.31
49.4615	1622.72
49.4759	1585.49
49.4904	1467.91
49.5048	1409.45
49.5193	1351.14
49.5337	1291.01
49.5481	1203.53
49.5626	1132.13
49.5770	1052.49
49.5915	957.28
49.6059	895.84
49.6203	905.74
49.6348	831.20
49.6492	785.31
49.6637	722.50
49.6781	711.72
49.6925	638.38
49.7070	652.09
49.7214	632.46
49.7359	640.29
49.7503	611.55
49.7647	605.29
49.7792	632.27
49.7936	591.34
49.8081	604.41
49.8225	563.28
49.8369	557.36
49.8514	579.18
49.8658	568.08
49.8803	586.81
49.8947	553.28
49.9091	532.99
49.9236	540.74
49.9380	507.79
49.9525	510.59
49.9669	510.30
49.9813	536.06
49.9958	518.60
50.0102	540.10
50.0247	524.68
50.0391	530.90
50.0535	544.16
50.0680	559.21
50.0824	520.93
50.0969	482.93
50.1113	505.84
50.1257	511.22
50.1402	524.07
50.1546	511.89
50.1691	529.18
50.1835	508.23
50.1979	502.57
50.2124	499.12
50.2268	486.77
50.2413	484.60
50.2557	506.26
50.2701	496.77
50.2846	538.17
50.2990	524.27
50.3135	512.68
50.3279	533.87
50.3423	570.74
50.3568	530.09
50.3712	522.82
50.3857	507.09
50.4001	533.82
50.4145	522.17
50.4290	526.01
50.4434	534.12
50.4579	513.20
50.4723	510.23
50.4867	523.78
50.5012	488.79
50.5156	492.78
50.5301	475.24
50.5445	469.19
50.5589	480.13
50.5734	508.15
50.5878	505.41
50.6023	510.93
50.6167	515.88
50.6311	531.28
50.6456	523.80
50.6600	504.71
50.6745	499.05
50.6889	498.86
50.7033	550.26
50.7178	520.12
50.7322	502.90
50.7467	484.42
50.7611	515.32
50.7755	517.65
50.7900	525.98
50.8044	500.57
50.8189	518.13
50.8333	493.07
50.8477	513.88
50.8622	509.79
50.8766	477.82
50.8911	507.89
50.9055	506.72
50.9199	480.30
50.9344	507.34
50.9488	504.12
50.9633	492.80
50.9777	479.78
50.9921	478.54
51.0066	507.80
51.0210	521.87
51.0355	499.03
51.0499	497.30
51.0643	531.87
51.0788	515.83
51.0932	510.01
51.1077	498.44
51.1221	497.90
51.1365	498.73
51.1510	483.79
51.1654	515.65
51.1799	507.97
51.1943	521.89
51.2087	491.01
51.2232	499.68
51.2376	510.37
51.2521	538.63
51.2665	531.44
51.2809	500.27
51.2954	479.81
51.3098	519.62
51.3243	519.73
51.3387	508.70
51.3531	488.20
51.3676	513.96
51.3820	513.96
51.3965	518.96
51.4109	521.84
51.4253	534.88
51.4398	499.27
51.4542	483.14
51.4687	493.09
51.4831	540.46
51.4975	507.48
51.5120	520.83
51.5264	496.73
51.5409	533.81
51.5553	553.03
51.5697	514.56
51.5842	499.06
51.5986	504.43
51.6131	498.10
51.6275	522.87
51.6419	523.86
51.6564	531.27
51.6708	524.23
51.6853	492.50
51.6997	494.99
51.7141	502.96
51.7286	491.56
51.7430	471.78
51.7575	475.88
51.7719	506.29
51.7863	517.36
51.8008	511.26
51.8152	541.51
51.8297	516.53
51.8441	517.34
51.8585	539.04
51.8730	514.12
51.8874	489.26
51.9019	521.40
51.9163	475.84
51.9307	488.17
51.9452	508.91
51.9596	480.99
51.9741	491.38
51.9885	516.41
52.0029	514.94
52.0174	538.99
52.0318	522.24
52.0463	471.65
52.0607	522.92
52.0751	548.05
52.0896	518.58
52.1040	482.49
52.1185	482.77
52.1329	518.07
52.1473	505.38
52.1618	513.49
52.1762	512.87
52.1907	489.61
52.2051	495.63
52.2195	536.27
52.2340	540.13
52.2484	524.29
52.2629	518.46
52.2773	503.45
52.2917	501.22
52.3062	503.16
52.3206	507.08
52.3351	521.04
52.3495	519.19
52.3639	466.10
52.3784	495.07
52.3928	509.97
52.4073	513.79
52.4217	496.95
52.4361	519.37
52.4506	543.28
52.4650	524.62
52.4795	517.35
52.4939	479.39
52.5083	493.53
52.5228	501.82
52.5372	526.13
52.5517	478.41
52.5661	497.04
52.5805	500.11
52.5950	502.25
52.6094	506.68
52.6239	525.74
52.6383	521.44
52.6527	506.46
52.6672	462.91
52.6816	492.54
52.6961	509.65
52.7105	543.21
52.7250	514.73
52.7394	489.68
52.7538	504.10
52.7683	482.56
52.7827	484.06
52.7972	512.80
52.8116	508.95
52.8260	513.90
52.8405	521.71
52.8549	547.99
52.8694	496.98
52.8838	480.63
52.8982	473.22
52.9127	535.60
52.9271	512.34
52.9416	522.80
52.9560	523.96
52.9704	535.91
52.9849	505.36
52.9993	509.89
53.0138	513.75
53.0282	503.92
53.0426	530.60
53.0571	509.79
53.0715	515.20
53.0860	495.65
53.1004	488.64
53.1148	527.24
53.1293	516.76
53.1437	515.03
53.1582	485.69
53.1726	473.54
53.1870	497.05
53.2015	522.26
53.2159	515.18
53.2304	511.41
53.2448	505.25
53.2592	504.10
53.2737	535.38
53.2881	507.29
53.3026	496.45
53.3170	515.95
53.3314	509.65
53.3459	519.88
53.3603	503.61
53.3748	518.06
53.3892	513.86
53.4036	484.09
53.4181	507.76
53.4325	531.11
53.4470	534.18
53.4614	497.22
53.4758	527.53
53.4903	509.87
53.5047	501.32
53.5192	532.77
53.5336	518.05
53.5480	486.85
53.5625	511.26
53.5769	491.96
53.5914	524.44
53.6058	516.79
53.6202	494.97
53.6347	513.25
53.6491	493.93
53.6636	507.73
53.6780	490.35
53.6924	538.33
53.7069	533.02
53.7213	502.59
53.7358	502.20
53.7502	567.50
53.7646	531.07
53.7791	525.10
53.7935	530.56
53.8080	536.49
53.8224	506.99
53.8368	491.08
53.8513	496.16
53.8657	533.18
53.8802	518.71
53.8946	519.22
53.9090	561.40
53.9235	559.92
53.9379	535.73
53.9524	479.94
53.9668	491.27
53.9812	509.59
53.9957	507.54
54.0101	510.89
54.0246	515.03
54.0390	499.10
54.0534	506.10
54.0679	497.26
54.0823	541.50
54.0968	554.91
54.1112	528.59
54.1256	529.67
54.1401	545.79
54.1545	539.96
54.1690	531.63
54.1834	552.33
54.1978	568.05
54.2123	605.51
54.2267	571.52
54.2412	603.76
54.2556	647.46
54.2700	650.56
54.2845	676.03
54.2989	625.58
54.3134	622.82
54.3278	634.96
54.3422	658.66
54.3567	619.05
54.3711	558.93
54.3856	586.42
54.4000	583.46
54.4144	575.20
54.4289	608.97
54.4433	580.94
54.4578	571.94
54.4722	547.89
54.4866	550.77
54.5011	505.47
54.5155	546.04
54.5300	570.29
54.5444	550.34
54.5588	518.70
54.5733	521.23
54.5877	555.24
54.6022	533.10
54.6166	508.01
54.6310	501.55
54.6455	529.81
54.6599	527.40
54.6744	527.47
54.6888	486.53
54.7032	520.00
54.7177	556.48
54.7321	522.24
54.7466	507.30
54.7610	481.39
54.7754	510.13
54.7899	488.34
54.8043	495.09
54.8188	532.15
54.8332	517.61
54.8476	530.48
54.8621	534.11
54.8765	506.34
54.8910	508.20
54.9054	526.92
54.9198	525.53
54.9343	522.28
54.9487	558.85
54.9632	526.97
54.9776	507.06
54.9920	519.84
55.0065	539.64
55.0209	528.57
55.0354	529.49
55.0498	511.10
55.0642	522.71
55.0787	519.06
55.0931	543.54
55.1076	535.92
55.1220	538.63
55.1364	516.82
55.1509	513.64
55.1653	514.59
55.1798	516.72
55.1942	516.91
55.2086	522.40
55.2231	509.92
55.2375	513.33
55.2520	490.30
55.2664	494.83
55.2808	524.08
55.2953	524.16
55.3097	520.00
55.3242	529.73
55.3386	553.31
55.3530	503.32
55.3675	494.70
55.3819	517.37
55.3964	517.33
55.4108	544.02
55.4252	553.68
55.4397	510.63
55.4541	527.07
55.4686	503.39
55.4830	523.94
55.4974	481.89
55.5119	516.48
55.5263	514.26
55.5408	499.78
55.5552	500.39
55.5696	516.90
55.5841	517.65
55.5985	520.27
55.6130	527.10
55.6274	522.03
55.6418	508.60
55.6563	534.25
55.6707	530.80
55.6852	533.44
55.6996	503.51
55.7140	528.75
55.7285	520.69
55.7429	524.22
55.7574	532.12
55.7718	507.88
55.7862	528.77
55.8007	506.43
55.8151	527.45
55.8296	513.55
55.8440	528.08
55.8584	538.05
55.8729	515.26
55.8873	505.22
55.9018	507.19
55.9162	514.93
55.9306	495.64
55.9451	549.11
55.9595	514.69
55.9740	503.80
55.9884	521.10
56.0028	515.27
56.0173	523.87
56.0317	516.82
56.0462	512.99
56.0606	542.53
56.0750	535.26
56.0895	558.64
56.1039	487.54
56.1184	514.18
56.1328	523.11
56.1472	483.18
56.1617	529.48
56.1761	528.33
56.1906	490.36
56.2050	504.73
56.2194	534.26
56.2339	544.94
56.2483	525.52
56.2628	528.96
56.2772	527.14
56.2916	539.19
56.3061	522.80
56.3205	526.90
56.3350	498.20
56.3494	548.79
56.3639	506.66
56.3783	530.23
56.3927	488.11
56.4072	516.30
56.4216	547.18
56.4361	526.96
56.4505	507.93
56.4649	516.02
56.4794	523.68
56.4938	532.68
56.5083	500.55
56.5227	534.50
56.5371	546.98
56.5516	564.35
56.5660	507.58
56.5805	533.20
56.5949	497.32
56.6093	494.55
56.6238	527.72
56.6382	518.57
56.6527	521.25
56.6671	519.89
56.6815	507.90
56.6960	524.99
56.7104	541.30
56.7249	497.10
56.7393	514.23
56.7537	497.06
56.7682	525.77
56.7826	515.60
56.7971	483.68
56.8115	535.78
56.8259	533.79
56.8404	529.10
56.8548	543.80
56.8693	525.33
56.8837	471.50
56.8981	535.60
56.9126	586.53
56.9270	533.69
56.9415	518.55
56.9559	501.29
56.9703	524.83
56.9848	507.21
56.9992	490.08
57.0137	521.27
57.0281	524.61
57.0425	514.03
57.0570	525.12
57.0714	510.62
57.0859	500.40
57.1003	534.95
57.1147	571.09
57.1292	554.10
57.1436	482.66
57.1581	515.23
57.1725	511.24
57.1869	533.65
57.2014	518.27
57.2158	526.97
57.2303	496.26
57.2447	529.09
57.2591	478.66
57.2736	518.31
57.2880	516.42
57.3025	536.37
57.3169	493.07
57.3313	525.52
57.3458	520.12
57.3602	495.75
57.3747	526.33
57.3891	483.59
57.4035	510.80
57.4180	559.04
57.4324	522.23
57.4469	508.31
57.4613	525.70
57.4757	570.13
57.4902	563.18
57.5046	563.28
57.5191	562.39
57.5335	527.18
57.5479	565.47
57.5624	537.86
57.5768	530.36
57.5913	553.15
57.6057	558.48
57.6201	541.56
57.6346	516.22
57.6490	511.10
57.6635	503.44
57.6779	518.13
57.6923	530.37
57.7068	581.82
57.7212	578.08
57.7357	566.43
57.7501	539.21
57.7645	578.42
57.7790	573.63
57.7934	604.19
57.8079	622.09
57.8223	679.34
57.8367	693.09
57.8512	707.44
57.8656	778.73
57.8801	765.50
57.8945	746.19
57.9089	747.66
57.9234	703.73
57.9378	709.33
57.9523	655.83
57.9667	633.45
57.9811	669.94
57.9956	693.21
58.0100	693.93
58.0245	711.41
58.0389	689.73
58.0533	665.55
58.0678	666.54
58.0822	615.90
58.0967	598.72
58.1111	610.95
58.1255	568.48
58.1400	562.34
58.1544	553.65
58.1689	584.17
58.1833	543.70
58.1977	541.70
58.2122	546.63
58.2266	523.05
58.2411	527.41
58.2555	545.84
58.2699	561.96
58.2844	573.34
58.2988	520.30
58.3133	538.70
58.3277	520.61
58.3421	515.83
58.3566	525.97
58.3710	532.29
58.3855	517.21
58.3999	525.82
58.4143	511.30
58.4288	547.17
58.4432	521.22
58.4577	531.59
58.4721	523.42
58.4865	528.68
58.5010	521.71
58.5154	533.20
58.5299	500.53
58.5443	532.66
58.5587	549.38
58.5732	521.42
58.5876	492.81
58.6021	520.97
58.6165	509.37
58.6309	508.40
58.6454	492.06
58.6598	494.66
58.6743	521.94
58.6887	518.51
58.7031	530.11
58.7176	506.74
58.7320	503.56
58.7465	506.19
58.7609	515.12
58.7753	510.94
58.7898	515.55
58.8042	532.64
58.8187	544.84
58.8331	547.11
58.8475	533.28
58.8620	532.76
58.8764	559.89
58.8909	552.74
58.9053	557.85
58.9197	520.86
58.9342	534.20
58.9486	508.42
58.9631	497.07
58.9775	502.77
58.9919	513.26
59.0064	526.51
59.0208	515.46
59.0353	516.91
59.0497	537.31
59.0641	533.00
59.0786	499.10
59.0930	525.85
59.1075	506.57
59.1219	536.09
59.1363	560.36
59.1508	516.69
59.1652	519.44
59.1797	542.78
59.1941	517.05
59.2085	528.98
59.2230	563.78
59.2374	582.31
59.2519	537.89
59.2663	523.48
59.2807	532.28
59.2952	530.33
59.3096	562.56
59.3241	558.82
59.3385	558.73
59.3529	551.98
59.3674	579.87
59.3818	581.95
59.3963	595.94
59.4107	543.84
59.4251	564.09
59.4396	545.68
59.4540	537.68
59.4685	573.31
59.4829	558.80
59.4973	528.35
59.5118	559.56
59.5262	552.97
59.5407	572.99
59.5551	544.58
59.5695	539.30
59.5840	542.87
59.5984	543.87
59.6129	512.68
59.6273	519.91
59.6417	533.64
59.6562	548.09
59.6706	518.71
59.6851	510.00
59.6995	528.69
59.7139	553.62
59.7284	563.50
59.7428	541.57
59.7573	543.31
59.7717	506.05
59.7861	517.71
59.8006	565.78
59.8150	519.22
59.8295	535.34
59.8439	503.92
59.8583	539.04
59.8728	553.80
59.8872	518.90
59.9017	511.48
59.9161	522.49
59.9305	526.57
59.9450	583.86
59.9594	529.03
59.9739	549.98
59.9883	519.78
60.0027	524.29
60.0172	510.17
60.0316	505.64
60.0461	501.74
60.0605	540.96
60.0750	534.54
60.0894	534.48
60.1038	538.10
60.1183	529.97
60.1327	521.67
60.1472	488.30
60.1616	523.82
60.1760	549.87
60.1905	534.20
60.2049	515.45
60.2194	523.91
60.2338	547.39
60.2482	562.36
60.2627	543.73
60.2771	507.28
60.2916	530.09
60.3060	530.03
60.3204	543.77
60.3349	540.66
60.3493	542.82
60.3638	547.52
60.3782	542.41
60.3926	564.73
60.4071	571.43
60.4215	542.15
60.4360	531.15
60.4504	517.05
60.4648	519.62
60.4793	541.94
60.4937	511.58
60.5082	522.00
60.5226	555.22
60.5370	502.05
60.5515	523.22
60.5659	535.05
60.5804	552.01
60.5948	522.14
60.6092	560.45
60.6237	559.25
60.6381	525.50
60.6526	489.92
60.6670	512.14
60.6814	524.28
60.6959	552.87
60.7103	566.00
60.7248	536.43
60.7392	565.22
60.7536	546.81
60.7681	543.88
60.7825	563.79
60.7970	524.01
60.8114	531.53
60.8258	525.96
60.8403	533.76
60.8547	547.60
60.8692	523.94
60.8836	563.97
60.8980	548.74
60.9125	545.44
60.9269	520.90
60.9414	529.71
60.9558	527.79
60.9702	516.22
60.9847	540.72
60.9991	533.53
61.0136	474.46
61.0280	559.49
61.0424	565.91
61.0569	494.85
61.0713	529.59
61.0858	531.99
61.1002	515.47
61.1146	513.82
61.1291	532.13
61.1435	510.61
61.1580	528.02
61.1724	544.17
61.1868	532.79
61.2013	541.11
61.2157	554.88
61.2302	568.83
61.2446	554.04
61.2590	544.73
61.2735	573.38
61.2879	529.75
61.3024	530.51
61.3168	530.71
61.3312	556.17
61.3457	549.11
61.3601	513.84
61.3746	552.76
61.3890	529.81
61.4034	518.67
61.4179	526.01
61.4323	560.79
61.4468	534.70
61.4612	557.92
61.4756	589.39
61.4901	554.35
61.5045	511.04
61.5190	535.40
61.5334	538.56
61.5478	535.33
61.5623	539.48
61.5767	547.41
61.5912	541.94
61.6056	511.00
61.6200	556.31
61.6345	542.81
61.6489	533.81
61.6634	519.67
61.6778	549.45
61.6922	536.53
61.7067	579.71
61.7211	549.70
61.7356	514.01
61.7500	526.10
61.7644	547.19
61.7789	571.50
61.7933	559.39
61.8078	572.11
61.8222	560.63
61.8366	534.93
61.8511	566.06
61.8655	565.08
61.8800	507.83
61.8944	535.69
61.9088	570.56
61.9233	563.20
61.9377	581.33
61.9522	557.65
61.9666	499.96
61.9810	505.87
61.9955	551.18
62.0099	536.87
62.0244	549.12
62.0388	546.74
62.0532	555.39
62.0677	600.89
62.0821	558.66
62.0966	538.53
62.1110	533.85
62.1254	522.53
62.1399	548.64
62.1543	562.66
62.1688	567.97
62.1832	569.89
62.1976	544.41
62.2121	563.69
62.2265	540.49
62.2410	509.06
62.2554	528.70
62.2698	530.01
62.2843	537.16
62.2987	529.52
62.3132	560.53
62.3276	553.88
62.3420	579.34
62.3565	538.54
62.3709	517.14
62.3854	503.37
62.3998	549.77
62.4142	537.99
62.4287	562.61
62.4431	552.60
62.4576	536.40
62.4720	561.83
62.4864	574.44
62.5009	566.93
62.5153	529.61
62.5298	525.28
62.5442	531.27
62.5586	555.47
62.5731	555.90
62.5875	556.95
62.6020	509.23
62.6164	543.76
62.6308	561.27
62.6453	584.77
62.6597	566.56
62.6742	550.30
62.6886	531.29
62.7030	544.60
62.7175	556.53
62.7319	588.89
62.7464	558.94
62.7608	583.31
62.7752	547.40
62.7897	566.73
62.8041	592.19
62.8186	572.99
62.8330	568.23
62.8474	539.12
62.8619	545.23
62.8763	558.54
62.8908	577.70
62.9052	597.84
62.9196	561.59
62.9341	565.09
62.9485	582.50
62.9630	555.32
62.9774	561.80
62.9918	568.31
63.0063	570.31
63.0207	574.42
63.0352	591.90
63.0496	592.72
63.0640	584.96
63.0785	591.68
63.0929	589.75
63.1074	591.35
63.1218	580.73
63.1362	598.13
63.1507	589.15
63.1651	575.41
63.1796	593.80
63.1940	580.90
63.2084	573.94
63.2229	577.45
63.2373	577.58
63.2518	582.71
63.2662	587.98
63.2806	608.35
63.2951	586.51
63.3095	593.63
63.3240	593.79
63.3384	616.96
63.3528	583.00
63.3673	644.76
63.3817	629.21
63.3962	652.69
63.4106	611.06
63.4250	614.99
63.4395	651.14
63.4539	665.95
63.4684	687.43
63.4828	729.46
63.4972	730.42
63.5117	783.22
63.5261	813.89
63.5406	834.53
63.5550	955.22
63.5694	931.82
63.5839	985.49
63.5983	922.81
63.6128	845.34
63.6272	814.18
63.6416	806.53
63.6561	798.40
63.6705	757.45
63.6850	800.74
63.6994	775.42
63.7138	842.21
63.7283	819.51
63.7427	809.38
63.7572	824.87
63.7716	781.18
63.7861	805.13
63.8005	769.22
63.8149	698.05
63.8294	684.91
63.8438	661.92
63.8583	651.08
63.8727	634.53
63.8871	612.10
63.9016	661.24
63.9160	656.18
63.9305	615.12
63.9449	623.86
63.9593	565.53
63.9738	566.05
63.9882	615.60
64.0027	599.42
64.0171	625.19
64.0315	631.21
64.0460	562.19
64.0604	559.55
64.0749	629.74
64.0893	627.80
64.1037	605.86
64.1182	621.08
64.1326	607.40
64.1471	549.22
64.1615	615.62
64.1759	616.91
64.1904	563.26
64.2048	563.33
64.2193	579.88
64.2337	603.83
64.2481	620.72
64.2626	560.76
64.2770	618.11
64.2915	592.53
64.3059	596.09
64.3203	561.99
64.3348	581.47
64.3492	603.90
64.3637	594.54
64.3781	590.14
64.3925	580.09
64.4070	582.82
64.4214	584.89
64.4359	608.61
64.4503	618.43
64.4647	610.46
64.4792	599.25
64.4936	599.85
64.5081	588.19
64.5225	606.38
64.5369	641.71
64.5514	631.80
64.5658	626.72
64.5803	617.25
64.5947	607.75
64.6091	645.82
64.6236	621.45
64.6380	667.74
64.6525	646.62
64.6669	662.44
64.6813	644.28
64.6958	673.75
64.7102	682.57
64.7247	673.18
64.7391	654.15
64.7535	699.64
64.7680	703.58
64.7824	752.66
64.7969	731.60
64.8113	749.53
64.8257	800.97
64.8402	843.38
64.8546	842.58
64.8691	845.92
64.8835	786.51
64.8979	893.18
64.9124	826.17
64.9268	842.96
64.9413	924.89
64.9557	897.63
64.9701	995.62
64.9846	1079.92
64.9990	1154.17
65.0135	1270.31
65.0279	1388.66
65.0423	1617.21
65.0568	2060.56
65.0712	2449.49
65.0857	3249.98
65.1001	4284.69
65.1145	5834.90
65.1290	7624.67
65.1434	9304.72
65.1579	10554.04
65.1723	11573.23
65.1867	11003.82
65.2012	9810.62
65.2156	8323.42
65.2301	6451.61
65.2445	5256.27
65.2589	4361.17
65.2734	4053.89
65.2878	4307.26
65.3023	4728.16
65.3167	5474.78
65.3311	6250.59
65.3456	6880.28
65.3600	6919.56
65.3745	6425.00
65.3889	5414.23
65.4033	4443.90
65.4178	3459.53
65.4322	2681.48
65.4467	2018.43
65.4611	1718.86
65.4755	1498.90
65.4900	1306.16
65.5044	1175.27
65.5189	1033.45
65.5333	968.64
65.5477	984.35
65.5622	903.47
65.5766	841.09
65.5911	824.08
65.6055	802.32
65.6199	754.33
65.6344	764.25
65.6488	727.86
65.6633	743.02
65.6777	756.27
65.6921	742.17
65.7066	761.25
65.7210	687.27
65.7355	689.90
65.7499	714.68
65.7643	679.55
65.7788	651.13
65.7932	676.03
65.8077	684.16
65.8221	673.88
65.8365	632.96
65.8510	631.74
65.8654	649.76
65.8799	621.83
65.8943	661.64
65.9087	667.30
65.9232	634.74
65.9376	644.82
65.9521	647.90
65.9665	640.43
65.9809	584.57
65.9954	623.59
66.0098	633.47
66.0243	609.15
66.0387	627.33
66.0531	654.65
66.0676	595.02
66.0820	589.51
66.0965	595.46
66.1109	627.91
66.1253	653.30
66.1398	630.03
66.1542	602.55
66.1687	602.02
66.1831	610.41
66.1975	586.00
66.2120	597.20
66.2264	637.92
66.2409	650.31
66.2553	609.87
66.2697	611.07
66.2842	592.32
66.2986	598.26
66.3131	603.32
66.3275	581.40
66.3419	583.74
66.3564	585.66
66.3708	602.12
66.3853	636.95
66.3997	567.38
66.4141	575.21
66.4286	638.26
66.4430	574.10
66.4575	554.72
66.4719	606.95
66.4863	571.85
66.5008	583.82
66.5152	582.93
66.5297	567.68
66.5441	589.33
66.5585	580.25
66.5730	561.75
66.5874	583.77
66.6019	579.04
66.6163	565.47
66.6307	577.46
66.6452	589.31
66.6596	600.12
66.6741	608.74
66.6885	594.58
66.7029	629.73
66.7174	600.00
66.7318	578.30
66.7463	586.41
66.7607	569.31
66.7751	571.38
66.7896	553.45
66.8040	554.23
66.8185	583.07
66.8329	578.27
66.8473	597.52
66.8618	613.89
66.8762	561.94
66.8907	556.44
66.9051	549.23
66.9195	557.88
66.9340	579.65
66.9484	578.52
66.9629	525.88
66.9773	559.82
66.9917	587.54
67.0062	588.88
67.0206	593.47
67.0351	581.44
67.0495	568.39
67.0639	540.83
67.0784	591.31
67.0928	606.82
67.1073	561.88
67.1217	573.80
67.1361	546.97
67.1506	584.99
67.1650	564.92
67.1795	584.98
67.1939	581.53
67.2083	578.60
67.2228	564.44
67.2372	572.54
67.2517	588.42
67.2661	581.23
67.2805	590.10
67.2950	592.30
67.3094	586.20
67.3239	591.70
67.3383	596.46
67.3527	579.46
67.3672	567.68
67.3816	591.06
67.3961	578.02
67.4105	547.15
67.4250	583.14
67.4394	560.20
67.4538	555.43
67.4683	583.04
67.4827	591.18
67.4972	563.42
67.5116	544.42
67.5260	580.58
67.5405	537.56
67.5549	594.80
67.5694	596.28
67.5838	562.91
67.5982	550.10
67.6127	609.19
67.6271	611.29
67.6416	565.92
67.6560	578.23
67.6704	553.32
67.6849	539.35
67.6993	573.62
67.7138	577.75
67.7282	579.70
67.7426	598.89
67.7571	569.33
67.7715	536.27
67.7860	566.41
67.8004	550.69
67.8148	581.99
67.8293	573.29
67.8437	569.86
67.8582	595.05
67.8726	527.31
67.8870	576.99
67.9015	588.05
67.9159	556.68
67.9304	599.35
67.9448	586.98
67.9592	535.03
67.9737	529.15
67.9881	542.90
68.0026	560.40
68.0170	598.07
68.0314	552.22
68.0459	575.41
68.0603	547.63
68.0748	553.76
68.0892	584.87
68.1036	541.97
68.1181	565.87
68.1325	554.52
68.1470	551.86
68.1614	586.80
68.1758	587.75
68.1903	584.14
68.2047	558.56
68.2192	575.59
68.2336	614.01
68.2480	568.60
68.2625	575.08
68.2769	550.46
68.2914	546.18
68.3058	553.79
68.3202	588.67
68.3347	621.77
68.3491	612.67
68.3636	630.63
68.3780	577.43
68.3924	539.76
68.4069	530.08
68.4213	586.58
68.4358	568.14
68.4502	584.42
68.4646	616.97
68.4791	594.96
68.4935	570.69
68.5080	584.71
68.5224	556.37
68.5368	578.37
68.5513	628.72
68.5657	576.22
68.5802	560.52
68.5946	569.23
68.6090	592.64
68.6235	540.84
68.6379	634.06
68.6524	580.65
68.6668	621.62
68.6812	616.62
68.6957	586.80
68.7101	578.16
68.7246	569.72
68.7390	534.61
68.7534	554.63
68.7679	592.32
68.7823	568.45
68.7968	563.63
68.8112	600.88
68.8256	548.27
68.8401	570.36
68.8545	579.67
68.8690	562.67
68.8834	534.84
68.8978	574.45
68.9123	520.78
68.9267	521.42
68.9412	545.59
68.9556	585.16
68.9700	530.57
68.9845	552.76
68.9989	582.22
69.0134	569.58
69.0278	579.54
69.0422	561.64
69.0567	593.80
69.0711	614.48
69.0856	561.03
69.1000	582.76
69.1144	562.16
69.1289	628.33
69.1433	505.90
69.1578	537.43
69.1722	573.17
69.1866	562.83
69.2011	567.71
69.2155	609.82
69.2300	602.22
69.2444	534.56
69.2588	584.78
69.2733	601.80
69.2877	557.08
69.3022	521.95
69.3166	553.36
69.3310	586.53
69.3455	582.90
69.3599	583.95
69.3744	557.19
69.3888	555.36
69.4032	582.19
69.4177	529.72
69.4321	578.97
69.4466	561.03
69.4610	542.14
69.4754	576.14
69.4899	624.85
69.5043	608.55
69.5188	565.01
69.5332	566.82
69.5476	509.52
69.5621	581.71
69.5765	580.78
69.5910	577.63
69.6054	597.41
69.6198	576.63
69.6343	647.67
69.6487	574.61
69.6632	600.71
69.6776	575.93
69.6920	569.04
69.7065	572.26
69.7209	579.50
69.7354	566.05
69.7498	548.99
69.7642	542.42
69.7787	580.30
69.7931	603.73
69.8076	563.17
69.8220	537.34
69.8364	584.06
69.8509	569.59
69.8653	544.82
69.8798	586.34
69.8942	578.95
69.9086	584.10
69.9231	570.92
69.9375	601.79
69.9520	552.66
69.9664	540.28
69.9808	524.59
69.9953	614.45
70.0097	562.30
70.0242	562.70
70.0386	547.39
70.0530	557.31
70.0675	612.41
70.0819	623.97
70.0964	527.21
70.1108	579.57
70.1252	589.16
70.1397	521.01
70.1541	512.08
70.1686	560.94
70.1830	580.88
70.1974	543.11
70.2119	634.82
70.2263	572.68
70.2408	564.85
70.2552	577.36
70.2696	555.95
70.2841	566.13
70.2985	596.89
70.3130	561.96
70.3274	551.88
70.3418	553.49
70.3563	591.66
70.3707	570.70
70.3852	576.65
70.3996	523.35
70.4140	546.26
70.4285	638.93
70.4429	606.58
70.4574	590.76
70.4718	590.04
70.4862	564.35
70.5007	575.52
70.5151	568.94
70.5296	565.94
70.5440	603.60
70.5584	605.95
70.5729	524.07
70.5873	523.46
70.6018	539.17
70.6162	565.29
70.6306	558.99
70.6451	590.95
70.6595	598.93
70.6740	610.87
70.6884	650.09
70.7028	621.61
70.7173	605.04
70.7317	569.87
70.7462	556.32
70.7606	542.33
70.7750	568.06
70.7895	538.31
70.8039	546.78
70.8184	594.10
70.8328	631.54
70.8472	586.69
70.8617	585.82
70.8761	588.91
70.8906	542.74
70.9050	579.64
70.9194	624.92
70.9339	630.55
70.9483	607.54
70.9628	589.29
70.9772	567.97
70.9916	534.11
71.0061	534.94
71.0205	556.58
71.0350	577.45
71.0494	567.17
71.0638	553.15
71.0783	554.26
71.0927	606.62
71.1072	601.60
71.1216	585.00
71.1361	570.56
71.1505	616.06
71.1649	632.43
71.1794	642.42
71.1938	594.38
71.2083	563.05
71.2227	531.35
71.2371	499.85
71.2516	620.67
71.2660	612.02
71.2805	598.05
71.2949	593.21
71.3093	596.99
71.3238	619.78
71.3382	598.85
71.3527	518.73
71.3671	513.51
71.3815	576.46
71.3960	625.99
71.4104	656.23
71.4249	598.87
71.4393	584.43
71.4537	567.09
71.4682	566.45
71.4826	561.97
71.4971	582.32
71.5115	631.03
71.5259	620.43
71.5404	579.97
71.5548	570.65
71.5693	565.26
71.5837	558.76
71.5981	534.22
71.6126	504.87
71.6270	550.25
71.6415	609.26
71.6559	614.96
71.6703	607.58
71.6848	579.70
71.6992	589.80
71.7137	555.09
71.7281	557.90
71.7425	562.97
71.7570	598.54
71.7714	574.19
71.7859	544.76
71.8003	582.02
71.8147	586.81
71.8292	578.05
71.8436	580.28
71.8581	588.44
71.8725	601.73
71.8869	593.00
71.9014	536.01
71.9158	507.84
71.9303	572.49
71.9447	639.12
71.9591	607.76
71.9736	594.92
71.9880	564.23
72.0025	488.83
72.0169	530.68
72.0313	618.53
72.0458	641.75
72.0602	600.67
72.0747	588.17
72.0891	644.38
72.1035	636.85
72.1180	572.13
72.1324	644.42
72.1469	665.02
72.1613	626.29
72.1757	597.55
72.1902	604.89
72.2046	671.97
72.2191	606.21
72.2335	510.80
72.2479	581.37
72.2624	588.86
72.2768	601.63
72.2913	550.70
72.3057	590.48
72.3201	566.44
72.3346	488.20
72.3490	533.84
72.3635	520.91
72.3779	575.09
72.3923	601.04
72.4068	593.58
72.4212	592.65
72.4357	569.10
72.4501	475.42
72.4645	580.84
72.4790	580.84
72.4934	559.74
72.5079	559.55
72.5223	582.77
72.5367	566.13
72.5512	591.27
72.5656	600.43
72.5801	592.16
72.5945	558.74
72.6089	516.15
72.6234	528.54
72.6378	586.59
72.6523	621.62
72.6667	663.52
72.6811	668.54
72.6956	693.53
72.7100	662.08
72.7245	593.07
72.7389	566.11
72.7533	574.91
72.7678	576.55
72.7822	547.71
72.7967	503.27
72.8111	595.31
72.8255	605.34
72.8400	573.41
72.8544	616.41
72.8689	569.68
72.8833	448.38

Result vector
22.1120	547.01
22.1264	564.08
22.1409	529.79
22.1553	557.48
22.1697	569.64
22.1842	639.14
22.1986	578.96
22.2131	523.71
22.2275	582.37
22.2419	569.39
22.2564	639.03
22.2708	495.37
22.2853	518.33
22.2997	528.80
22.3141	627.59
22.3286	571.96
22.3430	531.08
22.3575	584.60
22.3719	517.24
22.3863	543.61
22.4008	516.48
22.4152	604.63
22.4297	604.59
22.4441	539.44
22.4585	593.89
22.4730	542.49
22.4874	554.41
22.5019	576.47
22.5163	679.88
22.5307	591.65
22.5452	553.27
22.5596	517.77
22.5741	515.09
22.5885	679.81
22.6029	636.82
22.6174	532.43
22.6318	475.82
22.6463	473.08
22.6607	517.93
22.6751	631.10
22.6896	617.86
22.7040	601.31
22.7185	643.26
22.7329	663.33
22.7473	576.20
22.7618	555.22
22.7762	594.14
22.7907	631.13
22.8051	619.51
22.8195	567.33
22.8340	506.54
22.8484	577.78
22.8629	556.62
22.8773	579.12
22.8917	491.84
22.9062	622.54
22.9206	644.21
22.9351	552.01
22.9495	582.33
22.9639	587.78
22.9784	629.98
22.9928	604.89
23.0073	650.14
23.0217	616.75
23.0361	621.10
23.0506	605.87
23.0650	595.07
23.0795	681.54
23.0939	602.72
23.1083	616.96
23.1228	665.99
23.1372	560.59
23.1517	585.07
23.1661	533.07
23.1806	623.56
23.1950	544.56
23.2094	495.36
23.2239	573.32
23.2383	528.06
23.2528	550.05
23.2672	549.52
23.2816	571.72
23.2961	576.44
23.3105	555.83
23.3250	536.63
23.3394	533.74
23.3538	493.31
23.3683	571.30
23.3827	576.42
23.3972	542.01
23.4116	566.26
23.4260	564.50
23.4405	582.41
23.4549	565.76
23.4694	569.61
23.4838	577.25
23.4982	602.83
23.5127	546.63
23.5271	513.44
23.5416	562.94
23.5560	566.90
23.5704	484.17
23.5849	551.47
23.5993	548.41
23.6138	563.86
23.6282	543.68
23.6426	607.21
23.6571	488.00
23.6715	517.81
23.6860	528.10
23.7004	597.64
23.7148	553.04
23.7293	561.73
23.7437	500.51
23.7582	561.95
23.7726	623.99
23.7870	605.22
23.8015	469.49
23.8159	556.15
23.8304	521.57
23.8448	590.87
23.8592	549.00
23.8737	555.55
23.8881	551.93
23.9026	600.29
23.9170	600.09
23.9314	539.39
23.9459	519.09
23.9603	528.35
23.9748	586.95
23.9892	586.92
24.0036	520.70
24.0181	561.36
24.0325	590.31
24.0470	563.75
24.0614	612.13
24.0758	597.11
24.0903	556.02
24.1047	585.30
24.1192	519.24
24.1336	554.80
24.1480	547.14
24.1625	603.36
24.1769	606.09
24.1914	568.18
24.2058	583.42
24.2202	592.29
24.2347	666.15
24.2491	607.06
24.2636	561.62
24.2780	576.95
24.2924	565.88
24.3069	610.09
24.3213	576.77
24.3358	573.78
24.3502	561.28
24.3646	562.75
24.3791	522.82
24.3935	528.24
24.4080	516.73
24.4224	592.76
24.4368	551.44
24.4513	557.15
24.4657	570.49
24.4802	554.08
24.4946	526.92
24.5090	535.65
24.5235	580.95
24.5379	606.85
24.5524	574.73
24.5668	528.75
24.5812	550.42
24.5957	571.78
24.6101	534.83
24.6246	503.59
24.6390	600.30
24.6534	567.09
24.6679	579.43
24.6823	570.71
24.6968	547.50
24.7112	570.05
24.7256	526.77
24.7401	518.32
24.7545	538.33
24.7690	580.80
24.7834	562.80
24.7978	575.06
24.8123	577.17
24.8267	603.94
24.8412	539.38
24.8556	539.18
24.8700	580.17
24.8845	546.45
24.8989	532.93
24.9134	583.18
24.9278	559.04
24.9422	550.21
24.9567	526.58
24.9711	543.22
24.9856	578.93
25.0000	538.35
25.0144	625.91
25.0289	567.28
25.0433	523.12
25.0578	591.53
25.0722	559.40
25.0866	622.67
25.1011	553.17
25.1155	545.44
25.1300	532.72
25.1444	564.44
25.1588	541.64
25.1733	572.91
25.1877	526.61
25.2022	505.48
25.2166	573.96
25.2310	554.82
25.2455	533.62
25.2599	542.00
25.2744	584.01
25.2888	560.57
25.3032	547.60
25.3177	555.76
25.3321	500.13
25.3466	552.91
25.3610	530.97
25.3754	564.99
25.3899	546.50
25.4043	489.50
25.4188	512.09
25.4332	553.77
25.4476	525.69
25.4621	534.39
25.4765	530.85
25.4910	516.55
25.5054	505.83
25.5198	528.33
25.5343	508.90
25.5487	569.51
25.5632	538.67
25.5776	561.96
25.5920	557.73
25.6065	553.11
25.6209	603.90
25.6354	554.33
25.6498	540.10
25.6642	531.79
25.6787	558.28
25.6931	528.79
25.7076	482.91
25.7220	538.48
25.7364	551.78
25.7509	551.09
25.7653	532.54
25.7798	557.21
25.7942	554.17
25.8086	509.68
25.8231	526.60
25.8375	544.52
25.8520	557.24
25.8664	547.28
25.8808	538.17
25.8953	548.58
25.9097	546.91
25.9242	547.17
25.9386	569.88
25.9530	515.46
25.9675	527.87
25.9819	553.59
25.9964	522.27
26.0108	530.32
26.0252	546.50
26.0397	528.88
26.0541	546.34
26.0686	563.37
26.0830	527.78
26.0974	522.72
26.1119	531.85
26.1263	508.15
26.1408	501.59
26.1552	519.31
26.1696	537.67
26.1841	547.68
26.1985	536.74
26.2130	530.79
26.2274	527.12
26.2418	548.19
26.2563	583.56
26.2707	545.08
26.2852	535.15
26.2996	514.28
26.3140	529.13
26.3285	541.39
26.3429	510.47
26.3574	480.73
26.3718	526.18
26.3862	577.41
26.4007	564.67
26.4151	568.98
26.4296	539.46
26.4440	527.76
26.4584	526.53
26.4729	518.21
26.4873	527.10
26.5018	569.61
26.5162	573.50
26.5306	556.58
26.5451	516.80
26.5595	537.71
26.5740	539.07
26.5884	523.67
26.6028	524.44
26.6173	513.96
26.6317	557.09
26.6462	545.02
26.6606	535.91
26.6750	503.36
26.6895	515.08
26.7039	555.70
26.7184	540.56
26.7328	521.43
26.7472	518.64
26.7617	526.60
26.7761	532.19
26.7906	513.00
26.8050	506.33
26.8194	512.41
26.8339	523.05
26.8483	524.81
26.8628	542.51
26.8772	537.99
26.8917	518.24
26.9061	551.53
26.9205	525.56
26.9350	519.47
26.9494	521.89
26.9639	540.05
26.9783	511.32
26.9927	507.79
27.0072	500.15
27.0216	522.84
27.0361	515.48
27.0505	507.48
27.0649	529.68
27.0794	500.77
27.0938	513.17
27.1083	522.43
27.1227	538.86
27.1371	514.19
27.1516	511.61
27.1660	499.64
27.1805	502.75
27.1949	495.06
27.2093	510.15
27.2238	498.86
27.2382	499.16
27.2527	514.08
27.2671	521.31
27.2815	560.21
27.2960	529.69
27.3104	534.76
27.3249	520.98
27.3393	533.69
27.3537	522.37
27.3682	513.81
27.3826	519.08
27.3971	539.88
27.4115	522.81
27.4259	542.12
27.4404	514.26
27.4548	495.55
27.4693	512.68
27.4837	527.29
27.4981	529.99
27.5126	496.01
27.5270	518.73
27.5415	516.45
27.5559	537.39
27.5703	548.80
27.5848	526.09
27.5992	506.13
27.6137	496.34
27.6281	499.48
27.6425	530.27
27.6570	530.57
27.6714	499.35
27.6859	511.41
27.7003	519.01
27.7147	530.54
27.7292	516.10
27.7436	533.56
27.7581	524.26
27.7725	504.48
27.7869	516.44
27.8014	514.05
27.8158	531.97
27.8303	525.67
27.8447	533.54
27.8591	489.93
27.8736	514.14
27.8880	510.79
27.9025	537.39
27.9169	509.99
27.9313	521.63
27.9458	511.35
27.9602	478.90
27.9747	493.17
27.9891	473.15
28.0035	502.16
28.0180	553.13
28.0324	536.40
28.0469	546.56
28.0613	553.70
28.0757	545.04
28.0902	536.77
28.1046	484.51
28.1191	513.33
28.1335	490.73
28.1479	492.16
28.1624	535.61
28.1768	476.41
28.1913	503.73
28.2057	508.90
28.2201	499.90
28.2346	518.40
28.2490	520.07
28.2635	503.93
28.2779	495.86
28.2923	533.00
28.3068	506.33
28.3212	514.98
28.3357	494.91
28.3501	495.57
28.3645	502.13
28.3790	527.79
28.3934	485.68
28.4079	507.00
28.4223	542.71
28.4367	530.40
28.4512	511.30
28.4656	514.20
28.4801	501.51
28.4945	478.11
28.5089	491.32
28.5234	497.96
28.5378	511.19
28.5523	511.61
28.5667	509.92
28.5811	531.67
28.5956	490.38
28.6100	522.07
28.6245	533.03
28.6389	559.11
28.6533	504.52
28.6678	518.17
28.6822	488.96
28.6967	507.01
28.7111	535.52
28.7255	486.51
28.7400	516.07
28.7544	495.17
28.7689	505.09
28.7833	496.76
28.7977	508.95
28.8122	507.12
28.8266	522.39
28.8411	521.77
28.8555	516.13
28.8699	519.52
28.8844	510.39
28.8988	488.20
28.9133	491.96
28.9277	511.82
28.9421	547.23
28.9566	485.00
28.9710	504.35
28.9855	502.20
28.9999	487.21
29.0143	467.53
29.0288	483.10
29.0432	498.37
29.0577	478.65
29.0721	480.24
29.0865	555.94
29.1010	517.15
29.1154	521.41
29.1299	527.55
29.1443	495.65
29.1587	493.25
29.1732	508.85
29.1876	474.11
29.2021	481.20
29.2165	551.49
29.2309	507.75
29.2454	502.02
29.2598	505.57
29.2743	513.13
29.2887	510.23
29.3031	541.35
29.3176	514.46
29.3320	505.83
29.3465	512.80
29.3609	509.36
29.3753	480.72
29.3898	509.20
29.4042	516.96
29.4187	523.84
29.4331	513.23
29.4475	526.04
29.4620	512.74
29.4764	522.21
29.4909	517.38
29.5053	502.23
29.5197	467.78
29.5342	501.45
29.5486	477.57
29.5631	500.52
29.5775	521.62
29.5919	496.80
29.6064	509.57
29.6208	529.54
29.6353	523.98
29.6497	501.36
29.6641	518.16
29.6786	472.27
29.6930	466.59
29.7075	522.71
29.7219	539.87
29.7363	490.89
29.7508	511.52
29.7652	492.94
29.7797	484.33
29.7941	505.94
29.8085	497.34
29.8230	475.58
29.8374	490.13
29.8519	488.41
29.8663	499.40
29.8807	489.68
29.8952	517.71
29.9096	515.36
29.9241	521.73
29.9385	505.41
29.9529	538.79
29.9674	535.18
29.9818	487.95
29.9963	501.65
30.0107	500.79
30.0251	478.09
30.0396	491.05
30.0540	494.78
30.0685	508.66
30.0829	503.85
30.0973	487.85
30.1118	504.19
30.1262	541.95
30.1407	501.38
30.1551	484.63
30.1695	507.48
30.1840	506.78
30.1984	476.64
30.2129	504.88
30.2273	516.14
30.2417	504.47
30.2562	479.67
30.2706	524.17
30.2851	534.66
30.2995	496.52
30.3139	526.72
30.3284	520.93
30.3428	526.06
30.3573	496.88
30.3717	529.25
30.3861	546.86
30.4006	528.02
30.4150	553.44
30.4295	543.17
30.4439	535.91
30.4583	547.20
30.4728	535.91
30.4872	575.42
30.5017	616.77
30.5161	638.45
30.5305	658.66
30.5450	691.46
30.5594	693.28
30.5739	731.41
30.5883	746.75
30.6028	724.73
30.6172	720.46
30.6316	670.31
30.6461	710.39
30.6605	702.43
30.6750	620.98
30.6894	618.57
30.7038	623.78
30.7183	589.28
30.7327	580.53
30.7472	557.01
30.7616	534.36
30.7760	538.83
30.7905	533.10
30.8049	509.16
30.8194	540.34
30.8338	535.47
30.8482	530.02
30.8627	545.84
30.8771	552.41
30.8916	530.83
30.9060	551.34
30.9204	541.11
30.9349	521.97
30.9493	508.75
30.9638	488.93
30.9782	511.86
30.9926	469.16
31.0071	485.46
31.0215	516.00
31.0360	519.57
31.0504	494.17
31.0648	505.77
31.0793	479.89
31.0937	506.26
31.1082	506.45
31.1226	520.22
31.1370	532.89
31.1515	505.36
31.1659	524.14
31.1804	532.28
31.1948	489.42
31.2092	506.77
31.2237	521.39
31.2381	532.30
31.2526	519.83
31.2670	524.26
31.2814	516.75
31.2959	514.70
31.3103	518.56
31.3248	538.74
31.3392	553.82
31.3536	555.27
31.3681	494.01
31.3825	493.89
31.3970	519.94
31.4114	461.68
31.4258	459.58
31.4403	487.62
31.4547	505.30
31.4692	535.92
31.4836	506.42
31.4980	493.92
31.5125	510.03
31.5269	501.31
31.5414	531.34
31.5558	537.87
31.5702	508.23
31.5847	507.55
31.5991	496.08
31.6136	504.47
31.6280	494.97
31.6424	506.94
31.6569	490.51
31.6713	490.58
31.6858	512.43
31.7002	499.88
31.7146	492.91
31.7291	472.13
31.7435	517.07
31.7580	514.43
31.7724	473.46
31.7868	525.72
31.8013	512.80
31.8157	496.76
31.8302	496.50
31.8446	507.09
31.8590	519.36
31.8735	483.82
31.8879	478.08
31.9024	503.23
31.9168	471.20
31.9312	478.91
31.9457	506.38
31.9601	500.33
31.9746	505.68
31.9890	496.55
32.0034	483.81
32.0179	561.26
32.0323	527.25
32.0468	515.12
32.0612	511.07
32.0756	515.27
32.0901	527.18
32.1045	529.96
32.1190	497.60
32.1334	526.66
32.1478	490.50
32.1623	499.36
32.1767	483.94
32.1912	485.68
32.2056	516.18
32.2200	482.83
32.2345	474.90
32.2489	511.05
32.2634	524.20
32.2778	512.02
32.2922	511.89
32.3067	536.34
32.3211	508.90
32.3356	536.30
32.3500	502.82
32.3644	515.63
32.3789	520.19
32.3933	491.23
32.4078	486.31
32.4222	499.86
32.4366	469.10
32.4511	475.65
32.4655	529.29
32.4800	523.99
32.4944	494.93
32.5088	490.86
32.5233	484.33
32.5377	527.83
32.5522	542.90
32.5666	530.90
32.5810	496.00
32.5955	497.78
32.6099	521.33
32.6244	524.11
32.6388	529.47
32.6532	496.26
32.6677	490.13
32.6821	515.02
32.6966	494.82
32.7110	507.74
32.7254	517.36
32.7399	522.44
32.7543	487.91
32.7688	528.21
32.7832	486.66
32.7976	512.36
32.8121	523.68
32.8265	473.23
32.8410	494.83
32.8554	513.36
32.8698	506.74
32.8843	507.06
32.8987	501.95
32.9132	542.06
32.9276	508.22
32.9420	490.56
32.9565	476.81
32.9709	501.11
32.9854	501.55
32.9998	486.40
33.0142	496.94
33.0287	518.40
33.0431	503.92
33.0576	506.17
33.0720	478.39
33.0864	537.66
33.1009	537.39
33.1153	508.13
33.1298	526.73
33.1442	470.12
33.1586	458.34
33.1731	490.89
33.1875	490.31
33.2020	509.94
33.2164	530.43
33.2308	524.52
33.2453	498.46
33.2597	471.76
33.2742	487.66
33.2886	502.54
33.3030	509.49
33.3175	500.65
33.3319	521.40
33.3464	483.01
33.3608	489.03
33.3752	510.37
33.3897	506.63
33.4041	505.32
33.4186	517.96
33.4330	535.27
33.4474	486.47
33.4619	476.10
33.4763	493.52
33.4908	512.03
33.5052	513.82
33.5196	490.41
33.5341	521.23
33.5485	506.74
33.5630	493.54
33.5774	494.23
33.5918	515.92
33.6063	518.93
33.6207	505.46
33.6352	488.71
33.6496	496.39
33.6640	483.33
33.6785	462.06
33.6929	498.69
33.7074	500.36
33.7218	510.71
33.7362	492.07
33.7507	495.42
33.7651	464.94
33.7796	483.11
33.7940	485.87
33.8084	512.78
33.8229	503.37
33.8373	492.67
33.8518	505.52
33.8662	519.65
33.8806	495.53
33.8951	497.90
33.9095	530.49
33.9240	495.46
33.9384	500.68
33.9528	504.10
33.9673	490.90
33.9817	513.75
33.9962	503.83
34.0106	535.63
34.0250	506.99
34.0395	493.67
34.0539	520.68
34.0684	492.27
34.0828	495.67
34.0972	533.21
34.1117	497.50
34.1261	503.11
34.1406	487.09
34.1550	482.05
34.1694	508.88
34.1839	495.09
34.1983	505.09
34.2128	492.79
34.2272	516.98
34.2417	515.52
34.2561	506.52
34.2705	518.28
34.2850	531.84
34.2994	517.64
34.3139	507.80
34.3283	483.06
34.3427	494.49
34.3572	489.61
34.3716	504.19
34.3861	526.66
34.4005	516.52
34.4149	487.76
34.4294	487.73
34.4438	505.62
34.4583	472.05
34.4727	519.08
34.4871	487.24
34.5016	476.93
34.5160	486.75
34.5305	483.50
34.5449	496.18
34.5593	522.51
34.5738	502.38
34.5882	478.51
34.6027	498.05
34.6171	485.12
34.6315	498.43
34.6460	475.43
34.6604	499.95
34.6749	483.30
34.6893	515.22
34.7037	491.16
34.7182	493.21
34.7326	474.67
34.7471	503.35
34.7615	505.08
34.7759	505.06
34.7904	519.90
34.8048	496.16
34.8193	501.61
34.8337	514.87
34.8481	489.12
34.8626	518.31
34.8770	525.05
34.8915	498.88
34.9059	509.55
34.9203	504.71
34.9348	510.60
34.9492	523.29
34.9637	512.88
34.9781	498.51
34.9925	528.54
35.0070	496.24
35.0214	506.96
35.0359	525.57
35.0503	510.32
35.0647	506.67
35.0792	518.37
35.0936	489.09
35.1081	476.83
35.1225	503.29
35.1369	513.89
35.1514	494.12
35.1658	511.42
35.1803	510.16
35.1947	528.59
35.2091	505.65
35.2236	520.71
35.2380	485.45
35.2525	528.28
35.2669	527.48
35.2813	506.14
35.2958	514.20
35.3102	524.57
35.3247	502.92
35.3391	505.63
35.3535	515.87
35.3680	524.07
35.3824	512.63
35.3969	504.68
35.4113	529.32
35.4257	536.12
35.4402	533.82
35.4546	526.78
35.4691	554.88
35.4835	548.65
35.4979	553.77
35.5124	531.01
35.5268	508.02
35.5413	522.96
35.5557	529.78
35.5701	534.91
35.5846	562.35
35.5990	541.50
35.6135	538.91
35.6279	517.91
35.6423	534.45
35.6568	553.84
35.6712	542.22
35.6857	601.95
35.7001	705.69
35.7145	773.78
35.7290	726.49
35.7434	619.96
35.7579	604.58
35.7723	634.72
35.7867	710.67
35.8012	733.44
35.8156	745.18
35.8301	691.78
35.8445	703.55
35.8589	763.36
35.8734	862.59
35.8878	975.44
35.9023	1115.03
35.9167	1140.46
35.9311	1224.88
35.9456	1546.84
35.9600	1854.27
35.9745	1954.89
35.9889	2250.86
36.0033	2647.15
36.0178	3065.35
36.0322	3253.61
36.0467	2763.64
36.0611	2107.59
36.0755	1881.11
36.0900	2092.37
36.1044	2191.38
36.1189	1732.61
36.1333	1392.26
36.1477	1075.85
36.1622	997.92
36.1766	965.78
36.1911	891.15
36.2055	729.92
36.2199	712.30
36.2344	759.46
36.2488	673.93
36.2633	616.21
36.2777	560.95
36.2921	554.44
36.3066	584.04
36.3210	532.97
36.3355	553.90
36.3499	549.17
36.3643	552.88
36.3788	510.01
36.3932	520.54
36.4077	513.25
36.4221	496.09
36.4365	515.66
36.4510	515.38
36.4654	558.19
36.4799	534.99
36.4943	528.74
36.5087	546.96
36.5232	549.20
36.5376	538.21
36.5521	530.82
36.5665	509.41
36.5809	513.97
36.5954	525.34
36.6098	500.01
36.6243	512.30
36.6387	495.49
36.6531	510.52
36.6676	506.46
36.6820	483.11
36.6965	515.79
36.7109	526.28
36.7253	555.68
36.7398	513.00
36.7542	561.19
36.7687	528.99
36.7831	539.66
36.7975	546.12
36.8120	555.62
36.8264	573.50
36.8409	599.62
36.8553	618.86
36.8697	583.68
36.8842	583.17
36.8986	558.29
36.9131	607.70
36.9275	572.47
36.9419	590.37
36.9564	583.83
36.9708	526.94
36.9853	562.83
36.9997	537.45
37.0141	514.72
37.0286	525.49
37.0430	514.97
37.0575	509.21
37.0719	519.22
37.0863	489.74
37.1008	513.13
37.1152	492.33
37.1297	514.94
37.1441	489.83
37.1585	528.00
37.1730	553.34
37.1874	520.59
37.2019	476.54
37.2163	522.70
37.2307	521.62
37.2452	514.33
37.2596	513.18
37.2741	493.01
37.2885	509.24
37.3029	516.24
37.3174	507.70
37.3318	488.67
37.3463	499.93
37.3607	487.11
37.3751	500.64
37.3896	508.90
37.4040	483.35
37.4185	486.26
37.4329	507.90
37.4473	470.36
37.4618	504.93
37.4762	519.23
37.4907	505.49
37.5051	511.47
37.5195	531.65
37.5340	494.63
37.5484	501.11
37.5629	526.79
37.5773	518.32
37.5917	507.13
37.6062	524.38
37.6206	492.30
37.6351	534.51
37.6495	488.40
37.6639	488.03
37.6784	486.00
37.6928	486.78
37.7073	514.03
37.7217	487.91
37.7361	505.24
37.7506	504.93
37.7650	503.32
37.7795	476.45
37.7939	478.81
37.8083	523.37
37.8228	508.59
37.8372	491.31
37.8517	503.78
37.8661	489.45
37.8805	506.55
37.8950	503.82
37.9094	521.38
37.9239	503.39
37.9383	509.25
37.9528	511.19
37.9672	505.40
37.9816	509.97
37.9961	553.64
38.0105	496.48
38.0250	485.34
38.0394	475.68
38.0538	486.83
38.0683	473.04
38.0827	485.71
38.0972	545.54
38.1116	542.57
38.1260	540.88
38.1405	512.09
38.1549	532.53
38.1694	535.09
38.1838	525.65
38.1982	486.79
38.2127	487.78
38.2271	468.56
38.2416	478.29
38.2560	516.09
38.2704	507.53
38.2849	518.40
38.2993	480.97
38.3138	505.99
38.3282	507.73
38.3426	551.10
38.3571	524.50
38.3715	536.63
38.3860	552.60
38.4004	527.99
38.4148	589.56
38.4293	608.34
38.4437	604.22
38.4582	627.27
38.4726	651.14
38.4870	737.59
38.5015	772.83
38.5159	753.35
38.5304	782.27
38.5448	777.49
38.5592	805.81
38.5737	795.18
38.5881	744.15
38.6026	711.46
38.6170	694.37
38.6314	687.18
38.6459	671.22
38.6603	644.05
38.6748	593.67
38.6892	571.05
38.7036	561.32
38.7181	561.88
38.7325	523.59
38.7470	513.62
38.7614	521.06
38.7758	532.80
38.7903	527.75
38.8047	507.64
38.8192	523.50
38.8336	510.50
38.8480	493.44
38.8625	537.83
38.8769	513.80
38.8914	498.76
38.9058	541.45
38.9202	493.90
38.9347	486.03
38.9491	468.83
38.9636	446.10
38.9780	450.80
38.9924	529.55
39.0069	481.88
39.0213	462.18
39.0358	489.61
39.0502	511.91
39.0646	504.38
39.0791	498.99
39.0935	497.19
39.1080	494.99
39.1224	494.70
39.1368	518.76
39.1513	504.11
39.1657	491.29
39.1802	470.30
39.1946	490.69
39.2090	519.26
39.2235	495.71
39.2379	517.59
39.2524	535.01
39.2668	498.74
39.2812	485.55
39.2957	483.10
39.3101	525.58
39.3246	551.21
39.3390	515.51
39.3534	483.03
39.3679	498.49
39.3823	506.33
39.3968	483.83
39.4112	482.73
39.4256	541.44
39.4401	492.17
39.4545	498.85
39.4690	520.31
39.4834	487.25
39.4978	483.09
39.5123	480.76
39.5267	485.91
39.5412	504.71
39.5556	480.47
39.5700	500.37
39.5845	501.56
39.5989	489.36
39.6134	491.17
39.6278	514.32
39.6422	484.67
39.6567	456.30
39.6711	494.14
39.6856	508.01
39.7000	518.90
39.7144	491.36
39.7289	490.93
39.7433	507.30
39.7578	497.40
39.7722	507.93
39.7866	488.01
39.8011	464.91
39.8155	467.96
39.8300	485.70
39.8444	469.59
39.8588	509.96
39.8733	472.08
39.8877	466.37
39.9022	521.37
39.9166	477.13
39.9310	493.82
39.9455	512.19
39.9599	497.92
39.9744	486.33
39.9888	488.85
40.0032	518.85
40.0177	502.88
40.0321	500.57
40.0466	503.02
40.0610	492.18
40.0754	542.52
40.0899	472.70
40.1043	466.07
40.1188	507.37
40.1332	493.48
40.1476	453.27
40.1621	479.16
40.1765	505.90
40.1910	510.90
40.2054	493.99
40.2198	478.47
40.2343	479.65
40.2487	484.58
40.2632	510.77
40.2776	484.81
40.2920	497.18
40.3065	500.65
40.3209	478.62
40.3354	511.46
40.3498	513.53
40.3642	502.77
40.3787	492.43
40.3931	437.91
40.4076	528.80
40.4220	522.24
40.4364	485.50
40.4509	476.32
40.4653	498.43
40.4798	503.57
40.4942	542.15
40.5086	505.94
40.5231	504.91
40.5375	521.88
40.5520	504.96
40.5664	514.51
40.5808	502.34
40.5953	496.36
40.6097	516.60
40.6242	470.73
40.6386	493.26
40.6530	480.59
40.6675	472.93
40.6819	476.80
40.6964	486.71
40.7108	514.77
40.7252	496.87
40.7397	490.78
40.7541	488.88
40.7686	493.44
40.7830	501.06
40.7974	472.19
40.8119	524.62
40.8263	504.08
40.8408	490.09
40.8552	507.97
40.8696	513.96
40.8841	498.28
40.8985	495.85
40.9130	466.99
40.9274	464.65
40.9418	463.93
40.9563	478.08
40.9707	486.55
40.9852	480.93
40.9996	501.66
41.0140	487.56
41.0285	480.73
41.0429	545.55
41.0574	497.99
41.0718	514.73
41.0862	512.47
41.1007	492.25
41.1151	531.33
41.1296	564.74
41.1440	485.55
41.1584	481.70
41.1729	506.84
41.1873	470.94
41.2018	488.74
41.2162	483.10
41.2306	521.58
41.2451	548.53
41.2595	508.44
41.2740	469.19
41.2884	499.25
41.3028	529.48
41.3173	543.62
41.3317	515.15
41.3462	530.70
41.3606	487.00
41.3750	483.32
41.3895	518.77
41.4039	515.42
41.4184	513.66
41.4328	542.98
41.4472	505.56
41.4617	476.86
41.4761	551.92
41.4906	502.61
41.5050	514.32
41.5194	504.75
41.5339	487.01
41.5483	475.58
41.5628	482.07
41.5772	482.28
41.5916	504.61
41.6061	470.84
41.6205	479.06
41.6350	506.46
41.6494	479.91
41.6639	497.95
41.6783	468.38
41.6927	471.72
41.7072	504.54
41.7216	519.96
41.7361	493.38
41.7505	509.29
41.7649	512.67
41.7794	479.62
41.7938	509.69
41.8083	489.70
41.8227	504.09
41.8371	499.01
41.8516	496.86
41.8660	530.66
41.8805	521.47
41.8949	577.86
41.9093	579.38
41.9238	577.79
41.9382	548.87
41.9527	517.71
41.9671	582.32
41.9815	580.83
41.9960	578.51
42.0104	601.44
42.0249	570.61
42.0393	603.04
42.0537	580.42
42.0682	577.40
42.0826	525.75
42.0971	566.36
42.1115	580.47
42.1259	593.65
42.1404	589.04
42.1548	643.56
42.1693	624.60
42.1837	695.79
42.1981	759.73
42.2126	833.50
42.2270	920.57
42.2415	1074.25
42.2559	1201.35
42.2703	1321.33
42.2848	1513.03
42.2992	1577.26
42.3137	1631.61
42.3281	1605.84
42.3425	1506.69
42.3570	1485.86
42.3714	1426.43
42.3859	1396.06
42.4003	1313.89
42.4147	1343.03
42.4292	1258.12
42.4436	1125.60
42.4581	1036.03
42.4725	929.33
42.4869	836.09
42.5014	722.63
42.5158	689.33
42.5303	677.04
42.5447	621.09
42.5591	608.55
42.5736	582.00
42.5880	573.24
42.6025	585.59
42.6169	551.94
42.6313	570.01
42.6458	554.52
42.6602	525.52
42.6747	528.24
42.6891	522.02
42.7035	552.78
42.7180	528.50
42.7324	501.21
42.7469	517.15
42.7613	498.23
42.7757	502.83
42.7902	484.15
42.8046	482.74
42.8191	520.78
42.8335	506.41
42.8479	521.54
42.8624	540.30
42.8768	528.17
42.8913	532.31
42.9057	530.69
42.9201	517.25
42.9346	502.98
42.9490	530.02
42.9635	490.72
42.9779	484.72
42.9923	492.85
43.0068	509.25
43.0212	514.13
43.0357	486.16
43.0501	504.75
43.0645	506.19
43.0790	504.97
43.0934	514.10
43.1079	520.15
43.1223	515.01
43.1367	479.08
43.1512	482.97
43.1656	518.42
43.1801	510.75
43.1945	520.27
43.2089	552.41
43.2234	509.18
43.2378	513.90
43.2523	545.73
43.2667	526.40
43.2811	526.24
43.2956	526.85
43.3100	526.13
43.3245	488.88
43.3389	520.25
43.3533	529.58
43.3678	520.20
43.3822	522.74
43.3967	495.84
43.4111	506.05
43.4255	503.63
43.4400	522.10
43.4544	498.06
43.4689	513.31
43.4833	530.97
43.4977	519.62
43.5122	508.70
43.5266	510.97
43.5411	527.26
43.5555	550.50
43.5699	535.04
43.5844	540.93
43.5988	509.53
43.6133	536.31
43.6277	495.46
43.6421	543.42
43.6566	571.76
43.6710	559.43
43.6855	568.36
43.6999	644.35
43.7143	651.10
43.7288	639.87
43.7432	672.90
43.7577	719.69
43.7721	690.46
43.7865	681.89
43.8010	649.86
43.8154	618.58
43.8299	601.76
43.8443	599.88
43.8587	645.27
43.8732	618.31
43.8876	568.49
43.9021	594.41
43.9165	573.49
43.9309	544.37
43.9454	581.30
43.9598	503.45
43.9743	503.30
43.9887	497.12
44.0031	499.52
44.0176	495.87
44.0320	517.01
44.0465	508.74
44.0609	519.09
44.0753	510.33
44.0898	571.84
44.1042	541.55
44.1187	545.26
44.1331	539.88
44.1475	514.15
44.1620	516.32
44.1764	525.93
44.1909	502.90
44.2053	509.33
44.2197	554.65
44.2342	535.40
44.2486	532.41
44.2631	520.65
44.2775	526.09
44.2919	510.66
44.3064	501.92
44.3208	524.42
44.3353	522.04
44.3497	538.35
44.3641	555.97
44.3786	534.23
44.3930	510.47
44.4075	569.17
44.4219	575.13
44.4363	572.38
44.4508	531.04
44.4652	581.07
44.4797	567.06
44.4941	593.96
44.5085	559.24
44.5230	531.55
44.5374	584.37
44.5519	577.48
44.5663	558.20
44.5807	543.81
44.5952	587.87
44.6096	550.37
44.6241	564.03
44.6385	587.39
44.6529	586.00
44.6674	577.20
44.6818	600.65
44.6963	614.01
44.7107	652.96
44.7251	685.56
44.7396	733.68
44.7540	798.50
44.7685	809.46
44.7829	891.80
44.7973	855.65
44.8118	885.18
44.8262	846.15
44.8407	749.79
44.8551	713.45
44.8695	723.87
44.8840	747.57
44.8984	765.54
44.9129	743.97
44.9273	735.10
44.9417	683.44
44.9562	633.28
44.9706	540.17
44.9851	557.30
44.9995	541.70
45.0139	541.51
45.0284	489.60
45.0428	497.14
45.0573	525.53
45.0717	494.76
45.0861	522.41
45.1006	516.84
45.1150	522.64
45.1295	527.84
45.1439	463.86
45.1583	464.79
45.1728	524.41
45.1872	505.15
45.2017	468.41
45.2161	510.52
45.2305	504.03
45.2450	515.15
45.2594	495.23
45.2739	535.14
45.2883	492.88
45.3028	555.30
45.3172	510.74
45.3316	477.51
45.3461	505.08
45.3605	536.96
45.3750	521.48
45.3894	510.14
45.4038	490.43
45.4183	499.29
45.4327	510.38
45.4472	468.34
45.4616	502.08
45.4760	483.92
45.4905	500.36
45.5049	482.96
45.5194	493.20
45.5338	518.16
45.5482	489.00
45.5627	504.71
45.5771	500.64
45.5916	506.43
45.6060	495.77
45.6204	497.11
45.6349	532.15
45.6493	470.08
45.6638	492.64
45.6782	497.61
45.6926	511.82
45.7071	510.85
45.7215	483.77
45.7360	486.85
45.7504	517.42
45.7648	509.04
45.7793	521.36
45.7937	493.70
45.8082	514.93
45.8226	509.11
45.8370	489.34
45.8515	520.58
45.8659	522.84
45.8804	505.61
45.8948	510.84
45.9092	511.02
45.9237	516.11
45.9381	504.34
45.9526	499.50
45.9670	519.72
45.9814	502.95
45.9959	530.27
46.0103	492.50
46.0248	469.63
46.0392	488.34
46.0536	470.31
46.0681	458.09
46.0825	487.67
46.0970	488.56
46.1114	540.72
46.1258	522.86
46.1403	470.35
46.1547	462.07
46.1692	474.97
46.1836	499.94
46.1980	491.03
46.2125	526.74
46.2269	492.27
46.2414	482.64
46.2558	495.06
46.2702	476.47
46.2847	491.54
46.2991	496.22
46.3136	492.72
46.3280	521.37
46.3424	526.00
46.3569	533.44
46.3713	528.97
46.3858	504.37
46.4002	498.70
46.4146	519.06
46.4291	537.91
46.4435	513.76
46.4580	511.75
46.4724	486.53
46.4868	488.01
46.5013	501.82
46.5157	493.19
46.5302	490.37
46.5446	512.83
46.5590	488.70
46.5735	510.50
46.5879	486.77
46.6024	508.95
46.6168	508.79
46.6312	531.08
46.6457	519.44
46.6601	498.76
46.6746	488.68
46.6890	488.84
46.7034	509.86
46.7179	491.34
46.7323	505.49
46.7468	530.81
46.7612	505.93
46.7756	497.13
46.7901	537.88
46.8045	521.55
46.8190	508.07
46.8334	509.05
46.8478	514.09
46.8623	487.04
46.8767	521.38
46.8912	528.45
46.9056	525.85
46.9200	488.50
46.9345	525.89
46.9489	533.47
46.9634	518.73
46.9778	512.10
46.9922	484.42
47.0067	521.60
47.0211	540.76
47.0356	520.42
47.0500	537.32
47.0644	530.01
47.0789	505.14
47.0933	509.62
47.1078	507.65
47.1222	496.15
47.1366	513.14
47.1511	495.25
47.1655	520.12
47.1800	533.92
47.1944	489.06
47.2088	511.73
47.2233	512.33
47.2377	498.77
47.2522	508.27
47.2666	492.63
47.2810	504.42
47.2955	477.16
47.3099	503.90
47.3244	505.01
47.3388	491.45
47.3532	461.00
47.3677	499.02
47.3821	482.11
47.3966	479.96
47.4110	468.07
47.4254	531.34
47.4399	495.92
47.4543	481.01
47.4688	526.82
47.4832	531.26
47.4976	509.97
47.5121	497.73
47.5265	527.60
47.5410	519.07
47.5554	503.50
47.5698	483.22
47.5843	512.05
47.5987	491.74
47.6132	495.88
47.6276	471.10
47.6420	499.17
47.6565	510.98
47.6709	497.40
47.6854	478.95
47.6998	498.54
47.7142	531.37
47.7287	481.89
47.7431	497.68
47.7576	492.27
47.7720	495.04
47.7864	514.70
47.8009	496.44
47.8153	497.56
47.8298	516.63
47.8442	492.67
47.8586	527.45
47.8731	560.69
47.8875	504.52
47.9020	556.67
47.9164	533.34
47.9308	507.35
47.9453	550.39
47.9597	509.21
47.9742	498.82
47.9886	526.79
48.0030	475.27
48.0175	494.36
48.0319	530.82
48.0464	502.45
48.0608	516.45
48.0752	499.99
48.0897	540.89
48.1041	519.12
48.1186	521.16
48.1330	502.68
48.1474	485.20
48.1619	497.60
48.1763	487.71
48.1908	492.14
48.2052	495.27
48.2196	526.99
48.2341	499.13
48.2485	493.82
48.2630	495.75
48.2774	487.73
48.2918	521.29
48.3063	519.66
48.3207	479.96
48.3352	504.39
48.3496	514.38
48.3640	499.12
48.3785	483.05
48.3929	478.06
48.4074	490.44
48.4218	514.25
48.4362	523.54
48.4507	492.46
48.4651	513.37
48.4796	510.92
48.4940	522.27
48.5084	523.25
48.5229	496.28
48.5373	512.16
48.5518	530.64
48.5662	503.50
48.5806	514.40
48.5951	499.92
48.6095	506.45
48.6240	523.87
48.6384	507.16
48.6528	503.28
48.6673	506.00
48.6817	515.90
48.6962	514.56
48.7106	543.81
48.7250	552.67
48.7395	501.66
48.7539	514.98
48.7684	533.22
48.7828	537.72
48.7972	541.65
48.8117	534.62
48.8261	535.29
48.8406	537.65
48.8550	550.04
48.8694	610.04
48.8839	557.29
48.8983	576.37
48.9128	549.73
48.9272	562.86
48.9416	559.82
48.9561	611.85
48.9705	534.38
48.9850	575.07
48.9994	586.53
49.0139	599.13
49.0283	587.17
49.0427	606.62
49.0572	653.85
49.0716	672.61
49.0861	699.84
49.1005	687.66
49.1149	712.23
49.1294	782.14
49.1438	759.89
49.1583	812.58
49.1727	913.00
49.1871	941.56
49.2016	976.95
49.2160	1038.56
49.2305	1137.34
49.2449	1214.14
49.2593	1274.18
49.2738	1369.24
49.2882	1479.86
49.3027	1572.50
49.3171	1605.49
49.3315	1729.27
49.3460	1780.32
49.3604	1849.17
49.3749	1850.28
49.3893	1752.02
49.4037	1806.53
49.4182	1839.00
49.4326	1799.03
49.4471	1691.31
49.4615	1622.72
49.4759	1585.49
49.4904	1467.91
49.5048	1409.45
49.5193	1351.14
49.5337	1291.01
49.5481	1203.53
49.5626	1132.13
49.5770	1052.49
49.5915	957.28
49.6059	895.84
49.6203	905.74
49.6348	831.20
49.6492	785.31
49.6637	722.50
49.6781	711.72
49.6925	638.38
49.7070	652.09
49.7214	632.46
49.7359	640.29
49.7503	611.55
49.7647	605.29
49.7792	632.27
49.7936	591.34
49.8081	604.41
49.8225	563.28
49.8369	557.36
49.8514	579.18
49.8658	568.08
49.8803	586.81
49.8947	553.28
49.9091	532.99
49.9236	540.74
49.9380	507.79
49.9525	510.59
49.9669	510.30
49.9813	536.06
49.9958	518.60
50.0102	540.10
50.0247	524.68
50.0391	530.90
50.0535	544.16
50.0680	559.21
50.0824	520.93
50.0969	482.93
50.1113	505.84
50.1257	511.22
50.1402	524.07
50.1546	511.89
50.1691	529.18
50.1835	508.23
50.1979	502.57
50.2124	499.12
50.2268	486.77
50.2413	484.60
50.2557	506.26
50.2701	496.77
50.2846	538.17
50.2990	524.27
50.3135	512.68
50.3279	533.87
50.3423	570.74
50.3568	530.09
50.3712	522.82
50.3857	507.09
50.4001	533.82
50.4145	522.17
50.4290	526.01
50.4434	534.12
50.4579	513.20
50.4723	510.23
50.4867	523.78
50.5012	488.79
50.5156	492.78
50.5301	475.24
50.5445	469.19
50.5589	480.13
50.5734	508.15
50.5878	505.41
50.6023	510.93
50.6167	515.88
50.6311	531.28
50.6456	523.80
50.6600	504.71
50.6745	499.05
50.6889	498.86
50.7033	550.26
50.7178	520.12
50.7322	502.90
50.7467	484.42
50.7611	515.32
50.7755	517.65
50.7900	525.98
50.8044	500.57
50.8189	518.13
50.8333	493.07
50.8477	513.88
50.8622	509.79
50.8766	477.82
50.8911	507.89
50.9055	506.72
50.9199	480.30
50.9344	507.34
50.9488	504.12
50.9633	492.80
50.9777	479.78
50.9921	478.54
51.0066	507.80
51.0210	521.87
51.0355	499.03
51.0499	497.30
51.0643	531.87
51.0788	515.83
51.0932	510.01
51.1077	498.44
51.1221	497.90
51.1365	498.73
51.1510	483.79
51.1654	515.65
51.1799	507.97
51.1943	521.89
51.2087	491.01
51.2232	499.68
51.2376	510.37
51.2521	538.63
51.2665	531.44
51.2809	500.27
51.2954	479.81
51.3098	519.62
51.3243	519.73
51.3387	508.70
51.3531	488.20
51.3676	513.96
51.3820	513.96
51.3965	518.96
51.4109	521.84
51.4253	534.88
51.4398	499.27
51.4542	483.14
51.4687	493.09
51.4831	540.46
51.4975	507.48
51.5120	520.83
51.5264	496.73
51.5409	533.81
51.5553	553.03
51.5697	514.56
51.5842	499.06
51.5986	504.43
51.6131	498.10
51.6275	522.87
51.6419	523.86
51.6564	531.27
51.6708	524.23
51.6853	492.50
51.6997	494.99
51.7141	502.96
51.7286	491.56
51.7430	471.78
51.7575	475.88
51.7719	506.29
51.7863	517.36
51.8008	511.26
51.8152	541.51
51.8297	516.53
51.8441	517.34
51.8585	539.04
51.8730	514.12
51.8874	489.26
51.9019	521.40
51.9163	475.84
51.9307	488.17
51.9452	508.91
51.9596	480.99
51.9741	491.38
51.9885	516.41
52.0029	514.94
52.0174	538.99
52.0318	522.24
52.0463	471.65
52.0607	522.92
52.0751	548.05
52.0896	518.58
52.1040	482.49
52.1185	482.77
52.1329	518.07
52.1473	505.38
52.1618	513.49
52.1762	512.87
52.1907	489.61
52.2051	495.63
52.2195	536.27
52.2340	540.13
52.2484	524.29
52.2629	518.46
52.2773	503.45
52.2917	501.22
52.3062	503.16
52.3206	507.08
52.3351	521.04
52.3495	519.19
52.3639	466.10
52.3784	495.07
52.3928	509.97
52.4073	513.79
52.4217	496.95
52.4361	519.37
52.4506	543.28
52.4650	524.62
52.4795	517.35
52.4939	479.39
52.5083	493.53
52.5228	501.82
52.5372	526.13
52.5517	478.41
52.5661	497.04
52.5805	500.11
52.5950	502.25
52.6094	506.68
52.6239	525.74
52.6383	521.44
52.6527	506.46
52.6672	462.91
52.6816	492.54
52.6961	509.65
52.7105	543.21
52.7250	514.73
52.7394	489.68
52.7538	504.10
52.7683	482.56
52.7827	484.06
52.7972	512.80
52.8116	508.95
52.8260	513.90
52.8405	521.71
52.8549	547.99
52.8694	496.98
52.8838	480.63
52.8982	473.22
52.9127	535.60
52.9271	512.34
52.9416	522.80
52.9560	523.96
52.9704	535.91
52.9849	505.36
52.9993	509.89
53.0138	513.75
53.0282	503.92
53.0426	530.60
53.0571	509.79
53.0715	515.20
53.0860	495.65
53.1004	488.64
53.1148	527.24
53.1293	516.76
53.1437	515.03
53.1582	485.69
53.1726	473.54
53.1870	497.05
53.2015	522.26
53.2159	515.18
53.2304	511.41
53.2448	505.25
53.2592	504.10
53.2737	535.38
53.2881	507.29
53.3026	496.45
53.3170	515.95
53.3314	509.65
53.3459	519.88
53.3603	503.61
53.3748	518.06
53.3892	513.86
53.4036	484.09
53.4181	507.76
53.4325	531.11
53.4470	534.18
53.4614	497.22
53.4758	527.53
53.4903	509.87
53.5047	501.32
53.5192	532.77
53.5336	518.05
53.5480	486.85
53.5625	511.26
53.5769	491.96
53.5914	524.44
53.6058	516.79
53.6202	494.97
53.6347	513.25
53.6491	493.93
53.6636	507.73
53.6780	490.35
53.6924	538.33
53.7069	533.02
53.7213	502.59
53.7358	502.20
53.7502	567.50
53.7646	531.07
53.7791	525.10
53.7935	530.56
53.8080	536.49
53.8224	506.99
53.8368	491.08
53.8513	496.16
53.8657	533.18
53.8802	518.71
53.8946	519.22
53.9090	561.40
53.9235	559.92
53.9379	535.73
53.9524	479.94
53.9668	491.27
53.9812	509.59
53.9957	507.54
54.0101	510.89
54.0246	515.03
54.0390	499.10
54.0534	506.10
54.0679	497.26
54.0823	541.50
54.0968	554.91
54.1112	528.59
54.1256	529.67
54.1401	545.79
54.1545	539.96
54.1690	531.63
54.1834	552.33
54.1978	568.05
54.2123	605.51
54.2267	571.52
54.2412	603.76
54.2556	647.46
54.2700	650.56
54.2845	676.03
54.2989	625.58
54.3134	622.82
54.3278	634.96
54.3422	658.66
54.3567	619.05
54.3711	558.93
54.3856	586.42
54.4000	583.46
54.4144	575.20
54.4289	608.97
54.4433	580.94
54.4578	571.94
54.4722	547.89
54.4866	550.77
54.5011	505.47
54.5155	546.04
54.5300	570.29
54.5444	550.34
54.5588	518.70
54.5733	521.23
54.5877	555.24
54.6022	533.10
54.6166	508.01
54.6310	501.55
54.6455	529.81
54.6599	527.40
54.6744	527.47
54.6888	486.53
54.7032	520.00
54.7177	556.48
54.7321	522.24
54.7466	507.30
54.7610	481.39
54.7754	510.13
54.7899	488.34
54.8043	495.09
54.8188	532.15
54.8332	517.61
54.8476	530.48
54.8621	534.11
54.8765	506.34
54.8910	508.20
54.9054	526.92
54.9198	525.53
54.9343	522.28
54.9487	558.85
54.9632	526.97
54.9776	507.06
54.9920	519.84
55.0065	539.64
55.0209	528.57
55.0354	529.49
55.0498	511.10
55.0642	522.71
55.0787	519.06
55.0931	543.54
55.1076	535.92
55.1220	538.63
55.1364	516.82
55.1509	513.64
55.1653	514.59
55.1798	516.72
55.1942	516.91
55.2086	522.40
55.2231	509.92
55.2375	513.33
55.2520	490.30
55.2664	494.83
55.2808	524.08
55.2953	524.16
55.3097	520.00
55.3242	529.73
55.3386	553.31
55.3530	503.32
55.3675	494.70
55.3819	517.37
55.3964	517.33
55.4108	544.02
55.4252	553.68
55.4397	510.63
55.4541	527.07
55.4686	503.39
55.4830	523.94
55.4974	481.89
55.5119	516.48
55.5263	514.26
55.5408	499.78
55.5552	500.39
55.5696	516.90
55.5841	517.65
55.5985	520.27
55.6130	527.10
55.6274	522.03
55.6418	508.60
55.6563	534.25
55.6707	530.80
55.6852	533.44
55.6996	503.51
55.7140	528.75
55.7285	520.69
55.7429	524.22
55.7574	532.12
55.7718	507.88
55.7862	528.77
55.8007	506.43
55.8151	527.45
55.8296	513.55
55.8440	528.08
55.8584	538.05
55.8729	515.26
55.8873	505.22
55.9018	507.19
55.9162	514.93
55.9306	495.64
55.9451	549.11
55.9595	514.69
55.9740	503.80
55.9884	521.10
56.0028	515.27
56.0173	523.87
56.0317	516.82
56.0462	512.99
56.0606	542.53
56.0750	535.26
56.0895	558.64
56.1039	487.54
56.1184	514.18
56.1328	523.11
56.1472	483.18
56.1617	529.48
56.1761	528.33
56.1906	490.36
56.2050	504.73
56.2194	534.26
56.2339	544.94
56.2483	525.52
56.2628	528.96
56.2772	527.14
56.2916	539.19
56.3061	522.80
56.3205	526.90
56.3350	498.20
56.3494	548.79
56.3639	506.66
56.3783	530.23
56.3927	488.11
56.4072	516.30
56.4216	547.18
56.4361	526.96
56.4505	507.93
56.4649	516.02
56.4794	523.68
56.4938	532.68
56.5083	500.55
56.5227	534.50
56.5371	546.98
56.5516	564.35
56.5660	507.58
56.5805	533.20
56.5949	497.32
56.6093	494.55
56.6238	527.72
56.6382	518.57
56.6527	521.25
56.6671	519.89
56.6815	507.90
56.6960	524.99
56.7104	541.30
56.7249	497.10
56.7393	514.23
56.7537	497.06
56.7682	525.77
56.7826	515.60
56.7971	483.68
56.8115	535.78
56.8259	533.79
56.8404	529.10
56.8548	543.80
56.8693	525.33
56.8837	471.50
56.8981	535.60
56.9126	586.53
56.9270	533.69
56.9415	518.55
56.9559	501.29
56.9703	524.83
56.9848	507.21
56.9992	490.08
57.0137	521.27
57.0281	524.61
57.0425	514.03
57.0570	525.12
57.0714	510.62
57.0859	500.40
57.1003	534.95
57.1147	571.09
57.1292	554.10
57.1436	482.66
57.1581	515.23
57.1725	511.24
57.1869	533.65
57.2014	518.27
57.2158	526.97
57.2303	496.26
57.2447	529.09
57.2591	478.66
57.2736	518.31
57.2880	516.42
57.3025	536.37
57.3169	493.07
57.3313	525.52
57.3458	520.12
57.3602	495.75
57.3747	526.33
57.3891	483.59
57.4035	510.80
57.4180	559.04
57.4324	522.23
57.4469	508.31
57.4613	525.70
57.4757	570.13
57.4902	563.18
57.5046	563.28
57.5191	562.39
57.5335	527.18
57.5479	565.47
57.5624	537.86
57.5768	530.36
57.5913	553.15
57.6057	558.48
57.6201	541.56
57.6346	516.22
57.6490	511.10
57.6635	503.44
57.6779	518.13
57.6923	530.37
57.7068	581.82
57.7212	578.08
57.7357	566.43
57.7501	539.21
57.7645	578.42
57.7790	573.63
57.7934	604.19
57.8079	622.09
57.8223	679.34
57.8367	693.09
57.8512	707.44
57.8656	778.73
57.8801	765.50
57.8945	746.19
57.9089	747.66
57.9234	703.73
57.9378	709.33
57.9523	655.83
57.9667	633.45
57.9811	669.94
57.9956	693.21
58.0100	693.93
58.0245	711.41
58.0389	689.73
58.0533	665.55
58.0678	666.54
58.0822	615.90
58.0967	598.72
58.1111	610.95
58.1255	568.48
58.1400	562.34
58.1544	553.65
58.1689	584.17
58.1833	543.70
58.1977	541.70
58.2122	546.63
58.2266	523.05
58.2411	527.41
58.2555	545.84
58.2699	561.96
58.2844	573.34
58.2988	520.30
58.3133	538.70
58.3277	520.61
58.3421	515.83
58.3566	525.97
58.3710	532.29
58.3855	517.21
58.3999	525.82
58.4143	511.30
58.4288	547.17
58.4432	521.22
58.4577	531.59
58.4721	523.42
58.4865	528.68
58.5010	521.71
58.5154	533.20
58.5299	500.53
58.5443	532.66
58.5587	549.38
58.5732	521.42
58.5876	492.81
58.6021	520.97
58.6165	509.37
58.6309	508.40
58.6454	492.06
58.6598	494.66
58.6743	521.94
58.6887	518.51
58.7031	530.11
58.7176	506.74
58.7320	503.56
58.7465	506.19
58.7609	515.12
58.7753	510.94
58.7898	515.55
58.8042	532.64
58.8187	544.84
58.8331	547.11
58.8475	533.28
58.8620	532.76
58.8764	559.89
58.8909	552.74
58.9053	557.85
58.9197	520.86
58.9342	534.20
58.9486	508.42
58.9631	497.07
58.9775	502.77
58.9919	513.26
59.0064	526.51
59.0208	515.46
59.0353	516.91
59.0497	537.31
59.0641	533.00
59.0786	499.10
59.0930	525.85
59.1075	506.57
59.1219	536.09
59.1363	560.36
59.1508	516.69
59.1652	519.44
59.1797	542.78
59.1941	517.05
59.2085	528.98
59.2230	563.78
59.2374	582.31
59.2519	537.89
59.2663	523.48
59.2807	532.28
59.2952	530.33
59.3096	562.56
59.3241	558.82
59.3385	558.73
59.3529	551.98
59.3674	579.87
59.3818	581.95
59.3963	595.94
59.4107	543.84
59.4251	564.09
59.4396	545.68
59.4540	537.68
59.4685	573.31
59.4829	558.80
59.4973	528.35
59.5118	559.56
59.5262	552.97
59.5407	572.99
59.5551	544.58
59.5695	539.30
59.5840	542.87
59.5984	543.87
59.6129	512.68
59.6273	519.91
59.6417	533.64
59.6562	548.09
59.6706	518.71
59.6851	510.00
59.6995	528.69
59.7139	553.62
59.7284	563.50
59.7428	541.57
59.7573	543.31
59.7717	506.05
59.7861	517.71
59.8006	565.78
59.8150	519.22
59.8295	535.34
59.8439	503.92
59.8583	539.04
59.8728	553.80
59.8872	518.90
59.9017	511.48
59.9161	522.49
59.9305	526.57
59.9450	583.86
59.9594	529.03
59.9739	549.98
59.9883	519.78
60.0027	524.29
60.0172	510.17
60.0316	505.64
60.0461	501.74
60.0605	540.96
60.0750	534.54
60.0894	534.48
60.1038	538.10
60.1183	529.97
60.1327	521.67
60.1472	488.30
60.1616	523.82
60.1760	549.87
60.1905	534.20
60.2049	515.45
60.2194	523.91
60.2338	547.39
60.2482	562.36
60.2627	543.73
60.2771	507.28
60.2916	530.09
60.3060	530.03
60.3204	543.77
60.3349	540.66
60.3493	542.82
60.3638	547.52
60.3782	542.41
60.3926	564.73
60.4071	571.43
60.4215	542.15
60.4360	531.15
60.4504	517.05
60.4648	519.62
60.4793	541.94
60.4937	511.58
60.5082	522.00
60.5226	555.22
60.5370	502.05
60.5515	523.22
60.5659	535.05
60.5804	552.01
60.5948	522.14
60.6092	560.45
60.6237	559.25
60.6381	525.50
60.6526	489.92
60.6670	512.14
60.6814	524.28
60.6959	552.87
60.7103	566.00
60.7248	536.43
60.7392	565.22
60.7536	546.81
60.7681	543.88
60.7825	563.79
60.7970	524.01
60.8114	531.53
60.8258	525.96
60.8403	533.76
60.8547	547.60
60.8692	523.94
60.8836	563.97
60.8980	548.74
60.9125	545.44
60.9269	520.90
60.9414	529.71
60.9558	527.79
60.9702	516.22
60.9847	540.72
60.9991	533.53
61.0136	474.46
61.0280	559.49
61.0424	565.91
61.0569	494.85
61.0713	529.59
61.0858	531.99
61.1002	515.47
61.1146	513.82
61.1291	532.13
61.1435	510.61
61.1580	528.02
61.1724	544.17
61.1868	532.79
61.2013	541.11
61.2157	554.88
61.2302	568.83
61.2446	554.04
61.2590	544.73
61.2735	573.38
61.2879	529.75
61.3024	530.51
61.3168	530.71
61.3312	556.17
61.3457	549.11
61.3601	513.84
61.3746	552.76
61.3890	529.81
61.4034	518.67
61.4179	526.01
61.4323	560.79
61.4468	534.70
61.4612	557.92
61.4756	589.39
61.4901	554.35
61.5045	511.04
61.5190	535.40
61.5334	538.56
61.5478	535.33
61.5623	539.48
61.5767	547.41
61.5912	541.94
61.6056	511.00
61.6200	556.31
61.6345	542.81
61.6489	533.81
61.6634	519.67
61.6778	549.45
61.6922	536.53
61.7067	579.71
61.7211	549.70
61.7356	514.01
61.7500	526.10
61.7644	547.19
61.7789	571.50
61.7933	559.39
61.8078	572.11
61.8222	560.63
61.8366	534.93
61.8511	566.06
61.8655	565.08
61.8800	507.83
61.8944	535.69
61.9088	570.56
61.9233	563.20
61.9377	581.33
61.9522	557.65
61.9666	499.96
61.9810	505.87
61.9955	551.18
62.0099	536.87
62.0244	549.12
62.0388	546.74
62.0532	555.39
62.0677	600.89
62.0821	558.66
62.0966	538.53
62.1110	533.85
62.1254	522.53
62.1399	548.64
62.1543	562.66
62.1688	567.97
62.1832	569.89
62.1976	544.41
62.2121	563.69
62.2265	540.49
62.2410	509.06
62.2554	528.70
62.2698	530.01
62.2843	537.16
62.2987	529.52
62.3132	560.53
62.3276	553.88
62.3420	579.34
62.3565	538.54
62.3709	517.14
62.3854	503.37
62.3998	549.77
62.4142	537.99
62.4287	562.61
62.4431	552.60
62.4576	536.40
62.4720	561.83
62.4864	574.44
62.5009	566.93
62.5153	529.61
62.5298	525.28
62.5442	531.27
62.5586	555.47
62.5731	555.90
62.5875	556.95
62.6020	509.23
62.6164	543.76
62.6308	561.27
62.6453	584.77
62.6597	566.56
62.6742	550.30
62.6886	531.29
62.7030	544.60
62.7175	556.53
62.7319	588.89
62.7464	558.94
62.7608	583.31
62.7752	547.40
62.7897	566.73
62.8041	592.19
62.8186	572.99
62.8330	568.23
62.8474	539.12
62.8619	545.23
62.8763	558.54
62.8908	577.70
62.9052	597.84
62.9196	561.59
62.9341	565.09
62.9485	582.50
62.9630	555.32
62.9774	561.80
62.9918	568.31
63.0063	570.31
63.0207	574.42
63.0352	591.90
63.0496	592.72
63.0640	584.96
63.0785	591.68
63.0929	589.75
63.1074	591.35
63.1218	580.73
63.1362	598.13
63.1507	589.15
63.1651	575.41
63.1796	593.80
63.1940	580.90
63.2084	573.94
63.2229	577.45
63.2373	577.58
63.2518	582.71
63.2662	587.98
63.2806	608.35
63.2951	586.51
63.3095	593.63
63.3240	593.79
63.3384	616.96
63.3528	583.00
63.3673	644.76
63.3817	629.21
63.3962	652.69
63.4106	611.06
63.4250	614.99
63.4395	651.14
63.4539	665.95
63.4684	687.43
63.4828	729.46
63.4972	730.42
63.5117	783.22
63.5261	813.89
63.5406	834.53
63.5550	955.22
63.5694	931.82
63.5839	985.49
63.5983	922.81
63.6128	845.34
63.6272	814.18
63.6416	806.53
63.6561	798.40
63.6705	757.45
63.6850	800.74
63.6994	775.42
63.7138	842.21
63.7283	819.51
63.7427	809.38
63.7572	824.87
63.7716	781.18
63.7861	805.13
63.8005	769.22
63.8149	698.05
63.8294	684.91
63.8438	661.92
63.8583	651.08
63.8727	634.53
63.8871	612.10
63.9016	661.24
63.9160	656.18
63.9305	615.12
63.9449	623.86
63.9593	565.53
63.9738	566.05
63.9882	615.60
64.0027	599.42
64.0171	625.19
64.0315	631.21
64.0460	562.19
64.0604	559.55
64.0749	629.74
64.0893	627.80
64.1037	605.86
64.1182	621.08
64.1326	607.40
64.1471	549.22
64.1615	615.62
64.1759	616.91
64.1904	563.26
64.2048	563.33
64.2193	579.88
64.2337	603.83
64.2481	620.72
64.2626	560.76
64.2770	618.11
64.2915	592.53
64.3059	596.09
64.3203	561.99
64.3348	581.47
64.3492	603.90
64.3637	594.54
64.3781	590.14
64.3925	580.09
64.4070	582.82
64.4214	584.89
64.4359	608.61
64.4503	618.43
64.4647	610.46
64.4792	599.25
64.4936	599.85
64.5081	588.19
64.5225	606.38
64.5369	641.71
64.5514	631.80
64.5658	626.72
64.5803	617.25
64.5947	607.75
64.6091	645.82
64.6236	621.45
64.6380	667.74
64.6525	646.62
64.6669	662.44
64.6813	644.28
64.6958	673.75
64.7102	682.57
64.7247	673.18
64.7391	654.15
64.7535	699.64
64.7680	703.58
64.7824	752.66
64.7969	731.60
64.8113	749.53
64.8257	800.97
64.8402	843.38
64.8546	842.58
64.8691	845.92
64.8835	786.51
64.8979	893.18
64.9124	826.17
64.9268	842.96
64.9413	924.89
64.9557	897.63
64.9701	995.62
64.9846	1079.92
64.9990	1154.17
65.0135	1270.31
65.0279	1388.66
65.0423	1617.21
65.0568	2060.56
65.0712	2449.49
65.0857	3249.98
65.1001	4284.69
65.1145	5834.90
65.1290	7624.67
65.1434	9304.72
65.1579	10554.04
65.1723	11573.23
65.1867	11003.82
65.2012	9810.62
65.2156	8323.42
65.2301	6451.61
65.2445	5256.27
65.2589	4361.17
65.2734	4053.89
65.2878	4307.26
65.3023	4728.16
65.3167	5474.78
65.3311	6250.59
65.3456	6880.28
65.3600	6919.56
65.3745	6425.00
65.3889	5414.23
65.4033	4443.90
65.4178	3459.53
65.4322	2681.48
65.4467	2018.43
65.4611	1718.86
65.4755	1498.90
65.4900	1306.16
65.5044	1175.27
65.5189	1033.45
65.5333	968.64
65.5477	984.35
65.5622	903.47
65.5766	841.09
65.5911	824.08
65.6055	802.32
65.6199	754.33
65.6344	764.25
65.6488	727.86
65.6633	743.02
65.6777	756.27
65.6921	742.17
65.7066	761.25
65.7210	687.27
65.7355	689.90
65.7499	714.68
65.7643	679.55
65.7788	651.13
65.7932	676.03
65.8077	684.16
65.8221	673.88
65.8365	632.96
65.8510	631.74
65.8654	649.76
65.8799	621.83
65.8943	661.64
65.9087	667.30
65.9232	634.74
65.9376	644.82
65.9521	647.90
65.9665	640.43
65.9809	584.57
65.9954	623.59
66.0098	633.47
66.0243	609.15
66.0387	627.33
66.0531	654.65
66.0676	595.02
66.0820	589.51
66.0965	595.46
66.1109	627.91
66.1253	653.30
66.1398	630.03
66.1542	602.55
66.1687	602.02
66.1831	610.41
66.1975	586.00
66.2120	597.20
66.2264	637.92
66.2409	650.31
66.2553	609.87
66.2697	611.07
66.2842	592.32
66.2986	598.26
66.3131	603.32
66.3275	581.40
66.3419	583.74
66.3564	585.66
66.3708	602.12
66.3853	636.95
66.3997	567.38
66.4141	575.21
66.4286	638.26
66.4430	574.10
66.4575	554.72
66.4719	606.95
66.4863	571.85
66.5008	583.82
66.5152	582.93
66.5297	567.68
66.5441	589.33
66.5585	580.25
66.5730	561.75
66.5874	583.77
66.6019	579.04
66.6163	565.47
66.6307	577.46
66.6452	589.31
66.6596	600.12
66.6741	608.74
66.6885	594.58
66.7029	629.73
66.7174	600.00
66.7318	578.30
66.7463	586.41
66.7607	569.31
66.7751	571.38
66.7896	553.45
66.8040	554.23
66.8185	583.07
66.8329	578.27
66.8473	597.52
66.8618	613.89
66.8762	561.94
66.8907	556.44
66.9051	549.23
66.9195	557.88
66.9340	579.65
66.9484	578.52
66.9629	525.88
66.9773	559.82
66.9917	587.54
67.0062	588.88
67.0206	593.47
67.0351	581.44
67.0495	568.39
67.0639	540.83
67.0784	591.31
67.0928	606.82
67.1073	561.88
67.1217	573.80
67.1361	546.97
67.1506	584.99
67.1650	564.92
67.1795	584.98
67.1939	581.53
67.2083	578.60
67.2228	564.44
67.2372	572.54
67.2517	588.42
67.2661	581.23
67.2805	590.10
67.2950	592.30
67.3094	586.20
67.3239	591.70
67.3383	596.46
67.3527	579.46
67.3672	567.68
67.3816	591.06
67.3961	578.02
67.4105	547.15
67.4250	583.14
67.4394	560.20
67.4538	555.43
67.4683	583.04
67.4827	591.18
67.4972	563.42
67.5116	544.42
67.5260	580.58
67.5405	537.56
67.5549	594.80
67.5694	596.28
67.5838	562.91
67.5982	550.10
67.6127	609.19
67.6271	611.29
67.6416	565.92
67.6560	578.23
67.6704	553.32
67.6849	539.35
67.6993	573.62
67.7138	577.75
67.7282	579.70
67.7426	598.89
67.7571	569.33
67.7715	536.27
67.7860	566.41
67.8004	550.69
67.8148	581.99
67.8293	573.29
67.8437	569.86
67.8582	595.05
67.8726	527.31
67.8870	576.99
67.9015	588.05
67.9159	556.68
67.9304	599.35
67.9448	586.98
67.9592	535.03
67.9737	529.15
67.9881	542.90
68.0026	560.40
68.0170	598.07
68.0314	552.22
68.0459	575.41
68.0603	547.63
68.0748	553.76
68.0892	584.87
68.1036	541.97
68.1181	565.87
68.1325	554.52
68.1470	551.86
68.1614	586.80
68.1758	587.75
68.1903	584.14
68.2047	558.56
68.2192	575.59
68.2336	614.01
68.2480	568.60
68.2625	575.08
68.2769	550.46
68.2914	546.18
68.3058	553.79
68.3202	588.67
68.3347	621.77
68.3491	612.67
68.3636	630.63
68.3780	577.43
68.3924	539.76
68.4069	530.08
68.4213	586.58
68.4358	568.14
68.4502	584.42
68.4646	616.97
68.4791	594.96
68.4935	570.69
68.5080	584.71
68.5224	556.37
68.5368	578.37
68.5513	628.72
68.5657	576.22
68.5802	560.52
68.5946	569.23
68.6090	592.64
68.6235	540.84
68.6379	634.06
68.6524	580.65
68.6668	621.62
68.6812	616.62
68.6957	586.80
68.7101	578.16
68.7246	569.72
68.7390	534.61
68.7534	554.63
68.7679	592.32
68.7823	568.45
68.7968	563.63
68.8112	600.88
68.8256	548.27
68.8401	570.36
68.8545	579.67
68.8690	562.67
68.8834	534.84
68.8978	574.45
68.9123	520.78
68.9267	521.42
68.9412	545.59
68.9556	585.16
68.9700	530.57
68.9845	552.76
68.9989	582.22
69.0134	569.58
69.0278	579.54
69.0422	561.64
69.0567	593.80
69.0711	614.48
69.0856	561.03
69.1000	582.76
69.1144	562.16
69.1289	628.33
69.1433	505.90
69.1578	537.43
69.1722	573.17
69.1866	562.83
69.2011	567.71
69.2155	609.82
69.2300	602.22
69.2444	534.56
69.2588	584.78
69.2733	601.80
69.2877	557.08
69.3022	521.95
69.3166	553.36
69.3310	586.53
69.3455	582.90
69.3599	583.95
69.3744	557.19
69.3888	555.36
69.4032	582.19
69.4177	529.72
69.4321	578.97
69.4466	561.03
69.4610	542.14
69.4754	576.14
69.4899	624.85
69.5043	608.55
69.5188	565.01
69.5332	566.82
69.5476	509.52
69.5621	581.71
69.5765	580.78
69.5910	577.63
69.6054	597.41
69.6198	576.63
69.6343	647.67
69.6487	574.61
69.6632	600.71
69.6776	575.93
69.6920	569.04
69.7065	572.26
69.7209	579.50
69.7354	566.05
69.7498	548.99
69.7642	542.42
69.7787	580.30
69.7931	603.73
69.8076	563.17
69.8220	537.34
69.8364	584.06
69.8509	569.59
69.8653	544.82
69.8798	586.34
69.8942	578.95
69.9086	584.10
69.9231	570.92
69.9375	601.79
69.9520	552.66
69.9664	540.28
69.9808	524.59
69.9953	614.45
70.0097	562.30
70.0242	562.70
70.0386	547.39
70.0530	557.31
70.0675	612.41
70.0819	623.97
70.0964	527.21
70.1108	579.57
70.1252	589.16
70.1397	521.01
70.1541	512.08
70.1686	560.94
70.1830	580.88
70.1974	543.11
70.2119	634.82
70.2263	572.68
70.2408	564.85
70.2552	577.36
70.2696	555.95
70.2841	566.13
70.2985	596.89
70.3130	561.96
70.3274	551.88
70.3418	553.49
70.3563	591.66
70.3707	570.70
70.3852	576.65
70.3996	523.35
70.4140	546.26
70.4285	638.93
70.4429	606.58
70.4574	590.76
70.4718	590.04
70.4862	564.35
70.5007	575.52
70.5151	568.94
70.5296	565.94
70.5440	603.60
70.5584	605.95
70.5729	524.07
70.5873	523.46
70.6018	539.17
70.6162	565.29
70.6306	558.99
70.6451	590.95
70.6595	598.93
70.6740	610.87
70.6884	650.09
70.7028	621.61
70.7173	605.04
70.7317	569.87
70.7462	556.32
70.7606	542.33
70.7750	568.06
70.7895	538.31
70.8039	546.78
70.8184	594.10
70.8328	631.54
70.8472	586.69
70.8617	585.82
70.8761	588.91
70.8906	542.74
70.9050	579.64
70.9194	624.92
70.9339	630.55
70.9483	607.54
70.9628	589.29
70.9772	567.97
70.9916	534.11
71.0061	534.94
71.0205	556.58
71.0350	577.45
71.0494	567.17
71.0638	553.15
71.0783	554.26
71.0927	606.62
71.1072	601.60
71.1216	585.00
71.1361	570.56
71.1505	616.06
71.1649	632.43
71.1794	642.42
71.1938	594.38
71.2083	563.05
71.2227	531.35
71.2371	499.85
71.2516	620.67
71.2660	612.02
71.2805	598.05
71.2949	593.21
71.3093	596.99
71.3238	619.78
71.3382	598.85
71.3527	518.73
71.3671	513.51
71.3815	576.46
71.3960	625.99
71.4104	656.23
71.4249	598.87
71.4393	584.43
71.4537	567.09
71.4682	566.45
71.4826	561.97
71.4971	582.32
71.5115	631.03
71.5259	620.43
71.5404	579.97
71.5548	570.65
71.5693	565.26
71.5837	558.76
71.5981	534.22
71.6126	504.87
71.6270	550.25
71.6415	609.26
71.6559	614.96
71.6703	607.58
71.6848	579.70
71.6992	589.80
71.7137	555.09
71.7281	557.90
71.7425	562.97
71.7570	598.54
71.7714	574.19
71.7859	544.76
71.8003	582.02
71.8147	586.81
71.8292	578.05
71.8436	580.28
71.8581	588.44
71.8725	601.73
71.8869	593.00
71.9014	536.01
71.9158	507.84
71.9303	572.49
71.9447	639.12
71.9591	607.76
71.9736	594.92
71.9880	564.23
72.0025	488.83
72.0169	530.68
72.0313	618.53
72.0458	641.75
72.0602	600.67
72.0747	588.17
72.0891	644.38
72.1035	636.85
72.1180	572.13
72.1324	644.42
72.1469	665.02
72.1613	626.29
72.1757	597.55
72.1902	604.89
72.2046	671.97
72.2191	606.21
72.2335	510.80
72.2479	581.37
72.2624	588.86
72.2768	601.63
72.2913	550.70
72.3057	590.48
72.3201	566.44
72.3346	488.20
72.3490	533.84
72.3635	520.91
72.3779	575.09
72.3923	601.04
72.4068	593.58
72.4212	592.65
72.4357	569.10
72.4501	475.42
72.4645	580.84
72.4790	580.84
72.4934	559.74
72.5079	559.55
72.5223	582.77
72.5367	566.13
72.5512	591.27
72.5656	600.43
72.5801	592.16
72.5945	558.74
72.6089	516.15
72.6234	528.54
72.6378	586.59
72.6523	621.62
72.6667	663.52
72.6811	668.54
72.6956	693.53
72.7100	662.08
72.7245	593.07
72.7389	566.11
72.7533	574.91
72.7678	576.55
72.7822	547.71
72.7967	503.27
72.8111	595.31
72.8255	605.34
72.8400	573.41
72.8544	616.41
72.8689	569.68
72.8833	448.38