2022.09.19 19:37:17
Îáðàçåö: ß÷åéêà LCoV 16-09-2022
Lambda1 = 1.54060
Lambda2 = 1.54439
Lambdam = 1.54186
R = 0.497
2Theta	I

line¹ 0 ;repeat¹ 0
22.1120	540.59
22.1264	552.78
22.1409	565.23
22.1553	510.66
22.1697	570.74
22.1842	658.76
22.1986	537.52
22.2131	522.95
22.2275	519.89
22.2419	574.73
22.2564	604.21
22.2708	587.03
22.2853	656.35
22.2997	608.40
22.3141	553.23
22.3286	560.58
22.3430	613.81
22.3575	632.66
22.3719	637.45
22.3863	495.77
22.4008	555.55
22.4152	580.84
22.4297	577.77
22.4441	589.28
22.4585	641.04
22.4730	615.76
22.4874	570.87
22.5019	567.45
22.5163	564.66
22.5307	595.52
22.5452	546.68
22.5596	560.55
22.5741	544.49
22.5885	546.09
22.6029	614.14
22.6174	599.64
22.6318	530.88
22.6463	571.68
22.6607	608.80
22.6751	563.84
22.6896	604.81
22.7040	616.06
22.7185	454.32
22.7329	488.54
22.7473	573.24
22.7618	548.16
22.7762	595.46
22.7907	599.00
22.8051	536.31
22.8195	542.05
22.8340	553.64
22.8484	589.66
22.8629	641.31
22.8773	636.71
22.8917	570.87
22.9062	625.41
22.9206	569.34
22.9351	557.92
22.9495	524.76
22.9639	524.83
22.9784	506.18
22.9928	491.64
23.0073	539.58
23.0217	666.94
23.0361	639.86
23.0506	529.41
23.0650	619.72
23.0795	622.21
23.0939	626.33
23.1083	598.01
23.1228	542.33
23.1372	616.21
23.1517	599.89
23.1661	559.39
23.1806	569.66
23.1950	520.92
23.2094	611.98
23.2239	490.80
23.2383	521.41
23.2528	506.79
23.2672	543.63
23.2816	547.58
23.2961	526.26
23.3105	535.89
23.3250	554.92
23.3394	559.57
23.3538	482.12
23.3683	539.41
23.3827	564.53
23.3972	549.53
23.4116	575.34
23.4260	555.06
23.4405	584.89
23.4549	510.24
23.4694	536.86
23.4838	536.58
23.4982	538.36
23.5127	590.89
23.5271	587.00
23.5416	519.67
23.5560	525.72
23.5704	563.14
23.5849	574.61
23.5993	574.65
23.6138	514.87
23.6282	531.91
23.6426	559.58
23.6571	560.72
23.6715	556.50
23.6860	527.33
23.7004	494.73
23.7148	590.56
23.7293	554.56
23.7437	563.72
23.7582	562.39
23.7726	532.23
23.7870	584.96
23.8015	542.68
23.8159	590.39
23.8304	608.71
23.8448	547.91
23.8592	547.77
23.8737	582.99
23.8881	496.98
23.9026	529.81
23.9170	578.78
23.9314	528.18
23.9459	593.14
23.9603	574.11
23.9748	533.77
23.9892	589.51
24.0036	565.98
24.0181	573.33
24.0325	629.36
24.0470	534.69
24.0614	556.22
24.0758	510.45
24.0903	565.76
24.1047	507.06
24.1192	494.48
24.1336	596.32
24.1480	573.32
24.1625	580.81
24.1769	579.61
24.1914	508.48
24.2058	572.16
24.2202	598.04
24.2347	569.12
24.2491	555.04
24.2636	551.36
24.2780	557.53
24.2924	585.87
24.3069	568.42
24.3213	575.18
24.3358	575.72
24.3502	567.47
24.3646	585.86
24.3791	582.49
24.3935	527.82
24.4080	557.64
24.4224	565.68
24.4368	544.78
24.4513	555.14
24.4657	494.04
24.4802	552.92
24.4946	538.86
24.5090	560.57
24.5235	546.39
24.5379	565.77
24.5524	560.58
24.5668	549.22
24.5812	559.89
24.5957	558.49
24.6101	562.78
24.6246	636.02
24.6390	554.78
24.6534	533.47
24.6679	543.52
24.6823	539.98
24.6968	539.23
24.7112	581.43
24.7256	547.18
24.7401	573.74
24.7545	542.25
24.7690	559.61
24.7834	496.99
24.7978	558.92
24.8123	524.27
24.8267	535.01
24.8412	479.88
24.8556	557.61
24.8700	537.93
24.8845	490.81
24.8989	591.64
24.9134	643.09
24.9278	545.83
24.9422	537.31
24.9567	504.28
24.9711	571.84
24.9856	491.86
25.0000	498.95
25.0144	564.26
25.0289	517.30
25.0433	517.72
25.0578	566.34
25.0722	527.62
25.0866	562.38
25.1011	525.87
25.1155	553.34
25.1300	582.27
25.1444	525.58
25.1588	543.19
25.1733	556.43
25.1877	546.23
25.2022	579.88
25.2166	604.01
25.2310	560.16
25.2455	583.58
25.2599	556.30
25.2744	532.54
25.2888	563.62
25.3032	559.43
25.3177	550.09
25.3321	560.97
25.3466	509.60
25.3610	532.11
25.3754	520.76
25.3899	542.09
25.4043	563.09
25.4188	544.67
25.4332	520.90
25.4476	538.30
25.4621	542.81
25.4765	521.38
25.4910	574.89
25.5054	550.75
25.5198	522.97
25.5343	530.69
25.5487	546.44
25.5632	579.37
25.5776	588.20
25.5920	538.41
25.6065	569.90
25.6209	504.37
25.6354	541.62
25.6498	551.66
25.6642	526.18
25.6787	556.77
25.6931	537.57
25.7076	551.59
25.7220	529.13
25.7364	517.20
25.7509	540.31
25.7653	511.47
25.7798	518.83
25.7942	546.40
25.8086	544.89
25.8231	533.96
25.8375	521.12
25.8520	539.86
25.8664	576.22
25.8808	539.01
25.8953	591.47
25.9097	555.19
25.9242	546.02
25.9386	570.77
25.9530	543.18
25.9675	508.62
25.9819	541.52
25.9964	542.13
26.0108	555.48
26.0252	502.24
26.0397	514.89
26.0541	493.72
26.0686	519.74
26.0830	569.74
26.0974	581.42
26.1119	557.06
26.1263	521.24
26.1408	513.07
26.1552	497.77
26.1696	503.91
26.1841	508.36
26.1985	509.59
26.2130	516.67
26.2274	529.42
26.2418	524.28
26.2563	530.27
26.2707	529.05
26.2852	546.26
26.2996	528.23
26.3140	516.94
26.3285	517.99
26.3429	531.26
26.3574	540.33
26.3718	535.52
26.3862	519.48
26.4007	524.24
26.4151	528.62
26.4296	557.66
26.4440	527.40
26.4584	500.35
26.4729	506.13
26.4873	524.85
26.5018	522.53
26.5162	539.55
26.5306	530.08
26.5451	528.35
26.5595	522.41
26.5740	540.63
26.5884	534.78
26.6028	505.99
26.6173	499.10
26.6317	521.26
26.6462	522.59
26.6606	513.00
26.6750	529.88
26.6895	506.97
26.7039	533.59
26.7184	545.77
26.7328	511.20
26.7472	533.19
26.7617	529.64
26.7761	514.06
26.7906	534.16
26.8050	507.92
26.8194	510.57
26.8339	546.77
26.8483	530.97
26.8628	503.74
26.8772	534.35
26.8917	516.18
26.9061	507.28
26.9205	505.47
26.9350	499.13
26.9494	510.86
26.9639	514.23
26.9783	535.43
26.9927	508.47
27.0072	526.50
27.0216	544.42
27.0361	538.26
27.0505	503.73
27.0649	528.07
27.0794	549.03
27.0938	521.05
27.1083	512.66
27.1227	531.84
27.1371	531.92
27.1516	489.27
27.1660	499.51
27.1805	531.42
27.1949	505.89
27.2093	532.93
27.2238	533.02
27.2382	520.67
27.2527	490.25
27.2671	486.92
27.2815	503.90
27.2960	495.05
27.3104	534.44
27.3249	545.41
27.3393	530.39
27.3537	544.09
27.3682	547.58
27.3826	535.73
27.3971	518.58
27.4115	518.90
27.4259	509.77
27.4404	503.75
27.4548	504.43
27.4693	530.39
27.4837	522.07
27.4981	526.09
27.5126	497.75
27.5270	519.50
27.5415	541.67
27.5559	515.32
27.5703	532.10
27.5848	516.08
27.5992	516.88
27.6137	512.10
27.6281	490.02
27.6425	509.87
27.6570	520.64
27.6714	528.72
27.6859	520.67
27.7003	522.44
27.7147	507.11
27.7292	514.29
27.7436	538.31
27.7581	516.35
27.7725	530.58
27.7869	499.65
27.8014	495.23
27.8158	509.84
27.8303	490.79
27.8447	489.50
27.8591	520.98
27.8736	550.03
27.8880	532.42
27.9025	495.74
27.9169	508.12
27.9313	520.58
27.9458	485.35
27.9602	499.55
27.9747	525.22
27.9891	513.57
28.0035	543.32
28.0180	537.27
28.0324	504.51
28.0469	478.91
28.0613	511.40
28.0757	475.86
28.0902	548.35
28.1046	507.31
28.1191	524.43
28.1335	517.89
28.1479	542.51
28.1624	504.22
28.1768	517.36
28.1913	477.98
28.2057	511.92
28.2201	528.01
28.2346	538.35
28.2490	541.75
28.2635	536.18
28.2779	511.94
28.2923	527.27
28.3068	485.35
28.3212	504.54
28.3357	535.59
28.3501	541.38
28.3645	502.28
28.3790	509.60
28.3934	520.77
28.4079	496.64
28.4223	494.67
28.4367	523.82
28.4512	495.65
28.4656	514.91
28.4801	530.02
28.4945	521.02
28.5089	527.11
28.5234	533.45
28.5378	518.71
28.5523	510.16
28.5667	550.67
28.5811	545.08
28.5956	527.33
28.6100	514.90
28.6245	515.44
28.6389	485.74
28.6533	516.25
28.6678	507.96
28.6822	514.78
28.6967	505.75
28.7111	518.67
28.7255	491.63
28.7400	500.62
28.7544	520.03
28.7689	518.86
28.7833	513.17
28.7977	513.19
28.8122	522.48
28.8266	517.69
28.8411	525.40
28.8555	496.47
28.8699	509.17
28.8844	471.55
28.8988	467.06
28.9133	503.61
28.9277	496.08
28.9421	469.67
28.9566	486.25
28.9710	500.21
28.9855	485.52
28.9999	495.14
29.0143	551.93
29.0288	500.22
29.0432	469.12
29.0577	483.17
29.0721	512.32
29.0865	470.72
29.1010	537.84
29.1154	541.90
29.1299	529.80
29.1443	508.34
29.1587	497.10
29.1732	504.69
29.1876	516.80
29.2021	484.33
29.2165	479.15
29.2309	495.20
29.2454	476.36
29.2598	550.81
29.2743	534.72
29.2887	527.01
29.3031	495.48
29.3176	460.18
29.3320	559.15
29.3465	527.98
29.3609	519.43
29.3753	511.97
29.3898	492.69
29.4042	476.52
29.4187	520.66
29.4331	509.76
29.4475	475.75
29.4620	500.27
29.4764	513.14
29.4909	557.37
29.5053	498.08
29.5197	497.44
29.5342	483.79
29.5486	561.05
29.5631	539.00
29.5775	497.00
29.5919	531.42
29.6064	484.01
29.6208	508.56
29.6353	536.83
29.6497	500.77
29.6641	501.73
29.6786	498.72
29.6930	499.99
29.7075	513.88
29.7219	521.24
29.7363	463.50
29.7508	480.94
29.7652	497.78
29.7797	485.32
29.7941	445.07
29.8085	510.16
29.8230	493.33
29.8374	498.50
29.8519	486.05
29.8663	551.94
29.8807	508.83
29.8952	504.67
29.9096	545.69
29.9241	540.84
29.9385	504.27
29.9529	511.10
29.9674	539.18
29.9818	518.45
29.9963	531.54
30.0107	503.57
30.0251	510.63
30.0396	512.39
30.0540	541.78
30.0685	516.25
30.0829	553.90
30.0973	520.01
30.1118	503.47
30.1262	529.54
30.1407	538.56
30.1551	504.12
30.1695	532.23
30.1840	516.08
30.1984	486.82
30.2129	501.94
30.2273	534.47
30.2417	523.69
30.2562	505.94
30.2706	520.18
30.2851	546.92
30.2995	517.53
30.3139	511.46
30.3284	512.59
30.3428	529.14
30.3573	513.25
30.3717	518.40
30.3861	522.65
30.4006	510.05
30.4150	533.90
30.4295	522.33
30.4439	506.88
30.4583	565.49
30.4728	586.37
30.4872	600.25
30.5017	617.65
30.5161	647.60
30.5305	651.35
30.5450	679.51
30.5594	775.70
30.5739	789.28
30.5883	764.65
30.6028	718.93
30.6172	721.56
30.6316	718.00
30.6461	676.21
30.6605	658.22
30.6750	638.59
30.6894	617.59
30.7038	596.08
30.7183	568.37
30.7327	549.57
30.7472	526.17
30.7616	526.67
30.7760	536.45
30.7905	531.10
30.8049	526.22
30.8194	514.15
30.8338	511.78
30.8482	515.51
30.8627	499.09
30.8771	534.89
30.8916	506.76
30.9060	518.48
30.9204	503.50
30.9349	499.34
30.9493	501.39
30.9638	491.88
30.9782	519.23
30.9926	519.62
31.0071	509.26
31.0215	508.46
31.0360	544.82
31.0504	515.95
31.0648	485.14
31.0793	503.13
31.0937	522.42
31.1082	509.55
31.1226	522.91
31.1370	534.11
31.1515	521.70
31.1659	511.27
31.1804	525.03
31.1948	516.00
31.2092	511.67
31.2237	538.43
31.2381	519.34
31.2526	480.41
31.2670	492.97
31.2814	515.65
31.2959	523.94
31.3103	576.34
31.3248	572.59
31.3392	529.33
31.3536	506.86
31.3681	517.81
31.3825	538.76
31.3970	523.72
31.4114	498.16
31.4258	509.07
31.4403	478.49
31.4547	479.56
31.4692	512.53
31.4836	505.82
31.4980	493.38
31.5125	489.51
31.5269	518.45
31.5414	513.52
31.5558	510.88
31.5702	498.94
31.5847	510.41
31.5991	458.39
31.6136	470.52
31.6280	458.07
31.6424	492.79
31.6569	501.97
31.6713	506.48
31.6858	491.26
31.7002	494.29
31.7146	500.90
31.7291	470.02
31.7435	517.39
31.7580	495.55
31.7724	478.61
31.7868	500.96
31.8013	479.50
31.8157	499.18
31.8302	496.95
31.8446	529.58
31.8590	552.85
31.8735	503.05
31.8879	497.55
31.9024	510.64
31.9168	469.13
31.9312	507.68
31.9457	496.60
31.9601	468.52
31.9746	515.42
31.9890	505.34
32.0034	488.20
32.0179	494.42
32.0323	488.61
32.0468	495.22
32.0612	518.47
32.0756	515.35
32.0901	503.80
32.1045	503.03
32.1190	506.74
32.1334	516.72
32.1478	517.69
32.1623	513.19
32.1767	504.63
32.1912	530.33
32.2056	515.24
32.2200	501.19
32.2345	513.47
32.2489	529.61
32.2634	510.06
32.2778	495.40
32.2922	500.34
32.3067	486.73
32.3211	487.77
32.3356	490.78
32.3500	506.44
32.3644	492.98
32.3789	479.54
32.3933	470.22
32.4078	496.71
32.4222	545.22
32.4366	535.36
32.4511	517.98
32.4655	495.14
32.4800	520.70
32.4944	500.26
32.5088	515.35
32.5233	512.76
32.5377	512.43
32.5522	534.86
32.5666	528.91
32.5810	484.73
32.5955	490.20
32.6099	495.47
32.6244	505.05
32.6388	521.19
32.6532	486.02
32.6677	497.27
32.6821	461.38
32.6966	488.81
32.7110	499.83
32.7254	531.04
32.7399	522.20
32.7543	535.37
32.7688	498.56
32.7832	540.19
32.7976	512.75
32.8121	504.68
32.8265	521.57
32.8410	477.94
32.8554	495.31
32.8698	518.73
32.8843	476.23
32.8987	495.48
32.9132	514.78
32.9276	543.42
32.9420	536.26
32.9565	475.79
32.9709	547.36
32.9854	535.20
32.9998	497.77
33.0142	531.46
33.0287	530.48
33.0431	497.09
33.0576	502.22
33.0720	501.55
33.0864	493.13
33.1009	483.54
33.1153	521.58
33.1298	529.43
33.1442	437.38
33.1586	503.51
33.1731	500.39
33.1875	500.68
33.2020	494.30
33.2164	519.59
33.2308	487.06
33.2453	489.44
33.2597	493.07
33.2742	490.33
33.2886	499.06
33.3030	512.59
33.3175	484.81
33.3319	517.21
33.3464	516.98
33.3608	520.02
33.3752	532.01
33.3897	512.99
33.4041	494.04
33.4186	507.17
33.4330	481.20
33.4474	490.12
33.4619	503.07
33.4763	514.39
33.4908	529.02
33.5052	484.80
33.5196	497.87
33.5341	484.86
33.5485	489.63
33.5630	528.52
33.5774	526.25
33.5918	538.43
33.6063	485.02
33.6207	516.76
33.6352	493.49
33.6496	492.19
33.6640	511.51
33.6785	505.35
33.6929	475.73
33.7074	510.59
33.7218	493.86
33.7362	474.87
33.7507	502.61
33.7651	492.31
33.7796	502.76
33.7940	482.97
33.8084	511.37
33.8229	492.86
33.8373	513.04
33.8518	532.79
33.8662	536.19
33.8806	512.30
33.8951	499.63
33.9095	481.20
33.9240	476.36
33.9384	530.99
33.9528	483.48
33.9673	486.02
33.9817	496.56
33.9962	508.57
34.0106	495.79
34.0250	516.24
34.0395	461.90
34.0539	494.10
34.0684	533.75
34.0828	522.72
34.0972	520.04
34.1117	475.58
34.1261	523.59
34.1406	506.82
34.1550	476.88
34.1694	481.97
34.1839	476.18
34.1983	495.56
34.2128	517.68
34.2272	535.89
34.2417	506.53
34.2561	507.82
34.2705	502.96
34.2850	543.95
34.2994	528.48
34.3139	510.02
34.3283	540.83
34.3427	521.81
34.3572	513.31
34.3716	515.46
34.3861	495.59
34.4005	516.56
34.4149	488.69
34.4294	531.57
34.4438	503.96
34.4583	517.39
34.4727	510.11
34.4871	494.03
34.5016	459.50
34.5160	499.25
34.5305	487.37
34.5449	513.94
34.5593	512.02
34.5738	524.43
34.5882	547.67
34.6027	486.44
34.6171	476.57
34.6315	496.75
34.6460	502.99
34.6604	524.81
34.6749	515.60
34.6893	482.75
34.7037	511.62
34.7182	507.15
34.7326	504.92
34.7471	493.42
34.7615	499.75
34.7759	508.60
34.7904	513.80
34.8048	483.39
34.8193	527.47
34.8337	517.38
34.8481	500.52
34.8626	502.47
34.8770	511.19
34.8915	510.28
34.9059	543.19
34.9203	525.41
34.9348	517.95
34.9492	505.68
34.9637	492.55
34.9781	505.18
34.9925	505.53
35.0070	497.37
35.0214	494.15
35.0359	480.43
35.0503	500.90
35.0647	512.22
35.0792	508.28
35.0936	553.37
35.1081	519.96
35.1225	513.26
35.1369	492.23
35.1514	518.99
35.1658	529.45
35.1803	493.59
35.1947	518.68
35.2091	511.27
35.2236	507.77
35.2380	508.20
35.2525	510.09
35.2669	506.32
35.2813	513.70
35.2958	523.21
35.3102	497.39
35.3247	534.23
35.3391	540.12
35.3535	542.24
35.3680	527.37
35.3824	537.77
35.3969	512.77
35.4113	525.52
35.4257	520.99
35.4402	522.11
35.4546	535.47
35.4691	558.90
35.4835	547.26
35.4979	555.52
35.5124	545.61
35.5268	536.58
35.5413	561.06
35.5557	556.69
35.5701	548.52
35.5846	522.56
35.5990	533.83
35.6135	548.55
35.6279	525.83
35.6423	560.21
35.6568	551.01
35.6712	541.25
35.6857	614.59
35.7001	726.03
35.7145	751.51
35.7290	710.00
35.7434	610.39
35.7579	614.70
35.7723	623.96
35.7867	682.20
35.8012	743.80
35.8156	789.32
35.8301	705.03
35.8445	722.49
35.8589	789.96
35.8734	865.53
35.8878	932.47
35.9023	1065.30
35.9167	1090.66
35.9311	1270.36
35.9456	1515.65
35.9600	1873.36
35.9745	2095.04
35.9889	2332.28
36.0033	2666.76
36.0178	3065.19
36.0322	3128.11
36.0467	2742.82
36.0611	2150.13
36.0755	1975.65
36.0900	2125.87
36.1044	2213.93
36.1189	1795.67
36.1333	1373.04
36.1477	1134.99
36.1622	1088.10
36.1766	1036.60
36.1911	881.24
36.2055	763.18
36.2199	718.46
36.2344	771.19
36.2488	651.90
36.2633	580.18
36.2777	592.98
36.2921	581.90
36.3066	579.26
36.3210	554.29
36.3355	531.41
36.3499	493.29
36.3643	515.94
36.3788	531.58
36.3932	527.38
36.4077	506.93
36.4221	562.19
36.4365	537.65
36.4510	495.71
36.4654	524.18
36.4799	547.77
36.4943	524.81
36.5087	514.78
36.5232	533.45
36.5376	538.00
36.5521	572.41
36.5665	553.76
36.5809	515.11
36.5954	530.05
36.6098	525.08
36.6243	495.71
36.6387	561.90
36.6531	519.36
36.6676	530.93
36.6820	507.35
36.6965	517.96
36.7109	522.62
36.7253	526.94
36.7398	532.14
36.7542	520.50
36.7687	495.71
36.7831	573.84
36.7975	571.75
36.8120	588.75
36.8264	545.31
36.8409	545.40
36.8553	556.46
36.8697	596.50
36.8842	610.53
36.8986	583.67
36.9131	591.70
36.9275	556.18
36.9419	590.91
36.9564	519.00
36.9708	507.05
36.9853	522.45
36.9997	511.73
37.0141	524.71
37.0286	532.27
37.0430	504.43
37.0575	513.54
37.0719	501.84
37.0863	503.02
37.1008	516.55
37.1152	520.28
37.1297	517.86
37.1441	524.75
37.1585	526.26
37.1730	498.10
37.1874	528.32
37.2019	486.10
37.2163	532.62
37.2307	492.09
37.2452	494.12
37.2596	535.85
37.2741	526.24
37.2885	528.16
37.3029	515.23
37.3174	493.54
37.3318	502.75
37.3463	531.44
37.3607	532.29
37.3751	504.92
37.3896	497.84
37.4040	464.42
37.4185	511.09
37.4329	526.98
37.4473	478.30
37.4618	480.98
37.4762	510.46
37.4907	521.97
37.5051	481.68
37.5195	499.30
37.5340	514.89
37.5484	513.58
37.5629	505.65
37.5773	477.59
37.5917	506.35
37.6062	526.01
37.6206	524.83
37.6351	486.90
37.6495	521.94
37.6639	507.97
37.6784	498.03
37.6928	505.41
37.7073	532.14
37.7217	485.86
37.7361	470.76
37.7506	515.18
37.7650	541.88
37.7795	538.76
37.7939	499.19
37.8083	494.37
37.8228	507.57
37.8372	537.47
37.8517	508.21
37.8661	506.16
37.8805	528.86
37.8950	514.29
37.9094	527.96
37.9239	486.13
37.9383	525.68
37.9528	517.43
37.9672	495.06
37.9816	499.34
37.9961	502.39
38.0105	517.35
38.0250	509.70
38.0394	496.48
38.0538	531.28
38.0683	549.26
38.0827	526.28
38.0972	512.15
38.1116	497.40
38.1260	495.29
38.1405	486.90
38.1549	495.49
38.1694	494.38
38.1838	495.32
38.1982	481.75
38.2127	502.01
38.2271	517.88
38.2416	522.37
38.2560	521.98
38.2704	510.35
38.2849	490.27
38.2993	517.07
38.3138	487.36
38.3282	520.34
38.3426	547.29
38.3571	517.12
38.3715	500.45
38.3860	507.68
38.4004	501.49
38.4148	544.29
38.4293	582.59
38.4437	572.37
38.4582	621.03
38.4726	695.30
38.4870	677.35
38.5015	699.99
38.5159	785.57
38.5304	825.08
38.5448	801.77
38.5592	791.09
38.5737	736.83
38.5881	733.39
38.6026	724.00
38.6170	680.85
38.6314	676.78
38.6459	688.94
38.6603	642.82
38.6748	601.94
38.6892	609.75
38.7036	543.91
38.7181	559.57
38.7325	516.95
38.7470	522.37
38.7614	533.87
38.7758	525.16
38.7903	513.74
38.8047	512.99
38.8192	544.42
38.8336	529.11
38.8480	529.80
38.8625	547.02
38.8769	531.03
38.8914	530.42
38.9058	518.20
38.9202	482.34
38.9347	489.33
38.9491	523.11
38.9636	511.53
38.9780	493.42
38.9924	488.27
39.0069	477.86
39.0213	501.66
39.0358	490.05
39.0502	481.31
39.0646	510.97
39.0791	539.98
39.0935	528.67
39.1080	511.34
39.1224	502.67
39.1368	487.50
39.1513	476.92
39.1657	483.55
39.1802	496.14
39.1946	521.34
39.2090	517.10
39.2235	533.94
39.2379	511.45
39.2524	531.33
39.2668	497.54
39.2812	530.60
39.2957	536.50
39.3101	505.40
39.3246	509.18
39.3390	514.42
39.3534	518.81
39.3679	520.93
39.3823	497.87
39.3968	473.45
39.4112	493.08
39.4256	493.06
39.4401	520.91
39.4545	499.67
39.4690	506.25
39.4834	494.68
39.4978	493.81
39.5123	481.09
39.5267	464.05
39.5412	477.55
39.5556	479.53
39.5700	516.93
39.5845	481.75
39.5989	490.08
39.6134	502.62
39.6278	485.00
39.6422	491.30
39.6567	501.40
39.6711	498.09
39.6856	488.88
39.7000	508.10
39.7144	535.86
39.7289	505.05
39.7433	484.93
39.7578	477.66
39.7722	499.10
39.7866	525.41
39.8011	507.56
39.8155	514.79
39.8300	520.56
39.8444	531.63
39.8588	503.45
39.8733	501.22
39.8877	493.28
39.9022	515.32
39.9166	486.39
39.9310	454.00
39.9455	493.56
39.9599	438.77
39.9744	524.61
39.9888	492.48
40.0032	489.44
40.0177	499.94
40.0321	520.03
40.0466	482.72
40.0610	497.10
40.0754	472.30
40.0899	523.41
40.1043	540.52
40.1188	508.49
40.1332	505.12
40.1476	492.19
40.1621	521.01
40.1765	509.90
40.1910	493.28
40.2054	487.86
40.2198	486.14
40.2343	502.61
40.2487	538.52
40.2632	490.15
40.2776	500.28
40.2920	502.68
40.3065	512.73
40.3209	508.63
40.3354	521.39
40.3498	534.28
40.3642	489.30
40.3787	516.55
40.3931	466.54
40.4076	501.48
40.4220	488.57
40.4364	494.54
40.4509	466.89
40.4653	493.13
40.4798	500.04
40.4942	490.97
40.5086	488.26
40.5231	463.02
40.5375	486.70
40.5520	514.16
40.5664	502.08
40.5808	452.44
40.5953	486.59
40.6097	546.00
40.6242	510.56
40.6386	516.14
40.6530	504.52
40.6675	500.14
40.6819	503.46
40.6964	478.07
40.7108	481.99
40.7252	494.33
40.7397	502.17
40.7541	498.21
40.7686	491.73
40.7830	538.64
40.7974	468.70
40.8119	486.91
40.8263	483.85
40.8408	541.65
40.8552	493.29
40.8696	491.91
40.8841	484.09
40.8985	509.58
40.9130	505.28
40.9274	482.07
40.9418	520.30
40.9563	502.65
40.9707	487.81
40.9852	448.15
40.9996	502.83
41.0140	509.53
41.0285	503.63
41.0429	482.09
41.0574	468.53
41.0718	496.22
41.0862	497.03
41.1007	517.47
41.1151	527.03
41.1296	518.07
41.1440	485.16
41.1584	509.62
41.1729	498.87
41.1873	510.91
41.2018	492.39
41.2162	519.10
41.2306	486.29
41.2451	493.13
41.2595	526.80
41.2740	508.08
41.2884	512.46
41.3028	497.33
41.3173	493.36
41.3317	498.54
41.3462	519.00
41.3606	498.07
41.3750	524.84
41.3895	512.32
41.4039	486.69
41.4184	501.16
41.4328	487.99
41.4472	501.98
41.4617	494.41
41.4761	497.84
41.4906	523.84
41.5050	501.70
41.5194	504.73
41.5339	480.61
41.5483	507.68
41.5628	519.42
41.5772	459.78
41.5916	476.95
41.6061	509.53
41.6205	511.84
41.6350	532.22
41.6494	517.60
41.6639	499.14
41.6783	476.04
41.6927	488.58
41.7072	489.54
41.7216	506.41
41.7361	516.23
41.7505	520.81
41.7649	503.09
41.7794	484.72
41.7938	496.66
41.8083	476.45
41.8227	502.11
41.8371	519.50
41.8516	550.76
41.8660	552.77
41.8805	550.44
41.8949	533.53
41.9093	540.24
41.9238	521.30
41.9382	529.53
41.9527	550.29
41.9671	556.92
41.9815	556.57
41.9960	579.56
42.0104	569.92
42.0249	572.87
42.0393	563.33
42.0537	572.19
42.0682	575.75
42.0826	573.53
42.0971	574.56
42.1115	579.72
42.1259	593.23
42.1404	566.99
42.1548	591.01
42.1693	682.44
42.1837	701.29
42.1981	730.94
42.2126	783.62
42.2270	884.89
42.2415	1063.64
42.2559	1210.50
42.2703	1350.12
42.2848	1476.31
42.2992	1566.58
42.3137	1663.44
42.3281	1605.33
42.3425	1513.65
42.3570	1466.92
42.3714	1351.89
42.3859	1319.87
42.4003	1290.55
42.4147	1264.51
42.4292	1248.40
42.4436	1109.81
42.4581	1056.32
42.4725	936.65
42.4869	852.17
42.5014	780.97
42.5158	709.47
42.5303	627.63
42.5447	637.92
42.5591	641.15
42.5736	629.97
42.5880	617.00
42.6025	542.53
42.6169	558.44
42.6313	547.91
42.6458	527.20
42.6602	531.61
42.6747	516.26
42.6891	515.86
42.7035	529.12
42.7180	527.12
42.7324	508.06
42.7469	535.15
42.7613	507.83
42.7757	485.01
42.7902	536.47
42.8046	551.72
42.8191	553.34
42.8335	549.95
42.8479	518.91
42.8624	521.29
42.8768	495.27
42.8913	497.91
42.9057	524.94
42.9201	530.77
42.9346	504.02
42.9490	521.04
42.9635	510.02
42.9779	508.24
42.9923	502.49
43.0068	494.75
43.0212	519.83
43.0357	508.99
43.0501	505.05
43.0645	485.10
43.0790	514.78
43.0934	506.36
43.1079	504.43
43.1223	507.75
43.1367	537.72
43.1512	511.39
43.1656	526.16
43.1801	529.30
43.1945	508.00
43.2089	515.46
43.2234	508.57
43.2378	540.98
43.2523	556.53
43.2667	537.12
43.2811	536.39
43.2956	506.57
43.3100	515.34
43.3245	517.10
43.3389	520.29
43.3533	505.77
43.3678	484.09
43.3822	514.38
43.3967	535.81
43.4111	514.23
43.4255	512.23
43.4400	538.96
43.4544	501.98
43.4689	508.34
43.4833	498.38
43.4977	517.23
43.5122	543.01
43.5266	528.40
43.5411	505.40
43.5555	553.26
43.5699	515.96
43.5844	496.47
43.5988	503.90
43.6133	542.57
43.6277	525.32
43.6421	557.06
43.6566	580.50
43.6710	573.48
43.6855	571.29
43.6999	611.00
43.7143	638.45
43.7288	675.36
43.7432	690.60
43.7577	693.26
43.7721	645.26
43.7865	654.54
43.8010	610.01
43.8154	615.21
43.8299	618.11
43.8443	615.34
43.8587	601.93
43.8732	601.03
43.8876	571.90
43.9021	609.06
43.9165	558.77
43.9309	538.33
43.9454	549.34
43.9598	520.65
43.9743	555.92
43.9887	526.44
44.0031	510.40
44.0176	500.58
44.0320	528.12
44.0465	525.54
44.0609	515.14
44.0753	498.76
44.0898	502.31
44.1042	508.55
44.1187	525.91
44.1331	527.66
44.1475	495.92
44.1620	496.51
44.1764	527.25
44.1909	493.28
44.2053	511.80
44.2197	501.08
44.2342	563.32
44.2486	544.38
44.2631	546.23
44.2775	550.26
44.2919	548.72
44.3064	538.92
44.3208	491.20
44.3353	516.85
44.3497	558.07
44.3641	531.13
44.3786	516.80
44.3930	518.56
44.4075	560.14
44.4219	576.22
44.4363	567.86
44.4508	565.07
44.4652	561.60
44.4797	586.45
44.4941	616.92
44.5085	615.16
44.5230	567.69
44.5374	556.00
44.5519	603.67
44.5663	549.38
44.5807	531.53
44.5952	553.85
44.6096	583.21
44.6241	537.77
44.6385	571.79
44.6529	540.71
44.6674	546.03
44.6818	563.15
44.6963	578.39
44.7107	666.92
44.7251	717.79
44.7396	733.83
44.7540	782.61
44.7685	801.11
44.7829	822.83
44.7973	844.19
44.8118	825.07
44.8262	814.60
44.8407	782.72
44.8551	805.11
44.8695	762.14
44.8840	739.55
44.8984	745.83
44.9129	749.22
44.9273	722.39
44.9417	680.09
44.9562	597.96
44.9706	574.65
44.9851	605.94
44.9995	533.83
45.0139	550.89
45.0284	542.21
45.0428	551.33
45.0573	543.47
45.0717	510.97
45.0861	540.29
45.1006	516.69
45.1150	538.05
45.1295	574.43
45.1439	530.21
45.1583	491.99
45.1728	536.14
45.1872	501.83
45.2017	484.46
45.2161	494.35
45.2305	525.69
45.2450	484.38
45.2594	493.59
45.2739	527.65
45.2883	540.75
45.3028	493.42
45.3172	510.77
45.3316	525.01
45.3461	522.81
45.3605	507.31
45.3750	506.88
45.3894	473.24
45.4038	483.75
45.4183	465.58
45.4327	506.47
45.4472	488.16
45.4616	476.86
45.4760	468.37
45.4905	494.48
45.5049	470.75
45.5194	481.63
45.5338	498.14
45.5482	508.57
45.5627	503.76
45.5771	487.46
45.5916	493.97
45.6060	511.07
45.6204	492.20
45.6349	525.99
45.6493	512.42
45.6638	511.08
45.6782	511.83
45.6926	503.39
45.7071	533.00
45.7215	501.95
45.7360	495.70
45.7504	542.82
45.7648	510.67
45.7793	508.70
45.7937	490.01
45.8082	502.96
45.8226	473.68
45.8370	488.54
45.8515	479.62
45.8659	479.90
45.8804	484.03
45.8948	484.75
45.9092	484.69
45.9237	519.48
45.9381	502.34
45.9526	489.58
45.9670	529.87
45.9814	499.34
45.9959	518.52
46.0103	535.30
46.0248	542.57
46.0392	473.45
46.0536	471.59
46.0681	516.21
46.0825	506.80
46.0970	495.31
46.1114	496.50
46.1258	509.34
46.1403	495.45
46.1547	474.67
46.1692	528.61
46.1836	486.48
46.1980	515.20
46.2125	495.79
46.2269	475.24
46.2414	521.43
46.2558	519.77
46.2702	481.91
46.2847	506.79
46.2991	497.06
46.3136	473.40
46.3280	493.31
46.3424	502.47
46.3569	479.11
46.3713	485.48
46.3858	509.98
46.4002	485.14
46.4146	496.26
46.4291	529.10
46.4435	514.86
46.4580	509.97
46.4724	525.11
46.4868	535.87
46.5013	505.54
46.5157	474.52
46.5302	502.66
46.5446	504.06
46.5590	486.78
46.5735	501.90
46.5879	518.08
46.6024	511.91
46.6168	493.93
46.6312	486.32
46.6457	492.32
46.6601	510.87
46.6746	501.72
46.6890	503.20
46.7034	522.64
46.7179	525.32
46.7323	493.07
46.7468	508.70
46.7612	503.36
46.7756	516.71
46.7901	507.33
46.8045	467.89
46.8190	495.08
46.8334	487.77
46.8478	461.75
46.8623	479.20
46.8767	513.55
46.8912	508.63
46.9056	507.47
46.9200	480.14
46.9345	492.54
46.9489	481.41
46.9634	470.53
46.9778	480.45
46.9922	522.33
47.0067	526.32
47.0211	501.71
47.0356	497.93
47.0500	499.34
47.0644	552.86
47.0789	534.06
47.0933	508.68
47.1078	491.84
47.1222	528.45
47.1366	506.13
47.1511	507.84
47.1655	541.52
47.1800	509.68
47.1944	510.47
47.2088	536.46
47.2233	501.61
47.2377	497.20
47.2522	493.74
47.2666	508.75
47.2810	500.56
47.2955	487.20
47.3099	470.94
47.3244	522.35
47.3388	528.88
47.3532	516.15
47.3677	491.20
47.3821	492.24
47.3966	488.31
47.4110	478.79
47.4254	516.69
47.4399	522.94
47.4543	496.91
47.4688	503.17
47.4832	490.34
47.4976	522.67
47.5121	543.29
47.5265	535.61
47.5410	505.56
47.5554	504.32
47.5698	522.24
47.5843	499.51
47.5987	498.13
47.6132	462.74
47.6276	491.08
47.6420	509.76
47.6565	481.26
47.6709	477.78
47.6854	482.46
47.6998	515.64
47.7142	505.26
47.7287	488.52
47.7431	484.90
47.7576	488.61
47.7720	492.30
47.7864	540.33
47.8009	536.95
47.8153	512.73
47.8298	527.30
47.8442	492.30
47.8586	529.64
47.8731	547.21
47.8875	487.71
47.9020	515.04
47.9164	507.39
47.9308	542.03
47.9453	500.28
47.9597	498.55
47.9742	506.40
47.9886	496.42
48.0030	510.85
48.0175	493.60
48.0319	481.46
48.0464	526.64
48.0608	511.55
48.0752	524.28
48.0897	511.62
48.1041	515.87
48.1186	536.27
48.1330	530.86
48.1474	494.51
48.1619	511.02
48.1763	495.50
48.1908	506.15
48.2052	498.55
48.2196	489.80
48.2341	495.32
48.2485	515.97
48.2630	514.95
48.2774	529.88
48.2918	503.87
48.3063	532.66
48.3207	513.39
48.3352	515.41
48.3496	505.73
48.3640	509.21
48.3785	508.04
48.3929	494.11
48.4074	490.02
48.4218	549.06
48.4362	532.98
48.4507	484.52
48.4651	496.41
48.4796	502.99
48.4940	514.15
48.5084	525.50
48.5229	495.54
48.5373	518.45
48.5518	515.81
48.5662	535.20
48.5806	529.94
48.5951	521.90
48.6095	548.34
48.6240	486.00
48.6384	512.19
48.6528	509.98
48.6673	531.80
48.6817	523.71
48.6962	544.40
48.7106	544.64
48.7250	539.75
48.7395	511.38
48.7539	521.31
48.7684	510.39
48.7828	505.92
48.7972	519.10
48.8117	571.65
48.8261	594.58
48.8406	577.42
48.8550	523.28
48.8694	540.90
48.8839	562.29
48.8983	527.40
48.9128	522.86
48.9272	531.82
48.9416	579.90
48.9561	563.45
48.9705	539.46
48.9850	584.95
48.9994	540.10
49.0139	592.12
49.0283	597.75
49.0427	621.47
49.0572	645.94
49.0716	640.12
49.0861	655.84
49.1005	665.86
49.1149	707.15
49.1294	749.69
49.1438	760.27
49.1583	823.89
49.1727	905.03
49.1871	914.27
49.2016	955.30
49.2160	1030.41
49.2305	1147.98
49.2449	1261.42
49.2593	1316.07
49.2738	1454.05
49.2882	1506.48
49.3027	1602.97
49.3171	1670.17
49.3315	1767.36
49.3460	1818.22
49.3604	1788.34
49.3749	1827.29
49.3893	1779.70
49.4037	1740.06
49.4182	1794.55
49.4326	1812.13
49.4471	1651.65
49.4615	1598.15
49.4759	1606.89
49.4904	1481.78
49.5048	1370.80
49.5193	1319.53
49.5337	1267.39
49.5481	1167.55
49.5626	1180.36
49.5770	1099.17
49.5915	966.76
49.6059	924.67
49.6203	867.46
49.6348	828.88
49.6492	763.07
49.6637	726.52
49.6781	685.76
49.6925	726.10
49.7070	670.50
49.7214	659.91
49.7359	594.60
49.7503	638.62
49.7647	616.32
49.7792	608.97
49.7936	581.47
49.8081	575.49
49.8225	586.02
49.8369	563.75
49.8514	553.55
49.8658	558.01
49.8803	524.46
49.8947	566.84
49.9091	575.64
49.9236	552.02
49.9380	544.14
49.9525	554.80
49.9669	543.36
49.9813	518.60
49.9958	508.14
50.0102	524.72
50.0247	531.31
50.0391	548.90
50.0535	551.84
50.0680	530.79
50.0824	475.46
50.0969	514.64
50.1113	524.01
50.1257	521.91
50.1402	513.34
50.1546	542.66
50.1691	523.49
50.1835	517.79
50.1979	488.23
50.2124	520.30
50.2268	535.63
50.2413	543.69
50.2557	544.04
50.2701	483.16
50.2846	515.70
50.2990	539.69
50.3135	520.62
50.3279	520.03
50.3423	497.43
50.3568	508.77
50.3712	507.38
50.3857	511.00
50.4001	515.46
50.4145	518.03
50.4290	533.28
50.4434	510.28
50.4579	523.18
50.4723	534.77
50.4867	508.51
50.5012	520.16
50.5156	512.44
50.5301	527.99
50.5445	498.17
50.5589	529.14
50.5734	524.22
50.5878	515.06
50.6023	500.16
50.6167	503.59
50.6311	490.25
50.6456	511.15
50.6600	491.40
50.6745	493.75
50.6889	503.20
50.7033	500.88
50.7178	493.22
50.7322	508.14
50.7467	506.86
50.7611	495.50
50.7755	483.66
50.7900	491.19
50.8044	496.06
50.8189	500.21
50.8333	530.37
50.8477	518.18
50.8622	533.79
50.8766	504.48
50.8911	466.95
50.9055	495.89
50.9199	513.92
50.9344	501.98
50.9488	506.49
50.9633	493.29
50.9777	502.54
50.9921	508.26
51.0066	465.78
51.0210	479.73
51.0355	529.72
51.0499	500.84
51.0643	502.97
51.0788	515.70
51.0932	508.77
51.1077	519.53
51.1221	514.46
51.1365	507.61
51.1510	496.25
51.1654	510.20
51.1799	524.96
51.1943	507.86
51.2087	488.04
51.2232	500.21
51.2376	519.54
51.2521	536.63
51.2665	488.30
51.2809	510.44
51.2954	492.37
51.3098	516.83
51.3243	537.65
51.3387	513.52
51.3531	526.11
51.3676	512.50
51.3820	469.79
51.3965	497.02
51.4109	495.23
51.4253	547.34
51.4398	533.10
51.4542	522.15
51.4687	523.40
51.4831	522.48
51.4975	517.35
51.5120	509.09
51.5264	509.65
51.5409	537.74
51.5553	512.31
51.5697	511.05
51.5842	522.81
51.5986	532.07
51.6131	527.13
51.6275	515.47
51.6419	528.12
51.6564	505.77
51.6708	466.35
51.6853	484.80
51.6997	540.57
51.7141	489.45
51.7286	485.47
51.7430	484.01
51.7575	542.76
51.7719	517.32
51.7863	539.21
51.8008	518.66
51.8152	509.01
51.8297	498.23
51.8441	515.35
51.8585	526.53
51.8730	508.29
51.8874	496.05
51.9019	526.47
51.9163	521.07
51.9307	521.53
51.9452	546.48
51.9596	519.74
51.9741	493.67
51.9885	497.03
52.0029	485.84
52.0174	499.58
52.0318	499.51
52.0463	489.96
52.0607	530.26
52.0751	494.19
52.0896	475.38
52.1040	497.04
52.1185	506.29
52.1329	521.61
52.1473	471.63
52.1618	482.43
52.1762	514.04
52.1907	536.37
52.2051	538.97
52.2195	518.69
52.2340	514.40
52.2484	535.89
52.2629	482.56
52.2773	486.19
52.2917	475.20
52.3062	519.74
52.3206	562.97
52.3351	518.96
52.3495	498.50
52.3639	505.24
52.3784	488.72
52.3928	494.97
52.4073	528.99
52.4217	499.31
52.4361	504.04
52.4506	490.12
52.4650	537.75
52.4795	512.95
52.4939	520.98
52.5083	498.41
52.5228	497.43
52.5372	509.91
52.5517	527.82
52.5661	543.03
52.5805	512.26
52.5950	499.50
52.6094	510.56
52.6239	489.96
52.6383	525.72
52.6527	533.61
52.6672	543.97
52.6816	473.97
52.6961	454.93
52.7105	486.26
52.7250	505.08
52.7394	509.35
52.7538	486.58
52.7683	487.18
52.7827	488.88
52.7972	497.32
52.8116	512.60
52.8260	515.75
52.8405	486.97
52.8549	510.05
52.8694	503.30
52.8838	505.20
52.8982	537.26
52.9127	524.65
52.9271	548.71
52.9416	553.57
52.9560	496.22
52.9704	497.71
52.9849	480.17
52.9993	482.37
53.0138	523.73
53.0282	529.38
53.0426	531.01
53.0571	517.80
53.0715	510.25
53.0860	506.46
53.1004	494.48
53.1148	501.53
53.1293	504.65
53.1437	497.23
53.1582	519.36
53.1726	518.88
53.1870	486.99
53.2015	470.23
53.2159	492.62
53.2304	501.16
53.2448	528.08
53.2592	524.90
53.2737	528.19
53.2881	549.84
53.3026	508.04
53.3170	502.15
53.3314	517.51
53.3459	526.64
53.3603	531.23
53.3748	497.66
53.3892	476.73
53.4036	510.20
53.4181	522.42
53.4325	540.14
53.4470	513.18
53.4614	499.88
53.4758	530.78
53.4903	503.74
53.5047	504.49
53.5192	510.47
53.5336	481.34
53.5480	507.41
53.5625	540.63
53.5769	497.59
53.5914	479.91
53.6058	483.31
53.6202	518.46
53.6347	516.61
53.6491	494.46
53.6636	519.19
53.6780	501.38
53.6924	495.44
53.7069	504.85
53.7213	496.72
53.7358	526.43
53.7502	520.52
53.7646	556.04
53.7791	498.35
53.7935	495.18
53.8080	501.10
53.8224	548.18
53.8368	521.77
53.8513	521.43
53.8657	515.06
53.8802	540.63
53.8946	545.26
53.9090	498.27
53.9235	504.47
53.9379	501.82
53.9524	508.23
53.9668	481.09
53.9812	493.54
53.9957	526.23
54.0101	534.27
54.0246	507.26
54.0390	517.23
54.0534	546.82
54.0679	573.88
54.0823	527.31
54.0968	527.89
54.1112	540.05
54.1256	553.06
54.1401	545.20
54.1545	550.74
54.1690	576.61
54.1834	564.07
54.1978	597.59
54.2123	542.21
54.2267	586.76
54.2412	610.11
54.2556	618.35
54.2700	669.45
54.2845	669.00
54.2989	606.59
54.3134	603.74
54.3278	583.43
54.3422	610.79
54.3567	577.64
54.3711	579.93
54.3856	591.00
54.4000	576.15
54.4144	550.98
54.4289	616.76
54.4433	590.57
54.4578	564.14
54.4722	576.11
54.4866	562.96
54.5011	519.06
54.5155	518.61
54.5300	535.77
54.5444	530.60
54.5588	562.69
54.5733	568.75
54.5877	564.73
54.6022	540.56
54.6166	507.40
54.6310	534.16
54.6455	481.02
54.6599	520.89
54.6744	516.99
54.6888	493.91
54.7032	498.59
54.7177	540.24
54.7321	537.61
54.7466	509.75
54.7610	502.87
54.7754	517.58
54.7899	512.26
54.8043	521.22
54.8188	500.42
54.8332	513.95
54.8476	502.34
54.8621	533.55
54.8765	530.53
54.8910	538.80
54.9054	559.71
54.9198	562.92
54.9343	566.71
54.9487	493.49
54.9632	524.49
54.9776	543.91
54.9920	521.33
55.0065	518.88
55.0209	525.31
55.0354	502.17
55.0498	522.90
55.0642	524.65
55.0787	499.78
55.0931	517.70
55.1076	543.57
55.1220	558.18
55.1364	507.18
55.1509	489.27
55.1653	524.26
55.1798	535.29
55.1942	516.11
55.2086	541.21
55.2231	535.60
55.2375	515.93
55.2520	523.78
55.2664	491.58
55.2808	528.01
55.2953	484.91
55.3097	507.85
55.3242	479.89
55.3386	517.38
55.3530	507.85
55.3675	491.31
55.3819	524.48
55.3964	503.50
55.4108	510.92
55.4252	543.92
55.4397	561.13
55.4541	513.45
55.4686	515.88
55.4830	514.68
55.4974	518.03
55.5119	551.88
55.5263	513.35
55.5408	511.73
55.5552	544.71
55.5696	492.93
55.5841	522.03
55.5985	509.99
55.6130	495.63
55.6274	509.13
55.6418	491.68
55.6563	497.19
55.6707	511.81
55.6852	521.60
55.6996	501.41
55.7140	525.07
55.7285	501.10
55.7429	514.42
55.7574	529.03
55.7718	530.15
55.7862	538.57
55.8007	484.00
55.8151	524.50
55.8296	534.15
55.8440	523.20
55.8584	567.53
55.8729	536.65
55.8873	545.14
55.9018	499.57
55.9162	523.48
55.9306	541.76
55.9451	528.96
55.9595	508.81
55.9740	536.37
55.9884	530.13
56.0028	508.95
56.0173	510.86
56.0317	524.86
56.0462	527.67
56.0606	549.85
56.0750	528.61
56.0895	528.70
56.1039	533.09
56.1184	506.62
56.1328	519.56
56.1472	510.80
56.1617	512.44
56.1761	540.55
56.1906	525.26
56.2050	520.92
56.2194	526.87
56.2339	539.19
56.2483	503.62
56.2628	494.32
56.2772	534.17
56.2916	509.24
56.3061	509.94
56.3205	508.02
56.3350	487.92
56.3494	521.51
56.3639	516.96
56.3783	488.99
56.3927	477.75
56.4072	523.60
56.4216	520.46
56.4361	523.69
56.4505	513.63
56.4649	541.47
56.4794	534.59
56.4938	553.68
56.5083	505.98
56.5227	473.72
56.5371	527.54
56.5516	507.06
56.5660	521.44
56.5805	483.02
56.5949	518.38
56.6093	512.47
56.6238	546.50
56.6382	540.34
56.6527	547.43
56.6671	539.55
56.6815	490.15
56.6960	524.22
56.7104	514.41
56.7249	515.18
56.7393	516.89
56.7537	536.56
56.7682	534.57
56.7826	513.11
56.7971	517.88
56.8115	518.98
56.8259	543.78
56.8404	506.64
56.8548	502.93
56.8693	519.88
56.8837	544.54
56.8981	532.64
56.9126	493.42
56.9270	474.23
56.9415	539.46
56.9559	527.26
56.9703	548.64
56.9848	559.62
56.9992	540.99
57.0137	535.29
57.0281	534.03
57.0425	487.08
57.0570	498.90
57.0714	503.54
57.0859	528.79
57.1003	507.18
57.1147	504.83
57.1292	529.95
57.1436	520.04
57.1581	534.70
57.1725	488.43
57.1869	534.60
57.2014	525.06
57.2158	521.22
57.2303	517.45
57.2447	492.98
57.2591	501.56
57.2736	508.28
57.2880	524.78
57.3025	505.83
57.3169	496.55
57.3313	546.53
57.3458	536.25
57.3602	501.89
57.3747	499.94
57.3891	527.72
57.4035	537.40
57.4180	545.60
57.4324	567.96
57.4469	499.82
57.4613	494.36
57.4757	494.07
57.4902	513.89
57.5046	553.15
57.5191	527.54
57.5335	534.67
57.5479	536.75
57.5624	547.78
57.5768	536.20
57.5913	562.14
57.6057	560.93
57.6201	531.92
57.6346	564.52
57.6490	521.33
57.6635	500.99
57.6779	567.79
57.6923	539.37
57.7068	544.12
57.7212	531.98
57.7357	582.40
57.7501	567.30
57.7645	569.92
57.7790	601.09
57.7934	585.19
57.8079	630.36
57.8223	630.26
57.8367	694.15
57.8512	704.43
57.8656	720.11
57.8801	740.39
57.8945	773.25
57.9089	748.67
57.9234	698.63
57.9378	706.92
57.9523	628.73
57.9667	613.88
57.9811	605.73
57.9956	675.07
58.0100	666.11
58.0245	683.17
58.0389	689.94
58.0533	677.85
58.0678	649.57
58.0822	626.73
58.0967	602.65
58.1111	599.28
58.1255	582.63
58.1400	562.16
58.1544	554.65
58.1689	548.33
58.1833	559.48
58.1977	541.23
58.2122	587.78
58.2266	570.24
58.2411	537.36
58.2555	547.94
58.2699	526.95
58.2844	523.90
58.2988	523.19
58.3133	531.93
58.3277	551.05
58.3421	571.88
58.3566	574.04
58.3710	545.55
58.3855	537.23
58.3999	531.13
58.4143	501.23
58.4288	541.66
58.4432	524.17
58.4577	530.86
58.4721	540.07
58.4865	494.23
58.5010	487.26
58.5154	514.87
58.5299	540.02
58.5443	549.81
58.5587	533.44
58.5732	555.85
58.5876	540.29
58.6021	509.81
58.6165	513.03
58.6309	513.98
58.6454	535.82
58.6598	528.93
58.6743	530.52
58.6887	516.56
58.7031	536.50
58.7176	547.81
58.7320	554.62
58.7465	541.87
58.7609	540.51
58.7753	495.49
58.7898	510.32
58.8042	535.90
58.8187	539.72
58.8331	521.89
58.8475	533.87
58.8620	521.82
58.8764	548.39
58.8909	520.03
58.9053	560.66
58.9197	526.93
58.9342	515.21
58.9486	520.85
58.9631	520.86
58.9775	545.04
58.9919	564.48
59.0064	518.58
59.0208	545.51
59.0353	534.21
59.0497	503.93
59.0641	501.15
59.0786	522.80
59.0930	563.14
59.1075	563.16
59.1219	549.29
59.1363	549.75
59.1508	545.16
59.1652	558.08
59.1797	545.97
59.1941	521.43
59.2085	571.61
59.2230	565.92
59.2374	567.51
59.2519	548.68
59.2663	515.87
59.2807	569.10
59.2952	553.34
59.3096	525.25
59.3241	539.97
59.3385	562.19
59.3529	530.31
59.3674	517.67
59.3818	555.53
59.3963	541.03
59.4107	586.13
59.4251	596.14
59.4396	571.51
59.4540	549.74
59.4685	554.78
59.4829	532.27
59.4973	528.38
59.5118	547.28
59.5262	529.78
59.5407	565.85
59.5551	574.42
59.5695	561.09
59.5840	542.39
59.5984	530.04
59.6129	540.94
59.6273	552.96
59.6417	589.15
59.6562	533.72
59.6706	515.22
59.6851	508.00
59.6995	536.58
59.7139	550.84
59.7284	523.66
59.7428	539.21
59.7573	528.66
59.7717	529.97
59.7861	568.64
59.8006	560.16
59.8150	511.45
59.8295	551.75
59.8439	552.60
59.8583	569.28
59.8728	551.87
59.8872	537.92
59.9017	562.53
59.9161	554.30
59.9305	574.73
59.9450	570.48
59.9594	565.17
59.9739	550.92
59.9883	558.24
60.0027	539.92
60.0172	538.03
60.0316	553.60
60.0461	585.08
60.0605	551.24
60.0750	519.10
60.0894	572.43
60.1038	540.14
60.1183	532.15
60.1327	552.56
60.1472	536.04
60.1616	523.42
60.1760	521.81
60.1905	538.90
60.2049	512.58
60.2194	572.42
60.2338	541.75
60.2482	551.16
60.2627	522.28
60.2771	523.88
60.2916	542.08
60.3060	562.01
60.3204	548.70
60.3349	554.87
60.3493	517.36
60.3638	524.23
60.3782	519.50
60.3926	532.18
60.4071	520.66
60.4215	501.54
60.4360	548.60
60.4504	507.05
60.4648	555.47
60.4793	525.30
60.4937	551.95
60.5082	554.14
60.5226	535.98
60.5370	517.09
60.5515	529.92
60.5659	500.22
60.5804	536.69
60.5948	533.06
60.6092	527.64
60.6237	543.22
60.6381	561.40
60.6526	541.61
60.6670	539.53
60.6814	528.04
60.6959	531.14
60.7103	560.49
60.7248	545.11
60.7392	541.18
60.7536	533.71
60.7681	529.36
60.7825	525.06
60.7970	562.73
60.8114	545.53
60.8258	545.45
60.8403	540.29
60.8547	521.30
60.8692	533.90
60.8836	532.25
60.8980	555.15
60.9125	531.24
60.9269	516.65
60.9414	551.44
60.9558	490.76
60.9702	546.15
60.9847	532.17
60.9991	524.89
61.0136	537.97
61.0280	538.39
61.0424	541.65
61.0569	526.50
61.0713	564.02
61.0858	513.63
61.1002	507.06
61.1146	543.62
61.1291	543.89
61.1435	513.00
61.1580	531.57
61.1724	542.72
61.1868	549.52
61.2013	534.91
61.2157	559.29
61.2302	558.28
61.2446	517.93
61.2590	522.49
61.2735	535.95
61.2879	552.90
61.3024	504.34
61.3168	546.65
61.3312	561.80
61.3457	571.06
61.3601	546.68
61.3746	538.09
61.3890	548.01
61.4034	513.01
61.4179	540.69
61.4323	568.35
61.4468	575.58
61.4612	553.88
61.4756	562.70
61.4901	553.13
61.5045	569.35
61.5190	542.84
61.5334	524.02
61.5478	499.17
61.5623	568.93
61.5767	545.89
61.5912	551.26
61.6056	573.69
61.6200	549.14
61.6345	547.13
61.6489	559.38
61.6634	528.14
61.6778	512.45
61.6922	527.28
61.7067	537.87
61.7211	530.77
61.7356	523.49
61.7500	537.36
61.7644	537.86
61.7789	559.60
61.7933	564.79
61.8078	585.33
61.8222	561.30
61.8366	519.30
61.8511	555.62
61.8655	586.19
61.8800	523.52
61.8944	531.25
61.9088	549.74
61.9233	565.54
61.9377	517.75
61.9522	524.37
61.9666	531.88
61.9810	517.75
61.9955	489.64
62.0099	530.05
62.0244	513.72
62.0388	576.33
62.0532	523.78
62.0677	532.52
62.0821	547.15
62.0966	539.18
62.1110	550.66
62.1254	543.93
62.1399	538.05
62.1543	575.50
62.1688	611.27
62.1832	552.66
62.1976	550.82
62.2121	546.27
62.2265	573.48
62.2410	537.62
62.2554	522.78
62.2698	523.73
62.2843	559.00
62.2987	556.70
62.3132	532.65
62.3276	533.68
62.3420	571.46
62.3565	535.71
62.3709	535.35
62.3854	513.59
62.3998	555.32
62.4142	545.01
62.4287	546.25
62.4431	542.72
62.4576	555.91
62.4720	586.81
62.4864	569.41
62.5009	579.39
62.5153	600.91
62.5298	605.69
62.5442	544.07
62.5586	547.92
62.5731	534.54
62.5875	527.13
62.6020	552.67
62.6164	572.49
62.6308	525.82
62.6453	537.50
62.6597	558.42
62.6742	531.41
62.6886	556.80
62.7030	572.90
62.7175	562.78
62.7319	578.43
62.7464	589.70
62.7608	586.07
62.7752	569.23
62.7897	543.59
62.8041	540.97
62.8186	566.79
62.8330	566.05
62.8474	533.22
62.8619	551.67
62.8763	549.84
62.8908	548.05
62.9052	561.56
62.9196	561.38
62.9341	620.79
62.9485	593.88
62.9630	543.86
62.9774	576.91
62.9918	558.47
63.0063	537.78
63.0207	562.11
63.0352	548.73
63.0496	552.21
63.0640	554.57
63.0785	586.97
63.0929	592.68
63.1074	548.92
63.1218	568.50
63.1362	587.49
63.1507	547.21
63.1651	564.69
63.1796	602.08
63.1940	572.82
63.2084	576.53
63.2229	557.38
63.2373	567.29
63.2518	586.90
63.2662	569.32
63.2806	615.42
63.2951	640.02
63.3095	605.08
63.3240	575.31
63.3384	596.49
63.3528	591.34
63.3673	599.86
63.3817	591.66
63.3962	571.88
63.4106	587.50
63.4250	642.21
63.4395	646.39
63.4539	645.78
63.4684	704.15
63.4828	737.57
63.4972	751.26
63.5117	817.63
63.5261	866.58
63.5406	898.92
63.5550	954.46
63.5694	969.40
63.5839	996.62
63.5983	961.36
63.6128	876.38
63.6272	805.73
63.6416	803.01
63.6561	772.07
63.6705	797.32
63.6850	775.40
63.6994	809.94
63.7138	808.40
63.7283	843.58
63.7427	821.75
63.7572	813.49
63.7716	793.13
63.7861	775.89
63.8005	735.37
63.8149	738.93
63.8294	696.21
63.8438	691.07
63.8583	660.12
63.8727	669.18
63.8871	611.95
63.9016	631.03
63.9160	652.44
63.9305	629.45
63.9449	616.15
63.9593	598.23
63.9738	636.06
63.9882	594.86
64.0027	617.56
64.0171	598.31
64.0315	622.40
64.0460	582.35
64.0604	603.03
64.0749	569.37
64.0893	578.20
64.1037	578.23
64.1182	581.06
64.1326	599.32
64.1471	612.90
64.1615	593.23
64.1759	605.35
64.1904	585.15
64.2048	581.35
64.2193	576.19
64.2337	622.04
64.2481	581.18
64.2626	609.23
64.2770	586.59
64.2915	640.49
64.3059	614.08
64.3203	572.87
64.3348	627.00
64.3492	609.93
64.3637	612.27
64.3781	622.74
64.3925	587.97
64.4070	571.30
64.4214	631.98
64.4359	600.12
64.4503	596.03
64.4647	607.83
64.4792	670.05
64.4936	656.89
64.5081	600.76
64.5225	609.88
64.5369	612.30
64.5514	624.56
64.5658	623.21
64.5803	590.39
64.5947	596.68
64.6091	620.13
64.6236	621.23
64.6380	659.43
64.6525	675.72
64.6669	658.72
64.6813	658.10
64.6958	663.75
64.7102	695.16
64.7247	691.85
64.7391	702.19
64.7535	725.79
64.7680	715.35
64.7824	688.55
64.7969	734.07
64.8113	683.33
64.8257	772.31
64.8402	800.02
64.8546	812.27
64.8691	813.98
64.8835	823.13
64.8979	831.11
64.9124	824.94
64.9268	888.24
64.9413	870.60
64.9557	920.36
64.9701	976.26
64.9846	996.39
64.9990	1075.30
65.0135	1241.11
65.0279	1402.89
65.0423	1648.08
65.0568	1985.10
65.0712	2563.84
65.0857	3276.94
65.1001	4252.53
65.1145	5777.95
65.1290	7614.48
65.1434	9167.93
65.1579	10669.44
65.1723	11551.77
65.1867	11132.11
65.2012	9721.65
65.2156	8162.67
65.2301	6615.76
65.2445	5184.33
65.2589	4353.66
65.2734	4109.01
65.2878	4290.60
65.3023	4841.05
65.3167	5689.52
65.3311	6503.90
65.3456	6910.28
65.3600	6761.60
65.3745	6362.66
65.3889	5408.99
65.4033	4484.16
65.4178	3498.61
65.4322	2717.67
65.4467	2073.97
65.4611	1652.97
65.4755	1459.14
65.4900	1342.68
65.5044	1101.49
65.5189	1079.08
65.5333	1003.05
65.5477	954.95
65.5622	871.07
65.5766	846.79
65.5911	835.16
65.6055	776.67
65.6199	801.74
65.6344	778.20
65.6488	731.35
65.6633	744.38
65.6777	694.05
65.6921	684.65
65.7066	721.92
65.7210	703.07
65.7355	688.20
65.7499	676.22
65.7643	681.37
65.7788	682.31
65.7932	658.32
65.8077	683.82
65.8221	642.72
65.8365	653.09
65.8510	633.02
65.8654	657.41
65.8799	615.62
65.8943	609.52
65.9087	627.72
65.9232	635.19
65.9376	612.56
65.9521	649.28
65.9665	649.91
65.9809	645.21
65.9954	625.02
66.0098	601.25
66.0243	567.85
66.0387	594.91
66.0531	610.59
66.0676	631.39
66.0820	598.90
66.0965	633.41
66.1109	631.24
66.1253	613.95
66.1398	617.95
66.1542	595.03
66.1687	646.16
66.1831	609.91
66.1975	596.36
66.2120	621.38
66.2264	603.50
66.2409	603.42
66.2553	608.82
66.2697	597.81
66.2842	616.19
66.2986	617.90
66.3131	631.22
66.3275	608.16
66.3419	637.26
66.3564	620.46
66.3708	581.72
66.3853	572.78
66.3997	596.43
66.4141	602.92
66.4286	623.45
66.4430	615.51
66.4575	598.00
66.4719	593.51
66.4863	628.32
66.5008	584.62
66.5152	584.00
66.5297	604.44
66.5441	630.35
66.5585	594.61
66.5730	562.55
66.5874	622.41
66.6019	585.01
66.6163	578.80
66.6307	576.87
66.6452	588.40
66.6596	567.23
66.6741	559.68
66.6885	577.96
66.7029	618.87
66.7174	644.98
66.7318	579.86
66.7463	580.77
66.7607	576.63
66.7751	595.15
66.7896	549.41
66.8040	567.41
66.8185	605.74
66.8329	599.66
66.8473	598.64
66.8618	609.12
66.8762	585.41
66.8907	578.40
66.9051	597.62
66.9195	592.32
66.9340	576.06
66.9484	552.72
66.9629	560.33
66.9773	600.23
66.9917	616.16
67.0062	608.12
67.0206	573.46
67.0351	557.63
67.0495	590.96
67.0639	593.33
67.0784	581.89
67.0928	589.28
67.1073	572.40
67.1217	605.67
67.1361	582.70
67.1506	541.83
67.1650	542.08
67.1795	582.28
67.1939	546.23
67.2083	555.21
67.2228	563.37
67.2372	570.18
67.2517	565.48
67.2661	533.62
67.2805	548.45
67.2950	560.22
67.3094	584.83
67.3239	584.91
67.3383	548.64
67.3527	564.87
67.3672	556.62
67.3816	560.89
67.3961	559.49
67.4105	568.51
67.4250	604.40
67.4394	591.09
67.4538	574.89
67.4683	557.56
67.4827	567.32
67.4972	581.57
67.5116	583.66
67.5260	611.51
67.5405	582.96
67.5549	595.86
67.5694	578.05
67.5838	559.21
67.5982	592.83
67.6127	574.39
67.6271	558.74
67.6416	574.81
67.6560	562.34
67.6704	546.89
67.6849	574.71
67.6993	561.71
67.7138	586.55
67.7282	574.94
67.7426	567.52
67.7571	582.80
67.7715	582.17
67.7860	567.62
67.8004	572.84
67.8148	580.45
67.8293	586.30
67.8437	554.30
67.8582	588.54
67.8726	556.49
67.8870	579.49
67.9015	581.48
67.9159	584.49
67.9304	553.64
67.9448	543.46
67.9592	577.33
67.9737	565.97
67.9881	574.84
68.0026	576.03
68.0170	603.37
68.0314	580.43
68.0459	559.93
68.0603	582.76
68.0748	592.23
68.0892	608.38
68.1036	571.80
68.1181	572.64
68.1325	562.75
68.1470	590.28
68.1614	533.89
68.1758	528.88
68.1903	541.69
68.2047	562.97
68.2192	573.64
68.2336	580.41
68.2480	570.14
68.2625	538.94
68.2769	555.79
68.2914	575.90
68.3058	580.25
68.3202	595.33
68.3347	563.75
68.3491	559.59
68.3636	575.70
68.3780	599.96
68.3924	614.52
68.4069	574.06
68.4213	562.90
68.4358	572.64
68.4502	600.60
68.4646	592.75
68.4791	564.83
68.4935	566.67
68.5080	548.40
68.5224	558.47
68.5368	563.62
68.5513	528.76
68.5657	556.52
68.5802	591.31
68.5946	553.96
68.6090	568.38
68.6235	528.38
68.6379	598.50
68.6524	558.83
68.6668	568.75
68.6812	578.56
68.6957	555.96
68.7101	584.76
68.7246	588.85
68.7390	570.39
68.7534	585.98
68.7679	535.79
68.7823	591.72
68.7968	609.19
68.8112	575.56
68.8256	570.49
68.8401	591.19
68.8545	565.88
68.8690	539.74
68.8834	558.18
68.8978	567.92
68.9123	594.48
68.9267	567.07
68.9412	577.47
68.9556	577.97
68.9700	563.03
68.9845	566.85
68.9989	567.69
69.0134	564.71
69.0278	616.78
69.0422	604.24
69.0567	579.11
69.0711	535.96
69.0856	551.30
69.1000	567.93
69.1144	549.76
69.1289	597.76
69.1433	530.44
69.1578	592.06
69.1722	521.74
69.1866	580.88
69.2011	511.15
69.2155	604.12
69.2300	615.18
69.2444	616.99
69.2588	555.46
69.2733	560.10
69.2877	638.76
69.3022	619.16
69.3166	575.21
69.3310	546.08
69.3455	564.79
69.3599	561.28
69.3744	552.46
69.3888	583.90
69.4032	597.03
69.4177	560.86
69.4321	561.17
69.4466	547.13
69.4610	522.08
69.4754	611.31
69.4899	617.68
69.5043	608.67
69.5188	583.89
69.5332	610.24
69.5476	583.59
69.5621	549.37
69.5765	551.61
69.5910	569.41
69.6054	583.07
69.6198	573.41
69.6343	624.93
69.6487	627.55
69.6632	558.90
69.6776	529.02
69.6920	537.91
69.7065	597.59
69.7209	612.42
69.7354	538.53
69.7498	567.54
69.7642	544.20
69.7787	542.18
69.7931	548.53
69.8076	585.91
69.8220	571.76
69.8364	584.36
69.8509	548.72
69.8653	540.95
69.8798	550.28
69.8942	573.14
69.9086	577.64
69.9231	582.88
69.9375	561.12
69.9520	544.20
69.9664	510.98
69.9808	599.30
69.9953	583.16
70.0097	585.06
70.0242	540.12
70.0386	553.45
70.0530	572.77
70.0675	580.69
70.0819	583.60
70.0964	564.00
70.1108	584.17
70.1252	556.85
70.1397	560.87
70.1541	547.71
70.1686	583.13
70.1830	536.17
70.1974	563.68
70.2119	593.48
70.2263	586.23
70.2408	620.59
70.2552	557.62
70.2696	514.40
70.2841	555.83
70.2985	590.00
70.3130	585.31
70.3274	546.87
70.3418	590.12
70.3563	582.28
70.3707	591.47
70.3852	575.90
70.3996	577.06
70.4140	556.77
70.4285	580.45
70.4429	557.77
70.4574	545.48
70.4718	545.22
70.4862	584.89
70.5007	543.10
70.5151	543.12
70.5296	544.37
70.5440	536.16
70.5584	543.58
70.5729	557.01
70.5873	595.48
70.6018	567.48
70.6162	575.39
70.6306	599.88
70.6451	602.66
70.6595	495.05
70.6740	529.62
70.6884	534.29
70.7028	570.54
70.7173	604.32
70.7317	566.89
70.7462	574.08
70.7606	505.10
70.7750	598.94
70.7895	569.88
70.8039	584.88
70.8184	590.19
70.8328	591.38
70.8472	580.47
70.8617	536.16
70.8761	551.01
70.8906	553.75
70.9050	576.86
70.9194	585.96
70.9339	563.66
70.9483	596.60
70.9628	607.94
70.9772	543.16
70.9916	535.68
71.0061	572.26
71.0205	553.27
71.0350	536.11
71.0494	553.65
71.0638	609.11
71.0783	580.26
71.0927	593.97
71.1072	567.81
71.1216	540.05
71.1361	517.91
71.1505	562.22
71.1649	608.39
71.1794	624.32
71.1938	576.71
71.2083	582.45
71.2227	559.65
71.2371	534.36
71.2516	578.97
71.2660	621.52
71.2805	605.95
71.2949	560.75
71.3093	504.94
71.3238	488.40
71.3382	544.31
71.3527	557.52
71.3671	565.56
71.3815	528.97
71.3960	518.50
71.4104	504.19
71.4249	529.13
71.4393	572.46
71.4537	566.61
71.4682	596.94
71.4826	539.48
71.4971	531.18
71.5115	552.77
71.5259	559.91
71.5404	557.65
71.5548	584.86
71.5693	589.21
71.5837	580.97
71.5981	549.79
71.6126	530.19
71.6270	551.64
71.6415	584.30
71.6559	610.41
71.6703	628.36
71.6848	617.43
71.6992	624.69
71.7137	601.81
71.7281	588.10
71.7425	574.36
71.7570	626.70
71.7714	593.14
71.7859	590.08
71.8003	599.18
71.8147	606.29
71.8292	618.31
71.8436	618.36
71.8581	564.24
71.8725	591.60
71.8869	571.22
71.9014	530.86
71.9158	545.59
71.9303	574.55
71.9447	633.72
71.9591	615.73
71.9736	503.41
71.9880	508.72
72.0025	551.24
72.0169	533.99
72.0313	575.87
72.0458	621.76
72.0602	639.34
72.0747	577.86
72.0891	547.02
72.1035	563.59
72.1180	556.31
72.1324	558.45
72.1469	601.69
72.1613	604.57
72.1757	586.75
72.1902	650.90
72.2046	629.14
72.2191	602.43
72.2335	617.81
72.2479	531.03
72.2624	562.92
72.2768	595.88
72.2913	537.81
72.3057	505.70
72.3201	517.30
72.3346	586.28
72.3490	664.72
72.3635	631.39
72.3779	510.80
72.3923	548.25
72.4068	582.92
72.4212	578.76
72.4357	604.11
72.4501	597.60
72.4645	596.47
72.4790	627.68
72.4934	585.09
72.5079	529.72
72.5223	523.96
72.5367	556.37
72.5512	536.10
72.5656	560.37
72.5801	585.52
72.5945	599.36
72.6089	544.18
72.6234	476.60
72.6378	564.29
72.6523	623.26
72.6667	581.58
72.6811	584.95
72.6956	614.83
72.7100	528.56
72.7245	498.35
72.7389	545.44
72.7533	581.03
72.7678	612.13
72.7822	602.19
72.7967	541.46
72.8111	550.37
72.8255	619.18
72.8400	654.54
72.8544	607.39
72.8689	536.13
72.8833	520.49

Result vector
22.1120	540.59
22.1264	552.78
22.1409	565.23
22.1553	510.66
22.1697	570.74
22.1842	658.76
22.1986	537.52
22.2131	522.95
22.2275	519.89
22.2419	574.73
22.2564	604.21
22.2708	587.03
22.2853	656.35
22.2997	608.40
22.3141	553.23
22.3286	560.58
22.3430	613.81
22.3575	632.66
22.3719	637.45
22.3863	495.77
22.4008	555.55
22.4152	580.84
22.4297	577.77
22.4441	589.28
22.4585	641.04
22.4730	615.76
22.4874	570.87
22.5019	567.45
22.5163	564.66
22.5307	595.52
22.5452	546.68
22.5596	560.55
22.5741	544.49
22.5885	546.09
22.6029	614.14
22.6174	599.64
22.6318	530.88
22.6463	571.68
22.6607	608.80
22.6751	563.84
22.6896	604.81
22.7040	616.06
22.7185	454.32
22.7329	488.54
22.7473	573.24
22.7618	548.16
22.7762	595.46
22.7907	599.00
22.8051	536.31
22.8195	542.05
22.8340	553.64
22.8484	589.66
22.8629	641.31
22.8773	636.71
22.8917	570.87
22.9062	625.41
22.9206	569.34
22.9351	557.92
22.9495	524.76
22.9639	524.83
22.9784	506.18
22.9928	491.64
23.0073	539.58
23.0217	666.94
23.0361	639.86
23.0506	529.41
23.0650	619.72
23.0795	622.21
23.0939	626.33
23.1083	598.01
23.1228	542.33
23.1372	616.21
23.1517	599.89
23.1661	559.39
23.1806	569.66
23.1950	520.92
23.2094	611.98
23.2239	490.80
23.2383	521.41
23.2528	506.79
23.2672	543.63
23.2816	547.58
23.2961	526.26
23.3105	535.89
23.3250	554.92
23.3394	559.57
23.3538	482.12
23.3683	539.41
23.3827	564.53
23.3972	549.53
23.4116	575.34
23.4260	555.06
23.4405	584.89
23.4549	510.24
23.4694	536.86
23.4838	536.58
23.4982	538.36
23.5127	590.89
23.5271	587.00
23.5416	519.67
23.5560	525.72
23.5704	563.14
23.5849	574.61
23.5993	574.65
23.6138	514.87
23.6282	531.91
23.6426	559.58
23.6571	560.72
23.6715	556.50
23.6860	527.33
23.7004	494.73
23.7148	590.56
23.7293	554.56
23.7437	563.72
23.7582	562.39
23.7726	532.23
23.7870	584.96
23.8015	542.68
23.8159	590.39
23.8304	608.71
23.8448	547.91
23.8592	547.77
23.8737	582.99
23.8881	496.98
23.9026	529.81
23.9170	578.78
23.9314	528.18
23.9459	593.14
23.9603	574.11
23.9748	533.77
23.9892	589.51
24.0036	565.98
24.0181	573.33
24.0325	629.36
24.0470	534.69
24.0614	556.22
24.0758	510.45
24.0903	565.76
24.1047	507.06
24.1192	494.48
24.1336	596.32
24.1480	573.32
24.1625	580.81
24.1769	579.61
24.1914	508.48
24.2058	572.16
24.2202	598.04
24.2347	569.12
24.2491	555.04
24.2636	551.36
24.2780	557.53
24.2924	585.87
24.3069	568.42
24.3213	575.18
24.3358	575.72
24.3502	567.47
24.3646	585.86
24.3791	582.49
24.3935	527.82
24.4080	557.64
24.4224	565.68
24.4368	544.78
24.4513	555.14
24.4657	494.04
24.4802	552.92
24.4946	538.86
24.5090	560.57
24.5235	546.39
24.5379	565.77
24.5524	560.58
24.5668	549.22
24.5812	559.89
24.5957	558.49
24.6101	562.78
24.6246	636.02
24.6390	554.78
24.6534	533.47
24.6679	543.52
24.6823	539.98
24.6968	539.23
24.7112	581.43
24.7256	547.18
24.7401	573.74
24.7545	542.25
24.7690	559.61
24.7834	496.99
24.7978	558.92
24.8123	524.27
24.8267	535.01
24.8412	479.88
24.8556	557.61
24.8700	537.93
24.8845	490.81
24.8989	591.64
24.9134	643.09
24.9278	545.83
24.9422	537.31
24.9567	504.28
24.9711	571.84
24.9856	491.86
25.0000	498.95
25.0144	564.26
25.0289	517.30
25.0433	517.72
25.0578	566.34
25.0722	527.62
25.0866	562.38
25.1011	525.87
25.1155	553.34
25.1300	582.27
25.1444	525.58
25.1588	543.19
25.1733	556.43
25.1877	546.23
25.2022	579.88
25.2166	604.01
25.2310	560.16
25.2455	583.58
25.2599	556.30
25.2744	532.54
25.2888	563.62
25.3032	559.43
25.3177	550.09
25.3321	560.97
25.3466	509.60
25.3610	532.11
25.3754	520.76
25.3899	542.09
25.4043	563.09
25.4188	544.67
25.4332	520.90
25.4476	538.30
25.4621	542.81
25.4765	521.38
25.4910	574.89
25.5054	550.75
25.5198	522.97
25.5343	530.69
25.5487	546.44
25.5632	579.37
25.5776	588.20
25.5920	538.41
25.6065	569.90
25.6209	504.37
25.6354	541.62
25.6498	551.66
25.6642	526.18
25.6787	556.77
25.6931	537.57
25.7076	551.59
25.7220	529.13
25.7364	517.20
25.7509	540.31
25.7653	511.47
25.7798	518.83
25.7942	546.40
25.8086	544.89
25.8231	533.96
25.8375	521.12
25.8520	539.86
25.8664	576.22
25.8808	539.01
25.8953	591.47
25.9097	555.19
25.9242	546.02
25.9386	570.77
25.9530	543.18
25.9675	508.62
25.9819	541.52
25.9964	542.13
26.0108	555.48
26.0252	502.24
26.0397	514.89
26.0541	493.72
26.0686	519.74
26.0830	569.74
26.0974	581.42
26.1119	557.06
26.1263	521.24
26.1408	513.07
26.1552	497.77
26.1696	503.91
26.1841	508.36
26.1985	509.59
26.2130	516.67
26.2274	529.42
26.2418	524.28
26.2563	530.27
26.2707	529.05
26.2852	546.26
26.2996	528.23
26.3140	516.94
26.3285	517.99
26.3429	531.26
26.3574	540.33
26.3718	535.52
26.3862	519.48
26.4007	524.24
26.4151	528.62
26.4296	557.66
26.4440	527.40
26.4584	500.35
26.4729	506.13
26.4873	524.85
26.5018	522.53
26.5162	539.55
26.5306	530.08
26.5451	528.35
26.5595	522.41
26.5740	540.63
26.5884	534.78
26.6028	505.99
26.6173	499.10
26.6317	521.26
26.6462	522.59
26.6606	513.00
26.6750	529.88
26.6895	506.97
26.7039	533.59
26.7184	545.77
26.7328	511.20
26.7472	533.19
26.7617	529.64
26.7761	514.06
26.7906	534.16
26.8050	507.92
26.8194	510.57
26.8339	546.77
26.8483	530.97
26.8628	503.74
26.8772	534.35
26.8917	516.18
26.9061	507.28
26.9205	505.47
26.9350	499.13
26.9494	510.86
26.9639	514.23
26.9783	535.43
26.9927	508.47
27.0072	526.50
27.0216	544.42
27.0361	538.26
27.0505	503.73
27.0649	528.07
27.0794	549.03
27.0938	521.05
27.1083	512.66
27.1227	531.84
27.1371	531.92
27.1516	489.27
27.1660	499.51
27.1805	531.42
27.1949	505.89
27.2093	532.93
27.2238	533.02
27.2382	520.67
27.2527	490.25
27.2671	486.92
27.2815	503.90
27.2960	495.05
27.3104	534.44
27.3249	545.41
27.3393	530.39
27.3537	544.09
27.3682	547.58
27.3826	535.73
27.3971	518.58
27.4115	518.90
27.4259	509.77
27.4404	503.75
27.4548	504.43
27.4693	530.39
27.4837	522.07
27.4981	526.09
27.5126	497.75
27.5270	519.50
27.5415	541.67
27.5559	515.32
27.5703	532.10
27.5848	516.08
27.5992	516.88
27.6137	512.10
27.6281	490.02
27.6425	509.87
27.6570	520.64
27.6714	528.72
27.6859	520.67
27.7003	522.44
27.7147	507.11
27.7292	514.29
27.7436	538.31
27.7581	516.35
27.7725	530.58
27.7869	499.65
27.8014	495.23
27.8158	509.84
27.8303	490.79
27.8447	489.50
27.8591	520.98
27.8736	550.03
27.8880	532.42
27.9025	495.74
27.9169	508.12
27.9313	520.58
27.9458	485.35
27.9602	499.55
27.9747	525.22
27.9891	513.57
28.0035	543.32
28.0180	537.27
28.0324	504.51
28.0469	478.91
28.0613	511.40
28.0757	475.86
28.0902	548.35
28.1046	507.31
28.1191	524.43
28.1335	517.89
28.1479	542.51
28.1624	504.22
28.1768	517.36
28.1913	477.98
28.2057	511.92
28.2201	528.01
28.2346	538.35
28.2490	541.75
28.2635	536.18
28.2779	511.94
28.2923	527.27
28.3068	485.35
28.3212	504.54
28.3357	535.59
28.3501	541.38
28.3645	502.28
28.3790	509.60
28.3934	520.77
28.4079	496.64
28.4223	494.67
28.4367	523.82
28.4512	495.65
28.4656	514.91
28.4801	530.02
28.4945	521.02
28.5089	527.11
28.5234	533.45
28.5378	518.71
28.5523	510.16
28.5667	550.67
28.5811	545.08
28.5956	527.33
28.6100	514.90
28.6245	515.44
28.6389	485.74
28.6533	516.25
28.6678	507.96
28.6822	514.78
28.6967	505.75
28.7111	518.67
28.7255	491.63
28.7400	500.62
28.7544	520.03
28.7689	518.86
28.7833	513.17
28.7977	513.19
28.8122	522.48
28.8266	517.69
28.8411	525.40
28.8555	496.47
28.8699	509.17
28.8844	471.55
28.8988	467.06
28.9133	503.61
28.9277	496.08
28.9421	469.67
28.9566	486.25
28.9710	500.21
28.9855	485.52
28.9999	495.14
29.0143	551.93
29.0288	500.22
29.0432	469.12
29.0577	483.17
29.0721	512.32
29.0865	470.72
29.1010	537.84
29.1154	541.90
29.1299	529.80
29.1443	508.34
29.1587	497.10
29.1732	504.69
29.1876	516.80
29.2021	484.33
29.2165	479.15
29.2309	495.20
29.2454	476.36
29.2598	550.81
29.2743	534.72
29.2887	527.01
29.3031	495.48
29.3176	460.18
29.3320	559.15
29.3465	527.98
29.3609	519.43
29.3753	511.97
29.3898	492.69
29.4042	476.52
29.4187	520.66
29.4331	509.76
29.4475	475.75
29.4620	500.27
29.4764	513.14
29.4909	557.37
29.5053	498.08
29.5197	497.44
29.5342	483.79
29.5486	561.05
29.5631	539.00
29.5775	497.00
29.5919	531.42
29.6064	484.01
29.6208	508.56
29.6353	536.83
29.6497	500.77
29.6641	501.73
29.6786	498.72
29.6930	499.99
29.7075	513.88
29.7219	521.24
29.7363	463.50
29.7508	480.94
29.7652	497.78
29.7797	485.32
29.7941	445.07
29.8085	510.16
29.8230	493.33
29.8374	498.50
29.8519	486.05
29.8663	551.94
29.8807	508.83
29.8952	504.67
29.9096	545.69
29.9241	540.84
29.9385	504.27
29.9529	511.10
29.9674	539.18
29.9818	518.45
29.9963	531.54
30.0107	503.57
30.0251	510.63
30.0396	512.39
30.0540	541.78
30.0685	516.25
30.0829	553.90
30.0973	520.01
30.1118	503.47
30.1262	529.54
30.1407	538.56
30.1551	504.12
30.1695	532.23
30.1840	516.08
30.1984	486.82
30.2129	501.94
30.2273	534.47
30.2417	523.69
30.2562	505.94
30.2706	520.18
30.2851	546.92
30.2995	517.53
30.3139	511.46
30.3284	512.59
30.3428	529.14
30.3573	513.25
30.3717	518.40
30.3861	522.65
30.4006	510.05
30.4150	533.90
30.4295	522.33
30.4439	506.88
30.4583	565.49
30.4728	586.37
30.4872	600.25
30.5017	617.65
30.5161	647.60
30.5305	651.35
30.5450	679.51
30.5594	775.70
30.5739	789.28
30.5883	764.65
30.6028	718.93
30.6172	721.56
30.6316	718.00
30.6461	676.21
30.6605	658.22
30.6750	638.59
30.6894	617.59
30.7038	596.08
30.7183	568.37
30.7327	549.57
30.7472	526.17
30.7616	526.67
30.7760	536.45
30.7905	531.10
30.8049	526.22
30.8194	514.15
30.8338	511.78
30.8482	515.51
30.8627	499.09
30.8771	534.89
30.8916	506.76
30.9060	518.48
30.9204	503.50
30.9349	499.34
30.9493	501.39
30.9638	491.88
30.9782	519.23
30.9926	519.62
31.0071	509.26
31.0215	508.46
31.0360	544.82
31.0504	515.95
31.0648	485.14
31.0793	503.13
31.0937	522.42
31.1082	509.55
31.1226	522.91
31.1370	534.11
31.1515	521.70
31.1659	511.27
31.1804	525.03
31.1948	516.00
31.2092	511.67
31.2237	538.43
31.2381	519.34
31.2526	480.41
31.2670	492.97
31.2814	515.65
31.2959	523.94
31.3103	576.34
31.3248	572.59
31.3392	529.33
31.3536	506.86
31.3681	517.81
31.3825	538.76
31.3970	523.72
31.4114	498.16
31.4258	509.07
31.4403	478.49
31.4547	479.56
31.4692	512.53
31.4836	505.82
31.4980	493.38
31.5125	489.51
31.5269	518.45
31.5414	513.52
31.5558	510.88
31.5702	498.94
31.5847	510.41
31.5991	458.39
31.6136	470.52
31.6280	458.07
31.6424	492.79
31.6569	501.97
31.6713	506.48
31.6858	491.26
31.7002	494.29
31.7146	500.90
31.7291	470.02
31.7435	517.39
31.7580	495.55
31.7724	478.61
31.7868	500.96
31.8013	479.50
31.8157	499.18
31.8302	496.95
31.8446	529.58
31.8590	552.85
31.8735	503.05
31.8879	497.55
31.9024	510.64
31.9168	469.13
31.9312	507.68
31.9457	496.60
31.9601	468.52
31.9746	515.42
31.9890	505.34
32.0034	488.20
32.0179	494.42
32.0323	488.61
32.0468	495.22
32.0612	518.47
32.0756	515.35
32.0901	503.80
32.1045	503.03
32.1190	506.74
32.1334	516.72
32.1478	517.69
32.1623	513.19
32.1767	504.63
32.1912	530.33
32.2056	515.24
32.2200	501.19
32.2345	513.47
32.2489	529.61
32.2634	510.06
32.2778	495.40
32.2922	500.34
32.3067	486.73
32.3211	487.77
32.3356	490.78
32.3500	506.44
32.3644	492.98
32.3789	479.54
32.3933	470.22
32.4078	496.71
32.4222	545.22
32.4366	535.36
32.4511	517.98
32.4655	495.14
32.4800	520.70
32.4944	500.26
32.5088	515.35
32.5233	512.76
32.5377	512.43
32.5522	534.86
32.5666	528.91
32.5810	484.73
32.5955	490.20
32.6099	495.47
32.6244	505.05
32.6388	521.19
32.6532	486.02
32.6677	497.27
32.6821	461.38
32.6966	488.81
32.7110	499.83
32.7254	531.04
32.7399	522.20
32.7543	535.37
32.7688	498.56
32.7832	540.19
32.7976	512.75
32.8121	504.68
32.8265	521.57
32.8410	477.94
32.8554	495.31
32.8698	518.73
32.8843	476.23
32.8987	495.48
32.9132	514.78
32.9276	543.42
32.9420	536.26
32.9565	475.79
32.9709	547.36
32.9854	535.20
32.9998	497.77
33.0142	531.46
33.0287	530.48
33.0431	497.09
33.0576	502.22
33.0720	501.55
33.0864	493.13
33.1009	483.54
33.1153	521.58
33.1298	529.43
33.1442	437.38
33.1586	503.51
33.1731	500.39
33.1875	500.68
33.2020	494.30
33.2164	519.59
33.2308	487.06
33.2453	489.44
33.2597	493.07
33.2742	490.33
33.2886	499.06
33.3030	512.59
33.3175	484.81
33.3319	517.21
33.3464	516.98
33.3608	520.02
33.3752	532.01
33.3897	512.99
33.4041	494.04
33.4186	507.17
33.4330	481.20
33.4474	490.12
33.4619	503.07
33.4763	514.39
33.4908	529.02
33.5052	484.80
33.5196	497.87
33.5341	484.86
33.5485	489.63
33.5630	528.52
33.5774	526.25
33.5918	538.43
33.6063	485.02
33.6207	516.76
33.6352	493.49
33.6496	492.19
33.6640	511.51
33.6785	505.35
33.6929	475.73
33.7074	510.59
33.7218	493.86
33.7362	474.87
33.7507	502.61
33.7651	492.31
33.7796	502.76
33.7940	482.97
33.8084	511.37
33.8229	492.86
33.8373	513.04
33.8518	532.79
33.8662	536.19
33.8806	512.30
33.8951	499.63
33.9095	481.20
33.9240	476.36
33.9384	530.99
33.9528	483.48
33.9673	486.02
33.9817	496.56
33.9962	508.57
34.0106	495.79
34.0250	516.24
34.0395	461.90
34.0539	494.10
34.0684	533.75
34.0828	522.72
34.0972	520.04
34.1117	475.58
34.1261	523.59
34.1406	506.82
34.1550	476.88
34.1694	481.97
34.1839	476.18
34.1983	495.56
34.2128	517.68
34.2272	535.89
34.2417	506.53
34.2561	507.82
34.2705	502.96
34.2850	543.95
34.2994	528.48
34.3139	510.02
34.3283	540.83
34.3427	521.81
34.3572	513.31
34.3716	515.46
34.3861	495.59
34.4005	516.56
34.4149	488.69
34.4294	531.57
34.4438	503.96
34.4583	517.39
34.4727	510.11
34.4871	494.03
34.5016	459.50
34.5160	499.25
34.5305	487.37
34.5449	513.94
34.5593	512.02
34.5738	524.43
34.5882	547.67
34.6027	486.44
34.6171	476.57
34.6315	496.75
34.6460	502.99
34.6604	524.81
34.6749	515.60
34.6893	482.75
34.7037	511.62
34.7182	507.15
34.7326	504.92
34.7471	493.42
34.7615	499.75
34.7759	508.60
34.7904	513.80
34.8048	483.39
34.8193	527.47
34.8337	517.38
34.8481	500.52
34.8626	502.47
34.8770	511.19
34.8915	510.28
34.9059	543.19
34.9203	525.41
34.9348	517.95
34.9492	505.68
34.9637	492.55
34.9781	505.18
34.9925	505.53
35.0070	497.37
35.0214	494.15
35.0359	480.43
35.0503	500.90
35.0647	512.22
35.0792	508.28
35.0936	553.37
35.1081	519.96
35.1225	513.26
35.1369	492.23
35.1514	518.99
35.1658	529.45
35.1803	493.59
35.1947	518.68
35.2091	511.27
35.2236	507.77
35.2380	508.20
35.2525	510.09
35.2669	506.32
35.2813	513.70
35.2958	523.21
35.3102	497.39
35.3247	534.23
35.3391	540.12
35.3535	542.24
35.3680	527.37
35.3824	537.77
35.3969	512.77
35.4113	525.52
35.4257	520.99
35.4402	522.11
35.4546	535.47
35.4691	558.90
35.4835	547.26
35.4979	555.52
35.5124	545.61
35.5268	536.58
35.5413	561.06
35.5557	556.69
35.5701	548.52
35.5846	522.56
35.5990	533.83
35.6135	548.55
35.6279	525.83
35.6423	560.21
35.6568	551.01
35.6712	541.25
35.6857	614.59
35.7001	726.03
35.7145	751.51
35.7290	710.00
35.7434	610.39
35.7579	614.70
35.7723	623.96
35.7867	682.20
35.8012	743.80
35.8156	789.32
35.8301	705.03
35.8445	722.49
35.8589	789.96
35.8734	865.53
35.8878	932.47
35.9023	1065.30
35.9167	1090.66
35.9311	1270.36
35.9456	1515.65
35.9600	1873.36
35.9745	2095.04
35.9889	2332.28
36.0033	2666.76
36.0178	3065.19
36.0322	3128.11
36.0467	2742.82
36.0611	2150.13
36.0755	1975.65
36.0900	2125.87
36.1044	2213.93
36.1189	1795.67
36.1333	1373.04
36.1477	1134.99
36.1622	1088.10
36.1766	1036.60
36.1911	881.24
36.2055	763.18
36.2199	718.46
36.2344	771.19
36.2488	651.90
36.2633	580.18
36.2777	592.98
36.2921	581.90
36.3066	579.26
36.3210	554.29
36.3355	531.41
36.3499	493.29
36.3643	515.94
36.3788	531.58
36.3932	527.38
36.4077	506.93
36.4221	562.19
36.4365	537.65
36.4510	495.71
36.4654	524.18
36.4799	547.77
36.4943	524.81
36.5087	514.78
36.5232	533.45
36.5376	538.00
36.5521	572.41
36.5665	553.76
36.5809	515.11
36.5954	530.05
36.6098	525.08
36.6243	495.71
36.6387	561.90
36.6531	519.36
36.6676	530.93
36.6820	507.35
36.6965	517.96
36.7109	522.62
36.7253	526.94
36.7398	532.14
36.7542	520.50
36.7687	495.71
36.7831	573.84
36.7975	571.75
36.8120	588.75
36.8264	545.31
36.8409	545.40
36.8553	556.46
36.8697	596.50
36.8842	610.53
36.8986	583.67
36.9131	591.70
36.9275	556.18
36.9419	590.91
36.9564	519.00
36.9708	507.05
36.9853	522.45
36.9997	511.73
37.0141	524.71
37.0286	532.27
37.0430	504.43
37.0575	513.54
37.0719	501.84
37.0863	503.02
37.1008	516.55
37.1152	520.28
37.1297	517.86
37.1441	524.75
37.1585	526.26
37.1730	498.10
37.1874	528.32
37.2019	486.10
37.2163	532.62
37.2307	492.09
37.2452	494.12
37.2596	535.85
37.2741	526.24
37.2885	528.16
37.3029	515.23
37.3174	493.54
37.3318	502.75
37.3463	531.44
37.3607	532.29
37.3751	504.92
37.3896	497.84
37.4040	464.42
37.4185	511.09
37.4329	526.98
37.4473	478.30
37.4618	480.98
37.4762	510.46
37.4907	521.97
37.5051	481.68
37.5195	499.30
37.5340	514.89
37.5484	513.58
37.5629	505.65
37.5773	477.59
37.5917	506.35
37.6062	526.01
37.6206	524.83
37.6351	486.90
37.6495	521.94
37.6639	507.97
37.6784	498.03
37.6928	505.41
37.7073	532.14
37.7217	485.86
37.7361	470.76
37.7506	515.18
37.7650	541.88
37.7795	538.76
37.7939	499.19
37.8083	494.37
37.8228	507.57
37.8372	537.47
37.8517	508.21
37.8661	506.16
37.8805	528.86
37.8950	514.29
37.9094	527.96
37.9239	486.13
37.9383	525.68
37.9528	517.43
37.9672	495.06
37.9816	499.34
37.9961	502.39
38.0105	517.35
38.0250	509.70
38.0394	496.48
38.0538	531.28
38.0683	549.26
38.0827	526.28
38.0972	512.15
38.1116	497.40
38.1260	495.29
38.1405	486.90
38.1549	495.49
38.1694	494.38
38.1838	495.32
38.1982	481.75
38.2127	502.01
38.2271	517.88
38.2416	522.37
38.2560	521.98
38.2704	510.35
38.2849	490.27
38.2993	517.07
38.3138	487.36
38.3282	520.34
38.3426	547.29
38.3571	517.12
38.3715	500.45
38.3860	507.68
38.4004	501.49
38.4148	544.29
38.4293	582.59
38.4437	572.37
38.4582	621.03
38.4726	695.30
38.4870	677.35
38.5015	699.99
38.5159	785.57
38.5304	825.08
38.5448	801.77
38.5592	791.09
38.5737	736.83
38.5881	733.39
38.6026	724.00
38.6170	680.85
38.6314	676.78
38.6459	688.94
38.6603	642.82
38.6748	601.94
38.6892	609.75
38.7036	543.91
38.7181	559.57
38.7325	516.95
38.7470	522.37
38.7614	533.87
38.7758	525.16
38.7903	513.74
38.8047	512.99
38.8192	544.42
38.8336	529.11
38.8480	529.80
38.8625	547.02
38.8769	531.03
38.8914	530.42
38.9058	518.20
38.9202	482.34
38.9347	489.33
38.9491	523.11
38.9636	511.53
38.9780	493.42
38.9924	488.27
39.0069	477.86
39.0213	501.66
39.0358	490.05
39.0502	481.31
39.0646	510.97
39.0791	539.98
39.0935	528.67
39.1080	511.34
39.1224	502.67
39.1368	487.50
39.1513	476.92
39.1657	483.55
39.1802	496.14
39.1946	521.34
39.2090	517.10
39.2235	533.94
39.2379	511.45
39.2524	531.33
39.2668	497.54
39.2812	530.60
39.2957	536.50
39.3101	505.40
39.3246	509.18
39.3390	514.42
39.3534	518.81
39.3679	520.93
39.3823	497.87
39.3968	473.45
39.4112	493.08
39.4256	493.06
39.4401	520.91
39.4545	499.67
39.4690	506.25
39.4834	494.68
39.4978	493.81
39.5123	481.09
39.5267	464.05
39.5412	477.55
39.5556	479.53
39.5700	516.93
39.5845	481.75
39.5989	490.08
39.6134	502.62
39.6278	485.00
39.6422	491.30
39.6567	501.40
39.6711	498.09
39.6856	488.88
39.7000	508.10
39.7144	535.86
39.7289	505.05
39.7433	484.93
39.7578	477.66
39.7722	499.10
39.7866	525.41
39.8011	507.56
39.8155	514.79
39.8300	520.56
39.8444	531.63
39.8588	503.45
39.8733	501.22
39.8877	493.28
39.9022	515.32
39.9166	486.39
39.9310	454.00
39.9455	493.56
39.9599	438.77
39.9744	524.61
39.9888	492.48
40.0032	489.44
40.0177	499.94
40.0321	520.03
40.0466	482.72
40.0610	497.10
40.0754	472.30
40.0899	523.41
40.1043	540.52
40.1188	508.49
40.1332	505.12
40.1476	492.19
40.1621	521.01
40.1765	509.90
40.1910	493.28
40.2054	487.86
40.2198	486.14
40.2343	502.61
40.2487	538.52
40.2632	490.15
40.2776	500.28
40.2920	502.68
40.3065	512.73
40.3209	508.63
40.3354	521.39
40.3498	534.28
40.3642	489.30
40.3787	516.55
40.3931	466.54
40.4076	501.48
40.4220	488.57
40.4364	494.54
40.4509	466.89
40.4653	493.13
40.4798	500.04
40.4942	490.97
40.5086	488.26
40.5231	463.02
40.5375	486.70
40.5520	514.16
40.5664	502.08
40.5808	452.44
40.5953	486.59
40.6097	546.00
40.6242	510.56
40.6386	516.14
40.6530	504.52
40.6675	500.14
40.6819	503.46
40.6964	478.07
40.7108	481.99
40.7252	494.33
40.7397	502.17
40.7541	498.21
40.7686	491.73
40.7830	538.64
40.7974	468.70
40.8119	486.91
40.8263	483.85
40.8408	541.65
40.8552	493.29
40.8696	491.91
40.8841	484.09
40.8985	509.58
40.9130	505.28
40.9274	482.07
40.9418	520.30
40.9563	502.65
40.9707	487.81
40.9852	448.15
40.9996	502.83
41.0140	509.53
41.0285	503.63
41.0429	482.09
41.0574	468.53
41.0718	496.22
41.0862	497.03
41.1007	517.47
41.1151	527.03
41.1296	518.07
41.1440	485.16
41.1584	509.62
41.1729	498.87
41.1873	510.91
41.2018	492.39
41.2162	519.10
41.2306	486.29
41.2451	493.13
41.2595	526.80
41.2740	508.08
41.2884	512.46
41.3028	497.33
41.3173	493.36
41.3317	498.54
41.3462	519.00
41.3606	498.07
41.3750	524.84
41.3895	512.32
41.4039	486.69
41.4184	501.16
41.4328	487.99
41.4472	501.98
41.4617	494.41
41.4761	497.84
41.4906	523.84
41.5050	501.70
41.5194	504.73
41.5339	480.61
41.5483	507.68
41.5628	519.42
41.5772	459.78
41.5916	476.95
41.6061	509.53
41.6205	511.84
41.6350	532.22
41.6494	517.60
41.6639	499.14
41.6783	476.04
41.6927	488.58
41.7072	489.54
41.7216	506.41
41.7361	516.23
41.7505	520.81
41.7649	503.09
41.7794	484.72
41.7938	496.66
41.8083	476.45
41.8227	502.11
41.8371	519.50
41.8516	550.76
41.8660	552.77
41.8805	550.44
41.8949	533.53
41.9093	540.24
41.9238	521.30
41.9382	529.53
41.9527	550.29
41.9671	556.92
41.9815	556.57
41.9960	579.56
42.0104	569.92
42.0249	572.87
42.0393	563.33
42.0537	572.19
42.0682	575.75
42.0826	573.53
42.0971	574.56
42.1115	579.72
42.1259	593.23
42.1404	566.99
42.1548	591.01
42.1693	682.44
42.1837	701.29
42.1981	730.94
42.2126	783.62
42.2270	884.89
42.2415	1063.64
42.2559	1210.50
42.2703	1350.12
42.2848	1476.31
42.2992	1566.58
42.3137	1663.44
42.3281	1605.33
42.3425	1513.65
42.3570	1466.92
42.3714	1351.89
42.3859	1319.87
42.4003	1290.55
42.4147	1264.51
42.4292	1248.40
42.4436	1109.81
42.4581	1056.32
42.4725	936.65
42.4869	852.17
42.5014	780.97
42.5158	709.47
42.5303	627.63
42.5447	637.92
42.5591	641.15
42.5736	629.97
42.5880	617.00
42.6025	542.53
42.6169	558.44
42.6313	547.91
42.6458	527.20
42.6602	531.61
42.6747	516.26
42.6891	515.86
42.7035	529.12
42.7180	527.12
42.7324	508.06
42.7469	535.15
42.7613	507.83
42.7757	485.01
42.7902	536.47
42.8046	551.72
42.8191	553.34
42.8335	549.95
42.8479	518.91
42.8624	521.29
42.8768	495.27
42.8913	497.91
42.9057	524.94
42.9201	530.77
42.9346	504.02
42.9490	521.04
42.9635	510.02
42.9779	508.24
42.9923	502.49
43.0068	494.75
43.0212	519.83
43.0357	508.99
43.0501	505.05
43.0645	485.10
43.0790	514.78
43.0934	506.36
43.1079	504.43
43.1223	507.75
43.1367	537.72
43.1512	511.39
43.1656	526.16
43.1801	529.30
43.1945	508.00
43.2089	515.46
43.2234	508.57
43.2378	540.98
43.2523	556.53
43.2667	537.12
43.2811	536.39
43.2956	506.57
43.3100	515.34
43.3245	517.10
43.3389	520.29
43.3533	505.77
43.3678	484.09
43.3822	514.38
43.3967	535.81
43.4111	514.23
43.4255	512.23
43.4400	538.96
43.4544	501.98
43.4689	508.34
43.4833	498.38
43.4977	517.23
43.5122	543.01
43.5266	528.40
43.5411	505.40
43.5555	553.26
43.5699	515.96
43.5844	496.47
43.5988	503.90
43.6133	542.57
43.6277	525.32
43.6421	557.06
43.6566	580.50
43.6710	573.48
43.6855	571.29
43.6999	611.00
43.7143	638.45
43.7288	675.36
43.7432	690.60
43.7577	693.26
43.7721	645.26
43.7865	654.54
43.8010	610.01
43.8154	615.21
43.8299	618.11
43.8443	615.34
43.8587	601.93
43.8732	601.03
43.8876	571.90
43.9021	609.06
43.9165	558.77
43.9309	538.33
43.9454	549.34
43.9598	520.65
43.9743	555.92
43.9887	526.44
44.0031	510.40
44.0176	500.58
44.0320	528.12
44.0465	525.54
44.0609	515.14
44.0753	498.76
44.0898	502.31
44.1042	508.55
44.1187	525.91
44.1331	527.66
44.1475	495.92
44.1620	496.51
44.1764	527.25
44.1909	493.28
44.2053	511.80
44.2197	501.08
44.2342	563.32
44.2486	544.38
44.2631	546.23
44.2775	550.26
44.2919	548.72
44.3064	538.92
44.3208	491.20
44.3353	516.85
44.3497	558.07
44.3641	531.13
44.3786	516.80
44.3930	518.56
44.4075	560.14
44.4219	576.22
44.4363	567.86
44.4508	565.07
44.4652	561.60
44.4797	586.45
44.4941	616.92
44.5085	615.16
44.5230	567.69
44.5374	556.00
44.5519	603.67
44.5663	549.38
44.5807	531.53
44.5952	553.85
44.6096	583.21
44.6241	537.77
44.6385	571.79
44.6529	540.71
44.6674	546.03
44.6818	563.15
44.6963	578.39
44.7107	666.92
44.7251	717.79
44.7396	733.83
44.7540	782.61
44.7685	801.11
44.7829	822.83
44.7973	844.19
44.8118	825.07
44.8262	814.60
44.8407	782.72
44.8551	805.11
44.8695	762.14
44.8840	739.55
44.8984	745.83
44.9129	749.22
44.9273	722.39
44.9417	680.09
44.9562	597.96
44.9706	574.65
44.9851	605.94
44.9995	533.83
45.0139	550.89
45.0284	542.21
45.0428	551.33
45.0573	543.47
45.0717	510.97
45.0861	540.29
45.1006	516.69
45.1150	538.05
45.1295	574.43
45.1439	530.21
45.1583	491.99
45.1728	536.14
45.1872	501.83
45.2017	484.46
45.2161	494.35
45.2305	525.69
45.2450	484.38
45.2594	493.59
45.2739	527.65
45.2883	540.75
45.3028	493.42
45.3172	510.77
45.3316	525.01
45.3461	522.81
45.3605	507.31
45.3750	506.88
45.3894	473.24
45.4038	483.75
45.4183	465.58
45.4327	506.47
45.4472	488.16
45.4616	476.86
45.4760	468.37
45.4905	494.48
45.5049	470.75
45.5194	481.63
45.5338	498.14
45.5482	508.57
45.5627	503.76
45.5771	487.46
45.5916	493.97
45.6060	511.07
45.6204	492.20
45.6349	525.99
45.6493	512.42
45.6638	511.08
45.6782	511.83
45.6926	503.39
45.7071	533.00
45.7215	501.95
45.7360	495.70
45.7504	542.82
45.7648	510.67
45.7793	508.70
45.7937	490.01
45.8082	502.96
45.8226	473.68
45.8370	488.54
45.8515	479.62
45.8659	479.90
45.8804	484.03
45.8948	484.75
45.9092	484.69
45.9237	519.48
45.9381	502.34
45.9526	489.58
45.9670	529.87
45.9814	499.34
45.9959	518.52
46.0103	535.30
46.0248	542.57
46.0392	473.45
46.0536	471.59
46.0681	516.21
46.0825	506.80
46.0970	495.31
46.1114	496.50
46.1258	509.34
46.1403	495.45
46.1547	474.67
46.1692	528.61
46.1836	486.48
46.1980	515.20
46.2125	495.79
46.2269	475.24
46.2414	521.43
46.2558	519.77
46.2702	481.91
46.2847	506.79
46.2991	497.06
46.3136	473.40
46.3280	493.31
46.3424	502.47
46.3569	479.11
46.3713	485.48
46.3858	509.98
46.4002	485.14
46.4146	496.26
46.4291	529.10
46.4435	514.86
46.4580	509.97
46.4724	525.11
46.4868	535.87
46.5013	505.54
46.5157	474.52
46.5302	502.66
46.5446	504.06
46.5590	486.78
46.5735	501.90
46.5879	518.08
46.6024	511.91
46.6168	493.93
46.6312	486.32
46.6457	492.32
46.6601	510.87
46.6746	501.72
46.6890	503.20
46.7034	522.64
46.7179	525.32
46.7323	493.07
46.7468	508.70
46.7612	503.36
46.7756	516.71
46.7901	507.33
46.8045	467.89
46.8190	495.08
46.8334	487.77
46.8478	461.75
46.8623	479.20
46.8767	513.55
46.8912	508.63
46.9056	507.47
46.9200	480.14
46.9345	492.54
46.9489	481.41
46.9634	470.53
46.9778	480.45
46.9922	522.33
47.0067	526.32
47.0211	501.71
47.0356	497.93
47.0500	499.34
47.0644	552.86
47.0789	534.06
47.0933	508.68
47.1078	491.84
47.1222	528.45
47.1366	506.13
47.1511	507.84
47.1655	541.52
47.1800	509.68
47.1944	510.47
47.2088	536.46
47.2233	501.61
47.2377	497.20
47.2522	493.74
47.2666	508.75
47.2810	500.56
47.2955	487.20
47.3099	470.94
47.3244	522.35
47.3388	528.88
47.3532	516.15
47.3677	491.20
47.3821	492.24
47.3966	488.31
47.4110	478.79
47.4254	516.69
47.4399	522.94
47.4543	496.91
47.4688	503.17
47.4832	490.34
47.4976	522.67
47.5121	543.29
47.5265	535.61
47.5410	505.56
47.5554	504.32
47.5698	522.24
47.5843	499.51
47.5987	498.13
47.6132	462.74
47.6276	491.08
47.6420	509.76
47.6565	481.26
47.6709	477.78
47.6854	482.46
47.6998	515.64
47.7142	505.26
47.7287	488.52
47.7431	484.90
47.7576	488.61
47.7720	492.30
47.7864	540.33
47.8009	536.95
47.8153	512.73
47.8298	527.30
47.8442	492.30
47.8586	529.64
47.8731	547.21
47.8875	487.71
47.9020	515.04
47.9164	507.39
47.9308	542.03
47.9453	500.28
47.9597	498.55
47.9742	506.40
47.9886	496.42
48.0030	510.85
48.0175	493.60
48.0319	481.46
48.0464	526.64
48.0608	511.55
48.0752	524.28
48.0897	511.62
48.1041	515.87
48.1186	536.27
48.1330	530.86
48.1474	494.51
48.1619	511.02
48.1763	495.50
48.1908	506.15
48.2052	498.55
48.2196	489.80
48.2341	495.32
48.2485	515.97
48.2630	514.95
48.2774	529.88
48.2918	503.87
48.3063	532.66
48.3207	513.39
48.3352	515.41
48.3496	505.73
48.3640	509.21
48.3785	508.04
48.3929	494.11
48.4074	490.02
48.4218	549.06
48.4362	532.98
48.4507	484.52
48.4651	496.41
48.4796	502.99
48.4940	514.15
48.5084	525.50
48.5229	495.54
48.5373	518.45
48.5518	515.81
48.5662	535.20
48.5806	529.94
48.5951	521.90
48.6095	548.34
48.6240	486.00
48.6384	512.19
48.6528	509.98
48.6673	531.80
48.6817	523.71
48.6962	544.40
48.7106	544.64
48.7250	539.75
48.7395	511.38
48.7539	521.31
48.7684	510.39
48.7828	505.92
48.7972	519.10
48.8117	571.65
48.8261	594.58
48.8406	577.42
48.8550	523.28
48.8694	540.90
48.8839	562.29
48.8983	527.40
48.9128	522.86
48.9272	531.82
48.9416	579.90
48.9561	563.45
48.9705	539.46
48.9850	584.95
48.9994	540.10
49.0139	592.12
49.0283	597.75
49.0427	621.47
49.0572	645.94
49.0716	640.12
49.0861	655.84
49.1005	665.86
49.1149	707.15
49.1294	749.69
49.1438	760.27
49.1583	823.89
49.1727	905.03
49.1871	914.27
49.2016	955.30
49.2160	1030.41
49.2305	1147.98
49.2449	1261.42
49.2593	1316.07
49.2738	1454.05
49.2882	1506.48
49.3027	1602.97
49.3171	1670.17
49.3315	1767.36
49.3460	1818.22
49.3604	1788.34
49.3749	1827.29
49.3893	1779.70
49.4037	1740.06
49.4182	1794.55
49.4326	1812.13
49.4471	1651.65
49.4615	1598.15
49.4759	1606.89
49.4904	1481.78
49.5048	1370.80
49.5193	1319.53
49.5337	1267.39
49.5481	1167.55
49.5626	1180.36
49.5770	1099.17
49.5915	966.76
49.6059	924.67
49.6203	867.46
49.6348	828.88
49.6492	763.07
49.6637	726.52
49.6781	685.76
49.6925	726.10
49.7070	670.50
49.7214	659.91
49.7359	594.60
49.7503	638.62
49.7647	616.32
49.7792	608.97
49.7936	581.47
49.8081	575.49
49.8225	586.02
49.8369	563.75
49.8514	553.55
49.8658	558.01
49.8803	524.46
49.8947	566.84
49.9091	575.64
49.9236	552.02
49.9380	544.14
49.9525	554.80
49.9669	543.36
49.9813	518.60
49.9958	508.14
50.0102	524.72
50.0247	531.31
50.0391	548.90
50.0535	551.84
50.0680	530.79
50.0824	475.46
50.0969	514.64
50.1113	524.01
50.1257	521.91
50.1402	513.34
50.1546	542.66
50.1691	523.49
50.1835	517.79
50.1979	488.23
50.2124	520.30
50.2268	535.63
50.2413	543.69
50.2557	544.04
50.2701	483.16
50.2846	515.70
50.2990	539.69
50.3135	520.62
50.3279	520.03
50.3423	497.43
50.3568	508.77
50.3712	507.38
50.3857	511.00
50.4001	515.46
50.4145	518.03
50.4290	533.28
50.4434	510.28
50.4579	523.18
50.4723	534.77
50.4867	508.51
50.5012	520.16
50.5156	512.44
50.5301	527.99
50.5445	498.17
50.5589	529.14
50.5734	524.22
50.5878	515.06
50.6023	500.16
50.6167	503.59
50.6311	490.25
50.6456	511.15
50.6600	491.40
50.6745	493.75
50.6889	503.20
50.7033	500.88
50.7178	493.22
50.7322	508.14
50.7467	506.86
50.7611	495.50
50.7755	483.66
50.7900	491.19
50.8044	496.06
50.8189	500.21
50.8333	530.37
50.8477	518.18
50.8622	533.79
50.8766	504.48
50.8911	466.95
50.9055	495.89
50.9199	513.92
50.9344	501.98
50.9488	506.49
50.9633	493.29
50.9777	502.54
50.9921	508.26
51.0066	465.78
51.0210	479.73
51.0355	529.72
51.0499	500.84
51.0643	502.97
51.0788	515.70
51.0932	508.77
51.1077	519.53
51.1221	514.46
51.1365	507.61
51.1510	496.25
51.1654	510.20
51.1799	524.96
51.1943	507.86
51.2087	488.04
51.2232	500.21
51.2376	519.54
51.2521	536.63
51.2665	488.30
51.2809	510.44
51.2954	492.37
51.3098	516.83
51.3243	537.65
51.3387	513.52
51.3531	526.11
51.3676	512.50
51.3820	469.79
51.3965	497.02
51.4109	495.23
51.4253	547.34
51.4398	533.10
51.4542	522.15
51.4687	523.40
51.4831	522.48
51.4975	517.35
51.5120	509.09
51.5264	509.65
51.5409	537.74
51.5553	512.31
51.5697	511.05
51.5842	522.81
51.5986	532.07
51.6131	527.13
51.6275	515.47
51.6419	528.12
51.6564	505.77
51.6708	466.35
51.6853	484.80
51.6997	540.57
51.7141	489.45
51.7286	485.47
51.7430	484.01
51.7575	542.76
51.7719	517.32
51.7863	539.21
51.8008	518.66
51.8152	509.01
51.8297	498.23
51.8441	515.35
51.8585	526.53
51.8730	508.29
51.8874	496.05
51.9019	526.47
51.9163	521.07
51.9307	521.53
51.9452	546.48
51.9596	519.74
51.9741	493.67
51.9885	497.03
52.0029	485.84
52.0174	499.58
52.0318	499.51
52.0463	489.96
52.0607	530.26
52.0751	494.19
52.0896	475.38
52.1040	497.04
52.1185	506.29
52.1329	521.61
52.1473	471.63
52.1618	482.43
52.1762	514.04
52.1907	536.37
52.2051	538.97
52.2195	518.69
52.2340	514.40
52.2484	535.89
52.2629	482.56
52.2773	486.19
52.2917	475.20
52.3062	519.74
52.3206	562.97
52.3351	518.96
52.3495	498.50
52.3639	505.24
52.3784	488.72
52.3928	494.97
52.4073	528.99
52.4217	499.31
52.4361	504.04
52.4506	490.12
52.4650	537.75
52.4795	512.95
52.4939	520.98
52.5083	498.41
52.5228	497.43
52.5372	509.91
52.5517	527.82
52.5661	543.03
52.5805	512.26
52.5950	499.50
52.6094	510.56
52.6239	489.96
52.6383	525.72
52.6527	533.61
52.6672	543.97
52.6816	473.97
52.6961	454.93
52.7105	486.26
52.7250	505.08
52.7394	509.35
52.7538	486.58
52.7683	487.18
52.7827	488.88
52.7972	497.32
52.8116	512.60
52.8260	515.75
52.8405	486.97
52.8549	510.05
52.8694	503.30
52.8838	505.20
52.8982	537.26
52.9127	524.65
52.9271	548.71
52.9416	553.57
52.9560	496.22
52.9704	497.71
52.9849	480.17
52.9993	482.37
53.0138	523.73
53.0282	529.38
53.0426	531.01
53.0571	517.80
53.0715	510.25
53.0860	506.46
53.1004	494.48
53.1148	501.53
53.1293	504.65
53.1437	497.23
53.1582	519.36
53.1726	518.88
53.1870	486.99
53.2015	470.23
53.2159	492.62
53.2304	501.16
53.2448	528.08
53.2592	524.90
53.2737	528.19
53.2881	549.84
53.3026	508.04
53.3170	502.15
53.3314	517.51
53.3459	526.64
53.3603	531.23
53.3748	497.66
53.3892	476.73
53.4036	510.20
53.4181	522.42
53.4325	540.14
53.4470	513.18
53.4614	499.88
53.4758	530.78
53.4903	503.74
53.5047	504.49
53.5192	510.47
53.5336	481.34
53.5480	507.41
53.5625	540.63
53.5769	497.59
53.5914	479.91
53.6058	483.31
53.6202	518.46
53.6347	516.61
53.6491	494.46
53.6636	519.19
53.6780	501.38
53.6924	495.44
53.7069	504.85
53.7213	496.72
53.7358	526.43
53.7502	520.52
53.7646	556.04
53.7791	498.35
53.7935	495.18
53.8080	501.10
53.8224	548.18
53.8368	521.77
53.8513	521.43
53.8657	515.06
53.8802	540.63
53.8946	545.26
53.9090	498.27
53.9235	504.47
53.9379	501.82
53.9524	508.23
53.9668	481.09
53.9812	493.54
53.9957	526.23
54.0101	534.27
54.0246	507.26
54.0390	517.23
54.0534	546.82
54.0679	573.88
54.0823	527.31
54.0968	527.89
54.1112	540.05
54.1256	553.06
54.1401	545.20
54.1545	550.74
54.1690	576.61
54.1834	564.07
54.1978	597.59
54.2123	542.21
54.2267	586.76
54.2412	610.11
54.2556	618.35
54.2700	669.45
54.2845	669.00
54.2989	606.59
54.3134	603.74
54.3278	583.43
54.3422	610.79
54.3567	577.64
54.3711	579.93
54.3856	591.00
54.4000	576.15
54.4144	550.98
54.4289	616.76
54.4433	590.57
54.4578	564.14
54.4722	576.11
54.4866	562.96
54.5011	519.06
54.5155	518.61
54.5300	535.77
54.5444	530.60
54.5588	562.69
54.5733	568.75
54.5877	564.73
54.6022	540.56
54.6166	507.40
54.6310	534.16
54.6455	481.02
54.6599	520.89
54.6744	516.99
54.6888	493.91
54.7032	498.59
54.7177	540.24
54.7321	537.61
54.7466	509.75
54.7610	502.87
54.7754	517.58
54.7899	512.26
54.8043	521.22
54.8188	500.42
54.8332	513.95
54.8476	502.34
54.8621	533.55
54.8765	530.53
54.8910	538.80
54.9054	559.71
54.9198	562.92
54.9343	566.71
54.9487	493.49
54.9632	524.49
54.9776	543.91
54.9920	521.33
55.0065	518.88
55.0209	525.31
55.0354	502.17
55.0498	522.90
55.0642	524.65
55.0787	499.78
55.0931	517.70
55.1076	543.57
55.1220	558.18
55.1364	507.18
55.1509	489.27
55.1653	524.26
55.1798	535.29
55.1942	516.11
55.2086	541.21
55.2231	535.60
55.2375	515.93
55.2520	523.78
55.2664	491.58
55.2808	528.01
55.2953	484.91
55.3097	507.85
55.3242	479.89
55.3386	517.38
55.3530	507.85
55.3675	491.31
55.3819	524.48
55.3964	503.50
55.4108	510.92
55.4252	543.92
55.4397	561.13
55.4541	513.45
55.4686	515.88
55.4830	514.68
55.4974	518.03
55.5119	551.88
55.5263	513.35
55.5408	511.73
55.5552	544.71
55.5696	492.93
55.5841	522.03
55.5985	509.99
55.6130	495.63
55.6274	509.13
55.6418	491.68
55.6563	497.19
55.6707	511.81
55.6852	521.60
55.6996	501.41
55.7140	525.07
55.7285	501.10
55.7429	514.42
55.7574	529.03
55.7718	530.15
55.7862	538.57
55.8007	484.00
55.8151	524.50
55.8296	534.15
55.8440	523.20
55.8584	567.53
55.8729	536.65
55.8873	545.14
55.9018	499.57
55.9162	523.48
55.9306	541.76
55.9451	528.96
55.9595	508.81
55.9740	536.37
55.9884	530.13
56.0028	508.95
56.0173	510.86
56.0317	524.86
56.0462	527.67
56.0606	549.85
56.0750	528.61
56.0895	528.70
56.1039	533.09
56.1184	506.62
56.1328	519.56
56.1472	510.80
56.1617	512.44
56.1761	540.55
56.1906	525.26
56.2050	520.92
56.2194	526.87
56.2339	539.19
56.2483	503.62
56.2628	494.32
56.2772	534.17
56.2916	509.24
56.3061	509.94
56.3205	508.02
56.3350	487.92
56.3494	521.51
56.3639	516.96
56.3783	488.99
56.3927	477.75
56.4072	523.60
56.4216	520.46
56.4361	523.69
56.4505	513.63
56.4649	541.47
56.4794	534.59
56.4938	553.68
56.5083	505.98
56.5227	473.72
56.5371	527.54
56.5516	507.06
56.5660	521.44
56.5805	483.02
56.5949	518.38
56.6093	512.47
56.6238	546.50
56.6382	540.34
56.6527	547.43
56.6671	539.55
56.6815	490.15
56.6960	524.22
56.7104	514.41
56.7249	515.18
56.7393	516.89
56.7537	536.56
56.7682	534.57
56.7826	513.11
56.7971	517.88
56.8115	518.98
56.8259	543.78
56.8404	506.64
56.8548	502.93
56.8693	519.88
56.8837	544.54
56.8981	532.64
56.9126	493.42
56.9270	474.23
56.9415	539.46
56.9559	527.26
56.9703	548.64
56.9848	559.62
56.9992	540.99
57.0137	535.29
57.0281	534.03
57.0425	487.08
57.0570	498.90
57.0714	503.54
57.0859	528.79
57.1003	507.18
57.1147	504.83
57.1292	529.95
57.1436	520.04
57.1581	534.70
57.1725	488.43
57.1869	534.60
57.2014	525.06
57.2158	521.22
57.2303	517.45
57.2447	492.98
57.2591	501.56
57.2736	508.28
57.2880	524.78
57.3025	505.83
57.3169	496.55
57.3313	546.53
57.3458	536.25
57.3602	501.89
57.3747	499.94
57.3891	527.72
57.4035	537.40
57.4180	545.60
57.4324	567.96
57.4469	499.82
57.4613	494.36
57.4757	494.07
57.4902	513.89
57.5046	553.15
57.5191	527.54
57.5335	534.67
57.5479	536.75
57.5624	547.78
57.5768	536.20
57.5913	562.14
57.6057	560.93
57.6201	531.92
57.6346	564.52
57.6490	521.33
57.6635	500.99
57.6779	567.79
57.6923	539.37
57.7068	544.12
57.7212	531.98
57.7357	582.40
57.7501	567.30
57.7645	569.92
57.7790	601.09
57.7934	585.19
57.8079	630.36
57.8223	630.26
57.8367	694.15
57.8512	704.43
57.8656	720.11
57.8801	740.39
57.8945	773.25
57.9089	748.67
57.9234	698.63
57.9378	706.92
57.9523	628.73
57.9667	613.88
57.9811	605.73
57.9956	675.07
58.0100	666.11
58.0245	683.17
58.0389	689.94
58.0533	677.85
58.0678	649.57
58.0822	626.73
58.0967	602.65
58.1111	599.28
58.1255	582.63
58.1400	562.16
58.1544	554.65
58.1689	548.33
58.1833	559.48
58.1977	541.23
58.2122	587.78
58.2266	570.24
58.2411	537.36
58.2555	547.94
58.2699	526.95
58.2844	523.90
58.2988	523.19
58.3133	531.93
58.3277	551.05
58.3421	571.88
58.3566	574.04
58.3710	545.55
58.3855	537.23
58.3999	531.13
58.4143	501.23
58.4288	541.66
58.4432	524.17
58.4577	530.86
58.4721	540.07
58.4865	494.23
58.5010	487.26
58.5154	514.87
58.5299	540.02
58.5443	549.81
58.5587	533.44
58.5732	555.85
58.5876	540.29
58.6021	509.81
58.6165	513.03
58.6309	513.98
58.6454	535.82
58.6598	528.93
58.6743	530.52
58.6887	516.56
58.7031	536.50
58.7176	547.81
58.7320	554.62
58.7465	541.87
58.7609	540.51
58.7753	495.49
58.7898	510.32
58.8042	535.90
58.8187	539.72
58.8331	521.89
58.8475	533.87
58.8620	521.82
58.8764	548.39
58.8909	520.03
58.9053	560.66
58.9197	526.93
58.9342	515.21
58.9486	520.85
58.9631	520.86
58.9775	545.04
58.9919	564.48
59.0064	518.58
59.0208	545.51
59.0353	534.21
59.0497	503.93
59.0641	501.15
59.0786	522.80
59.0930	563.14
59.1075	563.16
59.1219	549.29
59.1363	549.75
59.1508	545.16
59.1652	558.08
59.1797	545.97
59.1941	521.43
59.2085	571.61
59.2230	565.92
59.2374	567.51
59.2519	548.68
59.2663	515.87
59.2807	569.10
59.2952	553.34
59.3096	525.25
59.3241	539.97
59.3385	562.19
59.3529	530.31
59.3674	517.67
59.3818	555.53
59.3963	541.03
59.4107	586.13
59.4251	596.14
59.4396	571.51
59.4540	549.74
59.4685	554.78
59.4829	532.27
59.4973	528.38
59.5118	547.28
59.5262	529.78
59.5407	565.85
59.5551	574.42
59.5695	561.09
59.5840	542.39
59.5984	530.04
59.6129	540.94
59.6273	552.96
59.6417	589.15
59.6562	533.72
59.6706	515.22
59.6851	508.00
59.6995	536.58
59.7139	550.84
59.7284	523.66
59.7428	539.21
59.7573	528.66
59.7717	529.97
59.7861	568.64
59.8006	560.16
59.8150	511.45
59.8295	551.75
59.8439	552.60
59.8583	569.28
59.8728	551.87
59.8872	537.92
59.9017	562.53
59.9161	554.30
59.9305	574.73
59.9450	570.48
59.9594	565.17
59.9739	550.92
59.9883	558.24
60.0027	539.92
60.0172	538.03
60.0316	553.60
60.0461	585.08
60.0605	551.24
60.0750	519.10
60.0894	572.43
60.1038	540.14
60.1183	532.15
60.1327	552.56
60.1472	536.04
60.1616	523.42
60.1760	521.81
60.1905	538.90
60.2049	512.58
60.2194	572.42
60.2338	541.75
60.2482	551.16
60.2627	522.28
60.2771	523.88
60.2916	542.08
60.3060	562.01
60.3204	548.70
60.3349	554.87
60.3493	517.36
60.3638	524.23
60.3782	519.50
60.3926	532.18
60.4071	520.66
60.4215	501.54
60.4360	548.60
60.4504	507.05
60.4648	555.47
60.4793	525.30
60.4937	551.95
60.5082	554.14
60.5226	535.98
60.5370	517.09
60.5515	529.92
60.5659	500.22
60.5804	536.69
60.5948	533.06
60.6092	527.64
60.6237	543.22
60.6381	561.40
60.6526	541.61
60.6670	539.53
60.6814	528.04
60.6959	531.14
60.7103	560.49
60.7248	545.11
60.7392	541.18
60.7536	533.71
60.7681	529.36
60.7825	525.06
60.7970	562.73
60.8114	545.53
60.8258	545.45
60.8403	540.29
60.8547	521.30
60.8692	533.90
60.8836	532.25
60.8980	555.15
60.9125	531.24
60.9269	516.65
60.9414	551.44
60.9558	490.76
60.9702	546.15
60.9847	532.17
60.9991	524.89
61.0136	537.97
61.0280	538.39
61.0424	541.65
61.0569	526.50
61.0713	564.02
61.0858	513.63
61.1002	507.06
61.1146	543.62
61.1291	543.89
61.1435	513.00
61.1580	531.57
61.1724	542.72
61.1868	549.52
61.2013	534.91
61.2157	559.29
61.2302	558.28
61.2446	517.93
61.2590	522.49
61.2735	535.95
61.2879	552.90
61.3024	504.34
61.3168	546.65
61.3312	561.80
61.3457	571.06
61.3601	546.68
61.3746	538.09
61.3890	548.01
61.4034	513.01
61.4179	540.69
61.4323	568.35
61.4468	575.58
61.4612	553.88
61.4756	562.70
61.4901	553.13
61.5045	569.35
61.5190	542.84
61.5334	524.02
61.5478	499.17
61.5623	568.93
61.5767	545.89
61.5912	551.26
61.6056	573.69
61.6200	549.14
61.6345	547.13
61.6489	559.38
61.6634	528.14
61.6778	512.45
61.6922	527.28
61.7067	537.87
61.7211	530.77
61.7356	523.49
61.7500	537.36
61.7644	537.86
61.7789	559.60
61.7933	564.79
61.8078	585.33
61.8222	561.30
61.8366	519.30
61.8511	555.62
61.8655	586.19
61.8800	523.52
61.8944	531.25
61.9088	549.74
61.9233	565.54
61.9377	517.75
61.9522	524.37
61.9666	531.88
61.9810	517.75
61.9955	489.64
62.0099	530.05
62.0244	513.72
62.0388	576.33
62.0532	523.78
62.0677	532.52
62.0821	547.15
62.0966	539.18
62.1110	550.66
62.1254	543.93
62.1399	538.05
62.1543	575.50
62.1688	611.27
62.1832	552.66
62.1976	550.82
62.2121	546.27
62.2265	573.48
62.2410	537.62
62.2554	522.78
62.2698	523.73
62.2843	559.00
62.2987	556.70
62.3132	532.65
62.3276	533.68
62.3420	571.46
62.3565	535.71
62.3709	535.35
62.3854	513.59
62.3998	555.32
62.4142	545.01
62.4287	546.25
62.4431	542.72
62.4576	555.91
62.4720	586.81
62.4864	569.41
62.5009	579.39
62.5153	600.91
62.5298	605.69
62.5442	544.07
62.5586	547.92
62.5731	534.54
62.5875	527.13
62.6020	552.67
62.6164	572.49
62.6308	525.82
62.6453	537.50
62.6597	558.42
62.6742	531.41
62.6886	556.80
62.7030	572.90
62.7175	562.78
62.7319	578.43
62.7464	589.70
62.7608	586.07
62.7752	569.23
62.7897	543.59
62.8041	540.97
62.8186	566.79
62.8330	566.05
62.8474	533.22
62.8619	551.67
62.8763	549.84
62.8908	548.05
62.9052	561.56
62.9196	561.38
62.9341	620.79
62.9485	593.88
62.9630	543.86
62.9774	576.91
62.9918	558.47
63.0063	537.78
63.0207	562.11
63.0352	548.73
63.0496	552.21
63.0640	554.57
63.0785	586.97
63.0929	592.68
63.1074	548.92
63.1218	568.50
63.1362	587.49
63.1507	547.21
63.1651	564.69
63.1796	602.08
63.1940	572.82
63.2084	576.53
63.2229	557.38
63.2373	567.29
63.2518	586.90
63.2662	569.32
63.2806	615.42
63.2951	640.02
63.3095	605.08
63.3240	575.31
63.3384	596.49
63.3528	591.34
63.3673	599.86
63.3817	591.66
63.3962	571.88
63.4106	587.50
63.4250	642.21
63.4395	646.39
63.4539	645.78
63.4684	704.15
63.4828	737.57
63.4972	751.26
63.5117	817.63
63.5261	866.58
63.5406	898.92
63.5550	954.46
63.5694	969.40
63.5839	996.62
63.5983	961.36
63.6128	876.38
63.6272	805.73
63.6416	803.01
63.6561	772.07
63.6705	797.32
63.6850	775.40
63.6994	809.94
63.7138	808.40
63.7283	843.58
63.7427	821.75
63.7572	813.49
63.7716	793.13
63.7861	775.89
63.8005	735.37
63.8149	738.93
63.8294	696.21
63.8438	691.07
63.8583	660.12
63.8727	669.18
63.8871	611.95
63.9016	631.03
63.9160	652.44
63.9305	629.45
63.9449	616.15
63.9593	598.23
63.9738	636.06
63.9882	594.86
64.0027	617.56
64.0171	598.31
64.0315	622.40
64.0460	582.35
64.0604	603.03
64.0749	569.37
64.0893	578.20
64.1037	578.23
64.1182	581.06
64.1326	599.32
64.1471	612.90
64.1615	593.23
64.1759	605.35
64.1904	585.15
64.2048	581.35
64.2193	576.19
64.2337	622.04
64.2481	581.18
64.2626	609.23
64.2770	586.59
64.2915	640.49
64.3059	614.08
64.3203	572.87
64.3348	627.00
64.3492	609.93
64.3637	612.27
64.3781	622.74
64.3925	587.97
64.4070	571.30
64.4214	631.98
64.4359	600.12
64.4503	596.03
64.4647	607.83
64.4792	670.05
64.4936	656.89
64.5081	600.76
64.5225	609.88
64.5369	612.30
64.5514	624.56
64.5658	623.21
64.5803	590.39
64.5947	596.68
64.6091	620.13
64.6236	621.23
64.6380	659.43
64.6525	675.72
64.6669	658.72
64.6813	658.10
64.6958	663.75
64.7102	695.16
64.7247	691.85
64.7391	702.19
64.7535	725.79
64.7680	715.35
64.7824	688.55
64.7969	734.07
64.8113	683.33
64.8257	772.31
64.8402	800.02
64.8546	812.27
64.8691	813.98
64.8835	823.13
64.8979	831.11
64.9124	824.94
64.9268	888.24
64.9413	870.60
64.9557	920.36
64.9701	976.26
64.9846	996.39
64.9990	1075.30
65.0135	1241.11
65.0279	1402.89
65.0423	1648.08
65.0568	1985.10
65.0712	2563.84
65.0857	3276.94
65.1001	4252.53
65.1145	5777.95
65.1290	7614.48
65.1434	9167.93
65.1579	10669.44
65.1723	11551.77
65.1867	11132.11
65.2012	9721.65
65.2156	8162.67
65.2301	6615.76
65.2445	5184.33
65.2589	4353.66
65.2734	4109.01
65.2878	4290.60
65.3023	4841.05
65.3167	5689.52
65.3311	6503.90
65.3456	6910.28
65.3600	6761.60
65.3745	6362.66
65.3889	5408.99
65.4033	4484.16
65.4178	3498.61
65.4322	2717.67
65.4467	2073.97
65.4611	1652.97
65.4755	1459.14
65.4900	1342.68
65.5044	1101.49
65.5189	1079.08
65.5333	1003.05
65.5477	954.95
65.5622	871.07
65.5766	846.79
65.5911	835.16
65.6055	776.67
65.6199	801.74
65.6344	778.20
65.6488	731.35
65.6633	744.38
65.6777	694.05
65.6921	684.65
65.7066	721.92
65.7210	703.07
65.7355	688.20
65.7499	676.22
65.7643	681.37
65.7788	682.31
65.7932	658.32
65.8077	683.82
65.8221	642.72
65.8365	653.09
65.8510	633.02
65.8654	657.41
65.8799	615.62
65.8943	609.52
65.9087	627.72
65.9232	635.19
65.9376	612.56
65.9521	649.28
65.9665	649.91
65.9809	645.21
65.9954	625.02
66.0098	601.25
66.0243	567.85
66.0387	594.91
66.0531	610.59
66.0676	631.39
66.0820	598.90
66.0965	633.41
66.1109	631.24
66.1253	613.95
66.1398	617.95
66.1542	595.03
66.1687	646.16
66.1831	609.91
66.1975	596.36
66.2120	621.38
66.2264	603.50
66.2409	603.42
66.2553	608.82
66.2697	597.81
66.2842	616.19
66.2986	617.90
66.3131	631.22
66.3275	608.16
66.3419	637.26
66.3564	620.46
66.3708	581.72
66.3853	572.78
66.3997	596.43
66.4141	602.92
66.4286	623.45
66.4430	615.51
66.4575	598.00
66.4719	593.51
66.4863	628.32
66.5008	584.62
66.5152	584.00
66.5297	604.44
66.5441	630.35
66.5585	594.61
66.5730	562.55
66.5874	622.41
66.6019	585.01
66.6163	578.80
66.6307	576.87
66.6452	588.40
66.6596	567.23
66.6741	559.68
66.6885	577.96
66.7029	618.87
66.7174	644.98
66.7318	579.86
66.7463	580.77
66.7607	576.63
66.7751	595.15
66.7896	549.41
66.8040	567.41
66.8185	605.74
66.8329	599.66
66.8473	598.64
66.8618	609.12
66.8762	585.41
66.8907	578.40
66.9051	597.62
66.9195	592.32
66.9340	576.06
66.9484	552.72
66.9629	560.33
66.9773	600.23
66.9917	616.16
67.0062	608.12
67.0206	573.46
67.0351	557.63
67.0495	590.96
67.0639	593.33
67.0784	581.89
67.0928	589.28
67.1073	572.40
67.1217	605.67
67.1361	582.70
67.1506	541.83
67.1650	542.08
67.1795	582.28
67.1939	546.23
67.2083	555.21
67.2228	563.37
67.2372	570.18
67.2517	565.48
67.2661	533.62
67.2805	548.45
67.2950	560.22
67.3094	584.83
67.3239	584.91
67.3383	548.64
67.3527	564.87
67.3672	556.62
67.3816	560.89
67.3961	559.49
67.4105	568.51
67.4250	604.40
67.4394	591.09
67.4538	574.89
67.4683	557.56
67.4827	567.32
67.4972	581.57
67.5116	583.66
67.5260	611.51
67.5405	582.96
67.5549	595.86
67.5694	578.05
67.5838	559.21
67.5982	592.83
67.6127	574.39
67.6271	558.74
67.6416	574.81
67.6560	562.34
67.6704	546.89
67.6849	574.71
67.6993	561.71
67.7138	586.55
67.7282	574.94
67.7426	567.52
67.7571	582.80
67.7715	582.17
67.7860	567.62
67.8004	572.84
67.8148	580.45
67.8293	586.30
67.8437	554.30
67.8582	588.54
67.8726	556.49
67.8870	579.49
67.9015	581.48
67.9159	584.49
67.9304	553.64
67.9448	543.46
67.9592	577.33
67.9737	565.97
67.9881	574.84
68.0026	576.03
68.0170	603.37
68.0314	580.43
68.0459	559.93
68.0603	582.76
68.0748	592.23
68.0892	608.38
68.1036	571.80
68.1181	572.64
68.1325	562.75
68.1470	590.28
68.1614	533.89
68.1758	528.88
68.1903	541.69
68.2047	562.97
68.2192	573.64
68.2336	580.41
68.2480	570.14
68.2625	538.94
68.2769	555.79
68.2914	575.90
68.3058	580.25
68.3202	595.33
68.3347	563.75
68.3491	559.59
68.3636	575.70
68.3780	599.96
68.3924	614.52
68.4069	574.06
68.4213	562.90
68.4358	572.64
68.4502	600.60
68.4646	592.75
68.4791	564.83
68.4935	566.67
68.5080	548.40
68.5224	558.47
68.5368	563.62
68.5513	528.76
68.5657	556.52
68.5802	591.31
68.5946	553.96
68.6090	568.38
68.6235	528.38
68.6379	598.50
68.6524	558.83
68.6668	568.75
68.6812	578.56
68.6957	555.96
68.7101	584.76
68.7246	588.85
68.7390	570.39
68.7534	585.98
68.7679	535.79
68.7823	591.72
68.7968	609.19
68.8112	575.56
68.8256	570.49
68.8401	591.19
68.8545	565.88
68.8690	539.74
68.8834	558.18
68.8978	567.92
68.9123	594.48
68.9267	567.07
68.9412	577.47
68.9556	577.97
68.9700	563.03
68.9845	566.85
68.9989	567.69
69.0134	564.71
69.0278	616.78
69.0422	604.24
69.0567	579.11
69.0711	535.96
69.0856	551.30
69.1000	567.93
69.1144	549.76
69.1289	597.76
69.1433	530.44
69.1578	592.06
69.1722	521.74
69.1866	580.88
69.2011	511.15
69.2155	604.12
69.2300	615.18
69.2444	616.99
69.2588	555.46
69.2733	560.10
69.2877	638.76
69.3022	619.16
69.3166	575.21
69.3310	546.08
69.3455	564.79
69.3599	561.28
69.3744	552.46
69.3888	583.90
69.4032	597.03
69.4177	560.86
69.4321	561.17
69.4466	547.13
69.4610	522.08
69.4754	611.31
69.4899	617.68
69.5043	608.67
69.5188	583.89
69.5332	610.24
69.5476	583.59
69.5621	549.37
69.5765	551.61
69.5910	569.41
69.6054	583.07
69.6198	573.41
69.6343	624.93
69.6487	627.55
69.6632	558.90
69.6776	529.02
69.6920	537.91
69.7065	597.59
69.7209	612.42
69.7354	538.53
69.7498	567.54
69.7642	544.20
69.7787	542.18
69.7931	548.53
69.8076	585.91
69.8220	571.76
69.8364	584.36
69.8509	548.72
69.8653	540.95
69.8798	550.28
69.8942	573.14
69.9086	577.64
69.9231	582.88
69.9375	561.12
69.9520	544.20
69.9664	510.98
69.9808	599.30
69.9953	583.16
70.0097	585.06
70.0242	540.12
70.0386	553.45
70.0530	572.77
70.0675	580.69
70.0819	583.60
70.0964	564.00
70.1108	584.17
70.1252	556.85
70.1397	560.87
70.1541	547.71
70.1686	583.13
70.1830	536.17
70.1974	563.68
70.2119	593.48
70.2263	586.23
70.2408	620.59
70.2552	557.62
70.2696	514.40
70.2841	555.83
70.2985	590.00
70.3130	585.31
70.3274	546.87
70.3418	590.12
70.3563	582.28
70.3707	591.47
70.3852	575.90
70.3996	577.06
70.4140	556.77
70.4285	580.45
70.4429	557.77
70.4574	545.48
70.4718	545.22
70.4862	584.89
70.5007	543.10
70.5151	543.12
70.5296	544.37
70.5440	536.16
70.5584	543.58
70.5729	557.01
70.5873	595.48
70.6018	567.48
70.6162	575.39
70.6306	599.88
70.6451	602.66
70.6595	495.05
70.6740	529.62
70.6884	534.29
70.7028	570.54
70.7173	604.32
70.7317	566.89
70.7462	574.08
70.7606	505.10
70.7750	598.94
70.7895	569.88
70.8039	584.88
70.8184	590.19
70.8328	591.38
70.8472	580.47
70.8617	536.16
70.8761	551.01
70.8906	553.75
70.9050	576.86
70.9194	585.96
70.9339	563.66
70.9483	596.60
70.9628	607.94
70.9772	543.16
70.9916	535.68
71.0061	572.26
71.0205	553.27
71.0350	536.11
71.0494	553.65
71.0638	609.11
71.0783	580.26
71.0927	593.97
71.1072	567.81
71.1216	540.05
71.1361	517.91
71.1505	562.22
71.1649	608.39
71.1794	624.32
71.1938	576.71
71.2083	582.45
71.2227	559.65
71.2371	534.36
71.2516	578.97
71.2660	621.52
71.2805	605.95
71.2949	560.75
71.3093	504.94
71.3238	488.40
71.3382	544.31
71.3527	557.52
71.3671	565.56
71.3815	528.97
71.3960	518.50
71.4104	504.19
71.4249	529.13
71.4393	572.46
71.4537	566.61
71.4682	596.94
71.4826	539.48
71.4971	531.18
71.5115	552.77
71.5259	559.91
71.5404	557.65
71.5548	584.86
71.5693	589.21
71.5837	580.97
71.5981	549.79
71.6126	530.19
71.6270	551.64
71.6415	584.30
71.6559	610.41
71.6703	628.36
71.6848	617.43
71.6992	624.69
71.7137	601.81
71.7281	588.10
71.7425	574.36
71.7570	626.70
71.7714	593.14
71.7859	590.08
71.8003	599.18
71.8147	606.29
71.8292	618.31
71.8436	618.36
71.8581	564.24
71.8725	591.60
71.8869	571.22
71.9014	530.86
71.9158	545.59
71.9303	574.55
71.9447	633.72
71.9591	615.73
71.9736	503.41
71.9880	508.72
72.0025	551.24
72.0169	533.99
72.0313	575.87
72.0458	621.76
72.0602	639.34
72.0747	577.86
72.0891	547.02
72.1035	563.59
72.1180	556.31
72.1324	558.45
72.1469	601.69
72.1613	604.57
72.1757	586.75
72.1902	650.90
72.2046	629.14
72.2191	602.43
72.2335	617.81
72.2479	531.03
72.2624	562.92
72.2768	595.88
72.2913	537.81
72.3057	505.70
72.3201	517.30
72.3346	586.28
72.3490	664.72
72.3635	631.39
72.3779	510.80
72.3923	548.25
72.4068	582.92
72.4212	578.76
72.4357	604.11
72.4501	597.60
72.4645	596.47
72.4790	627.68
72.4934	585.09
72.5079	529.72
72.5223	523.96
72.5367	556.37
72.5512	536.10
72.5656	560.37
72.5801	585.52
72.5945	599.36
72.6089	544.18
72.6234	476.60
72.6378	564.29
72.6523	623.26
72.6667	581.58
72.6811	584.95
72.6956	614.83
72.7100	528.56
72.7245	498.35
72.7389	545.44
72.7533	581.03
72.7678	612.13
72.7822	602.19
72.7967	541.46
72.8111	550.37
72.8255	619.18
72.8400	654.54
72.8544	607.39
72.8689	536.13
72.8833	520.49